DTS Sentinel unit serial number:	SN410029Multiplexer serial number:	ORYXHardware model number:	OX2-SRSoftware version number:	ORYX F/W v4,00 Oryx Data Collector v3.7.2.0data status	okinstallation	B6 Nyhavnadifferential loss correction	single-endedforward channel	channel 2reverse channel	N/Adate	2023/12/10time	22:20:08forward acquisition time	300,00reverse acquisition time	0,00gamma	499,1914k internal	0,3123k external	0,3123temperature offset calibration	1,0000default loss term (dB/km)	0,3820temperature slope calibration	1,0000multiplexer offset coefficient	1,0000multiplexer slope coefficient	1,0000fibre end	0,00T internal ref (°C)	22,36T ext. ref 1 (°C)	6,11T ext. ref 2 (°C)	6,11length (m)	temperature (°C)	Stokes	anti-Stokes-744,400	-200,000	-0,023	0,108
-743,385	53,085	-0,091	0,065
-742,371	51,794	0,100	0,071
-741,356	800,000	-0,116	0,286
-740,342	-117,211	0,041	-0,005
-739,327	-161,098	-0,320	0,012
-738,312	-116,299	-0,033	-0,005
-737,298	-1,617	-0,290	0,152
-736,283	800,000	0,023	0,075
-735,269	-50,726	-0,243	0,085
-734,254	-200,000	-0,033	-0,111
-733,239	-47,693	-0,321	-0,115
-732,225	-141,845	0,065	0,005
-731,210	800,000	-0,069	0,151
-730,196	-105,813	-0,074	-0,012
-729,181	-146,933	-0,070	-0,004
-728,167	405,677	0,038	-0,060
-727,152	-79,702	-0,109	0,027
-726,137	-65,716	-0,087	-0,026
-725,123	-105,991	-0,165	0,027
-724,108	-200,000	-0,015	-0,079
-723,094	-200,000	0,015	-0,072
-722,079	-200,000	0,024	-0,133
-721,064	124,297	-0,117	-0,110
-720,050	-200,000	0,011	-0,152
-719,035	-200,000	-0,001	-0,122
-718,021	289,917	-0,128	-0,174
-717,006	-149,128	-0,089	0,005
-715,991	-121,222	-0,053	-0,007
-714,977	783,797	-0,016	-0,034
-713,962	66,870	0,100	0,075
-712,948	-48,117	-0,115	-0,041
-711,933	-73,529	-0,076	-0,020
-710,918	93,721	-0,099	0,083
-709,904	-200,000	-0,017	-0,102
-708,889	-56,780	-0,063	0,021
-707,875	244,715	-0,035	0,044
-706,860	126,418	0,028	0,027
-705,845	-200,000	-0,008	-0,036
-704,831	596,103	0,043	0,080
-703,816	-200,000	-0,002	-0,068
-702,802	-130,616	-0,120	0,012
-701,787	26,527	-0,157	-0,098
-700,772	104,175	-0,081	-0,071
-699,758	800,000	0,032	-0,080
-698,743	28,884	-0,096	0,060
-697,729	531,291	-0,086	0,152
-696,714	98,372	0,064	0,055
-695,699	-64,435	-0,097	-0,029
-694,685	-110,968	-0,064	0,010
-693,670	-200,000	0,030	0,105
-692,656	-93,950	-0,104	0,021
-691,641	114,191	0,070	0,064
-690,627	-200,000	0,010	0,062
-689,612	-113,661	-0,091	-0,013
-688,597	-200,000	0,008	0,039
-687,583	-200,000	0,015	-0,211
-686,568	-200,000	-0,007	0,042
-685,554	-200,000	-0,009	-0,088
-684,539	742,921	0,028	0,055
-683,524	-90,947	0,020	0,004
-682,510	455,451	-0,022	0,036
-681,495	221,992	-0,081	0,097
-680,481	7,680	-0,130	0,072
-679,466	44,199	0,032	0,022
-678,451	60,078	0,075	0,055
-677,437	609,009	-0,036	0,068
-676,422	-59,593	0,070	0,022
-675,408	-200,000	-0,012	-0,073
-674,393	181,114	-0,107	0,117
-673,378	-83,797	-0,138	-0,032
-672,364	34,976	-0,046	-0,030
-671,349	417,453	-0,045	-0,072
-670,335	64,142	0,116	0,087
-669,320	81,766	-0,063	0,051
-668,305	-13,998	0,044	0,021
-667,291	174,085	-0,111	-0,119
-666,276	-14,537	-0,107	0,051
-665,262	88,508	-0,130	0,107
-664,247	-43,281	-0,120	0,045
-663,232	191,358	-0,057	-0,064
-662,218	486,638	-0,039	-0,067
-661,203	-40,866	-0,105	0,040
-660,189	-101,258	0,066	-0,012
-659,174	31,086	-0,134	-0,085
-658,159	-140,504	-0,113	-0,009
-657,145	-1,683	0,061	0,032
-656,130	-200,000	-0,005	-0,066
-655,116	-200,000	-0,024	0,093
-654,101	-200,000	0,013	0,085
-653,086	-59,696	0,118	-0,037
-652,072	-200,000	-0,003	0,110
-651,057	314,363	-0,054	-0,076
-650,043	800,000	-0,044	-0,118
-649,028	408,347	-0,019	0,029
-648,014	48,490	-0,009	0,006
-646,999	-200,000	-0,006	0,069
-645,984	154,777	0,091	0,093
-644,970	142,089	-0,017	-0,017
-643,955	373,957	-0,105	-0,159
-642,941	-200,000	0,025	-0,113
-641,926	800,000	0,016	-0,051
-640,911	-200,000	-0,025	0,165
-639,897	11,799	0,017	0,009
-638,882	263,078	-0,074	-0,096
-637,868	544,413	0,035	-0,062
-636,853	21,533	-0,142	-0,085
-635,838	195,255	-0,067	0,075
-634,824	-200,000	0,001	0,002
-633,809	245,601	0,118	-0,147
-632,795	47,228	0,020	0,014
-631,780	-200,000	0,018	0,127
-630,765	-200,000	0,011	0,064
-629,751	117,439	-0,123	0,112
-628,736	-49,291	-0,144	-0,051
-627,722	-14,923	0,071	-0,034
-626,707	-35,027	-0,056	0,023
-625,692	13,249	-0,069	0,040
-624,678	-193,384	-0,056	0,000
-623,663	-77,374	-0,080	-0,021
-622,649	-200,000	0,038	-0,134
-621,634	220,875	-0,026	0,031
-620,619	135,607	-0,010	-0,010
-619,605	-147,694	0,215	0,013
-618,590	19,496	-0,094	0,056
-617,576	800,000	0,011	-0,033
-616,561	-91,691	-0,077	-0,016
-615,546	343,253	0,041	-0,060
-614,532	-9,423	-0,028	-0,014
-613,517	-118,715	-0,068	-0,009
-612,503	-63,375	-0,046	-0,014
-611,488	-200,000	-0,028	-0,111
-610,474	185,922	0,117	0,129
-609,459	-33,207	0,033	0,013
-608,444	474,043	0,032	-0,054
-607,430	-89,889	-0,069	-0,015
-606,415	581,199	0,046	-0,084
-605,401	177,795	0,090	-0,097
-604,386	-200,000	-0,017	0,095
-603,371	302,358	-0,026	0,036
-602,357	13,209	0,145	0,083
-601,342	-200,000	-0,003	0,103
-600,328	37,860	0,085	-0,056
-599,313	151,092	-0,098	-0,099
-598,298	472,784	0,056	-0,094
-597,284	-200,000	0,011	0,107
-596,269	-110,195	0,099	0,015
-595,255	-39,522	-0,141	0,055
-594,240	14,226	-0,132	0,076
-593,225	-200,000	-0,000	0,024
-592,211	-200,000	-0,002	-0,149
-591,196	152,757	-0,058	-0,059
-590,182	-200,000	-0,001	0,112
-589,167	800,000	0,049	-0,114
-588,152	-121,036	-0,143	0,018
-587,138	-63,796	-0,089	-0,027
-586,123	-36,439	-0,119	-0,047
-585,109	-117,808	-0,036	-0,005
-584,094	246,474	-0,079	0,098
-583,079	800,000	0,061	-0,148
-582,065	-200,000	-0,027	0,105
-581,050	800,000	0,006	0,016
-580,036	-149,583	-0,045	-0,003
-579,021	-27,073	-0,106	-0,046
-578,006	177,687	0,099	-0,107
-576,992	800,000	0,013	0,038
-575,977	-200,000	0,005	-0,024
-574,963	80,599	0,100	-0,080
-573,948	254,884	-0,005	-0,006
-572,934	-14,565	-0,154	0,073
-571,919	28,739	-0,121	-0,076
-570,904	-127,358	-0,023	-0,002
-569,890	-129,206	-0,068	0,007
-568,875	124,882	0,053	0,050
-567,861	-186,083	-0,079	-0,001
-566,846	67,020	0,075	0,056
-565,831	27,799	0,048	-0,030
-564,817	243,683	-0,036	-0,045
-563,802	800,000	0,048	-0,150
-562,788	90,544	0,075	-0,062
-561,773	800,000	-0,014	-0,042
-560,758	64,219	0,090	-0,067
-559,744	800,000	0,035	-0,109
-558,729	-6,176	-0,072	-0,036
-557,715	800,000	0,030	-0,087
-556,700	800,000	0,043	-0,109
-555,685	-200,000	0,042	-0,156
-554,671	-103,810	0,031	-0,005
-553,656	-200,000	-0,048	0,181
-552,642	357,603	-0,003	-0,005
-551,627	-200,000	-0,005	0,025
-550,612	-200,000	0,018	-0,067
-549,598	-180,294	-0,052	0,001
-548,583	56,511	0,084	-0,060
-547,569	-49,188	-0,162	-0,057
-546,554	147,535	0,080	0,079
-545,539	345,496	-0,012	0,018
-544,525	148,308	-0,035	0,035
-543,510	-124,867	-0,075	0,008
-542,496	-139,328	-0,066	-0,005
-541,481	-126,345	0,110	0,012
-540,466	-200,000	0,019	0,069
-539,452	-61,722	0,036	-0,011
-538,437	-52,522	-0,156	0,053
-537,423	250,222	0,052	0,065
-536,408	800,000	-0,027	0,078
-535,393	184,329	-0,059	-0,065
-534,379	800,000	-0,022	-0,057
-533,364	132,551	-0,019	-0,018
-532,350	800,000	-0,022	0,070
-531,335	-200,000	-0,016	0,131
-530,321	-200,000	-0,005	0,032
-529,306	800,000	-0,035	-0,088
-528,291	45,489	0,032	0,022
-527,277	800,000	-0,042	-0,094
-526,262	630,978	-0,016	-0,031
-525,248	-200,000	0,025	0,156
-524,233	-200,000	0,009	0,039
-523,218	-200,000	0,000	0,047
-522,204	-159,041	-0,035	0,001
-521,189	-7,186	-0,058	0,029
-520,175	209,341	-0,038	0,045
-519,160	-200,000	0,025	-0,139
-518,145	-200,000	-0,004	-0,152
-517,131	239,158	0,089	0,110
-516,116	-200,000	-0,003	-0,097
-515,102	800,000	-0,035	0,095
-514,087	-21,684	-0,087	-0,039
-513,072	-200,000	-0,013	-0,051
-512,058	-200,000	0,017	-0,141
-511,043	192,117	0,042	0,047
-510,029	74,343	0,038	-0,029
-509,014	6,066	0,149	0,082
-507,999	245,784	-0,070	0,088
-506,985	182,639	0,106	0,116
-505,970	-126,029	0,069	-0,008
-504,956	-200,000	-0,002	-0,022
-503,941	-79,684	-0,059	-0,015
-502,926	-200,000	0,002	0,153
-501,912	-138,940	0,085	0,007
-500,897	319,811	-0,056	0,079
-499,883	-20,571	-0,138	0,062
-498,868	30,930	-0,086	0,054
-497,853	236,597	-0,077	-0,094
-496,839	-191,514	-0,093	0,001
-495,824	188,931	0,032	-0,035
-494,810	-200,000	-0,037	0,139
-493,795	554,918	0,054	0,097
-492,781	-200,000	0,041	-0,264
-491,766	-5,073	-0,034	0,017
-490,751	194,586	-0,071	-0,080
-489,737	10,318	-0,076	-0,043
-488,722	-152,740	0,026	0,001
-487,708	-12,045	0,044	0,021
-486,693	-150,582	0,192	-0,011
-485,678	-200,000	-0,006	-0,118
-484,664	184,776	0,020	-0,022
-483,649	19,030	0,042	0,025
-482,635	441,156	-0,040	-0,065
-481,620	-92,742	0,056	-0,011
-480,605	98,348	0,024	0,020
-479,591	-56,571	0,046	0,015
-478,576	-84,808	0,043	-0,010
-477,562	34,359	0,052	0,034
-476,547	-200,000	0,008	0,028
-475,532	-22,373	0,088	-0,039
-474,518	800,000	-0,031	-0,085
-473,503	382,444	0,016	-0,024
-472,489	185,658	-0,098	-0,107
-471,474	-200,000	0,001	-0,090
-470,459	522,752	0,044	-0,076
-469,445	800,000	-0,028	-0,087
-468,430	560,890	0,014	-0,025
-467,416	-77,201	0,147	-0,038
-466,401	800,000	0,055	0,123
-465,386	-200,000	0,011	0,072
-464,372	-7,054	-0,027	0,013
-463,357	-86,255	0,055	-0,012
-462,343	98,355	0,049	0,042
-461,328	32,465	-0,097	0,061
-460,313	-200,000	-0,017	-0,103
-459,299	800,000	0,035	-0,076
-458,284	-24,531	-0,091	-0,040
-457,270	-134,641	0,094	-0,008
-456,255	-200,000	0,001	0,097
-455,241	614,841	-0,093	-0,173
-454,226	-43,472	-0,087	0,032
-453,211	-28,477	-0,064	0,027
-452,197	521,916	0,065	0,113
-451,182	175,535	-0,046	0,049
-450,168	800,000	0,039	0,110
-449,153	-200,000	0,006	0,094
-448,138	-200,000	-0,009	0,141
-447,124	-200,000	-0,005	0,137
-446,109	-107,978	0,093	0,015
-445,095	22,946	0,109	0,066
-444,080	-3,252	0,131	0,067
-443,065	183,988	0,053	0,058
-442,051	182,065	0,046	-0,050
-441,036	-200,000	-0,046	0,156
-440,022	-61,078	0,072	-0,022
-439,007	252,319	0,064	-0,081
-437,992	800,000	0,040	-0,088
-436,978	800,000	-0,016	0,033
-435,963	-200,000	-0,003	-0,069
-434,949	292,511	0,072	-0,097
-433,934	-200,000	-0,013	-0,211
-432,919	-176,386	-0,048	0,001
-431,905	177,195	-0,083	0,089
-430,890	140,151	-0,018	-0,018
-429,876	-38,498	0,043	-0,017
-428,861	-200,000	-0,002	0,114
-427,846	800,000	0,052	0,120
-426,832	156,743	-0,046	0,047
-425,817	-200,000	0,022	-0,165
-424,803	-14,687	-0,047	-0,022
-423,788	7,121	-0,080	0,044
-422,773	249,071	0,104	-0,130
-421,759	-200,000	-0,002	0,110
-420,744	-127,796	-0,137	-0,014
-419,730	-69,460	-0,109	0,030
-418,715	7,289	0,055	-0,030
-417,701	-87,960	-0,051	-0,011
-416,686	226,453	0,125	0,149
-415,671	-200,000	-0,006	0,107
-414,657	-200,000	-0,018	0,107
-413,642	800,000	-0,068	0,143
-412,628	266,079	0,006	0,008
-411,613	-102,342	-0,143	-0,025
-410,598	800,000	-0,047	0,149
-409,584	-88,647	-0,092	-0,020
-408,569	800,000	-0,075	-0,166
-407,555	305,413	-0,030	-0,041
-406,540	281,362	-0,015	0,020
-405,525	152,347	0,084	-0,084
-404,511	-11,089	-0,134	-0,065
-403,496	291,941	-0,020	-0,027
-402,482	-50,394	-0,087	0,030
-401,467	757,372	0,046	0,091
-400,452	-49,951	0,039	-0,014
-399,438	800,000	-0,020	-0,044
-398,423	243,229	-0,046	-0,057
-397,409	-200,000	0,039	-0,147
-396,394	-48,466	0,092	-0,032
-395,379	-33,526	0,106	0,043
-394,365	449,703	0,048	-0,078
-393,350	23,372	0,118	0,071
-392,336	-200,000	-0,011	0,120
-391,321	800,000	-0,031	0,092
-390,306	563,436	-0,074	0,132
-389,292	40,794	0,093	0,061
-388,277	-0,471	-0,119	-0,062
-387,263	800,000	0,016	0,051
-386,248	-200,000	-0,022	0,119
-385,233	-200,000	0,033	0,122
-384,219	800,000	0,027	-0,087
-383,204	-68,215	-0,199	0,056
-382,190	-200,000	-0,054	0,000
-381,175	-10,477	-0,122	0,059
-380,160	800,000	0,032	-0,098
-379,146	57,436	-0,106	0,076
-378,131	-200,000	-0,003	0,094
-377,117	13,982	-0,109	-0,062
-376,102	-200,000	0,022	-0,172
-375,088	559,140	-0,054	-0,096
-374,073	97,020	-0,092	-0,078
-373,058	-200,000	-0,018	0,075
-372,044	-200,000	0,013	0,092
-371,029	-134,861	0,145	0,013
-370,015	5,977	0,047	-0,026
-369,000	-39,170	0,011	-0,004
-367,985	152,857	0,095	-0,096
-366,971	-200,000	0,000	-0,077
-365,956	-109,107	-0,103	0,016
-364,942	-200,000	0,026	0,135
-363,927	142,783	0,033	0,032
-362,912	-200,000	0,019	0,076
-361,898	-200,000	0,012	0,132
-360,883	103,497	0,031	0,027
-359,869	-150,677	0,140	0,008
-358,854	800,000	-0,021	0,045
-357,839	-10,819	0,157	0,076
-356,825	-200,000	0,015	-0,088
-355,810	208,250	-0,173	-0,199
-354,796	143,081	0,020	-0,019
-353,781	253,916	0,058	0,073
-352,766	93,506	0,049	-0,041
-351,752	-200,000	-0,002	-0,051
-350,737	193,377	-0,027	-0,030
-349,723	-197,707	0,143	-0,001
-348,708	56,545	0,066	-0,047
-347,693	108,965	0,076	-0,067
-346,679	-200,000	-0,004	-0,131
-345,664	-200,000	0,002	0,032
-344,650	800,000	0,012	-0,032
-343,635	-34,546	0,058	-0,023
-342,620	-148,876	0,097	0,006
-341,606	-200,000	0,014	-0,070
-340,591	150,515	0,087	-0,086
-339,577	284,933	0,033	0,044
-338,562	-200,000	-0,029	0,250
-337,548	-85,845	0,029	-0,007
-336,533	-200,000	0,006	-0,105
-335,518	-200,000	-0,005	-0,038
-334,504	800,000	-0,030	0,064
-333,489	95,607	0,029	-0,024
-332,475	800,000	-0,034	-0,111
-331,460	-200,000	0,030	-0,104
-330,445	800,000	-0,038	-0,087
-329,431	-9,825	0,091	0,045
-328,416	425,381	0,045	-0,071
-327,402	161,806	-0,011	0,011
-326,387	-200,000	-0,005	-0,045
-325,372	-67,092	-0,095	-0,027
-324,358	295,900	0,040	0,054
-323,343	415,677	-0,075	-0,118
-322,329	-200,000	-0,034	-0,119
-321,314	91,849	0,082	0,068
-320,299	800,000	0,050	0,103
-319,285	-200,000	0,015	-0,106
-318,270	9,266	-0,099	-0,055
-317,256	-200,000	-0,000	0,005
-316,241	-124,211	-0,105	-0,012
-315,226	-83,984	-0,065	0,015
-314,212	800,000	0,033	0,081
-313,197	-78,737	0,054	0,013
-312,183	406,236	-0,031	0,049
-311,168	-200,000	-0,001	0,055
-310,153	-48,760	-0,062	0,022
-309,139	-31,032	0,100	0,041
-308,124	599,095	-0,019	-0,034
-307,110	12,267	0,153	0,086
-306,095	35,759	0,114	0,073
-305,080	45,169	-0,104	-0,070
-304,066	52,356	0,111	-0,077
-303,051	-159,019	-0,124	-0,005
-302,037	14,395	0,038	-0,022
-301,022	800,000	-0,034	0,103
-300,008	-200,000	-0,012	0,054
-298,993	165,767	0,066	0,068
-297,978	306,792	-0,064	0,088
-296,964	-19,460	-0,098	-0,044
-295,949	343,842	-0,075	-0,107
-294,935	419,559	-0,040	0,064
-293,920	-90,293	-0,035	-0,007
-292,905	-82,788	0,049	-0,012
-291,891	176,817	-0,012	0,012
-290,876	800,000	-0,055	0,175
-289,862	71,887	0,085	-0,064
-288,847	800,000	-0,027	0,066
-287,832	619,512	0,024	-0,045
-286,818	-33,671	-0,027	-0,011
-285,803	41,106	0,077	-0,051
-284,789	-200,000	0,004	0,043
-283,774	69,861	0,208	0,157
-282,759	195,439	-0,093	0,104
-281,745	16,251	0,049	-0,028
-280,730	800,000	-0,051	0,113
-279,716	708,264	0,015	0,029
-278,701	-33,221	0,163	-0,066
-277,686	-11,603	-0,072	-0,034
-276,672	-200,000	-0,005	-0,086
-275,657	800,000	0,039	-0,089
-274,643	256,599	0,085	-0,107
-273,628	50,302	-0,052	0,036
-272,613	-16,042	-0,024	0,011
-271,599	88,582	-0,065	0,053
-270,584	7,507	0,030	-0,016
-269,570	800,000	-0,035	-0,112
-268,555	-185,442	-0,062	0,001
-267,540	370,525	0,080	-0,119
-266,526	206,523	-0,123	-0,140
-265,511	173,342	0,054	-0,057
-264,497	-200,000	0,000	0,095
-263,482	24,295	0,030	0,018
-262,467	-200,000	-0,034	0,201
-261,453	238,146	0,083	0,101
-260,438	454,207	0,056	-0,091
-259,424	359,038	0,068	-0,099
-258,409	20,135	0,038	-0,022
-257,395	-41,641	0,058	0,022
-256,380	800,000	0,035	0,078
-255,365	-200,000	-0,000	-0,022
-254,351	-5,950	-0,076	0,038
-253,336	-155,954	-0,083	0,004
-252,322	79,832	-0,026	0,020
-251,307	-41,192	0,059	-0,022
-250,292	361,374	-0,029	0,043
-249,278	553,151	0,017	0,030
-248,263	321,846	-0,060	0,083
-247,249	-200,000	-0,012	0,067
-246,234	-200,000	-0,015	0,135
-245,219	43,508	-0,099	0,066
-244,205	57,264	0,179	-0,127
-243,190	-99,106	0,127	-0,023
-242,176	-119,431	-0,072	0,009
-241,161	58,019	0,078	0,056
-240,146	-126,797	0,098	0,010
-239,132	-200,000	-0,000	-0,046
-238,117	538,708	-0,041	-0,072
-237,103	800,000	-0,052	-0,123
-236,088	745,289	0,042	-0,083
-235,073	-8,625	0,065	-0,032
-234,059	800,000	-0,006	0,018
-233,044	131,949	0,022	-0,021
-232,030	-200,000	-0,014	-0,055
-231,015	17,939	0,001	-0,001
-230,000	239,192	-0,058	-0,071
-228,986	800,000	-0,022	-0,046
-227,971	-63,503	0,066	-0,020
-226,957	4,264	0,099	-0,053
-225,942	-200,000	-0,003	-0,016
-224,927	22,127	0,007	0,004
-223,913	-91,319	0,117	0,024
-222,898	81,992	-0,079	-0,062
-221,884	104,253	0,031	0,026
-220,869	-132,410	0,027	0,003
-219,855	0,828	0,071	0,037
-218,840	1,440	-0,072	0,038
-217,825	-200,000	0,031	0,150
-216,811	-184,944	-0,104	-0,001
-215,796	-200,000	-0,014	-0,092
-214,782	308,040	-0,077	-0,105
-213,767	-48,017	-0,060	-0,021
-212,752	-112,409	-0,102	-0,015
-211,738	-43,925	0,052	-0,019
-210,723	60,327	-0,063	-0,045
-209,709	800,000	0,022	0,056
-208,694	-93,798	-0,060	0,012
-207,679	-18,763	0,062	-0,028
-206,665	-16,038	0,029	0,014
-205,650	-84,855	0,089	-0,020
-204,636	514,428	0,055	-0,095
-203,621	375,280	-0,050	0,075
-202,606	126,300	0,048	-0,045
-201,592	353,503	-0,072	-0,105
-200,577	800,000	0,058	0,171
-199,563	109,112	-0,046	-0,040
-198,548	31,489	0,080	0,050
-197,533	126,582	-0,066	0,061
-196,519	539,798	0,057	0,099
-195,504	-30,421	-0,063	0,026
-194,490	534,368	-0,065	-0,112
-193,475	-30,559	-0,099	-0,041
-192,460	-200,000	0,009	-0,046
-191,446	-200,000	0,017	0,174
-190,431	-28,537	0,063	0,026
-189,417	213,129	0,065	-0,076
-188,402	-37,853	-0,138	-0,053
-187,387	-200,000	0,020	0,078
-186,373	-145,599	-0,166	-0,011
-185,358	153,284	-0,076	-0,076
-184,344	362,099	0,037	-0,054
-183,329	-200,000	-0,006	0,057
-182,315	290,466	0,041	0,055
-181,300	-200,000	-0,005	0,093
-180,285	591,605	0,029	-0,053
-179,271	-200,000	-0,018	-0,069
-178,256	-143,370	-0,080	0,006
-177,242	-200,000	-0,001	0,026
-176,227	332,407	0,136	0,192
-175,212	-200,000	-0,018	0,095
-174,198	800,000	0,032	-0,073
-173,183	-199,111	-0,107	-0,000
-172,169	-200,000	0,031	0,127
-171,154	-48,812	0,102	-0,035
-170,139	85,122	0,040	-0,032
-169,125	118,934	0,051	0,046
-168,110	480,847	0,085	0,142
-167,096	-135,065	-0,040	-0,003
-166,081	376,454	-0,088	-0,131
-165,066	-200,000	0,014	-0,054
-164,052	151,533	-0,093	0,092
-163,037	215,059	-0,093	0,108
-162,023	-41,342	0,151	0,056
-161,008	-200,000	-0,009	0,087
-159,993	105,426	0,039	-0,033
-158,979	290,562	-0,014	0,018
-157,964	800,000	0,061	0,142
-156,950	800,000	0,044	-0,099
-155,935	-85,390	0,086	-0,019
-154,920	-200,000	-0,001	-0,018
-153,906	469,244	-0,035	-0,057
-152,891	208,082	0,045	0,052
-151,877	77,904	0,060	0,046
-150,862	800,000	-0,011	-0,029
-149,847	800,000	-0,032	-0,088
-148,833	-200,000	0,011	0,049
-147,818	77,470	0,090	0,070
-146,804	-137,569	-0,142	0,011
-145,789	141,876	0,082	-0,080
-144,775	189,362	-0,049	-0,054
-143,760	73,035	0,188	-0,143
-142,745	1,023	-0,134	-0,070
-141,731	800,000	0,035	0,093
-140,716	-200,000	0,040	-0,135
-139,702	-63,236	-0,084	0,025
-138,687	-117,414	-0,107	-0,014
-137,672	12,463	0,080	0,045
-136,658	-59,066	-0,101	-0,031
-135,643	57,657	0,027	-0,019
-134,629	775,213	-0,025	0,050
-133,614	-200,000	0,017	0,131
-132,599	401,189	0,010	0,015
-131,585	800,000	0,037	0,110
-130,570	-88,995	0,109	0,023
-129,556	-64,530	-0,075	-0,022
-128,541	800,000	-0,088	-0,217
-127,526	800,000	0,021	0,049
-126,512	34,886	-0,062	-0,039
-125,497	224,272	0,050	0,059
-124,483	255,503	0,087	0,109
-123,468	140,083	-0,129	0,124
-122,453	164,778	0,050	0,052
-121,439	347,947	-0,042	-0,061
-120,424	105,243	-0,092	0,079
-119,410	115,938	-0,115	0,102
