DTS Sentinel unit serial number:	SN410029Multiplexer serial number:	ORYXHardware model number:	OX2-SRSoftware version number:	ORYX F/W v4,00 Oryx Data Collector v3.7.2.0data status	okinstallation	B6 Nyhavnadifferential loss correction	single-endedforward channel	channel 2reverse channel	N/Adate	2023/12/10time	15:05:08forward acquisition time	300,00reverse acquisition time	0,00gamma	499,1914k internal	0,3122k external	0,3122temperature offset calibration	1,0000default loss term (dB/km)	0,3820temperature slope calibration	1,0000multiplexer offset coefficient	1,0000multiplexer slope coefficient	1,0000fibre end	0,00T internal ref (°C)	22,50T ext. ref 1 (°C)	5,96T ext. ref 2 (°C)	5,98length (m)	temperature (°C)	Stokes	anti-Stokes-744,400	-200,000	0,011	-0,075
-743,385	165,144	-0,182	0,192
-742,371	-200,000	0,037	-0,145
-741,356	800,000	-0,068	0,212
-740,342	-200,000	0,008	-0,097
-739,327	24,854	-0,180	0,111
-738,312	156,136	0,073	0,075
-737,298	-143,697	-0,256	0,018
-736,283	-200,000	0,019	-0,062
-735,269	-110,032	-0,186	0,029
-734,254	-200,000	0,019	-0,077
-733,239	-68,199	-0,311	-0,090
-732,225	342,283	0,081	0,119
-731,210	800,000	0,142	0,301
-730,196	-200,000	0,001	0,097
-729,181	123,689	-0,043	0,040
-728,167	-0,944	-0,101	-0,053
-727,152	121,696	0,067	0,062
-726,137	-200,000	-0,008	-0,036
-725,123	234,468	-0,070	-0,086
-724,108	31,583	-0,106	-0,067
-723,094	-200,000	-0,003	-0,073
-722,079	-186,283	-0,082	-0,001
-721,064	-112,678	0,120	-0,018
-720,050	-164,971	0,093	-0,003
-719,035	353,535	-0,023	-0,034
-718,021	-25,775	0,096	0,042
-717,006	-60,346	-0,138	-0,043
-715,991	162,856	-0,103	-0,108
-714,977	-200,000	-0,019	-0,115
-713,962	22,617	0,122	-0,074
-712,948	800,000	0,017	-0,047
-711,933	22,841	-0,075	0,046
-710,918	-145,869	-0,059	-0,004
-709,904	370,811	0,039	0,059
-708,889	528,639	-0,077	-0,137
-707,875	-130,481	-0,104	0,010
-706,860	400,419	-0,020	0,032
-705,845	-2,484	-0,178	-0,092
-704,831	800,000	0,038	0,123
-703,816	401,880	0,053	0,084
-702,802	228,960	-0,126	-0,154
-701,787	-92,879	-0,071	-0,015
-700,772	236,448	0,100	-0,123
-699,758	243,033	0,068	-0,085
-698,743	38,047	0,023	0,015
-697,729	597,664	-0,014	-0,026
-696,714	53,798	-0,157	0,112
-695,699	428,561	0,023	-0,037
-694,685	-38,910	-0,095	-0,037
-693,670	-85,500	-0,034	-0,008
-692,656	-200,000	-0,008	0,111
-691,641	264,249	-0,016	-0,021
-690,627	593,213	0,040	-0,073
-689,612	-200,000	-0,063	0,000
-688,597	157,335	-0,060	-0,062
-687,583	248,654	-0,077	-0,097
-686,568	-113,905	-0,029	-0,004
-685,554	-200,000	0,012	-0,055
-684,539	-48,628	-0,121	-0,043
-683,524	20,904	-0,057	0,034
-682,510	38,754	-0,062	0,041
-681,495	-200,000	-0,030	-0,125
-680,481	-200,000	-0,013	-0,103
-679,466	-54,701	-0,101	-0,034
-678,451	-200,000	-0,004	0,054
-677,437	-200,000	0,000	0,006
-676,422	106,788	0,025	0,022
-675,408	-200,000	0,038	0,159
-674,393	234,645	-0,062	-0,077
-673,378	800,000	-0,067	-0,163
-672,364	-20,256	-0,126	-0,057
-671,349	281,229	0,025	-0,033
-670,335	185,572	0,063	-0,070
-669,320	56,866	-0,012	0,009
-668,305	800,000	-0,028	0,077
-667,291	-7,422	-0,083	-0,041
-666,276	800,000	-0,006	0,018
-665,262	49,514	0,078	-0,055
-664,247	-81,128	-0,064	-0,016
-663,232	-62,175	-0,025	0,008
-662,218	13,409	0,143	-0,082
-661,203	438,336	0,028	-0,046
-660,189	-111,242	-0,103	-0,016
-659,174	-200,000	-0,006	-0,144
-658,159	-114,069	0,168	-0,024
-657,145	782,710	-0,024	0,050
-656,130	800,000	-0,023	0,062
-655,116	-105,416	0,162	0,027
-654,101	-165,552	0,030	-0,001
-653,086	121,739	-0,041	-0,038
-652,072	185,611	-0,093	-0,103
-651,057	-178,374	0,102	0,002
-650,043	762,072	-0,042	-0,085
-649,028	-118,303	-0,192	-0,025
-648,014	-200,000	-0,036	0,144
-646,999	273,195	0,044	0,058
-645,984	89,327	-0,048	-0,040
-644,970	800,000	-0,048	0,103
-643,955	800,000	0,012	0,032
-642,941	226,595	-0,017	-0,020
-641,926	-200,000	0,027	-0,121
-640,911	-6,241	0,067	0,034
-639,897	-163,225	-0,044	0,002
-638,882	308,733	-0,099	0,138
-637,868	44,919	0,060	0,041
-636,853	800,000	-0,004	0,012
-635,838	-200,000	0,007	0,095
-634,824	-66,108	0,030	0,009
-633,809	800,000	-0,048	0,151
-632,795	584,162	0,060	0,109
-631,780	333,449	-0,061	-0,088
-630,765	-200,000	-0,026	-0,168
-629,751	-114,407	-0,130	-0,018
-628,736	427,701	-0,034	-0,054
-627,722	253,832	0,031	-0,040
-626,707	-61,845	0,083	-0,026
-625,692	-200,000	-0,006	0,053
-624,678	144,001	-0,049	0,049
-623,663	-97,143	-0,062	0,012
-622,649	-200,000	-0,005	-0,079
-621,634	353,826	0,047	-0,070
-620,619	-76,684	-0,182	-0,047
-619,605	-200,000	-0,020	0,088
-618,590	222,741	0,041	0,049
-617,576	-42,994	-0,051	0,019
-616,561	51,896	0,054	0,038
-615,546	-200,000	0,007	0,090
-614,532	220,300	-0,051	-0,061
-613,517	64,083	-0,086	0,064
-612,503	11,897	-0,069	-0,039
-611,488	-104,713	-0,109	0,018
-610,474	57,864	-0,047	-0,034
-609,459	-119,547	0,155	-0,020
-608,444	6,025	0,078	-0,043
-607,430	-200,000	-0,001	-0,124
-606,415	219,327	-0,050	-0,060
-605,401	364,646	-0,004	-0,006
-604,386	43,027	0,125	-0,084
-603,371	-81,297	0,139	-0,034
-602,357	-200,000	0,007	0,071
-601,342	-200,000	-0,040	-0,146
-600,328	84,655	-0,098	-0,079
-599,313	13,154	0,055	-0,031
-598,298	-200,000	0,006	-0,034
-597,284	1,376	0,120	0,063
-596,269	431,254	0,054	0,087
-595,255	233,081	0,054	-0,066
-594,240	92,894	-0,022	-0,019
-593,225	-157,186	-0,124	-0,005
-592,211	166,879	0,019	0,021
-591,196	-200,000	-0,014	0,156
-590,182	-144,588	0,146	-0,010
-589,167	800,000	-0,043	0,138
-588,152	-200,000	-0,002	0,087
-587,138	490,283	-0,034	0,058
-586,123	-200,000	0,007	0,079
-585,109	-200,000	-0,001	0,039
-584,094	72,826	0,024	-0,018
-583,079	-25,972	0,076	0,033
-582,065	74,014	0,041	0,032
-581,050	-89,357	0,086	-0,019
-580,036	70,514	-0,048	-0,037
-579,021	71,013	-0,006	-0,004
-578,006	-93,049	-0,085	-0,017
-576,992	800,000	-0,070	0,145
-575,977	-200,000	0,008	0,033
-574,963	-200,000	0,028	0,096
-573,948	615,860	0,003	-0,005
-572,934	-33,001	-0,106	0,043
-571,919	168,800	-0,111	-0,117
-570,904	351,766	0,030	-0,045
-569,890	-200,000	-0,011	0,079
-568,875	-200,000	0,002	0,029
-567,861	-107,645	0,026	0,004
-566,846	-178,430	0,044	-0,001
-565,831	-136,700	-0,069	0,006
-564,817	300,971	0,131	-0,179
-563,802	800,000	-0,023	-0,052
-562,788	91,207	0,059	-0,049
-561,773	800,000	0,019	-0,056
-560,758	-76,917	0,101	0,026
-559,744	-200,000	0,016	0,091
-558,729	800,000	0,034	0,102
-557,715	598,007	-0,049	-0,090
-556,700	64,202	-0,091	-0,068
-555,685	526,909	0,041	-0,072
-554,671	576,436	0,059	0,106
-553,656	23,883	-0,012	0,007
-552,642	726,386	-0,044	0,088
-551,627	165,120	0,043	-0,045
-550,612	-200,000	0,028	-0,128
-549,598	85,896	-0,108	-0,088
-548,583	110,672	0,100	-0,089
-547,569	527,933	-0,087	-0,153
-546,554	216,873	0,008	0,009
-545,539	79,810	0,119	0,094
-544,525	310,478	0,034	0,047
-543,510	800,000	0,015	0,035
-542,496	283,474	0,060	0,080
-541,481	55,463	-0,087	-0,062
-540,466	800,000	0,051	-0,106
-539,452	800,000	-0,025	-0,070
-538,437	289,470	0,010	0,014
-537,423	-63,401	0,032	-0,010
-536,408	-200,000	-0,002	0,067
-535,393	-200,000	0,055	0,206
-534,379	283,792	-0,016	-0,022
-533,364	-115,108	-0,083	0,011
-532,350	-134,969	0,093	0,008
-531,335	-200,000	0,017	-0,083
-530,321	-82,235	-0,045	0,011
-529,306	466,103	-0,071	-0,118
-528,291	-29,146	-0,250	-0,106
-527,277	-42,405	-0,127	0,048
-526,262	120,667	-0,152	0,139
-525,248	-200,000	-0,016	-0,071
-524,233	-138,807	0,061	0,005
-523,218	800,000	-0,068	0,155
-522,204	-86,182	0,100	-0,023
-521,189	-94,014	0,108	0,022
-520,175	-162,084	0,112	-0,004
-519,160	176,271	-0,034	-0,036
-518,145	129,789	0,065	0,062
-517,131	209,971	0,061	-0,070
-516,116	349,470	0,083	0,121
-515,102	413,933	-0,054	-0,085
-514,087	0,927	-0,087	0,046
-513,072	-100,468	0,086	0,016
-512,058	-200,000	-0,006	-0,096
-511,043	-200,000	0,000	0,067
-510,029	-189,234	0,062	-0,001
-509,014	62,891	-0,103	-0,076
-507,999	-200,000	-0,002	0,056
-506,985	-200,000	-0,003	0,084
-505,970	455,197	0,051	0,084
-504,956	-98,234	0,155	0,029
-503,941	24,465	0,096	-0,059
-502,926	-82,834	0,061	-0,014
-501,912	168,974	0,058	0,061
-500,897	-200,000	0,006	0,020
-499,883	279,700	0,062	0,082
-498,868	58,321	-0,069	-0,050
-497,853	-200,000	0,006	-0,146
-496,839	-159,763	-0,176	-0,007
-495,824	225,823	0,100	-0,120
-494,810	50,171	-0,062	-0,043
-493,795	2,218	-0,079	-0,042
-492,781	227,059	0,076	-0,091
-491,766	800,000	0,067	-0,142
-490,751	370,455	0,068	-0,102
-489,737	-159,591	0,070	0,003
-488,722	800,000	-0,038	0,098
-487,708	73,288	-0,062	-0,048
-486,693	-168,702	0,142	0,004
-485,678	2,254	-0,039	0,021
-484,664	5,191	-0,087	-0,047
-483,649	542,464	-0,034	0,060
-482,635	475,130	0,038	-0,063
-481,620	800,000	0,063	0,134
-480,605	-200,000	0,012	0,080
-479,591	-200,000	0,042	0,198
-478,576	-200,000	-0,008	-0,037
-477,562	-177,729	-0,075	0,001
-476,547	70,207	-0,071	0,054
-475,532	-28,542	0,109	0,046
-474,518	800,000	-0,042	0,101
-473,503	-186,648	0,023	0,000
-472,489	337,017	0,003	0,004
-471,474	418,269	-0,066	-0,104
-470,459	525,180	0,076	0,133
-469,445	-70,311	-0,050	-0,014
-468,430	-200,000	-0,021	-0,130
-467,416	-200,000	-0,005	0,092
-466,401	187,520	-0,030	0,033
-465,386	-200,000	0,025	0,000
-464,372	-22,067	-0,013	0,006
-463,357	643,754	-0,028	-0,054
-462,343	249,560	-0,014	-0,017
-461,328	-200,000	-0,008	-0,083
-460,313	800,000	-0,042	-0,087
-459,299	60,733	-0,075	0,055
-458,284	-200,000	0,036	0,142
-457,270	391,055	-0,071	-0,109
-456,255	800,000	-0,049	0,133
-455,241	100,006	0,045	0,039
-454,226	-200,000	0,003	-0,115
-453,211	288,571	0,030	0,040
-452,197	200,765	0,090	0,102
-451,182	569,001	0,015	0,027
-450,168	-200,000	-0,021	0,151
-449,153	-200,000	0,014	-0,069
-448,138	144,641	-0,047	0,046
-447,124	162,115	-0,116	0,120
-446,109	271,348	-0,059	0,076
-445,095	-65,865	0,096	0,028
-444,080	48,574	-0,010	0,007
-443,065	-200,000	0,007	0,086
-442,051	-200,000	-0,020	-0,089
-441,036	234,692	0,074	-0,091
-440,022	-19,833	-0,078	-0,036
-439,007	98,510	0,052	-0,044
-437,992	-150,655	-0,029	-0,002
-436,978	28,713	-0,079	-0,049
-435,963	283,350	-0,014	0,018
-434,949	694,542	-0,070	0,137
-433,934	284,978	0,056	-0,075
-432,919	-85,252	-0,266	0,061
-431,905	-200,000	-0,036	-0,129
-430,890	-200,000	-0,020	0,231
-429,876	495,326	0,058	0,099
-428,861	-200,000	0,011	0,075
-427,846	-143,942	-0,062	-0,004
-426,832	62,093	-0,183	-0,134
-425,817	800,000	0,019	-0,062
-424,803	-200,000	-0,051	-0,184
-423,788	-147,726	0,137	-0,008
-422,773	-200,000	0,015	-0,107
-421,759	69,434	0,047	0,036
-420,744	107,807	0,071	0,062
-419,730	60,600	-0,088	0,064
-418,715	-200,000	0,025	-0,104
-417,701	800,000	0,047	0,140
-416,686	-200,000	-0,003	-0,032
-415,671	207,118	-0,076	0,087
-414,657	-82,676	0,099	-0,023
-413,642	150,565	-0,095	-0,095
-412,628	32,476	0,020	-0,012
-411,613	-200,000	-0,019	-0,126
-410,598	-200,000	0,001	0,011
-409,584	294,019	0,059	-0,080
-408,569	47,629	0,152	0,104
-407,555	196,605	0,046	0,052
-406,540	-118,321	-0,148	0,019
-405,525	800,000	-0,039	-0,121
-404,511	-200,000	0,060	-0,195
-403,496	-141,191	-0,069	0,005
-402,482	800,000	-0,059	-0,126
-401,467	47,852	-0,068	0,046
-400,452	-114,484	0,090	0,013
-399,438	-200,000	0,027	0,149
-398,423	507,484	0,024	-0,041
-397,409	-153,425	0,034	-0,002
-396,394	76,483	-0,087	-0,068
-395,379	-136,569	-0,003	0,000
-394,365	402,486	0,062	0,097
-393,350	43,986	0,046	0,031
-392,336	33,307	0,124	-0,079
-391,321	-200,000	-0,018	-0,063
-390,306	599,393	0,008	0,014
-389,292	-80,953	-0,037	0,009
-388,277	-102,182	-0,086	0,015
-387,263	-200,000	0,031	0,118
-386,248	120,205	0,151	0,137
-385,233	26,346	-0,066	0,040
-384,219	-128,640	0,166	0,017
-383,204	0,396	-0,091	-0,048
-382,190	-200,000	-0,053	-0,175
-381,175	7,760	0,028	0,015
-380,160	-200,000	-0,012	-0,042
-379,146	798,703	0,055	0,112
-378,131	-200,000	0,004	0,019
-377,117	258,080	-0,051	-0,065
-376,102	-1,113	-0,071	-0,037
-375,088	79,515	-0,059	-0,047
-374,073	-126,458	0,122	0,013
-373,058	-200,000	0,000	0,021
-372,044	800,000	-0,043	0,089
-371,029	800,000	0,033	-0,082
-370,015	800,000	-0,036	0,085
-369,000	800,000	0,031	-0,091
-367,985	-93,634	0,123	-0,025
-366,971	133,943	0,051	-0,048
-365,956	94,197	0,105	-0,088
-364,942	-200,000	-0,025	-0,094
-363,927	-13,831	-0,015	-0,007
-362,912	-35,884	0,064	0,025
-361,898	800,000	-0,037	-0,092
-360,883	-200,000	0,034	-0,139
-359,869	242,735	-0,090	-0,110
-358,854	-32,164	-0,053	0,022
-357,839	-52,699	0,106	-0,036
-356,825	-200,000	-0,005	-0,033
-355,810	111,769	0,047	-0,041
-354,796	502,213	-0,029	-0,050
-353,781	10,443	-0,093	-0,052
-352,766	-85,695	0,060	-0,013
-351,752	248,841	-0,057	-0,072
-350,737	114,988	-0,049	-0,044
-349,723	-24,369	0,097	-0,042
-348,708	117,081	0,018	0,016
-347,693	49,613	-0,049	0,034
-346,679	-94,040	-0,119	-0,024
-345,664	-200,000	-0,001	-0,085
-344,650	-200,000	-0,036	-0,154
-343,635	241,941	0,006	-0,007
-342,620	37,885	0,093	0,060
-341,606	96,522	0,087	0,073
-340,591	-50,656	-0,063	-0,022
-339,577	95,442	-0,106	0,089
-338,562	70,320	-0,048	-0,036
-337,548	-58,648	-0,081	0,026
-336,533	-200,000	0,031	0,138
-335,518	125,981	0,087	-0,081
-334,504	-126,286	0,084	-0,009
-333,489	-86,151	-0,096	0,021
-332,475	800,000	-0,044	0,121
-331,460	-0,571	0,099	-0,051
-330,445	110,978	-0,009	0,008
-329,431	800,000	-0,018	-0,042
-328,416	-78,939	0,047	-0,012
-327,402	314,482	0,091	-0,127
-326,387	800,000	-0,008	0,019
-325,372	-126,838	0,140	0,015
-324,358	-79,945	0,051	0,012
-323,343	-152,047	-0,148	-0,008
-322,329	535,139	0,016	-0,028
-321,314	359,838	-0,033	-0,048
-320,299	-30,264	0,093	-0,039
-319,285	61,082	-0,098	0,071
-318,270	52,873	-0,106	-0,074
-317,256	-60,920	-0,119	-0,037
-316,241	679,982	0,039	0,076
-315,226	373,038	-0,060	-0,090
-314,212	800,000	-0,010	-0,027
-313,197	800,000	0,042	0,134
-312,183	-28,468	0,077	0,032
-311,168	22,975	-0,093	-0,056
-310,153	26,652	0,066	0,040
-309,139	-130,721	-0,082	0,008
-308,124	800,000	0,084	0,193
-307,110	800,000	-0,019	0,061
-306,095	28,880	0,069	-0,043
-305,080	-66,957	-0,033	0,010
-304,066	585,440	-0,033	0,059
-303,051	-101,034	-0,038	0,007
-302,037	-200,000	0,011	-0,086
-301,022	-84,650	0,093	-0,021
-300,008	-102,487	-0,062	0,011
-298,993	-158,498	0,068	0,003
-297,978	-75,630	0,084	-0,022
-296,964	403,465	0,003	-0,005
-295,949	79,315	-0,159	-0,125
-294,935	800,000	-0,017	-0,041
-293,920	-149,581	-0,072	-0,004
-292,905	156,651	0,067	-0,068
-291,891	-108,258	0,226	0,035
-290,876	-4,817	-0,100	0,051
-289,862	-25,042	0,136	0,059
-288,847	-146,774	-0,090	0,006
-287,832	20,821	-0,086	0,051
-286,818	-118,525	0,073	-0,009
-285,803	-59,935	0,121	-0,038
-284,789	-200,000	0,006	0,070
-283,774	71,760	0,111	0,085
-282,759	-200,000	0,001	-0,114
-281,745	8,822	-0,098	0,054
-280,730	-69,287	-0,034	0,010
-279,716	-141,324	-0,032	-0,002
-278,701	-24,969	0,065	0,028
-277,686	230,809	0,048	-0,057
-276,672	4,707	0,050	-0,027
-275,657	556,460	-0,028	-0,049
-274,643	-200,000	0,014	0,148
-273,628	-200,000	0,038	-0,138
-272,613	-200,000	-0,003	-0,022
-271,599	-200,000	0,012	-0,042
-270,584	-146,637	-0,049	0,003
-269,570	204,800	-0,045	0,051
-268,555	70,629	-0,143	-0,108
-267,540	-150,087	-0,085	0,005
-266,526	626,883	-0,043	-0,079
-265,511	305,842	-0,035	-0,047
-264,497	800,000	0,020	0,059
-263,482	-157,413	0,053	0,002
-262,467	29,166	0,062	0,038
-261,453	-200,000	-0,019	-0,074
-260,438	112,047	-0,030	-0,026
-259,424	0,478	-0,062	-0,032
-258,409	-89,792	-0,148	-0,032
-257,395	800,000	0,028	0,068
-256,380	124,469	0,046	-0,043
-255,365	45,181	0,148	0,100
-254,351	800,000	-0,048	0,105
-253,336	-200,000	0,002	-0,045
-252,322	800,000	0,052	-0,126
-251,307	-117,928	-0,118	0,015
-250,292	800,000	0,014	-0,034
-249,278	-200,000	0,016	-0,095
-248,263	-200,000	0,003	0,031
-247,249	528,742	0,049	-0,084
-246,234	800,000	0,026	-0,059
-245,219	516,518	-0,047	0,081
-244,205	-83,302	-0,234	0,054
-243,190	-200,000	0,002	-0,040
-242,176	-200,000	-0,004	-0,041
-241,161	-5,719	0,103	0,052
-240,146	585,869	0,026	0,047
-239,132	-200,000	0,003	0,055
-238,117	-13,011	0,028	0,013
-237,103	-200,000	-0,010	0,060
-236,088	-69,706	0,069	-0,019
-235,073	-200,000	0,005	0,086
-234,059	-157,993	0,181	-0,008
-233,044	-200,000	-0,009	-0,044
-232,030	377,198	0,057	-0,085
-231,015	83,445	0,130	0,104
-230,000	180,403	-0,172	-0,184
-228,986	177,269	0,006	0,006
-227,971	800,000	0,020	0,047
-226,957	-200,000	-0,024	0,090
-225,942	-200,000	0,036	0,191
-224,927	-200,000	0,021	-0,090
-223,913	-111,050	-0,161	-0,024
-222,898	114,897	0,130	0,115
-221,884	-51,715	-0,155	0,052
-220,869	231,818	0,059	0,071
-219,855	-111,876	0,053	0,008
-218,840	-200,000	0,001	0,005
-217,825	-99,721	0,056	0,010
-216,811	59,716	-0,127	0,092
-215,796	401,758	0,095	0,146
-214,782	-91,663	-0,040	-0,008
-213,767	800,000	-0,010	-0,028
-212,752	-200,000	-0,025	-0,085
-211,738	144,473	-0,050	-0,048
-210,723	-200,000	0,016	-0,090
-209,709	-200,000	0,020	-0,150
-208,694	620,439	-0,039	-0,073
-207,679	-200,000	-0,010	-0,055
-206,665	9,075	0,155	-0,085
-205,650	-200,000	0,014	-0,096
-204,636	45,911	-0,084	-0,057
-203,621	800,000	-0,010	-0,020
-202,606	38,155	0,026	-0,017
-201,592	-169,852	0,135	0,003
-200,577	-104,059	0,012	-0,002
-199,563	-104,762	0,077	-0,013
-198,548	-87,693	-0,077	-0,017
-197,533	-200,000	0,021	0,112
-196,519	-200,000	-0,028	0,149
-195,504	35,509	-0,055	0,035
-194,490	-134,019	-0,082	-0,007
-193,475	-173,140	-0,182	-0,004
-192,460	-96,569	0,118	-0,023
-191,446	-136,843	-0,067	0,006
-190,431	334,524	0,109	0,154
-189,417	-6,147	-0,054	-0,027
-188,402	577,497	-0,059	-0,106
-187,387	152,345	-0,068	-0,068
-186,373	-95,039	0,102	-0,020
-185,358	732,191	0,020	-0,038
-184,344	436,501	0,079	-0,126
-183,329	426,059	0,024	-0,037
-182,315	280,409	0,029	0,038
-181,300	423,194	-0,117	0,184
-180,285	312,316	0,107	-0,147
-179,271	800,000	-0,017	0,041
-178,256	-46,843	0,076	-0,027
-177,242	800,000	-0,005	0,017
-176,227	291,684	-0,021	0,028
-175,212	48,164	-0,080	-0,054
-174,198	70,166	-0,018	-0,013
-173,183	-200,000	-0,028	-0,164
-172,169	238,475	-0,019	0,022
-171,154	-70,898	0,143	0,039
-170,139	488,633	0,038	0,063
-169,125	186,578	0,118	0,128
-168,110	800,000	-0,023	0,064
-167,096	800,000	-0,045	0,139
-166,081	18,221	0,123	-0,071
-165,066	84,206	-0,128	-0,102
-164,052	-66,960	-0,119	0,034
-163,037	117,683	-0,043	0,039
-162,023	124,800	0,070	0,065
-161,008	129,229	0,045	0,042
-159,993	-200,000	-0,010	0,082
-158,979	800,000	0,011	0,027
-157,964	75,305	-0,076	0,058
-156,950	-27,832	-0,117	0,049
-155,935	-200,000	-0,013	0,086
-154,920	-100,292	0,182	0,033
-153,906	-200,000	0,004	0,100
-152,891	26,792	0,032	0,020
-151,877	-6,452	-0,027	-0,013
-150,862	35,275	-0,085	0,054
-149,847	-3,115	0,061	-0,031
-148,833	532,446	0,016	0,028
-147,818	125,083	-0,010	0,009
-146,804	-4,942	0,128	0,064
-145,789	-200,000	0,045	0,146
-144,775	169,581	0,084	0,087
-143,760	800,000	-0,040	0,084
-142,745	294,433	0,069	0,092
-141,731	-73,212	0,055	-0,015
-140,716	19,313	-0,049	0,028
-139,702	118,817	0,032	-0,029
-138,687	-12,353	0,007	-0,003
-137,672	93,342	-0,027	-0,022
-136,658	-80,361	0,155	-0,037
-135,643	-200,000	0,002	-0,068
-134,629	800,000	-0,021	0,061
-133,614	-85,609	0,055	0,012
-132,599	5,079	0,036	0,019
-131,585	800,000	-0,016	0,039
-130,570	-200,000	0,001	0,129
-129,556	280,963	-0,068	0,089
-128,541	-10,239	-0,170	0,082
-127,526	57,751	0,029	-0,021
-126,512	-83,963	0,086	0,020
-125,497	91,691	0,203	0,166
-124,483	63,896	-0,111	0,081
-123,468	-178,956	-0,088	0,001
-122,453	800,000	-0,012	0,025
-121,439	-5,750	-0,107	0,053
-120,424	800,000	0,032	-0,071
-119,410	364,109	0,043	0,063
-118,395	24,315	0,083	0,050
