DTS Sentinel unit serial number:	SN410029Multiplexer serial number:	ORYXHardware model number:	OX2-SRSoftware version number:	ORYX F/W v4,00 Oryx Data Collector v3.7.2.0data status	okinstallation	B6 Nyhavnadifferential loss correction	single-endedforward channel	channel 2reverse channel	N/Adate	2023/12/10time	11:45:08forward acquisition time	300,00reverse acquisition time	0,00gamma	499,1914k internal	0,3123k external	0,3123temperature offset calibration	1,0000default loss term (dB/km)	0,3820temperature slope calibration	1,0000multiplexer offset coefficient	1,0000multiplexer slope coefficient	1,0000fibre end	0,00T internal ref (°C)	22,69T ext. ref 1 (°C)	6,61T ext. ref 2 (°C)	6,59length (m)	temperature (°C)	Stokes	anti-Stokes-744,400	800,000	0,041	-0,092
-743,385	61,748	-0,133	0,099
-742,371	-200,000	0,020	0,100
-741,356	30,041	-0,066	0,042
-740,342	70,668	0,204	-0,157
-739,327	-17,286	-0,247	0,115
-738,312	-25,709	0,045	-0,020
-737,298	0,192	-0,198	0,105
-736,283	325,514	0,080	-0,115
-735,269	82,339	-0,165	0,134
-734,254	334,736	-0,062	-0,089
-733,239	-142,999	-0,392	-0,028
-732,225	800,000	0,022	-0,059
-731,210	206,823	-0,085	-0,099
-730,196	92,669	0,071	-0,060
-729,181	-74,179	-0,102	-0,027
-728,167	21,718	0,023	-0,014
-727,152	-200,000	0,009	0,042
-726,137	-118,791	-0,125	0,016
-725,123	31,441	0,019	0,012
-724,108	-200,000	-0,000	0,045
-723,094	800,000	-0,065	-0,134
-722,079	-200,000	0,002	-0,193
-721,064	-200,000	-0,014	0,141
-720,050	202,653	0,082	0,095
-719,035	6,814	0,075	0,041
-718,021	800,000	-0,023	-0,073
-717,006	-66,868	-0,282	-0,082
-715,991	-200,000	-0,035	-0,116
-714,977	-70,708	-0,092	-0,026
-713,962	-200,000	-0,000	-0,071
-712,948	-127,199	-0,081	-0,009
-711,933	-13,698	-0,090	-0,043
-710,918	103,021	0,013	-0,011
-709,904	-200,000	0,050	-0,226
-708,889	-116,321	-0,055	-0,007
-707,875	-121,188	-0,178	-0,022
-706,860	7,984	-0,133	-0,074
-705,845	638,638	0,022	-0,041
-704,831	-64,039	-0,024	-0,007
-703,816	236,291	-0,038	-0,046
-702,802	52,311	0,011	-0,008
-701,787	-85,144	-0,013	0,003
-700,772	800,000	0,061	-0,167
-699,758	75,010	0,099	-0,078
-698,743	800,000	0,027	-0,057
-697,729	-158,422	0,017	-0,001
-696,714	-163,293	-0,018	-0,001
-695,699	-200,000	-0,014	-0,057
-694,685	388,675	-0,084	-0,130
-693,670	-57,886	0,157	-0,051
-692,656	800,000	-0,056	-0,129
-691,641	528,114	0,010	-0,017
-690,627	281,662	-0,025	0,033
-689,612	-0,535	-0,046	-0,024
-688,597	800,000	-0,014	0,040
-687,583	789,552	0,019	-0,038
-686,568	243,344	-0,023	-0,029
-685,554	-200,000	0,001	-0,133
-684,539	-200,000	-0,002	-0,126
-683,524	-200,000	-0,007	0,026
-682,510	-200,000	-0,018	-0,156
-681,495	800,000	0,015	-0,039
-680,481	800,000	-0,037	-0,106
-679,466	800,000	-0,052	-0,116
-678,451	-121,252	-0,098	-0,012
-677,437	693,276	0,023	0,045
-676,422	-13,299	0,079	-0,038
-675,408	800,000	0,092	-0,209
-674,393	203,653	-0,057	-0,066
-673,378	800,000	-0,054	-0,116
-672,364	204,839	-0,090	0,104
-671,349	451,466	-0,026	0,043
-670,335	103,672	0,061	0,053
-669,320	-200,000	-0,008	-0,075
-668,305	-200,000	0,007	-0,048
-667,291	800,000	-0,054	-0,152
-666,276	-200,000	-0,018	0,103
-665,262	-53,593	0,087	-0,029
-664,247	526,414	0,037	0,065
-663,232	89,975	0,129	-0,107
-662,218	-79,261	0,053	-0,013
-661,203	323,824	0,077	0,110
-660,189	223,410	0,048	0,058
-659,174	-200,000	0,000	-0,102
-658,159	-200,000	-0,014	-0,128
-657,145	43,801	-0,072	-0,049
-656,130	159,430	0,056	-0,058
-655,116	19,002	0,079	-0,047
-654,101	-55,952	0,100	0,033
-653,086	149,912	-0,016	0,016
-652,072	-22,918	-0,024	-0,011
-651,057	800,000	-0,027	0,086
-650,043	-54,157	-0,044	-0,015
-649,028	-31,367	-0,024	-0,010
-648,014	-176,241	-0,057	-0,001
-646,999	46,292	0,126	-0,087
-645,984	171,756	-0,071	-0,076
-644,970	591,885	0,013	-0,024
-643,955	-129,636	-0,043	-0,004
-642,941	-77,963	-0,129	-0,033
-641,926	-138,701	0,080	-0,006
-640,911	539,798	0,052	-0,092
-639,897	800,000	-0,022	-0,061
-638,882	800,000	0,035	-0,089
-637,868	-123,137	0,093	0,011
-636,853	-5,929	-0,066	0,034
-635,838	800,000	0,027	0,077
-634,824	-56,087	0,072	0,024
-633,809	283,625	-0,026	0,035
-632,795	-200,000	0,019	0,101
-631,780	-200,000	-0,031	0,139
-630,765	-195,205	-0,110	-0,001
-629,751	656,105	0,089	-0,170
-628,736	-139,244	-0,134	0,011
-627,722	-95,610	-0,058	-0,011
-626,707	800,000	-0,016	-0,036
-625,692	232,499	0,075	0,091
-624,678	800,000	0,005	0,017
-623,663	-200,000	0,003	-0,095
-622,649	643,720	-0,010	-0,019
-621,634	207,003	0,023	-0,027
-620,619	25,946	-0,107	-0,066
-619,605	-138,502	0,114	-0,009
-618,590	800,000	-0,025	-0,068
-617,576	589,250	-0,040	0,074
-616,561	128,702	0,026	-0,025
-615,546	-200,000	-0,012	0,098
-614,532	-200,000	0,009	-0,051
-613,517	-122,762	-0,125	-0,015
-612,503	-200,000	0,001	0,086
-611,488	800,000	0,054	0,164
-610,474	37,941	-0,055	-0,036
-609,459	-200,000	0,002	-0,129
-608,444	800,000	-0,060	-0,126
-607,430	800,000	-0,026	0,054
-606,415	-37,223	-0,137	-0,054
-605,401	6,679	-0,092	-0,050
-604,386	-122,137	-0,122	0,015
-603,371	-54,432	0,055	0,018
-602,357	-135,187	-0,073	0,006
-601,342	-200,000	-0,020	-0,084
-600,328	-200,000	-0,034	-0,134
-599,313	-26,734	-0,057	-0,025
-598,298	162,339	0,067	-0,069
-597,284	448,345	0,030	-0,050
-596,269	206,083	0,081	-0,093
-595,255	-200,000	0,001	0,020
-594,240	-104,474	-0,076	-0,013
-593,225	278,768	0,090	-0,119
-592,211	211,719	0,036	0,042
-591,196	-115,063	-0,147	-0,020
-590,182	800,000	0,025	-0,051
-589,167	16,070	0,041	0,024
-588,152	-55,837	-0,098	0,032
-587,138	-200,000	-0,003	0,161
-586,123	-90,916	-0,065	0,014
-585,109	-200,000	-0,023	-0,091
-584,094	-4,509	-0,035	0,018
-583,079	800,000	-0,017	0,039
-582,065	-49,978	-0,135	-0,047
-581,050	35,757	0,118	-0,077
-580,036	277,743	0,084	-0,111
-579,021	-78,085	-0,034	-0,009
-578,006	-200,000	-0,002	0,062
-576,992	-89,137	-0,057	0,012
-575,977	77,490	0,138	-0,109
-574,963	63,245	-0,038	0,029
-573,948	-171,536	0,119	0,003
-572,934	-200,000	-0,001	-0,035
-571,919	-200,000	-0,031	-0,120
-570,904	209,156	0,051	-0,059
-569,890	604,455	-0,039	-0,071
-568,875	82,399	-0,162	-0,130
-567,861	800,000	0,017	0,041
-566,846	-200,000	-0,010	0,057
-565,831	120,593	0,120	0,111
-564,817	-22,848	-0,154	0,068
-563,802	-110,995	-0,108	-0,016
-562,788	-3,056	-0,076	0,039
-561,773	346,241	-0,047	0,069
-560,758	-41,167	0,066	0,025
-559,744	-200,000	0,001	0,109
-558,729	-131,949	-0,073	0,007
-557,715	-50,012	-0,070	-0,024
-556,700	62,736	-0,010	0,008
-555,685	367,970	0,047	-0,071
-554,671	800,000	-0,031	-0,071
-553,656	800,000	-0,010	-0,031
-552,642	335,282	-0,030	-0,043
-551,627	346,770	-0,029	0,042
-550,612	337,550	0,020	0,028
-549,598	800,000	0,031	0,091
-548,583	-86,677	0,074	-0,017
-547,569	186,355	0,031	-0,035
-546,554	50,231	0,042	-0,029
-545,539	72,860	0,134	0,103
-544,525	-84,136	0,091	-0,021
-543,510	-200,000	-0,005	-0,059
-542,496	-68,079	-0,120	-0,034
-541,481	-59,560	0,053	0,017
-540,466	417,399	0,081	0,129
-539,452	124,228	-0,035	-0,033
-538,437	155,529	0,051	-0,052
-537,423	-200,000	0,015	0,121
-536,408	115,087	0,075	-0,068
-535,393	-200,000	0,008	-0,061
-534,379	-154,039	-0,105	0,005
-533,364	-85,306	0,061	-0,014
-532,350	211,916	0,073	0,085
-531,335	-23,635	0,021	-0,009
-530,321	16,419	0,036	0,021
-529,306	-111,470	0,119	0,018
-528,291	700,658	0,043	-0,084
-527,277	9,335	-0,041	-0,023
-526,262	-127,783	0,147	-0,015
-525,248	41,835	-0,057	0,038
-524,233	-164,205	0,071	-0,002
-523,218	-104,512	0,062	-0,011
-522,204	9,342	-0,108	-0,060
-521,189	-100,122	-0,064	-0,012
-520,175	-182,721	-0,206	-0,003
-519,160	-42,907	0,062	-0,023
-518,145	506,399	0,035	-0,060
-517,131	539,869	-0,025	0,044
-516,116	398,646	0,086	-0,134
-515,102	-152,027	-0,142	-0,008
-514,087	125,182	-0,043	0,040
-513,072	284,693	0,034	-0,046
-512,058	-95,581	0,139	0,027
-511,043	-200,000	0,022	0,119
-510,029	2,424	0,052	0,028
-509,014	-200,000	0,021	0,139
-507,999	-47,059	-0,111	-0,040
-506,985	638,231	-0,030	0,057
-505,970	13,159	-0,053	-0,030
-504,956	-90,984	-0,021	0,004
-503,941	-200,000	-0,007	-0,120
-502,926	340,400	0,009	0,013
-501,912	18,647	0,030	-0,018
-500,897	-158,292	-0,073	0,003
-499,883	-120,000	0,130	0,016
-498,868	370,184	0,075	0,112
-497,853	-200,000	-0,031	0,115
-496,839	59,070	0,058	0,042
-495,824	-200,000	0,001	0,070
-494,810	-200,000	0,020	0,102
-493,795	89,649	0,121	0,100
-492,781	779,018	-0,011	-0,022
-491,766	-36,880	-0,066	0,026
-490,751	-71,391	-0,019	-0,005
-489,737	2,388	0,042	-0,022
-488,722	592,987	-0,105	-0,193
-487,708	-200,000	0,007	0,038
-486,693	265,545	0,096	0,124
-485,678	-200,000	-0,015	0,052
-484,664	800,000	0,031	0,066
-483,649	-22,210	-0,060	-0,027
-482,635	-200,000	-0,019	-0,142
-481,620	335,192	-0,033	-0,047
-480,605	127,478	0,133	-0,124
-479,591	-46,284	-0,184	0,067
-478,576	241,774	-0,035	0,044
-477,562	-200,000	0,022	-0,135
-476,547	-157,227	0,136	-0,006
-475,532	66,402	-0,056	-0,042
-474,518	-89,539	-0,053	0,011
-473,503	800,000	-0,044	0,092
-472,489	334,116	-0,076	0,109
-471,474	109,638	0,090	-0,080
-470,459	800,000	-0,061	-0,179
-469,445	38,491	-0,091	0,060
-468,430	800,000	0,022	-0,054
-467,416	124,816	-0,050	0,047
-466,401	683,656	0,072	0,139
-465,386	69,208	-0,059	-0,045
-464,372	203,862	-0,047	0,054
-463,357	314,143	-0,066	-0,092
-462,343	-10,208	-0,045	0,022
-461,328	-200,000	0,030	0,162
-460,313	61,109	0,128	-0,093
-459,299	-124,392	0,126	-0,014
-458,284	-154,757	-0,030	-0,001
-457,270	-200,000	0,027	0,103
-456,255	-11,888	-0,131	-0,063
-455,241	-146,384	-0,119	-0,008
-454,226	800,000	0,018	-0,055
-453,211	-31,945	-0,022	0,009
-452,197	800,000	0,060	0,147
-451,182	9,938	-0,033	0,019
-450,168	435,379	0,045	-0,073
-449,153	220,682	0,056	-0,066
-448,138	381,443	-0,057	0,087
-447,124	-141,173	0,205	-0,015
-446,109	19,790	-0,158	-0,093
-445,095	-200,000	0,008	-0,156
-444,080	-49,242	0,153	0,053
-443,065	107,049	-0,042	0,037
-442,051	800,000	-0,037	0,080
-441,036	-115,491	-0,057	-0,008
-440,022	800,000	-0,015	-0,032
-439,007	-194,860	-0,079	0,000
-437,992	-200,000	-0,020	0,089
-436,978	456,759	0,032	0,053
-435,963	-103,779	0,104	0,018
-434,949	800,000	-0,009	0,018
-433,934	251,417	-0,091	-0,115
-432,919	-200,000	0,001	-0,173
-431,905	-87,439	0,206	-0,046
-430,890	-49,686	0,029	-0,010
-429,876	225,923	0,061	-0,073
-428,861	-200,000	0,006	0,098
-427,846	-45,483	0,098	-0,036
-426,832	-200,000	-0,011	-0,141
-425,817	286,639	0,075	-0,100
-424,803	27,994	0,059	0,036
-423,788	419,421	-0,076	-0,120
-422,773	-99,287	-0,037	-0,007
-421,759	95,614	0,019	0,016
-420,744	-104,259	-0,080	0,013
-419,730	-200,000	-0,007	-0,076
-418,715	-62,791	-0,072	-0,022
-417,701	-167,626	-0,141	-0,004
-416,686	-23,060	-0,086	-0,038
-415,671	-18,687	0,161	0,074
-414,657	330,349	-0,086	0,122
-413,642	242,632	-0,020	-0,025
-412,628	24,164	-0,092	-0,056
-411,613	800,000	-0,033	0,092
-410,598	184,925	-0,035	0,038
-409,584	800,000	-0,013	-0,035
-408,569	-200,000	-0,013	0,070
-407,555	202,827	-0,048	-0,054
-406,540	211,174	-0,116	0,135
-405,525	-200,000	-0,010	0,153
-404,511	800,000	-0,036	0,081
-403,496	-47,613	-0,056	-0,020
-402,482	-200,000	0,011	0,109
-401,467	299,196	-0,028	0,038
-400,452	-200,000	0,017	0,114
-399,438	-200,000	0,018	-0,126
-398,423	800,000	-0,017	0,036
-397,409	-200,000	0,029	0,096
-396,394	-70,551	0,127	-0,035
-395,379	-19,994	-0,083	0,037
-394,365	-200,000	0,003	-0,013
-393,350	-103,718	0,029	0,005
-392,336	205,162	-0,083	-0,095
-391,321	-200,000	-0,017	0,111
-390,306	462,014	0,088	0,145
-389,292	694,243	0,043	0,084
-388,277	-121,476	-0,071	-0,009
-387,263	112,986	0,049	0,043
-386,248	-200,000	0,016	0,122
-385,233	47,408	0,058	0,040
-384,219	308,946	0,143	0,197
-383,204	54,686	-0,025	0,018
-382,190	-200,000	0,012	0,050
-381,175	-48,700	0,087	0,031
-380,160	334,882	0,128	0,183
-379,146	132,696	0,063	0,060
-378,131	-101,289	0,084	-0,015
-377,117	679,288	-0,014	0,027
-376,102	-200,000	-0,002	-0,080
-375,088	86,477	-0,038	0,031
-374,073	-200,000	-0,009	-0,165
-373,058	-98,317	0,077	0,014
-372,044	800,000	0,027	0,080
-371,029	-200,000	0,002	-0,016
-370,015	-200,000	0,031	-0,115
-369,000	-151,012	0,112	-0,006
-367,985	258,430	-0,045	-0,057
-366,971	-63,878	0,069	-0,020
-365,956	-200,000	0,034	-0,000
-364,942	-38,877	0,129	0,050
-363,927	-117,083	0,050	0,007
-362,912	-12,988	-0,123	0,058
-361,898	-200,000	-0,002	0,088
-360,883	98,280	0,016	-0,013
-359,869	-91,692	-0,200	-0,041
-358,854	-98,033	0,122	-0,023
-357,839	-42,664	0,086	0,032
-356,825	-200,000	-0,010	0,061
-355,810	795,951	0,050	0,102
-354,796	800,000	-0,030	-0,083
-353,781	800,000	0,046	-0,117
-352,766	559,927	0,055	-0,098
-351,752	213,565	0,049	-0,057
-350,737	800,000	0,008	0,021
-349,723	800,000	-0,051	0,122
-348,708	130,817	-0,052	0,049
-347,693	800,000	0,023	0,057
-346,679	11,485	-0,054	0,030
-345,664	320,252	0,141	-0,197
-344,650	-4,421	-0,081	0,041
-343,635	88,096	0,054	0,044
-342,620	111,833	-0,058	0,051
-341,606	21,780	0,101	-0,060
-340,591	800,000	0,016	-0,039
-339,577	-143,471	-0,169	-0,012
-338,562	-22,326	0,054	0,024
-337,548	-182,401	0,057	0,001
-336,533	-200,000	0,030	-0,103
-335,518	-200,000	0,019	0,141
-334,504	-104,157	0,100	-0,017
-333,489	800,000	0,025	0,067
-332,475	548,223	0,081	-0,144
-331,460	-127,273	0,043	-0,005
-330,445	-200,000	0,015	0,134
-329,431	115,049	-0,037	0,033
-328,416	-81,107	0,144	-0,035
-327,402	398,516	0,045	0,069
-326,387	800,000	-0,057	0,168
-325,372	800,000	-0,020	-0,061
-324,358	-3,271	0,043	-0,022
-323,343	-74,371	0,019	-0,005
-322,329	450,500	0,059	-0,097
-321,314	327,927	0,008	-0,012
-320,299	156,199	0,025	0,025
-319,285	-200,000	-0,015	0,173
-318,270	442,480	-0,072	-0,116
-317,256	-166,184	-0,099	-0,003
-316,241	405,493	0,037	-0,057
-315,226	135,000	-0,014	-0,013
-314,212	414,580	0,071	0,111
-313,197	127,131	-0,028	0,026
-312,183	-200,000	0,005	-0,028
-311,168	271,787	-0,105	-0,136
-310,153	-200,000	0,005	-0,079
-309,139	-65,267	-0,105	0,031
-308,124	-77,862	0,057	-0,014
-307,110	800,000	-0,037	0,099
-306,095	-200,000	-0,029	0,177
-305,080	39,352	-0,047	-0,031
-304,066	212,997	-0,035	0,041
-303,051	32,082	0,136	0,086
-302,037	-200,000	-0,025	-0,109
-301,022	-145,615	0,025	-0,002
-300,008	800,000	0,026	0,068
-298,993	66,403	0,080	0,060
-297,978	33,598	-0,076	-0,049
-296,964	-200,000	0,023	0,092
-295,949	-50,054	0,005	0,002
-294,935	-200,000	0,005	0,087
-293,920	-39,232	-0,029	0,011
-292,905	17,674	0,069	0,040
-291,891	179,772	-0,057	0,061
-290,876	-115,493	0,061	0,008
-289,862	302,662	0,099	0,135
-288,847	100,005	-0,035	0,030
-287,832	25,379	-0,066	-0,040
-286,818	-200,000	-0,012	0,105
-285,803	-200,000	0,033	0,106
-284,789	235,394	0,040	-0,048
-283,774	800,000	0,007	0,018
-282,759	447,651	-0,033	-0,053
-281,745	-37,418	-0,057	-0,022
-280,730	121,322	0,018	-0,017
-279,716	-200,000	-0,020	-0,076
-278,701	257,404	0,087	-0,109
-277,686	422,518	0,051	0,080
-276,672	57,683	0,071	0,051
-275,657	-83,112	0,142	0,033
-274,643	-200,000	0,019	-0,069
-273,628	386,445	-0,036	0,055
-272,613	31,650	0,037	-0,024
-271,599	-200,000	0,004	-0,039
-270,584	-33,731	0,090	-0,036
-269,570	206,203	-0,048	-0,054
-268,555	-200,000	0,015	0,160
-267,540	64,846	-0,077	-0,057
-266,526	800,000	0,010	0,030
-265,511	-200,000	-0,013	0,071
-264,497	377,132	0,074	-0,111
-263,482	-28,288	-0,019	0,008
-262,467	-117,136	0,159	0,021
-261,453	-136,399	-0,178	-0,015
-260,438	32,803	-0,050	-0,032
-259,424	85,389	-0,041	0,033
-258,409	-200,000	0,000	-0,059
-257,395	-91,147	0,203	-0,042
-256,380	-200,000	0,007	-0,043
-255,365	-200,000	0,001	0,103
-254,351	-79,609	0,122	-0,030
-253,336	8,725	-0,136	0,075
-252,322	91,471	-0,085	-0,070
-251,307	175,996	-0,050	0,053
-250,292	-200,000	-0,008	0,082
-249,278	-25,128	0,125	0,054
-248,263	56,694	-0,100	-0,071
-247,249	181,766	0,129	0,139
-246,234	-103,032	0,069	-0,012
-245,219	780,511	0,045	-0,090
-244,205	800,000	-0,053	-0,136
-243,190	361,949	-0,048	-0,071
-242,176	800,000	0,021	-0,043
-241,161	-200,000	0,000	0,083
-240,146	800,000	-0,056	0,124
-239,132	-200,000	-0,003	-0,031
-238,117	187,117	0,052	-0,057
-237,103	-121,024	-0,228	-0,028
-236,088	-106,800	-0,139	-0,022
-235,073	-47,791	0,084	0,029
-234,059	800,000	-0,057	-0,142
-233,044	25,054	0,041	0,025
-232,030	800,000	-0,065	0,167
-231,015	264,309	0,034	-0,043
-230,000	291,403	0,089	-0,118
-228,986	-200,000	-0,011	0,102
-227,971	-200,000	-0,003	0,070
-226,957	-28,970	0,115	0,048
-225,942	-115,507	-0,069	0,009
-224,927	-200,000	0,002	-0,044
-223,913	-108,587	0,016	-0,002
-222,898	109,080	-0,137	-0,119
-221,884	-61,154	-0,097	0,030
-220,869	-105,922	0,042	-0,007
-219,855	-132,603	-0,051	0,005
-218,840	800,000	-0,025	0,054
-217,825	-162,084	0,093	-0,003
-216,811	800,000	-0,002	-0,005
-215,796	156,412	0,112	-0,113
-214,782	-61,654	-0,109	-0,033
-213,767	-162,199	0,069	-0,002
-212,752	172,497	0,014	0,015
-211,738	351,005	-0,071	-0,103
-210,723	247,965	0,088	0,109
-209,709	117,047	-0,091	-0,082
-208,694	-9,047	-0,063	-0,031
-207,679	-200,000	0,006	-0,026
-206,665	-200,000	-0,017	0,168
-205,650	120,625	0,128	-0,116
-204,636	800,000	0,047	-0,128
-203,621	402,450	0,047	0,072
-202,606	-137,266	-0,096	-0,008
-201,592	139,019	-0,073	0,070
-200,577	800,000	-0,043	0,114
-199,563	-200,000	-0,016	-0,101
-198,548	219,469	0,037	-0,044
-197,533	-200,000	0,023	0,088
-196,519	-9,564	0,067	-0,032
-195,504	800,000	-0,031	0,080
-194,490	250,470	0,104	-0,129
-193,475	20,649	0,032	-0,019
-192,460	-35,411	-0,077	0,030
-191,446	-81,525	0,034	-0,008
-190,431	111,658	0,026	-0,023
-189,417	580,059	-0,006	0,010
-188,402	20,763	-0,058	-0,034
-187,387	800,000	-0,029	-0,091
-186,373	-124,378	-0,115	-0,013
-185,358	654,107	0,022	0,042
-184,344	-169,714	0,098	0,003
-183,329	64,301	0,214	-0,157
-182,315	-200,000	0,029	0,122
-181,300	75,697	-0,051	-0,039
-180,285	-200,000	-0,002	-0,081
-179,271	-200,000	-0,024	-0,077
-178,256	-200,000	0,001	-0,133
-177,242	57,085	0,098	0,070
-176,227	-110,818	-0,172	-0,026
-175,212	-84,913	-0,133	0,030
-174,198	164,214	0,076	-0,078
-173,183	-161,784	-0,154	-0,006
-172,169	-171,468	-0,116	0,003
-171,154	-56,873	-0,066	-0,021
-170,139	336,250	0,003	-0,005
-169,125	-200,000	-0,001	0,155
-168,110	-200,000	-0,017	-0,072
-167,096	800,000	0,043	-0,109
-166,081	-200,000	-0,016	-0,099
-165,066	271,261	-0,026	-0,033
-164,052	-39,342	-0,061	0,023
-163,037	-42,112	-0,037	-0,014
-162,023	216,855	-0,034	-0,040
-161,008	-51,207	-0,035	-0,012
-159,993	358,256	0,032	0,047
-158,979	800,000	-0,037	-0,079
-157,964	-200,000	0,005	0,027
-156,950	93,112	0,012	-0,010
-155,935	-8,294	0,055	-0,027
-154,920	-200,000	-0,002	0,102
-153,906	-88,573	-0,182	0,039
-152,891	-200,000	0,013	-0,076
-151,877	-82,811	-0,022	0,005
-150,862	429,543	-0,060	-0,095
-149,847	-153,510	-0,071	0,004
-148,833	-200,000	0,015	0,067
-147,818	-175,493	0,136	0,003
-146,804	-200,000	-0,011	-0,046
-145,789	161,077	-0,059	-0,060
-144,775	94,738	-0,090	0,074
-143,760	-21,597	0,118	-0,052
-142,745	63,140	0,090	-0,066
-141,731	-151,165	0,142	0,008
-140,716	-99,970	0,187	-0,034
-139,702	800,000	-0,045	-0,127
-138,687	106,057	0,063	-0,054
-137,672	-68,702	-0,132	0,037
-136,658	-92,313	-0,108	-0,022
-135,643	800,000	0,033	-0,068
-134,629	-200,000	0,026	-0,109
-133,614	-114,690	0,111	-0,015
-132,599	-29,374	-0,032	0,013
-131,585	651,202	0,038	0,071
-130,570	-130,685	-0,174	0,017
-129,556	275,262	0,083	-0,107
-128,541	-116,657	-0,082	-0,011
-127,526	-200,000	0,037	-0,154
-126,512	760,062	0,042	-0,082
-125,497	-200,000	0,031	0,246
-124,483	359,560	0,083	-0,121
-123,468	800,000	-0,037	0,095
-122,453	14,776	0,091	0,052
-121,439	-113,310	0,087	-0,012
-120,424	271,386	0,089	0,114
