DTS Sentinel unit serial number:	SN410029Multiplexer serial number:	ORYXHardware model number:	OX2-SRSoftware version number:	ORYX F/W v4,00 Oryx Data Collector v3.7.2.0data status	okinstallation	B6 Nyhavnadifferential loss correction	single-endedforward channel	channel 2reverse channel	N/Adate	2023/12/11time	01:40:08forward acquisition time	300,00reverse acquisition time	0,00gamma	499,1914k internal	0,3122k external	0,3122temperature offset calibration	1,0000default loss term (dB/km)	0,3820temperature slope calibration	1,0000multiplexer offset coefficient	1,0000multiplexer slope coefficient	1,0000fibre end	0,00T internal ref (°C)	22,06T ext. ref 1 (°C)	5,25T ext. ref 2 (°C)	5,30length (m)	temperature (°C)	Stokes	anti-Stokes-744,400	-36,214	0,111	0,045
-743,385	56,289	-0,313	0,226
-742,371	526,742	0,062	0,110
-741,356	42,618	-0,274	0,186
-740,342	-200,000	-0,003	-0,046
-739,327	-29,367	-0,249	0,106
-738,312	800,000	-0,043	-0,138
-737,298	92,721	-0,158	0,133
-736,283	-51,823	-0,085	0,029
-735,269	-3,323	-0,213	0,110
-734,254	5,070	0,146	-0,080
-733,239	-47,070	-0,377	-0,136
-732,225	-88,877	0,100	0,022
-731,210	800,000	-0,071	0,199
-730,196	-21,360	0,078	0,035
-729,181	-94,809	-0,110	0,022
-728,167	8,871	-0,114	-0,064
-727,152	-40,134	0,048	0,019
-726,137	610,184	-0,053	-0,098
-725,123	338,666	0,056	-0,082
-724,108	-158,155	-0,071	-0,003
-723,094	-151,194	-0,141	-0,008
-722,079	128,552	-0,045	0,043
-721,064	800,000	-0,039	-0,083
-720,050	-200,000	0,001	0,045
-719,035	800,000	-0,047	0,131
-718,021	8,559	-0,018	0,010
-717,006	-118,697	0,056	-0,007
-715,991	-54,200	-0,218	-0,073
-714,977	-197,748	-0,185	0,001
-713,962	786,345	-0,074	-0,153
-712,948	14,194	-0,024	-0,014
-711,933	-9,516	0,080	0,040
-710,918	-200,000	0,017	-0,067
-709,904	-200,000	-0,001	-0,024
-708,889	-38,460	0,122	-0,048
-707,875	-95,450	-0,171	-0,034
-706,860	194,331	0,084	-0,095
-705,845	161,362	0,053	0,055
-704,831	285,110	-0,084	0,113
-703,816	-105,914	0,042	-0,007
-702,802	-200,000	0,009	0,070
-701,787	191,635	0,075	-0,084
-700,772	-200,000	-0,051	-0,170
-699,758	-143,350	0,052	0,004
-698,743	174,631	0,118	-0,127
-697,729	-127,276	0,133	0,014
-696,714	-109,827	0,014	0,002
-695,699	-118,817	-0,086	0,011
-694,685	-106,093	-0,054	-0,009
-693,670	-200,000	0,024	-0,087
-692,656	-61,752	-0,117	0,036
-691,641	-113,632	0,194	0,028
-690,627	-145,682	0,097	-0,006
-689,612	-3,759	-0,102	-0,053
-688,597	8,283	-0,059	0,033
-687,583	241,332	-0,094	-0,118
-686,568	800,000	-0,049	-0,147
-685,554	682,796	0,057	-0,111
-684,539	-200,000	0,020	0,083
-683,524	-200,000	-0,038	0,178
-682,510	215,858	0,088	0,104
-681,495	601,399	0,029	-0,053
-680,481	-200,000	0,035	-0,165
-679,466	311,325	0,051	-0,072
-678,451	140,445	-0,035	-0,034
-677,437	-200,000	0,002	-0,077
-676,422	24,500	0,095	0,058
-675,408	-12,184	-0,068	0,033
-674,393	-51,454	-0,120	0,041
-673,378	20,758	-0,065	-0,039
-672,364	233,100	-0,011	-0,014
-671,349	-200,000	-0,001	-0,095
-670,335	577,186	0,043	0,079
-669,320	244,397	0,022	-0,028
-668,305	259,203	-0,077	0,098
-667,291	311,491	-0,077	0,108
-666,276	32,828	0,013	0,008
-665,262	670,734	0,037	0,071
-664,247	242,379	0,155	-0,193
-663,232	-114,183	-0,053	-0,007
-662,218	58,538	-0,083	-0,061
-661,203	-200,000	0,013	0,064
-660,189	-145,360	-0,070	0,005
-659,174	-200,000	0,014	-0,045
-658,159	-73,951	-0,062	-0,017
-657,145	-200,000	-0,037	-0,149
-656,130	240,636	0,091	-0,112
-655,116	-80,194	-0,132	0,033
-654,101	20,330	0,131	0,078
-653,086	99,685	-0,071	-0,061
-652,072	-90,056	-0,191	0,041
-651,057	-154,014	-0,068	-0,003
-650,043	70,381	0,038	-0,029
-649,028	638,088	0,027	-0,052
-648,014	800,000	-0,063	0,172
-646,999	479,892	-0,034	-0,057
-645,984	-10,141	0,017	0,008
-644,970	-200,000	-0,032	-0,129
-643,955	800,000	-0,031	0,076
-642,941	-4,991	-0,094	0,048
-641,926	800,000	-0,025	-0,074
-640,911	-113,360	0,068	-0,010
-639,897	-48,763	0,054	-0,019
-638,882	283,029	-0,011	-0,015
-637,868	-127,351	-0,182	-0,019
-636,853	120,210	-0,020	-0,019
-635,838	-68,505	-0,127	-0,036
-634,824	800,000	-0,065	-0,151
-633,809	-54,217	0,032	-0,011
-632,795	-200,000	0,006	0,060
-631,780	42,909	0,167	0,113
-630,765	-200,000	-0,008	0,041
-629,751	-200,000	0,000	0,047
-628,736	25,369	-0,035	-0,021
-627,722	-200,000	0,029	-0,133
-626,707	-200,000	0,004	-0,029
-625,692	800,000	-0,002	-0,005
-624,678	93,027	-0,071	0,060
-623,663	-200,000	-0,012	0,042
-622,649	-170,197	0,030	-0,001
-621,634	-200,000	-0,028	-0,118
-620,619	143,004	0,034	-0,033
-619,605	-99,079	-0,144	-0,027
-618,590	21,173	0,153	0,092
-617,576	277,978	0,041	0,054
-616,561	-118,515	-0,102	-0,013
-615,546	-44,914	-0,057	-0,021
-614,532	-200,000	0,005	-0,028
-613,517	33,365	-0,114	0,073
-612,503	-200,000	-0,007	-0,055
-611,488	800,000	0,018	0,048
-610,474	-200,000	-0,017	-0,122
-609,459	49,905	-0,110	-0,077
-608,444	380,296	0,032	-0,048
-607,430	47,540	-0,077	-0,053
-606,415	-61,365	-0,126	-0,039
-605,401	496,818	0,055	-0,094
-604,386	-134,750	0,065	-0,006
-603,371	252,206	-0,035	0,044
-602,357	248,696	0,038	-0,047
-601,342	-200,000	-0,012	0,125
-600,328	115,566	-0,143	-0,129
-599,313	800,000	-0,026	-0,076
-598,298	-41,614	-0,115	0,044
-597,284	800,000	-0,040	0,104
-596,269	-52,843	-0,155	0,052
-595,255	-200,000	0,007	0,041
-594,240	-172,670	-0,143	-0,003
-593,225	-200,000	0,013	0,058
-592,211	219,245	-0,053	-0,062
-591,196	231,130	-0,017	-0,021
-590,182	150,956	0,038	-0,039
-589,167	51,677	-0,058	0,041
-588,152	521,637	-0,060	0,105
-587,138	792,175	0,014	-0,028
-586,123	-200,000	0,040	-0,152
-585,109	-200,000	-0,042	-0,186
-584,094	-105,696	0,034	-0,006
-583,079	12,558	0,072	0,041
-582,065	-11,902	0,204	0,099
-581,050	-200,000	-0,005	0,023
-580,036	-20,140	-0,082	-0,037
-579,021	156,566	-0,038	0,038
-578,006	-40,010	-0,045	0,017
-576,992	-136,869	-0,131	-0,011
-575,977	247,541	0,083	-0,104
-574,963	216,436	0,122	0,144
-573,948	-200,000	-0,019	0,101
-572,934	-79,097	-0,098	0,025
-571,919	271,050	-0,010	-0,013
-570,904	30,825	-0,046	0,029
-569,890	30,648	-0,117	-0,074
-568,875	441,048	-0,059	0,096
-567,861	800,000	-0,036	0,091
-566,846	-200,000	-0,009	0,079
-565,831	-200,000	-0,004	0,077
-564,817	134,339	-0,095	0,091
-563,802	-80,833	-0,037	0,009
-562,788	-37,689	0,101	0,040
-561,773	101,785	-0,042	0,036
-560,758	-86,255	0,070	-0,016
-559,744	278,668	0,061	0,080
-558,729	-200,000	-0,019	0,128
-557,715	-114,710	-0,116	0,016
-556,700	-200,000	0,037	0,129
-555,685	245,762	0,045	-0,056
-554,671	-111,890	-0,074	-0,011
-553,656	112,457	-0,053	0,047
-552,642	800,000	0,044	-0,123
-551,627	132,314	0,071	0,068
-550,612	7,628	0,061	-0,034
-549,598	87,164	-0,121	-0,099
-548,583	-200,000	-0,011	-0,118
-547,569	6,792	-0,090	-0,050
-546,554	-104,703	-0,059	-0,010
-545,539	25,030	0,019	0,012
-544,525	800,000	-0,029	-0,070
-543,510	800,000	-0,038	0,090
-542,496	-73,503	-0,166	-0,044
-541,481	-200,000	0,004	-0,065
-540,466	390,260	-0,038	0,058
-539,452	152,229	0,022	-0,022
-538,437	-149,662	0,169	-0,010
-537,423	702,664	0,036	-0,071
-536,408	800,000	0,040	-0,096
-535,393	86,424	-0,154	-0,126
-534,379	33,133	0,054	-0,034
-533,364	-70,080	-0,061	0,017
-532,350	800,000	0,079	0,174
-531,335	-144,665	-0,212	0,014
-530,321	-200,000	-0,000	0,051
-529,306	-200,000	-0,008	-0,037
-528,291	-106,898	-0,049	-0,008
-527,277	-200,000	-0,009	-0,159
-526,262	140,697	-0,117	-0,114
-525,248	-200,000	-0,016	0,074
-524,233	342,681	0,040	0,058
-523,218	-200,000	-0,006	0,043
-522,204	-200,000	-0,008	-0,035
-521,189	-200,000	-0,007	-0,100
-520,175	547,160	-0,037	-0,065
-519,160	-93,639	-0,165	0,033
-518,145	-60,817	-0,096	-0,030
-517,131	111,037	0,126	-0,113
-516,116	105,984	-0,125	-0,109
-515,102	-15,654	0,056	-0,026
-514,087	83,257	-0,092	-0,074
-513,072	-200,000	0,012	-0,058
-512,058	-86,785	-0,052	-0,012
-511,043	-142,781	-0,070	0,005
-510,029	-113,022	0,059	0,008
-509,014	172,303	0,107	-0,114
-507,999	-72,815	-0,032	0,009
-506,985	-30,118	-0,046	0,019
-505,970	356,639	0,094	-0,139
-504,956	25,406	-0,066	-0,041
-503,941	210,528	0,031	-0,036
-502,926	-200,000	-0,020	0,070
-501,912	-200,000	0,005	0,098
-500,897	2,735	0,091	-0,049
-499,883	-177,130	-0,063	0,001
-498,868	11,844	-0,172	-0,097
-497,853	178,108	0,103	-0,111
-496,839	-31,245	0,090	-0,037
-495,824	104,642	0,096	0,083
-494,810	754,638	-0,044	-0,087
-493,795	33,354	-0,059	-0,038
-492,781	8,591	-0,076	-0,042
-491,766	329,387	0,012	-0,017
-490,751	-200,000	0,004	-0,079
-489,737	410,188	-0,050	-0,079
-488,722	-200,000	0,007	-0,113
-487,708	-32,454	-0,026	-0,011
-486,693	412,434	-0,053	-0,083
-485,678	168,287	0,052	0,054
-484,664	-6,764	0,030	-0,015
-483,649	23,025	-0,147	-0,089
-482,635	-200,000	0,017	-0,087
-481,620	-34,767	-0,075	-0,030
-480,605	-39,427	0,013	0,005
-479,591	800,000	0,026	0,054
-478,576	534,796	-0,060	-0,106
-477,562	498,063	0,044	-0,076
-476,547	118,985	-0,028	-0,026
-475,532	296,147	-0,066	0,089
-474,518	122,947	0,056	0,051
-473,503	-200,000	0,038	0,191
-472,489	799,387	0,021	-0,044
-471,474	-200,000	-0,001	-0,085
-470,459	427,221	-0,094	-0,150
-469,445	-200,000	0,044	-0,164
-468,430	-92,902	-0,066	-0,014
-467,416	185,625	0,078	-0,085
-466,401	-58,991	-0,100	-0,032
-465,386	-200,000	0,001	0,043
-464,372	-134,101	-0,042	0,004
-463,357	56,580	0,063	0,045
-462,343	-200,000	-0,007	-0,034
-461,328	21,328	-0,051	-0,030
-460,313	110,276	0,019	0,017
-459,299	-200,000	0,034	0,159
-458,284	800,000	0,022	-0,068
-457,270	519,736	-0,035	0,060
-456,255	46,772	-0,088	0,060
-455,241	77,676	-0,061	-0,048
-454,226	800,000	0,026	0,067
-453,211	4,905	0,123	-0,066
-452,197	-200,000	0,006	0,131
-451,182	-28,720	0,111	0,047
-450,168	32,358	0,035	0,022
-449,153	-200,000	0,014	0,113
-448,138	800,000	0,022	0,069
-447,124	-200,000	-0,007	0,046
-446,109	-200,000	-0,027	-0,095
-445,095	122,000	-0,090	-0,083
-444,080	8,439	-0,047	-0,026
-443,065	-200,000	0,005	-0,090
-442,051	800,000	0,097	0,257
-441,036	79,207	0,055	0,044
-440,022	20,692	-0,108	-0,064
-439,007	232,842	-0,051	-0,062
-437,992	243,612	0,057	0,071
-436,978	-75,837	0,187	0,049
-435,963	-200,000	0,006	0,082
-434,949	-200,000	-0,002	0,045
-433,934	384,149	-0,046	-0,070
-432,919	88,272	0,066	-0,054
-431,905	238,373	0,051	0,063
-430,890	-0,119	0,036	-0,019
-429,876	10,309	0,051	0,028
-428,861	460,873	0,069	0,113
-427,846	673,614	-0,043	0,082
-426,832	800,000	0,016	0,049
-425,817	49,325	0,144	-0,099
-424,803	-200,000	-0,015	-0,064
-423,788	-82,944	0,148	-0,035
-422,773	60,821	0,042	-0,031
-421,759	517,014	0,047	0,081
-420,744	88,080	-0,047	-0,038
-419,730	-200,000	0,004	0,055
-418,715	437,629	-0,081	-0,131
-417,701	-134,142	0,141	0,013
-416,686	-134,183	-0,060	0,005
-415,671	354,755	0,073	0,107
-414,657	800,000	0,045	0,145
-413,642	-200,000	-0,002	-0,061
-412,628	-200,000	0,015	0,101
-411,613	-94,813	-0,089	-0,018
-410,598	800,000	0,032	0,087
-409,584	738,231	-0,024	-0,047
-408,569	-200,000	0,029	0,124
-407,555	-200,000	-0,012	0,071
-406,540	-10,249	0,015	0,007
-405,525	81,797	0,086	-0,069
-404,511	-174,701	-0,146	0,003
-403,496	141,979	0,127	0,124
-402,482	93,304	-0,006	-0,005
-401,467	800,000	0,077	0,176
-400,452	-200,000	0,012	0,090
-399,438	-20,499	0,044	-0,020
-398,423	-117,902	0,013	-0,002
-397,409	-2,497	0,096	-0,049
-396,394	240,665	0,152	0,186
-395,379	120,945	-0,072	-0,066
-394,365	41,376	-0,187	-0,124
-393,350	-200,000	0,026	0,148
-392,336	800,000	-0,038	0,090
-391,321	559,654	0,046	-0,083
-390,306	209,212	-0,033	0,038
-389,292	398,999	-0,048	0,074
-388,277	72,910	-0,114	-0,088
-387,263	-200,000	-0,010	0,082
-386,248	-140,203	0,102	-0,008
-385,233	-103,453	0,084	-0,014
-384,219	-200,000	0,002	0,014
-383,204	196,665	-0,046	0,052
-382,190	55,047	0,037	-0,026
-381,175	-75,134	0,093	-0,024
-380,160	-21,511	0,111	-0,049
-379,146	-200,000	0,005	-0,073
-378,131	-11,740	0,212	0,102
-377,117	21,860	-0,126	0,075
-376,102	104,677	-0,055	-0,047
-375,088	-74,633	-0,062	0,016
-374,073	732,707	0,017	-0,034
-373,058	85,321	0,148	0,119
-372,044	-34,391	0,154	0,062
-371,029	800,000	-0,025	0,062
-370,015	4,506	-0,077	-0,042
-369,000	3,371	-0,005	-0,003
-367,985	497,586	0,032	-0,055
-366,971	-82,566	-0,048	-0,011
-365,956	-200,000	-0,000	0,095
-364,942	-46,402	0,051	-0,018
-363,927	675,962	-0,055	-0,105
-362,912	2,262	-0,082	0,044
-361,898	190,073	-0,034	-0,038
-360,883	675,955	-0,040	0,077
-359,869	-46,946	-0,052	-0,019
-358,854	367,094	0,042	-0,062
-357,839	194,659	-0,012	-0,014
-356,825	-97,209	0,097	0,018
-355,810	11,352	-0,119	-0,067
-354,796	291,625	0,039	-0,053
-353,781	-200,000	-0,033	-0,146
-352,766	255,206	0,041	-0,052
-351,752	274,768	0,079	-0,103
-350,737	49,304	0,077	0,053
-349,723	50,281	-0,126	0,088
-348,708	800,000	0,022	0,054
-347,693	-101,404	-0,056	-0,010
-346,679	97,116	-0,084	-0,071
-345,664	431,151	-0,018	-0,029
-344,650	800,000	-0,087	0,188
-343,635	-36,753	0,055	0,022
-342,620	-98,183	0,045	-0,008
-341,606	-200,000	-0,011	0,076
-340,591	-128,302	-0,048	-0,005
-339,577	143,463	-0,052	-0,051
-338,562	-200,000	-0,022	-0,139
-337,548	-13,401	0,100	-0,047
-336,533	-200,000	0,024	0,092
-335,518	-121,080	-0,006	-0,001
-334,504	377,155	-0,016	0,024
-333,489	-200,000	0,018	0,118
-332,475	-86,631	-0,033	0,007
-331,460	-200,000	-0,007	0,093
-330,445	-200,000	-0,018	0,212
-329,431	351,685	0,076	0,110
-328,416	-200,000	0,019	0,228
-327,402	-10,316	-0,072	0,035
-326,387	0,752	-0,053	0,028
-325,372	800,000	-0,003	-0,010
-324,358	186,768	-0,046	-0,051
-323,343	-95,592	-0,035	0,007
-322,329	-200,000	0,010	-0,060
-321,314	621,549	0,024	0,045
-320,299	51,100	0,050	0,034
-319,285	-147,914	0,103	-0,006
-318,270	800,000	0,031	-0,073
-317,256	-200,000	-0,006	-0,051
-316,241	-77,984	-0,022	-0,006
-315,226	-94,913	0,113	0,022
-314,212	-45,671	0,083	0,030
-313,197	82,773	0,061	-0,048
-312,183	-135,427	-0,039	-0,003
-311,168	-200,000	0,003	-0,016
-310,153	-167,085	-0,073	0,002
-309,139	-8,773	-0,044	0,021
-308,124	-200,000	-0,020	0,101
-307,110	-200,000	0,018	-0,078
-306,095	2,866	-0,076	0,040
-305,080	-200,000	0,004	0,066
-304,066	800,000	0,043	-0,101
-303,051	587,170	-0,097	-0,176
-302,037	99,488	-0,094	-0,080
-301,022	318,181	0,004	-0,006
-300,008	207,341	0,079	-0,091
-298,993	28,828	-0,032	0,020
-297,978	309,547	0,069	0,095
-296,964	-93,141	-0,126	-0,025
-295,949	93,261	0,074	-0,061
-294,935	45,598	-0,072	0,049
-293,920	-36,275	0,056	-0,022
-292,905	-200,000	0,015	-0,145
-291,891	4,688	0,084	0,045
-290,876	245,006	-0,028	0,034
-289,862	21,734	0,169	-0,101
-288,847	-128,289	0,074	-0,008
-287,832	-99,798	-0,099	-0,018
-286,818	-95,663	0,094	-0,018
-285,803	-90,841	-0,064	0,013
-284,789	403,808	0,052	-0,080
-283,774	184,914	0,099	-0,108
-282,759	-145,642	-0,113	0,007
-281,745	-47,144	0,151	-0,054
-280,730	-200,000	-0,006	0,046
-279,716	800,000	-0,037	0,077
-278,701	-150,337	-0,100	0,006
-277,686	-200,000	0,016	-0,064
-276,672	-167,870	0,109	-0,003
-275,657	-52,362	-0,114	-0,038
-274,643	698,049	-0,042	-0,081
-273,628	172,570	-0,034	0,035
-272,613	234,768	-0,020	0,024
-271,599	-84,034	0,085	-0,020
-270,584	-137,710	-0,047	0,004
-269,570	800,000	0,055	-0,168
-268,555	-200,000	0,027	0,088
-267,540	11,683	0,043	0,024
-266,526	214,756	0,063	0,073
-265,511	3,367	-0,053	0,028
-264,497	-133,293	-0,037	0,003
-263,482	52,478	0,045	-0,031
-262,467	328,777	0,146	0,206
-261,453	800,000	0,031	-0,087
-260,438	-187,168	-0,106	0,001
-259,424	-200,000	0,025	0,092
-258,409	800,000	0,012	-0,038
-257,395	-200,000	-0,010	0,056
-256,380	-200,000	-0,005	0,025
-255,365	139,337	0,097	0,093
-254,351	-129,059	0,076	0,008
-253,336	-77,877	-0,177	-0,044
-252,322	109,222	0,036	-0,031
-251,307	-85,422	0,121	-0,027
-250,292	-200,000	0,025	-0,188
-249,278	-116,430	0,135	0,018
-248,263	-18,217	0,023	-0,010
-247,249	-95,245	-0,097	0,019
-246,234	-200,000	0,032	-0,173
-245,219	0,688	0,166	-0,086
-244,205	187,344	0,029	0,032
-243,190	800,000	0,024	0,072
-242,176	800,000	0,042	-0,116
-241,161	-200,000	-0,013	0,139
-240,146	-82,273	0,225	-0,053
-239,132	-200,000	0,002	0,019
-238,117	-67,477	-0,108	-0,031
-237,103	575,836	0,054	-0,097
-236,088	166,601	0,078	-0,081
-235,073	-200,000	-0,002	0,013
-234,059	-90,632	0,091	-0,019
-233,044	-200,000	-0,028	0,102
-232,030	-68,043	0,130	0,037
-231,015	-200,000	0,039	0,152
-230,000	-80,919	-0,035	-0,008
-228,986	56,496	-0,035	-0,025
-227,971	673,049	-0,050	0,096
-226,957	354,452	-0,075	-0,109
-225,942	-51,913	0,126	0,042
-224,927	-73,115	-0,124	0,033
-223,913	-60,236	0,042	-0,013
-222,898	66,239	-0,088	0,065
-221,884	800,000	0,010	-0,026
-220,869	800,000	0,029	-0,090
-219,855	-34,583	0,074	-0,030
-218,840	371,793	0,051	-0,076
-217,825	307,928	-0,024	0,032
-216,811	-200,000	0,019	-0,066
-215,796	800,000	0,030	-0,070
-214,782	-46,626	0,070	-0,025
-213,767	-106,853	-0,051	0,008
-212,752	116,889	0,159	0,143
-211,738	144,930	-0,079	-0,077
-210,723	-75,859	0,109	-0,028
-209,709	-200,000	0,017	-0,058
-208,694	-30,372	-0,093	0,038
-207,679	468,901	-0,058	-0,096
-206,665	58,652	0,090	0,064
-205,650	131,391	0,072	0,068
-204,636	143,212	0,105	0,102
-203,621	-200,000	-0,054	0,207
-202,606	800,000	-0,034	-0,087
-201,592	-78,678	0,081	0,020
-200,577	-164,776	-0,073	0,002
-199,563	17,888	0,075	0,043
-198,548	59,399	-0,103	-0,074
-197,533	-200,000	0,010	-0,127
-196,519	97,255	-0,003	0,003
-195,504	-3,765	0,066	-0,033
-194,490	-200,000	0,003	-0,113
-193,475	-51,985	-0,133	0,045
-192,460	81,145	0,053	0,042
-191,446	-47,970	0,109	-0,038
-190,431	800,000	0,043	0,117
-189,417	98,470	-0,035	-0,030
-188,402	-127,675	-0,105	-0,011
-187,387	800,000	0,028	0,074
-186,373	-112,797	-0,090	0,013
-185,358	498,778	0,047	-0,080
-184,344	110,459	0,058	0,051
-183,329	-83,099	0,069	-0,016
-182,315	21,110	0,090	-0,053
-181,300	-53,508	-0,043	-0,014
-180,285	800,000	0,027	0,074
-179,271	-16,521	0,128	-0,059
-178,256	800,000	0,001	-0,002
-177,242	88,226	-0,052	0,042
-176,227	682,699	0,069	0,131
-175,212	533,323	0,070	-0,122
-174,198	-200,000	0,013	0,074
-173,183	191,299	0,035	-0,038
-172,169	524,360	0,029	0,050
-171,154	-12,378	-0,026	0,012
-170,139	417,982	0,020	-0,031
-169,125	800,000	0,017	0,039
-168,110	-106,175	0,153	-0,025
-167,096	-200,000	0,008	0,079
-166,081	-97,325	-0,058	0,011
-165,066	-91,125	-0,113	0,023
-164,052	-57,557	-0,109	0,035
-163,037	61,339	-0,087	-0,063
-162,023	-157,199	0,095	-0,004
-161,008	-200,000	-0,023	0,159
-159,993	145,517	-0,046	0,045
-158,979	-97,461	-0,126	0,024
-157,964	-86,519	-0,091	-0,020
-156,950	-33,231	-0,088	-0,035
-155,935	800,000	0,032	0,079
-154,920	800,000	0,009	0,019
-153,906	800,000	0,083	0,173
-152,891	271,858	0,105	0,135
-151,877	-200,000	0,002	-0,173
-150,862	23,600	-0,074	0,044
-149,847	800,000	0,042	0,092
-148,833	273,162	-0,056	-0,072
-147,818	-117,154	0,159	0,021
-146,804	-54,819	-0,088	-0,029
-145,789	-23,403	0,113	0,049
-144,775	-43,033	-0,109	-0,040
-143,760	800,000	0,044	0,120
-142,745	-120,885	0,083	0,010
-141,731	-63,640	-0,014	-0,004
-140,716	-200,000	0,012	0,041
-139,702	146,850	0,037	-0,036
-138,687	-200,000	-0,002	0,047
-137,672	800,000	-0,053	0,131
-136,658	167,814	-0,039	0,041
-135,643	52,996	-0,069	0,048
-134,629	-147,699	-0,039	-0,002
-133,614	10,051	0,149	0,082
-132,599	-118,420	0,082	-0,011
-131,585	437,861	0,016	-0,025
-130,570	-108,443	-0,046	0,007
-129,556	139,031	0,073	-0,070
-128,541	418,580	-0,048	0,075
-127,526	-67,916	0,041	-0,012
-126,512	-68,903	0,167	-0,047
-125,497	-48,259	0,047	0,016
-124,483	327,296	-0,037	0,052
-123,468	-11,797	-0,101	0,048
-122,453	-109,263	-0,089	-0,014
-121,439	-200,000	0,015	-0,106
-120,424	39,227	0,060	-0,039
-119,410	-20,123	0,025	-0,011
-118,395	800,000	0,039	-0,118
