DTS Sentinel unit serial number:	SN410029Multiplexer serial number:	ORYXHardware model number:	OX2-SRSoftware version number:	ORYX F/W v4,00 Oryx Data Collector v3.7.2.0data status	okinstallation	B6 Nyhavnadifferential loss correction	single-endedforward channel	channel 2reverse channel	N/Adate	2023/12/09time	22:25:08forward acquisition time	300,00reverse acquisition time	0,00gamma	499,1914k internal	0,3127k external	0,3127temperature offset calibration	1,0000default loss term (dB/km)	0,3820temperature slope calibration	1,0000multiplexer offset coefficient	1,0000multiplexer slope coefficient	1,0000fibre end	0,00T internal ref (°C)	21,68T ext. ref 1 (°C)	5,43T ext. ref 2 (°C)	5,41length (m)	temperature (°C)	Stokes	anti-Stokes-744,400	800,000	0,053	-0,127
-743,385	-113,923	-0,251	0,036
-742,371	-100,998	0,173	-0,031
-741,356	-121,061	-0,202	0,025
-740,342	-77,528	0,035	0,009
-739,327	-20,889	-0,120	0,055
-738,312	-200,000	-0,044	-0,158
-737,298	-161,401	-0,332	-0,013
-736,283	-62,087	0,028	-0,009
-735,269	63,364	-0,223	0,167
-734,254	800,000	0,031	-0,076
-733,239	-34,092	-0,347	-0,141
-732,225	-200,000	0,023	0,118
-731,210	712,207	-0,035	0,069
-730,196	-200,000	-0,029	-0,177
-729,181	800,000	-0,046	-0,114
-728,167	-10,150	0,105	0,052
-727,152	35,560	-0,020	0,013
-726,137	-109,159	-0,103	-0,016
-725,123	29,761	0,072	0,045
-724,108	193,940	-0,151	-0,170
-723,094	147,944	-0,009	0,009
-722,079	-2,925	-0,094	-0,048
-721,064	-93,205	-0,146	-0,030
-720,050	232,387	-0,050	-0,061
-719,035	28,705	-0,011	-0,007
-718,021	-26,825	0,051	0,022
-717,006	72,030	-0,109	-0,084
-715,991	469,531	-0,020	0,034
-714,977	-200,000	-0,002	0,132
-713,962	210,271	-0,090	-0,105
-712,948	-116,391	0,074	-0,010
-711,933	-54,725	-0,051	-0,017
-710,918	-200,000	-0,010	-0,050
-709,904	-200,000	-0,002	-0,024
-708,889	-63,417	-0,143	-0,043
-707,875	262,787	0,098	-0,127
-706,860	260,212	-0,031	-0,040
-705,845	215,622	-0,078	-0,092
-704,831	800,000	0,002	0,005
-703,816	335,944	-0,053	0,077
-702,802	22,222	0,120	0,073
-701,787	382,636	0,079	-0,121
-700,772	42,867	-0,139	-0,094
-699,758	-31,705	-0,085	0,035
-698,743	-118,793	0,097	-0,013
-697,729	525,841	0,025	0,044
-696,714	61,829	-0,079	-0,058
-695,699	686,003	0,056	-0,109
-694,685	800,000	-0,045	0,130
-693,670	224,248	-0,062	-0,075
-692,656	-107,235	0,061	-0,010
-691,641	333,092	-0,072	-0,104
-690,627	20,152	0,068	0,041
-689,612	194,411	0,055	-0,062
-688,597	-90,846	0,023	-0,005
-687,583	-37,964	-0,131	-0,051
-686,568	357,018	0,084	-0,125
-685,554	15,306	-0,022	-0,013
-684,539	34,970	-0,071	-0,046
-683,524	651,019	-0,068	-0,130
-682,510	313,913	-0,032	0,045
-681,495	88,177	-0,025	0,021
-680,481	800,000	0,024	-0,075
-679,466	-200,000	-0,011	-0,095
-678,451	120,429	-0,062	0,057
-677,437	-200,000	0,014	0,049
-676,422	-200,000	-0,002	-0,031
-675,408	267,314	-0,054	-0,070
-674,393	250,113	-0,026	0,033
-673,378	-32,160	-0,152	-0,063
-672,364	239,526	-0,097	-0,120
-671,349	-200,000	0,008	-0,029
-670,335	-101,490	-0,068	-0,012
-669,320	98,246	-0,054	-0,046
-668,305	44,253	0,065	-0,044
-667,291	-109,147	-0,148	0,023
-666,276	39,823	-0,089	-0,059
-665,262	-200,000	-0,020	-0,072
-664,247	-112,586	0,040	-0,006
-663,232	-86,370	-0,200	0,045
-662,218	-200,000	-0,008	-0,041
-661,203	800,000	-0,057	0,144
-660,189	-200,000	-0,015	0,050
-659,174	208,223	-0,115	0,133
-658,159	773,049	0,019	0,038
-657,145	141,896	0,047	0,046
-656,130	58,770	0,059	-0,043
-655,116	80,854	-0,092	-0,073
-654,101	628,409	0,051	0,096
-653,086	74,112	-0,061	0,048
-652,072	800,000	0,033	-0,081
-651,057	800,000	-0,037	-0,085
-650,043	-9,439	-0,139	-0,069
-649,028	-200,000	-0,041	-0,141
-648,014	800,000	0,041	-0,101
-646,999	144,162	0,109	-0,108
-645,984	90,019	-0,092	0,076
-644,970	244,247	-0,066	-0,083
-643,955	-94,407	0,082	-0,017
-642,941	-114,208	-0,037	-0,005
-641,926	651,358	0,058	0,110
-640,911	319,972	0,059	-0,083
-639,897	-200,000	0,020	0,093
-638,882	800,000	-0,030	-0,076
-637,868	-200,000	0,024	-0,093
-636,853	-200,000	0,012	0,058
-635,838	-200,000	-0,008	-0,136
-634,824	-200,000	-0,038	-0,146
-633,809	-200,000	-0,014	-0,091
-632,795	367,912	-0,085	0,128
-631,780	-200,000	-0,004	0,089
-630,765	800,000	-0,048	0,126
-629,751	-200,000	0,020	-0,086
-628,736	-62,458	-0,060	-0,018
-627,722	800,000	-0,019	-0,042
-626,707	297,640	0,079	0,108
-625,692	-200,000	-0,010	-0,079
-624,678	587,430	-0,036	0,066
-623,663	237,952	-0,079	0,098
-622,649	800,000	-0,024	0,066
-621,634	-93,871	0,067	0,014
-620,619	132,216	0,055	-0,052
-619,605	55,301	0,081	0,058
-618,590	800,000	-0,045	0,106
-617,576	-200,000	-0,014	0,052
-616,561	37,851	0,104	-0,068
-615,546	800,000	-0,010	0,029
-614,532	-200,000	-0,018	-0,103
-613,517	-200,000	0,010	-0,037
-612,503	-200,000	-0,030	-0,120
-611,488	-200,000	0,016	-0,066
-610,474	14,453	0,022	0,013
-609,459	-200,000	0,015	-0,084
-608,444	388,854	-0,063	0,097
-607,430	-200,000	0,009	-0,096
-606,415	111,074	-0,100	0,089
-605,401	93,913	-0,045	0,038
-604,386	-9,654	0,058	0,029
-603,371	672,674	-0,055	0,107
-602,357	-200,000	-0,008	-0,028
-601,342	527,127	-0,091	-0,159
-600,328	311,399	-0,053	-0,074
-599,313	5,325	-0,147	-0,080
-598,298	-200,000	0,030	-0,186
-597,284	-200,000	0,001	-0,081
-596,269	224,847	-0,061	-0,073
-595,255	-200,000	0,022	0,091
-594,240	502,180	0,025	-0,042
-593,225	417,633	0,051	0,081
-592,211	-62,815	-0,065	-0,020
-591,196	-25,575	-0,117	-0,051
-590,182	800,000	0,078	0,186
-589,167	213,443	0,106	0,124
-588,152	249,260	-0,104	-0,131
-587,138	-75,330	-0,085	0,022
-586,123	123,262	-0,159	-0,148
-585,109	-123,954	0,071	-0,008
-584,094	39,423	-0,029	-0,019
-583,079	-200,000	-0,002	0,160
-582,065	242,726	0,008	-0,010
-581,050	18,957	0,108	0,064
-580,036	18,906	0,152	-0,090
-579,021	79,927	-0,049	0,039
-578,006	-200,000	-0,004	-0,068
-576,992	-83,062	0,114	0,027
-575,977	-4,230	-0,110	-0,056
-574,963	800,000	-0,026	0,073
-573,948	121,981	-0,024	-0,022
-572,934	-8,487	-0,029	0,014
-571,919	-200,000	-0,014	-0,133
-570,904	114,145	-0,006	0,006
-569,890	194,141	0,028	-0,031
-568,875	426,543	0,074	-0,119
-567,861	-125,677	0,049	0,005
-566,846	800,000	-0,052	0,154
-565,831	54,355	0,154	0,109
-564,817	-128,158	-0,046	0,005
-563,802	-76,023	-0,140	-0,036
-562,788	-200,000	-0,005	-0,019
-561,773	159,918	-0,168	-0,174
-560,758	-200,000	0,003	0,026
-559,744	147,607	-0,063	-0,063
-558,729	-200,000	-0,005	-0,023
-557,715	16,245	0,092	0,054
-556,700	-200,000	0,013	-0,061
-555,685	284,644	0,068	-0,091
-554,671	-35,326	0,051	-0,020
-553,656	115,706	-0,113	-0,103
-552,642	435,503	0,043	-0,069
-551,627	527,384	0,015	0,026
-550,612	-120,229	0,096	0,012
-549,598	239,670	0,009	0,011
-548,583	-181,748	0,172	0,002
-547,569	-64,460	-0,111	0,033
-546,554	237,995	-0,056	0,069
-545,539	521,251	0,023	-0,040
-544,525	-161,956	0,006	0,000
-543,510	238,991	0,058	-0,071
-542,496	-0,374	-0,069	0,036
-541,481	50,266	-0,045	0,032
-540,466	-200,000	0,009	0,081
-539,452	-56,248	0,189	0,062
-538,437	-30,783	0,086	-0,036
-537,423	-118,774	0,050	0,006
-536,408	150,645	0,098	-0,098
-535,393	149,161	-0,056	-0,056
-534,379	-200,000	-0,006	-0,078
-533,364	189,694	-0,046	-0,051
-532,350	427,767	0,027	0,043
-531,335	-42,938	0,079	-0,030
-530,321	-200,000	-0,007	-0,030
-529,306	-79,467	-0,012	-0,003
-528,291	41,335	-0,070	0,047
-527,277	-200,000	-0,010	0,169
-526,262	264,649	0,043	0,055
-525,248	596,368	-0,017	0,030
-524,233	-200,000	-0,023	0,103
-523,218	-132,451	0,044	0,004
-522,204	12,331	-0,094	-0,053
-521,189	-200,000	-0,002	-0,137
-520,175	298,014	-0,033	-0,045
-519,160	-28,396	-0,043	-0,018
-518,145	-200,000	0,042	0,157
-517,131	210,870	0,042	0,049
-516,116	-200,000	-0,001	0,099
-515,102	483,884	-0,088	0,148
-514,087	-30,539	-0,144	-0,060
-513,072	75,197	0,040	0,031
-512,058	-98,665	-0,051	0,010
-511,043	-80,414	0,062	-0,015
-510,029	131,917	-0,094	0,089
-509,014	134,464	0,075	-0,072
-507,999	117,746	0,092	0,083
-506,985	189,793	-0,048	-0,053
-505,970	-200,000	0,000	0,021
-504,956	-48,034	-0,062	0,022
-503,941	-55,035	0,102	0,034
-502,926	-79,150	0,033	-0,008
-501,912	-148,874	-0,133	0,008
-500,897	-200,000	0,034	0,193
-499,883	-135,854	-0,053	0,005
-498,868	800,000	-0,063	-0,138
-497,853	94,698	0,088	-0,073
-496,839	579,458	0,048	-0,087
-495,824	-200,000	-0,009	0,065
-494,810	-150,406	0,166	0,009
-493,795	-81,516	0,005	-0,001
-492,781	-200,000	-0,003	-0,017
-491,766	141,118	-0,053	-0,051
-490,751	-106,082	0,149	-0,024
-489,737	649,489	0,020	-0,038
-488,722	97,684	0,128	0,108
-487,708	-138,817	-0,018	0,001
-486,693	-36,312	-0,029	0,012
-485,678	573,589	0,048	-0,087
-484,664	-144,271	-0,045	-0,003
-483,649	529,036	0,029	-0,051
-482,635	502,615	-0,065	-0,111
-481,620	-200,000	-0,007	0,097
-480,605	-162,041	0,131	-0,005
-479,591	-200,000	0,013	0,058
-478,576	-200,000	-0,012	0,127
-477,562	25,836	-0,025	-0,016
-476,547	87,669	0,103	-0,084
-475,532	-1,488	-0,080	0,041
-474,518	-200,000	0,009	-0,053
-473,503	91,361	-0,054	-0,044
-472,489	-100,953	-0,127	0,023
-471,474	737,754	0,023	0,046
-470,459	7,501	0,109	-0,060
-469,445	569,810	0,083	-0,149
-468,430	800,000	0,062	-0,194
-467,416	-98,867	0,100	0,019
-466,401	-117,397	0,080	0,011
-465,386	136,373	0,103	-0,099
-464,372	25,917	-0,083	0,051
-463,357	-200,000	0,018	-0,108
-462,343	-200,000	0,013	-0,046
-461,328	800,000	0,041	-0,102
-460,313	-200,000	-0,002	0,082
-459,299	-183,080	-0,050	-0,001
-458,284	-85,037	-0,116	-0,027
-457,270	4,110	-0,058	-0,031
-456,255	150,349	0,073	-0,073
-455,241	10,980	0,107	0,060
-454,226	-200,000	-0,010	-0,048
-453,211	800,000	-0,034	-0,100
-452,197	-110,735	0,087	-0,013
-451,182	102,745	-0,117	-0,101
-450,168	-44,579	0,066	-0,024
-449,153	-200,000	-0,020	0,106
-448,138	800,000	-0,014	-0,030
-447,124	20,239	-0,008	0,005
-446,109	61,249	-0,136	0,099
-445,095	-142,997	0,136	0,010
-444,080	800,000	0,017	0,047
-443,065	-152,414	-0,141	-0,007
-442,051	-73,553	-0,041	0,011
-441,036	178,500	-0,050	-0,054
-440,022	-41,065	-0,079	-0,030
-439,007	3,111	0,105	-0,056
-437,992	-129,077	-0,080	0,008
-436,978	-8,934	0,132	0,065
-435,963	800,000	0,021	0,063
-434,949	35,681	-0,105	0,068
-433,934	-200,000	0,014	-0,091
-432,919	800,000	-0,020	-0,047
-431,905	-70,152	0,073	0,020
-430,890	200,321	-0,043	-0,048
-429,876	800,000	0,090	0,201
-428,861	-50,050	-0,042	0,015
-427,846	550,027	-0,039	0,068
-426,832	252,120	0,008	0,011
-425,817	-89,779	-0,052	-0,011
-424,803	242,252	0,078	-0,096
-423,788	138,167	0,085	0,082
-422,773	499,645	0,022	0,038
-421,759	157,883	-0,082	0,084
-420,744	38,521	0,081	-0,053
-419,730	44,394	-0,163	-0,110
-418,715	-33,609	0,074	0,030
-417,701	-6,794	-0,060	-0,030
-416,686	-39,906	0,092	-0,035
-415,671	-200,000	0,001	0,004
-414,657	-107,530	0,060	0,010
-413,642	438,385	0,011	-0,018
-412,628	800,000	-0,029	-0,076
-411,613	-200,000	-0,010	-0,190
-410,598	800,000	0,046	-0,131
-409,584	62,447	0,147	0,108
-408,569	800,000	-0,016	-0,050
-407,555	11,926	0,161	0,090
-406,540	548,917	-0,030	-0,053
-405,525	47,132	-0,128	-0,087
-404,511	800,000	-0,022	-0,066
-403,496	-123,222	-0,019	0,002
-402,482	84,380	-0,054	0,043
-401,467	-109,478	0,225	0,035
-400,452	408,234	0,037	0,058
-399,438	800,000	0,024	0,075
-398,423	-121,913	-0,081	-0,010
-397,409	190,613	-0,068	-0,075
-396,394	9,337	0,176	-0,097
-395,379	157,231	-0,045	0,045
-394,365	-31,086	0,072	0,030
-393,350	39,408	0,042	0,028
-392,336	-200,000	0,019	0,192
-391,321	-84,746	0,052	0,012
-390,306	211,970	-0,078	-0,090
-389,292	800,000	0,044	0,133
-388,277	-105,838	-0,021	0,003
-387,263	12,512	0,088	0,049
-386,248	-75,264	0,091	-0,024
-385,233	-200,000	-0,024	-0,093
-384,219	133,236	-0,061	-0,058
-383,204	-200,000	-0,011	0,035
-382,190	-139,177	-0,148	-0,012
-381,175	25,458	-0,104	-0,064
-380,160	800,000	-0,027	0,079
-379,146	800,000	0,067	0,174
-378,131	-108,114	0,127	0,020
-377,117	38,648	-0,047	-0,031
-376,102	289,623	-0,062	-0,083
-375,088	800,000	0,024	-0,073
-374,073	358,376	0,059	-0,086
-373,058	396,589	-0,021	-0,033
-372,044	-170,410	0,039	0,001
-371,029	573,917	-0,050	0,090
-370,015	800,000	0,050	0,127
-369,000	90,457	-0,095	-0,078
-367,985	-161,768	0,079	-0,003
-366,971	213,738	0,109	0,126
-365,956	427,933	-0,054	0,086
-364,942	526,408	0,035	0,061
-363,927	800,000	0,059	0,133
-362,912	-200,000	-0,002	-0,122
-361,898	-84,355	-0,058	-0,013
-360,883	800,000	-0,020	-0,043
-359,869	-68,284	-0,108	-0,031
-358,854	-124,430	0,083	-0,009
-357,839	-22,713	-0,026	0,012
-356,825	329,307	0,032	-0,045
-355,810	137,708	-0,021	0,020
-354,796	276,574	0,022	0,029
-353,781	-96,543	0,093	-0,018
-352,766	77,748	-0,073	-0,057
-351,752	566,763	0,056	-0,100
-350,737	-104,630	-0,126	-0,021
-349,723	100,868	0,046	-0,039
-348,708	-200,000	0,017	0,080
-347,693	-126,492	0,104	-0,011
-346,679	23,429	-0,093	0,056
-345,664	-200,000	0,017	-0,153
-344,650	-89,248	0,027	-0,006
-343,635	142,300	-0,035	0,034
-342,620	8,284	-0,078	0,043
-341,606	-132,910	-0,115	0,011
-340,591	-109,151	-0,097	-0,015
-339,577	-200,000	-0,008	-0,051
-338,562	351,955	-0,033	0,049
-337,548	1,574	-0,029	-0,015
-336,533	-98,052	0,065	0,012
-335,518	800,000	0,052	0,157
-334,504	-200,000	0,013	-0,200
-333,489	-97,654	-0,025	-0,005
-332,475	504,386	-0,041	0,070
-331,460	18,612	0,048	-0,028
-330,445	14,291	0,067	0,038
-329,431	-200,000	0,029	0,099
-328,416	153,349	-0,093	0,093
-327,402	-200,000	0,009	0,070
-326,387	-98,296	-0,042	0,008
-325,372	-121,215	-0,033	0,004
-324,358	-91,842	-0,196	-0,040
-323,343	228,811	-0,099	0,118
-322,329	-200,000	0,034	-0,118
-321,314	-67,759	0,148	-0,042
-320,299	-131,809	0,048	0,005
-319,285	-189,905	0,052	-0,000
-318,270	185,208	-0,071	0,077
-317,256	82,734	-0,132	-0,105
-316,241	-200,000	0,013	-0,059
-315,226	-200,000	-0,015	-0,127
-314,212	414,809	0,080	-0,126
-313,197	-87,007	0,092	-0,020
-312,183	130,248	-0,099	0,093
-311,168	228,540	-0,044	0,053
-310,153	26,004	0,045	-0,027
-309,139	800,000	-0,029	-0,080
-308,124	11,723	-0,098	0,055
-307,110	195,712	-0,036	0,040
-306,095	-30,216	0,073	-0,030
-305,080	178,521	0,003	-0,003
-304,066	800,000	0,021	-0,047
-303,051	-200,000	-0,031	-0,162
-302,037	-200,000	-0,001	-0,088
-301,022	-200,000	-0,015	0,123
-300,008	800,000	0,002	-0,007
-298,993	227,982	-0,035	0,042
-297,978	39,233	-0,091	-0,059
-296,964	19,965	-0,091	-0,054
-295,949	-200,000	0,021	-0,167
-294,935	-200,000	-0,022	0,103
-293,920	33,689	0,112	-0,071
-292,905	-33,395	0,049	-0,020
-291,891	214,483	0,041	-0,048
-290,876	195,402	-0,033	0,037
-289,862	-76,689	0,061	-0,016
-288,847	-101,208	0,056	0,010
-287,832	-23,161	-0,050	-0,022
-286,818	463,766	-0,046	-0,075
-285,803	12,188	0,091	0,051
-284,789	-200,000	-0,023	-0,126
-283,774	-82,151	0,042	-0,010
-282,759	-200,000	0,012	0,088
-281,745	54,480	-0,097	-0,068
-280,730	44,217	0,063	-0,042
-279,716	34,922	-0,046	-0,030
-278,701	-67,884	0,137	0,039
-277,686	-84,132	0,103	0,024
-276,672	-169,249	0,192	0,005
-275,657	192,756	0,033	-0,036
-274,643	289,076	-0,083	-0,110
-273,628	243,204	0,057	-0,070
-272,613	-200,000	0,005	0,062
-271,599	-200,000	0,042	0,146
-270,584	-12,244	0,100	0,048
-269,570	-84,226	-0,107	-0,025
-268,555	800,000	0,026	-0,056
-267,540	800,000	-0,038	-0,101
-266,526	166,717	-0,029	-0,030
-265,511	-200,000	0,024	-0,120
-264,497	129,493	-0,119	0,111
-263,482	-178,514	-0,039	-0,001
-262,467	800,000	0,032	0,066
-261,453	-200,000	0,028	0,162
-260,438	-52,686	-0,093	-0,031
-259,424	-200,000	-0,025	0,092
-258,409	154,652	-0,052	-0,052
-257,395	-200,000	0,020	0,066
-256,380	334,244	-0,062	-0,088
-255,365	-200,000	-0,003	0,012
-254,351	180,598	0,093	0,099
-253,336	-61,992	0,057	-0,017
-252,322	800,000	-0,054	-0,110
-251,307	-13,785	-0,061	-0,029
-250,292	-22,828	0,098	-0,043
-249,278	29,108	0,064	0,040
-248,263	296,567	0,058	0,078
-247,249	-89,563	-0,165	0,035
-246,234	530,542	-0,065	0,112
-245,219	-158,091	-0,028	0,001
-244,205	-167,699	-0,221	0,006
-243,190	169,247	-0,055	-0,057
-242,176	-72,692	-0,064	0,017
-241,161	-200,000	0,030	0,118
-240,146	-200,000	0,036	0,131
-239,132	109,736	0,047	0,041
-238,117	32,850	-0,098	-0,062
-237,103	255,053	0,036	-0,044
-236,088	-19,263	-0,056	-0,025
-235,073	48,655	0,061	0,042
-234,059	800,000	0,063	0,168
-233,044	146,453	-0,067	-0,066
-232,030	-200,000	-0,011	0,262
-231,015	231,813	0,011	-0,014
-230,000	-79,199	-0,120	0,029
-228,986	-57,159	0,062	-0,020
-227,971	444,150	0,031	0,050
-226,957	-200,000	0,007	0,136
-225,942	-169,825	0,037	-0,001
-224,927	-200,000	0,027	0,114
-223,913	50,419	-0,046	-0,032
-222,898	275,631	-0,137	-0,178
-221,884	-200,000	0,036	-0,119
-220,869	284,586	0,037	0,049
-219,855	-173,015	-0,108	0,002
-218,840	-200,000	0,018	0,075
-217,825	273,476	-0,035	0,045
-216,811	178,248	-0,080	0,086
-215,796	746,592	-0,035	0,069
-214,782	-14,538	0,064	0,030
-213,767	38,862	0,085	0,055
-212,752	321,093	-0,029	0,040
-211,738	-200,000	0,008	0,076
-210,723	-40,920	0,078	0,029
-209,709	-77,726	-0,065	-0,016
-208,694	-200,000	0,011	-0,053
-207,679	-96,179	-0,128	0,025
-206,665	800,000	0,015	-0,041
-205,650	437,811	-0,023	-0,036
-204,636	153,062	0,094	0,094
-203,621	-174,234	0,041	-0,001
-202,606	303,672	-0,059	0,080
-201,592	271,474	0,126	0,162
-200,577	-200,000	-0,005	0,027
-199,563	106,493	0,020	-0,017
-198,548	-200,000	0,019	0,151
-197,533	32,083	0,033	-0,021
-196,519	-6,835	0,034	0,017
-195,504	800,000	-0,004	0,008
-194,490	89,228	-0,026	0,021
-193,475	-159,047	0,048	-0,002
-192,460	-20,630	0,055	-0,025
-191,446	800,000	0,019	-0,056
-190,431	-52,368	0,073	-0,025
-189,417	87,819	0,011	-0,009
-188,402	-132,026	-0,073	0,007
-187,387	-123,053	-0,128	-0,015
-186,373	43,346	-0,079	-0,052
-185,358	639,535	0,047	-0,088
-184,344	-200,000	-0,020	0,086
-183,329	150,510	-0,040	0,039
-182,315	800,000	-0,047	0,113
-181,300	584,582	0,073	-0,130
-180,285	22,123	-0,013	-0,008
-179,271	352,018	-0,112	-0,162
-178,256	-200,000	0,006	-0,032
-177,242	686,287	0,050	0,096
-176,227	309,344	0,096	0,131
-175,212	-200,000	0,018	0,061
-174,198	-200,000	-0,015	0,142
-173,183	94,472	-0,161	-0,133
-172,169	-58,635	0,103	0,032
-171,154	800,000	-0,068	0,192
-170,139	800,000	-0,054	0,128
-169,125	-17,673	-0,024	0,011
-168,110	-47,785	0,037	-0,013
-167,096	212,825	-0,038	0,044
-166,081	142,041	-0,041	0,040
-165,066	-200,000	0,003	-0,130
-164,052	322,702	0,090	0,125
-163,037	196,879	-0,022	0,024
-162,023	-162,473	0,214	0,008
-161,008	-80,456	0,180	0,043
-159,993	128,629	-0,076	0,071
-158,979	-21,936	-0,189	-0,083
-157,964	-200,000	0,006	0,152
-156,950	-136,114	-0,088	-0,007
-155,935	800,000	-0,038	-0,077
-154,920	-13,070	0,125	-0,059
-153,906	100,872	-0,131	0,111
-152,891	-23,606	0,056	-0,024
-151,877	240,902	-0,038	-0,046
-150,862	106,664	-0,104	0,090
-149,847	201,612	-0,054	0,060
-148,833	800,000	-0,033	0,074
-147,818	425,021	0,064	0,100
-146,804	-200,000	0,034	0,172
-145,789	-42,675	-0,168	0,062
-144,775	-200,000	-0,003	-0,141
-143,760	800,000	-0,056	-0,146
-142,745	126,923	0,043	0,040
-141,731	167,649	-0,053	-0,055
-140,716	123,185	-0,091	-0,083
-139,702	800,000	0,030	0,090
-138,687	5,849	0,004	-0,002
-137,672	800,000	0,022	0,048
-136,658	-20,450	-0,111	-0,049
-135,643	128,166	0,062	-0,057
-134,629	-200,000	0,038	-0,125
-133,614	800,000	-0,030	-0,074
-132,599	800,000	0,044	0,138
-131,585	232,395	0,023	-0,027
-130,570	-200,000	0,003	0,025
-129,556	800,000	-0,031	0,071
-128,541	800,000	-0,028	-0,090
-127,526	-90,612	0,063	-0,013
-126,512	-200,000	0,003	0,025
-125,497	-200,000	-0,010	-0,037
-124,483	287,445	0,118	0,155
-123,468	-200,000	-0,005	0,025
-122,453	402,241	-0,018	0,028
-121,439	73,690	-0,080	-0,061
-120,424	190,602	-0,094	-0,102
-119,410	-200,000	-0,017	0,105
