DTS Sentinel unit serial number:	SN410029Multiplexer serial number:	ORYXHardware model number:	OX2-SRSoftware version number:	ORYX F/W v4,00 Oryx Data Collector v3.7.2.0data status	okinstallation	B6 Nyhavnadifferential loss correction	single-endedforward channel	channel 2reverse channel	N/Adate	2023/12/07time	13:05:08forward acquisition time	300,00reverse acquisition time	0,00gamma	499,1914k internal	0,3203k external	0,3203temperature offset calibration	1,0000default loss term (dB/km)	0,3820temperature slope calibration	1,0000multiplexer offset coefficient	1,0000multiplexer slope coefficient	1,0000fibre end	0,00T internal ref (°C)	11,24T ext. ref 1 (°C)	-2,30T ext. ref 2 (°C)	-2,32length (m)	temperature (°C)	Stokes	anti-Stokes-744,400	122,093	0,168	0,153
-743,385	-27,705	-0,191	-0,080
-742,371	262,150	0,149	0,189
-741,356	-92,290	-0,418	-0,085
-740,342	-36,633	0,108	0,042
-739,327	44,032	-0,301	-0,200
-738,312	227,977	0,121	0,144
-737,298	-80,255	-0,192	-0,046
-736,283	-40,112	0,190	0,071
-735,269	-116,023	-0,206	-0,028
-734,254	27,654	0,162	0,099
-733,239	-102,325	-0,585	-0,101
-732,225	-116,448	0,223	0,030
-731,210	390,587	-0,063	-0,095
-730,196	534,823	-0,066	-0,114
-729,181	-6,625	-0,081	-0,040
-728,167	800,000	0,078	-0,177
-727,152	-200,000	-0,007	-0,124
-726,137	-200,000	0,001	0,057
-725,123	393,162	-0,111	-0,169
-724,108	-71,288	-0,049	-0,013
-723,094	800,000	-0,032	-0,081
-722,079	-200,000	-0,002	0,038
-721,064	-200,000	-0,003	-0,098
-720,050	-12,650	-0,215	-0,102
-719,035	800,000	-0,068	0,143
-718,021	-33,868	-0,022	0,009
-717,006	1,358	-0,137	-0,071
-715,991	-7,278	-0,092	-0,045
-714,977	-182,378	-0,058	-0,001
-713,962	252,002	-0,068	-0,084
-712,948	799,291	0,057	-0,114
-711,933	-93,858	0,045	0,009
-710,918	-149,206	-0,025	0,001
-709,904	3,717	-0,070	-0,037
-708,889	-40,737	-0,194	-0,072
-707,875	800,000	-0,027	-0,082
-706,860	10,138	-0,092	-0,051
-705,845	-200,000	-0,000	-0,047
-704,831	-200,000	0,003	0,020
-703,816	758,509	0,006	0,011
-702,802	800,000	-0,008	0,025
-701,787	65,301	0,056	0,041
-700,772	-200,000	-0,002	-0,069
-699,758	-200,000	0,000	-0,054
-698,743	-200,000	-0,011	-0,047
-697,729	-44,162	-0,104	0,038
-696,714	-173,853	0,087	-0,002
-695,699	355,793	-0,086	-0,125
-694,685	242,865	-0,058	0,071
-693,670	302,499	-0,070	-0,094
-692,656	92,307	-0,096	-0,079
-691,641	-14,995	0,042	0,019
-690,627	800,000	-0,055	0,128
-689,612	800,000	-0,015	-0,047
-688,597	800,000	0,067	0,142
-687,583	800,000	-0,036	-0,099
-686,568	143,273	0,048	0,046
-685,554	240,548	0,061	0,074
-684,539	716,534	-0,002	0,005
-683,524	800,000	-0,020	0,060
-682,510	-129,753	-0,157	0,015
-681,495	103,605	0,048	-0,041
-680,481	-95,795	0,030	-0,006
-679,466	350,446	-0,017	0,024
-678,451	-96,913	-0,147	0,028
-677,437	-200,000	0,003	0,021
-676,422	-200,000	-0,037	0,165
-675,408	191,398	-0,100	-0,110
-674,393	235,129	0,040	-0,047
-673,378	-41,283	0,156	-0,058
-672,364	659,827	0,072	-0,136
-671,349	-103,143	0,107	0,018
-670,335	-200,000	0,011	0,053
-669,320	203,581	-0,032	-0,036
-668,305	-200,000	0,007	-0,068
-667,291	-200,000	-0,025	-0,085
-666,276	-200,000	-0,003	-0,020
-665,262	138,832	-0,192	-0,183
-664,247	472,321	-0,040	-0,066
-663,232	800,000	0,014	0,040
-662,218	436,377	-0,030	0,047
-661,203	59,918	-0,030	0,021
-660,189	-200,000	-0,001	0,060
-659,174	800,000	0,018	-0,048
-658,159	22,671	-0,086	-0,051
-657,145	151,101	-0,032	0,032
-656,130	513,739	-0,034	0,057
-655,116	174,782	0,049	-0,051
-654,101	208,085	0,094	0,106
-653,086	800,000	-0,008	0,016
-652,072	396,267	-0,060	-0,091
-651,057	-4,631	-0,136	-0,068
-650,043	-145,960	0,050	-0,003
-649,028	-27,715	-0,084	-0,035
-648,014	-200,000	0,002	-0,171
-646,999	-160,221	0,144	-0,006
-645,984	13,074	0,109	-0,061
-644,970	-147,534	-0,124	-0,007
-643,955	-75,842	-0,078	0,020
-642,941	-72,591	0,023	0,006
-641,926	187,757	-0,054	-0,059
-640,911	122,711	0,071	-0,064
-639,897	-200,000	-0,020	0,097
-638,882	-200,000	-0,037	-0,197
-637,868	208,966	-0,081	-0,092
-636,853	-97,210	-0,152	0,028
-635,838	172,285	-0,114	-0,119
-634,824	-47,525	0,058	0,020
-633,809	-72,666	-0,037	0,010
-632,795	800,000	0,008	-0,026
-631,780	163,177	0,047	0,048
-630,765	-132,347	-0,049	-0,005
-629,751	-7,016	0,017	-0,008
-628,736	-28,764	-0,044	0,018
-627,722	-61,576	-0,083	-0,025
-626,707	533,375	0,061	-0,105
-625,692	800,000	-0,028	-0,090
-624,678	-117,822	0,035	-0,004
-623,663	-21,946	-0,018	-0,008
-622,649	348,585	-0,092	-0,131
-621,634	-76,580	0,024	0,006
-620,619	-200,000	0,006	0,044
-619,605	168,934	0,156	0,161
-618,590	800,000	0,030	0,073
-617,576	-8,487	0,090	0,044
-616,561	-200,000	-0,001	-0,075
-615,546	-1,046	-0,056	0,029
-614,532	84,380	-0,145	0,114
-613,517	-200,000	-0,037	-0,150
-612,503	-200,000	-0,014	-0,056
-611,488	135,340	-0,018	-0,017
-610,474	157,797	0,034	0,034
-609,459	-35,854	-0,050	-0,020
-608,444	424,860	0,081	-0,127
-607,430	-51,139	-0,073	-0,025
-606,415	58,462	0,095	-0,068
-605,401	104,673	0,015	0,013
-604,386	-200,000	-0,006	0,177
-603,371	-31,128	-0,127	-0,052
-602,357	800,000	0,061	-0,158
-601,342	449,281	0,026	-0,042
-600,328	416,242	-0,090	-0,140
-599,313	-119,841	-0,171	-0,021
-598,298	800,000	0,034	-0,103
-597,284	-60,972	-0,065	-0,020
-596,269	146,542	0,046	0,045
-595,255	800,000	0,045	-0,107
-594,240	-101,205	-0,085	-0,015
-593,225	29,537	0,038	-0,023
-592,211	-200,000	-0,016	-0,253
-591,196	-200,000	0,006	-0,177
-590,182	166,508	0,034	0,035
-589,167	131,209	0,089	-0,083
-588,152	800,000	0,010	-0,027
-587,138	293,764	0,094	0,124
-586,123	559,058	0,034	-0,059
-585,109	186,925	-0,023	-0,024
-584,094	477,208	-0,021	-0,035
-583,079	462,544	0,011	-0,017
-582,065	120,762	0,032	-0,028
-581,050	800,000	0,067	0,137
-580,036	-101,292	-0,042	-0,007
-579,021	501,532	-0,032	-0,053
-578,006	-200,000	-0,030	-0,139
-576,992	-105,269	0,016	0,003
-575,977	800,000	0,013	0,042
-574,963	-110,225	-0,054	-0,008
-573,948	34,521	0,027	-0,017
-572,934	-200,000	-0,012	-0,123
-571,919	800,000	-0,043	0,092
-570,904	674,857	0,007	-0,013
-569,890	800,000	-0,063	-0,135
-568,875	-200,000	0,022	0,126
-567,861	-46,131	0,011	0,004
-566,846	800,000	0,059	0,128
-565,831	-52,139	-0,030	-0,010
-564,817	58,161	-0,088	-0,062
-563,802	420,749	-0,068	-0,106
-562,788	157,455	0,072	-0,072
-561,773	800,000	-0,046	-0,142
-560,758	405,352	-0,075	0,114
-559,744	2,978	0,152	0,080
-558,729	-200,000	-0,033	0,210
-557,715	295,756	-0,093	-0,123
-556,700	-71,329	-0,059	0,016
-555,685	80,102	-0,099	-0,077
-554,671	119,151	0,041	0,037
-553,656	-97,259	0,113	-0,021
-552,642	800,000	-0,033	0,088
-551,627	-43,833	-0,029	-0,011
-550,612	468,947	0,059	-0,095
-549,598	800,000	-0,032	0,074
-548,583	135,714	-0,049	0,046
-547,569	-165,649	0,033	-0,001
-546,554	-200,000	-0,018	0,085
-545,539	-63,133	0,024	-0,007
-544,525	-200,000	0,012	0,046
-543,510	-200,000	-0,019	0,071
-542,496	39,411	0,092	0,060
-541,481	800,000	-0,040	-0,116
-540,466	-91,556	0,056	-0,011
-539,452	-200,000	0,007	-0,041
-538,437	357,532	0,072	0,104
-537,423	-200,000	-0,000	-0,074
-536,408	-200,000	0,017	-0,157
-535,393	265,001	-0,018	-0,023
-534,379	800,000	0,030	-0,062
-533,364	280,003	-0,060	0,077
-532,350	-33,885	0,068	0,027
-531,335	-97,792	-0,063	-0,012
-530,321	800,000	-0,027	0,082
-529,306	800,000	0,068	-0,191
-528,291	800,000	-0,021	0,064
-527,277	303,690	-0,060	-0,080
-526,262	-57,359	-0,093	-0,029
-525,248	300,053	0,033	-0,044
-524,233	-83,081	0,066	-0,015
-523,218	110,360	-0,103	-0,090
-522,204	-120,413	0,074	-0,009
-521,189	-140,164	-0,087	0,006
-520,175	-200,000	0,003	-0,054
-519,160	433,965	-0,089	-0,140
-518,145	800,000	-0,030	-0,065
-517,131	103,560	0,022	0,018
-516,116	57,870	0,025	-0,017
-515,102	-55,068	-0,012	0,004
-514,087	-20,238	-0,096	-0,043
-513,072	-29,034	-0,083	0,034
-512,058	-200,000	0,017	-0,097
-511,043	-121,160	0,108	0,013
-510,029	-63,195	0,071	0,021
-509,014	-32,228	-0,113	-0,045
-507,999	-200,000	-0,011	0,058
-506,985	-14,794	0,150	-0,069
-505,970	-50,006	-0,096	-0,033
-504,956	-145,408	0,053	-0,003
-503,941	-200,000	0,008	0,056
-502,926	-200,000	0,003	-0,042
-501,912	-153,164	0,150	-0,007
-500,897	-200,000	0,014	0,053
-499,883	-147,179	-0,029	-0,002
-498,868	800,000	-0,066	0,182
-497,853	800,000	-0,031	-0,064
-496,839	-200,000	0,006	0,047
-495,824	-200,000	0,001	-0,067
-494,810	-200,000	0,004	-0,025
-493,795	93,521	0,106	0,086
-492,781	45,223	-0,079	-0,052
-491,766	164,259	0,085	-0,086
-490,751	-175,152	0,026	0,001
-489,737	-82,849	-0,093	0,021
-488,722	-20,742	0,076	0,033
-487,708	5,660	-0,077	0,041
-486,693	-200,000	0,018	-0,063
-485,678	-106,158	-0,055	0,009
-484,664	-200,000	0,022	0,130
-483,649	242,887	-0,099	-0,120
-482,635	-128,303	0,056	-0,006
-481,620	800,000	0,026	-0,081
-480,605	30,248	0,105	-0,064
-479,591	45,872	0,096	0,064
-478,576	800,000	0,031	0,068
-477,562	-200,000	0,002	0,048
-476,547	-5,125	-0,019	0,009
-475,532	-54,200	0,115	-0,037
-474,518	307,269	0,099	0,133
-473,503	-200,000	0,001	0,028
-472,489	800,000	-0,043	0,111
-471,474	-200,000	0,006	0,032
-470,459	135,887	0,114	-0,107
-469,445	616,811	0,045	-0,082
-468,430	208,111	0,050	-0,057
-467,416	-78,794	-0,145	0,035
-466,401	769,137	0,023	0,046
-465,386	-110,221	0,074	0,011
-464,372	252,658	0,068	0,084
-463,357	800,000	-0,045	-0,095
-462,343	124,810	0,028	-0,026
-461,328	800,000	0,027	-0,077
-460,313	68,132	0,013	-0,010
-459,299	-200,000	-0,021	-0,162
-458,284	-52,605	-0,122	-0,040
-457,270	54,864	0,072	0,050
-456,255	-149,592	-0,065	0,004
-455,241	-54,142	-0,104	0,034
-454,226	-200,000	-0,000	-0,034
-453,211	-105,196	0,166	-0,027
-452,197	-48,277	0,114	-0,039
-451,182	-200,000	0,015	0,124
-450,168	188,753	-0,111	0,120
-449,153	-75,481	0,103	-0,026
-448,138	80,644	-0,111	0,086
-447,124	-77,986	-0,074	0,018
-446,109	-130,955	-0,106	0,010
-445,095	-200,000	-0,015	0,119
-444,080	-200,000	0,044	0,163
-443,065	-12,652	0,114	0,053
-442,051	-78,060	-0,053	0,013
-441,036	56,020	-0,060	-0,041
-440,022	-54,010	0,167	0,054
-439,007	-158,557	-0,035	0,001
-437,992	-200,000	-0,029	-0,175
-436,978	53,920	0,062	-0,042
-435,963	167,469	-0,052	-0,053
-434,949	-200,000	0,017	0,055
-433,934	-200,000	0,003	0,081
-432,919	393,263	-0,056	-0,084
-431,905	213,175	-0,065	-0,074
-430,890	-48,000	0,123	0,042
-429,876	-25,183	0,061	-0,026
-428,861	-200,000	-0,018	0,141
-427,846	-18,798	-0,129	0,057
-426,832	-50,579	-0,073	0,024
-425,817	192,455	-0,007	-0,007
-424,803	272,352	0,054	0,069
-423,788	-200,000	0,003	0,076
-422,773	44,091	0,109	0,072
-421,759	-80,411	0,117	-0,028
-420,744	4,207	-0,082	-0,043
-419,730	-72,364	-0,035	-0,009
-418,715	-180,194	-0,212	-0,003
-417,701	-40,927	0,056	0,020
-416,686	800,000	-0,009	-0,018
-415,671	800,000	0,023	0,058
-414,657	800,000	-0,053	-0,161
-413,642	-191,825	0,123	0,001
-412,628	-200,000	0,017	-0,118
-411,613	-200,000	-0,033	-0,129
-410,598	-6,893	0,050	0,025
-409,584	-0,280	0,132	-0,067
-408,569	170,886	0,159	0,164
-407,555	800,000	0,024	0,064
-406,540	-200,000	0,008	-0,040
-405,525	350,857	-0,056	0,079
-404,511	212,723	-0,109	-0,124
-403,496	-115,743	0,049	0,006
-402,482	-200,000	0,007	-0,048
-401,467	15,669	0,117	-0,066
-400,452	-92,913	0,103	-0,020
-399,438	256,193	-0,062	-0,076
-398,423	15,231	-0,055	-0,031
-397,409	-200,000	-0,028	0,105
-396,394	800,000	0,060	-0,129
-395,379	218,563	0,096	-0,110
-394,365	353,789	-0,055	-0,079
-393,350	-70,775	0,083	0,022
-392,336	-51,125	0,033	0,011
-391,321	-37,809	-0,092	0,035
-390,306	-130,402	0,053	-0,005
-389,292	657,020	-0,021	-0,038
-388,277	298,137	0,038	-0,050
-387,263	55,472	-0,078	0,054
-386,248	-138,026	0,103	0,008
-385,233	800,000	-0,069	0,157
-384,219	-108,132	-0,096	-0,015
-383,204	395,940	-0,066	-0,099
-382,190	98,045	-0,080	-0,066
-381,175	-17,552	0,094	-0,042
-380,160	792,495	0,019	0,039
-379,146	800,000	-0,015	0,038
-378,131	490,344	0,057	0,094
-377,117	36,281	-0,057	-0,036
-376,102	800,000	0,033	-0,093
-375,088	-200,000	-0,008	-0,097
-374,073	-200,000	-0,015	0,083
-373,058	-200,000	-0,043	0,174
-372,044	-38,731	-0,103	0,039
-371,029	-110,256	-0,089	0,013
-370,015	115,710	0,071	0,062
-369,000	212,534	0,097	0,109
-367,985	-200,000	0,023	0,104
-366,971	143,269	-0,124	0,118
-365,956	-70,877	0,139	-0,037
-364,942	-125,078	0,034	0,004
-363,927	800,000	-0,018	0,038
-362,912	115,112	0,136	0,119
-361,898	244,135	-0,102	0,122
-360,883	-80,127	-0,023	-0,005
-359,869	383,911	-0,054	0,079
-358,854	-71,827	0,062	-0,016
-357,839	-39,134	0,021	-0,008
-356,825	347,054	-0,025	0,035
-355,810	-80,981	-0,145	-0,034
-354,796	800,000	-0,026	0,077
-353,781	3,499	0,069	0,036
-352,766	-200,000	0,017	-0,072
-351,752	800,000	-0,017	-0,038
-350,737	374,888	0,033	-0,048
-349,723	-162,245	-0,105	0,004
-348,708	-200,000	-0,007	-0,047
-347,693	147,835	0,041	0,040
-346,679	-131,312	0,042	0,004
-345,664	-200,000	0,020	-0,096
-344,650	-124,914	0,049	0,005
-343,635	223,324	-0,055	-0,064
-342,620	-41,057	0,045	-0,016
-341,606	-200,000	-0,033	0,193
-340,591	-136,996	0,026	-0,002
-339,577	-126,765	0,059	0,006
-338,562	-18,817	0,018	0,008
-337,548	-85,795	-0,087	-0,019
-336,533	659,766	0,060	0,112
-335,518	-200,000	-0,019	0,121
-334,504	32,062	0,143	-0,088
-333,489	-200,000	0,002	-0,060
-332,475	25,576	-0,055	-0,033
-331,460	-62,875	-0,081	0,024
-330,445	-97,539	-0,070	-0,013
-329,431	396,641	0,063	0,095
-328,416	-148,604	0,030	0,002
-327,402	23,050	-0,037	0,022
-326,387	-46,488	0,041	-0,014
-325,372	106,545	-0,062	-0,052
-324,358	55,122	-0,076	0,053
-323,343	58,007	0,097	0,068
-322,329	304,588	0,053	-0,070
-321,314	97,440	0,053	0,044
-320,299	-199,347	0,125	-0,000
-319,285	-134,576	0,039	-0,003
-318,270	-18,984	-0,056	0,025
-317,256	711,044	0,026	0,048
-316,241	241,037	-0,063	-0,075
-315,226	-200,000	0,006	0,097
-314,212	64,264	0,152	0,109
-313,197	367,250	0,015	-0,022
-312,183	800,000	0,050	0,124
-311,168	38,579	-0,048	-0,030
-310,153	28,866	-0,015	0,009
-309,139	-200,000	-0,005	0,103
-308,124	-200,000	-0,025	0,181
-307,110	81,223	-0,088	0,068
-306,095	2,462	-0,057	0,030
-305,080	-200,000	0,000	-0,105
-304,066	-35,216	-0,112	0,043
-303,051	-200,000	0,024	0,101
-302,037	-200,000	0,003	0,121
-301,022	-200,000	-0,009	-0,040
-300,008	-7,638	-0,033	-0,016
-298,993	-200,000	0,003	-0,016
-297,978	235,998	-0,083	0,098
-296,964	-161,237	0,083	-0,003
-295,949	292,269	-0,022	-0,029
-294,935	413,437	0,072	-0,110
-293,920	289,594	-0,102	-0,132
-292,905	571,115	-0,060	0,105
-291,891	-75,568	-0,039	-0,010
-290,876	800,000	0,048	-0,125
-289,862	-97,820	-0,052	-0,009
-288,847	-123,193	0,011	0,001
-287,832	81,788	0,098	-0,075
-286,818	-83,048	-0,076	-0,017
-285,803	-200,000	0,024	0,109
-284,789	-200,000	0,035	0,227
-283,774	31,620	0,097	0,059
-282,759	75,871	-0,093	0,070
-281,745	215,083	-0,072	-0,082
-280,730	-138,547	0,122	-0,009
-279,716	-200,000	0,034	0,143
-278,701	751,046	0,068	-0,131
-277,686	396,369	-0,026	-0,040
-276,672	711,606	0,052	-0,099
-275,657	6,386	0,083	0,044
-274,643	800,000	0,006	0,017
-273,628	-200,000	-0,013	-0,155
-272,613	-62,333	-0,060	0,018
-271,599	-200,000	-0,008	-0,053
-270,584	800,000	0,036	-0,072
-269,570	-200,000	-0,014	0,162
-268,555	91,629	-0,041	-0,033
-267,540	257,811	0,021	-0,026
-266,526	800,000	0,009	-0,019
-265,511	15,695	-0,032	-0,018
-264,497	223,664	0,113	0,131
-263,482	93,104	0,029	0,023
-262,467	-200,000	0,010	0,082
-261,453	-141,248	-0,062	0,004
-260,438	-156,400	-0,035	-0,002
-259,424	-123,089	-0,079	0,009
-258,409	57,505	-0,066	0,046
-257,395	800,000	-0,016	-0,044
-256,380	-110,744	0,060	-0,009
-255,365	800,000	-0,026	0,053
-254,351	-200,000	-0,009	-0,054
-253,336	405,862	0,044	0,066
-252,322	45,693	-0,107	-0,070
-251,307	-200,000	-0,003	0,060
-250,292	255,052	-0,090	0,110
-249,278	14,274	0,082	-0,045
-248,263	-200,000	-0,025	0,087
-247,249	800,000	-0,023	0,069
-246,234	-200,000	0,003	-0,024
-245,219	-11,864	-0,075	-0,035
-244,205	-200,000	0,016	-0,136
-243,190	800,000	0,024	-0,051
-242,176	121,062	-0,090	0,080
-241,161	12,394	0,095	-0,052
-240,146	-200,000	-0,010	-0,038
-239,132	-200,000	-0,003	0,108
-238,117	279,078	0,061	0,078
-237,103	322,950	-0,020	-0,027
-236,088	800,000	0,023	0,052
-235,073	-200,000	0,015	0,080
-234,059	-4,136	0,154	-0,076
-233,044	-200,000	-0,033	0,172
-232,030	-21,322	-0,042	-0,018
-231,015	95,454	0,043	0,035
-230,000	149,270	0,050	0,048
-228,986	195,561	-0,088	0,096
-227,971	-84,388	-0,158	-0,035
-226,957	-92,191	0,130	0,026
-225,942	-200,000	-0,021	0,098
-224,927	800,000	-0,022	-0,061
-223,913	-21,773	0,118	0,051
-222,898	-138,736	-0,067	-0,005
-221,884	-39,686	0,064	0,024
-220,869	800,000	0,019	-0,045
-219,855	199,621	-0,068	0,075
-218,840	332,672	0,056	0,077
-217,825	-200,000	-0,253	-0,001
-216,811	95,270	-0,088	-0,071
-215,796	444,701	0,047	-0,074
-214,782	23,225	0,089	-0,052
-213,767	800,000	-0,010	-0,022
-212,752	-123,229	-0,059	0,007
-211,738	-200,000	-0,008	-0,054
-210,723	258,803	0,058	0,072
-209,709	800,000	0,047	0,101
-208,694	121,121	0,041	-0,037
-207,679	-54,939	-0,069	0,022
-206,665	173,172	0,053	-0,055
-205,650	-39,024	0,049	0,018
-204,636	-106,785	0,040	-0,006
-203,621	800,000	-0,033	0,092
-202,606	397,342	-0,099	0,148
-201,592	447,451	-0,037	-0,058
-200,577	271,691	0,141	-0,177
-199,563	-200,000	-0,020	0,088
-198,548	635,592	-0,021	0,038
-197,533	-102,316	0,073	0,012
-196,519	-101,754	0,115	0,020
-195,504	156,991	-0,012	-0,012
-194,490	-68,565	0,052	-0,014
-193,475	-75,791	-0,101	-0,025
-192,460	56,326	-0,046	0,032
-191,446	199,216	-0,057	0,062
-190,431	185,401	0,069	0,073
-189,417	-168,232	0,044	0,001
-188,402	469,216	0,035	0,057
-187,387	-200,000	-0,011	-0,071
-186,373	800,000	-0,057	-0,114
-185,358	382,913	-0,071	-0,104
-184,344	-147,772	0,133	-0,008
-183,329	-200,000	0,002	-0,070
-182,315	-84,848	-0,127	0,028
-181,300	-200,000	-0,004	-0,023
-180,285	84,858	-0,059	-0,046
-179,271	-53,303	-0,092	-0,030
-178,256	5,425	-0,074	0,039
-177,242	-102,381	0,084	-0,014
-176,227	800,000	-0,036	0,103
-175,212	651,580	0,039	0,071
-174,198	-200,000	-0,029	0,096
-173,183	243,457	0,067	0,080
-172,169	-200,000	-0,018	-0,107
-171,154	-200,000	0,031	-0,128
-170,139	-200,000	-0,003	-0,156
-169,125	-70,227	-0,114	-0,031
-168,110	-200,000	0,046	0,154
-167,096	233,903	0,020	0,023
-166,081	7,749	0,047	-0,025
-165,066	-145,782	-0,085	0,005
-164,052	-200,000	-0,008	0,129
-163,037	-200,000	0,014	-0,060
-162,023	341,752	-0,078	0,109
-161,008	17,103	0,092	0,052
-159,993	-200,000	0,005	0,023
-158,979	13,326	-0,037	-0,020
-157,964	-114,495	-0,086	-0,012
-156,950	-109,663	0,158	-0,023
-155,935	33,327	-0,026	0,016
-154,920	-200,000	-0,019	-0,060
-153,906	800,000	-0,044	0,115
-152,891	-45,194	0,122	-0,043
-151,877	800,000	-0,059	-0,135
-150,862	-137,495	-0,097	0,008
-149,847	55,490	0,137	0,094
-148,833	-98,987	0,033	0,006
-147,818	800,000	-0,026	0,077
-146,804	173,885	0,073	-0,075
-145,789	511,875	0,054	-0,090
-144,775	-200,000	0,008	-0,027
-143,760	-46,374	-0,087	-0,030
-142,745	-200,000	0,001	-0,063
-141,731	-200,000	-0,016	0,061
-140,716	-200,000	-0,002	0,098
-139,702	-200,000	0,017	0,059
-138,687	-8,471	0,033	0,016
-137,672	68,415	-0,205	0,149
-136,658	-92,705	-0,035	0,007
-135,643	800,000	-0,083	-0,170
-134,629	195,949	-0,070	-0,075
-133,614	-73,728	-0,034	0,009
-132,599	-9,556	-0,109	0,052
-131,585	171,181	0,027	0,028
-130,570	-200,000	-0,004	-0,098
-129,556	-200,000	-0,062	-0,210
-128,541	-36,199	-0,141	0,054
-127,526	188,625	-0,070	0,075
-126,512	-200,000	0,031	0,129
-125,497	800,000	0,048	0,105
-124,483	302,349	0,055	0,072
-123,468	-162,860	-0,079	0,003
-122,453	-200,000	-0,003	-0,042
-121,439	-173,270	0,081	0,002
-120,424	-85,599	-0,117	0,026
