DTS Sentinel unit serial number:	SN410029Multiplexer serial number:	ORYXHardware model number:	OX2-SRSoftware version number:	ORYX F/W v4,00 Oryx Data Collector v3.7.2.0data status	okinstallation	B6 Nyhavnadifferential loss correction	single-endedforward channel	channel 2reverse channel	N/Adate	2023/12/09time	03:00:08forward acquisition time	300,00reverse acquisition time	0,00gamma	499,1914k internal	0,3154k external	0,3154temperature offset calibration	1,0000default loss term (dB/km)	0,3820temperature slope calibration	1,0000multiplexer offset coefficient	1,0000multiplexer slope coefficient	1,0000fibre end	0,00T internal ref (°C)	16,15T ext. ref 1 (°C)	0,00T ext. ref 2 (°C)	-0,02length (m)	temperature (°C)	Stokes	anti-Stokes-744,400	-124,542	0,044	0,005
-743,385	-105,994	-0,236	0,039
-742,371	97,887	0,076	-0,064
-741,356	-63,900	-0,208	-0,062
-740,342	-30,782	0,067	-0,028
-739,327	-157,447	-0,448	0,020
-738,312	89,397	0,173	-0,142
-737,298	-189,577	-0,339	-0,003
-736,283	-116,732	0,090	0,012
-735,269	-132,447	-0,181	-0,017
-734,254	85,219	-0,121	0,098
-733,239	-63,595	-0,356	-0,107
-732,225	227,627	0,067	0,081
-731,210	281,303	0,067	0,089
-730,196	-127,873	0,107	0,011
-729,181	98,308	-0,032	0,027
-728,167	-200,000	0,037	0,151
-727,152	800,000	-0,034	0,093
-726,137	543,891	-0,064	-0,112
-725,123	-200,000	0,009	-0,145
-724,108	800,000	-0,068	-0,166
-723,094	41,127	-0,110	-0,073
-722,079	-200,000	-0,016	-0,110
-721,064	-200,000	0,020	-0,126
-720,050	-80,491	0,091	-0,022
-719,035	800,000	-0,034	0,080
-718,021	-200,000	0,022	-0,113
-717,006	-55,969	-0,130	-0,043
-715,991	-200,000	-0,032	-0,156
-714,977	307,942	-0,015	0,021
-713,962	518,856	0,078	-0,136
-712,948	362,672	0,031	0,046
-711,933	-8,939	-0,091	-0,045
-710,918	-200,000	0,014	0,085
-709,904	20,869	-0,096	0,057
-708,889	89,095	-0,133	-0,109
-707,875	-200,000	-0,027	-0,112
-706,860	-66,315	-0,079	-0,023
-705,845	-74,736	0,148	-0,039
-704,831	-200,000	0,001	0,137
-703,816	641,534	-0,062	0,116
-702,802	-157,382	-0,079	-0,003
-701,787	332,186	-0,028	-0,040
-700,772	-75,670	0,048	0,012
-699,758	-144,754	0,079	-0,005
-698,743	147,148	-0,087	0,086
-697,729	800,000	0,043	-0,114
-696,714	-81,234	0,151	-0,036
-695,699	800,000	-0,070	0,146
-694,685	43,350	-0,112	0,075
-693,670	-200,000	0,011	0,084
-692,656	-200,000	0,010	-0,088
-691,641	46,004	0,082	0,056
-690,627	98,896	-0,028	0,024
-689,612	-116,015	0,108	-0,015
-688,597	-200,000	0,022	0,119
-687,583	43,693	-0,142	-0,096
-686,568	-53,658	-0,022	-0,007
-685,554	-195,910	0,104	-0,001
-684,539	207,848	0,126	-0,145
-683,524	-7,292	0,051	0,026
-682,510	77,580	-0,069	0,054
-681,495	439,675	-0,041	-0,067
-680,481	-8,273	0,091	-0,045
-679,466	-17,856	-0,123	0,057
-678,451	-158,309	-0,167	0,007
-677,437	-168,917	-0,216	0,006
-676,422	19,759	0,161	0,095
-675,408	-87,681	-0,035	0,008
-674,393	249,189	-0,024	0,031
-673,378	-92,446	-0,114	-0,023
-672,364	-89,590	-0,060	0,013
-671,349	221,454	-0,099	-0,117
-670,335	-145,667	0,117	-0,008
-669,320	-115,514	0,100	-0,014
-668,305	-62,992	-0,053	0,016
-667,291	800,000	0,028	-0,075
-666,276	-102,925	0,052	-0,009
-665,262	-200,000	0,007	-0,049
-664,247	38,341	-0,055	0,036
-663,232	-26,113	0,010	0,004
-662,218	766,951	-0,034	-0,068
-661,203	222,113	0,083	-0,098
-660,189	603,265	-0,034	0,062
-659,174	800,000	0,047	-0,105
-658,159	800,000	0,026	-0,075
-657,145	537,293	-0,056	-0,098
-656,130	403,857	0,073	-0,113
-655,116	-183,555	0,130	-0,002
-654,101	405,651	0,070	0,109
-653,086	632,025	-0,022	0,041
-652,072	-200,000	0,017	0,063
-651,057	-200,000	-0,015	-0,130
-650,043	15,369	-0,021	-0,012
-649,028	225,070	0,033	-0,040
-648,014	800,000	-0,040	0,114
-646,999	-73,845	0,079	-0,021
-645,984	113,408	0,060	0,053
-644,970	-2,925	0,064	-0,033
-643,955	158,009	0,062	-0,063
-642,941	-100,166	-0,037	-0,007
-641,926	89,468	0,009	0,008
-640,911	-59,737	0,011	-0,003
-639,897	301,641	0,082	0,112
-638,882	485,418	0,073	0,122
-637,868	800,000	-0,049	0,136
-636,853	-67,324	0,067	-0,019
-635,838	693,529	-0,045	-0,088
-634,824	-45,307	-0,099	0,036
-633,809	63,536	0,038	-0,028
-632,795	-200,000	0,003	0,090
-631,780	-156,999	0,142	0,006
-630,765	88,266	-0,079	-0,064
-629,751	-179,038	-0,101	-0,002
-628,736	800,000	-0,042	-0,090
-627,722	3,729	0,050	0,027
-626,707	55,456	-0,099	0,070
-625,692	65,824	0,097	0,072
-624,678	-12,440	-0,067	0,032
-623,663	83,968	-0,048	-0,038
-622,649	-158,452	-0,124	0,005
-621,634	222,261	-0,102	-0,121
-620,619	-67,698	0,026	-0,007
-619,605	488,502	-0,035	0,059
-618,590	800,000	0,041	-0,087
-617,576	-200,000	0,020	0,104
-616,561	100,682	0,035	-0,030
-615,546	82,269	-0,024	-0,019
-614,532	135,359	-0,052	-0,049
-613,517	-23,916	0,026	0,011
-612,503	800,000	-0,039	-0,095
-611,488	53,131	0,083	-0,058
-610,474	97,831	-0,045	-0,038
-609,459	-72,140	-0,053	-0,014
-608,444	800,000	0,032	0,079
-607,430	-129,376	-0,053	0,005
-606,415	234,551	-0,010	-0,013
-605,401	535,931	0,036	0,063
-604,386	280,192	0,068	0,090
-603,371	-200,000	0,030	0,127
-602,357	-71,623	-0,071	-0,019
-601,342	349,237	-0,022	-0,032
-600,328	800,000	0,040	-0,103
-599,313	167,891	0,064	-0,066
-598,298	-7,509	0,063	-0,031
-597,284	-9,633	-0,070	-0,034
-596,269	114,807	0,025	0,023
-595,255	-95,340	0,051	-0,010
-594,240	479,880	-0,053	-0,089
-593,225	281,714	-0,065	-0,086
-592,211	129,098	-0,038	0,035
-591,196	-200,000	-0,009	0,036
-590,182	-133,149	-0,151	-0,014
-589,167	-200,000	0,001	0,031
-588,152	-200,000	-0,003	-0,102
-587,138	-200,000	0,047	-0,193
-586,123	-200,000	0,034	-0,154
-585,109	-55,234	-0,016	0,005
-584,094	800,000	-0,029	0,075
-583,079	-200,000	-0,002	0,014
-582,065	-107,736	-0,023	0,004
-581,050	-200,000	-0,006	-0,046
-580,036	782,880	0,032	-0,064
-579,021	-190,498	-0,015	-0,000
-578,006	-12,422	-0,074	0,035
-576,992	-122,438	-0,070	0,008
-575,977	180,155	0,031	-0,034
-574,963	-102,673	-0,029	0,005
-573,948	80,845	0,006	-0,004
-572,934	-152,556	0,096	-0,005
-571,919	117,681	0,026	-0,024
-570,904	-32,078	-0,040	0,016
-569,890	315,077	-0,021	0,029
-568,875	-98,418	0,084	0,016
-567,861	-200,000	0,009	-0,110
-566,846	-96,140	0,057	0,011
-565,831	800,000	0,061	0,135
-564,817	-11,143	-0,130	0,063
-563,802	800,000	-0,075	-0,157
-562,788	43,385	0,096	-0,064
-561,773	-146,964	0,087	0,005
-560,758	-200,000	-0,004	0,030
-559,744	-3,115	0,065	0,033
-558,729	325,905	-0,043	-0,061
-557,715	800,000	-0,017	-0,043
-556,700	33,217	-0,091	-0,058
-555,685	58,445	0,028	-0,020
-554,671	152,894	0,066	-0,066
-553,656	-200,000	-0,010	-0,067
-552,642	800,000	0,008	-0,017
-551,627	-200,000	0,032	-0,117
-550,612	-200,000	0,000	0,022
-549,598	-200,000	0,003	-0,058
-548,583	240,468	-0,081	-0,099
-547,569	260,534	0,113	0,144
-546,554	168,905	-0,056	0,059
-545,539	-153,226	0,086	-0,004
-544,525	145,651	-0,115	-0,113
-543,510	-160,953	-0,028	-0,001
-542,496	-200,000	0,003	-0,040
-541,481	800,000	-0,054	-0,162
-540,466	623,731	-0,050	-0,092
-539,452	800,000	-0,011	-0,031
-538,437	261,539	0,079	-0,100
-537,423	328,568	-0,095	-0,134
-536,408	-89,116	0,048	-0,010
-535,393	-73,151	-0,104	0,028
-534,379	800,000	-0,038	-0,083
-533,364	-9,413	0,103	-0,050
-532,350	-14,771	-0,060	-0,028
-531,335	-122,669	0,132	-0,015
-530,321	800,000	-0,009	0,020
-529,306	-200,000	0,023	0,108
-528,291	133,163	-0,077	-0,072
-527,277	62,500	0,100	-0,073
-526,262	-200,000	0,008	0,038
-525,248	178,048	-0,050	0,053
-524,233	216,918	-0,098	-0,115
-523,218	17,161	0,009	-0,005
-522,204	34,542	0,048	0,031
-521,189	-151,359	-0,064	-0,003
-520,175	93,430	0,065	0,054
-519,160	-200,000	0,001	0,079
-518,145	-200,000	-0,007	0,118
-517,131	28,247	0,095	-0,058
-516,116	-69,554	-0,087	0,024
-515,102	-87,924	-0,061	0,013
-514,087	321,403	-0,070	-0,098
-513,072	800,000	0,031	0,086
-512,058	800,000	0,042	0,097
-511,043	668,079	0,028	-0,053
-510,029	-200,000	-0,000	0,124
-509,014	-51,874	0,086	-0,029
-507,999	165,438	-0,092	-0,096
-506,985	7,090	-0,098	0,054
-505,970	236,992	-0,058	-0,071
-504,956	-20,953	0,102	0,045
-503,941	788,631	0,023	0,047
-502,926	-99,905	-0,052	0,009
-501,912	-33,374	0,158	0,063
-500,897	800,000	0,011	-0,024
-499,883	-200,000	0,011	-0,060
-498,868	-19,376	-0,132	-0,059
-497,853	47,021	0,047	-0,032
-496,839	154,243	0,004	-0,004
-495,824	372,341	0,055	0,083
-494,810	137,212	-0,048	-0,046
-493,795	800,000	-0,065	-0,135
-492,781	800,000	-0,048	-0,119
-491,766	-200,000	-0,014	-0,049
-490,751	-200,000	0,015	-0,099
-489,737	-200,000	0,015	0,053
-488,722	-200,000	-0,019	0,118
-487,708	623,611	-0,049	0,091
-486,693	-131,211	-0,255	0,024
-485,678	187,099	0,057	-0,062
-484,664	-169,180	-0,074	0,002
-483,649	-81,222	-0,214	-0,051
-482,635	767,295	0,077	0,153
-481,620	800,000	-0,027	0,086
-480,605	-58,403	-0,065	0,020
-479,591	12,489	0,072	0,040
-478,576	-200,000	0,008	-0,098
-477,562	27,138	-0,126	-0,077
-476,547	201,841	-0,035	0,040
-475,532	800,000	-0,013	0,039
-474,518	800,000	0,030	0,077
-473,503	139,691	-0,090	-0,087
-472,489	800,000	-0,020	-0,060
-471,474	-62,130	-0,072	0,022
-470,459	788,383	-0,003	-0,007
-469,445	-147,656	-0,095	-0,006
-468,430	-200,000	-0,006	-0,145
-467,416	-28,553	0,134	-0,056
-466,401	-43,501	0,016	0,006
-465,386	136,009	0,055	-0,052
-464,372	800,000	0,029	-0,069
-463,357	800,000	0,055	-0,120
-462,343	-47,158	-0,073	0,026
-461,328	32,206	0,093	-0,059
-460,313	-52,886	0,040	-0,013
-459,299	-10,843	0,052	0,025
-458,284	68,646	0,056	0,042
-457,270	-200,000	-0,023	0,086
-456,255	697,045	0,030	0,058
-455,241	165,218	0,042	0,043
-454,226	-11,437	-0,050	0,024
-453,211	800,000	0,043	-0,091
-452,197	101,628	0,042	0,035
-451,182	800,000	-0,059	0,135
-450,168	-200,000	0,005	-0,025
-449,153	573,990	-0,035	0,062
-448,138	-155,578	-0,091	-0,004
-447,124	-121,785	-0,088	0,010
-446,109	-200,000	0,009	0,035
-445,095	97,284	0,061	0,051
-444,080	-200,000	0,003	0,092
-443,065	-200,000	-0,003	-0,043
-442,051	88,189	0,134	0,109
-441,036	-45,590	0,037	-0,013
-440,022	-200,000	-0,025	-0,131
-439,007	-160,035	0,091	-0,004
-437,992	-200,000	-0,013	0,140
-436,978	-61,868	-0,062	0,019
-435,963	-51,094	0,064	-0,022
-434,949	315,166	-0,053	-0,073
-433,934	-200,000	0,029	0,152
-432,919	567,381	-0,064	-0,115
-431,905	748,039	0,071	-0,140
-430,890	41,010	0,095	-0,063
-429,876	398,579	0,065	-0,100
-428,861	-4,055	-0,055	-0,028
-427,846	-200,000	0,026	0,092
-426,832	800,000	0,052	0,121
-425,817	-53,961	0,011	-0,004
-424,803	800,000	-0,051	-0,124
-423,788	-200,000	0,008	-0,039
-422,773	125,274	-0,093	-0,085
-421,759	318,488	-0,036	0,049
-420,744	528,204	-0,041	0,070
-419,730	800,000	0,022	0,051
-418,715	278,642	-0,062	0,081
-417,701	-57,922	-0,130	0,041
-416,686	800,000	-0,011	0,023
-415,671	800,000	0,025	0,061
-414,657	800,000	0,025	0,074
-413,642	-0,526	0,085	0,044
-412,628	-26,448	-0,138	0,059
-411,613	473,080	0,024	0,040
-410,598	-39,181	0,077	0,029
-409,584	187,546	0,033	0,036
-408,569	238,548	0,139	0,169
-407,555	-90,034	0,054	0,011
-406,540	192,987	-0,044	-0,048
-405,525	800,000	0,021	-0,064
-404,511	26,542	0,103	-0,063
-403,496	-135,331	-0,054	-0,005
-402,482	800,000	0,026	0,053
-401,467	131,171	-0,066	-0,062
-400,452	-200,000	0,013	0,099
-399,438	599,904	0,043	0,079
-398,423	48,662	-0,054	-0,037
-397,409	-200,000	-0,007	-0,165
-396,394	-94,219	-0,149	-0,029
-395,379	-74,253	-0,037	-0,010
-394,365	800,000	-0,014	0,032
-393,350	800,000	0,044	0,090
-392,336	-54,540	0,011	0,004
-391,321	13,532	0,081	-0,046
-390,306	-109,343	0,120	-0,018
-389,292	-132,549	-0,098	-0,009
-388,277	-31,962	0,158	0,064
-387,263	-79,181	-0,115	0,028
-386,248	-154,271	0,181	0,009
-385,233	-58,601	0,076	0,024
-384,219	800,000	-0,028	-0,071
-383,204	-200,000	0,010	-0,093
-382,190	735,268	0,079	-0,154
-381,175	491,542	-0,030	0,051
-380,160	59,846	0,182	0,131
-379,146	339,883	0,068	0,097
-378,131	5,731	-0,123	-0,066
-377,117	86,337	-0,061	-0,049
-376,102	287,890	0,037	-0,049
-375,088	105,322	-0,107	-0,092
-374,073	800,000	-0,066	0,142
-373,058	542,687	0,033	-0,057
-372,044	151,205	-0,061	-0,061
-371,029	-115,837	0,112	0,015
-370,015	-22,114	0,047	0,021
-369,000	15,364	-0,044	0,025
-367,985	-11,484	-0,139	-0,066
-366,971	341,066	0,081	-0,115
-365,956	-104,252	-0,053	0,009
-364,942	-88,191	0,154	0,033
-363,927	800,000	-0,036	0,080
-362,912	205,350	-0,048	-0,055
-361,898	82,743	-0,075	0,059
-360,883	204,400	0,048	-0,054
-359,869	-8,401	0,129	-0,063
-358,854	-200,000	0,016	-0,075
-357,839	-19,264	0,185	0,083
-356,825	-133,080	0,083	-0,008
-355,810	800,000	-0,042	0,097
-354,796	24,330	0,026	-0,016
-353,781	-14,743	-0,169	-0,078
-352,766	664,690	0,048	0,091
-351,752	124,300	0,106	-0,097
-350,737	-9,484	0,142	-0,068
-349,723	10,775	0,102	-0,056
-348,708	800,000	0,015	0,036
-347,693	-88,767	-0,062	0,013
-346,679	800,000	-0,082	-0,178
-345,664	-200,000	-0,023	-0,118
-344,650	-200,000	0,011	-0,120
-343,635	800,000	-0,026	0,061
-342,620	-97,087	0,084	-0,016
-341,606	477,163	-0,031	0,052
-340,591	-125,251	0,040	-0,004
-339,577	800,000	-0,035	-0,104
-338,562	158,574	-0,091	0,092
-337,548	800,000	0,081	-0,227
-336,533	-172,778	-0,024	-0,001
-335,518	-200,000	0,002	-0,050
-334,504	-200,000	-0,003	-0,049
-333,489	-3,372	0,123	0,062
-332,475	-92,858	-0,042	-0,008
-331,460	663,780	-0,040	0,076
-330,445	-20,889	-0,088	-0,039
-329,431	-60,174	-0,071	0,022
-328,416	-200,000	-0,060	0,200
-327,402	145,402	-0,038	0,036
-326,387	270,896	0,021	-0,027
-325,372	137,128	0,027	-0,026
-324,358	-30,999	-0,046	0,019
-323,343	800,000	0,022	0,044
-322,329	800,000	0,017	0,053
-321,314	-130,528	0,071	-0,007
-320,299	-200,000	0,043	0,203
-319,285	102,396	-0,105	0,089
-318,270	280,377	-0,042	0,054
-317,256	46,661	-0,162	0,109
-316,241	183,522	0,095	-0,102
-315,226	-142,688	0,063	0,004
-314,212	436,137	-0,037	-0,059
-313,197	7,064	-0,170	-0,092
-312,183	-43,247	0,016	0,006
-311,168	-38,235	-0,032	0,012
-310,153	398,656	0,060	0,092
-309,139	-15,887	0,104	0,048
-308,124	184,267	-0,081	0,087
-307,110	-200,000	-0,010	0,056
-306,095	800,000	0,042	-0,095
-305,080	70,242	0,060	0,045
-304,066	-200,000	0,007	-0,162
-303,051	191,652	0,046	0,051
-302,037	-200,000	-0,009	-0,032
-301,022	2,617	0,131	-0,069
-300,008	-10,504	0,139	0,066
-298,993	-184,886	0,049	-0,001
-297,978	-200,000	0,008	-0,044
-296,964	-200,000	-0,009	-0,103
-295,949	800,000	0,043	0,106
-294,935	-200,000	0,005	-0,080
-293,920	-119,518	-0,117	0,015
-292,905	-86,331	-0,053	0,012
-291,891	-26,380	0,103	0,044
-290,876	231,638	-0,102	0,122
-289,862	-200,000	-0,005	0,082
-288,847	89,502	-0,079	0,064
-287,832	-138,098	-0,033	0,003
-286,818	260,922	-0,052	0,066
-285,803	122,628	0,033	-0,030
-284,789	581,998	-0,018	0,031
-283,774	153,889	-0,042	0,042
-282,759	-47,179	-0,110	0,039
-281,745	-77,869	-0,091	-0,023
-280,730	84,886	-0,071	-0,056
-279,716	-200,000	-0,004	-0,074
-278,701	-200,000	-0,020	0,098
-277,686	129,399	0,134	0,124
-276,672	-200,000	-0,005	-0,075
-275,657	-132,574	-0,019	0,002
-274,643	-63,742	-0,069	-0,020
-273,628	-133,207	-0,161	-0,015
-272,613	31,360	-0,069	0,043
-271,599	800,000	0,004	-0,013
-270,584	-200,000	0,003	-0,037
-269,570	-104,593	0,113	0,019
-268,555	94,415	0,056	0,046
-267,540	566,325	0,033	-0,058
-266,526	-200,000	0,017	-0,137
-265,511	148,266	-0,117	-0,114
-264,497	164,604	0,074	-0,075
-263,482	97,368	-0,043	0,036
-262,467	-114,531	-0,082	0,011
-261,453	-23,716	-0,104	0,045
-260,438	-151,703	0,041	0,002
-259,424	35,182	0,018	-0,012
-258,409	-200,000	-0,006	0,041
-257,395	-200,000	0,009	0,101
-256,380	93,896	0,024	-0,020
-255,365	-17,797	0,109	0,049
-254,351	767,074	-0,054	-0,107
-253,336	800,000	-0,027	0,057
-252,322	800,000	-0,037	0,115
-251,307	-115,756	0,060	-0,008
-250,292	-200,000	-0,006	0,096
-249,278	-45,377	0,114	0,041
-248,263	-56,610	-0,050	-0,016
-247,249	-180,783	-0,097	-0,001
-246,234	7,657	-0,083	-0,045
-245,219	-143,337	-0,040	0,003
-244,205	-29,285	-0,082	0,034
-243,190	711,678	0,015	-0,029
-242,176	800,000	0,011	0,025
-241,161	-200,000	0,046	0,163
-240,146	355,201	-0,064	0,092
-239,132	-33,772	-0,029	0,012
-238,117	-200,000	-0,006	-0,079
-237,103	215,476	-0,085	-0,097
-236,088	2,928	0,037	-0,020
-235,073	-200,000	0,004	-0,035
-234,059	-129,441	0,147	0,015
-233,044	800,000	-0,037	-0,118
-232,030	800,000	-0,021	-0,061
-231,015	800,000	0,030	-0,081
-230,000	282,550	0,061	0,080
-228,986	-200,000	-0,014	-0,051
-227,971	-0,784	0,190	0,097
-226,957	630,700	-0,102	0,188
-225,942	-107,131	0,111	0,017
-224,927	800,000	0,010	0,031
-223,913	-200,000	0,003	0,066
-222,898	-30,179	-0,106	-0,043
-221,884	57,983	0,031	0,022
-220,869	-200,000	0,014	0,061
-219,855	365,162	0,009	-0,013
-218,840	-39,787	-0,125	0,047
-217,825	121,157	0,069	0,062
-216,811	7,927	0,031	0,017
-215,796	375,058	0,066	0,097
-214,782	-189,379	-0,091	-0,001
-213,767	623,576	0,053	-0,096
-212,752	-200,000	0,003	-0,033
-211,738	-4,112	-0,020	-0,010
-210,723	137,995	0,043	-0,041
-209,709	641,407	0,042	0,078
-208,694	-72,321	0,154	-0,041
-207,679	-200,000	0,002	0,031
-206,665	292,379	0,081	0,107
-205,650	223,831	0,031	0,036
-204,636	425,318	0,071	0,111
-203,621	-196,948	-0,025	-0,000
-202,606	-200,000	0,021	-0,068
-201,592	289,923	0,038	0,050
-200,577	-160,031	-0,104	0,004
-199,563	-200,000	0,036	0,117
-198,548	800,000	-0,020	0,064
-197,533	355,424	0,037	0,053
-196,519	-104,620	-0,040	-0,007
-195,504	599,934	0,077	-0,139
-194,490	249,436	-0,094	-0,115
-193,475	-200,000	0,004	0,033
-192,460	66,357	0,091	0,067
-191,446	-71,836	0,170	0,045
-190,431	-200,000	0,005	0,151
-189,417	314,818	0,042	-0,058
-188,402	177,822	0,052	0,055
-187,387	-45,547	0,057	-0,020
-186,373	800,000	0,024	0,063
-185,358	-200,000	0,012	0,103
-184,344	800,000	0,053	0,139
-183,329	-65,636	0,012	0,004
-182,315	19,611	-0,069	0,040
-181,300	-200,000	0,026	-0,097
-180,285	-159,890	-0,144	-0,006
-179,271	79,549	0,079	-0,061
-178,256	-88,296	-0,098	-0,021
-177,242	-66,537	0,046	0,013
-176,227	-88,677	0,170	0,036
-175,212	239,982	0,047	-0,057
-174,198	-179,321	-0,048	-0,001
-173,183	278,583	-0,029	0,037
-172,169	-200,000	0,010	-0,034
-171,154	-200,000	-0,015	-0,061
-170,139	800,000	0,054	-0,117
-169,125	-200,000	-0,015	0,079
-168,110	-200,000	-0,017	0,092
-167,096	800,000	-0,030	-0,088
-166,081	79,156	-0,022	0,017
-165,066	-62,934	-0,206	-0,061
-164,052	228,722	0,042	-0,049
-163,037	-200,000	0,011	0,084
-162,023	-128,236	0,054	-0,005
-161,008	-12,984	-0,089	0,042
-159,993	293,684	-0,099	0,131
-158,979	-200,000	-0,000	0,037
-157,964	-16,800	-0,071	-0,032
-156,950	257,341	-0,079	-0,099
-155,935	-200,000	0,024	0,098
-154,920	-91,831	0,026	-0,005
-153,906	29,703	0,019	-0,012
-152,891	800,000	0,027	-0,078
-151,877	-149,177	0,129	-0,007
-150,862	-5,958	-0,029	0,014
-149,847	284,103	0,095	-0,124
-148,833	-200,000	0,000	0,003
-147,818	68,736	-0,049	0,036
-146,804	-200,000	-0,025	0,143
-145,789	-69,483	-0,059	0,016
-144,775	48,980	0,050	-0,034
-143,760	-123,903	-0,092	-0,010
-142,745	110,454	0,088	-0,076
-141,731	-38,122	-0,023	-0,009
-140,716	-56,185	-0,150	-0,048
-139,702	216,776	-0,064	-0,074
-138,687	170,915	0,124	0,129
-137,672	423,488	0,043	0,068
-136,658	188,517	-0,152	-0,164
-135,643	0,781	0,073	0,037
-134,629	400,933	-0,042	0,064
-133,614	12,051	0,077	-0,042
-132,599	56,652	0,111	-0,078
-131,585	-200,000	-0,031	0,189
-130,570	566,344	0,090	0,158
-129,556	800,000	-0,011	-0,032
-128,541	-200,000	0,012	0,049
-127,526	-81,481	0,075	-0,018
-126,512	-87,240	0,118	0,026
-125,497	361,744	-0,094	0,136
-124,483	441,439	-0,043	0,069
-123,468	395,788	0,010	-0,015
-122,453	-200,000	-0,173	0,000
-121,439	-200,000	0,002	0,013
-120,424	228,750	0,042	0,049
-119,410	-162,484	0,092	-0,003
-118,395	-168,292	-0,063	0,002
