DTS Sentinel unit serial number:	SN410029Multiplexer serial number:	ORYXHardware model number:	OX2-SRSoftware version number:	ORYX F/W v4,00 Oryx Data Collector v3.7.2.0data status	okinstallation	B6 Nyhavnadifferential loss correction	single-endedforward channel	channel 2reverse channel	N/Adate	2023/12/09time	08:15:08forward acquisition time	300,00reverse acquisition time	0,00gamma	499,1914k internal	0,3139k external	0,3139temperature offset calibration	1,0000default loss term (dB/km)	0,3820temperature slope calibration	1,0000multiplexer offset coefficient	1,0000multiplexer slope coefficient	1,0000fibre end	0,00T internal ref (°C)	18,50T ext. ref 1 (°C)	1,94T ext. ref 2 (°C)	1,92length (m)	temperature (°C)	Stokes	anti-Stokes-744,400	76,573	0,116	-0,091
-743,385	-55,356	-0,199	0,066
-742,371	-63,046	0,107	-0,033
-741,356	-184,405	-0,218	-0,003
-740,342	185,873	0,068	0,075
-739,327	-22,525	-0,247	0,110
-738,312	224,152	0,031	0,037
-737,298	-200,000	-0,328	-0,000
-736,283	46,300	0,107	-0,073
-735,269	-76,789	-0,198	0,051
-734,254	800,000	0,057	-0,145
-733,239	-31,183	-0,359	-0,150
-732,225	118,888	0,117	-0,108
-731,210	-55,000	0,047	-0,016
-730,196	356,927	0,040	-0,059
-729,181	84,558	-0,076	-0,062
-728,167	155,440	0,057	0,058
-727,152	64,222	0,070	0,052
-726,137	272,289	-0,071	-0,093
-725,123	-200,000	-0,019	-0,085
-724,108	800,000	0,034	-0,093
-723,094	669,241	-0,124	-0,239
-722,079	-200,000	-0,008	-0,118
-721,064	176,724	-0,073	-0,079
-720,050	-126,034	-0,037	0,004
-719,035	-13,642	-0,121	0,058
-718,021	159,019	0,017	-0,018
-717,006	-200,000	-0,005	0,060
-715,991	-10,191	-0,026	0,013
-714,977	-25,069	0,081	-0,036
-713,962	-106,125	0,035	-0,006
-712,948	105,700	-0,041	-0,036
-711,933	-113,552	-0,071	0,010
-710,918	-200,000	0,018	0,074
-709,904	132,264	-0,093	-0,089
-708,889	18,258	0,024	-0,014
-707,875	-200,000	-0,006	-0,179
-706,860	-200,000	0,058	-0,194
-705,845	73,091	0,039	-0,030
-704,831	84,507	-0,129	0,104
-703,816	-200,000	0,014	0,112
-702,802	-200,000	0,002	0,098
-701,787	-70,267	-0,087	-0,024
-700,772	82,014	0,054	0,043
-699,758	682,408	-0,059	-0,113
-698,743	-50,749	-0,091	-0,031
-697,729	24,345	0,163	0,099
-696,714	-27,418	0,019	-0,008
-695,699	800,000	-0,030	0,073
-694,685	180,460	0,080	-0,087
-693,670	-116,741	0,020	-0,003
-692,656	800,000	0,055	0,120
-691,641	-67,389	-0,074	-0,021
-690,627	-200,000	-0,004	0,119
-689,612	-76,258	0,068	-0,018
-688,597	-200,000	-0,009	0,120
-687,583	412,513	0,054	0,086
-686,568	377,146	-0,078	-0,119
-685,554	475,955	-0,043	-0,073
-684,539	-11,695	0,079	0,038
-683,524	-81,212	0,102	0,025
-682,510	235,051	-0,051	-0,063
-681,495	-56,374	-0,184	-0,060
-680,481	79,952	-0,079	0,063
-679,466	-13,953	-0,112	0,053
-678,451	340,612	0,018	0,027
-677,437	-67,103	0,074	-0,022
-676,422	170,450	-0,076	-0,081
-675,408	-74,518	-0,027	0,007
-674,393	246,089	-0,080	-0,099
-673,378	-200,000	0,011	-0,065
-672,364	800,000	-0,031	-0,067
-671,349	-200,000	-0,013	-0,062
-670,335	221,943	0,100	0,120
-669,320	-200,000	-0,002	0,126
-668,305	385,833	0,065	0,100
-667,291	16,517	-0,122	-0,071
-666,276	-200,000	0,008	-0,087
-665,262	-200,000	-0,007	-0,027
-664,247	-143,410	-0,045	-0,003
-663,232	-57,461	-0,069	-0,022
-662,218	-200,000	0,006	-0,029
-661,203	800,000	0,020	0,062
-660,189	71,304	-0,089	-0,068
-659,174	800,000	-0,049	0,117
-658,159	416,481	-0,055	-0,088
-657,145	145,060	-0,009	0,009
-656,130	800,000	0,013	-0,027
-655,116	800,000	0,019	0,060
-654,101	-68,199	0,147	-0,042
-653,086	800,000	-0,051	-0,119
-652,072	800,000	-0,060	-0,133
-651,057	-200,000	-0,019	0,115
-650,043	566,068	-0,055	0,099
-649,028	190,253	0,071	0,079
-648,014	800,000	0,044	0,097
-646,999	8,321	0,070	0,039
-645,984	542,089	-0,035	0,062
-644,970	800,000	-0,042	0,123
-643,955	7,327	-0,061	-0,034
-642,941	-120,971	-0,077	-0,009
-641,926	11,802	0,142	-0,080
-640,911	-109,630	-0,130	0,020
-639,897	97,439	0,071	-0,060
-638,882	406,322	-0,059	-0,092
-637,868	-200,000	-0,015	0,064
-636,853	-200,000	-0,011	-0,040
-635,838	-93,205	0,064	0,013
-634,824	147,404	-0,111	-0,110
-633,809	-200,000	0,016	0,062
-632,795	514,574	0,037	-0,064
-631,780	312,878	0,011	0,016
-630,765	-44,290	-0,125	0,046
-629,751	-200,000	0,000	-0,058
-628,736	-200,000	-0,015	-0,096
-627,722	-200,000	-0,006	-0,087
-626,707	232,753	-0,059	-0,071
-625,692	183,867	0,038	-0,041
-624,678	-200,000	-0,014	0,077
-623,663	-140,719	-0,109	0,008
-622,649	-38,248	-0,105	0,041
-621,634	127,024	0,171	-0,161
-620,619	152,043	-0,115	-0,116
-619,605	-200,000	-0,005	-0,150
-618,590	-200,000	-0,000	0,036
-617,576	547,508	0,052	0,092
-616,561	-46,092	0,122	-0,044
-615,546	800,000	-0,040	-0,110
-614,532	-46,251	-0,068	0,025
-613,517	-111,783	-0,248	0,037
-612,503	-200,000	-0,019	0,079
-611,488	-108,319	0,013	0,002
-610,474	-86,529	-0,065	0,015
-609,459	-108,135	-0,035	-0,005
-608,444	-133,901	-0,136	-0,012
-607,430	79,865	0,023	0,019
-606,415	800,000	-0,039	-0,086
-605,401	91,834	-0,099	-0,082
-604,386	-200,000	-0,012	-0,117
-603,371	478,173	-0,032	0,053
-602,357	401,944	-0,062	0,096
-601,342	36,217	-0,081	-0,053
-600,328	800,000	0,027	-0,076
-599,313	138,784	-0,104	-0,101
-598,298	-200,000	0,012	-0,041
-597,284	800,000	-0,027	-0,079
-596,269	306,445	-0,029	0,040
-595,255	-104,415	-0,098	-0,017
-594,240	212,075	-0,043	0,050
-593,225	-172,110	-0,195	0,005
-592,211	43,323	0,100	-0,067
-591,196	-37,349	0,097	-0,038
-590,182	800,000	-0,032	-0,082
-589,167	-200,000	0,017	-0,063
-588,152	-200,000	-0,011	-0,049
-587,138	-200,000	0,009	-0,056
-586,123	5,829	-0,077	-0,042
-585,109	-200,000	0,041	-0,135
-584,094	109,510	0,056	-0,050
-583,079	229,414	-0,043	-0,052
-582,065	-193,937	0,039	0,000
-581,050	-200,000	-0,003	0,058
-580,036	-200,000	0,001	0,102
-579,021	-200,000	0,047	-0,180
-578,006	800,000	-0,047	-0,106
-576,992	-150,796	0,139	-0,008
-575,977	800,000	-0,030	0,079
-574,963	29,649	0,092	0,058
-573,948	-37,353	0,056	-0,022
-572,934	-200,000	0,003	-0,056
-571,919	-200,000	-0,006	-0,063
-570,904	46,875	-0,038	0,026
-569,890	51,807	-0,081	-0,056
-568,875	326,986	0,122	-0,172
-567,861	-2,694	-0,025	0,013
-566,846	27,132	-0,058	0,036
-565,831	800,000	-0,035	-0,073
-564,817	-31,584	-0,132	-0,054
-563,802	40,582	-0,120	-0,080
-562,788	342,909	0,059	0,085
-561,773	118,831	0,091	-0,083
-560,758	195,598	0,042	-0,048
-559,744	-9,700	0,035	-0,017
-558,729	-168,137	0,124	0,003
-557,715	-117,613	0,076	0,010
-556,700	-133,761	0,042	-0,004
-555,685	-200,000	0,007	-0,049
-554,671	800,000	-0,038	0,081
-553,656	501,681	0,024	-0,041
-552,642	76,581	-0,053	-0,041
-551,627	800,000	-0,030	-0,079
-550,612	-162,233	0,095	-0,003
-549,598	317,865	0,115	-0,161
-548,583	-200,000	-0,010	-0,147
-547,569	-200,000	-0,002	0,014
-546,554	-200,000	-0,030	-0,101
-545,539	198,825	0,065	0,073
-544,525	140,385	-0,094	0,091
-543,510	-92,901	-0,089	-0,018
-542,496	9,037	0,019	0,010
-541,481	523,285	-0,053	-0,092
-540,466	172,746	-0,165	0,175
-539,452	17,738	0,053	0,031
-538,437	-200,000	0,011	0,093
-537,423	48,955	0,070	-0,048
-536,408	99,197	0,020	0,017
-535,393	800,000	0,032	0,091
-534,379	-48,665	-0,149	-0,052
-533,364	-200,000	-0,022	-0,110
-532,350	800,000	-0,019	-0,044
-531,335	-200,000	-0,012	0,050
-530,321	800,000	0,022	0,045
-529,306	244,563	0,089	0,111
-528,291	-111,909	0,094	0,014
-527,277	-200,000	-0,004	-0,041
-526,262	111,372	-0,116	-0,103
-525,248	-200,000	-0,030	0,131
-524,233	15,557	-0,096	0,055
-523,218	800,000	0,044	0,096
-522,204	-200,000	0,007	-0,140
-521,189	162,716	0,050	0,052
-520,175	443,946	-0,095	-0,154
-519,160	430,060	-0,024	0,038
-518,145	770,646	0,011	-0,022
-517,131	-72,995	0,058	-0,015
-516,116	613,151	0,031	0,057
-515,102	345,101	-0,046	-0,066
-514,087	5,948	-0,088	0,048
-513,072	-8,480	-0,037	-0,018
-512,058	440,267	0,083	-0,134
-511,043	-200,000	-0,015	-0,121
-510,029	54,247	0,044	0,031
-509,014	244,237	-0,066	0,082
-507,999	-96,477	0,103	0,020
-506,985	405,047	0,067	-0,104
-505,970	216,105	0,107	-0,125
-504,956	-200,000	0,004	-0,108
-503,941	-200,000	0,002	0,019
-502,926	800,000	-0,018	0,044
-501,912	138,146	0,084	0,081
-500,897	26,891	0,027	0,016
-499,883	-91,990	0,175	0,036
-498,868	-200,000	0,004	-0,069
-497,853	-168,838	-0,056	0,002
-496,839	-200,000	0,002	-0,100
-495,824	641,211	0,048	-0,090
-494,810	-200,000	-0,018	-0,106
-493,795	-200,000	-0,014	0,075
-492,781	-191,408	-0,043	-0,000
-491,766	800,000	0,065	-0,195
-490,751	53,077	-0,041	-0,029
-489,737	-158,974	-0,047	-0,002
-488,722	219,833	0,061	0,072
-487,708	-87,766	-0,101	0,022
-486,693	-120,380	-0,155	-0,019
-485,678	210,582	-0,066	0,077
-484,664	79,798	0,035	0,027
-483,649	-161,103	-0,043	0,002
-482,635	800,000	-0,025	-0,059
-481,620	-200,000	0,005	0,019
-480,605	-32,699	0,115	0,047
-479,591	-200,000	0,011	0,116
-478,576	-146,911	-0,208	-0,013
-477,562	-200,000	0,007	-0,088
-476,547	775,288	0,040	-0,081
-475,532	-200,000	-0,002	0,067
-474,518	3,127	0,111	-0,059
-473,503	308,949	0,116	0,159
-472,489	800,000	0,078	0,163
-471,474	-200,000	-0,014	-0,093
-470,459	-200,000	0,032	-0,166
-469,445	-131,004	0,034	-0,003
-468,430	122,457	-0,108	0,099
-467,416	-200,000	0,030	0,118
-466,401	64,373	0,006	-0,004
-465,386	-141,346	0,152	0,011
-464,372	637,910	-0,042	-0,078
-463,357	-14,923	0,094	-0,044
-462,343	68,810	-0,016	-0,012
-461,328	79,741	0,065	-0,051
-460,313	-103,979	-0,054	-0,009
-459,299	-81,249	-0,064	0,015
-458,284	-200,000	0,020	0,134
-457,270	-200,000	-0,039	-0,134
-456,255	329,636	-0,080	-0,114
-455,241	-200,000	0,015	-0,084
-454,226	97,077	-0,041	-0,035
-453,211	-200,000	-0,004	-0,014
-452,197	-200,000	0,006	-0,029
-451,182	-200,000	0,003	-0,112
-450,168	60,727	-0,073	-0,053
-449,153	800,000	0,026	0,078
-448,138	-68,848	-0,038	-0,011
-447,124	800,000	-0,028	0,071
-446,109	385,882	0,081	0,123
-445,095	-100,760	0,067	0,012
-444,080	504,290	-0,041	0,070
-443,065	-200,000	-0,011	0,067
-442,051	-127,990	-0,071	0,007
-441,036	-120,378	-0,068	0,008
-440,022	102,131	-0,011	-0,010
-439,007	800,000	-0,058	0,118
-437,992	800,000	0,037	-0,076
-436,978	800,000	0,048	0,099
-435,963	-99,703	-0,024	-0,004
-434,949	57,398	0,078	-0,056
-433,934	-41,329	0,051	0,019
-432,919	-141,433	-0,049	-0,004
-431,905	-200,000	-0,032	0,124
-430,890	32,871	-0,082	-0,052
-429,876	800,000	0,086	0,206
-428,861	-200,000	-0,007	0,028
-427,846	336,121	-0,035	0,050
-426,832	122,269	-0,083	0,076
-425,817	41,662	-0,046	-0,030
-424,803	-200,000	0,045	-0,167
-423,788	-73,609	-0,031	-0,008
-422,773	51,065	-0,010	-0,007
-421,759	-200,000	-0,008	0,131
-420,744	-77,477	-0,097	0,024
-419,730	800,000	-0,032	-0,080
-418,715	800,000	0,046	-0,119
-417,701	-1,726	0,139	-0,071
-416,686	176,621	-0,072	0,076
-415,671	11,906	0,143	0,080
-414,657	-98,344	0,069	-0,013
-413,642	-33,335	-0,049	-0,020
-412,628	-200,000	0,024	0,148
-411,613	-152,128	-0,079	0,004
-410,598	270,556	0,068	-0,088
-409,584	350,242	0,062	-0,090
-408,569	800,000	-0,041	-0,125
-407,555	170,688	0,155	-0,162
-406,540	52,362	0,062	-0,043
-405,525	-200,000	0,009	0,049
-404,511	389,578	0,050	-0,075
-403,496	96,377	-0,074	0,062
-402,482	-200,000	0,024	0,188
-401,467	609,129	0,047	-0,087
-400,452	-171,401	-0,091	0,002
-399,438	-20,767	-0,067	0,030
-398,423	-200,000	-0,034	0,138
-397,409	800,000	0,019	-0,048
-396,394	198,532	-0,058	0,065
-395,379	-147,585	-0,118	0,007
-394,365	434,907	-0,042	0,067
-393,350	120,523	0,060	0,055
-392,336	800,000	-0,037	0,089
-391,321	-132,171	0,060	0,006
-390,306	-200,000	-0,005	-0,086
-389,292	70,416	-0,139	-0,105
-388,277	531,196	-0,086	-0,150
-387,263	800,000	-0,019	0,059
-386,248	-89,799	0,139	0,029
-385,233	-10,141	-0,093	0,045
-384,219	800,000	-0,040	0,125
-383,204	162,542	-0,017	0,017
-382,190	671,566	-0,070	-0,133
-381,175	106,083	-0,147	-0,127
-380,160	276,998	0,059	0,077
-379,146	-200,000	0,043	0,147
-378,131	617,062	0,063	0,116
-377,117	44,155	-0,045	0,030
-376,102	-200,000	-0,037	0,135
-375,088	20,193	0,057	0,034
-374,073	17,150	0,100	-0,058
-373,058	-56,123	0,031	-0,010
-372,044	-8,751	0,090	0,044
-371,029	-200,000	0,008	-0,030
-370,015	404,845	0,032	-0,049
-369,000	-200,000	0,005	0,019
-367,985	-200,000	0,041	0,186
-366,971	-200,000	0,003	-0,024
-365,956	96,728	-0,120	-0,100
-364,942	-200,000	0,014	0,079
-363,927	109,331	0,134	-0,117
-362,912	-81,353	0,106	0,025
-361,898	12,613	-0,049	-0,027
-360,883	133,909	-0,042	0,040
-359,869	68,182	0,055	-0,041
-358,854	-105,039	0,085	0,014
-357,839	-8,155	0,095	0,047
-356,825	-200,000	-0,039	0,126
-355,810	-51,010	0,135	-0,046
-354,796	-129,039	0,061	0,006
-353,781	756,575	0,084	-0,166
-352,766	710,624	0,032	-0,061
-351,752	35,031	-0,030	-0,019
-350,737	119,454	0,027	0,024
-349,723	-200,000	-0,006	0,076
-348,708	-200,000	0,001	0,136
-347,693	-150,106	-0,043	0,002
-346,679	-200,000	0,016	-0,088
-345,664	-70,119	-0,040	0,011
-344,650	-135,302	0,043	0,004
-343,635	43,133	0,030	0,020
-342,620	-68,017	0,164	0,046
-341,606	-19,632	0,071	0,032
-340,591	800,000	0,043	-0,088
-339,577	800,000	0,077	-0,161
-338,562	78,852	0,025	-0,020
-337,548	-23,436	-0,043	-0,019
-336,533	-121,492	-0,047	0,006
-335,518	-200,000	0,015	-0,079
-334,504	101,103	-0,023	-0,020
-333,489	800,000	-0,015	0,038
-332,475	-200,000	0,001	-0,026
-331,460	-20,076	-0,115	-0,051
-330,445	31,398	0,044	-0,028
-329,431	62,733	0,024	-0,017
-328,416	800,000	-0,071	0,154
-327,402	46,239	-0,031	-0,021
-326,387	-22,537	0,117	0,051
-325,372	800,000	-0,051	0,148
-324,358	-200,000	-0,014	0,064
-323,343	154,773	-0,116	0,117
-322,329	800,000	0,051	0,143
-321,314	278,573	0,089	0,115
-320,299	-83,281	0,064	-0,015
-319,285	-183,807	0,115	-0,001
-318,270	436,331	-0,139	-0,222
-317,256	800,000	-0,005	-0,010
-316,241	800,000	-0,038	0,089
-315,226	-200,000	-0,015	-0,050
-314,212	50,502	0,153	-0,105
-313,197	100,371	0,078	-0,066
-312,183	116,301	0,067	0,060
-311,168	467,487	-0,085	-0,139
-310,153	800,000	0,036	-0,078
-309,139	76,230	-0,070	0,054
-308,124	-7,053	0,077	0,038
-307,110	29,913	0,083	0,051
-306,095	-200,000	-0,003	0,030
-305,080	103,421	0,044	-0,037
-304,066	-33,866	-0,136	0,055
-303,051	19,752	-0,046	-0,027
-302,037	-47,532	0,020	-0,007
-301,022	-30,944	0,094	-0,039
-300,008	218,751	0,095	-0,110
-298,993	-200,000	-0,001	0,031
-297,978	-86,854	0,046	0,010
-296,964	139,047	0,172	0,165
-295,949	681,802	-0,028	-0,054
-294,935	76,264	0,028	-0,021
-293,920	-200,000	-0,024	0,085
-292,905	-200,000	0,012	-0,042
-291,891	26,084	-0,081	-0,049
-290,876	-18,893	-0,061	0,027
-289,862	140,586	-0,026	0,025
-288,847	-200,000	0,057	-0,217
-287,832	800,000	0,017	0,038
-286,818	50,573	-0,127	0,088
-285,803	-200,000	-0,045	0,149
-284,789	-51,234	0,100	-0,034
-283,774	-58,300	0,062	-0,019
-282,759	299,926	0,046	0,062
-281,745	-102,374	-0,121	0,021
-280,730	266,610	0,077	-0,099
-279,716	58,170	-0,071	-0,050
-278,701	185,814	0,136	-0,148
-277,686	-200,000	-0,032	-0,150
-276,672	453,323	-0,054	0,087
-275,657	-12,344	0,026	-0,012
-274,643	60,618	0,092	0,066
-273,628	60,437	0,008	0,006
-272,613	11,363	0,053	0,029
-271,599	153,044	0,065	-0,065
-270,584	101,772	0,083	-0,070
-269,570	800,000	0,047	0,115
-268,555	-44,297	-0,056	0,020
-267,540	-200,000	-0,035	0,166
-266,526	-52,084	-0,117	0,039
-265,511	29,869	0,070	0,043
-264,497	-200,000	0,009	0,110
-263,482	-200,000	0,009	-0,040
-262,467	-200,000	-0,017	0,141
-261,453	-200,000	0,008	0,063
-260,438	-200,000	-0,017	-0,064
-259,424	-70,328	-0,138	-0,038
-258,409	-200,000	-0,004	0,036
-257,395	626,733	0,025	-0,046
-256,380	299,885	0,079	-0,106
-255,365	3,614	-0,012	0,006
-254,351	-0,569	-0,058	0,030
-253,336	-22,240	0,098	0,043
-252,322	6,923	0,063	-0,034
-251,307	168,107	0,014	-0,015
-250,292	65,517	-0,108	0,079
-249,278	-200,000	-0,017	0,109
-248,263	800,000	-0,009	-0,023
-247,249	-132,733	0,119	0,011
-246,234	74,814	-0,089	-0,068
-245,219	-96,188	-0,114	0,022
-244,205	-66,046	-0,022	-0,006
-243,190	3,026	0,060	-0,032
-242,176	-200,000	0,022	0,074
-241,161	4,182	0,045	-0,024
-240,146	-22,350	-0,118	0,052
-239,132	-137,304	0,111	-0,009
-238,117	160,434	-0,046	0,047
-237,103	302,038	-0,061	0,082
-236,088	-200,000	-0,003	-0,076
-235,073	686,676	0,018	-0,034
-234,059	-14,319	-0,110	0,052
-233,044	800,000	0,004	0,008
-232,030	143,135	0,077	0,075
-231,015	-174,649	-0,101	-0,002
-230,000	-200,000	-0,003	-0,083
-228,986	-112,032	-0,149	0,022
-227,971	-119,705	-0,065	-0,008
-226,957	-200,000	0,026	0,121
-225,942	54,847	0,113	0,079
-224,927	-200,000	-0,007	0,050
-223,913	91,877	-0,090	0,073
-222,898	115,684	-0,024	-0,022
-221,884	334,194	0,087	-0,123
-220,869	-200,000	-0,015	0,105
-219,855	-5,680	0,059	0,029
-218,840	-200,000	0,013	-0,134
-217,825	255,661	-0,055	0,068
-216,811	-200,000	-0,007	-0,039
-215,796	-200,000	-0,022	-0,134
-214,782	-144,356	0,055	-0,004
-213,767	441,125	-0,078	0,124
-212,752	800,000	0,084	0,219
-211,738	78,818	-0,102	0,079
-210,723	11,288	0,099	0,055
-209,709	199,609	-0,039	0,043
-208,694	382,859	-0,010	-0,015
-207,679	228,370	-0,088	0,104
-206,665	800,000	-0,010	-0,022
-205,650	153,903	0,035	0,034
-204,636	800,000	0,045	0,097
-203,621	-200,000	-0,009	0,118
-202,606	-93,853	-0,037	0,007
-201,592	-73,168	-0,074	0,020
-200,577	550,789	-0,048	-0,084
-199,563	-200,000	-0,004	-0,065
-198,548	-100,564	-0,069	-0,012
-197,533	117,108	0,039	-0,035
-196,519	800,000	0,078	-0,246
-195,504	-17,726	-0,073	0,033
-194,490	-200,000	-0,004	-0,065
-193,475	-112,056	-0,086	-0,012
-192,460	-22,849	0,144	0,063
-191,446	-175,609	0,106	-0,002
-190,431	-200,000	-0,038	0,139
-189,417	800,000	-0,016	-0,046
-188,402	-140,168	0,085	-0,006
-187,387	800,000	0,036	0,098
-186,373	-159,988	0,069	-0,003
-185,358	104,735	0,028	-0,024
-184,344	441,327	-0,072	0,115
-183,329	800,000	-0,038	0,080
-182,315	171,402	-0,072	0,075
-181,300	800,000	0,069	0,167
-180,285	-188,587	-0,125	0,001
-179,271	346,332	-0,103	-0,148
-178,256	-200,000	0,017	-0,058
-177,242	-200,000	0,022	0,098
-176,227	-200,000	-0,050	0,187
-175,212	-29,621	0,138	0,057
-174,198	59,002	-0,035	-0,025
-173,183	-200,000	-0,013	-0,082
-172,169	339,676	-0,021	-0,029
-171,154	342,680	-0,037	0,052
-170,139	243,751	0,132	0,161
-169,125	258,586	-0,075	0,094
-168,110	-146,302	0,198	-0,012
-167,096	64,116	-0,130	0,095
-166,081	576,316	0,044	-0,079
-165,066	800,000	0,007	-0,018
-164,052	800,000	0,080	-0,168
-163,037	227,533	0,096	0,114
-162,023	-86,071	0,020	-0,004
-161,008	-200,000	-0,010	0,048
-159,993	378,034	0,061	0,091
-158,979	-31,900	-0,094	0,038
-157,964	12,087	0,060	-0,034
-156,950	142,798	-0,064	0,062
-155,935	792,325	0,031	-0,061
-154,920	161,788	-0,003	0,003
-153,906	-200,000	-0,024	0,083
-152,891	16,594	-0,085	-0,048
-151,877	107,779	0,032	0,028
-150,862	-172,401	0,082	0,002
-149,847	-165,591	-0,146	-0,005
-148,833	62,927	-0,085	0,061
-147,818	-84,741	0,081	0,018
-146,804	184,200	-0,066	0,071
-145,789	-31,389	-0,070	0,029
-144,775	102,900	0,103	-0,087
-143,760	-200,000	-0,013	-0,086
-142,745	-136,260	-0,100	0,008
-141,731	3,105	0,061	0,032
-140,716	800,000	-0,055	-0,173
-139,702	33,396	-0,147	0,092
-138,687	-200,000	-0,006	0,119
-137,672	52,135	-0,060	-0,041
-136,658	382,522	-0,043	-0,065
-135,643	15,456	-0,021	-0,012
-134,629	-63,217	-0,079	-0,024
-133,614	-62,237	0,177	0,053
-132,599	285,791	0,060	-0,078
-131,585	113,144	-0,057	0,050
-130,570	214,841	-0,062	0,072
-129,556	83,180	0,094	0,074
-128,541	142,545	0,101	-0,097
-127,526	-200,000	0,023	-0,096
-126,512	570,932	0,045	0,079
-125,497	664,615	-0,060	0,113
-124,483	-121,268	0,128	0,015
-123,468	-156,114	0,081	-0,004
-122,453	-110,685	-0,140	-0,021
-121,439	425,704	0,089	-0,139
-120,424	335,264	0,036	0,050
-119,410	377,815	0,025	-0,037
