DTS Sentinel unit serial number:	SN410029Multiplexer serial number:	ORYXHardware model number:	OX2-SRSoftware version number:	ORYX F/W v4,00 Oryx Data Collector v3.7.2.0data status	okinstallation	B6 Nyhavnadifferential loss correction	single-endedforward channel	channel 2reverse channel	N/Adate	2023/12/08time	12:50:08forward acquisition time	300,00reverse acquisition time	0,00gamma	499,1914k internal	0,3159k external	0,3159temperature offset calibration	1,0000default loss term (dB/km)	0,3820temperature slope calibration	1,0000multiplexer offset coefficient	1,0000multiplexer slope coefficient	1,0000fibre end	0,00T internal ref (°C)	15,06T ext. ref 1 (°C)	-1,52T ext. ref 2 (°C)	-1,53length (m)	temperature (°C)	Stokes	anti-Stokes-744,400	110,862	0,086	-0,076
-743,385	-19,012	-0,238	0,109
-742,371	-200,000	0,021	0,207
-741,356	-91,038	-0,230	-0,048
-740,342	-42,565	0,134	0,050
-739,327	-66,412	-0,342	0,099
-738,312	-6,744	0,097	-0,049
-737,298	-113,415	-0,392	-0,056
-736,283	1,639	0,184	0,097
-735,269	-32,902	-0,260	-0,106
-734,254	124,508	0,159	-0,148
-733,239	-127,443	-0,557	-0,059
-732,225	94,313	0,208	0,174
-731,210	800,000	-0,052	0,136
-730,196	-200,000	0,004	0,053
-729,181	-111,764	-0,241	0,035
-728,167	800,000	0,030	-0,062
-727,152	-94,274	-0,047	-0,009
-726,137	-58,189	-0,166	0,053
-725,123	-200,000	-0,003	0,092
-724,108	-164,160	-0,088	0,003
-723,094	417,407	-0,057	-0,090
-722,079	800,000	-0,040	-0,104
-721,064	-72,546	0,036	-0,010
-720,050	800,000	-0,025	0,070
-719,035	0,827	-0,013	-0,007
-718,021	-31,215	-0,137	-0,057
-717,006	44,250	-0,099	-0,066
-715,991	217,615	-0,089	-0,105
-714,977	-200,000	0,020	0,093
-713,962	115,694	-0,045	-0,041
-712,948	-1,282	0,038	-0,020
-711,933	99,149	0,092	-0,078
-710,918	-69,405	-0,089	0,025
-709,904	-106,098	-0,239	-0,039
-708,889	-200,000	-0,031	-0,203
-707,875	-200,000	-0,015	-0,114
-706,860	373,525	0,081	-0,122
-705,845	23,978	0,044	0,027
-704,831	-200,000	0,028	0,098
-703,816	-143,987	0,103	-0,007
-702,802	-104,364	-0,252	-0,042
-701,787	-200,000	0,014	-0,142
-700,772	40,643	-0,059	-0,039
-699,758	166,444	-0,107	-0,111
-698,743	-200,000	-0,013	-0,072
-697,729	201,040	0,065	0,073
-696,714	157,349	0,006	0,006
-695,699	-132,492	0,051	-0,005
-694,685	-200,000	-0,001	-0,098
-693,670	800,000	-0,069	0,148
-692,656	33,868	0,108	0,069
-691,641	-183,034	-0,091	-0,001
-690,627	100,185	-0,077	0,065
-689,612	118,793	0,028	0,026
-688,597	-200,000	0,009	0,068
-687,583	78,609	-0,170	-0,134
-686,568	108,517	-0,062	-0,054
-685,554	-90,603	0,017	-0,004
-684,539	-111,341	0,122	0,018
-683,524	100,410	-0,060	0,051
-682,510	800,000	0,051	-0,111
-681,495	-200,000	-0,012	-0,064
-680,481	178,303	-0,049	-0,053
-679,466	-200,000	0,006	0,072
-678,451	31,878	-0,123	-0,077
-677,437	5,840	0,044	0,024
-676,422	507,872	-0,047	-0,081
-675,408	-200,000	0,002	0,100
-674,393	29,385	-0,052	0,032
-673,378	800,000	-0,053	-0,116
-672,364	407,840	-0,066	-0,104
-671,349	672,139	0,037	-0,072
-670,335	800,000	0,031	0,075
-669,320	-36,655	-0,034	0,014
-668,305	800,000	-0,073	-0,203
-667,291	-175,784	0,114	0,002
-666,276	7,888	-0,133	-0,073
-665,262	-120,875	0,052	-0,006
-664,247	-110,873	0,046	0,007
-663,232	522,387	-0,048	0,082
-662,218	-200,000	0,000	0,082
-661,203	-60,025	0,025	-0,008
-660,189	-60,328	-0,101	-0,031
-659,174	-36,945	-0,071	-0,028
-658,159	75,190	-0,091	-0,071
-657,145	-200,000	0,004	-0,060
-656,130	616,770	0,027	-0,050
-655,116	56,786	0,144	-0,103
-654,101	-28,880	-0,060	0,025
-653,086	800,000	-0,063	0,144
-652,072	-200,000	0,013	-0,065
-651,057	-39,667	-0,101	-0,038
-650,043	211,695	-0,088	0,102
-649,028	82,815	0,050	-0,040
-648,014	800,000	-0,029	-0,091
-646,999	627,932	-0,073	-0,136
-645,984	-200,000	0,013	0,042
-644,970	800,000	0,019	0,041
-643,955	-200,000	-0,034	-0,171
-642,941	243,841	-0,055	-0,068
-641,926	-200,000	-0,021	-0,109
-640,911	11,205	-0,079	0,044
-639,897	-200,000	-0,020	0,160
-638,882	-57,877	-0,037	0,012
-637,868	20,138	-0,069	-0,041
-636,853	-200,000	0,027	-0,096
-635,838	-96,524	-0,080	-0,015
-634,824	-200,000	0,007	0,098
-633,809	800,000	0,041	-0,092
-632,795	-122,619	0,104	-0,012
-631,780	-25,675	-0,127	-0,055
-630,765	-200,000	0,009	0,080
-629,751	64,699	-0,090	-0,066
-628,736	-51,673	0,069	-0,023
-627,722	162,487	-0,092	0,094
-626,707	403,580	0,073	0,113
-625,692	-200,000	0,015	0,059
-624,678	-94,966	-0,093	0,018
-623,663	-38,080	0,020	0,008
-622,649	69,972	-0,076	-0,057
-621,634	-120,857	0,091	-0,011
-620,619	227,275	-0,036	-0,043
-619,605	-157,268	-0,044	0,002
-618,590	-5,689	0,073	0,037
-617,576	-200,000	-0,013	-0,044
-616,561	585,092	-0,021	-0,038
-615,546	-200,000	0,036	-0,130
-614,532	571,650	-0,017	-0,031
-613,517	-119,671	-0,123	-0,015
-612,503	-131,771	-0,079	0,007
-611,488	-111,900	0,121	-0,018
-610,474	-200,000	0,000	0,046
-609,459	215,776	-0,122	0,142
-608,444	25,742	-0,120	-0,073
-607,430	601,903	0,059	-0,108
-606,415	-45,965	-0,084	-0,030
-605,401	-28,729	-0,090	-0,038
-604,386	44,984	0,035	0,024
-603,371	-146,379	-0,059	0,004
-602,357	-12,557	0,122	0,058
-601,342	-47,723	0,047	-0,017
-600,328	378,634	-0,078	-0,118
-599,313	-200,000	-0,033	0,107
-598,298	-200,000	-0,021	0,095
-597,284	-200,000	0,012	-0,098
-596,269	800,000	0,054	-0,116
-595,255	118,283	0,044	-0,040
-594,240	800,000	-0,090	0,193
-593,225	-96,677	-0,090	0,017
-592,211	452,528	-0,043	-0,071
-591,196	133,983	0,093	0,089
-590,182	154,870	-0,085	-0,086
-589,167	32,946	0,119	0,075
-588,152	-200,000	-0,003	0,116
-587,138	800,000	-0,025	0,068
-586,123	32,835	-0,173	-0,110
-585,109	-17,332	-0,057	-0,026
-584,094	-121,664	0,093	-0,011
-583,079	-68,448	0,135	-0,038
-582,065	325,901	-0,039	0,054
-581,050	800,000	-0,030	0,082
-580,036	-200,000	0,023	-0,113
-579,021	223,755	-0,060	0,070
-578,006	800,000	-0,034	0,084
-576,992	-200,000	0,012	-0,111
-575,977	7,094	0,082	0,044
-574,963	510,243	-0,033	0,056
-573,948	-134,900	-0,052	-0,005
-572,934	-200,000	0,029	-0,129
-571,919	-200,000	0,020	-0,114
-570,904	800,000	-0,024	-0,054
-569,890	434,759	-0,011	-0,018
-568,875	-171,603	0,015	-0,000
-567,861	800,000	0,064	0,172
-566,846	800,000	0,022	0,064
-565,831	443,005	-0,070	0,113
-564,817	141,263	-0,042	-0,040
-563,802	567,280	0,075	-0,134
-562,788	-53,472	-0,051	-0,017
-561,773	278,317	-0,028	-0,036
-560,758	-200,000	0,036	0,175
-559,744	-115,345	0,075	0,010
-558,729	461,939	0,029	-0,047
-557,715	-129,129	0,154	-0,016
-556,700	-200,000	0,005	0,045
-555,685	429,921	0,063	-0,101
-554,671	800,000	-0,019	0,045
-553,656	800,000	0,063	0,158
-552,642	72,952	0,104	0,079
-551,627	-200,000	0,002	0,133
-550,612	-200,000	-0,054	0,201
-549,598	800,000	0,009	-0,029
-548,583	392,582	-0,046	-0,070
-547,569	800,000	0,014	-0,038
-546,554	53,189	0,036	0,025
-545,539	560,387	0,060	-0,107
-544,525	-144,644	-0,162	0,011
-543,510	-200,000	-0,027	-0,103
-542,496	-200,000	-0,009	-0,048
-541,481	-149,878	0,117	-0,007
-540,466	174,251	-0,047	-0,049
-539,452	440,344	0,046	0,073
-538,437	800,000	0,031	0,084
-537,423	65,652	0,065	-0,048
-536,408	-82,166	0,083	0,020
-535,393	800,000	-0,039	0,083
-534,379	73,086	0,066	0,051
-533,364	-88,876	-0,109	0,023
-532,350	550,891	0,051	0,090
-531,335	-141,255	0,154	0,011
-530,321	-200,000	0,126	0,000
-529,306	800,000	-0,024	-0,073
-528,291	714,678	-0,003	-0,005
-527,277	188,605	-0,072	-0,079
-526,262	75,045	-0,034	0,026
-525,248	-200,000	0,005	-0,019
-524,233	-108,840	-0,044	-0,007
-523,218	800,000	-0,011	-0,023
-522,204	267,359	0,038	-0,049
-521,189	-200,000	-0,012	-0,070
-520,175	-65,019	-0,053	-0,016
-519,160	52,642	-0,102	0,071
-518,145	431,211	0,022	-0,035
-517,131	-163,392	0,088	-0,003
-516,116	-200,000	0,013	-0,084
-515,102	-32,117	-0,076	0,031
-514,087	-200,000	-0,026	-0,114
-513,072	-119,248	-0,054	0,007
-512,058	-129,930	-0,067	-0,007
-511,043	-200,000	0,001	0,019
-510,029	345,947	-0,090	0,130
-509,014	-52,637	0,221	0,074
-507,999	-84,700	0,126	-0,029
-506,985	-123,110	-0,199	-0,023
-505,970	800,000	-0,040	-0,125
-504,956	-200,000	0,000	0,123
-503,941	-171,633	0,104	0,002
-502,926	-23,792	0,034	-0,015
-501,912	-200,000	0,005	0,118
-500,897	-200,000	-0,014	0,046
-499,883	-200,000	0,033	-0,115
-498,868	118,118	0,048	-0,043
-497,853	-122,466	0,034	-0,004
-496,839	23,587	-0,022	0,013
-495,824	627,383	0,054	0,099
-494,810	-71,326	0,028	0,008
-493,795	82,984	0,037	-0,029
-492,781	251,413	-0,095	-0,118
-491,766	230,754	0,030	-0,036
-490,751	-200,000	-0,022	0,108
-489,737	800,000	0,026	-0,069
-488,722	516,576	-0,033	0,057
-487,708	67,857	0,099	0,074
-486,693	800,000	-0,037	0,075
-485,678	-29,408	-0,103	-0,043
-484,664	-89,763	-0,056	0,012
-483,649	-200,000	0,009	0,061
-482,635	-200,000	-0,006	-0,027
-481,620	15,356	0,051	0,029
-480,605	22,782	0,055	0,033
-479,591	124,736	-0,017	0,015
-478,576	-6,542	-0,047	-0,023
-477,562	-27,623	-0,062	0,026
-476,547	-50,669	-0,106	0,036
-475,532	-200,000	0,002	0,027
-474,518	45,706	-0,057	-0,038
-473,503	97,821	-0,089	0,074
-472,489	-36,832	0,148	0,058
-471,474	-200,000	-0,003	-0,017
-470,459	-200,000	0,006	-0,042
-469,445	800,000	-0,033	-0,088
-468,430	-200,000	0,027	0,160
-467,416	510,383	-0,056	0,096
-466,401	-141,739	0,103	-0,007
-465,386	800,000	-0,010	0,026
-464,372	-200,000	0,005	-0,033
-463,357	695,787	-0,065	-0,124
-462,343	-200,000	-0,001	0,031
-461,328	448,702	-0,013	0,021
-460,313	-160,774	-0,082	-0,003
-459,299	283,823	0,064	0,084
-458,284	-18,950	0,051	-0,023
-457,270	800,000	-0,040	-0,094
-456,255	-200,000	0,003	0,068
-455,241	-56,054	-0,055	0,018
-454,226	-200,000	0,020	-0,078
-453,211	-200,000	-0,038	-0,147
-452,197	-154,298	-0,057	0,003
-451,182	-200,000	-0,038	0,156
-450,168	-91,681	0,080	-0,016
-449,153	469,369	-0,009	0,015
-448,138	800,000	-0,017	0,051
-447,124	-91,897	-0,141	0,029
-446,109	242,897	0,076	-0,093
-445,095	-200,000	0,005	-0,045
-444,080	555,064	-0,027	-0,047
-443,065	354,007	0,036	-0,052
-442,051	800,000	-0,025	-0,077
-441,036	59,425	0,081	-0,058
-440,022	76,288	-0,057	-0,044
-439,007	-88,655	-0,015	0,003
-437,992	-5,545	0,096	0,048
-436,978	101,689	-0,035	-0,030
-435,963	-73,785	0,077	0,020
-434,949	191,659	-0,064	-0,070
-433,934	240,115	-0,072	0,088
-432,919	259,685	-0,041	-0,051
-431,905	-138,839	0,094	0,007
-430,890	-200,000	0,041	0,155
-429,876	-200,000	0,004	0,155
-428,861	10,282	0,034	0,019
-427,846	-200,000	0,018	0,113
-426,832	-98,769	-0,104	-0,019
-425,817	800,000	0,019	-0,042
-424,803	800,000	0,034	-0,079
-423,788	-4,769	0,031	-0,015
-422,773	-200,000	-0,006	0,031
-421,759	800,000	-0,044	0,135
-420,744	383,075	0,042	0,063
-419,730	90,233	-0,087	-0,071
-418,715	6,664	-0,088	-0,047
-417,701	391,748	0,028	-0,042
-416,686	-3,679	0,051	0,026
-415,671	-127,606	-0,020	-0,002
-414,657	-18,099	-0,033	0,015
-413,642	21,646	0,116	0,069
-412,628	145,408	-0,068	-0,066
-411,613	234,620	-0,067	-0,081
-410,598	133,656	-0,123	0,116
-409,584	94,736	-0,064	-0,053
-408,569	-200,000	0,023	0,085
-407,555	51,067	0,119	0,082
-406,540	175,261	0,045	0,048
-405,525	-200,000	0,011	0,077
-404,511	800,000	0,040	0,124
-403,496	184,559	0,054	-0,058
-402,482	-200,000	0,018	-0,149
-401,467	-124,705	-0,109	-0,012
-400,452	250,861	0,052	-0,065
-399,438	50,889	0,090	0,062
-398,423	-200,000	0,002	0,083
-397,409	127,978	0,053	0,049
-396,394	38,394	0,069	0,044
-395,379	-107,917	0,060	-0,009
-394,365	164,219	0,133	0,136
-393,350	-200,000	0,000	0,109
-392,336	80,904	0,113	0,088
-391,321	-200,000	-0,022	0,109
-390,306	-84,492	-0,106	0,024
-389,292	290,151	-0,095	-0,126
-388,277	173,453	0,074	0,078
-387,263	14,470	0,133	-0,075
-386,248	-131,219	-0,140	-0,013
-385,233	97,077	0,008	0,007
-384,219	158,855	0,016	-0,017
-383,204	800,000	0,014	-0,030
-382,190	-200,000	0,008	0,045
-381,175	306,581	0,154	0,208
-380,160	800,000	-0,049	0,105
-379,146	259,895	-0,031	-0,039
-378,131	466,904	0,037	-0,061
-377,117	59,008	0,064	-0,046
-376,102	61,929	0,039	0,028
-375,088	-63,474	-0,079	-0,023
-374,073	95,370	-0,029	0,024
-373,058	800,000	0,021	0,061
-372,044	41,769	0,086	-0,056
-371,029	24,180	0,087	0,052
-370,015	-200,000	-0,011	-0,049
-369,000	83,066	-0,099	0,078
-367,985	270,755	0,066	0,085
-366,971	188,352	-0,101	-0,109
-365,956	-58,136	-0,104	-0,033
-364,942	-51,048	0,056	0,019
-363,927	-200,000	0,008	-0,032
-362,912	-200,000	0,007	0,059
-361,898	-47,881	-0,070	-0,024
-360,883	279,719	0,014	0,019
-359,869	-21,310	-0,097	0,043
-358,854	-104,766	-0,166	-0,028
-357,839	31,479	-0,057	-0,035
-356,825	40,069	0,089	-0,058
-355,810	-85,704	0,077	-0,017
-354,796	-200,000	0,034	0,129
-353,781	52,440	0,055	-0,038
-352,766	-200,000	0,008	-0,076
-351,752	14,447	-0,085	-0,048
-350,737	-200,000	0,013	0,051
-349,723	800,000	-0,018	0,048
-348,708	-120,004	0,128	-0,016
-347,693	216,116	-0,086	-0,099
-346,679	95,186	-0,035	-0,029
-345,664	-78,853	-0,042	-0,010
-344,650	-62,014	-0,067	-0,020
-343,635	-94,960	0,084	-0,016
-342,620	-122,308	0,033	-0,004
-341,606	-142,005	0,059	0,004
-340,591	-143,695	-0,043	-0,003
-339,577	-63,199	-0,033	0,010
-338,562	430,047	-0,073	0,115
-337,548	-200,000	-0,011	0,068
-336,533	44,897	-0,075	-0,050
-335,518	-102,924	-0,097	0,016
-334,504	-61,357	-0,074	0,022
-333,489	-200,000	-0,006	0,046
-332,475	800,000	-0,021	0,047
-331,460	800,000	-0,063	-0,172
-330,445	127,717	-0,106	-0,098
-329,431	-143,377	0,087	-0,006
-328,416	800,000	-0,023	0,052
-327,402	473,502	0,015	-0,024
-326,387	800,000	0,046	-0,108
-325,372	545,901	-0,042	0,074
-324,358	4,570	-0,044	-0,023
-323,343	116,803	0,093	0,083
-322,329	291,584	0,031	0,042
-321,314	424,827	0,018	-0,028
-320,299	-57,610	0,066	-0,021
-319,285	-96,940	0,126	0,024
-318,270	-66,934	-0,060	-0,017
-317,256	800,000	-0,117	-0,249
-316,241	64,397	-0,033	-0,024
-315,226	-37,431	0,050	-0,019
-314,212	-200,000	0,006	0,030
-313,197	23,678	-0,029	0,017
-312,183	800,000	0,016	-0,046
-311,168	800,000	0,041	0,083
-310,153	-76,623	0,054	-0,014
-309,139	-14,674	0,046	-0,022
-308,124	-2,792	-0,054	0,027
-307,110	-200,000	-0,013	-0,126
-306,095	-180,725	0,140	-0,002
-305,080	-200,000	-0,002	0,061
-304,066	-14,186	-0,088	0,041
-303,051	64,640	-0,100	0,073
-302,037	-143,505	0,056	0,004
-301,022	-200,000	-0,014	0,072
-300,008	324,335	0,031	0,043
-298,993	-200,000	-0,014	-0,048
-297,978	-78,938	-0,085	-0,021
-296,964	-107,832	0,095	0,015
-295,949	-200,000	0,003	-0,094
-294,935	9,365	-0,145	-0,079
-293,920	-200,000	0,021	0,095
-292,905	-31,079	0,043	0,017
-291,891	-200,000	0,009	0,085
-290,876	799,121	0,051	0,102
-289,862	800,000	0,020	-0,059
-288,847	-142,635	-0,094	0,007
-287,832	-77,525	-0,087	-0,022
-286,818	341,848	-0,070	-0,099
-285,803	61,093	0,105	0,075
-284,789	800,000	-0,044	0,094
-283,774	250,251	-0,085	-0,105
-282,759	-200,000	0,011	0,041
-281,745	73,865	-0,107	-0,081
-280,730	147,358	-0,069	-0,067
-279,716	-43,781	0,076	0,027
-278,701	-40,672	0,052	-0,020
-277,686	342,282	0,061	0,087
-276,672	44,816	0,087	-0,058
-275,657	165,342	-0,065	-0,066
-274,643	292,565	-0,048	0,063
-273,628	800,000	0,089	-0,182
-272,613	292,358	0,051	0,067
-271,599	-200,000	0,007	-0,028
-270,584	38,937	0,118	0,076
-269,570	119,487	0,076	-0,068
-268,555	800,000	-0,029	-0,075
-267,540	800,000	0,048	-0,128
-266,526	451,905	-0,040	-0,064
-265,511	800,000	0,041	-0,095
-264,497	1,843	0,102	0,053
-263,482	800,000	0,031	0,073
-262,467	800,000	0,060	0,174
-261,453	-80,504	0,079	-0,019
-260,438	-58,631	-0,067	-0,021
-259,424	-200,000	0,023	-0,079
-258,409	451,664	-0,050	0,081
-257,395	513,291	0,030	0,050
-256,380	-73,911	0,014	-0,004
-255,365	-1,225	-0,099	0,050
-254,351	-69,334	0,088	0,024
-253,336	5,775	0,062	0,033
-252,322	167,994	0,011	0,011
-251,307	192,318	0,015	0,017
-250,292	38,601	-0,094	0,061
-249,278	-200,000	-0,038	0,127
-248,263	35,276	0,121	-0,076
-247,249	6,198	-0,073	0,039
-246,234	297,753	0,100	-0,133
-245,219	-200,000	-0,044	-0,204
-244,205	-106,573	-0,109	0,017
-243,190	-200,000	-0,013	-0,165
-242,176	35,044	0,100	0,063
-241,161	800,000	0,039	0,118
-240,146	800,000	0,031	0,072
-239,132	-113,379	0,138	-0,019
-238,117	385,718	0,033	0,049
-237,103	124,592	-0,074	-0,067
-236,088	335,312	-0,089	-0,126
-235,073	-138,099	-0,082	-0,006
-234,059	-200,000	0,005	-0,098
-233,044	152,707	0,107	0,106
-232,030	38,748	0,045	-0,029
-231,015	-20,704	-0,026	0,011
-230,000	-126,900	0,046	0,005
-228,986	443,211	-0,040	0,064
-227,971	-200,000	0,001	0,082
-226,957	96,350	0,099	0,082
-225,942	-38,533	0,150	0,057
-224,927	-30,054	-0,109	0,045
-223,913	141,514	-0,054	0,051
-222,898	-200,000	0,005	0,023
-221,884	157,073	0,057	-0,057
-220,869	800,000	0,032	0,101
-219,855	-200,000	0,002	0,091
-218,840	-104,984	-0,026	0,004
-217,825	205,173	0,039	0,043
-216,811	-200,000	0,023	-0,089
-215,796	-173,359	0,057	-0,001
-214,782	462,467	0,009	-0,015
-213,767	-16,424	0,049	0,023
-212,752	78,984	0,120	-0,093
-211,738	800,000	0,037	-0,112
-210,723	-109,219	-0,064	-0,010
-209,709	288,311	-0,081	0,107
-208,694	-79,721	-0,095	-0,023
-207,679	-57,143	0,120	-0,038
-206,665	118,498	0,031	0,027
-205,650	36,219	0,097	0,062
-204,636	-200,000	0,016	0,095
-203,621	-128,179	-0,063	-0,006
-202,606	800,000	-0,026	-0,083
-201,592	-63,183	-0,032	-0,009
-200,577	-2,739	-0,109	0,055
-199,563	-12,254	0,150	-0,071
-198,548	800,000	-0,071	-0,143
-197,533	198,718	0,043	0,047
-196,519	-200,000	0,023	0,092
-195,504	-23,223	-0,052	0,022
-194,490	-200,000	-0,026	-0,111
-193,475	40,061	0,120	-0,078
-192,460	229,152	0,064	0,075
-191,446	366,673	0,061	-0,089
-190,431	-89,566	-0,047	0,010
-189,417	800,000	0,046	0,114
-188,402	-65,221	0,066	-0,019
-187,387	-99,401	-0,034	-0,006
-186,373	101,677	-0,032	-0,027
-185,358	17,812	-0,104	-0,060
-184,344	28,520	0,040	-0,024
-183,329	-73,921	0,083	0,021
-182,315	177,573	-0,022	0,023
-181,300	53,715	-0,144	-0,100
-180,285	-200,000	0,014	-0,171
-179,271	10,280	-0,221	-0,121
-178,256	800,000	-0,027	-0,081
-177,242	-103,483	0,141	0,024
-176,227	-200,000	0,002	-0,057
-175,212	-121,509	-0,070	0,008
-174,198	-111,150	-0,121	0,018
-173,183	800,000	-0,011	-0,025
-172,169	75,867	-0,028	-0,022
-171,154	244,014	0,051	-0,061
-170,139	800,000	-0,069	-0,145
-169,125	800,000	-0,020	-0,045
-168,110	800,000	0,022	0,054
-167,096	41,885	0,147	-0,096
-166,081	-67,780	0,067	-0,019
-165,066	0,883	-0,038	0,019
-164,052	-64,098	-0,057	0,017
-163,037	800,000	-0,053	-0,115
-162,023	81,525	0,067	-0,052
-161,008	-44,040	0,047	-0,017
-159,993	411,360	-0,084	-0,128
-158,979	800,000	0,026	-0,058
-157,964	800,000	-0,025	0,060
-156,950	-114,814	-0,114	-0,015
-155,935	-200,000	-0,032	0,116
-154,920	57,683	0,067	0,047
-153,906	800,000	0,042	0,127
-152,891	61,234	-0,030	-0,021
-151,877	800,000	0,119	0,244
-150,862	-101,808	-0,042	0,007
-149,847	-200,000	-0,041	-0,177
-148,833	634,896	0,032	0,058
-147,818	-80,188	0,041	0,010
-146,804	523,516	-0,026	0,045
-145,789	64,510	0,038	0,028
-144,775	-200,000	0,000	0,030
-143,760	-200,000	0,023	0,139
-142,745	-127,037	-0,062	0,006
-141,731	269,460	0,035	-0,044
-140,716	2,262	0,085	0,044
-139,702	-200,000	-0,008	0,040
-138,687	74,976	-0,195	-0,147
-137,672	-200,000	-0,011	0,113
-136,658	688,291	0,016	0,029
-135,643	-152,072	-0,140	-0,007
-134,629	800,000	0,009	-0,021
-133,614	-37,199	-0,094	-0,036
-132,599	-200,000	-0,061	0,211
-131,585	70,483	0,100	0,074
-130,570	-35,780	-0,066	0,026
-129,556	-200,000	-0,007	-0,093
-128,541	-88,993	-0,199	0,042
-127,526	95,665	-0,081	-0,066
-126,512	103,861	0,082	0,070
-125,497	581,121	0,035	-0,062
-124,483	256,832	-0,108	0,134
-123,468	-200,000	-0,006	0,038
-122,453	449,103	-0,046	-0,073
-121,439	120,017	-0,077	0,068
-120,424	29,413	-0,149	0,091
-119,410	-200,000	-0,010	0,109
-118,395	26,032	-0,023	-0,014
