DTS Sentinel unit serial number:	SN410029Multiplexer serial number:	ORYXHardware model number:	OX2-SRSoftware version number:	ORYX F/W v4,00 Oryx Data Collector v3.7.2.0data status	okinstallation	B6 Nyhavnadifferential loss correction	single-endedforward channel	channel 2reverse channel	N/Adate	2023/12/09time	00:10:08forward acquisition time	300,00reverse acquisition time	0,00gamma	499,1914k internal	0,3157k external	0,3157temperature offset calibration	1,0000default loss term (dB/km)	0,3820temperature slope calibration	1,0000multiplexer offset coefficient	1,0000multiplexer slope coefficient	1,0000fibre end	0,00T internal ref (°C)	15,56T ext. ref 1 (°C)	-0,86T ext. ref 2 (°C)	-0,86length (m)	temperature (°C)	Stokes	anti-Stokes-744,400	612,271	0,074	-0,137
-743,385	-45,056	-0,197	-0,072
-742,371	-53,884	0,072	0,024
-741,356	-30,190	-0,251	-0,105
-740,342	-193,161	0,178	-0,001
-739,327	-112,778	-0,326	-0,047
-738,312	74,881	0,111	0,086
-737,298	-60,495	-0,273	0,085
-736,283	-133,610	0,094	-0,009
-735,269	-185,648	-0,137	0,001
-734,254	455,481	0,102	0,167
-733,239	20,450	-0,535	-0,318
-732,225	-82,775	0,085	0,020
-731,210	420,793	0,052	0,082
-730,196	800,000	-0,024	-0,065
-729,181	436,298	0,047	-0,076
-728,167	154,258	-0,095	-0,096
-727,152	742,270	-0,041	0,081
-726,137	-21,722	-0,048	0,022
-725,123	-200,000	-0,003	-0,013
-724,108	107,092	-0,116	0,102
-723,094	79,156	-0,057	-0,045
-722,079	616,899	-0,055	-0,101
-721,064	-200,000	0,006	0,070
-720,050	-127,376	-0,092	0,010
-719,035	-107,684	-0,173	0,028
-718,021	18,993	-0,141	-0,083
-717,006	-63,284	-0,196	0,059
-715,991	800,000	0,005	0,013
-714,977	-89,786	0,064	0,014
-713,962	-200,000	-0,019	0,066
-712,948	433,802	-0,085	0,136
-711,933	36,746	-0,149	0,097
-710,918	-200,000	-0,015	-0,090
-709,904	-122,217	-0,260	-0,031
-708,889	333,996	-0,044	0,063
-707,875	-49,727	-0,074	-0,026
-706,860	-156,245	-0,072	-0,003
-705,845	-137,273	-0,074	-0,006
-704,831	-85,606	0,090	-0,020
-703,816	289,145	-0,044	-0,059
-702,802	-42,345	-0,070	-0,026
-701,787	-71,075	-0,081	0,022
-700,772	10,806	0,099	-0,056
-699,758	-200,000	-0,009	0,071
-698,743	360,321	-0,043	-0,064
-697,729	382,871	0,075	0,114
-696,714	-200,000	-0,037	0,165
-695,699	89,942	-0,052	0,043
-694,685	-200,000	-0,008	-0,053
-693,670	800,000	-0,022	-0,058
-692,656	-200,000	-0,029	0,118
-691,641	-39,870	0,125	0,048
-690,627	-200,000	-0,007	-0,111
-689,612	-200,000	-0,001	-0,014
-688,597	375,349	0,053	-0,080
-687,583	800,000	-0,047	-0,100
-686,568	83,866	-0,055	-0,044
-685,554	-5,889	-0,120	-0,060
-684,539	473,438	0,046	-0,076
-683,524	22,237	-0,066	0,040
-682,510	800,000	0,040	0,119
-681,495	601,378	-0,049	0,091
-680,481	315,484	0,057	-0,079
-679,466	-125,659	-0,140	-0,015
-678,451	168,669	0,022	-0,023
-677,437	800,000	-0,032	-0,070
-676,422	-200,000	0,049	0,161
-675,408	434,450	-0,074	-0,119
-674,393	37,644	-0,127	0,083
-673,378	280,700	0,025	-0,032
-672,364	-61,853	-0,010	0,003
-671,349	-22,622	-0,162	-0,072
-670,335	-200,000	0,014	0,117
-669,320	210,165	0,025	0,029
-668,305	284,219	0,011	-0,015
-667,291	-16,519	-0,156	-0,073
-666,276	-200,000	-0,012	0,088
-665,262	48,020	0,055	0,038
-664,247	-138,625	-0,070	0,006
-663,232	125,880	-0,026	0,024
-662,218	479,571	0,061	-0,102
-661,203	8,874	0,016	-0,009
-660,189	-200,000	-0,013	-0,056
-659,174	546,530	0,060	0,106
-658,159	-146,179	-0,195	0,012
-657,145	-200,000	0,011	0,045
-656,130	800,000	-0,014	0,043
-655,116	64,757	0,026	0,019
-654,101	144,722	-0,089	-0,088
-653,086	17,493	-0,023	0,013
-652,072	-200,000	-0,039	0,130
-651,057	800,000	-0,004	-0,012
-650,043	-130,305	-0,052	0,005
-649,028	-71,700	-0,101	0,028
-648,014	-200,000	0,004	-0,046
-646,999	-17,995	0,098	0,045
-645,984	800,000	0,030	0,088
-644,970	-81,587	0,079	0,019
-643,955	-26,369	-0,090	-0,039
-642,941	800,000	-0,083	-0,211
-641,926	-200,000	-0,006	-0,052
-640,911	-200,000	0,035	-0,158
-639,897	800,000	-0,020	-0,051
-638,882	-66,784	0,041	-0,012
-637,868	-36,934	0,030	-0,012
-636,853	-68,498	-0,127	-0,036
-635,838	316,546	0,024	0,033
-634,824	558,875	0,016	-0,028
-633,809	-200,000	-0,003	0,024
-632,795	-200,000	-0,010	0,074
-631,780	363,217	-0,054	0,080
-630,765	800,000	0,025	0,065
-629,751	-200,000	-0,021	-0,113
-628,736	56,581	-0,081	-0,058
-627,722	198,958	0,036	-0,041
-626,707	-79,047	0,095	-0,024
-625,692	171,241	-0,033	-0,035
-624,678	115,418	0,056	0,050
-623,663	396,438	0,060	-0,092
-622,649	38,248	-0,040	0,026
-621,634	-200,000	-0,013	0,062
-620,619	-93,923	-0,030	0,006
-619,605	800,000	-0,059	-0,124
-618,590	55,097	0,041	0,029
-617,576	-78,185	0,124	0,031
-616,561	-139,162	-0,099	-0,008
-615,546	-56,727	-0,188	0,061
-614,532	-121,869	0,063	0,008
-613,517	-93,442	-0,168	0,034
-612,503	-56,886	-0,074	0,024
-611,488	-158,647	-0,128	-0,005
-610,474	250,502	-0,022	0,027
-609,459	-200,000	-0,005	-0,022
-608,444	42,449	0,048	-0,032
-607,430	-200,000	0,010	-0,090
-606,415	742,026	-0,030	-0,059
-605,401	-200,000	-0,001	-0,034
-604,386	-200,000	-0,005	-0,084
-603,371	-16,495	-0,142	0,066
-602,357	207,144	-0,044	-0,051
-601,342	-200,000	0,007	-0,095
-600,328	-181,001	-0,072	0,001
-599,313	302,439	-0,050	-0,068
-598,298	396,418	0,021	0,032
-597,284	-17,456	-0,082	0,038
-596,269	446,939	-0,058	-0,095
-595,255	800,000	0,018	-0,058
-594,240	100,123	-0,022	-0,019
-593,225	160,670	-0,150	-0,153
-592,211	-200,000	0,040	-0,138
-591,196	800,000	-0,018	0,052
-590,182	622,517	-0,047	0,086
-589,167	246,696	-0,062	0,077
-588,152	-42,302	-0,137	-0,051
-587,138	-200,000	0,021	0,103
-586,123	48,007	-0,170	0,116
-585,109	229,009	-0,073	0,087
-584,094	-62,178	-0,076	-0,023
-583,079	22,452	0,080	0,048
-582,065	76,593	0,056	0,044
-581,050	-200,000	-0,012	0,052
-580,036	22,941	0,052	0,031
-579,021	-37,726	0,077	-0,030
-578,006	-89,608	-0,107	0,023
-576,992	800,000	-0,004	-0,012
-575,977	279,118	0,030	0,040
-574,963	462,337	0,019	-0,031
-573,948	-141,128	0,033	0,002
-572,934	374,161	-0,059	-0,088
-571,919	130,731	-0,092	0,086
-570,904	217,090	-0,064	0,074
-569,890	-68,434	-0,053	-0,015
-568,875	800,000	0,056	-0,174
-567,861	-70,939	-0,060	-0,016
-566,846	-200,000	0,045	0,152
-565,831	-159,473	-0,079	-0,003
-564,817	-23,779	0,075	-0,033
-563,802	-116,894	-0,079	0,010
-562,788	-172,736	-0,105	0,002
-561,773	-16,172	0,098	-0,045
-560,758	800,000	-0,021	-0,067
-559,744	119,923	0,046	0,042
-558,729	-74,815	0,046	-0,012
-557,715	102,978	-0,062	0,053
-556,700	21,244	0,020	-0,012
-555,685	-163,767	-0,124	0,004
-554,671	-20,554	0,078	0,035
-553,656	292,323	0,092	-0,123
-552,642	43,973	0,119	0,080
-551,627	128,181	0,083	0,077
-550,612	214,821	-0,112	-0,130
-549,598	716,559	-0,007	-0,015
-548,583	-200,000	0,004	0,041
-547,569	457,553	0,084	-0,137
-546,554	800,000	0,018	-0,039
-545,539	-82,649	0,134	0,031
-544,525	275,262	0,050	0,065
-543,510	44,220	-0,067	-0,045
-542,496	157,034	0,030	0,031
-541,481	140,749	0,071	0,068
-540,466	-200,000	-0,004	0,123
-539,452	800,000	0,020	-0,062
-538,437	-156,393	0,078	-0,003
-537,423	84,104	-0,038	-0,030
-536,408	800,000	0,074	-0,193
-535,393	-94,325	-0,045	0,009
-534,379	-74,538	-0,080	0,021
-533,364	272,822	-0,106	-0,138
-532,350	381,098	-0,061	0,091
-531,335	-128,763	0,280	0,028
-530,321	-200,000	-0,014	0,130
-529,306	423,206	-0,016	-0,025
-528,291	800,000	-0,074	-0,176
-527,277	44,238	-0,137	0,092
-526,262	-114,161	-0,028	0,004
-525,248	-200,000	-0,017	0,057
-524,233	-200,000	-0,013	-0,061
-523,218	800,000	0,036	0,091
-522,204	80,650	0,115	0,091
-521,189	114,282	-0,057	-0,051
-520,175	444,486	-0,100	-0,161
-519,160	-200,000	-0,017	0,064
-518,145	317,291	-0,044	0,061
-517,131	-159,908	0,202	0,008
-516,116	-15,600	0,114	-0,053
-515,102	-51,993	0,055	0,018
-514,087	-104,372	0,060	0,010
-513,072	-200,000	0,008	-0,093
-512,058	78,481	-0,071	-0,056
-511,043	-41,012	0,061	-0,023
-510,029	129,567	-0,117	-0,109
-509,014	608,844	-0,029	0,053
-507,999	-200,000	0,005	0,147
-506,985	-41,259	0,158	0,059
-505,970	-81,142	-0,137	-0,033
-504,956	-45,666	-0,036	0,013
-503,941	800,000	0,017	0,042
-502,926	656,624	0,098	0,184
-501,912	800,000	0,060	0,127
-500,897	-87,071	-0,071	-0,016
-499,883	800,000	-0,005	-0,013
-498,868	-200,000	-0,007	0,073
-497,853	-99,632	-0,110	-0,020
-496,839	540,940	0,048	-0,083
-495,824	-200,000	0,007	0,035
-494,810	58,406	0,085	0,061
-493,795	367,982	-0,097	0,143
-492,781	-15,181	0,037	-0,017
-491,766	-200,000	-0,018	-0,121
-490,751	-200,000	0,005	-0,127
-489,737	-153,521	-0,074	-0,004
-488,722	-200,000	0,008	0,070
-487,708	-47,120	-0,075	0,027
-486,693	203,217	0,042	0,047
-485,678	-200,000	-0,009	0,033
-484,664	187,380	0,100	-0,109
-483,649	-84,604	-0,058	0,013
-482,635	569,928	-0,043	0,076
-481,620	-91,035	0,056	0,012
-480,605	800,000	-0,025	-0,060
-479,591	143,284	0,038	-0,037
-478,576	7,016	0,109	0,059
-477,562	-18,380	-0,069	-0,031
-476,547	-160,281	-0,119	0,005
-475,532	-34,959	-0,006	-0,003
-474,518	-200,000	-0,013	-0,149
-473,503	-200,000	0,003	-0,020
-472,489	5,944	-0,017	-0,009
-471,474	-200,000	0,015	0,085
-470,459	-144,830	-0,197	-0,013
-469,445	10,386	-0,101	-0,056
-468,430	715,934	0,050	-0,098
-467,416	265,113	0,055	0,070
-466,401	277,156	0,063	0,082
-465,386	-37,437	0,124	0,048
-464,372	-200,000	-0,003	0,043
-463,357	222,835	-0,082	-0,097
-462,343	-200,000	0,023	-0,090
-461,328	800,000	0,029	0,075
-460,313	800,000	0,030	0,093
-459,299	611,486	-0,039	-0,072
-458,284	-38,581	0,165	-0,063
-457,270	-64,296	-0,081	-0,024
-456,255	-96,918	-0,024	-0,005
-455,241	219,900	-0,081	-0,094
-454,226	-43,588	-0,141	0,052
-453,211	-118,490	0,121	0,015
-452,197	170,638	-0,045	0,047
-451,182	-45,217	-0,117	0,042
-450,168	-200,000	0,021	0,000
-449,153	378,745	-0,058	-0,086
-448,138	49,009	-0,102	-0,070
-447,124	-188,578	0,083	0,001
-446,109	198,798	-0,071	0,080
-445,095	-79,410	-0,166	0,041
-444,080	193,032	0,129	-0,143
-443,065	-200,000	-0,009	0,042
-442,051	-200,000	-0,004	-0,025
-441,036	235,100	-0,043	-0,052
-440,022	-54,211	0,037	0,012
-439,007	-200,000	-0,013	0,058
-437,992	-19,499	0,154	0,069
-436,978	136,156	0,066	0,063
-435,963	800,000	-0,043	0,106
-434,949	276,260	-0,042	0,054
-433,934	478,867	-0,013	0,021
-432,919	57,346	-0,095	-0,068
-431,905	52,875	-0,104	0,072
-430,890	-200,000	0,027	0,118
-429,876	124,508	0,036	0,033
-428,861	800,000	0,037	0,112
-427,846	7,548	-0,053	0,029
-426,832	121,032	0,047	-0,043
-425,817	31,652	0,062	-0,038
-424,803	-138,006	0,162	-0,013
-423,788	124,829	0,082	0,075
-422,773	-12,462	0,066	0,031
-421,759	57,965	0,064	0,046
-420,744	112,120	0,076	-0,067
-419,730	800,000	-0,056	-0,172
-418,715	-200,000	0,004	0,066
-417,701	800,000	0,024	0,051
-416,686	-132,699	0,027	0,002
-415,671	-200,000	0,045	0,145
-414,657	656,565	0,061	-0,114
-413,642	800,000	-0,037	0,078
-412,628	441,631	0,017	-0,027
-411,613	-200,000	0,015	-0,133
-410,598	295,347	0,073	-0,098
-409,584	800,000	-0,034	0,074
-408,569	-94,276	0,101	-0,020
-407,555	-200,000	-0,020	-0,067
-406,540	-80,422	-0,089	-0,022
-405,525	-154,999	-0,114	0,005
-404,511	800,000	-0,004	0,013
-403,496	800,000	0,024	-0,061
-402,482	17,671	0,106	-0,061
-401,467	-200,000	-0,010	0,039
-400,452	116,295	0,156	0,139
-399,438	477,249	0,022	-0,037
-398,423	-200,000	-0,003	-0,083
-397,409	800,000	-0,034	0,072
-396,394	415,592	-0,039	-0,061
-395,379	245,798	-0,042	0,052
-394,365	269,833	-0,032	0,041
-393,350	-110,440	-0,045	-0,007
-392,336	-200,000	-0,011	0,063
-391,321	-28,654	0,107	0,045
-390,306	-200,000	0,028	-0,097
-389,292	-200,000	0,005	-0,045
-388,277	-107,279	0,075	-0,012
-387,263	-48,998	-0,113	0,039
-386,248	-54,507	0,142	-0,047
-385,233	-58,563	0,088	0,028
-384,219	800,000	0,031	0,086
-383,204	-200,000	0,000	-0,026
-382,190	168,092	-0,114	-0,118
-381,175	123,496	-0,045	-0,041
-380,160	761,466	-0,062	0,123
-379,146	250,345	0,081	0,101
-378,131	-119,178	0,176	-0,022
-377,117	425,986	-0,013	0,021
-376,102	551,617	0,062	-0,108
-375,088	139,212	-0,093	-0,089
-374,073	-200,000	0,001	0,093
-373,058	800,000	0,037	0,088
-372,044	-200,000	-0,008	0,065
-371,029	-200,000	-0,001	0,003
-370,015	-200,000	-0,003	0,137
-369,000	562,534	-0,078	0,138
-367,985	392,209	0,084	-0,127
-366,971	-200,000	-0,023	-0,117
-365,956	-115,425	-0,036	0,005
-364,942	-21,793	0,036	-0,016
-363,927	-121,822	0,100	0,012
-362,912	295,533	0,064	0,085
-361,898	-200,000	-0,001	-0,069
-360,883	98,956	0,055	-0,046
-359,869	800,000	0,041	0,112
-358,854	-144,812	0,111	0,007
-357,839	-106,575	-0,015	0,002
-356,825	163,664	0,087	0,089
-355,810	-200,000	0,025	0,116
-354,796	366,840	0,035	0,051
-353,781	207,268	-0,044	-0,050
-352,766	-109,564	-0,072	0,011
-351,752	-59,135	0,184	0,057
-350,737	-119,445	0,087	0,011
-349,723	-200,000	0,035	0,158
-348,708	192,155	0,062	0,068
-347,693	-116,962	0,143	-0,019
-346,679	-131,011	0,059	-0,006
-345,664	-184,191	-0,025	0,000
-344,650	770,629	-0,052	0,103
-343,635	34,746	0,086	0,055
-342,620	-136,231	0,057	-0,005
-341,606	92,238	-0,103	-0,084
-340,591	-91,234	-0,061	-0,013
-339,577	49,957	-0,137	0,094
-338,562	459,145	-0,056	0,090
-337,548	92,673	-0,047	0,039
-336,533	-113,103	0,116	0,016
-335,518	800,000	0,047	0,098
-334,504	-50,468	-0,102	-0,035
-333,489	4,362	0,029	0,015
-332,475	0,696	0,045	-0,023
-331,460	-200,000	0,022	-0,110
-330,445	32,431	0,029	0,018
-329,431	-130,279	0,076	0,007
-328,416	-200,000	-0,005	0,072
-327,402	180,273	-0,034	-0,036
-326,387	182,684	-0,078	-0,083
-325,372	-72,488	-0,099	0,026
-324,358	-200,000	-0,022	-0,091
-323,343	-132,424	0,055	-0,005
-322,329	327,662	-0,014	-0,020
-321,314	-133,490	-0,086	-0,008
-320,299	-200,000	0,010	0,204
-319,285	88,595	-0,140	0,113
-318,270	-200,000	-0,002	-0,080
-317,256	-200,000	0,010	-0,050
-316,241	-27,250	0,137	0,057
-315,226	225,762	0,055	0,065
-314,212	251,924	0,084	0,104
-313,197	-68,121	0,028	0,008
-312,183	-48,667	0,046	0,016
-311,168	-200,000	0,012	0,090
-310,153	682,791	-0,051	-0,096
-309,139	-200,000	0,015	-0,239
-308,124	82,801	-0,068	-0,053
-307,110	-200,000	0,033	0,116
-306,095	-88,953	0,151	0,032
-305,080	-95,973	0,048	0,009
-304,066	17,270	-0,023	0,013
-303,051	-17,923	-0,061	-0,027
-302,037	211,167	-0,028	-0,032
-301,022	168,592	-0,072	-0,075
-300,008	-111,351	0,125	-0,018
-298,993	154,743	0,170	0,170
-297,978	-52,597	-0,103	-0,034
-296,964	290,205	-0,035	-0,047
-295,949	800,000	-0,066	-0,183
-294,935	-105,197	-0,076	0,012
-293,920	800,000	0,001	0,002
-292,905	-200,000	0,013	0,177
-291,891	46,101	0,121	0,081
-290,876	221,541	0,115	-0,134
-289,862	800,000	-0,014	0,042
-288,847	433,821	-0,026	0,042
-287,832	20,388	-0,072	-0,042
-286,818	88,434	-0,041	0,033
-285,803	-200,000	-0,021	0,120
-284,789	46,204	0,084	0,056
-283,774	-200,000	0,008	0,107
-282,759	80,479	-0,089	-0,069
-281,745	-94,096	-0,228	-0,045
-280,730	565,085	0,010	0,018
-279,716	-118,543	0,069	-0,009
-278,701	61,247	-0,016	-0,011
-277,686	26,254	0,096	0,058
-276,672	800,000	0,027	0,084
-275,657	800,000	0,047	-0,107
-274,643	29,550	0,025	0,015
-273,628	-119,599	-0,027	0,003
-272,613	-60,005	0,037	-0,011
-271,599	-200,000	-0,040	0,153
-270,584	800,000	-0,017	0,040
-269,570	390,321	0,007	0,011
-268,555	800,000	0,015	0,037
-267,540	113,140	0,131	-0,115
-266,526	-200,000	-0,002	-0,056
-265,511	642,730	0,023	-0,043
-264,497	371,404	-0,053	-0,078
-263,482	-200,000	0,008	0,104
-262,467	800,000	0,074	0,185
-261,453	-103,166	-0,158	-0,027
-260,438	-200,000	0,021	-0,118
-259,424	-102,046	-0,191	0,033
-258,409	61,338	0,080	0,057
-257,395	3,798	-0,105	-0,055
-256,380	8,470	0,036	-0,019
-255,365	-200,000	-0,036	0,153
-254,351	-105,893	-0,091	-0,015
-253,336	-90,824	0,055	-0,011
-252,322	-200,000	0,020	0,077
-251,307	800,000	-0,055	0,138
-250,292	-40,695	-0,020	-0,007
-249,278	-200,000	0,002	0,079
-248,263	-200,000	0,031	0,118
-247,249	800,000	-0,049	0,113
-246,234	800,000	0,038	-0,081
-245,219	61,884	-0,042	-0,030
-244,205	-117,349	-0,088	0,011
-243,190	-200,000	0,014	0,045
-242,176	-50,985	0,133	-0,045
-241,161	-170,010	0,143	-0,004
-240,146	-78,662	0,029	-0,007
-239,132	-19,269	0,032	-0,014
-238,117	65,611	0,030	-0,022
-237,103	800,000	-0,024	0,054
-236,088	800,000	0,020	0,061
-235,073	2,649	0,079	-0,041
-234,059	800,000	0,003	-0,010
-233,044	800,000	-0,038	0,085
-232,030	68,823	-0,069	0,051
-231,015	-45,802	0,025	-0,009
-230,000	-156,270	-0,125	0,006
-228,986	7,469	0,055	-0,030
-227,971	800,000	-0,028	0,084
-226,957	186,272	0,039	-0,042
-225,942	-200,000	0,001	0,031
-224,927	-161,788	-0,166	-0,006
-223,913	197,102	-0,094	-0,104
-222,898	116,851	-0,086	-0,077
-221,884	236,353	-0,068	0,081
-220,869	-121,908	0,100	-0,012
-219,855	800,000	0,001	-0,003
-218,840	-77,725	-0,176	-0,044
-217,825	-132,964	0,119	-0,011
-216,811	31,517	-0,081	-0,050
-215,796	20,348	-0,099	-0,058
-214,782	740,084	0,071	0,138
-213,767	-51,685	-0,052	-0,017
-212,752	800,000	0,065	0,132
-211,738	222,115	0,023	0,027
-210,723	-53,264	0,158	0,052
-209,709	-160,012	-0,069	0,003
-208,694	148,675	0,026	-0,025
-207,679	800,000	0,018	-0,040
-206,665	643,110	0,014	-0,026
-205,650	79,966	0,055	0,043
-204,636	800,000	0,044	-0,093
-203,621	-125,895	-0,051	-0,005
-202,606	800,000	0,023	-0,069
-201,592	204,068	-0,054	-0,060
-200,577	535,201	0,012	-0,021
-199,563	-200,000	-0,003	-0,089
-198,548	-60,693	-0,078	-0,024
-197,533	364,636	0,039	-0,057
-196,519	108,589	0,059	-0,051
-195,504	800,000	0,030	-0,062
-194,490	800,000	0,039	-0,085
-193,475	17,934	-0,074	-0,042
-192,460	-36,511	0,048	-0,019
-191,446	-191,901	0,106	0,001
-190,431	-200,000	-0,012	0,158
-189,417	-96,768	0,169	-0,032
-188,402	145,939	-0,056	-0,054
-187,387	800,000	-0,066	-0,163
-186,373	540,745	-0,034	-0,059
-185,358	-200,000	-0,010	-0,063
-184,344	110,143	-0,139	-0,120
-183,329	263,198	-0,020	0,025
-182,315	-200,000	0,008	-0,069
-181,300	167,059	0,063	0,064
-180,285	-7,176	-0,130	-0,063
-179,271	-85,513	-0,024	-0,005
-178,256	248,236	-0,049	0,060
-177,242	75,246	0,196	-0,149
-176,227	6,764	0,059	-0,032
-175,212	800,000	0,059	-0,118
-174,198	392,867	-0,050	0,075
-173,183	305,272	-0,109	0,147
-172,169	737,348	-0,074	-0,144
-171,154	-200,000	-0,001	-0,098
-170,139	-90,424	0,084	-0,017
-169,125	-28,272	-0,067	0,028
-168,110	417,691	-0,052	-0,081
-167,096	-103,077	0,098	-0,017
-166,081	-200,000	-0,025	-0,162
-165,066	-200,000	0,003	0,014
-164,052	800,000	-0,024	-0,052
-163,037	-200,000	-0,011	-0,098
-162,023	52,013	0,093	-0,064
-161,008	381,298	0,029	0,043
-159,993	-130,251	0,132	-0,013
-158,979	537,563	0,018	0,030
-157,964	-200,000	0,002	-0,137
-156,950	-2,292	-0,025	0,012
-155,935	800,000	0,073	-0,181
-154,920	-66,184	0,107	0,031
-153,906	-48,377	-0,066	0,023
-152,891	-117,092	-0,081	0,011
-151,877	242,131	-0,014	-0,017
-150,862	-200,000	0,028	-0,113
-149,847	446,845	-0,030	0,047
-148,833	-200,000	-0,001	0,134
-147,818	800,000	-0,082	0,238
-146,804	327,656	0,045	0,062
-145,789	-100,851	0,082	0,014
-144,775	800,000	-0,032	0,067
-143,760	-146,999	-0,088	-0,005
-142,745	453,210	-0,097	0,155
-141,731	-200,000	-0,007	-0,059
-140,716	-62,713	-0,124	-0,037
-139,702	800,000	0,050	-0,100
-138,687	-200,000	0,001	0,050
-137,672	345,009	-0,060	0,085
-136,658	-200,000	-0,002	0,058
-135,643	-5,071	-0,116	-0,057
-134,629	116,024	0,033	-0,029
-133,614	615,355	0,087	0,157
-132,599	-200,000	0,002	-0,107
-131,585	-125,305	0,179	-0,019
-130,570	40,606	0,065	0,042
-129,556	-85,140	-0,103	0,023
-128,541	800,000	-0,022	-0,044
-127,526	-45,445	-0,219	-0,078
-126,512	185,026	0,116	-0,124
-125,497	547,311	-0,074	0,128
-124,483	541,668	0,069	0,119
-123,468	-200,000	0,001	0,056
-122,453	-200,000	-0,001	-0,061
-121,439	27,568	0,025	-0,015
-120,424	-175,357	-0,183	0,004
-119,410	-200,000	0,018	0,184
