DTS Sentinel unit serial number:	SN410029Multiplexer serial number:	ORYXHardware model number:	OX2-SRSoftware version number:	ORYX F/W v4,00 Oryx Data Collector v3.7.2.0data status	okinstallation	B6 Nyhavnadifferential loss correction	single-endedforward channel	channel 2reverse channel	N/Adate	2023/12/10time	09:55:08forward acquisition time	300,00reverse acquisition time	0,00gamma	499,1914k internal	0,3123k external	0,3123temperature offset calibration	1,0000default loss term (dB/km)	0,3820temperature slope calibration	1,0000multiplexer offset coefficient	1,0000multiplexer slope coefficient	1,0000fibre end	0,00T internal ref (°C)	22,56T ext. ref 1 (°C)	6,36T ext. ref 2 (°C)	6,35length (m)	temperature (°C)	Stokes	anti-Stokes-744,400	800,000	-0,047	-0,143
-743,385	91,544	-0,221	0,185
-742,371	-120,570	0,072	-0,009
-741,356	103,662	-0,195	0,170
-740,342	371,412	0,120	0,182
-739,327	190,254	-0,220	0,246
-738,312	800,000	-0,034	-0,077
-737,298	-139,472	-0,345	0,027
-736,283	-14,490	0,037	-0,018
-735,269	164,957	-0,205	0,216
-734,254	214,879	-0,013	0,016
-733,239	-42,408	-0,454	-0,172
-732,225	-179,789	0,098	0,002
-731,210	-18,577	-0,044	0,020
-730,196	659,951	-0,048	0,093
-729,181	-71,411	-0,176	0,049
-728,167	-200,000	-0,011	0,088
-727,152	800,000	-0,054	0,159
-726,137	119,546	-0,056	-0,052
-725,123	-200,000	0,002	-0,131
-724,108	-78,900	-0,128	-0,032
-723,094	-200,000	0,018	-0,062
-722,079	201,911	-0,068	0,078
-721,064	274,230	0,081	-0,107
-720,050	640,615	-0,025	0,048
-719,035	-200,000	-0,022	-0,114
-718,021	5,979	-0,103	0,057
-717,006	450,866	-0,081	-0,133
-715,991	62,523	0,032	-0,024
-714,977	361,134	-0,078	-0,117
-713,962	-118,489	0,011	0,001
-712,948	-45,887	-0,058	-0,021
-711,933	-200,000	0,003	0,054
-710,918	-200,000	-0,007	0,105
-709,904	16,891	-0,073	-0,043
-708,889	-0,310	0,083	-0,044
-707,875	2,408	-0,070	-0,037
-706,860	-70,400	-0,110	-0,031
-705,845	92,055	-0,011	0,009
-704,831	-26,597	0,070	0,031
-703,816	5,886	-0,110	0,060
-702,802	104,308	0,053	0,047
-701,787	-200,000	-0,030	-0,159
-700,772	-67,243	0,104	0,030
-699,758	-200,000	0,020	0,108
-698,743	-200,000	0,009	0,084
-697,729	-62,496	-0,016	-0,005
-696,714	-200,000	0,011	0,079
-695,699	61,681	-0,129	0,096
-694,685	-200,000	0,049	0,197
-693,670	16,403	-0,095	0,055
-692,656	-200,000	-0,001	0,021
-691,641	18,460	0,144	0,085
-690,627	309,245	-0,034	-0,047
-689,612	140,506	-0,122	0,120
-688,597	800,000	-0,026	0,054
-687,583	-200,000	-0,001	-0,058
-686,568	-86,424	-0,060	0,014
-685,554	-104,372	-0,093	0,016
-684,539	-200,000	-0,030	-0,113
-683,524	162,985	0,028	-0,029
-682,510	-67,235	-0,129	0,037
-681,495	38,955	-0,100	-0,066
-680,481	800,000	-0,027	0,062
-679,466	800,000	-0,019	0,041
-678,451	-200,000	-0,019	-0,087
-677,437	-52,845	0,081	-0,028
-676,422	-74,677	0,082	-0,022
-675,408	800,000	-0,018	-0,051
-674,393	-200,000	-0,001	-0,048
-673,378	38,657	-0,096	0,064
-672,364	-200,000	-0,002	0,058
-671,349	-200,000	-0,011	0,169
-670,335	90,413	-0,104	0,086
-669,320	-200,000	-0,030	-0,120
-668,305	334,446	-0,060	0,087
-667,291	-84,038	0,052	0,012
-666,276	313,391	-0,041	0,058
-665,262	664,745	0,023	-0,044
-664,247	312,495	-0,062	-0,087
-663,232	420,551	0,050	0,080
-662,218	-67,542	0,103	-0,030
-661,203	800,000	-0,105	0,219
-660,189	140,348	0,065	0,063
-659,174	-58,291	-0,040	-0,013
-658,159	118,958	-0,144	-0,132
-657,145	400,359	0,039	-0,062
-656,130	313,180	-0,104	-0,146
-655,116	258,346	-0,106	-0,136
-654,101	-154,928	-0,199	-0,010
-653,086	95,618	0,082	-0,070
-652,072	-200,000	-0,012	-0,077
-651,057	129,198	-0,010	0,009
-650,043	126,099	0,110	-0,103
-649,028	171,618	0,036	-0,039
-648,014	195,121	-0,071	0,080
-646,999	-18,748	-0,071	-0,033
-645,984	-200,000	0,036	-0,148
-644,970	-60,627	-0,056	0,017
-643,955	800,000	0,034	-0,070
-642,941	151,805	0,098	-0,100
-641,926	321,093	0,050	0,071
-640,911	-200,000	-0,004	-0,050
-639,897	800,000	-0,043	-0,122
-638,882	-117,151	-0,134	-0,018
-637,868	53,087	-0,035	0,025
-636,853	71,219	-0,046	-0,035
-635,838	800,000	0,018	-0,039
-634,824	-200,000	0,003	-0,123
-633,809	-143,797	0,111	0,008
-632,795	575,227	-0,052	0,094
-631,780	-200,000	-0,005	0,156
-630,765	-200,000	-0,016	0,126
-629,751	-67,261	-0,028	0,008
-628,736	-200,000	0,025	-0,191
-627,722	-90,472	0,044	-0,009
-626,707	79,837	0,086	-0,068
-625,692	-51,475	-0,035	-0,012
-624,678	156,071	0,131	0,134
-623,663	32,042	-0,057	0,036
-622,649	-59,149	-0,106	0,034
-621,634	-127,081	-0,058	-0,006
-620,619	-67,019	-0,111	0,032
-619,605	81,165	0,116	-0,093
-618,590	149,608	-0,044	0,044
-617,576	787,011	-0,055	0,113
-616,561	120,811	-0,041	0,038
-615,546	-17,672	-0,089	0,041
-614,532	-88,065	-0,141	-0,031
-613,517	-200,000	0,011	-0,171
-612,503	141,742	-0,032	-0,032
-611,488	-200,000	0,024	0,175
-610,474	-49,697	0,065	-0,023
-609,459	800,000	-0,055	0,160
-608,444	-84,678	0,009	0,002
-607,430	116,094	0,092	-0,084
-606,415	-55,263	0,128	0,042
-605,401	-24,554	-0,063	0,028
-604,386	-200,000	0,018	0,093
-603,371	-164,703	-0,108	-0,004
-602,357	-29,223	0,038	0,016
-601,342	-200,000	-0,036	-0,121
-600,328	-200,000	0,014	-0,076
-599,313	244,077	0,075	0,094
-598,298	263,241	0,081	0,104
-597,284	103,518	-0,098	-0,085
-596,269	-19,548	0,116	0,053
-595,255	-200,000	-0,015	-0,081
-594,240	516,448	-0,023	0,040
-593,225	-107,535	-0,085	-0,014
-592,211	-200,000	-0,023	-0,095
-591,196	13,112	0,069	0,040
-590,182	213,608	0,041	0,048
-589,167	23,133	0,099	0,060
-588,152	100,908	-0,055	0,047
-587,138	470,270	-0,080	0,133
-586,123	-53,328	0,061	-0,020
-585,109	-200,000	-0,005	0,054
-584,094	800,000	-0,050	-0,133
-583,079	96,233	0,037	-0,031
-582,065	671,781	0,044	-0,086
-581,050	294,712	-0,083	-0,112
-580,036	-112,269	0,054	0,008
-579,021	-69,851	-0,101	0,028
-578,006	-47,151	-0,129	-0,046
-576,992	689,146	0,048	0,094
-575,977	210,649	-0,040	0,047
-574,963	-200,000	-0,020	0,101
-573,948	-10,074	-0,101	-0,050
-572,934	-200,000	0,001	0,026
-571,919	800,000	-0,029	-0,080
-570,904	-23,391	-0,046	-0,020
-569,890	-200,000	0,003	0,083
-568,875	-200,000	-0,001	0,013
-567,861	-200,000	0,035	-0,137
-566,846	73,665	0,078	0,060
-565,831	800,000	0,059	-0,159
-564,817	-41,032	-0,062	-0,024
-563,802	-13,233	-0,099	0,047
-562,788	800,000	-0,065	-0,189
-561,773	-150,622	0,112	-0,006
-560,758	-200,000	0,014	0,051
-559,744	566,145	0,020	0,037
-558,729	223,276	0,015	0,018
-557,715	129,506	-0,107	0,101
-556,700	-200,000	-0,113	0,000
-555,685	62,958	-0,067	0,049
-554,671	203,703	-0,044	-0,051
-553,656	394,227	0,058	0,090
-552,642	142,272	0,033	0,032
-551,627	6,105	0,098	0,054
-550,612	-107,910	-0,096	0,015
-549,598	-200,000	0,001	-0,096
-548,583	61,547	0,056	0,041
-547,569	-200,000	-0,004	-0,015
-546,554	132,805	-0,034	0,033
-545,539	-200,000	0,000	-0,076
-544,525	800,000	0,016	0,050
-543,510	-14,484	-0,063	-0,030
-542,496	800,000	0,021	0,046
-541,481	-43,705	-0,144	0,053
-540,466	497,616	0,058	-0,100
-539,452	-146,323	0,058	0,004
-538,437	752,904	0,042	-0,085
-537,423	-200,000	0,007	0,032
-536,408	154,455	-0,029	-0,030
-535,393	228,735	-0,085	0,103
-534,379	-80,994	-0,077	0,019
-533,364	142,899	-0,026	-0,026
-532,350	-200,000	0,185	0,000
-531,335	-200,000	0,030	0,099
-530,321	762,654	-0,041	0,083
-529,306	-200,000	0,003	-0,127
-528,291	-200,000	-0,005	-0,036
-527,277	134,153	-0,056	0,054
-526,262	612,908	0,087	-0,161
-525,248	310,656	-0,079	0,109
-524,233	19,514	0,041	0,024
-523,218	-64,464	-0,046	0,014
-522,204	-200,000	-0,011	-0,085
-521,189	62,423	0,109	0,080
-520,175	28,625	-0,122	-0,076
-519,160	107,880	-0,114	-0,100
-518,145	-86,136	0,047	0,011
-517,131	58,703	0,103	0,075
-516,116	231,560	0,027	0,033
-515,102	-6,298	0,027	0,014
-514,087	-200,000	-0,029	0,216
-513,072	171,091	0,059	0,063
-512,058	-154,092	-0,195	0,010
-511,043	800,000	-0,012	0,031
-510,029	-8,374	0,052	-0,026
-509,014	800,000	0,035	0,080
-507,999	30,252	0,075	0,047
-506,985	208,716	-0,095	-0,110
-505,970	46,593	-0,051	0,035
-504,956	-13,644	-0,097	0,046
-503,941	8,000	-0,035	0,019
-502,926	-54,219	0,079	-0,026
-501,912	-200,000	0,012	0,089
-500,897	-77,652	0,132	-0,033
-499,883	498,350	0,049	-0,084
-498,868	-68,994	0,095	-0,027
-497,853	238,666	0,048	-0,059
-496,839	103,219	0,030	-0,026
-495,824	-15,897	-0,072	0,034
-494,810	800,000	0,040	0,107
-493,795	732,346	-0,101	0,200
-492,781	800,000	-0,018	-0,056
-491,766	318,249	-0,018	0,025
-490,751	44,094	0,049	-0,033
-489,737	-174,148	-0,067	0,001
-488,722	800,000	-0,008	0,021
-487,708	551,947	0,095	-0,169
-486,693	365,137	0,087	0,130
-485,678	800,000	0,041	-0,103
-484,664	246,403	-0,056	-0,070
-483,649	-97,343	-0,088	0,017
-482,635	-200,000	0,011	-0,046
-481,620	-76,829	0,095	-0,024
-480,605	389,455	-0,022	-0,034
-479,591	-159,428	0,158	0,006
-478,576	-200,000	-0,006	0,043
-477,562	112,301	0,029	-0,026
-476,547	135,212	-0,015	0,014
-475,532	-200,000	0,014	0,066
-474,518	3,549	0,071	-0,038
-473,503	36,132	-0,098	0,063
-472,489	800,000	0,068	0,142
-471,474	654,672	0,022	0,041
-470,459	301,139	-0,072	-0,098
-469,445	201,196	-0,034	0,038
-468,430	-200,000	-0,026	-0,128
-467,416	29,074	-0,045	0,028
-466,401	-58,927	0,199	-0,063
-465,386	348,326	0,038	-0,056
-464,372	-200,000	0,025	-0,084
-463,357	-83,574	0,131	-0,031
-462,343	197,185	-0,055	0,062
-461,328	800,000	0,025	-0,056
-460,313	247,903	-0,039	0,048
-459,299	-4,207	-0,048	0,025
-458,284	-200,000	-0,012	-0,040
-457,270	-14,518	0,097	-0,046
-456,255	-35,417	0,166	0,066
-455,241	-50,749	-0,180	0,062
-454,226	-100,189	0,049	0,009
-453,211	59,296	-0,034	-0,024
-452,197	630,144	-0,043	0,080
-451,182	172,699	0,036	0,038
-450,168	-58,424	-0,060	0,019
-449,153	-74,666	0,080	0,021
-448,138	-200,000	0,010	-0,095
-447,124	800,000	-0,057	-0,125
-446,109	452,596	0,035	0,057
-445,095	79,953	0,023	0,018
-444,080	679,791	0,016	0,031
-443,065	14,171	0,060	0,034
-442,051	143,490	-0,045	0,044
-441,036	-200,000	0,002	-0,017
-440,022	-133,688	-0,045	0,004
-439,007	318,539	-0,030	-0,042
-437,992	756,243	-0,084	-0,169
-436,978	-200,000	0,010	-0,082
-435,963	-148,219	-0,070	-0,004
-434,949	95,964	0,027	0,022
-433,934	241,208	-0,035	-0,043
-432,919	-100,500	-0,062	0,011
-431,905	-200,000	0,008	0,068
-430,890	800,000	0,012	-0,036
-429,876	-52,394	0,035	-0,012
-428,861	-200,000	-0,005	-0,091
-427,846	800,000	0,023	-0,068
-426,832	115,171	0,019	-0,017
-425,817	-200,000	-0,023	0,172
-424,803	113,423	0,076	0,068
-423,788	195,370	-0,075	0,084
-422,773	102,541	-0,034	0,029
-421,759	45,167	-0,093	0,063
-420,744	-54,808	-0,036	-0,012
-419,730	656,300	-0,040	0,077
-418,715	515,971	-0,064	-0,111
-417,701	-200,000	0,003	-0,108
-416,686	-200,000	-0,046	0,156
-415,671	-138,517	-0,097	-0,008
-414,657	-146,072	0,088	0,006
-413,642	465,661	-0,021	0,035
-412,628	37,587	0,078	-0,051
-411,613	-200,000	-0,015	-0,054
-410,598	-51,908	0,129	0,044
-409,584	260,766	0,043	-0,055
-408,569	786,619	0,062	0,125
-407,555	311,021	0,034	-0,047
-406,540	18,762	-0,083	0,048
-405,525	-30,431	-0,072	0,030
-404,511	164,720	0,046	0,048
-403,496	-200,000	-0,006	-0,101
-402,482	-153,759	0,096	0,005
-401,467	686,373	0,042	0,081
-400,452	-200,000	-0,006	0,063
-399,438	-200,000	-0,008	-0,131
-398,423	324,506	-0,087	-0,122
-397,409	82,546	0,082	-0,065
-396,394	-60,518	-0,144	-0,045
-395,379	267,679	-0,077	-0,099
-394,365	385,665	0,057	-0,087
-393,350	115,901	0,056	0,050
-392,336	94,066	0,066	-0,055
-391,321	716,393	-0,012	0,024
-390,306	-200,000	0,008	-0,171
-389,292	-99,288	-0,055	0,010
-388,277	-200,000	0,030	0,099
-387,263	610,510	0,029	0,053
-386,248	432,621	-0,024	-0,038
-385,233	38,855	-0,061	0,040
-384,219	-200,000	0,009	-0,044
-383,204	718,072	0,102	-0,200
-382,190	-94,970	-0,147	-0,029
-381,175	-200,000	-0,009	-0,037
-380,160	0,141	0,067	0,035
-379,146	180,417	-0,026	0,028
-378,131	800,000	0,026	-0,071
-377,117	-84,008	0,122	0,028
-376,102	255,859	0,025	-0,032
-375,088	621,621	0,009	-0,017
-374,073	133,718	0,025	0,024
-373,058	69,856	0,114	0,086
-372,044	-59,059	-0,119	0,037
-371,029	798,585	0,005	-0,009
-370,015	-174,699	-0,075	0,002
-369,000	308,867	0,088	-0,121
-367,985	-200,000	0,031	-0,107
-366,971	-168,465	-0,097	-0,003
-365,956	800,000	-0,009	0,023
-364,942	285,525	0,081	0,108
-363,927	-200,000	0,004	0,040
-362,912	800,000	0,032	-0,082
-361,898	-13,230	-0,060	-0,029
-360,883	-44,741	-0,103	-0,038
-359,869	800,000	0,015	-0,036
-358,854	-41,399	0,047	0,018
-357,839	-200,000	0,028	0,105
-356,825	-126,481	0,054	-0,006
-355,810	8,171	0,053	-0,029
-354,796	198,060	-0,075	-0,084
-353,781	800,000	0,043	-0,108
-352,766	800,000	-0,035	-0,089
-351,752	789,502	0,024	-0,049
-350,737	119,036	0,079	0,072
-349,723	-200,000	-0,017	0,095
-348,708	-29,951	-0,020	0,008
-347,693	159,461	-0,037	0,038
-346,679	800,000	0,022	-0,070
-345,664	-200,000	-0,002	-0,013
-344,650	-200,000	-0,008	0,026
-343,635	-200,000	0,005	0,102
-342,620	-24,640	-0,068	-0,030
-341,606	-52,296	0,062	-0,021
-340,591	53,766	-0,110	-0,078
-339,577	251,884	-0,037	-0,047
-338,562	-144,824	0,023	0,002
-337,548	-200,000	0,009	0,107
-336,533	248,366	0,093	0,115
-335,518	-105,463	0,084	0,014
-334,504	-200,000	0,002	0,166
-333,489	650,203	0,034	0,064
-332,475	-200,000	0,007	0,085
-331,460	289,700	-0,061	-0,082
-330,445	-200,000	0,008	0,034
-329,431	800,000	0,022	0,068
-328,416	130,876	-0,031	-0,030
-327,402	-47,153	0,122	0,044
-326,387	32,631	-0,048	-0,031
-325,372	89,396	0,117	-0,096
-324,358	105,848	-0,035	-0,030
-323,343	-200,000	-0,026	-0,119
-322,329	800,000	0,035	-0,093
-321,314	-90,578	-0,063	-0,013
-320,299	-56,777	0,106	0,034
-319,285	-106,892	-0,115	0,018
-318,270	175,962	-0,098	0,105
-317,256	-200,000	0,027	0,142
-316,241	-200,000	-0,021	-0,069
-315,226	57,380	0,043	0,031
-314,212	-200,000	0,018	0,127
-313,197	-90,368	-0,019	-0,004
-312,183	70,300	0,043	0,032
-311,168	-200,000	0,012	0,083
-310,153	800,000	-0,009	-0,020
-309,139	123,313	-0,085	-0,078
-308,124	32,490	-0,031	-0,020
-307,110	-200,000	0,007	0,089
-306,095	613,655	0,035	0,065
-305,080	-142,340	0,053	0,004
-304,066	342,697	0,040	0,058
-303,051	-200,000	0,005	0,101
-302,037	-200,000	-0,035	-0,167
-301,022	800,000	0,032	-0,101
-300,008	111,766	-0,031	-0,027
-298,993	-200,000	0,003	-0,038
-297,978	-46,178	0,107	0,038
-296,964	800,000	-0,058	0,135
-295,949	-113,806	-0,097	0,014
-294,935	-200,000	0,023	-0,108
-293,920	-191,057	-0,041	-0,000
-292,905	-200,000	0,011	0,046
-291,891	-148,985	-0,175	0,010
-290,876	394,605	-0,049	-0,074
-289,862	-36,413	-0,107	-0,042
-288,847	-54,888	-0,138	-0,045
-287,832	-34,855	-0,061	-0,024
-286,818	-37,726	-0,063	0,025
-285,803	195,244	0,020	0,022
-284,789	-200,000	-0,001	-0,123
-283,774	-200,000	0,066	0,000
-282,759	-26,848	-0,133	-0,057
-281,745	-65,766	-0,128	0,037
-280,730	50,480	0,051	-0,035
-279,716	188,111	-0,044	-0,048
-278,701	-184,582	-0,048	0,001
-277,686	40,314	0,128	0,084
-276,672	-200,000	0,010	0,145
-275,657	800,000	-0,021	0,056
-274,643	-200,000	0,010	-0,108
-273,628	-200,000	-0,003	-0,192
-272,613	-65,139	0,062	0,018
-271,599	156,325	0,078	-0,079
-270,584	-200,000	0,005	0,041
-269,570	44,793	-0,025	0,017
-268,555	-80,470	0,058	0,014
-267,540	233,242	-0,030	-0,037
-266,526	-98,242	0,104	0,019
-265,511	-31,424	-0,019	-0,008
-264,497	800,000	-0,006	0,015
-263,482	-200,000	-0,024	0,081
-262,467	-200,000	-0,006	0,066
-261,453	800,000	-0,056	0,139
-260,438	202,332	0,019	-0,021
-259,424	800,000	0,004	-0,009
-258,409	109,136	0,060	-0,053
-257,395	42,845	-0,092	-0,061
-256,380	418,613	0,033	0,051
-255,365	800,000	0,031	-0,077
-254,351	-21,198	-0,033	0,015
-253,336	15,659	-0,074	-0,043
-252,322	255,793	-0,041	0,052
-251,307	-200,000	0,002	-0,127
-250,292	-65,027	0,120	0,035
-249,278	-89,575	0,212	-0,045
-248,263	-200,000	0,028	0,132
-247,249	800,000	-0,020	-0,055
-246,234	117,060	-0,084	0,076
-245,219	20,775	0,138	0,081
-244,205	211,331	-0,078	-0,089
-243,190	-200,000	0,004	-0,092
-242,176	-66,488	-0,161	-0,046
-241,161	800,000	0,087	0,193
-240,146	-200,000	-0,007	-0,109
-239,132	687,223	0,087	0,167
-238,117	-127,936	-0,084	-0,009
-237,103	-92,860	0,141	-0,028
-236,088	695,025	0,024	-0,046
-235,073	359,865	0,027	-0,040
-234,059	95,570	0,125	0,104
-233,044	-47,369	-0,085	0,030
-232,030	-200,000	-0,013	-0,060
-231,015	6,828	0,038	0,021
-230,000	-8,102	-0,114	-0,056
-228,986	-130,905	0,040	-0,004
-227,971	102,617	-0,116	0,099
-226,957	800,000	-0,035	-0,081
-225,942	-2,840	0,066	0,034
-224,927	800,000	0,009	0,021
-223,913	800,000	0,031	0,095
-222,898	-22,622	0,048	0,021
-221,884	-176,258	-0,088	0,002
-220,869	-80,153	0,119	-0,029
-219,855	-44,699	0,096	0,035
-218,840	-150,912	-0,083	-0,005
-217,825	-200,000	0,034	-0,137
-216,811	800,000	-0,019	-0,053
-215,796	59,617	0,063	-0,045
-214,782	77,206	0,085	-0,066
-213,767	-200,000	-0,021	0,097
-212,752	-20,909	0,041	-0,018
-211,738	-200,000	0,017	-0,176
-210,723	735,025	-0,024	-0,048
-209,709	-200,000	0,031	-0,102
-208,694	301,668	0,015	0,020
-207,679	800,000	-0,015	-0,037
-206,665	400,170	0,048	0,074
-205,650	155,880	0,122	0,122
-204,636	800,000	-0,043	0,101
-203,621	-70,705	0,067	-0,018
-202,606	373,969	-0,043	-0,064
-201,592	-13,634	0,092	-0,043
-200,577	-152,030	0,073	0,004
-199,563	-200,000	-0,004	-0,044
-198,548	-200,000	0,002	0,053
-197,533	75,452	-0,110	-0,085
-196,519	800,000	0,029	0,080
-195,504	-48,681	0,035	0,012
-194,490	201,177	-0,048	-0,054
-193,475	800,000	-0,015	0,048
-192,460	174,755	-0,061	-0,064
-191,446	-3,841	-0,106	-0,054
-190,431	-92,379	0,096	-0,020
-189,417	35,834	-0,043	0,028
-188,402	185,524	0,023	0,025
-187,387	159,206	-0,102	-0,104
-186,373	-104,157	0,116	0,019
-185,358	177,058	0,090	-0,096
-184,344	-200,000	-0,008	0,036
-183,329	30,251	0,112	0,069
-182,315	-119,403	-0,032	0,004
-181,300	-200,000	0,005	0,064
-180,285	137,796	0,006	-0,005
-179,271	800,000	-0,016	-0,048
-178,256	401,517	-0,025	-0,039
-177,242	-14,040	0,009	0,004
-176,227	366,559	-0,011	0,017
-175,212	-200,000	0,015	0,139
-174,198	2,244	0,088	0,046
-173,183	-139,564	-0,061	0,005
-172,169	-102,595	-0,079	0,014
-171,154	-200,000	0,016	0,058
-170,139	54,422	0,036	0,025
-169,125	-62,281	0,103	0,031
-168,110	-200,000	0,020	0,086
-167,096	800,000	-0,029	-0,082
-166,081	-31,269	-0,039	-0,016
-165,066	-129,681	0,066	-0,007
-164,052	35,492	-0,130	0,083
-163,037	145,454	0,070	0,069
-162,023	605,972	0,030	0,055
-161,008	-200,000	0,015	-0,062
-159,993	133,912	-0,074	0,070
-158,979	208,709	0,025	0,028
-157,964	29,120	-0,100	0,062
-156,950	506,876	0,020	-0,033
-155,935	800,000	-0,032	-0,101
-154,920	800,000	-0,019	0,054
-153,906	-42,410	0,007	-0,003
-152,891	800,000	-0,023	-0,050
-151,877	157,359	-0,098	-0,099
-150,862	-200,000	-0,026	-0,098
-149,847	45,717	0,088	-0,059
-148,833	-200,000	-0,007	-0,051
-147,818	-70,530	0,084	-0,023
-146,804	-200,000	0,054	0,216
-145,789	60,322	0,074	0,053
-144,775	-200,000	0,009	0,113
-143,760	800,000	-0,057	0,144
-142,745	-72,126	-0,148	0,040
-141,731	377,254	0,049	0,073
-140,716	-92,298	0,024	-0,005
-139,702	329,406	-0,022	-0,031
-138,687	-87,030	0,133	-0,029
-137,672	-200,000	-0,004	0,015
-136,658	-200,000	0,002	0,022
-135,643	-200,000	-0,021	-0,115
-134,629	800,000	-0,045	0,120
-133,614	5,660	0,113	0,061
-132,599	800,000	-0,035	0,106
-131,585	-41,611	0,196	0,073
-130,570	449,118	0,042	-0,067
-129,556	800,000	-0,045	-0,102
-128,541	-40,919	-0,162	0,061
-127,526	-200,000	0,014	0,072
-126,512	92,751	-0,023	0,019
-125,497	-200,000	0,007	0,045
-124,483	-200,000	-0,016	0,074
-123,468	313,602	-0,070	-0,096
-122,453	139,173	-0,059	0,057
-121,439	112,513	-0,053	-0,047
-120,424	-54,838	-0,150	-0,049
-119,410	-70,157	0,135	-0,037
-118,395	597,045	0,056	0,101
