DTS Sentinel unit serial number:	SN410029Multiplexer serial number:	ORYXHardware model number:	OX2-SRSoftware version number:	ORYX F/W v4,00 Oryx Data Collector v3.7.2.0data status	okinstallation	B6 Nyhavnadifferential loss correction	single-endedforward channel	channel 2reverse channel	N/Adate	2023/12/09time	22:05:08forward acquisition time	300,00reverse acquisition time	0,00gamma	499,1914k internal	0,3127k external	0,3127temperature offset calibration	1,0000default loss term (dB/km)	0,3820temperature slope calibration	1,0000multiplexer offset coefficient	1,0000multiplexer slope coefficient	1,0000fibre end	0,00T internal ref (°C)	21,64T ext. ref 1 (°C)	5,42T ext. ref 2 (°C)	5,42length (m)	temperature (°C)	Stokes	anti-Stokes-744,400	-200,000	0,007	-0,055
-743,385	734,844	-0,079	0,157
-742,371	800,000	-0,018	-0,048
-741,356	-130,131	-0,325	0,033
-740,342	-200,000	-0,021	-0,131
-739,327	-87,589	-0,309	0,069
-738,312	800,000	0,030	-0,077
-737,298	-145,048	-0,264	0,018
-736,283	-5,589	-0,089	-0,045
-735,269	164,608	-0,021	0,022
-734,254	139,891	-0,023	-0,023
-733,239	-129,271	-0,417	-0,043
-732,225	33,219	0,149	-0,096
-731,210	800,000	0,072	-0,192
-730,196	-200,000	0,020	-0,072
-729,181	390,870	-0,059	-0,091
-728,167	-200,000	0,015	-0,098
-727,152	-127,653	-0,080	-0,008
-726,137	-200,000	-0,007	-0,191
-725,123	-29,735	-0,048	0,020
-724,108	-200,000	-0,046	-0,174
-723,094	-200,000	-0,008	-0,155
-722,079	-200,000	-0,026	-0,171
-721,064	-200,000	-0,025	-0,123
-720,050	410,110	0,081	-0,128
-719,035	-32,025	-0,071	0,029
-718,021	115,948	-0,016	0,015
-717,006	84,614	-0,076	-0,062
-715,991	-55,632	-0,139	-0,046
-714,977	800,000	-0,031	-0,070
-713,962	269,084	-0,053	-0,069
-712,948	-141,940	0,036	-0,003
-711,933	-200,000	0,005	-0,038
-710,918	-200,000	0,071	0,260
-709,904	771,653	-0,029	-0,059
-708,889	239,940	-0,094	-0,117
-707,875	-4,726	-0,068	0,035
-706,860	800,000	-0,064	0,139
-705,845	-200,000	-0,032	-0,131
-704,831	-200,000	0,022	0,088
-703,816	116,857	0,087	-0,079
-702,802	-23,499	-0,079	-0,035
-701,787	391,113	-0,067	0,104
-700,772	-131,346	-0,092	0,009
-699,758	731,162	-0,029	0,058
-698,743	62,705	0,062	0,046
-697,729	-200,000	-0,009	-0,099
-696,714	0,338	0,046	-0,024
-695,699	190,922	0,007	0,008
-694,685	173,024	0,048	-0,052
-693,670	-51,901	-0,048	0,016
-692,656	-200,000	-0,188	0,000
-691,641	290,574	0,099	0,134
-690,627	-75,820	0,045	-0,012
-689,612	286,929	0,073	-0,098
-688,597	-200,000	-0,007	-0,035
-687,583	207,611	0,089	-0,103
-686,568	220,548	0,019	-0,023
-685,554	60,671	0,118	-0,087
-684,539	-178,179	-0,073	-0,001
-683,524	-160,253	-0,136	0,005
-682,510	670,272	0,032	-0,062
-681,495	146,067	-0,070	-0,070
-680,481	39,523	-0,188	-0,125
-679,466	-36,165	-0,066	-0,026
-678,451	-200,000	-0,022	0,095
-677,437	105,804	-0,067	-0,058
-676,422	-200,000	-0,025	-0,091
-675,408	-200,000	-0,010	-0,047
-674,393	800,000	0,024	0,076
-673,378	-9,377	-0,088	-0,043
-672,364	143,140	0,145	-0,143
-671,349	63,891	0,016	-0,012
-670,335	150,459	-0,026	-0,026
-669,320	475,441	0,018	0,030
-668,305	-99,683	-0,037	-0,007
-667,291	-89,717	-0,104	0,022
-666,276	207,824	-0,040	-0,046
-665,262	-2,034	-0,072	-0,037
-664,247	800,000	0,018	0,045
-663,232	298,072	-0,049	0,067
-662,218	-98,741	0,048	-0,009
-661,203	698,345	-0,015	-0,029
-660,189	334,650	-0,099	0,142
-659,174	40,429	-0,075	0,050
-658,159	592,416	0,026	-0,048
-657,145	-69,250	0,100	-0,028
-656,130	-36,974	0,030	-0,012
-655,116	-200,000	0,012	0,042
-654,101	37,260	-0,107	0,070
-653,086	800,000	0,012	-0,028
-652,072	-200,000	0,003	-0,066
-651,057	-200,000	-0,021	-0,106
-650,043	-200,000	0,021	-0,085
-649,028	-153,561	-0,201	0,010
-648,014	-144,953	0,148	-0,010
-646,999	204,819	0,079	-0,091
-645,984	800,000	-0,048	-0,102
-644,970	534,084	-0,026	-0,046
-643,955	127,050	0,042	-0,039
-642,941	-200,000	-0,019	-0,062
-641,926	-53,900	0,032	-0,011
-640,911	477,954	-0,062	0,104
-639,897	-200,000	-0,030	0,000
-638,882	65,738	-0,070	-0,053
-637,868	-200,000	-0,020	0,092
-636,853	237,006	-0,086	-0,106
-635,838	53,024	0,062	-0,044
-634,824	-60,723	0,051	-0,016
-633,809	800,000	0,032	0,071
-632,795	-139,234	0,066	-0,005
-631,780	-200,000	0,016	0,071
-630,765	-40,037	0,022	-0,008
-629,751	97,740	-0,092	-0,079
-628,736	-200,000	0,000	0,155
-627,722	800,000	-0,054	0,138
-626,707	-200,000	-0,008	0,124
-625,692	-200,000	0,007	0,055
-624,678	-200,000	-0,013	-0,102
-623,663	-200,000	-0,020	0,177
-622,649	-41,199	-0,086	0,033
-621,634	538,073	-0,034	-0,060
-620,619	-79,792	0,047	-0,012
-619,605	95,877	0,052	-0,044
-618,590	800,000	0,031	0,071
-617,576	99,048	-0,058	0,049
-616,561	439,669	0,075	0,121
-615,546	800,000	-0,046	0,096
-614,532	-144,831	-0,082	0,005
-613,517	800,000	-0,058	-0,142
-612,503	100,177	0,040	-0,034
-611,488	800,000	-0,015	0,040
-610,474	-200,000	0,024	-0,203
-609,459	58,861	0,059	-0,043
-608,444	800,000	-0,055	-0,128
-607,430	800,000	-0,037	-0,105
-606,415	-200,000	-0,007	-0,121
-605,401	-22,555	0,049	-0,022
-604,386	22,706	0,033	0,020
-603,371	-143,069	0,054	0,004
-602,357	800,000	0,041	0,123
-601,342	-18,371	-0,107	0,049
-600,328	800,000	-0,013	-0,041
-599,313	-32,211	-0,022	-0,009
-598,298	-200,000	-0,033	0,126
-597,284	-9,522	0,158	-0,077
-596,269	63,999	-0,058	-0,043
-595,255	-200,000	0,020	-0,081
-594,240	-119,026	-0,074	-0,009
-593,225	-99,184	-0,057	-0,011
-592,211	452,451	-0,046	-0,075
-591,196	800,000	-0,059	-0,166
-590,182	54,706	-0,130	-0,093
-589,167	800,000	0,019	0,041
-588,152	-200,000	0,033	-0,124
-587,138	-20,193	-0,201	-0,091
-586,123	36,773	0,085	-0,056
-585,109	-200,000	-0,029	-0,122
-584,094	800,000	0,058	0,138
-583,079	279,553	-0,054	-0,072
-582,065	-200,000	0,045	-0,157
-581,050	800,000	0,018	0,045
-580,036	153,977	-0,086	-0,087
-579,021	-188,569	-0,116	-0,001
-578,006	68,910	0,085	-0,065
-576,992	455,809	-0,045	0,075
-575,977	-200,000	-0,025	0,112
-574,963	390,347	0,118	0,182
-573,948	-200,000	-0,004	0,055
-572,934	-53,950	-0,124	-0,041
-571,919	418,890	-0,028	-0,044
-570,904	800,000	-0,017	0,047
-569,890	-61,891	0,094	-0,029
-568,875	466,556	0,049	-0,082
-567,861	-101,573	-0,137	0,024
-566,846	-45,511	-0,095	0,035
-565,831	542,012	0,036	-0,063
-564,817	88,787	-0,048	-0,040
-563,802	613,036	0,073	-0,136
-562,788	629,121	0,069	-0,129
-561,773	246,568	0,059	-0,074
-560,758	-14,334	0,054	0,026
-559,744	48,176	0,027	0,019
-558,729	473,510	-0,046	-0,077
-557,715	-200,000	0,018	-0,232
-556,700	-80,142	-0,195	-0,048
-555,685	-48,411	-0,041	0,015
-554,671	326,037	0,051	-0,073
-553,656	168,664	-0,044	-0,046
-552,642	-200,000	0,015	0,110
-551,627	372,653	-0,022	-0,034
-550,612	106,018	0,038	0,033
-549,598	-45,264	-0,064	0,023
-548,583	117,330	-0,099	-0,090
-547,569	15,187	-0,127	0,073
-546,554	-200,000	0,000	-0,009
-545,539	272,076	-0,090	-0,118
-544,525	800,000	0,098	0,205
-543,510	127,295	0,074	0,070
-542,496	-27,747	0,082	0,035
-541,481	140,677	-0,118	-0,115
-540,466	-200,000	0,011	-0,049
-539,452	161,152	0,106	-0,110
-538,437	23,201	-0,019	0,012
-537,423	313,255	0,056	0,078
-536,408	282,592	-0,033	0,043
-535,393	-79,456	-0,151	0,037
-534,379	268,906	0,037	-0,048
-533,364	-26,707	-0,123	-0,053
-532,350	-135,753	0,125	0,011
-531,335	-46,085	0,026	0,009
-530,321	-200,000	-0,000	0,139
-529,306	-128,202	0,030	0,003
-528,291	-200,000	0,013	-0,104
-527,277	800,000	-0,052	-0,166
-526,262	195,434	0,066	-0,074
-525,248	346,045	-0,023	0,033
-524,233	-156,847	0,054	0,002
-523,218	570,140	0,070	0,126
-522,204	139,744	-0,080	0,077
-521,189	-93,142	-0,056	0,011
-520,175	-200,000	0,019	0,108
-519,160	-200,000	0,015	-0,058
-518,145	61,733	0,090	-0,066
-517,131	217,596	0,045	0,053
-516,116	-200,000	0,015	-0,063
-515,102	-200,000	-0,005	0,192
-514,087	45,290	0,060	0,041
-513,072	-15,947	-0,100	0,047
-512,058	439,958	0,061	-0,099
-511,043	-100,972	-0,106	-0,019
-510,029	528,564	-0,102	-0,177
-509,014	-103,619	0,078	0,013
-507,999	-29,587	0,183	0,077
-506,985	16,945	-0,047	0,027
-505,970	71,866	-0,094	0,072
-504,956	-200,000	-0,024	0,093
-503,941	497,906	-0,072	-0,122
-502,926	-16,715	-0,075	0,035
-501,912	15,471	-0,088	0,051
-500,897	232,606	0,031	0,038
-499,883	-11,466	-0,148	0,071
-498,868	-138,296	-0,069	0,006
-497,853	-200,000	0,009	-0,073
-496,839	379,142	-0,024	0,036
-495,824	-200,000	-0,022	0,193
-494,810	-29,270	0,136	0,057
-493,795	68,782	0,009	0,007
-492,781	-200,000	-0,015	0,064
-491,766	147,319	0,075	-0,075
-490,751	800,000	0,028	-0,066
-489,737	-1,255	0,092	0,048
-488,722	800,000	-0,023	0,065
-487,708	-200,000	-0,020	0,132
-486,693	210,664	-0,079	0,091
-485,678	351,661	0,024	-0,035
-484,664	66,861	0,045	-0,033
-483,649	122,743	-0,159	-0,147
-482,635	-200,000	-0,016	-0,070
-481,620	800,000	0,033	0,079
-480,605	-200,000	-0,001	0,060
-479,591	-200,000	-0,011	-0,039
-478,576	800,000	-0,062	0,147
-477,562	106,461	-0,011	0,010
-476,547	340,251	-0,074	0,106
-475,532	800,000	0,045	-0,129
-474,518	57,840	0,074	0,053
-473,503	-200,000	0,010	0,066
-472,489	-125,667	0,058	0,006
-471,474	58,836	-0,168	-0,122
-470,459	43,813	-0,072	-0,048
-469,445	-200,000	-0,004	-0,125
-468,430	-200,000	-0,013	-0,049
-467,416	-156,109	0,067	0,003
-466,401	193,168	0,084	0,093
-465,386	569,874	-0,023	0,042
-464,372	469,289	-0,052	-0,087
-463,357	800,000	0,021	-0,069
-462,343	136,106	-0,052	-0,049
-461,328	-56,130	0,026	0,008
-460,313	800,000	0,012	-0,030
-459,299	-102,115	0,054	0,010
-458,284	-36,689	0,030	-0,012
-457,270	800,000	0,026	-0,082
-456,255	-200,000	0,036	-0,185
-455,241	-19,789	0,083	-0,038
-454,226	800,000	-0,060	0,133
-453,211	-47,254	0,041	0,015
-452,197	-200,000	-0,011	0,082
-451,182	162,310	-0,085	0,088
-450,168	191,430	0,018	0,020
-449,153	-166,130	-0,066	-0,002
-448,138	-181,404	-0,094	-0,001
-447,124	543,248	0,017	-0,029
-446,109	132,650	0,090	0,085
-445,095	-181,127	0,088	-0,001
-444,080	800,000	-0,035	0,104
-443,065	542,448	0,049	0,087
-442,051	-100,715	0,104	-0,019
-441,036	-200,000	-0,018	-0,064
-440,022	19,581	-0,079	-0,047
-439,007	-200,000	0,011	0,209
-437,992	33,852	0,085	0,054
-436,978	-200,000	0,003	0,147
-435,963	800,000	-0,054	0,118
-434,949	161,282	-0,033	0,034
-433,934	-200,000	-0,001	-0,012
-432,919	96,680	-0,058	-0,049
-431,905	-200,000	0,015	-0,085
-430,890	36,112	0,103	0,066
-429,876	800,000	0,051	0,107
-428,861	25,763	-0,036	0,022
-427,846	-130,195	0,062	-0,006
-426,832	-200,000	0,013	0,050
-425,817	-102,514	0,071	0,012
-424,803	730,308	-0,027	-0,053
-423,788	182,816	0,149	0,162
-422,773	472,727	0,011	0,018
-421,759	127,244	0,037	0,035
-420,744	-194,486	0,064	0,000
-419,730	147,389	0,082	-0,082
-418,715	-146,000	0,036	-0,002
-417,701	-80,084	-0,105	-0,026
-416,686	800,000	0,035	0,103
-415,671	749,491	-0,027	0,053
-414,657	480,060	-0,076	0,128
-413,642	460,935	-0,047	0,077
-412,628	707,134	0,128	-0,250
-411,613	229,027	-0,038	-0,045
-410,598	101,179	-0,065	-0,056
-409,584	74,782	-0,044	0,034
-408,569	-200,000	-0,026	0,091
-407,555	325,313	0,061	-0,086
-406,540	50,299	-0,036	0,025
-405,525	-139,478	0,036	0,003
-404,511	-200,000	-0,029	-0,124
-403,496	800,000	-0,034	-0,107
-402,482	295,441	-0,022	0,030
-401,467	800,000	-0,050	0,106
-400,452	800,000	-0,022	0,051
-399,438	-6,428	-0,055	0,028
-398,423	516,015	-0,036	0,061
-397,409	-106,988	-0,062	0,010
-396,394	-42,285	-0,027	-0,010
-395,379	-200,000	0,013	-0,157
-394,365	53,722	0,051	0,036
-393,350	-200,000	0,006	0,086
-392,336	-200,000	-0,004	0,054
-391,321	800,000	-0,034	-0,110
-390,306	-200,000	0,003	0,026
-389,292	-18,746	-0,097	0,044
-388,277	51,773	0,015	0,011
-387,263	800,000	0,055	0,151
-386,248	-177,921	-0,128	0,002
-385,233	117,967	0,062	0,056
-384,219	187,371	0,052	-0,057
-383,204	6,255	-0,130	-0,070
-382,190	-71,401	0,121	0,033
-381,175	286,267	-0,112	0,149
-380,160	-39,213	0,062	0,024
-379,146	7,099	0,159	0,087
-378,131	692,111	-0,047	-0,090
-377,117	336,557	0,066	-0,095
-376,102	254,383	-0,079	-0,100
-375,088	243,239	0,024	-0,030
-374,073	150,420	-0,077	0,077
-373,058	480,920	-0,011	0,018
-372,044	-200,000	-0,015	-0,132
-371,029	-82,698	0,069	0,016
-370,015	-75,789	-0,059	-0,015
-369,000	140,999	-0,092	-0,089
-367,985	431,210	-0,060	-0,095
-366,971	-58,878	0,053	-0,017
-365,956	-200,000	-0,035	-0,140
-364,942	-59,332	0,215	0,067
-363,927	473,168	0,013	-0,021
-362,912	-200,000	0,006	0,142
-361,898	46,930	0,013	0,009
-360,883	104,425	-0,103	-0,089
-359,869	219,172	0,093	0,110
-358,854	217,528	0,087	0,102
-357,839	288,913	0,055	0,073
-356,825	-49,040	-0,139	0,049
-355,810	105,377	0,066	0,057
-354,796	124,961	-0,119	-0,110
-353,781	-200,000	0,038	-0,169
-352,766	199,959	-0,074	-0,083
-351,752	98,757	-0,052	-0,044
-350,737	-178,156	-0,059	-0,001
-349,723	11,608	0,110	0,062
-348,708	-200,000	0,016	0,056
-347,693	-76,721	0,072	0,018
-346,679	-8,360	-0,031	0,015
-345,664	-21,501	-0,181	-0,080
-344,650	619,064	-0,024	0,044
-343,635	-200,000	0,010	-0,044
-342,620	-28,510	0,067	0,028
-341,606	800,000	-0,030	0,081
-340,591	-20,728	-0,040	-0,018
-339,577	286,357	0,087	-0,115
-338,562	-200,000	-0,040	-0,157
-337,548	353,906	0,062	-0,090
-336,533	-75,266	-0,026	0,007
-335,518	800,000	0,058	0,122
-334,504	148,499	-0,034	-0,033
-333,489	772,009	0,040	0,081
-332,475	-176,573	0,043	-0,001
-331,460	-78,460	-0,082	0,020
-330,445	46,018	0,037	-0,025
-329,431	-200,000	-0,028	0,142
-328,416	120,130	0,141	0,128
-327,402	-40,225	0,040	0,015
-326,387	-135,856	-0,057	0,005
-325,372	43,746	0,165	-0,110
-324,358	656,977	0,070	0,132
-323,343	-128,959	0,011	0,001
-322,329	800,000	0,030	0,067
-321,314	156,240	0,107	0,108
-320,299	-101,447	0,009	-0,002
-319,285	-173,458	0,047	0,001
-318,270	-60,763	-0,074	-0,023
-317,256	-200,000	-0,003	0,172
-316,241	800,000	-0,033	0,078
-315,226	364,366	0,045	0,066
-314,212	235,511	0,176	0,213
-313,197	-42,244	0,077	-0,028
-312,183	181,485	0,053	0,057
-311,168	-97,425	-0,163	0,031
-310,153	46,955	0,030	0,021
-309,139	-200,000	0,018	-0,129
-308,124	720,091	-0,025	-0,049
-307,110	-128,778	0,093	0,009
-306,095	-45,752	0,131	0,047
-305,080	94,353	0,035	0,029
-304,066	-200,000	-0,038	0,146
-303,051	800,000	0,023	-0,052
-302,037	800,000	0,015	-0,047
-301,022	-54,383	0,048	-0,016
-300,008	189,898	-0,097	0,107
-298,993	233,261	0,063	-0,076
-297,978	352,295	0,027	-0,040
-296,964	800,000	0,036	-0,103
-295,949	-49,328	-0,053	-0,018
-294,935	150,862	0,042	-0,042
-293,920	-3,652	0,121	-0,061
-292,905	448,841	0,042	-0,067
-291,891	-18,344	0,052	-0,024
-290,876	-155,130	-0,136	0,006
-289,862	72,297	0,063	-0,048
-288,847	-200,000	-0,006	0,083
-287,832	800,000	-0,011	-0,030
-286,818	336,151	0,057	0,082
-285,803	-146,757	0,086	-0,005
-284,789	-200,000	0,018	0,124
-283,774	-160,843	0,122	0,005
-282,759	-85,407	0,077	0,017
-281,745	-200,000	0,003	-0,114
-280,730	-200,000	0,011	0,083
-279,716	25,993	0,037	-0,023
-278,701	198,392	-0,086	-0,096
-277,686	286,348	0,049	-0,065
-276,672	388,426	-0,011	-0,017
-275,657	800,000	-0,065	-0,139
-274,643	172,727	-0,103	-0,109
-273,628	26,713	-0,037	0,023
-272,613	-41,324	0,096	0,036
-271,599	57,862	0,049	-0,035
-270,584	114,755	-0,058	-0,052
-269,570	-160,224	-0,152	0,006
-268,555	55,704	-0,019	0,013
-267,540	-178,742	0,144	0,002
-266,526	-200,000	0,031	-0,149
-265,511	-200,000	-0,024	-0,090
-264,497	466,317	0,039	0,064
-263,482	-109,161	0,064	0,010
-262,467	800,000	-0,049	0,105
-261,453	-53,658	-0,054	0,018
-260,438	-200,000	-0,009	-0,090
-259,424	231,589	0,027	0,032
-258,409	-200,000	-0,019	0,175
-257,395	-200,000	-0,014	-0,057
-256,380	-3,064	-0,039	-0,020
-255,365	-200,000	0,015	-0,115
-254,351	94,656	-0,033	0,027
-253,336	-121,300	-0,121	-0,015
-252,322	-6,698	-0,129	-0,064
-251,307	-11,779	-0,115	-0,055
-250,292	-200,000	-0,027	-0,132
-249,278	184,626	0,149	0,161
-248,263	-200,000	-0,010	0,130
-247,249	108,606	0,049	-0,043
-246,234	-137,373	0,092	0,007
-245,219	-58,268	0,141	-0,045
-244,205	-200,000	-0,022	0,140
-243,190	529,502	-0,053	-0,093
-242,176	800,000	-0,037	-0,083
-241,161	-200,000	0,028	0,125
-240,146	-200,000	0,009	0,069
-239,132	800,000	-0,012	-0,037
-238,117	-75,426	0,040	0,010
-237,103	259,686	-0,038	0,048
-236,088	-0,043	-0,059	-0,031
-235,073	-71,083	0,080	0,022
-234,059	70,440	0,089	0,067
-233,044	-200,000	-0,004	0,053
-232,030	-23,459	-0,158	0,069
-231,015	231,389	-0,089	0,106
-230,000	251,004	0,058	0,072
-228,986	-160,201	-0,074	0,003
-227,971	134,361	-0,071	0,067
-226,957	208,138	-0,011	-0,012
-225,942	-133,782	-0,091	-0,008
-224,927	19,165	0,074	0,043
-223,913	-200,000	-0,008	-0,050
-222,898	-71,010	-0,044	-0,012
-221,884	-68,137	-0,112	-0,031
-220,869	-200,000	-0,012	0,053
-219,855	158,044	0,063	0,063
-218,840	-104,775	-0,067	0,011
-217,825	121,418	0,044	0,040
-216,811	800,000	0,088	-0,179
-215,796	800,000	0,050	-0,152
-214,782	430,759	-0,017	-0,027
-213,767	-200,000	-0,001	-0,055
-212,752	110,047	-0,019	0,016
-211,738	152,608	-0,030	-0,030
-210,723	52,258	0,056	0,039
-209,709	-200,000	-0,004	-0,090
-208,694	-200,000	0,009	-0,064
-207,679	-115,792	0,106	0,014
-206,665	800,000	-0,017	-0,041
-205,650	800,000	0,010	0,022
-204,636	-200,000	-0,025	0,137
-203,621	-81,384	-0,056	-0,013
-202,606	-200,000	-0,024	-0,154
-201,592	-66,081	0,063	0,018
-200,577	-200,000	-0,029	-0,174
-199,563	5,089	0,092	-0,049
-198,548	258,088	0,044	-0,055
-197,533	-200,000	0,017	0,071
-196,519	-62,422	0,156	-0,047
-195,504	-43,631	-0,079	0,029
-194,490	0,154	-0,109	-0,057
-193,475	376,273	0,024	0,035
-192,460	-127,260	-0,027	-0,003
-191,446	175,067	-0,021	-0,023
-190,431	136,534	0,108	0,103
-189,417	-152,410	0,055	0,003
-188,402	-8,679	0,068	0,033
-187,387	441,492	-0,051	-0,081
-186,373	718,414	-0,047	-0,092
-185,358	162,764	0,093	-0,095
-184,344	479,920	-0,053	0,088
-183,329	800,000	-0,015	0,032
-182,315	-200,000	0,016	0,055
-181,300	800,000	-0,006	0,017
-180,285	-14,117	-0,098	0,046
-179,271	-143,741	-0,037	0,003
-178,256	-200,000	-0,006	-0,068
-177,242	496,603	0,079	-0,133
-176,227	800,000	-0,026	-0,081
-175,212	-200,000	0,027	0,096
-174,198	800,000	0,031	0,086
-173,183	-200,000	0,003	-0,012
-172,169	43,035	0,061	-0,040
-171,154	130,192	-0,083	-0,077
-170,139	96,957	-0,058	-0,048
-169,125	-97,902	-0,082	-0,015
-168,110	-200,000	0,003	-0,107
-167,096	377,231	0,044	0,065
-166,081	-27,985	0,103	-0,043
-165,066	-200,000	-0,021	-0,136
-164,052	300,840	0,050	0,067
-163,037	800,000	0,022	0,051
-162,023	-162,272	-0,032	0,001
-161,008	-200,000	0,007	0,090
-159,993	-149,569	0,135	0,008
-158,979	-118,738	-0,229	-0,029
-157,964	-200,000	-0,010	0,044
-156,950	-138,368	0,085	0,007
-155,935	-200,000	0,000	-0,039
-154,920	-200,000	-0,088	0,301
-153,906	63,743	0,135	0,098
-152,891	765,012	0,018	-0,036
-151,877	-200,000	0,003	0,058
-150,862	800,000	-0,018	-0,042
-149,847	-10,447	0,047	-0,022
-148,833	-86,041	-0,121	0,027
-147,818	347,396	-0,084	-0,120
-146,804	-71,352	0,171	-0,046
-145,789	184,599	0,073	-0,079
-144,775	-200,000	-0,008	0,090
-143,760	63,727	-0,101	0,074
-142,745	518,133	0,042	-0,072
-141,731	-59,013	0,033	-0,010
-140,716	800,000	-0,084	0,179
-139,702	-200,000	0,014	0,120
-138,687	800,000	-0,044	0,110
-137,672	33,958	-0,104	-0,066
-136,658	800,000	-0,024	0,063
-135,643	90,513	0,045	-0,036
-134,629	100,408	0,014	0,012
-133,614	73,637	0,047	0,036
-132,599	637,188	0,082	0,153
-131,585	-131,730	0,090	0,008
-130,570	-41,089	0,065	-0,024
-129,556	800,000	-0,018	-0,053
-128,541	-200,000	-0,014	-0,117
-127,526	-118,543	0,063	-0,008
-126,512	800,000	0,015	0,044
-125,497	176,429	0,077	-0,081
-124,483	62,307	0,022	-0,016
-123,468	800,000	0,005	-0,014
-122,453	87,391	-0,119	-0,096
-121,439	55,326	-0,097	0,068
-120,424	800,000	-0,071	-0,145
