DTS Sentinel unit serial number:	SN410029Multiplexer serial number:	ORYXHardware model number:	OX2-SRSoftware version number:	ORYX F/W v4,00 Oryx Data Collector v3.7.2.0data status	okinstallation	B6 Nyhavnadifferential loss correction	single-endedforward channel	channel 2reverse channel	N/Adate	2023/12/10time	20:30:08forward acquisition time	300,00reverse acquisition time	0,00gamma	499,1914k internal	0,3122k external	0,3122temperature offset calibration	1,0000default loss term (dB/km)	0,3820temperature slope calibration	1,0000multiplexer offset coefficient	1,0000multiplexer slope coefficient	1,0000fibre end	0,00T internal ref (°C)	22,27T ext. ref 1 (°C)	5,78T ext. ref 2 (°C)	5,83length (m)	temperature (°C)	Stokes	anti-Stokes-744,400	-180,259	0,059	0,001
-743,385	-136,300	-0,298	-0,026
-742,371	-3,586	0,138	0,071
-741,356	259,227	-0,127	0,164
-740,342	-190,804	-0,080	-0,001
-739,327	12,377	-0,199	0,114
-738,312	800,000	-0,029	-0,065
-737,298	178,864	-0,148	0,161
-736,283	-200,000	0,013	0,084
-735,269	3,621	-0,189	0,103
-734,254	34,540	0,049	0,032
-733,239	-102,014	-0,390	-0,070
-732,225	239,941	0,068	0,085
-731,210	-200,000	-0,018	0,143
-730,196	-145,237	0,108	-0,007
-729,181	-200,000	0,012	0,062
-728,167	-200,000	-0,016	-0,133
-727,152	505,419	-0,093	0,160
-726,137	11,656	-0,098	0,056
-725,123	302,922	-0,141	-0,195
-724,108	44,530	-0,066	-0,045
-723,094	-51,708	-0,080	0,028
-722,079	296,406	-0,099	-0,136
-721,064	-147,701	0,042	-0,003
-720,050	800,000	0,018	-0,041
-719,035	800,000	-0,013	0,039
-718,021	74,651	-0,058	-0,045
-717,006	516,959	-0,077	-0,135
-715,991	800,000	0,031	-0,084
-714,977	800,000	0,006	0,021
-713,962	-8,999	-0,046	-0,023
-712,948	289,704	0,071	0,096
-711,933	800,000	-0,033	0,085
-710,918	395,531	0,024	0,037
-709,904	-5,415	-0,138	-0,070
-708,889	-180,684	-0,100	-0,001
-707,875	329,243	0,025	-0,037
-706,860	800,000	0,032	-0,096
-705,845	-35,863	0,033	0,013
-704,831	-59,653	-0,115	0,037
-703,816	-138,790	0,070	-0,006
-702,802	412,974	-0,096	-0,152
-701,787	122,217	-0,121	-0,112
-700,772	423,329	0,054	-0,086
-699,758	318,214	-0,033	-0,047
-698,743	561,863	0,062	-0,112
-697,729	-96,919	-0,114	-0,022
-696,714	90,367	-0,041	0,034
-695,699	800,000	-0,033	-0,090
-694,685	800,000	-0,098	-0,220
-693,670	-200,000	-0,006	-0,094
-692,656	378,474	-0,048	0,073
-691,641	-200,000	0,032	-0,132
-690,627	30,098	0,127	0,080
-689,612	-200,000	0,002	0,140
-688,597	800,000	-0,031	0,079
-687,583	82,041	-0,088	-0,071
-686,568	-200,000	0,001	0,062
-685,554	800,000	-0,007	-0,020
-684,539	-200,000	0,007	0,040
-683,524	540,408	0,014	0,025
-682,510	-30,537	0,078	0,033
-681,495	-200,000	0,018	0,080
-680,481	-200,000	-0,006	0,103
-679,466	-200,000	0,010	0,038
-678,451	55,839	0,048	-0,034
-677,437	800,000	-0,031	-0,097
-676,422	-200,000	-0,004	0,100
-675,408	2,053	-0,209	0,112
-674,393	172,912	0,013	-0,014
-673,378	405,499	-0,041	-0,064
-672,364	-200,000	-0,001	-0,036
-671,349	82,769	0,065	-0,053
-670,335	-200,000	0,003	-0,022
-669,320	-116,734	-0,086	0,012
-668,305	177,322	-0,086	-0,093
-667,291	305,071	-0,075	-0,103
-666,276	-24,950	-0,040	-0,017
-665,262	-59,482	-0,086	0,027
-664,247	-20,157	-0,036	-0,017
-663,232	11,691	-0,067	0,038
-662,218	800,000	0,012	0,026
-661,203	-30,012	-0,107	-0,045
-660,189	800,000	0,022	-0,049
-659,174	800,000	0,037	-0,106
-658,159	-200,000	0,003	0,025
-657,145	-114,166	-0,130	0,018
-656,130	-200,000	0,011	-0,156
-655,116	312,098	-0,022	-0,031
-654,101	9,654	-0,067	0,038
-653,086	29,969	0,136	-0,086
-652,072	800,000	-0,046	0,111
-651,057	-200,000	-0,017	-0,060
-650,043	-121,378	0,077	0,009
-649,028	684,886	0,027	-0,053
-648,014	-52,893	0,036	0,012
-646,999	-200,000	0,003	-0,072
-645,984	673,529	-0,101	0,195
-644,970	-160,053	-0,082	0,003
-643,955	-25,667	-0,078	-0,034
-642,941	800,000	0,047	-0,109
-641,926	-200,000	0,028	-0,142
-640,911	-18,758	0,056	0,026
-639,897	21,136	0,074	0,044
-638,882	-92,229	0,173	0,036
-637,868	-8,990	0,099	-0,049
-636,853	108,932	-0,058	0,052
-635,838	35,197	-0,085	-0,055
-634,824	105,666	0,050	-0,044
-633,809	-27,658	0,051	0,022
-632,795	-50,672	0,017	0,006
-631,780	102,299	-0,011	-0,009
-630,765	-200,000	-0,031	0,000
-629,751	-200,000	0,022	-0,075
-628,736	-178,597	-0,060	0,001
-627,722	368,668	-0,041	-0,062
-626,707	-200,000	-0,015	-0,066
-625,692	-188,052	0,060	0,001
-624,678	314,892	-0,021	0,030
-623,663	-57,952	-0,043	0,014
-622,649	34,029	0,126	0,081
-621,634	258,119	0,037	0,048
-620,619	297,256	-0,063	-0,087
-619,605	37,986	0,086	-0,057
-618,590	-43,149	0,041	-0,015
-617,576	-85,732	-0,051	-0,012
-616,561	210,693	-0,059	-0,069
-615,546	-200,000	0,020	-0,086
-614,532	-55,375	-0,106	-0,035
-613,517	-200,000	-0,006	-0,028
-612,503	-29,452	0,054	0,023
-611,488	800,000	-0,048	0,102
-610,474	-137,255	0,029	-0,002
-609,459	800,000	0,011	-0,031
-608,444	-200,000	-0,001	-0,053
-607,430	254,613	-0,023	-0,030
-606,415	-143,054	-0,094	-0,007
-605,401	800,000	-0,032	-0,091
-604,386	-74,687	0,158	0,042
-603,371	-160,366	0,165	-0,006
-602,357	-79,410	0,029	-0,007
-601,342	800,000	-0,056	-0,117
-600,328	448,511	-0,104	-0,170
-599,313	-74,855	-0,146	-0,039
-598,298	34,158	0,134	-0,087
-597,284	340,832	0,043	-0,062
-596,269	286,339	0,042	0,056
-595,255	682,531	-0,045	-0,087
-594,240	-200,000	-0,023	0,105
-593,225	800,000	-0,016	-0,041
-592,211	137,503	0,052	-0,051
-591,196	800,000	0,020	0,063
-590,182	235,065	0,014	-0,017
-589,167	-93,024	0,140	0,029
-588,152	-200,000	-0,021	0,092
-587,138	-143,957	0,133	-0,009
-586,123	-200,000	0,013	-0,052
-585,109	504,167	0,048	-0,083
-584,094	19,081	-0,059	0,035
-583,079	112,474	0,063	0,057
-582,065	97,460	-0,032	0,027
-581,050	-200,000	0,007	0,189
-580,036	402,884	0,019	0,030
-579,021	-200,000	0,004	-0,016
-578,006	-200,000	-0,010	0,117
-576,992	-200,000	0,006	-0,026
-575,977	-200,000	0,014	0,048
-574,963	-200,000	-0,011	0,112
-573,948	-65,362	-0,092	0,027
-572,934	-200,000	0,004	-0,080
-571,919	178,916	-0,068	-0,073
-570,904	48,540	0,096	-0,066
-569,890	-200,000	0,024	-0,108
-568,875	-87,487	-0,016	-0,004
-567,861	-82,076	0,076	0,018
-566,846	-200,000	-0,017	0,087
-565,831	159,887	0,043	-0,044
-564,817	0,052	0,034	0,018
-563,802	-19,297	0,082	-0,038
-562,788	31,140	-0,049	-0,031
-561,773	372,303	-0,021	-0,031
-560,758	189,654	0,064	0,071
-559,744	-200,000	0,035	0,164
-558,729	3,207	-0,058	0,031
-557,715	117,445	-0,073	0,067
-556,700	-200,000	0,004	-0,015
-555,685	172,066	0,086	-0,092
-554,671	800,000	-0,066	-0,150
-553,656	419,862	0,024	-0,039
-552,642	76,637	0,054	0,043
-551,627	74,343	-0,141	0,109
-550,612	-21,813	-0,062	0,028
-549,598	116,399	-0,099	-0,090
-548,583	150,156	0,135	-0,136
-547,569	-200,000	0,009	-0,079
-546,554	800,000	0,027	0,055
-545,539	103,009	-0,065	0,057
-544,525	-130,022	-0,086	-0,009
-543,510	312,729	0,036	-0,050
-542,496	152,058	-0,074	-0,075
-541,481	42,643	0,046	-0,031
-540,466	232,762	0,092	0,113
-539,452	-116,118	0,168	-0,023
-538,437	97,639	-0,067	-0,057
-537,423	177,138	0,094	0,101
-536,408	-129,748	-0,106	-0,011
-535,393	800,000	0,020	0,046
-534,379	-152,847	0,140	-0,007
-533,364	-200,000	-0,015	-0,077
-532,350	166,926	-0,035	0,036
-531,335	-76,393	0,094	-0,024
-530,321	-200,000	-0,006	0,186
-529,306	-40,344	-0,114	-0,044
-528,291	-81,788	0,114	-0,028
-527,277	800,000	-0,040	-0,129
-526,262	303,513	0,062	0,085
-525,248	38,404	-0,032	-0,021
-524,233	-27,240	0,073	0,031
-523,218	18,955	0,087	-0,051
-522,204	725,076	-0,084	0,166
-521,189	800,000	0,030	-0,071
-520,175	-200,000	0,059	-0,220
-519,160	-200,000	0,015	-0,129
-518,145	-174,614	-0,085	0,002
-517,131	26,754	-0,060	-0,037
-516,116	234,904	0,141	-0,172
-515,102	-19,880	-0,011	0,005
-514,087	-59,819	-0,016	-0,005
-513,072	194,166	-0,091	-0,102
-512,058	50,545	0,080	-0,056
-511,043	109,450	0,096	0,085
-510,029	-31,309	-0,101	0,042
-509,014	-168,176	0,101	0,003
-507,999	-200,000	0,007	-0,050
-506,985	42,800	-0,081	0,055
-505,970	410,498	-0,065	-0,102
-504,956	576,762	-0,052	-0,095
-503,941	280,517	0,054	0,071
-502,926	-129,811	0,102	-0,010
-501,912	-200,000	0,022	0,094
-500,897	182,077	0,078	0,085
-499,883	-87,291	0,076	-0,017
-498,868	-200,000	-0,005	0,079
-497,853	573,978	-0,032	-0,059
-496,839	-200,000	-0,003	-0,031
-495,824	-200,000	-0,030	-0,100
-494,810	299,395	-0,055	0,075
-493,795	470,847	0,010	0,017
-492,781	-200,000	-0,014	0,103
-491,766	-200,000	-0,001	0,040
-490,751	-163,218	-0,229	-0,008
-489,737	-30,624	0,076	0,032
-488,722	-61,200	0,097	0,030
-487,708	-60,411	0,090	0,028
-486,693	-200,000	-0,020	0,096
-485,678	437,136	0,040	-0,064
-484,664	387,695	-0,026	-0,040
-483,649	-93,747	0,027	0,005
-482,635	635,821	-0,068	-0,128
-481,620	800,000	0,025	0,057
-480,605	-83,872	-0,006	0,001
-479,591	-88,141	0,021	0,005
-478,576	800,000	0,027	0,057
-477,562	-83,524	-0,115	-0,027
-476,547	28,698	-0,079	-0,049
-475,532	125,669	0,135	-0,126
-474,518	-92,733	-0,160	-0,033
-473,503	-84,419	0,074	0,017
-472,489	19,421	-0,029	0,017
-471,474	800,000	0,015	0,045
-470,459	-200,000	0,032	0,107
-469,445	-55,920	-0,121	0,039
-468,430	48,577	0,037	-0,026
-467,416	306,307	0,018	0,024
-466,401	232,803	0,033	-0,040
-465,386	456,434	0,079	0,129
-464,372	-133,748	-0,241	-0,022
-463,357	-96,972	0,051	-0,010
-462,343	-138,285	-0,103	-0,008
-461,328	123,483	-0,074	-0,068
-460,313	-65,245	0,135	-0,040
-459,299	-200,000	0,019	-0,085
-458,284	-69,876	-0,032	-0,009
-457,270	-140,954	0,051	0,004
-456,255	278,050	-0,050	-0,066
-455,241	43,120	0,049	0,033
-454,226	-200,000	-0,014	-0,059
-453,211	392,347	-0,056	0,087
-452,197	-30,187	0,142	0,059
-451,182	-200,000	0,015	-0,055
-450,168	-159,702	-0,142	-0,006
-449,153	-13,264	-0,094	0,045
-448,138	77,246	-0,050	-0,039
-447,124	60,140	-0,064	-0,047
-446,109	-83,987	0,094	0,022
-445,095	-52,542	-0,145	-0,049
-444,080	-200,000	0,004	0,130
-443,065	-162,221	0,096	0,003
-442,051	-135,334	-0,065	-0,006
-441,036	40,089	0,016	-0,010
-440,022	-200,000	-0,013	0,100
-439,007	-200,000	0,005	-0,106
-437,992	-81,568	0,061	-0,015
-436,978	-55,274	0,070	0,023
-435,963	283,198	0,090	0,119
-434,949	-7,214	0,110	0,055
-433,934	-129,156	-0,014	-0,001
-432,919	-189,608	-0,259	-0,002
-431,905	-85,664	-0,050	0,011
-430,890	-200,000	0,043	0,167
-429,876	500,746	0,014	0,024
-428,861	-6,922	0,103	0,051
-427,846	-17,659	0,109	0,050
-426,832	-124,589	0,065	0,007
-425,817	-200,000	-0,031	-0,106
-424,803	375,479	-0,064	0,096
-423,788	800,000	0,019	-0,044
-422,773	-200,000	0,010	0,094
-421,759	-13,499	0,025	-0,012
-420,744	1,041	-0,054	0,028
-419,730	-130,242	0,149	0,015
-418,715	799,265	-0,058	0,119
-417,701	-200,000	-0,001	-0,076
-416,686	635,081	0,024	0,045
-415,671	-42,594	0,092	-0,034
-414,657	-200,000	-0,011	-0,058
-413,642	-200,000	-0,010	0,076
-412,628	-200,000	-0,014	0,061
-411,613	-102,467	-0,077	-0,013
-410,598	-112,053	-0,155	-0,023
-409,584	800,000	-0,056	0,116
-408,569	308,030	-0,024	0,034
-407,555	-200,000	0,024	0,150
-406,540	-119,898	0,149	0,019
-405,525	-95,998	-0,020	0,004
-404,511	-29,479	-0,025	0,010
-403,496	-118,547	0,132	-0,017
-402,482	8,189	0,182	0,100
-401,467	-110,125	0,157	-0,024
-400,452	6,976	-0,045	0,025
-399,438	394,932	-0,044	-0,067
-398,423	800,000	-0,013	-0,030
-397,409	-115,066	-0,043	-0,006
-396,394	79,615	-0,123	-0,097
-395,379	-200,000	-0,009	-0,052
-394,365	140,252	0,052	-0,051
-393,350	-54,233	-0,090	0,030
-392,336	-200,000	-0,012	0,106
-391,321	-200,000	-0,010	0,070
-390,306	-67,078	0,045	-0,013
-389,292	-69,735	0,074	0,021
-388,277	66,549	-0,035	-0,026
-387,263	-108,074	0,038	-0,006
-386,248	-12,786	0,129	0,062
-385,233	-200,000	-0,012	0,041
-384,219	-61,616	-0,079	0,024
-383,204	473,238	0,088	0,147
-382,190	183,569	-0,055	0,060
-381,175	-96,623	0,023	0,004
-380,160	-120,265	0,095	0,012
-379,146	-66,788	0,098	0,028
-378,131	35,944	0,124	0,080
-377,117	-200,000	-0,017	0,057
-376,102	-200,000	-0,014	-0,156
-375,088	-200,000	-0,036	0,153
-374,073	800,000	0,012	-0,027
-373,058	169,570	0,043	0,045
-372,044	296,575	0,110	0,149
-371,029	471,752	0,047	-0,078
-370,015	-20,374	0,033	0,015
-369,000	-200,000	-0,018	0,111
-367,985	309,466	0,021	0,029
-366,971	64,514	-0,035	-0,026
-365,956	-127,341	0,028	-0,003
-364,942	420,961	-0,088	0,140
-363,927	800,000	-0,007	0,019
-362,912	143,554	0,053	-0,051
-361,898	189,927	0,029	-0,032
-360,883	-200,000	-0,003	-0,079
-359,869	31,498	-0,116	0,073
-358,854	-200,000	-0,055	0,181
-357,839	-33,804	-0,150	0,060
-356,825	-110,387	0,105	0,016
-355,810	695,857	0,029	0,055
-354,796	-94,263	-0,036	-0,007
-353,781	-109,866	-0,076	-0,012
-352,766	39,667	0,119	-0,078
-351,752	-200,000	0,011	-0,055
-350,737	-146,839	0,124	-0,008
-349,723	800,000	-0,017	0,036
-348,708	172,810	0,104	0,110
-347,693	261,356	-0,075	-0,096
-346,679	294,238	-0,081	-0,109
-345,664	800,000	0,033	0,100
-344,650	242,551	-0,144	-0,177
-343,635	-200,000	0,007	0,050
-342,620	-200,000	-0,024	0,095
-341,606	800,000	-0,035	0,075
-340,591	-175,221	-0,078	0,002
-339,577	800,000	-0,016	-0,032
-338,562	22,923	0,047	0,028
-337,548	-40,317	0,051	0,019
-336,533	429,152	0,042	0,067
-335,518	-200,000	0,020	-0,080
-334,504	-163,667	0,119	0,004
-333,489	-200,000	-0,001	0,004
-332,475	-11,530	-0,077	-0,037
-331,460	349,889	-0,022	-0,032
-330,445	-90,420	-0,064	-0,014
-329,431	800,000	-0,060	0,169
-328,416	-200,000	0,005	-0,023
-327,402	218,942	0,097	-0,114
-326,387	-6,849	-0,079	0,039
-325,372	-8,503	-0,114	0,056
-324,358	-200,000	0,016	-0,064
-323,343	-200,000	0,043	-0,169
-322,329	50,004	0,077	-0,053
-321,314	61,772	0,073	-0,053
-320,299	416,535	0,045	-0,071
-319,285	52,530	0,047	0,033
-318,270	-200,000	-0,003	-0,048
-317,256	-200,000	0,010	0,071
-316,241	800,000	-0,019	0,056
-315,226	96,129	-0,128	0,108
-314,212	-28,842	0,096	0,040
-313,197	5,118	0,084	0,045
-312,183	-200,000	-0,004	0,195
-311,168	800,000	0,005	-0,011
-310,153	-75,464	0,060	0,016
-309,139	248,430	0,103	0,128
-308,124	-90,696	-0,041	-0,008
-307,110	-43,786	-0,072	0,026
-306,095	-126,356	-0,088	0,010
-305,080	-153,705	-0,072	0,004
-304,066	-200,000	-0,001	0,044
-303,051	212,702	-0,078	-0,091
-302,037	-200,000	-0,075	0,000
-301,022	727,250	-0,030	0,060
-300,008	372,283	-0,051	0,076
-298,993	-26,618	0,087	-0,037
-297,978	178,340	0,028	0,030
-296,964	-129,597	-0,161	-0,016
-295,949	800,000	-0,088	-0,184
-294,935	-165,404	-0,089	-0,003
-293,920	163,566	-0,042	0,043
-292,905	-104,154	0,026	-0,004
-291,891	-157,564	0,081	0,003
-290,876	-200,000	0,003	0,055
-289,862	339,859	0,052	0,075
-288,847	516,172	-0,025	0,042
-287,832	800,000	-0,014	0,033
-286,818	-200,000	0,006	-0,129
-285,803	676,866	0,048	-0,092
-284,789	65,626	0,104	0,077
-283,774	479,531	-0,055	-0,091
-282,759	581,236	-0,051	-0,091
-281,745	800,000	0,039	-0,096
-280,730	-200,000	0,007	0,031
-279,716	-200,000	0,005	-0,023
-278,701	8,277	0,096	0,053
-277,686	-135,294	0,058	-0,005
-276,672	-200,000	-0,005	0,040
-275,657	129,389	-0,146	-0,136
-274,643	-200,000	0,023	-0,109
-273,628	-200,000	0,036	-0,128
-272,613	800,000	-0,029	0,066
-271,599	-64,379	0,082	-0,024
-270,584	-200,000	0,036	-0,166
-269,570	-200,000	-0,017	0,100
-268,555	497,983	0,052	-0,088
-267,540	-50,967	-0,065	-0,022
-266,526	162,525	-0,040	0,041
-265,511	-22,557	0,071	-0,031
-264,497	-153,244	-0,058	0,003
-263,482	336,556	-0,059	0,084
-262,467	25,086	0,089	0,054
-261,453	800,000	0,029	0,074
-260,438	-134,531	0,046	0,004
-259,424	800,000	-0,039	-0,088
-258,409	-149,702	-0,080	-0,005
-257,395	10,966	-0,132	0,074
-256,380	349,733	0,060	-0,087
-255,365	-149,513	-0,010	0,001
-254,351	82,585	0,059	-0,047
-253,336	167,384	-0,038	0,040
-252,322	-163,631	-0,082	-0,003
-251,307	487,636	-0,044	-0,073
-250,292	347,014	0,024	0,035
-249,278	-200,000	-0,007	0,056
-248,263	800,000	-0,019	0,049
-247,249	-151,541	0,095	-0,005
-246,234	-200,000	0,015	-0,064
-245,219	800,000	-0,050	-0,127
-244,205	-76,476	-0,064	-0,016
-243,190	443,272	-0,080	-0,129
-242,176	800,000	-0,044	-0,112
-241,161	800,000	0,044	0,091
-240,146	-47,161	-0,048	0,017
-239,132	113,644	-0,044	-0,039
-238,117	-200,000	0,003	-0,023
-237,103	-94,814	-0,076	0,015
-236,088	-147,390	-0,156	0,010
-235,073	137,333	0,029	0,028
-234,059	-200,000	-0,001	0,081
-233,044	131,563	-0,054	0,050
-232,030	-200,000	-0,006	-0,025
-231,015	-183,211	-0,127	-0,002
-230,000	800,000	-0,020	0,044
-228,986	-200,000	-0,004	0,018
-227,971	-200,000	-0,001	0,118
-226,957	800,000	0,064	-0,146
-225,942	213,570	-0,106	-0,122
-224,927	-45,525	0,110	-0,039
-223,913	-200,000	0,029	0,121
-222,898	300,258	-0,066	0,089
-221,884	800,000	0,022	-0,046
-220,869	-85,716	0,125	0,028
-219,855	-200,000	0,006	0,074
-218,840	14,393	0,038	0,022
-217,825	-200,000	-0,007	0,069
-216,811	-57,065	0,108	-0,035
-215,796	476,365	-0,036	0,059
-214,782	-66,924	0,071	-0,020
-213,767	19,385	0,078	-0,045
-212,752	362,084	0,047	0,068
-211,738	360,915	0,039	0,057
-210,723	-200,000	-0,031	0,110
-209,709	273,619	-0,045	-0,058
-208,694	-200,000	0,005	0,025
-207,679	-200,000	-0,026	-0,106
-206,665	149,836	0,064	0,063
-205,650	800,000	0,028	0,063
-204,636	-115,845	-0,123	0,017
-203,621	-70,127	-0,205	-0,056
-202,606	800,000	-0,047	0,113
-201,592	100,579	-0,089	-0,075
-200,577	389,476	-0,076	0,115
-199,563	-130,162	0,059	-0,006
-198,548	-99,595	0,108	0,020
-197,533	130,815	-0,040	-0,037
-196,519	-200,000	-0,002	0,012
-195,504	-38,398	-0,153	0,059
-194,490	-42,898	-0,101	-0,037
-193,475	800,000	-0,054	-0,121
-192,460	800,000	-0,028	-0,090
-191,446	371,554	-0,021	-0,031
-190,431	-200,000	0,005	-0,021
-189,417	-145,551	-0,036	0,002
-188,402	162,866	0,053	0,054
-187,387	215,571	0,066	-0,077
-186,373	-200,000	0,004	-0,169
-185,358	-87,847	-0,071	0,016
-184,344	138,560	-0,100	0,096
-183,329	14,759	0,148	-0,084
-182,315	800,000	-0,025	0,052
-181,300	160,660	-0,061	-0,062
-180,285	96,969	0,010	-0,008
-179,271	95,363	-0,074	-0,062
-178,256	348,738	-0,059	0,086
-177,242	-60,055	0,062	-0,019
-176,227	39,636	0,082	-0,054
-175,212	6,708	-0,096	-0,052
-174,198	-9,980	-0,078	0,038
-173,183	-200,000	0,018	0,103
-172,169	800,000	-0,041	-0,103
-171,154	-19,873	-0,073	-0,033
-170,139	-13,775	-0,106	0,050
-169,125	-159,838	0,186	-0,007
-168,110	-64,242	-0,097	0,029
-167,096	800,000	-0,031	0,082
-166,081	-27,246	0,084	-0,036
-165,066	-112,096	-0,023	0,003
-164,052	-200,000	-0,007	-0,070
-163,037	103,436	0,063	-0,054
-162,023	-141,281	0,154	0,011
-161,008	-200,000	-0,015	0,070
-159,993	369,107	-0,098	-0,145
-158,979	-13,322	0,014	-0,006
-157,964	-21,235	-0,080	-0,035
-156,950	-200,000	-0,031	-0,113
-155,935	-181,804	0,093	-0,001
-154,920	481,284	-0,097	0,161
-153,906	-97,158	-0,024	-0,005
-152,891	-200,000	-0,003	-0,169
-151,877	154,531	-0,057	-0,057
-150,862	339,481	-0,035	-0,050
-149,847	150,364	0,038	0,038
-148,833	-146,198	-0,026	0,002
-147,818	353,609	0,042	0,060
-146,804	228,485	0,066	-0,078
-145,789	28,097	0,082	0,050
-144,775	-32,952	-0,121	0,049
-143,760	85,531	-0,038	0,030
-142,745	378,832	-0,045	0,068
-141,731	706,873	0,018	0,036
-140,716	134,384	0,049	-0,046
-139,702	-102,734	0,094	0,016
-138,687	-200,000	0,005	0,212
-137,672	800,000	-0,034	-0,086
-136,658	800,000	-0,075	-0,194
-135,643	800,000	-0,040	-0,122
-134,629	-93,952	0,037	0,007
-133,614	116,354	-0,074	0,066
-132,599	284,720	0,059	-0,078
-131,585	3,520	0,115	0,061
-130,570	-200,000	-0,017	-0,087
-129,556	793,444	-0,039	-0,078
-128,541	380,612	0,074	-0,111
-127,526	-46,358	-0,132	-0,047
-126,512	-132,549	0,124	0,011
-125,497	67,136	0,023	0,017
-124,483	-200,000	0,030	0,101
-123,468	-117,668	0,022	0,003
-122,453	102,692	-0,090	-0,077
-121,439	-200,000	-0,025	0,112
-120,424	-47,409	-0,107	0,038
