DTS Sentinel unit serial number:	SN410029Multiplexer serial number:	ORYXHardware model number:	OX2-SRSoftware version number:	ORYX F/W v4,00 Oryx Data Collector v3.7.2.0data status	okinstallation	B6 Nyhavnadifferential loss correction	single-endedforward channel	channel 2reverse channel	N/Adate	2023/12/10time	01:20:08forward acquisition time	300,00reverse acquisition time	0,00gamma	499,1914k internal	0,3126k external	0,3126temperature offset calibration	1,0000default loss term (dB/km)	0,3820temperature slope calibration	1,0000multiplexer offset coefficient	1,0000multiplexer slope coefficient	1,0000fibre end	0,00T internal ref (°C)	21,91T ext. ref 1 (°C)	5,69T ext. ref 2 (°C)	5,69length (m)	temperature (°C)	Stokes	anti-Stokes-744,400	800,000	0,051	-0,108
-743,385	-99,155	-0,242	0,045
-742,371	405,109	0,033	-0,052
-741,356	-49,032	-0,156	-0,055
-740,342	-88,976	0,063	0,014
-739,327	-14,611	-0,265	0,127
-738,312	-200,000	0,006	-0,101
-737,298	-107,221	-0,264	0,043
-736,283	77,371	-0,022	0,017
-735,269	130,947	-0,212	0,202
-734,254	-200,000	0,002	0,056
-733,239	-98,599	-0,428	-0,081
-732,225	-32,003	0,077	-0,032
-731,210	800,000	0,040	-0,114
-730,196	-4,576	-0,045	-0,023
-729,181	59,995	-0,075	-0,055
-728,167	-200,000	0,005	-0,057
-727,152	-200,000	0,033	-0,130
-726,137	30,574	-0,081	0,051
-725,123	800,000	-0,023	-0,072
-724,108	800,000	-0,059	-0,178
-723,094	83,567	0,083	0,067
-722,079	-45,288	-0,157	0,058
-721,064	800,000	0,045	0,124
-720,050	-38,447	-0,109	0,043
-719,035	-76,854	-0,111	0,029
-718,021	245,897	-0,036	-0,045
-717,006	-140,279	-0,136	0,010
-715,991	276,918	-0,026	0,034
-714,977	-168,158	-0,027	-0,001
-713,962	121,861	-0,079	0,073
-712,948	-53,722	-0,122	-0,041
-711,933	414,420	-0,085	0,136
-710,918	-50,213	0,016	0,006
-709,904	-44,612	0,089	0,033
-708,889	800,000	-0,085	-0,246
-707,875	-87,254	-0,202	-0,045
-706,860	-200,000	-0,012	-0,139
-705,845	-69,294	-0,071	0,020
-704,831	511,701	-0,045	0,078
-703,816	337,587	-0,080	0,116
-702,802	65,053	0,032	-0,024
-701,787	800,000	-0,040	-0,112
-700,772	-200,000	0,013	-0,146
-699,758	54,320	0,010	0,007
-698,743	544,540	0,054	-0,097
-697,729	-200,000	-0,006	-0,062
-696,714	558,308	0,083	0,150
-695,699	800,000	-0,020	-0,062
-694,685	193,140	0,021	0,024
-693,670	-85,435	-0,049	-0,011
-692,656	-200,000	0,007	0,137
-691,641	319,760	-0,126	-0,178
-690,627	190,601	0,030	0,034
-689,612	-104,974	-0,013	0,002
-688,597	755,466	0,043	-0,087
-687,583	14,382	-0,084	0,049
-686,568	15,893	-0,079	0,046
-685,554	-131,672	-0,023	-0,002
-684,539	-200,000	0,001	-0,046
-683,524	-104,810	-0,062	0,011
-682,510	-62,487	-0,048	-0,015
-681,495	-40,502	0,047	-0,018
-680,481	-173,169	-0,116	0,003
-679,466	-200,000	-0,004	-0,098
-678,451	-151,356	-0,040	-0,002
-677,437	-200,000	-0,032	0,150
-676,422	-122,724	-0,143	-0,017
-675,408	-200,000	0,006	-0,074
-674,393	-200,000	0,006	-0,077
-673,378	-200,000	-0,007	-0,067
-672,364	-200,000	-0,039	0,164
-671,349	98,711	-0,042	-0,036
-670,335	167,854	0,042	-0,045
-669,320	87,554	0,074	-0,061
-668,305	-129,790	-0,066	0,007
-667,291	755,297	-0,040	-0,081
-666,276	800,000	-0,052	0,109
-665,262	4,672	-0,168	-0,092
-664,247	117,236	-0,062	-0,057
-663,232	-17,156	-0,107	-0,050
-662,218	93,474	0,133	0,112
-661,203	10,791	0,174	0,098
-660,189	252,172	-0,070	-0,088
-659,174	22,888	-0,152	0,092
-658,159	800,000	0,031	-0,084
-657,145	96,763	0,024	0,020
-656,130	142,775	0,029	-0,029
-655,116	26,180	-0,128	-0,079
-654,101	-200,000	-0,004	0,121
-653,086	102,350	0,074	-0,065
-652,072	-152,601	-0,106	-0,006
-651,057	86,407	-0,135	-0,110
-650,043	773,753	-0,013	0,026
-649,028	-34,825	-0,089	0,036
-648,014	-130,963	0,117	-0,011
-646,999	108,554	-0,057	0,051
-645,984	800,000	0,019	0,043
-644,970	-27,964	0,054	-0,023
-643,955	-43,655	-0,145	-0,054
-642,941	-200,000	-0,020	-0,075
-641,926	-185,359	0,135	0,002
-640,911	-29,160	-0,020	-0,008
-639,897	-14,669	0,108	-0,051
-638,882	-70,804	-0,078	-0,022
-637,868	590,835	0,041	0,076
-636,853	-200,000	-0,011	0,101
-635,838	-24,205	-0,079	-0,035
-634,824	69,662	0,037	0,028
-633,809	261,054	-0,018	0,023
-632,795	683,180	-0,065	0,127
-631,780	800,000	-0,071	0,207
-630,765	-106,064	-0,173	0,029
-629,751	12,507	0,069	0,039
-628,736	11,172	-0,077	-0,043
-627,722	-200,000	0,006	-0,070
-626,707	447,352	-0,025	0,041
-625,692	117,154	-0,083	-0,076
-624,678	800,000	-0,082	-0,215
-623,663	-44,454	0,039	0,014
-622,649	-198,657	0,070	-0,000
-621,634	-200,000	0,019	-0,158
-620,619	-200,000	-0,026	0,172
-619,605	-53,384	0,064	-0,021
-618,590	161,579	0,044	-0,046
-617,576	21,225	-0,022	0,013
-616,561	134,827	0,068	-0,065
-615,546	719,905	-0,088	-0,175
-614,532	-56,294	-0,068	-0,022
-613,517	-119,184	-0,052	0,007
-612,503	683,956	-0,049	0,096
-611,488	27,801	0,080	-0,050
-610,474	269,468	0,034	-0,044
-609,459	515,891	-0,057	-0,099
-608,444	-77,561	-0,075	-0,019
-607,430	800,000	0,047	-0,130
-606,415	-40,556	-0,011	-0,004
-605,401	-200,000	0,011	0,095
-604,386	694,879	0,025	0,048
-603,371	10,687	-0,014	-0,008
-602,357	-115,910	0,027	-0,004
-601,342	-200,000	0,027	-0,113
-600,328	-111,974	-0,143	-0,021
-599,313	-71,321	-0,064	-0,018
-598,298	-200,000	-0,012	-0,080
-597,284	-126,425	0,022	-0,002
-596,269	800,000	-0,045	0,096
-595,255	259,672	0,050	0,064
-594,240	247,381	-0,093	0,117
-593,225	55,498	-0,032	-0,023
-592,211	146,443	-0,028	-0,028
-591,196	-200,000	-0,006	0,065
-590,182	326,171	-0,071	0,101
-589,167	145,263	-0,082	0,081
-588,152	-191,090	-0,110	-0,001
-587,138	-200,000	0,001	-0,029
-586,123	47,010	0,035	0,024
-585,109	-66,422	0,189	-0,055
-584,094	71,281	-0,034	-0,026
-583,079	24,480	0,024	0,015
-582,065	-156,774	0,098	-0,004
-581,050	-93,661	-0,146	-0,029
-580,036	-200,000	-0,005	-0,050
-579,021	179,539	-0,044	-0,048
-578,006	-200,000	-0,008	0,071
-576,992	-200,000	0,025	-0,222
-575,977	-4,655	0,070	0,036
-574,963	-200,000	-0,033	0,195
-573,948	-200,000	-0,001	0,111
-572,934	-33,466	-0,099	-0,040
-571,919	800,000	-0,009	-0,024
-570,904	-66,340	-0,112	0,033
-569,890	-64,325	-0,037	0,011
-568,875	-16,431	0,061	0,028
-567,861	62,626	-0,048	0,035
-566,846	800,000	0,012	0,037
-565,831	370,568	0,063	0,094
-564,817	86,655	-0,031	-0,025
-563,802	74,901	-0,082	-0,064
-562,788	130,173	-0,032	0,030
-561,773	-65,936	0,099	0,029
-560,758	105,269	0,051	-0,045
-559,744	298,476	0,098	-0,134
-558,729	-200,000	0,028	-0,199
-557,715	301,359	-0,074	0,102
-556,700	98,214	0,068	0,058
-555,685	321,430	-0,053	0,074
-554,671	3,851	0,114	0,061
-553,656	-95,048	0,053	-0,011
-552,642	-182,570	-0,049	0,001
-551,627	-19,854	0,063	0,028
-550,612	22,160	0,085	0,051
-549,598	800,000	-0,022	0,057
-548,583	13,974	-0,121	-0,070
-547,569	-123,315	0,062	-0,007
-546,554	28,053	-0,119	-0,074
-545,539	146,622	0,059	-0,058
-544,525	418,135	-0,089	0,141
-543,510	482,627	-0,063	0,107
-542,496	-200,000	0,006	-0,030
-541,481	257,271	0,077	0,098
-540,466	-162,372	-0,027	-0,001
-539,452	230,375	0,095	-0,115
-538,437	-116,351	0,070	0,009
-537,423	53,520	-0,118	0,083
-536,408	-200,000	0,019	0,084
-535,393	800,000	0,042	0,100
-534,379	607,019	-0,083	-0,153
-533,364	-200,000	0,040	-0,154
-532,350	35,552	-0,120	0,077
-531,335	-200,000	0,002	0,047
-530,321	438,087	0,027	-0,044
-529,306	-163,515	0,017	0,001
-528,291	800,000	0,057	-0,130
-527,277	-100,725	-0,158	-0,028
-526,262	279,537	0,110	-0,146
-525,248	52,000	0,029	0,021
-524,233	-43,264	0,188	-0,070
-523,218	-200,000	-0,010	-0,043
-522,204	-67,148	-0,140	0,040
-521,189	118,407	-0,132	-0,120
-520,175	-200,000	-0,046	-0,208
-519,160	-128,732	0,134	0,014
-518,145	-200,000	0,024	0,086
-517,131	-200,000	0,005	0,108
-516,116	-200,000	0,009	0,174
-515,102	-200,000	-0,004	0,039
-514,087	800,000	0,028	-0,067
-513,072	-200,000	-0,009	-0,037
-512,058	42,542	-0,066	0,044
-511,043	800,000	0,028	0,084
-510,029	239,835	0,056	0,069
-509,014	-72,136	0,047	-0,013
-507,999	-200,000	0,001	0,064
-506,985	800,000	-0,054	-0,155
-505,970	404,374	0,028	-0,044
-504,956	3,785	-0,044	-0,024
-503,941	-35,994	-0,041	-0,016
-502,926	109,700	0,065	0,058
-501,912	-200,000	-0,001	0,086
-500,897	636,640	0,048	0,091
-499,883	800,000	0,006	-0,019
-498,868	41,462	0,065	-0,043
-497,853	92,372	-0,057	0,048
-496,839	-200,000	-0,005	-0,015
-495,824	375,725	0,031	0,047
-494,810	-53,611	-0,044	0,015
-493,795	267,671	0,064	0,083
-492,781	-156,846	0,052	-0,002
-491,766	-109,289	-0,088	-0,014
-490,751	84,054	-0,053	-0,043
-489,737	-200,000	0,002	-0,016
-488,722	142,483	0,018	-0,018
-487,708	-26,929	0,155	-0,066
-486,693	286,003	-0,105	-0,140
-485,678	800,000	-0,041	0,122
-484,664	578,424	-0,009	-0,016
-483,649	-200,000	0,003	0,052
-482,635	-200,000	-0,006	0,111
-481,620	224,444	-0,024	0,028
-480,605	-138,782	0,156	0,012
-479,591	184,118	-0,074	-0,081
-478,576	416,596	-0,056	0,089
-477,562	-29,000	-0,092	0,039
-476,547	-130,159	-0,090	0,009
-475,532	715,780	0,022	0,043
-474,518	800,000	0,058	-0,144
-473,503	-200,000	0,007	-0,059
-472,489	-56,720	0,107	-0,035
-471,474	-85,820	-0,069	0,016
-470,459	-93,033	-0,097	-0,020
-469,445	-162,927	-0,096	-0,003
-468,430	31,462	-0,183	0,116
-467,416	25,156	-0,102	-0,062
-466,401	236,896	0,060	0,073
-465,386	409,281	0,025	-0,039
-464,372	195,765	-0,084	0,094
-463,357	-200,000	-0,006	0,044
-462,343	501,008	-0,014	-0,025
-461,328	105,602	-0,166	-0,145
-460,313	-53,344	0,079	0,026
-459,299	-30,017	0,120	0,050
-458,284	-20,396	-0,024	-0,011
-457,270	416,916	-0,009	0,015
-456,255	-200,000	-0,002	0,017
-455,241	127,952	-0,043	-0,041
-454,226	-10,053	-0,005	0,002
-453,211	-55,716	-0,082	0,027
-452,197	-136,473	0,121	-0,010
-451,182	-0,746	-0,031	-0,016
-450,168	496,466	0,039	0,066
-449,153	466,013	0,042	0,070
-448,138	85,947	0,020	-0,016
-447,124	-200,000	-0,007	0,071
-446,109	25,969	0,092	0,056
-445,095	-200,000	-0,012	0,078
-444,080	431,753	-0,056	-0,089
-443,065	800,000	0,025	0,057
-442,051	-10,684	-0,105	-0,051
-441,036	-200,000	-0,027	-0,089
-440,022	61,070	0,053	0,039
-439,007	-200,000	0,009	-0,065
-437,992	-114,306	-0,028	-0,004
-436,978	345,184	0,058	0,083
-435,963	8,622	0,040	0,022
-434,949	-25,026	-0,057	0,025
-433,934	59,788	0,039	0,028
-432,919	585,347	-0,029	-0,053
-431,905	-200,000	0,017	0,069
-430,890	438,561	0,041	0,067
-429,876	456,891	0,055	-0,091
-428,861	-77,539	-0,046	0,012
-427,846	-200,000	0,002	0,037
-426,832	85,865	-0,071	-0,057
-425,817	800,000	-0,059	-0,127
-424,803	800,000	0,018	-0,045
-423,788	-21,202	0,046	-0,021
-422,773	327,124	-0,043	0,061
-421,759	0,941	0,053	-0,028
-420,744	59,204	-0,084	-0,060
-419,730	-200,000	-0,013	0,041
-418,715	187,289	-0,055	-0,060
-417,701	-134,841	-0,080	0,007
-416,686	569,307	0,020	0,036
-415,671	-40,766	0,117	0,044
-414,657	-3,693	-0,032	0,016
-413,642	-71,046	-0,072	-0,020
-412,628	257,283	0,080	-0,101
-411,613	-200,000	-0,002	-0,136
-410,598	-17,740	-0,180	-0,083
-409,584	-200,000	0,002	-0,042
-408,569	-200,000	0,005	0,042
-407,555	-163,697	0,139	-0,005
-406,540	-200,000	-0,015	0,129
-405,525	-200,000	0,003	0,084
-404,511	181,112	0,044	0,048
-403,496	29,091	-0,081	0,050
-402,482	30,690	0,116	0,073
-401,467	-27,910	0,059	-0,025
-400,452	123,227	0,114	0,105
-399,438	131,916	0,110	0,104
-398,423	-7,678	-0,078	-0,038
-397,409	-200,000	0,058	0,187
-396,394	-200,000	0,004	0,049
-395,379	-200,000	0,016	-0,102
-394,365	-15,320	0,021	-0,010
-393,350	-200,000	0,024	0,154
-392,336	583,474	0,058	-0,105
-391,321	-24,954	-0,069	-0,030
-390,306	-200,000	0,065	0,000
-389,292	800,000	-0,008	-0,017
-388,277	13,121	-0,144	0,082
-387,263	-107,921	0,129	-0,020
-386,248	-4,229	0,132	-0,067
-385,233	-102,201	0,032	-0,006
-384,219	-200,000	0,025	-0,109
-383,204	-200,000	0,017	0,069
-382,190	800,000	0,027	-0,087
-381,175	-117,130	-0,045	0,006
-380,160	-119,284	0,169	0,021
-379,146	257,388	-0,063	-0,080
-378,131	-49,682	0,068	0,024
-377,117	125,040	0,056	-0,052
-376,102	608,187	-0,049	0,089
-375,088	183,774	0,025	0,027
-374,073	-145,245	-0,089	0,006
-373,058	558,674	0,028	-0,050
-372,044	-200,000	-0,001	0,163
-371,029	-32,850	0,021	-0,009
-370,015	-200,000	-0,002	0,036
-369,000	275,719	-0,070	-0,092
-367,985	-128,422	-0,175	-0,018
-366,971	5,171	-0,054	-0,029
-365,956	319,573	0,030	-0,042
-364,942	-68,607	0,135	-0,038
-363,927	-56,868	0,015	0,005
-362,912	800,000	-0,006	0,015
-361,898	-6,971	0,137	-0,068
-360,883	215,654	-0,094	0,110
-359,869	-200,000	-0,003	-0,195
-358,854	272,124	0,014	0,018
-357,839	-84,747	-0,104	-0,024
-356,825	-2,378	0,089	0,045
-355,810	436,163	-0,041	-0,066
-354,796	-151,766	0,066	0,003
-353,781	-70,865	-0,027	0,007
-352,766	692,116	0,036	0,069
-351,752	6,059	-0,199	0,108
-350,737	404,798	-0,032	0,049
-349,723	-200,000	-0,006	0,073
-348,708	1,581	0,135	0,071
-347,693	-43,694	-0,147	-0,054
-346,679	-141,964	0,067	0,005
-345,664	-200,000	0,003	0,065
-344,650	477,721	-0,024	-0,040
-343,635	800,000	-0,033	0,102
-342,620	-200,000	-0,003	-0,012
-341,606	24,087	0,151	0,091
-340,591	-4,546	-0,067	0,034
-339,577	-200,000	-0,005	-0,017
-338,562	-131,411	-0,037	-0,004
-337,548	224,613	0,041	0,048
-336,533	-46,223	0,074	0,026
-335,518	23,476	-0,093	0,056
-334,504	1,334	0,077	0,040
-333,489	-200,000	0,004	0,072
-332,475	-200,000	0,006	0,144
-331,460	28,359	0,105	-0,065
-330,445	800,000	0,019	0,055
-329,431	-17,953	0,083	-0,038
-328,416	136,378	0,085	-0,081
-327,402	800,000	-0,023	-0,059
-326,387	-57,850	0,037	-0,012
-325,372	31,513	-0,077	-0,048
-324,358	-200,000	0,007	-0,053
-323,343	216,101	0,024	-0,028
-322,329	-59,534	-0,136	-0,042
-321,314	800,000	0,017	0,049
-320,299	-200,000	0,029	0,108
-319,285	800,000	-0,038	0,088
-318,270	-22,475	-0,149	-0,066
-317,256	101,452	0,055	-0,047
-316,241	85,974	-0,145	-0,117
-315,226	29,504	-0,076	0,047
-314,212	-200,000	-0,005	-0,059
-313,197	-200,000	0,006	-0,024
-312,183	-69,419	-0,146	-0,041
-311,168	-86,147	-0,147	0,033
-310,153	-162,754	0,076	-0,003
-309,139	800,000	0,036	0,095
-308,124	748,749	-0,022	-0,043
-307,110	35,249	0,085	0,054
-306,095	-130,434	0,200	-0,020
-305,080	114,769	0,075	0,067
-304,066	-19,474	-0,050	-0,023
-303,051	-131,243	-0,124	0,012
-302,037	800,000	0,004	-0,013
-301,022	-200,000	0,001	0,013
-300,008	-38,888	0,053	-0,020
-298,993	-29,382	-0,004	0,002
-297,978	-176,219	-0,048	0,001
-296,964	-19,674	-0,090	-0,040
-295,949	800,000	-0,031	-0,092
-294,935	570,838	0,046	-0,081
-293,920	154,277	0,071	0,072
-292,905	800,000	0,052	-0,124
-291,891	-35,997	0,045	0,018
-290,876	-23,484	0,045	0,020
-289,862	170,763	-0,069	-0,073
-288,847	-156,067	0,104	0,005
-287,832	125,937	-0,065	-0,060
-286,818	-182,321	-0,032	0,000
-285,803	78,835	0,113	0,089
-284,789	-200,000	-0,003	0,180
-283,774	-200,000	0,013	0,082
-282,759	41,511	0,044	-0,029
-281,745	800,000	-0,031	-0,085
-280,730	-200,000	0,002	0,044
-279,716	172,128	-0,030	0,031
-278,701	-60,421	-0,065	0,020
-277,686	-200,000	0,004	-0,070
-276,672	-7,720	0,074	-0,037
-275,657	101,913	0,062	0,053
-274,643	-200,000	-0,004	-0,017
-273,628	48,670	-0,078	-0,054
-272,613	-59,359	-0,140	0,044
-271,599	800,000	-0,059	0,178
-270,584	315,670	-0,013	0,018
-269,570	77,917	0,091	0,071
-268,555	230,331	0,045	0,054
-267,540	197,077	-0,042	0,047
-266,526	-200,000	0,033	-0,139
-265,511	151,461	0,070	-0,069
-264,497	148,832	0,074	0,073
-263,482	800,000	-0,025	0,059
-262,467	-200,000	-0,011	0,119
-261,453	800,000	-0,075	-0,195
-260,438	699,592	0,019	0,037
-259,424	-200,000	-0,024	-0,120
-258,409	177,168	-0,111	-0,118
-257,395	177,246	-0,019	0,020
-256,380	563,218	0,049	0,087
-255,365	609,518	-0,058	-0,106
-254,351	800,000	-0,022	0,061
-253,336	-200,000	-0,006	-0,048
-252,322	-200,000	-0,001	-0,087
-251,307	-137,447	0,089	0,007
-250,292	607,349	-0,018	-0,033
-249,278	172,628	0,089	0,093
-248,263	-200,000	0,007	0,086
-247,249	169,792	0,082	0,086
-246,234	64,805	-0,036	-0,026
-245,219	-200,000	0,012	-0,082
-244,205	118,648	-0,111	-0,100
-243,190	-154,200	-0,021	-0,001
-242,176	168,590	0,058	-0,061
-241,161	4,933	-0,057	0,031
-240,146	800,000	-0,029	0,060
-239,132	4,108	0,121	-0,064
-238,117	-200,000	0,004	-0,180
-237,103	-150,112	-0,026	-0,001
-236,088	-176,845	0,048	-0,001
-235,073	50,693	-0,074	0,051
-234,059	44,663	0,058	0,039
-233,044	-53,608	-0,087	0,029
-232,030	235,663	-0,080	-0,097
-231,015	800,000	0,061	-0,177
-230,000	-200,000	0,015	-0,109
-228,986	46,429	0,092	-0,062
-227,971	-45,200	0,153	0,055
-226,957	-151,157	0,021	0,001
-225,942	-200,000	-0,020	-0,087
-224,927	-55,590	0,044	-0,014
-223,913	187,228	0,049	-0,053
-222,898	800,000	-0,062	-0,135
-221,884	-47,792	0,058	-0,020
-220,869	-154,417	0,086	0,004
-219,855	-200,000	0,002	-0,011
-218,840	-123,562	-0,048	-0,005
-217,825	-67,578	-0,041	0,012
-216,811	26,389	-0,119	0,072
-215,796	303,418	0,060	-0,082
-214,782	-200,000	-0,028	-0,217
-213,767	-104,554	0,015	0,002
-212,752	-200,000	-0,002	0,041
-211,738	44,464	0,078	-0,052
-210,723	142,910	-0,013	0,012
-209,709	712,633	0,037	-0,071
-208,694	189,470	-0,011	0,012
-207,679	709,732	-0,031	-0,060
-206,665	-34,247	-0,056	0,023
-205,650	-18,431	0,052	0,024
-204,636	46,952	0,056	0,038
-203,621	-200,000	-0,006	0,096
-202,606	559,960	-0,067	-0,118
-201,592	-79,694	0,037	-0,009
-200,577	-90,461	-0,178	0,037
-199,563	78,269	-0,147	0,114
-198,548	-104,823	0,063	0,010
-197,533	800,000	0,045	0,124
-196,519	-200,000	-0,017	0,096
-195,504	84,759	0,085	-0,068
-194,490	-200,000	0,013	-0,128
-193,475	-81,716	0,012	0,003
-192,460	-200,000	0,007	0,031
-191,446	-24,652	0,140	-0,060
-190,431	-200,000	0,040	0,133
-189,417	-200,000	0,003	0,094
-188,402	38,925	-0,148	0,096
-187,387	-50,840	-0,075	0,026
-186,373	-200,000	-0,014	-0,081
-185,358	141,968	-0,047	0,045
-184,344	184,472	0,110	-0,119
-183,329	-26,416	0,114	0,049
-182,315	-61,337	-0,107	0,033
-181,300	800,000	0,013	-0,028
-180,285	279,979	-0,066	0,086
-179,271	-67,169	-0,125	0,036
-178,256	-40,856	-0,053	0,020
-177,242	-112,164	0,087	-0,013
-176,227	-35,836	0,156	-0,061
-175,212	-16,806	0,137	-0,063
-174,198	742,050	0,028	-0,055
-173,183	800,000	-0,069	-0,146
-172,169	10,815	0,052	0,029
-171,154	481,860	-0,019	0,031
-170,139	-200,000	-0,001	-0,016
-169,125	48,582	0,116	0,079
-168,110	-200,000	-0,028	-0,100
-167,096	800,000	0,012	0,025
-166,081	-7,103	0,102	0,050
-165,066	515,245	-0,121	0,207
-164,052	117,789	0,109	-0,098
-163,037	254,208	0,063	-0,078
-162,023	507,638	0,041	0,070
-161,008	534,905	0,023	0,039
-159,993	-32,115	-0,034	0,014
-158,979	-200,000	-0,022	0,109
-157,964	-200,000	0,005	-0,129
-156,950	-20,428	0,069	0,031
-155,935	171,352	0,072	-0,076
-154,920	-76,314	0,195	0,050
-153,906	674,083	-0,051	-0,096
-152,891	800,000	0,017	-0,047
-151,877	-2,884	0,197	0,100
-150,862	66,321	-0,108	-0,080
-149,847	-200,000	0,018	-0,096
-148,833	-4,715	0,078	-0,039
-147,818	47,192	0,044	-0,029
-146,804	-200,000	-0,047	0,171
-145,789	146,058	0,114	0,111
-144,775	531,025	-0,019	-0,032
-143,760	79,846	-0,095	0,075
-142,745	49,770	0,128	-0,088
-141,731	-134,833	-0,049	0,004
-140,716	338,817	0,046	-0,065
-139,702	-167,794	0,164	-0,005
-138,687	-200,000	-0,021	0,094
-137,672	-200,000	0,006	0,118
-136,658	212,979	-0,028	0,032
-135,643	-106,683	-0,056	0,009
-134,629	-164,362	-0,119	-0,004
-133,614	46,599	0,030	0,020
-132,599	800,000	0,005	-0,013
-131,585	800,000	0,048	0,144
-130,570	16,280	-0,035	0,020
-129,556	165,204	0,133	-0,136
-128,541	-53,880	-0,087	-0,029
-127,526	-94,364	0,067	-0,013
-126,512	149,737	-0,196	-0,194
-125,497	-200,000	0,015	0,053
-124,483	119,864	0,099	0,089
-123,468	424,155	-0,033	0,052
-122,453	-200,000	0,016	0,118
-121,439	800,000	0,010	0,031
-120,424	-134,492	0,079	-0,007
-119,410	-108,396	0,229	0,036
-118,395	477,612	0,038	0,063
