DTS Sentinel unit serial number:	SN410029Multiplexer serial number:	ORYXHardware model number:	OX2-SRSoftware version number:	ORYX F/W v4,00 Oryx Data Collector v3.7.2.0data status	okinstallation	B6 Nyhavnadifferential loss correction	single-endedforward channel	channel 2reverse channel	N/Adate	2023/12/11time	04:40:08forward acquisition time	300,00reverse acquisition time	0,00gamma	499,1914k internal	0,3126k external	0,3126temperature offset calibration	1,0000default loss term (dB/km)	0,3820temperature slope calibration	1,0000multiplexer offset coefficient	1,0000multiplexer slope coefficient	1,0000fibre end	0,00T internal ref (°C)	20,42T ext. ref 1 (°C)	3,19T ext. ref 2 (°C)	3,21length (m)	temperature (°C)	Stokes	anti-Stokes-744,400	-47,015	-0,078	-0,028
-743,385	-192,643	-0,262	0,002
-742,371	127,577	0,106	-0,100
-741,356	-21,854	-0,206	0,093
-740,342	-133,443	0,107	0,010
-739,327	-161,941	-0,299	0,011
-738,312	657,375	0,082	-0,157
-737,298	-149,820	-0,307	0,018
-736,283	78,602	0,118	0,094
-735,269	-6,890	-0,174	0,088
-734,254	189,286	0,060	0,067
-733,239	-159,589	-0,511	-0,021
-732,225	-92,083	0,167	-0,035
-731,210	410,570	-0,039	0,061
-730,196	95,389	-0,061	0,051
-729,181	-0,779	0,006	0,003
-728,167	251,132	-0,027	-0,035
-727,152	-59,095	-0,198	-0,063
-726,137	800,000	-0,042	-0,092
-725,123	337,921	0,023	0,033
-724,108	800,000	-0,020	-0,050
-723,094	2,582	-0,098	-0,053
-722,079	-200,000	0,006	-0,076
-721,064	31,246	0,028	0,018
-720,050	-200,000	0,005	0,068
-719,035	71,837	-0,086	-0,067
-718,021	800,000	-0,024	0,075
-717,006	599,418	-0,045	0,083
-715,991	59,632	0,055	-0,040
-714,977	-58,394	0,056	-0,018
-713,962	263,898	-0,050	0,065
-712,948	-200,000	0,014	0,085
-711,933	318,762	-0,072	-0,102
-710,918	-80,294	-0,053	-0,013
-709,904	-200,000	0,025	-0,101
-708,889	70,190	0,102	-0,078
-707,875	520,254	-0,032	0,056
-706,860	-200,000	-0,020	0,121
-705,845	-200,000	0,003	0,055
-704,831	800,000	0,040	0,106
-703,816	665,038	-0,041	0,080
-702,802	44,850	-0,048	0,033
-701,787	800,000	0,001	0,003
-700,772	116,245	-0,075	0,068
-699,758	512,001	0,069	0,120
-698,743	-175,376	-0,017	0,000
-697,729	8,414	-0,019	-0,011
-696,714	-139,549	0,061	-0,005
-695,699	151,390	0,020	0,020
-694,685	100,426	-0,116	-0,100
-693,670	290,409	-0,035	-0,048
-692,656	-59,728	-0,090	0,029
-691,641	-143,523	0,049	-0,003
-690,627	800,000	0,043	-0,099
-689,612	211,827	-0,037	0,043
-688,597	194,431	-0,038	-0,043
-687,583	6,318	-0,129	-0,071
-686,568	188,204	-0,083	-0,092
-685,554	255,829	0,093	-0,119
-684,539	456,464	-0,063	0,105
-683,524	485,567	-0,050	-0,086
-682,510	166,335	0,072	0,076
-681,495	-17,323	0,070	0,032
-680,481	-52,133	-0,133	-0,045
-679,466	40,745	-0,065	0,043
-678,451	34,551	-0,053	0,034
-677,437	302,533	-0,055	-0,076
-676,422	-200,000	0,042	-0,199
-675,408	-88,630	-0,105	-0,023
-674,393	110,624	-0,047	-0,042
-673,378	-39,480	0,042	-0,016
-672,364	-200,000	0,012	0,060
-671,349	100,685	0,008	0,007
-670,335	-9,670	0,153	-0,075
-669,320	-200,000	0,032	-0,155
-668,305	1,510	-0,014	0,008
-667,291	800,000	-0,037	-0,098
-666,276	89,372	-0,062	0,051
-665,262	-121,618	-0,130	-0,016
-664,247	324,368	0,076	0,107
-663,232	10,359	0,034	0,019
-662,218	-200,000	-0,016	0,082
-661,203	-119,898	-0,072	-0,009
-660,189	-200,000	-0,000	-0,039
-659,174	-61,600	-0,079	0,024
-658,159	-36,483	-0,103	-0,041
-657,145	1,086	0,032	-0,017
-656,130	31,334	-0,107	0,068
-655,116	49,296	-0,100	0,070
-654,101	89,839	-0,097	0,080
-653,086	133,270	-0,075	0,072
-652,072	459,045	0,048	-0,080
-651,057	724,588	-0,053	-0,106
-650,043	-200,000	-0,007	-0,103
-649,028	791,662	-0,046	-0,095
-648,014	-200,000	-0,014	0,068
-646,999	352,288	-0,019	-0,028
-645,984	32,475	-0,040	0,026
-644,970	-83,102	0,039	-0,009
-643,955	-36,930	-0,085	-0,033
-642,941	-77,221	-0,060	0,015
-641,926	-3,580	-0,073	-0,037
-640,911	-200,000	-0,025	-0,084
-639,897	54,548	-0,077	-0,055
-638,882	-31,107	-0,071	-0,030
-637,868	-77,080	0,053	-0,013
-636,853	435,736	-0,040	0,065
-635,838	560,230	-0,058	0,104
-634,824	-200,000	0,014	0,089
-633,809	-126,481	-0,056	0,006
-632,795	-200,000	0,027	-0,144
-631,780	-85,844	-0,245	-0,056
-630,765	76,286	-0,180	-0,141
-629,751	155,063	-0,087	0,089
-628,736	77,983	-0,132	-0,105
-627,722	282,368	-0,093	-0,125
-626,707	-78,505	0,072	-0,018
-625,692	-48,542	0,078	-0,028
-624,678	151,652	0,042	-0,043
-623,663	500,038	-0,043	0,075
-622,649	-91,591	0,164	-0,034
-621,634	72,242	-0,129	-0,100
-620,619	-81,554	0,146	0,035
-619,605	-55,909	-0,033	-0,011
-618,590	-170,256	-0,076	0,002
-617,576	800,000	-0,021	0,046
-616,561	-35,472	-0,067	0,027
-615,546	425,534	0,060	-0,095
-614,532	-200,000	0,004	-0,130
-613,517	-200,000	-0,035	-0,145
-612,503	800,000	0,072	-0,230
-611,488	160,361	-0,074	0,076
-610,474	-21,458	0,194	-0,087
-609,459	30,563	-0,086	-0,054
-608,444	95,670	-0,060	0,051
-607,430	-179,161	0,061	0,001
-606,415	85,028	-0,094	-0,076
-605,401	-8,601	0,069	-0,034
-604,386	73,363	0,098	0,076
-603,371	-122,532	-0,076	0,009
-602,357	-2,423	-0,067	-0,035
-601,342	694,801	-0,008	0,015
-600,328	-94,839	-0,093	-0,019
-599,313	40,269	-0,064	-0,042
-598,298	236,211	0,098	-0,120
-597,284	146,882	0,146	0,146
-596,269	-167,945	0,141	0,004
-595,255	-200,000	-0,029	0,145
-594,240	-77,788	0,051	0,013
-593,225	-132,017	0,091	-0,009
-592,211	98,548	0,025	0,021
-591,196	-200,000	0,020	-0,211
-590,182	-68,761	-0,083	-0,024
-589,167	800,000	0,064	0,152
-588,152	149,638	-0,054	0,054
-587,138	730,542	-0,046	0,092
-586,123	642,169	-0,044	0,084
-585,109	-79,394	0,085	0,021
-584,094	-148,615	-0,058	0,003
-583,079	11,453	0,063	0,036
-582,065	-200,000	0,029	0,106
-581,050	35,773	-0,029	-0,019
-580,036	-200,000	0,003	-0,027
-579,021	-200,000	-0,032	0,145
-578,006	-140,489	-0,088	0,007
-576,992	-161,441	0,121	-0,005
-575,977	122,506	-0,041	-0,038
-574,963	-14,912	0,032	0,015
-573,948	800,000	0,047	0,120
-572,934	-200,000	0,011	0,041
-571,919	518,735	-0,028	0,049
-570,904	-139,870	-0,011	0,001
-569,890	-200,000	0,006	-0,093
-568,875	-200,000	-0,022	0,077
-567,861	-200,000	-0,005	0,028
-566,846	-200,000	-0,007	0,042
-565,831	-72,680	0,096	0,026
-564,817	160,813	-0,148	-0,153
-563,802	800,000	0,020	-0,045
-562,788	181,362	-0,021	-0,023
-561,773	-163,726	0,054	-0,002
-560,758	687,389	0,044	-0,085
-559,744	-141,868	0,039	0,003
-558,729	-30,471	0,034	0,014
-557,715	-200,000	-0,032	-0,120
-556,700	291,545	-0,022	0,030
-555,685	-161,926	-0,129	-0,005
-554,671	620,224	0,090	-0,168
-553,656	-200,000	0,002	0,062
-552,642	381,124	0,063	0,096
-551,627	-200,000	0,009	0,033
-550,612	-149,846	0,081	-0,005
-549,598	-106,533	-0,085	-0,014
-548,583	-67,219	-0,025	-0,007
-547,569	-200,000	0,018	0,087
-546,554	-200,000	-0,021	-0,146
-545,539	-107,642	-0,137	0,022
-544,525	-200,000	0,028	0,092
-543,510	-21,353	-0,157	-0,071
-542,496	-13,217	-0,075	0,036
-541,481	119,791	0,027	0,024
-540,466	22,154	0,038	0,023
-539,452	596,797	0,092	0,169
-538,437	-95,447	-0,110	-0,022
-537,423	800,000	0,017	-0,037
-536,408	154,914	0,026	0,026
-535,393	-16,107	-0,198	0,093
-534,379	800,000	-0,077	-0,215
-533,364	800,000	-0,037	-0,104
-532,350	-200,000	0,017	0,136
-531,335	324,784	-0,037	-0,052
-530,321	276,668	0,128	0,168
-529,306	96,856	0,050	0,043
-528,291	774,660	-0,058	-0,117
-527,277	-134,287	-0,036	-0,003
-526,262	-81,366	0,057	-0,014
-525,248	-200,000	-0,007	0,157
-524,233	388,414	0,045	0,069
-523,218	-108,956	0,126	0,020
-522,204	-186,821	-0,077	0,001
-521,189	-31,411	-0,082	0,034
-520,175	70,785	0,029	-0,022
-519,160	-37,086	0,043	0,017
-518,145	134,002	0,055	0,052
-517,131	800,000	-0,017	-0,038
-516,116	-94,944	-0,063	0,012
-515,102	-10,797	-0,099	-0,048
-514,087	800,000	-0,004	-0,009
-513,072	-200,000	0,021	-0,084
-512,058	-157,801	-0,231	0,010
-511,043	-112,281	0,149	0,022
-510,029	111,609	0,134	0,119
-509,014	247,425	0,025	-0,032
-507,999	-147,291	-0,150	-0,009
-506,985	-81,244	-0,050	-0,012
-505,970	-90,315	-0,039	-0,008
-504,956	-200,000	-0,019	-0,087
-503,941	800,000	0,058	-0,165
-502,926	20,029	-0,055	0,033
-501,912	-200,000	-0,002	0,030
-500,897	262,213	-0,088	0,113
-499,883	481,438	0,023	-0,039
-498,868	4,236	-0,083	-0,045
-497,853	79,249	-0,079	-0,063
-496,839	-119,392	0,069	-0,009
-495,824	74,377	0,030	0,023
-494,810	184,581	0,128	0,140
-493,795	-200,000	-0,017	0,158
-492,781	-20,394	-0,252	-0,114
-491,766	144,850	-0,047	-0,046
-490,751	800,000	0,025	-0,056
-489,737	429,115	0,073	-0,116
-488,722	-57,876	0,090	0,029
-487,708	-200,000	-0,007	0,109
-486,693	-200,000	0,022	0,080
-485,678	392,377	-0,028	-0,043
-484,664	-153,367	0,032	0,002
-483,649	12,035	0,065	-0,037
-482,635	-89,887	-0,085	-0,018
-481,620	41,310	-0,029	0,019
-480,605	202,201	-0,036	0,041
-479,591	-42,677	0,097	0,036
-478,576	-112,143	0,062	-0,009
-477,562	153,464	0,042	0,043
-476,547	106,850	-0,025	0,022
-475,532	71,933	0,098	-0,075
-474,518	-200,000	0,001	0,006
-473,503	-70,845	0,114	0,031
-472,489	-59,811	0,122	0,038
-471,474	230,686	-0,059	-0,071
-470,459	-200,000	-0,011	0,080
-469,445	-200,000	0,003	-0,070
-468,430	-41,261	0,075	-0,028
-467,416	-200,000	0,013	-0,147
-466,401	16,029	-0,005	-0,003
-465,386	-88,197	0,049	-0,011
-464,372	-68,756	0,108	0,031
-463,357	317,845	-0,045	-0,063
-462,343	-200,000	0,003	0,032
-461,328	-96,059	0,121	-0,023
-460,313	40,629	0,095	-0,063
-459,299	-87,121	0,123	0,027
-458,284	-200,000	0,014	0,050
-457,270	-90,091	0,069	-0,015
-456,255	-53,250	0,071	-0,024
-455,241	-120,777	-0,081	-0,010
-454,226	80,205	-0,138	-0,109
-453,211	58,577	0,014	0,010
-452,197	-200,000	0,018	-0,076
-451,182	-7,030	0,145	0,072
-450,168	400,305	-0,041	0,064
-449,153	-200,000	0,004	0,092
-448,138	-56,818	-0,188	-0,061
-447,124	351,056	-0,015	-0,021
-446,109	1,338	0,042	0,022
-445,095	278,265	0,055	0,072
-444,080	57,691	0,061	0,044
-443,065	87,634	-0,050	0,041
-442,051	215,469	-0,047	0,055
-441,036	49,361	-0,075	0,052
-440,022	-78,980	-0,053	0,013
-439,007	-200,000	0,028	0,095
-437,992	800,000	-0,008	-0,017
-436,978	-200,000	-0,017	0,103
-435,963	800,000	0,040	-0,091
-434,949	270,632	-0,037	-0,049
-433,934	170,416	-0,063	-0,066
-432,919	146,194	-0,017	-0,017
-431,905	-200,000	-0,002	-0,040
-430,890	127,518	0,042	-0,039
-429,876	-92,013	0,117	-0,024
-428,861	-76,636	-0,051	-0,013
-427,846	56,710	0,032	0,023
-426,832	738,790	0,028	0,056
-425,817	-173,418	-0,149	0,003
-424,803	-200,000	-0,012	-0,106
-423,788	146,393	0,143	0,141
-422,773	800,000	-0,048	0,121
-421,759	-200,000	-0,020	0,179
-420,744	-200,000	0,004	-0,030
-419,730	-13,358	-0,224	-0,106
-418,715	-63,791	0,111	-0,033
-417,701	99,815	0,073	-0,062
-416,686	800,000	-0,025	0,070
-415,671	-5,129	0,057	0,029
-414,657	-158,849	0,032	0,001
-413,642	563,984	-0,080	0,144
-412,628	145,175	-0,052	0,051
-411,613	800,000	0,055	-0,161
-410,598	-200,000	0,012	-0,099
-409,584	85,739	-0,184	0,148
-408,569	-200,000	0,004	0,097
-407,555	5,993	0,120	0,065
-406,540	459,968	0,031	0,051
-405,525	-50,313	-0,159	-0,055
-404,511	-200,000	-0,009	0,111
-403,496	8,146	-0,087	-0,048
-402,482	800,000	-0,041	-0,091
-401,467	290,127	0,094	-0,125
-400,452	-45,068	0,122	0,044
-399,438	-1,208	0,051	0,026
-398,423	201,765	-0,042	-0,048
-397,409	-36,698	0,005	-0,002
-396,394	800,000	-0,024	-0,064
-395,379	-200,000	-0,002	0,037
-394,365	214,796	-0,072	-0,083
-393,350	669,393	-0,071	0,136
-392,336	679,558	0,069	0,132
-391,321	-25,120	-0,189	-0,082
-390,306	-99,678	0,018	0,003
-389,292	95,665	-0,057	-0,048
-388,277	424,066	0,114	-0,181
-387,263	5,161	0,072	0,039
-386,248	-43,740	0,058	-0,021
-385,233	170,664	0,049	-0,052
-384,219	-142,386	-0,026	0,002
-383,204	343,884	-0,094	-0,136
-382,190	643,615	-0,040	-0,076
-381,175	190,684	0,022	0,024
-380,160	-139,769	0,173	-0,013
-379,146	-200,000	-0,009	-0,089
-378,131	27,884	-0,101	0,062
-377,117	87,022	-0,097	-0,078
-376,102	-72,985	-0,052	0,014
-375,088	161,656	-0,018	-0,018
-374,073	39,415	0,031	0,021
-373,058	-200,000	0,016	-0,111
-372,044	-200,000	0,007	0,045
-371,029	147,873	0,085	0,084
-370,015	-200,000	0,013	-0,070
-369,000	-91,939	-0,154	0,032
-367,985	483,755	-0,035	-0,059
-366,971	-200,000	-0,013	0,047
-365,956	-84,257	0,083	0,019
-364,942	308,153	-0,020	0,028
-363,927	132,014	0,063	0,060
-362,912	800,000	0,018	0,038
-361,898	89,262	-0,032	-0,026
-360,883	-1,983	0,075	0,038
-359,869	-200,000	0,042	-0,136
-358,854	-200,000	0,088	0,000
-357,839	82,636	0,090	0,071
-356,825	-164,410	0,128	0,004
-355,810	-63,216	-0,090	0,027
-354,796	302,221	-0,075	-0,102
-353,781	7,441	-0,072	-0,039
-352,766	-200,000	-0,001	0,031
-351,752	34,387	0,097	-0,062
-350,737	-200,000	-0,021	0,159
-349,723	3,148	0,060	0,032
-348,708	-200,000	0,016	-0,088
-347,693	759,733	0,095	-0,190
-346,679	779,229	0,011	-0,021
-345,664	-163,636	-0,211	0,007
-344,650	-69,373	0,079	-0,022
-343,635	146,257	-0,018	0,018
-342,620	-106,321	0,142	0,023
-341,606	-117,513	0,172	0,022
-340,591	-65,419	-0,160	-0,047
-339,577	38,748	0,059	0,038
-338,562	346,242	0,081	-0,117
-337,548	-200,000	-0,019	0,075
-336,533	202,953	-0,082	0,093
-335,518	800,000	-0,026	0,060
-334,504	-60,135	0,061	0,019
-333,489	218,209	-0,046	0,054
-332,475	800,000	-0,046	-0,134
-331,460	143,980	0,114	-0,111
-330,445	-20,538	-0,066	-0,030
-329,431	195,316	0,029	0,032
-328,416	-16,305	0,077	0,036
-327,402	126,356	-0,144	0,133
-326,387	12,451	-0,051	0,029
-325,372	-200,000	0,013	-0,041
-324,358	159,892	-0,090	0,091
-323,343	-72,841	0,189	0,051
-322,329	-117,810	-0,056	-0,007
-321,314	184,545	0,080	0,086
-320,299	-179,203	0,067	-0,001
-319,285	522,944	-0,035	-0,060
-318,270	385,118	0,031	-0,047
-317,256	-59,492	-0,126	-0,039
-316,241	-17,262	0,088	-0,041
-315,226	154,136	0,038	0,038
-314,212	-57,209	0,176	-0,056
-313,197	400,996	0,018	-0,028
-312,183	800,000	0,036	0,075
-311,168	-4,525	0,065	0,033
-310,153	-54,397	-0,103	-0,034
-309,139	-15,437	0,079	0,037
-308,124	-78,403	-0,075	-0,019
-307,110	328,645	0,045	-0,063
-306,095	800,000	-0,054	0,161
-305,080	-200,000	0,005	-0,082
-304,066	26,250	-0,121	-0,074
-303,051	-126,596	0,048	-0,005
-302,037	-87,150	0,042	-0,009
-301,022	800,000	0,007	0,021
-300,008	74,806	0,048	0,037
-298,993	-200,000	0,014	-0,132
-297,978	-200,000	0,011	-0,056
-296,964	113,264	0,079	0,070
-295,949	-200,000	0,036	0,121
-294,935	791,125	0,018	0,037
-293,920	-200,000	-0,003	0,064
-292,905	-200,000	0,015	0,114
-291,891	177,831	-0,036	-0,038
-290,876	2,265	-0,130	-0,069
-289,862	800,000	-0,013	0,035
-288,847	252,083	-0,024	0,029
-287,832	800,000	-0,024	0,077
-286,818	800,000	0,035	0,101
-285,803	29,881	0,059	-0,037
-284,789	-90,462	0,044	0,009
-283,774	233,312	-0,005	-0,006
-282,759	641,605	0,014	0,026
-281,745	-200,000	0,030	-0,099
-280,730	663,489	-0,030	0,057
-279,716	424,604	-0,052	-0,082
-278,701	-200,000	-0,012	-0,059
-277,686	60,834	-0,132	0,096
-276,672	-77,679	-0,061	-0,015
-275,657	-200,000	-0,003	0,185
-274,643	4,948	-0,075	0,040
-273,628	-200,000	0,012	-0,113
-272,613	-200,000	0,010	0,038
-271,599	-62,897	0,024	-0,007
-270,584	7,964	0,108	-0,059
-269,570	58,234	0,086	0,061
-268,555	189,266	-0,041	0,045
-267,540	-101,297	-0,097	0,017
-266,526	800,000	-0,005	0,014
-265,511	625,906	-0,019	-0,035
-264,497	800,000	0,029	0,061
-263,482	34,727	0,049	-0,032
-262,467	20,413	0,080	0,047
-261,453	800,000	-0,034	0,106
-260,438	-78,287	-0,085	0,021
-259,424	58,923	-0,024	-0,017
-258,409	-200,000	0,000	-0,100
-257,395	-144,422	0,158	-0,011
-256,380	-173,137	-0,073	-0,002
-255,365	-141,126	-0,082	0,006
-254,351	67,321	-0,164	-0,122
-253,336	49,875	-0,038	-0,026
-252,322	-134,094	-0,100	0,009
-251,307	260,571	-0,019	-0,025
-250,292	327,022	0,077	-0,108
-249,278	-111,629	0,080	0,012
-248,263	364,340	0,011	0,017
-247,249	-200,000	0,013	0,190
-246,234	219,738	0,012	0,014
-245,219	-200,000	0,024	-0,120
-244,205	36,305	-0,163	-0,105
-243,190	-200,000	0,005	0,120
-242,176	-200,000	-0,070	0,231
-241,161	-55,904	0,011	-0,004
-240,146	88,975	0,053	-0,043
-239,132	-200,000	-0,006	-0,021
-238,117	572,128	0,038	-0,067
-237,103	713,757	-0,028	0,054
-236,088	28,133	-0,129	-0,079
-235,073	724,359	0,044	0,085
-234,059	800,000	0,080	0,216
-233,044	800,000	0,037	0,095
-232,030	-120,851	-0,021	0,003
-231,015	-12,453	0,068	0,032
-230,000	382,398	0,063	-0,095
-228,986	545,228	-0,044	-0,077
-227,971	-151,048	-0,062	-0,003
-226,957	800,000	0,051	0,131
-225,942	800,000	-0,055	0,132
-224,927	-175,223	0,246	-0,005
-223,913	800,000	0,028	-0,091
-222,898	-200,000	0,007	-0,087
-221,884	-58,511	-0,020	0,006
-220,869	-47,794	0,124	-0,044
-219,855	220,600	-0,081	0,094
-218,840	800,000	-0,016	0,033
-217,825	60,906	0,078	-0,056
-216,811	-80,514	-0,055	-0,013
-215,796	-200,000	-0,007	-0,111
-214,782	-23,716	-0,097	0,042
-213,767	-200,000	-0,014	-0,159
-212,752	-200,000	0,006	0,146
-211,738	726,005	0,056	-0,109
-210,723	-68,429	-0,196	-0,055
-209,709	800,000	0,041	-0,095
-208,694	12,658	-0,009	0,005
-207,679	351,817	-0,039	0,056
-206,665	-172,234	0,095	0,002
-205,650	186,078	0,103	0,112
-204,636	-54,245	0,074	0,025
-203,621	-46,252	-0,072	-0,026
-202,606	-77,811	-0,024	0,006
-201,592	800,000	-0,029	-0,075
-200,577	-200,000	0,007	-0,089
-199,563	368,940	0,030	0,045
-198,548	-102,316	0,046	-0,008
-197,533	800,000	0,011	0,026
-196,519	-97,070	0,161	-0,030
-195,504	0,084	-0,050	0,026
-194,490	661,524	-0,033	-0,062
-193,475	-15,843	0,085	0,039
-192,460	-132,437	0,022	0,002
-191,446	-68,736	-0,111	-0,031
-190,431	100,232	0,070	-0,059
-189,417	800,000	-0,062	-0,198
-188,402	-173,232	0,104	-0,002
-187,387	-200,000	0,004	0,026
-186,373	-50,956	-0,044	-0,015
-185,358	-200,000	-0,009	-0,057
-184,344	98,079	-0,053	0,044
-183,329	411,992	0,104	0,162
-182,315	21,256	0,018	0,010
-181,300	800,000	-0,034	-0,081
-180,285	152,869	-0,042	-0,042
-179,271	562,693	0,033	-0,058
-178,256	-36,150	0,083	0,033
-177,242	341,850	0,047	0,067
-176,227	574,729	0,008	0,014
-175,212	508,569	-0,024	0,040
-174,198	161,406	0,085	0,086
-173,183	800,000	-0,008	-0,024
-172,169	266,865	-0,053	0,068
-171,154	800,000	-0,058	0,147
-170,139	-134,920	0,107	0,009
-169,125	248,923	-0,033	-0,041
-168,110	800,000	0,057	0,151
-167,096	-200,000	0,034	0,130
-166,081	-200,000	0,013	-0,097
-165,066	-200,000	0,024	-0,090
-164,052	800,000	0,071	-0,159
-163,037	329,606	-0,041	-0,057
-162,023	-114,118	0,074	0,010
-161,008	-178,382	0,053	0,001
-159,993	604,121	-0,073	0,133
-158,979	5,511	-0,109	0,059
-157,964	-200,000	0,007	-0,084
-156,950	-69,856	-0,099	-0,027
-155,935	-200,000	0,016	0,072
-154,920	-200,000	0,009	-0,043
-153,906	588,194	0,032	-0,057
-152,891	800,000	0,021	0,062
-151,877	-112,632	-0,105	0,015
-150,862	57,517	-0,115	-0,082
-149,847	800,000	-0,053	-0,155
-148,833	-200,000	-0,034	-0,117
-147,818	-200,000	-0,002	0,062
-146,804	-57,537	0,038	0,012
-145,789	-200,000	-0,027	0,091
-144,775	-112,638	0,098	-0,014
-143,760	800,000	-0,035	0,091
-142,745	7,325	-0,070	-0,038
-141,731	638,292	0,060	-0,112
-140,716	800,000	0,040	-0,117
-139,702	497,656	-0,049	0,082
-138,687	-29,914	0,048	-0,020
-137,672	800,000	-0,016	0,034
-136,658	-200,000	0,005	-0,089
-135,643	-200,000	-0,032	-0,157
-134,629	-145,763	0,017	-0,001
-133,614	-88,060	-0,048	-0,010
-132,599	-55,360	0,036	0,012
-131,585	-56,464	0,093	0,030
-130,570	-200,000	-0,007	-0,033
-129,556	-200,000	-0,011	0,071
-128,541	-111,910	0,070	-0,010
-127,526	164,802	-0,031	-0,032
-126,512	0,636	-0,122	0,063
-125,497	-135,727	0,078	-0,007
-124,483	-200,000	-0,021	0,103
-123,468	-200,000	-0,000	0,039
-122,453	-110,810	-0,096	0,014
-121,439	-5,451	-0,027	-0,013
-120,424	-200,000	0,002	-0,075
-119,410	113,353	-0,013	0,011
-118,395	269,749	0,053	-0,068
