DTS Sentinel unit serial number:	SN410029Multiplexer serial number:	ORYXHardware model number:	OX2-SRSoftware version number:	ORYX F/W v4,00 Oryx Data Collector v3.7.2.0data status	okinstallation	B6 Nyhavnadifferential loss correction	single-endedforward channel	channel 2reverse channel	N/Adate	2023/12/08time	10:10:08forward acquisition time	300,00reverse acquisition time	0,00gamma	499,1914k internal	0,3164k external	0,3164temperature offset calibration	1,0000default loss term (dB/km)	0,3820temperature slope calibration	1,0000multiplexer offset coefficient	1,0000multiplexer slope coefficient	1,0000fibre end	0,00T internal ref (°C)	14,12T ext. ref 1 (°C)	-1,45T ext. ref 2 (°C)	-1,42length (m)	temperature (°C)	Stokes	anti-Stokes-744,400	-133,285	0,053	0,005
-743,385	-84,077	-0,266	-0,062
-742,371	33,105	0,046	0,029
-741,356	-116,954	-0,270	0,036
-740,342	-162,586	0,172	0,006
-739,327	-89,569	-0,365	0,078
-738,312	-200,000	-0,003	0,065
-737,298	-99,272	-0,319	-0,059
-736,283	-62,536	0,086	-0,026
-735,269	-104,808	-0,222	-0,037
-734,254	-151,384	0,055	0,003
-733,239	-57,141	-0,535	-0,172
-732,225	147,279	0,135	0,134
-731,210	-200,000	-0,012	0,080
-730,196	-14,262	0,109	0,052
-729,181	3,657	0,098	0,052
-728,167	-84,788	0,032	0,007
-727,152	363,370	0,022	-0,032
-726,137	152,291	-0,027	0,027
-725,123	753,725	-0,017	0,033
-724,108	-7,113	-0,029	-0,015
-723,094	-26,251	0,092	-0,039
-722,079	800,000	-0,019	-0,047
-721,064	86,416	-0,079	-0,064
-720,050	487,660	-0,029	-0,049
-719,035	-177,348	-0,166	0,003
-718,021	-115,600	-0,144	-0,020
-717,006	-200,000	0,025	-0,099
-715,991	-200,000	-0,011	-0,131
-714,977	-200,000	-0,014	-0,088
-713,962	-200,000	-0,015	0,073
-712,948	-18,938	0,125	0,057
-711,933	-7,868	-0,117	-0,058
-710,918	240,045	-0,038	-0,047
-709,904	-200,000	-0,015	-0,094
-708,889	192,361	-0,096	-0,107
-707,875	325,141	0,052	0,073
-706,860	-200,000	0,007	0,140
-705,845	-38,123	0,043	0,017
-704,831	800,000	0,066	0,142
-703,816	31,826	-0,177	0,112
-702,802	600,568	-0,082	-0,151
-701,787	727,212	-0,030	0,058
-700,772	800,000	-0,044	0,105
-699,758	470,746	0,072	0,119
-698,743	-200,000	-0,010	0,090
-697,729	162,031	-0,105	-0,108
-696,714	360,268	0,041	-0,060
-695,699	74,038	-0,185	-0,142
-694,685	-33,424	0,075	0,030
-693,670	145,514	-0,108	0,106
-692,656	755,532	-0,027	-0,055
-691,641	257,946	0,133	-0,169
-690,627	-88,777	0,108	-0,023
-689,612	800,000	0,028	-0,072
-688,597	800,000	0,029	0,076
-687,583	20,728	0,061	0,036
-686,568	-45,788	-0,049	0,018
-685,554	89,237	-0,060	0,049
-684,539	265,997	-0,080	-0,103
-683,524	-200,000	-0,013	-0,067
-682,510	-44,256	0,049	0,018
-681,495	30,085	-0,106	0,066
-680,481	-200,000	-0,004	-0,064
-679,466	74,889	-0,158	-0,122
-678,451	14,286	-0,088	-0,050
-677,437	-190,810	-0,036	0,000
-676,422	212,963	0,066	0,076
-675,408	344,259	-0,016	-0,023
-674,393	-24,201	-0,089	0,039
-673,378	800,000	0,021	-0,058
-672,364	-151,196	-0,148	0,008
-671,349	-200,000	-0,006	-0,092
-670,335	184,203	-0,018	-0,019
-669,320	438,892	0,055	-0,089
-668,305	-120,431	-0,037	-0,005
-667,291	-125,956	-0,102	0,011
-666,276	187,094	0,059	0,064
-665,262	-142,826	-0,041	-0,003
-664,247	326,260	0,012	-0,017
-663,232	582,634	0,018	-0,032
-662,218	-104,455	0,123	-0,021
-661,203	400,936	-0,083	0,128
-660,189	-137,604	-0,100	0,008
-659,174	-31,182	0,024	0,010
-658,159	-200,000	-0,006	0,087
-657,145	-140,863	-0,089	0,007
-656,130	-200,000	0,029	0,115
-655,116	-62,017	-0,062	0,019
-654,101	-40,022	-0,021	-0,008
-653,086	135,624	-0,114	-0,109
-652,072	-118,912	0,077	0,010
-651,057	-133,318	-0,104	0,009
-650,043	62,142	0,004	-0,003
-649,028	-127,925	-0,086	-0,009
-648,014	-200,000	-0,038	0,156
-646,999	340,794	-0,050	0,072
-645,984	-200,000	-0,005	0,092
-644,970	707,857	0,044	0,086
-643,955	-31,529	0,031	-0,013
-642,941	259,044	0,074	-0,094
-641,926	240,400	-0,058	0,071
-640,911	-200,000	0,010	-0,089
-639,897	-96,128	0,194	-0,037
-638,882	-78,824	-0,120	0,030
-637,868	-10,722	0,051	-0,024
-636,853	800,000	-0,028	0,064
-635,838	216,199	-0,067	0,078
-634,824	-119,074	0,161	-0,020
-633,809	264,658	-0,004	0,005
-632,795	-200,000	0,020	-0,103
-631,780	13,390	0,141	0,080
-630,765	703,172	-0,026	0,050
-629,751	517,647	0,075	-0,128
-628,736	-75,280	-0,075	-0,019
-627,722	121,791	0,095	0,087
-626,707	800,000	-0,037	-0,091
-625,692	800,000	0,032	-0,098
-624,678	-200,000	0,013	0,074
-623,663	337,617	-0,049	-0,069
-622,649	35,046	-0,098	0,063
-621,634	800,000	-0,052	-0,109
-620,619	-200,000	0,000	0,068
-619,605	-200,000	0,001	-0,006
-618,590	35,554	0,132	-0,084
-617,576	-111,862	0,077	0,011
-616,561	-200,000	-0,007	0,058
-615,546	6,856	0,017	0,009
-614,532	-200,000	-0,004	0,023
-613,517	15,649	-0,047	-0,027
-612,503	99,012	-0,053	0,045
-611,488	-106,111	-0,024	-0,004
-610,474	-200,000	0,011	0,057
-609,459	83,858	-0,113	-0,090
-608,444	291,265	-0,013	-0,017
-607,430	-200,000	-0,001	0,036
-606,415	800,000	0,043	-0,126
-605,401	-120,679	0,084	-0,010
-604,386	473,311	-0,029	-0,048
-603,371	-200,000	0,024	-0,139
-602,357	-200,000	-0,026	-0,108
-601,342	195,166	0,030	0,034
-600,328	241,132	-0,059	-0,073
-599,313	457,124	-0,120	-0,196
-598,298	300,596	-0,062	-0,084
-597,284	247,733	-0,077	-0,096
-596,269	-65,171	-0,051	0,015
-595,255	68,706	-0,087	-0,065
-594,240	800,000	0,021	0,054
-593,225	198,241	-0,046	-0,052
-592,211	-200,000	0,004	-0,149
-591,196	800,000	-0,057	-0,126
-590,182	161,307	0,096	-0,099
-589,167	84,332	0,067	-0,053
-588,152	9,273	0,015	-0,008
-587,138	30,878	-0,089	-0,056
-586,123	-74,357	-0,086	0,023
-585,109	-79,668	-0,048	-0,012
-584,094	-200,000	-0,031	-0,109
-583,079	-134,599	0,148	-0,013
-582,065	-151,471	0,080	-0,004
-581,050	-200,000	0,019	-0,091
-580,036	126,198	-0,069	-0,064
-579,021	-112,780	-0,122	0,018
-578,006	-4,659	-0,142	-0,072
-576,992	568,002	-0,023	-0,041
-575,977	800,000	-0,044	0,132
-574,963	-11,271	0,088	-0,042
-573,948	800,000	-0,039	-0,080
-572,934	85,894	-0,111	0,089
-571,919	-78,224	0,159	-0,040
-570,904	-85,771	-0,102	0,023
-569,890	-200,000	-0,042	-0,139
-568,875	12,648	0,039	-0,022
-567,861	-200,000	0,005	0,022
-566,846	800,000	-0,043	0,096
-565,831	238,479	-0,068	-0,083
-564,817	-115,678	-0,060	-0,008
-563,802	127,931	-0,101	-0,094
-562,788	-200,000	0,003	-0,047
-561,773	-8,441	0,048	-0,024
-560,758	465,423	-0,068	0,112
-559,744	-39,489	-0,014	-0,005
-558,729	484,931	-0,076	0,126
-557,715	-17,810	-0,174	0,080
-556,700	-200,000	-0,010	-0,036
-555,685	120,918	-0,034	-0,031
-554,671	-200,000	0,005	-0,038
-553,656	118,593	-0,053	-0,048
-552,642	-200,000	0,019	0,095
-551,627	-200,000	0,003	0,009
-550,612	305,312	0,039	0,054
-549,598	246,398	0,063	-0,078
-548,583	237,865	0,068	-0,082
-547,569	-188,416	-0,055	0,000
-546,554	800,000	0,065	0,142
-545,539	146,616	0,035	0,034
-544,525	140,547	0,048	-0,046
-543,510	39,590	-0,071	-0,047
-542,496	-200,000	0,004	-0,056
-541,481	100,444	-0,055	-0,047
-540,466	-121,426	-0,154	-0,019
-539,452	-200,000	-0,011	0,074
-538,437	800,000	-0,061	-0,128
-537,423	-11,769	-0,215	-0,103
-536,408	-200,000	0,023	-0,279
-535,393	-52,560	-0,093	-0,031
-534,379	625,836	-0,014	-0,027
-533,364	-200,000	0,028	-0,117
-532,350	-57,632	0,057	-0,018
-531,335	-29,332	0,075	0,031
-530,321	-113,261	0,180	0,026
-529,306	61,496	0,133	-0,097
-528,291	-17,217	-0,224	-0,103
-527,277	800,000	-0,020	0,057
-526,262	208,488	0,030	0,034
-525,248	800,000	-0,070	-0,157
-524,233	391,910	-0,027	-0,041
-523,218	-32,379	0,078	-0,032
-522,204	252,550	-0,097	-0,120
-521,189	8,401	-0,124	-0,068
-520,175	800,000	0,068	-0,161
-519,160	-49,215	-0,049	-0,017
-518,145	693,220	-0,036	-0,069
-517,131	54,163	-0,136	0,096
-516,116	79,106	0,175	0,136
-515,102	-125,424	-0,065	0,007
-514,087	-200,000	0,025	-0,096
-513,072	-200,000	-0,017	0,104
-512,058	-200,000	0,011	-0,139
-511,043	-192,124	-0,104	0,001
-510,029	-36,795	-0,044	0,017
-509,014	269,554	0,021	0,027
-507,999	183,564	-0,061	0,066
-506,985	698,965	-0,050	0,097
-505,970	-127,389	0,068	0,007
-504,956	-200,000	0,011	0,044
-503,941	-41,917	-0,116	-0,043
-502,926	-41,909	0,110	-0,041
-501,912	-41,004	-0,140	0,053
-500,897	49,269	0,024	0,016
-499,883	1,020	-0,021	0,011
-498,868	-200,000	0,046	-0,234
-497,853	800,000	-0,025	-0,078
-496,839	-37,421	0,072	0,028
-495,824	800,000	-0,035	0,084
-494,810	-53,988	0,101	0,033
-493,795	-200,000	0,033	0,118
-492,781	800,000	0,008	0,022
-491,766	185,862	-0,077	-0,084
-490,751	-69,424	0,036	0,010
-489,737	51,937	0,087	-0,061
-488,722	780,539	-0,060	-0,119
-487,708	478,449	0,032	0,053
-486,693	-200,000	-0,012	0,043
-485,678	-117,632	0,016	0,002
-484,664	53,066	0,023	0,016
-483,649	61,550	-0,148	-0,107
-482,635	-200,000	0,004	0,024
-481,620	-167,937	0,065	-0,002
-480,605	-100,426	-0,022	0,004
-479,591	143,150	-0,162	0,157
-478,576	776,972	0,042	-0,084
-477,562	198,496	-0,049	-0,054
-476,547	541,203	-0,015	-0,026
-475,532	-100,020	-0,138	0,025
-474,518	218,107	-0,072	0,084
-473,503	-200,000	-0,002	0,024
-472,489	-115,365	0,132	0,018
-471,474	-73,303	0,076	0,020
-470,459	722,391	-0,013	-0,026
-469,445	-72,770	0,089	-0,024
-468,430	310,676	0,063	-0,086
-467,416	423,980	-0,024	0,038
-466,401	4,305	0,117	0,062
-465,386	-11,205	0,034	0,016
-464,372	1,853	-0,134	0,070
-463,357	-133,557	-0,072	0,007
-462,343	79,525	0,087	0,068
-461,328	57,199	-0,041	0,029
-460,313	13,090	0,090	-0,050
-459,299	-200,000	-0,006	0,034
-458,284	-200,000	-0,008	0,216
-457,270	-76,406	-0,179	0,045
-456,255	141,743	-0,040	-0,038
-455,241	-200,000	0,007	-0,040
-454,226	800,000	0,034	0,069
-453,211	-62,186	0,103	0,031
-452,197	-166,213	-0,016	0,000
-451,182	135,798	0,081	0,077
-450,168	800,000	-0,011	0,026
-449,153	-14,774	-0,046	0,022
-448,138	-200,000	-0,001	0,037
-447,124	-200,000	-0,003	-0,097
-446,109	185,719	-0,086	0,093
-445,095	-5,439	0,025	-0,012
-444,080	800,000	0,036	-0,078
-443,065	643,458	0,064	-0,119
-442,051	-99,559	-0,025	0,004
-441,036	98,208	0,101	0,084
-440,022	285,396	0,033	0,043
-439,007	800,000	0,087	0,180
-437,992	252,021	0,088	0,110
-436,978	-200,000	0,000	0,016
-435,963	800,000	0,038	0,092
-434,949	338,714	0,067	-0,095
-433,934	736,798	-0,045	0,087
-432,919	-41,155	-0,022	0,008
-431,905	800,000	0,014	-0,031
-430,890	225,104	0,074	0,087
-429,876	800,000	0,017	0,038
-428,861	160,691	-0,100	-0,102
-427,846	-180,036	0,118	-0,002
-426,832	800,000	-0,014	-0,029
-425,817	6,480	-0,101	-0,054
-424,803	51,493	-0,053	-0,036
-423,788	42,738	-0,116	-0,077
-422,773	170,776	-0,084	0,088
-421,759	13,143	-0,067	0,038
-420,744	-200,000	-0,016	0,067
-419,730	109,385	-0,141	-0,123
-418,715	72,527	0,048	-0,036
-417,701	424,167	0,048	0,075
-416,686	-133,433	0,031	-0,003
-415,671	100,450	0,083	-0,070
-414,657	800,000	0,058	0,118
-413,642	-55,595	-0,039	0,013
-412,628	800,000	-0,050	-0,129
-411,613	77,940	-0,028	0,022
-410,598	369,496	-0,042	-0,062
-409,584	132,738	-0,031	0,029
-408,569	62,960	0,166	0,121
-407,555	145,594	0,065	0,063
-406,540	-142,912	-0,081	0,006
-405,525	-200,000	0,000	-0,012
-404,511	-90,457	0,113	0,024
-403,496	-200,000	-0,007	-0,113
-402,482	-58,347	-0,093	0,029
-401,467	33,458	0,102	0,064
-400,452	-200,000	-0,031	0,153
-399,438	-200,000	-0,038	0,154
-398,423	-200,000	0,022	0,149
-397,409	-200,000	0,017	0,059
-396,394	3,042	-0,121	-0,064
-395,379	24,147	0,050	-0,030
-394,365	-200,000	-0,022	0,129
-393,350	-200,000	-0,004	0,137
-392,336	-16,277	-0,041	0,019
-391,321	-29,358	0,073	-0,030
-390,306	-124,162	-0,147	0,017
-389,292	-200,000	-0,003	-0,116
-388,277	-200,000	0,007	-0,074
-387,263	-200,000	0,031	0,196
-386,248	800,000	0,022	0,048
-385,233	-83,081	0,100	-0,023
-384,219	-120,542	0,043	-0,005
-383,204	56,944	0,083	0,059
-382,190	-154,194	-0,182	0,009
-381,175	-200,000	0,019	-0,111
-380,160	-131,292	0,062	-0,006
-379,146	120,123	-0,050	0,045
-378,131	-200,000	0,010	0,067
-377,117	-200,000	0,011	0,050
-376,102	516,926	-0,073	0,125
-375,088	-130,219	-0,126	0,012
-374,073	356,693	-0,089	0,129
-373,058	118,125	0,130	0,116
-372,044	-200,000	-0,022	0,237
-371,029	800,000	-0,053	0,149
-370,015	-200,000	-0,009	-0,091
-369,000	86,736	-0,088	0,070
-367,985	800,000	0,036	-0,088
-366,971	-134,869	-0,160	-0,014
-365,956	177,924	0,066	0,070
-364,942	800,000	0,032	0,085
-363,927	-47,338	0,093	-0,033
-362,912	93,258	-0,125	0,102
-361,898	207,309	-0,039	-0,044
-360,883	-120,098	-0,111	0,014
-359,869	85,290	-0,052	0,041
-358,854	-200,000	0,018	0,097
-357,839	-1,277	0,080	0,041
-356,825	261,658	0,078	0,098
-355,810	68,864	-0,053	0,040
-354,796	-95,177	-0,068	-0,013
-353,781	-7,466	0,072	0,035
-352,766	39,444	-0,104	0,068
-351,752	299,498	0,051	0,068
-350,737	439,771	0,116	0,184
-349,723	-135,996	-0,040	0,003
-348,708	35,583	-0,054	0,034
-347,693	-112,018	-0,057	-0,008
-346,679	431,963	-0,053	-0,084
-345,664	56,572	0,092	0,065
-344,650	800,000	0,030	-0,095
-343,635	531,113	0,069	0,119
-342,620	-106,129	0,126	-0,020
-341,606	48,083	0,058	-0,039
-340,591	-135,191	-0,162	0,014
-339,577	31,518	0,132	-0,082
-338,562	-200,000	0,010	0,032
-337,548	-118,440	0,185	-0,024
-336,533	-45,532	0,069	0,025
-335,518	28,730	0,097	0,059
-334,504	-136,860	-0,062	-0,005
-333,489	-119,937	0,193	0,024
-332,475	-200,000	-0,034	0,120
-331,460	-76,354	-0,013	-0,003
-330,445	-200,000	-0,013	0,045
-329,431	32,454	0,032	-0,020
-328,416	10,898	0,171	0,094
-327,402	-200,000	-0,020	0,112
-326,387	61,313	-0,038	0,027
-325,372	-200,000	0,001	0,192
-324,358	-200,000	0,010	-0,084
-323,343	-22,816	-0,162	0,070
-322,329	174,713	0,150	-0,157
-321,314	-148,761	-0,121	-0,007
-320,299	-200,000	-0,001	0,048
-319,285	132,618	0,058	-0,054
-318,270	220,332	-0,095	-0,111
-317,256	-200,000	-0,004	-0,044
-316,241	16,535	0,060	-0,034
-315,226	-64,519	0,054	-0,016
-314,212	9,077	0,057	-0,031
-313,197	15,767	0,140	0,079
-312,183	800,000	-0,038	0,082
-311,168	-200,000	-0,004	-0,020
-310,153	-131,059	0,125	-0,012
-309,139	531,485	-0,050	-0,085
-308,124	-164,210	-0,018	0,001
-307,110	-41,579	0,075	0,028
-306,095	471,561	-0,042	0,069
-305,080	-97,232	-0,066	-0,012
-304,066	-136,178	0,153	-0,013
-303,051	457,224	-0,011	-0,018
-302,037	-161,217	0,180	0,007
-301,022	34,196	0,001	0,001
-300,008	242,717	0,044	0,054
-298,993	-79,729	0,154	0,037
-297,978	-200,000	-0,009	0,064
-296,964	358,607	-0,059	-0,085
-295,949	800,000	0,034	0,086
-294,935	800,000	0,031	-0,071
-293,920	165,793	0,091	-0,093
-292,905	-88,260	0,043	0,009
-291,891	-200,000	0,017	0,079
-290,876	164,578	-0,031	0,032
-289,862	314,438	-0,015	-0,021
-288,847	-106,804	0,080	-0,013
-287,832	280,049	-0,067	0,086
-286,818	-200,000	0,016	0,200
-285,803	83,493	0,079	0,062
-284,789	800,000	-0,025	0,055
-283,774	800,000	-0,021	-0,056
-282,759	800,000	0,028	0,060
-281,745	-200,000	0,015	-0,053
-280,730	800,000	-0,014	0,033
-279,716	246,692	0,145	-0,176
-278,701	564,100	-0,045	0,079
-277,686	-15,140	0,188	0,087
-276,672	800,000	0,021	0,057
-275,657	447,568	-0,021	0,034
-274,643	-200,000	-0,035	-0,123
-273,628	732,157	-0,049	-0,094
-272,613	470,258	0,007	-0,011
-271,599	50,740	0,075	0,051
-270,584	482,628	0,039	-0,064
-269,570	608,583	-0,044	-0,079
-268,555	-200,000	-0,010	0,069
-267,540	800,000	-0,083	-0,210
-266,526	189,904	0,087	-0,094
-265,511	-200,000	-0,015	-0,115
-264,497	-200,000	-0,021	-0,082
-263,482	588,005	0,043	0,077
-262,467	44,117	-0,139	0,092
-261,453	-175,453	-0,053	-0,001
-260,438	-3,308	0,043	0,022
-259,424	297,223	-0,027	-0,036
-258,409	-82,163	-0,138	0,032
-257,395	569,125	0,055	0,097
-256,380	-200,000	-0,009	0,122
-255,365	123,548	0,065	-0,059
-254,351	-200,000	-0,023	-0,100
-253,336	800,000	0,015	-0,045
-252,322	-62,045	0,033	-0,010
-251,307	-200,000	-0,007	-0,057
-250,292	-200,000	-0,037	-0,169
-249,278	-200,000	0,013	-0,065
-248,263	-20,565	0,115	-0,051
-247,249	-125,667	0,058	-0,006
-246,234	-200,000	-0,028	-0,172
-245,219	-103,750	-0,097	-0,016
-244,205	-10,505	-0,047	0,022
-243,190	92,608	0,116	0,095
-242,176	-91,062	0,080	-0,016
-241,161	-200,000	0,017	-0,054
-240,146	800,000	0,013	0,030
-239,132	33,348	-0,075	-0,047
-238,117	-27,986	-0,016	0,007
-237,103	800,000	-0,038	0,085
-236,088	112,586	0,033	0,028
-235,073	-200,000	0,005	0,049
-234,059	92,596	0,055	-0,045
-233,044	-63,054	-0,082	0,024
-232,030	-50,348	0,048	0,016
-231,015	-200,000	0,032	-0,127
-230,000	800,000	0,020	-0,063
-228,986	19,841	-0,200	0,116
-227,971	-15,906	0,077	0,035
-226,957	8,909	0,101	0,055
-225,942	-92,276	0,086	-0,017
-224,927	529,500	-0,108	0,184
-223,913	143,334	-0,086	-0,082
-222,898	-200,000	-0,019	-0,219
-221,884	-200,000	-0,012	-0,096
-220,869	10,869	0,152	-0,083
-219,855	15,782	0,123	-0,070
-218,840	307,928	-0,043	-0,058
-217,825	101,910	-0,082	-0,069
-216,811	-114,905	0,050	-0,007
-215,796	-200,000	0,005	-0,051
-214,782	800,000	0,022	-0,061
-213,767	-67,792	0,045	-0,013
-212,752	169,274	0,073	0,075
-211,738	313,803	-0,023	0,031
-210,723	-200,000	0,058	0,000
-209,709	-14,013	0,104	-0,048
-208,694	46,927	-0,062	0,042
-207,679	259,504	-0,044	-0,054
-206,665	-200,000	0,031	0,122
-205,650	166,866	0,046	0,047
-204,636	800,000	-0,030	0,062
-203,621	-87,299	-0,058	-0,013
-202,606	800,000	-0,025	-0,077
-201,592	170,256	-0,068	0,070
-200,577	800,000	0,042	-0,098
-199,563	800,000	-0,035	0,076
-198,548	259,295	0,047	0,059
-197,533	103,641	-0,029	0,025
-196,519	56,918	0,016	-0,011
-195,504	800,000	-0,017	0,036
-194,490	29,238	0,102	-0,062
-193,475	562,850	-0,019	-0,033
-192,460	-0,657	-0,075	-0,038
-191,446	65,064	0,055	-0,040
-190,431	800,000	-0,028	0,080
-189,417	78,216	-0,046	-0,036
-188,402	-200,000	-0,031	-0,112
-187,387	176,441	-0,168	-0,176
-186,373	38,152	-0,149	-0,095
-185,358	0,418	0,064	-0,033
-184,344	-131,477	-0,078	0,007
-183,329	-200,000	0,000	0,078
-182,315	800,000	0,019	0,047
-181,300	295,281	-0,128	0,169
-180,285	-200,000	-0,004	0,045
-179,271	359,914	-0,058	-0,084
-178,256	-89,422	-0,060	-0,013
-177,242	-200,000	0,011	0,039
-176,227	800,000	-0,018	-0,044
-175,212	-200,000	0,001	0,139
-174,198	-117,893	0,081	-0,010
-173,183	-200,000	0,013	-0,094
-172,169	26,076	0,026	-0,016
-171,154	-200,000	-0,003	0,060
-170,139	-200,000	-0,004	0,042
-169,125	194,841	0,050	0,054
-168,110	-127,474	0,165	0,017
-167,096	-33,861	0,048	-0,019
-166,081	24,018	0,092	-0,055
-165,066	-200,000	-0,003	0,082
-164,052	159,779	-0,086	-0,086
-163,037	48,497	0,022	0,015
-162,023	283,893	0,095	0,123
-161,008	177,557	0,077	0,080
-159,993	6,795	-0,070	0,037
-158,979	298,822	-0,061	-0,081
-157,964	266,588	-0,090	-0,113
-156,950	241,987	-0,075	-0,090
-155,935	-115,621	0,131	-0,017
-154,920	-121,381	0,112	0,013
-153,906	800,000	0,040	0,092
-152,891	-152,096	0,081	-0,004
-151,877	218,453	0,019	0,022
-150,862	-8,913	0,046	-0,022
-149,847	-200,000	-0,060	0,207
-148,833	-178,108	0,190	0,003
-147,818	-200,000	0,000	-0,018
-146,804	-200,000	0,020	0,111
-145,789	-200,000	-0,001	-0,050
-144,775	-26,737	-0,144	-0,060
-143,760	-200,000	0,016	-0,110
-142,745	-200,000	-0,002	-0,056
-141,731	231,222	0,040	-0,048
-140,716	800,000	0,024	-0,052
-139,702	-200,000	-0,004	0,055
-138,687	58,016	0,060	0,042
-137,672	-75,759	-0,076	-0,019
-136,658	-200,000	-0,016	-0,097
-135,643	140,850	-0,022	-0,021
-134,629	-69,337	0,053	0,014
-133,614	-12,328	0,063	-0,030
-132,599	304,895	0,058	0,078
-131,585	438,978	-0,021	-0,033
-130,570	-200,000	-0,028	-0,115
-129,556	133,384	-0,070	-0,065
-128,541	-200,000	-0,004	-0,041
-127,526	215,516	-0,038	-0,043
-126,512	-21,268	0,103	0,045
-125,497	-200,000	0,005	0,027
-124,483	155,670	-0,108	0,107
-123,468	263,307	-0,029	-0,037
-122,453	151,440	-0,044	-0,043
-121,439	-200,000	-0,005	0,062
-120,424	606,313	-0,025	0,045
-119,410	800,000	0,050	0,106
