DTS Sentinel unit serial number:	SN410029Multiplexer serial number:	ORYXHardware model number:	OX2-SRSoftware version number:	ORYX F/W v4,00 Oryx Data Collector v3.7.2.0data status	okinstallation	B6 Nyhavnadifferential loss correction	single-endedforward channel	channel 2reverse channel	N/Adate	2023/12/07time	21:00:08forward acquisition time	300,00reverse acquisition time	0,00gamma	499,1914k internal	0,3164k external	0,3164temperature offset calibration	1,0000default loss term (dB/km)	0,3820temperature slope calibration	1,0000multiplexer offset coefficient	1,0000multiplexer slope coefficient	1,0000fibre end	0,00T internal ref (°C)	13,75T ext. ref 1 (°C)	-3,12T ext. ref 2 (°C)	-3,15length (m)	temperature (°C)	Stokes	anti-Stokes-744,400	-168,484	0,166	0,005
-743,385	-109,774	-0,256	0,039
-742,371	48,370	0,135	0,093
-741,356	143,037	-0,201	0,197
-740,342	78,275	0,122	-0,096
-739,327	-146,200	-0,180	-0,011
-738,312	355,333	0,070	0,103
-737,298	-17,736	-0,232	-0,107
-736,283	257,007	0,074	0,094
-735,269	-77,548	-0,382	0,097
-734,254	-68,986	0,123	0,035
-733,239	-87,401	-0,441	-0,098
-732,225	-109,463	0,209	0,032
-731,210	139,239	0,073	0,071
-730,196	-114,493	-0,076	0,011
-729,181	800,000	-0,054	-0,153
-728,167	-126,846	-0,130	0,014
-727,152	-35,274	-0,074	-0,029
-726,137	-154,621	-0,084	0,004
-725,123	86,796	-0,141	-0,114
-724,108	51,290	-0,134	-0,093
-723,094	800,000	-0,018	0,042
-722,079	-200,000	0,027	-0,208
-721,064	108,960	-0,115	-0,101
-720,050	-87,376	-0,066	-0,015
-719,035	78,045	0,070	-0,055
-718,021	694,724	-0,078	-0,151
-717,006	-55,934	-0,023	-0,007
-715,991	-148,138	-0,165	-0,010
-714,977	-200,000	0,005	-0,130
-713,962	-97,690	-0,130	0,025
-712,948	-200,000	-0,006	0,174
-711,933	130,651	0,077	-0,072
-710,918	-29,398	-0,153	0,064
-709,904	118,288	-0,052	0,047
-708,889	-143,229	-0,076	-0,005
-707,875	-26,024	-0,038	-0,016
-706,860	-54,770	0,055	0,018
-705,845	37,444	0,060	-0,039
-704,831	149,322	-0,075	0,075
-703,816	151,620	-0,019	-0,019
-702,802	-200,000	-0,010	-0,119
-701,787	800,000	0,039	-0,105
-700,772	-81,986	-0,088	-0,021
-699,758	-26,935	0,052	-0,022
-698,743	800,000	0,052	-0,140
-697,729	40,202	0,084	-0,055
-696,714	-200,000	-0,018	-0,110
-695,699	800,000	-0,047	-0,099
-694,685	-127,668	-0,139	-0,015
-693,670	108,112	-0,050	-0,044
-692,656	107,424	-0,032	-0,028
-691,641	228,569	0,092	0,111
-690,627	693,714	0,025	-0,049
-689,612	-126,182	-0,216	0,023
-688,597	-139,262	-0,138	0,011
-687,583	800,000	-0,043	-0,113
-686,568	-200,000	0,005	-0,086
-685,554	312,113	0,053	-0,073
-684,539	39,078	0,091	0,059
-683,524	-200,000	-0,012	0,110
-682,510	-200,000	-0,003	0,025
-681,495	10,782	0,149	0,083
-680,481	33,775	-0,056	-0,036
-679,466	-200,000	-0,012	-0,056
-678,451	-136,121	-0,105	-0,009
-677,437	320,749	-0,038	-0,053
-676,422	165,081	0,109	-0,113
-675,408	148,643	0,071	0,071
-674,393	456,761	-0,042	0,068
-673,378	-29,527	-0,079	-0,033
-672,364	34,175	-0,097	0,062
-671,349	800,000	-0,033	-0,080
-670,335	-200,000	-0,008	-0,068
-669,320	-61,371	-0,117	0,036
-668,305	-125,249	0,078	-0,009
-667,291	203,838	0,084	0,095
-666,276	414,650	-0,106	-0,166
-665,262	-200,000	0,003	0,049
-664,247	-107,128	-0,065	0,010
-663,232	-31,958	-0,165	0,068
-662,218	-200,000	-0,029	0,106
-661,203	276,468	-0,029	-0,038
-660,189	324,409	-0,027	0,038
-659,174	26,414	0,111	-0,068
-658,159	-81,313	-0,117	-0,028
-657,145	-200,000	0,017	0,084
-656,130	117,689	-0,079	-0,071
-655,116	-12,661	-0,063	0,030
-654,101	226,423	-0,064	0,076
-653,086	137,925	-0,114	0,109
-652,072	-200,000	-0,003	-0,090
-651,057	-130,891	-0,192	-0,019
-650,043	257,646	-0,023	-0,029
-649,028	218,742	0,038	-0,045
-648,014	31,714	-0,041	0,026
-646,999	603,139	-0,038	-0,069
-645,984	13,854	-0,168	0,096
-644,970	800,000	-0,044	-0,119
-643,955	-94,057	0,083	0,016
-642,941	-200,000	0,013	-0,121
-641,926	-153,412	0,146	0,007
-640,911	-46,828	-0,158	0,056
-639,897	276,888	0,057	-0,075
-638,882	288,103	-0,058	0,077
-637,868	800,000	0,042	-0,109
-636,853	-45,023	-0,130	0,047
-635,838	373,940	-0,089	-0,133
-634,824	-200,000	0,012	-0,130
-633,809	-200,000	-0,020	-0,095
-632,795	226,951	0,024	0,029
-631,780	-200,000	0,016	0,087
-630,765	-114,568	-0,011	0,002
-629,751	-1,083	-0,077	-0,040
-628,736	-179,392	-0,098	0,002
-627,722	-5,074	0,061	-0,031
-626,707	120,976	0,050	0,046
-625,692	481,640	0,059	-0,099
-624,678	-71,314	-0,017	0,005
-623,663	8,918	-0,028	0,015
-622,649	295,616	-0,074	-0,100
-621,634	-200,000	-0,013	-0,113
-620,619	212,987	0,064	-0,074
-619,605	280,899	0,035	0,046
-618,590	800,000	0,046	0,147
-617,576	782,566	0,113	0,228
-616,561	372,373	0,033	0,049
-615,546	23,034	-0,169	-0,101
-614,532	800,000	-0,038	-0,095
-613,517	215,781	-0,044	0,051
-612,503	258,125	-0,051	-0,065
-611,488	-200,000	0,019	-0,066
-610,474	476,778	-0,079	0,131
-609,459	800,000	-0,013	0,030
-608,444	-100,594	-0,056	0,010
-607,430	-200,000	-0,027	-0,131
-606,415	-4,347	0,020	-0,010
-605,401	-200,000	0,031	0,104
-604,386	112,355	0,070	0,062
-603,371	800,000	-0,045	-0,127
-602,357	-112,207	-0,052	0,007
-601,342	8,299	-0,133	-0,073
-600,328	33,225	-0,028	-0,018
-599,313	-175,333	0,045	-0,001
-598,298	-70,708	-0,053	0,015
-597,284	800,000	-0,028	0,062
-596,269	504,678	0,006	-0,011
-595,255	-200,000	-0,012	-0,071
-594,240	-200,000	0,014	0,142
-593,225	21,088	0,044	0,026
-592,211	-200,000	-0,001	-0,025
-591,196	-142,670	0,217	-0,015
-590,182	-200,000	-0,005	0,026
-589,167	95,418	-0,019	-0,016
-588,152	-75,439	0,123	0,032
-587,138	306,191	-0,082	-0,112
-586,123	-106,390	0,180	-0,029
-585,109	74,601	-0,074	0,057
-584,094	51,122	-0,148	-0,103
-583,079	800,000	-0,026	-0,065
-582,065	378,519	-0,055	0,083
-581,050	519,659	0,061	0,104
-580,036	263,781	-0,031	-0,040
-579,021	-200,000	0,025	-0,178
-578,006	800,000	-0,045	-0,108
-576,992	167,262	-0,044	-0,046
-575,977	193,350	-0,043	-0,047
-574,963	800,000	0,047	0,127
-573,948	800,000	-0,029	0,064
-572,934	-63,563	0,065	-0,019
-571,919	-200,000	-0,008	0,072
-570,904	158,465	-0,086	-0,088
-569,890	-128,242	0,054	-0,006
-568,875	-10,530	0,010	0,005
-567,861	350,498	-0,034	-0,049
-566,846	-96,571	0,073	0,014
-565,831	-147,268	0,039	0,002
-564,817	18,108	-0,025	0,014
-563,802	552,951	-0,089	-0,157
-562,788	-128,906	0,209	-0,021
-561,773	217,811	-0,049	0,057
-560,758	558,104	-0,060	-0,105
-559,744	-12,370	-0,111	-0,053
-558,729	8,054	-0,104	-0,057
-557,715	278,166	-0,122	-0,159
-556,700	800,000	0,039	-0,115
-555,685	204,225	-0,127	-0,143
-554,671	-39,637	-0,126	-0,048
-553,656	30,334	0,048	0,030
-552,642	16,025	0,049	-0,028
-551,627	800,000	0,086	-0,206
-550,612	42,035	-0,013	-0,009
-549,598	-200,000	-0,005	-0,017
-548,583	-34,974	-0,081	0,032
-547,569	-142,004	-0,124	0,009
-546,554	-102,130	0,083	0,014
-545,539	431,384	0,095	-0,150
-544,525	793,056	-0,064	-0,129
-543,510	-166,556	0,052	0,002
-542,496	555,518	-0,065	-0,115
-541,481	-200,000	0,014	-0,050
-540,466	664,321	0,019	0,035
-539,452	-106,147	0,215	0,035
-538,437	19,516	0,071	-0,042
-537,423	-84,314	-0,045	-0,010
-536,408	-30,072	0,148	-0,061
-535,393	800,000	0,018	0,045
-534,379	102,923	-0,021	0,018
-533,364	-200,000	-0,022	0,108
-532,350	191,889	0,047	-0,052
-531,335	-130,519	0,096	0,009
-530,321	-200,000	0,010	-0,086
-529,306	205,029	0,068	-0,077
-528,291	39,333	-0,112	-0,073
-527,277	126,589	-0,110	-0,102
-526,262	137,514	-0,073	0,070
-525,248	-200,000	-0,008	0,132
-524,233	414,731	-0,056	0,087
-523,218	-200,000	0,016	0,161
-522,204	-28,767	0,138	0,058
-521,189	-0,057	-0,079	-0,041
-520,175	800,000	0,064	0,159
-519,160	-64,808	0,062	-0,018
-518,145	12,812	-0,118	0,066
-517,131	14,789	0,079	0,045
-516,116	800,000	-0,054	0,125
-515,102	-200,000	0,010	0,045
-514,087	165,760	-0,063	-0,065
-513,072	388,038	0,080	-0,121
-512,058	-176,140	-0,197	-0,004
-511,043	-110,683	0,055	0,008
-510,029	106,048	0,093	-0,080
-509,014	-200,000	-0,007	-0,064
-507,999	-90,304	0,070	0,015
-506,985	-200,000	0,035	0,133
-505,970	800,000	-0,039	-0,104
-504,956	800,000	0,036	0,074
-503,941	-200,000	-0,013	-0,106
-502,926	-114,967	0,027	0,004
-501,912	800,000	-0,042	0,099
-500,897	-66,380	-0,050	-0,014
-499,883	102,742	0,059	0,050
-498,868	-200,000	0,006	-0,112
-497,853	800,000	-0,023	0,073
-496,839	64,185	0,175	0,128
-495,824	596,109	-0,033	-0,060
-494,810	-80,911	0,071	-0,017
-493,795	-16,727	0,053	0,024
-492,781	54,406	-0,102	0,071
-491,766	93,500	-0,169	0,139
-490,751	164,332	0,090	-0,093
-489,737	-200,000	-0,007	0,044
-488,722	800,000	-0,062	0,135
-487,708	212,666	-0,053	0,061
-486,693	-148,287	0,135	-0,008
-485,678	127,027	0,016	0,014
-484,664	-200,000	0,000	-0,046
-483,649	-200,000	-0,002	-0,102
-482,635	-134,712	-0,207	-0,018
-481,620	800,000	-0,030	0,087
-480,605	800,000	0,023	-0,063
-479,591	-52,319	0,138	0,046
-478,576	-41,630	0,149	0,055
-477,562	232,842	-0,070	0,084
-476,547	290,183	0,051	-0,068
-475,532	-18,539	-0,133	0,060
-474,518	-200,000	0,011	0,174
-473,503	159,180	0,025	0,025
-472,489	245,731	0,043	-0,052
-471,474	800,000	0,026	0,083
-470,459	-200,000	-0,006	-0,217
-469,445	797,662	0,038	-0,076
-468,430	-200,000	-0,013	0,082
-467,416	625,563	0,105	-0,193
-466,401	-90,671	-0,095	-0,020
-465,386	-200,000	-0,017	-0,087
-464,372	41,798	-0,144	0,095
-463,357	800,000	0,022	-0,048
-462,343	-200,000	-0,027	-0,198
-461,328	-168,936	-0,134	-0,004
-460,313	418,578	0,068	0,106
-459,299	-9,124	-0,042	0,020
-458,284	-200,000	0,010	0,038
-457,270	-200,000	-0,010	0,164
-456,255	762,540	-0,060	-0,120
-455,241	-176,316	0,063	0,001
-454,226	341,505	0,042	0,059
-453,211	420,236	-0,018	-0,028
-452,197	93,888	-0,004	-0,003
-451,182	-200,000	0,018	0,090
-450,168	-200,000	-0,000	-0,043
-449,153	232,764	0,080	0,096
-448,138	118,077	-0,123	0,110
-447,124	581,637	-0,021	0,038
-446,109	800,000	-0,021	-0,045
-445,095	800,000	0,003	0,006
-444,080	-200,000	-0,028	0,100
-443,065	71,214	-0,033	-0,025
-442,051	-124,035	-0,208	0,023
-441,036	-37,772	0,079	-0,030
-440,022	-56,331	-0,107	-0,034
-439,007	34,651	-0,045	-0,029
-437,992	-148,361	-0,062	-0,004
-436,978	-200,000	-0,034	0,128
-435,963	187,202	0,069	0,075
-434,949	-90,497	-0,064	0,013
-433,934	-200,000	-0,011	-0,064
-432,919	139,771	-0,033	-0,032
-431,905	202,417	0,078	0,087
-430,890	-76,260	0,143	0,036
-429,876	397,731	0,057	0,086
-428,861	254,052	-0,099	0,123
-427,846	800,000	-0,081	0,176
-426,832	-102,871	0,109	-0,019
-425,817	-200,000	-0,004	0,017
-424,803	360,997	0,063	-0,093
-423,788	368,746	0,039	-0,057
-422,773	-128,021	-0,044	0,005
-421,759	-200,000	0,023	0,161
-420,744	-31,800	0,113	0,046
-419,730	-87,664	-0,060	-0,013
-418,715	-200,000	0,005	-0,096
-417,701	-64,940	0,084	-0,024
-416,686	208,377	-0,018	-0,021
-415,671	478,310	0,086	0,143
-414,657	264,836	-0,065	0,082
-413,642	271,451	-0,045	0,057
-412,628	-98,678	-0,106	0,019
-411,613	-68,367	-0,042	-0,012
-410,598	-200,000	0,026	-0,085
-409,584	370,575	0,078	0,115
-408,569	-200,000	0,058	0,234
-407,555	526,214	0,024	-0,042
-406,540	800,000	-0,044	-0,118
-405,525	-51,369	0,104	-0,035
-404,511	800,000	0,092	-0,202
-403,496	500,112	0,043	-0,072
-402,482	-200,000	-0,013	0,167
-401,467	168,145	0,054	-0,056
-400,452	21,221	0,135	-0,080
-399,438	309,620	0,001	0,001
-398,423	-96,521	-0,107	0,020
-397,409	325,543	-0,078	-0,109
-396,394	-200,000	-0,010	-0,140
-395,379	221,180	0,071	-0,083
-394,365	63,100	-0,050	0,036
-393,350	132,799	0,077	0,072
-392,336	176,957	0,035	-0,037
-391,321	408,094	-0,109	0,168
-390,306	-0,673	0,083	0,043
-389,292	-100,424	-0,057	0,010
-388,277	325,177	0,036	0,051
-387,263	85,525	0,045	-0,035
-386,248	-117,029	0,073	-0,010
-385,233	-200,000	0,000	0,154
-384,219	-26,183	0,084	-0,036
-383,204	326,084	-0,058	-0,081
-382,190	171,059	-0,072	0,075
-381,175	75,141	0,040	0,030
-380,160	-200,000	-0,005	-0,044
-379,146	-200,000	-0,039	-0,134
-378,131	-200,000	0,005	0,066
-377,117	-85,225	-0,044	0,010
-376,102	323,409	-0,062	0,085
-375,088	-200,000	0,011	-0,090
-374,073	38,381	0,015	-0,010
-373,058	322,966	0,019	0,026
-372,044	27,307	0,002	0,001
-371,029	-79,916	-0,102	0,025
-370,015	183,525	0,043	0,046
-369,000	-200,000	-0,011	-0,121
-367,985	229,551	0,103	-0,122
-366,971	110,062	0,055	-0,048
-365,956	-65,472	0,198	0,057
-364,942	-40,363	0,108	-0,040
-363,927	172,651	-0,040	0,042
-362,912	-200,000	-0,017	0,069
-361,898	-48,142	-0,176	0,061
-360,883	-153,297	0,114	0,006
-359,869	800,000	0,044	-0,129
-358,854	-124,618	0,180	-0,020
-357,839	299,856	-0,080	0,107
-356,825	-200,000	0,006	0,056
-355,810	-169,308	0,116	-0,003
-354,796	-200,000	0,032	-0,117
-353,781	334,788	-0,108	-0,152
-352,766	31,538	0,119	0,074
-351,752	77,063	0,069	0,053
-350,737	-200,000	0,003	0,034
-349,723	800,000	-0,060	0,153
-348,708	-200,000	-0,069	0,233
-347,693	181,551	-0,053	-0,057
-346,679	154,642	0,133	0,133
-345,664	-97,596	0,104	-0,019
-344,650	-12,450	-0,045	0,021
-343,635	634,908	0,042	0,077
-342,620	5,696	0,057	-0,030
-341,606	163,666	0,040	-0,041
-340,591	6,427	-0,134	-0,072
-339,577	-27,258	0,097	0,041
-338,562	-89,481	0,112	-0,024
-337,548	287,586	-0,016	-0,021
-336,533	-200,000	0,011	-0,065
-335,518	-125,352	0,106	0,012
-334,504	-200,000	-0,033	0,187
-333,489	102,948	-0,067	0,057
-332,475	28,526	-0,155	-0,095
-331,460	-8,102	0,090	0,044
-330,445	-76,453	-0,196	0,050
-329,431	93,799	-0,046	0,038
-328,416	800,000	0,055	0,131
-327,402	-200,000	-0,045	0,183
-326,387	800,000	-0,057	-0,125
-325,372	92,878	-0,071	-0,058
-324,358	367,575	-0,057	-0,084
-323,343	-123,882	0,032	0,004
-322,329	-158,969	-0,095	0,004
-321,314	800,000	-0,002	-0,004
-320,299	572,205	-0,047	-0,082
-319,285	-200,000	0,012	0,082
-318,270	306,155	-0,045	0,061
-317,256	44,300	0,070	0,046
-316,241	-200,000	0,008	-0,075
-315,226	-85,822	0,052	0,012
-314,212	13,493	0,133	0,074
-313,197	-200,000	0,005	0,017
-312,183	-200,000	-0,035	0,189
-311,168	98,249	-0,082	-0,068
-310,153	365,883	-0,093	-0,136
-309,139	-132,782	0,056	-0,005
-308,124	101,335	-0,079	0,066
-307,110	47,297	0,142	-0,095
-306,095	-77,660	-0,034	0,008
-305,080	-150,357	-0,116	0,006
-304,066	-90,865	0,074	0,015
-303,051	219,812	0,036	0,042
-302,037	139,301	-0,080	-0,076
-301,022	198,388	-0,053	-0,059
-300,008	-27,531	0,118	0,049
-298,993	126,370	0,207	0,190
-297,978	-200,000	-0,018	0,091
-296,964	40,475	0,077	0,050
-295,949	-200,000	-0,044	-0,165
-294,935	219,563	0,028	-0,033
-293,920	9,315	0,116	-0,063
-292,905	800,000	0,019	0,043
-291,891	139,576	-0,054	0,052
-290,876	419,681	0,110	-0,171
-289,862	-110,265	0,061	-0,009
-288,847	800,000	-0,016	0,045
-287,832	-122,438	0,084	-0,010
-286,818	-96,861	-0,168	0,032
-285,803	137,474	0,137	0,129
-284,789	16,314	0,083	0,047
-283,774	-73,567	-0,065	0,017
-282,759	-6,716	-0,025	0,012
-281,745	131,312	-0,011	0,010
-280,730	-200,000	0,000	-0,152
-279,716	-40,026	-0,022	0,008
-278,701	800,000	-0,013	-0,033
-277,686	-200,000	0,002	-0,116
-276,672	59,596	0,075	-0,054
-275,657	632,970	0,032	-0,058
-274,643	317,251	-0,076	-0,104
-273,628	-11,099	-0,125	0,059
-272,613	-5,912	-0,165	-0,081
-271,599	590,843	0,036	0,065
-270,584	-131,256	0,095	-0,009
-269,570	205,550	-0,032	0,036
-268,555	-56,612	-0,150	0,048
-267,540	302,168	0,056	0,075
-266,526	677,573	-0,074	-0,140
-265,511	367,987	-0,066	-0,097
-264,497	-200,000	-0,033	0,124
-263,482	71,755	0,170	-0,128
-262,467	-102,382	-0,025	0,004
-261,453	346,125	-0,060	0,086
-260,438	88,424	0,059	-0,047
-259,424	800,000	0,059	-0,133
-258,409	-200,000	-0,005	0,104
-257,395	378,311	0,061	0,090
-256,380	776,563	-0,043	0,086
-255,365	180,775	0,011	-0,011
-254,351	-7,858	-0,037	-0,018
-253,336	404,546	-0,055	-0,084
-252,322	543,048	0,026	-0,045
-251,307	-200,000	0,031	-0,111
-250,292	228,775	0,052	0,061
-249,278	-68,834	0,041	0,011
-248,263	-74,892	-0,124	-0,032
-247,249	504,298	0,055	-0,092
-246,234	246,397	0,023	-0,029
-245,219	64,483	0,068	0,049
-244,205	800,000	0,037	-0,079
-243,190	800,000	-0,029	0,077
-242,176	70,491	-0,065	0,048
-241,161	-162,909	0,054	0,002
-240,146	-5,340	0,054	0,027
-239,132	-140,105	-0,092	-0,007
-238,117	-115,284	0,050	0,007
-237,103	210,161	0,019	0,022
-236,088	-200,000	-0,009	-0,033
-235,073	-200,000	0,028	-0,099
-234,059	-145,370	-0,126	0,008
-233,044	-130,176	0,104	-0,010
-232,030	-71,109	-0,106	0,028
-231,015	530,598	-0,033	0,056
-230,000	-200,000	-0,027	0,167
-228,986	721,928	0,025	-0,048
-227,971	-181,304	0,095	-0,001
-226,957	673,882	-0,059	-0,111
-225,942	-111,177	0,052	-0,008
-224,927	183,985	-0,078	-0,083
-223,913	119,618	0,026	0,023
-222,898	438,837	0,046	-0,072
-221,884	-66,807	0,074	0,021
-220,869	432,999	-0,047	-0,074
-219,855	146,773	0,074	0,072
-218,840	633,940	0,020	0,037
-217,825	-200,000	-0,016	-0,089
-216,811	-94,752	-0,009	0,002
-215,796	-24,881	-0,155	-0,066
-214,782	-30,422	0,067	0,027
-213,767	41,357	0,034	-0,022
-212,752	-200,000	-0,001	0,070
-211,738	-200,000	0,040	-0,168
-210,723	196,834	0,078	0,085
-209,709	340,137	-0,068	-0,096
-208,694	-161,097	-0,119	-0,004
-207,679	800,000	0,021	-0,048
-206,665	245,482	-0,084	-0,102
-205,650	-200,000	-0,003	0,066
-204,636	-39,650	0,038	0,014
-203,621	-159,069	0,171	-0,007
-202,606	-138,599	-0,018	-0,001
-201,592	-200,000	-0,001	0,010
-200,577	-200,000	0,008	-0,040
-199,563	28,471	-0,049	0,030
-198,548	-200,000	-0,040	0,167
-197,533	627,193	-0,027	-0,049
-196,519	800,000	0,031	0,090
-195,504	800,000	0,048	-0,119
-194,490	467,455	-0,040	-0,065
-193,475	-9,422	-0,096	0,046
-192,460	762,717	-0,015	-0,030
-191,446	-81,122	-0,079	-0,019
-190,431	-135,175	0,155	-0,013
-189,417	-200,000	-0,020	0,091
-188,402	26,321	0,098	0,059
-187,387	-61,598	0,035	0,011
-186,373	-93,295	-0,169	-0,034
-185,358	-48,982	0,018	-0,006
-184,344	-116,430	0,072	-0,009
-183,329	-200,000	0,006	0,087
-182,315	120,116	0,042	0,037
-181,300	-200,000	-0,009	0,092
-180,285	-45,903	-0,093	-0,033
-179,271	-38,015	-0,081	0,031
-178,256	-200,000	0,007	0,043
-177,242	194,851	0,054	-0,059
-176,227	-200,000	-0,023	0,154
-175,212	170,785	-0,019	0,019
-174,198	800,000	-0,033	0,075
-173,183	-200,000	-0,008	0,075
-172,169	-200,000	0,012	0,119
-171,154	800,000	0,033	0,103
-170,139	800,000	0,086	-0,182
-169,125	-200,000	0,043	0,161
-168,110	-200,000	-0,027	-0,089
-167,096	-200,000	-0,001	0,017
-166,081	215,814	-0,041	0,047
-165,066	139,993	-0,048	-0,046
-164,052	-200,000	-0,036	0,146
-163,037	-56,935	-0,072	-0,023
-162,023	-6,480	0,060	0,029
-161,008	-200,000	-0,006	0,031
-159,993	-137,761	0,163	0,013
-158,979	-50,140	-0,162	-0,055
-157,964	-200,000	0,007	-0,110
-156,950	800,000	0,073	-0,149
-155,935	-3,093	-0,074	-0,037
-154,920	-165,139	0,049	-0,002
-153,906	800,000	0,020	0,051
-152,891	800,000	-0,037	0,098
-151,877	234,906	-0,055	-0,066
-150,862	166,468	-0,005	-0,005
-149,847	101,524	0,017	-0,014
-148,833	-200,000	-0,010	0,062
-147,818	328,631	0,084	0,117
-146,804	-93,539	-0,117	-0,023
-145,789	800,000	-0,027	0,084
-144,775	67,734	-0,111	-0,081
-143,760	397,210	-0,067	0,101
-142,745	-200,000	0,003	-0,066
-141,731	-157,396	0,080	0,003
-140,716	800,000	-0,018	-0,045
-139,702	-11,814	0,022	-0,010
-138,687	270,511	-0,024	-0,030
-137,672	-59,857	-0,157	-0,048
-136,658	-46,987	0,085	-0,030
-135,643	282,220	-0,023	-0,029
-134,629	-200,000	-0,007	0,080
-133,614	800,000	0,067	0,140
-132,599	-104,287	0,127	0,021
-131,585	800,000	0,012	0,030
-130,570	-200,000	0,006	-0,031
-129,556	800,000	0,025	-0,053
-128,541	174,720	-0,174	-0,181
-127,526	190,716	0,053	0,057
-126,512	105,968	0,106	0,090
-125,497	32,533	0,041	-0,025
-124,483	209,412	0,046	0,052
-123,468	-200,000	0,023	0,083
-122,453	147,590	0,054	0,052
-121,439	-47,597	-0,166	0,058
-120,424	147,900	0,023	-0,022
