DTS Sentinel unit serial number:	SN410029Multiplexer serial number:	ORYXHardware model number:	OX2-SRSoftware version number:	ORYX F/W v4,00 Oryx Data Collector v3.7.2.0data status	okinstallation	B6 Nyhavnadifferential loss correction	single-endedforward channel	channel 2reverse channel	N/Adate	2023/12/09time	16:15:08forward acquisition time	300,00reverse acquisition time	0,00gamma	499,1914k internal	0,3132k external	0,3132temperature offset calibration	1,0000default loss term (dB/km)	0,3820temperature slope calibration	1,0000multiplexer offset coefficient	1,0000multiplexer slope coefficient	1,0000fibre end	0,00T internal ref (°C)	20,82T ext. ref 1 (°C)	4,68T ext. ref 2 (°C)	4,68length (m)	temperature (°C)	Stokes	anti-Stokes-744,400	110,937	0,020	0,018
-743,385	-107,123	-0,276	-0,045
-742,371	800,000	0,027	0,070
-741,356	140,864	-0,100	0,099
-740,342	-8,809	0,001	0,001
-739,327	-54,941	-0,342	0,114
-738,312	-137,094	0,037	0,003
-737,298	-124,125	-0,212	0,024
-736,283	-200,000	-0,016	0,069
-735,269	74,895	-0,219	0,171
-734,254	139,295	0,123	0,121
-733,239	-150,397	-0,444	-0,025
-732,225	-106,477	0,136	-0,022
-731,210	583,036	0,040	0,073
-730,196	-200,000	-0,025	0,096
-729,181	131,958	0,050	-0,048
-728,167	65,428	0,115	-0,087
-727,152	41,545	-0,064	-0,043
-726,137	-200,000	-0,034	-0,143
-725,123	-110,690	-0,124	-0,019
-724,108	-152,105	-0,171	0,009
-723,094	800,000	-0,031	-0,080
-722,079	-119,348	-0,122	0,016
-721,064	-200,000	0,010	0,141
-720,050	-200,000	0,016	-0,065
-719,035	156,167	-0,070	-0,071
-718,021	-200,000	-0,011	-0,113
-717,006	-200,000	0,011	0,073
-715,991	-46,732	0,022	-0,008
-714,977	-200,000	-0,025	-0,104
-713,962	64,532	-0,070	0,052
-712,948	-200,000	-0,037	0,220
-711,933	-200,000	0,036	0,157
-710,918	76,976	0,141	0,111
-709,904	34,059	-0,078	0,050
-708,889	-200,000	0,024	-0,099
-707,875	1,958	0,039	-0,021
-706,860	-49,597	0,025	0,009
-705,845	462,317	0,014	-0,024
-704,831	-200,000	0,006	0,122
-703,816	-87,860	-0,030	0,007
-702,802	60,066	-0,167	-0,122
-701,787	232,955	-0,152	-0,185
-700,772	800,000	-0,052	0,133
-699,758	398,201	-0,073	0,114
-698,743	-92,900	-0,105	-0,022
-697,729	38,888	0,174	-0,115
-696,714	-61,700	0,050	0,015
-695,699	800,000	0,043	-0,110
-694,685	-126,443	-0,118	-0,013
-693,670	-116,956	-0,104	-0,014
-692,656	-103,215	0,095	0,016
-691,641	353,118	-0,027	0,040
-690,627	-200,000	0,084	0,000
-689,612	-200,000	0,007	0,096
-688,597	-2,951	-0,054	-0,028
-687,583	140,575	0,108	0,106
-686,568	800,000	0,025	0,058
-685,554	800,000	-0,018	0,038
-684,539	-115,669	0,037	0,005
-683,524	800,000	-0,037	0,096
-682,510	-12,045	-0,162	0,078
-681,495	-86,118	0,067	-0,015
-680,481	800,000	0,031	-0,066
-679,466	-200,000	-0,007	-0,039
-678,451	120,510	-0,009	-0,009
-677,437	-72,679	0,068	0,018
-676,422	-200,000	0,006	-0,200
-675,408	800,000	0,012	-0,025
-674,393	-200,000	0,066	0,268
-673,378	-67,695	-0,082	-0,024
-672,364	-200,000	0,010	-0,051
-671,349	89,203	0,105	-0,087
-670,335	-200,000	0,016	-0,098
-669,320	800,000	0,024	-0,068
-668,305	344,426	0,016	0,024
-667,291	-200,000	-0,003	-0,058
-666,276	-200,000	-0,014	-0,116
-665,262	-74,295	-0,050	-0,013
-664,247	-80,487	0,141	-0,035
-663,232	800,000	0,030	-0,069
-662,218	57,372	0,057	0,041
-661,203	311,874	-0,074	0,103
-660,189	-79,891	0,118	0,029
-659,174	103,396	-0,045	-0,039
-658,159	-200,000	0,016	-0,081
-657,145	-68,643	-0,134	0,038
-656,130	28,849	0,113	-0,071
-655,116	800,000	0,040	0,121
-654,101	12,409	-0,031	-0,017
-653,086	-200,000	-0,009	0,103
-652,072	800,000	-0,019	-0,050
-651,057	195,426	0,044	-0,050
-650,043	-200,000	0,012	-0,064
-649,028	-200,000	-0,054	0,196
-648,014	251,083	0,097	0,123
-646,999	800,000	0,012	-0,030
-645,984	-156,236	0,097	0,004
-644,970	-200,000	-0,023	0,135
-643,955	-32,175	0,024	0,010
-642,941	-114,699	0,059	0,008
-641,926	33,310	-0,173	0,111
-640,911	-99,658	-0,028	-0,005
-639,897	800,000	-0,057	0,179
-638,882	800,000	-0,034	-0,082
-637,868	42,175	0,109	-0,073
-636,853	52,074	0,092	-0,064
-635,838	-36,416	-0,061	0,024
-634,824	121,296	-0,080	-0,074
-633,809	794,365	0,024	0,049
-632,795	-62,635	0,040	-0,012
-631,780	-200,000	-0,002	-0,025
-630,765	-200,000	-0,033	-0,112
-629,751	800,000	-0,050	-0,155
-628,736	-53,584	-0,051	0,017
-627,722	-200,000	-0,011	0,078
-626,707	-200,000	0,003	0,141
-625,692	127,801	0,079	-0,074
-624,678	114,892	-0,070	-0,063
-623,663	-17,073	0,093	0,043
-622,649	17,242	-0,096	0,056
-621,634	-200,000	-0,001	-0,078
-620,619	-87,478	0,102	-0,023
-619,605	-200,000	-0,009	0,029
-618,590	679,823	-0,037	0,072
-617,576	601,147	-0,005	0,010
-616,561	800,000	-0,017	-0,037
-615,546	-51,185	-0,080	0,028
-614,532	-200,000	0,002	-0,028
-613,517	702,015	-0,037	0,073
-612,503	290,468	-0,095	-0,128
-611,488	-64,330	-0,136	-0,041
-610,474	-2,781	0,141	0,072
-609,459	-200,000	0,018	-0,115
-608,444	-78,909	0,072	-0,018
-607,430	-37,211	0,056	0,022
-606,415	-167,799	0,101	0,003
-605,401	125,668	0,083	-0,078
-604,386	133,803	-0,128	0,122
-603,371	374,712	0,097	0,147
-602,357	-48,662	0,189	0,067
-601,342	800,000	-0,046	0,104
-600,328	-109,951	-0,084	0,013
-599,313	800,000	-0,012	-0,037
-598,298	-132,676	-0,150	-0,014
-597,284	649,410	0,056	-0,107
-596,269	14,746	0,085	-0,049
-595,255	22,168	0,035	0,021
-594,240	269,118	0,090	0,117
-593,225	133,895	-0,078	-0,074
-592,211	-24,033	-0,176	-0,077
-591,196	-101,576	-0,025	0,005
-590,182	-200,000	0,054	0,237
-589,167	-162,282	0,269	-0,010
-588,152	-138,754	-0,035	0,003
-587,138	82,351	-0,019	-0,016
-586,123	-200,000	-0,013	-0,099
-585,109	77,063	0,049	-0,038
-584,094	96,562	0,049	-0,041
-583,079	70,045	0,036	-0,028
-582,065	515,427	0,061	-0,106
-581,050	62,925	0,086	0,064
-580,036	-200,000	-0,030	-0,098
-579,021	125,923	0,074	0,069
-578,006	-200,000	0,013	-0,068
-576,992	415,226	-0,031	0,049
-575,977	-200,000	-0,013	-0,080
-574,963	-87,771	0,095	-0,021
-573,948	-200,000	0,021	-0,075
-572,934	94,603	-0,048	-0,040
-571,919	541,620	-0,082	-0,145
-570,904	800,000	-0,043	-0,093
-569,890	-13,156	-0,029	-0,014
-568,875	-64,043	-0,049	0,015
-567,861	231,457	-0,072	-0,087
-566,846	220,272	-0,044	0,053
-565,831	800,000	0,063	0,140
-564,817	-65,199	-0,124	0,037
-563,802	75,665	0,093	-0,072
-562,788	-200,000	-0,010	0,037
-561,773	109,847	-0,096	-0,085
-560,758	755,078	0,033	-0,066
-559,744	-90,423	0,099	0,021
-558,729	126,173	0,077	0,072
-557,715	800,000	-0,013	-0,029
-556,700	450,129	0,042	-0,068
-555,685	44,089	-0,033	0,023
-554,671	-200,000	0,002	0,047
-553,656	-200,000	0,032	0,109
-552,642	800,000	-0,020	0,054
-551,627	262,820	0,084	-0,108
-550,612	702,912	0,056	-0,110
-549,598	-84,038	-0,174	-0,041
-548,583	51,593	0,116	-0,082
-547,569	-200,000	-0,035	-0,157
-546,554	-200,000	0,004	-0,016
-545,539	800,000	0,036	0,100
-544,525	201,413	0,076	-0,087
-543,510	-187,702	-0,047	-0,000
-542,496	-36,660	-0,163	-0,064
-541,481	248,728	0,097	-0,121
-540,466	31,408	0,033	-0,021
-539,452	482,356	0,013	0,022
-538,437	5,292	0,088	0,048
-537,423	-200,000	0,006	0,000
-536,408	509,845	-0,049	0,085
-535,393	800,000	0,023	-0,050
-534,379	-117,665	-0,081	0,011
-533,364	-200,000	-0,019	0,070
-532,350	-200,000	-0,002	0,057
-531,335	-180,810	-0,051	0,001
-530,321	93,144	0,046	-0,038
-529,306	-77,002	0,113	-0,029
-528,291	-175,097	0,070	0,001
-527,277	71,171	0,089	0,068
-526,262	-200,000	-0,007	0,068
-525,248	418,410	-0,071	0,112
-524,233	-176,110	0,045	0,001
-523,218	-200,000	0,006	0,222
-522,204	-200,000	-0,006	0,066
-521,189	-200,000	0,000	0,086
-520,175	-58,427	0,102	-0,033
-519,160	60,631	-0,070	-0,051
-518,145	23,269	0,087	-0,052
-517,131	800,000	0,022	-0,050
-516,116	800,000	-0,037	0,100
-515,102	-49,291	-0,149	-0,052
-514,087	8,873	0,045	0,025
-513,072	-200,000	0,025	0,088
-512,058	58,475	0,035	0,026
-511,043	6,680	0,018	-0,010
-510,029	189,342	0,019	0,021
-509,014	-197,601	0,151	-0,001
-507,999	29,434	-0,089	0,056
-506,985	-200,000	0,036	0,146
-505,970	535,901	0,023	-0,040
-504,956	-187,560	-0,100	0,001
-503,941	800,000	-0,027	0,080
-502,926	506,433	0,041	0,070
-501,912	1,334	0,125	0,066
-500,897	78,352	0,012	0,009
-499,883	-72,662	-0,167	0,045
-498,868	-155,194	-0,041	0,002
-497,853	286,468	0,057	-0,076
-496,839	-126,009	-0,142	0,016
-495,824	721,217	-0,025	-0,050
-494,810	270,382	0,103	0,134
-493,795	-144,605	0,184	0,012
-492,781	-200,000	-0,008	-0,068
-491,766	-30,833	-0,119	-0,049
-490,751	-200,000	-0,017	0,114
-489,737	-200,000	-0,006	-0,086
-488,722	174,934	0,069	-0,073
-487,708	644,754	-0,018	0,034
-486,693	51,464	-0,112	0,078
-485,678	57,678	-0,051	-0,037
-484,664	-200,000	0,047	-0,204
-483,649	80,097	0,045	-0,036
-482,635	-164,054	0,013	-0,000
-481,620	376,892	0,053	0,080
-480,605	-200,000	-0,024	-0,107
-479,591	142,291	0,066	-0,065
-478,576	-0,099	-0,094	0,049
-477,562	144,058	0,073	0,071
-476,547	-70,707	0,146	-0,040
-475,532	-111,171	0,086	0,013
-474,518	529,552	0,059	0,104
-473,503	-200,000	-0,007	-0,083
-472,489	401,724	-0,069	-0,106
-471,474	41,472	0,076	0,051
-470,459	-200,000	0,007	-0,160
-469,445	-200,000	-0,002	-0,041
-468,430	104,816	-0,016	0,014
-467,416	-200,000	-0,016	0,084
-466,401	-103,942	0,061	-0,010
-465,386	468,941	-0,037	-0,061
-464,372	42,612	0,047	0,032
-463,357	51,042	-0,040	-0,028
-462,343	350,124	-0,036	-0,052
-461,328	-167,817	-0,068	0,002
-460,313	-98,927	-0,082	-0,015
-459,299	80,465	-0,105	-0,083
-458,284	442,102	-0,085	-0,137
-457,270	-200,000	-0,027	-0,098
-456,255	-200,000	0,001	-0,080
-455,241	-48,526	-0,130	-0,046
-454,226	-13,652	0,075	0,036
-453,211	-200,000	-0,015	-0,083
-452,197	143,590	0,100	0,098
-451,182	800,000	-0,014	-0,044
-450,168	-200,000	0,014	0,078
-449,153	-173,616	-0,045	-0,001
-448,138	-200,000	-0,006	-0,030
-447,124	532,733	-0,064	-0,111
-446,109	-15,617	0,067	0,031
-445,095	8,919	0,036	-0,020
-444,080	134,153	0,077	0,073
-443,065	-167,355	0,045	0,001
-442,051	12,175	-0,095	-0,053
-441,036	403,316	0,023	-0,036
-440,022	-103,130	-0,102	0,017
-439,007	-82,379	-0,010	0,002
-437,992	800,000	-0,104	-0,235
-436,978	243,077	0,056	0,070
-435,963	6,027	0,021	0,012
-434,949	257,736	-0,054	-0,069
-433,934	29,168	0,028	0,018
-432,919	-46,015	-0,042	0,015
-431,905	-28,755	0,112	-0,047
-430,890	-17,638	-0,057	-0,026
-429,876	800,000	0,048	0,124
-428,861	48,231	0,038	0,026
-427,846	710,085	0,026	0,051
-426,832	24,935	-0,118	-0,072
-425,817	-80,553	0,150	0,036
-424,803	-200,000	-0,031	-0,131
-423,788	249,660	0,063	-0,078
-422,773	800,000	0,053	0,148
-421,759	164,380	0,065	-0,067
-420,744	800,000	0,031	0,098
-419,730	-200,000	0,023	-0,195
-418,715	-103,397	-0,074	0,013
-417,701	71,723	-0,042	-0,032
-416,686	674,785	0,043	0,083
-415,671	88,723	-0,045	0,036
-414,657	800,000	-0,036	0,083
-413,642	116,520	-0,086	0,077
-412,628	-7,319	-0,095	0,047
-411,613	340,734	-0,056	0,081
-410,598	59,513	-0,031	-0,022
-409,584	-76,568	-0,115	0,029
-408,569	-99,410	0,018	-0,003
-407,555	-23,367	-0,059	-0,026
-406,540	800,000	-0,032	-0,075
-405,525	84,105	-0,111	-0,089
-404,511	-32,880	-0,069	0,028
-403,496	-200,000	-0,009	0,044
-402,482	-200,000	0,003	-0,034
-401,467	195,279	0,037	-0,041
-400,452	-136,235	-0,083	-0,007
-399,438	-144,828	-0,114	0,008
-398,423	-148,886	-0,070	-0,004
-397,409	-200,000	-0,001	-0,119
-396,394	566,479	0,038	0,067
-395,379	589,680	0,003	0,005
-394,365	800,000	0,088	0,181
-393,350	-53,428	0,111	-0,037
-392,336	800,000	-0,016	-0,041
-391,321	-120,285	0,074	-0,009
-390,306	-109,388	-0,058	-0,009
-389,292	-200,000	0,050	-0,175
-388,277	223,392	-0,065	-0,077
-387,263	197,239	-0,054	-0,060
-386,248	56,806	0,028	0,020
-385,233	-13,556	-0,065	0,031
-384,219	160,164	0,066	-0,067
-383,204	48,801	-0,083	0,057
-382,190	-135,853	-0,072	-0,006
-381,175	-200,000	0,021	0,102
-380,160	-117,377	0,044	0,006
-379,146	-33,085	-0,023	0,009
-378,131	28,504	0,102	-0,063
-377,117	105,257	-0,087	-0,075
-376,102	-123,696	-0,067	-0,008
-375,088	-144,359	-0,098	0,007
-374,073	-143,554	0,024	-0,002
-373,058	-200,000	-0,010	0,062
-372,044	-39,820	0,081	0,031
-371,029	-200,000	-0,006	0,042
-370,015	800,000	-0,064	0,178
-369,000	-102,922	-0,096	0,017
-367,985	74,202	0,099	-0,076
-366,971	78,677	-0,013	0,010
-365,956	-132,091	0,060	-0,006
-364,942	-84,766	-0,039	0,009
-363,927	800,000	0,019	0,055
-362,912	-200,000	0,028	0,121
-361,898	554,494	-0,080	0,142
-360,883	800,000	-0,018	0,055
-359,869	-148,447	0,051	0,003
-358,854	800,000	0,008	-0,020
-357,839	145,957	0,094	-0,092
-356,825	180,501	-0,034	0,036
-355,810	-67,262	-0,031	0,009
-354,796	-200,000	-0,001	-0,041
-353,781	-116,612	-0,117	0,016
-352,766	-20,755	0,094	0,042
-351,752	-115,593	0,067	0,009
-350,737	-5,611	0,103	-0,052
-349,723	-150,379	-0,074	-0,004
-348,708	158,675	0,050	0,051
-347,693	70,630	-0,125	0,094
-346,679	487,177	-0,032	-0,054
-345,664	-200,000	0,020	-0,134
-344,650	-25,114	0,086	0,037
-343,635	458,565	-0,046	0,075
-342,620	-58,051	0,156	-0,049
-341,606	800,000	0,011	0,030
-340,591	-200,000	0,007	-0,052
-339,577	292,444	0,080	-0,108
-338,562	-200,000	-0,041	-0,285
-337,548	-200,000	0,023	-0,133
-336,533	4,703	0,065	0,035
-335,518	-134,568	0,050	-0,004
-334,504	-200,000	-0,002	0,023
-333,489	-200,000	-0,005	0,048
-332,475	-82,943	-0,157	-0,037
-331,460	-88,788	-0,153	-0,033
-330,445	-200,000	-0,012	0,180
-329,431	-149,972	0,073	-0,004
-328,416	15,649	-0,041	0,023
-327,402	800,000	0,032	0,076
-326,387	567,951	0,021	0,038
-325,372	194,783	-0,060	-0,067
-324,358	496,435	-0,030	-0,050
-323,343	16,294	0,082	-0,047
-322,329	92,716	-0,070	-0,058
-321,314	800,000	-0,021	0,057
-320,299	-200,000	-0,019	0,071
-319,285	180,200	-0,083	-0,089
-318,270	800,000	-0,026	0,075
-317,256	800,000	0,043	-0,092
-316,241	-58,339	0,038	0,012
-315,226	114,492	0,110	0,098
-314,212	747,084	-0,038	0,076
-313,197	-200,000	0,006	0,035
-312,183	-200,000	0,016	0,081
-311,168	-200,000	0,021	0,087
-310,153	-8,998	-0,046	0,022
-309,139	731,554	-0,082	-0,160
-308,124	-200,000	0,006	0,099
-307,110	-200,000	-0,017	0,196
-306,095	49,748	0,020	-0,014
-305,080	-65,601	-0,109	-0,032
-304,066	-120,757	-0,013	-0,002
-303,051	-12,840	0,048	-0,023
-302,037	-63,644	0,126	0,037
-301,022	800,000	0,022	-0,050
-300,008	-54,504	0,018	0,006
-298,993	358,904	-0,007	-0,010
-297,978	10,043	0,133	0,074
-296,964	443,459	0,029	-0,047
-295,949	-200,000	0,008	0,048
-294,935	800,000	-0,003	-0,007
-293,920	-117,260	0,116	0,015
-292,905	-9,793	0,074	0,036
-291,891	560,055	-0,039	-0,070
-290,876	-177,390	0,037	0,001
-289,862	-200,000	-0,041	0,145
-288,847	-24,537	-0,056	-0,024
-287,832	84,340	0,038	-0,031
-286,818	800,000	-0,007	0,016
-285,803	-31,068	0,148	-0,061
-284,789	-98,415	0,176	0,033
-283,774	81,841	0,043	-0,034
-282,759	-200,000	0,000	-0,008
-281,745	-200,000	-0,000	-0,036
-280,730	-83,227	-0,129	-0,030
-279,716	103,293	-0,111	-0,095
-278,701	206,332	0,012	0,014
-277,686	-2,225	0,130	-0,066
-276,672	-54,419	0,090	-0,030
-275,657	-200,000	-0,007	0,087
-274,643	-8,937	-0,029	0,014
-273,628	800,000	-0,020	-0,055
-272,613	-69,820	0,107	-0,030
-271,599	-200,000	0,015	0,080
-270,584	-113,032	-0,147	0,021
-269,570	-112,140	-0,054	-0,008
-268,555	-9,577	-0,035	-0,017
-267,540	-200,000	-0,004	-0,016
-266,526	800,000	0,048	-0,148
-265,511	253,933	-0,024	-0,030
-264,497	-200,000	0,017	-0,058
-263,482	-84,480	-0,148	-0,034
-262,467	107,803	0,052	-0,045
-261,453	-89,624	0,031	0,007
-260,438	-95,876	-0,139	-0,027
-259,424	-200,000	-0,006	-0,077
-258,409	-200,000	0,008	-0,206
-257,395	-8,001	-0,079	0,039
-256,380	581,505	-0,034	0,061
-255,365	-200,000	0,011	0,055
-254,351	-63,419	-0,069	-0,021
-253,336	49,158	-0,074	0,051
-252,322	-200,000	0,026	0,118
-251,307	-200,000	-0,023	0,127
-250,292	800,000	-0,016	0,044
-249,278	286,039	0,058	0,076
-248,263	-58,107	0,037	-0,012
-247,249	-200,000	-0,028	-0,141
-246,234	181,962	-0,095	-0,103
-245,219	-200,000	0,001	0,048
-244,205	369,431	0,056	-0,083
-243,190	-200,000	0,009	0,156
-242,176	800,000	-0,056	0,146
-241,161	-105,871	0,078	0,013
-240,146	-86,584	-0,061	-0,014
-239,132	-128,353	0,035	0,004
-238,117	-50,292	0,030	0,010
-237,103	208,442	0,025	-0,029
-236,088	800,000	-0,035	0,076
-235,073	-200,000	0,011	0,105
-234,059	311,222	-0,096	0,132
-233,044	800,000	0,026	-0,070
-232,030	336,517	-0,040	0,057
-231,015	252,427	-0,076	-0,094
-230,000	63,692	-0,033	-0,024
-228,986	1,124	0,022	-0,011
-227,971	-3,764	0,060	0,030
-226,957	211,597	0,025	0,029
-225,942	800,000	0,066	0,160
-224,927	32,972	-0,053	0,034
-223,913	-200,000	-0,008	-0,028
-222,898	-200,000	-0,017	-0,128
-221,884	-200,000	-0,000	0,100
-220,869	352,325	-0,062	0,090
-219,855	120,036	0,086	0,078
-218,840	-27,597	0,088	0,037
-217,825	800,000	-0,045	-0,108
-216,811	-22,215	-0,040	-0,018
-215,796	-200,000	-0,020	-0,067
-214,782	800,000	-0,018	0,047
-213,767	-162,245	0,097	0,003
-212,752	-200,000	-0,001	0,086
-211,738	57,349	-0,062	-0,044
-210,723	800,000	0,029	0,068
-209,709	-200,000	0,011	-0,095
-208,694	-200,000	0,018	-0,076
-207,679	-73,187	-0,128	0,034
-206,665	-13,779	-0,087	-0,041
-205,650	-200,000	-0,021	-0,106
-204,636	-120,000	0,051	0,006
-203,621	763,087	-0,071	0,141
-202,606	60,737	-0,044	-0,032
-201,592	18,955	-0,045	0,026
-200,577	199,314	-0,125	0,140
-199,563	218,539	-0,052	0,061
-198,548	237,862	0,049	-0,059
-197,533	-200,000	0,020	-0,134
-196,519	69,527	0,093	-0,070
-195,504	340,329	-0,029	0,041
-194,490	-127,971	-0,171	0,018
-193,475	-79,378	0,102	0,025
-192,460	-200,000	-0,018	0,072
-191,446	-86,476	-0,021	0,005
-190,431	229,192	0,035	0,041
-189,417	365,176	-0,058	0,085
-188,402	800,000	0,010	-0,028
-187,387	-67,084	0,111	-0,032
-186,373	-130,336	-0,100	-0,010
-185,358	347,498	0,082	-0,117
-184,344	557,164	0,068	-0,119
-183,329	271,563	0,023	0,029
-182,315	679,288	-0,033	-0,063
-181,300	-200,000	-0,013	0,042
-180,285	-133,298	-0,017	0,001
-179,271	800,000	0,066	-0,160
-178,256	7,969	-0,101	-0,055
-177,242	-200,000	-0,006	0,030
-176,227	-200,000	0,009	0,050
-175,212	-52,016	0,038	0,013
-174,198	-30,562	0,074	0,031
-173,183	-34,518	-0,052	0,021
-172,169	-200,000	0,007	-0,154
-171,154	-182,780	-0,067	0,001
-170,139	496,118	0,035	0,059
-169,125	800,000	0,032	0,091
-168,110	-200,000	0,016	0,116
-167,096	236,213	0,081	0,098
-166,081	-200,000	0,019	-0,064
-165,066	29,159	-0,086	-0,053
-164,052	-200,000	0,064	0,210
-163,037	143,926	0,135	0,131
-162,023	306,906	0,014	-0,019
-161,008	259,322	0,039	-0,049
-159,993	-200,000	-0,039	-0,136
-158,979	800,000	-0,031	-0,082
-157,964	-106,752	0,072	-0,012
-156,950	-102,067	-0,115	0,020
-155,935	-173,756	0,149	-0,003
-154,920	800,000	-0,028	-0,062
-153,906	-126,819	0,110	-0,012
-152,891	-74,591	-0,135	0,035
-151,877	47,437	-0,066	-0,045
-150,862	-78,197	-0,050	0,012
-149,847	-139,269	0,085	0,007
-148,833	400,756	0,022	-0,033
-147,818	-100,063	0,113	0,020
-146,804	133,629	-0,052	0,049
-145,789	-149,102	0,073	0,004
-144,775	-47,701	-0,090	-0,032
-143,760	695,869	-0,016	0,031
-142,745	-63,141	0,105	0,031
-141,731	-3,151	0,075	-0,038
-140,716	-87,183	0,021	-0,005
-139,702	296,467	0,040	0,053
-138,687	-98,183	0,106	0,020
-137,672	800,000	-0,032	0,070
-136,658	85,158	0,057	0,046
-135,643	43,396	0,041	0,027
-134,629	-200,000	-0,005	0,090
-133,614	-136,964	0,141	0,012
-132,599	800,000	0,002	0,007
-131,585	-200,000	-0,000	0,102
-130,570	-200,000	0,015	0,086
-129,556	131,532	-0,112	0,105
-128,541	-200,000	0,031	-0,178
-127,526	52,543	0,058	-0,040
-126,512	39,127	0,049	0,032
-125,497	800,000	0,010	0,029
-124,483	-200,000	0,004	0,063
-123,468	100,109	-0,065	0,055
-122,453	204,268	-0,069	-0,077
-121,439	-39,090	0,022	0,008
-120,424	-13,014	0,060	-0,028
-119,410	52,289	0,080	-0,055
