DTS Sentinel unit serial number:	SN410029Multiplexer serial number:	ORYXHardware model number:	OX2-SRSoftware version number:	ORYX F/W v4,00 Oryx Data Collector v3.7.2.0data status	okinstallation	B6 Nyhavnadifferential loss correction	single-endedforward channel	channel 2reverse channel	N/Adate	2023/12/09time	00:25:08forward acquisition time	300,00reverse acquisition time	0,00gamma	499,1914k internal	0,3157k external	0,3157temperature offset calibration	1,0000default loss term (dB/km)	0,3820temperature slope calibration	1,0000multiplexer offset coefficient	1,0000multiplexer slope coefficient	1,0000fibre end	0,00T internal ref (°C)	15,59T ext. ref 1 (°C)	-0,84T ext. ref 2 (°C)	-0,87length (m)	temperature (°C)	Stokes	anti-Stokes-744,400	84,982	0,061	0,050
-743,385	13,046	-0,233	-0,132
-742,371	-163,591	0,141	0,005
-741,356	3,398	-0,259	0,139
-740,342	30,136	0,195	0,122
-739,327	-75,023	-0,337	-0,088
-738,312	49,304	0,149	-0,103
-737,298	-76,771	-0,345	-0,088
-736,283	784,516	0,058	-0,119
-735,269	-52,023	-0,283	0,096
-734,254	-83,820	0,103	0,024
-733,239	-72,285	-0,503	-0,137
-732,225	-8,193	0,114	0,056
-731,210	88,181	-0,100	-0,082
-730,196	-200,000	0,009	-0,029
-729,181	-29,116	-0,173	0,073
-728,167	8,261	0,114	-0,063
-727,152	77,939	0,080	-0,063
-726,137	-55,415	0,055	-0,018
-725,123	170,533	-0,087	-0,092
-724,108	136,337	0,063	-0,061
-723,094	-26,840	-0,094	0,040
-722,079	800,000	0,002	0,006
-721,064	482,376	0,026	-0,044
-720,050	-109,673	-0,066	-0,010
-719,035	-13,266	0,106	-0,051
-718,021	-200,000	-0,036	0,126
-717,006	-200,000	-0,001	-0,192
-715,991	-97,055	-0,044	-0,008
-714,977	157,472	-0,061	0,063
-713,962	-157,367	0,159	-0,007
-712,948	-144,844	-0,072	-0,005
-711,933	-130,219	0,123	0,012
-710,918	350,991	0,034	0,050
-709,904	-164,294	-0,076	-0,003
-708,889	22,193	-0,124	-0,075
-707,875	800,000	-0,017	0,043
-706,860	-114,861	-0,150	0,021
-705,845	513,420	0,026	-0,044
-704,831	-200,000	-0,059	0,213
-703,816	800,000	0,064	-0,134
-702,802	-16,094	-0,107	-0,050
-701,787	800,000	0,033	-0,070
-700,772	-200,000	-0,016	-0,065
-699,758	-164,034	-0,130	-0,004
-698,743	29,031	-0,078	0,048
-697,729	-93,919	0,109	0,022
-696,714	498,224	0,031	-0,052
-695,699	800,000	-0,064	-0,151
-694,685	123,403	-0,100	-0,092
-693,670	-170,200	-0,173	0,004
-692,656	-127,763	-0,167	-0,018
-691,641	128,246	0,135	0,127
-690,627	347,277	0,014	-0,021
-689,612	-200,000	0,018	-0,147
-688,597	-200,000	0,006	-0,087
-687,583	-97,325	-0,067	-0,013
-686,568	-2,882	-0,083	-0,042
-685,554	-200,000	-0,018	-0,138
-684,539	-174,803	-0,040	0,001
-683,524	-11,310	0,063	0,031
-682,510	-165,347	0,131	0,004
-681,495	-200,000	-0,008	0,045
-680,481	800,000	-0,018	0,039
-679,466	109,962	-0,129	-0,114
-678,451	477,209	-0,045	0,076
-677,437	-55,634	0,110	0,036
-676,422	671,070	0,017	0,033
-675,408	-156,658	0,091	0,004
-674,393	309,674	-0,059	-0,081
-673,378	136,549	-0,058	0,056
-672,364	230,362	-0,114	-0,137
-671,349	-200,000	-0,005	-0,143
-670,335	-74,019	-0,095	-0,025
-669,320	-116,428	-0,072	-0,010
-668,305	-70,581	-0,055	-0,015
-667,291	46,614	-0,142	-0,097
-666,276	-78,014	-0,093	-0,023
-665,262	212,973	0,037	-0,044
-664,247	-26,887	-0,142	0,061
-663,232	-70,236	-0,025	-0,007
-662,218	109,064	0,140	0,123
-661,203	298,618	-0,083	0,113
-660,189	-200,000	-0,077	0,000
-659,174	143,922	-0,050	-0,049
-658,159	-111,743	-0,031	0,005
-657,145	-200,000	0,012	0,088
-656,130	-4,996	-0,074	-0,037
-655,116	-200,000	0,028	-0,203
-654,101	-4,452	0,102	-0,052
-653,086	26,830	0,070	-0,043
-652,072	186,346	-0,018	-0,019
-651,057	672,149	0,065	-0,125
-650,043	-109,688	-0,134	0,021
-649,028	342,868	-0,067	-0,097
-648,014	-200,000	0,005	0,195
-646,999	-112,994	-0,043	-0,006
-645,984	6,685	-0,084	-0,046
-644,970	-200,000	-0,074	-0,000
-643,955	-82,368	0,077	-0,018
-642,941	-200,000	-0,032	0,158
-641,926	-127,387	0,190	-0,020
-640,911	715,403	-0,026	-0,050
-639,897	-200,000	-0,010	-0,160
-638,882	-31,293	-0,175	0,072
-637,868	416,278	0,025	-0,040
-636,853	628,485	0,022	-0,041
-635,838	78,077	-0,128	-0,101
-634,824	-39,077	-0,116	-0,045
-633,809	-170,373	0,037	0,001
-632,795	-200,000	0,004	0,104
-631,780	1,966	-0,165	0,087
-630,765	-17,184	0,067	-0,031
-629,751	213,355	-0,101	-0,117
-628,736	356,053	-0,055	-0,080
-627,722	-200,000	-0,023	0,079
-626,707	-200,000	-0,001	-0,053
-625,692	-131,734	-0,070	0,007
-624,678	800,000	0,037	0,080
-623,663	-107,181	-0,025	-0,004
-622,649	5,361	-0,069	-0,037
-621,634	-34,936	0,030	-0,012
-620,619	-200,000	-0,025	-0,130
-619,605	-74,567	0,044	0,012
-618,590	430,758	0,038	0,060
-617,576	384,234	-0,080	-0,121
-616,561	183,449	0,078	-0,085
-615,546	89,192	-0,052	0,043
-614,532	247,055	0,037	-0,046
-613,517	671,978	0,007	0,013
-612,503	800,000	-0,045	-0,118
-611,488	800,000	0,021	-0,047
-610,474	800,000	0,025	-0,081
-609,459	-200,000	-0,005	-0,127
-608,444	-85,983	-0,142	0,032
-607,430	-45,172	-0,123	-0,045
-606,415	-200,000	0,033	0,137
-605,401	74,740	-0,072	-0,056
-604,386	-55,642	0,008	0,002
-603,371	507,601	-0,032	-0,055
-602,357	598,383	-0,065	0,119
-601,342	198,762	-0,083	0,093
-600,328	341,575	-0,034	-0,049
-599,313	93,005	0,151	0,125
-598,298	787,481	-0,045	0,092
-597,284	50,618	0,018	0,013
-596,269	-200,000	0,001	-0,087
-595,255	-72,260	-0,069	-0,019
-594,240	-78,148	-0,065	-0,016
-593,225	-40,932	-0,101	0,038
-592,211	-88,676	-0,053	0,011
-591,196	519,059	0,064	0,111
-590,182	-48,701	-0,105	0,037
-589,167	-152,928	0,071	-0,004
-588,152	800,000	-0,017	-0,037
-587,138	-69,045	-0,064	-0,018
-586,123	800,000	0,022	0,058
-585,109	692,394	-0,047	0,090
-584,094	-69,156	-0,071	-0,020
-583,079	800,000	-0,063	-0,135
-582,065	29,710	-0,045	-0,028
-581,050	-127,428	-0,106	-0,011
-580,036	-200,000	-0,030	0,143
-579,021	86,934	-0,014	-0,011
-578,006	11,660	-0,105	-0,059
-576,992	-108,256	0,057	-0,009
-575,977	-200,000	0,004	-0,028
-574,963	-42,663	0,072	0,027
-573,948	-200,000	0,011	-0,079
-572,934	-200,000	0,007	0,045
-571,919	-91,090	-0,189	-0,039
-570,904	30,138	0,082	-0,051
-569,890	800,000	0,037	0,079
-568,875	-200,000	0,027	0,141
-567,861	216,181	0,083	0,097
-566,846	800,000	0,019	0,054
-565,831	-72,751	0,061	-0,016
-564,817	-65,821	0,046	-0,013
-563,802	389,540	0,051	-0,077
-562,788	800,000	-0,051	0,113
-561,773	-90,700	-0,085	0,018
-560,758	-75,258	0,102	-0,026
-559,744	800,000	-0,017	-0,053
-558,729	-200,000	-0,006	0,198
-557,715	-200,000	-0,019	-0,070
-556,700	36,519	-0,059	-0,038
-555,685	-96,951	-0,086	-0,016
-554,671	-136,770	0,076	0,006
-553,656	179,352	-0,095	0,102
-552,642	490,879	0,104	0,174
-551,627	-23,587	0,041	-0,018
-550,612	800,000	-0,028	0,083
-549,598	-200,000	-0,003	0,043
-548,583	800,000	-0,056	-0,139
-547,569	-101,600	-0,075	-0,013
-546,554	-32,600	0,042	-0,017
-545,539	680,870	-0,032	0,062
-544,525	38,663	-0,097	0,063
-543,510	-105,835	0,101	-0,016
-542,496	545,509	0,019	-0,033
-541,481	-52,917	-0,103	-0,035
-540,466	123,666	0,009	0,008
-539,452	-200,000	-0,009	0,064
-538,437	-200,000	0,001	0,031
-537,423	-181,850	0,085	0,001
-536,408	-0,190	-0,026	-0,013
-535,393	3,751	-0,069	0,037
-534,379	-156,255	0,095	0,004
-533,364	-200,000	-0,012	0,039
-532,350	-107,949	0,243	0,038
-531,335	-200,000	0,003	-0,033
-530,321	275,318	0,026	0,034
-529,306	395,057	0,034	-0,052
-528,291	8,159	-0,079	0,043
-527,277	254,722	0,078	0,097
-526,262	-200,000	-0,001	0,132
-525,248	-200,000	-0,000	0,055
-524,233	-57,511	-0,060	0,019
-523,218	299,240	-0,112	-0,151
-522,204	341,817	-0,010	-0,014
-521,189	-200,000	-0,041	0,135
-520,175	-124,969	-0,007	0,001
-519,160	-2,117	-0,075	0,039
-518,145	-200,000	-0,008	0,055
-517,131	696,592	-0,002	0,005
-516,116	-45,693	0,125	-0,045
-515,102	-54,997	-0,124	-0,041
-514,087	268,228	0,048	0,062
-513,072	-200,000	0,016	0,071
-512,058	-60,422	-0,116	0,036
-511,043	-200,000	0,001	0,004
-510,029	-76,608	0,078	0,020
-509,014	172,864	-0,050	-0,053
-507,999	124,870	0,059	0,054
-506,985	-200,000	-0,011	-0,049
-505,970	72,948	-0,067	0,051
-504,956	20,396	-0,172	0,102
-503,941	800,000	-0,020	0,054
-502,926	-26,325	-0,146	-0,062
-501,912	454,774	-0,023	0,038
-500,897	800,000	0,020	-0,041
-499,883	274,760	0,069	-0,090
-498,868	-24,680	-0,247	0,107
-497,853	94,097	0,032	-0,026
-496,839	6,837	0,044	0,024
-495,824	-200,000	0,002	0,092
-494,810	193,832	0,101	0,111
-493,795	379,524	-0,026	0,039
-492,781	-14,109	-0,047	-0,022
-491,766	-176,772	-0,211	0,004
-490,751	-200,000	-0,058	0,221
-489,737	-159,260	0,154	-0,006
-488,722	52,083	0,077	-0,053
-487,708	-200,000	-0,001	-0,100
-486,693	-200,000	0,017	-0,116
-485,678	272,805	-0,031	0,040
-484,664	-200,000	-0,008	-0,067
-483,649	-200,000	-0,028	-0,154
-482,635	195,760	0,064	-0,071
-481,620	47,538	0,056	-0,038
-480,605	-55,270	0,140	0,046
-479,591	-200,000	-0,010	0,119
-478,576	500,347	0,048	0,081
-477,562	-72,240	-0,076	0,020
-476,547	-200,000	0,012	0,123
-475,532	144,744	-0,024	-0,024
-474,518	-32,388	0,022	0,009
-473,503	-200,000	-0,006	-0,058
-472,489	113,312	0,126	0,112
-471,474	210,471	-0,016	-0,018
-470,459	331,272	-0,097	-0,137
-469,445	800,000	-0,023	0,061
-468,430	-151,308	0,027	-0,001
-467,416	757,433	-0,031	-0,061
-466,401	128,778	0,054	0,051
-465,386	-184,894	0,158	-0,002
-464,372	155,997	-0,027	0,027
-463,357	-71,427	-0,118	-0,032
-462,343	184,274	0,034	-0,036
-461,328	96,017	-0,053	-0,044
-460,313	-66,261	0,119	-0,034
-459,299	85,540	0,127	0,102
-458,284	800,000	0,040	0,119
-457,270	-190,535	-0,036	0,000
-456,255	88,610	-0,068	0,055
-455,241	-200,000	-0,008	-0,093
-454,226	800,000	0,039	-0,120
-453,211	-71,861	-0,031	0,008
-452,197	-48,210	0,088	0,031
-451,182	-200,000	0,006	0,092
-450,168	800,000	0,018	0,057
-449,153	-61,142	0,128	0,039
-448,138	39,485	-0,149	-0,097
-447,124	-200,000	-0,042	-0,151
-446,109	-200,000	0,005	-0,046
-445,095	86,499	0,095	0,076
-444,080	98,764	0,137	-0,115
-443,065	-122,818	0,027	0,003
-442,051	392,920	-0,039	0,059
-441,036	-200,000	0,008	0,069
-440,022	800,000	0,024	-0,066
-439,007	46,855	-0,026	0,017
-437,992	-169,941	0,153	-0,004
-436,978	-129,683	0,060	0,006
-435,963	-200,000	0,006	0,180
-434,949	126,591	0,046	0,042
-433,934	-97,271	0,077	-0,014
-432,919	-200,000	-0,005	-0,024
-431,905	-200,000	-0,008	-0,086
-430,890	-0,032	-0,022	-0,011
-429,876	18,651	0,142	-0,082
-428,861	-156,590	0,169	-0,007
-427,846	-200,000	-0,014	0,088
-426,832	-113,086	-0,049	0,007
-425,817	-47,725	-0,091	-0,032
-424,803	-200,000	-0,017	0,081
-423,788	-15,207	-0,077	-0,036
-422,773	-200,000	0,004	0,064
-421,759	-200,000	-0,001	-0,028
-420,744	-200,000	0,008	-0,044
-419,730	-200,000	0,016	-0,091
-418,715	258,554	0,030	-0,038
-417,701	108,192	-0,101	0,088
-416,686	349,808	0,076	-0,109
-415,671	800,000	0,021	0,046
-414,657	-200,000	0,014	0,148
-413,642	-30,729	0,100	-0,041
-412,628	320,732	-0,063	-0,087
-411,613	151,840	-0,077	-0,077
-410,598	800,000	0,002	0,005
-409,584	695,987	0,039	0,075
-408,569	277,897	0,042	0,054
-407,555	-200,000	0,000	0,124
-406,540	98,926	0,098	0,082
-405,525	-200,000	0,024	-0,178
-404,511	-59,917	-0,105	-0,033
-403,496	-91,269	0,063	0,013
-402,482	234,192	0,066	-0,079
-401,467	361,565	0,066	0,097
-400,452	792,903	0,086	-0,174
-399,438	800,000	0,039	-0,121
-398,423	-200,000	-0,019	-0,079
-397,409	192,580	-0,015	0,016
-396,394	-200,000	0,032	0,160
-395,379	176,988	-0,045	-0,048
-394,365	-157,914	0,099	0,004
-393,350	-200,000	-0,009	0,058
-392,336	-15,521	0,071	0,033
-391,321	-200,000	0,002	0,040
-390,306	800,000	0,006	0,015
-389,292	800,000	0,056	-0,156
-388,277	600,574	-0,048	0,088
-387,263	800,000	-0,006	0,014
-386,248	800,000	0,044	-0,096
-385,233	-64,993	0,055	0,016
-384,219	-52,664	-0,044	-0,015
-383,204	-200,000	0,014	-0,066
-382,190	17,748	0,125	-0,072
-381,175	-200,000	-0,001	-0,028
-380,160	-200,000	0,008	-0,093
-379,146	-181,119	0,101	-0,001
-378,131	-3,117	-0,111	0,056
-377,117	69,131	-0,027	0,020
-376,102	-4,047	-0,050	-0,025
-375,088	86,007	-0,038	0,031
-374,073	-39,128	-0,020	0,008
-373,058	203,616	0,096	-0,108
-372,044	97,385	-0,059	-0,049
-371,029	322,442	0,054	-0,074
-370,015	154,357	-0,093	-0,093
-369,000	202,088	-0,083	0,093
-367,985	248,861	-0,056	-0,069
-366,971	-22,801	0,089	-0,039
-365,956	50,480	0,047	0,032
-364,942	59,331	0,060	0,043
-363,927	-125,504	-0,036	0,004
-362,912	272,386	0,053	-0,068
-361,898	-59,803	-0,081	0,025
-360,883	-9,031	0,072	-0,035
-359,869	-149,568	-0,013	0,001
-358,854	-136,696	-0,149	0,012
-357,839	-200,000	-0,008	0,091
-356,825	-29,579	0,147	0,061
-355,810	62,572	-0,135	0,098
-354,796	-7,097	0,162	-0,080
-353,781	126,804	-0,096	-0,088
-352,766	9,579	0,051	-0,028
-351,752	-43,118	-0,041	-0,015
-350,737	800,000	0,039	0,095
-349,723	-157,465	0,125	0,005
-348,708	283,407	-0,045	-0,059
-347,693	-10,446	0,079	-0,038
-346,679	800,000	0,038	-0,121
-345,664	473,332	-0,092	-0,151
-344,650	-200,000	-0,010	0,040
-343,635	157,002	0,035	0,035
-342,620	800,000	0,065	0,136
-341,606	-27,820	0,120	0,050
-340,591	-200,000	0,039	-0,131
-339,577	390,796	0,075	-0,113
-338,562	117,028	0,104	-0,093
-337,548	-200,000	0,032	-0,127
-336,533	248,743	0,059	-0,072
-335,518	445,855	-0,020	0,031
-334,504	583,783	0,064	0,115
-333,489	418,656	-0,022	0,034
-332,475	-200,000	0,017	-0,071
-331,460	-200,000	0,013	-0,051
-330,445	-11,617	-0,075	-0,036
-329,431	79,489	-0,090	-0,070
-328,416	-200,000	-0,018	0,089
-327,402	498,981	0,041	0,068
-326,387	-200,000	0,001	-0,148
-325,372	-200,000	-0,007	-0,147
-324,358	-114,616	-0,102	-0,014
-323,343	-200,000	-0,014	-0,117
-322,329	800,000	-0,039	-0,113
-321,314	-67,012	0,117	0,033
-320,299	141,480	0,077	0,074
-319,285	-200,000	-0,026	-0,176
-318,270	361,917	0,101	-0,147
-317,256	800,000	0,017	-0,052
-316,241	-200,000	0,024	-0,085
-315,226	710,581	-0,053	-0,102
-314,212	-91,105	0,079	0,016
-313,197	800,000	0,049	0,126
-312,183	-2,633	0,137	0,069
-311,168	-146,604	-0,053	0,003
-310,153	240,967	0,099	-0,120
-309,139	22,032	0,107	-0,063
-308,124	-145,917	-0,028	-0,002
-307,110	-50,256	-0,035	-0,012
-306,095	-200,000	0,013	-0,057
-305,080	-200,000	0,012	0,042
-304,066	-200,000	-0,037	-0,137
-303,051	800,000	0,017	0,034
-302,037	491,124	-0,041	-0,069
-301,022	23,761	0,003	0,002
-300,008	-200,000	-0,013	0,138
-298,993	-200,000	0,002	-0,055
-297,978	427,440	0,026	-0,040
-296,964	13,793	-0,135	0,076
-295,949	547,575	0,044	0,077
-294,935	140,635	-0,100	-0,096
-293,920	6,611	-0,037	-0,020
-292,905	89,788	-0,072	-0,058
-291,891	354,369	0,046	0,067
-290,876	-58,121	0,103	-0,032
-289,862	-33,659	-0,118	0,047
-288,847	100,391	0,056	0,047
-287,832	149,271	-0,052	-0,051
-286,818	280,431	0,023	-0,029
-285,803	-89,146	0,061	-0,013
-284,789	-200,000	0,008	-0,040
-283,774	800,000	0,006	0,016
-282,759	800,000	-0,025	0,068
-281,745	800,000	-0,076	-0,170
-280,730	-200,000	-0,042	-0,149
-279,716	221,010	-0,098	-0,115
-278,701	-200,000	0,009	0,055
-277,686	89,690	0,068	0,055
-276,672	800,000	-0,007	0,018
-275,657	-200,000	0,001	-0,054
-274,643	-48,032	-0,035	-0,012
-273,628	-20,411	-0,093	-0,041
-272,613	127,342	-0,045	-0,041
-271,599	-125,391	0,125	0,014
-270,584	-83,806	0,037	0,008
-269,570	-126,448	0,119	-0,013
-268,555	497,903	-0,062	-0,103
-267,540	210,126	0,036	-0,041
-266,526	-200,000	0,004	-0,081
-265,511	-200,000	-0,007	0,065
-264,497	220,011	-0,047	-0,054
-263,482	24,658	0,096	0,058
-262,467	800,000	0,035	0,090
-261,453	6,378	-0,150	0,080
-260,438	23,464	-0,060	-0,036
-259,424	486,153	-0,060	-0,099
-258,409	-107,337	-0,117	-0,018
-257,395	-97,928	-0,025	-0,005
-256,380	800,000	-0,014	0,042
-255,365	787,445	0,043	0,087
-254,351	-90,376	0,084	0,018
-253,336	-11,852	-0,111	-0,052
-252,322	38,703	-0,035	-0,022
-251,307	-44,659	-0,097	0,035
-250,292	-200,000	-0,008	0,036
-249,278	-169,918	0,124	-0,003
-248,263	-36,262	0,095	0,037
-247,249	800,000	-0,027	0,074
-246,234	277,160	0,101	0,130
-245,219	-102,043	-0,075	-0,013
-244,205	-200,000	-0,014	0,045
-243,190	-132,670	0,090	-0,008
-242,176	-200,000	0,007	-0,143
-241,161	306,248	-0,018	0,024
-240,146	397,844	-0,019	-0,029
-239,132	-21,945	-0,095	-0,042
-238,117	-111,954	-0,068	-0,010
-237,103	-200,000	-0,012	0,039
-236,088	-200,000	0,015	0,057
-235,073	-59,481	-0,109	0,034
-234,059	800,000	-0,007	-0,015
-233,044	21,182	0,114	0,066
-232,030	188,271	0,074	0,081
-231,015	200,477	0,060	-0,067
-230,000	-200,000	-0,012	-0,095
-228,986	218,511	-0,077	-0,090
-227,971	800,000	0,043	0,121
-226,957	-200,000	-0,032	0,237
-225,942	121,795	0,133	0,120
-224,927	232,249	0,015	0,018
-223,913	758,613	-0,073	-0,143
-222,898	66,929	-0,032	-0,024
-221,884	-99,375	0,065	-0,012
-220,869	800,000	0,023	0,069
-219,855	-200,000	0,015	0,064
-218,840	-39,517	0,129	-0,049
-217,825	11,197	-0,141	-0,078
-216,811	-89,988	-0,107	0,022
-215,796	150,276	0,026	0,026
-214,782	-94,047	0,042	0,008
-213,767	155,991	-0,011	0,011
-212,752	73,839	0,043	0,033
-211,738	-200,000	0,007	0,117
-210,723	-61,838	-0,034	0,010
-209,709	607,960	-0,032	0,059
-208,694	800,000	0,053	-0,168
-207,679	17,896	-0,076	-0,044
-206,665	178,548	0,078	-0,082
-205,650	-148,894	0,136	0,008
-204,636	-29,067	0,033	0,014
-203,621	-200,000	-0,004	-0,114
-202,606	-200,000	0,002	0,032
-201,592	-200,000	0,009	-0,235
-200,577	800,000	-0,047	-0,106
-199,563	-112,968	0,087	-0,012
-198,548	-87,127	0,197	-0,043
-197,533	800,000	0,059	0,125
-196,519	-200,000	-0,018	0,146
-195,504	229,415	0,079	0,094
-194,490	177,223	-0,111	0,117
-193,475	-200,000	-0,012	-0,059
-192,460	-114,554	-0,108	0,015
-191,446	186,374	0,062	-0,067
-190,431	-200,000	-0,011	0,121
-189,417	277,963	0,098	0,127
-188,402	-200,000	-0,006	0,061
-187,387	380,842	-0,093	0,139
-186,373	47,085	-0,079	0,053
-185,358	800,000	0,018	-0,054
-184,344	-200,000	0,044	0,154
-183,329	-200,000	-0,022	0,096
-182,315	-62,400	-0,182	-0,054
-181,300	483,402	0,045	0,074
-180,285	-70,179	0,134	0,036
-179,271	332,840	-0,064	-0,089
-178,256	60,058	-0,098	-0,070
-177,242	800,000	-0,014	0,030
-176,227	130,090	0,090	-0,083
-175,212	41,597	-0,035	0,023
-174,198	166,798	0,194	0,198
-173,183	800,000	-0,056	-0,150
-172,169	-157,266	0,131	-0,006
-171,154	-118,527	-0,055	-0,007
-170,139	-200,000	0,031	0,119
-169,125	99,369	-0,147	0,123
-168,110	-56,464	0,144	-0,046
-167,096	66,225	-0,101	0,074
-166,081	13,083	0,047	0,026
-165,066	-138,189	-0,088	-0,007
-164,052	44,670	0,032	0,021
-163,037	768,836	-0,054	0,107
-162,023	-110,739	-0,033	0,005
-161,008	72,403	0,186	-0,139
-159,993	328,652	-0,068	-0,095
-158,979	122,297	-0,135	-0,122
-157,964	0,579	-0,131	0,067
-156,950	148,223	-0,050	-0,049
-155,935	61,671	-0,072	0,052
-154,920	800,000	0,104	0,308
-153,906	-200,000	-0,037	0,135
-152,891	-100,121	0,063	-0,011
-151,877	161,289	-0,077	-0,078
-150,862	94,938	-0,037	-0,030
-149,847	800,000	-0,008	0,016
-148,833	82,547	0,083	-0,065
-147,818	-82,125	0,102	0,024
-146,804	-33,677	0,116	0,046
-145,789	10,523	0,037	-0,020
-144,775	156,340	0,033	0,033
-143,760	-200,000	-0,004	0,107
-142,745	430,692	0,053	0,083
-141,731	318,069	0,108	0,147
-140,716	-28,259	-0,150	-0,062
-139,702	494,432	0,035	0,058
-138,687	-200,000	-0,002	0,058
-137,672	-158,782	0,037	0,001
-136,658	2,756	-0,036	-0,019
-135,643	272,901	0,109	-0,140
-134,629	-62,295	0,064	0,019
-133,614	-200,000	-0,031	0,110
-132,599	277,552	0,030	-0,039
-131,585	800,000	0,085	0,214
-130,570	-200,000	-0,038	0,172
-129,556	-147,980	0,055	-0,003
-128,541	-50,130	-0,068	0,023
-127,526	-92,351	0,094	-0,019
-126,512	322,501	-0,055	-0,076
-125,497	800,000	0,071	0,149
-124,483	75,233	0,105	0,080
-123,468	-200,000	0,004	0,035
-122,453	40,330	-0,113	-0,073
-121,439	103,493	-0,052	0,044
-120,424	261,044	-0,036	0,045
-119,410	800,000	0,016	-0,040
