DTS Sentinel unit serial number:	SN410029Multiplexer serial number:	ORYXHardware model number:	OX2-SRSoftware version number:	ORYX F/W v4,00 Oryx Data Collector v3.7.2.0data status	okinstallation	B6 Nyhavnadifferential loss correction	single-endedforward channel	channel 2reverse channel	N/Adate	2023/12/08time	20:00:08forward acquisition time	300,00reverse acquisition time	0,00gamma	499,1914k internal	0,3158k external	0,3158temperature offset calibration	1,0000default loss term (dB/km)	0,3820temperature slope calibration	1,0000multiplexer offset coefficient	1,0000multiplexer slope coefficient	1,0000fibre end	0,00T internal ref (°C)	15,20T ext. ref 1 (°C)	-1,43T ext. ref 2 (°C)	-1,42length (m)	temperature (°C)	Stokes	anti-Stokes-744,400	-44,507	0,027	-0,010
-743,385	-128,588	-0,296	0,031
-742,371	-38,217	0,060	0,023
-741,356	97,787	-0,293	0,248
-740,342	-82,236	0,082	0,019
-739,327	-80,838	-0,251	0,061
-738,312	-99,475	0,135	0,025
-737,298	-125,177	-0,411	0,046
-736,283	185,833	0,167	0,183
-735,269	-147,629	-0,405	0,025
-734,254	-94,890	0,098	-0,019
-733,239	-19,894	-0,419	-0,190
-732,225	-147,659	0,131	0,008
-731,210	1,166	0,119	0,063
-730,196	800,000	-0,041	0,090
-729,181	180,536	-0,058	0,063
-728,167	-70,591	-0,022	0,006
-727,152	-3,441	0,088	-0,045
-726,137	-200,000	-0,025	0,110
-725,123	597,561	-0,083	-0,152
-724,108	56,725	0,008	0,006
-723,094	-101,315	-0,196	-0,035
-722,079	-118,726	-0,100	0,013
-721,064	-42,059	0,098	-0,037
-720,050	800,000	0,042	-0,125
-719,035	62,435	-0,098	-0,072
-718,021	-113,796	-0,033	0,005
-717,006	-125,755	-0,092	0,010
-715,991	-6,799	-0,034	-0,017
-714,977	511,506	-0,003	0,006
-713,962	-157,595	-0,103	-0,004
-712,948	-68,806	0,135	0,038
-711,933	19,133	-0,100	0,059
-710,918	449,202	-0,017	-0,028
-709,904	-129,822	0,002	0,000
-708,889	103,808	-0,099	-0,086
-707,875	800,000	0,011	0,033
-706,860	-34,713	0,090	0,036
-705,845	106,065	-0,086	-0,075
-704,831	-90,789	0,024	0,005
-703,816	412,274	-0,041	-0,064
-702,802	-200,000	-0,008	0,044
-701,787	-180,507	-0,123	0,002
-700,772	-200,000	-0,017	-0,079
-699,758	311,202	0,062	-0,086
-698,743	-191,675	0,038	0,000
-697,729	-108,334	0,133	0,021
-696,714	-200,000	0,014	0,069
-695,699	-200,000	0,000	0,006
-694,685	221,300	-0,044	0,052
-693,670	-200,000	-0,006	-0,054
-692,656	-148,922	0,121	0,007
-691,641	-200,000	-0,008	0,096
-690,627	16,913	0,085	0,050
-689,612	342,060	0,030	0,044
-688,597	61,298	0,013	0,010
-687,583	-200,000	-0,006	0,027
-686,568	800,000	0,072	-0,205
-685,554	5,166	-0,120	-0,065
-684,539	800,000	0,022	-0,062
-683,524	13,771	0,044	0,025
-682,510	-118,911	0,056	0,007
-681,495	183,274	-0,037	-0,041
-680,481	84,627	-0,043	-0,035
-679,466	12,397	-0,076	-0,043
-678,451	-68,978	-0,154	0,043
-677,437	191,346	-0,036	0,040
-676,422	-151,163	0,017	-0,001
-675,408	235,732	-0,037	-0,046
-674,393	-197,400	-0,279	-0,001
-673,378	-181,930	-0,150	0,002
-672,364	145,746	0,011	0,011
-671,349	116,804	-0,151	-0,137
-670,335	-35,963	0,041	-0,016
-669,320	-109,923	-0,111	-0,017
-668,305	-38,053	0,078	0,030
-667,291	-200,000	0,017	0,061
-666,276	-200,000	0,019	0,073
-665,262	800,000	-0,073	-0,176
-664,247	800,000	-0,016	-0,049
-663,232	755,995	-0,071	-0,141
-662,218	800,000	0,064	-0,190
-661,203	-36,080	-0,110	0,043
-660,189	20,875	-0,079	-0,047
-659,174	117,072	-0,061	0,055
-658,159	-200,000	0,004	0,013
-657,145	3,190	-0,114	-0,061
-656,130	-200,000	-0,001	-0,166
-655,116	-200,000	0,024	-0,160
-654,101	-28,148	0,160	-0,068
-653,086	25,428	-0,231	0,141
-652,072	-142,166	0,142	-0,010
-651,057	-72,943	-0,193	-0,052
-650,043	800,000	-0,047	-0,103
-649,028	92,262	-0,057	0,048
-648,014	800,000	-0,011	-0,023
-646,999	800,000	-0,022	0,051
-645,984	322,675	0,022	-0,030
-644,970	528,748	-0,040	-0,070
-643,955	-200,000	0,038	-0,171
-642,941	336,481	-0,055	-0,079
-641,926	800,000	-0,029	0,066
-640,911	326,952	0,055	-0,077
-639,897	-48,351	0,175	0,062
-638,882	84,165	-0,100	-0,080
-637,868	279,422	0,053	-0,070
-636,853	73,693	-0,090	-0,069
-635,838	-200,000	-0,024	-0,098
-634,824	51,467	0,035	-0,024
-633,809	-68,685	0,117	-0,033
-632,795	-200,000	-0,007	0,144
-631,780	-73,243	0,045	-0,012
-630,765	800,000	0,023	-0,059
-629,751	-45,199	-0,052	-0,019
-628,736	53,298	-0,174	-0,122
-627,722	-5,231	-0,056	-0,028
-626,707	-200,000	0,007	-0,055
-625,692	233,936	0,054	-0,066
-624,678	132,875	-0,014	-0,013
-623,663	35,955	-0,092	0,059
-622,649	-109,376	-0,031	0,005
-621,634	-49,690	0,036	0,012
-620,619	-42,625	0,088	-0,033
-619,605	69,260	0,043	-0,032
-618,590	-44,929	-0,095	-0,034
-617,576	24,878	0,104	0,063
-616,561	44,949	-0,062	0,042
-615,546	135,457	-0,137	-0,131
-614,532	379,973	-0,072	-0,109
-613,517	-94,181	-0,085	0,017
-612,503	41,994	0,102	-0,068
-611,488	-55,618	0,028	0,009
-610,474	91,579	-0,178	0,147
-609,459	749,204	-0,040	0,079
-608,444	24,006	-0,116	-0,070
-607,430	485,174	0,010	0,018
-606,415	-51,971	-0,048	-0,016
-605,401	-77,506	0,134	0,034
-604,386	207,226	0,088	-0,101
-603,371	108,177	-0,052	-0,046
-602,357	-200,000	0,024	0,101
-601,342	-104,020	-0,135	0,023
-600,328	71,202	0,074	-0,056
-599,313	-200,000	0,006	-0,096
-598,298	443,283	-0,063	-0,101
-597,284	800,000	0,050	-0,157
-596,269	42,248	-0,044	-0,029
-595,255	-59,285	-0,189	-0,059
-594,240	-55,610	0,068	0,022
-593,225	283,496	-0,045	-0,060
-592,211	800,000	0,013	0,043
-591,196	-200,000	-0,018	-0,133
-590,182	184,167	0,108	0,118
-589,167	2,421	0,167	0,088
-588,152	671,147	0,054	0,103
-587,138	73,024	-0,044	0,034
-586,123	-70,478	-0,231	0,064
-585,109	42,728	0,027	0,018
-584,094	-200,000	-0,013	0,187
-583,079	734,894	0,058	0,115
-582,065	-200,000	0,007	0,206
-581,050	-200,000	-0,006	0,051
-580,036	-196,399	0,021	0,000
-579,021	274,980	0,085	-0,110
-578,006	162,669	-0,046	0,047
-576,992	129,159	-0,073	-0,068
-575,977	-200,000	0,003	-0,079
-574,963	66,963	0,085	0,063
-573,948	119,112	-0,064	-0,058
-572,934	371,097	0,026	0,039
-571,919	-28,685	-0,089	-0,037
-570,904	123,251	0,054	-0,050
-569,890	800,000	-0,037	-0,082
-568,875	-25,840	0,028	-0,012
-567,861	608,959	0,010	0,018
-566,846	-200,000	0,029	0,112
-565,831	-78,582	0,036	-0,009
-564,817	0,238	-0,049	-0,026
-563,802	-27,516	-0,113	-0,048
-562,788	156,247	-0,065	-0,065
-561,773	-128,298	0,158	0,016
-560,758	100,527	0,148	0,126
-559,744	-5,926	-0,051	0,026
-558,729	240,039	0,054	0,066
-557,715	-200,000	0,003	0,166
-556,700	178,812	-0,030	-0,032
-555,685	196,709	0,043	-0,048
-554,671	-200,000	-0,008	0,153
-553,656	-200,000	0,009	0,055
-552,642	53,973	-0,120	0,084
-551,627	790,274	-0,056	-0,113
-550,612	-200,000	0,026	-0,097
-549,598	-200,000	0,006	-0,083
-548,583	-134,507	0,035	0,003
-547,569	81,701	0,076	-0,060
-546,554	65,916	-0,067	0,050
-545,539	328,158	0,098	0,138
-544,525	14,302	0,019	-0,011
-543,510	258,165	-0,090	0,114
-542,496	149,805	-0,050	-0,049
-541,481	20,967	-0,069	-0,041
-540,466	-200,000	-0,012	-0,112
-539,452	337,977	0,058	-0,083
-538,437	145,952	0,124	-0,122
-537,423	800,000	0,047	0,104
-536,408	-141,587	-0,032	-0,002
-535,393	-149,595	-0,120	0,007
-534,379	-200,000	-0,005	-0,125
-533,364	800,000	0,045	0,137
-532,350	-159,898	0,150	-0,006
-531,335	67,098	0,090	-0,067
-530,321	800,000	-0,012	0,034
-529,306	-200,000	0,000	-0,045
-528,291	-200,000	0,006	-0,063
-527,277	19,484	-0,065	0,038
-526,262	105,611	0,034	-0,029
-525,248	370,453	0,053	-0,079
-524,233	-92,423	-0,081	-0,017
-523,218	-200,000	-0,016	0,131
-522,204	0,890	-0,125	-0,065
-521,189	-200,000	-0,012	0,086
-520,175	800,000	0,053	-0,121
-519,160	800,000	-0,057	0,161
-518,145	504,635	-0,103	0,176
-517,131	630,406	0,038	0,071
-516,116	800,000	-0,034	0,089
-515,102	32,251	-0,047	0,029
-514,087	-20,351	0,024	0,011
-513,072	75,735	0,099	0,077
-512,058	-134,268	-0,042	0,004
-511,043	29,771	0,074	0,046
-510,029	800,000	0,037	-0,092
-509,014	-200,000	-0,016	-0,055
-507,999	-200,000	0,008	0,135
-506,985	57,228	-0,025	-0,018
-505,970	-65,354	-0,031	-0,009
-504,956	-200,000	0,029	-0,104
-503,941	50,607	0,041	0,028
-502,926	103,900	0,077	0,066
-501,912	-117,670	0,230	0,030
-500,897	-53,144	-0,017	0,006
-499,883	-200,000	0,024	-0,108
-498,868	771,170	-0,045	-0,090
-497,853	182,220	0,037	-0,040
-496,839	-6,652	0,040	0,020
-495,824	-200,000	-0,020	0,067
-494,810	-23,195	-0,100	0,044
-493,795	27,456	-0,018	-0,011
-492,781	-92,652	-0,172	0,035
-491,766	187,997	-0,111	-0,121
-490,751	220,384	-0,059	-0,069
-489,737	14,205	0,079	-0,045
-488,722	471,803	0,062	-0,102
-487,708	-200,000	0,002	0,109
-486,693	800,000	0,008	0,018
-485,678	392,230	0,069	0,106
-484,664	290,149	0,091	0,120
-483,649	-119,680	0,070	0,009
-482,635	-22,839	0,044	-0,019
-481,620	244,552	0,039	0,047
-480,605	152,826	0,071	-0,071
-479,591	-200,000	0,012	0,041
-478,576	-156,407	0,063	-0,003
-477,562	-59,506	-0,113	-0,035
-476,547	-32,781	-0,057	-0,023
-475,532	-71,923	0,010	-0,003
-474,518	800,000	-0,027	0,079
-473,503	6,509	-0,131	-0,071
-472,489	-200,000	0,009	0,071
-471,474	311,871	0,029	0,040
-470,459	333,431	-0,101	-0,144
-469,445	-200,000	0,018	-0,147
-468,430	321,841	-0,075	-0,104
-467,416	800,000	-0,029	0,062
-466,401	252,309	0,122	0,152
-465,386	-200,000	0,023	0,076
-464,372	-9,831	-0,104	-0,050
-463,357	-200,000	0,010	0,034
-462,343	-158,563	0,126	-0,005
-461,328	158,025	-0,050	0,051
-460,313	-182,612	-0,066	0,001
-459,299	81,624	0,093	-0,073
-458,284	35,013	-0,048	-0,030
-457,270	-200,000	0,005	0,033
-456,255	5,308	0,064	-0,034
-455,241	100,951	-0,119	-0,101
-454,226	294,759	-0,051	-0,068
-453,211	470,116	0,045	0,075
-452,197	-2,566	0,066	0,033
-451,182	-200,000	0,020	-0,125
-450,168	24,679	0,035	-0,021
-449,153	-200,000	0,017	-0,079
-448,138	-200,000	0,013	-0,062
-447,124	171,759	0,092	-0,096
-446,109	554,110	-0,015	-0,026
-445,095	-17,897	0,046	-0,021
-444,080	-200,000	-0,003	-0,047
-443,065	-58,945	-0,042	0,013
-442,051	-52,652	0,084	0,028
-441,036	-63,055	0,059	0,018
-440,022	-171,526	-0,068	0,002
-439,007	12,759	-0,144	-0,081
-437,992	-62,663	0,141	-0,042
-436,978	800,000	-0,053	0,141
-435,963	-200,000	-0,012	-0,047
-434,949	219,310	-0,052	0,061
-433,934	-128,855	0,105	0,011
-432,919	388,767	0,043	-0,065
-431,905	72,623	0,106	0,080
-430,890	460,345	0,054	0,087
-429,876	-144,719	0,155	0,010
-428,861	217,145	0,034	-0,039
-427,846	-57,647	-0,128	-0,041
-426,832	582,070	-0,024	0,044
-425,817	20,827	-0,040	0,024
-424,803	-200,000	-0,023	0,136
-423,788	144,045	-0,030	0,029
-422,773	-200,000	-0,008	-0,043
-421,759	30,196	-0,086	0,053
-420,744	62,717	-0,115	0,084
-419,730	80,468	-0,082	-0,064
-418,715	-200,000	-0,010	-0,066
-417,701	-100,114	0,090	-0,016
-416,686	-11,666	0,030	0,014
-415,671	-200,000	-0,010	0,067
-414,657	597,655	-0,022	-0,040
-413,642	-200,000	-0,017	0,089
-412,628	-112,699	0,026	0,004
-411,613	800,000	0,036	0,103
-410,598	-88,294	-0,078	-0,017
-409,584	423,793	0,046	-0,072
-408,569	800,000	-0,055	0,169
-407,555	90,023	0,073	-0,060
-406,540	-87,911	0,167	-0,036
-405,525	800,000	-0,025	0,053
-404,511	-56,920	-0,025	-0,008
-403,496	39,248	0,074	-0,048
-402,482	-200,000	-0,009	-0,129
-401,467	14,275	0,142	-0,080
-400,452	-200,000	-0,007	-0,049
-399,438	742,507	0,036	0,070
-398,423	55,526	-0,064	-0,045
-397,409	361,509	0,027	-0,040
-396,394	-200,000	-0,034	-0,131
-395,379	9,353	-0,033	-0,018
-394,365	113,908	0,020	-0,018
-393,350	200,655	-0,073	0,082
-392,336	-200,000	0,013	0,060
-391,321	-148,974	0,043	-0,002
-390,306	-39,478	-0,025	-0,010
-389,292	-200,000	-0,034	-0,210
-388,277	-200,000	0,006	-0,066
-387,263	-200,000	-0,016	0,167
-386,248	-200,000	-0,010	-0,073
-385,233	-78,222	-0,039	0,010
-384,219	-200,000	0,020	0,086
-383,204	-200,000	0,016	-0,186
-382,190	99,664	-0,067	-0,056
-381,175	-200,000	-0,006	-0,052
-380,160	-200,000	0,017	-0,078
-379,146	-200,000	-0,019	-0,107
-378,131	764,978	0,084	0,166
-377,117	-200,000	0,020	0,075
-376,102	-167,483	-0,184	0,005
-375,088	42,855	0,038	0,025
-374,073	-37,424	0,069	0,027
-373,058	-58,979	-0,039	-0,012
-372,044	146,869	0,084	0,082
-371,029	-82,113	0,094	0,022
-370,015	122,802	-0,034	-0,031
-369,000	-200,000	0,011	-0,090
-367,985	-200,000	-0,019	-0,073
-366,971	558,249	-0,047	0,082
-365,956	159,009	0,047	0,048
-364,942	-102,468	-0,140	0,024
-363,927	-200,000	0,002	0,085
-362,912	126,950	-0,015	-0,013
-361,898	-109,256	-0,053	-0,008
-360,883	-74,609	0,159	-0,041
-359,869	-124,607	0,037	-0,004
-358,854	-123,855	0,051	0,006
-357,839	800,000	0,043	0,125
-356,825	-8,779	-0,032	0,016
-355,810	155,508	0,103	0,103
-354,796	524,768	-0,111	0,190
-353,781	800,000	-0,071	-0,147
-352,766	-50,448	0,082	-0,028
-351,752	44,171	0,128	0,085
-350,737	800,000	-0,069	-0,157
-349,723	800,000	-0,039	0,096
-348,708	-200,000	-0,002	0,039
-347,693	-153,113	-0,098	0,005
-346,679	72,873	-0,077	-0,059
-345,664	800,000	-0,026	-0,053
-344,650	-151,714	-0,156	-0,008
-343,635	50,333	0,037	0,025
-342,620	-5,302	0,203	-0,101
-341,606	-200,000	-0,007	0,072
-340,591	167,523	-0,011	0,011
-339,577	800,000	0,038	-0,096
-338,562	-106,997	-0,099	-0,016
-337,548	248,324	0,061	0,075
-336,533	336,108	0,029	-0,041
-335,518	442,844	0,037	0,060
-334,504	464,522	-0,049	-0,080
-333,489	-200,000	-0,013	-0,094
-332,475	800,000	0,023	-0,060
-331,460	451,784	-0,053	-0,085
-330,445	55,823	-0,110	0,077
-329,431	569,475	0,050	0,089
-328,416	84,577	0,071	0,056
-327,402	-52,687	-0,040	0,013
-326,387	-59,883	0,135	-0,042
-325,372	62,465	0,108	0,078
-324,358	800,000	-0,045	0,114
-323,343	-142,107	-0,054	0,004
-322,329	-47,295	-0,029	-0,010
-321,314	-200,000	0,004	0,176
-320,299	347,213	0,048	0,068
-319,285	-74,122	0,021	-0,005
-318,270	139,562	-0,148	-0,142
-317,256	476,399	0,066	-0,109
-316,241	-35,728	-0,122	0,048
-315,226	-114,248	-0,088	0,012
-314,212	-111,462	0,190	-0,028
-313,197	-57,932	0,088	0,028
-312,183	88,127	-0,133	0,107
-311,168	800,000	-0,024	-0,064
-310,153	-200,000	0,027	0,130
-309,139	35,899	-0,025	-0,016
-308,124	-200,000	-0,025	0,145
-307,110	45,657	-0,081	0,054
-306,095	179,100	0,035	-0,037
-305,080	109,320	0,090	-0,078
-304,066	151,055	-0,069	-0,068
-303,051	609,525	0,019	0,034
-302,037	102,032	0,116	-0,098
-301,022	422,681	-0,054	-0,085
-300,008	-96,294	0,128	-0,024
-298,993	-89,703	0,090	0,019
-297,978	-200,000	0,006	-0,030
-296,964	800,000	-0,022	-0,068
-295,949	39,649	-0,046	-0,030
-294,935	800,000	-0,043	-0,122
-293,920	-71,259	0,086	-0,023
-292,905	-200,000	0,014	0,070
-291,891	398,643	0,041	0,062
-290,876	25,465	0,076	0,046
-289,862	800,000	-0,066	0,159
-288,847	147,313	-0,082	0,080
-287,832	143,887	-0,008	-0,008
-286,818	-41,427	-0,087	0,032
-285,803	-75,276	0,053	-0,014
-284,789	127,913	-0,013	-0,012
-283,774	38,629	-0,050	-0,032
-282,759	-200,000	0,011	0,092
-281,745	-200,000	0,025	-0,107
-280,730	-200,000	-0,003	-0,068
-279,716	-126,891	-0,134	-0,014
-278,701	-200,000	0,000	0,060
-277,686	207,574	0,038	0,043
-276,672	-24,269	-0,053	-0,023
-275,657	-56,561	0,083	-0,026
-274,643	-44,070	0,049	-0,018
-273,628	33,162	-0,048	-0,030
-272,613	-198,645	0,041	-0,000
-271,599	1,498	-0,176	0,091
-270,584	347,484	0,084	0,119
-269,570	23,431	0,110	0,066
-268,555	-195,129	-0,193	0,001
-267,540	800,000	-0,050	-0,109
-266,526	-200,000	-0,014	-0,074
-265,511	278,640	0,066	-0,085
-264,497	-110,680	-0,156	0,023
-263,482	-48,339	0,079	0,027
-262,467	98,443	0,118	0,099
-261,453	626,256	-0,022	-0,040
-260,438	-27,654	-0,115	0,048
-259,424	-200,000	-0,026	-0,135
-258,409	-59,820	0,116	-0,036
-257,395	800,000	-0,048	-0,151
-256,380	159,628	0,050	-0,050
-255,365	369,491	0,005	0,008
-254,351	17,122	0,074	-0,042
-253,336	266,425	-0,062	0,079
-252,322	370,906	-0,096	-0,141
-251,307	-200,000	-0,015	0,065
-250,292	502,970	0,067	0,113
-249,278	-200,000	0,131	0,000
-248,263	-139,368	0,124	-0,009
-247,249	800,000	-0,034	0,092
-246,234	337,171	-0,048	-0,067
-245,219	55,443	0,007	0,005
-244,205	-37,463	-0,108	-0,042
-243,190	-58,948	0,081	0,025
-242,176	603,946	-0,015	-0,028
-241,161	1,433	0,083	-0,043
-240,146	-74,753	0,059	0,015
-239,132	800,000	0,010	-0,029
-238,117	-200,000	0,004	-0,073
-237,103	-52,007	0,178	-0,059
-236,088	-131,489	-0,072	0,007
-235,073	-200,000	-0,037	-0,150
-234,059	800,000	0,029	-0,061
-233,044	-5,957	0,089	-0,044
-232,030	-200,000	0,021	0,093
-231,015	131,036	-0,038	-0,036
-230,000	-55,019	-0,098	0,032
-228,986	368,791	0,038	0,056
-227,971	181,148	-0,088	0,093
-226,957	63,429	-0,040	0,029
-225,942	10,568	0,131	-0,072
-224,927	190,666	-0,035	-0,038
-223,913	-200,000	-0,001	-0,006
-222,898	-95,560	-0,051	0,010
-221,884	-172,792	0,071	-0,002
-220,869	-141,619	-0,066	0,005
-219,855	68,690	0,107	-0,079
-218,840	14,386	-0,007	0,004
-217,825	11,924	-0,120	-0,066
-216,811	-135,394	-0,043	0,004
-215,796	-104,488	-0,118	-0,019
-214,782	105,406	0,045	-0,038
-213,767	734,371	-0,071	0,138
-212,752	-68,365	0,192	0,054
-211,738	328,197	-0,046	-0,064
-210,723	-76,131	0,075	0,019
-209,709	-72,244	0,131	-0,035
-208,694	-200,000	0,031	-0,133
-207,679	382,864	0,050	0,074
-206,665	-70,897	-0,079	0,021
-205,650	136,762	0,128	0,121
-204,636	-200,000	0,003	0,020
-203,621	-122,949	-0,101	0,012
-202,606	800,000	-0,024	-0,059
-201,592	40,195	0,056	-0,036
-200,577	51,497	-0,086	0,059
-199,563	178,389	-0,062	-0,065
-198,548	-200,000	0,003	0,088
-197,533	-200,000	0,003	0,095
-196,519	800,000	0,053	0,169
-195,504	4,734	0,093	0,049
-194,490	110,006	0,106	-0,091
-193,475	-105,097	0,087	-0,014
-192,460	800,000	0,034	-0,099
-191,446	-200,000	-0,018	-0,064
-190,431	-200,000	0,041	0,134
-189,417	-200,000	-0,012	0,070
-188,402	-52,525	0,061	-0,020
-187,387	-200,000	0,031	0,160
-186,373	800,000	-0,021	-0,043
-185,358	-38,655	-0,187	0,071
-184,344	76,940	-0,079	0,060
-183,329	203,727	0,012	0,014
-182,315	446,425	0,102	0,163
-181,300	712,538	-0,049	-0,094
-180,285	-157,447	0,056	-0,002
-179,271	3,020	-0,063	-0,033
-178,256	-36,227	-0,037	0,014
-177,242	-200,000	0,026	0,134
-176,227	61,079	-0,062	0,044
-175,212	-200,000	0,055	0,000
-174,198	166,077	0,018	0,018
-173,183	-34,340	-0,179	0,070
-172,169	-200,000	0,005	0,163
-171,154	197,337	-0,069	-0,077
-170,139	244,952	0,031	0,038
-169,125	80,059	0,030	0,023
-168,110	-111,644	0,027	-0,004
-167,096	-95,734	-0,047	0,009
-166,081	189,400	-0,088	-0,095
-165,066	778,223	-0,030	0,059
-164,052	490,152	-0,045	0,074
-163,037	-4,176	0,041	0,020
-162,023	135,859	0,020	0,019
-161,008	-200,000	0,011	-0,138
-159,993	-200,000	-0,007	-0,055
-158,979	295,629	-0,068	0,090
-157,964	35,104	-0,094	-0,060
-156,950	90,893	0,043	0,035
-155,935	800,000	0,025	0,071
-154,920	-200,000	0,030	-0,120
-153,906	-200,000	-0,007	-0,039
-152,891	24,882	-0,150	0,089
-151,877	273,196	-0,077	-0,098
-150,862	-200,000	0,016	-0,173
-149,847	-137,819	0,142	0,011
-148,833	-69,911	-0,041	0,011
-147,818	800,000	0,042	0,120
-146,804	-9,779	0,134	-0,064
-145,789	309,810	0,060	-0,081
-144,775	-166,491	-0,046	-0,001
-143,760	800,000	0,037	0,075
-142,745	636,848	0,093	-0,171
-141,731	236,701	-0,030	0,035
-140,716	79,180	-0,062	-0,047
-139,702	-143,605	0,101	0,007
-138,687	103,112	0,097	0,082
-137,672	-200,000	-0,008	-0,049
-136,658	-200,000	-0,017	0,064
-135,643	-112,192	-0,082	-0,012
-134,629	-200,000	0,019	-0,113
-133,614	293,437	0,061	0,080
-132,599	-200,000	-0,027	0,186
-131,585	178,715	-0,088	0,093
-130,570	-200,000	-0,015	-0,061
-129,556	233,544	-0,055	-0,065
-128,541	174,351	0,137	-0,142
-127,526	800,000	0,033	0,066
-126,512	-157,620	0,055	0,002
-125,497	325,330	-0,070	0,097
-124,483	-200,000	0,035	0,114
-123,468	234,811	0,069	-0,082
-122,453	-140,255	-0,024	0,002
-121,439	-8,017	-0,083	-0,040
-120,424	128,178	-0,051	-0,046
-119,410	800,000	-0,032	0,081
-118,395	33,781	0,021	-0,013
