DTS Sentinel unit serial number:	SN410029Multiplexer serial number:	ORYXHardware model number:	OX2-SRSoftware version number:	ORYX F/W v4,00 Oryx Data Collector v3.7.2.0data status	okinstallation	B6 Nyhavnadifferential loss correction	single-endedforward channel	channel 2reverse channel	N/Adate	2023/12/09time	06:10:08forward acquisition time	300,00reverse acquisition time	0,00gamma	499,1914k internal	0,3141k external	0,3141temperature offset calibration	1,0000default loss term (dB/km)	0,3820temperature slope calibration	1,0000multiplexer offset coefficient	1,0000multiplexer slope coefficient	1,0000fibre end	0,00T internal ref (°C)	18,31T ext. ref 1 (°C)	2,29T ext. ref 2 (°C)	2,32length (m)	temperature (°C)	Stokes	anti-Stokes-744,400	705,664	0,133	-0,262
-743,385	-162,416	-0,228	0,008
-742,371	800,000	0,036	-0,082
-741,356	-90,994	-0,265	0,056
-740,342	-133,678	0,214	-0,020
-739,327	-176,074	-0,309	-0,006
-738,312	-200,000	0,043	-0,182
-737,298	-43,909	-0,203	-0,075
-736,283	330,656	0,048	0,068
-735,269	-162,238	-0,202	-0,007
-734,254	-58,457	0,093	-0,030
-733,239	-88,403	-0,427	-0,094
-732,225	83,780	0,082	-0,066
-731,210	202,769	0,102	0,117
-730,196	-200,000	-0,029	0,111
-729,181	-200,000	-0,011	-0,144
-728,167	-200,000	0,011	-0,038
-727,152	800,000	-0,036	-0,114
-726,137	-200,000	-0,018	-0,131
-725,123	484,225	-0,034	0,057
-724,108	800,000	0,042	-0,134
-723,094	-200,000	-0,039	-0,231
-722,079	376,236	-0,085	-0,129
-721,064	-13,230	-0,025	-0,012
-720,050	21,897	-0,090	0,054
-719,035	800,000	-0,005	-0,012
-718,021	-90,971	-0,095	0,020
-717,006	800,000	-0,072	-0,157
-715,991	408,317	-0,088	-0,138
-714,977	414,406	0,028	-0,044
-713,962	800,000	-0,070	-0,162
-712,948	76,341	0,087	0,068
-711,933	63,655	-0,053	0,040
-710,918	-200,000	0,021	-0,113
-709,904	-38,543	-0,162	-0,063
-708,889	397,621	-0,117	-0,182
-707,875	-115,198	-0,105	-0,015
-706,860	308,484	0,090	-0,125
-705,845	87,014	0,027	0,022
-704,831	-200,000	0,011	0,091
-703,816	434,778	-0,042	0,068
-702,802	800,000	0,047	0,110
-701,787	155,909	-0,082	-0,084
-700,772	-200,000	0,024	-0,117
-699,758	45,926	0,112	-0,077
-698,743	800,000	-0,038	0,117
-697,729	-53,851	0,023	-0,008
-696,714	-200,000	0,013	0,117
-695,699	388,396	-0,044	0,067
-694,685	-74,712	-0,033	-0,009
-693,670	42,632	-0,062	-0,042
-692,656	800,000	0,023	-0,069
-691,641	420,962	-0,071	0,112
-690,627	676,798	0,040	0,077
-689,612	332,393	0,065	-0,093
-688,597	-88,024	-0,222	-0,049
-687,583	800,000	0,020	0,049
-686,568	64,769	0,114	-0,085
-685,554	-65,257	-0,027	-0,008
-684,539	23,341	-0,090	0,055
-683,524	-133,946	0,055	-0,005
-682,510	-45,441	-0,087	0,032
-681,495	784,939	-0,016	0,033
-680,481	191,888	0,083	-0,092
-679,466	21,362	0,083	-0,050
-678,451	50,179	-0,069	0,048
-677,437	31,167	0,059	0,037
-676,422	-53,551	-0,040	-0,013
-675,408	-200,000	0,016	-0,096
-674,393	800,000	0,027	0,069
-673,378	66,408	-0,177	-0,133
-672,364	800,000	0,012	-0,028
-671,349	-130,040	-0,195	-0,019
-670,335	57,645	-0,037	-0,026
-669,320	190,957	-0,049	-0,054
-668,305	-200,000	0,005	0,041
-667,291	522,643	-0,028	0,049
-666,276	-99,378	-0,120	0,022
-665,262	-200,000	0,047	-0,237
-664,247	-88,213	-0,032	-0,007
-663,232	-200,000	-0,032	0,152
-662,218	-121,892	-0,169	-0,020
-661,203	800,000	0,070	0,190
-660,189	279,616	0,065	-0,086
-659,174	-78,137	-0,060	-0,015
-658,159	-17,897	-0,009	-0,004
-657,145	-25,350	-0,121	0,053
-656,130	-73,955	0,074	-0,020
-655,116	800,000	0,038	-0,086
-654,101	800,000	0,026	0,074
-653,086	-72,155	-0,050	0,013
-652,072	-200,000	-0,003	-0,115
-651,057	36,328	0,055	0,036
-650,043	800,000	-0,026	-0,065
-649,028	556,586	0,036	0,065
-648,014	143,979	-0,062	-0,061
-646,999	-200,000	-0,005	-0,103
-645,984	-110,892	0,088	0,013
-644,970	-150,558	-0,175	-0,010
-643,955	257,308	0,140	-0,178
-642,941	292,492	-0,102	0,138
-641,926	5,732	-0,100	0,055
-640,911	252,061	-0,059	-0,074
-639,897	800,000	0,044	0,098
-638,882	243,173	-0,096	0,119
-637,868	90,704	-0,037	0,030
-636,853	-14,960	-0,021	-0,010
-635,838	94,600	-0,171	-0,143
-634,824	-28,671	-0,049	0,021
-633,809	-144,026	0,121	0,008
-632,795	-19,073	0,066	0,030
-631,780	-200,000	-0,004	-0,067
-630,765	-200,000	0,026	0,097
-629,751	353,525	0,163	0,239
-628,736	194,633	-0,097	0,109
-627,722	-200,000	0,025	-0,115
-626,707	16,919	0,135	-0,079
-625,692	-115,992	0,041	-0,006
-624,678	800,000	0,038	0,079
-623,663	193,847	-0,006	0,007
-622,649	-200,000	-0,041	-0,174
-621,634	47,551	0,014	-0,009
-620,619	5,706	0,047	0,026
-619,605	329,334	-0,075	0,107
-618,590	-200,000	0,022	0,080
-617,576	-200,000	0,018	0,121
-616,561	16,113	0,036	0,021
-615,546	-67,700	-0,088	-0,025
-614,532	-200,000	-0,005	-0,063
-613,517	7,700	-0,070	0,038
-612,503	79,239	-0,006	0,005
-611,488	254,714	0,039	-0,049
-610,474	-55,479	-0,047	-0,015
-609,459	149,747	-0,054	0,054
-608,444	195,993	-0,022	-0,024
-607,430	800,000	0,059	0,140
-606,415	37,649	0,079	-0,052
-605,401	-200,000	0,003	-0,179
-604,386	198,896	0,090	-0,101
-603,371	474,148	-0,057	0,095
-602,357	31,249	0,088	0,055
-601,342	-180,257	-0,045	0,001
-600,328	-123,072	-0,124	-0,014
-599,313	800,000	0,038	-0,113
-598,298	-38,315	0,014	0,006
-597,284	18,699	0,018	-0,010
-596,269	-93,034	-0,132	-0,027
-595,255	-200,000	0,018	0,064
-594,240	-126,683	-0,098	-0,011
-593,225	-200,000	0,010	-0,170
-592,211	-113,249	-0,101	0,014
-591,196	-118,365	0,079	-0,010
-590,182	-200,000	0,013	-0,162
-589,167	-54,103	-0,088	0,029
-588,152	132,795	0,086	0,082
-587,138	-105,027	-0,159	0,026
-586,123	359,239	0,060	-0,089
-585,109	-77,524	-0,106	-0,027
-584,094	112,247	-0,114	-0,101
-583,079	-117,910	0,028	-0,004
-582,065	-42,228	0,074	-0,028
-581,050	-200,000	0,006	0,046
-580,036	-25,088	-0,123	0,054
-579,021	23,656	-0,106	-0,064
-578,006	79,348	-0,098	-0,077
-576,992	271,346	-0,089	-0,116
-575,977	-74,382	-0,045	-0,012
-574,963	800,000	0,033	0,092
-573,948	81,384	0,109	0,086
-572,934	800,000	0,019	-0,052
-571,919	-200,000	-0,010	0,052
-570,904	-200,000	0,003	0,018
-569,890	114,852	0,039	0,035
-568,875	-90,165	-0,102	-0,022
-567,861	568,233	0,076	0,136
-566,846	-142,903	0,181	0,013
-565,831	-48,387	-0,039	-0,014
-564,817	-200,000	-0,008	0,172
-563,802	707,233	0,041	0,079
-562,788	6,704	0,068	-0,037
-561,773	-31,456	-0,093	0,038
-560,758	-34,837	0,108	-0,043
-559,744	800,000	-0,039	-0,086
-558,729	-122,597	-0,083	0,010
-557,715	-200,000	0,031	-0,133
-556,700	-200,000	-0,009	-0,067
-555,685	-24,943	-0,125	-0,054
-554,671	397,548	0,050	0,077
-553,656	-17,070	0,031	-0,014
-552,642	-80,673	0,033	-0,008
-551,627	107,716	-0,086	-0,076
-550,612	800,000	0,048	0,109
-549,598	800,000	0,017	-0,040
-548,583	-140,798	-0,116	0,009
-547,569	-21,664	0,118	0,053
-546,554	243,143	0,027	0,034
-545,539	-200,000	0,037	0,147
-544,525	-88,667	-0,156	0,034
-543,510	755,774	-0,054	0,109
-542,496	-29,024	-0,057	0,024
-541,481	800,000	0,049	-0,118
-540,466	356,931	-0,079	0,115
-539,452	317,332	0,044	0,061
-538,437	-173,213	0,080	0,002
-537,423	800,000	-0,010	0,024
-536,408	205,532	-0,021	-0,024
-535,393	122,829	-0,035	-0,033
-534,379	274,951	0,066	0,086
-533,364	238,985	-0,109	-0,133
-532,350	-15,471	0,094	-0,044
-531,335	-200,000	0,007	-0,052
-530,321	-72,539	-0,056	0,015
-529,306	-200,000	0,007	-0,023
-528,291	-24,073	0,082	-0,036
-527,277	800,000	-0,019	-0,039
-526,262	-95,613	0,042	0,008
-525,248	407,832	0,066	0,103
-524,233	145,637	0,088	-0,087
-523,218	-200,000	0,011	0,052
-522,204	235,816	-0,038	-0,046
-521,189	86,764	-0,018	0,015
-520,175	-200,000	0,004	-0,054
-519,160	-45,239	-0,037	-0,014
-518,145	-200,000	0,010	-0,060
-517,131	-85,515	0,046	-0,010
-516,116	-48,416	0,123	-0,043
-515,102	-62,343	-0,053	-0,016
-514,087	-200,000	0,024	-0,102
-513,072	800,000	-0,043	-0,129
-512,058	-200,000	0,004	-0,091
-511,043	-180,263	0,136	0,002
-510,029	-200,000	-0,013	-0,077
-509,014	218,050	-0,011	0,013
-507,999	-200,000	0,004	0,108
-506,985	800,000	-0,018	-0,055
-505,970	294,101	0,034	-0,046
-504,956	800,000	0,028	-0,081
-503,941	-139,253	-0,071	0,006
-502,926	-48,595	0,066	-0,023
-501,912	-200,000	0,002	0,168
-500,897	800,000	0,024	0,059
-499,883	-70,451	-0,050	0,014
-498,868	800,000	0,061	-0,167
-497,853	-200,000	-0,000	0,039
-496,839	-50,906	-0,044	-0,015
-495,824	9,397	0,131	-0,073
-494,810	-80,773	0,040	0,010
-493,795	153,407	-0,039	0,039
-492,781	-200,000	0,009	-0,097
-491,766	143,466	0,064	-0,062
-490,751	80,117	-0,028	-0,022
-489,737	515,818	0,042	0,072
-488,722	-83,833	0,076	0,018
-487,708	480,174	0,023	-0,038
-486,693	371,431	-0,038	-0,057
-485,678	-200,000	-0,026	-0,122
-484,664	800,000	-0,064	-0,168
-483,649	-72,809	-0,024	-0,006
-482,635	348,402	-0,097	0,141
-481,620	-81,092	0,041	0,010
-480,605	-200,000	-0,002	-0,012
-479,591	-34,342	-0,062	-0,025
-478,576	21,161	0,103	0,061
-477,562	-154,014	-0,045	0,002
-476,547	107,656	-0,045	-0,040
-475,532	134,400	0,084	0,080
-474,518	735,814	0,062	0,123
-473,503	52,538	0,023	0,016
-472,489	745,708	0,011	0,022
-471,474	36,514	-0,038	0,024
-470,459	-35,456	-0,163	0,065
-469,445	-100,697	-0,113	0,020
-468,430	-12,441	0,080	-0,038
-467,416	-47,626	0,034	-0,012
-466,401	111,379	0,054	-0,048
-465,386	460,895	-0,013	-0,021
-464,372	28,622	-0,059	-0,037
-463,357	-102,703	0,143	-0,025
-462,343	680,881	0,050	-0,095
-461,328	-57,808	0,123	0,039
-460,313	252,294	-0,077	-0,097
-459,299	259,187	0,019	-0,024
-458,284	2,913	-0,077	0,041
-457,270	-64,886	-0,156	0,046
-456,255	-200,000	0,001	-0,119
-455,241	-200,000	-0,031	-0,128
-454,226	-200,000	-0,015	-0,049
-453,211	467,618	-0,032	0,053
-452,197	138,991	0,104	0,100
-451,182	200,962	-0,100	0,113
-450,168	-200,000	-0,013	0,067
-449,153	268,836	0,041	-0,053
-448,138	410,482	0,092	-0,144
-447,124	-121,240	-0,212	-0,026
-446,109	72,007	0,025	-0,019
-445,095	-200,000	-0,109	-0,000
-444,080	-129,968	0,038	-0,004
-443,065	-200,000	-0,006	0,135
-442,051	-167,168	-0,056	-0,002
-441,036	-4,657	0,163	-0,082
-440,022	50,763	-0,051	0,035
-439,007	359,887	0,079	0,116
-437,992	12,257	0,074	0,041
-436,978	-200,000	0,011	0,042
-435,963	-200,000	0,002	0,106
-434,949	-200,000	0,000	-0,159
-433,934	-200,000	-0,018	-0,067
-432,919	-200,000	0,004	0,037
-431,905	-2,138	-0,046	0,024
-430,890	-200,000	0,001	0,009
-429,876	-95,837	0,064	0,012
-428,861	147,113	-0,048	-0,048
-427,846	124,531	-0,087	-0,080
-426,832	-20,570	-0,069	-0,031
-425,817	-200,000	-0,003	0,018
-424,803	800,000	0,063	-0,183
-423,788	268,334	-0,028	0,036
-422,773	15,124	-0,018	0,010
-421,759	63,621	0,028	0,021
-420,744	45,674	0,070	-0,047
-419,730	192,875	-0,087	0,097
-418,715	800,000	-0,008	0,025
-417,701	86,097	0,032	0,025
-416,686	-62,709	-0,065	0,020
-415,671	470,718	0,098	-0,162
-414,657	-200,000	0,020	0,082
-413,642	-72,527	-0,054	0,014
-412,628	-200,000	0,002	-0,087
-411,613	378,732	-0,109	-0,164
-410,598	110,130	0,092	-0,081
-409,584	381,108	0,031	0,046
-408,569	47,771	0,099	-0,067
-407,555	296,675	-0,047	-0,063
-406,540	-200,000	0,007	-0,044
-405,525	-0,115	0,057	0,030
-404,511	-52,563	-0,100	0,034
-403,496	119,143	0,092	-0,083
-402,482	-116,074	-0,174	0,023
-401,467	720,071	-0,073	-0,143
-400,452	-119,554	0,189	0,024
-399,438	669,595	-0,088	-0,168
-398,423	676,821	-0,088	-0,167
-397,409	800,000	0,015	0,034
-396,394	800,000	0,056	0,126
-395,379	-103,806	-0,127	-0,021
-394,365	242,137	-0,041	0,050
-393,350	-200,000	0,000	-0,009
-392,336	3,634	-0,086	-0,046
-391,321	-120,998	-0,093	-0,011
-390,306	47,692	-0,077	-0,052
-389,292	-200,000	0,023	-0,096
-388,277	87,543	-0,136	0,110
-387,263	-140,016	-0,141	0,011
-386,248	25,770	0,190	0,115
-385,233	800,000	0,012	0,024
-384,219	-200,000	-0,008	0,116
-383,204	-67,808	-0,013	0,004
-382,190	502,706	0,061	-0,103
-381,175	410,221	-0,092	-0,143
-380,160	166,755	-0,109	-0,113
-379,146	15,874	0,090	-0,052
-378,131	126,325	-0,103	-0,095
-377,117	800,000	-0,004	0,009
-376,102	-200,000	-0,028	-0,151
-375,088	-135,188	-0,065	-0,006
-374,073	62,566	0,030	-0,022
-373,058	800,000	0,054	-0,149
-372,044	-109,147	0,048	0,007
-371,029	-145,044	-0,153	0,010
-370,015	-174,540	0,068	-0,001
-369,000	-32,459	0,139	-0,056
-367,985	-97,174	-0,168	-0,032
-366,971	-0,342	0,059	0,031
-365,956	-200,000	0,024	0,226
-364,942	200,314	0,091	0,102
-363,927	196,432	0,045	-0,050
-362,912	-123,051	-0,065	-0,008
-361,898	450,056	-0,011	-0,017
-360,883	6,622	-0,070	-0,038
-359,869	-64,587	-0,050	-0,015
-358,854	124,952	-0,075	0,069
-357,839	800,000	0,069	0,187
-356,825	800,000	0,017	-0,041
-355,810	710,488	0,087	-0,169
-354,796	204,621	-0,026	-0,030
-353,781	40,989	-0,081	0,054
-352,766	-159,778	0,052	0,002
-351,752	-66,724	-0,123	0,035
-350,737	-46,605	0,149	0,053
-349,723	-147,011	0,151	0,009
-348,708	98,396	0,066	0,056
-347,693	-200,000	0,037	0,184
-346,679	-164,699	0,017	0,001
-345,664	800,000	-0,033	-0,074
-344,650	170,287	0,096	0,100
-343,635	-200,000	-0,040	0,155
-342,620	13,226	-0,014	0,008
-341,606	705,839	0,055	0,107
-340,591	-43,862	0,040	0,014
-339,577	224,960	0,015	-0,017
-338,562	-200,000	-0,034	-0,199
-337,548	224,967	0,044	-0,052
-336,533	-108,563	0,044	0,007
-335,518	-200,000	0,021	0,111
-334,504	2,509	-0,141	0,074
-333,489	368,042	0,129	0,190
-332,475	-32,324	0,104	0,042
-331,460	7,983	-0,112	-0,061
-330,445	-200,000	0,009	-0,036
-329,431	-200,000	-0,004	0,199
-328,416	700,671	-0,072	0,139
-327,402	61,960	0,052	-0,038
-326,387	52,826	0,139	0,097
-325,372	-152,301	-0,048	-0,002
-324,358	-38,655	-0,062	0,024
-323,343	800,000	-0,042	0,106
-322,329	392,581	-0,009	-0,014
-321,314	122,700	0,078	-0,071
-320,299	-200,000	-0,030	0,110
-319,285	568,029	-0,019	0,033
-318,270	-42,827	-0,064	0,024
-317,256	-200,000	-0,019	-0,133
-316,241	-200,000	-0,012	-0,140
-315,226	-9,693	-0,063	0,030
-314,212	800,000	0,028	0,061
-313,197	-200,000	0,008	0,086
-312,183	32,552	0,036	0,022
-311,168	800,000	-0,020	0,061
-310,153	-200,000	-0,008	-0,152
-309,139	126,036	0,088	-0,081
-308,124	366,746	0,041	-0,061
-307,110	-200,000	0,016	-0,122
-306,095	800,000	0,015	-0,038
-305,080	361,538	0,022	0,032
-304,066	72,701	-0,066	-0,050
-303,051	800,000	0,038	0,102
-302,037	297,476	0,026	0,035
-301,022	-5,094	0,035	-0,017
-300,008	275,593	0,025	-0,032
-298,993	-200,000	-0,022	-0,149
-297,978	-200,000	-0,011	0,099
-296,964	-157,472	0,120	-0,005
-295,949	800,000	-0,067	-0,155
-294,935	-200,000	0,032	-0,179
-293,920	114,961	0,069	0,061
-292,905	-95,794	0,065	-0,013
-291,891	-41,341	-0,101	0,038
-290,876	-64,914	0,086	-0,025
-289,862	212,404	-0,085	0,098
-288,847	-200,000	-0,010	-0,060
-287,832	96,068	0,108	0,090
-286,818	-91,330	-0,073	0,015
-285,803	800,000	0,033	0,089
-284,789	800,000	0,019	0,059
-283,774	800,000	-0,038	0,096
-282,759	800,000	-0,027	0,064
-281,745	-200,000	0,024	0,136
-280,730	-60,644	-0,054	-0,017
-279,716	-81,092	-0,064	0,015
-278,701	-200,000	0,070	0,000
-277,686	-69,752	-0,042	-0,012
-276,672	-200,000	-0,026	0,204
-275,657	-200,000	-0,008	-0,070
-274,643	-200,000	0,029	0,123
-273,628	-95,403	0,037	-0,007
-272,613	13,173	-0,106	0,059
-271,599	-200,000	-0,022	0,075
-270,584	-200,000	0,132	-0,000
-269,570	64,020	-0,042	-0,031
-268,555	-61,806	0,037	-0,011
-267,540	-84,385	0,214	0,049
-266,526	-29,560	-0,104	-0,043
-265,511	57,426	0,091	-0,065
-264,497	-6,820	0,125	0,062
-263,482	-200,000	0,009	-0,105
-262,467	-111,921	0,082	-0,012
-261,453	-200,000	-0,017	0,157
-260,438	-32,225	-0,075	-0,030
-259,424	-200,000	-0,001	0,019
-258,409	-200,000	0,003	-0,013
-257,395	-200,000	-0,016	0,085
-256,380	800,000	-0,062	0,127
-255,365	-200,000	0,003	0,186
-254,351	-189,086	-0,023	-0,000
-253,336	-94,300	-0,096	0,019
-252,322	298,370	0,056	-0,075
-251,307	604,821	-0,080	-0,145
-250,292	800,000	-0,019	-0,044
-249,278	-1,836	0,154	0,078
-248,263	-200,000	-0,009	-0,029
-247,249	-65,269	-0,022	0,006
-246,234	18,237	0,077	-0,044
-245,219	-200,000	-0,041	-0,155
-244,205	752,937	0,019	-0,038
-243,190	115,525	0,063	-0,056
-242,176	236,295	-0,036	-0,043
-241,161	-90,893	0,125	0,026
-240,146	594,491	-0,077	0,138
-239,132	482,847	-0,025	-0,041
-238,117	-37,267	-0,122	-0,047
-237,103	225,348	-0,130	-0,154
-236,088	314,290	0,064	-0,088
-235,073	275,385	0,142	0,183
-234,059	-177,616	0,049	-0,001
-233,044	178,390	-0,043	0,046
-232,030	7,694	0,147	-0,080
-231,015	-179,523	-0,035	0,001
-230,000	-146,974	-0,167	-0,010
-228,986	-200,000	0,020	0,088
-227,971	5,244	0,057	-0,030
-226,957	-51,033	0,073	-0,025
-225,942	-200,000	0,016	-0,095
-224,927	800,000	-0,055	0,153
-223,913	-200,000	-0,018	-0,113
-222,898	-43,549	-0,231	-0,084
-221,884	-162,149	-0,238	-0,009
-220,869	800,000	-0,051	0,125
-219,855	-25,235	-0,036	0,015
-218,840	-91,665	0,073	-0,015
-217,825	-24,137	-0,046	-0,020
-216,811	553,335	0,058	-0,102
-215,796	800,000	-0,026	0,074
-214,782	504,296	-0,059	-0,099
-213,767	-12,688	0,126	0,060
-212,752	602,677	0,037	-0,067
-211,738	52,245	0,130	0,090
-210,723	282,352	-0,065	0,084
-209,709	397,316	-0,077	0,117
-208,694	-84,954	0,068	-0,015
-207,679	-200,000	-0,054	0,192
-206,665	-200,000	0,001	0,083
-205,650	-200,000	-0,009	0,039
-204,636	-67,304	-0,043	-0,012
-203,621	638,844	-0,028	-0,051
-202,606	346,691	0,034	0,048
-201,592	-200,000	0,002	0,023
-200,577	800,000	0,006	0,018
-199,563	59,474	0,090	-0,065
-198,548	-200,000	0,009	0,145
-197,533	-200,000	-0,018	0,132
-196,519	745,265	0,073	0,144
-195,504	25,675	-0,081	-0,049
-194,490	-200,000	-0,001	-0,031
-193,475	104,777	-0,140	-0,119
-192,460	390,721	0,057	-0,086
-191,446	-54,317	0,150	-0,049
-190,431	-22,753	0,038	-0,017
-189,417	-200,000	-0,025	0,142
-188,402	-124,558	0,157	-0,017
-187,387	678,773	0,074	-0,141
-186,373	331,208	-0,030	-0,041
-185,358	157,805	0,106	0,107
-184,344	100,666	0,068	0,057
-183,329	414,884	0,039	-0,061
-182,315	-200,000	0,012	0,135
-181,300	-200,000	0,005	0,072
-180,285	347,963	0,011	-0,015
-179,271	-200,000	0,020	0,091
-178,256	-200,000	0,035	0,114
-177,242	154,862	0,040	-0,040
-176,227	100,609	-0,050	0,042
-175,212	-200,000	-0,048	-0,157
-174,198	183,569	0,033	-0,035
-173,183	-200,000	0,004	-0,174
-172,169	-29,935	0,077	0,032
-171,154	108,716	0,036	-0,031
-170,139	211,340	0,056	0,064
-169,125	-121,493	0,040	-0,005
-168,110	-89,296	0,128	-0,027
-167,096	85,651	-0,081	-0,064
-166,081	456,254	-0,041	-0,066
-165,066	-8,789	-0,115	-0,056
-164,052	-200,000	-0,018	0,092
-163,037	81,641	-0,024	0,019
-162,023	59,230	0,046	0,033
-161,008	239,451	0,038	0,046
-159,993	-200,000	0,005	0,082
-158,979	-106,530	-0,153	-0,024
-157,964	-88,915	0,033	0,007
-156,950	148,934	-0,019	-0,018
-155,935	800,000	0,022	0,058
-154,920	-200,000	0,019	0,091
-153,906	48,262	0,033	0,023
-152,891	-200,000	-0,000	-0,127
-151,877	411,487	-0,034	-0,052
-150,862	204,942	-0,061	0,069
-149,847	-200,000	0,001	-0,153
-148,833	-101,206	-0,046	0,008
-147,818	-200,000	-0,004	-0,014
-146,804	311,232	0,112	0,152
-145,789	800,000	0,059	0,132
-144,775	-200,000	0,008	0,086
-143,760	-36,269	-0,135	-0,053
-142,745	-200,000	-0,012	0,169
-141,731	98,585	-0,138	-0,115
-140,716	-200,000	-0,028	0,172
-139,702	-71,372	-0,092	0,025
-138,687	213,257	-0,122	0,140
-137,672	645,609	-0,030	-0,056
-136,658	5,922	0,122	-0,065
-135,643	-200,000	0,007	-0,032
-134,629	-155,824	-0,139	0,006
-133,614	-95,702	0,063	0,012
-132,599	272,345	0,072	0,092
-131,585	-200,000	-0,004	0,060
-130,570	800,000	0,067	0,205
-129,556	124,158	0,074	0,067
-128,541	4,735	0,030	-0,016
-127,526	-200,000	0,007	-0,091
-126,512	104,830	0,135	-0,115
-125,497	-18,401	-0,114	0,051
-124,483	800,000	-0,043	0,097
-123,468	800,000	-0,038	0,096
-122,453	247,711	-0,046	0,056
-121,439	108,837	-0,105	-0,091
-120,424	-200,000	-0,015	-0,059
-119,410	-77,314	0,142	0,036
