DTS Sentinel unit serial number:	SN410029Multiplexer serial number:	ORYXHardware model number:	OX2-SRSoftware version number:	ORYX F/W v4,00 Oryx Data Collector v3.7.2.0data status	okinstallation	B6 Nyhavnadifferential loss correction	single-endedforward channel	channel 2reverse channel	N/Adate	2023/12/08time	11:25:08forward acquisition time	300,00reverse acquisition time	0,00gamma	499,1914k internal	0,3160k external	0,3160temperature offset calibration	1,0000default loss term (dB/km)	0,3820temperature slope calibration	1,0000multiplexer offset coefficient	1,0000multiplexer slope coefficient	1,0000fibre end	0,00T internal ref (°C)	14,91T ext. ref 1 (°C)	-1,40T ext. ref 2 (°C)	-1,39length (m)	temperature (°C)	Stokes	anti-Stokes-744,400	-68,273	0,086	-0,024
-743,385	-32,718	-0,333	0,136
-742,371	-200,000	0,006	0,075
-741,356	-55,741	-0,184	0,060
-740,342	-72,181	0,263	0,071
-739,327	-79,183	-0,247	0,061
-738,312	176,904	0,156	0,168
-737,298	-99,710	-0,436	0,080
-736,283	-59,852	0,138	0,043
-735,269	-133,884	-0,371	0,034
-734,254	800,000	0,059	0,191
-733,239	-93,617	-0,490	-0,099
-732,225	-67,438	0,229	0,066
-731,210	-200,000	0,027	-0,119
-730,196	230,030	-0,075	-0,091
-729,181	262,658	0,110	0,141
-728,167	-119,690	0,143	-0,018
-727,152	-112,675	-0,111	-0,016
-726,137	165,448	-0,089	0,093
-725,123	144,420	0,042	-0,042
-724,108	-200,000	-0,121	-0,000
-723,094	800,000	0,018	-0,056
-722,079	-114,516	-0,072	-0,010
-721,064	20,970	-0,067	-0,040
-720,050	-200,000	0,001	0,071
-719,035	25,206	0,105	-0,064
-718,021	-200,000	0,012	0,052
-717,006	17,858	-0,143	-0,083
-715,991	-200,000	-0,020	0,082
-714,977	800,000	-0,009	0,026
-713,962	704,648	0,037	0,071
-712,948	125,226	-0,084	-0,078
-711,933	755,225	0,032	-0,064
-710,918	-19,744	-0,081	-0,037
-709,904	-200,000	-0,012	-0,054
-708,889	28,608	-0,047	-0,029
-707,875	-49,256	-0,006	-0,002
-706,860	800,000	-0,023	-0,059
-705,845	-200,000	0,025	-0,100
-704,831	-42,525	-0,067	-0,025
-703,816	-200,000	-0,022	-0,095
-702,802	286,369	0,059	0,078
-701,787	-24,069	-0,176	-0,077
-700,772	800,000	-0,021	0,062
-699,758	40,926	0,117	-0,077
-698,743	-40,654	0,125	0,047
-697,729	82,531	0,047	0,037
-696,714	800,000	-0,051	-0,155
-695,699	-7,348	-0,135	-0,067
-694,685	-136,731	0,041	-0,003
-693,670	66,217	-0,082	-0,061
-692,656	768,980	0,093	0,187
-691,641	-62,922	0,068	0,020
-690,627	800,000	-0,010	0,033
-689,612	-57,723	-0,148	-0,047
-688,597	536,073	-0,050	-0,088
-687,583	800,000	-0,047	-0,131
-686,568	41,042	0,072	0,047
-685,554	-64,101	0,028	-0,008
-684,539	-111,840	0,133	0,020
-683,524	204,420	0,084	0,095
-682,510	-52,643	-0,103	0,035
-681,495	-200,000	0,004	0,029
-680,481	434,341	-0,051	0,081
-679,466	-200,000	-0,018	-0,152
-678,451	354,397	-0,074	0,108
-677,437	-200,000	0,013	0,091
-676,422	69,460	-0,081	-0,062
-675,408	800,000	0,012	-0,035
-674,393	-44,334	-0,170	-0,062
-673,378	250,528	-0,055	0,069
-672,364	624,868	0,042	0,079
-671,349	310,261	-0,104	0,144
-670,335	550,095	-0,072	-0,127
-669,320	-16,861	0,095	-0,044
-668,305	717,121	0,026	0,051
-667,291	39,676	-0,089	0,058
-666,276	538,591	-0,089	-0,157
-665,262	12,782	-0,199	-0,113
-664,247	57,215	-0,062	-0,044
-663,232	292,140	0,041	-0,055
-662,218	800,000	0,066	0,165
-661,203	-125,014	0,176	0,020
-660,189	-17,395	-0,023	-0,010
-659,174	-200,000	0,018	-0,159
-658,159	305,536	-0,068	-0,093
-657,145	72,930	-0,220	-0,169
-656,130	-200,000	-0,007	-0,049
-655,116	-200,000	-0,055	0,190
-654,101	310,500	0,092	0,127
-653,086	-32,642	-0,131	0,053
-652,072	77,939	0,053	0,042
-651,057	-40,568	0,086	0,032
-650,043	800,000	0,032	-0,075
-649,028	-137,510	-0,112	-0,009
-648,014	-17,171	0,099	-0,046
-646,999	-21,661	-0,070	0,031
-645,984	-61,720	0,119	-0,036
-644,970	-99,084	-0,066	0,012
-643,955	800,000	0,022	-0,060
-642,941	-71,373	-0,184	-0,050
-641,926	751,839	-0,026	0,053
-640,911	800,000	-0,044	0,133
-639,897	-94,836	0,083	0,016
-638,882	-145,427	-0,141	0,009
-637,868	98,833	0,008	-0,007
-636,853	-200,000	0,008	-0,187
-635,838	-40,666	-0,176	-0,067
-634,824	762,021	0,057	-0,114
-633,809	-2,458	0,120	-0,061
-632,795	-70,183	-0,029	-0,008
-631,780	49,296	-0,024	0,016
-630,765	120,700	0,020	-0,018
-629,751	191,773	-0,061	-0,067
-628,736	195,782	-0,025	-0,028
-627,722	283,736	-0,055	-0,072
-626,707	-6,848	-0,102	-0,051
-625,692	-68,191	-0,091	-0,026
-624,678	-200,000	0,021	0,074
-623,663	-200,000	0,002	0,099
-622,649	-126,638	-0,137	-0,015
-621,634	321,693	0,075	-0,105
-620,619	-61,562	0,025	-0,008
-619,605	-117,390	-0,079	-0,010
-618,590	-200,000	-0,002	0,037
-617,576	-137,214	0,046	0,004
-616,561	-1,613	-0,034	0,017
-615,546	259,512	-0,064	0,082
-614,532	12,063	-0,089	0,050
-613,517	-200,000	-0,010	-0,045
-612,503	138,604	-0,093	-0,089
-611,488	-122,546	0,141	0,017
-610,474	-135,767	-0,001	0,000
-609,459	-74,925	-0,052	0,014
-608,444	669,031	-0,040	-0,075
-607,430	-28,482	-0,070	-0,029
-606,415	11,880	0,038	-0,022
-605,401	-90,799	0,062	0,013
-604,386	-88,288	0,120	-0,026
-603,371	-145,039	0,052	-0,003
-602,357	387,940	0,074	-0,113
-601,342	-50,757	-0,046	-0,016
-600,328	397,919	0,068	-0,104
-599,313	88,070	-0,094	-0,077
-598,298	553,220	0,067	-0,119
-597,284	132,700	0,025	0,024
-596,269	8,791	0,117	-0,065
-595,255	-39,014	0,138	0,053
-594,240	525,146	0,042	-0,073
-593,225	-180,139	-0,097	-0,001
-592,211	-129,062	-0,029	0,003
-591,196	-200,000	-0,011	0,066
-590,182	61,604	0,035	0,025
-589,167	207,760	-0,085	-0,097
-588,152	-200,000	0,004	0,028
-587,138	292,500	-0,050	0,067
-586,123	547,044	-0,107	-0,189
-585,109	-104,104	0,118	0,020
-584,094	211,752	-0,078	-0,090
-583,079	-200,000	-0,001	0,089
-582,065	-200,000	-0,014	0,055
-581,050	-200,000	-0,025	-0,120
-580,036	-200,000	0,013	0,084
-579,021	-77,276	-0,046	-0,012
-578,006	673,066	0,014	-0,027
-576,992	-200,000	0,006	0,037
-575,977	-118,618	-0,087	0,011
-574,963	-28,299	0,155	0,065
-573,948	-200,000	0,020	-0,070
-572,934	800,000	0,014	-0,041
-571,919	234,882	-0,027	0,033
-570,904	-167,251	-0,110	-0,003
-569,890	-200,000	-0,019	-0,113
-568,875	-200,000	-0,059	-0,220
-567,861	-41,368	0,110	-0,041
-566,846	42,270	0,106	0,070
-565,831	155,240	-0,119	-0,120
-564,817	153,714	0,053	-0,053
-563,802	-200,000	0,009	0,085
-562,788	8,832	0,120	-0,066
-561,773	-72,005	0,036	0,010
-560,758	14,494	-0,137	-0,078
-559,744	619,046	-0,057	-0,104
-558,729	800,000	-0,069	0,185
-557,715	71,083	-0,158	-0,120
-556,700	-200,000	0,021	0,079
-555,685	-71,996	-0,098	-0,027
-554,671	30,793	0,040	0,025
-553,656	-25,394	-0,068	-0,029
-552,642	-74,494	0,082	0,022
-551,627	800,000	-0,045	0,102
-550,612	109,087	-0,135	-0,118
-549,598	294,086	-0,091	-0,122
-548,583	-200,000	0,005	-0,045
-547,569	-200,000	-0,032	0,128
-546,554	270,135	-0,055	0,070
-545,539	169,249	0,061	0,064
-544,525	-200,000	0,051	0,239
-543,510	178,339	0,018	0,019
-542,496	32,101	0,098	-0,061
-541,481	144,723	0,023	0,023
-540,466	-7,272	-0,132	-0,065
-539,452	564,049	0,102	0,182
-538,437	476,528	0,039	0,065
-537,423	-133,845	0,032	-0,003
-536,408	800,000	0,020	-0,063
-535,393	-45,476	-0,100	-0,036
-534,379	669,655	0,057	0,108
-533,364	-200,000	0,014	-0,118
-532,350	-37,191	-0,042	-0,016
-531,335	140,227	0,129	0,125
-530,321	62,025	-0,110	0,080
-529,306	253,312	-0,019	0,023
-528,291	601,056	0,074	0,135
-527,277	76,382	-0,080	-0,062
-526,262	-200,000	-0,002	-0,036
-525,248	95,149	0,098	-0,081
-524,233	800,000	0,069	-0,140
-523,218	-70,269	-0,019	-0,005
-522,204	-45,720	-0,028	0,010
-521,189	-47,900	0,100	-0,035
-520,175	-42,904	-0,133	-0,049
-519,160	265,769	0,015	0,019
-518,145	-86,357	0,053	-0,012
-517,131	-200,000	0,004	-0,077
-516,116	-15,038	0,135	-0,063
-515,102	154,837	-0,057	0,057
-514,087	-101,690	-0,136	-0,024
-513,072	236,029	0,047	-0,057
-512,058	-40,674	-0,051	0,019
-511,043	-200,000	-0,028	0,182
-510,029	800,000	-0,086	0,224
-509,014	19,604	-0,053	-0,031
-507,999	-93,488	0,087	-0,017
-506,985	-200,000	0,002	-0,073
-505,970	687,183	0,052	-0,100
-504,956	314,329	0,047	0,065
-503,941	9,735	0,125	0,069
-502,926	-17,148	0,085	-0,039
-501,912	77,538	0,032	0,025
-500,897	58,068	-0,085	0,061
-499,883	-116,675	0,025	0,003
-498,868	-154,579	0,018	-0,001
-497,853	61,310	0,071	-0,051
-496,839	-200,000	0,029	0,186
-495,824	-200,000	-0,042	0,140
-494,810	-200,000	-0,009	0,067
-493,795	-200,000	-0,007	0,051
-492,781	-66,102	0,114	-0,033
-491,766	-6,965	0,141	0,069
-490,751	0,682	-0,134	0,070
-489,737	-138,245	-0,078	-0,006
-488,722	-104,699	0,180	-0,030
-487,708	-168,703	-0,057	0,002
-486,693	-34,402	-0,138	0,055
-485,678	-200,000	0,002	0,135
-484,664	-22,990	-0,133	0,058
-483,649	152,657	0,062	0,061
-482,635	-62,440	-0,072	0,022
-481,620	68,219	0,118	0,088
-480,605	-200,000	-0,003	0,056
-479,591	16,278	-0,074	-0,043
-478,576	172,825	0,042	-0,044
-477,562	-200,000	0,032	-0,215
-476,547	-116,255	-0,063	-0,008
-475,532	40,675	0,017	0,011
-474,518	-122,651	0,081	-0,009
-473,503	41,556	0,042	0,027
-472,489	-62,346	0,090	0,027
-471,474	625,061	0,027	0,049
-470,459	191,107	-0,007	0,007
-469,445	68,258	0,031	-0,023
-468,430	123,691	0,013	-0,012
-467,416	-71,199	-0,021	0,006
-466,401	-140,467	0,204	-0,015
-465,386	430,212	0,033	0,052
-464,372	59,068	0,054	-0,039
-463,357	-200,000	0,002	0,019
-462,343	-200,000	0,015	0,110
-461,328	-154,110	-0,079	0,004
-460,313	119,077	-0,056	0,051
-459,299	28,523	0,088	0,054
-458,284	-123,128	-0,053	-0,006
-457,270	57,849	0,103	-0,073
-456,255	800,000	-0,018	-0,043
-455,241	-46,961	-0,127	0,045
-454,226	-8,950	0,075	-0,036
-453,211	-200,000	0,011	0,050
-452,197	1,931	-0,160	0,084
-451,182	39,723	0,028	0,018
-450,168	800,000	-0,048	0,106
-449,153	-6,654	0,021	0,011
-448,138	800,000	-0,035	-0,104
-447,124	340,630	-0,029	0,041
-446,109	-135,178	-0,064	-0,005
-445,095	-24,309	0,093	0,040
-444,080	550,386	-0,024	-0,042
-443,065	-54,401	0,117	0,038
-442,051	800,000	0,032	-0,081
-441,036	-200,000	-0,003	-0,254
-440,022	30,612	0,087	0,054
-439,007	800,000	-0,010	0,028
-437,992	800,000	-0,041	0,110
-436,978	176,674	0,104	0,110
-435,963	-128,578	0,063	0,006
-434,949	800,000	-0,030	0,069
-433,934	-200,000	0,039	-0,232
-432,919	128,113	0,045	-0,041
-431,905	-93,704	0,094	0,019
-430,890	52,949	-0,016	0,011
-429,876	51,708	0,123	0,085
-428,861	278,408	-0,056	0,072
-427,846	-27,935	-0,124	-0,052
-426,832	-54,250	0,154	0,051
-425,817	-104,018	-0,036	-0,006
-424,803	-200,000	0,023	0,096
-423,788	-140,123	-0,218	-0,016
-422,773	-200,000	0,004	0,078
-421,759	44,951	0,064	-0,043
-420,744	-200,000	-0,016	-0,085
-419,730	-200,000	0,003	0,071
-418,715	-55,471	-0,065	0,021
-417,701	420,119	0,029	0,046
-416,686	-111,873	-0,058	-0,008
-415,671	65,021	0,079	-0,058
-414,657	800,000	0,064	0,137
-413,642	130,112	0,072	0,067
-412,628	108,864	-0,147	-0,128
-411,613	26,038	-0,077	0,046
-410,598	-107,776	-0,091	-0,014
-409,584	49,113	0,130	-0,089
-408,569	800,000	0,014	0,041
-407,555	-200,000	0,020	-0,137
-406,540	206,839	0,076	-0,086
-405,525	591,693	0,010	0,018
-404,511	-200,000	0,014	-0,189
-403,496	-117,810	-0,100	-0,013
-402,482	317,200	0,035	-0,048
-401,467	4,008	-0,031	0,017
-400,452	-44,505	-0,115	0,042
-399,438	40,548	0,109	0,071
-398,423	800,000	0,035	-0,084
-397,409	800,000	0,045	0,135
-396,394	-200,000	0,000	-0,111
-395,379	-200,000	-0,012	-0,056
-394,365	-2,776	0,091	0,046
-393,350	249,614	0,127	0,156
-392,336	-200,000	-0,029	0,131
-391,321	64,658	-0,060	-0,044
-390,306	-200,000	0,014	-0,057
-389,292	-47,581	0,071	0,025
-388,277	-88,721	-0,251	0,054
-387,263	513,372	-0,044	0,074
-386,248	-200,000	-0,015	0,083
-385,233	800,000	-0,017	0,036
-384,219	-98,090	-0,029	-0,005
-383,204	-200,000	-0,003	-0,057
-382,190	281,677	-0,036	0,047
-381,175	-112,884	0,069	0,010
-380,160	425,655	-0,009	-0,014
-379,146	-200,000	-0,046	0,153
-378,131	800,000	0,028	0,086
-377,117	138,369	0,099	0,094
-376,102	701,683	-0,041	-0,079
-375,088	800,000	-0,048	-0,137
-374,073	-0,138	-0,037	-0,019
-373,058	-200,000	-0,010	0,199
-372,044	-134,855	0,054	0,005
-371,029	182,463	0,096	-0,103
-370,015	-71,140	0,042	0,011
-369,000	800,000	0,049	-0,114
-367,985	800,000	-0,016	0,045
-366,971	47,912	-0,148	0,100
-365,956	-36,525	0,119	0,046
-364,942	800,000	-0,026	0,054
-363,927	-13,824	-0,096	0,045
-362,912	243,332	0,065	0,079
-361,898	736,581	-0,041	0,080
-360,883	-200,000	0,006	0,107
-359,869	-122,340	0,076	-0,009
-358,854	-200,000	-0,000	-0,159
-357,839	83,713	-0,037	0,029
-356,825	-200,000	-0,016	0,099
-355,810	-28,025	0,119	0,050
-354,796	-119,541	-0,108	0,013
-353,781	114,271	-0,137	-0,121
-352,766	46,882	-0,087	-0,059
-351,752	162,550	-0,050	0,051
-350,737	-200,000	-0,004	0,065
-349,723	247,451	0,066	0,080
-348,708	282,891	-0,075	-0,098
-347,693	-200,000	-0,003	-0,014
-346,679	-136,321	-0,073	0,006
-345,664	-30,563	-0,106	0,043
-344,650	-40,995	0,092	0,034
-343,635	800,000	0,043	-0,137
-342,620	-24,630	0,016	-0,007
-341,606	113,490	-0,036	0,031
-340,591	-47,031	-0,041	0,014
-339,577	143,777	-0,033	-0,032
-338,562	800,000	0,037	0,085
-337,548	-200,000	0,017	-0,085
-336,533	-69,196	0,180	-0,050
-335,518	800,000	-0,029	0,063
-334,504	152,305	0,079	-0,078
-333,489	-138,246	-0,156	-0,012
-332,475	-200,000	0,023	-0,078
-331,460	183,482	-0,052	-0,055
-330,445	-200,000	0,004	0,019
-329,431	-200,000	0,013	0,173
-328,416	560,132	0,089	0,157
-327,402	-200,000	0,001	0,108
-326,387	-88,668	-0,035	0,008
-325,372	-41,040	-0,094	-0,035
-324,358	167,863	0,058	-0,059
-323,343	32,201	-0,075	-0,047
-322,329	428,671	0,115	0,181
-321,314	-122,033	0,123	-0,014
-320,299	-46,305	0,128	0,045
-319,285	-200,000	-0,037	0,137
-318,270	53,710	-0,089	-0,062
-317,256	800,000	0,023	-0,069
-316,241	-200,000	-0,026	-0,139
-315,226	-55,130	0,104	0,034
-314,212	-172,698	-0,103	0,002
-313,197	-200,000	-0,008	0,093
-312,183	-181,970	0,122	0,002
-311,168	158,661	0,087	0,088
-310,153	800,000	0,049	-0,109
-309,139	3,249	0,031	0,016
-308,124	-192,821	0,032	-0,000
-307,110	649,533	0,034	-0,063
-306,095	327,515	0,029	-0,041
-305,080	89,291	0,085	-0,068
-304,066	110,671	-0,030	-0,026
-303,051	-52,963	-0,063	0,021
-302,037	-200,000	-0,006	0,032
-301,022	315,995	-0,028	-0,038
-300,008	-200,000	-0,037	0,180
-298,993	-22,355	0,140	0,061
-297,978	-200,000	-0,019	0,171
-296,964	-200,000	-0,024	0,088
-295,949	-200,000	-0,020	-0,073
-294,935	136,687	-0,093	-0,088
-293,920	221,765	0,060	0,070
-292,905	800,000	-0,035	-0,080
-291,891	388,793	-0,107	0,161
-290,876	20,965	-0,217	-0,127
-289,862	46,402	-0,092	0,061
-288,847	42,121	-0,119	0,078
-287,832	800,000	0,030	-0,064
-286,818	376,375	0,027	-0,040
-285,803	31,875	0,109	0,068
-284,789	24,972	0,009	0,005
-283,774	-111,614	0,080	0,012
-282,759	800,000	-0,020	-0,043
-281,745	-51,492	-0,106	-0,036
-280,730	16,226	-0,066	-0,038
-279,716	-200,000	0,007	-0,051
-278,701	2,976	0,188	-0,099
-277,686	-200,000	-0,005	0,075
-276,672	-126,565	0,039	0,004
-275,657	800,000	-0,033	-0,090
-274,643	-41,927	-0,153	-0,056
-273,628	800,000	-0,019	0,046
-272,613	218,352	-0,056	0,064
-271,599	-200,000	-0,009	0,060
-270,584	-200,000	0,025	-0,112
-269,570	-200,000	0,020	-0,068
-268,555	176,866	-0,014	-0,015
-267,540	7,922	0,028	0,015
-266,526	-200,000	-0,019	-0,116
-265,511	-121,755	0,041	0,005
-264,497	336,615	-0,025	-0,036
-263,482	-135,745	0,010	0,001
-262,467	-124,182	0,037	-0,004
-261,453	-90,393	0,111	0,023
-260,438	-200,000	-0,023	0,119
-259,424	-200,000	-0,020	-0,086
-258,409	-127,879	0,139	-0,014
-257,395	-8,870	0,060	-0,029
-256,380	739,457	0,010	-0,019
-255,365	-200,000	0,005	0,083
-254,351	-200,000	-0,004	0,130
-253,336	-120,002	-0,076	-0,009
-252,322	-111,874	-0,118	0,017
-251,307	-130,775	0,137	-0,013
-250,292	170,538	-0,072	-0,075
-249,278	344,786	0,040	-0,057
-248,263	-200,000	-0,028	0,105
-247,249	-200,000	-0,014	-0,072
-246,234	215,551	-0,023	-0,027
-245,219	80,652	-0,127	0,099
-244,205	-153,243	0,121	0,006
-243,190	193,654	-0,062	-0,067
-242,176	-200,000	-0,011	-0,162
-241,161	-200,000	0,021	0,106
-240,146	-38,641	0,101	0,038
-239,132	-90,997	-0,039	0,008
-238,117	-81,420	-0,064	-0,015
-237,103	4,223	-0,066	0,035
-236,088	188,940	-0,018	-0,020
-235,073	-200,000	0,001	-0,130
-234,059	164,308	-0,079	0,080
-233,044	265,781	0,046	-0,058
-232,030	800,000	-0,028	-0,061
-231,015	-200,000	-0,013	-0,121
-230,000	-191,629	-0,114	0,001
-228,986	74,350	-0,068	-0,051
-227,971	176,007	0,043	-0,045
-226,957	269,851	0,064	0,082
-225,942	-200,000	-0,005	0,109
-224,927	355,495	0,061	-0,088
-223,913	-200,000	0,008	0,058
-222,898	761,890	0,051	-0,099
-221,884	43,498	0,065	-0,043
-220,869	741,203	-0,060	-0,117
-219,855	-200,000	0,016	-0,069
-218,840	-200,000	0,002	-0,111
-217,825	-42,331	-0,088	-0,032
-216,811	-200,000	-0,027	-0,150
-215,796	-107,013	0,028	0,004
-214,782	71,259	-0,041	0,030
-213,767	0,914	-0,033	-0,017
-212,752	420,991	0,006	0,010
-211,738	-117,742	0,123	0,016
-210,723	535,776	0,069	0,119
-209,709	-25,137	-0,147	-0,063
-208,694	-50,039	-0,143	0,049
-207,679	74,028	0,065	0,050
-206,665	800,000	0,033	0,072
-205,650	-200,000	0,039	-0,135
-204,636	37,596	0,146	0,093
-203,621	-200,000	0,034	-0,154
-202,606	-200,000	-0,013	0,085
-201,592	-15,699	-0,139	-0,063
-200,577	56,669	-0,146	-0,102
-199,563	800,000	0,034	-0,093
-198,548	-73,934	-0,087	-0,023
-197,533	800,000	0,044	-0,091
-196,519	241,106	-0,093	0,113
-195,504	-200,000	0,019	0,075
-194,490	464,802	0,025	0,040
-193,475	-21,962	-0,079	-0,035
-192,460	475,076	0,047	0,076
-191,446	-200,000	0,011	0,034
-190,431	-200,000	-0,011	0,145
-189,417	-40,893	-0,032	-0,012
-188,402	11,947	0,057	0,031
-187,387	-79,689	0,147	-0,035
-186,373	202,186	0,060	-0,067
-185,358	-200,000	0,034	-0,118
-184,344	-77,968	0,076	0,019
-183,329	457,011	0,052	0,084
-182,315	-13,628	0,099	-0,046
-181,300	155,674	-0,052	-0,052
-180,285	-200,000	-0,014	-0,113
-179,271	-86,313	-0,027	0,006
-178,256	65,206	0,045	-0,033
-177,242	-85,726	-0,133	-0,030
-176,227	604,569	-0,019	0,034
-175,212	123,348	0,100	0,090
-174,198	53,307	0,042	-0,029
-173,183	106,137	0,061	-0,052
-172,169	-20,950	0,075	0,033
-171,154	-102,593	0,100	-0,017
-170,139	73,408	0,054	-0,041
-169,125	-13,794	0,077	0,036
-168,110	1,978	-0,053	-0,028
-167,096	-200,000	-0,038	0,142
-166,081	-200,000	-0,012	0,038
-165,066	-200,000	0,004	0,161
-164,052	-200,000	0,036	0,145
-163,037	36,175	-0,071	0,045
-162,023	255,400	0,063	-0,078
-161,008	104,819	0,097	-0,083
-159,993	54,198	-0,107	-0,074
-158,979	-200,000	-0,012	-0,098
-157,964	463,254	0,016	0,025
-156,950	-49,308	-0,055	-0,019
-155,935	242,465	0,028	0,033
-154,920	-146,168	0,046	0,003
-153,906	299,023	-0,036	-0,048
-152,891	610,037	-0,038	-0,068
-151,877	-106,074	0,135	-0,022
-150,862	-200,000	0,006	0,033
-149,847	512,967	0,026	-0,043
-148,833	-12,069	0,037	-0,017
-147,818	67,361	-0,010	0,008
-146,804	-34,958	0,019	-0,008
-145,789	17,815	-0,058	0,033
-144,775	-200,000	0,006	0,033
-143,760	-200,000	0,002	0,047
-142,745	499,911	0,063	-0,105
-141,731	92,642	-0,088	0,071
-140,716	69,002	0,143	0,105
-139,702	175,578	0,029	0,031
-138,687	201,575	0,047	-0,052
-137,672	-150,944	-0,056	-0,003
-136,658	-200,000	0,005	-0,037
-135,643	-77,045	-0,071	-0,018
-134,629	305,714	-0,002	-0,003
-133,614	27,754	0,026	0,016
-132,599	51,319	0,192	0,131
-131,585	-200,000	0,019	0,098
-130,570	-114,635	0,136	-0,019
-129,556	27,824	0,044	0,027
-128,541	800,000	-0,022	0,048
-127,526	258,865	0,041	-0,051
-126,512	291,215	-0,037	0,049
-125,497	-97,746	-0,023	-0,004
-124,483	134,453	-0,060	0,056
-123,468	-200,000	-0,011	0,167
-122,453	-82,644	-0,046	-0,011
-121,439	-166,698	0,077	-0,002
-120,424	-200,000	0,018	-0,144
-119,410	-158,804	0,147	-0,006
-118,395	-200,000	0,005	-0,107
