DTS Sentinel unit serial number:	SN410029Multiplexer serial number:	ORYXHardware model number:	OX2-SRSoftware version number:	ORYX F/W v4,00 Oryx Data Collector v3.7.2.0data status	okinstallation	B6 Nyhavnadifferential loss correction	single-endedforward channel	channel 2reverse channel	N/Adate	2023/12/08time	13:50:08forward acquisition time	300,00reverse acquisition time	0,00gamma	499,1914k internal	0,3159k external	0,3159temperature offset calibration	1,0000default loss term (dB/km)	0,3820temperature slope calibration	1,0000multiplexer offset coefficient	1,0000multiplexer slope coefficient	1,0000fibre end	0,00T internal ref (°C)	15,06T ext. ref 1 (°C)	-1,54T ext. ref 2 (°C)	-1,56length (m)	temperature (°C)	Stokes	anti-Stokes-744,400	122,075	0,173	-0,160
-743,385	-59,265	-0,319	-0,101
-742,371	89,028	0,041	-0,034
-741,356	-159,416	-0,307	-0,012
-740,342	199,438	0,151	0,171
-739,327	-148,448	-0,240	-0,014
-738,312	26,629	0,147	-0,090
-737,298	-134,983	-0,281	0,025
-736,283	307,659	0,036	0,050
-735,269	-62,592	-0,322	0,098
-734,254	202,389	0,105	-0,120
-733,239	-44,767	-0,457	-0,167
-732,225	39,078	0,201	0,132
-731,210	745,439	0,021	-0,042
-730,196	-200,000	0,032	-0,137
-729,181	-200,000	0,013	0,081
-728,167	800,000	0,055	-0,135
-727,152	2,776	-0,070	-0,037
-726,137	4,256	-0,164	-0,088
-725,123	251,066	-0,124	-0,155
-724,108	248,094	-0,129	-0,161
-723,094	85,644	-0,086	-0,070
-722,079	-5,994	0,109	0,055
-721,064	138,475	-0,037	0,035
-720,050	-200,000	-0,010	-0,107
-719,035	771,088	0,031	-0,063
-718,021	139,327	0,021	-0,020
-717,006	800,000	-0,074	-0,163
-715,991	-67,612	-0,101	-0,029
-714,977	363,620	0,052	-0,078
-713,962	800,000	-0,044	-0,132
-712,948	149,746	-0,080	0,080
-711,933	-69,491	-0,093	-0,026
-710,918	-177,757	-0,039	0,001
-709,904	605,784	-0,054	-0,100
-708,889	-200,000	0,007	0,081
-707,875	-200,000	-0,030	-0,145
-706,860	-200,000	0,029	-0,148
-705,845	-200,000	-0,008	-0,039
-704,831	-65,964	-0,044	-0,013
-703,816	-200,000	0,007	0,166
-702,802	-107,543	-0,126	-0,020
-701,787	535,730	-0,069	-0,122
-700,772	128,916	-0,061	-0,057
-699,758	800,000	0,014	0,033
-698,743	-110,264	0,017	0,003
-697,729	-200,000	-0,029	0,184
-696,714	800,000	-0,025	-0,063
-695,699	-89,448	0,037	0,008
-694,685	-200,000	-0,020	-0,095
-693,670	-37,661	-0,031	0,012
-692,656	-200,000	-0,012	0,057
-691,641	-200,000	0,041	-0,138
-690,627	-127,870	0,098	0,010
-689,612	195,143	-0,094	0,105
-688,597	209,643	0,093	-0,107
-687,583	30,178	-0,053	-0,033
-686,568	-65,750	0,148	-0,043
-685,554	495,459	-0,044	-0,075
-684,539	-35,275	0,027	-0,011
-683,524	289,243	0,060	0,081
-682,510	314,264	0,067	0,093
-681,495	-112,625	-0,051	0,007
-680,481	29,349	0,054	-0,034
-679,466	1,298	-0,128	-0,068
-678,451	77,489	0,125	0,098
-677,437	-102,606	0,051	0,009
-676,422	-200,000	-0,007	0,114
-675,408	-175,795	0,064	-0,001
-674,393	-34,483	-0,141	-0,056
-673,378	-67,407	0,146	-0,042
-672,364	148,034	-0,116	-0,116
-671,349	614,678	-0,053	-0,098
-670,335	544,281	-0,078	-0,137
-669,320	21,303	0,064	0,038
-668,305	-200,000	-0,015	-0,078
-667,291	18,304	-0,088	-0,051
-666,276	800,000	-0,040	0,108
-665,262	83,057	-0,152	-0,122
-664,247	800,000	-0,047	-0,134
-663,232	800,000	0,026	-0,074
-662,218	-200,000	0,011	0,082
-661,203	800,000	-0,023	0,051
-660,189	-200,000	0,015	-0,153
-659,174	800,000	0,029	-0,077
-658,159	-123,262	0,103	0,012
-657,145	-127,556	-0,067	0,007
-656,130	176,989	0,042	-0,045
-655,116	-200,000	0,003	0,069
-654,101	616,964	0,054	0,099
-653,086	369,771	-0,097	0,145
-652,072	583,079	-0,046	0,083
-651,057	270,587	-0,043	-0,056
-650,043	-28,342	-0,065	0,027
-649,028	-200,000	0,019	0,079
-648,014	111,561	0,133	-0,118
-646,999	800,000	0,055	0,137
-645,984	-200,000	-0,011	0,164
-644,970	287,936	0,095	-0,127
-643,955	-100,333	0,094	-0,017
-642,941	-200,000	0,003	0,018
-641,926	1,857	-0,068	0,036
-640,911	-45,964	-0,050	-0,018
-639,897	401,556	0,069	-0,107
-638,882	-94,444	-0,143	-0,028
-637,868	-55,729	0,052	-0,017
-636,853	-70,489	-0,158	-0,044
-635,838	-27,155	0,025	-0,011
-634,824	-200,000	-0,026	-0,093
-633,809	44,926	0,065	-0,044
-632,795	800,000	0,032	-0,076
-631,780	97,731	0,049	0,041
-630,765	-200,000	0,001	0,115
-629,751	-200,000	-0,032	-0,124
-628,736	21,923	-0,099	-0,059
-627,722	-4,089	-0,066	-0,034
-626,707	-147,529	0,114	-0,007
-625,692	265,158	0,037	0,048
-624,678	800,000	-0,036	0,113
-623,663	328,257	0,050	-0,071
-622,649	800,000	0,055	-0,132
-621,634	-68,309	-0,069	0,019
-620,619	800,000	-0,003	0,008
-619,605	-163,227	-0,132	0,005
-618,590	51,447	0,159	-0,111
-617,576	139,550	-0,088	-0,085
-616,561	-63,565	-0,036	-0,011
-615,546	409,755	-0,037	0,057
-614,532	-77,973	-0,142	0,036
-613,517	800,000	-0,034	0,094
-612,503	-112,692	-0,068	-0,010
-611,488	461,925	0,043	0,070
-610,474	800,000	0,021	-0,056
-609,459	-124,171	-0,158	0,018
-608,444	-137,158	-0,093	0,008
-607,430	-200,000	0,004	-0,076
-606,415	115,165	-0,079	-0,071
-605,401	-143,607	0,115	-0,008
-604,386	-157,305	0,105	-0,005
-603,371	-200,000	0,027	-0,141
-602,357	29,155	-0,106	0,066
-601,342	800,000	0,008	0,018
-600,328	-100,891	-0,081	-0,014
-599,313	30,844	-0,062	-0,039
-598,298	800,000	-0,043	0,126
-597,284	91,906	-0,124	0,102
-596,269	800,000	-0,023	-0,050
-595,255	-153,586	-0,112	-0,006
-594,240	41,277	-0,068	-0,045
-593,225	-64,292	-0,076	0,022
-592,211	-173,516	0,143	0,003
-591,196	454,010	0,002	-0,003
-590,182	591,672	-0,015	-0,028
-589,167	-23,615	0,088	0,039
-588,152	-94,807	0,044	-0,009
-587,138	800,000	0,060	0,150
-586,123	-45,220	-0,023	-0,008
-585,109	21,889	-0,060	-0,036
-584,094	181,799	0,030	0,033
-583,079	-200,000	0,014	0,148
-582,065	11,401	-0,112	0,063
-581,050	79,485	0,086	0,068
-580,036	-200,000	0,004	-0,094
-579,021	-200,000	-0,034	0,133
-578,006	17,549	-0,054	-0,032
-576,992	-60,551	-0,137	-0,042
-575,977	648,818	-0,024	0,046
-574,963	175,551	-0,067	0,071
-573,948	240,082	0,036	0,043
-572,934	73,198	0,040	0,030
-571,919	-200,000	0,013	-0,116
-570,904	-129,295	-0,012	-0,001
-569,890	-200,000	-0,018	0,089
-568,875	800,000	-0,036	0,108
-567,861	-200,000	-0,014	0,098
-566,846	-200,000	0,010	0,046
-565,831	-52,767	-0,085	0,028
-564,817	784,798	-0,061	-0,122
-563,802	-174,907	-0,045	-0,001
-562,788	719,485	0,043	0,083
-561,773	385,723	0,019	0,028
-560,758	-76,216	0,102	0,026
-559,744	298,683	-0,104	0,141
-558,729	277,167	-0,108	0,141
-557,715	553,536	-0,058	0,103
-556,700	-86,662	0,062	-0,014
-555,685	397,104	-0,040	0,062
-554,671	38,939	0,111	0,072
-553,656	-26,362	0,054	-0,023
-552,642	-135,822	0,062	-0,005
-551,627	-200,000	-0,012	-0,115
-550,612	-36,060	-0,103	0,041
-549,598	-43,785	-0,142	0,052
-548,583	170,996	-0,074	0,077
-547,569	168,958	-0,154	-0,160
-546,554	760,995	0,052	-0,104
-545,539	800,000	0,023	-0,048
-544,525	800,000	-0,036	-0,094
-543,510	-185,973	-0,006	0,000
-542,496	800,000	-0,037	-0,095
-541,481	156,189	-0,066	-0,067
-540,466	-10,024	0,155	0,075
-539,452	522,125	0,020	0,034
-538,437	341,648	-0,093	-0,133
-537,423	-200,000	0,001	-0,024
-536,408	-146,466	0,069	0,004
-535,393	-200,000	0,016	-0,057
-534,379	116,305	-0,111	0,100
-533,364	125,881	0,041	-0,038
-532,350	-162,425	0,122	0,004
-531,335	392,593	-0,029	0,044
-530,321	181,893	0,029	0,031
-529,306	800,000	-0,034	0,101
-528,291	-148,720	-0,015	0,001
-527,277	-47,759	-0,109	-0,038
-526,262	800,000	0,020	0,061
-525,248	-200,000	-0,005	0,049
-524,233	-139,033	0,187	0,015
-523,218	303,995	-0,015	-0,021
-522,204	154,269	0,037	-0,037
-521,189	-200,000	-0,007	-0,093
-520,175	134,309	-0,131	-0,124
-519,160	-200,000	-0,005	-0,069
-518,145	492,494	0,027	-0,045
-517,131	52,444	0,048	-0,033
-516,116	530,215	-0,078	-0,134
-515,102	-23,873	0,129	0,056
-514,087	-93,421	-0,022	0,004
-513,072	-13,727	-0,030	0,014
-512,058	-111,293	0,045	0,007
-511,043	-200,000	0,022	0,133
-510,029	-70,244	0,127	0,035
-509,014	-10,574	-0,058	0,028
-507,999	800,000	0,036	-0,082
-506,985	800,000	0,053	-0,138
-505,970	44,537	0,046	-0,031
-504,956	63,666	-0,208	0,152
-503,941	800,000	0,037	-0,116
-502,926	-125,156	-0,150	0,017
-501,912	471,160	-0,020	0,034
-500,897	198,480	0,072	-0,080
-499,883	39,206	-0,035	0,023
-498,868	-200,000	-0,014	-0,109
-497,853	413,343	0,108	-0,169
-496,839	-151,433	0,189	0,010
-495,824	139,842	-0,078	0,075
-494,810	-200,000	0,011	0,038
-493,795	-78,785	-0,131	-0,032
-492,781	-143,213	0,063	-0,004
-491,766	489,770	-0,110	-0,184
-490,751	494,584	-0,023	0,039
-489,737	-200,000	0,014	-0,061
-488,722	278,292	0,065	0,085
-487,708	-200,000	0,012	0,127
-486,693	193,349	0,064	0,071
-485,678	-37,348	-0,055	-0,021
-484,664	-200,000	0,007	-0,023
-483,649	184,852	0,081	-0,087
-482,635	800,000	0,065	-0,153
-481,620	-200,000	0,010	-0,123
-480,605	579,514	0,063	0,113
-479,591	259,978	-0,038	0,048
-478,576	-200,000	-0,015	0,079
-477,562	-100,616	-0,007	0,001
-476,547	194,178	-0,126	-0,140
-475,532	-37,892	0,134	0,052
-474,518	-75,938	0,035	0,009
-473,503	150,489	-0,075	0,075
-472,489	229,269	-0,035	0,042
-471,474	-111,511	-0,135	-0,020
-470,459	145,078	0,009	-0,009
-469,445	342,408	0,074	0,106
-468,430	-200,000	0,003	0,034
-467,416	178,792	0,070	0,075
-466,401	-88,747	0,074	0,016
-465,386	800,000	0,012	-0,035
-464,372	-200,000	0,000	0,129
-463,357	311,062	-0,060	-0,083
-462,343	-200,000	0,006	0,021
-461,328	611,748	-0,003	-0,006
-460,313	-31,209	0,079	-0,032
-459,299	31,481	0,034	-0,021
-458,284	107,018	0,014	-0,012
-457,270	-73,195	0,116	-0,031
-456,255	18,920	0,042	-0,025
-455,241	348,467	0,064	-0,092
-454,226	690,985	0,049	0,093
-453,211	-93,195	-0,095	-0,019
-452,197	66,680	0,079	0,059
-451,182	52,014	0,043	-0,029
-450,168	-59,798	-0,200	0,062
-449,153	-200,000	0,010	0,064
-448,138	251,226	0,050	-0,062
-447,124	800,000	-0,053	-0,107
-446,109	133,432	0,099	-0,093
-445,095	750,997	-0,007	0,014
-444,080	659,917	0,035	0,067
-443,065	25,516	-0,041	-0,025
-442,051	-200,000	-0,012	0,040
-441,036	-200,000	0,006	-0,040
-440,022	-200,000	0,014	-0,128
-439,007	-79,796	0,026	-0,006
-437,992	25,107	-0,195	-0,118
-436,978	-71,491	0,076	-0,020
-435,963	23,069	0,085	-0,051
-434,949	-200,000	-0,007	0,090
-433,934	-200,000	0,007	-0,101
-432,919	331,298	-0,034	0,048
-431,905	-137,062	-0,090	-0,007
-430,890	-200,000	0,002	0,134
-429,876	-12,243	0,189	0,089
-428,861	307,501	0,084	-0,115
-427,846	-200,000	0,020	0,089
-426,832	-104,919	-0,076	-0,013
-425,817	-53,908	-0,176	-0,058
-424,803	-200,000	-0,021	-0,125
-423,788	-86,783	0,086	-0,019
-422,773	-37,532	0,077	0,030
-421,759	800,000	-0,057	0,138
-420,744	-97,162	-0,168	-0,032
-419,730	800,000	0,048	-0,116
-418,715	709,037	-0,021	-0,040
-417,701	-200,000	0,013	-0,110
-416,686	-200,000	-0,027	-0,164
-415,671	-37,517	0,160	0,062
-414,657	-111,936	-0,085	-0,012
-413,642	70,267	0,137	-0,103
-412,628	800,000	-0,041	0,100
-411,613	251,947	-0,033	-0,042
-410,598	-33,100	-0,076	-0,030
-409,584	447,573	-0,010	-0,015
-408,569	679,983	-0,021	0,039
-407,555	-63,601	0,093	0,027
-406,540	594,428	0,100	-0,181
-405,525	31,795	-0,088	-0,055
-404,511	-136,752	-0,157	-0,013
-403,496	0,197	0,128	-0,066
-402,482	93,938	0,032	-0,027
-401,467	-116,145	0,166	-0,022
-400,452	646,135	0,021	0,039
-399,438	444,885	0,051	0,081
-398,423	-38,745	-0,135	-0,052
-397,409	-200,000	-0,025	0,161
-396,394	23,155	-0,044	-0,026
-395,379	-35,358	-0,066	-0,026
-394,365	663,824	0,028	0,053
-393,350	-24,054	-0,012	0,005
-392,336	-200,000	-0,036	0,121
-391,321	237,905	-0,026	0,031
-390,306	-200,000	-0,015	0,119
-389,292	-200,000	-0,038	-0,167
-388,277	-86,157	0,087	-0,019
-387,263	-200,000	0,003	0,111
-386,248	330,244	-0,016	-0,022
-385,233	-200,000	0,001	-0,025
-384,219	800,000	0,054	-0,111
-383,204	-200,000	-0,006	-0,052
-382,190	-117,725	0,057	0,007
-381,175	-43,857	-0,087	0,031
-380,160	-200,000	0,019	-0,149
-379,146	81,605	0,034	0,026
-378,131	-200,000	-0,028	0,192
-377,117	-148,398	-0,062	0,004
-376,102	-200,000	0,020	-0,100
-375,088	-126,764	-0,040	0,004
-374,073	134,148	-0,055	-0,052
-373,058	-110,154	-0,079	0,012
-372,044	-98,654	0,131	0,024
-371,029	-200,000	0,026	-0,091
-370,015	45,111	0,050	-0,033
-369,000	-22,219	0,092	0,040
-367,985	-87,133	-0,126	0,028
-366,971	48,767	-0,093	-0,063
-365,956	-200,000	-0,011	-0,057
-364,942	119,616	-0,075	0,068
-363,927	45,737	0,108	0,072
-362,912	-200,000	-0,025	0,000
-361,898	147,106	-0,058	0,057
-360,883	800,000	0,048	-0,148
-359,869	171,324	-0,070	0,073
-358,854	96,461	-0,070	-0,058
-357,839	378,422	-0,035	-0,053
-356,825	396,819	0,074	-0,113
-355,810	20,688	0,100	-0,059
-354,796	542,983	-0,059	-0,103
-353,781	-200,000	-0,021	-0,147
-352,766	-200,000	0,025	0,083
-351,752	-200,000	-0,000	0,127
-350,737	-174,526	0,110	0,002
-349,723	-200,000	0,002	-0,019
-348,708	-135,835	0,006	0,000
-347,693	4,591	0,019	-0,010
-346,679	197,375	0,031	-0,034
-345,664	148,774	0,121	-0,119
-344,650	-30,315	0,165	0,068
-343,635	-110,117	0,072	-0,011
-342,620	99,876	-0,022	0,018
-341,606	56,278	0,048	-0,034
-340,591	-14,595	0,081	0,038
-339,577	-124,433	0,081	-0,009
-338,562	58,423	0,100	0,071
-337,548	407,987	-0,045	-0,069
-336,533	359,396	-0,055	0,079
-335,518	-200,000	-0,003	0,106
-334,504	757,732	0,057	0,113
-333,489	-24,702	-0,026	-0,011
-332,475	-16,600	-0,116	-0,053
-331,460	-200,000	0,036	-0,200
-330,445	136,790	-0,103	0,098
-329,431	-56,158	0,090	0,029
-328,416	-10,223	-0,076	-0,037
-327,402	-104,538	-0,173	0,029
-326,387	-24,546	-0,076	0,033
-325,372	-200,000	0,009	-0,057
-324,358	642,205	-0,117	-0,218
-323,343	-200,000	-0,001	-0,134
-322,329	132,342	0,058	-0,054
-321,314	-200,000	0,048	0,000
-320,299	-135,376	0,070	-0,006
-319,285	119,106	-0,039	0,035
-318,270	-200,000	-0,017	0,062
-317,256	-200,000	-0,004	-0,027
-316,241	168,714	-0,073	0,075
-315,226	-200,000	-0,006	0,106
-314,212	-200,000	0,009	-0,134
-313,197	-177,361	0,147	-0,003
-312,183	-108,190	0,128	0,020
-311,168	-200,000	0,048	-0,188
-310,153	112,780	-0,007	0,006
-309,139	-200,000	-0,031	0,116
-308,124	-200,000	0,009	-0,053
-307,110	-128,974	0,048	0,005
-306,095	-33,895	-0,136	0,054
-305,080	-82,008	0,070	-0,017
-304,066	-12,295	-0,079	-0,037
-303,051	135,626	-0,136	-0,128
-302,037	-110,163	-0,061	0,009
-301,022	36,467	0,083	0,053
-300,008	136,187	0,138	0,131
-298,993	-200,000	-0,020	0,171
-297,978	-46,536	0,089	0,031
-296,964	-86,168	0,070	-0,015
-295,949	-176,521	-0,033	0,001
-294,935	502,147	-0,013	0,022
-293,920	17,604	0,191	-0,109
-292,905	51,425	-0,075	0,051
-291,891	-78,809	-0,065	-0,016
-290,876	-103,280	0,113	-0,019
-289,862	9,527	0,157	0,086
-288,847	-82,205	-0,099	-0,023
-287,832	46,135	-0,116	-0,078
-286,818	80,294	-0,108	-0,084
-285,803	800,000	0,058	-0,122
-284,789	-64,258	0,075	-0,022
-283,774	527,355	-0,056	-0,095
-282,759	800,000	-0,012	0,030
-281,745	-200,000	0,006	0,038
-280,730	-9,706	-0,085	-0,041
-279,716	360,270	-0,039	0,056
-278,701	-75,544	0,149	-0,038
-277,686	800,000	-0,028	0,075
-276,672	-200,000	0,011	0,080
-275,657	-200,000	-0,006	0,048
-274,643	516,522	-0,009	-0,015
-273,628	-76,044	0,086	-0,022
-272,613	-200,000	-0,025	-0,106
-271,599	110,201	-0,047	0,041
-270,584	800,000	0,054	0,124
-269,570	800,000	0,069	0,142
-268,555	800,000	-0,032	-0,074
-267,540	-107,510	-0,164	0,026
-266,526	-124,395	0,101	-0,011
-265,511	58,720	0,098	-0,070
-264,497	0,084	0,081	-0,042
-263,482	-200,000	-0,007	0,059
-262,467	538,651	0,069	0,119
-261,453	-200,000	-0,008	0,074
-260,438	92,649	-0,076	0,062
-259,424	-108,605	-0,029	0,004
-258,409	-186,722	-0,140	-0,001
-257,395	246,394	0,048	-0,058
-256,380	800,000	-0,039	0,087
-255,365	17,947	0,056	0,032
-254,351	3,847	0,020	-0,011
-253,336	800,000	0,006	-0,015
-252,322	-164,045	-0,052	-0,002
-251,307	101,337	-0,069	-0,058
-250,292	-134,993	-0,050	-0,004
-249,278	-200,000	0,014	-0,048
-248,263	-92,277	-0,007	0,001
-247,249	-200,000	0,026	-0,097
-246,234	447,409	-0,073	-0,116
-245,219	154,008	0,080	-0,079
-244,205	138,894	0,052	-0,049
-243,190	229,538	-0,039	0,046
-242,176	6,736	0,082	-0,044
-241,161	253,348	0,104	0,129
-240,146	98,699	-0,037	0,031
-239,132	800,000	0,047	-0,112
-238,117	-200,000	-0,007	0,061
-237,103	-149,712	0,022	0,001
-236,088	800,000	0,059	0,142
-235,073	-150,267	0,056	-0,003
-234,059	229,861	0,080	-0,095
-233,044	44,084	0,120	0,080
-232,030	-200,000	0,025	0,147
-231,015	-200,000	0,019	-0,083
-230,000	-180,754	-0,107	0,002
-228,986	-40,271	-0,076	0,029
-227,971	-109,655	0,118	-0,018
-226,957	-200,000	-0,002	0,069
-225,942	-200,000	0,044	0,227
-224,927	-200,000	-0,042	0,180
-223,913	-52,900	-0,024	0,008
-222,898	800,000	-0,013	-0,041
-221,884	-200,000	0,012	0,136
-220,869	564,857	-0,055	0,096
-219,855	-200,000	-0,005	-0,024
-218,840	-200,000	-0,004	0,071
-217,825	-184,746	-0,142	-0,002
-216,811	800,000	0,032	-0,097
-215,796	800,000	0,016	-0,038
-214,782	-200,000	0,024	0,083
-213,767	800,000	0,033	0,084
-212,752	800,000	-0,019	0,047
-211,738	167,709	0,097	0,100
-210,723	71,322	0,086	-0,064
-209,709	-200,000	0,001	0,025
-208,694	-84,780	-0,137	-0,031
-207,679	42,578	0,114	0,075
-206,665	331,072	-0,069	0,096
-205,650	315,430	-0,044	-0,060
-204,636	-6,736	0,149	-0,073
-203,621	800,000	-0,057	-0,146
-202,606	800,000	0,040	0,086
-201,592	78,043	-0,134	0,103
-200,577	-47,015	-0,096	-0,034
-199,563	-200,000	0,031	0,216
-198,548	145,511	0,048	0,047
-197,533	227,464	0,045	-0,053
-196,519	-200,000	0,005	0,041
-195,504	20,523	-0,069	-0,040
-194,490	-43,690	-0,066	-0,024
-193,475	-170,234	-0,083	0,002
-192,460	-200,000	-0,002	0,067
-191,446	-23,906	-0,106	-0,046
-190,431	-141,105	0,059	-0,004
-189,417	196,542	0,011	-0,012
-188,402	25,146	0,150	0,089
-187,387	800,000	0,006	-0,016
-186,373	-188,901	-0,119	-0,001
-185,358	-86,526	0,060	-0,013
-184,344	-107,214	0,160	-0,025
-183,329	-46,475	0,249	0,088
-182,315	-53,182	0,036	-0,012
-181,300	-7,476	-0,133	-0,065
-180,285	-200,000	0,008	-0,120
-179,271	-148,776	0,015	-0,001
-178,256	-200,000	0,048	0,164
-177,242	-200,000	0,004	-0,023
-176,227	-200,000	0,010	0,058
-175,212	-168,373	0,168	0,005
-174,198	-200,000	-0,034	-0,129
-173,183	67,235	0,047	-0,035
-172,169	-172,510	-0,109	0,002
-171,154	-200,000	-0,009	0,141
-170,139	-106,908	0,132	0,021
-169,125	-1,223	0,049	0,025
-168,110	-46,859	-0,030	0,010
-167,096	-112,425	-0,076	-0,011
-166,081	582,283	-0,037	-0,065
-165,066	5,078	-0,261	0,138
-164,052	-114,551	-0,064	-0,009
-163,037	72,633	-0,029	-0,022
-162,023	-44,415	0,118	0,042
-161,008	-12,721	-0,087	-0,041
-159,993	1,973	-0,167	0,087
-158,979	800,000	-0,023	0,058
-157,964	-200,000	0,028	-0,211
-156,950	154,938	-0,002	0,002
-155,935	-200,000	0,023	0,075
-154,920	391,261	-0,053	0,079
-153,906	-200,000	0,011	-0,103
-152,891	-28,827	0,092	0,038
-151,877	-170,330	-0,146	-0,004
-150,862	-124,263	-0,073	-0,008
-149,847	-131,636	0,012	-0,001
-148,833	-133,305	-0,091	-0,008
-147,818	117,913	0,138	0,122
-146,804	-20,860	-0,031	0,014
-145,789	12,171	0,135	-0,074
-144,775	75,604	-0,085	0,065
-143,760	-200,000	0,011	0,045
-142,745	-124,872	-0,137	-0,015
-141,731	94,177	0,064	-0,052
-140,716	-200,000	0,009	0,117
-139,702	386,618	0,082	0,122
-138,687	175,365	-0,112	0,117
-137,672	86,724	-0,051	-0,040
-136,658	-200,000	-0,020	0,137
-135,643	691,805	-0,078	0,148
-134,629	-94,202	0,016	-0,003
-133,614	113,979	0,090	0,079
-132,599	186,363	0,073	0,078
-131,585	-200,000	-0,011	0,127
-130,570	319,613	0,015	0,021
-129,556	-200,000	0,041	-0,131
-128,541	558,396	0,008	-0,014
-127,526	-83,205	-0,069	0,016
-126,512	-3,622	0,035	-0,018
-125,497	254,242	-0,061	0,075
-124,483	-200,000	-0,003	0,094
-123,468	-200,000	-0,002	0,041
-122,453	-87,611	-0,083	-0,018
-121,439	166,481	-0,063	0,065
-120,424	225,755	-0,061	0,071
