DTS Sentinel unit serial number:	SN410029Multiplexer serial number:	ORYXHardware model number:	OX2-SRSoftware version number:	ORYX F/W v4,00 Oryx Data Collector v3.7.2.0data status	okinstallation	B6 Nyhavnadifferential loss correction	single-endedforward channel	channel 2reverse channel	N/Adate	2023/12/07time	22:35:08forward acquisition time	300,00reverse acquisition time	0,00gamma	499,1914k internal	0,3164k external	0,3164temperature offset calibration	1,0000default loss term (dB/km)	0,3820temperature slope calibration	1,0000multiplexer offset coefficient	1,0000multiplexer slope coefficient	1,0000fibre end	0,00T internal ref (°C)	13,56T ext. ref 1 (°C)	-3,35T ext. ref 2 (°C)	-3,32length (m)	temperature (°C)	Stokes	anti-Stokes-744,400	800,000	0,034	0,073
-743,385	-54,225	-0,261	0,087
-742,371	23,765	0,172	-0,104
-741,356	-105,810	-0,329	-0,054
-740,342	211,814	0,059	-0,068
-739,327	-82,727	-0,344	0,081
-738,312	-107,530	0,253	0,040
-737,298	-58,434	-0,335	-0,106
-736,283	264,070	0,075	0,096
-735,269	-168,936	-0,261	0,007
-734,254	218,100	0,019	0,023
-733,239	-62,971	-0,448	-0,135
-732,225	3,167	0,304	0,162
-731,210	49,676	0,066	-0,046
-730,196	443,257	-0,075	-0,121
-729,181	70,439	0,090	-0,069
-728,167	-114,381	0,123	0,017
-727,152	-172,799	-0,039	0,001
-726,137	-200,000	-0,015	-0,101
-725,123	79,544	-0,070	-0,055
-724,108	567,701	-0,077	-0,138
-723,094	-200,000	-0,015	-0,119
-722,079	73,841	-0,113	0,087
-721,064	-200,000	0,003	0,103
-720,050	30,284	0,131	-0,082
-719,035	800,000	-0,003	0,008
-718,021	572,965	-0,057	-0,102
-717,006	-82,391	-0,199	0,047
-715,991	103,889	0,070	-0,060
-714,977	-200,000	0,010	-0,070
-713,962	-200,000	0,012	0,113
-712,948	-200,000	0,009	0,032
-711,933	149,929	-0,113	0,113
-710,918	401,778	0,104	-0,162
-709,904	249,988	-0,045	-0,056
-708,889	110,889	-0,026	-0,023
-707,875	177,370	-0,038	-0,040
-706,860	-74,286	0,025	0,007
-705,845	-136,113	-0,125	-0,011
-704,831	-132,482	0,142	-0,013
-703,816	800,000	-0,042	-0,112
-702,802	95,463	-0,066	0,055
-701,787	-28,665	0,073	-0,031
-700,772	800,000	-0,048	0,103
-699,758	-2,243	0,025	0,013
-698,743	117,518	-0,059	-0,054
-697,729	15,205	0,033	-0,019
-696,714	-32,304	-0,100	-0,041
-695,699	210,382	-0,084	-0,097
-694,685	800,000	0,013	-0,038
-693,670	800,000	-0,014	0,041
-692,656	-200,000	0,034	0,117
-691,641	-103,548	-0,118	0,020
-690,627	-7,890	0,057	-0,028
-689,612	34,175	0,062	-0,040
-688,597	-200,000	0,006	-0,110
-687,583	800,000	-0,038	-0,122
-686,568	-53,512	0,069	-0,023
-685,554	209,388	-0,082	0,095
-684,539	-22,016	-0,087	-0,039
-683,524	-200,000	0,005	-0,019
-682,510	-17,756	-0,110	0,050
-681,495	204,883	0,070	-0,080
-680,481	800,000	0,017	0,038
-679,466	800,000	-0,032	-0,085
-678,451	317,710	-0,045	-0,062
-677,437	260,739	-0,053	-0,067
-676,422	800,000	0,047	0,102
-675,408	275,455	-0,061	0,080
-674,393	38,006	-0,092	-0,060
-673,378	-148,592	-0,125	0,007
-672,364	-28,534	-0,052	-0,022
-671,349	3,454	-0,060	-0,032
-670,335	800,000	-0,019	0,058
-669,320	-67,195	0,111	0,032
-668,305	45,633	-0,050	-0,034
-667,291	-40,972	0,072	0,027
-666,276	128,421	-0,079	-0,074
-665,262	-20,405	0,061	-0,027
-664,247	800,000	0,040	-0,105
-663,232	748,384	0,022	-0,045
-662,218	18,447	0,007	-0,004
-661,203	81,903	-0,135	-0,107
-660,189	-200,000	-0,015	-0,063
-659,174	152,718	-0,071	-0,071
-658,159	577,969	0,040	-0,072
-657,145	-131,709	-0,065	0,006
-656,130	326,337	0,072	-0,102
-655,116	-200,000	0,008	-0,034
-654,101	84,113	0,097	0,078
-653,086	-200,000	0,011	-0,056
-652,072	-200,000	0,011	0,113
-651,057	57,641	-0,096	-0,069
-650,043	800,000	0,029	-0,063
-649,028	121,238	-0,073	-0,067
-648,014	161,508	0,098	0,101
-646,999	-200,000	0,009	-0,119
-645,984	-200,000	0,001	-0,014
-644,970	-200,000	-0,012	0,066
-643,955	-53,587	-0,067	-0,022
-642,941	297,100	-0,125	-0,169
-641,926	-10,572	0,130	0,063
-640,911	118,991	-0,087	-0,079
-639,897	-200,000	-0,002	0,017
-638,882	208,942	0,073	-0,083
-637,868	-106,291	-0,102	-0,016
-636,853	66,777	-0,126	-0,094
-635,838	-114,815	-0,071	-0,010
-634,824	-200,000	-0,013	-0,076
-633,809	28,581	-0,077	0,048
-632,795	136,896	-0,039	-0,037
-631,780	130,674	0,072	-0,068
-630,765	202,000	0,041	-0,047
-629,751	55,460	-0,140	0,099
-628,736	-200,000	0,047	-0,172
-627,722	800,000	0,053	-0,163
-626,707	-70,896	-0,206	0,056
-625,692	96,350	0,070	0,059
-624,678	-105,956	-0,073	-0,012
-623,663	800,000	0,015	-0,043
-622,649	-42,987	-0,154	0,057
-621,634	540,726	-0,025	-0,044
-620,619	-96,200	-0,094	0,018
-619,605	-160,840	0,080	0,003
-618,590	-24,920	-0,079	0,034
-617,576	-85,144	0,122	-0,028
-616,561	1,151	-0,102	0,053
-615,546	-200,000	0,015	-0,076
-614,532	-200,000	0,004	-0,101
-613,517	-112,683	-0,063	-0,009
-612,503	-91,506	-0,002	-0,000
-611,488	-200,000	-0,002	-0,076
-610,474	-89,328	-0,155	0,033
-609,459	-200,000	0,009	-0,053
-608,444	-200,000	-0,013	-0,064
-607,430	-42,238	-0,067	-0,025
-606,415	-200,000	0,012	0,071
-605,401	-127,291	0,081	0,009
-604,386	585,984	0,011	0,020
-603,371	186,461	0,122	0,133
-602,357	-104,143	-0,083	0,014
-601,342	800,000	-0,029	0,070
-600,328	-51,500	-0,077	-0,026
-599,313	800,000	0,018	0,050
-598,298	86,901	0,044	-0,036
-597,284	-200,000	0,003	-0,037
-596,269	278,958	0,097	-0,126
-595,255	-108,571	0,048	-0,007
-594,240	369,300	-0,033	0,049
-593,225	800,000	0,031	-0,094
-592,211	598,817	-0,070	-0,127
-591,196	-98,133	-0,174	0,032
-590,182	0,660	0,028	-0,014
-589,167	-37,833	-0,064	0,025
-588,152	-112,463	-0,078	-0,011
-587,138	-23,502	-0,146	-0,064
-586,123	37,254	-0,145	0,094
-585,109	-1,886	-0,071	0,037
-584,094	-48,735	0,050	-0,017
-583,079	-70,151	0,081	0,022
-582,065	-200,000	-0,003	-0,046
-581,050	751,430	0,017	-0,034
-580,036	-100,698	0,057	0,010
-579,021	-136,264	-0,170	-0,014
-578,006	-106,701	-0,166	0,027
-576,992	-200,000	-0,006	0,072
-575,977	800,000	0,048	0,118
-574,963	340,751	0,097	0,139
-573,948	4,209	-0,064	-0,034
-572,934	-36,479	0,065	-0,025
-571,919	800,000	0,016	0,038
-570,904	541,930	-0,006	-0,010
-569,890	-200,000	-0,016	0,128
-568,875	-200,000	-0,017	0,101
-567,861	43,983	0,049	0,033
-566,846	342,956	-0,024	0,034
-565,831	-75,379	0,069	-0,018
-564,817	55,198	-0,100	-0,071
-563,802	40,057	-0,106	-0,070
-562,788	-200,000	-0,032	-0,205
-561,773	800,000	0,044	-0,132
-560,758	-19,599	0,112	0,050
-559,744	237,007	-0,094	0,114
-558,729	-200,000	-0,027	-0,150
-557,715	-200,000	-0,007	-0,021
-556,700	-154,937	-0,178	-0,008
-555,685	-200,000	0,020	0,112
-554,671	800,000	0,010	0,021
-553,656	127,383	0,059	0,055
-552,642	79,015	0,038	0,030
-551,627	72,865	0,029	0,022
-550,612	-200,000	-0,011	-0,035
-549,598	-200,000	0,004	0,062
-548,583	-58,794	0,093	0,029
-547,569	800,000	0,032	0,078
-546,554	-33,756	-0,118	-0,047
-545,539	181,795	0,017	-0,018
-544,525	-200,000	0,015	-0,060
-543,510	-200,000	0,028	-0,124
-542,496	-14,602	-0,191	-0,089
-541,481	-200,000	-0,008	-0,132
-540,466	800,000	0,026	-0,055
-539,452	-90,311	-0,090	0,019
-538,437	123,899	0,003	0,002
-537,423	800,000	-0,020	0,046
-536,408	35,637	-0,152	0,097
-535,393	-200,000	-0,003	0,161
-534,379	-200,000	0,010	0,048
-533,364	-42,419	-0,051	-0,019
-532,350	-25,761	0,135	0,058
-531,335	-104,377	0,157	-0,026
-530,321	-200,000	-0,020	0,081
-529,306	-200,000	-0,010	0,117
-528,291	-42,865	0,037	-0,014
-527,277	142,077	-0,129	-0,125
-526,262	-200,000	-0,020	-0,073
-525,248	800,000	0,041	-0,104
-524,233	-131,893	-0,106	0,010
-523,218	-69,645	-0,035	-0,010
-522,204	94,310	-0,038	0,031
-521,189	-200,000	-0,018	0,118
-520,175	20,258	0,024	0,014
-519,160	-93,992	-0,142	0,028
-518,145	-22,232	0,083	0,037
-517,131	800,000	-0,093	0,192
-516,116	-75,539	0,168	0,043
-515,102	308,231	-0,055	0,076
-514,087	45,951	-0,025	-0,017
-513,072	-200,000	-0,013	-0,094
-512,058	800,000	-0,037	0,077
-511,043	310,555	0,069	0,094
-510,029	193,634	0,103	-0,113
-509,014	800,000	0,048	0,109
-507,999	-200,000	-0,003	0,035
-506,985	-42,641	-0,078	0,029
-505,970	-38,441	-0,112	-0,043
-504,956	77,980	-0,076	0,059
-503,941	-51,492	0,022	-0,007
-502,926	402,520	0,015	0,024
-501,912	233,654	-0,079	0,095
-500,897	-200,000	0,009	-0,188
-499,883	800,000	-0,048	-0,097
-498,868	-52,145	0,042	0,014
-497,853	-183,043	-0,130	0,002
-496,839	166,608	-0,102	0,105
-495,824	32,861	-0,107	0,067
-494,810	34,910	0,108	-0,069
-493,795	465,199	0,037	0,061
-492,781	127,457	0,056	-0,052
-491,766	31,627	0,024	0,015
-490,751	-182,804	0,043	0,001
-489,737	151,398	0,072	0,072
-488,722	-200,000	0,052	-0,197
-487,708	800,000	-0,037	0,081
-486,693	-200,000	0,016	0,112
-485,678	-200,000	-0,027	0,091
-484,664	-200,000	0,024	0,128
-483,649	464,541	0,045	-0,073
-482,635	5,179	-0,026	0,014
-481,620	-96,381	0,143	-0,027
-480,605	-17,372	-0,087	0,040
-479,591	-65,055	0,098	0,029
-478,576	455,274	0,092	-0,149
-477,562	-76,856	-0,010	0,003
-476,547	800,000	0,044	0,101
-475,532	-196,249	0,093	0,000
-474,518	77,567	0,034	-0,027
-473,503	-106,597	-0,028	0,004
-472,489	800,000	-0,046	0,098
-471,474	-61,675	-0,106	-0,032
-470,459	8,058	0,028	0,015
-469,445	800,000	-0,044	-0,096
-468,430	-58,543	0,050	-0,016
-467,416	591,567	0,082	0,148
-466,401	-167,330	-0,026	-0,001
-465,386	-200,000	0,015	-0,105
-464,372	97,272	0,079	-0,066
-463,357	-90,377	-0,107	-0,022
-462,343	-200,000	0,030	-0,206
-461,328	98,862	-0,029	0,025
-460,313	98,257	0,052	0,044
-459,299	-25,256	0,103	-0,044
-458,284	228,716	0,081	-0,096
-457,270	800,000	0,053	0,120
-456,255	168,036	0,066	0,069
-455,241	-24,152	-0,065	0,028
-454,226	-200,000	0,018	-0,147
-453,211	-155,132	0,206	0,010
-452,197	274,952	0,017	-0,022
-451,182	38,564	0,060	-0,039
-450,168	-148,475	-0,024	0,001
-449,153	-27,426	-0,136	0,057
-448,138	-111,666	-0,107	0,016
-447,124	330,399	0,027	-0,038
-446,109	9,844	0,068	-0,037
-445,095	451,559	0,067	0,107
-444,080	200,906	0,048	0,054
-443,065	-200,000	0,006	0,109
-442,051	125,268	-0,052	-0,048
-441,036	800,000	-0,019	-0,045
-440,022	-73,743	-0,117	-0,031
-439,007	-200,000	-0,021	-0,108
-437,992	-200,000	0,028	0,095
-436,978	3,126	0,068	0,036
-435,963	41,195	0,043	-0,028
-434,949	-11,090	-0,054	-0,026
-433,934	387,541	0,073	-0,110
-432,919	29,391	-0,096	-0,059
-431,905	-95,326	0,109	0,021
-430,890	-200,000	0,006	-0,146
-429,876	174,327	0,073	-0,077
-428,861	-200,000	0,012	-0,040
-427,846	-38,673	-0,070	-0,027
-426,832	-2,464	-0,144	-0,073
-425,817	83,251	0,046	-0,036
-424,803	-0,381	-0,114	-0,059
-423,788	109,659	-0,033	0,029
-422,773	-185,660	-0,089	-0,001
-421,759	-91,758	0,072	0,015
-420,744	132,045	0,024	0,022
-419,730	-200,000	0,008	-0,056
-418,715	-200,000	0,012	0,046
-417,701	-61,882	-0,059	-0,018
-416,686	-98,365	-0,022	0,004
-415,671	-52,804	-0,138	0,046
-414,657	395,963	-0,034	0,052
-413,642	268,007	0,063	0,080
-412,628	-50,101	-0,065	0,022
-411,613	-200,000	0,001	-0,025
-410,598	335,039	0,061	-0,086
-409,584	800,000	0,028	-0,083
-408,569	26,433	-0,043	-0,026
-407,555	-127,225	0,052	0,005
-406,540	800,000	-0,054	0,137
-405,525	299,633	-0,050	0,067
-404,511	22,056	-0,117	0,069
-403,496	-200,000	0,006	-0,047
-402,482	159,384	0,080	0,081
-401,467	-200,000	0,009	-0,043
-400,452	-200,000	0,001	0,063
-399,438	-200,000	0,001	-0,018
-398,423	7,684	-0,059	-0,032
-397,409	-200,000	-0,009	-0,135
-396,394	-200,000	-0,006	-0,060
-395,379	-35,308	-0,072	-0,028
-394,365	-56,796	0,097	0,031
-393,350	133,088	0,166	0,156
-392,336	584,436	-0,033	0,059
-391,321	38,562	-0,096	-0,062
-390,306	-98,652	0,098	-0,018
-389,292	716,149	-0,014	-0,027
-388,277	-30,194	0,056	-0,023
-387,263	-200,000	-0,009	0,132
-386,248	171,788	0,045	0,047
-385,233	10,041	-0,097	0,053
-384,219	269,209	-0,086	-0,110
-383,204	1,121	-0,076	-0,040
-382,190	250,101	-0,060	0,074
-381,175	17,973	0,090	0,052
-380,160	129,273	0,053	0,049
-379,146	-146,447	-0,010	-0,001
-378,131	-92,511	0,118	0,024
-377,117	72,259	-0,024	-0,018
-376,102	-74,788	-0,092	0,024
-375,088	69,583	-0,051	0,038
-374,073	-200,000	-0,012	-0,079
-373,058	-200,000	-0,002	-0,137
-372,044	-200,000	0,001	-0,009
-371,029	-200,000	0,009	0,056
-370,015	520,635	0,070	0,120
-369,000	-91,124	-0,112	0,023
-367,985	94,411	0,047	-0,038
-366,971	-200,000	-0,014	-0,049
-365,956	-200,000	0,002	0,074
-364,942	800,000	0,021	-0,043
-363,927	-200,000	0,008	-0,043
-362,912	-134,370	-0,127	0,011
-361,898	-200,000	0,043	-0,165
-360,883	4,189	-0,109	-0,058
-359,869	247,299	-0,034	-0,042
-358,854	-200,000	-0,007	0,080
-357,839	-62,825	0,130	-0,039
-356,825	64,241	0,109	0,080
-355,810	-82,143	-0,050	0,012
-354,796	-46,416	0,188	0,066
-353,781	-122,606	-0,051	-0,006
-352,766	186,068	0,092	-0,099
-351,752	-200,000	0,001	0,115
-350,737	44,614	0,040	-0,026
-349,723	120,251	-0,032	-0,029
-348,708	55,983	-0,103	-0,072
-347,693	651,958	-0,040	-0,074
-346,679	34,517	0,083	-0,052
-345,664	-55,142	-0,063	-0,020
-344,650	-200,000	-0,001	-0,010
-343,635	485,756	-0,062	0,102
-342,620	460,654	0,058	0,093
-341,606	-98,998	0,083	-0,015
-340,591	38,085	-0,024	-0,015
-339,577	-79,664	0,103	0,025
-338,562	800,000	-0,052	-0,153
-337,548	-133,437	-0,089	0,008
-336,533	-38,416	0,141	0,054
-335,518	-200,000	0,004	-0,105
-334,504	-194,390	0,078	0,000
-333,489	-200,000	-0,010	0,150
-332,475	-28,591	-0,023	0,010
-331,460	230,232	-0,051	-0,061
-330,445	-200,000	0,025	0,144
-329,431	-200,000	0,035	-0,142
-328,416	-200,000	0,020	0,075
-327,402	448,919	0,051	0,082
-326,387	-118,299	0,120	0,015
-325,372	-200,000	-0,016	-0,054
-324,358	-200,000	-0,002	-0,042
-323,343	-200,000	-0,009	0,035
-322,329	50,072	0,090	0,062
-321,314	-125,410	0,077	-0,008
-320,299	3,311	0,071	0,037
-319,285	-79,694	-0,104	0,025
-318,270	230,010	0,019	0,023
-317,256	-84,844	0,057	-0,013
-316,241	-143,780	-0,157	0,011
-315,226	-99,134	0,048	0,009
-314,212	-200,000	-0,009	0,069
-313,197	169,543	0,043	-0,044
-312,183	800,000	-0,019	0,046
-311,168	-164,008	0,091	-0,003
-310,153	368,493	-0,016	-0,023
-309,139	-200,000	-0,007	-0,059
-308,124	418,644	-0,022	0,033
-307,110	-200,000	-0,024	0,089
-306,095	-200,000	-0,006	-0,027
-305,080	125,012	0,068	-0,062
-304,066	-200,000	-0,009	-0,071
-303,051	46,551	-0,052	-0,035
-302,037	-200,000	0,003	0,021
-301,022	30,729	-0,120	0,074
-300,008	800,000	0,022	0,049
-298,993	-153,338	-0,072	0,004
-297,978	1,043	0,064	-0,033
-296,964	124,107	0,089	-0,081
-295,949	140,616	0,077	-0,074
-294,935	800,000	-0,029	-0,081
-293,920	-82,513	-0,165	-0,038
-292,905	67,597	0,023	-0,017
-291,891	-167,549	0,130	-0,004
-290,876	-200,000	-0,012	-0,187
-289,862	112,281	-0,071	0,062
-288,847	800,000	-0,040	-0,115
-287,832	-82,755	0,048	-0,011
-286,818	11,439	-0,144	-0,080
-285,803	-200,000	0,008	-0,030
-284,789	-200,000	0,000	-0,025
-283,774	698,417	0,007	0,013
-282,759	7,080	0,049	0,027
-281,745	-110,090	0,106	0,016
-280,730	112,535	0,052	-0,045
-279,716	-106,111	0,037	-0,006
-278,701	200,453	0,079	0,088
-277,686	734,654	0,061	-0,119
-276,672	800,000	-0,059	0,119
-275,657	168,505	0,065	-0,067
-274,643	-46,848	-0,064	0,022
-273,628	684,549	-0,044	-0,083
-272,613	-91,673	0,079	-0,016
-271,599	-48,030	0,091	0,032
-270,584	34,486	0,096	0,061
-269,570	204,715	0,036	0,040
-268,555	-200,000	0,005	0,027
-267,540	403,765	-0,059	0,091
-266,526	-37,278	0,056	0,022
-265,511	-13,018	-0,157	-0,073
-264,497	-156,456	-0,137	0,006
-263,482	-200,000	-0,037	0,168
-262,467	-200,000	0,028	0,187
-261,453	17,865	0,075	-0,043
-260,438	-200,000	0,022	0,069
-259,424	-46,903	0,049	-0,017
-258,409	-200,000	0,022	-0,105
-257,395	-123,199	-0,106	-0,012
-256,380	-200,000	0,158	0,000
-255,365	286,860	0,099	0,129
-254,351	719,932	-0,009	0,018
-253,336	-200,000	0,026	0,113
-252,322	19,518	-0,109	-0,063
-251,307	-109,790	0,122	-0,018
-250,292	-200,000	-0,004	-0,049
-249,278	-88,005	0,144	-0,031
-248,263	-161,838	0,211	0,008
-247,249	-100,906	0,082	-0,014
-246,234	374,679	0,061	-0,090
-245,219	467,390	-0,041	-0,066
-244,205	-200,000	0,040	0,179
-243,190	-200,000	-0,022	0,129
-242,176	258,411	0,096	0,120
-241,161	-48,845	0,065	0,022
-240,146	513,768	0,025	-0,041
-239,132	-200,000	0,000	0,065
-238,117	449,755	0,043	0,069
-237,103	-119,274	-0,064	-0,008
-236,088	133,521	0,050	0,047
-235,073	-181,839	0,081	0,001
-234,059	286,510	-0,027	0,036
-233,044	-161,942	0,072	-0,003
-232,030	800,000	0,030	0,084
-231,015	-119,852	-0,150	-0,018
-230,000	-86,359	-0,039	-0,009
-228,986	51,624	-0,094	-0,064
-227,971	-200,000	0,000	0,105
-226,957	443,989	0,031	-0,048
-225,942	800,000	0,021	0,047
-224,927	-58,273	0,053	0,017
-223,913	-200,000	0,031	0,130
-222,898	-104,623	0,021	0,003
-221,884	435,493	0,064	-0,101
-220,869	264,480	0,070	0,089
-219,855	555,844	0,029	0,051
-218,840	116,656	-0,070	-0,062
-217,825	-163,759	-0,214	-0,007
-216,811	225,499	0,043	-0,050
-215,796	-158,681	-0,176	0,007
-214,782	-83,287	0,031	0,007
-213,767	711,528	0,049	-0,093
-212,752	114,472	-0,061	-0,054
-211,738	133,425	-0,027	-0,025
-210,723	298,458	-0,092	0,122
-209,709	-200,000	-0,008	-0,041
-208,694	-200,000	-0,008	-0,067
-207,679	-200,000	-0,007	0,061
-206,665	800,000	0,077	-0,208
-205,650	772,028	0,033	0,065
-204,636	-192,037	0,065	0,000
-203,621	37,850	-0,070	0,045
-202,606	602,903	0,050	0,090
-201,592	84,919	-0,113	-0,089
-200,577	19,703	0,090	-0,052
-199,563	-110,765	0,172	-0,025
-198,548	-200,000	-0,014	0,128
-197,533	218,417	0,074	-0,085
-196,519	184,101	0,105	0,112
-195,504	611,144	-0,027	-0,049
-194,490	-50,820	-0,028	-0,009
-193,475	-200,000	-0,003	-0,088
-192,460	-23,888	0,141	0,060
-191,446	-200,000	0,010	-0,058
-190,431	-167,159	0,128	-0,004
-189,417	242,221	0,111	0,134
-188,402	-2,122	-0,042	0,021
-187,387	70,750	0,085	-0,063
-186,373	-124,426	-0,030	-0,003
-185,358	-150,094	0,071	0,004
-184,344	650,304	0,070	0,130
-183,329	-49,687	-0,018	-0,006
-182,315	111,847	0,094	0,082
-181,300	-200,000	0,037	0,129
-180,285	-148,501	-0,084	0,005
-179,271	-200,000	-0,015	0,053
-178,256	90,935	-0,072	0,058
-177,242	-200,000	0,047	-0,174
-176,227	94,561	0,080	0,066
-175,212	800,000	-0,042	0,099
-174,198	-10,267	-0,091	0,043
-173,183	106,134	0,062	-0,052
-172,169	406,031	-0,075	-0,115
-171,154	-63,440	-0,062	0,018
-170,139	-200,000	-0,011	-0,040
-169,125	-36,204	-0,108	-0,042
-168,110	-7,112	0,066	0,032
-167,096	-200,000	-0,033	0,112
-166,081	330,850	0,033	0,046
-165,066	463,469	-0,088	-0,142
-164,052	-67,039	-0,134	-0,038
-163,037	-92,656	0,027	0,005
-162,023	-17,004	0,072	0,033
-161,008	252,844	0,095	0,117
-159,993	-200,000	-0,041	0,171
-158,979	67,946	-0,130	-0,095
-157,964	-200,000	-0,034	-0,125
-156,950	-200,000	0,004	-0,164
-155,935	28,470	0,081	0,049
-154,920	148,365	0,107	-0,104
-153,906	283,274	-0,052	-0,068
-152,891	-200,000	-0,004	0,022
-151,877	800,000	-0,049	-0,115
-150,862	-113,097	0,089	0,013
-149,847	-129,965	0,082	-0,008
-148,833	14,941	0,114	-0,064
-147,818	-30,161	-0,093	0,038
-146,804	-178,953	0,176	-0,003
-145,789	70,850	0,054	-0,040
-144,775	466,831	0,107	-0,173
-143,760	-200,000	-0,024	0,130
-142,745	750,759	0,054	-0,105
-141,731	-6,946	0,068	-0,033
-140,716	800,000	0,026	-0,055
-139,702	2,737	0,122	0,064
-138,687	624,877	-0,025	0,046
-137,672	454,473	-0,064	-0,103
-136,658	400,850	0,064	-0,097
-135,643	-190,687	-0,086	-0,001
-134,629	-73,147	-0,201	-0,053
-133,614	354,766	-0,037	0,053
-132,599	-200,000	-0,008	0,120
-131,585	-200,000	-0,004	-0,063
-130,570	24,312	-0,084	0,049
-129,556	197,738	-0,065	-0,072
-128,541	103,203	0,027	-0,023
-127,526	-200,000	0,008	-0,099
-126,512	-76,210	0,050	0,013
-125,497	-166,954	0,206	0,006
-124,483	127,521	0,082	0,075
-123,468	-29,871	0,090	-0,037
-122,453	192,285	-0,059	0,064
-121,439	271,305	0,033	-0,042
-120,424	162,262	0,023	-0,023
-119,410	1,280	-0,046	0,024
