DTS Sentinel unit serial number:	SN410029Multiplexer serial number:	ORYXHardware model number:	OX2-SRSoftware version number:	ORYX F/W v4,00 Oryx Data Collector v3.7.2.0data status	okinstallation	B6 Nyhavnadifferential loss correction	single-endedforward channel	channel 2reverse channel	N/Adate	2023/12/11time	00:15:08forward acquisition time	300,00reverse acquisition time	0,00gamma	499,1914k internal	0,3122k external	0,3122temperature offset calibration	1,0000default loss term (dB/km)	0,3820temperature slope calibration	1,0000multiplexer offset coefficient	1,0000multiplexer slope coefficient	1,0000fibre end	0,00T internal ref (°C)	22,37T ext. ref 1 (°C)	5,88T ext. ref 2 (°C)	5,91length (m)	temperature (°C)	Stokes	anti-Stokes-744,400	800,000	0,047	-0,105
-743,385	35,190	-0,238	0,155
-742,371	-28,544	-0,119	0,051
-741,356	-115,168	-0,121	0,017
-740,342	-152,515	0,107	0,006
-739,327	-111,756	-0,243	0,036
-738,312	-175,614	0,104	-0,002
-737,298	-64,941	-0,216	0,065
-736,283	800,000	0,071	-0,154
-735,269	-65,119	-0,144	0,043
-734,254	425,293	-0,020	-0,031
-733,239	-146,404	-0,442	-0,028
-732,225	800,000	0,019	-0,055
-731,210	-200,000	0,019	-0,154
-730,196	-181,273	-0,105	0,002
-729,181	-121,231	-0,220	0,027
-728,167	-47,291	-0,026	0,009
-727,152	13,365	0,015	0,008
-726,137	-42,712	-0,074	-0,028
-725,123	800,000	-0,066	0,147
-724,108	800,000	-0,045	-0,121
-723,094	1,852	-0,137	-0,074
-722,079	-200,000	-0,008	-0,149
-721,064	290,866	0,042	0,057
-720,050	382,475	-0,043	0,066
-719,035	404,377	-0,061	0,097
-718,021	-105,314	-0,067	0,011
-717,006	800,000	-0,040	-0,093
-715,991	-40,773	0,067	-0,026
-714,977	-24,178	-0,110	-0,049
-713,962	291,831	-0,110	-0,150
-712,948	-49,660	0,057	0,020
-711,933	-200,000	0,014	0,059
-710,918	-181,561	-0,033	-0,000
-709,904	259,053	-0,059	-0,076
-708,889	379,875	-0,075	-0,115
-707,875	217,562	-0,048	-0,057
-706,860	212,120	-0,038	0,044
-705,845	-44,618	0,065	0,024
-704,831	-177,412	-0,026	-0,000
-703,816	-200,000	-0,013	-0,075
-702,802	-18,500	-0,133	-0,062
-701,787	179,695	0,034	-0,037
-700,772	-77,491	-0,031	-0,008
-699,758	125,711	-0,054	0,051
-698,743	226,367	0,016	-0,020
-697,729	-97,732	0,082	0,016
-696,714	-151,909	0,027	-0,001
-695,699	800,000	0,041	-0,086
-694,685	-20,302	-0,038	-0,017
-693,670	61,994	0,051	0,037
-692,656	800,000	-0,019	0,052
-691,641	-200,000	-0,001	0,016
-690,627	385,895	0,038	-0,059
-689,612	-200,000	0,005	0,110
-688,597	-200,000	-0,015	-0,056
-687,583	-75,489	-0,152	-0,040
-686,568	-115,823	-0,143	0,020
-685,554	-200,000	-0,025	-0,090
-684,539	-10,165	-0,055	0,027
-683,524	-98,464	0,139	0,026
-682,510	-28,454	-0,095	0,040
-681,495	680,779	0,055	0,108
-680,481	187,969	-0,052	-0,058
-679,466	800,000	-0,064	-0,135
-678,451	-100,218	-0,177	0,032
-677,437	-88,873	-0,075	0,016
-676,422	233,510	-0,014	-0,018
-675,408	-115,792	0,116	0,016
-674,393	-200,000	0,005	-0,052
-673,378	13,628	0,116	0,067
-672,364	77,068	0,041	-0,032
-671,349	133,969	-0,078	-0,076
-670,335	-103,154	-0,085	0,015
-669,320	-9,258	0,090	-0,045
-668,305	665,635	-0,003	-0,006
-667,291	623,444	0,063	-0,119
-666,276	-200,000	-0,009	-0,030
-665,262	-62,606	-0,230	-0,071
-664,247	800,000	0,022	-0,055
-663,232	-200,000	-0,000	0,047
-662,218	-30,760	0,053	0,022
-661,203	27,054	0,086	0,053
-660,189	614,999	-0,061	0,114
-659,174	526,368	-0,042	0,074
-658,159	3,588	-0,100	0,054
-657,145	800,000	-0,055	-0,156
-656,130	-200,000	0,016	-0,055
-655,116	-200,000	0,003	-0,183
-654,101	-154,115	0,092	-0,005
-653,086	45,755	-0,022	0,015
-652,072	139,458	-0,039	-0,039
-651,057	-49,761	0,117	-0,041
-650,043	533,830	-0,055	-0,097
-649,028	401,634	0,046	0,073
-648,014	-200,000	-0,009	0,051
-646,999	-200,000	0,022	0,124
-645,984	-200,000	-0,012	-0,052
-644,970	46,152	0,033	-0,023
-643,955	-0,617	-0,089	-0,047
-642,941	78,764	0,010	-0,008
-641,926	-90,763	-0,067	-0,014
-640,911	76,761	0,067	0,053
-639,897	-51,637	-0,081	-0,028
-638,882	153,503	0,097	-0,098
-637,868	90,722	0,019	0,016
-636,853	-200,000	-0,010	-0,091
-635,838	-200,000	-0,017	-0,109
-634,824	-130,198	0,042	-0,004
-633,809	-74,792	0,127	0,034
-632,795	132,956	-0,026	0,025
-631,780	146,591	0,057	0,057
-630,765	782,644	0,029	-0,059
-629,751	-66,981	0,072	-0,021
-628,736	-117,329	0,041	0,005
-627,722	37,020	-0,086	0,056
-626,707	-156,532	0,055	-0,002
-625,692	545,095	0,035	0,062
-624,678	-200,000	0,016	0,107
-623,663	207,187	-0,063	-0,073
-622,649	-0,344	-0,108	-0,057
-621,634	134,371	-0,040	-0,039
-620,619	800,000	-0,056	0,167
-619,605	-52,569	-0,037	0,012
-618,590	-200,000	0,008	0,073
-617,576	-200,000	0,004	-0,038
-616,561	217,502	-0,097	-0,115
-615,546	431,381	-0,067	0,108
-614,532	800,000	-0,042	-0,102
-613,517	196,644	0,061	0,069
-612,503	-119,515	-0,088	-0,011
-611,488	-31,399	0,086	0,036
-610,474	650,105	0,012	-0,023
-609,459	-23,014	-0,004	-0,002
-608,444	-110,504	-0,108	0,016
-607,430	-200,000	-0,006	0,029
-606,415	-112,679	-0,145	0,021
-605,401	99,689	0,076	0,065
-604,386	83,112	-0,021	-0,017
-603,371	-200,000	-0,025	0,099
-602,357	-110,389	-0,070	-0,011
-601,342	188,282	0,028	-0,031
-600,328	800,000	-0,046	0,100
-599,313	-33,445	-0,066	-0,027
-598,298	745,043	-0,122	-0,245
-597,284	-66,867	0,143	0,042
-596,269	104,446	-0,039	-0,034
-595,255	800,000	-0,021	0,052
-594,240	46,298	-0,025	0,017
-593,225	95,529	-0,146	0,123
-592,211	72,901	-0,071	-0,055
-591,196	-200,000	-0,001	-0,005
-590,182	252,072	0,040	0,051
-589,167	-22,485	-0,095	0,043
-588,152	170,283	0,050	-0,054
-587,138	439,894	0,032	0,053
-586,123	225,643	-0,046	-0,055
-585,109	-101,966	0,075	-0,013
-584,094	-114,727	-0,041	-0,006
-583,079	133,399	-0,044	-0,042
-582,065	800,000	0,025	-0,074
-581,050	-135,780	0,085	0,007
-580,036	-200,000	0,022	0,132
-579,021	800,000	0,039	-0,092
-578,006	233,697	0,096	-0,118
-576,992	450,243	-0,068	-0,111
-575,977	-9,052	0,049	0,024
-574,963	-30,754	0,060	0,025
-573,948	235,826	0,066	-0,081
-572,934	-200,000	-0,001	0,004
-571,919	118,588	-0,043	0,039
-570,904	2,891	-0,159	0,085
-569,890	-31,213	-0,057	-0,024
-568,875	-52,015	-0,114	0,039
-567,861	11,950	0,126	-0,071
-566,846	17,583	-0,062	0,036
-565,831	25,030	0,029	-0,018
-564,817	-100,211	-0,048	-0,009
-563,802	228,495	-0,118	-0,143
-562,788	-200,000	0,003	-0,065
-561,773	-131,070	-0,175	-0,017
-560,758	-66,559	0,192	0,056
-559,744	96,116	-0,181	0,153
-558,729	-200,000	-0,010	-0,074
-557,715	-200,000	0,008	-0,042
-556,700	-31,375	-0,034	-0,014
-555,685	-200,000	-0,006	0,039
-554,671	453,385	0,035	0,057
-553,656	800,000	0,038	0,086
-552,642	-200,000	0,002	0,015
-551,627	-200,000	0,004	0,036
-550,612	-118,358	-0,101	0,013
-549,598	192,818	-0,033	0,037
-548,583	-118,701	-0,088	0,011
-547,569	225,048	0,018	-0,022
-546,554	-200,000	0,026	0,156
-545,539	-23,026	0,066	0,029
-544,525	-21,583	-0,128	0,058
-543,510	483,484	-0,022	-0,037
-542,496	800,000	-0,028	-0,064
-541,481	-200,000	-0,026	-0,122
-540,466	249,784	-0,096	-0,120
-539,452	-1,296	-0,108	0,056
-538,437	79,039	0,045	0,036
-537,423	103,041	-0,065	-0,056
-536,408	-53,769	-0,111	-0,037
-535,393	-73,226	-0,219	0,059
-534,379	-65,443	-0,084	-0,025
-533,364	-66,778	-0,060	0,017
-532,350	-200,000	0,026	-0,126
-531,335	88,942	-0,092	-0,076
-530,321	800,000	-0,064	0,157
-529,306	729,390	-0,024	0,048
-528,291	-35,641	-0,078	0,031
-527,277	-200,000	0,006	-0,034
-526,262	-200,000	-0,004	0,108
-525,248	726,042	0,054	0,106
-524,233	-200,000	-0,003	0,158
-523,218	1,527	0,067	0,036
-522,204	-149,807	-0,062	0,004
-521,189	85,869	-0,086	0,070
-520,175	800,000	-0,012	0,038
-519,160	185,166	-0,038	-0,041
-518,145	-200,000	-0,007	-0,029
-517,131	-200,000	0,015	0,136
-516,116	-200,000	0,022	0,098
-515,102	390,806	-0,038	-0,058
-514,087	112,693	-0,070	0,063
-513,072	-41,450	-0,065	-0,025
-512,058	-174,249	0,096	0,002
-511,043	-99,802	0,021	0,004
-510,029	32,973	0,057	-0,037
-509,014	-6,764	0,055	-0,028
-507,999	-70,381	-0,065	-0,018
-506,985	-91,901	0,030	0,006
-505,970	-200,000	-0,006	-0,066
-504,956	12,868	-0,075	-0,043
-503,941	62,967	0,047	-0,035
-502,926	180,932	0,075	-0,081
-501,912	76,369	0,042	-0,033
-500,897	-144,466	-0,094	0,006
-499,883	-154,884	-0,096	0,005
-498,868	173,986	-0,104	-0,111
-497,853	147,242	-0,091	0,091
-496,839	-200,000	0,012	-0,126
-495,824	800,000	-0,029	0,095
-494,810	-77,765	0,118	0,030
-493,795	-200,000	0,031	-0,138
-492,781	350,402	-0,032	0,047
-491,766	253,421	-0,033	0,042
-490,751	-4,714	0,055	-0,028
-489,737	60,316	-0,039	-0,028
-488,722	306,205	-0,062	0,086
-487,708	169,564	0,048	0,051
-486,693	20,101	-0,058	-0,035
-485,678	-109,292	-0,081	-0,013
-484,664	-23,115	0,056	0,025
-483,649	53,350	0,056	0,039
-482,635	118,474	-0,034	-0,031
-481,620	-59,603	0,102	0,032
-480,605	60,620	-0,025	0,018
-479,591	-200,000	-0,020	0,095
-478,576	30,583	-0,038	-0,024
-477,562	-110,892	0,070	0,011
-476,547	565,998	-0,049	-0,088
-475,532	-126,317	-0,105	0,011
-474,518	770,703	0,047	0,094
-473,503	10,861	0,017	-0,009
-472,489	231,666	0,056	-0,068
-471,474	-200,000	0,004	-0,060
-470,459	-93,577	0,098	0,020
-469,445	-200,000	0,025	-0,169
-468,430	321,167	0,070	0,098
-467,416	163,521	0,121	0,126
-466,401	-4,405	0,135	0,069
-465,386	164,770	0,026	0,027
-464,372	-56,016	0,045	-0,015
-463,357	800,000	-0,035	-0,105
-462,343	340,361	-0,011	-0,015
-461,328	-200,000	-0,005	0,041
-460,313	-60,564	-0,016	0,005
-459,299	67,690	0,104	-0,078
-458,284	800,000	-0,023	0,050
-457,270	184,728	0,066	0,073
-456,255	800,000	0,027	0,057
-455,241	-22,892	-0,060	-0,027
-454,226	800,000	0,003	0,008
-453,211	-200,000	0,008	-0,121
-452,197	-17,126	0,155	0,072
-451,182	-96,125	0,132	0,026
-450,168	-107,572	-0,013	0,002
-449,153	289,359	-0,087	0,116
-448,138	-71,420	-0,108	-0,030
-447,124	-200,000	0,009	-0,046
-446,109	252,338	0,020	0,026
-445,095	-70,115	-0,011	0,003
-444,080	-25,202	0,118	0,051
-443,065	-86,062	-0,103	0,023
-442,051	-37,707	-0,069	0,027
-441,036	-78,650	0,044	0,011
-440,022	266,978	-0,042	-0,055
-439,007	-37,435	0,144	-0,056
-437,992	-106,702	0,077	0,013
-436,978	-91,921	-0,107	0,022
-435,963	70,100	-0,016	0,012
-434,949	107,791	-0,136	-0,120
-433,934	-200,000	-0,004	-0,053
-432,919	42,060	0,019	0,013
-431,905	360,101	0,025	0,037
-430,890	29,200	0,110	0,069
-429,876	20,807	0,085	0,051
-428,861	-200,000	0,006	0,033
-427,846	-4,254	-0,110	-0,056
-426,832	30,455	-0,112	0,070
-425,817	1,408	0,153	-0,081
-424,803	530,276	0,022	0,039
-423,788	-200,000	0,027	0,091
-422,773	125,436	0,049	0,046
-421,759	231,804	0,065	0,078
-420,744	232,285	0,059	-0,071
-419,730	462,937	0,084	-0,139
-418,715	319,728	-0,038	-0,053
-417,701	281,397	0,036	-0,047
-416,686	536,787	0,072	-0,127
-415,671	-138,642	0,171	-0,014
-414,657	207,206	-0,046	-0,053
-413,642	-121,708	0,028	0,003
-412,628	800,000	0,047	0,130
-411,613	-99,584	-0,104	-0,019
-410,598	-109,676	0,110	-0,017
-409,584	41,392	0,025	-0,017
-408,569	-200,000	-0,008	0,115
-407,555	94,198	0,051	0,043
-406,540	-89,133	-0,049	-0,011
-405,525	-200,000	0,001	0,005
-404,511	376,282	-0,034	-0,051
-403,496	800,000	-0,016	-0,036
-402,482	42,325	0,025	-0,017
-401,467	213,148	-0,083	0,097
-400,452	225,255	0,054	0,065
-399,438	78,554	0,076	0,059
-398,423	-135,839	-0,141	0,012
-397,409	-29,594	-0,099	-0,041
-396,394	98,461	0,055	-0,046
-395,379	-110,685	0,062	0,009
-394,365	-116,376	0,056	0,008
-393,350	-200,000	0,011	0,085
-392,336	205,453	0,069	0,079
-391,321	98,569	0,029	-0,024
-390,306	115,998	0,037	-0,034
-389,292	-200,000	-0,010	-0,044
-388,277	-120,796	0,038	-0,005
-387,263	31,482	0,050	-0,032
-386,248	147,884	0,055	0,055
-385,233	126,953	0,066	0,061
-384,219	16,324	-0,067	-0,039
-383,204	130,676	-0,113	0,107
-382,190	-71,154	-0,087	0,024
-381,175	-200,000	-0,002	-0,019
-380,160	170,114	0,038	-0,040
-379,146	-200,000	-0,034	0,159
-378,131	172,483	0,046	0,048
-377,117	7,867	-0,067	0,037
-376,102	98,732	0,072	0,061
-375,088	800,000	0,046	0,108
-374,073	-20,755	0,049	0,022
-373,058	800,000	0,030	0,081
-372,044	36,515	0,020	0,013
-371,029	-191,124	0,162	-0,001
-370,015	190,745	0,043	0,047
-369,000	253,011	0,042	-0,053
-367,985	99,817	-0,034	0,029
-366,971	361,748	-0,064	0,095
-365,956	-200,000	-0,019	0,134
-364,942	-200,000	-0,013	0,108
-363,927	-87,247	0,034	0,008
-362,912	800,000	0,017	-0,041
-361,898	108,576	-0,077	0,068
-360,883	177,026	-0,030	-0,032
-359,869	-200,000	-0,013	-0,060
-358,854	-200,000	0,000	-0,079
-357,839	32,179	0,118	0,074
-356,825	-200,000	0,012	0,052
-355,810	-31,016	0,071	0,029
-354,796	221,442	-0,073	-0,086
-353,781	-200,000	0,029	-0,126
-352,766	-146,112	-0,088	-0,006
-351,752	-118,968	-0,052	0,007
-350,737	-99,205	0,164	0,030
-349,723	-84,921	-0,040	0,009
-348,708	24,584	0,146	0,088
-347,693	-200,000	-0,063	-0,206
-346,679	800,000	0,034	-0,075
-345,664	151,710	0,065	-0,065
-344,650	165,196	0,045	0,046
-343,635	234,308	0,028	0,035
-342,620	-200,000	0,012	0,134
-341,606	-151,834	0,103	-0,005
-340,591	-200,000	0,028	0,115
-339,577	-200,000	-0,008	0,044
-338,562	47,913	0,073	0,050
-337,548	800,000	-0,016	0,050
-336,533	-100,904	-0,086	0,015
-335,518	-113,491	0,174	-0,025
-334,504	197,501	-0,021	0,023
-333,489	169,671	-0,083	-0,087
-332,475	136,548	-0,128	-0,122
-331,460	82,885	0,040	-0,032
-330,445	-200,000	-0,021	-0,113
-329,431	-52,910	0,090	0,030
-328,416	800,000	0,009	-0,021
-327,402	447,973	-0,048	0,078
-326,387	163,420	0,049	0,051
-325,372	93,390	-0,037	0,031
-324,358	-26,541	-0,072	0,031
-323,343	-200,000	-0,005	0,043
-322,329	-200,000	0,016	0,096
-321,314	-169,186	0,100	0,003
-320,299	54,581	-0,067	-0,048
-319,285	-115,019	0,178	0,025
-318,270	100,869	-0,058	-0,050
-317,256	-148,871	0,069	-0,004
-316,241	-131,093	-0,139	0,013
-315,226	64,193	-0,043	-0,031
-314,212	800,000	0,034	0,076
-313,197	-200,000	-0,001	-0,038
-312,183	-22,286	-0,098	-0,044
-311,168	-64,958	-0,061	-0,018
-310,153	645,178	-0,103	-0,193
-309,139	800,000	-0,079	0,177
-308,124	-200,000	0,016	0,061
-307,110	-23,450	-0,031	-0,014
-306,095	-200,000	0,038	0,131
-305,080	-37,660	0,060	-0,023
-304,066	-111,614	-0,039	0,006
-303,051	800,000	-0,055	-0,133
-302,037	-200,000	0,014	-0,047
-301,022	800,000	0,043	0,124
-300,008	-155,700	0,133	-0,006
-298,993	8,587	0,124	-0,068
-297,978	203,077	0,009	-0,010
-296,964	649,662	0,014	-0,026
-295,949	229,301	-0,052	-0,062
-294,935	258,164	0,043	-0,055
-293,920	-13,771	0,024	-0,011
-292,905	494,519	0,059	0,099
-291,891	-200,000	-0,009	-0,033
-290,876	536,064	-0,008	0,013
-289,862	-70,679	-0,068	0,019
-288,847	761,389	-0,061	-0,123
-287,832	-200,000	-0,026	-0,110
-286,818	52,757	0,087	-0,061
-285,803	-79,893	0,095	-0,023
-284,789	-113,411	-0,114	0,016
-283,774	-26,696	0,090	-0,038
-282,759	94,937	0,033	-0,028
-281,745	-200,000	-0,006	-0,199
-280,730	52,354	0,118	-0,083
-279,716	-169,903	0,181	-0,005
-278,701	-94,871	-0,020	0,004
-277,686	-200,000	0,002	-0,020
-276,672	78,142	0,039	-0,030
-275,657	-23,690	0,043	-0,019
-274,643	-31,607	-0,118	0,048
-273,628	-70,155	0,072	-0,020
-272,613	-200,000	-0,004	-0,130
-271,599	-200,000	0,016	-0,106
-270,584	-38,052	0,087	-0,034
-269,570	-200,000	0,002	0,028
-268,555	13,680	-0,135	0,076
-267,540	-6,721	0,034	0,017
-266,526	56,322	0,110	-0,078
-265,511	193,313	-0,048	-0,053
-264,497	416,628	0,043	-0,068
-263,482	-56,918	0,104	-0,033
-262,467	-200,000	0,039	-0,137
-261,453	291,667	-0,044	0,058
-260,438	397,583	-0,065	-0,100
-259,424	-140,639	-0,104	-0,008
-258,409	-77,539	0,074	0,019
-257,395	112,323	-0,038	0,034
-256,380	103,029	0,096	-0,082
-255,365	402,154	0,028	0,044
-254,351	181,894	-0,113	-0,122
-253,336	-200,000	0,003	-0,067
-252,322	18,913	-0,056	0,032
-251,307	396,680	0,032	-0,049
-250,292	179,868	-0,005	0,005
-249,278	-17,930	0,114	-0,052
-248,263	800,000	-0,014	0,031
-247,249	-200,000	0,007	-0,027
-246,234	-200,000	-0,065	0,000
-245,219	58,502	0,028	0,020
-244,205	-11,222	-0,058	-0,028
-243,190	-11,087	0,039	-0,019
-242,176	401,866	-0,010	0,015
-241,161	27,603	0,049	-0,030
-240,146	-200,000	0,005	0,051
-239,132	74,698	-0,096	0,073
-238,117	538,204	-0,077	-0,134
-237,103	197,108	0,079	0,089
-236,088	-200,000	-0,031	-0,131
-235,073	106,595	0,100	0,087
-234,059	-200,000	-0,008	0,052
-233,044	260,705	0,089	0,113
-232,030	800,000	-0,065	-0,199
-231,015	252,035	0,006	0,007
-230,000	-120,994	-0,114	0,014
-228,986	0,586	-0,094	-0,049
-227,971	147,305	-0,141	0,139
-226,957	-37,169	-0,076	0,030
-225,942	144,960	-0,037	0,036
-224,927	-200,000	0,002	-0,019
-223,913	-20,612	-0,131	0,059
-222,898	-79,290	-0,012	0,003
-221,884	-200,000	-0,012	-0,045
-220,869	50,097	0,126	0,086
-219,855	169,252	0,081	-0,084
-218,840	-39,758	-0,088	-0,034
-217,825	486,983	0,052	-0,088
-216,811	-111,862	-0,073	0,011
-215,796	-200,000	-0,015	-0,069
-214,782	800,000	0,039	-0,093
-213,767	-167,272	0,051	0,001
-212,752	69,006	0,076	0,057
-211,738	-200,000	0,013	0,162
-210,723	-162,675	0,129	0,005
-209,709	-130,701	-0,076	-0,007
-208,694	29,259	-0,042	-0,026
-207,679	-200,000	-0,014	-0,066
-206,665	-122,144	-0,042	0,005
-205,650	-5,480	0,085	-0,042
-204,636	75,513	-0,138	-0,107
-203,621	-138,548	-0,060	0,005
-202,606	25,653	0,051	0,031
-201,592	-200,000	0,003	-0,120
-200,577	-200,000	0,043	-0,271
-199,563	164,981	0,065	0,067
-198,548	-200,000	0,009	-0,047
-197,533	800,000	-0,035	0,110
-196,519	-34,879	-0,077	-0,031
-195,504	-200,000	-0,001	-0,010
-194,490	111,991	-0,104	0,091
-193,475	197,268	0,035	0,039
-192,460	9,988	-0,086	0,048
-191,446	-123,802	0,116	0,013
-190,431	-169,072	-0,101	0,003
-189,417	46,460	0,094	-0,064
-188,402	-64,429	-0,095	0,028
-187,387	800,000	-0,043	-0,095
-186,373	-69,584	-0,054	-0,015
-185,358	-47,925	-0,125	-0,044
-184,344	-73,771	0,086	0,023
-183,329	-120,486	0,151	-0,019
-182,315	-13,371	0,084	0,040
-181,300	-96,466	0,052	-0,010
-180,285	107,267	0,036	0,031
-179,271	-62,950	0,076	0,023
-178,256	800,000	0,065	-0,154
-177,242	219,869	-0,050	0,059
-176,227	-200,000	-0,011	-0,079
-175,212	800,000	0,046	0,140
-174,198	426,129	0,070	0,111
-173,183	-44,028	-0,113	-0,041
-172,169	-135,143	-0,082	0,007
-171,154	110,198	0,087	0,076
-170,139	130,477	0,037	0,034
-169,125	-64,737	-0,070	0,020
-168,110	67,397	0,040	0,029
-167,096	-200,000	-0,002	-0,031
-166,081	-73,393	-0,109	-0,029
-165,066	-200,000	0,002	-0,188
-164,052	264,430	0,057	0,072
-163,037	800,000	-0,036	0,086
-162,023	-26,988	0,086	0,037
-161,008	-90,389	0,133	-0,028
-159,993	-200,000	-0,001	0,094
-158,979	-3,730	-0,131	0,066
-157,964	290,087	0,057	0,076
-156,950	-200,000	0,039	-0,133
-155,935	20,791	-0,075	-0,044
-154,920	-54,605	-0,086	0,028
-153,906	686,671	0,051	-0,098
-152,891	13,614	0,085	0,048
-151,877	-200,000	0,001	-0,079
-150,862	221,182	-0,050	-0,059
-149,847	29,797	0,034	0,021
-148,833	-200,000	-0,005	0,141
-147,818	0,496	-0,095	-0,049
-146,804	-157,965	0,124	0,005
-145,789	-144,961	-0,069	0,005
-144,775	-74,120	-0,062	0,016
-143,760	-116,315	-0,135	-0,018
-142,745	-200,000	-0,016	0,123
-141,731	83,451	-0,125	0,099
-140,716	134,577	0,069	0,065
-139,702	800,000	0,055	0,117
-138,687	234,497	-0,037	0,044
-137,672	-200,000	-0,011	-0,063
-136,658	322,428	-0,086	0,119
-135,643	800,000	0,019	-0,045
-134,629	16,751	-0,008	-0,004
-133,614	800,000	0,020	0,056
-132,599	-59,649	-0,092	0,029
-131,585	800,000	-0,025	0,072
-130,570	-200,000	0,005	-0,165
-129,556	18,690	0,068	-0,039
-128,541	-200,000	0,034	-0,117
-127,526	287,035	0,043	-0,057
-126,512	154,527	-0,055	-0,055
-125,497	-200,000	0,004	-0,077
-124,483	-200,000	-0,025	-0,131
-123,468	132,334	-0,033	0,031
-122,453	-200,000	-0,028	0,089
-121,439	7,188	-0,084	0,045
-120,424	212,470	0,084	0,096
-119,410	-200,000	-0,020	0,154
-118,395	-200,000	-0,020	0,076
