DTS Sentinel unit serial number:	SN410029Multiplexer serial number:	ORYXHardware model number:	OX2-SRSoftware version number:	ORYX F/W v4,00 Oryx Data Collector v3.7.2.0data status	okinstallation	B6 Nyhavnadifferential loss correction	single-endedforward channel	channel 2reverse channel	N/Adate	2023/12/07time	15:25:08forward acquisition time	300,00reverse acquisition time	0,00gamma	499,1914k internal	0,3150k external	0,3150temperature offset calibration	1,0000default loss term (dB/km)	0,3820temperature slope calibration	1,0000multiplexer offset coefficient	1,0000multiplexer slope coefficient	1,0000fibre end	0,00T internal ref (°C)	14,36T ext. ref 1 (°C)	-1,90T ext. ref 2 (°C)	-1,89length (m)	temperature (°C)	Stokes	anti-Stokes-744,400	-200,000	0,008	0,044
-743,385	1,529	-0,302	0,160
-742,371	-121,306	0,077	0,009
-741,356	-35,378	-0,292	0,117
-740,342	3,797	0,152	0,082
-739,327	-77,515	-0,353	-0,090
-738,312	-200,000	-0,008	-0,056
-737,298	-55,668	-0,290	-0,095
-736,283	-131,451	0,048	0,005
-735,269	32,050	-0,081	0,052
-734,254	-200,000	-0,005	0,094
-733,239	-18,564	-0,565	-0,259
-732,225	244,411	0,130	-0,162
-731,210	-6,550	0,095	0,048
-730,196	104,337	0,068	-0,060
-729,181	-30,052	-0,012	-0,005
-728,167	157,935	-0,062	0,063
-727,152	800,000	-0,015	-0,039
-726,137	-9,327	-0,129	-0,063
-725,123	-96,439	-0,107	0,021
-724,108	-96,028	-0,107	0,021
-723,094	428,049	-0,076	-0,121
-722,079	-200,000	-0,022	-0,096
-721,064	59,150	0,074	0,053
-720,050	394,838	0,035	0,054
-719,035	124,150	-0,015	0,014
-718,021	800,000	-0,028	0,076
-717,006	-200,000	0,002	-0,063
-715,991	-21,389	-0,242	-0,108
-714,977	158,358	0,137	-0,140
-713,962	800,000	0,006	-0,015
-712,948	-200,000	-0,076	-0,000
-711,933	-31,664	0,069	-0,029
-710,918	-200,000	-0,021	0,211
-709,904	-158,356	0,040	0,002
-708,889	138,997	-0,053	-0,051
-707,875	-92,529	-0,149	0,031
-706,860	800,000	0,045	0,101
-705,845	121,868	-0,039	-0,036
-704,831	87,089	-0,121	-0,099
-703,816	800,000	0,049	0,129
-702,802	-64,496	-0,103	-0,031
-701,787	-200,000	0,031	-0,116
-700,772	-59,817	-0,164	-0,051
-699,758	704,944	-0,058	-0,114
-698,743	-46,875	0,094	-0,034
-697,729	35,515	0,124	0,080
-696,714	-136,381	0,157	0,013
-695,699	-200,000	0,002	-0,019
-694,685	16,137	-0,050	-0,029
-693,670	-22,242	-0,062	-0,028
-692,656	-101,455	-0,055	-0,010
-691,641	-124,513	-0,134	0,015
-690,627	237,751	0,007	0,009
-689,612	-4,473	-0,011	0,006
-688,597	185,014	-0,054	-0,059
-687,583	2,407	-0,058	0,031
-686,568	76,061	0,059	-0,046
-685,554	800,000	0,038	0,108
-684,539	800,000	0,060	0,159
-683,524	-65,785	-0,090	-0,026
-682,510	-57,482	0,090	0,029
-681,495	-59,670	-0,132	0,042
-680,481	-80,879	-0,071	-0,017
-679,466	-50,736	0,061	0,021
-678,451	800,000	0,035	-0,087
-677,437	-97,016	-0,048	0,009
-676,422	427,434	-0,062	0,099
-675,408	-132,532	0,065	0,006
-674,393	485,411	0,074	0,124
-673,378	-200,000	0,030	-0,120
-672,364	709,972	0,037	-0,072
-671,349	-200,000	0,035	0,129
-670,335	-78,829	-0,085	-0,021
-669,320	-172,707	-0,142	0,003
-668,305	-200,000	-0,013	0,086
-667,291	712,126	-0,032	0,063
-666,276	-200,000	-0,028	0,159
-665,262	222,238	-0,103	-0,122
-664,247	800,000	-0,011	-0,031
-663,232	159,622	0,051	0,052
-662,218	168,146	-0,094	0,099
-661,203	-105,107	-0,062	0,010
-660,189	-200,000	0,045	-0,160
-659,174	-75,061	-0,192	0,050
-658,159	229,030	-0,085	-0,102
-657,145	800,000	-0,066	-0,189
-656,130	-90,612	-0,124	-0,026
-655,116	69,558	0,164	-0,124
-654,101	90,380	-0,063	0,052
-653,086	-200,000	0,009	0,103
-652,072	-188,569	-0,118	-0,001
-651,057	-82,310	0,066	-0,016
-650,043	-52,127	-0,219	-0,074
-649,028	-117,753	-0,073	-0,010
-648,014	-15,302	0,091	0,043
-646,999	80,695	-0,113	-0,090
-645,984	-115,660	0,069	-0,009
-644,970	-37,753	-0,107	-0,042
-643,955	-200,000	0,006	-0,125
-642,941	-200,000	0,037	-0,230
-641,926	12,966	-0,065	-0,037
-640,911	-90,931	-0,060	0,013
-639,897	-15,028	0,035	0,016
-638,882	-200,000	-0,059	-0,226
-637,868	81,691	-0,042	0,034
-636,853	-103,447	-0,027	-0,005
-635,838	230,494	-0,082	0,099
-634,824	-69,231	-0,027	-0,007
-633,809	-200,000	-0,024	-0,093
-632,795	136,774	-0,105	-0,101
-631,780	15,895	0,099	-0,057
-630,765	88,923	-0,046	0,038
-629,751	257,534	-0,072	-0,091
-628,736	66,076	-0,044	-0,033
-627,722	-165,644	0,061	-0,002
-626,707	-200,000	-0,005	-0,044
-625,692	4,830	0,045	0,024
-624,678	-66,440	0,096	-0,028
-623,663	800,000	0,035	0,112
-622,649	10,912	-0,110	-0,062
-621,634	57,294	-0,027	-0,020
-620,619	800,000	-0,049	-0,130
-619,605	800,000	-0,013	-0,029
-618,590	-40,754	0,063	-0,024
-617,576	274,490	0,046	0,060
-616,561	-158,632	-0,102	-0,004
-615,546	-200,000	0,014	-0,083
-614,532	264,269	-0,121	-0,155
-613,517	-79,380	0,052	0,013
-612,503	-200,000	-0,001	-0,036
-611,488	0,801	0,051	0,027
-610,474	232,979	-0,045	-0,054
-609,459	-200,000	-0,002	0,152
-608,444	-200,000	0,016	-0,063
-607,430	-157,922	-0,098	-0,004
-606,415	-200,000	-0,019	-0,071
-605,401	330,816	-0,011	0,015
-604,386	-97,806	0,116	0,022
-603,371	800,000	0,030	0,073
-602,357	330,821	-0,063	-0,090
-601,342	-200,000	-0,037	-0,142
-600,328	800,000	-0,030	0,088
-599,313	383,966	-0,076	-0,115
-598,298	-115,097	0,075	-0,010
-597,284	-53,836	-0,050	0,017
-596,269	58,070	-0,105	-0,075
-595,255	-166,987	0,034	0,001
-594,240	9,002	-0,064	0,035
-593,225	-200,000	-0,017	-0,250
-592,211	800,000	0,045	0,111
-591,196	507,161	-0,045	-0,076
-590,182	112,720	0,138	-0,123
-589,167	115,841	-0,028	0,025
-588,152	148,425	0,029	-0,028
-587,138	-138,560	0,057	0,005
-586,123	273,073	-0,079	-0,102
-585,109	-154,264	0,018	0,001
-584,094	-5,242	-0,084	-0,042
-583,079	-200,000	-0,006	0,049
-582,065	-200,000	0,010	-0,096
-581,050	21,477	-0,131	0,078
-580,036	-200,000	-0,011	0,061
-579,021	-200,000	0,015	-0,115
-578,006	112,297	0,108	-0,096
-576,992	124,771	-0,085	-0,079
-575,977	112,932	0,106	0,095
-574,963	-200,000	0,003	-0,054
-573,948	-200,000	-0,001	0,099
-572,934	800,000	0,034	0,080
-571,919	65,597	0,071	-0,053
-570,904	14,303	-0,139	-0,079
-569,890	82,322	-0,033	0,027
-568,875	-108,492	-0,102	0,016
-567,861	-200,000	0,027	0,111
-566,846	800,000	0,014	-0,041
-565,831	3,994	-0,038	-0,021
-564,817	-85,395	-0,052	-0,012
-563,802	195,867	-0,045	0,050
-562,788	-117,131	0,095	0,013
-561,773	-200,000	0,008	-0,026
-560,758	-130,224	-0,153	0,015
-559,744	547,350	0,031	-0,055
-558,729	-200,000	-0,001	-0,086
-557,715	-119,919	-0,157	-0,020
-556,700	130,781	-0,041	-0,039
-555,685	194,566	-0,040	0,044
-554,671	-38,875	-0,085	0,033
-553,656	-200,000	-0,006	0,093
-552,642	45,222	0,043	-0,029
-551,627	375,076	-0,054	-0,081
-550,612	104,464	-0,041	-0,035
-549,598	-95,175	-0,055	0,011
-548,583	243,470	-0,058	-0,072
-547,569	41,702	0,060	0,040
-546,554	-94,431	-0,143	-0,028
-545,539	52,816	0,051	0,036
-544,525	64,297	-0,068	-0,050
-543,510	62,411	-0,023	-0,017
-542,496	800,000	-0,043	-0,105
-541,481	-200,000	0,003	-0,145
-540,466	-61,351	0,112	-0,034
-539,452	271,512	-0,058	-0,076
-538,437	341,202	0,038	0,055
-537,423	-200,000	-0,042	0,199
-536,408	-65,467	0,137	0,040
-535,393	-200,000	0,006	0,100
-534,379	-31,252	0,042	0,017
-533,364	212,908	-0,046	0,054
-532,350	-152,101	0,133	-0,007
-531,335	142,234	0,123	0,119
-530,321	-39,352	-0,144	0,055
-529,306	-97,217	-0,124	-0,024
-528,291	-7,141	-0,126	-0,062
-527,277	75,313	0,069	-0,053
-526,262	800,000	-0,010	-0,029
-525,248	57,845	-0,045	0,032
-524,233	28,841	0,024	-0,015
-523,218	-200,000	-0,022	-0,097
-522,204	778,992	-0,051	0,103
-521,189	800,000	-0,012	0,032
-520,175	104,500	-0,033	-0,029
-519,160	6,327	-0,124	-0,067
-518,145	-200,000	0,009	-0,102
-517,131	-200,000	-0,011	-0,153
-516,116	44,313	-0,055	-0,037
-515,102	461,295	-0,032	-0,053
-514,087	57,929	-0,111	0,079
-513,072	120,075	0,033	-0,030
-512,058	135,662	-0,089	-0,085
-511,043	800,000	0,005	-0,014
-510,029	-76,768	-0,096	0,024
-509,014	162,479	0,127	-0,131
-507,999	-33,912	-0,092	-0,037
-506,985	35,473	-0,132	0,085
-505,970	380,170	-0,049	-0,073
-504,956	188,215	-0,086	0,094
-503,941	213,344	0,032	-0,037
-502,926	-49,655	0,079	0,027
-501,912	445,250	-0,013	-0,021
-500,897	-37,485	0,038	-0,015
-499,883	265,389	0,051	0,065
-498,868	-200,000	0,011	0,103
-497,853	-200,000	-0,014	0,049
-496,839	-42,733	0,024	-0,009
-495,824	-62,021	0,020	0,006
-494,810	-22,788	0,077	-0,034
-493,795	-200,000	-0,033	0,137
-492,781	-36,304	0,048	0,019
-491,766	53,122	-0,043	-0,030
-490,751	375,510	0,057	0,086
-489,737	194,161	0,109	0,121
-488,722	-56,737	0,016	0,005
-487,708	-200,000	-0,025	-0,090
-486,693	-200,000	0,013	0,072
-485,678	-38,536	-0,104	-0,040
-484,664	302,455	0,010	-0,014
-483,649	-5,074	-0,045	0,022
-482,635	-48,147	-0,035	-0,012
-481,620	-97,139	-0,008	0,001
-480,605	239,587	0,045	-0,055
-479,591	-49,964	0,112	-0,039
-478,576	144,288	0,028	-0,027
-477,562	50,649	-0,053	-0,037
-476,547	32,201	-0,035	-0,022
-475,532	-200,000	0,008	0,209
-474,518	-200,000	0,007	-0,111
-473,503	800,000	-0,023	0,047
-472,489	66,065	-0,106	0,078
-471,474	-0,863	0,065	0,034
-470,459	-93,936	0,101	-0,020
-469,445	29,536	-0,049	0,030
-468,430	32,234	-0,070	-0,044
-467,416	800,000	0,038	0,106
-466,401	-200,000	-0,032	0,142
-465,386	-200,000	0,009	0,070
-464,372	-47,882	0,146	0,051
-463,357	332,956	-0,081	0,115
-462,343	-169,748	-0,153	0,004
-461,328	689,208	0,036	-0,069
-460,313	-15,935	-0,118	-0,055
-459,299	-200,000	-0,025	-0,099
-458,284	207,917	0,091	0,105
-457,270	659,785	-0,018	0,035
-456,255	40,979	-0,073	0,048
-455,241	-200,000	0,051	-0,211
-454,226	54,155	-0,073	0,051
-453,211	-200,000	-0,001	0,038
-452,197	68,927	-0,052	0,039
-451,182	374,468	-0,078	-0,116
-450,168	87,620	0,086	-0,070
-449,153	-160,571	-0,088	0,003
-448,138	106,694	-0,063	-0,054
-447,124	-200,000	-0,004	0,079
-446,109	-41,956	0,066	-0,025
-445,095	-200,000	0,015	-0,096
-444,080	98,594	-0,150	0,127
-443,065	-94,103	0,079	0,016
-442,051	-154,590	-0,021	-0,001
-441,036	-35,888	0,056	-0,022
-440,022	-155,972	0,103	-0,005
-439,007	-200,000	-0,043	0,140
-437,992	273,936	0,082	0,106
-436,978	-151,506	0,049	0,003
-435,963	-200,000	0,005	-0,052
-434,949	398,780	0,087	-0,134
-433,934	-102,465	0,078	-0,013
-432,919	-72,334	-0,069	-0,018
-431,905	56,691	0,048	-0,034
-430,890	452,808	0,023	-0,037
-429,876	-8,588	-0,071	-0,035
-428,861	-200,000	0,005	0,097
-427,846	291,261	-0,028	0,037
-426,832	-66,994	-0,095	-0,027
-425,817	-200,000	-0,057	-0,213
-424,803	44,154	0,107	0,072
-423,788	-175,397	0,059	0,001
-422,773	-164,074	0,045	-0,001
-421,759	-200,000	0,027	0,203
-420,744	170,468	0,144	0,151
-419,730	29,366	-0,075	-0,047
-418,715	-28,302	-0,019	0,008
-417,701	-200,000	0,015	-0,061
-416,686	266,591	0,037	-0,048
-415,671	185,729	0,109	0,118
-414,657	-27,004	0,066	-0,028
-413,642	-123,044	0,076	0,009
-412,628	457,525	0,039	0,063
-411,613	30,819	-0,096	0,060
-410,598	800,000	-0,037	0,078
-409,584	49,199	0,109	0,075
-408,569	-53,603	0,140	0,046
-407,555	-200,000	-0,168	-0,001
-406,540	67,636	0,061	-0,046
-405,525	36,149	0,023	0,015
-404,511	302,875	-0,131	-0,177
-403,496	-4,135	-0,092	-0,046
-402,482	-85,105	0,152	-0,035
-401,467	425,867	0,076	-0,120
-400,452	800,000	-0,034	0,102
-399,438	40,545	0,123	0,081
-398,423	-115,101	-0,155	-0,021
-397,409	459,018	-0,050	-0,081
-396,394	-200,000	0,026	0,091
-395,379	-200,000	0,009	-0,115
-394,365	-107,521	-0,022	-0,004
-393,350	-132,040	0,066	-0,006
-392,336	-156,279	-0,087	0,004
-391,321	174,840	-0,075	0,079
-390,306	-200,000	-0,002	-0,036
-389,292	800,000	-0,063	0,131
-388,277	-108,317	-0,081	0,013
-387,263	-56,690	0,148	0,048
-386,248	377,150	0,053	-0,079
-385,233	800,000	-0,054	0,113
-384,219	530,539	-0,021	-0,037
-383,204	158,560	0,012	0,012
-382,190	-139,782	0,119	0,009
-381,175	-27,881	-0,021	0,009
-380,160	-43,301	0,121	0,044
-379,146	-95,188	0,112	0,022
-378,131	-26,110	-0,117	-0,050
-377,117	69,129	0,055	-0,041
-376,102	-116,442	-0,030	-0,004
-375,088	272,811	-0,134	-0,173
-374,073	-200,000	0,002	0,013
-373,058	-59,679	0,146	0,045
-372,044	-200,000	-0,003	-0,029
-371,029	71,867	0,075	0,057
-370,015	800,000	-0,017	0,037
-369,000	-200,000	-0,006	0,041
-367,985	800,000	0,036	0,099
-366,971	800,000	-0,028	-0,082
-365,956	-200,000	-0,061	0,237
-364,942	48,231	0,126	0,086
-363,927	-19,165	-0,063	-0,028
-362,912	-87,740	-0,073	0,016
-361,898	454,513	0,053	0,087
-360,883	-61,086	-0,056	-0,017
-359,869	496,399	-0,036	-0,061
-358,854	-200,000	-0,005	0,056
-357,839	-200,000	-0,025	0,211
-356,825	-98,653	-0,051	-0,009
-355,810	407,387	-0,050	-0,077
-354,796	-200,000	-0,010	-0,080
-353,781	-26,411	-0,131	0,056
-352,766	-200,000	-0,018	-0,191
-351,752	-30,312	0,068	-0,028
-350,737	-45,827	0,084	-0,030
-349,723	296,145	0,030	0,040
-348,708	-200,000	0,008	-0,054
-347,693	-200,000	0,031	0,105
-346,679	800,000	0,013	0,038
-345,664	-36,237	-0,036	-0,014
-344,650	800,000	-0,017	0,049
-343,635	800,000	0,026	0,062
-342,620	-104,145	0,080	0,013
-341,606	-200,000	0,034	-0,121
-340,591	27,805	-0,071	0,044
-339,577	52,610	0,074	-0,052
-338,562	129,536	-0,076	-0,071
-337,548	-200,000	-0,013	-0,065
-336,533	-200,000	0,037	0,120
-335,518	-200,000	-0,020	0,075
-334,504	326,801	-0,056	0,079
-333,489	-3,243	-0,036	0,018
-332,475	27,028	-0,060	0,036
-331,460	-200,000	-0,005	-0,148
-330,445	280,100	0,084	-0,110
-329,431	-200,000	-0,007	0,025
-328,416	-106,366	0,124	-0,020
-327,402	-200,000	0,009	0,052
-326,387	437,906	-0,061	0,096
-325,372	-200,000	0,041	0,153
-324,358	-200,000	-0,012	-0,061
-323,343	-105,292	-0,078	0,013
-322,329	-200,000	0,018	-0,078
-321,314	100,566	0,062	0,052
-320,299	9,254	0,061	0,033
-319,285	598,083	-0,085	-0,153
-318,270	19,713	-0,161	-0,094
-317,256	104,689	-0,098	-0,084
-316,241	-90,987	-0,045	-0,009
-315,226	485,356	0,033	-0,054
-314,212	-200,000	-0,029	0,100
-313,197	211,154	0,055	-0,063
-312,183	319,534	-0,019	-0,026
-311,168	15,036	0,055	-0,031
-310,153	-200,000	-0,008	-0,133
-309,139	98,812	-0,012	0,010
-308,124	565,399	0,084	0,148
-307,110	166,706	-0,077	0,079
-306,095	274,541	0,072	0,093
-305,080	800,000	-0,030	0,073
-304,066	800,000	-0,010	0,025
-303,051	-61,493	-0,028	0,008
-302,037	-32,086	-0,054	0,022
-301,022	-44,600	0,150	0,054
-300,008	123,135	-0,047	-0,043
-298,993	17,331	0,118	0,068
-297,978	-200,000	0,008	0,135
-296,964	619,308	-0,059	-0,108
-295,949	800,000	0,030	-0,079
-294,935	-200,000	-0,005	0,023
-293,920	-47,302	0,098	0,034
-292,905	38,096	-0,063	0,041
-291,891	800,000	0,019	0,040
-290,876	-200,000	0,012	0,086
-289,862	-200,000	-0,009	-0,073
-288,847	-14,258	0,034	0,016
-287,832	191,724	-0,106	-0,116
-286,818	149,606	-0,023	-0,022
-285,803	-200,000	-0,026	0,108
-284,789	-200,000	-0,017	0,192
-283,774	-200,000	0,012	-0,155
-282,759	201,690	0,090	-0,100
-281,745	45,311	-0,034	0,022
-280,730	26,468	0,144	0,087
-279,716	-95,471	0,132	-0,026
-278,701	226,142	0,051	0,060
-277,686	526,533	-0,026	-0,045
-276,672	69,708	0,074	-0,056
-275,657	800,000	0,031	-0,082
-274,643	296,756	-0,054	0,072
-273,628	511,998	-0,034	0,058
-272,613	62,393	-0,059	-0,043
-271,599	-200,000	0,002	0,070
-270,584	160,951	-0,024	0,024
-269,570	800,000	-0,027	-0,058
-268,555	89,576	-0,168	0,136
-267,540	800,000	0,049	0,118
-266,526	502,608	-0,028	0,046
-265,511	-75,175	-0,087	-0,022
-264,497	-147,126	0,087	0,005
-263,482	-200,000	0,018	-0,131
-262,467	-200,000	0,004	-0,106
-261,453	-101,287	-0,174	0,031
-260,438	769,102	0,053	-0,106
-259,424	-200,000	0,005	0,032
-258,409	63,844	-0,143	-0,104
-257,395	137,563	0,025	0,024
-256,380	518,241	0,039	0,066
-255,365	-200,000	-0,004	-0,030
-254,351	54,116	-0,080	-0,056
-253,336	139,870	0,082	0,079
-252,322	-200,000	0,011	-0,058
-251,307	-200,000	-0,000	-0,009
-250,292	-84,884	0,092	0,021
-249,278	556,619	0,062	0,108
-248,263	-200,000	0,005	0,086
-247,249	-53,836	0,048	-0,016
-246,234	-200,000	-0,019	0,000
-245,219	90,657	-0,101	0,082
-244,205	800,000	-0,042	0,097
-243,190	-166,993	-0,207	0,006
-242,176	174,337	0,160	0,168
-241,161	68,084	0,115	-0,085
-240,146	-121,736	-0,030	0,004
-239,132	497,196	0,138	0,231
-238,117	50,424	-0,056	-0,038
-237,103	800,000	-0,016	0,034
-236,088	62,367	0,070	-0,050
-235,073	132,553	0,059	-0,056
-234,059	-62,142	0,139	0,042
-233,044	-12,626	0,132	-0,062
-232,030	227,694	-0,007	0,008
-231,015	-200,000	0,002	0,020
-230,000	528,512	0,027	-0,047
-228,986	312,527	0,078	-0,106
-227,971	800,000	-0,021	0,065
-226,957	-200,000	0,020	0,070
-225,942	257,858	0,108	-0,135
-224,927	-200,000	-0,001	0,038
-223,913	-138,248	-0,053	-0,004
-222,898	379,347	0,078	0,115
-221,884	-200,000	0,014	-0,125
-220,869	11,426	0,086	0,048
-219,855	-18,895	0,180	0,081
-218,840	-9,259	0,097	0,047
-217,825	19,201	0,095	-0,055
-216,811	-96,035	-0,078	0,015
-215,796	102,647	-0,048	0,041
-214,782	253,476	-0,054	-0,066
-213,767	-60,058	0,058	0,018
-212,752	-200,000	0,019	0,069
-211,738	-46,686	0,064	-0,023
-210,723	-102,511	0,052	0,009
-209,709	-30,168	0,065	-0,027
-208,694	-200,000	-0,037	-0,138
-207,679	725,868	0,044	-0,086
-206,665	800,000	-0,022	-0,046
-205,650	-61,775	-0,085	0,026
-204,636	-200,000	0,035	0,115
-203,621	-109,758	-0,064	-0,010
-202,606	337,743	0,048	-0,067
-201,592	800,000	0,034	0,069
-200,577	800,000	0,012	-0,036
-199,563	800,000	-0,014	-0,038
-198,548	229,719	0,114	0,134
-197,533	-132,810	-0,045	0,004
-196,519	47,504	-0,084	0,057
-195,504	55,009	0,044	-0,031
-194,490	269,671	-0,026	-0,034
-193,475	800,000	-0,010	0,027
-192,460	75,414	0,106	-0,080
-191,446	120,386	0,064	0,058
-190,431	108,921	-0,141	0,122
-189,417	-81,700	0,046	0,011
-188,402	-95,194	-0,023	-0,004
-187,387	313,776	0,024	-0,033
-186,373	51,346	0,090	-0,062
-185,358	-127,896	-0,056	-0,006
-184,344	412,223	0,064	-0,099
-183,329	-200,000	0,048	0,179
-182,315	35,542	0,041	0,026
-181,300	800,000	0,008	-0,018
-180,285	145,440	-0,084	-0,081
-179,271	-31,470	-0,057	0,023
-178,256	800,000	0,013	0,036
-177,242	-149,668	0,105	-0,006
-176,227	623,561	0,069	0,126
-175,212	50,046	0,041	-0,028
-174,198	-200,000	-0,002	0,123
-173,183	-200,000	-0,039	-0,140
-172,169	-200,000	-0,008	0,169
-171,154	630,732	0,082	-0,151
-170,139	-200,000	0,031	0,099
-169,125	-73,032	0,043	0,011
-168,110	188,668	0,050	0,054
-167,096	-200,000	-0,035	0,123
-166,081	-200,000	-0,016	-0,064
-165,066	4,766	0,006	-0,003
-164,052	-98,855	-0,079	0,014
-163,037	-57,905	0,102	-0,032
-162,023	71,265	0,107	0,080
-161,008	-200,000	0,002	-0,170
-159,993	600,974	-0,061	-0,109
-158,979	239,953	-0,058	0,070
-157,964	519,066	0,075	0,128
-156,950	800,000	-0,012	-0,026
-155,935	144,570	0,042	0,041
-154,920	67,628	0,074	0,055
-153,906	-105,313	0,097	0,016
-152,891	-200,000	0,008	-0,043
-151,877	-106,942	0,056	0,009
-150,862	-200,000	-0,003	0,045
-149,847	-88,370	-0,103	0,022
-148,833	15,300	0,054	0,030
-147,818	800,000	-0,049	0,123
-146,804	-25,597	0,069	-0,029
-145,789	-67,595	-0,029	0,008
-144,775	-200,000	-0,012	-0,060
-143,760	489,412	-0,041	-0,067
-142,745	-69,038	-0,025	-0,007
-141,731	800,000	0,035	-0,076
-140,716	15,985	0,013	0,008
-139,702	65,695	-0,065	-0,047
-138,687	84,379	-0,081	0,064
-137,672	203,000	-0,094	0,105
-136,658	273,852	0,069	-0,088
-135,643	363,066	0,056	0,081
-134,629	19,208	-0,048	-0,028
-133,614	-13,075	-0,114	-0,053
-132,599	-99,513	0,090	0,016
-131,585	-200,000	-0,002	0,130
-130,570	-23,548	-0,051	0,022
-129,556	122,743	-0,059	0,053
-128,541	488,747	-0,057	0,095
-127,526	-121,019	0,175	-0,021
-126,512	-89,904	0,035	0,007
-125,497	-7,157	0,030	0,015
-124,483	-200,000	0,011	0,217
-123,468	48,661	-0,091	0,062
-122,453	190,528	-0,048	0,053
-121,439	83,081	0,026	0,020
-120,424	37,161	0,070	-0,044
-119,410	-76,733	-0,020	-0,005
-118,395	-200,000	0,015	0,087
