DTS Sentinel unit serial number:	SN410029Multiplexer serial number:	ORYXHardware model number:	OX2-SRSoftware version number:	ORYX F/W v4,00 Oryx Data Collector v3.7.2.0data status	okinstallation	B6 Nyhavnadifferential loss correction	single-endedforward channel	channel 2reverse channel	N/Adate	2023/12/08time	11:45:08forward acquisition time	300,00reverse acquisition time	0,00gamma	499,1914k internal	0,3160k external	0,3160temperature offset calibration	1,0000default loss term (dB/km)	0,3820temperature slope calibration	1,0000multiplexer offset coefficient	1,0000multiplexer slope coefficient	1,0000fibre end	0,00T internal ref (°C)	14,99T ext. ref 1 (°C)	-1,47T ext. ref 2 (°C)	-1,47length (m)	temperature (°C)	Stokes	anti-Stokes-744,400	-28,711	0,205	-0,086
-743,385	-175,188	-0,275	-0,005
-742,371	316,935	0,148	0,207
-741,356	-143,914	-0,368	-0,025
-740,342	-21,084	0,229	0,103
-739,327	-197,011	-0,273	-0,001
-738,312	-200,000	0,007	-0,037
-737,298	-107,108	-0,277	0,045
-736,283	-82,701	0,100	-0,024
-735,269	-131,537	-0,326	0,031
-734,254	20,757	0,137	-0,082
-733,239	-106,071	-0,623	-0,102
-732,225	-145,049	0,142	-0,009
-731,210	-41,715	0,113	0,042
-730,196	-200,000	0,006	0,061
-729,181	-200,000	0,003	0,048
-728,167	134,124	0,097	0,093
-727,152	-200,000	-0,011	-0,060
-726,137	-94,090	-0,065	-0,013
-725,123	-200,000	0,028	0,149
-724,108	-200,000	0,001	-0,018
-723,094	512,415	-0,093	-0,160
-722,079	-9,333	-0,113	-0,055
-721,064	800,000	0,022	-0,049
-720,050	1,734	0,061	-0,032
-719,035	-200,000	-0,029	-0,132
-718,021	615,959	-0,040	0,074
-717,006	800,000	-0,060	-0,140
-715,991	211,938	-0,089	-0,104
-714,977	-22,273	0,095	0,042
-713,962	395,693	0,033	0,050
-712,948	379,863	-0,072	0,109
-711,933	-90,644	-0,095	-0,020
-710,918	-200,000	0,035	-0,171
-709,904	-0,206	-0,082	0,043
-708,889	352,164	-0,040	0,059
-707,875	-7,915	-0,191	-0,095
-706,860	-54,447	-0,145	-0,048
-705,845	-167,588	-0,054	0,002
-704,831	124,935	0,017	0,016
-703,816	220,712	0,042	0,050
-702,802	83,777	-0,031	0,025
-701,787	-200,000	-0,016	0,099
-700,772	91,057	-0,063	-0,052
-699,758	103,563	0,079	-0,068
-698,743	-48,663	-0,038	-0,013
-697,729	150,005	-0,076	0,076
-696,714	279,423	0,049	-0,065
-695,699	89,789	-0,103	-0,085
-694,685	11,184	-0,047	0,026
-693,670	127,739	0,046	0,043
-692,656	22,033	-0,042	0,025
-691,641	-74,336	0,045	0,012
-690,627	213,957	-0,042	-0,049
-689,612	800,000	0,045	-0,129
-688,597	-10,926	-0,064	0,031
-687,583	496,684	0,021	-0,035
-686,568	242,691	-0,083	-0,102
-685,554	-194,158	-0,181	-0,001
-684,539	43,551	0,031	0,021
-683,524	546,225	-0,105	0,185
-682,510	29,949	0,025	-0,016
-681,495	-200,000	-0,017	0,060
-680,481	800,000	0,013	-0,040
-679,466	98,587	-0,091	0,077
-678,451	114,991	0,034	0,031
-677,437	17,271	0,054	-0,032
-676,422	-200,000	-0,007	0,026
-675,408	13,234	-0,160	-0,091
-674,393	-112,085	-0,033	0,005
-673,378	-200,000	-0,025	-0,153
-672,364	204,544	0,028	-0,032
-671,349	-165,637	-0,131	-0,004
-670,335	-80,942	0,106	0,026
-669,320	-69,010	-0,095	-0,027
-668,305	6,365	0,055	-0,030
-667,291	-63,471	0,056	-0,017
-666,276	40,801	-0,193	-0,127
-665,262	-35,694	0,009	0,004
-664,247	-144,060	-0,206	0,014
-663,232	-18,630	0,096	-0,044
-662,218	-97,078	0,071	-0,013
-661,203	417,230	0,051	0,080
-660,189	-29,817	0,091	-0,038
-659,174	-143,724	-0,121	-0,008
-658,159	-21,470	-0,044	0,020
-657,145	-200,000	-0,005	-0,032
-656,130	800,000	-0,037	-0,105
-655,116	-63,501	-0,071	-0,021
-654,101	-36,792	0,032	0,013
-653,086	-200,000	-0,001	0,060
-652,072	4,244	-0,052	0,028
-651,057	650,885	-0,068	-0,129
-650,043	68,535	-0,099	-0,075
-649,028	7,319	0,079	0,043
-648,014	-200,000	-0,004	0,095
-646,999	345,151	-0,064	-0,092
-645,984	-200,000	0,002	-0,059
-644,970	800,000	0,036	0,080
-643,955	-70,879	-0,147	0,040
-642,941	-36,601	-0,012	0,005
-641,926	-200,000	0,015	0,066
-640,911	-49,829	0,107	0,037
-639,897	541,016	0,030	-0,052
-638,882	-200,000	0,005	-0,046
-637,868	-137,821	-0,263	0,021
-636,853	-51,207	-0,106	-0,036
-635,838	382,156	-0,083	-0,126
-634,824	-109,457	-0,093	0,014
-633,809	-200,000	0,008	-0,141
-632,795	800,000	0,022	-0,062
-631,780	-3,862	0,033	0,017
-630,765	-200,000	-0,003	0,033
-629,751	-200,000	0,000	-0,109
-628,736	800,000	-0,056	-0,128
-627,722	43,922	-0,074	-0,049
-626,707	445,071	0,095	0,154
-625,692	-200,000	0,004	-0,042
-624,678	-200,000	-0,006	-0,059
-623,663	800,000	-0,050	0,155
-622,649	182,682	-0,093	0,101
-621,634	125,613	-0,025	-0,023
-620,619	800,000	0,061	-0,173
-619,605	-103,519	0,075	0,013
-618,590	800,000	0,053	-0,116
-617,576	800,000	0,029	0,095
-616,561	-200,000	0,029	0,228
-615,546	800,000	0,034	-0,084
-614,532	224,682	-0,063	-0,075
-613,517	-29,164	0,011	-0,005
-612,503	-200,000	-0,039	0,159
-611,488	-177,630	0,076	0,001
-610,474	-4,689	-0,134	-0,067
-609,459	800,000	0,021	-0,048
-608,444	35,687	-0,145	-0,093
-607,430	171,939	0,055	-0,058
-606,415	-170,619	0,064	-0,002
-605,401	47,310	-0,047	0,032
-604,386	-200,000	0,040	0,223
-603,371	-61,698	-0,133	0,041
-602,357	-55,245	-0,115	-0,038
-601,342	463,574	-0,051	0,083
-600,328	291,025	-0,061	0,082
-599,313	-200,000	-0,007	-0,028
-598,298	-168,549	-0,084	0,002
-597,284	-200,000	0,004	-0,016
-596,269	-200,000	-0,006	0,113
-595,255	79,934	-0,100	-0,078
-594,240	-120,131	-0,158	-0,020
-593,225	321,899	-0,061	0,085
-592,211	-147,031	-0,046	0,003
-591,196	-57,147	0,034	-0,011
-590,182	-105,113	0,173	-0,029
-589,167	800,000	0,057	0,128
-588,152	-95,585	0,086	0,017
-587,138	-109,486	-0,140	-0,021
-586,123	-50,160	-0,032	0,011
-585,109	139,631	-0,083	-0,080
-584,094	-200,000	0,009	-0,100
-583,079	-200,000	-0,021	-0,098
-582,065	-200,000	-0,008	0,090
-581,050	18,502	0,084	0,049
-580,036	-200,000	-0,003	-0,107
-579,021	-200,000	-0,010	0,067
-578,006	-200,000	-0,020	-0,129
-576,992	2,580	-0,076	-0,040
-575,977	800,000	0,047	-0,127
-574,963	800,000	-0,045	-0,129
-573,948	-200,000	-0,003	-0,070
-572,934	-140,440	0,038	0,003
-571,919	179,479	0,056	-0,060
-570,904	-200,000	-0,025	-0,094
-569,890	-200,000	-0,018	0,100
-568,875	-11,608	0,012	0,006
-567,861	-200,000	-0,008	-0,150
-566,846	-200,000	-0,004	0,093
-565,831	800,000	0,031	0,070
-564,817	-55,011	0,057	-0,019
-563,802	-200,000	-0,006	-0,091
-562,788	-200,000	0,014	-0,141
-561,773	605,703	0,025	-0,047
-560,758	104,636	-0,082	0,071
-559,744	800,000	-0,037	-0,078
-558,729	-200,000	0,013	-0,064
-557,715	-72,051	-0,102	-0,027
-556,700	24,242	-0,167	-0,101
-555,685	-200,000	-0,023	0,091
-554,671	800,000	0,048	-0,122
-553,656	800,000	0,029	0,090
-552,642	800,000	-0,014	0,044
-551,627	-200,000	-0,032	-0,140
-550,612	-44,355	0,037	-0,014
-549,598	-10,735	0,035	0,017
-548,583	-66,033	-0,023	0,007
-547,569	353,975	0,008	0,012
-546,554	86,692	-0,020	0,016
-545,539	-200,000	0,003	0,149
-544,525	430,655	-0,036	0,056
-543,510	309,605	-0,005	-0,006
-542,496	31,590	0,060	0,038
-541,481	-200,000	0,002	0,009
-540,466	164,757	0,096	-0,099
-539,452	-200,000	-0,014	0,081
-538,437	58,926	0,017	0,012
-537,423	376,328	-0,060	0,090
-536,408	-200,000	0,003	0,051
-535,393	800,000	0,039	-0,094
-534,379	-86,018	-0,065	-0,015
-533,364	95,861	0,020	-0,017
-532,350	17,003	0,038	0,022
-531,335	-200,000	0,019	-0,104
-530,321	800,000	0,010	-0,028
-529,306	656,120	-0,113	-0,213
-528,291	800,000	-0,016	0,037
-527,277	672,491	0,048	0,092
-526,262	48,934	0,007	0,005
-525,248	97,453	-0,073	-0,062
-524,233	-39,376	0,033	0,013
-523,218	-167,044	0,118	-0,003
-522,204	-112,156	0,305	-0,044
-521,189	-200,000	-0,026	0,156
-520,175	800,000	0,045	-0,098
-519,160	800,000	-0,068	-0,208
-518,145	-189,516	0,101	-0,001
-517,131	-40,172	0,100	0,038
-516,116	-200,000	0,004	-0,094
-515,102	131,738	-0,024	0,022
-514,087	420,516	0,052	0,082
-513,072	73,691	0,062	-0,047
-512,058	800,000	-0,027	0,059
-511,043	-15,087	0,093	-0,043
-510,029	195,291	0,071	0,078
-509,014	-170,252	0,063	-0,002
-507,999	800,000	0,052	0,109
-506,985	-32,460	0,073	-0,030
-505,970	-111,483	0,109	0,016
-504,956	15,328	-0,127	-0,072
-503,941	62,742	-0,111	0,081
-502,926	-87,530	0,143	0,031
-501,912	205,989	0,052	0,059
-500,897	-200,000	0,001	0,087
-499,883	13,624	0,082	-0,046
-498,868	800,000	-0,039	0,080
-497,853	-178,773	-0,064	-0,001
-496,839	-34,541	-0,031	-0,012
-495,824	-159,384	0,193	-0,008
-494,810	-200,000	-0,011	0,038
-493,795	-200,000	-0,016	0,124
-492,781	278,832	-0,075	-0,097
-491,766	15,626	0,155	-0,089
-490,751	-200,000	0,029	-0,095
-489,737	-200,000	0,014	0,066
-488,722	-200,000	-0,015	0,092
-487,708	-61,129	0,048	-0,015
-486,693	102,390	0,028	-0,024
-485,678	-37,601	0,021	0,008
-484,664	800,000	-0,090	0,198
-483,649	-100,167	0,113	-0,020
-482,635	46,279	-0,054	-0,036
-481,620	119,816	-0,036	0,032
-480,605	800,000	-0,049	0,136
-479,591	-46,110	0,088	-0,031
-478,576	197,350	-0,049	-0,055
-477,562	690,529	0,043	0,083
-476,547	-122,109	-0,130	-0,015
-475,532	-151,036	0,105	-0,006
-474,518	15,516	0,079	-0,045
-473,503	338,067	0,065	0,092
-472,489	-25,830	-0,021	0,009
-471,474	-142,998	-0,170	0,012
-470,459	-54,944	0,058	0,019
-469,445	747,959	-0,050	-0,098
-468,430	-91,210	0,039	0,008
-467,416	800,000	0,048	0,123
-466,401	-200,000	0,021	0,131
-465,386	65,425	0,017	-0,012
-464,372	50,942	0,004	-0,003
-463,357	-125,248	0,132	0,015
-462,343	151,188	-0,080	-0,080
-461,328	16,204	-0,079	0,045
-460,313	-6,067	0,055	-0,028
-459,299	-200,000	0,010	-0,050
-458,284	-29,120	-0,112	0,047
-457,270	-200,000	-0,009	-0,042
-456,255	800,000	-0,020	-0,043
-455,241	50,497	-0,051	0,035
-454,226	60,309	0,063	-0,046
-453,211	-200,000	0,017	-0,080
-452,197	-65,209	0,002	-0,001
-451,182	-28,058	0,099	0,041
-450,168	-200,000	0,005	0,059
-449,153	39,730	0,022	-0,015
-448,138	-136,426	-0,103	-0,009
-447,124	256,499	0,070	-0,088
-446,109	800,000	-0,047	-0,112
-445,095	348,685	0,018	-0,026
-444,080	-129,969	0,160	-0,016
-443,065	706,738	0,075	0,146
-442,051	34,521	0,062	0,039
-441,036	403,527	-0,053	-0,082
-440,022	702,672	-0,078	-0,150
-439,007	-110,372	-0,230	-0,034
-437,992	290,753	0,055	0,072
-436,978	-200,000	0,003	0,111
-435,963	135,512	-0,091	0,086
-434,949	800,000	0,066	0,170
-433,934	281,780	0,122	-0,160
-432,919	-50,669	0,143	0,049
-431,905	-59,280	0,015	-0,005
-430,890	-200,000	0,011	0,114
-429,876	-200,000	0,015	0,095
-428,861	-200,000	-0,030	0,133
-427,846	65,589	-0,050	0,037
-426,832	-13,666	0,059	0,028
-425,817	-200,000	0,020	-0,100
-424,803	124,470	0,058	0,053
-423,788	457,079	-0,075	0,122
-422,773	-200,000	-0,003	-0,043
-421,759	27,429	0,122	0,074
-420,744	-33,548	-0,070	0,028
-419,730	-200,000	0,000	-0,018
-418,715	800,000	-0,044	-0,128
-417,701	591,444	0,065	0,118
-416,686	63,774	-0,074	-0,054
-415,671	800,000	0,044	0,132
-414,657	-200,000	0,000	0,089
-413,642	-53,607	0,110	0,036
-412,628	-77,522	-0,087	-0,022
-411,613	800,000	-0,016	-0,043
-410,598	45,588	0,055	-0,037
-409,584	316,797	0,049	-0,067
-408,569	-73,653	-0,031	-0,008
-407,555	32,308	0,030	0,018
-406,540	-200,000	0,201	-0,001
-405,525	-7,258	0,024	0,012
-404,511	-164,336	-0,075	-0,002
-403,496	62,279	-0,017	0,012
-402,482	146,887	0,119	-0,117
-401,467	-97,368	0,065	0,012
-400,452	-113,093	-0,219	0,031
-399,438	-140,068	0,128	0,010
-398,423	-105,776	-0,085	0,014
-397,409	-43,192	-0,052	0,019
-396,394	166,647	-0,078	-0,081
-395,379	-200,000	-0,037	0,166
-394,365	275,986	0,108	0,139
-393,350	173,674	0,121	0,127
-392,336	99,161	-0,089	0,075
-391,321	444,472	0,012	0,019
-390,306	69,621	-0,048	-0,036
-389,292	-200,000	0,004	-0,116
-388,277	783,241	-0,075	-0,150
-387,263	153,156	0,043	0,043
-386,248	-88,278	0,159	-0,034
-385,233	-93,294	0,093	-0,019
-384,219	437,022	-0,025	0,040
-383,204	800,000	-0,041	-0,127
-382,190	-200,000	0,010	-0,078
-381,175	44,157	-0,057	0,038
-380,160	-200,000	0,005	0,098
-379,146	-200,000	0,018	0,068
-378,131	-90,915	-0,158	-0,033
-377,117	49,728	-0,099	0,067
-376,102	474,492	-0,034	0,055
-375,088	-200,000	-0,007	-0,036
-374,073	-33,783	-0,162	0,064
-373,058	330,849	-0,066	0,092
-372,044	-200,000	0,006	0,029
-371,029	37,230	0,155	0,100
-370,015	-200,000	0,004	-0,132
-369,000	49,005	-0,077	-0,053
-367,985	200,840	0,089	0,099
-366,971	-200,000	-0,009	0,055
-365,956	13,556	0,197	0,110
-364,942	402,182	-0,014	-0,021
-363,927	-10,304	-0,023	-0,011
-362,912	232,888	-0,123	0,147
-361,898	800,000	0,012	0,030
-360,883	800,000	-0,054	-0,119
-359,869	-200,000	0,018	-0,105
-358,854	555,152	-0,069	-0,122
-357,839	-95,612	0,103	0,020
-356,825	11,778	0,147	0,081
-355,810	-83,959	-0,131	-0,030
-354,796	-1,911	-0,119	-0,061
-353,781	670,941	-0,042	-0,078
-352,766	347,911	-0,021	-0,030
-351,752	-200,000	-0,026	0,100
-350,737	348,868	0,030	-0,043
-349,723	562,052	0,044	0,078
-348,708	183,238	0,059	0,063
-347,693	167,815	-0,061	0,063
-346,679	18,043	-0,107	-0,062
-345,664	784,054	0,096	-0,191
-344,650	-129,561	0,050	-0,005
-343,635	-194,337	0,082	0,000
-342,620	-95,721	0,103	-0,020
-341,606	800,000	-0,084	0,198
-340,591	-200,000	0,036	-0,129
-339,577	-200,000	-0,005	-0,110
-338,562	-200,000	0,049	-0,159
-337,548	-200,000	0,014	-0,063
-336,533	-190,517	0,046	0,000
-335,518	89,583	-0,051	-0,041
-334,504	559,881	0,074	0,130
-333,489	-25,587	-0,081	0,034
-332,475	-200,000	0,028	-0,090
-331,460	563,338	-0,082	-0,145
-330,445	147,584	0,069	-0,067
-329,431	800,000	-0,022	0,066
-328,416	441,562	0,010	0,016
-327,402	800,000	-0,055	0,142
-326,387	202,314	0,017	-0,019
-325,372	800,000	0,038	-0,094
-324,358	-52,481	0,164	0,055
-323,343	-27,919	0,029	-0,012
-322,329	101,406	-0,011	0,009
-321,314	-95,889	0,039	-0,008
-320,299	-200,000	0,027	0,189
-319,285	-44,579	0,055	0,020
-318,270	-139,572	0,062	-0,005
-317,256	-200,000	0,043	-0,177
-316,241	158,543	0,074	-0,074
-315,226	273,226	0,150	0,193
-314,212	19,946	-0,112	0,065
-313,197	490,563	0,052	-0,086
-312,183	110,818	-0,107	-0,093
-311,168	64,830	0,033	-0,024
-310,153	35,865	-0,014	-0,009
-309,139	-200,000	0,005	-0,062
-308,124	-200,000	0,012	0,101
-307,110	-3,203	-0,025	-0,013
-306,095	132,003	0,063	0,059
-305,080	219,421	0,061	0,071
-304,066	65,131	-0,118	0,086
-303,051	-200,000	-0,037	-0,147
-302,037	-200,000	-0,029	-0,146
-301,022	-15,428	0,051	-0,023
-300,008	800,000	-0,032	0,093
-298,993	-200,000	-0,014	-0,055
-297,978	275,484	-0,069	0,088
-296,964	45,229	-0,119	0,080
-295,949	-200,000	0,001	-0,214
-294,935	40,538	0,066	-0,043
-293,920	-200,000	0,032	-0,177
-292,905	44,545	-0,024	-0,016
-291,891	-148,913	-0,035	-0,002
-290,876	-79,311	0,074	-0,018
-289,862	-200,000	0,001	0,056
-288,847	-27,838	-0,056	-0,023
-287,832	398,259	0,105	-0,160
-286,818	800,000	-0,063	-0,128
-285,803	-108,207	-0,107	-0,017
-284,789	150,855	0,081	0,080
-283,774	-200,000	0,013	0,048
-282,759	67,448	-0,130	-0,096
-281,745	-4,701	0,149	-0,074
-280,730	475,976	0,040	-0,066
-279,716	-200,000	-0,008	-0,127
-278,701	-49,129	0,114	0,039
-277,686	-6,639	0,104	-0,051
-276,672	-200,000	0,019	-0,085
-275,657	22,198	0,066	0,039
-274,643	800,000	0,017	0,050
-273,628	189,097	-0,048	0,052
-272,613	-111,205	0,030	0,004
-271,599	-200,000	0,018	-0,080
-270,584	-119,528	-0,054	0,007
-269,570	-124,270	-0,091	0,010
-268,555	-81,434	-0,069	-0,016
-267,540	64,573	0,094	-0,068
-266,526	-200,000	-0,034	0,147
-265,511	-91,676	-0,018	-0,004
-264,497	-200,000	-0,016	-0,060
-263,482	86,486	0,054	0,043
-262,467	-195,822	-0,015	0,000
-261,453	-176,896	-0,026	0,000
-260,438	153,835	-0,092	-0,091
-259,424	156,116	0,074	-0,074
-258,409	-200,000	0,007	-0,084
-257,395	-200,000	-0,010	-0,075
-256,380	426,803	-0,071	0,111
-255,365	299,633	-0,042	-0,056
-254,351	800,000	-0,014	-0,029
-253,336	-186,296	0,019	-0,000
-252,322	-83,095	-0,081	0,019
-251,307	8,554	-0,112	-0,061
-250,292	107,880	0,091	0,079
-249,278	-200,000	0,034	-0,116
-248,263	738,021	0,041	0,079
-247,249	800,000	-0,026	0,060
-246,234	-200,000	0,006	-0,084
-245,219	-200,000	-0,035	-0,214
-244,205	406,437	-0,057	-0,087
-243,190	703,394	-0,030	-0,058
-242,176	214,868	-0,010	-0,012
-241,161	62,756	0,058	0,042
-240,146	-19,758	0,286	0,127
-239,132	515,203	-0,035	0,059
-238,117	28,818	-0,081	0,050
-237,103	90,259	0,084	0,068
-236,088	146,687	0,029	0,028
-235,073	325,202	0,108	-0,150
-234,059	-8,899	0,023	-0,011
-233,044	140,122	-0,108	0,103
-232,030	603,499	0,052	-0,093
-231,015	800,000	0,022	-0,058
-230,000	-200,000	-0,050	-0,236
-228,986	446,920	-0,055	0,088
-227,971	404,001	0,086	0,132
-226,957	785,569	0,066	0,131
-225,942	-62,266	-0,090	0,027
-224,927	410,671	-0,080	0,123
-223,913	-103,732	0,041	0,007
-222,898	-44,560	0,052	-0,019
-221,884	-24,062	-0,114	0,049
-220,869	-200,000	0,058	0,294
-219,855	-104,039	-0,112	0,019
-218,840	-200,000	0,103	0,000
-217,825	-103,101	0,079	-0,013
-216,811	281,297	-0,117	0,152
-215,796	120,179	0,102	-0,091
-214,782	800,000	-0,051	0,147
-213,767	800,000	0,080	0,189
-212,752	59,179	-0,077	0,055
-211,738	68,713	0,106	-0,078
-210,723	-130,877	0,102	-0,010
-209,709	-84,125	-0,098	0,022
-208,694	108,780	-0,131	-0,113
-207,679	800,000	-0,039	-0,088
-206,665	-86,216	0,137	-0,030
-205,650	-200,000	-0,017	0,103
-204,636	-85,433	0,037	-0,008
-203,621	800,000	0,059	0,135
-202,606	-44,823	-0,105	0,037
-201,592	390,335	-0,053	-0,080
-200,577	618,198	-0,045	-0,082
-199,563	445,884	0,023	-0,036
-198,548	-200,000	-0,009	-0,083
-197,533	-200,000	-0,015	0,056
-196,519	-129,650	-0,066	-0,006
-195,504	-200,000	-0,042	0,000
-194,490	4,087	-0,066	-0,035
-193,475	800,000	0,010	-0,027
-192,460	-67,761	0,034	0,009
-191,446	337,369	-0,090	0,127
-190,431	247,556	0,099	0,121
-189,417	-139,309	-0,074	-0,006
-188,402	752,258	-0,023	-0,046
-187,387	-75,263	-0,169	-0,043
-186,373	-54,908	-0,096	-0,031
-185,358	318,686	-0,022	0,031
-184,344	800,000	0,094	0,191
-183,329	652,089	0,051	0,094
-182,315	800,000	-0,037	0,093
-181,300	800,000	-0,014	0,040
-180,285	-70,731	-0,028	0,008
-179,271	800,000	-0,022	-0,053
-178,256	-112,087	0,193	-0,028
-177,242	-200,000	-0,002	-0,050
-176,227	-68,489	0,048	-0,013
-175,212	596,579	0,041	0,073
-174,198	-180,147	-0,205	0,003
-173,183	92,042	-0,052	0,042
-172,169	139,319	-0,092	-0,087
-171,154	-27,108	0,130	0,054
-170,139	-200,000	-0,001	0,010
-169,125	221,837	-0,036	-0,042
-168,110	-200,000	-0,017	0,082
-167,096	-74,409	-0,172	-0,044
-166,081	-200,000	0,003	-0,109
-165,066	-61,912	-0,042	-0,013
-164,052	-200,000	-0,011	-0,120
-163,037	-151,418	0,132	0,007
-162,023	71,982	-0,073	0,055
-161,008	-48,696	0,030	0,010
-159,993	800,000	-0,076	0,153
-158,979	-13,519	-0,067	0,031
-157,964	30,018	-0,048	0,030
-156,950	-141,449	-0,060	-0,004
-155,935	800,000	0,016	-0,050
-154,920	12,691	-0,063	-0,035
-153,906	800,000	0,039	0,087
-152,891	272,843	-0,057	-0,072
-151,877	800,000	0,031	-0,086
-150,862	12,046	0,090	-0,050
-149,847	-200,000	0,003	-0,010
-148,833	-200,000	-0,010	0,032
-147,818	-83,333	0,079	-0,018
-146,804	-200,000	-0,038	0,149
-145,789	-200,000	0,003	0,051
-144,775	-200,000	-0,008	-0,068
-143,760	14,506	0,054	0,030
-142,745	800,000	0,017	-0,048
-141,731	21,928	0,180	-0,105
-140,716	55,978	-0,062	0,043
-139,702	306,997	-0,074	0,099
-138,687	800,000	-0,035	0,071
-137,672	789,317	-0,090	0,180
-136,658	-35,521	-0,054	-0,021
-135,643	4,761	0,088	-0,047
-134,629	800,000	0,036	0,083
-133,614	-80,334	-0,039	-0,009
-132,599	668,652	0,058	-0,109
-131,585	182,891	0,040	-0,043
-130,570	-182,320	0,155	-0,002
-129,556	-200,000	0,024	0,093
-128,541	143,943	-0,082	0,078
-127,526	90,481	-0,007	-0,005
-126,512	748,200	0,012	0,024
-125,497	5,413	-0,029	0,016
-124,483	-118,603	-0,103	0,013
-123,468	101,857	-0,024	0,020
-122,453	201,222	-0,078	-0,086
-121,439	-200,000	0,005	0,096
-120,424	-26,740	0,109	-0,046
-119,410	49,125	0,063	-0,042
