DTS Sentinel unit serial number:	SN410029Multiplexer serial number:	ORYXHardware model number:	OX2-SRSoftware version number:	ORYX F/W v4,00 Oryx Data Collector v3.7.2.0data status	okinstallation	B6 Nyhavnadifferential loss correction	single-endedforward channel	channel 2reverse channel	N/Adate	2023/12/08time	12:05:08forward acquisition time	300,00reverse acquisition time	0,00gamma	499,1914k internal	0,3159k external	0,3159temperature offset calibration	1,0000default loss term (dB/km)	0,3820temperature slope calibration	1,0000multiplexer offset coefficient	1,0000multiplexer slope coefficient	1,0000fibre end	0,00T internal ref (°C)	15,03T ext. ref 1 (°C)	-1,50T ext. ref 2 (°C)	-1,48length (m)	temperature (°C)	Stokes	anti-Stokes-744,400	217,193	0,024	-0,028
-743,385	-131,839	-0,260	0,025
-742,371	177,022	0,066	0,071
-741,356	-38,970	-0,297	-0,115
-740,342	341,940	0,076	0,110
-739,327	-62,107	-0,279	0,085
-738,312	167,807	0,054	-0,056
-737,298	-25,910	-0,240	-0,104
-736,283	-129,214	0,094	-0,010
-735,269	-181,659	-0,172	0,002
-734,254	183,858	0,081	0,088
-733,239	-141,753	-0,417	-0,030
-732,225	496,722	0,078	-0,133
-731,210	422,082	0,098	0,156
-730,196	-39,169	0,066	-0,025
-729,181	43,509	-0,062	0,042
-728,167	48,819	-0,021	0,014
-727,152	-56,892	0,107	0,035
-726,137	-125,852	-0,183	0,020
-725,123	123,358	-0,087	-0,081
-724,108	-48,464	0,018	-0,006
-723,094	-146,724	-0,098	0,006
-722,079	-98,787	-0,019	0,004
-721,064	204,292	-0,022	0,025
-720,050	-200,000	-0,012	0,080
-719,035	56,691	0,050	-0,036
-718,021	800,000	-0,049	0,115
-717,006	-200,000	0,015	-0,066
-715,991	800,000	0,027	-0,065
-714,977	376,222	-0,135	-0,204
-713,962	-131,404	0,052	0,005
-712,948	-59,283	-0,222	0,070
-711,933	-193,075	0,117	0,001
-710,918	-185,473	-0,129	0,001
-709,904	-4,464	-0,160	0,081
-708,889	204,466	0,061	-0,070
-707,875	288,602	0,075	-0,100
-706,860	800,000	-0,032	0,073
-705,845	754,974	-0,083	0,165
-704,831	800,000	0,060	0,158
-703,816	31,975	0,118	-0,075
-702,802	-200,000	-0,025	-0,139
-701,787	-21,642	-0,101	-0,045
-700,772	-200,000	-0,003	0,089
-699,758	-145,736	-0,107	0,007
-698,743	325,227	0,024	-0,034
-697,729	30,526	-0,002	0,001
-696,714	800,000	0,013	0,039
-695,699	-200,000	-0,008	-0,052
-694,685	-103,835	-0,228	0,039
-693,670	-200,000	-0,013	-0,115
-692,656	-200,000	0,001	0,120
-691,641	-119,971	0,117	0,015
-690,627	-71,341	0,065	-0,018
-689,612	-117,947	0,145	-0,019
-688,597	65,884	-0,036	-0,027
-687,583	800,000	-0,036	-0,090
-686,568	-149,104	0,091	0,005
-685,554	-46,474	-0,037	0,013
-684,539	-200,000	0,024	0,136
-683,524	269,464	-0,078	0,101
-682,510	-200,000	0,006	0,028
-681,495	-30,445	-0,215	-0,089
-680,481	-105,292	-0,058	-0,010
-679,466	231,587	-0,026	-0,031
-678,451	20,655	-0,130	-0,077
-677,437	-82,415	0,087	0,021
-676,422	84,764	-0,095	0,077
-675,408	-121,276	-0,150	-0,018
-674,393	68,290	0,077	0,058
-673,378	-56,088	0,061	-0,020
-672,364	765,839	-0,049	-0,098
-671,349	-105,095	0,034	0,006
-670,335	-31,763	0,091	-0,037
-669,320	800,000	-0,049	0,100
-668,305	-27,930	0,084	0,036
-667,291	65,377	-0,040	-0,030
-666,276	132,961	-0,047	-0,044
-665,262	-185,947	-0,162	0,002
-664,247	35,126	0,065	-0,042
-663,232	431,972	-0,043	0,068
-662,218	-200,000	0,019	0,108
-661,203	679,413	0,005	-0,009
-660,189	650,065	-0,052	0,098
-659,174	698,910	-0,031	-0,061
-658,159	-52,176	-0,172	-0,058
-657,145	-200,000	-0,006	0,038
-656,130	-56,360	0,081	-0,026
-655,116	-48,207	0,097	-0,034
-654,101	305,758	0,076	0,103
-653,086	800,000	0,021	-0,057
-652,072	-200,000	-0,004	0,029
-651,057	-45,839	0,113	-0,041
-650,043	54,786	-0,144	-0,102
-649,028	755,323	0,036	-0,072
-648,014	-200,000	-0,010	-0,145
-646,999	261,493	-0,065	0,083
-645,984	-200,000	-0,059	-0,198
-644,970	-200,000	0,010	-0,214
-643,955	335,857	-0,126	-0,180
-642,941	77,664	0,094	-0,073
-641,926	-104,100	0,031	-0,005
-640,911	-200,000	0,006	0,038
-639,897	-200,000	-0,006	-0,033
-638,882	800,000	-0,044	0,102
-637,868	-200,000	-0,015	0,057
-636,853	-100,918	0,205	-0,037
-635,838	91,531	-0,032	-0,026
-634,824	-200,000	0,022	-0,136
-633,809	-54,256	0,059	-0,020
-632,795	800,000	0,041	-0,102
-631,780	-200,000	-0,004	-0,094
-630,765	-10,170	-0,041	-0,020
-629,751	524,571	-0,054	-0,093
-628,736	-19,337	0,110	-0,050
-627,722	38,573	-0,081	0,053
-626,707	-23,899	0,119	-0,052
-625,692	-200,000	0,003	0,059
-624,678	-6,381	0,002	0,001
-623,663	-28,210	-0,051	0,022
-622,649	-200,000	-0,005	-0,033
-621,634	-84,839	0,084	0,019
-620,619	540,940	-0,070	-0,123
-619,605	-9,869	-0,161	-0,078
-618,590	-112,063	-0,073	0,011
-617,576	-132,111	-0,025	-0,002
-616,561	52,722	-0,056	-0,040
-615,546	800,000	0,032	0,071
-614,532	-200,000	-0,015	0,100
-613,517	-28,036	-0,033	-0,014
-612,503	126,861	0,088	-0,082
-611,488	143,437	0,093	0,091
-610,474	800,000	-0,077	0,185
-609,459	61,378	-0,045	-0,033
-608,444	-126,447	0,109	-0,012
-607,430	330,725	-0,125	-0,178
-606,415	-113,050	-0,092	0,013
-605,401	800,000	-0,025	-0,059
-604,386	78,231	0,106	0,083
-603,371	10,158	-0,091	-0,051
-602,357	-7,608	-0,052	-0,026
-601,342	408,242	0,052	-0,081
-600,328	122,250	0,020	0,019
-599,313	-63,922	-0,074	-0,022
-598,298	274,845	0,057	0,074
-597,284	-200,000	0,005	-0,037
-596,269	800,000	0,020	-0,063
-595,255	-114,948	-0,022	0,003
-594,240	-112,609	-0,031	0,005
-593,225	800,000	0,056	-0,146
-592,211	31,214	-0,073	-0,046
-591,196	686,400	-0,053	-0,102
-590,182	-200,000	0,009	0,073
-589,167	3,037	0,069	0,037
-588,152	137,780	-0,044	0,042
-587,138	800,000	0,044	-0,125
-586,123	253,513	-0,084	-0,105
-585,109	-158,841	-0,037	0,002
-584,094	235,735	-0,010	-0,012
-583,079	149,873	0,134	0,134
-582,065	-16,265	0,106	0,049
-581,050	625,984	0,011	0,021
-580,036	-165,168	-0,062	-0,002
-579,021	169,646	-0,019	0,020
-578,006	136,138	-0,100	-0,096
-576,992	-70,133	-0,134	0,037
-575,977	67,554	-0,113	-0,084
-574,963	-200,000	0,010	-0,083
-573,948	-123,320	0,022	0,003
-572,934	83,308	-0,166	-0,132
-571,919	65,700	0,023	0,017
-570,904	321,366	0,033	0,046
-569,890	137,498	0,028	0,027
-568,875	-90,637	-0,113	0,024
-567,861	143,683	-0,049	-0,048
-566,846	-67,451	-0,075	-0,021
-565,831	424,813	-0,027	-0,043
-564,817	-15,892	0,107	-0,050
-563,802	246,685	-0,093	-0,115
-562,788	-31,076	-0,090	-0,037
-561,773	45,119	0,094	0,063
-560,758	210,689	-0,039	0,045
-559,744	-200,000	0,005	-0,142
-558,729	-87,076	-0,051	-0,011
-557,715	-84,032	-0,108	0,025
-556,700	-200,000	0,006	-0,026
-555,685	800,000	-0,028	-0,059
-554,671	-27,457	0,123	0,052
-553,656	-37,936	-0,075	0,029
-552,642	-200,000	-0,035	0,116
-551,627	800,000	-0,027	0,063
-550,612	415,398	-0,050	0,079
-549,598	-74,777	0,064	-0,017
-548,583	-200,000	0,031	-0,122
-547,569	116,242	0,047	-0,043
-546,554	-64,178	0,118	0,035
-545,539	311,351	0,028	0,039
-544,525	310,075	0,046	0,063
-543,510	800,000	0,022	0,051
-542,496	800,000	0,030	-0,075
-541,481	509,918	0,126	-0,216
-540,466	211,621	-0,074	-0,085
-539,452	-108,879	0,110	0,017
-538,437	-30,649	-0,123	-0,051
-537,423	-29,858	-0,050	-0,021
-536,408	-200,000	-0,041	-0,161
-535,393	66,324	-0,095	-0,070
-534,379	-200,000	0,027	-0,087
-533,364	32,198	-0,032	-0,020
-532,350	800,000	0,021	0,062
-531,335	-23,395	0,084	0,037
-530,321	-200,000	0,028	0,108
-529,306	-83,643	-0,060	0,014
-528,291	33,990	-0,036	-0,023
-527,277	-200,000	-0,002	-0,059
-526,262	190,371	0,059	0,065
-525,248	57,767	0,060	0,043
-524,233	800,000	-0,082	0,192
-523,218	800,000	0,013	-0,030
-522,204	165,769	0,081	-0,083
-521,189	-6,625	-0,105	0,052
-520,175	35,125	-0,029	0,018
-519,160	-169,702	-0,084	-0,002
-518,145	142,072	0,008	-0,008
-517,131	800,000	-0,021	0,051
-516,116	-53,859	0,103	-0,034
-515,102	159,639	0,037	0,038
-514,087	-200,000	-0,006	-0,109
-513,072	-147,380	-0,130	-0,008
-512,058	-114,511	0,056	0,008
-511,043	-72,073	0,125	-0,034
-510,029	132,270	-0,110	0,103
-509,014	379,018	-0,047	-0,071
-507,999	-200,000	-0,005	0,042
-506,985	-200,000	-0,052	-0,186
-505,970	-70,525	-0,185	-0,051
-504,956	-134,392	0,038	0,003
-503,941	800,000	-0,020	-0,055
-502,926	-200,000	-0,017	0,071
-501,912	800,000	0,011	-0,034
-500,897	33,568	0,038	-0,024
-499,883	-200,000	-0,021	-0,103
-498,868	150,804	-0,080	0,079
-497,853	557,200	-0,017	-0,030
-496,839	122,950	-0,078	0,071
-495,824	-27,659	0,047	0,020
-494,810	432,380	0,070	0,111
-493,795	101,211	0,085	0,072
-492,781	-42,655	-0,168	-0,062
-491,766	-99,623	-0,081	-0,015
-490,751	-8,261	0,044	-0,022
-489,737	47,499	-0,118	-0,080
-488,722	-3,637	-0,016	0,008
-487,708	56,252	-0,045	-0,032
-486,693	728,455	-0,029	0,056
-485,678	68,133	0,048	0,036
-484,664	66,551	-0,138	0,102
-483,649	-200,000	0,042	0,143
-482,635	-200,000	0,011	-0,045
-481,620	-200,000	-0,047	0,179
-480,605	-70,943	0,067	0,018
-479,591	-200,000	-0,017	-0,064
-478,576	86,556	0,084	-0,068
-477,562	101,995	-0,104	0,088
-476,547	45,119	-0,117	-0,079
-475,532	-200,000	0,020	0,104
-474,518	800,000	0,045	0,109
-473,503	539,919	-0,045	-0,079
-472,489	-0,981	0,105	0,054
-471,474	800,000	-0,051	-0,114
-470,459	-49,987	0,020	0,007
-469,445	800,000	0,014	0,039
-468,430	800,000	-0,042	0,107
-467,416	389,626	0,082	0,124
-466,401	553,109	-0,024	-0,043
-465,386	700,497	0,050	-0,096
-464,372	-47,075	0,125	0,044
-463,357	-200,000	0,007	0,076
-462,343	75,136	-0,075	-0,057
-461,328	-124,265	0,088	0,010
-460,313	347,921	0,083	-0,119
-459,299	-139,605	0,039	-0,003
-458,284	91,595	-0,082	0,067
-457,270	76,808	0,113	0,087
-456,255	800,000	-0,031	-0,073
-455,241	-200,000	0,019	-0,119
-454,226	154,614	-0,119	0,119
-453,211	61,567	-0,019	-0,014
-452,197	-60,139	0,127	-0,039
-451,182	229,702	0,025	0,030
-450,168	800,000	-0,030	0,092
-449,153	-19,692	-0,070	0,032
-448,138	-37,268	-0,053	0,021
-447,124	89,560	-0,156	-0,127
-446,109	-115,859	0,072	0,010
-445,095	-200,000	0,001	-0,045
-444,080	-52,774	0,057	0,019
-443,065	-18,215	0,082	-0,037
-442,051	-10,668	0,105	-0,050
-441,036	24,063	0,043	0,026
-440,022	-63,906	0,080	-0,024
-439,007	-200,000	-0,018	-0,152
-437,992	-91,708	0,051	0,011
-436,978	-200,000	0,010	0,126
-435,963	800,000	-0,043	0,096
-434,949	-87,875	0,185	0,040
-433,934	-200,000	0,044	-0,153
-432,919	111,269	-0,120	0,105
-431,905	50,466	-0,087	0,060
-430,890	784,019	0,038	-0,076
-429,876	150,248	-0,048	-0,048
-428,861	-21,203	-0,071	0,031
-427,846	-166,259	-0,104	0,003
-426,832	-200,000	0,009	0,042
-425,817	33,113	0,043	0,027
-424,803	269,565	0,076	0,097
-423,788	421,683	0,055	0,085
-422,773	339,202	0,058	0,083
-421,759	-55,616	-0,090	-0,029
-420,744	800,000	0,036	-0,080
-419,730	-28,802	-0,191	-0,079
-418,715	516,409	-0,017	0,029
-417,701	3,719	0,157	0,083
-416,686	800,000	-0,031	-0,066
-415,671	-90,016	-0,073	0,015
-414,657	158,964	0,100	0,101
-413,642	-200,000	0,001	-0,071
-412,628	800,000	-0,046	-0,132
-411,613	-182,036	0,055	0,001
-410,598	224,882	-0,021	-0,025
-409,584	-200,000	-0,014	-0,060
-408,569	-200,000	-0,021	0,125
-407,555	-134,682	-0,084	-0,007
-406,540	238,763	-0,049	-0,059
-405,525	33,543	-0,025	0,016
-404,511	-200,000	-0,019	-0,158
-403,496	61,013	-0,014	-0,010
-402,482	800,000	-0,017	0,048
-401,467	800,000	-0,012	0,028
-400,452	25,583	0,018	-0,011
-399,438	-18,483	-0,047	-0,021
-398,423	-4,396	-0,122	0,061
-397,409	-65,110	0,063	-0,018
-396,394	284,291	-0,058	-0,076
-395,379	-52,754	0,152	0,051
-394,365	-200,000	-0,016	-0,069
-393,350	-200,000	0,036	-0,175
-392,336	-34,734	0,095	-0,037
-391,321	352,766	-0,039	-0,056
-390,306	143,419	-0,092	-0,089
-389,292	21,283	0,103	-0,061
-388,277	-171,719	0,125	0,003
-387,263	-200,000	0,013	-0,100
-386,248	353,376	-0,141	0,203
-385,233	800,000	-0,021	0,059
-384,219	603,141	0,046	0,084
-383,204	-131,044	-0,112	-0,011
-382,190	-163,083	0,015	-0,001
-381,175	-34,601	0,021	-0,008
-380,160	800,000	0,026	0,057
-379,146	800,000	0,041	0,083
-378,131	196,685	0,040	0,044
-377,117	-47,093	-0,069	0,024
-376,102	-47,545	-0,139	-0,049
-375,088	-101,230	0,044	0,008
-374,073	800,000	0,007	0,019
-373,058	313,389	0,066	0,091
-372,044	262,861	-0,048	0,060
-371,029	591,256	0,027	-0,048
-370,015	64,887	0,038	-0,028
-369,000	-70,282	-0,172	0,047
-367,985	-46,804	0,035	-0,012
-366,971	565,416	0,079	-0,140
-365,956	-98,041	-0,107	-0,020
-364,942	-200,000	0,006	0,126
-363,927	30,062	0,040	0,025
-362,912	25,640	-0,127	-0,077
-361,898	60,889	-0,181	-0,130
-360,883	116,523	0,086	0,076
-359,869	495,842	0,066	-0,111
-358,854	285,006	0,024	-0,031
-357,839	161,194	0,041	0,042
-356,825	800,000	0,018	-0,038
-355,810	267,719	0,083	0,105
-354,796	-200,000	-0,008	-0,026
-353,781	800,000	0,084	-0,222
-352,766	-200,000	0,000	0,004
-351,752	-200,000	-0,018	0,061
-350,737	-37,933	0,036	-0,014
-349,723	-200,000	-0,011	0,143
-348,708	147,255	-0,096	0,094
-347,693	-125,099	0,162	0,018
-346,679	-66,192	0,165	0,048
-345,664	32,459	-0,063	0,040
-344,650	212,440	-0,079	0,090
-343,635	-115,859	0,100	-0,013
-342,620	-116,049	-0,150	-0,020
-341,606	800,000	-0,059	0,129
-340,591	78,092	0,021	0,016
-339,577	481,576	0,079	-0,131
-338,562	-63,217	0,160	0,048
-337,548	-200,000	0,004	0,045
-336,533	-117,997	0,083	0,011
-335,518	800,000	-0,041	0,097
-334,504	32,892	-0,057	0,036
-333,489	-11,904	0,101	0,048
-332,475	800,000	0,058	0,155
-331,460	-200,000	0,000	0,094
-330,445	-75,116	-0,129	0,033
-329,431	-121,260	0,064	0,008
-328,416	-83,125	0,085	0,020
-327,402	-200,000	-0,025	0,123
-326,387	800,000	0,007	-0,015
-325,372	-200,000	0,000	-0,101
-324,358	-200,000	-0,022	-0,182
-323,343	-136,676	-0,041	0,003
-322,329	-188,291	0,074	-0,001
-321,314	-131,162	0,032	-0,003
-320,299	685,072	0,105	-0,200
-319,285	-60,503	0,189	0,058
-318,270	476,176	-0,044	0,073
-317,256	445,346	0,048	-0,076
-316,241	237,225	-0,095	0,114
-315,226	800,000	0,006	0,014
-314,212	-200,000	0,019	-0,062
-313,197	-200,000	0,056	0,209
-312,183	800,000	0,038	-0,082
-311,168	-67,420	0,094	0,026
-310,153	-81,559	-0,084	0,020
-309,139	605,799	-0,028	0,051
-308,124	800,000	0,013	-0,037
-307,110	-71,878	-0,012	-0,003
-306,095	126,192	-0,053	-0,049
-305,080	7,639	-0,052	0,028
-304,066	-200,000	-0,015	0,094
-303,051	-16,030	-0,044	-0,020
-302,037	800,000	-0,052	0,127
-301,022	200,253	0,090	0,100
-300,008	401,668	-0,036	0,054
-298,993	-200,000	-0,026	-0,088
-297,978	-46,206	0,068	0,024
-296,964	2,526	-0,082	-0,043
-295,949	-57,827	0,098	-0,031
-294,935	-143,513	-0,113	0,008
-293,920	800,000	-0,023	0,061
-292,905	-200,000	-0,012	0,076
-291,891	155,441	-0,097	0,097
-290,876	-200,000	-0,008	0,133
-289,862	294,683	-0,058	0,077
-288,847	171,813	-0,035	0,036
-287,832	-20,942	0,049	-0,022
-286,818	-121,406	0,069	-0,008
-285,803	-14,915	-0,030	-0,014
-284,789	163,703	0,038	-0,038
-283,774	149,807	0,029	0,029
-282,759	256,364	0,044	0,055
-281,745	32,286	-0,135	-0,084
-280,730	362,415	-0,018	0,026
-279,716	68,095	-0,054	0,040
-278,701	-5,401	-0,155	0,077
-277,686	30,801	-0,065	-0,040
-276,672	-200,000	-0,007	0,095
-275,657	467,775	-0,047	0,076
-274,643	-200,000	0,030	-0,132
-273,628	-200,000	0,039	-0,236
-272,613	-200,000	-0,003	-0,010
-271,599	0,919	0,064	0,033
-270,584	198,328	0,087	0,096
-269,570	453,845	0,037	0,059
-268,555	800,000	0,034	0,091
-267,540	47,217	-0,034	0,023
-266,526	800,000	0,040	-0,120
-265,511	105,205	0,054	-0,046
-264,497	42,276	0,067	-0,044
-263,482	118,988	0,076	0,068
-262,467	-200,000	0,032	0,177
-261,453	143,655	0,078	0,075
-260,438	176,000	-0,079	-0,083
-259,424	-1,895	0,054	0,027
-258,409	-200,000	0,001	0,060
-257,395	-200,000	-0,016	0,092
-256,380	662,013	0,077	0,144
-255,365	20,946	0,035	-0,021
-254,351	43,740	-0,044	0,029
-253,336	61,609	0,082	-0,059
-252,322	800,000	0,037	-0,101
-251,307	-107,015	-0,264	0,042
-250,292	-68,661	0,087	-0,024
-249,278	800,000	-0,025	0,053
-248,263	581,975	0,084	0,149
-247,249	-200,000	-0,012	-0,068
-246,234	800,000	-0,017	-0,053
-245,219	57,916	-0,076	0,054
-244,205	-200,000	0,026	0,083
-243,190	-24,372	0,097	0,041
-242,176	-143,485	-0,148	-0,010
-241,161	800,000	0,042	-0,133
-240,146	-200,000	-0,004	-0,063
-239,132	-139,700	-0,103	-0,008
-238,117	371,961	-0,003	-0,005
-237,103	130,341	0,174	0,162
-236,088	-107,802	0,009	0,001
-235,073	-87,007	0,113	0,025
-234,059	229,670	0,131	0,154
-233,044	503,819	0,027	-0,045
-232,030	800,000	-0,015	-0,046
-231,015	-188,179	-0,047	0,000
-230,000	-88,243	0,077	0,017
-228,986	-4,808	0,103	0,051
-227,971	-84,878	-0,049	0,011
-226,957	-67,756	0,177	0,050
-225,942	-200,000	-0,005	0,047
-224,927	72,066	-0,177	0,133
-223,913	-184,418	0,215	-0,002
-222,898	800,000	-0,028	0,062
-221,884	-200,000	-0,008	0,040
-220,869	80,354	-0,090	0,070
-219,855	-69,866	0,105	0,029
-218,840	-32,230	0,056	0,023
-217,825	-103,399	0,078	0,013
-216,811	26,173	0,062	-0,037
-215,796	-13,515	0,066	-0,031
-214,782	326,677	0,092	-0,127
-213,767	-200,000	-0,021	0,083
-212,752	-45,702	0,139	-0,049
-211,738	-200,000	0,001	-0,036
-210,723	-28,360	-0,041	0,017
-209,709	47,069	0,052	-0,035
-208,694	-88,609	-0,108	-0,023
-207,679	68,832	-0,034	0,025
-206,665	-200,000	-0,004	-0,114
-205,650	800,000	-0,033	-0,098
-204,636	236,936	-0,079	0,094
-203,621	49,275	-0,087	-0,059
-202,606	95,946	-0,112	-0,092
-201,592	774,061	0,074	0,146
-200,577	-200,000	-0,014	0,084
-199,563	-92,390	0,091	0,018
-198,548	2,036	-0,040	-0,021
-197,533	690,910	-0,042	-0,080
-196,519	800,000	0,039	0,115
-195,504	-200,000	0,001	-0,035
-194,490	-108,138	-0,110	0,017
-193,475	-64,429	-0,114	-0,033
-192,460	152,595	0,084	0,083
-191,446	-200,000	0,027	0,124
-190,431	24,523	0,050	0,030
-189,417	-39,134	0,047	-0,018
-188,402	-200,000	0,005	-0,026
-187,387	313,204	0,045	-0,061
-186,373	631,670	0,020	-0,036
-185,358	117,313	-0,107	-0,094
-184,344	-200,000	0,026	-0,194
-183,329	49,503	0,034	-0,023
-182,315	330,140	0,042	0,059
-181,300	-17,741	-0,072	0,033
-180,285	-0,374	0,033	-0,017
-179,271	800,000	0,012	0,036
-178,256	60,679	0,065	-0,046
-177,242	-30,439	0,032	0,013
-176,227	800,000	0,017	-0,055
-175,212	-200,000	-0,001	-0,058
-174,198	-200,000	-0,012	-0,043
-173,183	275,020	0,087	-0,111
-172,169	104,962	-0,085	-0,072
-171,154	-200,000	-0,029	-0,190
-170,139	-200,000	-0,001	0,104
-169,125	800,000	0,111	0,227
-168,110	-173,444	-0,081	0,002
-167,096	-200,000	0,052	-0,167
-166,081	-46,238	0,106	-0,037
-165,066	-75,246	-0,205	0,052
-164,052	800,000	-0,018	0,043
-163,037	153,587	-0,084	0,083
-162,023	160,247	0,103	0,103
-161,008	34,942	0,114	0,072
-159,993	116,637	0,045	0,040
-158,979	800,000	-0,093	-0,188
-157,964	-186,371	-0,020	0,000
-156,950	800,000	-0,006	-0,017
-155,935	800,000	-0,054	-0,126
-154,920	-52,965	0,072	0,024
-153,906	-200,000	-0,008	0,240
-152,891	-56,160	-0,072	0,023
-151,877	-74,838	-0,059	-0,015
-150,862	577,489	-0,055	-0,097
-149,847	-29,046	-0,077	-0,032
-148,833	37,976	-0,064	0,041
-147,818	-200,000	-0,018	-0,063
-146,804	800,000	-0,040	0,092
-145,789	-200,000	0,022	0,103
-144,775	69,124	-0,091	-0,067
-143,760	-200,000	0,005	-0,101
-142,745	53,287	0,041	-0,028
-141,731	112,167	0,086	0,075
-140,716	-200,000	-0,021	0,068
-139,702	-200,000	0,027	-0,095
-138,687	-200,000	0,008	0,106
-137,672	-200,000	-0,011	-0,157
-136,658	209,337	-0,075	-0,085
-135,643	-123,777	0,086	0,010
-134,629	-147,110	-0,198	-0,012
-133,614	-200,000	-0,022	0,072
-132,599	-200,000	-0,000	0,061
-131,585	-200,000	-0,004	0,120
-130,570	-200,000	-0,004	-0,029
-129,556	-117,894	0,140	0,018
-128,541	-200,000	0,014	-0,100
-127,526	800,000	0,055	0,143
-126,512	-89,513	-0,062	0,013
-125,497	-50,208	0,091	0,031
-124,483	-39,002	-0,082	0,031
-123,468	800,000	-0,029	0,063
-122,453	578,888	0,019	-0,034
-121,439	800,000	0,034	-0,077
-120,424	443,065	-0,054	-0,085
-119,410	188,145	-0,035	0,038
-118,395	562,315	-0,032	-0,055
