DTS Sentinel unit serial number:	SN410029Multiplexer serial number:	ORYXHardware model number:	OX2-SRSoftware version number:	ORYX F/W v4,00 Oryx Data Collector v3.7.2.0data status	okinstallation	B6 Nyhavnadifferential loss correction	single-endedforward channel	channel 2reverse channel	N/Adate	2023/12/07time	20:35:08forward acquisition time	300,00reverse acquisition time	0,00gamma	499,1914k internal	0,3165k external	0,3165temperature offset calibration	1,0000default loss term (dB/km)	0,3820temperature slope calibration	1,0000multiplexer offset coefficient	1,0000multiplexer slope coefficient	1,0000fibre end	0,00T internal ref (°C)	13,81T ext. ref 1 (°C)	-3,12T ext. ref 2 (°C)	-3,12length (m)	temperature (°C)	Stokes	anti-Stokes-744,400	-139,529	0,115	-0,009
-743,385	-86,617	-0,290	0,065
-742,371	23,794	0,116	-0,070
-741,356	-173,717	-0,387	-0,008
-740,342	-38,172	0,075	0,029
-739,327	-133,971	-0,482	0,043
-738,312	297,672	-0,058	-0,078
-737,298	-49,639	-0,291	-0,101
-736,283	800,000	0,029	0,065
-735,269	-144,907	-0,088	-0,006
-734,254	537,038	0,039	0,069
-733,239	-41,583	-0,519	-0,195
-732,225	-147,460	0,133	0,008
-731,210	800,000	0,030	0,085
-730,196	80,060	-0,079	-0,062
-729,181	-71,336	-0,109	0,030
-728,167	800,000	0,027	-0,070
-727,152	-200,000	-0,014	0,144
-726,137	-200,000	0,003	0,159
-725,123	-200,000	-0,056	-0,197
-724,108	800,000	0,032	-0,090
-723,094	-73,848	-0,111	-0,029
-722,079	-200,000	-0,008	-0,112
-721,064	800,000	-0,081	-0,173
-720,050	434,564	0,038	-0,061
-719,035	13,877	-0,158	-0,090
-718,021	-200,000	-0,015	-0,068
-717,006	623,047	-0,081	-0,151
-715,991	-43,274	-0,047	-0,017
-714,977	547,876	0,040	-0,071
-713,962	-200,000	0,023	0,086
-712,948	-200,000	0,001	0,042
-711,933	236,829	0,009	0,011
-710,918	564,054	0,040	0,071
-709,904	-23,665	-0,072	-0,031
-708,889	191,329	-0,077	-0,086
-707,875	-126,260	0,089	-0,010
-706,860	326,630	0,070	-0,099
-705,845	-46,468	-0,162	0,058
-704,831	-200,000	0,031	-0,115
-703,816	-200,000	-0,002	0,055
-702,802	-67,669	-0,053	0,015
-701,787	-200,000	0,005	-0,039
-700,772	-67,090	-0,088	0,025
-699,758	800,000	-0,029	0,075
-698,743	581,652	0,103	0,186
-697,729	-24,140	0,097	0,042
-696,714	325,904	-0,044	-0,062
-695,699	28,591	0,026	-0,016
-694,685	-200,000	-0,021	-0,136
-693,670	714,336	-0,054	-0,106
-692,656	162,053	-0,074	0,077
-691,641	-200,000	-0,018	0,059
-690,627	-40,278	-0,028	0,011
-689,612	171,055	-0,023	0,024
-688,597	800,000	0,022	-0,058
-687,583	-200,000	0,006	-0,117
-686,568	-88,914	-0,079	-0,017
-685,554	-200,000	0,004	-0,099
-684,539	-82,682	0,142	0,034
-683,524	107,543	0,047	-0,041
-682,510	-200,000	-0,023	-0,076
-681,495	246,370	0,059	0,073
-680,481	119,610	0,123	-0,112
-679,466	450,296	-0,066	-0,108
-678,451	744,008	-0,097	-0,193
-677,437	139,801	-0,069	-0,067
-676,422	258,683	-0,057	-0,073
-675,408	30,764	-0,010	-0,007
-674,393	-200,000	-0,008	0,056
-673,378	38,693	-0,068	0,045
-672,364	403,110	-0,116	-0,180
-671,349	-200,000	-0,027	-0,153
-670,335	800,000	-0,022	-0,058
-669,320	800,000	0,075	0,187
-668,305	-103,803	0,064	-0,011
-667,291	40,557	0,086	-0,057
-666,276	270,044	-0,069	-0,089
-665,262	800,000	-0,065	-0,139
-664,247	182,559	0,108	-0,117
-663,232	-200,000	0,005	-0,114
-662,218	783,428	0,029	0,059
-661,203	-161,411	0,045	0,002
-660,189	-112,217	0,083	0,012
-659,174	800,000	0,025	0,075
-658,159	279,255	0,066	-0,086
-657,145	19,616	-0,141	-0,083
-656,130	423,051	0,067	0,105
-655,116	-200,000	0,003	0,206
-654,101	-2,313	0,058	0,030
-653,086	132,164	-0,074	-0,070
-652,072	-7,416	0,175	-0,087
-651,057	-24,724	-0,118	-0,051
-650,043	-50,050	-0,028	-0,010
-649,028	541,381	-0,081	-0,142
-648,014	800,000	-0,006	0,018
-646,999	-29,457	0,016	0,007
-645,984	-95,363	0,056	-0,011
-644,970	45,065	0,054	-0,036
-643,955	-144,884	-0,151	0,010
-642,941	800,000	-0,016	-0,045
-641,926	-200,000	-0,042	0,161
-640,911	-55,439	0,035	-0,011
-639,897	800,000	-0,060	0,132
-638,882	153,126	-0,081	0,082
-637,868	-28,271	0,085	0,036
-636,853	185,088	-0,106	0,115
-635,838	469,306	0,012	-0,020
-634,824	-157,165	-0,060	-0,003
-633,809	-4,396	-0,040	0,020
-632,795	-120,588	-0,110	-0,014
-631,780	254,642	-0,034	0,043
-630,765	181,292	0,061	-0,065
-629,751	35,338	0,122	0,078
-628,736	-200,000	0,020	-0,075
-627,722	800,000	0,027	-0,071
-626,707	23,509	-0,107	0,064
-625,692	-200,000	0,006	-0,088
-624,678	621,095	0,009	-0,017
-623,663	-200,000	-0,031	0,108
-622,649	-195,835	0,119	0,001
-621,634	-200,000	0,014	-0,061
-620,619	26,499	-0,100	-0,061
-619,605	275,368	0,024	-0,031
-618,590	278,246	-0,075	0,098
-617,576	51,973	0,018	0,012
-616,561	-89,318	-0,091	0,020
-615,546	-200,000	0,010	-0,082
-614,532	-59,160	-0,118	0,037
-613,517	800,000	-0,035	-0,089
-612,503	-140,161	-0,039	0,003
-611,488	800,000	0,042	0,095
-610,474	-200,000	0,023	0,086
-609,459	-33,309	-0,069	-0,028
-608,444	-200,000	-0,033	-0,195
-607,430	-186,351	0,034	0,000
-606,415	-19,881	-0,076	0,034
-605,401	319,287	0,055	-0,077
-604,386	165,795	0,006	0,006
-603,371	111,532	0,118	0,104
-602,357	-200,000	0,016	-0,127
-601,342	8,291	0,111	-0,061
-600,328	800,000	-0,022	-0,050
-599,313	225,413	0,074	-0,088
-598,298	-117,325	-0,089	-0,012
-597,284	116,554	0,110	0,099
-596,269	-200,000	-0,010	-0,060
-595,255	122,661	-0,092	-0,084
-594,240	800,000	-0,028	-0,073
-593,225	11,433	-0,057	0,032
-592,211	-98,179	-0,198	0,037
-591,196	354,658	0,020	0,030
-590,182	105,836	0,121	-0,105
-589,167	800,000	-0,031	-0,093
-588,152	-31,265	-0,044	-0,018
-587,138	-200,000	-0,006	0,056
-586,123	39,117	-0,073	-0,048
-585,109	86,995	0,098	0,080
-584,094	-200,000	0,008	-0,112
-583,079	34,593	0,089	-0,056
-582,065	-166,508	0,095	-0,003
-581,050	-119,780	-0,030	0,004
-580,036	-20,857	0,080	0,036
-579,021	-200,000	0,006	-0,029
-578,006	-49,106	-0,110	-0,038
-576,992	6,105	0,103	-0,056
-575,977	800,000	0,022	0,050
-574,963	670,164	0,017	0,033
-573,948	800,000	0,032	0,072
-572,934	707,449	0,043	0,083
-571,919	-200,000	0,018	0,132
-570,904	180,004	-0,139	-0,149
-569,890	28,906	0,105	-0,065
-568,875	-200,000	-0,011	0,000
-567,861	-200,000	0,010	0,097
-566,846	800,000	-0,048	0,114
-565,831	16,396	-0,098	-0,056
-564,817	-32,556	-0,141	-0,057
-563,802	-19,158	0,047	0,021
-562,788	800,000	0,034	-0,080
-561,773	-111,640	0,023	0,003
-560,758	118,937	-0,071	-0,064
-559,744	-200,000	0,005	0,160
-558,729	39,867	0,128	0,084
-557,715	127,640	-0,030	-0,028
-556,700	-200,000	-0,003	0,088
-555,685	-115,803	0,127	-0,017
-554,671	-200,000	0,011	0,065
-553,656	-144,662	-0,089	-0,006
-552,642	-144,635	0,126	0,008
-551,627	-116,719	-0,044	-0,006
-550,612	142,064	0,034	0,033
-549,598	90,245	-0,085	-0,069
-548,583	129,765	0,046	-0,043
-547,569	74,034	0,028	-0,021
-546,554	-131,962	-0,073	-0,007
-545,539	-128,045	-0,089	0,009
-544,525	714,373	0,008	0,015
-543,510	-26,260	-0,101	-0,043
-542,496	223,375	-0,023	-0,028
-541,481	-147,272	-0,081	0,005
-540,466	202,395	-0,096	-0,108
-539,452	-200,000	-0,004	0,027
-538,437	-44,040	0,105	-0,038
-537,423	9,092	0,045	-0,025
-536,408	-151,407	-0,073	0,004
-535,393	345,203	-0,075	0,107
-534,379	-34,044	0,083	-0,033
-533,364	-87,829	0,079	-0,017
-532,350	800,000	-0,019	-0,050
-531,335	-75,823	0,105	-0,027
-530,321	-57,388	-0,074	0,023
-529,306	800,000	0,052	0,155
-528,291	-48,332	-0,156	0,055
-527,277	70,312	-0,097	-0,073
-526,262	588,537	-0,015	0,027
-525,248	-35,054	0,082	-0,032
-524,233	142,327	0,082	0,079
-523,218	77,474	0,068	0,053
-522,204	-105,835	0,111	0,018
-521,189	-14,494	-0,139	0,065
-520,175	-121,453	-0,052	-0,006
-519,160	800,000	-0,044	-0,135
-518,145	151,837	-0,034	0,033
-517,131	114,811	0,060	0,054
-516,116	531,186	-0,016	0,027
-515,102	-200,000	-0,022	0,100
-514,087	783,079	-0,016	-0,032
-513,072	55,095	0,067	0,047
-512,058	800,000	-0,066	-0,182
-511,043	95,488	-0,010	0,008
-510,029	116,931	0,079	0,071
-509,014	-58,860	0,028	0,009
-507,999	-200,000	0,015	-0,064
-506,985	260,103	-0,060	-0,076
-505,970	-12,567	0,057	0,027
-504,956	-68,478	-0,127	-0,036
-503,941	-200,000	0,011	-0,035
-502,926	800,000	0,009	-0,023
-501,912	-200,000	-0,025	0,145
-500,897	21,584	-0,112	0,066
-499,883	-200,000	-0,003	0,022
-498,868	-200,000	-0,021	0,115
-497,853	-200,000	-0,056	0,000
-496,839	800,000	0,067	-0,137
-495,824	478,754	0,057	0,095
-494,810	152,546	0,026	0,026
-493,795	47,276	0,035	0,024
-492,781	-142,557	0,045	0,003
-491,766	88,943	-0,083	-0,067
-490,751	-200,000	0,010	-0,161
-489,737	-24,557	-0,053	0,023
-488,722	91,904	-0,118	0,097
-487,708	-0,080	-0,015	0,008
-486,693	-110,067	0,094	0,014
-485,678	-48,728	-0,077	0,027
-484,664	270,948	-0,061	0,079
-483,649	800,000	0,050	0,103
-482,635	488,331	-0,027	0,046
-481,620	235,522	0,093	0,112
-480,605	50,423	-0,099	0,068
-479,591	-200,000	-0,001	0,123
-478,576	240,707	0,075	0,091
-477,562	-200,000	0,031	-0,102
-476,547	447,294	0,029	-0,046
-475,532	36,718	-0,176	0,113
-474,518	44,363	0,165	0,110
-473,503	-80,839	0,153	-0,037
-472,489	-200,000	-0,013	-0,075
-471,474	144,364	-0,100	0,097
-470,459	37,826	0,104	0,067
-469,445	495,243	0,052	-0,088
-468,430	-80,466	-0,029	-0,007
-467,416	205,557	-0,025	0,028
-466,401	212,368	0,085	0,098
-465,386	-46,923	0,065	0,023
-464,372	-98,201	-0,126	-0,023
-463,357	-102,075	0,014	-0,002
-462,343	67,843	-0,069	-0,051
-461,328	-39,297	-0,060	0,023
-460,313	-97,042	0,099	0,019
-459,299	-125,426	0,132	-0,014
-458,284	-5,027	0,090	0,045
-457,270	30,893	-0,033	0,021
-456,255	80,631	-0,119	-0,093
-455,241	-103,289	-0,155	-0,026
-454,226	217,127	0,050	-0,058
-453,211	800,000	0,041	-0,101
-452,197	800,000	-0,044	0,133
-451,182	-200,000	0,050	0,163
-450,168	86,824	0,013	0,011
-449,153	139,673	0,006	-0,006
-448,138	-200,000	0,013	0,047
-447,124	412,654	0,015	0,023
-446,109	-64,167	0,067	-0,020
-445,095	491,443	-0,034	0,057
-444,080	28,920	-0,052	-0,032
-443,065	800,000	-0,040	0,095
-442,051	-46,686	0,069	0,025
-441,036	350,139	-0,072	-0,104
-440,022	800,000	-0,044	0,101
-439,007	82,412	0,047	0,037
-437,992	-104,317	0,076	-0,013
-436,978	708,362	-0,069	0,133
-435,963	13,867	-0,067	0,038
-434,949	46,538	-0,110	-0,074
-433,934	127,519	-0,065	-0,060
-432,919	-200,000	-0,046	-0,173
-431,905	800,000	-0,006	-0,017
-430,890	800,000	0,029	0,086
-429,876	-85,591	0,181	0,040
-428,861	114,394	0,029	0,026
-427,846	46,794	0,064	-0,043
-426,832	22,736	0,073	-0,044
-425,817	-99,181	-0,153	-0,028
-424,803	-143,640	0,063	-0,004
-423,788	15,309	-0,138	0,078
-422,773	-100,521	0,084	-0,015
-421,759	-27,412	-0,115	0,048
-420,744	-128,740	0,126	0,013
-419,730	-41,143	-0,173	-0,065
-418,715	-22,401	0,062	0,027
-417,701	-53,342	-0,055	0,018
-416,686	-21,830	0,115	-0,051
-415,671	-63,333	0,109	0,032
-414,657	125,211	-0,033	0,030
-413,642	800,000	0,049	0,140
-412,628	521,281	0,043	0,073
-411,613	-200,000	-0,027	0,129
-410,598	82,220	-0,088	0,069
-409,584	20,947	0,008	-0,005
-408,569	117,751	0,094	-0,084
-407,555	-200,000	0,001	0,124
-406,540	-63,049	-0,122	-0,036
-405,525	68,884	0,107	0,079
-404,511	-80,320	0,178	-0,043
-403,496	-74,974	0,082	0,021
-402,482	-76,370	0,097	0,025
-401,467	-151,489	0,074	-0,004
-400,452	-117,025	0,036	0,005
-399,438	-200,000	-0,014	-0,172
-398,423	30,346	-0,173	0,107
-397,409	284,855	-0,089	0,116
-396,394	-49,849	-0,140	-0,048
-395,379	280,341	0,077	0,100
-394,365	30,538	0,206	0,127
-393,350	16,158	0,048	-0,028
-392,336	-40,001	-0,134	0,050
-391,321	800,000	0,024	0,050
-390,306	800,000	0,033	0,100
-389,292	16,189	-0,143	-0,081
-388,277	-200,000	-0,009	0,041
-387,263	273,420	-0,054	0,070
-386,248	-200,000	0,039	0,192
-385,233	1,612	-0,038	-0,020
-384,219	-18,882	-0,088	0,040
-383,204	160,833	-0,063	-0,064
-382,190	270,019	-0,039	-0,050
-381,175	-90,775	0,051	0,011
-380,160	249,170	-0,035	-0,044
-379,146	-167,172	0,118	-0,003
-378,131	-200,000	-0,029	0,151
-377,117	50,560	0,052	0,036
-376,102	274,938	-0,070	-0,090
-375,088	322,649	-0,030	0,042
-374,073	-49,497	-0,191	-0,066
-373,058	-33,227	0,086	-0,034
-372,044	786,139	0,061	0,123
-371,029	-200,000	0,009	-0,052
-370,015	-200,000	-0,010	-0,110
-369,000	87,994	-0,065	0,052
-367,985	403,954	-0,032	0,050
-366,971	-200,000	-0,000	-0,104
-365,956	-24,592	0,080	-0,034
-364,942	-71,104	0,055	0,015
-363,927	-81,207	0,067	-0,016
-362,912	-200,000	0,006	0,122
-361,898	89,896	0,089	-0,072
-360,883	-200,000	0,066	-0,260
-359,869	0,653	-0,021	0,011
-358,854	225,455	0,108	0,127
-357,839	-86,053	-0,088	0,019
-356,825	367,275	-0,090	-0,132
-355,810	-200,000	0,020	0,100
-354,796	297,525	-0,104	-0,139
-353,781	-200,000	0,000	-0,093
-352,766	42,400	-0,054	-0,035
-351,752	165,091	-0,067	-0,069
-350,737	-200,000	-0,008	0,066
-349,723	-4,559	0,062	-0,031
-348,708	-170,968	-0,096	0,002
-347,693	800,000	-0,067	0,160
-346,679	-200,000	0,012	-0,045
-345,664	-60,337	-0,063	0,019
-344,650	-200,000	-0,003	-0,086
-343,635	33,703	0,041	-0,025
-342,620	800,000	-0,048	-0,109
-341,606	800,000	0,029	0,062
-340,591	238,912	-0,076	0,092
-339,577	307,088	-0,150	-0,203
-338,562	19,918	0,092	-0,053
-337,548	800,000	0,036	0,089
-336,533	-200,000	-0,044	-0,177
-335,518	800,000	-0,047	0,095
-334,504	216,958	0,071	0,082
-333,489	27,309	0,018	0,011
-332,475	175,280	0,084	-0,088
-331,460	374,988	0,071	-0,105
-330,445	-65,961	-0,085	0,024
-329,431	209,052	0,097	-0,110
-328,416	-200,000	0,002	0,106
-327,402	-200,000	-0,006	-0,037
-326,387	-200,000	0,012	0,052
-325,372	-200,000	0,052	0,199
-324,358	-168,248	-0,167	-0,005
-323,343	800,000	0,021	0,061
-322,329	800,000	0,017	0,050
-321,314	229,838	-0,069	0,081
-320,299	-200,000	-0,018	-0,075
-319,285	216,016	0,111	-0,128
-318,270	75,180	-0,085	0,065
-317,256	-151,694	-0,061	-0,003
-316,241	14,819	0,081	0,046
-315,226	476,551	0,071	-0,117
-314,212	-114,569	0,013	-0,002
-313,197	153,681	0,070	-0,069
-312,183	16,391	0,022	-0,012
-311,168	128,574	-0,075	-0,069
-310,153	-94,877	0,084	-0,016
-309,139	162,532	0,015	0,015
-308,124	-39,692	0,083	-0,031
-307,110	800,000	-0,019	0,042
-306,095	-200,000	-0,004	0,152
-305,080	800,000	0,055	-0,127
-304,066	-18,009	-0,052	0,024
-303,051	28,672	0,087	-0,053
-302,037	94,714	-0,081	-0,066
-301,022	491,313	-0,041	0,068
-300,008	154,348	0,081	-0,080
-298,993	744,021	-0,086	0,168
-297,978	41,673	0,077	0,050
-296,964	-32,230	-0,144	-0,058
-295,949	-28,426	0,087	-0,036
-294,935	152,784	-0,143	-0,142
-293,920	-200,000	0,012	0,148
-292,905	66,341	-0,032	-0,024
-291,891	14,218	0,099	0,056
-290,876	257,148	0,050	0,063
-289,862	-200,000	0,005	-0,053
-288,847	-200,000	0,023	-0,150
-287,832	212,205	-0,097	0,110
-286,818	-200,000	0,005	-0,095
-285,803	-200,000	-0,023	0,076
-284,789	86,630	-0,088	-0,070
-283,774	70,315	0,029	0,022
-282,759	-78,540	0,088	0,022
-281,745	42,381	-0,036	0,024
-280,730	-200,000	-0,007	-0,155
-279,716	0,448	0,169	-0,087
-278,701	-200,000	0,013	0,047
-277,686	-73,087	0,091	-0,024
-276,672	-98,696	-0,032	0,006
-275,657	800,000	0,005	0,013
-274,643	-66,586	0,059	0,017
-273,628	748,987	-0,008	-0,016
-272,613	-69,573	-0,109	-0,030
-271,599	800,000	0,064	0,138
-270,584	-38,305	0,192	0,073
-269,570	-200,000	-0,005	0,079
-268,555	15,166	-0,135	0,076
-267,540	-112,744	-0,101	0,014
-266,526	-200,000	0,020	-0,125
-265,511	-125,953	-0,010	0,001
-264,497	-200,000	-0,013	-0,051
-263,482	32,861	0,020	-0,013
-262,467	53,740	0,109	-0,075
-261,453	19,725	-0,046	0,027
-260,438	149,726	-0,101	0,099
-259,424	507,925	0,056	-0,095
-258,409	52,251	-0,068	0,047
-257,395	470,536	0,071	0,115
-256,380	-156,947	0,124	-0,005
-255,365	-200,000	-0,007	0,062
-254,351	132,547	0,049	-0,046
-253,336	436,950	0,055	-0,087
-252,322	-117,973	-0,155	0,020
-251,307	-200,000	0,001	-0,020
-250,292	800,000	0,022	-0,050
-249,278	-144,821	0,173	0,011
-248,263	-65,717	0,034	-0,010
-247,249	51,415	0,083	0,057
-246,234	-111,815	-0,080	0,012
-245,219	580,660	-0,040	0,072
-244,205	800,000	-0,028	-0,060
-243,190	188,004	-0,099	0,107
-242,176	-143,109	0,063	-0,004
-241,161	-200,000	0,023	0,143
-240,146	-110,357	-0,054	-0,008
-239,132	151,933	-0,087	0,086
-238,117	-10,695	-0,097	0,046
-237,103	34,294	-0,105	-0,066
-236,088	481,080	0,048	-0,080
-235,073	-27,409	0,159	-0,066
-234,059	567,760	-0,068	0,120
-233,044	-17,217	0,075	-0,034
-232,030	55,071	0,086	-0,060
-231,015	-107,928	-0,006	0,001
-230,000	-135,942	-0,183	0,015
-228,986	-200,000	0,003	-0,065
-227,971	800,000	-0,017	0,051
-226,957	62,720	0,032	0,023
-225,942	613,911	0,062	-0,113
-224,927	-147,036	0,154	0,009
-223,913	-200,000	-0,008	0,028
-222,898	-39,584	-0,130	0,049
-221,884	108,507	0,022	-0,019
-220,869	800,000	0,043	-0,093
-219,855	234,429	0,012	0,014
-218,840	-200,000	0,007	0,041
-217,825	-200,000	0,025	-0,087
-216,811	-200,000	0,024	-0,171
-215,796	34,044	-0,022	0,014
-214,782	235,958	-0,011	-0,013
-213,767	-27,505	-0,113	0,047
-212,752	-200,000	0,025	0,126
-211,738	-146,974	-0,025	0,002
-210,723	165,685	0,064	-0,065
-209,709	54,138	0,075	-0,052
-208,694	800,000	-0,027	-0,065
-207,679	800,000	0,034	0,106
-206,665	800,000	-0,024	0,050
-205,650	-200,000	0,032	0,122
-204,636	-134,534	-0,145	0,013
-203,621	68,558	0,106	0,078
-202,606	-86,137	-0,081	0,018
-201,592	-200,000	0,033	-0,185
-200,577	19,094	0,079	-0,045
-199,563	92,525	-0,070	0,057
-198,548	-189,822	0,089	0,001
-197,533	-28,910	0,126	0,052
-196,519	119,522	0,113	-0,101
-195,504	-36,992	0,099	-0,038
-194,490	-200,000	-0,009	-0,076
-193,475	800,000	-0,023	-0,055
-192,460	379,568	-0,025	-0,036
-191,446	295,289	-0,017	0,022
-190,431	426,171	-0,030	0,047
-189,417	-200,000	0,001	0,012
-188,402	72,669	0,052	-0,039
-187,387	-17,531	-0,075	-0,034
-186,373	150,456	-0,102	0,100
-185,358	20,590	-0,037	-0,022
-184,344	800,000	0,093	-0,219
-183,329	-92,537	-0,058	-0,012
-182,315	219,166	0,023	-0,027
-181,300	-200,000	-0,006	-0,084
-180,285	119,585	-0,091	-0,081
-179,271	-200,000	-0,010	0,047
-178,256	-9,217	0,065	-0,031
-177,242	-200,000	-0,015	-0,104
-176,227	-81,289	-0,041	-0,010
-175,212	229,873	-0,035	-0,041
-174,198	-18,101	0,065	0,029
-173,183	64,327	0,056	-0,040
-172,169	800,000	-0,060	-0,125
-171,154	800,000	-0,075	-0,211
-170,139	-77,585	0,041	-0,010
-169,125	-42,885	0,040	-0,014
-168,110	-200,000	0,006	-0,029
-167,096	-35,705	-0,078	0,030
-166,081	-161,414	0,058	-0,002
-165,066	-95,051	-0,083	0,016
-164,052	677,090	0,054	-0,101
-163,037	78,142	-0,033	-0,025
-162,023	-200,000	0,019	-0,103
-161,008	100,185	0,002	-0,002
-159,993	-200,000	-0,001	0,118
-158,979	-81,375	0,103	0,024
-157,964	-200,000	-0,022	-0,188
-156,950	-200,000	0,022	-0,137
-155,935	-1,471	0,171	-0,086
-154,920	20,009	0,046	0,026
-153,906	-163,785	0,064	0,002
-152,891	238,987	0,024	-0,029
-151,877	175,837	0,036	-0,038
-150,862	-91,428	-0,111	-0,023
-149,847	253,631	-0,069	0,085
-148,833	269,098	0,114	-0,144
-147,818	690,174	0,052	0,098
-146,804	58,280	0,044	-0,031
-145,789	-200,000	0,012	0,082
-144,775	508,539	-0,090	-0,151
-143,760	42,656	-0,053	0,035
-142,745	-200,000	-0,032	0,108
-141,731	-87,197	0,108	0,023
-140,716	31,997	-0,151	0,094
-139,702	-113,909	0,113	0,016
-138,687	79,656	0,058	0,045
-137,672	185,524	-0,108	0,115
-136,658	-200,000	-0,016	0,075
-135,643	800,000	0,030	-0,081
-134,629	339,327	0,017	-0,024
-133,614	-200,000	-0,017	0,088
-132,599	-200,000	0,021	0,122
-131,585	-20,597	0,040	0,018
-130,570	9,586	0,102	-0,055
-129,556	-126,938	-0,163	0,017
-128,541	-200,000	0,011	-0,101
-127,526	800,000	0,019	-0,049
-126,512	-11,355	-0,163	0,077
-125,497	-200,000	0,018	0,067
-124,483	583,455	-0,013	0,023
-123,468	-70,463	-0,161	0,044
-122,453	800,000	-0,042	-0,089
-121,439	378,761	-0,029	0,043
-120,424	181,927	0,072	0,077
-119,410	331,394	0,024	-0,034
-118,395	757,424	0,054	-0,105
