DTS Sentinel unit serial number:	SN410029Multiplexer serial number:	ORYXHardware model number:	OX2-SRSoftware version number:	ORYX F/W v4,00 Oryx Data Collector v3.7.2.0data status	okinstallation	B6 Nyhavnadifferential loss correction	single-endedforward channel	channel 2reverse channel	N/Adate	2023/12/07time	19:10:08forward acquisition time	300,00reverse acquisition time	0,00gamma	499,1914k internal	0,3164k external	0,3164temperature offset calibration	1,0000default loss term (dB/km)	0,3820temperature slope calibration	1,0000multiplexer offset coefficient	1,0000multiplexer slope coefficient	1,0000fibre end	0,00T internal ref (°C)	14,08T ext. ref 1 (°C)	-2,95T ext. ref 2 (°C)	-2,97length (m)	temperature (°C)	Stokes	anti-Stokes-744,400	-200,000	-0,010	-0,087
-743,385	-138,317	-0,226	-0,018
-742,371	-108,467	0,122	0,019
-741,356	-67,473	-0,190	-0,054
-740,342	42,158	0,084	0,056
-739,327	43,497	-0,286	0,192
-738,312	178,831	0,100	0,108
-737,298	-37,856	-0,297	-0,116
-736,283	19,435	0,119	-0,070
-735,269	76,735	-0,237	-0,185
-734,254	-82,090	0,151	0,036
-733,239	-12,793	-0,440	-0,210
-732,225	-112,814	0,235	0,034
-731,210	-200,000	-0,005	0,018
-730,196	-72,063	-0,136	-0,037
-729,181	16,796	0,030	-0,017
-728,167	-200,000	-0,004	-0,094
-727,152	460,559	0,053	-0,087
-726,137	-145,718	-0,098	0,006
-725,123	800,000	-0,001	-0,003
-724,108	-37,937	0,038	0,015
-723,094	-104,687	-0,042	0,007
-722,079	307,293	-0,052	-0,071
-721,064	-37,840	-0,130	-0,050
-720,050	38,866	-0,060	-0,039
-719,035	-200,000	-0,005	-0,044
-718,021	62,708	-0,075	0,055
-717,006	-169,391	-0,173	0,005
-715,991	-200,000	-0,001	0,066
-714,977	138,240	0,109	-0,105
-713,962	30,406	-0,052	0,033
-712,948	800,000	0,013	-0,030
-711,933	-200,000	0,013	0,089
-710,918	174,572	-0,036	-0,038
-709,904	21,602	-0,123	-0,073
-708,889	800,000	-0,029	-0,081
-707,875	-138,286	0,103	0,008
-706,860	15,351	0,115	-0,066
-705,845	120,539	0,073	0,067
-704,831	800,000	0,035	0,089
-703,816	-96,571	-0,185	-0,036
-702,802	-200,000	0,014	0,137
-701,787	-159,670	-0,067	0,003
-700,772	70,870	0,094	-0,072
-699,758	-200,000	-0,006	-0,112
-698,743	800,000	0,011	-0,027
-697,729	122,066	-0,050	-0,045
-696,714	678,147	-0,041	0,078
-695,699	78,487	0,065	0,051
-694,685	-200,000	-0,009	-0,066
-693,670	-13,967	-0,110	-0,052
-692,656	-200,000	0,027	-0,108
-691,641	517,907	0,058	-0,099
-690,627	-152,291	0,199	0,010
-689,612	-200,000	0,019	0,145
-688,597	-82,171	0,070	0,017
-687,583	-44,710	-0,078	-0,028
-686,568	800,000	-0,033	-0,103
-685,554	800,000	-0,030	-0,078
-684,539	800,000	0,011	-0,028
-683,524	53,752	-0,106	0,075
-682,510	107,228	0,029	0,025
-681,495	-200,000	0,026	-0,143
-680,481	800,000	-0,067	-0,160
-679,466	-200,000	0,019	-0,155
-678,451	571,106	0,050	-0,089
-677,437	-56,567	-0,080	-0,026
-676,422	800,000	-0,045	-0,111
-675,408	175,950	-0,013	-0,014
-674,393	63,607	-0,013	-0,009
-673,378	220,961	-0,033	-0,039
-672,364	-47,060	-0,083	-0,030
-671,349	191,086	-0,087	-0,096
-670,335	800,000	0,048	-0,143
-669,320	-62,276	0,066	0,020
-668,305	70,513	0,077	0,058
-667,291	550,885	0,040	0,070
-666,276	56,524	0,080	-0,057
-665,262	67,301	-0,065	0,049
-664,247	193,594	0,068	0,075
-663,232	800,000	0,085	-0,174
-662,218	-170,467	0,050	-0,001
-661,203	-53,688	0,084	0,028
-660,189	-75,397	0,086	-0,022
-659,174	-23,772	-0,101	-0,044
-658,159	171,120	-0,066	-0,070
-657,145	142,897	-0,088	-0,086
-656,130	-200,000	0,019	0,079
-655,116	800,000	-0,045	0,131
-654,101	-200,000	0,019	0,112
-653,086	-200,000	0,004	0,013
-652,072	-200,000	-0,006	0,054
-651,057	169,595	0,071	-0,075
-650,043	416,621	-0,050	-0,079
-649,028	-30,626	0,109	0,045
-648,014	-200,000	-0,011	0,088
-646,999	-200,000	0,005	-0,027
-645,984	-200,000	-0,019	0,200
-644,970	-79,047	-0,128	-0,032
-643,955	-3,777	0,060	0,030
-642,941	325,021	-0,057	-0,080
-641,926	3,527	0,094	0,050
-640,911	474,807	0,014	-0,023
-639,897	457,986	0,027	-0,044
-638,882	-200,000	0,005	0,020
-637,868	290,947	-0,036	0,048
-636,853	800,000	-0,034	-0,104
-635,838	-27,584	-0,059	-0,025
-634,824	26,604	-0,054	-0,033
-633,809	-200,000	-0,015	0,073
-632,795	600,338	0,056	-0,102
-631,780	-200,000	0,022	0,081
-630,765	800,000	0,040	0,123
-629,751	-22,604	0,062	0,027
-628,736	-200,000	-0,001	0,039
-627,722	-200,000	0,018	-0,071
-626,707	-200,000	-0,019	0,108
-625,692	-200,000	0,013	0,194
-624,678	-200,000	0,011	0,052
-623,663	-200,000	-0,030	-0,127
-622,649	-194,277	-0,143	0,001
-621,634	233,869	0,025	0,030
-620,619	108,741	-0,061	0,054
-619,605	72,623	0,073	0,055
-618,590	-83,256	0,076	0,018
-617,576	-31,900	-0,153	-0,062
-616,561	-199,166	0,039	-0,000
-615,546	-152,877	-0,216	-0,011
-614,532	192,726	-0,119	-0,132
-613,517	-200,000	0,002	0,084
-612,503	800,000	-0,063	0,131
-611,488	634,419	0,042	-0,078
-610,474	800,000	0,069	0,155
-609,459	-200,000	0,013	0,101
-608,444	161,885	-0,063	0,065
-607,430	-100,690	-0,089	-0,016
-606,415	187,858	-0,056	-0,061
-605,401	-106,473	0,067	-0,011
-604,386	77,988	0,059	0,046
-603,371	103,817	-0,137	-0,117
-602,357	315,293	-0,048	0,067
-601,342	-62,928	-0,093	-0,028
-600,328	297,988	-0,083	-0,112
-599,313	483,860	0,047	-0,079
-598,298	72,110	0,029	-0,022
-597,284	44,750	-0,084	-0,056
-596,269	459,019	-0,020	0,033
-595,255	-61,603	-0,076	0,023
-594,240	38,060	0,051	0,033
-593,225	-200,000	-0,003	-0,013
-592,211	800,000	-0,006	-0,019
-591,196	403,723	0,088	0,136
-590,182	-200,000	0,014	-0,118
-589,167	346,941	0,053	-0,077
-588,152	800,000	-0,022	0,053
-587,138	-77,023	-0,075	-0,019
-586,123	-200,000	0,020	-0,072
-585,109	-7,120	-0,106	0,052
-584,094	-153,288	-0,042	-0,002
-583,079	-138,174	0,135	0,011
-582,065	-200,000	-0,013	0,051
-581,050	5,409	0,088	0,048
-580,036	323,678	-0,039	-0,055
-579,021	800,000	0,035	0,085
-578,006	-200,000	-0,025	0,088
-576,992	108,160	0,018	0,016
-575,977	257,559	0,045	-0,057
-574,963	619,208	0,007	-0,012
-573,948	800,000	0,043	0,139
-572,934	-31,211	-0,086	0,035
-571,919	410,972	-0,058	-0,091
-570,904	800,000	0,018	-0,049
-569,890	-132,751	0,044	-0,004
-568,875	-4,044	-0,055	-0,028
-567,861	-188,622	-0,066	-0,001
-566,846	-200,000	-0,001	0,144
-565,831	800,000	-0,069	0,188
-564,817	-37,254	0,061	0,024
-563,802	-200,000	-0,025	-0,114
-562,788	-200,000	0,032	0,114
-561,773	800,000	-0,039	-0,093
-560,758	-18,684	0,098	0,044
-559,744	800,000	-0,033	0,068
-558,729	61,689	-0,095	-0,069
-557,715	682,166	-0,028	-0,053
-556,700	673,416	0,052	-0,099
-555,685	101,198	-0,116	0,098
-554,671	-144,818	0,072	-0,005
-553,656	-66,142	0,120	0,035
-552,642	800,000	0,062	0,136
-551,627	-200,000	-0,021	0,096
-550,612	-146,541	0,101	-0,006
-549,598	325,961	0,063	0,089
-548,583	-200,000	-0,063	0,253
-547,569	-200,000	-0,008	0,027
-546,554	209,793	-0,094	-0,108
-545,539	369,887	-0,069	0,102
-544,525	-200,000	0,013	-0,117
-543,510	152,690	-0,068	-0,068
-542,496	166,549	-0,013	-0,013
-541,481	-200,000	0,035	-0,148
-540,466	800,000	0,030	0,090
-539,452	385,287	0,022	-0,034
-538,437	-132,223	0,098	0,009
-537,423	-200,000	-0,003	-0,153
-536,408	800,000	-0,055	-0,129
-535,393	216,151	-0,199	0,231
-534,379	-77,924	0,065	0,016
-533,364	-200,000	-0,008	-0,132
-532,350	-78,585	0,196	-0,048
-531,335	97,763	0,063	0,053
-530,321	-200,000	-0,007	0,064
-529,306	99,103	0,027	0,023
-528,291	-200,000	-0,014	-0,066
-527,277	-200,000	-0,002	-0,022
-526,262	-37,042	-0,088	0,034
-525,248	-106,504	0,088	-0,014
-524,233	374,617	-0,108	-0,161
-523,218	134,080	-0,071	-0,068
-522,204	-121,620	-0,066	-0,008
-521,189	-200,000	0,036	-0,173
-520,175	-200,000	-0,009	-0,064
-519,160	511,558	-0,118	-0,201
-518,145	800,000	0,029	0,072
-517,131	47,184	-0,136	-0,092
-516,116	698,587	0,027	-0,052
-515,102	-200,000	0,001	-0,139
-514,087	-114,402	-0,102	0,014
-513,072	-200,000	0,007	0,043
-512,058	-200,000	0,007	-0,111
-511,043	103,558	-0,043	-0,037
-510,029	-30,149	-0,076	0,031
-509,014	-78,808	0,223	-0,055
-507,999	-200,000	0,010	0,114
-506,985	244,117	0,057	-0,070
-505,970	-10,149	-0,055	0,026
-504,956	800,000	-0,021	-0,054
-503,941	205,706	0,086	-0,097
-502,926	-200,000	0,039	-0,132
-501,912	-72,898	-0,065	0,017
-500,897	38,451	0,058	0,037
-499,883	-114,673	0,073	0,010
-498,868	47,594	-0,042	0,028
-497,853	-155,069	0,167	-0,008
-496,839	-200,000	0,017	-0,091
-495,824	800,000	0,061	0,160
-494,810	800,000	-0,008	0,025
-493,795	99,617	-0,162	0,137
-492,781	618,067	-0,054	0,099
-491,766	73,522	0,069	-0,052
-490,751	218,939	0,049	-0,057
-489,737	582,146	0,049	0,088
-488,722	-36,368	0,035	0,014
-487,708	-200,000	0,001	-0,048
-486,693	175,230	-0,058	0,061
-485,678	800,000	0,031	-0,082
-484,664	696,793	0,015	-0,029
-483,649	-67,067	-0,082	-0,023
-482,635	589,434	0,052	-0,095
-481,620	45,132	0,123	0,083
-480,605	800,000	0,032	0,091
-479,591	84,488	0,121	-0,096
-478,576	-51,978	-0,176	-0,059
-477,562	174,086	0,094	-0,099
-476,547	-75,600	-0,090	0,023
-475,532	-200,000	0,017	-0,111
-474,518	800,000	-0,050	0,116
-473,503	-200,000	0,021	0,125
-472,489	61,990	-0,061	0,044
-471,474	378,671	-0,070	-0,104
-470,459	-200,000	-0,020	-0,168
-469,445	98,832	0,123	-0,103
-468,430	106,494	0,076	0,066
-467,416	252,700	-0,071	0,088
-466,401	-132,513	0,193	-0,018
-465,386	82,126	-0,070	0,055
-464,372	76,295	-0,166	0,128
-463,357	-82,688	-0,072	0,017
-462,343	250,444	-0,108	0,134
-461,328	153,146	0,054	-0,054
-460,313	70,466	0,098	-0,074
-459,299	321,207	0,060	0,083
-458,284	380,534	0,100	0,149
-457,270	-58,696	0,146	-0,046
-456,255	-200,000	-0,005	-0,017
-455,241	23,925	-0,086	-0,051
-454,226	37,640	0,057	-0,037
-453,211	14,712	0,019	-0,011
-452,197	-200,000	-0,006	-0,092
-451,182	-98,807	0,183	-0,034
-450,168	-44,603	-0,081	0,029
-449,153	800,000	0,025	-0,062
-448,138	800,000	0,044	-0,092
-447,124	4,718	0,117	-0,062
-446,109	-200,000	0,030	0,104
-445,095	145,848	-0,052	-0,051
-444,080	800,000	0,053	0,110
-443,065	228,606	-0,057	-0,067
-442,051	251,622	-0,055	0,068
-441,036	800,000	-0,063	-0,128
-440,022	800,000	-0,036	0,077
-439,007	183,446	0,053	-0,057
-437,992	-200,000	0,027	0,124
-436,978	-200,000	-0,001	-0,052
-435,963	28,743	-0,108	0,066
-434,949	397,618	0,064	-0,098
-433,934	-82,639	-0,077	0,018
-432,919	-141,290	-0,131	0,010
-431,905	-73,225	0,110	-0,029
-430,890	103,931	0,118	-0,101
-429,876	-200,000	0,000	-0,018
-428,861	-20,572	-0,160	-0,071
-427,846	800,000	0,022	-0,053
-426,832	43,599	0,038	0,025
-425,817	-35,168	-0,049	0,019
-424,803	83,914	-0,067	-0,053
-423,788	-58,973	0,031	-0,010
-422,773	-200,000	0,032	0,129
-421,759	-123,112	0,148	-0,017
-420,744	-0,061	-0,104	0,053
-419,730	-12,105	-0,080	-0,038
-418,715	131,271	-0,081	-0,076
-417,701	-200,000	-0,003	-0,074
-416,686	-53,549	0,068	0,022
-415,671	-200,000	-0,019	0,106
-414,657	-200,000	0,006	0,090
-413,642	800,000	-0,027	-0,065
-412,628	-200,000	0,012	-0,043
-411,613	-87,013	-0,080	0,018
-410,598	-200,000	-0,014	-0,083
-409,584	-200,000	-0,011	0,059
-408,569	-169,865	0,090	0,002
-407,555	-200,000	0,029	0,105
-406,540	-200,000	-0,019	0,104
-405,525	-25,966	0,096	-0,041
-404,511	-200,000	0,004	-0,072
-403,496	-148,012	0,035	-0,002
-402,482	-16,065	0,108	-0,050
-401,467	166,749	0,056	-0,058
-400,452	758,532	0,098	0,193
-399,438	-74,619	0,026	-0,007
-398,423	-200,000	-0,050	0,164
-397,409	800,000	0,035	-0,099
-396,394	661,085	0,025	0,046
-395,379	-3,248	-0,030	-0,015
-394,365	800,000	-0,028	-0,063
-393,350	345,073	0,094	-0,134
-392,336	-109,599	-0,086	0,013
-391,321	800,000	-0,026	-0,077
-390,306	686,129	0,029	-0,055
-389,292	232,428	0,087	0,104
-388,277	800,000	0,012	0,036
-387,263	-200,000	0,006	0,051
-386,248	800,000	-0,020	0,060
-385,233	208,400	0,085	-0,096
-384,219	4,904	0,033	-0,018
-383,204	-200,000	-0,018	0,122
-382,190	800,000	-0,093	-0,196
-381,175	-200,000	0,003	-0,084
-380,160	-30,212	0,122	0,050
-379,146	800,000	-0,050	0,134
-378,131	380,931	-0,053	0,079
-377,117	800,000	-0,105	-0,236
-376,102	-200,000	-0,017	0,113
-375,088	800,000	0,028	0,077
-374,073	-200,000	0,006	-0,038
-373,058	-200,000	-0,019	0,156
-372,044	800,000	-0,005	-0,013
-371,029	-200,000	-0,006	0,083
-370,015	-200,000	0,017	0,064
-369,000	-185,790	0,129	0,001
-367,985	312,790	-0,091	0,125
-366,971	88,591	0,059	0,048
-365,956	-200,000	0,002	0,019
-364,942	-112,416	0,080	0,012
-363,927	-59,464	0,133	0,041
-362,912	-200,000	-0,005	0,058
-361,898	20,068	0,144	-0,084
-360,883	172,010	-0,027	-0,029
-359,869	-164,080	0,083	0,003
-358,854	-76,470	-0,103	0,026
-357,839	-200,000	-0,009	0,108
-356,825	-200,000	-0,006	0,055
-355,810	-174,261	-0,070	0,001
-354,796	-200,000	-0,026	-0,164
-353,781	33,008	-0,076	0,048
-352,766	-91,423	0,039	-0,008
-351,752	314,014	0,031	-0,042
-350,737	-200,000	-0,030	0,268
-349,723	-101,270	-0,097	0,017
-348,708	9,619	-0,186	0,102
-347,693	210,500	0,030	0,034
-346,679	99,629	-0,096	-0,081
-345,664	-200,000	0,022	-0,159
-344,650	-129,142	0,036	0,004
-343,635	-42,031	0,116	0,043
-342,620	91,694	0,100	0,082
-341,606	800,000	-0,014	0,031
-340,591	-200,000	0,008	-0,044
-339,577	51,215	-0,068	0,047
-338,562	135,153	-0,052	0,049
-337,548	-28,513	-0,024	-0,010
-336,533	201,526	0,070	0,078
-335,518	800,000	0,027	0,070
-334,504	-93,311	-0,042	-0,008
-333,489	-61,022	0,190	-0,058
-332,475	-200,000	0,008	-0,062
-331,460	8,052	-0,056	-0,030
-330,445	-75,984	0,025	0,006
-329,431	144,451	-0,088	-0,085
-328,416	572,989	0,073	0,130
-327,402	-60,298	-0,065	0,020
-326,387	515,100	0,073	0,124
-325,372	-96,449	-0,124	-0,024
-324,358	-113,612	-0,118	-0,016
-323,343	763,360	0,027	-0,053
-322,329	117,540	0,058	0,052
-321,314	267,134	0,031	0,040
-320,299	800,000	-0,022	-0,062
-319,285	1,788	0,137	-0,071
-318,270	-57,975	-0,033	0,010
-317,256	156,778	-0,047	-0,047
-316,241	800,000	0,031	-0,081
-315,226	549,733	-0,038	-0,066
-314,212	800,000	0,025	0,067
-313,197	56,778	0,093	0,066
-312,183	2,029	0,110	-0,057
-311,168	800,000	-0,029	-0,072
-310,153	800,000	-0,022	0,046
-309,139	368,303	0,051	-0,075
-308,124	-200,000	-0,024	0,205
-307,110	398,285	-0,030	0,045
-306,095	-44,237	0,038	-0,014
-305,080	800,000	0,023	-0,063
-304,066	-200,000	0,000	-0,077
-303,051	-200,000	0,034	-0,121
-302,037	65,039	-0,059	0,043
-301,022	-85,243	0,042	0,009
-300,008	207,471	0,032	-0,036
-298,993	53,008	-0,163	-0,112
-297,978	-55,914	-0,165	0,053
-296,964	746,117	-0,058	0,114
-295,949	150,209	0,084	-0,083
-294,935	8,662	-0,147	-0,080
-293,920	233,374	0,023	0,028
-292,905	800,000	-0,061	0,128
-291,891	13,725	0,043	-0,024
-290,876	800,000	0,043	0,116
-289,862	98,090	0,037	0,030
-288,847	800,000	0,025	-0,071
-287,832	441,052	-0,050	-0,079
-286,818	-200,000	0,003	0,181
-285,803	800,000	-0,040	-0,093
-284,789	800,000	-0,042	0,090
-283,774	-53,480	0,204	-0,067
-282,759	-200,000	0,004	0,041
-281,745	183,179	-0,064	-0,069
-280,730	-200,000	0,010	-0,192
-279,716	481,867	0,071	-0,117
-278,701	283,567	-0,045	-0,058
-277,686	177,737	0,053	-0,056
-276,672	525,744	0,042	-0,072
-275,657	-42,663	-0,066	-0,024
-274,643	800,000	0,016	-0,040
-273,628	800,000	-0,044	-0,093
-272,613	-188,162	-0,064	0,001
-271,599	149,207	0,019	0,019
-270,584	-200,000	-0,011	-0,110
-269,570	800,000	-0,013	0,032
-268,555	233,598	-0,029	0,034
-267,540	534,970	-0,029	0,050
-266,526	115,389	0,143	0,127
-265,511	701,692	0,091	0,175
-264,497	19,898	0,061	0,035
-263,482	170,131	-0,076	-0,079
-262,467	0,526	-0,071	0,037
-261,453	-81,643	-0,152	0,036
-260,438	-200,000	0,021	0,076
-259,424	52,248	-0,078	-0,054
-258,409	-77,251	-0,113	-0,028
-257,395	250,102	0,080	-0,098
-256,380	351,890	0,067	0,097
-255,365	53,952	0,045	0,031
-254,351	0,366	-0,036	0,018
-253,336	-58,007	-0,133	0,042
-252,322	258,391	-0,092	-0,115
-251,307	412,011	0,051	0,078
-250,292	-66,454	-0,095	0,027
-249,278	365,704	0,073	-0,107
-248,263	800,000	0,046	0,119
-247,249	-145,197	0,006	-0,000
-246,234	800,000	0,018	-0,044
-245,219	-84,490	-0,046	0,010
-244,205	185,763	-0,056	-0,060
-243,190	-52,549	0,073	0,024
-242,176	-45,715	0,083	-0,029
-241,161	-96,023	-0,056	-0,011
-240,146	-1,509	-0,152	-0,077
-239,132	170,613	0,054	0,056
-238,117	667,008	-0,023	-0,043
-237,103	-200,000	-0,003	-0,086
-236,088	110,604	0,069	0,060
-235,073	-126,673	0,100	-0,011
-234,059	115,348	-0,014	0,012
-233,044	3,899	0,065	0,034
-232,030	-78,091	-0,035	-0,009
-231,015	32,557	-0,090	-0,056
-230,000	-8,279	-0,096	-0,046
-228,986	-163,335	-0,079	0,003
-227,971	56,351	0,092	-0,064
-226,957	-200,000	0,058	-0,189
-225,942	-113,470	-0,061	0,008
-224,927	-31,607	0,076	-0,031
-223,913	-67,560	-0,163	0,046
-222,898	172,592	-0,042	0,044
-221,884	-74,073	-0,073	-0,019
-220,869	-120,265	0,176	0,021
-219,855	330,860	0,022	0,031
-218,840	226,153	0,099	0,116
-217,825	695,705	0,014	0,027
-216,811	262,526	0,031	-0,039
-215,796	-200,000	-0,013	-0,060
-214,782	81,361	-0,041	0,032
-213,767	140,677	-0,068	-0,064
-212,752	-41,715	-0,018	-0,007
-211,738	528,495	0,027	0,046
-210,723	332,074	-0,054	0,075
-209,709	-200,000	0,013	-0,084
-208,694	315,678	0,045	0,061
-207,679	-73,205	-0,061	-0,016
-206,665	800,000	0,024	-0,062
-205,650	97,768	0,055	0,046
-204,636	-4,837	0,089	0,044
-203,621	-126,875	-0,053	0,006
-202,606	37,571	0,115	-0,074
-201,592	-200,000	0,005	0,070
-200,577	80,044	-0,059	-0,045
-199,563	181,304	0,058	-0,061
-198,548	188,243	-0,011	0,012
-197,533	109,580	0,033	-0,028
-196,519	-143,196	-0,080	0,005
-195,504	-200,000	-0,031	-0,116
-194,490	-38,005	0,100	-0,038
-193,475	-71,072	-0,158	-0,042
-192,460	-200,000	0,001	0,045
-191,446	800,000	0,022	-0,069
-190,431	-37,288	-0,160	-0,061
-189,417	800,000	0,066	0,196
-188,402	-200,000	0,009	-0,075
-187,387	800,000	-0,011	-0,023
-186,373	718,942	-0,076	-0,145
-185,358	-49,455	0,029	0,010
-184,344	800,000	0,025	0,063
-183,329	79,387	0,091	-0,070
-182,315	292,323	-0,069	-0,091
-181,300	-12,754	-0,069	0,032
-180,285	461,736	0,057	-0,092
-179,271	403,099	-0,054	-0,082
-178,256	800,000	-0,011	0,024
-177,242	3,270	-0,090	0,047
-176,227	336,675	0,045	-0,064
-175,212	61,116	0,121	0,086
-174,198	225,084	0,025	0,029
-173,183	725,996	-0,048	-0,093
-172,169	-200,000	0,002	-0,041
-171,154	800,000	0,045	0,121
-170,139	-200,000	0,012	0,119
-169,125	121,446	0,084	-0,076
-168,110	-200,000	0,030	0,212
-167,096	491,113	-0,085	0,141
-166,081	128,415	-0,070	-0,064
-165,066	800,000	0,055	-0,156
-164,052	800,000	-0,070	-0,143
-163,037	800,000	0,027	0,057
-162,023	30,391	0,040	0,024
-161,008	134,215	-0,042	0,039
-159,993	459,155	0,049	0,078
-158,979	-200,000	-0,005	0,039
-157,964	-110,789	-0,023	0,003
-156,950	-56,073	-0,153	-0,049
-155,935	-150,165	0,094	0,005
-154,920	-25,856	0,123	0,052
-153,906	-131,954	0,131	-0,012
-152,891	-117,265	0,148	-0,019
-151,877	-200,000	0,019	-0,108
-150,862	592,555	-0,062	-0,110
-149,847	-135,283	0,045	-0,004
-148,833	-138,302	-0,109	0,009
-147,818	-8,849	0,099	0,047
-146,804	-109,291	0,156	0,023
-145,789	-166,841	0,095	-0,003
-144,775	180,129	-0,065	-0,069
-143,760	-81,898	-0,112	-0,026
-142,745	354,990	0,102	0,147
-141,731	-36,903	-0,091	-0,035
-140,716	-42,298	0,119	-0,043
-139,702	-200,000	-0,013	0,166
-138,687	-200,000	0,012	0,040
-137,672	-200,000	0,004	0,070
-136,658	-80,164	-0,058	0,014
-135,643	800,000	0,062	-0,151
-134,629	107,453	0,126	-0,108
-133,614	284,964	-0,064	0,084
-132,599	82,279	0,060	0,046
-131,585	-96,401	0,126	0,024
-130,570	83,396	-0,112	0,087
-129,556	-200,000	0,001	-0,086
-128,541	14,114	-0,107	0,060
-127,526	-30,328	0,120	0,049
-126,512	311,919	-0,017	-0,023
-125,497	800,000	0,018	0,041
-124,483	-200,000	0,005	-0,061
-123,468	168,658	0,065	-0,067
-122,453	-47,312	-0,114	0,040
-121,439	116,719	-0,049	-0,043
-120,424	-42,253	0,106	0,039
-119,410	79,509	0,052	0,040
-118,395	451,620	0,044	0,070
