DTS Sentinel unit serial number:	SN410029Multiplexer serial number:	ORYXHardware model number:	OX2-SRSoftware version number:	ORYX F/W v4,00 Oryx Data Collector v3.7.2.0data status	okinstallation	B6 Nyhavnadifferential loss correction	single-endedforward channel	channel 2reverse channel	N/Adate	2023/12/10time	22:05:08forward acquisition time	300,00reverse acquisition time	0,00gamma	499,1914k internal	0,3123k external	0,3123temperature offset calibration	1,0000default loss term (dB/km)	0,3820temperature slope calibration	1,0000multiplexer offset coefficient	1,0000multiplexer slope coefficient	1,0000fibre end	0,00T internal ref (°C)	22,31T ext. ref 1 (°C)	6,11T ext. ref 2 (°C)	6,12length (m)	temperature (°C)	Stokes	anti-Stokes-744,400	374,385	0,070	-0,107
-743,385	-88,300	-0,318	0,070
-742,371	-110,404	0,098	-0,015
-741,356	-114,707	-0,185	0,026
-740,342	-39,965	0,125	-0,048
-739,327	-94,979	-0,304	0,061
-738,312	56,117	-0,065	-0,047
-737,298	63,866	-0,118	0,088
-736,283	800,000	0,088	-0,208
-735,269	-52,587	-0,111	0,038
-734,254	498,462	0,032	-0,054
-733,239	-101,389	-0,384	-0,069
-732,225	174,132	0,030	-0,032
-731,210	800,000	0,021	0,045
-730,196	-54,760	-0,108	-0,036
-729,181	-116,236	0,079	0,011
-728,167	-200,000	0,025	0,105
-727,152	230,347	0,076	-0,093
-726,137	-41,979	-0,197	0,075
-725,123	-13,354	-0,043	-0,021
-724,108	285,582	-0,078	-0,104
-723,094	-200,000	-0,016	-0,053
-722,079	-200,000	-0,050	-0,208
-721,064	-8,927	0,053	-0,026
-720,050	-20,757	-0,107	-0,049
-719,035	-200,000	-0,030	-0,132
-718,021	15,481	0,023	0,013
-717,006	-57,932	-0,020	0,006
-715,991	-57,915	0,056	0,018
-714,977	-200,000	0,006	-0,024
-713,962	800,000	-0,055	-0,133
-712,948	800,000	0,040	0,104
-711,933	-127,357	-0,171	-0,018
-710,918	56,660	0,096	-0,070
-709,904	-200,000	-0,006	-0,089
-708,889	285,596	-0,054	-0,073
-707,875	51,985	-0,052	0,037
-706,860	-200,000	-0,001	0,116
-705,845	109,318	0,073	0,065
-704,831	112,591	-0,087	0,078
-703,816	-200,000	0,014	0,094
-702,802	-200,000	-0,006	0,110
-701,787	20,639	-0,152	-0,092
-700,772	-99,951	-0,067	0,012
-699,758	-52,872	0,031	0,010
-698,743	-98,921	0,067	-0,013
-697,729	23,564	-0,111	-0,068
-696,714	-140,058	-0,140	-0,011
-695,699	-200,000	0,009	0,045
-694,685	-132,617	-0,067	-0,006
-693,670	-200,000	0,027	-0,159
-692,656	43,287	-0,049	0,033
-691,641	-200,000	-0,007	0,101
-690,627	-83,961	0,130	0,031
-689,612	-92,833	-0,068	0,014
-688,597	-9,353	0,074	-0,036
-687,583	372,360	-0,047	-0,072
-686,568	800,000	-0,027	0,061
-685,554	800,000	-0,017	0,050
-684,539	-200,000	0,003	-0,019
-683,524	-200,000	0,016	0,086
-682,510	391,664	0,077	0,119
-681,495	228,307	-0,071	0,086
-680,481	800,000	0,049	-0,137
-679,466	758,395	-0,092	-0,186
-678,451	-200,000	-0,005	0,030
-677,437	-200,000	-0,022	0,186
-676,422	800,000	-0,072	0,164
-675,408	-103,205	0,090	-0,016
-674,393	153,030	-0,106	0,108
-673,378	147,946	-0,089	-0,089
-672,364	-126,861	-0,113	-0,012
-671,349	4,350	0,042	-0,023
-670,335	184,386	-0,063	0,070
-669,320	-200,000	0,001	-0,087
-668,305	-56,591	0,081	-0,026
-667,291	-60,300	0,079	-0,025
-666,276	594,109	0,054	-0,099
-665,262	144,896	-0,100	-0,100
-664,247	800,000	0,046	-0,107
-663,232	55,902	-0,066	0,048
-662,218	145,713	0,093	-0,093
-661,203	800,000	0,025	0,080
-660,189	-119,952	0,015	-0,002
-659,174	0,662	-0,100	-0,053
-658,159	175,556	0,073	-0,079
-657,145	91,880	-0,102	-0,085
-656,130	-67,594	0,046	-0,013
-655,116	-200,000	-0,005	0,114
-654,101	261,711	0,065	0,084
-653,086	-200,000	0,004	-0,031
-652,072	-200,000	-0,010	0,043
-651,057	-133,075	-0,102	-0,010
-650,043	-200,000	-0,006	-0,128
-649,028	-200,000	0,006	-0,102
-648,014	101,286	0,077	-0,066
-646,999	-200,000	-0,001	-0,049
-645,984	-146,187	0,022	-0,001
-644,970	-177,231	-0,120	0,002
-643,955	3,923	0,080	-0,044
-642,941	-180,489	-0,202	-0,003
-641,926	79,362	0,054	-0,043
-640,911	8,219	0,067	0,037
-639,897	17,673	-0,234	0,138
-638,882	306,229	-0,038	0,052
-637,868	179,424	0,092	-0,100
-636,853	177,322	-0,068	-0,073
-635,838	17,628	0,055	-0,033
-634,824	-161,168	0,142	0,005
-633,809	23,689	-0,044	-0,027
-632,795	539,683	-0,012	0,022
-631,780	-200,000	0,000	0,065
-630,765	-86,583	-0,076	0,017
-629,751	313,828	-0,033	-0,047
-628,736	800,000	0,057	-0,177
-627,722	-8,277	0,118	0,059
-626,707	608,892	-0,070	0,129
-625,692	342,793	0,027	-0,040
-624,678	158,147	-0,100	0,103
-623,663	322,102	0,020	0,028
-622,649	82,298	-0,055	0,045
-621,634	-147,387	-0,074	0,005
-620,619	-200,000	0,008	-0,044
-619,605	-200,000	-0,001	-0,072
-618,590	0,024	0,062	-0,032
-617,576	-121,794	0,030	-0,004
-616,561	115,721	0,037	0,033
-615,546	800,000	0,035	-0,112
-614,532	-20,284	-0,119	0,054
-613,517	406,189	0,043	0,067
-612,503	-78,948	-0,144	-0,036
-611,488	-17,412	-0,054	0,025
-610,474	-200,000	0,000	-0,129
-609,459	85,540	0,085	0,069
-608,444	457,237	-0,027	-0,044
-607,430	-74,889	-0,095	0,025
-606,415	-102,400	0,025	-0,004
-605,401	-121,575	-0,097	-0,012
-604,386	37,481	0,091	0,060
-603,371	336,390	-0,020	0,029
-602,357	800,000	-0,012	-0,030
-601,342	35,904	-0,080	-0,052
-600,328	-117,236	-0,067	-0,009
-599,313	-38,281	0,041	0,016
-598,298	225,776	-0,078	0,094
-597,284	800,000	-0,034	0,078
-596,269	-82,645	-0,037	-0,009
-595,255	-200,000	-0,010	0,048
-594,240	-27,598	0,092	-0,040
-593,225	-146,942	-0,080	0,005
-592,211	760,494	-0,006	0,012
-591,196	800,000	-0,015	0,044
-590,182	18,508	0,018	-0,010
-589,167	86,273	-0,069	0,056
-588,152	74,442	-0,079	-0,061
-587,138	-43,635	0,029	0,011
-586,123	572,239	-0,089	-0,161
-585,109	37,361	0,067	-0,044
-584,094	-150,342	-0,083	-0,005
-583,079	-109,910	0,163	-0,025
-582,065	-200,000	0,004	-0,074
-581,050	108,336	-0,071	-0,063
-580,036	-200,000	0,010	-0,075
-579,021	-200,000	0,027	-0,096
-578,006	-12,223	-0,061	0,029
-576,992	800,000	-0,025	-0,062
-575,977	364,753	-0,037	-0,055
-574,963	800,000	0,031	0,079
-573,948	64,221	-0,100	-0,075
-572,934	781,739	-0,060	0,123
-571,919	755,067	-0,037	0,074
-570,904	250,096	-0,070	0,088
-569,890	274,578	-0,026	-0,034
-568,875	800,000	-0,044	-0,141
-567,861	11,447	-0,102	-0,058
-566,846	800,000	0,061	0,127
-565,831	-175,175	-0,059	0,001
-564,817	-123,809	-0,017	0,002
-563,802	-96,890	-0,205	0,040
-562,788	-200,000	0,003	0,082
-561,773	-200,000	0,031	-0,152
-560,758	56,069	0,026	0,019
-559,744	-107,664	0,099	-0,016
-558,729	175,129	-0,022	-0,023
-557,715	-200,000	-0,000	-0,061
-556,700	-200,000	-0,034	-0,123
-555,685	165,195	-0,114	-0,119
-554,671	-68,937	0,072	0,020
-553,656	-136,309	0,056	-0,005
-552,642	17,984	0,095	0,056
-551,627	800,000	-0,046	0,127
-550,612	232,791	0,083	-0,101
-549,598	800,000	0,021	0,059
-548,583	141,915	-0,062	0,061
-547,569	-2,016	0,008	-0,004
-546,554	-200,000	0,028	0,114
-545,539	-200,000	0,022	0,098
-544,525	800,000	-0,096	0,210
-543,510	-73,884	0,087	-0,023
-542,496	3,634	-0,080	-0,043
-541,481	-200,000	-0,035	-0,249
-540,466	-75,935	-0,200	-0,052
-539,452	-200,000	-0,005	0,099
-538,437	-200,000	0,002	-0,054
-537,423	-200,000	0,019	0,084
-536,408	252,674	0,110	-0,139
-535,393	331,470	-0,046	-0,065
-534,379	33,628	-0,130	-0,083
-533,364	59,841	0,088	-0,064
-532,350	141,799	0,048	0,047
-531,335	-200,000	-0,013	0,088
-530,321	586,529	0,034	0,062
-529,306	4,937	-0,166	0,090
-528,291	26,143	-0,161	-0,099
-527,277	2,324	-0,086	-0,046
-526,262	20,842	-0,175	-0,104
-525,248	212,037	0,109	-0,128
-524,233	-200,000	-0,001	0,112
-523,218	564,888	-0,014	-0,026
-522,204	-200,000	0,037	0,136
-521,189	-200,000	-0,001	-0,027
-520,175	-58,373	-0,109	-0,035
-519,160	-200,000	0,010	0,088
-518,145	-200,000	0,040	-0,136
-517,131	-166,599	0,187	-0,006
-516,116	800,000	-0,052	0,116
-515,102	796,357	0,021	-0,043
-514,087	236,998	-0,037	0,046
-513,072	-55,707	-0,056	0,018
-512,058	-110,742	-0,079	0,012
-511,043	-62,320	-0,060	0,018
-510,029	750,834	-0,044	-0,088
-509,014	-200,000	0,031	0,110
-507,999	800,000	-0,010	0,029
-506,985	-117,086	-0,110	-0,015
-505,970	-79,526	0,023	-0,006
-504,956	800,000	-0,024	-0,071
-503,941	-46,096	0,136	-0,049
-502,926	122,010	-0,041	0,038
-501,912	38,261	0,083	0,055
-500,897	-78,556	-0,091	0,023
-499,883	39,108	-0,043	0,029
-498,868	-200,000	0,000	0,046
-497,853	763,629	-0,065	0,131
-496,839	-200,000	-0,014	0,067
-495,824	-108,584	0,127	0,020
-494,810	155,401	0,067	-0,068
-493,795	401,879	0,054	0,084
-492,781	202,529	-0,125	-0,143
-491,766	-1,966	0,087	0,045
-490,751	-111,381	-0,095	0,014
-489,737	-85,621	0,107	0,024
-488,722	-200,000	0,004	0,038
-487,708	-200,000	0,017	0,074
-486,693	-92,960	0,098	-0,020
-485,678	52,510	0,016	-0,011
-484,664	-156,453	0,127	0,006
-483,649	-200,000	-0,018	-0,118
-482,635	328,688	0,080	0,113
-481,620	350,615	0,038	0,056
-480,605	74,732	0,132	0,103
-479,591	264,456	0,044	-0,057
-478,576	29,429	0,139	-0,087
-477,562	-75,565	-0,130	0,034
-476,547	-183,845	0,080	0,001
-475,532	800,000	0,023	-0,068
-474,518	-200,000	-0,028	-0,120
-473,503	-200,000	0,014	0,142
-472,489	-40,376	0,136	0,052
-471,474	23,666	0,081	0,049
-470,459	-108,496	-0,066	-0,010
-469,445	-200,000	-0,001	-0,035
-468,430	-103,673	-0,041	0,007
-467,416	-10,262	0,121	-0,059
-466,401	800,000	0,027	0,057
-465,386	62,113	0,131	-0,096
-464,372	51,402	0,064	0,045
-463,357	-34,989	-0,138	-0,055
-462,343	-200,000	0,024	-0,111
-461,328	-53,261	0,130	0,044
-460,313	-200,000	-0,105	-0,000
-459,299	-102,220	0,199	0,035
-458,284	229,405	-0,111	0,134
-457,270	239,445	-0,016	-0,020
-456,255	156,799	-0,026	-0,026
-455,241	28,424	-0,054	-0,033
-454,226	425,275	0,067	0,107
-453,211	-53,521	0,029	-0,010
-452,197	-87,603	0,066	-0,015
-451,182	-145,161	-0,048	-0,003
-450,168	319,448	0,052	-0,073
-449,153	800,000	-0,058	-0,139
-448,138	-10,477	-0,082	0,040
-447,124	28,161	-0,042	0,026
-446,109	173,147	-0,078	0,083
-445,095	219,102	-0,101	-0,119
-444,080	397,966	0,099	0,152
-443,065	-8,924	0,045	-0,022
-442,051	800,000	-0,048	-0,104
-441,036	-73,038	-0,080	-0,022
-440,022	800,000	0,036	-0,108
-439,007	151,339	0,090	-0,091
-437,992	800,000	-0,063	0,159
-436,978	-93,205	0,035	0,007
-435,963	-78,997	0,145	-0,036
-434,949	18,031	0,023	0,013
-433,934	312,266	-0,080	0,111
-432,919	302,324	0,077	-0,105
-431,905	-45,224	-0,119	-0,043
-430,890	117,459	0,010	0,009
-429,876	130,367	0,114	0,108
-428,861	165,228	0,134	-0,139
-427,846	46,485	-0,047	0,032
-426,832	-200,000	-0,024	0,089
-425,817	-65,559	-0,010	0,003
-424,803	800,000	0,018	0,044
-423,788	168,004	0,061	0,064
-422,773	-107,146	0,068	0,011
-421,759	-36,248	0,158	0,062
-420,744	-113,123	-0,106	0,015
-419,730	256,254	0,042	-0,053
-418,715	286,005	0,131	-0,174
-417,701	203,714	-0,010	-0,012
-416,686	800,000	0,013	-0,028
-415,671	725,475	0,023	0,045
-414,657	53,356	0,095	0,067
-413,642	800,000	-0,019	-0,057
-412,628	32,099	-0,105	-0,067
-411,613	184,115	-0,026	-0,028
-410,598	-200,000	0,003	-0,058
-409,584	-72,237	0,108	-0,029
-408,569	800,000	0,029	-0,073
-407,555	800,000	0,040	-0,106
-406,540	78,275	0,070	-0,055
-405,525	69,603	-0,026	-0,020
-404,511	12,036	0,045	0,026
-403,496	800,000	-0,048	-0,115
-402,482	800,000	-0,027	0,068
-401,467	99,692	-0,058	0,050
-400,452	-63,056	-0,072	-0,022
-399,438	-14,263	-0,047	-0,022
-398,423	-200,000	0,025	-0,177
-397,409	-200,000	-0,022	-0,107
-396,394	75,281	-0,012	-0,009
-395,379	-200,000	0,197	-0,000
-394,365	432,261	0,037	-0,060
-393,350	-92,324	0,086	0,018
-392,336	-200,000	0,008	-0,093
-391,321	-148,042	0,102	0,006
-390,306	268,579	-0,126	-0,162
-389,292	425,646	-0,009	0,015
-388,277	-200,000	0,003	-0,135
-387,263	136,724	0,045	0,043
-386,248	-200,000	0,005	-0,043
-385,233	224,417	-0,008	-0,009
-384,219	-86,276	-0,069	0,015
-383,204	26,668	-0,049	-0,030
-382,190	230,815	0,016	-0,020
-381,175	-93,041	0,076	-0,015
-380,160	-200,000	-0,034	0,113
-379,146	-76,852	0,191	0,049
-378,131	-149,322	-0,087	-0,005
-377,117	243,873	0,058	0,071
-376,102	77,563	-0,023	-0,018
-375,088	-200,000	0,006	-0,063
-374,073	279,333	-0,089	0,117
-373,058	-200,000	0,011	0,093
-372,044	800,000	0,067	0,155
-371,029	7,897	-0,214	0,117
-370,015	-42,525	-0,048	0,018
-369,000	3,076	0,134	0,071
-367,985	-25,114	-0,050	0,022
-366,971	800,000	-0,033	-0,086
-365,956	-102,642	-0,168	0,029
-364,942	172,563	0,004	0,005
-363,927	197,395	0,049	0,055
-362,912	221,566	0,107	-0,126
-361,898	93,169	-0,085	-0,070
-360,883	-200,000	-0,018	-0,078
-359,869	800,000	-0,042	-0,133
-358,854	13,664	0,124	-0,070
-357,839	496,202	-0,017	-0,029
-356,825	-200,000	-0,004	0,147
-355,810	551,936	-0,063	-0,112
-354,796	-200,000	0,000	0,018
-353,781	-142,842	0,185	-0,013
-352,766	419,828	0,034	0,053
-351,752	-91,859	0,176	0,036
-350,737	-200,000	0,012	-0,069
-349,723	-200,000	0,006	0,064
-348,708	-58,192	0,098	-0,031
-347,693	-100,369	0,080	0,014
-346,679	140,717	-0,110	0,107
-345,664	-200,000	-0,064	0,216
-344,650	-79,497	0,037	-0,009
-343,635	-97,638	-0,177	0,033
-342,620	-2,626	0,070	0,036
-341,606	-200,000	0,009	0,057
-340,591	3,047	-0,076	-0,040
-339,577	-42,783	-0,099	-0,037
-338,562	644,301	0,050	-0,093
-337,548	-119,913	-0,049	0,006
-336,533	-200,000	0,049	-0,187
-335,518	-62,653	0,102	0,031
-334,504	87,361	-0,109	0,088
-333,489	566,717	-0,031	0,055
-332,475	-0,504	-0,081	-0,042
-331,460	70,977	0,096	-0,073
-330,445	-200,000	0,003	0,109
-329,431	-200,000	-0,025	0,188
-328,416	90,578	0,063	-0,052
-327,402	143,773	-0,039	0,038
-326,387	800,000	0,006	-0,017
-325,372	33,182	-0,068	0,043
-324,358	-200,000	0,010	-0,057
-323,343	-200,000	0,007	-0,030
-322,329	-115,695	-0,134	-0,018
-321,314	406,643	-0,014	-0,022
-320,299	800,000	0,010	0,029
-319,285	-200,000	0,019	-0,063
-318,270	-200,000	0,025	0,093
-317,256	438,444	-0,009	0,014
-316,241	284,449	0,049	-0,065
-315,226	-167,732	0,166	0,005
-314,212	121,902	0,135	0,124
-313,197	309,539	-0,033	-0,045
-312,183	309,002	0,057	-0,079
-311,168	27,805	-0,111	-0,068
-310,153	-107,407	-0,104	-0,017
-309,139	-200,000	0,005	-0,029
-308,124	-25,677	-0,064	-0,028
-307,110	75,118	0,026	0,020
-306,095	-200,000	-0,014	0,200
-305,080	-92,551	0,131	0,027
-304,066	-50,331	0,146	-0,050
-303,051	311,769	-0,042	0,058
-302,037	-200,000	-0,044	-0,150
-301,022	372,539	0,053	-0,079
-300,008	-106,007	0,114	0,019
-298,993	-200,000	0,021	0,205
-297,978	-200,000	-0,043	0,277
-296,964	-200,000	-0,025	-0,125
-295,949	800,000	0,043	-0,098
-294,935	-86,089	0,116	0,026
-293,920	-174,138	0,057	0,001
-292,905	-200,000	0,017	0,105
-291,891	429,899	0,067	0,106
-290,876	756,534	0,028	0,056
-289,862	339,678	-0,024	0,035
-288,847	-200,000	0,011	-0,120
-287,832	-190,654	-0,029	-0,000
-286,818	-95,395	-0,134	0,026
-285,803	478,236	0,047	0,078
-284,789	-200,000	0,014	0,103
-283,774	-10,575	-0,135	0,065
-282,759	-200,000	0,016	0,051
-281,745	88,432	-0,070	-0,057
-280,730	-28,985	0,065	-0,027
-279,716	108,826	-0,046	0,040
-278,701	-200,000	0,022	0,127
-277,686	-156,167	0,152	0,007
-276,672	-200,000	-0,005	0,051
-275,657	20,226	-0,052	-0,030
-274,643	-1,785	-0,041	-0,021
-273,628	800,000	0,062	-0,145
-272,613	-200,000	-0,014	0,069
-271,599	-67,930	-0,088	0,025
-270,584	411,074	-0,057	0,088
-269,570	-81,472	0,128	-0,031
-268,555	646,451	-0,037	-0,069
-267,540	117,187	0,097	-0,087
-266,526	455,949	-0,099	-0,162
-265,511	185,298	0,119	-0,130
-264,497	-14,056	-0,044	0,021
-263,482	-200,000	-0,040	0,173
-262,467	94,453	-0,143	0,119
-261,453	85,185	0,082	0,065
-260,438	-63,742	0,039	-0,012
-259,424	-200,000	-0,002	-0,025
-258,409	-200,000	-0,007	-0,131
-257,395	-158,041	-0,090	-0,004
-256,380	-125,428	0,171	-0,019
-255,365	180,977	0,056	0,060
-254,351	-106,593	-0,124	-0,020
-253,336	-177,609	0,074	0,001
-252,322	67,708	0,038	-0,029
-251,307	-200,000	-0,005	-0,126
-250,292	25,705	0,130	-0,079
-249,278	90,978	0,039	0,032
-248,263	-21,376	-0,134	-0,060
-247,249	41,552	-0,035	-0,023
-246,234	-19,608	-0,123	0,055
-245,219	-167,997	0,077	-0,002
-244,205	-200,000	-0,034	-0,147
-243,190	-200,000	-0,010	-0,145
-242,176	123,873	-0,136	-0,125
-241,161	34,946	0,070	-0,045
-240,146	324,591	0,046	0,064
-239,132	54,180	-0,049	-0,034
-238,117	-200,000	-0,044	-0,175
-237,103	100,173	-0,024	-0,021
-236,088	800,000	-0,005	0,010
-235,073	4,619	0,089	0,048
-234,059	-6,834	0,067	0,033
-233,044	800,000	-0,049	0,149
-232,030	-200,000	-0,006	-0,104
-231,015	-121,816	-0,124	0,015
-230,000	157,179	-0,056	-0,056
-228,986	-147,184	-0,069	0,004
-227,971	-43,976	0,047	-0,017
-226,957	-107,014	-0,103	-0,017
-225,942	649,618	-0,025	0,047
-224,927	373,488	0,015	0,023
-223,913	-108,929	0,154	0,024
-222,898	-118,678	-0,096	-0,012
-221,884	746,604	-0,027	-0,052
-220,869	800,000	-0,037	0,113
-219,855	-101,054	0,187	0,033
-218,840	-200,000	-0,003	0,016
-217,825	-200,000	0,040	0,155
-216,811	-87,183	-0,089	-0,020
-215,796	370,640	-0,040	0,060
-214,782	341,067	0,108	0,154
-213,767	160,710	0,076	0,077
-212,752	-200,000	-0,012	-0,085
-211,738	110,738	0,092	0,081
-210,723	-111,629	0,085	-0,013
-209,709	-6,938	0,045	-0,022
-208,694	480,141	-0,057	-0,094
-207,679	36,590	0,024	0,016
-206,665	135,571	-0,101	0,096
-205,650	87,361	0,018	-0,015
-204,636	228,577	-0,064	0,076
-203,621	-49,767	-0,135	0,047
-202,606	35,249	0,078	0,050
-201,592	-200,000	0,008	-0,102
-200,577	69,109	-0,105	-0,079
-199,563	-200,000	0,067	0,000
-198,548	-44,140	0,050	0,018
-197,533	357,109	0,033	0,048
-196,519	800,000	0,051	0,104
-195,504	800,000	0,025	0,056
-194,490	292,685	0,034	-0,045
-193,475	-200,000	0,008	0,037
-192,460	-200,000	-0,031	-0,112
-191,446	-22,458	-0,098	-0,043
-190,431	219,355	0,047	0,055
-189,417	800,000	-0,061	-0,150
-188,402	-127,890	-0,134	0,014
-187,387	-200,000	-0,007	0,108
-186,373	310,747	0,049	0,067
-185,358	241,184	0,119	0,145
-184,344	101,387	-0,111	-0,094
-183,329	174,978	-0,097	0,102
-182,315	297,742	0,043	0,058
-181,300	-200,000	-0,002	0,098
-180,285	-51,799	0,062	0,021
-179,271	46,297	-0,062	-0,042
-178,256	-200,000	0,001	-0,033
-177,242	10,038	0,083	0,046
-176,227	46,100	0,107	0,072
-175,212	800,000	0,041	-0,119
-174,198	166,546	-0,033	-0,034
-173,183	-200,000	0,020	-0,082
-172,169	-75,184	-0,058	0,015
-171,154	-119,889	-0,047	-0,006
-170,139	546,682	0,013	-0,023
-169,125	179,419	0,138	0,148
-168,110	-126,218	-0,055	0,006
-167,096	93,108	-0,095	0,078
-166,081	-200,000	-0,018	-0,087
-165,066	-200,000	-0,031	-0,172
-164,052	800,000	-0,016	0,039
-163,037	-200,000	-0,013	0,063
-162,023	-200,000	0,004	-0,019
-161,008	-200,000	-0,003	0,041
-159,993	484,592	-0,046	0,076
-158,979	-104,386	-0,068	0,011
-157,964	6,231	0,016	0,009
-156,950	320,278	-0,041	0,057
-155,935	-53,483	0,048	-0,016
-154,920	98,196	0,067	0,056
-153,906	171,133	0,058	0,060
-152,891	-200,000	-0,007	-0,054
-151,877	-56,731	0,101	-0,032
-150,862	454,407	-0,051	-0,082
-149,847	-122,345	0,073	0,009
-148,833	-33,187	-0,141	-0,057
-147,818	20,787	-0,096	-0,056
-146,804	-200,000	-0,026	0,092
-145,789	24,042	-0,059	0,036
-144,775	-180,843	0,092	-0,001
-143,760	-200,000	0,025	-0,098
-142,745	383,374	-0,049	0,073
-141,731	-74,375	-0,115	-0,030
-140,716	478,423	0,117	0,194
-139,702	-22,451	0,066	0,029
-138,687	108,696	0,077	-0,067
-137,672	225,517	-0,039	0,046
-136,658	800,000	-0,048	0,142
-135,643	112,340	0,069	-0,061
-134,629	-200,000	-0,018	-0,078
-133,614	800,000	0,024	0,065
-132,599	-86,406	-0,037	0,008
-131,585	-102,625	-0,093	-0,016
-130,570	332,287	0,112	-0,158
-129,556	-128,011	0,038	-0,004
-128,541	-200,000	-0,032	0,118
-127,526	-36,854	0,090	-0,035
-126,512	800,000	-0,015	-0,046
-125,497	335,203	0,065	0,092
-124,483	604,765	-0,024	-0,044
-123,468	-11,554	0,112	0,053
-122,453	800,000	-0,009	0,023
-121,439	240,285	-0,053	0,065
-120,424	-200,000	0,004	-0,056
-119,410	-110,588	0,061	0,009
