DTS Sentinel unit serial number:	SN410029Multiplexer serial number:	ORYXHardware model number:	OX2-SRSoftware version number:	ORYX F/W v4,00 Oryx Data Collector v3.7.2.0data status	okinstallation	B6 Nyhavnadifferential loss correction	single-endedforward channel	channel 2reverse channel	N/Adate	2023/12/10time	20:45:08forward acquisition time	300,00reverse acquisition time	0,00gamma	499,1914k internal	0,3122k external	0,3122temperature offset calibration	1,0000default loss term (dB/km)	0,3820temperature slope calibration	1,0000multiplexer offset coefficient	1,0000multiplexer slope coefficient	1,0000fibre end	0,00T internal ref (°C)	22,26T ext. ref 1 (°C)	5,82T ext. ref 2 (°C)	5,84length (m)	temperature (°C)	Stokes	anti-Stokes-744,400	68,383	-0,055	-0,042
-743,385	-171,882	-0,278	0,007
-742,371	-97,962	0,045	-0,009
-741,356	-6,789	-0,292	0,148
-740,342	800,000	0,028	0,066
-739,327	146,069	-0,219	0,219
-738,312	-57,244	0,027	-0,009
-737,298	44,608	-0,270	0,185
-736,283	-200,000	-0,053	-0,218
-735,269	145,315	-0,176	0,176
-734,254	-200,000	-0,000	0,098
-733,239	61,473	-0,361	-0,267
-732,225	-200,000	-0,010	-0,039
-731,210	150,551	-0,047	-0,048
-730,196	352,122	0,027	-0,041
-729,181	-200,000	0,008	0,081
-728,167	-102,616	-0,056	0,010
-727,152	-21,897	-0,102	-0,046
-726,137	800,000	-0,042	-0,113
-725,123	-154,119	-0,113	-0,006
-724,108	27,886	0,030	-0,019
-723,094	145,672	-0,122	-0,122
-722,079	-200,000	-0,035	-0,117
-721,064	800,000	0,029	-0,085
-720,050	-120,313	-0,105	-0,013
-719,035	560,175	-0,061	0,110
-718,021	800,000	-0,043	-0,090
-717,006	74,177	-0,152	-0,119
-715,991	-156,619	-0,053	-0,002
-714,977	-200,000	0,028	-0,111
-713,962	-8,541	0,166	-0,083
-712,948	-200,000	0,016	0,099
-711,933	238,859	0,092	0,114
-710,918	-16,433	-0,128	0,060
-709,904	186,106	0,044	-0,049
-708,889	144,844	-0,088	-0,088
-707,875	132,927	0,009	0,009
-706,860	-113,985	-0,043	0,006
-705,845	-200,000	0,048	-0,167
-704,831	-169,276	0,115	-0,003
-703,816	-200,000	0,004	0,081
-702,802	-200,000	-0,023	-0,102
-701,787	-200,000	-0,025	-0,141
-700,772	29,683	-0,121	-0,077
-699,758	-101,835	-0,151	0,027
-698,743	-5,561	0,047	0,024
-697,729	120,800	-0,100	-0,092
-696,714	-200,000	0,012	-0,084
-695,699	-40,317	0,012	-0,004
-694,685	800,000	-0,028	-0,073
-693,670	-200,000	0,001	-0,031
-692,656	-14,436	0,060	0,029
-691,641	-200,000	-0,013	-0,086
-690,627	-9,281	-0,125	-0,062
-689,612	522,068	0,036	0,062
-688,597	800,000	0,030	-0,089
-687,583	99,225	-0,066	-0,057
-686,568	432,297	-0,048	0,078
-685,554	306,789	-0,103	0,143
-684,539	-17,918	0,127	0,059
-683,524	68,571	-0,029	-0,022
-682,510	183,923	0,052	0,058
-681,495	512,095	0,020	0,035
-680,481	160,459	-0,059	0,062
-679,466	54,725	-0,034	0,024
-678,451	732,309	0,104	-0,208
-677,437	356,814	0,056	-0,083
-676,422	-200,000	-0,004	0,224
-675,408	-200,000	0,003	-0,072
-674,393	-200,000	-0,033	0,123
-673,378	575,899	0,056	-0,103
-672,364	18,856	-0,104	-0,062
-671,349	-200,000	-0,033	-0,147
-670,335	136,472	-0,056	-0,054
-669,320	-200,000	0,001	0,153
-668,305	44,759	-0,067	0,045
-667,291	-31,981	-0,134	-0,055
-666,276	195,280	-0,042	0,048
-665,262	-70,957	0,070	-0,020
-664,247	800,000	-0,041	-0,103
-663,232	800,000	-0,011	-0,023
-662,218	476,097	0,038	0,064
-661,203	248,332	0,032	0,041
-660,189	18,339	0,111	-0,066
-659,174	800,000	-0,034	-0,072
-658,159	-200,000	0,001	-0,021
-657,145	-137,191	-0,106	0,009
-656,130	-156,783	-0,103	-0,005
-655,116	413,832	0,013	0,021
-654,101	291,136	0,123	0,166
-653,086	28,816	0,075	0,047
-652,072	-118,468	0,040	0,005
-651,057	-86,524	0,124	-0,028
-650,043	-44,196	-0,123	-0,045
-649,028	-200,000	-0,005	-0,036
-648,014	-200,000	0,012	0,044
-646,999	300,491	-0,014	0,019
-645,984	-200,000	0,045	-0,157
-644,970	800,000	-0,025	-0,068
-643,955	-200,000	0,005	-0,080
-642,941	-88,752	-0,074	-0,016
-641,926	504,933	0,089	-0,153
-640,911	-47,253	0,055	0,020
-639,897	468,136	0,066	0,110
-638,882	-101,137	0,103	-0,018
-637,868	800,000	-0,046	-0,141
-636,853	-135,542	-0,160	-0,014
-635,838	800,000	0,026	-0,083
-634,824	-9,604	0,099	0,049
-633,809	800,000	-0,023	-0,055
-632,795	-29,482	0,109	-0,046
-631,780	-52,521	-0,105	0,036
-630,765	-200,000	0,010	-0,045
-629,751	800,000	-0,036	-0,093
-628,736	44,986	-0,099	0,068
-627,722	-188,235	-0,062	0,001
-626,707	79,542	0,068	0,054
-625,692	-140,500	0,072	-0,005
-624,678	211,201	0,139	-0,163
-623,663	-159,649	0,153	0,006
-622,649	-60,913	-0,096	-0,030
-621,634	366,046	-0,049	0,073
-620,619	-200,000	-0,021	-0,100
-619,605	-200,000	-0,031	-0,121
-618,590	2,142	0,062	-0,033
-617,576	78,559	-0,075	-0,059
-616,561	443,535	-0,039	-0,064
-615,546	800,000	-0,039	0,095
-614,532	-200,000	-0,013	-0,114
-613,517	-100,155	0,269	-0,049
-612,503	56,962	0,109	0,079
-611,488	13,687	-0,071	-0,041
-610,474	-200,000	0,001	0,069
-609,459	-200,000	0,009	-0,044
-608,444	-200,000	-0,021	-0,098
-607,430	-200,000	-0,025	-0,206
-606,415	207,551	-0,164	-0,190
-605,401	800,000	-0,019	0,041
-604,386	312,842	-0,045	-0,063
-603,371	-32,716	-0,032	-0,013
-602,357	-84,311	0,112	-0,026
-601,342	10,968	-0,020	0,011
-600,328	-53,868	0,141	-0,048
-599,313	-0,697	0,064	0,034
-598,298	44,350	-0,050	-0,034
-597,284	53,621	-0,109	-0,078
-596,269	-75,508	0,041	0,011
-595,255	-74,136	-0,105	-0,028
-594,240	-59,269	-0,106	0,034
-593,225	800,000	0,016	0,033
-592,211	800,000	0,032	0,086
-591,196	4,475	0,079	-0,043
-590,182	-200,000	-0,003	0,092
-589,167	270,044	-0,087	0,113
-588,152	-200,000	-0,001	0,174
-587,138	-200,000	0,008	-0,035
-586,123	234,260	-0,102	-0,125
-585,109	643,496	0,056	0,106
-584,094	-82,951	0,123	0,029
-583,079	800,000	0,019	-0,063
-582,065	-200,000	0,015	0,080
-581,050	10,093	0,052	-0,029
-580,036	47,386	-0,095	0,065
-579,021	-43,002	0,048	-0,018
-578,006	-111,538	0,074	0,011
-576,992	21,224	-0,124	0,075
-575,977	-200,000	0,016	0,241
-574,963	-62,506	-0,025	-0,008
-573,948	-200,000	-0,063	0,213
-572,934	-41,840	0,094	-0,035
-571,919	-79,330	0,053	-0,013
-570,904	-200,000	0,012	0,103
-569,890	-109,406	-0,034	-0,005
-568,875	-41,248	0,132	-0,050
-567,861	-200,000	0,007	0,037
-566,846	-104,897	0,106	-0,018
-565,831	-144,684	-0,147	-0,010
-564,817	759,808	0,029	0,058
-563,802	-153,122	-0,138	-0,007
-562,788	676,041	0,045	-0,087
-561,773	37,358	0,125	0,082
-560,758	50,452	-0,089	-0,062
-559,744	-200,000	-0,007	-0,038
-558,729	-16,301	0,170	0,079
-557,715	-200,000	0,004	-0,071
-556,700	252,462	-0,026	-0,033
-555,685	-200,000	-0,012	-0,098
-554,671	245,353	0,059	0,074
-553,656	-200,000	-0,005	0,039
-552,642	218,325	-0,023	-0,027
-551,627	-27,390	-0,180	0,077
-550,612	-30,132	-0,037	0,015
-549,598	-200,000	-0,003	-0,076
-548,583	-131,892	0,031	0,003
-547,569	791,362	0,031	0,064
-546,554	-200,000	0,012	0,089
-545,539	-76,211	0,021	-0,005
-544,525	699,216	-0,055	0,107
-543,510	800,000	-0,031	0,067
-542,496	800,000	0,008	0,018
-541,481	-86,946	0,070	-0,016
-540,466	-107,154	-0,080	0,013
-539,452	-90,285	0,187	0,040
-538,437	-150,989	0,062	0,003
-537,423	267,143	0,038	0,049
-536,408	-45,877	-0,157	0,057
-535,393	-139,188	-0,068	-0,005
-534,379	26,105	0,120	-0,074
-533,364	-200,000	0,007	0,036
-532,350	513,062	0,040	0,068
-531,335	-200,000	-0,002	0,006
-530,321	90,826	0,042	-0,035
-529,306	119,196	-0,054	-0,049
-528,291	198,167	0,068	-0,077
-527,277	-200,000	0,021	-0,073
-526,262	-143,961	0,118	-0,008
-525,248	152,772	0,046	0,047
-524,233	-32,841	0,064	0,026
-523,218	278,024	0,041	0,054
-522,204	-200,000	-0,025	0,107
-521,189	379,396	0,093	-0,142
-520,175	168,762	0,042	0,044
-519,160	-19,024	-0,040	0,018
-518,145	800,000	-0,080	0,257
-517,131	80,383	-0,122	0,097
-516,116	-67,612	0,144	0,041
-515,102	14,008	-0,047	0,027
-514,087	-100,197	-0,156	0,028
-513,072	180,429	0,025	0,027
-512,058	100,297	-0,059	0,050
-511,043	78,008	-0,051	-0,040
-510,029	800,000	-0,033	0,070
-509,014	-200,000	-0,022	0,120
-507,999	800,000	-0,049	0,142
-506,985	-188,429	-0,117	0,001
-505,970	20,420	0,119	-0,071
-504,956	-200,000	0,011	-0,059
-503,941	69,430	-0,090	0,068
-502,926	800,000	0,027	0,074
-501,912	429,087	-0,024	0,038
-500,897	-200,000	-0,075	0,000
-499,883	800,000	-0,057	0,171
-498,868	-20,514	-0,115	-0,052
-497,853	662,935	0,060	-0,114
-496,839	91,755	-0,071	-0,059
-495,824	-24,122	0,119	0,052
-494,810	-200,000	0,008	0,099
-493,795	487,539	0,025	0,042
-492,781	-125,486	-0,064	-0,007
-491,766	198,252	-0,059	-0,067
-490,751	-200,000	-0,014	-0,069
-489,737	13,919	0,037	-0,021
-488,722	256,151	-0,088	-0,112
-487,708	630,287	0,088	0,166
-486,693	-200,000	0,006	0,135
-485,678	800,000	0,031	0,067
-484,664	-38,354	-0,052	0,020
-483,649	-200,000	0,015	0,107
-482,635	-200,000	-0,008	0,028
-481,620	-200,000	0,006	0,097
-480,605	-11,915	0,083	0,040
-479,591	122,518	0,028	-0,026
-478,576	-16,109	0,087	-0,041
-477,562	-200,000	-0,011	-0,047
-476,547	14,822	-0,162	-0,094
-475,532	224,416	0,033	-0,039
-474,518	21,307	0,159	0,095
-473,503	26,912	-0,062	-0,039
-472,489	117,597	-0,017	0,015
-471,474	-178,129	-0,062	-0,001
-470,459	301,046	-0,087	-0,119
-469,445	-58,893	0,054	-0,017
-468,430	-200,000	-0,004	-0,140
-467,416	-11,473	0,037	0,018
-466,401	-137,205	-0,027	0,002
-465,386	800,000	0,036	0,097
-464,372	800,000	0,013	0,027
-463,357	-200,000	-0,035	0,182
-462,343	-72,575	-0,090	-0,024
-461,328	-142,043	-0,037	-0,003
-460,313	-26,866	-0,108	0,046
-459,299	-42,855	0,080	-0,030
-458,284	225,023	0,046	-0,055
-457,270	-200,000	-0,098	0,000
-456,255	-114,963	0,166	0,023
-455,241	-173,572	0,036	0,001
-454,226	-29,722	0,075	-0,031
-453,211	-6,917	-0,031	0,015
-452,197	-134,355	0,074	-0,007
-451,182	-200,000	-0,007	0,147
-450,168	208,967	-0,046	0,053
-449,153	-200,000	0,011	0,114
-448,138	-200,000	-0,007	0,085
-447,124	26,274	-0,100	-0,062
-446,109	-19,464	-0,100	0,045
-445,095	-30,212	0,035	-0,015
-444,080	-200,000	0,002	-0,022
-443,065	-186,151	0,281	0,003
-442,051	398,984	-0,081	-0,126
-441,036	-200,000	0,008	-0,042
-440,022	800,000	-0,025	-0,080
-439,007	259,515	0,056	0,071
-437,992	-122,497	0,116	0,014
-436,978	183,015	0,023	0,026
-435,963	-200,000	0,009	0,061
-434,949	-20,321	0,023	-0,010
-433,934	-22,398	-0,118	-0,052
-432,919	31,854	0,105	-0,066
-431,905	364,323	0,058	-0,086
-430,890	-200,000	-0,012	-0,186
-429,876	-200,000	0,016	0,056
-428,861	800,000	0,034	-0,094
-427,846	629,260	-0,081	0,151
-426,832	-200,000	0,030	-0,117
-425,817	-200,000	0,001	0,106
-424,803	38,835	-0,092	0,060
-423,788	800,000	-0,026	0,061
-422,773	-26,946	0,024	-0,010
-421,759	-200,000	0,018	0,097
-420,744	-200,000	0,001	-0,048
-419,730	800,000	-0,077	-0,177
-418,715	-200,000	-0,029	-0,142
-417,701	79,504	0,039	0,030
-416,686	-200,000	-0,009	-0,104
-415,671	-200,000	-0,004	0,018
-414,657	-91,904	-0,102	-0,021
-413,642	25,490	-0,034	-0,021
-412,628	800,000	0,028	-0,086
-411,613	254,318	-0,013	0,016
-410,598	96,484	0,084	-0,071
-409,584	-27,929	-0,060	-0,025
-408,569	6,497	-0,041	0,022
-407,555	-88,739	-0,058	-0,013
-406,540	258,573	-0,111	0,141
-405,525	-200,000	-0,002	0,034
-404,511	800,000	-0,016	0,048
-403,496	137,214	-0,058	0,056
-402,482	21,216	-0,110	0,066
-401,467	-73,527	0,053	0,014
-400,452	-101,817	-0,073	-0,013
-399,438	-200,000	0,010	0,041
-398,423	-74,100	0,104	-0,028
-397,409	289,024	-0,040	0,054
-396,394	375,975	-0,025	-0,037
-395,379	479,616	0,052	-0,086
-394,365	800,000	0,026	-0,056
-393,350	-124,349	0,089	0,010
-392,336	131,882	-0,086	-0,081
-391,321	-108,218	-0,137	-0,022
-390,306	678,578	-0,019	0,037
-389,292	-54,642	0,088	0,029
-388,277	69,150	0,155	0,117
-387,263	27,215	0,044	0,027
-386,248	-99,585	0,113	-0,021
-385,233	-200,000	-0,006	-0,144
-384,219	39,985	-0,078	0,052
-383,204	576,424	-0,059	0,107
-382,190	800,000	-0,039	0,106
-381,175	-67,105	0,090	0,026
-380,160	116,408	-0,148	0,134
-379,146	526,982	0,035	0,061
-378,131	-200,000	0,002	0,030
-377,117	536,912	0,021	0,036
-376,102	-200,000	-0,006	-0,056
-375,088	-200,000	-0,012	0,052
-374,073	800,000	-0,039	-0,087
-373,058	701,398	0,031	-0,060
-372,044	-3,852	-0,062	0,031
-371,029	800,000	0,026	0,058
-370,015	-200,000	-0,018	0,064
-369,000	289,502	-0,093	-0,124
-367,985	-79,247	-0,068	-0,017
-366,971	-164,385	-0,050	-0,002
-365,956	420,728	0,068	0,107
-364,942	101,919	-0,062	-0,053
-363,927	-43,152	0,053	0,019
-362,912	800,000	-0,012	0,032
-361,898	122,898	-0,069	-0,063
-360,883	79,034	-0,044	0,035
-359,869	4,604	-0,015	0,008
-358,854	-125,419	-0,080	0,009
-357,839	-200,000	0,006	0,040
-356,825	143,637	-0,032	0,031
-355,810	86,607	-0,082	0,066
-354,796	-24,806	0,043	-0,019
-353,781	-109,577	0,080	-0,012
-352,766	-200,000	0,020	-0,103
-351,752	-77,462	0,057	0,014
-350,737	-134,761	0,051	0,005
-349,723	-88,300	0,063	-0,014
-348,708	-200,000	-0,060	-0,232
-347,693	-111,467	-0,151	-0,022
-346,679	-90,120	-0,049	-0,010
-345,664	624,958	-0,028	-0,052
-344,650	114,249	0,036	0,032
-343,635	-200,000	0,006	0,129
-342,620	445,651	0,083	0,135
-341,606	800,000	-0,080	0,177
-340,591	281,262	0,074	-0,097
-339,577	-200,000	0,029	-0,124
-338,562	130,772	-0,096	-0,090
-337,548	-110,009	0,138	-0,021
-336,533	-113,615	0,268	0,038
-335,518	-139,499	0,051	0,004
-334,504	235,787	-0,068	0,083
-333,489	800,000	0,047	-0,109
-332,475	-136,651	-0,080	0,007
-331,460	154,742	-0,045	-0,046
-330,445	432,766	-0,042	-0,067
-329,431	104,892	0,195	0,168
-328,416	141,998	0,086	0,083
-327,402	234,407	0,033	0,040
-326,387	29,935	0,059	0,037
-325,372	-60,138	-0,100	0,031
-324,358	-200,000	-0,004	-0,085
-323,343	328,607	0,071	-0,100
-322,329	-71,748	-0,036	0,010
-321,314	-113,974	0,058	0,008
-320,299	800,000	0,038	0,088
-319,285	-129,390	-0,047	-0,005
-318,270	-100,344	0,058	-0,010
-317,256	-87,029	-0,131	0,029
-316,241	222,005	-0,064	-0,076
-315,226	-56,425	0,041	0,013
-314,212	174,982	0,098	0,104
-313,197	-200,000	0,021	0,143
-312,183	-25,985	-0,136	-0,058
-311,168	-41,325	0,072	0,027
-310,153	477,006	0,050	0,082
-309,139	800,000	-0,077	-0,166
-308,124	158,912	-0,141	-0,144
-307,110	97,952	0,062	0,053
-306,095	-116,974	0,119	0,016
-305,080	-162,025	-0,106	-0,004
-304,066	-200,000	0,011	-0,124
-303,051	456,408	-0,074	-0,120
-302,037	-12,813	0,074	-0,035
-301,022	-200,000	-0,028	0,103
-300,008	-116,060	0,045	0,006
-298,993	110,098	-0,176	0,155
-297,978	-106,596	0,159	0,026
-296,964	-83,063	-0,041	-0,010
-295,949	152,790	0,062	-0,062
-294,935	-55,209	0,072	-0,024
-293,920	-124,658	-0,069	0,008
-292,905	-200,000	-0,013	-0,043
-291,891	-17,556	-0,039	-0,018
-290,876	-28,735	0,068	-0,029
-289,862	-158,077	-0,041	-0,002
-288,847	800,000	-0,017	-0,037
-287,832	-200,000	0,005	0,029
-286,818	-38,815	-0,093	0,036
-285,803	-151,159	0,160	-0,009
-284,789	-7,697	0,036	-0,018
-283,774	-57,949	0,146	0,046
-282,759	57,442	-0,100	-0,071
-281,745	-197,938	-0,020	0,000
-280,730	10,646	-0,022	0,012
-279,716	-200,000	-0,026	0,175
-278,701	81,970	0,081	0,064
-277,686	-200,000	0,028	0,099
-276,672	-150,896	0,201	0,011
-275,657	-200,000	-0,037	-0,128
-274,643	-200,000	0,013	-0,106
-273,628	770,771	0,034	-0,067
-272,613	-200,000	-0,023	0,107
-271,599	-24,276	-0,082	0,036
-270,584	-120,782	0,031	0,004
-269,570	-200,000	0,018	0,084
-268,555	-42,903	0,124	0,046
-267,540	574,285	-0,088	0,157
-266,526	-200,000	-0,024	-0,106
-265,511	134,697	-0,045	-0,043
-264,497	155,845	-0,032	-0,032
-263,482	10,927	0,096	-0,054
-262,467	-200,000	-0,018	-0,086
-261,453	-200,000	0,002	-0,058
-260,438	-200,000	-0,028	-0,091
-259,424	-200,000	-0,025	-0,116
-258,409	-200,000	-0,024	0,088
-257,395	317,132	0,078	0,108
-256,380	-130,245	0,104	0,010
-255,365	800,000	0,011	-0,025
-254,351	216,262	0,019	0,022
-253,336	674,122	-0,064	-0,123
-252,322	-198,523	-0,154	-0,001
-251,307	800,000	-0,036	0,085
-250,292	-200,000	-0,006	-0,052
-249,278	-200,000	-0,045	0,208
-248,263	-99,113	0,125	-0,023
-247,249	-133,922	-0,073	0,007
-246,234	210,567	0,031	-0,036
-245,219	12,608	-0,070	-0,039
-244,205	-200,000	0,019	0,072
-243,190	288,527	-0,057	0,076
-242,176	147,757	-0,114	0,112
-241,161	-200,000	-0,021	0,083
-240,146	2,451	0,036	-0,019
-239,132	130,812	-0,062	-0,058
-238,117	276,022	-0,109	0,142
-237,103	800,000	-0,031	-0,079
-236,088	249,866	0,095	-0,118
-235,073	-9,841	0,083	-0,040
-234,059	-18,462	0,065	0,029
-233,044	-27,251	0,051	0,021
-232,030	-200,000	-0,013	-0,133
-231,015	-168,832	0,109	-0,003
-230,000	88,317	-0,025	-0,020
-228,986	-42,844	-0,134	0,050
-227,971	-41,574	0,144	0,054
-226,957	63,293	0,043	0,031
-225,942	-44,174	-0,125	0,046
-224,927	800,000	0,017	-0,049
-223,913	297,963	-0,111	-0,149
-222,898	-66,546	0,127	0,037
-221,884	-92,293	-0,106	0,022
-220,869	184,797	-0,053	-0,057
-219,855	-200,000	0,019	-0,101
-218,840	148,110	0,025	0,025
-217,825	-200,000	-0,015	0,055
-216,811	113,131	-0,089	0,079
-215,796	334,330	-0,062	-0,088
-214,782	326,635	-0,062	-0,087
-213,767	751,932	-0,022	0,044
-212,752	-200,000	0,004	0,045
-211,738	61,275	0,092	0,066
-210,723	54,770	0,051	-0,036
-209,709	800,000	-0,038	-0,078
-208,694	45,168	0,063	0,043
-207,679	-4,369	-0,074	-0,037
-206,665	-30,910	0,032	0,013
-205,650	57,021	0,030	-0,021
-204,636	135,573	0,065	-0,062
-203,621	-24,647	-0,076	-0,033
-202,606	210,180	0,061	0,070
-201,592	800,000	-0,043	-0,091
-200,577	603,770	0,031	-0,057
-199,563	-149,220	0,153	0,009
-198,548	800,000	-0,040	-0,094
-197,533	299,323	-0,102	-0,138
-196,519	-200,000	-0,000	-0,040
-195,504	215,266	-0,019	0,022
-194,490	615,773	0,074	-0,137
-193,475	186,026	-0,101	-0,110
-192,460	-136,095	0,048	-0,004
-191,446	663,279	0,051	-0,097
-190,431	-200,000	0,027	-0,123
-189,417	-79,374	-0,214	-0,052
-188,402	-118,579	0,077	0,010
-187,387	476,864	-0,013	-0,021
-186,373	467,961	-0,067	-0,110
-185,358	-33,993	0,095	-0,038
-184,344	-142,150	-0,106	-0,008
-183,329	-200,000	-0,006	0,104
-182,315	3,284	-0,016	0,008
-181,300	-200,000	-0,033	-0,149
-180,285	195,185	0,034	-0,037
-179,271	800,000	0,030	-0,076
-178,256	-200,000	-0,013	-0,127
-177,242	5,172	-0,014	-0,008
-176,227	54,377	-0,025	0,018
-175,212	-200,000	0,022	0,076
-174,198	147,241	0,103	0,102
-173,183	21,755	-0,104	-0,062
-172,169	-50,356	-0,158	0,054
-171,154	-200,000	-0,002	-0,066
-170,139	800,000	0,018	-0,045
-169,125	315,703	-0,043	-0,059
-168,110	-110,080	0,142	0,021
-167,096	-63,402	-0,100	0,030
-166,081	186,812	-0,019	-0,021
-165,066	-187,561	-0,049	0,000
-164,052	-158,497	0,058	-0,002
-163,037	256,421	0,022	-0,027
-162,023	-23,717	0,100	-0,044
-161,008	113,949	-0,030	-0,026
-159,993	-24,323	0,074	-0,032
-158,979	800,000	0,053	0,164
-157,964	-200,000	0,035	0,133
-156,950	585,868	-0,033	0,060
-155,935	57,920	-0,072	0,051
-154,920	606,767	0,052	-0,096
-153,906	60,644	0,044	0,032
-152,891	800,000	-0,059	0,128
-151,877	93,626	-0,058	-0,048
-150,862	-200,000	0,017	-0,142
-149,847	251,998	-0,052	-0,064
-148,833	-161,621	0,049	-0,002
-147,818	800,000	0,055	0,123
-146,804	-200,000	-0,023	0,101
-145,789	-38,992	0,109	0,041
-144,775	-79,711	-0,100	0,024
-143,760	-72,000	-0,112	0,030
-142,745	-96,228	0,053	-0,010
-141,731	46,297	0,028	-0,019
-140,716	-200,000	-0,042	0,134
-139,702	800,000	0,066	0,149
-138,687	23,392	0,087	-0,052
-137,672	-1,199	0,040	0,020
-136,658	184,575	-0,057	-0,062
-135,643	37,415	0,036	-0,023
-134,629	435,506	-0,027	-0,044
-133,614	-23,189	-0,137	-0,060
-132,599	473,504	0,081	0,134
-131,585	182,501	0,024	0,026
-130,570	-43,753	-0,132	0,048
-129,556	800,000	-0,059	-0,127
-128,541	-57,548	-0,086	0,027
-127,526	-200,000	0,014	-0,097
-126,512	-161,950	0,100	0,004
-125,497	36,904	-0,065	-0,042
-124,483	-200,000	0,019	0,112
-123,468	380,643	-0,027	0,041
-122,453	-200,000	-0,019	0,120
-121,439	-183,890	0,128	-0,002
-120,424	-107,844	0,085	-0,013
