DTS Sentinel unit serial number:	SN410029Multiplexer serial number:	ORYXHardware model number:	OX2-SRSoftware version number:	ORYX F/W v4,00 Oryx Data Collector v3.7.2.0data status	okinstallation	B6 Nyhavnadifferential loss correction	single-endedforward channel	channel 2reverse channel	N/Adate	2023/12/10time	22:45:08forward acquisition time	300,00reverse acquisition time	0,00gamma	499,1914k internal	0,3122k external	0,3122temperature offset calibration	1,0000default loss term (dB/km)	0,3820temperature slope calibration	1,0000multiplexer offset coefficient	1,0000multiplexer slope coefficient	1,0000fibre end	0,00T internal ref (°C)	22,37T ext. ref 1 (°C)	6,14T ext. ref 2 (°C)	6,15length (m)	temperature (°C)	Stokes	anti-Stokes-744,400	23,596	-0,130	-0,080
-743,385	6,674	-0,269	0,149
-742,371	-66,661	0,120	0,035
-741,356	-56,091	-0,311	0,103
-740,342	9,548	0,061	0,034
-739,327	97,180	-0,167	0,143
-738,312	665,538	0,108	-0,209
-737,298	-101,730	-0,174	0,031
-736,283	-200,000	0,032	-0,120
-735,269	-70,029	-0,263	0,074
-734,254	800,000	0,011	0,024
-733,239	-99,931	-0,346	0,064
-732,225	-124,358	0,071	-0,008
-731,210	-191,936	0,048	-0,000
-730,196	-200,000	0,016	-0,100
-729,181	54,848	-0,023	-0,016
-728,167	-200,000	0,004	0,077
-727,152	147,566	0,088	-0,088
-726,137	-160,838	-0,104	-0,004
-725,123	-200,000	0,003	-0,106
-724,108	194,245	-0,108	-0,122
-723,094	341,372	-0,045	-0,065
-722,079	575,989	0,020	-0,036
-721,064	234,467	0,061	-0,075
-720,050	2,418	-0,113	-0,061
-719,035	-33,345	0,056	-0,023
-718,021	-200,000	-0,003	-0,042
-717,006	-200,000	-0,032	-0,112
-715,991	-70,943	-0,049	0,014
-714,977	-200,000	-0,007	-0,065
-713,962	-65,087	-0,120	-0,036
-712,948	111,985	0,015	0,013
-711,933	420,793	-0,030	0,048
-710,918	800,000	0,009	0,023
-709,904	-1,969	-0,065	0,034
-708,889	20,540	-0,067	-0,040
-707,875	800,000	0,027	0,065
-706,860	800,000	0,038	0,109
-705,845	328,237	-0,061	-0,088
-704,831	-25,173	-0,054	0,024
-703,816	-200,000	0,011	0,044
-702,802	-33,619	0,049	-0,020
-701,787	342,004	-0,034	-0,050
-700,772	-135,096	0,160	0,014
-699,758	776,984	-0,028	0,058
-698,743	48,028	0,109	-0,075
-697,729	457,768	-0,081	-0,134
-696,714	-163,063	0,187	-0,007
-695,699	-46,721	-0,056	-0,020
-694,685	-200,000	-0,011	-0,059
-693,670	670,287	-0,025	0,048
-692,656	-200,000	-0,004	-0,082
-691,641	202,382	-0,026	0,030
-690,627	-200,000	0,007	0,029
-689,612	786,959	-0,040	0,083
-688,597	191,346	-0,125	0,140
-687,583	-112,779	-0,064	-0,009
-686,568	478,172	0,006	0,010
-685,554	-61,696	-0,132	-0,041
-684,539	-152,003	-0,032	0,002
-683,524	133,413	0,132	0,127
-682,510	351,326	0,069	0,102
-681,495	-137,667	-0,118	-0,010
-680,481	659,368	-0,014	0,027
-679,466	-173,165	-0,160	0,004
-678,451	-97,600	-0,038	-0,007
-677,437	-65,809	0,020	-0,006
-676,422	800,000	0,015	0,036
-675,408	177,077	0,031	-0,033
-674,393	65,169	0,100	-0,075
-673,378	-200,000	-0,019	-0,199
-672,364	29,478	0,119	-0,075
-671,349	-200,000	0,002	-0,050
-670,335	-200,000	0,030	-0,117
-669,320	45,743	0,068	-0,047
-668,305	-73,294	-0,028	-0,008
-667,291	-93,356	-0,076	-0,016
-666,276	-200,000	0,008	-0,224
-665,262	78,624	-0,161	-0,128
-664,247	-200,000	-0,009	-0,081
-663,232	90,238	0,080	0,066
-662,218	-114,518	0,117	0,017
-661,203	-200,000	0,005	-0,090
-660,189	-65,717	-0,134	0,040
-659,174	472,717	0,030	-0,050
-658,159	800,000	-0,091	-0,229
-657,145	-112,756	-0,169	-0,025
-656,130	30,970	0,100	0,064
-655,116	-200,000	0,017	0,075
-654,101	62,576	-0,106	0,079
-653,086	-115,598	0,111	-0,015
-652,072	-200,000	0,007	-0,031
-651,057	502,218	-0,102	-0,176
-650,043	800,000	-0,030	-0,076
-649,028	-82,121	-0,109	-0,026
-648,014	87,923	0,047	0,039
-646,999	800,000	-0,028	-0,085
-645,984	-20,395	-0,061	-0,028
-644,970	800,000	0,029	-0,085
-643,955	-200,000	0,007	-0,160
-642,941	-200,000	0,010	-0,043
-641,926	800,000	-0,036	0,107
-640,911	-100,699	0,151	0,027
-639,897	294,598	0,117	0,160
-638,882	420,410	-0,058	0,093
-637,868	-48,979	0,046	0,016
-636,853	20,173	-0,036	0,022
-635,838	-200,000	0,018	-0,099
-634,824	524,135	-0,023	-0,040
-633,809	800,000	0,023	0,072
-632,795	-200,000	0,017	0,134
-631,780	167,452	0,071	-0,075
-630,765	-165,796	-0,086	-0,003
-629,751	-200,000	-0,044	-0,195
-628,736	606,592	-0,048	-0,089
-627,722	233,000	-0,056	-0,069
-626,707	-200,000	0,035	0,137
-625,692	313,322	0,050	-0,070
-624,678	272,736	0,053	-0,069
-623,663	-200,000	-0,005	0,043
-622,649	-200,000	0,001	0,055
-621,634	-54,840	-0,089	-0,030
-620,619	-5,177	-0,057	0,029
-619,605	82,319	0,090	-0,072
-618,590	-96,286	-0,115	-0,022
-617,576	-200,000	-0,001	0,158
-616,561	800,000	-0,074	0,175
-615,546	437,188	-0,007	-0,011
-614,532	65,439	0,084	-0,063
-613,517	-200,000	-0,011	0,075
-612,503	-34,825	-0,109	-0,044
-611,488	-200,000	-0,009	0,058
-610,474	-200,000	0,003	-0,122
-609,459	-200,000	-0,001	-0,026
-608,444	136,378	-0,100	-0,097
-607,430	171,414	0,085	-0,091
-606,415	321,497	-0,023	-0,033
-605,401	-200,000	0,174	0,000
-604,386	131,307	0,097	0,092
-603,371	-10,733	-0,112	0,055
-602,357	-46,224	0,028	-0,010
-601,342	203,375	0,078	-0,090
-600,328	-200,000	0,016	-0,162
-599,313	133,948	0,042	-0,041
-598,298	273,749	-0,021	0,028
-597,284	142,770	-0,063	-0,062
-596,269	-200,000	-0,006	0,099
-595,255	-139,026	0,139	0,011
-594,240	800,000	0,022	-0,063
-593,225	29,232	-0,058	-0,037
-592,211	-200,000	-0,052	0,229
-591,196	-183,166	-0,067	0,001
-590,182	22,434	0,111	0,067
-589,167	128,871	0,045	0,042
-588,152	456,121	-0,029	0,048
-587,138	-200,000	0,001	-0,071
-586,123	168,022	-0,096	-0,101
-585,109	51,155	0,064	-0,045
-584,094	45,183	-0,102	-0,070
-583,079	-200,000	-0,004	0,089
-582,065	-40,239	0,165	-0,063
-581,050	64,637	0,052	-0,039
-580,036	96,685	0,108	0,091
-579,021	199,913	-0,024	0,027
-578,006	387,685	0,018	-0,028
-576,992	52,955	-0,099	-0,070
-575,977	41,741	0,089	0,060
-574,963	89,998	-0,086	-0,072
-573,948	-186,138	-0,103	-0,001
-572,934	-108,894	0,069	-0,011
-571,919	-200,000	-0,037	0,157
-570,904	277,589	0,063	0,084
-569,890	-200,000	-0,003	-0,029
-568,875	396,908	0,050	-0,078
-567,861	174,750	-0,055	0,059
-566,846	-59,789	0,108	0,034
-565,831	-126,358	0,034	-0,004
-564,817	304,598	-0,072	0,099
-563,802	7,472	-0,092	-0,051
-562,788	-200,000	0,030	-0,156
-561,773	800,000	0,023	-0,057
-560,758	17,572	-0,058	-0,034
-559,744	-4,768	-0,092	0,047
-558,729	641,383	-0,048	-0,092
-557,715	78,855	-0,087	0,069
-556,700	188,174	-0,128	-0,142
-555,685	208,242	-0,063	0,073
-554,671	-200,000	0,046	-0,186
-553,656	498,118	-0,020	-0,035
-552,642	-88,888	-0,102	0,022
-551,627	303,873	-0,052	0,072
-550,612	-200,000	-0,032	0,108
-549,598	-99,157	-0,094	-0,017
-548,583	-110,466	-0,097	0,015
-547,569	209,529	0,027	-0,032
-546,554	-200,000	0,011	-0,108
-545,539	123,675	-0,057	0,053
-544,525	349,137	-0,033	0,048
-543,510	-200,000	0,054	-0,000
-542,496	-104,267	0,121	-0,021
-541,481	-33,595	-0,110	0,045
-540,466	125,162	0,079	-0,074
-539,452	-200,000	0,045	-0,186
-538,437	175,305	-0,034	-0,036
-537,423	686,945	0,069	-0,134
-536,408	249,199	-0,029	0,037
-535,393	-153,434	-0,178	0,009
-534,379	-200,000	-0,008	0,030
-533,364	-200,000	0,013	-0,082
-532,350	19,301	0,015	0,009
-531,335	-200,000	0,009	-0,056
-530,321	-200,000	0,032	0,149
-529,306	723,735	0,027	0,054
-528,291	-200,000	-0,104	0,000
-527,277	-146,739	0,036	0,002
-526,262	110,008	0,140	0,124
-525,248	346,610	-0,071	0,104
-524,233	-200,000	0,013	0,130
-523,218	-52,768	0,090	0,030
-522,204	115,049	0,073	-0,066
-521,189	149,679	0,042	-0,042
-520,175	-200,000	-0,066	-0,230
-519,160	218,349	-0,071	-0,084
-518,145	722,848	-0,041	-0,081
-517,131	-200,000	0,022	-0,110
-516,116	-200,000	-0,000	0,061
-515,102	227,873	0,087	-0,105
-514,087	80,288	-0,041	-0,032
-513,072	-200,000	-0,018	-0,138
-512,058	800,000	-0,021	0,048
-511,043	800,000	-0,035	-0,074
-510,029	44,005	0,016	-0,011
-509,014	-1,649	0,026	-0,013
-507,999	-114,194	0,040	0,006
-506,985	-95,386	0,082	0,016
-505,970	-129,951	-0,097	-0,010
-504,956	-200,000	0,001	0,065
-503,941	242,120	0,041	-0,050
-502,926	326,247	0,037	0,052
-501,912	119,130	0,119	-0,109
-500,897	-54,589	0,139	0,046
-499,883	9,251	-0,092	-0,051
-498,868	273,822	-0,073	-0,096
-497,853	-200,000	0,017	-0,121
-496,839	177,064	0,129	-0,139
-495,824	-200,000	-0,002	-0,164
-494,810	-21,920	0,106	-0,047
-493,795	-124,966	-0,056	0,006
-492,781	-120,885	0,098	0,012
-491,766	-43,939	-0,076	-0,028
-490,751	-102,684	-0,108	0,019
-489,737	800,000	0,046	0,114
-488,722	-42,574	-0,129	-0,048
-487,708	-27,989	-0,075	0,032
-486,693	53,573	0,081	0,057
-485,678	-200,000	-0,000	0,011
-484,664	-47,666	-0,097	-0,034
-483,649	-200,000	-0,016	-0,068
-482,635	-200,000	-0,000	-0,132
-481,620	-107,985	-0,001	0,000
-480,605	-200,000	-0,009	0,118
-479,591	800,000	-0,059	-0,130
-478,576	23,930	-0,131	-0,079
-477,562	-22,044	-0,122	-0,054
-476,547	800,000	-0,031	-0,074
-475,532	-127,044	-0,039	0,004
-474,518	463,782	0,048	0,079
-473,503	800,000	0,045	0,139
-472,489	154,661	-0,031	0,032
-471,474	0,694	0,078	-0,041
-470,459	436,930	0,036	-0,058
-469,445	438,472	-0,048	-0,077
-468,430	-157,604	0,062	-0,003
-467,416	800,000	-0,010	0,020
-466,401	-25,789	0,106	0,046
-465,386	361,163	0,052	0,077
-464,372	459,932	0,027	0,045
-463,357	-109,760	0,037	0,006
-462,343	364,908	0,057	0,085
-461,328	-27,007	-0,036	0,015
-460,313	239,027	0,093	0,114
-459,299	-200,000	0,005	0,081
-458,284	-200,000	0,012	-0,103
-457,270	-20,440	-0,029	0,013
-456,255	411,597	0,057	0,090
-455,241	-200,000	0,002	-0,089
-454,226	-200,000	-0,011	0,040
-453,211	759,461	-0,049	-0,098
-452,197	-30,295	0,136	-0,056
-451,182	431,586	-0,030	0,047
-450,168	521,929	0,029	-0,051
-449,153	17,117	0,028	-0,016
-448,138	-37,982	-0,031	0,012
-447,124	800,000	-0,020	0,064
-446,109	641,222	-0,036	0,069
-445,095	-167,573	-0,068	-0,002
-444,080	284,814	-0,048	0,064
-443,065	39,551	0,057	-0,038
-442,051	-164,094	-0,123	0,004
-441,036	800,000	-0,025	-0,079
-440,022	-200,000	-0,023	-0,077
-439,007	-200,000	-0,006	0,046
-437,992	387,215	-0,042	0,064
-436,978	167,819	0,052	0,054
-435,963	308,168	-0,093	-0,128
-434,949	-200,000	-0,001	0,062
-433,934	259,220	-0,038	0,048
-432,919	531,775	-0,056	-0,098
-431,905	347,794	-0,055	-0,080
-430,890	-75,203	-0,048	0,013
-429,876	-200,000	-0,049	0,180
-428,861	-150,839	0,047	0,003
-427,846	119,406	0,037	-0,034
-426,832	-74,393	-0,127	0,033
-425,817	185,534	-0,096	-0,105
-424,803	77,201	0,099	0,077
-423,788	611,306	0,046	0,085
-422,773	30,528	0,204	0,128
-421,759	-0,349	-0,141	-0,073
-420,744	17,857	-0,078	-0,045
-419,730	-109,850	0,033	0,005
-418,715	-91,251	0,158	0,033
-417,701	-13,114	-0,030	0,014
-416,686	-137,601	-0,210	-0,017
-415,671	-111,590	-0,093	-0,014
-414,657	-130,626	0,191	-0,019
-413,642	127,516	0,019	0,017
-412,628	364,292	0,098	0,145
-411,613	553,409	0,054	0,096
-410,598	7,556	-0,076	0,042
-409,584	-71,809	0,089	0,024
-408,569	73,394	0,037	-0,029
-407,555	-113,036	0,059	0,008
-406,540	272,338	-0,046	-0,060
-405,525	73,361	-0,019	-0,015
-404,511	184,978	0,075	0,082
-403,496	-159,628	0,049	0,002
-402,482	54,725	-0,119	-0,085
-401,467	165,154	-0,028	-0,029
-400,452	469,678	-0,058	0,096
-399,438	235,288	-0,040	-0,049
-398,423	191,055	-0,081	-0,089
-397,409	73,128	0,071	0,055
-396,394	-9,137	-0,076	0,037
-395,379	664,313	0,086	-0,164
-394,365	227,849	-0,084	-0,101
-393,350	469,001	-0,027	-0,045
-392,336	-200,000	0,002	0,010
-391,321	800,000	0,015	0,040
-390,306	-123,884	0,042	0,005
-389,292	-68,123	-0,049	0,014
-388,277	800,000	0,035	-0,110
-387,263	-66,851	-0,043	-0,013
-386,248	81,509	-0,033	0,027
-385,233	648,186	0,033	-0,063
-384,219	-74,488	0,173	-0,046
-383,204	800,000	-0,046	-0,102
-382,190	800,000	0,055	-0,120
-381,175	192,348	-0,087	-0,097
-380,160	61,128	0,165	0,120
-379,146	753,931	-0,049	0,098
-378,131	158,517	0,048	0,049
-377,117	-200,000	0,025	-0,178
-376,102	-65,781	-0,085	-0,025
-375,088	21,151	-0,054	-0,032
-374,073	-13,185	0,042	0,020
-373,058	355,610	-0,079	0,116
-372,044	456,459	-0,066	0,108
-371,029	89,121	0,034	0,028
-370,015	-44,656	-0,055	0,020
-369,000	-145,659	-0,077	0,005
-367,985	397,330	0,026	-0,040
-366,971	631,277	0,022	-0,040
-365,956	-64,588	0,075	-0,022
-364,942	-200,000	-0,027	0,098
-363,927	-200,000	-0,021	0,143
-362,912	-25,195	-0,069	-0,030
-361,898	-200,000	0,005	-0,037
-360,883	357,834	0,014	0,020
-359,869	-200,000	-0,022	-0,074
-358,854	74,422	-0,070	0,054
-357,839	-127,118	-0,119	-0,013
-356,825	-143,662	0,005	0,000
-355,810	37,034	-0,108	0,070
-354,796	-200,000	-0,011	0,094
-353,781	-200,000	-0,007	0,026
-352,766	800,000	-0,004	0,011
-351,752	-195,131	0,137	0,001
-350,737	40,506	-0,070	0,046
-349,723	-68,132	0,055	0,016
-348,708	40,027	0,059	0,039
-347,693	707,811	-0,006	0,012
-346,679	-200,000	-0,003	0,037
-345,664	737,300	-0,086	-0,170
-344,650	800,000	0,007	-0,015
-343,635	179,563	-0,077	0,083
-342,620	441,120	0,045	0,073
-341,606	269,204	0,079	0,102
-340,591	528,666	-0,019	0,034
-339,577	97,607	0,026	-0,022
-338,562	37,810	0,141	-0,092
-337,548	-200,000	0,014	-0,067
-336,533	-200,000	0,033	-0,199
-335,518	-139,220	0,094	0,007
-334,504	452,384	0,073	0,119
-333,489	741,690	-0,057	0,113
-332,475	800,000	0,031	0,092
-331,460	-111,150	-0,100	-0,015
-330,445	-194,782	-0,174	0,001
-329,431	-103,331	0,095	0,016
-328,416	-200,000	0,000	-0,088
-327,402	-37,493	-0,038	0,015
-326,387	8,589	0,023	-0,013
-325,372	-150,205	0,019	0,001
-324,358	133,488	0,057	0,055
-323,343	800,000	-0,074	-0,185
-322,329	-197,242	0,073	-0,000
-321,314	-86,936	0,095	-0,021
-320,299	-8,966	0,093	0,045
-319,285	800,000	-0,019	0,055
-318,270	800,000	0,011	-0,028
-317,256	-37,032	-0,195	-0,076
-316,241	-200,000	0,036	-0,183
-315,226	-7,150	0,098	0,048
-314,212	-200,000	0,015	0,132
-313,197	-200,000	-0,029	0,150
-312,183	-110,699	-0,058	-0,009
-311,168	-77,451	-0,086	-0,022
-310,153	800,000	-0,056	-0,180
-309,139	-37,523	-0,052	0,020
-308,124	800,000	0,015	0,032
-307,110	297,385	0,123	0,166
-306,095	457,820	0,039	0,064
-305,080	-17,860	0,112	0,051
-304,066	-200,000	0,001	0,008
-303,051	-200,000	-0,000	-0,044
-302,037	82,735	0,040	0,032
-301,022	-35,099	-0,035	-0,014
-300,008	-97,809	0,063	-0,012
-298,993	800,000	0,014	-0,035
-297,978	-140,304	0,144	0,011
-296,964	-155,721	-0,072	0,003
-295,949	800,000	-0,042	-0,105
-294,935	365,802	-0,050	0,074
-293,920	-130,496	0,167	-0,016
-292,905	-128,104	0,048	-0,005
-291,891	576,829	0,003	-0,005
-290,876	-36,235	-0,111	0,044
-289,862	-9,105	-0,059	-0,029
-288,847	14,490	-0,074	-0,042
-287,832	-171,647	-0,105	0,002
-286,818	-41,184	0,031	0,012
-285,803	800,000	-0,006	0,020
-284,789	225,356	0,068	-0,080
-283,774	-91,682	0,132	-0,027
-282,759	180,732	-0,033	0,036
-281,745	84,735	-0,089	-0,071
-280,730	-200,000	0,022	-0,175
-279,716	-200,000	0,010	0,042
-278,701	-22,293	-0,129	0,057
-277,686	131,661	-0,028	-0,026
-276,672	-172,995	0,059	-0,001
-275,657	7,560	0,062	0,034
-274,643	800,000	-0,029	-0,086
-273,628	-111,328	0,047	-0,007
-272,613	-200,000	-0,008	0,059
-271,599	-7,821	-0,164	0,081
-270,584	-200,000	0,019	0,092
-269,570	289,206	-0,026	-0,034
-268,555	-81,513	0,082	-0,020
-267,540	-31,056	0,024	0,010
-266,526	235,377	0,065	-0,079
-265,511	-115,716	-0,119	0,016
-264,497	800,000	-0,016	0,036
-263,482	28,194	0,095	-0,059
-262,467	-200,000	0,033	0,148
-261,453	-200,000	0,013	0,175
-260,438	-42,912	-0,136	-0,050
-259,424	-200,000	-0,014	0,046
-258,409	-200,000	0,008	0,112
-257,395	-200,000	-0,004	-0,018
-256,380	800,000	0,053	0,120
-255,365	-10,154	0,118	-0,057
-254,351	110,005	0,094	0,083
-253,336	-200,000	-0,021	-0,086
-252,322	-4,249	0,014	0,007
-251,307	800,000	-0,019	0,049
-250,292	771,803	0,067	0,135
-249,278	145,543	0,110	0,108
-248,263	-20,122	0,043	0,019
-247,249	-200,000	-0,029	0,105
-246,234	548,979	-0,089	0,156
-245,219	364,488	0,086	-0,126
-244,205	670,171	-0,062	0,117
-243,190	800,000	0,012	-0,025
-242,176	800,000	0,037	0,109
-241,161	-50,155	0,123	-0,042
-240,146	-105,783	-0,112	-0,018
-239,132	48,896	-0,046	-0,031
-238,117	-54,210	-0,023	-0,007
-237,103	800,000	0,054	-0,143
-236,088	800,000	-0,051	-0,111
-235,073	229,535	0,035	0,041
-234,059	-101,568	-0,019	0,003
-233,044	469,205	-0,056	0,093
-232,030	572,467	0,040	0,071
-231,015	-122,542	-0,170	0,020
-230,000	800,000	0,039	-0,100
-228,986	-8,188	-0,078	0,038
-227,971	66,099	-0,066	-0,049
-226,957	-134,816	0,122	-0,011
-225,942	96,386	-0,079	0,066
-224,927	800,000	-0,048	-0,106
-223,913	-176,344	0,088	-0,002
-222,898	-59,619	0,040	0,012
-221,884	-17,071	0,058	0,027
-220,869	33,862	0,127	-0,080
-219,855	198,195	0,067	0,075
-218,840	147,913	0,061	0,060
-217,825	-170,106	-0,119	0,003
-216,811	800,000	0,031	0,074
-215,796	186,042	-0,091	-0,099
-214,782	145,094	0,097	-0,095
-213,767	16,962	0,115	0,066
-212,752	151,088	-0,071	0,071
-211,738	-200,000	-0,073	0,272
-210,723	129,686	0,049	0,046
-209,709	-165,391	-0,056	-0,002
-208,694	-4,533	-0,122	0,061
-207,679	-63,424	-0,055	0,017
-206,665	350,416	0,059	-0,086
-205,650	-200,000	0,007	-0,048
-204,636	94,469	0,161	0,133
-203,621	-200,000	0,002	0,037
-202,606	79,507	-0,073	-0,057
-201,592	79,844	-0,028	0,022
-200,577	-200,000	0,016	0,054
-199,563	-146,992	-0,079	-0,005
-198,548	488,164	0,035	0,059
-197,533	449,149	0,012	-0,019
-196,519	745,879	-0,066	0,131
-195,504	-97,289	0,179	-0,034
-194,490	-200,000	-0,010	0,045
-193,475	800,000	-0,027	-0,076
-192,460	-103,627	0,098	0,017
-191,446	-46,426	0,117	-0,042
-190,431	-200,000	0,012	0,157
-189,417	-40,973	-0,159	-0,060
-188,402	-19,714	0,063	0,028
-187,387	-15,247	-0,076	-0,035
-186,373	-125,465	-0,076	0,008
-185,358	-141,429	0,092	-0,007
-184,344	173,652	0,012	-0,012
-183,329	-113,255	-0,023	0,003
-182,315	404,362	-0,064	0,099
-181,300	175,134	0,040	-0,043
-180,285	-10,453	0,056	0,027
-179,271	-200,000	-0,001	-0,184
-178,256	55,163	-0,166	-0,117
-177,242	-143,132	0,038	-0,003
-176,227	385,778	-0,054	0,081
-175,212	-83,080	0,077	-0,018
-174,198	-200,000	0,010	0,041
-173,183	305,186	0,092	0,125
-172,169	800,000	0,018	0,039
-171,154	413,741	-0,071	-0,110
-170,139	-81,935	0,115	-0,027
-169,125	-72,396	-0,021	-0,006
-168,110	-200,000	0,013	0,060
-167,096	-200,000	0,023	0,211
-166,081	10,660	-0,115	0,064
-165,066	-31,433	0,074	-0,030
-164,052	800,000	0,024	-0,052
-163,037	259,621	0,085	0,108
-162,023	-200,000	0,008	-0,065
-161,008	-200,000	0,022	0,092
-159,993	374,292	0,062	-0,093
-158,979	319,920	-0,107	0,148
-157,964	800,000	0,031	-0,064
-156,950	215,517	-0,068	-0,079
-155,935	-200,000	-0,018	-0,094
-154,920	800,000	0,060	-0,134
-153,906	800,000	-0,030	0,074
-152,891	29,375	0,102	-0,063
-151,877	-200,000	-0,011	0,052
-150,862	333,670	-0,026	-0,037
-149,847	28,289	-0,050	-0,031
-148,833	-132,662	0,049	0,005
-147,818	-200,000	0,005	0,028
-146,804	-200,000	0,028	0,149
-145,789	152,681	-0,128	0,127
-144,775	-200,000	-0,009	0,090
-143,760	16,964	0,052	-0,030
-142,745	244,827	-0,069	-0,085
-141,731	-200,000	-0,009	-0,046
-140,716	54,555	-0,088	0,062
-139,702	800,000	0,090	0,204
-138,687	219,125	-0,087	0,101
-137,672	242,867	0,048	0,059
-136,658	286,357	-0,104	-0,137
-135,643	148,575	-0,102	0,100
-134,629	61,923	-0,059	0,043
-133,614	116,468	0,078	0,069
-132,599	60,985	0,017	0,013
-131,585	84,038	0,067	0,053
-130,570	-144,074	-0,072	0,005
-129,556	572,714	-0,020	-0,036
-128,541	-174,594	0,026	0,001
-127,526	311,771	0,049	0,067
-126,512	134,078	-0,024	0,023
-125,497	166,488	0,083	0,085
-124,483	800,000	0,024	0,050
-123,468	76,974	-0,128	0,099
-122,453	106,253	0,078	-0,067
-121,439	-48,919	-0,153	-0,053
-120,424	-5,657	0,098	-0,048
-119,410	429,905	-0,024	0,038
