DTS Sentinel unit serial number:	SN410029Multiplexer serial number:	ORYXHardware model number:	OX2-SRSoftware version number:	ORYX F/W v4,00 Oryx Data Collector v3.7.2.0data status	okinstallation	B6 Nyhavnadifferential loss correction	single-endedforward channel	channel 2reverse channel	N/Adate	2023/12/07time	12:35:08forward acquisition time	300,00reverse acquisition time	0,00gamma	499,1914k internal	0,3203k external	0,3203temperature offset calibration	1,0000default loss term (dB/km)	0,3820temperature slope calibration	1,0000multiplexer offset coefficient	1,0000multiplexer slope coefficient	1,0000fibre end	0,00T internal ref (°C)	10,34T ext. ref 1 (°C)	-3,21T ext. ref 2 (°C)	-3,17length (m)	temperature (°C)	Stokes	anti-Stokes-744,400	191,389	-0,050	0,055
-743,385	-178,665	-0,254	0,004
-742,371	-156,811	0,142	0,006
-741,356	-116,976	-0,304	0,040
-740,342	139,880	0,084	0,081
-739,327	-180,566	-0,320	0,005
-738,312	115,676	0,038	-0,034
-737,298	-76,998	-0,398	-0,100
-736,283	-76,194	0,134	0,034
-735,269	-79,011	-0,355	0,087
-734,254	36,495	0,069	0,044
-733,239	5,112	-0,482	-0,257
-732,225	-18,116	0,193	0,087
-731,210	-43,021	-0,068	-0,025
-730,196	1,166	-0,014	0,007
-729,181	-159,220	-0,080	-0,003
-728,167	-43,392	-0,081	0,030
-727,152	-117,744	-0,044	0,006
-726,137	8,962	0,076	-0,042
-725,123	677,156	0,020	-0,038
-724,108	-200,000	-0,028	-0,090
-723,094	285,016	-0,083	-0,109
-722,079	-200,000	0,020	-0,222
-721,064	-29,480	-0,144	-0,060
-720,050	-28,945	-0,079	-0,033
-719,035	20,666	-0,033	-0,019
-718,021	800,000	0,060	-0,123
-717,006	32,537	0,060	-0,038
-715,991	-88,062	0,152	-0,033
-714,977	5,791	0,063	-0,034
-713,962	561,031	-0,096	-0,169
-712,948	161,761	0,059	0,060
-711,933	800,000	-0,034	-0,080
-710,918	-6,474	0,088	0,044
-709,904	-200,000	-0,058	-0,236
-708,889	800,000	-0,043	-0,090
-707,875	138,532	-0,033	-0,032
-706,860	-200,000	0,000	0,031
-705,845	800,000	-0,022	-0,046
-704,831	800,000	-0,022	0,052
-703,816	169,860	-0,050	-0,051
-702,802	-19,615	0,033	0,015
-701,787	420,708	-0,025	0,039
-700,772	-47,663	-0,131	-0,046
-699,758	393,815	-0,011	0,016
-698,743	-153,119	0,119	0,006
-697,729	742,303	0,091	0,178
-696,714	-200,000	0,023	-0,139
-695,699	-103,889	0,122	0,021
-694,685	-200,000	0,001	-0,013
-693,670	415,727	0,034	-0,053
-692,656	97,537	-0,097	-0,081
-691,641	800,000	0,044	-0,116
-690,627	254,525	0,032	0,039
-689,612	220,446	-0,131	-0,152
-688,597	800,000	0,030	0,097
-687,583	-143,707	0,026	-0,002
-686,568	-137,183	-0,117	0,010
-685,554	539,162	0,085	0,148
-684,539	72,067	0,148	0,111
-683,524	697,969	0,028	-0,053
-682,510	361,703	-0,064	0,094
-681,495	-156,966	0,089	0,004
-680,481	207,979	0,091	-0,103
-679,466	-34,563	-0,041	-0,016
-678,451	-160,603	0,025	-0,001
-677,437	55,815	-0,124	0,087
-676,422	-14,337	0,014	0,007
-675,408	39,762	-0,036	-0,024
-674,393	800,000	-0,015	-0,035
-673,378	-67,421	-0,100	-0,028
-672,364	-200,000	-0,004	-0,125
-671,349	-108,778	0,058	-0,009
-670,335	-135,136	-0,118	0,010
-669,320	800,000	-0,027	0,084
-668,305	252,728	-0,029	-0,036
-667,291	-164,795	0,065	-0,002
-666,276	-200,000	-0,009	-0,040
-665,262	-200,000	-0,041	-0,291
-664,247	-200,000	0,040	-0,141
-663,232	4,138	0,034	0,018
-662,218	-70,238	-0,041	0,011
-661,203	800,000	-0,026	0,056
-660,189	-3,964	0,100	-0,050
-659,174	226,407	-0,130	-0,153
-658,159	-200,000	-0,007	-0,074
-657,145	-200,000	-0,018	-0,066
-656,130	-81,072	-0,068	0,016
-655,116	-67,226	-0,050	-0,014
-654,101	800,000	0,028	0,069
-653,086	-145,547	-0,059	-0,004
-652,072	118,430	-0,058	0,052
-651,057	461,417	-0,037	-0,060
-650,043	97,766	-0,042	-0,035
-649,028	102,649	0,060	-0,050
-648,014	120,588	-0,027	0,024
-646,999	250,952	0,047	0,058
-645,984	-76,785	-0,045	-0,011
-644,970	156,497	-0,097	0,097
-643,955	800,000	-0,058	0,154
-642,941	-99,974	-0,133	-0,024
-641,926	800,000	0,045	-0,102
-640,911	86,433	-0,048	-0,038
-639,897	-45,899	0,105	-0,037
-638,882	-110,281	-0,053	-0,008
-637,868	800,000	-0,029	0,072
-636,853	-35,035	-0,041	0,016
-635,838	-2,690	0,019	0,010
-634,824	10,886	-0,163	-0,090
-633,809	-112,379	0,089	0,013
-632,795	-103,240	-0,099	-0,017
-631,780	-92,325	-0,026	0,005
-630,765	487,416	-0,051	0,085
-629,751	-74,925	-0,055	0,014
-628,736	-200,000	0,012	-0,171
-627,722	-76,680	-0,049	0,012
-626,707	303,652	0,041	0,055
-625,692	-62,199	0,105	0,031
-624,678	-200,000	0,019	-0,110
-623,663	-176,963	-0,059	-0,001
-622,649	742,529	-0,085	0,166
-621,634	135,408	-0,128	-0,120
-620,619	-31,670	-0,120	0,049
-619,605	800,000	0,064	0,140
-618,590	144,774	0,091	0,088
-617,576	800,000	-0,049	0,113
-616,561	800,000	0,020	-0,046
-615,546	217,410	0,014	0,016
-614,532	-103,248	-0,119	-0,020
-613,517	-50,667	-0,020	0,007
-612,503	114,907	-0,036	0,032
-611,488	122,843	0,050	0,045
-610,474	-166,961	0,012	-0,000
-609,459	-121,206	0,099	-0,012
-608,444	12,325	-0,140	-0,078
-607,430	-200,000	-0,001	-0,042
-606,415	30,354	0,038	-0,023
-605,401	620,430	0,044	-0,081
-604,386	800,000	-0,044	0,101
-603,371	-200,000	0,021	0,168
-602,357	-10,527	0,115	-0,055
-601,342	-200,000	-0,020	0,084
-600,328	-104,559	-0,104	0,017
-599,313	800,000	-0,062	-0,174
-598,298	-32,919	0,029	0,012
-597,284	40,671	0,041	-0,027
-596,269	460,424	0,021	0,034
-595,255	47,792	-0,098	-0,066
-594,240	421,741	-0,002	-0,003
-593,225	-200,000	0,008	-0,053
-592,211	474,332	-0,033	-0,054
-591,196	800,000	-0,074	-0,154
-590,182	408,764	0,127	-0,196
-589,167	167,642	-0,165	-0,169
-588,152	102,420	0,029	0,024
-587,138	-200,000	-0,012	0,087
-586,123	153,616	-0,063	0,062
-585,109	-37,368	-0,087	0,033
-584,094	800,000	-0,034	-0,085
-583,079	-99,013	0,112	-0,020
-582,065	399,555	-0,116	-0,176
-581,050	-200,000	-0,003	0,047
-580,036	145,629	-0,084	0,081
-579,021	58,610	-0,076	0,054
-578,006	436,689	-0,050	0,078
-576,992	-200,000	-0,003	0,035
-575,977	-11,114	-0,067	0,032
-574,963	-200,000	0,023	-0,151
-573,948	800,000	0,037	-0,079
-572,934	800,000	-0,027	0,083
-571,919	252,344	-0,078	-0,096
-570,904	-200,000	0,017	0,069
-569,890	45,066	0,075	-0,050
-568,875	-27,352	0,056	0,024
-567,861	-200,000	0,001	-0,024
-566,846	-66,777	0,123	0,035
-565,831	-102,211	-0,074	-0,013
-564,817	22,234	0,095	0,056
-563,802	-200,000	-0,006	0,072
-562,788	-43,221	0,081	0,030
-561,773	800,000	0,040	-0,087
-560,758	800,000	-0,029	0,065
-559,744	-39,559	0,085	0,032
-558,729	-90,303	-0,112	0,023
-557,715	177,882	0,092	0,097
-556,700	-60,469	-0,062	0,019
-555,685	33,683	0,163	-0,102
-554,671	-101,019	-0,090	0,016
-553,656	-200,000	0,113	0,000
-552,642	-82,204	-0,188	0,044
-551,627	-200,000	0,007	0,034
-550,612	-6,678	-0,059	-0,029
-549,598	-29,146	-0,081	0,033
-548,583	-200,000	0,001	-0,057
-547,569	6,443	-0,151	-0,081
-546,554	800,000	-0,026	-0,068
-545,539	-200,000	0,001	0,004
-544,525	153,841	-0,044	-0,043
-543,510	-200,000	-0,010	-0,045
-542,496	-19,873	-0,152	-0,067
-541,481	261,709	-0,062	-0,078
-540,466	800,000	-0,018	-0,053
-539,452	111,971	0,039	0,034
-538,437	255,077	0,123	0,153
-537,423	-141,249	-0,133	0,010
-536,408	800,000	-0,078	-0,178
-535,393	-82,499	-0,027	0,006
-534,379	-94,507	0,067	-0,013
-533,364	244,062	-0,035	0,042
-532,350	-200,000	-0,001	-0,026
-531,335	-1,396	0,045	-0,023
-530,321	-74,127	-0,023	-0,006
-529,306	-134,551	0,019	-0,002
-528,291	-92,915	-0,146	0,029
-527,277	-200,000	-0,020	-0,101
-526,262	-66,053	0,074	-0,021
-525,248	94,042	0,092	-0,075
-524,233	-103,216	0,091	0,015
-523,218	3,791	0,068	-0,035
-522,204	-0,571	0,154	0,079
-521,189	26,189	0,053	0,032
-520,175	38,316	0,092	0,059
-519,160	-30,594	0,096	-0,039
-518,145	69,070	-0,018	0,013
-517,131	150,831	0,115	-0,113
-516,116	561,268	0,010	0,017
-515,102	30,340	-0,093	0,057
-514,087	615,923	0,033	-0,060
-513,072	-200,000	-0,001	0,017
-512,058	419,911	-0,012	0,018
-511,043	800,000	0,018	0,038
-510,029	-74,850	0,061	-0,016
-509,014	-200,000	0,007	0,064
-507,999	-164,155	0,092	-0,003
-506,985	257,559	-0,029	0,036
-505,970	-200,000	0,020	-0,160
-504,956	254,586	0,038	-0,048
-503,941	800,000	-0,045	-0,120
-502,926	-93,042	-0,074	-0,015
-501,912	-200,000	-0,016	0,086
-500,897	-103,622	0,098	-0,016
-499,883	800,000	-0,058	0,152
-498,868	-21,794	-0,167	-0,073
-497,853	-107,497	-0,039	-0,006
-496,839	-89,612	0,083	-0,017
-495,824	87,428	0,052	-0,041
-494,810	-183,619	-0,169	0,002
-493,795	-35,592	0,090	-0,035
-492,781	-113,068	-0,091	0,013
-491,766	325,742	-0,108	-0,149
-490,751	-128,724	0,047	0,005
-489,737	86,743	-0,020	-0,016
-488,722	-21,001	0,132	-0,058
-487,708	-93,138	-0,037	-0,007
-486,693	800,000	-0,036	0,074
-485,678	-200,000	-0,000	0,104
-484,664	58,508	0,064	0,045
-483,649	18,255	-0,152	0,087
-482,635	800,000	0,021	-0,041
-481,620	-142,813	0,057	-0,004
-480,605	11,127	0,104	0,057
-479,591	-128,920	0,111	0,011
-478,576	-200,000	-0,002	-0,027
-477,562	254,769	0,024	0,030
-476,547	-127,375	0,085	-0,009
-475,532	48,514	-0,152	0,102
-474,518	514,743	-0,017	0,029
-473,503	-200,000	0,009	0,053
-472,489	462,987	0,033	-0,053
-471,474	-200,000	0,022	0,094
-470,459	-200,000	-0,005	-0,101
-469,445	-23,702	-0,075	0,032
-468,430	800,000	0,063	0,129
-467,416	262,774	0,031	-0,039
-466,401	-34,431	0,102	0,040
-465,386	800,000	-0,019	0,046
-464,372	-39,300	0,102	-0,038
-463,357	48,638	0,030	-0,020
-462,343	22,035	0,031	0,018
-461,328	211,762	-0,081	-0,092
-460,313	522,128	-0,022	-0,037
-459,299	-129,386	0,082	-0,008
-458,284	800,000	-0,024	-0,072
-457,270	208,243	-0,102	-0,114
-456,255	800,000	0,017	0,039
-455,241	10,367	-0,022	-0,012
-454,226	-200,000	0,019	0,162
-453,211	800,000	-0,066	0,184
-452,197	500,835	-0,079	0,132
-451,182	139,256	0,056	-0,053
-450,168	176,128	0,100	0,105
-449,153	140,161	0,048	-0,046
-448,138	800,000	-0,067	-0,168
-447,124	-200,000	-0,020	-0,171
-446,109	352,522	0,104	-0,148
-445,095	-26,419	0,123	0,052
-444,080	-98,622	0,124	0,022
-443,065	-200,000	0,011	-0,057
-442,051	-37,382	-0,097	-0,037
-441,036	-200,000	0,020	-0,193
-440,022	-200,000	0,003	-0,084
-439,007	-28,338	0,045	-0,019
-437,992	800,000	-0,021	0,054
-436,978	-200,000	0,001	-0,081
-435,963	-200,000	0,035	0,171
-434,949	-154,655	-0,095	0,004
-433,934	58,391	0,096	-0,068
-432,919	-200,000	-0,026	-0,126
-431,905	-30,227	-0,066	-0,027
-430,890	-37,384	-0,060	0,023
-429,876	636,187	0,070	0,128
-428,861	-16,457	0,116	0,053
-427,846	-200,000	-0,027	0,127
-426,832	82,086	0,034	-0,027
-425,817	-62,293	-0,221	-0,066
-424,803	162,100	0,044	-0,044
-423,788	800,000	-0,049	0,103
-422,773	106,266	-0,095	0,081
-421,759	116,021	-0,050	0,044
-420,744	-200,000	0,000	0,150
-419,730	800,000	0,004	-0,011
-418,715	-45,123	-0,076	0,027
-417,701	-168,344	-0,164	-0,004
-416,686	-200,000	0,007	0,056
-415,671	-200,000	0,007	-0,096
-414,657	458,635	0,063	0,101
-413,642	-110,621	-0,060	-0,009
-412,628	800,000	-0,027	-0,059
-411,613	429,287	-0,017	0,027
-410,598	800,000	-0,047	-0,140
-409,584	599,459	-0,038	0,067
-408,569	30,694	0,143	-0,087
-407,555	-154,239	0,075	-0,004
-406,540	63,881	0,115	-0,083
-405,525	534,316	-0,063	0,107
-404,511	-123,919	-0,083	0,009
-403,496	-66,618	-0,123	-0,035
-402,482	141,166	-0,056	-0,053
-401,467	-200,000	0,023	-0,076
-400,452	-37,380	0,052	-0,020
-399,438	-110,141	0,131	-0,019
-398,423	42,894	-0,145	0,095
-397,409	35,090	0,109	0,068
-396,394	800,000	-0,032	-0,086
-395,379	-200,000	-0,000	0,102
-394,365	612,226	0,088	0,158
-393,350	-200,000	0,006	0,024
-392,336	-56,537	-0,064	-0,020
-391,321	-200,000	-0,016	-0,147
-390,306	-200,000	-0,022	-0,096
-389,292	44,631	0,031	0,020
-388,277	-43,262	0,068	-0,025
-387,263	-200,000	-0,029	-0,224
-386,248	800,000	-0,014	-0,029
-385,233	-199,256	0,025	0,000
-384,219	800,000	-0,031	-0,080
-383,204	-68,800	-0,009	-0,002
-382,190	800,000	0,011	0,033
-381,175	-200,000	0,011	0,097
-380,160	-16,238	0,114	0,052
-379,146	672,243	-0,053	0,098
-378,131	-195,996	0,059	-0,000
-377,117	-200,000	-0,009	-0,041
-376,102	471,256	0,043	0,070
-375,088	46,698	-0,038	0,025
-374,073	-200,000	-0,008	0,029
-373,058	68,380	0,086	-0,063
-372,044	26,318	0,067	-0,040
-371,029	-200,000	0,037	0,151
-370,015	-123,917	-0,053	0,006
-369,000	50,161	0,110	-0,074
-367,985	800,000	-0,029	-0,088
-366,971	9,704	-0,114	-0,062
-365,956	-175,343	0,215	0,004
-364,942	-200,000	0,028	0,145
-363,927	800,000	0,041	0,120
-362,912	174,599	0,022	-0,023
-361,898	590,701	0,039	-0,070
-360,883	-25,662	-0,058	0,024
-359,869	800,000	0,051	0,103
-358,854	-59,429	0,130	0,040
-357,839	192,600	-0,125	0,135
-356,825	-200,000	-0,010	0,113
-355,810	-21,987	-0,140	-0,060
-354,796	377,313	0,014	0,021
-353,781	-200,000	-0,015	0,090
-352,766	498,906	-0,030	-0,050
-351,752	326,311	0,023	-0,032
-350,737	-200,000	0,024	0,195
-349,723	800,000	0,022	-0,047
-348,708	316,021	0,028	0,039
-347,693	800,000	-0,021	0,045
-346,679	-72,913	-0,031	-0,008
-345,664	29,116	-0,136	-0,082
-344,650	104,604	0,041	-0,034
-343,635	-160,778	0,124	-0,005
-342,620	-200,000	-0,012	0,085
-341,606	-100,497	0,014	0,003
-340,591	175,814	-0,015	-0,016
-339,577	-200,000	0,034	-0,199
-338,562	347,372	-0,068	-0,096
-337,548	-91,305	0,078	-0,016
-336,533	-138,328	-0,159	0,012
-335,518	382,335	0,050	0,074
-334,504	194,764	-0,071	0,078
-333,489	-163,479	-0,106	-0,004
-332,475	-200,000	-0,004	0,032
-331,460	-26,732	0,032	-0,013
-330,445	327,090	-0,048	0,066
-329,431	-170,475	0,078	-0,002
-328,416	-89,166	-0,020	0,004
-327,402	-63,309	-0,117	0,034
-326,387	800,000	0,060	-0,149
-325,372	-115,313	-0,062	-0,008
-324,358	16,477	0,082	-0,046
-323,343	-200,000	0,018	-0,131
-322,329	-200,000	0,043	0,146
-321,314	-70,858	-0,038	-0,010
-320,299	800,000	-0,007	0,018
-319,285	-44,725	0,057	0,020
-318,270	-200,000	0,033	0,125
-317,256	800,000	0,049	-0,112
-316,241	-200,000	0,000	-0,072
-315,226	-200,000	-0,014	0,161
-314,212	-103,816	0,056	-0,009
-313,197	-200,000	-0,024	0,078
-312,183	-200,000	-0,008	-0,035
-311,168	-200,000	0,011	-0,083
-310,153	-72,288	-0,105	0,028
-309,139	-107,245	-0,063	0,010
-308,124	23,384	0,171	-0,100
-307,110	580,003	0,033	-0,057
-306,095	800,000	-0,041	0,108
-305,080	696,160	0,022	-0,041
-304,066	-200,000	0,021	-0,132
-303,051	-170,848	-0,120	-0,003
-302,037	-144,187	-0,104	-0,007
-301,022	-200,000	0,008	0,063
-300,008	402,075	0,120	0,181
-298,993	-70,379	0,056	0,015
-297,978	382,504	0,081	0,120
-296,964	-25,082	-0,079	0,034
-295,949	800,000	-0,051	-0,120
-294,935	-41,879	-0,038	-0,014
-293,920	630,673	0,052	-0,094
-292,905	543,432	-0,035	0,061
-291,891	800,000	0,037	0,105
-290,876	-117,917	0,129	-0,016
-289,862	-200,000	0,003	0,106
-288,847	-24,948	-0,063	-0,027
-287,832	-111,608	-0,066	0,009
-286,818	18,576	-0,084	-0,048
-285,803	-44,560	-0,035	0,012
-284,789	-200,000	-0,012	0,120
-283,774	542,749	-0,054	-0,091
-282,759	-38,173	-0,067	-0,025
-281,745	44,443	-0,029	-0,019
-280,730	-96,775	0,051	0,010
-279,716	-200,000	-0,020	-0,093
-278,701	-131,381	0,175	0,016
-277,686	-200,000	0,031	0,119
-276,672	800,000	0,045	0,123
-275,657	-200,000	0,016	-0,098
-274,643	308,763	-0,046	0,061
-273,628	-200,000	-0,014	-0,133
-272,613	800,000	0,026	0,072
-271,599	-200,000	-0,043	0,149
-270,584	800,000	0,005	-0,015
-269,570	-85,363	0,151	-0,033
-268,555	535,711	0,024	0,041
-267,540	699,537	-0,009	-0,018
-266,526	233,686	-0,066	-0,077
-265,511	-30,630	0,034	0,013
-264,497	187,335	-0,072	-0,077
-263,482	-16,019	-0,058	-0,026
-262,467	-200,000	-0,003	0,106
-261,453	452,785	-0,054	0,086
-260,438	-73,372	0,106	-0,028
-259,424	-200,000	-0,023	0,087
-258,409	20,549	-0,107	0,062
-257,395	-55,254	0,068	0,022
-256,380	800,000	0,042	-0,108
-255,365	488,350	-0,035	0,057
-254,351	127,796	0,035	-0,032
-253,336	-96,312	-0,131	-0,024
-252,322	-200,000	-0,001	0,048
-251,307	-91,303	0,089	-0,018
-250,292	-200,000	-0,045	0,167
-249,278	324,137	-0,022	0,030
-248,263	-64,677	-0,110	0,032
-247,249	800,000	0,015	-0,045
-246,234	277,174	0,028	0,036
-245,219	-89,824	0,055	-0,011
-244,205	-132,929	0,059	-0,005
-243,190	-136,958	-0,028	-0,002
-242,176	-200,000	0,012	0,050
-241,161	33,950	0,065	-0,040
-240,146	54,657	0,042	-0,029
-239,132	79,785	-0,069	0,053
-238,117	66,857	0,016	-0,012
-237,103	58,014	0,079	0,055
-236,088	2,804	-0,068	-0,035
-235,073	-136,186	-0,054	-0,004
-234,059	187,378	-0,106	0,113
-233,044	95,964	-0,073	0,060
-232,030	-200,000	0,003	0,027
-231,015	-133,664	-0,097	-0,009
-230,000	525,429	-0,044	-0,075
-228,986	28,010	0,032	-0,019
-227,971	-65,610	0,129	0,037
-226,957	-30,278	0,042	0,017
-225,942	-158,724	0,146	0,006
-224,927	-200,000	-0,021	-0,081
-223,913	493,275	-0,045	-0,074
-222,898	800,000	-0,089	-0,192
-221,884	195,671	0,072	0,078
-220,869	383,872	-0,033	0,049
-219,855	-200,000	0,002	-0,064
-218,840	131,124	-0,040	-0,036
-217,825	42,634	0,057	-0,037
-216,811	-200,000	0,001	-0,271
-215,796	72,491	-0,040	-0,030
-214,782	84,352	0,138	0,107
-213,767	-200,000	-0,000	0,025
-212,752	-200,000	-0,010	0,149
-211,738	-130,101	0,127	-0,012
-210,723	-200,000	0,022	0,118
-209,709	16,845	-0,050	-0,028
-208,694	372,370	-0,066	-0,095
-207,679	-195,604	0,157	0,001
-206,665	177,524	-0,016	-0,017
-205,650	800,000	0,005	-0,012
-204,636	-200,000	-0,037	-0,118
-203,621	100,843	0,078	0,064
-202,606	-42,924	0,061	-0,022
-201,592	53,143	-0,021	0,014
-200,577	297,379	0,071	0,093
-199,563	276,966	0,065	-0,082
-198,548	-41,837	0,149	0,054
-197,533	-35,890	0,090	0,035
-196,519	-44,100	0,146	-0,052
-195,504	-200,000	-0,014	0,148
-194,490	-65,201	-0,034	-0,010
-193,475	-29,190	-0,016	-0,006
-192,460	76,438	0,069	-0,052
-191,446	600,658	0,081	-0,144
-190,431	167,132	0,188	-0,191
-189,417	800,000	-0,014	0,034
-188,402	-157,531	-0,155	-0,006
-187,387	-109,048	0,040	0,006
-186,373	800,000	-0,062	-0,180
-185,358	-19,368	-0,073	-0,032
-184,344	103,359	0,055	0,046
-183,329	-7,388	-0,114	0,055
-182,315	191,503	0,134	0,143
-181,300	-200,000	-0,025	0,115
-180,285	112,836	-0,080	0,069
-179,271	38,271	-0,084	-0,053
-178,256	67,976	-0,026	0,019
-177,242	40,178	-0,006	0,004
-176,227	748,254	0,096	0,184
-175,212	295,054	-0,032	-0,042
-174,198	800,000	0,022	-0,053
-173,183	-145,683	0,080	0,005
-172,169	-200,000	0,014	-0,099
-171,154	-46,995	-0,112	-0,039
-170,139	-200,000	0,004	-0,036
-169,125	-102,760	0,117	-0,020
-168,110	-170,425	0,112	-0,003
-167,096	-39,404	0,046	-0,017
-166,081	-68,072	-0,067	-0,018
-165,066	212,832	-0,102	-0,115
-164,052	-71,169	0,076	-0,020
-163,037	-76,489	-0,097	0,024
-162,023	-104,276	-0,018	0,003
-161,008	800,000	0,045	0,090
-159,993	-150,682	0,031	-0,002
-158,979	392,699	0,037	0,055
-157,964	-200,000	0,006	0,053
-156,950	-200,000	-0,017	-0,121
-155,935	-200,000	0,026	0,084
-154,920	-100,065	0,031	0,005
-153,906	440,905	-0,081	-0,127
-152,891	-56,760	-0,033	0,010
-151,877	368,459	-0,034	-0,049
-150,862	-160,843	-0,063	0,002
-149,847	48,345	-0,020	-0,013
-148,833	800,000	0,044	0,112
-147,818	-14,055	-0,019	-0,009
-146,804	800,000	0,038	0,088
-145,789	-112,960	0,097	0,013
-144,775	-200,000	-0,029	0,109
-143,760	-41,783	-0,078	0,028
-142,745	-114,751	0,030	-0,004
-141,731	47,106	0,089	-0,058
-140,716	24,141	-0,049	0,029
-139,702	3,561	-0,159	0,082
-138,687	254,005	0,055	-0,067
-137,672	-200,000	-0,004	0,025
-136,658	36,850	0,134	-0,084
-135,643	0,827	0,031	-0,015
-134,629	-200,000	-0,006	0,069
-133,614	558,703	0,047	-0,081
-132,599	237,303	0,082	0,097
-131,585	-200,000	-0,006	-0,168
-130,570	800,000	0,035	-0,073
-129,556	242,527	0,011	-0,013
-128,541	-200,000	0,018	-0,082
-127,526	-200,000	0,004	-0,123
-126,512	6,957	-0,122	-0,064
-125,497	340,894	0,057	-0,079
-124,483	-104,175	0,089	-0,015
-123,468	-200,000	-0,006	0,067
-122,453	223,092	0,030	-0,035
-121,439	-10,546	0,093	-0,044
-120,424	305,129	-0,033	0,044
