DTS Sentinel unit serial number:	SN410029Multiplexer serial number:	ORYXHardware model number:	OX2-SRSoftware version number:	ORYX F/W v4,00 Oryx Data Collector v3.7.2.0data status	okinstallation	B6 Nyhavnadifferential loss correction	single-endedforward channel	channel 2reverse channel	N/Adate	2023/12/07time	19:05:08forward acquisition time	300,00reverse acquisition time	0,00gamma	499,1914k internal	0,3164k external	0,3164temperature offset calibration	1,0000default loss term (dB/km)	0,3820temperature slope calibration	1,0000multiplexer offset coefficient	1,0000multiplexer slope coefficient	1,0000fibre end	0,00T internal ref (°C)	14,12T ext. ref 1 (°C)	-2,94T ext. ref 2 (°C)	-2,95length (m)	temperature (°C)	Stokes	anti-Stokes-744,400	-151,779	0,196	0,010
-743,385	-69,128	-0,299	-0,084
-742,371	58,060	0,154	0,111
-741,356	800,000	-0,076	0,163
-740,342	-88,511	0,089	0,019
-739,327	2,701	-0,296	0,157
-738,312	-20,796	0,212	0,095
-737,298	-92,245	-0,294	-0,061
-736,283	-172,668	0,090	-0,002
-735,269	-165,718	-0,247	0,008
-734,254	-94,206	0,019	-0,004
-733,239	-78,874	-0,494	-0,123
-732,225	-187,247	0,236	0,002
-731,210	97,819	-0,074	0,063
-730,196	-70,576	-0,078	0,022
-729,181	434,289	-0,065	-0,104
-728,167	-200,000	0,015	0,123
-727,152	46,111	-0,052	-0,035
-726,137	81,447	-0,136	-0,108
-725,123	406,393	0,051	0,079
-724,108	344,475	-0,091	-0,131
-723,094	-200,000	-0,008	0,038
-722,079	-146,818	-0,176	-0,011
-721,064	-200,000	0,005	-0,024
-720,050	665,377	0,063	-0,120
-719,035	34,714	0,134	0,086
-718,021	-200,000	0,006	0,064
-717,006	-167,119	-0,136	-0,004
-715,991	800,000	0,040	-0,096
-714,977	-46,073	-0,040	-0,015
-713,962	140,592	0,068	-0,066
-712,948	-200,000	-0,040	-0,166
-711,933	11,696	-0,248	-0,139
-710,918	-200,000	-0,007	0,040
-709,904	258,734	-0,023	-0,029
-708,889	-8,929	-0,060	-0,030
-707,875	115,077	-0,133	-0,119
-706,860	-200,000	-0,028	-0,109
-705,845	145,809	0,103	0,101
-704,831	419,314	0,012	0,019
-703,816	-200,000	-0,002	-0,068
-702,802	-140,772	0,017	-0,001
-701,787	736,767	-0,051	-0,101
-700,772	90,769	-0,029	0,024
-699,758	573,247	0,013	-0,023
-698,743	80,510	0,127	-0,101
-697,729	3,757	0,125	-0,067
-696,714	800,000	-0,017	-0,042
-695,699	-200,000	-0,128	-0,000
-694,685	10,097	0,096	-0,054
-693,670	84,730	0,031	-0,025
-692,656	-73,267	-0,014	0,004
-691,641	800,000	0,024	-0,065
-690,627	-125,737	0,031	-0,003
-689,612	764,172	0,033	0,065
-688,597	-200,000	-0,009	-0,031
-687,583	105,297	-0,127	-0,110
-686,568	193,522	-0,069	0,077
-685,554	321,089	-0,028	-0,039
-684,539	-153,767	-0,039	-0,002
-683,524	429,560	0,072	0,114
-682,510	56,948	0,070	-0,050
-681,495	-200,000	0,021	-0,156
-680,481	265,448	-0,039	-0,050
-679,466	800,000	-0,096	-0,257
-678,451	86,425	0,075	0,061
-677,437	-67,482	0,080	-0,023
-676,422	-200,000	0,008	0,063
-675,408	393,205	-0,074	0,113
-674,393	-87,100	-0,053	-0,012
-673,378	800,000	-0,034	-0,094
-672,364	800,000	-0,047	0,102
-671,349	-74,094	-0,082	-0,022
-670,335	-109,248	-0,095	-0,015
-669,320	-104,503	-0,084	0,014
-668,305	-81,545	0,131	0,031
-667,291	-115,173	-0,034	-0,005
-666,276	-190,114	0,030	0,000
-665,262	275,400	0,059	-0,076
-664,247	484,282	0,042	-0,070
-663,232	654,154	0,067	-0,128
-662,218	19,273	0,052	0,031
-661,203	800,000	0,032	-0,074
-660,189	634,683	0,065	-0,121
-659,174	785,796	0,029	-0,058
-658,159	-64,411	-0,080	-0,024
-657,145	-158,218	-0,130	-0,005
-656,130	54,193	0,020	0,014
-655,116	66,742	-0,093	0,069
-654,101	-48,705	0,091	-0,032
-653,086	-95,598	-0,107	0,021
-652,072	738,593	-0,054	-0,106
-651,057	-23,196	-0,088	-0,039
-650,043	1,818	-0,039	-0,020
-649,028	-159,386	-0,144	-0,006
-648,014	-76,255	-0,090	0,023
-646,999	388,203	-0,017	-0,025
-645,984	84,058	0,113	-0,091
-644,970	443,162	0,029	-0,046
-643,955	-32,504	-0,074	-0,030
-642,941	-30,044	-0,067	-0,028
-641,926	37,238	0,112	0,072
-640,911	-86,051	0,065	-0,015
-639,897	-87,915	0,064	-0,014
-638,882	-125,256	0,047	0,005
-637,868	251,126	-0,077	-0,096
-636,853	34,134	0,129	-0,082
-635,838	-200,000	-0,013	-0,123
-634,824	121,596	0,059	-0,054
-633,809	-200,000	-0,032	0,168
-632,795	-200,000	-0,003	-0,049
-631,780	800,000	0,012	0,032
-630,765	-200,000	0,004	-0,019
-629,751	-150,558	-0,141	-0,008
-628,736	-127,512	-0,107	-0,011
-627,722	-31,758	-0,088	-0,036
-626,707	250,475	-0,044	0,055
-625,692	-136,644	-0,079	-0,007
-624,678	-29,800	0,025	-0,011
-623,663	800,000	0,035	0,084
-622,649	-51,329	0,040	-0,014
-621,634	-200,000	-0,009	0,051
-620,619	-200,000	0,002	-0,080
-619,605	-82,010	-0,039	-0,009
-618,590	135,431	-0,139	0,132
-617,576	155,231	0,059	0,059
-616,561	-116,338	-0,111	0,015
-615,546	-70,438	0,161	-0,044
-614,532	267,635	-0,088	-0,114
-613,517	234,816	0,055	-0,067
-612,503	120,631	0,015	0,014
-611,488	158,541	0,156	0,158
-610,474	-32,992	-0,092	0,037
-609,459	-27,822	-0,083	0,035
-608,444	-51,149	0,052	-0,018
-607,430	-61,226	-0,186	-0,057
-606,415	-18,813	-0,043	-0,019
-605,401	-34,550	-0,135	0,054
-604,386	281,858	-0,094	0,123
-603,371	145,902	-0,030	0,029
-602,357	-82,498	-0,131	0,031
-601,342	42,792	-0,185	-0,123
-600,328	88,088	0,083	-0,067
-599,313	-114,155	0,147	-0,020
-598,298	-200,000	0,005	0,184
-597,284	30,623	0,021	-0,013
-596,269	-57,531	-0,051	0,016
-595,255	-125,804	0,071	0,008
-594,240	53,431	-0,070	-0,049
-593,225	-200,000	0,004	0,062
-592,211	593,274	-0,043	-0,078
-591,196	210,024	-0,127	0,146
-590,182	730,702	0,013	-0,026
-589,167	-124,922	0,139	-0,015
-588,152	-75,599	-0,027	0,007
-587,138	-81,435	-0,052	0,012
-586,123	800,000	-0,011	-0,034
-585,109	39,474	0,080	-0,052
-584,094	800,000	0,037	-0,116
-583,079	569,222	-0,050	0,090
-582,065	20,606	-0,040	-0,024
-581,050	-200,000	0,009	-0,128
-580,036	-2,242	-0,070	0,036
-579,021	800,000	0,067	0,136
-578,006	340,687	-0,044	-0,062
-576,992	57,229	-0,020	-0,015
-575,977	117,394	0,004	-0,003
-574,963	188,446	-0,002	0,003
-573,948	-43,837	-0,089	0,033
-572,934	-1,313	-0,084	-0,043
-571,919	762,666	-0,040	0,081
-570,904	800,000	-0,053	0,151
-569,890	800,000	0,050	-0,121
-568,875	-117,762	0,046	-0,006
-567,861	-200,000	-0,033	-0,117
-566,846	274,887	-0,007	0,009
-565,831	328,296	-0,076	-0,106
-564,817	41,039	-0,049	0,032
-563,802	-200,000	-0,002	-0,063
-562,788	-200,000	0,002	-0,028
-561,773	-7,652	-0,065	0,032
-560,758	206,681	0,044	0,051
-559,744	185,945	-0,079	-0,086
-558,729	65,632	0,097	0,072
-557,715	253,207	-0,032	-0,040
-556,700	314,796	0,096	-0,133
-555,685	-99,703	-0,157	-0,028
-554,671	-200,000	-0,005	0,075
-553,656	-126,875	0,079	0,008
-552,642	800,000	0,022	-0,051
-551,627	33,854	0,046	-0,029
-550,612	394,786	0,046	-0,070
-549,598	800,000	0,011	-0,028
-548,583	800,000	-0,030	-0,067
-547,569	-101,314	0,047	0,008
-546,554	-108,121	0,045	-0,007
-545,539	-91,689	-0,091	-0,019
-544,525	52,988	-0,080	-0,056
-543,510	-200,000	-0,016	-0,090
-542,496	-86,851	0,160	0,035
-541,481	-48,420	-0,017	0,006
-540,466	254,495	-0,039	-0,049
-539,452	-13,107	0,021	0,010
-538,437	-177,738	0,099	-0,002
-537,423	800,000	0,012	0,028
-536,408	800,000	-0,030	-0,076
-535,393	-200,000	0,013	-0,135
-534,379	85,623	-0,129	-0,103
-533,364	-200,000	0,018	-0,107
-532,350	570,384	0,056	0,100
-531,335	-163,406	0,071	0,002
-530,321	639,233	0,081	0,150
-529,306	-62,145	-0,065	0,020
-528,291	-17,918	-0,139	0,063
-527,277	202,466	-0,069	-0,078
-526,262	-183,018	0,058	-0,001
-525,248	800,000	0,027	0,085
-524,233	-84,749	0,034	0,008
-523,218	191,707	0,015	0,017
-522,204	800,000	-0,024	0,052
-521,189	29,702	-0,124	0,077
-520,175	-200,000	-0,032	0,113
-519,160	-200,000	0,006	-0,051
-518,145	6,172	-0,124	0,067
-517,131	123,881	0,174	0,160
-516,116	297,686	0,098	0,132
-515,102	389,265	-0,041	0,062
-514,087	-200,000	0,032	-0,171
-513,072	-200,000	-0,001	-0,006
-512,058	-200,000	-0,040	-0,129
-511,043	340,434	-0,012	-0,017
-510,029	343,321	-0,025	0,036
-509,014	-200,000	0,003	-0,033
-507,999	317,544	0,034	-0,048
-506,985	131,383	-0,079	-0,074
-505,970	199,938	0,044	0,050
-504,956	-34,408	-0,092	0,036
-503,941	191,612	-0,100	-0,110
-502,926	-113,036	0,083	0,012
-501,912	-98,617	0,059	0,011
-500,897	95,556	-0,057	-0,047
-499,883	-119,428	0,111	0,014
-498,868	-17,344	-0,080	-0,037
-497,853	154,169	0,086	0,086
-496,839	-200,000	0,010	-0,074
-495,824	-200,000	0,009	-0,066
-494,810	165,650	-0,080	0,083
-493,795	-42,613	0,093	0,034
-492,781	79,890	-0,032	-0,025
-491,766	-101,122	-0,162	-0,029
-490,751	17,075	-0,042	-0,024
-489,737	800,000	0,074	-0,196
-488,722	71,684	0,020	-0,015
-487,708	800,000	0,044	0,089
-486,693	-200,000	0,002	0,040
-485,678	800,000	0,039	0,088
-484,664	701,472	-0,009	-0,017
-483,649	-45,645	-0,102	-0,037
-482,635	-200,000	-0,003	-0,123
-481,620	97,768	-0,083	-0,070
-480,605	750,608	0,055	0,109
-479,591	-200,000	-0,001	0,023
-478,576	164,610	0,097	0,100
-477,562	-39,344	-0,021	0,008
-476,547	-200,000	-0,023	-0,153
-475,532	104,197	0,085	0,073
-474,518	-200,000	0,007	0,027
-473,503	17,463	0,198	0,114
-472,489	-62,224	0,122	-0,037
-471,474	8,712	-0,074	-0,040
-470,459	706,142	-0,027	0,053
-469,445	-200,000	0,002	-0,086
-468,430	-93,258	-0,039	-0,008
-467,416	255,026	0,082	-0,103
-466,401	120,217	-0,020	0,018
-465,386	-17,808	-0,078	0,035
-464,372	800,000	0,074	0,181
-463,357	-51,689	0,041	-0,014
-462,343	-200,000	-0,012	0,040
-461,328	-68,256	-0,060	-0,017
-460,313	54,284	-0,094	0,066
-459,299	-29,357	0,033	-0,014
-458,284	-39,011	-0,061	-0,023
-457,270	319,298	0,058	0,080
-456,255	238,467	0,020	0,024
-455,241	430,059	-0,066	-0,105
-454,226	-86,666	-0,049	-0,011
-453,211	164,341	-0,086	0,089
-452,197	14,527	0,100	-0,057
-451,182	-4,980	0,092	-0,046
-450,168	-175,654	-0,114	0,002
-449,153	800,000	0,017	0,047
-448,138	-200,000	-0,013	0,052
-447,124	103,163	0,113	-0,096
-446,109	-65,385	0,009	0,003
-445,095	207,246	0,045	0,051
-444,080	-4,231	-0,050	0,025
-443,065	300,476	-0,040	0,053
-442,051	800,000	-0,005	-0,010
-441,036	54,014	0,049	0,034
-440,022	317,423	0,018	-0,025
-439,007	-200,000	0,003	-0,045
-437,992	-39,338	0,058	-0,022
-436,978	44,044	0,116	-0,077
-435,963	-200,000	0,002	0,115
-434,949	84,936	-0,109	0,087
-433,934	116,171	-0,069	-0,062
-432,919	-200,000	-0,002	-0,107
-431,905	-200,000	0,014	0,060
-430,890	-200,000	-0,005	-0,076
-429,876	-14,020	0,099	0,046
-428,861	-94,409	0,081	-0,016
-427,846	-200,000	-0,007	-0,108
-426,832	202,998	0,042	-0,047
-425,817	-76,401	-0,086	-0,022
-424,803	800,000	0,051	-0,120
-423,788	-4,999	0,104	0,052
-422,773	-14,718	-0,118	0,055
-421,759	-92,915	0,064	0,013
-420,744	-200,000	0,004	-0,019
-419,730	-200,000	0,006	-0,078
-418,715	-63,615	0,060	0,018
-417,701	245,607	-0,038	0,047
-416,686	-200,000	-0,004	0,030
-415,671	-200,000	0,010	0,059
-414,657	-93,290	-0,053	-0,011
-413,642	-200,000	-0,035	-0,143
-412,628	128,484	0,047	0,044
-411,613	-200,000	0,008	-0,061
-410,598	28,287	-0,127	0,078
-409,584	-52,695	-0,029	0,010
-408,569	-23,596	0,097	-0,042
-407,555	-200,000	0,036	0,148
-406,540	449,611	0,047	0,076
-405,525	25,333	0,114	0,069
-404,511	-200,000	-0,020	-0,064
-403,496	-128,365	-0,090	0,009
-402,482	339,483	0,079	-0,112
-401,467	-51,959	0,124	0,041
-400,452	800,000	-0,034	0,106
-399,438	-200,000	0,008	-0,090
-398,423	20,540	0,060	-0,035
-397,409	-200,000	0,041	0,156
-396,394	-36,406	0,031	0,012
-395,379	4,642	0,142	0,075
-394,365	-200,000	0,001	0,114
-393,350	-2,221	0,073	0,037
-392,336	-200,000	0,024	0,094
-391,321	208,128	0,034	0,039
-390,306	216,810	-0,093	-0,107
-389,292	220,174	-0,058	0,067
-388,277	800,000	-0,012	0,039
-387,263	557,684	-0,017	-0,031
-386,248	639,546	0,014	0,027
-385,233	-43,371	-0,089	-0,033
-384,219	22,421	0,087	0,052
-383,204	6,680	0,074	0,040
-382,190	351,622	0,034	-0,048
-381,175	-200,000	0,038	0,130
-380,160	89,969	-0,064	-0,052
-379,146	91,946	0,089	0,072
-378,131	716,152	0,041	0,080
-377,117	-200,000	0,010	0,187
-376,102	-128,112	-0,073	0,007
-375,088	93,630	0,038	-0,031
-374,073	-200,000	0,022	-0,119
-373,058	800,000	0,042	0,091
-372,044	-105,182	0,083	0,014
-371,029	-56,137	0,158	0,051
-370,015	316,696	-0,053	0,072
-369,000	-200,000	-0,002	0,127
-367,985	111,637	-0,222	-0,194
-366,971	-123,924	0,038	-0,004
-365,956	-140,333	0,053	-0,004
-364,942	34,379	-0,103	0,065
-363,927	-200,000	-0,013	0,044
-362,912	-21,490	0,102	-0,045
-361,898	-200,000	-0,009	-0,094
-360,883	-34,804	-0,019	-0,008
-359,869	-200,000	0,003	-0,048
-358,854	248,917	-0,016	-0,020
-357,839	47,404	0,052	0,035
-356,825	-200,000	-0,006	0,137
-355,810	-135,368	-0,103	-0,009
-354,796	800,000	0,020	0,056
-353,781	800,000	-0,034	-0,071
-352,766	-78,366	-0,089	-0,022
-351,752	-39,017	0,097	-0,037
-350,737	-9,617	0,091	-0,044
-349,723	-200,000	-0,007	0,065
-348,708	787,978	0,032	-0,064
-347,693	39,886	-0,031	-0,020
-346,679	198,055	-0,042	-0,047
-345,664	117,108	0,017	-0,015
-344,650	-99,360	0,133	-0,024
-343,635	393,759	0,038	-0,057
-342,620	370,327	-0,048	-0,070
-341,606	39,292	-0,050	-0,032
-340,591	-24,725	0,075	-0,032
-339,577	-38,249	-0,053	0,020
-338,562	800,000	-0,076	-0,155
-337,548	246,991	-0,017	0,021
-336,533	-19,838	0,192	0,086
-335,518	1,266	-0,071	-0,037
-334,504	800,000	-0,023	0,053
-333,489	-200,000	-0,028	-0,114
-332,475	193,454	0,065	0,071
-331,460	-24,924	-0,074	0,032
-330,445	-70,849	0,072	-0,019
-329,431	800,000	-0,020	-0,042
-328,416	800,000	0,021	-0,058
-327,402	800,000	-0,055	0,161
-326,387	-200,000	-0,007	-0,073
-325,372	142,754	-0,131	-0,126
-324,358	17,392	-0,106	-0,061
-323,343	457,776	0,079	0,128
-322,329	-200,000	0,011	0,178
-321,314	351,114	0,087	0,126
-320,299	-116,198	-0,026	0,003
-319,285	-6,356	-0,126	0,062
-318,270	-200,000	0,023	0,084
-317,256	-77,438	0,198	0,049
-316,241	-105,684	0,054	-0,009
-315,226	800,000	-0,055	0,116
-314,212	23,544	0,127	-0,075
-313,197	321,298	-0,085	0,117
-312,183	190,467	0,058	-0,063
-311,168	121,431	-0,137	-0,124
-310,153	251,643	-0,044	0,055
-309,139	-11,981	0,188	-0,089
-308,124	-21,706	0,131	0,057
-307,110	-47,893	0,084	0,029
-306,095	26,021	-0,068	0,041
-305,080	672,462	-0,072	0,135
-304,066	320,236	0,057	0,079
-303,051	-47,604	0,140	0,049
-302,037	-200,000	-0,015	-0,068
-301,022	65,636	-0,069	0,050
-300,008	206,647	0,063	0,071
-298,993	642,868	0,040	0,075
-297,978	-109,473	-0,033	0,005
-296,964	-200,000	-0,002	-0,059
-295,949	481,205	0,069	-0,113
-294,935	800,000	-0,014	0,035
-293,920	51,094	0,087	0,060
-292,905	419,149	-0,007	0,011
-291,891	800,000	0,032	0,067
-290,876	87,862	-0,083	-0,067
-289,862	-158,561	-0,077	0,003
-288,847	134,008	0,176	0,165
-287,832	800,000	-0,051	-0,124
-286,818	41,571	-0,056	0,037
-285,803	-200,000	0,004	-0,087
-284,789	430,117	-0,095	-0,149
-283,774	-200,000	0,016	0,058
-282,759	-153,782	0,082	0,004
-281,745	-126,495	-0,106	-0,011
-280,730	800,000	0,018	0,037
-279,716	-200,000	0,011	-0,096
-278,701	-200,000	0,005	0,062
-277,686	800,000	0,029	0,086
-276,672	-112,117	0,155	-0,022
-275,657	-183,602	0,123	-0,001
-274,643	377,112	-0,077	-0,114
-273,628	12,060	0,049	-0,027
-272,613	-49,128	-0,053	-0,018
-271,599	-132,317	0,163	-0,015
-270,584	82,551	0,162	0,127
-269,570	701,987	0,018	0,035
-268,555	-126,917	-0,030	-0,003
-267,540	800,000	-0,016	0,045
-266,526	-129,524	0,007	-0,001
-265,511	102,750	0,100	0,085
-264,497	68,708	0,076	-0,056
-263,482	-18,564	0,089	0,040
-262,467	800,000	-0,022	-0,064
-261,453	108,638	0,017	-0,014
-260,438	455,706	-0,052	0,083
-259,424	11,949	-0,029	-0,016
-258,409	72,462	-0,071	0,053
-257,395	51,699	-0,027	-0,019
-256,380	800,000	0,034	0,090
-255,365	118,731	-0,114	0,102
-254,351	-200,000	-0,009	0,109
-253,336	139,583	-0,063	0,060
-252,322	560,520	-0,081	-0,141
-251,307	5,684	-0,023	0,012
-250,292	-200,000	-0,003	0,049
-249,278	-200,000	-0,027	0,088
-248,263	-95,769	-0,152	0,029
-247,249	134,433	-0,083	-0,078
-246,234	-200,000	-0,058	-0,189
-245,219	183,531	-0,057	-0,061
-244,205	240,506	-0,069	-0,083
-243,190	800,000	0,065	0,153
-242,176	-200,000	-0,012	0,041
-241,161	800,000	0,050	0,108
-240,146	800,000	-0,017	-0,035
-239,132	-200,000	0,015	-0,172
-238,117	172,847	-0,059	0,062
-237,103	476,871	-0,108	-0,176
-236,088	36,293	-0,035	0,022
-235,073	-200,000	0,017	0,066
-234,059	-200,000	-0,022	0,081
-233,044	188,627	-0,047	-0,051
-232,030	34,339	0,178	-0,112
-231,015	-20,358	-0,120	0,053
-230,000	182,788	0,016	-0,018
-228,986	45,947	-0,198	-0,132
-227,971	-200,000	-0,008	-0,141
-226,957	109,459	-0,084	0,072
-225,942	800,000	0,026	0,060
-224,927	-82,941	-0,139	-0,032
-223,913	800,000	-0,025	-0,059
-222,898	-15,698	0,109	0,050
-221,884	56,513	0,026	0,018
-220,869	151,195	-0,060	-0,059
-219,855	184,767	0,066	-0,071
-218,840	800,000	-0,004	-0,010
-217,825	800,000	0,041	0,109
-216,811	-45,208	-0,068	-0,024
-215,796	-163,810	0,105	0,003
-214,782	-200,000	-0,011	0,037
-213,767	-200,000	0,035	-0,112
-212,752	91,864	0,150	-0,122
-211,738	-200,000	-0,019	0,075
-210,723	800,000	0,036	-0,097
-209,709	264,076	-0,055	-0,070
-208,694	-86,346	0,093	-0,020
-207,679	-66,236	-0,065	-0,018
-206,665	224,783	0,074	0,086
-205,650	122,287	-0,147	0,133
-204,636	196,664	0,090	-0,099
-203,621	56,586	-0,152	0,106
-202,606	-155,242	0,067	-0,003
-201,592	-200,000	-0,002	0,086
-200,577	540,101	-0,015	-0,025
-199,563	141,676	-0,053	-0,051
-198,548	369,480	0,017	-0,025
-197,533	800,000	0,055	-0,116
-196,519	-128,986	0,014	0,001
-195,504	26,773	-0,155	-0,093
-194,490	523,390	-0,045	-0,076
-193,475	-200,000	-0,001	0,091
-192,460	727,257	0,003	0,006
-191,446	91,867	-0,055	0,045
-190,431	-2,212	0,080	0,040
-189,417	151,230	-0,044	0,044
-188,402	25,726	-0,105	-0,063
-187,387	-51,171	-0,020	-0,007
-186,373	110,919	0,141	0,123
-185,358	-200,000	-0,010	-0,150
-184,344	451,639	0,106	-0,168
-183,329	-200,000	-0,001	0,077
-182,315	-46,214	-0,144	0,051
-181,300	-200,000	-0,031	0,135
-180,285	-87,322	0,067	0,014
-179,271	9,905	-0,074	0,040
-178,256	27,991	-0,094	0,057
-177,242	-68,248	0,106	-0,030
-176,227	231,788	-0,088	0,105
-175,212	-200,000	-0,011	-0,099
-174,198	431,509	-0,050	-0,078
-173,183	56,614	0,052	-0,036
-172,169	-200,000	-0,045	0,152
-171,154	151,270	-0,105	-0,103
-170,139	615,701	0,086	0,156
-169,125	65,675	0,134	0,098
-168,110	-200,000	0,006	0,152
-167,096	-12,657	0,110	-0,051
-166,081	29,779	0,029	0,018
-165,066	63,059	0,080	-0,058
-164,052	-200,000	-0,022	-0,105
-163,037	-99,723	0,025	0,004
-162,023	-200,000	-0,004	-0,204
-161,008	51,762	0,087	0,059
-159,993	6,288	0,056	0,030
-158,979	-139,998	-0,132	0,010
-157,964	590,213	0,034	-0,061
-156,950	-200,000	0,033	-0,136
-155,935	-200,000	0,015	-0,130
-154,920	-200,000	-0,015	-0,210
-153,906	101,798	-0,006	-0,005
-152,891	-83,045	0,039	0,009
-151,877	-200,000	0,027	-0,150
-150,862	-172,146	0,053	0,001
-149,847	72,810	0,075	-0,056
-148,833	110,914	0,032	0,027
-147,818	118,714	0,049	-0,044
-146,804	188,921	-0,026	0,029
-145,789	-200,000	0,007	0,151
-144,775	127,057	0,077	0,070
-143,760	-11,303	-0,153	0,072
-142,745	-200,000	0,000	0,024
-141,731	-200,000	-0,013	-0,117
-140,716	1,305	0,105	-0,054
-139,702	-200,000	0,001	-0,011
-138,687	-200,000	-0,019	-0,080
-137,672	-118,778	-0,055	0,007
-136,658	661,652	0,028	0,052
-135,643	-53,399	-0,201	0,066
-134,629	-126,296	-0,054	-0,006
-133,614	-200,000	-0,001	0,066
-132,599	-200,000	-0,000	-0,045
-131,585	800,000	-0,014	-0,038
-130,570	221,647	-0,084	0,097
-129,556	68,336	-0,025	-0,019
-128,541	22,394	-0,033	-0,019
-127,526	236,145	0,064	0,076
-126,512	-200,000	-0,001	0,076
-125,497	-174,712	0,018	0,000
-124,483	800,000	0,027	0,056
-123,468	142,739	-0,084	-0,080
-122,453	-54,377	-0,081	0,026
-121,439	710,108	0,038	-0,073
-120,424	800,000	0,036	0,100
-119,410	247,440	0,030	-0,036
-118,395	-27,636	-0,031	-0,013
