DTS Sentinel unit serial number:	SN410029Multiplexer serial number:	ORYXHardware model number:	OX2-SRSoftware version number:	ORYX F/W v4,00 Oryx Data Collector v3.7.2.0data status	okinstallation	B6 Nyhavnadifferential loss correction	single-endedforward channel	channel 2reverse channel	N/Adate	2023/12/07time	22:45:08forward acquisition time	300,00reverse acquisition time	0,00gamma	499,1914k internal	0,3164k external	0,3164temperature offset calibration	1,0000default loss term (dB/km)	0,3820temperature slope calibration	1,0000multiplexer offset coefficient	1,0000multiplexer slope coefficient	1,0000fibre end	0,00T internal ref (°C)	13,54T ext. ref 1 (°C)	-3,35T ext. ref 2 (°C)	-3,36length (m)	temperature (°C)	Stokes	anti-Stokes-744,400	152,073	0,066	0,066
-743,385	-142,014	-0,324	0,023
-742,371	7,589	0,082	0,045
-741,356	-44,835	-0,302	0,110
-740,342	161,490	0,110	0,113
-739,327	-136,608	-0,388	0,033
-738,312	-93,991	0,151	0,030
-737,298	-40,572	-0,330	0,125
-736,283	39,231	0,139	0,091
-735,269	-121,981	-0,297	-0,035
-734,254	36,531	0,023	-0,015
-733,239	-23,685	-0,563	-0,247
-732,225	-94,197	0,158	-0,032
-731,210	-44,455	-0,087	0,032
-730,196	-57,049	-0,168	-0,054
-729,181	-12,368	-0,057	-0,028
-728,167	-153,474	-0,096	-0,005
-727,152	-190,106	-0,113	0,001
-726,137	-64,880	-0,072	-0,021
-725,123	-200,000	0,015	-0,174
-724,108	241,729	-0,148	-0,183
-723,094	108,342	-0,171	-0,150
-722,079	49,156	0,082	-0,057
-721,064	-6,018	0,096	0,048
-720,050	-186,317	-0,089	-0,001
-719,035	800,000	-0,014	0,035
-718,021	349,190	-0,090	-0,130
-717,006	55,677	0,040	0,028
-715,991	211,642	-0,051	0,059
-714,977	800,000	-0,017	-0,050
-713,962	-200,000	0,040	0,180
-712,948	-200,000	-0,021	0,085
-711,933	-109,813	-0,167	0,025
-710,918	438,213	0,054	0,087
-709,904	-67,625	-0,083	-0,024
-708,889	-200,000	0,022	-0,087
-707,875	166,356	-0,058	0,060
-706,860	21,855	0,032	-0,019
-705,845	-200,000	-0,013	0,058
-704,831	-70,976	0,112	0,031
-703,816	83,281	0,037	-0,030
-702,802	328,140	-0,058	0,082
-701,787	-98,546	-0,096	0,018
-700,772	-200,000	-0,029	-0,137
-699,758	15,490	-0,077	-0,044
-698,743	-8,822	0,056	-0,028
-697,729	-200,000	-0,004	0,036
-696,714	-144,266	0,112	-0,008
-695,699	-31,415	-0,072	0,030
-694,685	424,004	0,083	-0,132
-693,670	-200,000	0,020	-0,086
-692,656	-200,000	-0,030	-0,104
-691,641	-200,000	-0,006	0,063
-690,627	-200,000	0,031	0,108
-689,612	699,722	0,026	-0,050
-688,597	-96,854	-0,119	-0,023
-687,583	-72,579	-0,045	-0,012
-686,568	61,135	0,075	-0,055
-685,554	-5,249	-0,035	-0,018
-684,539	-74,941	0,006	-0,002
-683,524	-156,539	-0,064	0,003
-682,510	-73,033	-0,032	0,008
-681,495	-200,000	-0,002	0,056
-680,481	-200,000	0,020	0,104
-679,466	456,428	-0,060	-0,098
-678,451	90,521	-0,015	0,013
-677,437	-200,000	-0,015	0,078
-676,422	507,607	-0,017	0,030
-675,408	189,684	0,083	-0,092
-674,393	55,701	-0,057	-0,041
-673,378	472,947	-0,030	-0,050
-672,364	-200,000	-0,042	-0,177
-671,349	306,485	-0,049	-0,067
-670,335	800,000	0,030	-0,091
-669,320	-26,736	0,080	-0,034
-668,305	800,000	-0,046	0,129
-667,291	327,459	0,033	-0,047
-666,276	115,540	-0,070	0,062
-665,262	108,239	-0,076	0,066
-664,247	30,327	0,123	0,077
-663,232	-6,754	0,094	0,047
-662,218	406,927	-0,042	0,065
-661,203	139,663	-0,095	-0,092
-660,189	-54,663	0,099	-0,032
-659,174	199,655	-0,143	-0,161
-658,159	-200,000	0,024	-0,140
-657,145	49,942	-0,095	-0,066
-656,130	58,710	0,100	0,072
-655,116	193,975	0,096	0,107
-654,101	-23,813	-0,109	0,047
-653,086	32,167	-0,070	-0,044
-652,072	-52,534	-0,072	-0,024
-651,057	-123,598	-0,079	0,009
-650,043	-185,029	0,131	-0,001
-649,028	-25,542	0,005	0,002
-648,014	0,338	-0,122	0,064
-646,999	-200,000	0,024	0,083
-645,984	54,064	-0,135	0,095
-644,970	277,147	-0,041	0,054
-643,955	-107,784	0,032	0,005
-642,941	-200,000	0,021	-0,123
-641,926	19,265	-0,057	-0,033
-640,911	-53,717	0,019	-0,006
-639,897	229,822	0,026	0,031
-638,882	342,448	-0,074	0,107
-637,868	132,226	-0,034	0,032
-636,853	56,243	-0,097	0,069
-635,838	-116,300	0,141	-0,019
-634,824	113,701	0,085	-0,076
-633,809	-200,000	0,007	0,033
-632,795	-41,531	-0,097	-0,036
-631,780	-200,000	-0,034	0,182
-630,765	-152,816	-0,115	0,006
-629,751	-37,584	-0,106	0,041
-628,736	370,427	-0,065	-0,097
-627,722	-95,608	0,091	-0,018
-626,707	-23,724	0,107	0,047
-625,692	-17,025	-0,121	-0,056
-624,678	134,992	0,068	0,065
-623,663	320,165	-0,025	-0,035
-622,649	-133,408	-0,083	0,008
-621,634	800,000	-0,056	-0,118
-620,619	-200,000	-0,027	-0,109
-619,605	228,422	0,130	-0,156
-618,590	198,194	0,017	0,019
-617,576	56,244	-0,118	0,084
-616,561	666,656	0,081	0,153
-615,546	110,440	0,026	0,023
-614,532	43,864	-0,058	-0,039
-613,517	-44,255	-0,116	-0,042
-612,503	-94,334	0,040	-0,008
-611,488	196,840	-0,058	0,065
-610,474	-171,170	0,109	0,003
-609,459	610,970	-0,018	-0,033
-608,444	-200,000	0,003	-0,064
-607,430	150,835	0,035	-0,035
-606,415	576,154	0,051	0,091
-605,401	-77,665	0,069	-0,017
-604,386	800,000	0,035	-0,100
-603,371	-200,000	-0,008	0,065
-602,357	150,072	0,022	0,022
-601,342	338,925	-0,095	-0,135
-600,328	-200,000	-0,049	-0,227
-599,313	800,000	-0,050	-0,120
-598,298	-200,000	-0,021	-0,157
-597,284	-200,000	0,008	-0,081
-596,269	800,000	-0,028	0,086
-595,255	800,000	-0,020	-0,053
-594,240	-200,000	0,002	-0,015
-593,225	-36,181	-0,053	-0,021
-592,211	136,192	0,071	-0,068
-591,196	-95,566	0,070	-0,014
-590,182	237,290	0,011	-0,013
-589,167	314,750	-0,017	0,023
-588,152	-66,254	-0,098	-0,028
-587,138	-200,000	-0,028	-0,159
-586,123	163,101	0,133	-0,136
-585,109	26,831	-0,090	-0,055
-584,094	-200,000	-0,002	0,089
-583,079	-135,545	0,094	-0,008
-582,065	143,837	0,028	0,027
-581,050	29,462	-0,008	0,005
-580,036	800,000	0,045	0,099
-579,021	-140,367	-0,103	-0,008
-578,006	660,110	0,063	-0,120
-576,992	199,707	-0,046	-0,052
-575,977	707,266	0,072	0,140
-574,963	-124,326	-0,097	0,011
-573,948	-31,136	0,097	-0,040
-572,934	211,140	0,053	0,061
-571,919	174,485	0,031	0,033
-570,904	-22,289	0,156	0,069
-569,890	800,000	0,013	0,026
-568,875	242,133	0,069	-0,085
-567,861	-200,000	0,009	0,234
-566,846	784,911	-0,064	0,129
-565,831	800,000	-0,049	-0,112
-564,817	43,688	-0,105	0,070
-563,802	-148,455	-0,039	-0,002
-562,788	6,221	0,150	-0,081
-561,773	63,014	-0,042	0,031
-560,758	-64,640	-0,040	0,012
-559,744	1,265	-0,061	0,032
-558,729	544,213	0,039	0,069
-557,715	390,666	-0,092	-0,140
-556,700	129,705	-0,143	-0,133
-555,685	335,887	0,076	0,108
-554,671	47,552	0,048	-0,033
-553,656	-38,946	-0,068	0,026
-552,642	293,465	0,046	-0,062
-551,627	-17,875	-0,052	0,024
-550,612	-48,545	-0,025	0,009
-549,598	-77,176	-0,120	0,030
-548,583	-127,131	0,138	-0,015
-547,569	-200,000	0,014	0,070
-546,554	188,075	-0,049	-0,053
-545,539	800,000	0,030	-0,089
-544,525	800,000	-0,037	0,079
-543,510	-125,189	-0,133	-0,015
-542,496	800,000	0,009	0,020
-541,481	-121,609	0,134	-0,016
-540,466	-200,000	0,023	-0,092
-539,452	-200,000	-0,027	0,177
-538,437	399,031	0,075	0,115
-537,423	133,790	-0,029	0,027
-536,408	-200,000	0,024	-0,092
-535,393	450,012	-0,043	0,070
-534,379	9,142	0,087	0,048
-533,364	-20,759	-0,105	0,047
-532,350	-83,459	0,040	0,009
-531,335	-6,649	-0,088	-0,043
-530,321	-200,000	0,010	0,094
-529,306	550,286	-0,027	-0,048
-528,291	-200,000	0,019	0,069
-527,277	-134,171	-0,175	0,015
-526,262	800,000	0,032	-0,068
-525,248	29,514	-0,022	0,013
-524,233	-165,967	-0,069	-0,002
-523,218	364,064	-0,082	0,120
-522,204	295,033	-0,101	-0,135
-521,189	454,141	-0,066	-0,107
-520,175	-200,000	-0,026	-0,123
-519,160	-200,000	0,014	0,120
-518,145	169,218	0,088	0,092
-517,131	249,925	0,025	0,031
-516,116	-58,672	-0,056	-0,018
-515,102	800,000	-0,022	-0,070
-514,087	-130,271	-0,052	-0,005
-513,072	417,608	-0,050	-0,079
-512,058	142,696	0,041	0,040
-511,043	-200,000	-0,001	0,112
-510,029	-19,589	-0,032	-0,014
-509,014	-200,000	-0,009	-0,045
-507,999	261,961	0,063	0,079
-506,985	43,842	0,038	-0,025
-505,970	800,000	0,012	-0,032
-504,956	135,931	-0,088	0,083
-503,941	191,707	0,111	-0,122
-502,926	113,012	-0,043	-0,038
-501,912	128,736	-0,047	0,043
-500,897	-166,984	-0,017	-0,000
-499,883	-200,000	-0,009	-0,059
-498,868	-200,000	-0,029	0,110
-497,853	311,979	-0,083	0,114
-496,839	418,148	0,077	0,120
-495,824	-200,000	-0,047	0,241
-494,810	-93,890	0,054	-0,011
-493,795	-33,318	-0,064	0,026
-492,781	94,549	0,058	-0,048
-491,766	-88,435	0,044	-0,010
-490,751	-6,910	-0,170	-0,084
-489,737	-200,000	0,007	-0,054
-488,722	-97,619	0,164	-0,031
-487,708	-200,000	0,012	0,073
-486,693	124,630	-0,105	0,096
-485,678	-20,508	-0,053	-0,024
-484,664	800,000	0,067	-0,162
-483,649	89,556	-0,056	0,046
-482,635	0,857	-0,062	-0,032
-481,620	-200,000	-0,010	0,109
-480,605	-200,000	0,003	0,035
-479,591	149,637	-0,036	-0,035
-478,576	-179,950	-0,139	0,002
-477,562	-89,089	0,136	0,029
-476,547	-200,000	0,014	-0,144
-475,532	173,647	0,030	0,031
-474,518	-47,041	-0,087	-0,031
-473,503	800,000	0,008	-0,019
-472,489	-116,369	-0,026	-0,004
-471,474	255,752	-0,104	0,130
-470,459	800,000	-0,035	0,084
-469,445	-200,000	0,057	-0,192
-468,430	214,751	0,038	-0,044
-467,416	-82,076	0,098	0,023
-466,401	-200,000	0,002	0,032
-465,386	443,869	0,046	0,074
-464,372	-39,586	0,087	0,033
-463,357	-89,082	0,054	0,012
-462,343	-200,000	-0,039	-0,235
-461,328	-200,000	-0,044	0,151
-460,313	800,000	0,015	0,046
-459,299	439,030	0,041	-0,065
-458,284	7,601	0,066	-0,036
-457,270	-91,586	-0,049	-0,010
-456,255	800,000	-0,011	0,029
-455,241	-46,318	-0,111	-0,040
-454,226	800,000	-0,034	-0,087
-453,211	725,186	0,028	-0,055
-452,197	-200,000	0,007	0,030
-451,182	800,000	-0,031	0,095
-450,168	448,910	-0,029	0,046
-449,153	251,811	-0,036	0,044
-448,138	-59,962	0,043	-0,013
-447,124	-200,000	-0,022	-0,092
-446,109	-200,000	-0,010	-0,121
-445,095	-52,053	0,071	-0,024
-444,080	-200,000	0,009	-0,077
-443,065	-200,000	-0,013	0,072
-442,051	-156,938	-0,125	-0,005
-441,036	287,881	-0,036	-0,047
-440,022	-34,235	0,074	0,029
-439,007	624,531	0,072	0,132
-437,992	23,156	0,039	0,023
-436,978	-134,818	0,182	0,016
-435,963	-35,738	0,136	0,053
-434,949	502,352	0,047	-0,079
-433,934	-200,000	0,000	0,059
-432,919	61,917	-0,140	-0,101
-431,905	-200,000	0,004	-0,053
-430,890	-72,347	0,027	0,007
-429,876	299,962	-0,026	0,035
-428,861	32,404	-0,072	0,045
-427,846	-200,000	0,008	-0,039
-426,832	765,082	0,077	-0,153
-425,817	-200,000	-0,005	-0,131
-424,803	-59,959	-0,074	-0,023
-423,788	443,974	0,051	0,082
-422,773	57,471	0,028	-0,020
-421,759	-200,000	0,046	-0,164
-420,744	-200,000	0,032	0,127
-419,730	-200,000	0,000	0,009
-418,715	133,034	-0,075	0,070
-417,701	330,777	0,022	-0,030
-416,686	-15,796	0,085	0,039
-415,671	-200,000	-0,010	0,126
-414,657	12,454	0,133	0,074
-413,642	-78,038	-0,081	-0,020
-412,628	658,628	-0,014	-0,027
-411,613	-92,303	-0,100	-0,020
-410,598	-42,008	0,041	0,015
-409,584	-154,762	-0,088	-0,004
-408,569	614,630	0,066	0,120
-407,555	-130,968	0,125	-0,012
-406,540	229,392	0,095	0,113
-405,525	-200,000	-0,008	-0,071
-404,511	-155,781	-0,018	-0,001
-403,496	-32,265	0,077	-0,031
-402,482	-36,053	0,110	-0,043
-401,467	-47,329	0,142	-0,050
-400,452	145,330	0,085	0,083
-399,438	-131,707	-0,106	-0,010
-398,423	12,155	-0,133	-0,074
-397,409	-22,351	-0,035	-0,015
-396,394	138,376	0,102	-0,097
-395,379	-200,000	-0,001	-0,086
-394,365	55,306	-0,067	0,047
-393,350	-103,491	0,047	0,008
-392,336	-200,000	-0,034	-0,109
-391,321	665,871	-0,005	-0,010
-390,306	-63,984	-0,076	-0,022
-389,292	-200,000	0,027	-0,112
-388,277	-200,000	-0,002	0,060
-387,263	83,330	0,051	0,040
-386,248	-200,000	-0,009	0,043
-385,233	800,000	0,011	0,032
-384,219	289,883	0,033	0,044
-383,204	-200,000	-0,019	-0,088
-382,190	-200,000	-0,030	-0,206
-381,175	800,000	-0,005	-0,012
-380,160	-23,800	-0,184	-0,080
-379,146	-200,000	-0,005	-0,092
-378,131	-27,612	-0,035	-0,015
-377,117	-25,059	0,042	-0,018
-376,102	-56,036	-0,206	-0,066
-375,088	-163,337	-0,072	0,002
-374,073	-200,000	0,006	0,068
-373,058	-200,000	0,002	0,018
-372,044	125,085	-0,023	0,021
-371,029	302,236	-0,035	0,047
-370,015	120,271	-0,049	-0,044
-369,000	-200,000	0,021	0,130
-367,985	795,002	-0,010	0,020
-366,971	615,930	0,085	0,155
-365,956	436,610	0,069	0,109
-364,942	800,000	-0,044	0,111
-363,927	-200,000	0,011	-0,034
-362,912	-191,261	0,052	-0,000
-361,898	-200,000	-0,003	0,124
-360,883	-200,000	-0,015	-0,057
-359,869	27,088	-0,035	0,021
-358,854	-181,164	0,165	0,002
-357,839	-200,000	-0,012	-0,066
-356,825	82,906	0,067	-0,053
-355,810	-61,612	0,056	0,017
-354,796	192,175	0,022	-0,025
-353,781	-180,387	-0,049	-0,001
-352,766	125,782	0,090	-0,082
-351,752	-45,716	0,022	-0,008
-350,737	-200,000	0,005	0,108
-349,723	800,000	-0,061	0,131
-348,708	14,712	-0,143	-0,081
-347,693	-111,330	0,024	0,003
-346,679	56,019	-0,028	-0,019
-345,664	-83,034	0,090	0,021
-344,650	-200,000	0,022	-0,124
-343,635	50,186	0,114	-0,078
-342,620	19,343	-0,123	0,071
-341,606	38,540	0,079	-0,051
-340,591	-157,674	0,050	-0,002
-339,577	-151,854	0,044	0,002
-338,562	-58,258	-0,012	-0,004
-337,548	97,164	-0,055	-0,046
-336,533	-58,402	-0,153	-0,048
-335,518	-200,000	-0,016	-0,086
-334,504	98,478	0,045	-0,037
-333,489	800,000	-0,024	0,068
-332,475	355,763	0,076	-0,110
-331,460	135,074	-0,070	-0,066
-330,445	-48,728	-0,077	-0,027
-329,431	420,200	0,050	-0,078
-328,416	-135,112	-0,048	-0,004
-327,402	-139,170	0,146	0,011
-326,387	-200,000	0,030	0,127
-325,372	-42,306	-0,035	0,013
-324,358	-108,443	-0,042	0,007
-323,343	257,120	0,033	0,041
-322,329	800,000	0,073	0,178
-321,314	128,892	0,021	0,019
-320,299	33,603	0,053	0,033
-319,285	-30,608	-0,116	0,047
-318,270	353,742	-0,079	0,114
-317,256	800,000	0,043	0,106
-316,241	207,734	0,064	0,072
-315,226	208,361	0,115	0,130
-314,212	-2,232	0,028	-0,014
-313,197	501,526	0,026	-0,043
-312,183	157,676	-0,015	-0,015
-311,168	-200,000	0,006	0,039
-310,153	800,000	0,023	-0,056
-309,139	-200,000	-0,007	0,088
-308,124	216,353	0,049	-0,056
-307,110	91,587	0,120	0,098
-306,095	-114,247	-0,088	-0,012
-305,080	123,733	-0,106	-0,096
-304,066	-200,000	-0,014	0,078
-303,051	418,158	-0,052	-0,080
-302,037	235,517	0,044	0,053
-301,022	51,719	-0,072	0,049
-300,008	800,000	-0,038	0,104
-298,993	-200,000	-0,031	0,126
-297,978	-200,000	-0,003	-0,019
-296,964	-200,000	0,016	0,060
-295,949	-79,508	-0,153	0,037
-294,935	-200,000	-0,007	-0,040
-293,920	167,962	-0,060	0,062
-292,905	10,395	0,169	0,093
-291,891	-200,000	0,012	0,045
-290,876	347,433	-0,046	-0,066
-289,862	543,716	0,050	0,087
-288,847	180,535	-0,162	-0,172
-287,832	787,812	0,021	-0,041
-286,818	-200,000	-0,000	-0,021
-285,803	23,758	0,082	-0,049
-284,789	168,556	0,069	-0,071
-283,774	-147,789	-0,041	0,002
-282,759	323,692	-0,028	-0,039
-281,745	-200,000	-0,018	-0,117
-280,730	800,000	-0,095	-0,196
-279,716	113,577	0,110	0,096
-278,701	-200,000	0,025	-0,096
-277,686	-200,000	-0,021	0,142
-276,672	-200,000	-0,009	0,056
-275,657	-7,099	-0,066	0,032
-274,643	14,035	-0,083	-0,047
-273,628	800,000	-0,033	-0,078
-272,613	151,552	0,040	0,040
-271,599	44,896	-0,072	0,048
-270,584	-79,234	-0,045	0,011
-269,570	-86,911	0,089	-0,019
-268,555	81,336	-0,150	-0,117
-267,540	800,000	-0,083	-0,237
-266,526	-11,109	-0,017	0,008
-265,511	14,979	0,026	-0,015
-264,497	247,687	0,073	-0,089
-263,482	800,000	-0,034	-0,085
-262,467	29,183	0,127	-0,078
-261,453	800,000	-0,044	0,137
-260,438	800,000	-0,044	-0,112
-259,424	-26,356	0,005	-0,002
-258,409	-200,000	-0,034	-0,114
-257,395	19,025	0,120	0,069
-256,380	104,526	0,082	0,070
-255,365	-28,370	0,079	0,033
-254,351	262,420	0,066	0,083
-253,336	2,597	0,063	-0,033
-252,322	112,151	-0,187	-0,163
-251,307	495,784	-0,063	-0,106
-250,292	-200,000	-0,010	0,051
-249,278	2,728	0,105	-0,055
-248,263	333,341	0,108	0,152
-247,249	800,000	-0,040	0,105
-246,234	101,767	-0,115	0,097
-245,219	-200,000	0,014	-0,091
-244,205	-73,236	-0,052	-0,014
-243,190	58,708	0,033	0,023
-242,176	-200,000	-0,036	0,117
-241,161	93,687	0,033	-0,027
-240,146	29,359	0,131	0,080
-239,132	-200,000	0,038	-0,159
-238,117	-173,618	-0,073	0,002
-237,103	-19,613	-0,062	0,027
-236,088	-200,000	-0,014	-0,111
-235,073	121,285	-0,039	0,035
-234,059	3,821	0,127	-0,067
-233,044	442,888	0,078	-0,124
-232,030	-99,424	0,100	0,018
-231,015	128,994	-0,075	0,069
-230,000	-0,669	-0,038	0,019
-228,986	-22,736	0,168	0,073
-227,971	-200,000	0,001	0,042
-226,957	-136,000	0,073	-0,006
-225,942	62,645	-0,036	-0,026
-224,927	-200,000	0,041	0,144
-223,913	311,678	0,015	-0,021
-222,898	-200,000	0,005	-0,112
-221,884	47,221	0,071	-0,048
-220,869	351,045	0,070	0,100
-219,855	-19,476	0,056	0,025
-218,840	-200,000	0,008	0,123
-217,825	657,662	0,040	0,074
-216,811	-80,516	-0,065	-0,016
-215,796	169,061	0,090	0,092
-214,782	-200,000	0,009	0,043
-213,767	-200,000	0,036	-0,148
-212,752	41,668	0,082	0,054
-211,738	-98,147	-0,078	0,014
-210,723	-200,000	-0,009	-0,073
-209,709	303,287	-0,069	-0,093
-208,694	277,280	-0,072	-0,093
-207,679	-0,014	-0,035	-0,018
-206,665	161,698	-0,016	-0,016
-205,650	800,000	-0,027	0,057
-204,636	467,155	0,057	0,092
-203,621	800,000	0,018	0,052
-202,606	800,000	-0,028	0,057
-201,592	142,125	0,124	-0,118
-200,577	23,434	-0,071	-0,042
-199,563	-22,297	-0,072	-0,031
-198,548	179,258	0,035	-0,037
-197,533	-127,529	-0,110	0,011
-196,519	800,000	0,061	-0,126
-195,504	669,049	-0,005	-0,010
-194,490	800,000	0,039	-0,080
-193,475	800,000	0,054	-0,110
-192,460	132,770	-0,045	-0,042
-191,446	-95,463	0,108	0,021
-190,431	-200,000	-0,061	0,247
-189,417	800,000	0,035	0,101
-188,402	-147,403	-0,201	0,012
-187,387	-66,971	0,135	-0,038
-186,373	176,574	-0,012	-0,013
-185,358	800,000	-0,031	-0,097
-184,344	-200,000	-0,011	-0,104
-183,329	-200,000	0,040	0,153
-182,315	-12,573	0,134	-0,063
-181,300	707,923	-0,040	0,077
-180,285	800,000	0,030	0,092
-179,271	-200,000	-0,019	-0,077
-178,256	104,040	0,071	0,060
-177,242	335,003	0,112	0,156
-176,227	145,213	0,043	0,041
-175,212	271,876	-0,062	0,079
-174,198	-200,000	0,010	0,092
-173,183	-70,011	-0,139	-0,038
-172,169	308,217	-0,110	0,148
-171,154	-145,276	0,114	-0,007
-170,139	93,254	0,104	-0,084
-169,125	-200,000	0,013	0,050
-168,110	-26,573	0,137	-0,058
-167,096	-200,000	0,004	0,096
-166,081	-200,000	-0,008	0,066
-165,066	-172,472	-0,074	0,002
-164,052	-17,622	0,052	0,023
-163,037	-145,818	0,076	0,005
-162,023	-143,015	0,053	-0,004
-161,008	131,973	0,108	0,100
-159,993	-200,000	0,014	0,091
-158,979	-11,000	-0,099	-0,047
-157,964	381,458	-0,089	-0,132
-156,950	168,978	0,086	0,089
-155,935	-200,000	0,009	-0,060
-154,920	265,985	-0,043	-0,054
-153,906	76,775	0,007	-0,006
-152,891	-200,000	-0,010	-0,151
-151,877	610,868	0,003	0,005
-150,862	325,822	-0,017	-0,023
-149,847	800,000	-0,004	-0,010
-148,833	332,364	-0,073	-0,102
-147,818	800,000	-0,011	0,031
-146,804	-61,357	-0,016	-0,005
-145,789	800,000	-0,003	0,011
-144,775	33,602	-0,061	-0,038
-143,760	-40,515	-0,065	0,024
-142,745	-10,656	0,038	0,018
-141,731	-86,736	0,083	0,018
-140,716	-11,399	0,085	0,040
-139,702	660,791	0,025	0,046
-138,687	219,788	-0,064	-0,073
-137,672	-3,934	0,080	-0,040
-136,658	-42,348	-0,136	0,050
-135,643	800,000	-0,013	0,028
-134,629	694,732	-0,031	0,059
-133,614	800,000	-0,043	0,137
-132,599	-72,097	0,026	-0,007
-131,585	288,739	-0,063	0,082
-130,570	-200,000	0,016	-0,098
-129,556	40,622	-0,096	0,062
-128,541	132,393	-0,095	-0,088
-127,526	-17,121	0,084	-0,038
-126,512	-200,000	-0,001	0,213
-125,497	76,115	0,015	0,012
-124,483	127,965	0,031	0,028
-123,468	800,000	-0,035	-0,083
-122,453	-97,296	-0,064	0,012
-121,439	-124,012	-0,092	0,010
-120,424	532,557	-0,044	-0,075
-119,410	146,521	-0,085	0,082
