DTS Sentinel unit serial number:	SN410029Multiplexer serial number:	ORYXHardware model number:	OX2-SRSoftware version number:	ORYX F/W v4,00 Oryx Data Collector v3.7.2.0data status	okinstallation	B6 Nyhavnadifferential loss correction	single-endedforward channel	channel 2reverse channel	N/Adate	2023/12/11time	09:35:08forward acquisition time	300,00reverse acquisition time	0,00gamma	499,1914k internal	0,3139k external	0,3139temperature offset calibration	1,0000default loss term (dB/km)	0,3820temperature slope calibration	1,0000multiplexer offset coefficient	1,0000multiplexer slope coefficient	1,0000fibre end	0,00T internal ref (°C)	16,57T ext. ref 1 (°C)	-0,88T ext. ref 2 (°C)	-0,91length (m)	temperature (°C)	Stokes	anti-Stokes-744,400	-59,283	0,130	-0,041
-743,385	-175,943	-0,332	-0,006
-742,371	161,474	0,105	0,109
-741,356	-121,940	-0,355	0,043
-740,342	-200,000	0,033	0,139
-739,327	-123,649	-0,304	0,035
-738,312	184,605	0,056	0,062
-737,298	-71,924	-0,323	0,088
-736,283	48,213	0,064	0,044
-735,269	-117,574	-0,316	0,042
-734,254	-139,374	0,099	-0,008
-733,239	-70,807	-0,499	-0,138
-732,225	66,525	0,106	0,080
-731,210	-200,000	0,005	0,136
-730,196	-1,741	-0,128	-0,067
-729,181	-20,067	0,095	0,043
-728,167	-200,000	0,040	-0,148
-727,152	800,000	0,012	-0,030
-726,137	604,779	0,066	-0,123
-725,123	-200,000	0,000	-0,180
-724,108	800,000	-0,024	-0,053
-723,094	-17,934	-0,069	-0,032
-722,079	82,543	0,026	-0,021
-721,064	800,000	0,049	-0,125
-720,050	93,818	-0,081	0,068
-719,035	704,288	-0,024	0,048
-718,021	-90,970	0,037	-0,008
-717,006	411,496	-0,062	-0,098
-715,991	248,698	-0,076	-0,095
-714,977	786,409	-0,046	0,093
-713,962	145,635	-0,081	-0,081
-712,948	800,000	-0,007	0,021
-711,933	47,942	0,110	0,076
-710,918	251,400	0,067	0,085
-709,904	-141,147	0,052	0,004
-708,889	-85,594	-0,107	-0,025
-707,875	134,407	0,035	-0,034
-706,860	-200,000	-0,011	-0,050
-705,845	-106,631	0,015	-0,002
-704,831	27,780	-0,016	0,010
-703,816	44,035	0,022	0,015
-702,802	575,426	-0,016	0,029
-701,787	-65,692	0,136	-0,040
-700,772	366,410	-0,085	-0,127
-699,758	126,870	-0,148	-0,139
-698,743	-90,896	0,215	0,045
-697,729	-200,000	-0,010	0,042
-696,714	-119,408	0,095	-0,012
-695,699	-63,324	-0,011	-0,003
-694,685	800,000	0,063	-0,149
-693,670	-102,914	-0,028	-0,005
-692,656	800,000	-0,003	-0,008
-691,641	-200,000	-0,018	-0,068
-690,627	703,943	0,066	0,129
-689,612	800,000	-0,054	-0,124
-688,597	-94,978	-0,089	-0,018
-687,583	48,971	-0,126	-0,087
-686,568	-200,000	-0,007	-0,039
-685,554	-114,460	-0,088	0,012
-684,539	94,003	-0,021	0,018
-683,524	90,888	0,079	-0,065
-682,510	-74,544	-0,084	0,022
-681,495	-200,000	-0,006	0,027
-680,481	457,975	-0,077	-0,128
-679,466	-200,000	-0,018	-0,134
-678,451	29,215	-0,130	-0,081
-677,437	-148,913	0,114	-0,007
-676,422	-6,841	0,081	0,041
-675,408	178,432	-0,101	0,109
-674,393	65,744	-0,079	-0,059
-673,378	705,018	0,028	-0,056
-672,364	-75,401	0,054	0,014
-671,349	343,500	0,037	-0,054
-670,335	-154,446	0,043	-0,002
-669,320	800,000	0,032	-0,070
-668,305	800,000	-0,023	-0,052
-667,291	-137,030	-0,035	0,003
-666,276	2,247	0,085	0,045
-665,262	26,143	-0,181	-0,111
-664,247	-8,848	0,055	0,027
-663,232	227,366	-0,020	0,024
-662,218	-200,000	-0,001	0,097
-661,203	683,103	0,028	-0,054
-660,189	-35,740	0,102	-0,041
-659,174	-200,000	0,059	0,196
-658,159	-145,242	-0,105	-0,007
-657,145	716,364	0,042	-0,083
-656,130	123,992	0,042	-0,039
-655,116	-126,333	0,092	-0,010
-654,101	6,112	-0,064	-0,035
-653,086	184,168	0,083	-0,091
-652,072	582,901	-0,064	-0,117
-651,057	-200,000	-0,040	-0,134
-650,043	361,585	0,058	0,086
-649,028	-101,761	-0,111	-0,020
-648,014	-200,000	0,026	-0,110
-646,999	260,329	-0,064	0,081
-645,984	-6,834	0,066	0,033
-644,970	502,091	-0,058	-0,099
-643,955	-78,724	0,015	0,004
-642,941	-33,370	-0,164	0,067
-641,926	336,196	-0,026	0,037
-640,911	800,000	0,008	-0,021
-639,897	-8,263	-0,110	0,055
-638,882	211,365	0,069	0,080
-637,868	-200,000	0,017	0,071
-636,853	800,000	-0,012	0,036
-635,838	-107,959	0,134	-0,021
-634,824	-200,000	-0,009	-0,140
-633,809	450,981	0,051	0,084
-632,795	22,105	0,050	-0,030
-631,780	-2,838	-0,043	0,022
-630,765	156,572	0,044	-0,045
-629,751	211,613	-0,087	0,101
-628,736	-187,924	0,081	-0,001
-627,722	-57,896	0,052	-0,017
-626,707	512,099	-0,034	-0,058
-625,692	-200,000	0,025	0,088
-624,678	0,419	0,038	-0,020
-623,663	-39,532	0,060	-0,023
-622,649	-138,254	-0,111	-0,009
-621,634	-66,022	0,081	0,024
-620,619	-200,000	0,001	0,040
-619,605	-15,852	0,099	-0,046
-618,590	522,716	-0,036	-0,062
-617,576	-168,036	0,183	0,005
-616,561	149,175	-0,037	-0,036
-615,546	105,633	0,017	-0,015
-614,532	134,668	0,040	-0,039
-613,517	800,000	-0,045	0,106
-612,503	800,000	0,018	-0,037
-611,488	210,607	-0,063	-0,073
-610,474	230,221	0,082	-0,099
-609,459	800,000	0,017	-0,046
-608,444	467,340	0,077	-0,128
-607,430	800,000	-0,037	-0,094
-606,415	800,000	0,031	-0,063
-605,401	364,049	-0,056	0,083
-604,386	166,203	0,039	0,040
-603,371	176,416	0,107	-0,115
-602,357	-200,000	-0,004	0,109
-601,342	162,753	-0,011	0,012
-600,328	44,330	-0,104	-0,070
-599,313	-200,000	-0,012	-0,103
-598,298	81,977	0,002	-0,002
-597,284	62,710	0,103	0,076
-596,269	671,091	-0,068	0,131
-595,255	-200,000	0,011	0,067
-594,240	191,402	-0,026	0,029
-593,225	284,832	0,070	0,093
-592,211	-200,000	0,001	0,075
-591,196	-113,774	0,094	-0,013
-590,182	-200,000	0,031	-0,103
-589,167	112,059	-0,046	-0,041
-588,152	23,344	0,038	-0,023
-587,138	-200,000	-0,000	-0,033
-586,123	424,262	0,057	0,091
-585,109	-31,199	-0,122	0,050
-584,094	800,000	0,022	0,069
-583,079	800,000	0,018	0,038
-582,065	237,409	0,074	0,090
-581,050	702,148	0,080	0,157
-580,036	-92,102	0,118	0,024
-579,021	301,721	-0,055	-0,075
-578,006	151,236	-0,119	-0,120
-576,992	94,350	-0,001	-0,000
-575,977	52,513	-0,085	0,060
-574,963	-97,321	0,057	-0,011
-573,948	-200,000	-0,022	0,147
-572,934	261,354	-0,046	0,058
-571,919	-110,887	-0,024	0,004
-570,904	296,536	-0,069	-0,093
-569,890	-200,000	0,002	-0,077
-568,875	-177,006	-0,103	-0,002
-567,861	800,000	-0,064	-0,136
-566,846	96,001	-0,068	-0,057
-565,831	398,307	0,017	-0,027
-564,817	800,000	0,055	-0,129
-563,802	282,270	-0,051	0,067
-562,788	800,000	-0,027	-0,085
-561,773	37,565	-0,122	0,079
-560,758	-200,000	0,007	0,038
-559,744	142,467	-0,021	0,020
-558,729	599,881	-0,061	-0,112
-557,715	109,261	0,038	0,033
-556,700	211,363	-0,071	-0,082
-555,685	-61,200	-0,018	-0,006
-554,671	-57,942	-0,198	0,063
-553,656	-200,000	-0,007	-0,044
-552,642	53,707	-0,076	-0,054
-551,627	185,077	-0,081	-0,088
-550,612	800,000	0,032	0,068
-549,598	-200,000	-0,011	-0,041
-548,583	-29,208	0,131	-0,055
-547,569	-117,039	0,026	-0,003
-546,554	-24,556	-0,114	0,050
-545,539	170,990	-0,059	-0,063
-544,525	51,089	0,057	0,039
-543,510	97,885	-0,042	-0,035
-542,496	-51,989	-0,094	0,032
-541,481	62,643	-0,175	0,128
-540,466	-82,129	-0,068	0,016
-539,452	-200,000	0,032	0,122
-538,437	89,143	-0,068	0,056
-537,423	22,431	0,124	0,074
-536,408	-114,292	-0,038	-0,005
-535,393	-19,085	0,051	0,023
-534,379	161,612	-0,121	0,124
-533,364	-200,000	0,022	-0,164
-532,350	661,410	0,058	-0,110
-531,335	103,018	0,073	0,063
-530,321	-6,436	-0,086	-0,043
-529,306	326,211	0,011	0,016
-528,291	277,574	0,088	-0,115
-527,277	-200,000	-0,048	-0,168
-526,262	13,020	0,054	0,031
-525,248	-108,700	0,171	0,027
-524,233	-13,643	-0,064	-0,030
-523,218	-200,000	-0,004	-0,040
-522,204	-114,627	-0,070	-0,010
-521,189	800,000	0,081	0,183
-520,175	230,139	-0,033	-0,040
-519,160	-200,000	-0,041	-0,214
-518,145	161,941	-0,049	0,050
-517,131	-7,725	0,154	0,076
-516,116	133,881	-0,025	0,024
-515,102	-200,000	-0,009	0,061
-514,087	11,411	-0,036	0,020
-513,072	-200,000	-0,004	-0,070
-512,058	800,000	-0,043	-0,126
-511,043	-106,206	0,115	0,019
-510,029	-200,000	-0,020	0,108
-509,014	800,000	0,050	0,136
-507,999	-200,000	-0,015	0,064
-506,985	67,959	-0,046	0,035
-505,970	-91,481	-0,105	-0,022
-504,956	485,277	-0,085	-0,143
-503,941	-22,172	0,137	0,061
-502,926	800,000	-0,053	-0,109
-501,912	-200,000	0,001	-0,068
-500,897	-200,000	-0,008	-0,129
-499,883	-200,000	0,002	-0,117
-498,868	-200,000	0,004	-0,025
-497,853	-200,000	-0,005	-0,109
-496,839	-200,000	0,006	-0,163
-495,824	113,916	0,128	-0,114
-494,810	-200,000	0,017	0,068
-493,795	-200,000	0,006	0,051
-492,781	82,495	0,059	-0,047
-491,766	-62,525	-0,110	-0,033
-490,751	-200,000	-0,008	0,042
-489,737	-200,000	0,012	-0,173
-488,722	96,591	0,109	-0,091
-487,708	-47,175	0,090	0,032
-486,693	-35,579	-0,105	0,042
-485,678	9,173	-0,125	0,069
-484,664	185,063	-0,047	-0,052
-483,649	-200,000	-0,023	-0,093
-482,635	-200,000	-0,042	-0,164
-481,620	-173,306	0,053	0,001
-480,605	-105,725	0,074	0,012
-479,591	-73,412	0,035	0,009
-478,576	-146,702	0,135	-0,008
-477,562	800,000	0,022	-0,066
-476,547	800,000	-0,036	0,112
-475,532	278,115	-0,049	0,065
-474,518	-90,236	-0,048	-0,010
-473,503	24,809	0,099	-0,060
-472,489	-166,121	0,067	-0,002
-471,474	-122,863	-0,153	-0,018
-470,459	-25,529	-0,090	-0,039
-469,445	102,520	-0,083	-0,072
-468,430	800,000	-0,016	-0,036
-467,416	-180,506	-0,045	-0,001
-466,401	214,209	-0,027	0,031
-465,386	-68,269	0,186	-0,053
-464,372	-10,936	-0,075	0,036
-463,357	-16,052	-0,098	0,046
-462,343	-87,979	-0,125	0,027
-461,328	22,042	0,014	0,008
-460,313	800,000	0,040	0,129
-459,299	139,466	-0,119	-0,115
-458,284	187,321	-0,062	-0,068
-457,270	-148,067	-0,049	-0,003
-456,255	-200,000	-0,003	-0,055
-455,241	-200,000	0,023	-0,089
-454,226	137,802	-0,056	-0,054
-453,211	792,267	0,074	0,149
-452,197	316,478	0,046	0,064
-451,182	123,275	-0,063	0,058
-450,168	143,774	0,013	-0,013
-449,153	-200,000	-0,015	-0,062
-448,138	0,975	-0,198	-0,104
-447,124	358,758	0,080	-0,118
-446,109	172,089	-0,037	0,039
-445,095	800,000	0,070	0,204
-444,080	800,000	-0,051	0,117
-443,065	-97,906	0,078	0,015
-442,051	-108,728	-0,107	0,017
-441,036	-200,000	0,022	-0,080
-440,022	5,266	-0,036	-0,019
-439,007	95,504	-0,030	0,025
-437,992	-200,000	0,000	0,078
-436,978	250,606	0,086	0,108
-435,963	79,983	-0,040	-0,032
-434,949	106,655	-0,065	-0,056
-433,934	-172,817	-0,121	-0,003
-432,919	-59,381	0,156	0,049
-431,905	-200,000	0,013	0,128
-430,890	-89,654	-0,061	0,013
-429,876	131,961	0,024	0,023
-428,861	190,140	-0,071	0,078
-427,846	-81,212	-0,160	0,038
-426,832	573,939	0,019	-0,033
-425,817	146,983	-0,069	0,068
-424,803	-200,000	0,002	0,100
-423,788	-200,000	0,012	0,071
-422,773	-55,631	0,145	-0,047
-421,759	-200,000	0,037	-0,168
-420,744	800,000	0,022	0,066
-419,730	161,374	0,096	-0,099
-418,715	46,278	-0,117	0,079
-417,701	601,759	0,083	-0,151
-416,686	38,396	0,058	-0,038
-415,671	800,000	-0,061	-0,134
-414,657	99,877	-0,035	0,030
-413,642	119,841	0,067	0,061
-412,628	-185,401	0,062	-0,001
-411,613	192,621	-0,063	0,069
-410,598	-129,535	0,105	0,010
-409,584	-200,000	0,012	0,038
-408,569	13,584	0,114	-0,064
-407,555	800,000	0,011	-0,035
-406,540	-130,336	-0,035	0,003
-405,525	-143,874	0,137	0,009
-404,511	800,000	-0,066	0,159
-403,496	99,486	0,114	0,097
-402,482	-200,000	0,001	-0,039
-401,467	-113,353	0,131	0,019
-400,452	-200,000	0,008	0,151
-399,438	-24,697	0,084	0,036
-398,423	-77,632	-0,016	-0,004
-397,409	-10,743	0,113	0,054
-396,394	-94,417	0,037	-0,007
-395,379	80,508	-0,072	-0,057
-394,365	-175,490	0,046	-0,001
-393,350	800,000	0,028	0,056
-392,336	211,866	-0,046	0,053
-391,321	188,587	-0,087	0,095
-390,306	714,580	0,043	-0,084
-389,292	-200,000	-0,015	-0,146
-388,277	140,324	0,146	-0,141
-387,263	-8,543	0,076	-0,037
-386,248	800,000	0,038	0,112
-385,233	800,000	-0,042	-0,100
-384,219	800,000	-0,025	0,073
-383,204	-69,244	-0,081	-0,023
-382,190	-139,295	0,087	-0,007
-381,175	-55,139	-0,087	-0,029
-380,160	-111,066	0,085	0,013
-379,146	275,226	0,059	-0,076
-378,131	792,573	0,068	0,137
-377,117	-76,596	0,164	-0,042
-376,102	-200,000	-0,008	-0,132
-375,088	44,036	0,039	-0,026
-374,073	-200,000	0,002	-0,016
-373,058	8,876	-0,109	-0,060
-372,044	-88,957	0,116	0,025
-371,029	-200,000	-0,016	0,072
-370,015	-200,000	-0,017	-0,136
-369,000	-34,294	0,055	0,022
-367,985	-171,854	-0,165	0,004
-366,971	-136,608	-0,089	-0,007
-365,956	-200,000	0,000	-0,047
-364,942	800,000	0,024	0,070
-363,927	-151,039	0,040	-0,002
-362,912	-7,969	0,112	0,055
-361,898	105,113	0,108	0,093
-360,883	-200,000	0,022	-0,202
-359,869	-147,189	-0,162	0,010
-358,854	668,290	0,072	0,137
-357,839	-95,932	0,170	0,033
-356,825	195,586	0,057	-0,064
-355,810	800,000	-0,030	0,076
-354,796	516,713	0,011	-0,018
-353,781	219,984	-0,087	-0,102
-352,766	-133,326	0,021	0,002
-351,752	329,544	0,047	0,066
-350,737	204,258	0,073	0,083
-349,723	-200,000	0,016	0,165
-348,708	-39,539	0,033	-0,013
-347,693	420,122	-0,048	-0,075
-346,679	92,593	-0,110	-0,090
-345,664	-37,431	-0,132	0,051
-344,650	38,238	-0,046	-0,030
-343,635	-33,656	0,075	-0,030
-342,620	-200,000	0,003	0,059
-341,606	-20,983	0,054	-0,024
-340,591	-131,243	-0,005	0,000
-339,577	661,305	-0,071	0,135
-338,562	800,000	-0,016	0,043
-337,548	7,983	-0,031	-0,017
-336,533	-25,673	0,055	-0,024
-335,518	270,499	0,025	-0,032
-334,504	-123,146	-0,196	0,023
-333,489	-200,000	-0,002	0,039
-332,475	-200,000	-0,020	-0,087
-331,460	-49,497	0,086	-0,030
-330,445	-69,896	-0,181	-0,050
-329,431	-131,243	0,142	0,014
-328,416	45,154	0,149	-0,100
-327,402	197,342	0,049	0,054
-326,387	-45,239	0,068	-0,025
-325,372	-200,000	0,002	0,027
-324,358	148,344	-0,039	-0,039
-323,343	92,949	0,025	-0,021
-322,329	-200,000	-0,012	-0,080
-321,314	138,256	0,101	0,097
-320,299	643,223	-0,019	-0,036
-319,285	-200,000	0,023	-0,122
-318,270	-200,000	0,001	0,006
-317,256	800,000	0,024	-0,063
-316,241	386,684	-0,035	-0,053
-315,226	-6,842	0,022	-0,011
-314,212	119,670	0,043	-0,039
-313,197	-200,000	0,012	0,108
-312,183	-105,402	-0,084	-0,014
-311,168	-200,000	-0,051	-0,166
-310,153	-200,000	-0,001	0,072
-309,139	89,283	0,067	0,054
-308,124	-200,000	-0,005	-0,043
-307,110	-200,000	-0,006	0,102
-306,095	289,697	0,163	0,216
-305,080	99,032	-0,022	-0,018
-304,066	239,449	-0,059	0,071
-303,051	191,961	-0,025	-0,027
-302,037	800,000	-0,027	-0,071
-301,022	-200,000	0,012	0,064
-300,008	-83,852	-0,130	0,030
-298,993	800,000	-0,052	0,112
-297,978	222,359	0,097	-0,114
-296,964	603,324	-0,036	0,066
-295,949	184,149	-0,021	0,023
-294,935	171,170	-0,087	-0,091
-293,920	-126,098	0,077	0,008
-292,905	419,099	-0,020	0,031
-291,891	-162,228	0,057	-0,002
-290,876	800,000	-0,050	-0,118
-289,862	800,000	0,032	0,077
-288,847	-159,742	0,031	-0,001
-287,832	-116,210	-0,088	-0,012
-286,818	-85,594	-0,084	0,019
-285,803	800,000	-0,054	0,158
-284,789	-200,000	-0,054	0,220
-283,774	800,000	0,040	0,118
-282,759	95,827	-0,108	0,090
-281,745	192,546	0,031	-0,034
-280,730	300,216	0,044	-0,060
-279,716	361,379	-0,067	-0,099
-278,701	800,000	-0,029	0,064
-277,686	-200,000	0,004	0,046
-276,672	-200,000	0,027	-0,088
-275,657	-200,000	-0,023	0,110
-274,643	-20,003	0,049	0,022
-273,628	-200,000	-0,010	-0,057
-272,613	800,000	0,050	-0,106
-271,599	-55,079	0,171	-0,056
-270,584	800,000	-0,039	0,086
-269,570	800,000	-0,066	0,148
-268,555	261,217	0,060	0,076
-267,540	-86,564	0,085	0,019
-266,526	380,808	-0,044	-0,067
-265,511	-167,760	0,119	-0,003
-264,497	-121,302	0,083	0,010
-263,482	-25,244	-0,056	0,024
-262,467	-59,282	-0,099	0,031
-261,453	-200,000	-0,002	0,115
-260,438	-73,767	-0,084	-0,022
-259,424	0,964	-0,067	0,035
-258,409	-61,073	0,113	0,035
-257,395	-200,000	0,002	0,042
-256,380	120,054	0,067	-0,061
-255,365	-200,000	-0,005	0,033
-254,351	-8,823	-0,117	0,057
-253,336	-59,004	-0,062	-0,019
-252,322	-51,062	-0,098	0,033
-251,307	-84,842	-0,019	-0,004
-250,292	800,000	-0,033	0,093
-249,278	800,000	-0,022	-0,048
-248,263	177,415	0,116	0,123
-247,249	-123,443	0,118	0,014
-246,234	468,044	0,006	-0,010
-245,219	465,478	0,048	-0,078
-244,205	-115,100	-0,117	0,016
-243,190	800,000	-0,013	0,033
-242,176	67,367	-0,019	-0,014
-241,161	-116,110	0,086	0,012
-240,146	-60,659	-0,021	0,006
-239,132	800,000	0,039	-0,093
-238,117	-81,775	-0,106	-0,025
-237,103	-47,495	-0,021	-0,007
-236,088	63,256	0,088	-0,064
-235,073	96,319	0,095	0,079
-234,059	748,900	-0,003	-0,006
-233,044	634,330	0,061	0,114
-232,030	231,705	-0,033	-0,039
-231,015	-97,926	-0,053	0,010
-230,000	64,683	-0,067	0,049
-228,986	470,886	-0,018	-0,030
-227,971	800,000	0,022	0,052
-226,957	-200,000	-0,026	0,140
-225,942	-200,000	-0,004	0,020
-224,927	248,238	0,054	0,066
-223,913	800,000	-0,044	-0,135
-222,898	132,194	-0,065	-0,061
-221,884	10,895	-0,067	0,037
-220,869	-200,000	0,047	-0,157
-219,855	0,148	0,104	0,054
-218,840	-80,664	0,084	0,020
-217,825	800,000	-0,056	-0,117
-216,811	-144,152	-0,032	-0,002
-215,796	-38,636	-0,074	-0,028
-214,782	-200,000	0,052	0,184
-213,767	12,048	0,048	0,027
-212,752	30,850	-0,044	-0,027
-211,738	28,303	0,090	0,055
-210,723	139,275	-0,040	-0,038
-209,709	146,187	-0,108	-0,105
-208,694	313,243	-0,009	-0,012
-207,679	327,677	-0,079	-0,110
-206,665	-58,296	-0,139	-0,044
-205,650	2,083	0,044	0,023
-204,636	-16,310	0,100	-0,046
-203,621	-105,869	0,121	0,020
-202,606	140,043	-0,029	0,027
-201,592	-36,695	-0,090	0,035
-200,577	-101,449	-0,060	0,010
-199,563	112,251	-0,012	-0,011
-198,548	-103,864	0,112	-0,019
-197,533	-200,000	-0,008	0,059
-196,519	169,088	-0,082	0,085
-195,504	320,318	0,071	-0,098
-194,490	68,737	-0,074	-0,055
-193,475	572,876	-0,024	0,043
-192,460	-200,000	-0,001	-0,130
-191,446	800,000	0,014	-0,034
-190,431	800,000	0,029	0,060
-189,417	462,899	-0,013	-0,021
-188,402	86,922	0,101	0,081
-187,387	-200,000	-0,021	-0,199
-186,373	-17,470	0,118	0,053
-185,358	-200,000	-0,004	0,045
-184,344	-200,000	0,024	0,081
-183,329	800,000	0,009	-0,019
-182,315	-79,049	0,135	0,033
-181,300	52,866	-0,107	-0,074
-180,285	-67,539	0,033	-0,009
-179,271	-14,413	0,184	-0,085
-178,256	-200,000	0,039	0,150
-177,242	80,175	0,079	0,062
-176,227	800,000	-0,025	-0,078
-175,212	-200,000	-0,004	0,043
-174,198	-200,000	-0,021	-0,069
-173,183	362,057	-0,086	-0,125
-172,169	800,000	-0,054	-0,159
-171,154	-200,000	0,017	-0,079
-170,139	-200,000	0,019	0,159
-169,125	186,321	-0,053	0,058
-168,110	800,000	0,028	0,068
-167,096	-59,399	-0,102	0,032
-166,081	-94,812	-0,155	0,030
-165,066	-200,000	-0,008	-0,052
-164,052	41,872	0,105	0,069
-163,037	-200,000	-0,011	-0,063
-162,023	-124,598	-0,069	0,008
-161,008	15,462	0,089	-0,051
-159,993	-200,000	-0,021	-0,089
-158,979	800,000	0,018	0,048
-157,964	800,000	0,028	0,062
-156,950	-200,000	-0,010	-0,038
-155,935	800,000	0,028	0,082
-154,920	431,167	0,010	-0,015
-153,906	-99,241	-0,103	0,019
-152,891	147,733	0,039	0,038
-151,877	-175,323	-0,072	-0,001
-150,862	-77,533	-0,165	-0,041
-149,847	-200,000	-0,013	-0,098
-148,833	302,327	0,072	0,097
-147,818	800,000	-0,067	0,160
-146,804	6,667	0,163	-0,088
-145,789	-83,466	0,144	0,033
-144,775	418,813	0,052	-0,081
-143,760	36,880	-0,034	-0,021
-142,745	-200,000	-0,015	0,087
-141,731	-30,807	-0,036	0,015
-140,716	-92,755	0,089	0,018
-139,702	800,000	-0,036	-0,087
-138,687	-5,627	0,192	0,095
-137,672	-200,000	0,021	0,095
-136,658	800,000	-0,056	-0,138
-135,643	225,540	-0,013	-0,015
-134,629	-127,809	-0,097	0,010
-133,614	-200,000	0,000	0,098
-132,599	800,000	0,047	0,123
-131,585	-172,669	-0,078	0,002
-130,570	-119,881	-0,077	0,009
-129,556	-131,340	-0,035	-0,003
-128,541	68,370	-0,043	0,032
-127,526	800,000	0,032	0,080
-126,512	-20,440	0,031	0,014
-125,497	-16,410	0,125	0,057
-124,483	-200,000	0,022	0,073
-123,468	-102,582	0,099	-0,017
-122,453	-200,000	0,015	0,098
-121,439	-200,000	-0,001	0,005
-120,424	138,537	-0,071	-0,068
-119,410	128,862	0,099	-0,092
