DTS Sentinel unit serial number:	SN410029Multiplexer serial number:	ORYXHardware model number:	OX2-SRSoftware version number:	ORYX F/W v4,00 Oryx Data Collector v3.7.2.0data status	okinstallation	B6 Nyhavnadifferential loss correction	single-endedforward channel	channel 2reverse channel	N/Adate	2023/12/08time	14:30:08forward acquisition time	300,00reverse acquisition time	0,00gamma	499,1914k internal	0,3159k external	0,3159temperature offset calibration	1,0000default loss term (dB/km)	0,3820temperature slope calibration	1,0000multiplexer offset coefficient	1,0000multiplexer slope coefficient	1,0000fibre end	0,00T internal ref (°C)	15,06T ext. ref 1 (°C)	-1,54T ext. ref 2 (°C)	-1,55length (m)	temperature (°C)	Stokes	anti-Stokes-744,400	374,126	0,056	-0,084
-743,385	-131,511	-0,312	-0,030
-742,371	-200,000	0,021	0,082
-741,356	-105,475	-0,360	0,060
-740,342	-126,560	0,092	0,010
-739,327	-111,682	-0,356	-0,053
-738,312	-200,000	0,000	-0,113
-737,298	-62,743	-0,330	0,100
-736,283	800,000	-0,015	0,044
-735,269	-86,120	-0,311	-0,070
-734,254	321,955	0,048	-0,068
-733,239	14,406	-0,519	-0,298
-732,225	119,941	0,010	-0,009
-731,210	-63,818	-0,066	-0,020
-730,196	161,026	0,061	-0,063
-729,181	800,000	0,025	-0,073
-728,167	-200,000	0,006	0,063
-727,152	-107,282	-0,103	-0,017
-726,137	328,311	-0,063	-0,090
-725,123	145,435	-0,032	-0,032
-724,108	-28,626	-0,086	-0,036
-723,094	-200,000	0,012	-0,049
-722,079	-200,000	-0,007	-0,098
-721,064	-200,000	0,009	-0,183
-720,050	131,157	-0,034	0,032
-719,035	31,294	-0,045	0,028
-718,021	-200,000	-0,019	-0,136
-717,006	-77,383	0,097	-0,025
-715,991	-200,000	0,033	-0,189
-714,977	103,289	-0,101	-0,087
-713,962	146,053	-0,010	0,010
-712,948	-166,571	0,034	-0,001
-711,933	800,000	-0,050	0,145
-710,918	800,000	-0,060	-0,172
-709,904	-200,000	-0,016	-0,118
-708,889	82,411	-0,145	0,116
-707,875	722,136	-0,020	0,039
-706,860	135,676	-0,060	-0,057
-705,845	-200,000	-0,013	-0,076
-704,831	688,030	0,042	-0,081
-703,816	-200,000	0,014	-0,056
-702,802	65,025	-0,045	-0,033
-701,787	-133,511	-0,111	-0,010
-700,772	33,275	-0,118	0,075
-699,758	-110,646	0,050	0,008
-698,743	-200,000	-0,026	-0,170
-697,729	-200,000	0,007	-0,029
-696,714	21,847	-0,107	0,064
-695,699	731,255	0,061	0,121
-694,685	490,975	0,032	0,054
-693,670	-29,166	-0,129	-0,054
-692,656	-107,605	-0,095	-0,015
-691,641	133,615	0,098	-0,094
-690,627	39,107	0,135	-0,089
-689,612	-11,360	-0,102	0,049
-688,597	-44,611	-0,088	-0,032
-687,583	-98,522	-0,104	-0,019
-686,568	-134,348	-0,101	-0,009
-685,554	800,000	0,044	-0,106
-684,539	-40,279	0,054	0,020
-683,524	139,112	0,029	-0,028
-682,510	-139,461	0,211	0,016
-681,495	371,109	-0,077	0,115
-680,481	-38,323	-0,051	-0,020
-679,466	-104,796	-0,120	0,020
-678,451	-200,000	0,008	0,164
-677,437	413,387	0,032	0,051
-676,422	192,162	-0,033	0,036
-675,408	-159,012	0,061	-0,003
-674,393	44,244	-0,061	0,041
-673,378	800,000	-0,040	-0,081
-672,364	-62,354	-0,073	0,022
-671,349	-25,932	-0,137	-0,059
-670,335	-73,751	0,156	0,041
-669,320	-200,000	0,041	0,139
-668,305	265,052	-0,068	0,087
-667,291	766,893	0,048	0,096
-666,276	189,752	0,066	-0,073
-665,262	-200,000	-0,023	-0,126
-664,247	-33,049	-0,104	-0,042
-663,232	-200,000	0,006	0,064
-662,218	-200,000	0,009	0,090
-661,203	182,011	-0,102	-0,110
-660,189	-142,860	0,136	-0,010
-659,174	-126,832	-0,155	-0,017
-658,159	322,478	-0,057	-0,080
-657,145	-13,456	-0,064	-0,030
-656,130	583,636	0,046	0,083
-655,116	-200,000	0,006	0,095
-654,101	-200,000	0,001	0,006
-653,086	-200,000	-0,006	-0,071
-652,072	429,182	-0,012	-0,019
-651,057	438,753	-0,082	-0,132
-650,043	40,063	-0,138	-0,091
-649,028	-200,000	-0,023	-0,118
-648,014	320,713	0,047	-0,066
-646,999	46,750	0,169	0,115
-645,984	56,008	0,085	0,060
-644,970	-128,676	-0,087	-0,009
-643,955	69,127	0,045	0,034
-642,941	38,065	0,047	-0,031
-641,926	205,722	-0,086	0,098
-640,911	-126,040	-0,098	-0,011
-639,897	-200,000	0,007	0,059
-638,882	-123,988	-0,095	0,011
-637,868	-61,065	-0,133	-0,041
-636,853	397,457	-0,047	0,072
-635,838	-123,561	-0,028	0,003
-634,824	-92,073	-0,089	-0,018
-633,809	30,494	0,106	0,066
-632,795	-142,588	0,051	0,004
-631,780	-200,000	0,019	-0,069
-630,765	-200,000	0,001	-0,153
-629,751	224,238	0,086	-0,102
-628,736	-104,330	-0,089	0,015
-627,722	-200,000	0,007	-0,067
-626,707	129,862	-0,048	0,045
-625,692	800,000	-0,024	0,051
-624,678	-149,481	-0,077	0,004
-623,663	-122,609	-0,142	0,017
-622,649	185,194	-0,063	-0,069
-621,634	202,257	-0,039	-0,044
-620,619	398,128	-0,059	-0,091
-619,605	-22,276	-0,096	0,043
-618,590	382,721	0,089	0,135
-617,576	-28,920	0,177	0,074
-616,561	49,789	-0,077	0,053
-615,546	-160,519	-0,148	0,006
-614,532	184,285	-0,165	0,179
-613,517	800,000	0,027	-0,068
-612,503	309,315	0,049	-0,067
-611,488	-200,000	-0,018	0,105
-610,474	7,162	-0,087	0,048
-609,459	237,616	0,022	0,027
-608,444	-200,000	-0,001	-0,012
-607,430	153,397	-0,026	-0,026
-606,415	-72,682	0,053	0,014
-605,401	171,512	0,056	-0,059
-604,386	-200,000	0,008	-0,097
-603,371	-200,000	-0,014	-0,082
-602,357	800,000	-0,047	-0,138
-601,342	-5,755	-0,165	0,083
-600,328	-170,683	-0,143	0,004
-599,313	-46,128	0,020	0,007
-598,298	127,570	0,076	-0,071
-597,284	-200,000	-0,008	0,143
-596,269	240,078	0,069	-0,085
-595,255	-200,000	0,020	-0,110
-594,240	77,361	-0,141	-0,110
-593,225	49,284	-0,137	-0,094
-592,211	36,282	-0,125	-0,080
-591,196	124,150	-0,067	-0,061
-590,182	-200,000	0,026	0,086
-589,167	-116,223	0,287	0,039
-588,152	178,415	-0,148	0,158
-587,138	15,191	0,100	-0,057
-586,123	800,000	0,025	-0,054
-585,109	-59,128	-0,080	0,025
-584,094	800,000	-0,053	-0,119
-583,079	32,876	0,037	-0,024
-582,065	-2,023	0,110	-0,057
-581,050	-150,620	0,088	0,005
-580,036	-78,291	0,017	0,004
-579,021	108,699	0,023	0,020
-578,006	83,995	-0,136	-0,108
-576,992	-36,975	-0,015	0,006
-575,977	-200,000	-0,002	-0,100
-574,963	-110,894	0,183	0,027
-573,948	-200,000	-0,002	-0,034
-572,934	-200,000	-0,006	0,130
-571,919	31,657	-0,044	-0,028
-570,904	-7,018	-0,053	-0,026
-569,890	800,000	-0,064	-0,166
-568,875	-162,847	0,020	0,001
-567,861	-63,667	-0,020	0,006
-566,846	-111,476	0,071	0,010
-565,831	-83,373	0,110	-0,026
-564,817	-22,737	0,046	-0,020
-563,802	-200,000	0,134	0,000
-562,788	157,470	-0,008	-0,008
-561,773	147,853	-0,110	0,109
-560,758	-116,916	0,056	0,007
-559,744	800,000	0,018	0,052
-558,729	800,000	0,041	0,099
-557,715	-200,000	-0,012	-0,102
-556,700	489,650	-0,063	-0,105
-555,685	5,168	0,080	-0,043
-554,671	-184,194	-0,024	0,000
-553,656	-140,282	0,025	-0,002
-552,642	-125,628	0,057	-0,006
-551,627	222,417	0,173	0,204
-550,612	-42,235	0,025	0,009
-549,598	697,421	-0,039	0,075
-548,583	-149,726	-0,078	0,004
-547,569	-200,000	-0,014	0,085
-546,554	155,258	0,062	0,062
-545,539	-200,000	-0,001	0,025
-544,525	-26,852	-0,125	0,053
-543,510	800,000	0,016	-0,044
-542,496	-72,122	-0,046	-0,012
-541,481	-200,000	0,006	0,074
-540,466	-73,274	-0,021	-0,006
-539,452	162,781	0,070	0,072
-538,437	-150,031	0,068	-0,004
-537,423	33,685	0,072	0,045
-536,408	800,000	-0,036	-0,105
-535,393	-200,000	-0,007	-0,027
-534,379	-26,750	0,059	-0,025
-533,364	126,418	-0,126	0,116
-532,350	115,212	-0,080	0,071
-531,335	48,421	0,077	-0,052
-530,321	67,463	-0,043	0,032
-529,306	-6,568	0,079	0,039
-528,291	-80,625	0,082	0,020
-527,277	574,804	-0,052	-0,094
-526,262	-57,362	0,055	0,018
-525,248	-137,886	0,053	0,004
-524,233	71,194	0,060	-0,045
-523,218	577,500	-0,018	-0,032
-522,204	-200,000	-0,003	0,119
-521,189	21,866	-0,086	0,051
-520,175	100,554	-0,030	0,026
-519,160	-200,000	-0,001	-0,031
-518,145	800,000	0,025	0,057
-517,131	716,137	-0,067	0,131
-516,116	109,291	0,030	0,026
-515,102	-153,754	0,080	-0,004
-514,087	187,392	-0,062	0,068
-513,072	47,599	0,039	-0,026
-512,058	-104,378	0,026	0,004
-511,043	323,545	0,019	-0,026
-510,029	-200,000	0,010	-0,042
-509,014	-200,000	0,004	-0,098
-507,999	-44,248	-0,030	0,011
-506,985	800,000	-0,052	-0,167
-505,970	800,000	-0,042	-0,090
-504,956	-200,000	-0,023	-0,091
-503,941	613,735	0,024	0,043
-502,926	17,838	-0,016	0,009
-501,912	-51,820	0,098	-0,033
-500,897	36,926	-0,023	0,015
-499,883	-107,453	0,040	-0,006
-498,868	-200,000	-0,007	0,137
-497,853	390,195	0,031	-0,048
-496,839	800,000	-0,034	-0,106
-495,824	257,692	-0,115	0,145
-494,810	604,816	0,080	-0,146
-493,795	216,202	0,014	0,016
-492,781	4,561	-0,089	-0,047
-491,766	34,101	-0,118	-0,075
-490,751	145,309	0,045	0,044
-489,737	-91,857	0,015	0,003
-488,722	-66,260	0,145	0,042
-487,708	462,946	0,014	-0,023
-486,693	159,834	0,073	0,074
-485,678	74,626	-0,085	0,065
-484,664	-200,000	0,029	0,125
-483,649	232,726	-0,051	-0,061
-482,635	108,376	-0,031	-0,027
-481,620	-200,000	0,008	0,032
-480,605	66,272	0,031	-0,023
-479,591	55,792	0,030	0,021
-478,576	34,370	-0,032	-0,020
-477,562	-200,000	0,010	-0,039
-476,547	63,371	0,013	0,010
-475,532	-200,000	-0,015	-0,074
-474,518	-200,000	0,047	-0,177
-473,503	800,000	0,050	-0,143
-472,489	-99,008	0,105	0,019
-471,474	800,000	0,056	0,125
-470,459	800,000	-0,020	-0,041
-469,445	-41,640	-0,035	-0,013
-468,430	-162,857	0,178	-0,006
-467,416	345,495	-0,063	0,090
-466,401	-172,992	0,173	-0,004
-465,386	21,319	0,157	0,093
-464,372	-101,698	0,097	0,017
-463,357	481,240	-0,058	-0,096
-462,343	-73,758	-0,086	-0,023
-461,328	-191,275	0,065	-0,000
-460,313	188,220	0,059	0,064
-459,299	715,756	0,112	0,218
-458,284	40,329	0,040	-0,026
-457,270	764,692	-0,033	-0,066
-456,255	800,000	-0,053	-0,149
-455,241	800,000	0,013	-0,034
-454,226	-69,925	-0,120	-0,033
-453,211	800,000	0,029	-0,075
-452,197	117,739	0,102	0,092
-451,182	120,192	0,038	-0,034
-450,168	-200,000	-0,046	0,000
-449,153	-14,274	-0,022	0,010
-448,138	-200,000	-0,008	-0,027
-447,124	-155,343	0,036	-0,002
-446,109	800,000	0,066	0,152
-445,095	349,696	0,015	0,021
-444,080	9,999	-0,144	0,079
-443,065	800,000	0,011	0,030
-442,051	-200,000	-0,003	0,112
-441,036	-200,000	-0,015	-0,099
-440,022	-41,972	-0,078	0,029
-439,007	459,804	-0,038	-0,062
-437,992	39,483	0,096	0,063
-436,978	-8,316	0,034	0,016
-435,963	-93,338	0,123	-0,025
-434,949	-79,213	-0,032	-0,008
-433,934	-200,000	-0,014	-0,074
-432,919	130,203	0,032	-0,030
-431,905	-200,000	0,003	0,016
-430,890	540,122	0,032	0,056
-429,876	-123,931	0,133	0,015
-428,861	-127,201	-0,097	0,010
-427,846	-55,999	0,040	0,013
-426,832	-200,000	-0,008	0,034
-425,817	-32,079	-0,069	-0,028
-424,803	773,625	0,055	0,110
-423,788	122,634	-0,121	-0,110
-422,773	800,000	-0,061	0,132
-421,759	-200,000	-0,003	0,048
-420,744	16,552	0,043	-0,024
-419,730	655,478	0,060	-0,112
-418,715	-163,361	-0,042	-0,001
-417,701	-161,822	0,083	0,003
-416,686	-60,647	0,124	0,038
-415,671	27,674	0,021	-0,013
-414,657	-113,227	0,028	0,004
-413,642	-200,000	-0,002	0,007
-412,628	347,661	-0,059	0,085
-411,613	-148,429	-0,091	-0,005
-410,598	-200,000	0,011	-0,156
-409,584	258,414	-0,014	-0,018
-408,569	-200,000	0,017	-0,139
-407,555	800,000	-0,021	-0,047
-406,540	800,000	-0,023	-0,063
-405,525	97,998	-0,030	-0,025
-404,511	-135,712	0,028	0,002
-403,496	307,799	0,049	-0,067
-402,482	60,393	-0,013	0,009
-401,467	380,901	-0,017	0,026
-400,452	160,723	0,074	0,075
-399,438	-200,000	-0,010	0,039
-398,423	90,515	-0,082	-0,066
-397,409	198,000	0,087	-0,097
-396,394	0,795	-0,072	-0,038
-395,379	-200,000	-0,019	-0,063
-394,365	110,746	0,040	0,035
-393,350	-13,109	0,129	0,061
-392,336	140,025	-0,057	0,055
-391,321	-200,000	0,015	-0,054
-390,306	-200,000	-0,002	0,036
-389,292	194,490	-0,081	-0,089
-388,277	-139,225	0,033	-0,003
-387,263	-200,000	0,010	-0,085
-386,248	-200,000	-0,031	0,185
-385,233	-174,579	0,036	0,001
-384,219	-131,124	-0,088	-0,008
-383,204	167,096	0,124	-0,128
-382,190	51,712	0,090	0,062
-381,175	800,000	0,049	0,143
-380,160	-52,462	0,114	-0,038
-379,146	100,026	-0,088	0,074
-378,131	-0,674	0,016	-0,008
-377,117	-80,378	0,068	0,016
-376,102	117,880	-0,010	0,009
-375,088	94,271	-0,111	-0,092
-374,073	-20,782	-0,189	0,084
-373,058	800,000	0,036	-0,101
-372,044	800,000	-0,029	0,082
-371,029	3,002	0,046	0,024
-370,015	-200,000	-0,015	0,120
-369,000	67,132	0,043	0,032
-367,985	199,591	-0,036	-0,040
-366,971	132,073	-0,085	-0,079
-365,956	-4,400	0,083	0,042
-364,942	-200,000	-0,030	0,146
-363,927	-105,687	0,052	-0,008
-362,912	-200,000	-0,006	-0,168
-361,898	9,035	-0,034	-0,019
-360,883	-200,000	-0,017	0,057
-359,869	800,000	0,035	0,075
-358,854	48,670	-0,099	0,067
-357,839	800,000	0,042	0,086
-356,825	-89,221	0,194	0,041
-355,810	-200,000	-0,008	0,046
-354,796	-73,440	-0,100	0,026
-353,781	-6,456	-0,121	-0,060
-352,766	3,487	0,021	-0,011
-351,752	-137,296	-0,038	0,003
-350,737	-157,681	0,187	0,008
-349,723	163,716	0,020	0,020
-348,708	-200,000	-0,041	0,141
-347,693	-109,122	0,065	-0,010
-346,679	-87,507	-0,080	0,017
-345,664	-135,207	0,070	0,006
-344,650	-19,147	-0,025	0,011
-343,635	-74,212	-0,116	0,030
-342,620	775,888	-0,067	0,133
-341,606	-49,156	0,157	-0,054
-340,591	800,000	0,008	-0,019
-339,577	-45,348	-0,121	0,043
-338,562	-200,000	0,005	-0,126
-337,548	248,800	-0,051	0,062
-336,533	-200,000	0,039	0,145
-335,518	30,484	0,075	0,047
-334,504	-63,435	0,147	-0,044
-333,489	149,777	-0,092	-0,091
-332,475	800,000	-0,046	-0,108
-331,460	95,345	-0,072	-0,060
-330,445	800,000	-0,023	-0,065
-329,431	-200,000	0,035	-0,114
-328,416	-200,000	0,012	0,049
-327,402	-200,000	0,016	0,093
-326,387	-200,000	0,006	-0,047
-325,372	279,866	0,087	-0,113
-324,358	601,056	-0,059	-0,106
-323,343	70,538	0,093	0,069
-322,329	-135,417	-0,030	0,003
-321,314	-141,444	0,134	0,010
-320,299	6,389	0,086	0,046
-319,285	-200,000	0,042	-0,160
-318,270	-72,255	-0,226	0,060
-317,256	-109,668	-0,166	0,025
-316,241	163,296	0,058	0,059
-315,226	-200,000	-0,017	-0,109
-314,212	-200,000	-0,018	0,061
-313,197	-37,331	-0,088	-0,034
-312,183	-16,267	0,100	-0,046
-311,168	433,327	0,014	0,022
-310,153	800,000	-0,012	0,035
-309,139	23,346	-0,091	0,054
-308,124	800,000	0,024	0,065
-307,110	-114,371	-0,171	-0,024
-306,095	-1,689	0,071	0,036
-305,080	-200,000	-0,010	-0,095
-304,066	93,488	-0,082	0,067
-303,051	-37,630	-0,165	0,063
-302,037	82,164	0,041	0,032
-301,022	129,477	0,073	0,067
-300,008	57,613	0,159	-0,113
-298,993	-200,000	-0,035	-0,114
-297,978	429,499	0,048	-0,076
-296,964	-15,626	0,148	-0,068
-295,949	623,257	-0,043	0,079
-294,935	-200,000	-0,020	-0,101
-293,920	-35,977	0,046	-0,018
-292,905	540,439	0,041	-0,072
-291,891	-200,000	-0,012	-0,048
-290,876	120,647	0,028	-0,026
-289,862	-55,616	0,095	-0,030
-288,847	800,000	-0,106	-0,260
-287,832	49,770	0,090	-0,061
-286,818	113,099	0,012	0,011
-285,803	-200,000	0,016	-0,095
-284,789	-123,949	-0,059	0,007
-283,774	40,978	0,101	0,066
-282,759	-38,355	0,006	-0,002
-281,745	-200,000	-0,030	-0,106
-280,730	-200,000	-0,000	-0,036
-279,716	800,000	0,037	0,098
-278,701	352,165	-0,047	-0,067
-277,686	-200,000	-0,009	0,069
-276,672	-200,000	0,016	0,122
-275,657	-200,000	0,009	0,081
-274,643	800,000	0,021	-0,050
-273,628	307,549	0,031	0,042
-272,613	800,000	-0,021	0,054
-271,599	46,227	0,081	0,054
-270,584	-62,474	-0,067	0,020
-269,570	176,526	0,067	0,070
-268,555	-200,000	-0,004	0,097
-267,540	-21,376	-0,281	-0,124
-266,526	-75,993	-0,132	-0,033
-265,511	-200,000	-0,004	0,061
-264,497	442,548	-0,081	-0,129
-263,482	-18,958	0,117	0,053
-262,467	-65,333	0,010	-0,003
-261,453	800,000	0,018	-0,054
-260,438	253,854	-0,128	-0,158
-259,424	408,292	0,051	-0,079
-258,409	18,506	-0,055	-0,031
-257,395	-200,000	-0,056	-0,192
-256,380	416,953	0,044	-0,068
-255,365	594,005	0,049	0,089
-254,351	-41,270	-0,106	0,039
-253,336	112,980	-0,064	0,056
-252,322	800,000	0,063	-0,142
-251,307	-75,620	0,080	0,020
-250,292	800,000	0,025	-0,069
-249,278	-154,706	0,116	0,005
-248,263	-39,616	0,076	-0,028
-247,249	800,000	-0,019	0,047
-246,234	190,936	0,016	-0,017
-245,219	-149,306	-0,103	-0,006
-244,205	753,293	-0,029	0,056
-243,190	43,298	-0,045	-0,030
-242,176	800,000	0,046	0,131
-241,161	590,960	-0,059	0,106
-240,146	640,531	-0,030	0,056
-239,132	88,484	-0,066	-0,053
-238,117	79,056	-0,095	-0,073
-237,103	332,900	-0,042	0,058
-236,088	-96,554	-0,090	0,017
-235,073	242,640	0,057	0,070
-234,059	38,880	0,098	0,063
-233,044	-200,000	0,027	0,238
-232,030	-39,860	0,124	0,046
-231,015	-146,688	-0,111	-0,007
-230,000	583,033	-0,057	-0,102
-228,986	349,415	-0,058	0,083
-227,971	20,719	0,059	0,035
-226,957	800,000	0,105	0,242
-225,942	800,000	0,047	0,147
-224,927	171,526	-0,102	-0,105
-223,913	-5,684	0,103	-0,051
-222,898	-200,000	-0,015	-0,059
-221,884	-200,000	0,015	-0,052
-220,869	800,000	0,026	-0,074
-219,855	-83,205	-0,027	0,006
-218,840	131,922	-0,129	0,120
-217,825	800,000	-0,035	-0,094
-216,811	302,410	-0,074	0,100
-215,796	13,311	-0,052	-0,029
-214,782	233,696	-0,055	0,065
-213,767	-119,539	-0,082	-0,010
-212,752	185,636	0,047	-0,051
-211,738	271,841	-0,048	0,061
-210,723	-200,000	0,119	0,000
-209,709	-93,532	-0,116	-0,023
-208,694	-144,004	-0,094	-0,006
-207,679	200,293	-0,068	-0,075
-206,665	-200,000	0,003	-0,030
-205,650	318,990	0,031	-0,042
-204,636	137,663	0,079	-0,074
-203,621	-103,128	0,097	0,016
-202,606	-36,878	-0,106	0,041
-201,592	-84,170	0,058	-0,013
-200,577	-200,000	0,015	-0,100
-199,563	408,247	0,086	-0,132
-198,548	-43,873	0,114	0,041
-197,533	-81,499	0,080	0,019
-196,519	-155,971	-0,083	0,004
-195,504	80,262	-0,103	-0,080
-194,490	328,336	-0,070	-0,098
-193,475	-121,900	0,174	0,020
-192,460	316,639	-0,063	0,085
-191,446	737,095	0,024	0,047
-190,431	64,711	-0,079	0,058
-189,417	29,047	-0,044	0,027
-188,402	-200,000	-0,002	-0,036
-187,387	800,000	0,048	-0,111
-186,373	691,296	-0,044	0,084
-185,358	800,000	-0,059	0,122
-184,344	14,660	0,011	-0,006
-183,329	83,710	0,101	-0,079
-182,315	30,311	-0,038	0,023
-181,300	353,921	0,098	0,141
-180,285	160,390	0,019	-0,019
-179,271	6,149	0,072	-0,039
-178,256	-64,092	-0,017	0,005
-177,242	-179,384	-0,130	0,002
-176,227	-59,635	0,149	-0,046
-175,212	198,261	0,044	0,048
-174,198	-52,848	-0,111	-0,037
-173,183	-200,000	0,004	-0,013
-172,169	41,665	0,022	0,014
-171,154	-200,000	0,002	0,024
-170,139	-108,203	0,055	0,009
-169,125	-200,000	0,009	0,128
-168,110	99,717	-0,076	0,063
-167,096	800,000	0,062	-0,153
-166,081	436,978	-0,029	-0,045
-165,066	-107,644	-0,127	0,020
-164,052	-200,000	0,024	0,122
-163,037	4,721	0,109	0,057
-162,023	-178,928	-0,056	-0,001
-161,008	800,000	0,020	0,060
-159,993	284,814	-0,037	-0,048
-158,979	83,477	-0,117	0,092
-157,964	290,573	-0,019	-0,025
-156,950	-109,482	0,087	0,013
-155,935	-21,193	0,022	-0,010
-154,920	-19,076	-0,034	-0,015
-153,906	-200,000	-0,013	0,091
-152,891	147,761	-0,036	0,035
-151,877	-137,219	-0,044	0,004
-150,862	-164,453	-0,096	0,003
-149,847	-178,606	0,031	0,001
-148,833	43,008	0,033	-0,022
-147,818	13,908	0,063	-0,035
-146,804	800,000	-0,044	-0,088
-145,789	-94,295	0,068	0,013
-144,775	-4,290	-0,154	0,076
-143,760	-200,000	-0,004	-0,033
-142,745	-200,000	0,031	-0,165
-141,731	-200,000	-0,001	-0,146
-140,716	52,633	0,155	-0,106
-139,702	-200,000	0,002	0,027
-138,687	153,340	0,061	0,060
-137,672	-200,000	-0,002	-0,023
-136,658	-200,000	-0,011	-0,037
-135,643	-200,000	0,011	-0,065
-134,629	-19,214	-0,066	-0,030
-133,614	117,791	0,113	0,100
-132,599	-200,000	0,011	0,204
-131,585	800,000	-0,048	0,140
-130,570	-200,000	-0,008	-0,161
-129,556	-200,000	-0,006	-0,054
-128,541	-200,000	0,003	0,015
-127,526	800,000	0,037	-0,112
-126,512	-200,000	0,012	0,053
-125,497	-162,096	0,109	0,004
-124,483	-33,719	0,135	0,053
-123,468	-42,548	-0,150	-0,055
-122,453	301,540	-0,085	-0,113
-121,439	-77,643	-0,073	-0,018
-120,424	6,869	-0,036	0,019
-119,410	389,354	-0,020	-0,030
