DTS Sentinel unit serial number:	SN410029Multiplexer serial number:	ORYXHardware model number:	OX2-SRSoftware version number:	ORYX F/W v4,00 Oryx Data Collector v3.7.2.0data status	okinstallation	B6 Nyhavnadifferential loss correction	single-endedforward channel	channel 2reverse channel	N/Adate	2023/12/10time	13:15:08forward acquisition time	300,00reverse acquisition time	0,00gamma	499,1914k internal	0,3122k external	0,3122temperature offset calibration	1,0000default loss term (dB/km)	0,3820temperature slope calibration	1,0000multiplexer offset coefficient	1,0000multiplexer slope coefficient	1,0000fibre end	0,00T internal ref (°C)	22,79T ext. ref 1 (°C)	6,41T ext. ref 2 (°C)	6,43length (m)	temperature (°C)	Stokes	anti-Stokes-744,400	-56,811	-0,046	-0,015
-743,385	-117,814	-0,269	0,036
-742,371	270,311	0,046	0,060
-741,356	1,448	-0,193	0,103
-740,342	-86,826	0,120	-0,027
-739,327	-86,289	-0,259	0,059
-738,312	194,725	0,082	-0,093
-737,298	-200,000	-0,264	-0,001
-736,283	-172,957	0,087	0,002
-735,269	-153,649	-0,164	-0,008
-734,254	50,093	0,050	-0,035
-733,239	-168,640	-0,400	-0,011
-732,225	800,000	0,041	0,086
-731,210	223,470	0,034	0,041
-730,196	-200,000	-0,019	0,113
-729,181	-38,799	0,098	-0,038
-728,167	800,000	-0,059	-0,179
-727,152	-106,837	-0,081	0,013
-726,137	-200,000	-0,040	0,000
-725,123	221,122	-0,073	-0,087
-724,108	-106,487	-0,139	0,023
-723,094	800,000	-0,006	0,015
-722,079	-29,312	0,035	-0,015
-721,064	-200,000	0,005	-0,042
-720,050	-200,000	-0,024	-0,091
-719,035	-130,607	-0,068	-0,007
-718,021	-200,000	0,020	-0,178
-717,006	0,835	-0,065	0,035
-715,991	-200,000	-0,004	-0,069
-714,977	92,639	-0,053	-0,045
-713,962	-151,494	-0,059	-0,003
-712,948	276,738	0,098	-0,130
-711,933	-64,663	-0,136	-0,041
-710,918	800,000	0,013	-0,028
-709,904	-200,000	-0,023	-0,133
-708,889	-200,000	-0,018	-0,062
-707,875	-63,853	0,013	0,004
-706,860	-129,729	-0,101	-0,010
-705,845	-85,537	-0,061	0,014
-704,831	443,674	0,069	0,113
-703,816	800,000	0,041	0,122
-702,802	23,706	-0,082	-0,050
-701,787	188,707	-0,087	-0,097
-700,772	591,833	0,043	0,079
-699,758	293,619	-0,053	-0,073
-698,743	800,000	-0,011	0,025
-697,729	-200,000	-0,018	-0,107
-696,714	-200,000	-0,005	-0,066
-695,699	-9,154	-0,010	0,005
-694,685	317,556	-0,097	-0,137
-693,670	45,755	-0,083	-0,057
-692,656	-200,000	-0,021	-0,141
-691,641	-13,482	0,062	-0,030
-690,627	776,290	-0,039	0,080
-689,612	55,202	-0,074	-0,053
-688,597	-98,051	0,053	-0,010
-687,583	159,438	-0,051	-0,052
-686,568	26,428	0,055	0,034
-685,554	640,377	0,026	0,050
-684,539	-153,673	0,107	-0,005
-683,524	-98,284	0,092	-0,017
-682,510	-179,070	0,085	-0,001
-681,495	76,517	-0,203	-0,160
-680,481	-200,000	-0,019	-0,120
-679,466	-71,653	-0,038	-0,011
-678,451	631,208	0,009	-0,017
-677,437	87,069	0,057	-0,047
-676,422	-74,624	0,111	0,030
-675,408	294,502	0,068	0,092
-674,393	68,907	0,116	0,088
-673,378	145,374	-0,023	0,023
-672,364	49,475	-0,029	0,020
-671,349	523,580	0,008	-0,013
-670,335	-141,497	0,049	-0,004
-669,320	569,064	0,069	-0,125
-668,305	800,000	0,020	0,052
-667,291	-17,779	0,032	0,015
-666,276	-47,806	0,031	0,011
-665,262	-200,000	-0,004	-0,071
-664,247	142,372	-0,128	-0,126
-663,232	-200,000	-0,003	-0,093
-662,218	-116,829	0,204	-0,027
-661,203	447,499	-0,021	0,034
-660,189	-40,054	0,125	0,048
-659,174	-25,097	-0,088	0,038
-658,159	800,000	-0,004	0,010
-657,145	-61,469	0,013	-0,004
-656,130	-148,435	0,101	0,006
-655,116	66,212	-0,049	-0,037
-654,101	14,732	0,098	0,057
-653,086	-108,909	0,095	-0,015
-652,072	-200,000	0,034	-0,143
-651,057	-200,000	0,010	-0,042
-650,043	630,881	0,040	0,075
-649,028	800,000	-0,087	-0,188
-648,014	-200,000	0,005	-0,040
-646,999	41,423	0,079	0,053
-645,984	-153,828	0,226	-0,011
-644,970	92,166	0,058	0,048
-643,955	333,348	-0,060	0,086
-642,941	164,159	-0,036	-0,038
-641,926	36,480	-0,124	-0,081
-640,911	178,573	0,052	0,056
-639,897	800,000	0,017	-0,036
-638,882	692,825	0,022	-0,044
-637,868	60,204	-0,040	0,029
-636,853	114,123	-0,041	-0,037
-635,838	800,000	-0,019	-0,049
-634,824	-200,000	0,002	-0,128
-633,809	-200,000	-0,033	0,176
-632,795	-200,000	0,017	-0,080
-631,780	-149,496	0,054	0,003
-630,765	493,776	0,027	-0,047
-629,751	-22,284	-0,032	-0,014
-628,736	386,381	-0,027	-0,042
-627,722	-80,185	-0,099	0,024
-626,707	-77,816	0,160	-0,041
-625,692	73,528	0,079	-0,061
-624,678	800,000	0,053	-0,123
-623,663	-43,156	-0,030	-0,011
-622,649	38,882	-0,096	-0,064
-621,634	-55,888	-0,022	0,007
-620,619	-30,652	-0,138	0,058
-619,605	-90,295	0,041	-0,009
-618,590	454,581	0,034	0,056
-617,576	-200,000	0,012	-0,110
-616,561	800,000	0,045	-0,135
-615,546	-200,000	0,010	-0,207
-614,532	273,949	-0,059	0,078
-613,517	-93,299	-0,073	0,015
-612,503	-142,687	0,035	0,002
-611,488	-200,000	-0,000	-0,037
-610,474	-200,000	-0,004	-0,110
-609,459	180,365	-0,046	0,050
-608,444	573,671	0,005	-0,010
-607,430	44,651	0,078	-0,053
-606,415	313,874	-0,057	-0,080
-605,401	-28,586	-0,023	0,010
-604,386	101,424	0,028	0,024
-603,371	-107,782	0,062	-0,010
-602,357	162,115	0,091	-0,095
-601,342	-160,631	0,097	-0,004
-600,328	-38,951	-0,059	-0,023
-599,313	800,000	-0,037	0,084
-598,298	281,433	0,092	-0,122
-597,284	-200,000	0,020	0,125
-596,269	-200,000	0,012	0,041
-595,255	780,438	-0,023	0,047
-594,240	-93,552	-0,025	0,005
-593,225	-200,000	0,010	-0,120
-592,211	168,953	0,035	-0,037
-591,196	283,483	0,012	-0,016
-590,182	481,102	0,009	-0,015
-589,167	41,886	-0,121	-0,082
-588,152	-17,267	0,045	0,021
-587,138	-35,598	-0,034	-0,013
-586,123	-77,811	-0,070	0,018
-585,109	-200,000	-0,165	0,000
-584,094	-200,000	-0,003	-0,052
-583,079	295,829	0,034	0,046
-582,065	800,000	0,032	0,097
-581,050	-189,110	0,052	0,000
-580,036	614,732	0,057	-0,106
-579,021	60,575	-0,025	-0,018
-578,006	800,000	-0,006	-0,017
-576,992	21,466	0,101	-0,061
-575,977	-200,000	-0,004	0,100
-574,963	22,039	0,085	-0,051
-573,948	-111,973	-0,073	-0,011
-572,934	-200,000	0,032	0,108
-571,919	154,736	-0,019	0,019
-570,904	452,901	0,023	0,038
-569,890	79,298	-0,088	-0,070
-568,875	76,454	-0,023	0,018
-567,861	-7,519	0,135	0,067
-566,846	-200,000	-0,002	0,277
-565,831	-200,000	0,022	0,175
-564,817	82,599	-0,005	0,004
-563,802	14,918	-0,103	-0,060
-562,788	-57,804	-0,074	0,024
-561,773	196,928	0,100	0,113
-560,758	169,877	0,020	0,022
-559,744	-200,000	-0,003	0,032
-558,729	5,903	-0,037	-0,020
-557,715	44,307	-0,027	-0,018
-556,700	-200,000	0,000	-0,167
-555,685	155,222	-0,050	-0,051
-554,671	45,066	0,017	0,011
-553,656	800,000	-0,043	0,092
-552,642	755,543	-0,027	-0,054
-551,627	800,000	-0,031	-0,075
-550,612	-200,000	0,034	0,167
-549,598	224,603	-0,079	-0,095
-548,583	-63,738	0,075	0,022
-547,569	-200,000	-0,005	0,099
-546,554	-15,010	0,185	0,087
-545,539	68,400	-0,089	0,067
-544,525	-200,000	-0,010	-0,045
-543,510	233,231	0,044	0,054
-542,496	-200,000	0,001	-0,026
-541,481	341,651	0,040	-0,059
-540,466	-60,467	0,094	0,029
-539,452	49,669	-0,022	0,015
-538,437	73,250	0,098	0,076
-537,423	-33,499	0,120	0,049
-536,408	-47,671	0,073	0,026
-535,393	-127,223	-0,079	0,008
-534,379	-151,971	-0,038	-0,002
-533,364	68,493	0,074	-0,056
-532,350	-56,636	-0,099	-0,032
-531,335	-200,000	-0,025	0,103
-530,321	-200,000	-0,050	0,174
-529,306	275,524	-0,060	0,079
-528,291	121,552	-0,157	0,145
-527,277	-72,592	-0,181	-0,049
-526,262	-173,671	-0,131	0,003
-525,248	-124,226	0,095	0,011
-524,233	110,640	0,091	-0,081
-523,218	221,362	0,120	0,142
-522,204	-200,000	-0,019	0,106
-521,189	-128,656	-0,160	0,017
-520,175	116,164	0,069	0,063
-519,160	-200,000	0,003	-0,125
-518,145	-123,623	-0,126	0,015
-517,131	-200,000	0,005	-0,087
-516,116	227,264	-0,053	-0,064
-515,102	-29,801	-0,085	0,036
-514,087	578,417	-0,043	-0,079
-513,072	398,369	-0,101	-0,156
-512,058	520,624	0,092	-0,160
-511,043	140,382	0,072	-0,070
-510,029	-200,000	0,013	0,089
-509,014	195,567	0,037	0,042
-507,999	133,290	0,057	0,055
-506,985	-200,000	0,010	0,101
-505,970	549,243	-0,027	-0,048
-504,956	-40,357	-0,050	0,019
-503,941	-200,000	0,042	0,209
-502,926	-200,000	-0,012	-0,101
-501,912	-137,234	-0,055	-0,005
-500,897	-135,021	0,082	-0,007
-499,883	-200,000	-0,009	-0,089
-498,868	1,391	-0,075	-0,040
-497,853	-152,029	0,173	-0,009
-496,839	177,525	-0,056	0,061
-495,824	800,000	0,007	0,019
-494,810	-61,944	0,060	-0,018
-493,795	-83,702	0,122	0,029
-492,781	618,771	0,024	-0,044
-491,766	285,588	0,067	-0,090
-490,751	556,501	0,050	0,090
-489,737	604,210	-0,049	0,091
-488,722	-145,492	0,147	-0,010
-487,708	109,274	0,107	0,095
-486,693	147,128	0,068	0,067
-485,678	192,753	0,089	-0,099
-484,664	800,000	0,079	-0,172
-483,649	286,936	-0,083	-0,111
-482,635	37,880	-0,046	-0,030
-481,620	246,102	-0,016	0,020
-480,605	40,963	0,097	-0,065
-479,591	126,240	-0,099	0,092
-478,576	49,538	-0,166	0,115
-477,562	-200,000	0,005	-0,095
-476,547	800,000	-0,075	0,156
-475,532	800,000	-0,041	-0,131
-474,518	-199,500	-0,149	0,001
-473,503	-17,998	-0,087	0,040
-472,489	351,308	0,017	0,024
-471,474	-44,279	0,065	0,024
-470,459	507,223	0,018	0,032
-469,445	-200,000	-0,002	-0,110
-468,430	-2,448	-0,158	0,081
-467,416	-200,000	-0,007	0,095
-466,401	81,355	0,098	0,078
-465,386	225,299	-0,041	0,049
-464,372	-67,637	0,111	-0,032
-463,357	-200,000	-0,010	0,079
-462,343	-110,080	-0,077	-0,012
-461,328	156,205	-0,013	0,013
-460,313	190,416	0,057	0,064
-459,299	-197,816	-0,129	0,001
-458,284	35,861	0,172	0,111
-457,270	143,124	0,086	0,084
-456,255	-66,910	-0,042	0,012
-455,241	-16,005	-0,144	-0,067
-454,226	800,000	-0,024	-0,066
-453,211	566,609	-0,028	-0,051
-452,197	47,968	0,113	0,078
-451,182	329,622	0,021	0,029
-450,168	445,826	0,018	0,029
-449,153	454,285	0,084	0,137
-448,138	800,000	-0,036	-0,084
-447,124	-105,286	-0,055	0,009
-446,109	-1,841	-0,115	-0,059
-445,095	-200,000	0,013	0,123
-444,080	-200,000	-0,008	0,113
-443,065	440,720	0,074	-0,120
-442,051	-200,000	0,008	-0,057
-441,036	-121,203	-0,083	0,010
-440,022	-200,000	-0,009	0,099
-439,007	8,134	0,178	-0,098
-437,992	-45,035	0,042	-0,015
-436,978	-200,000	-0,005	-0,052
-435,963	-200,000	0,007	0,064
-434,949	320,610	0,021	-0,030
-433,934	-35,646	-0,118	0,047
-432,919	-6,692	-0,039	-0,019
-431,905	-92,965	-0,068	0,014
-430,890	220,501	-0,101	0,119
-429,876	-200,000	0,023	0,173
-428,861	-132,840	0,076	0,007
-427,846	-200,000	-0,002	-0,115
-426,832	181,128	0,027	0,030
-425,817	800,000	-0,017	-0,047
-424,803	39,257	-0,096	0,063
-423,788	800,000	-0,044	0,105
-422,773	-107,858	0,067	-0,011
-421,759	49,089	-0,074	0,051
-420,744	-39,473	0,084	0,032
-419,730	800,000	0,018	-0,051
-418,715	-128,832	-0,068	-0,007
-417,701	-102,416	0,025	-0,004
-416,686	180,679	-0,041	0,044
-415,671	651,939	0,031	-0,059
-414,657	800,000	0,013	-0,030
-413,642	-76,974	0,018	0,005
-412,628	-200,000	-0,012	0,054
-411,613	-66,989	-0,087	-0,025
-410,598	-53,567	0,157	-0,053
-409,584	-200,000	-0,002	0,047
-408,569	79,028	0,075	-0,059
-407,555	295,442	-0,102	0,137
-406,540	236,505	0,115	0,140
-405,525	355,425	-0,082	-0,121
-404,511	-200,000	0,009	-0,184
-403,496	240,949	0,056	-0,069
-402,482	-55,076	-0,049	0,016
-401,467	39,487	0,098	0,065
-400,452	303,155	0,049	-0,067
-399,438	-200,000	0,016	-0,096
-398,423	184,546	-0,065	0,071
-397,409	251,477	0,053	-0,067
-396,394	-200,000	-0,004	0,038
-395,379	473,587	0,059	0,098
-394,365	433,198	0,112	0,179
-393,350	-200,000	-0,003	-0,046
-392,336	-200,000	0,011	0,074
-391,321	-200,000	0,008	-0,073
-390,306	-200,000	-0,005	-0,047
-389,292	392,626	-0,089	-0,136
-388,277	-14,668	0,119	0,056
-387,263	279,274	-0,074	0,098
-386,248	-56,513	-0,170	-0,055
-385,233	-126,991	0,089	0,010
-384,219	-200,000	0,004	0,094
-383,204	-88,197	-0,159	-0,035
-382,190	620,157	-0,059	-0,110
-381,175	-200,000	-0,017	-0,107
-380,160	188,904	-0,109	-0,120
-379,146	779,949	0,031	-0,062
-378,131	169,727	0,133	0,140
-377,117	-14,651	-0,105	-0,049
-376,102	35,634	-0,077	0,049
-375,088	167,911	-0,045	0,047
-374,073	-200,000	-0,011	-0,052
-373,058	800,000	-0,017	0,040
-372,044	-83,471	0,034	-0,008
-371,029	-96,387	0,057	0,011
-370,015	-36,006	-0,137	-0,054
-369,000	800,000	0,015	0,044
-367,985	-200,000	0,018	0,092
-366,971	-180,712	-0,043	-0,001
-365,956	800,000	0,043	-0,090
-364,942	-200,000	0,010	0,076
-363,927	800,000	0,045	-0,114
-362,912	494,182	-0,017	-0,028
-361,898	19,823	-0,053	0,032
-360,883	311,806	-0,063	-0,086
-359,869	-2,550	0,033	-0,017
-358,854	222,354	0,095	-0,113
-357,839	-127,042	0,125	0,013
-356,825	364,307	-0,044	0,065
-355,810	-200,000	-0,013	-0,112
-354,796	29,304	-0,162	-0,101
-353,781	-105,691	-0,025	-0,004
-352,766	-51,803	-0,069	-0,023
-351,752	-200,000	-0,001	-0,098
-350,737	379,626	-0,050	0,075
-349,723	126,276	0,121	0,113
-348,708	-76,270	0,093	0,024
-347,693	20,655	-0,071	-0,042
-346,679	-78,829	-0,090	0,022
-345,664	-21,942	-0,048	-0,021
-344,650	72,606	0,069	0,053
-343,635	-200,000	0,020	0,175
-342,620	-38,443	0,039	-0,015
-341,606	24,200	0,022	0,013
-340,591	-129,038	0,098	0,010
-339,577	378,498	-0,048	-0,073
-338,562	4,920	-0,084	-0,045
-337,548	-100,121	-0,085	0,015
-336,533	345,189	0,093	0,134
-335,518	343,809	-0,070	0,101
-334,504	462,908	-0,010	-0,017
-333,489	-122,778	0,056	0,007
-332,475	-21,714	-0,051	-0,023
-331,460	-157,021	0,067	0,003
-330,445	-200,000	0,002	0,075
-329,431	-61,192	0,121	-0,037
-328,416	451,093	-0,022	0,035
-327,402	185,306	0,082	0,089
-326,387	-200,000	0,014	0,063
-325,372	800,000	0,018	-0,038
-324,358	-1,767	-0,137	0,071
-323,343	-200,000	-0,036	-0,188
-322,329	220,299	0,147	-0,173
-321,314	259,113	0,062	-0,078
-320,299	800,000	0,047	0,123
-319,285	-200,000	0,019	0,108
-318,270	-61,457	-0,075	-0,023
-317,256	-74,954	-0,089	0,023
-316,241	200,588	0,013	-0,015
-315,226	800,000	0,056	0,162
-314,212	-200,000	0,013	0,099
-313,197	-14,407	-0,224	0,105
-312,183	-200,000	0,027	0,126
-311,168	220,712	-0,010	-0,011
-310,153	800,000	0,009	-0,028
-309,139	28,617	0,067	0,041
-308,124	-200,000	0,043	0,140
-307,110	235,221	0,104	-0,126
-306,095	-56,805	-0,110	-0,035
-305,080	-190,715	0,130	0,001
-304,066	-200,000	0,017	-0,138
-303,051	380,887	-0,068	-0,103
-302,037	7,100	0,040	0,022
-301,022	-200,000	-0,001	-0,129
-300,008	-200,000	0,001	-0,077
-298,993	65,049	0,039	0,029
-297,978	-95,129	0,083	-0,016
-296,964	104,993	0,092	-0,080
-295,949	103,393	0,027	0,023
-294,935	-11,461	-0,091	-0,044
-293,920	-7,050	0,139	-0,069
-292,905	397,624	-0,081	0,125
-291,891	552,176	0,041	0,073
-290,876	-11,010	0,061	0,029
-289,862	308,183	0,022	0,030
-288,847	-112,487	-0,188	0,027
-287,832	386,004	-0,052	-0,079
-286,818	800,000	0,007	-0,017
-285,803	-76,565	-0,096	-0,024
-284,789	-200,000	-0,030	-0,153
-283,774	800,000	0,039	-0,115
-282,759	-200,000	0,002	-0,016
-281,745	154,722	0,092	-0,093
-280,730	65,417	-0,026	-0,019
-279,716	103,932	0,104	0,090
-278,701	203,839	-0,070	0,080
-277,686	-91,783	0,100	0,021
-276,672	-200,000	0,013	0,057
-275,657	88,403	0,062	-0,050
-274,643	287,225	0,079	-0,105
-273,628	-37,592	-0,124	0,048
-272,613	-200,000	0,017	0,096
-271,599	207,546	0,070	0,080
-270,584	800,000	0,054	0,149
-269,570	41,232	0,060	-0,040
-268,555	-49,350	0,133	-0,046
-267,540	800,000	-0,035	-0,080
-266,526	70,759	-0,086	0,065
-265,511	227,667	0,005	0,005
-264,497	-85,381	0,071	0,016
-263,482	642,515	0,018	-0,034
-262,467	-106,203	0,009	0,001
-261,453	-200,000	-0,007	0,063
-260,438	349,008	0,066	-0,096
-259,424	133,324	-0,016	-0,015
-258,409	404,754	-0,095	-0,147
-257,395	591,142	0,043	-0,079
-256,380	505,111	0,005	-0,008
-255,365	800,000	0,029	0,062
-254,351	800,000	0,044	0,093
-253,336	76,362	-0,064	-0,050
-252,322	-200,000	-0,037	-0,151
-251,307	-107,119	-0,073	0,012
-250,292	-84,399	0,053	0,012
-249,278	-200,000	-0,004	-0,028
-248,263	320,099	0,029	-0,041
-247,249	89,292	0,086	0,070
-246,234	274,286	-0,072	-0,094
-245,219	800,000	-0,041	-0,107
-244,205	-91,052	-0,119	-0,025
-243,190	76,042	-0,034	0,026
-242,176	-56,837	0,007	-0,002
-241,161	718,377	-0,035	0,068
-240,146	-119,739	-0,052	-0,006
-239,132	32,195	0,083	0,052
-238,117	221,035	-0,045	0,053
-237,103	451,942	0,035	-0,057
-236,088	384,486	0,003	-0,005
-235,073	-68,023	-0,017	-0,005
-234,059	-130,047	-0,095	0,009
-233,044	342,208	-0,015	0,022
-232,030	82,502	0,051	-0,041
-231,015	-114,310	0,078	0,011
-230,000	-200,000	0,002	-0,070
-228,986	359,883	-0,014	0,020
-227,971	715,634	0,044	-0,085
-226,957	-106,303	0,134	0,022
-225,942	796,176	0,023	-0,046
-224,927	800,000	-0,098	-0,211
-223,913	58,320	-0,011	-0,008
-222,898	509,190	0,007	0,012
-221,884	-200,000	0,004	-0,037
-220,869	185,363	-0,049	0,053
-219,855	-200,000	0,008	0,086
-218,840	-200,000	-0,018	0,068
-217,825	-166,131	0,153	0,005
-216,811	800,000	0,025	0,062
-215,796	-58,453	-0,143	0,045
-214,782	-129,541	0,054	-0,005
-213,767	-23,066	-0,103	-0,045
-212,752	-200,000	0,039	0,236
-211,738	-200,000	0,003	0,097
-210,723	4,471	0,140	0,075
-209,709	1,025	-0,028	0,014
-208,694	800,000	0,016	-0,047
-207,679	-144,603	-0,083	0,006
-206,665	-87,368	-0,078	0,017
-205,650	210,486	0,073	0,084
-204,636	800,000	0,074	-0,197
-203,621	647,187	-0,103	-0,193
-202,606	-200,000	-0,008	-0,037
-201,592	230,495	-0,108	-0,130
-200,577	-24,856	-0,067	-0,029
-199,563	20,454	0,042	0,025
-198,548	540,095	0,013	-0,023
-197,533	574,204	0,038	0,068
-196,519	-72,685	-0,062	0,017
-195,504	-95,326	-0,147	0,029
-194,490	530,005	0,068	-0,118
-193,475	15,289	-0,083	-0,047
-192,460	-0,597	-0,075	0,039
-191,446	-58,896	0,097	-0,030
-190,431	-79,039	-0,123	0,030
-189,417	-200,000	-0,012	-0,051
-188,402	61,816	-0,103	-0,075
-187,387	553,185	0,044	-0,077
-186,373	-120,138	0,041	0,005
-185,358	-56,543	0,059	-0,019
-184,344	344,845	0,061	0,087
-183,329	800,000	0,035	0,097
-182,315	-85,037	0,030	0,007
-181,300	-200,000	0,020	-0,097
-180,285	-50,852	-0,116	0,039
-179,271	-200,000	-0,005	0,035
-178,256	164,700	0,039	-0,040
-177,242	102,511	0,068	0,058
-176,227	-200,000	0,008	0,091
-175,212	800,000	-0,020	0,045
-174,198	-200,000	0,034	-0,163
-173,183	800,000	-0,036	-0,106
-172,169	-200,000	0,003	-0,132
-171,154	-200,000	0,006	-0,126
-170,139	-200,000	-0,001	0,023
-169,125	-13,897	-0,058	0,027
-168,110	158,788	0,073	0,074
-167,096	800,000	-0,016	0,043
-166,081	-200,000	-0,020	0,072
-165,066	41,685	-0,046	-0,030
-164,052	-200,000	0,001	0,024
-163,037	174,685	-0,053	0,056
-162,023	-200,000	0,006	0,139
-161,008	12,762	0,082	0,046
-159,993	-27,335	-0,098	0,042
-158,979	-66,816	-0,074	-0,021
-157,964	103,825	0,091	-0,078
-156,950	-200,000	-0,031	-0,112
-155,935	471,917	-0,036	0,060
-154,920	-200,000	0,020	0,099
-153,906	243,931	0,068	0,083
-152,891	-139,121	-0,060	-0,005
-151,877	112,332	0,099	0,087
-150,862	800,000	-0,029	-0,069
-149,847	-200,000	-0,009	0,087
-148,833	800,000	-0,040	-0,114
-147,818	262,935	-0,081	-0,103
-146,804	231,477	-0,017	0,021
-145,789	45,262	-0,059	0,040
-144,775	-179,242	-0,122	-0,002
-143,760	-46,514	-0,027	0,010
-142,745	-200,000	0,010	-0,045
-141,731	-139,943	0,063	0,005
-140,716	800,000	0,041	0,100
-139,702	56,119	-0,111	-0,079
-138,687	52,270	-0,088	-0,061
-137,672	275,961	0,044	0,057
-136,658	94,568	-0,059	0,048
-135,643	-28,565	-0,111	-0,046
-134,629	-145,067	-0,033	0,002
-133,614	-19,641	0,044	-0,020
-132,599	800,000	0,024	0,068
-131,585	-200,000	0,045	0,199
-130,570	469,222	-0,083	0,136
-129,556	-20,044	-0,113	-0,050
-128,541	-200,000	0,013	-0,047
-127,526	800,000	0,014	0,044
-126,512	452,027	0,029	0,047
-125,497	800,000	0,038	0,086
-124,483	-200,000	0,027	0,158
-123,468	-85,469	-0,083	-0,019
-122,453	347,106	0,108	-0,155
-121,439	78,802	-0,117	0,091
-120,424	205,760	-0,120	-0,136
-119,410	-58,224	0,036	-0,011
-118,395	215,700	-0,066	0,076
