DTS Sentinel unit serial number:	SN410029Multiplexer serial number:	ORYXHardware model number:	OX2-SRSoftware version number:	ORYX F/W v4,00 Oryx Data Collector v3.7.2.0data status	okinstallation	B6 Nyhavnadifferential loss correction	single-endedforward channel	channel 2reverse channel	N/Adate	2023/12/09time	16:05:08forward acquisition time	300,00reverse acquisition time	0,00gamma	499,1914k internal	0,3133k external	0,3133temperature offset calibration	1,0000default loss term (dB/km)	0,3820temperature slope calibration	1,0000multiplexer offset coefficient	1,0000multiplexer slope coefficient	1,0000fibre end	0,00T internal ref (°C)	20,81T ext. ref 1 (°C)	4,68T ext. ref 2 (°C)	4,67length (m)	temperature (°C)	Stokes	anti-Stokes-744,400	-121,561	0,049	0,006
-743,385	800,000	-0,037	-0,087
-742,371	181,774	0,137	0,150
-741,356	220,710	-0,174	0,208
-740,342	775,740	-0,013	0,027
-739,327	-70,107	-0,113	0,032
-738,312	16,022	0,160	-0,094
-737,298	143,470	-0,227	-0,225
-736,283	-200,000	-0,008	-0,163
-735,269	404,200	-0,033	0,051
-734,254	800,000	0,030	0,079
-733,239	-191,171	-0,343	0,003
-732,225	-62,923	0,153	0,047
-731,210	-200,000	0,002	-0,007
-730,196	131,117	0,074	0,070
-729,181	62,092	-0,152	-0,113
-728,167	-110,618	-0,098	-0,015
-727,152	-68,912	0,075	-0,021
-726,137	800,000	0,035	-0,101
-725,123	800,000	-0,040	-0,115
-724,108	800,000	-0,030	-0,074
-723,094	-84,477	-0,089	-0,021
-722,079	-40,256	-0,057	-0,022
-721,064	-186,849	0,025	-0,000
-720,050	-200,000	0,033	-0,128
-719,035	0,212	-0,087	-0,046
-718,021	800,000	0,014	-0,034
-717,006	121,117	-0,134	-0,124
-715,991	24,552	-0,103	-0,063
-714,977	-38,535	0,078	0,030
-713,962	33,777	-0,078	0,050
-712,948	127,216	-0,100	0,095
-711,933	214,898	0,094	-0,110
-710,918	800,000	0,037	0,098
-709,904	-28,813	-0,139	0,059
-708,889	-200,000	-0,024	-0,118
-707,875	250,280	-0,055	-0,070
-706,860	-39,725	0,056	-0,022
-705,845	-200,000	-0,020	-0,119
-704,831	13,136	0,060	-0,034
-703,816	-166,557	0,046	0,001
-702,802	788,193	0,043	-0,088
-701,787	-52,274	-0,082	0,028
-700,772	-153,184	0,140	-0,007
-699,758	415,422	-0,034	0,054
-698,743	-188,067	-0,147	0,001
-697,729	334,405	0,072	0,103
-696,714	-0,875	-0,094	-0,049
-695,699	260,636	0,056	-0,072
-694,685	-200,000	-0,022	-0,088
-693,670	318,991	-0,053	-0,075
-692,656	-73,059	0,012	0,003
-691,641	-50,365	0,090	-0,031
-690,627	283,612	-0,120	-0,161
-689,612	390,401	-0,051	-0,079
-688,597	-200,000	0,003	-0,147
-687,583	-89,422	-0,110	0,024
-686,568	-47,727	0,072	0,026
-685,554	-11,459	-0,087	-0,042
-684,539	-200,000	0,015	-0,078
-683,524	-61,407	-0,018	0,006
-682,510	-72,081	-0,161	-0,044
-681,495	800,000	-0,051	-0,164
-680,481	-62,857	-0,041	0,013
-679,466	-85,054	-0,074	0,017
-678,451	-200,000	0,041	0,143
-677,437	-200,000	0,022	0,085
-676,422	-124,124	0,108	-0,012
-675,408	-98,996	0,021	0,004
-674,393	9,976	-0,080	-0,045
-673,378	-80,813	-0,146	0,036
-672,364	19,048	-0,078	-0,046
-671,349	-200,000	0,011	-0,052
-670,335	800,000	0,026	-0,056
-669,320	-14,453	0,111	-0,053
-668,305	282,686	-0,035	0,047
-667,291	-150,498	-0,106	0,006
-666,276	800,000	-0,020	0,064
-665,262	109,952	-0,053	-0,047
-664,247	517,442	-0,047	-0,082
-663,232	24,715	-0,105	0,064
-662,218	-200,000	-0,019	-0,103
-661,203	393,604	-0,033	0,052
-660,189	800,000	0,015	0,034
-659,174	800,000	0,080	-0,180
-658,159	-100,022	-0,015	-0,003
-657,145	-31,753	-0,100	0,041
-656,130	-200,000	0,018	-0,063
-655,116	134,678	0,102	-0,098
-654,101	-20,618	-0,124	-0,056
-653,086	-81,009	-0,087	0,021
-652,072	668,859	-0,123	-0,237
-651,057	456,671	0,019	-0,031
-650,043	-44,758	-0,062	0,023
-649,028	36,741	0,041	0,027
-648,014	241,281	0,076	-0,094
-646,999	145,568	0,161	-0,159
-645,984	200,150	0,006	0,006
-644,970	-99,800	-0,073	0,013
-643,955	65,360	-0,088	-0,066
-642,941	-200,000	-0,037	-0,143
-641,926	573,287	-0,027	-0,049
-640,911	358,672	0,023	-0,034
-639,897	-58,229	-0,041	0,013
-638,882	-115,072	0,096	-0,013
-637,868	-81,887	-0,045	0,011
-636,853	401,333	-0,050	-0,079
-635,838	112,365	0,055	0,050
-634,824	512,060	-0,040	0,069
-633,809	-108,651	-0,058	0,009
-632,795	293,417	0,045	0,061
-631,780	-200,000	0,011	0,054
-630,765	126,215	0,085	0,080
-629,751	-200,000	0,021	0,119
-628,736	52,679	-0,114	-0,081
-627,722	-96,356	0,060	-0,012
-626,707	-188,664	0,085	0,001
-625,692	-4,052	-0,013	0,007
-624,678	404,534	-0,015	0,024
-623,663	-79,144	-0,141	-0,035
-622,649	-68,067	-0,065	-0,019
-621,634	397,836	0,005	0,008
-620,619	141,179	0,048	-0,047
-619,605	-200,000	-0,022	0,146
-618,590	800,000	-0,025	0,058
-617,576	-84,431	0,092	-0,021
-616,561	-30,296	-0,051	-0,021
-615,546	-200,000	-0,020	-0,077
-614,532	800,000	0,027	-0,060
-613,517	2,335	-0,028	-0,015
-612,503	791,635	0,021	-0,042
-611,488	-200,000	0,017	0,116
-610,474	193,955	0,111	-0,125
-609,459	401,795	-0,078	0,121
-608,444	-71,037	0,046	0,013
-607,430	800,000	-0,036	-0,077
-606,415	-200,000	0,003	-0,095
-605,401	32,800	0,116	-0,074
-604,386	-180,958	0,260	0,004
-603,371	541,186	-0,074	0,131
-602,357	-200,000	-0,040	0,162
-601,342	-116,731	-0,089	0,012
-600,328	589,447	-0,050	-0,091
-599,313	220,410	0,040	-0,047
-598,298	572,502	-0,038	0,069
-597,284	-34,236	-0,077	-0,031
-596,269	-8,550	0,063	0,031
-595,255	-112,672	0,145	0,021
-594,240	-153,553	-0,157	-0,008
-593,225	-106,631	-0,128	0,021
-592,211	-56,817	0,117	-0,038
-591,196	-44,518	0,022	0,008
-590,182	-105,318	0,152	-0,025
-589,167	-84,789	-0,137	-0,031
-588,152	-8,996	0,116	0,057
-587,138	-12,833	-0,044	-0,021
-586,123	254,448	-0,053	-0,067
-585,109	156,421	-0,086	0,087
-584,094	-85,695	-0,087	-0,020
-583,079	76,200	0,142	-0,111
-582,065	-2,594	-0,164	-0,085
-581,050	-2,219	0,039	0,020
-580,036	800,000	-0,019	0,042
-579,021	-175,528	0,064	0,001
-578,006	-200,000	0,008	-0,035
-576,992	-76,992	-0,123	-0,032
-575,977	-200,000	-0,039	0,152
-574,963	800,000	0,022	0,062
-573,948	164,942	0,032	0,033
-572,934	800,000	-0,014	0,031
-571,919	88,884	-0,111	-0,091
-570,904	171,614	0,007	-0,007
-569,890	-23,034	-0,035	0,015
-568,875	-138,908	0,099	0,008
-567,861	69,239	0,041	-0,031
-566,846	-200,000	-0,013	0,066
-565,831	600,729	0,030	0,055
-564,817	-200,000	0,014	-0,123
-563,802	-200,000	-0,030	-0,141
-562,788	-74,284	-0,060	-0,016
-561,773	96,519	-0,068	-0,058
-560,758	-84,110	-0,100	-0,023
-559,744	800,000	0,011	-0,026
-558,729	800,000	0,014	-0,042
-557,715	227,153	-0,103	-0,124
-556,700	800,000	-0,042	-0,108
-555,685	-200,000	0,028	-0,105
-554,671	302,474	0,015	-0,020
-553,656	602,689	-0,012	-0,023
-552,642	-200,000	-0,008	-0,088
-551,627	-34,968	-0,036	0,014
-550,612	-155,080	-0,080	-0,004
-549,598	800,000	-0,048	-0,110
-548,583	543,952	-0,066	-0,116
-547,569	-81,471	-0,087	0,021
-546,554	-55,623	0,078	-0,026
-545,539	398,895	0,049	0,076
-544,525	-200,000	0,025	0,129
-543,510	123,922	-0,077	-0,071
-542,496	30,685	-0,132	-0,083
-541,481	19,931	-0,062	0,037
-540,466	-200,000	0,008	0,097
-539,452	277,676	0,023	0,030
-538,437	-200,000	-0,004	0,227
-537,423	-72,937	-0,063	-0,017
-536,408	697,951	-0,032	0,062
-535,393	-200,000	-0,039	-0,153
-534,379	295,226	0,029	0,039
-533,364	-41,862	-0,070	-0,026
-532,350	-6,435	0,024	-0,012
-531,335	-200,000	0,012	0,056
-530,321	433,441	-0,085	-0,137
-529,306	-155,461	0,083	0,004
-528,291	-24,616	-0,047	0,021
-527,277	-111,179	-0,076	0,011
-526,262	-200,000	0,003	-0,025
-525,248	271,682	0,016	0,021
-524,233	-2,463	-0,030	-0,015
-523,218	205,460	0,026	-0,029
-522,204	-13,038	-0,072	0,035
-521,189	-200,000	0,001	0,125
-520,175	254,768	-0,108	-0,137
-519,160	398,363	-0,066	-0,102
-518,145	800,000	0,036	0,084
-517,131	-200,000	-0,014	0,137
-516,116	-95,749	0,097	0,019
-515,102	-200,000	0,005	-0,031
-514,087	-79,016	-0,041	-0,010
-513,072	365,254	-0,039	0,058
-512,058	-44,683	0,090	-0,033
-511,043	-3,103	0,106	0,054
-510,029	73,302	-0,069	0,053
-509,014	-200,000	0,006	0,048
-507,999	-83,082	-0,111	0,026
-506,985	482,309	-0,026	-0,043
-505,970	-86,228	0,013	0,003
-504,956	-64,122	-0,089	-0,027
-503,941	800,000	0,020	-0,048
-502,926	-61,224	0,143	0,044
-501,912	396,783	-0,076	0,117
-500,897	379,283	0,078	-0,118
-499,883	-73,698	0,081	0,022
-498,868	222,437	-0,041	-0,049
-497,853	44,845	-0,082	-0,055
-496,839	94,431	-0,074	0,062
-495,824	82,868	0,044	-0,035
-494,810	59,711	-0,064	0,047
-493,795	-25,420	0,101	0,044
-492,781	314,066	-0,073	0,102
-491,766	585,967	0,042	-0,076
-490,751	-200,000	0,007	-0,084
-489,737	289,162	0,153	-0,205
-488,722	26,143	-0,027	-0,017
-487,708	282,956	-0,021	0,028
-486,693	247,578	0,012	-0,015
-485,678	390,330	-0,014	-0,021
-484,664	-77,755	-0,049	0,012
-483,649	800,000	0,035	0,097
-482,635	56,704	0,152	0,109
-481,620	-106,513	-0,058	0,009
-480,605	-169,509	0,094	-0,002
-479,591	404,839	-0,043	0,067
-478,576	-200,000	-0,004	0,089
-477,562	-42,386	-0,008	-0,003
-476,547	-95,783	-0,127	0,025
-475,532	196,758	0,049	-0,055
-474,518	-74,226	0,042	0,011
-473,503	29,653	0,147	0,092
-472,489	170,811	0,120	0,126
-471,474	83,707	0,075	-0,060
-470,459	-200,000	0,003	0,056
-469,445	-200,000	0,021	-0,137
-468,430	102,127	-0,029	0,025
-467,416	-200,000	-0,024	-0,086
-466,401	-158,740	0,057	0,002
-465,386	-200,000	-0,036	0,193
-464,372	-200,000	0,006	0,050
-463,357	445,996	-0,047	-0,076
-462,343	153,808	-0,111	-0,112
-461,328	-67,853	-0,059	-0,017
-460,313	27,698	-0,031	-0,019
-459,299	304,754	-0,069	0,094
-458,284	357,627	0,061	0,090
-457,270	-200,000	0,032	0,146
-456,255	138,642	0,061	-0,058
-455,241	-200,000	-0,017	-0,098
-454,226	730,904	0,076	-0,151
-453,211	511,170	0,018	0,031
-452,197	-200,000	0,001	-0,019
-451,182	14,560	-0,059	-0,034
-450,168	102,790	0,073	-0,063
-449,153	-200,000	0,020	0,185
-448,138	18,110	-0,055	-0,032
-447,124	-116,639	0,070	-0,009
-446,109	800,000	-0,019	-0,040
-445,095	24,653	0,122	0,074
-444,080	800,000	-0,048	0,108
-443,065	105,786	0,075	0,066
-442,051	145,105	0,092	0,090
-441,036	800,000	-0,035	-0,083
-440,022	-200,000	-0,004	0,057
-439,007	-200,000	0,002	0,095
-437,992	-0,237	0,080	-0,042
-436,978	-200,000	0,002	0,020
-435,963	18,078	0,070	-0,041
-434,949	-68,803	0,060	-0,017
-433,934	289,218	-0,081	-0,109
-432,919	-6,747	0,050	0,025
-431,905	-126,555	0,077	-0,008
-430,890	-51,760	0,057	0,019
-429,876	231,392	0,100	0,120
-428,861	-114,439	0,055	-0,008
-427,846	-4,105	-0,066	-0,033
-426,832	800,000	-0,038	0,097
-425,817	597,205	0,021	-0,038
-424,803	800,000	0,030	-0,089
-423,788	800,000	-0,036	-0,104
-422,773	-200,000	0,009	0,053
-421,759	72,138	0,010	-0,007
-420,744	-2,805	-0,051	0,026
-419,730	800,000	-0,022	-0,061
-418,715	408,485	-0,064	-0,100
-417,701	-137,018	-0,063	-0,005
-416,686	-133,864	0,066	0,006
-415,671	67,379	0,014	0,010
-414,657	43,494	0,187	0,125
-413,642	26,901	-0,090	0,056
-412,628	23,408	0,151	0,091
-411,613	34,456	-0,109	-0,070
-410,598	800,000	-0,005	0,013
-409,584	40,422	0,090	-0,060
-408,569	-200,000	0,003	0,119
-407,555	-200,000	0,000	-0,102
-406,540	443,631	0,076	0,123
-405,525	-200,000	0,020	0,079
-404,511	-94,984	-0,086	-0,017
-403,496	-21,805	-0,056	0,025
-402,482	104,459	0,066	-0,057
-401,467	-137,147	0,056	-0,005
-400,452	-191,846	0,118	0,001
-399,438	800,000	0,024	0,052
-398,423	160,359	0,083	-0,084
-397,409	-69,493	-0,079	-0,022
-396,394	66,379	0,062	0,046
-395,379	-31,386	-0,101	-0,042
-394,365	240,963	-0,096	0,117
-393,350	-200,000	0,020	0,085
-392,336	196,437	0,035	0,039
-391,321	523,644	-0,039	-0,068
-390,306	-200,000	0,005	0,063
-389,292	-200,000	0,029	-0,110
-388,277	-200,000	-0,002	-0,136
-387,263	800,000	0,035	0,082
-386,248	-144,492	0,049	-0,003
-385,233	-140,927	-0,015	-0,001
-384,219	586,235	-0,041	-0,075
-383,204	257,233	0,066	-0,083
-382,190	-150,800	0,062	-0,003
-381,175	-23,788	-0,022	-0,010
-380,160	49,949	-0,152	-0,105
-379,146	-200,000	-0,002	0,034
-378,131	110,234	0,043	-0,038
-377,117	-200,000	-0,002	-0,009
-376,102	-53,372	-0,043	-0,015
-375,088	324,534	-0,111	0,156
-374,073	363,969	-0,059	0,087
-373,058	1,589	0,113	-0,059
-372,044	-80,023	0,114	0,028
-371,029	800,000	-0,017	0,044
-370,015	-200,000	-0,001	-0,020
-369,000	150,703	-0,068	0,068
-367,985	706,000	-0,033	-0,065
-366,971	-41,930	0,111	0,041
-365,956	-200,000	0,013	-0,070
-364,942	-200,000	-0,010	-0,046
-363,927	23,760	0,033	-0,020
-362,912	-200,000	-0,009	0,040
-361,898	-200,000	-0,018	-0,066
-360,883	800,000	-0,015	0,041
-359,869	-115,017	-0,053	-0,007
-358,854	460,898	0,036	-0,058
-357,839	16,594	0,078	0,045
-356,825	-85,533	0,059	-0,013
-355,810	-25,284	0,052	-0,023
-354,796	332,182	0,097	-0,137
-353,781	-74,374	0,077	0,020
-352,766	355,041	-0,028	0,041
-351,752	-165,770	0,019	-0,001
-350,737	-93,865	0,124	0,025
-349,723	483,768	0,060	0,100
-348,708	667,684	-0,048	0,091
-347,693	626,380	-0,053	0,097
-346,679	800,000	0,011	-0,029
-345,664	115,499	-0,072	-0,064
-344,650	-34,024	-0,105	-0,042
-343,635	-200,000	0,010	-0,037
-342,620	618,638	0,108	0,200
-341,606	-200,000	-0,014	0,132
-340,591	151,826	0,070	-0,070
-339,577	-38,594	-0,114	-0,044
-338,562	800,000	0,022	0,052
-337,548	15,209	-0,128	-0,073
-336,533	-109,810	0,102	0,016
-335,518	-200,000	0,028	-0,119
-334,504	-200,000	0,007	0,095
-333,489	469,151	-0,035	-0,058
-332,475	486,795	0,024	-0,041
-331,460	-200,000	-0,005	0,038
-330,445	-200,000	0,002	-0,033
-329,431	271,214	0,036	-0,046
-328,416	800,000	-0,044	0,107
-327,402	-200,000	-0,004	0,026
-326,387	383,903	0,052	-0,079
-325,372	-149,209	0,104	0,006
-324,358	-200,000	-0,004	-0,022
-323,343	-200,000	0,014	0,106
-322,329	408,082	0,058	0,090
-321,314	-200,000	-0,039	0,230
-320,299	800,000	0,047	0,118
-319,285	-170,721	0,117	0,003
-318,270	800,000	-0,039	-0,081
-317,256	-127,418	-0,071	-0,007
-316,241	-141,373	0,035	-0,003
-315,226	-54,597	0,128	0,042
-314,212	-200,000	0,039	0,145
-313,197	-81,600	0,023	0,005
-312,183	-186,336	0,042	-0,000
-311,168	-127,689	-0,103	-0,011
-310,153	800,000	-0,024	-0,063
-309,139	-38,854	-0,050	0,019
-308,124	27,987	-0,069	0,042
-307,110	-71,404	0,103	-0,028
-306,095	23,175	-0,066	0,040
-305,080	-200,000	0,015	0,062
-304,066	-63,394	-0,043	0,013
-303,051	-200,000	0,005	-0,073
-302,037	800,000	0,057	-0,137
-301,022	-200,000	0,026	-0,092
-300,008	222,545	-0,039	0,046
-298,993	77,213	-0,054	-0,042
-297,978	-31,023	-0,083	0,034
-296,964	101,327	0,064	-0,055
-295,949	0,912	-0,150	-0,078
-294,935	-147,015	-0,087	0,005
-293,920	-40,949	0,106	0,040
-292,905	-99,331	-0,058	0,011
-291,891	410,774	-0,033	-0,052
-290,876	-148,135	-0,012	0,001
-289,862	-200,000	0,016	-0,060
-288,847	800,000	0,020	-0,061
-287,832	519,143	-0,016	-0,027
-286,818	-200,000	-0,038	-0,126
-285,803	215,498	-0,068	-0,078
-284,789	-200,000	-0,003	0,021
-283,774	-200,000	-0,016	0,075
-282,759	280,656	-0,087	-0,114
-281,745	-0,323	0,065	0,034
-280,730	-1,015	-0,111	-0,057
-279,716	284,037	0,050	-0,065
-278,701	-93,217	-0,108	-0,022
-277,686	14,685	0,184	-0,105
-276,672	-200,000	-0,004	-0,053
-275,657	-200,000	0,019	0,195
-274,643	597,791	-0,052	-0,095
-273,628	530,107	-0,064	0,111
-272,613	-108,504	0,130	0,020
-271,599	636,714	-0,047	0,087
-270,584	573,707	-0,014	-0,025
-269,570	204,933	-0,034	-0,039
-268,555	800,000	0,061	-0,195
-267,540	800,000	-0,058	-0,151
-266,526	800,000	0,016	-0,042
-265,511	395,816	0,022	-0,033
-264,497	-200,000	0,001	0,041
-263,482	-117,589	-0,091	0,012
-262,467	-200,000	-0,003	-0,053
-261,453	-200,000	0,002	0,074
-260,438	-196,905	-0,132	0,001
-259,424	-200,000	-0,008	0,052
-258,409	-200,000	-0,011	0,076
-257,395	800,000	0,040	-0,091
-256,380	-73,947	0,100	-0,026
-255,365	147,763	0,061	-0,060
-254,351	800,000	0,026	-0,079
-253,336	800,000	0,034	0,099
-252,322	400,639	-0,021	0,032
-251,307	-200,000	-0,013	-0,128
-250,292	-200,000	0,004	-0,079
-249,278	-126,873	0,081	0,009
-248,263	73,894	0,107	0,082
-247,249	-200,000	0,016	-0,095
-246,234	-200,000	0,003	-0,043
-245,219	-200,000	-0,117	0,000
-244,205	30,907	0,043	-0,027
-243,190	-118,732	-0,183	-0,023
-242,176	-13,575	0,116	-0,054
-241,161	-200,000	0,002	0,089
-240,146	800,000	-0,029	0,070
-239,132	-32,803	-0,047	0,019
-238,117	-200,000	-0,007	-0,076
-237,103	-32,903	0,018	0,007
-236,088	-55,597	0,128	-0,042
-235,073	318,826	-0,021	0,029
-234,059	-200,000	-0,036	0,148
-233,044	-200,000	-0,008	0,114
-232,030	-11,843	-0,053	0,025
-231,015	800,000	-0,041	-0,115
-230,000	421,960	-0,016	-0,026
-228,986	-200,000	0,024	0,147
-227,971	800,000	-0,039	0,104
-226,957	31,322	0,100	0,062
-225,942	-111,308	0,076	0,011
-224,927	261,786	0,033	-0,042
-223,913	123,437	-0,071	0,065
-222,898	-200,000	0,005	0,023
-221,884	-200,000	-0,001	-0,187
-220,869	-200,000	0,001	-0,020
-219,855	322,732	-0,008	-0,012
-218,840	115,711	-0,046	0,041
-217,825	-200,000	0,004	0,042
-216,811	294,419	0,087	-0,116
-215,796	-34,332	0,025	-0,010
-214,782	28,148	0,039	0,024
-213,767	-33,327	-0,036	-0,015
-212,752	-200,000	-0,008	0,049
-211,738	4,243	0,098	-0,052
-210,723	605,400	0,041	0,075
-209,709	-158,307	0,055	-0,002
-208,694	87,366	-0,067	-0,054
-207,679	-3,522	0,028	-0,014
-206,665	800,000	0,046	-0,121
-205,650	800,000	-0,011	0,028
-204,636	-200,000	-0,029	0,108
-203,621	800,000	0,047	0,106
-202,606	-200,000	0,009	0,042
-201,592	1,915	-0,083	0,043
-200,577	-139,592	-0,206	-0,016
-199,563	-64,546	-0,060	0,018
-198,548	131,044	0,084	0,079
-197,533	800,000	-0,033	0,077
-196,519	-200,000	0,014	-0,046
-195,504	-56,915	-0,093	-0,030
-194,490	-33,264	-0,068	-0,027
-193,475	-200,000	0,010	-0,106
-192,460	-4,507	0,039	-0,020
-191,446	108,472	0,066	-0,058
-190,431	-200,000	0,038	0,148
-189,417	-200,000	-0,003	0,064
-188,402	91,307	-0,046	0,038
-187,387	135,468	-0,057	-0,054
-186,373	97,429	-0,072	-0,060
-185,358	-152,488	-0,086	0,004
-184,344	-85,244	-0,123	0,028
-183,329	-149,164	-0,139	0,008
-182,315	-200,000	0,002	0,049
-181,300	-53,824	0,092	0,030
-180,285	324,219	0,057	-0,079
-179,271	-200,000	0,015	-0,104
-178,256	800,000	0,015	0,045
-177,242	65,344	0,053	-0,039
-176,227	-200,000	0,007	0,050
-175,212	-123,693	-0,054	-0,006
-174,198	-89,768	-0,058	-0,012
-173,183	-200,000	0,005	0,070
-172,169	-183,035	-0,017	0,000
-171,154	-200,000	-0,021	0,076
-170,139	-140,595	0,095	0,007
-169,125	-200,000	0,001	-0,041
-168,110	204,798	0,029	-0,033
-167,096	425,478	0,046	0,071
-166,081	193,419	-0,050	0,055
-165,066	-44,135	-0,178	-0,065
-164,052	-121,993	0,169	-0,020
-163,037	-58,508	-0,048	-0,015
-162,023	-200,000	-0,008	0,202
-161,008	-200,000	0,016	0,114
-159,993	-27,808	-0,141	-0,059
-158,979	-33,896	0,102	-0,040
-157,964	800,000	-0,051	-0,126
-156,950	800,000	0,047	0,126
-155,935	-200,000	-0,003	0,110
-154,920	364,412	0,060	-0,088
-153,906	800,000	0,005	-0,010
-152,891	-97,345	-0,073	0,014
-151,877	-200,000	-0,003	0,069
-150,862	-200,000	0,010	-0,075
-149,847	800,000	0,053	-0,123
-148,833	1,693	0,116	0,060
-147,818	10,549	0,028	0,015
-146,804	800,000	0,038	0,121
-145,789	-34,754	-0,018	-0,007
-144,775	178,001	0,072	-0,076
-143,760	34,238	-0,095	0,060
-142,745	-200,000	-0,026	-0,162
-141,731	-200,000	0,008	-0,035
-140,716	16,589	0,057	0,032
-139,702	707,007	-0,005	0,009
-138,687	-131,741	0,123	-0,012
-137,672	-53,967	-0,066	-0,022
-136,658	146,386	0,030	-0,030
-135,643	80,315	0,041	-0,032
-134,629	184,929	-0,074	0,080
-133,614	3,636	-0,055	0,029
-132,599	800,000	-0,047	-0,134
-131,585	44,229	-0,004	0,002
-130,570	800,000	0,031	0,064
-129,556	171,819	0,086	-0,090
-128,541	-200,000	0,045	-0,198
-127,526	100,879	0,067	-0,057
-126,512	-200,000	-0,015	0,055
-125,497	233,637	-0,037	0,044
-124,483	-61,203	0,116	-0,035
-123,468	-90,316	-0,104	0,022
-122,453	-171,147	0,110	-0,003
-121,439	-120,360	-0,058	-0,007
-120,424	-200,000	0,004	-0,050
