DTS Sentinel unit serial number:	SN410029Multiplexer serial number:	ORYXHardware model number:	OX2-SRSoftware version number:	ORYX F/W v4,00 Oryx Data Collector v3.7.2.0data status	okinstallation	B6 Nyhavnadifferential loss correction	single-endedforward channel	channel 2reverse channel	N/Adate	2023/12/08time	23:25:08forward acquisition time	300,00reverse acquisition time	0,00gamma	499,1914k internal	0,3157k external	0,3157temperature offset calibration	1,0000default loss term (dB/km)	0,3820temperature slope calibration	1,0000multiplexer offset coefficient	1,0000multiplexer slope coefficient	1,0000fibre end	0,00T internal ref (°C)	15,44T ext. ref 1 (°C)	-0,98T ext. ref 2 (°C)	-0,97length (m)	temperature (°C)	Stokes	anti-Stokes-744,400	70,888	0,051	0,039
-743,385	-108,830	-0,243	-0,038
-742,371	337,363	0,114	0,164
-741,356	-182,402	-0,314	-0,004
-740,342	-91,161	0,191	0,040
-739,327	-153,286	-0,379	0,019
-738,312	-80,471	0,183	0,045
-737,298	-6,070	-0,342	-0,172
-736,283	419,536	0,115	-0,182
-735,269	-61,075	-0,271	0,084
-734,254	-158,138	0,128	0,005
-733,239	-78,168	-0,484	-0,122
-732,225	-68,150	0,278	0,079
-731,210	338,103	-0,087	0,125
-730,196	800,000	0,034	-0,094
-729,181	198,700	-0,053	-0,059
-728,167	292,319	0,035	0,047
-727,152	256,468	-0,030	0,038
-726,137	-48,635	-0,151	0,053
-725,123	234,723	-0,095	-0,116
-724,108	266,068	-0,092	-0,119
-723,094	56,177	0,076	0,054
-722,079	-200,000	-0,000	0,005
-721,064	800,000	0,048	-0,103
-720,050	55,960	-0,030	0,022
-719,035	-140,835	0,080	0,006
-718,021	-200,000	0,000	0,026
-717,006	405,213	0,041	0,063
-715,991	-200,000	0,004	0,077
-714,977	800,000	0,025	-0,060
-713,962	-101,206	0,180	0,032
-712,948	-200,000	-0,007	0,111
-711,933	39,922	0,060	0,040
-710,918	-200,000	-0,003	-0,154
-709,904	52,753	-0,088	-0,062
-708,889	-200,000	-0,020	-0,144
-707,875	-30,567	-0,022	0,009
-706,860	-7,114	-0,212	-0,106
-705,845	800,000	0,040	-0,110
-704,831	10,527	0,083	0,046
-703,816	607,851	-0,046	0,084
-702,802	-200,000	0,007	-0,023
-701,787	-92,707	-0,060	-0,012
-700,772	-200,000	0,018	-0,059
-699,758	-140,077	-0,096	-0,007
-698,743	75,534	0,050	0,039
-697,729	-200,000	0,020	0,078
-696,714	-139,397	0,022	-0,002
-695,699	-200,000	0,009	-0,116
-694,685	800,000	0,028	-0,061
-693,670	-79,089	-0,079	-0,020
-692,656	800,000	-0,042	0,108
-691,641	133,409	-0,039	-0,037
-690,627	800,000	-0,043	0,129
-689,612	152,293	0,030	0,030
-688,597	-92,332	-0,046	-0,009
-687,583	-145,479	-0,117	-0,008
-686,568	-200,000	0,006	-0,022
-685,554	-200,000	0,006	-0,159
-684,539	243,330	0,091	0,112
-683,524	15,517	0,135	-0,078
-682,510	99,892	-0,032	0,027
-681,495	100,928	-0,123	-0,105
-680,481	-102,327	-0,138	-0,024
-679,466	-76,531	-0,135	0,035
-678,451	-155,816	-0,155	0,007
-677,437	-46,147	0,180	0,065
-676,422	220,606	-0,020	0,024
-675,408	-130,595	0,048	-0,005
-674,393	-200,000	0,000	0,051
-673,378	-103,875	-0,134	-0,023
-672,364	375,436	0,072	-0,109
-671,349	-200,000	-0,012	0,156
-670,335	87,586	0,057	-0,047
-669,320	-200,000	-0,021	-0,079
-668,305	-200,000	-0,015	0,111
-667,291	800,000	0,033	-0,072
-666,276	51,543	0,035	-0,025
-665,262	104,573	-0,160	-0,139
-664,247	-200,000	0,031	-0,188
-663,232	263,261	0,050	-0,064
-662,218	-117,844	0,093	0,012
-661,203	800,000	0,028	-0,062
-660,189	-159,310	-0,106	-0,004
-659,174	45,612	0,045	-0,031
-658,159	392,238	-0,030	-0,046
-657,145	396,209	-0,034	-0,053
-656,130	-200,000	0,000	-0,031
-655,116	25,958	-0,060	-0,037
-654,101	17,080	-0,086	0,050
-653,086	-105,715	0,052	-0,008
-652,072	-111,204	-0,114	0,017
-651,057	131,115	-0,014	-0,013
-650,043	250,427	-0,053	0,066
-649,028	-200,000	0,019	0,066
-648,014	-41,229	0,069	-0,026
-646,999	-200,000	0,014	0,112
-645,984	382,313	0,023	-0,035
-644,970	44,038	-0,096	0,064
-643,955	-121,970	-0,155	-0,019
-642,941	613,089	0,066	-0,122
-641,926	112,034	-0,028	-0,024
-640,911	-200,000	0,009	-0,109
-639,897	-83,204	-0,034	0,008
-638,882	-200,000	-0,006	0,140
-637,868	123,927	-0,004	-0,004
-636,853	594,777	0,044	-0,081
-635,838	-153,838	-0,148	-0,007
-634,824	781,005	-0,053	-0,107
-633,809	-200,000	0,022	0,089
-632,795	800,000	0,066	0,151
-631,780	-102,820	-0,098	-0,017
-630,765	446,013	-0,057	-0,092
-629,751	-102,005	-0,034	-0,006
-628,736	-200,000	0,009	-0,076
-627,722	230,221	0,029	-0,035
-626,707	-57,139	0,066	-0,021
-625,692	7,417	0,205	0,112
-624,678	-200,000	-0,008	0,087
-623,663	458,674	0,058	-0,095
-622,649	51,087	0,137	-0,095
-621,634	-200,000	-0,015	-0,055
-620,619	-139,676	-0,068	0,005
-619,605	237,954	-0,044	0,053
-618,590	64,147	0,114	0,084
-617,576	-170,832	0,077	-0,002
-616,561	-200,000	-0,014	-0,058
-615,546	111,908	0,060	-0,053
-614,532	173,718	-0,060	0,063
-613,517	74,198	0,121	-0,093
-612,503	749,936	-0,034	-0,067
-611,488	-200,000	-0,018	-0,064
-610,474	7,462	0,111	-0,061
-609,459	38,908	-0,124	-0,081
-608,444	304,296	-0,023	-0,031
-607,430	-77,573	0,210	-0,053
-606,415	10,104	0,045	-0,025
-605,401	-97,277	-0,149	-0,028
-604,386	-106,909	0,153	-0,025
-603,371	800,000	-0,047	-0,103
-602,357	-146,858	-0,078	-0,005
-601,342	285,453	-0,035	0,047
-600,328	272,444	-0,082	-0,107
-599,313	-107,204	-0,084	-0,013
-598,298	800,000	-0,020	0,042
-597,284	-102,144	0,091	-0,016
-596,269	-200,000	0,036	-0,144
-595,255	14,878	0,091	0,052
-594,240	100,776	-0,079	-0,067
-593,225	800,000	-0,040	0,127
-592,211	800,000	0,004	0,010
-591,196	-150,078	-0,068	0,004
-590,182	39,292	0,101	-0,066
-589,167	605,623	-0,013	0,024
-588,152	153,786	0,029	0,030
-587,138	800,000	-0,043	-0,091
-586,123	-30,902	-0,114	-0,047
-585,109	800,000	-0,019	-0,059
-584,094	800,000	-0,027	0,076
-583,079	-11,721	0,061	-0,029
-582,065	20,221	0,042	0,025
-581,050	800,000	0,072	-0,156
-580,036	152,452	-0,023	0,023
-579,021	800,000	0,032	-0,067
-578,006	-200,000	-0,034	-0,163
-576,992	11,068	-0,066	-0,037
-575,977	-122,980	0,182	0,021
-574,963	-64,618	-0,110	0,032
-573,948	-14,701	0,023	0,011
-572,934	-200,000	0,012	0,110
-571,919	-57,892	-0,038	-0,012
-570,904	325,049	-0,095	0,134
-569,890	86,610	-0,036	0,029
-568,875	-167,529	0,190	0,005
-567,861	116,548	-0,107	0,096
-566,846	-200,000	0,004	0,077
-565,831	242,037	-0,040	0,049
-564,817	-159,504	-0,072	-0,003
-563,802	147,070	0,004	0,004
-562,788	466,902	0,045	-0,073
-561,773	800,000	-0,007	-0,016
-560,758	-200,000	-0,007	0,048
-559,744	89,804	0,067	0,055
-558,729	590,536	0,021	0,038
-557,715	-200,000	-0,004	0,061
-556,700	105,397	0,046	-0,040
-555,685	-95,777	-0,131	-0,025
-554,671	-200,000	-0,001	-0,111
-553,656	-170,339	0,130	0,003
-552,642	10,258	-0,093	-0,051
-551,627	165,235	0,097	0,101
-550,612	-200,000	0,003	0,091
-549,598	-137,660	-0,256	0,021
-548,583	-180,659	-0,152	-0,002
-547,569	288,263	-0,023	-0,030
-546,554	-134,654	0,093	0,008
-545,539	-200,000	-0,002	0,125
-544,525	800,000	-0,027	-0,070
-543,510	-147,639	-0,077	0,005
-542,496	-105,659	-0,073	-0,012
-541,481	800,000	-0,011	-0,028
-540,466	-200,000	0,031	-0,141
-539,452	475,829	0,048	0,080
-538,437	-122,613	0,200	-0,023
-537,423	-22,379	-0,113	0,050
-536,408	58,554	-0,054	0,039
-535,393	-63,729	-0,018	-0,005
-534,379	-200,000	0,002	-0,091
-533,364	-152,351	-0,101	0,005
-532,350	335,537	0,026	0,037
-531,335	-158,785	-0,025	-0,001
-530,321	-200,000	-0,007	0,100
-529,306	52,614	0,131	0,091
-528,291	325,968	-0,092	-0,129
-527,277	57,019	-0,134	-0,095
-526,262	104,572	0,011	0,010
-525,248	229,436	0,014	0,017
-524,233	-200,000	0,031	0,130
-523,218	339,320	-0,033	0,047
-522,204	-200,000	-0,007	-0,059
-521,189	316,386	-0,054	-0,074
-520,175	-89,762	-0,120	-0,025
-519,160	574,689	-0,074	-0,132
-518,145	-200,000	0,026	0,100
-517,131	137,756	-0,127	0,122
-516,116	-106,009	0,099	-0,016
-515,102	-200,000	-0,013	0,073
-514,087	-68,575	-0,108	-0,030
-513,072	124,888	-0,009	-0,008
-512,058	800,000	0,031	-0,091
-511,043	75,162	0,108	0,083
-510,029	-200,000	-0,003	-0,075
-509,014	604,103	0,042	-0,076
-507,999	800,000	0,056	0,161
-506,985	-56,120	-0,058	0,019
-505,970	-145,849	-0,069	-0,004
-504,956	-200,000	-0,002	-0,013
-503,941	142,997	-0,034	-0,033
-502,926	-96,668	0,159	0,030
-501,912	-200,000	0,005	-0,031
-500,897	-200,000	-0,027	0,114
-499,883	-150,224	-0,141	0,008
-498,868	800,000	-0,009	-0,027
-497,853	-55,613	-0,140	0,045
-496,839	-200,000	-0,036	0,195
-495,824	-35,583	0,155	0,061
-494,810	53,860	0,034	-0,024
-493,795	122,316	-0,032	-0,029
-492,781	683,815	-0,021	0,040
-491,766	247,624	-0,069	0,086
-490,751	258,403	0,036	-0,045
-489,737	-200,000	-0,026	-0,135
-488,722	505,257	-0,013	-0,023
-487,708	-101,269	-0,065	0,011
-486,693	-200,000	-0,005	0,032
-485,678	800,000	-0,007	0,016
-484,664	-200,000	0,015	-0,090
-483,649	128,662	0,036	-0,033
-482,635	190,741	0,078	-0,086
-481,620	172,549	-0,103	-0,108
-480,605	-31,531	0,096	0,039
-479,591	-49,843	0,107	0,037
-478,576	800,000	-0,015	-0,034
-477,562	-200,000	-0,018	-0,084
-476,547	268,667	-0,095	-0,122
-475,532	-47,540	0,037	0,013
-474,518	15,670	-0,067	0,038
-473,503	-200,000	0,000	-0,019
-472,489	185,067	-0,107	0,116
-471,474	-200,000	0,001	0,067
-470,459	211,310	-0,027	-0,031
-469,445	-200,000	-0,000	-0,072
-468,430	-80,219	0,068	0,017
-467,416	73,337	0,091	0,069
-466,401	-200,000	-0,008	0,048
-465,386	16,117	0,066	-0,038
-464,372	336,689	0,063	-0,089
-463,357	-153,986	-0,023	-0,001
-462,343	800,000	0,034	-0,084
-461,328	118,631	0,074	-0,067
-460,313	611,587	-0,020	0,036
-459,299	45,965	0,013	-0,009
-458,284	152,400	0,046	0,046
-457,270	-200,000	0,002	-0,121
-456,255	-71,783	-0,052	-0,014
-455,241	-200,000	-0,033	-0,128
-454,226	343,830	-0,118	-0,169
-453,211	-49,846	0,073	-0,025
-452,197	280,606	0,034	0,044
-451,182	800,000	-0,019	-0,060
-450,168	84,705	-0,025	0,020
-449,153	-154,223	0,050	0,002
-448,138	800,000	-0,020	-0,044
-447,124	-200,000	-0,007	0,034
-446,109	12,457	0,127	0,071
-445,095	18,473	-0,098	0,057
-444,080	17,031	-0,037	-0,021
-443,065	119,642	0,038	-0,034
-442,051	-69,343	-0,084	-0,023
-441,036	181,545	0,062	-0,066
-440,022	-200,000	-0,010	-0,053
-439,007	-155,575	-0,062	-0,003
-437,992	800,000	-0,044	0,098
-436,978	171,387	-0,058	-0,061
-435,963	-200,000	-0,011	-0,098
-434,949	10,883	-0,022	0,012
-433,934	-115,251	-0,098	0,013
-432,919	74,553	-0,034	0,026
-431,905	457,697	-0,079	-0,129
-430,890	71,856	-0,092	-0,070
-429,876	-18,902	0,230	0,104
-428,861	800,000	-0,026	0,059
-427,846	104,816	-0,057	-0,049
-426,832	-200,000	0,007	0,068
-425,817	-200,000	0,033	-0,153
-424,803	85,384	-0,012	0,009
-423,788	573,837	0,056	0,100
-422,773	800,000	0,042	0,094
-421,759	-16,205	-0,054	0,025
-420,744	-14,300	0,083	0,039
-419,730	-200,000	-0,003	-0,075
-418,715	800,000	-0,039	-0,125
-417,701	-145,859	-0,077	0,005
-416,686	-12,703	0,059	0,028
-415,671	-200,000	-0,008	0,092
-414,657	800,000	0,040	0,097
-413,642	-11,057	0,032	-0,015
-412,628	504,984	0,046	-0,078
-411,613	323,118	-0,097	-0,135
-410,598	108,140	0,052	-0,045
-409,584	-200,000	0,049	0,171
-408,569	-140,183	-0,067	-0,005
-407,555	800,000	-0,049	0,111
-406,540	-37,501	-0,164	0,063
-405,525	3,572	0,026	0,014
-404,511	21,428	-0,055	-0,032
-403,496	648,132	0,059	-0,111
-402,482	-36,978	0,118	-0,046
-401,467	-12,220	0,099	0,047
-400,452	-200,000	-0,010	0,235
-399,438	800,000	-0,006	-0,013
-398,423	-159,913	-0,100	0,004
-397,409	95,098	0,061	-0,051
-396,394	63,481	0,105	-0,077
-395,379	726,389	0,064	-0,125
-394,365	-200,000	-0,008	-0,032
-393,350	-108,472	0,108	-0,017
-392,336	-200,000	0,020	0,081
-391,321	800,000	-0,027	0,077
-390,306	-200,000	0,014	-0,140
-389,292	267,282	0,050	0,064
-388,277	-200,000	-0,011	0,150
-387,263	25,010	0,062	-0,037
-386,248	92,238	0,145	0,118
-385,233	-129,032	0,011	0,001
-384,219	-200,000	-0,038	0,138
-383,204	-200,000	-0,003	0,057
-382,190	-200,000	0,014	-0,086
-381,175	-143,691	-0,036	0,002
-380,160	40,133	0,092	-0,060
-379,146	-200,000	0,041	0,167
-378,131	-47,170	-0,144	0,051
-377,117	143,906	0,119	-0,115
-376,102	206,466	-0,027	0,030
-375,088	-17,293	-0,023	-0,011
-374,073	106,461	-0,040	0,034
-373,058	99,590	0,076	-0,064
-372,044	-27,184	-0,050	0,021
-371,029	196,311	0,069	-0,076
-370,015	106,080	-0,044	-0,038
-369,000	36,952	-0,050	-0,032
-367,985	712,626	0,045	-0,087
-366,971	-200,000	-0,006	-0,088
-365,956	419,845	0,027	-0,042
-364,942	617,931	-0,076	0,140
-363,927	800,000	-0,015	0,047
-362,912	55,515	-0,102	0,071
-361,898	-96,499	0,130	-0,025
-360,883	800,000	-0,011	-0,035
-359,869	38,810	0,078	-0,050
-358,854	-111,763	0,155	0,023
-357,839	-112,673	0,011	0,002
-356,825	159,571	0,068	0,068
-355,810	-200,000	-0,020	0,094
-354,796	-147,162	0,047	0,003
-353,781	20,484	-0,116	-0,068
-352,766	-200,000	-0,001	0,030
-351,752	44,090	-0,086	0,057
-350,737	-200,000	0,029	0,146
-349,723	-200,000	-0,043	0,201
-348,708	-12,668	0,020	0,009
-347,693	-200,000	0,000	-0,047
-346,679	43,145	0,047	0,031
-345,664	327,206	0,075	0,105
-344,650	21,336	0,068	0,040
-343,635	103,626	-0,033	-0,028
-342,620	-200,000	-0,016	0,089
-341,606	10,166	0,067	0,037
-340,591	-8,864	0,111	0,054
-339,577	39,833	-0,017	0,011
-338,562	-200,000	0,003	-0,121
-337,548	22,415	-0,119	0,070
-336,533	-20,483	-0,084	-0,037
-335,518	-200,000	-0,014	-0,048
-334,504	-200,000	-0,002	0,009
-333,489	33,040	-0,126	0,079
-332,475	-63,563	-0,029	-0,009
-331,460	267,421	-0,027	0,035
-330,445	-200,000	-0,003	-0,026
-329,431	611,804	-0,030	-0,056
-328,416	-123,748	0,116	-0,013
-327,402	18,090	0,036	0,021
-326,387	457,047	-0,086	-0,139
-325,372	120,029	0,121	0,109
-324,358	193,407	0,066	-0,073
-323,343	288,027	0,055	-0,073
-322,329	-117,451	0,075	-0,010
-321,314	236,579	0,070	-0,084
-320,299	-49,959	-0,143	0,049
-319,285	800,000	-0,076	0,155
-318,270	189,126	-0,013	0,014
-317,256	-102,776	0,046	-0,008
-316,241	286,297	-0,041	-0,054
-315,226	144,561	0,102	-0,099
-314,212	-97,875	0,166	-0,031
-313,197	-50,206	0,070	-0,024
-312,183	800,000	0,046	-0,115
-311,168	800,000	-0,077	-0,163
-310,153	-168,273	-0,073	-0,002
-309,139	-57,547	0,030	0,010
-308,124	-81,995	0,094	-0,022
-307,110	-0,255	-0,021	0,011
-306,095	-200,000	0,002	0,084
-305,080	124,746	-0,032	-0,029
-304,066	-156,492	-0,092	-0,004
-303,051	375,322	0,057	-0,084
-302,037	111,142	-0,062	0,054
-301,022	111,495	0,065	0,057
-300,008	-200,000	0,035	0,197
-298,993	658,427	-0,012	0,023
-297,978	-200,000	-0,004	0,068
-296,964	48,706	-0,111	0,075
-295,949	800,000	-0,060	0,153
-294,935	-31,781	-0,065	-0,026
-293,920	-11,047	0,137	0,065
-292,905	766,563	0,047	0,092
-291,891	-200,000	-0,022	0,111
-290,876	-38,738	0,132	0,050
-289,862	-87,048	-0,078	-0,017
-288,847	800,000	-0,000	-0,001
-287,832	-200,000	-0,000	0,014
-286,818	-200,000	-0,005	-0,027
-285,803	158,352	-0,029	-0,030
-284,789	67,846	-0,100	0,074
-283,774	418,153	0,106	-0,164
-282,759	-200,000	-0,026	0,161
-281,745	800,000	-0,040	0,092
-280,730	-57,352	-0,098	0,031
-279,716	4,403	0,155	-0,082
-278,701	-200,000	0,036	-0,125
-277,686	430,707	-0,014	0,021
-276,672	-50,554	-0,091	-0,031
-275,657	800,000	0,034	-0,084
-274,643	-7,925	-0,080	0,039
-273,628	800,000	-0,040	-0,104
-272,613	-200,000	0,015	0,125
-271,599	-118,644	0,120	0,015
-270,584	-200,000	-0,039	0,129
-269,570	-200,000	-0,004	-0,091
-268,555	141,517	0,156	0,150
-267,540	460,105	-0,009	-0,015
-266,526	502,045	-0,049	-0,082
-265,511	212,651	-0,035	-0,040
-264,497	-81,524	0,146	0,035
-263,482	-108,053	0,052	0,008
-262,467	-117,805	0,098	0,013
-261,453	-200,000	-0,019	0,072
-260,438	-89,116	0,162	0,034
-259,424	756,675	-0,052	-0,102
-258,409	41,846	-0,083	-0,054
-257,395	-150,991	-0,122	-0,007
-256,380	29,177	0,172	0,105
-255,365	800,000	-0,036	0,093
-254,351	59,664	0,079	0,057
-253,336	126,029	-0,082	-0,075
-252,322	-111,440	0,051	-0,007
-251,307	-200,000	0,028	-0,101
-250,292	56,052	0,076	-0,053
-249,278	60,083	0,132	0,094
-248,263	0,604	-0,126	0,065
-247,249	-161,382	-0,028	-0,001
-246,234	55,665	-0,063	0,044
-245,219	-166,183	-0,135	-0,004
-244,205	70,471	0,067	-0,050
-243,190	-200,000	0,031	0,112
-242,176	-200,000	0,008	-0,051
-241,161	-45,476	0,036	-0,013
-240,146	16,225	-0,092	0,052
-239,132	-116,228	-0,129	0,017
-238,117	-25,378	0,039	0,017
-237,103	120,853	0,131	-0,118
-236,088	-200,000	0,029	0,116
-235,073	159,638	-0,034	0,034
-234,059	-200,000	0,001	0,104
-233,044	-52,633	0,116	0,038
-232,030	800,000	-0,076	-0,191
-231,015	463,093	0,095	-0,153
-230,000	-134,027	0,171	0,015
-228,986	11,136	-0,108	-0,059
-227,971	-200,000	0,020	-0,100
-226,957	-31,682	0,080	0,032
-225,942	32,998	0,091	0,057
-224,927	800,000	-0,052	0,123
-223,913	238,848	-0,099	-0,119
-222,898	30,672	0,052	0,032
-221,884	800,000	0,010	-0,024
-220,869	136,068	-0,062	-0,059
-219,855	800,000	-0,043	0,131
-218,840	-105,559	0,044	0,007
-217,825	-49,998	-0,027	-0,009
-216,811	19,463	-0,133	0,077
-215,796	108,486	-0,060	-0,052
-214,782	350,007	0,074	-0,106
-213,767	800,000	0,053	-0,125
-212,752	141,560	-0,089	-0,085
-211,738	-74,985	0,082	-0,021
-210,723	-27,600	-0,073	-0,030
-209,709	-200,000	0,009	-0,051
-208,694	800,000	-0,029	-0,087
-207,679	285,173	-0,041	-0,054
-206,665	-125,823	0,049	-0,005
-205,650	800,000	0,061	0,168
-204,636	-200,000	0,046	0,160
-203,621	-30,848	-0,046	-0,019
-202,606	75,886	-0,155	-0,119
-201,592	-13,448	-0,095	-0,044
-200,577	-200,000	0,003	0,034
-199,563	-200,000	0,001	0,068
-198,548	-86,998	0,109	0,024
-197,533	375,750	-0,107	-0,158
-196,519	-161,477	-0,147	-0,005
-195,504	95,900	0,030	-0,025
-194,490	297,147	-0,085	-0,113
-193,475	-200,000	-0,000	-0,016
-192,460	800,000	-0,016	-0,034
-191,446	-0,961	0,086	-0,044
-190,431	218,815	0,024	-0,028
-189,417	-29,196	0,018	-0,007
-188,402	800,000	-0,026	0,053
-187,387	800,000	-0,015	0,033
-186,373	800,000	-0,010	-0,023
-185,358	54,231	0,083	0,058
-184,344	-200,000	-0,028	0,000
-183,329	-200,000	0,013	0,051
-182,315	-200,000	0,002	-0,047
-181,300	-200,000	0,004	-0,034
-180,285	-200,000	0,014	-0,078
-179,271	282,934	-0,025	0,032
-178,256	39,203	-0,116	0,074
-177,242	63,211	-0,017	-0,012
-176,227	375,617	0,023	-0,034
-175,212	-200,000	-0,007	-0,096
-174,198	-114,032	0,097	-0,013
-173,183	190,255	-0,041	-0,045
-172,169	-200,000	-0,026	-0,162
-171,154	1,287	-0,110	0,057
-170,139	-200,000	0,026	0,176
-169,125	-200,000	-0,000	0,089
-168,110	448,904	0,023	0,036
-167,096	101,088	-0,052	0,044
-166,081	800,000	-0,047	0,109
-165,066	588,742	0,022	0,040
-164,052	149,404	-0,050	0,049
-163,037	-13,045	0,026	0,012
-162,023	-138,988	-0,080	0,006
-161,008	-22,477	0,135	-0,058
-159,993	88,691	0,087	0,070
-158,979	-200,000	-0,020	0,098
-157,964	-133,824	0,044	0,004
-156,950	-122,924	-0,111	0,013
-155,935	-180,596	0,050	-0,001
-154,920	-158,302	0,043	0,002
-153,906	84,437	-0,089	0,070
-152,891	-200,000	0,007	-0,027
-151,877	32,377	-0,047	-0,029
-150,862	-25,402	-0,112	-0,047
-149,847	88,545	-0,036	0,029
-148,833	-3,862	0,046	-0,023
-147,818	-200,000	-0,015	0,062
-146,804	800,000	0,049	-0,126
-145,789	97,308	0,101	0,084
-144,775	800,000	-0,023	-0,056
-143,760	-79,212	-0,067	0,016
-142,745	-97,412	-0,058	-0,011
-141,731	-182,971	0,135	-0,002
-140,716	319,158	-0,059	0,081
-139,702	-200,000	-0,002	0,138
-138,687	-200,000	0,025	0,090
-137,672	-116,810	-0,087	0,011
-136,658	115,877	-0,029	-0,025
-135,643	261,172	-0,060	-0,075
-134,629	158,858	0,087	-0,087
-133,614	-29,762	0,067	-0,027
-132,599	800,000	0,068	0,190
-131,585	-200,000	-0,008	0,167
-130,570	-200,000	0,005	-0,037
-129,556	79,380	-0,169	0,130
-128,541	442,680	0,035	0,056
-127,526	628,977	0,030	-0,054
-126,512	800,000	0,077	-0,158
-125,497	-200,000	0,010	0,087
-124,483	3,850	0,098	0,052
-123,468	-108,621	-0,051	0,008
-122,453	3,379	-0,071	-0,037
-121,439	-96,610	0,025	0,005
-120,424	-164,599	0,059	0,002
