DTS Sentinel unit serial number:	SN410029Multiplexer serial number:	ORYXHardware model number:	OX2-SRSoftware version number:	ORYX F/W v4,00 Oryx Data Collector v3.7.2.0data status	okinstallation	B6 Nyhavnadifferential loss correction	single-endedforward channel	channel 2reverse channel	N/Adate	2023/12/09time	00:15:08forward acquisition time	300,00reverse acquisition time	0,00gamma	499,1914k internal	0,3157k external	0,3157temperature offset calibration	1,0000default loss term (dB/km)	0,3820temperature slope calibration	1,0000multiplexer offset coefficient	1,0000multiplexer slope coefficient	1,0000fibre end	0,00T internal ref (°C)	15,56T ext. ref 1 (°C)	-0,87T ext. ref 2 (°C)	-0,88length (m)	temperature (°C)	Stokes	anti-Stokes-744,400	-85,286	0,065	-0,015
-743,385	-49,122	-0,264	0,093
-742,371	800,000	0,062	0,148
-741,356	-26,508	-0,259	0,112
-740,342	-76,912	0,129	0,033
-739,327	-54,010	-0,178	0,059
-738,312	-105,205	0,178	0,030
-737,298	-159,384	-0,274	0,011
-736,283	4,553	0,095	0,052
-735,269	-189,409	-0,281	0,002
-734,254	57,461	0,170	0,123
-733,239	-33,535	-0,357	-0,145
-732,225	88,287	0,110	-0,090
-731,210	-200,000	-0,010	-0,041
-730,196	-83,146	-0,098	0,023
-729,181	-35,717	-0,039	0,016
-728,167	149,801	0,090	-0,090
-727,152	800,000	0,042	-0,094
-726,137	800,000	0,037	-0,105
-725,123	-54,107	-0,054	-0,018
-724,108	780,346	-0,082	-0,167
-723,094	800,000	-0,079	-0,181
-722,079	-105,445	0,051	0,009
-721,064	213,880	-0,040	0,047
-720,050	-96,475	0,146	0,028
-719,035	49,270	0,056	-0,039
-718,021	-82,414	-0,126	-0,030
-717,006	800,000	0,022	0,064
-715,991	800,000	-0,064	-0,164
-714,977	-200,000	0,010	0,057
-713,962	322,582	-0,003	0,004
-712,948	-23,433	-0,098	0,043
-711,933	95,503	-0,070	-0,059
-710,918	800,000	0,006	-0,013
-709,904	-63,433	-0,083	0,025
-708,889	129,770	-0,033	0,032
-707,875	55,659	-0,107	0,076
-706,860	-200,000	-0,027	0,112
-705,845	-200,000	0,001	0,006
-704,831	512,725	-0,056	0,097
-703,816	399,490	-0,087	0,134
-702,802	-172,962	-0,180	-0,004
-701,787	-200,000	-0,006	-0,108
-700,772	800,000	-0,048	-0,138
-699,758	-200,000	0,008	0,117
-698,743	-147,105	0,108	0,007
-697,729	197,017	0,115	-0,130
-696,714	-0,772	0,096	0,050
-695,699	-10,925	-0,033	-0,016
-694,685	5,751	-0,088	-0,048
-693,670	-148,073	-0,122	-0,007
-692,656	194,575	0,016	-0,017
-691,641	-14,521	0,153	-0,072
-690,627	438,995	-0,025	0,040
-689,612	800,000	-0,055	-0,150
-688,597	-76,619	-0,128	0,033
-687,583	-69,107	-0,086	-0,024
-686,568	111,080	-0,069	0,061
-685,554	39,470	-0,089	0,059
-684,539	-200,000	0,023	0,106
-683,524	-149,811	0,152	0,009
-682,510	-200,000	-0,001	-0,073
-681,495	257,497	-0,075	-0,095
-680,481	-90,428	-0,116	-0,024
-679,466	6,643	-0,074	-0,040
-678,451	186,734	-0,102	-0,112
-677,437	287,976	0,037	-0,050
-676,422	0,640	-0,162	-0,085
-675,408	2,222	0,010	0,005
-674,393	-137,306	-0,061	-0,005
-673,378	-50,869	0,034	-0,012
-672,364	147,003	-0,038	-0,037
-671,349	-32,562	-0,150	0,061
-670,335	95,086	0,030	-0,025
-669,320	800,000	-0,036	-0,112
-668,305	219,130	0,047	-0,055
-667,291	234,338	0,090	-0,109
-666,276	-200,000	0,006	-0,071
-665,262	-200,000	-0,001	0,086
-664,247	-200,000	0,005	-0,147
-663,232	9,811	0,037	-0,021
-662,218	6,841	0,025	0,014
-661,203	126,770	0,046	0,043
-660,189	-49,677	-0,012	0,004
-659,174	-52,348	0,020	-0,007
-658,159	-60,949	-0,183	-0,057
-657,145	299,366	-0,025	0,033
-656,130	3,206	0,050	0,027
-655,116	-200,000	0,009	0,041
-654,101	-200,000	-0,014	0,084
-653,086	-200,000	0,023	0,078
-652,072	800,000	0,048	0,135
-651,057	-148,918	-0,122	0,007
-650,043	-200,000	0,002	-0,041
-649,028	-26,097	0,053	-0,023
-648,014	-200,000	0,008	0,062
-646,999	-200,000	-0,014	0,068
-645,984	59,600	0,088	-0,064
-644,970	-200,000	0,006	0,075
-643,955	-78,149	-0,141	-0,035
-642,941	-110,006	-0,094	0,014
-641,926	-4,325	0,085	-0,043
-640,911	-72,802	0,115	0,031
-639,897	402,115	-0,105	0,163
-638,882	-1,856	-0,015	0,008
-637,868	91,776	-0,085	-0,070
-636,853	-10,498	-0,045	0,022
-635,838	-97,871	-0,028	0,005
-634,824	-24,456	0,092	-0,040
-633,809	189,308	0,059	0,065
-632,795	210,398	0,021	0,025
-631,780	800,000	-0,017	0,042
-630,765	800,000	-0,030	-0,064
-629,751	-200,000	-0,011	0,108
-628,736	793,341	0,016	-0,033
-627,722	800,000	0,034	-0,082
-626,707	-70,136	0,108	-0,030
-625,692	159,592	0,076	-0,078
-624,678	204,522	-0,092	-0,105
-623,663	91,604	-0,075	-0,062
-622,649	-69,371	-0,125	-0,035
-621,634	-177,324	-0,127	0,002
-620,619	-143,564	-0,039	-0,003
-619,605	-32,753	-0,098	-0,040
-618,590	384,748	-0,069	0,104
-617,576	322,791	0,057	-0,080
-616,561	26,179	-0,021	-0,013
-615,546	800,000	-0,050	-0,107
-614,532	-200,000	-0,002	-0,063
-613,517	800,000	-0,044	-0,114
-612,503	659,429	0,031	-0,059
-611,488	767,690	0,050	0,100
-610,474	-28,764	0,163	-0,068
-609,459	-85,669	0,045	0,010
-608,444	-131,287	-0,118	0,011
-607,430	-200,000	0,033	-0,169
-606,415	-200,000	-0,004	-0,071
-605,401	-200,000	0,033	-0,106
-604,386	52,351	0,019	0,014
-603,371	494,851	0,029	-0,050
-602,357	-90,547	-0,194	-0,041
-601,342	-132,253	-0,168	0,016
-600,328	637,168	-0,057	-0,107
-599,313	365,531	-0,021	-0,031
-598,298	-55,821	0,123	0,040
-597,284	-132,481	0,044	0,004
-596,269	122,126	-0,097	0,089
-595,255	38,786	-0,065	0,043
-594,240	103,593	-0,113	-0,097
-593,225	-200,000	0,004	0,047
-592,211	-44,422	-0,079	0,029
-591,196	800,000	0,028	-0,075
-590,182	339,626	0,068	-0,097
-589,167	-115,597	-0,078	0,011
-588,152	800,000	0,025	-0,053
-587,138	800,000	0,060	-0,140
-586,123	36,187	-0,098	-0,063
-585,109	311,340	-0,063	-0,087
-584,094	18,267	0,031	0,018
-583,079	-126,005	0,071	-0,008
-582,065	280,990	-0,077	-0,102
-581,050	181,752	-0,076	0,082
-580,036	-64,135	-0,023	0,007
-579,021	-82,386	-0,069	-0,016
-578,006	142,618	0,042	0,041
-576,992	800,000	0,027	0,057
-575,977	138,142	0,064	-0,062
-574,963	-200,000	0,024	-0,129
-573,948	-200,000	-0,009	0,088
-572,934	-176,278	-0,151	-0,003
-571,919	132,924	0,021	-0,019
-570,904	-200,000	-0,007	-0,114
-569,890	-200,000	0,007	-0,082
-568,875	800,000	-0,009	-0,027
-567,861	-200,000	-0,021	-0,086
-566,846	-79,863	0,050	-0,012
-565,831	3,657	0,132	0,070
-564,817	-33,681	-0,077	0,031
-563,802	534,417	-0,058	0,101
-562,788	-66,252	-0,094	-0,027
-561,773	228,175	-0,078	-0,093
-560,758	-11,871	-0,104	-0,050
-559,744	11,851	-0,079	0,044
-558,729	-48,823	0,114	0,040
-557,715	75,720	-0,080	-0,062
-556,700	74,031	0,035	0,027
-555,685	-114,865	0,068	0,009
-554,671	155,507	0,062	-0,063
-553,656	800,000	0,037	0,082
-552,642	-200,000	-0,014	0,150
-551,627	296,643	0,055	-0,074
-550,612	-49,403	-0,109	-0,038
-549,598	-85,830	-0,088	-0,020
-548,583	16,727	-0,113	-0,065
-547,569	-69,781	-0,082	-0,023
-546,554	98,709	0,052	0,044
-545,539	800,000	0,063	0,148
-544,525	45,966	0,039	0,026
-543,510	-200,000	-0,006	-0,087
-542,496	-200,000	0,008	-0,036
-541,481	800,000	-0,056	0,178
-540,466	800,000	-0,061	-0,156
-539,452	-155,071	-0,064	0,003
-538,437	22,445	-0,096	-0,057
-537,423	99,953	0,038	-0,032
-536,408	-47,488	0,059	0,021
-535,393	-147,705	-0,129	-0,008
-534,379	148,181	-0,066	-0,066
-533,364	584,927	-0,082	-0,147
-532,350	800,000	0,056	-0,179
-531,335	666,681	0,036	0,068
-530,321	800,000	-0,054	0,136
-529,306	-88,464	-0,106	0,023
-528,291	30,659	0,078	-0,049
-527,277	71,166	-0,133	0,100
-526,262	506,454	-0,060	-0,102
-525,248	-0,108	-0,130	0,067
-524,233	-107,536	0,128	-0,020
-523,218	-200,000	-0,002	0,042
-522,204	800,000	0,062	0,180
-521,189	-102,296	-0,160	-0,028
-520,175	-21,859	-0,048	0,021
-519,160	-82,941	-0,174	0,041
-518,145	579,941	-0,013	-0,022
-517,131	176,964	0,168	-0,179
-516,116	249,774	-0,043	-0,054
-515,102	800,000	0,021	-0,050
-514,087	-200,000	-0,012	-0,038
-513,072	275,867	0,134	-0,174
-512,058	-121,149	0,056	-0,007
-511,043	800,000	0,043	0,093
-510,029	-141,263	0,148	-0,011
-509,014	-145,366	-0,070	-0,005
-507,999	-200,000	0,001	0,068
-506,985	149,699	-0,113	-0,112
-505,970	-48,479	-0,039	0,014
-504,956	272,725	-0,053	-0,068
-503,941	44,642	0,057	-0,038
-502,926	-200,000	-0,005	0,065
-501,912	-153,921	0,097	0,005
-500,897	457,944	-0,011	0,018
-499,883	-124,633	0,067	-0,007
-498,868	27,606	-0,099	-0,061
-497,853	-42,945	0,020	0,007
-496,839	27,867	-0,133	-0,081
-495,824	-109,532	0,092	-0,014
-494,810	195,859	-0,068	0,075
-493,795	800,000	0,039	0,097
-492,781	-54,538	0,080	0,026
-491,766	228,209	-0,083	0,099
-490,751	203,551	-0,050	0,056
-489,737	99,068	0,056	-0,048
-488,722	800,000	-0,029	0,086
-487,708	464,830	-0,100	0,163
-486,693	598,650	-0,091	0,165
-485,678	436,409	0,034	-0,054
-484,664	19,714	0,061	-0,036
-483,649	-141,248	-0,132	-0,010
-482,635	-200,000	0,003	0,020
-481,620	586,912	-0,027	-0,049
-480,605	-200,000	-0,006	-0,113
-479,591	258,135	0,012	0,016
-478,576	208,775	0,131	-0,150
-477,562	-200,000	-0,009	-0,038
-476,547	-101,879	0,060	-0,010
-475,532	53,904	0,013	-0,009
-474,518	38,817	0,099	0,064
-473,503	-200,000	0,011	0,076
-472,489	800,000	-0,028	-0,077
-471,474	49,758	-0,036	-0,025
-470,459	-200,000	0,002	0,070
-469,445	56,767	0,087	0,062
-468,430	92,622	0,071	-0,058
-467,416	-39,075	-0,024	0,009
-466,401	352,926	-0,058	-0,083
-465,386	-69,364	-0,062	0,017
-464,372	534,415	-0,009	-0,016
-463,357	-90,692	0,113	0,024
-462,343	405,226	0,061	-0,094
-461,328	139,816	0,032	0,031
-460,313	175,754	0,096	0,102
-459,299	-52,458	0,005	0,002
-458,284	198,141	0,118	0,132
-457,270	800,000	0,076	-0,201
-456,255	-200,000	0,015	-0,067
-455,241	48,796	0,060	0,041
-454,226	-51,389	-0,097	0,033
-453,211	-55,588	0,052	0,017
-452,197	-200,000	0,024	0,124
-451,182	-138,899	-0,031	-0,002
-450,168	800,000	0,026	-0,065
-449,153	-67,068	-0,085	0,024
-448,138	800,000	0,043	-0,130
-447,124	800,000	0,049	-0,099
-446,109	490,925	0,025	-0,043
-445,095	-200,000	0,028	0,132
-444,080	222,800	-0,014	-0,016
-443,065	-200,000	0,001	0,068
-442,051	-69,178	0,057	0,016
-441,036	252,434	0,058	-0,072
-440,022	-34,841	-0,086	0,034
-439,007	203,268	-0,025	-0,028
-437,992	-4,481	0,136	0,068
-436,978	348,058	-0,039	0,056
-435,963	384,823	0,084	-0,126
-434,949	148,318	-0,120	-0,118
-433,934	-128,974	0,049	-0,005
-432,919	140,992	-0,047	0,046
-431,905	800,000	0,042	0,109
-430,890	694,842	-0,078	0,151
-429,876	800,000	-0,043	0,133
-428,861	-182,196	0,055	0,001
-427,846	800,000	0,027	-0,069
-426,832	-200,000	0,031	-0,173
-425,817	-200,000	-0,011	0,056
-424,803	800,000	-0,014	-0,032
-423,788	-119,288	0,208	-0,026
-422,773	800,000	0,026	0,059
-421,759	-200,000	0,008	-0,047
-420,744	-200,000	0,002	-0,019
-419,730	-200,000	-0,001	0,022
-418,715	-200,000	-0,031	-0,171
-417,701	234,282	-0,071	0,085
-416,686	-191,613	-0,105	0,001
-415,671	-47,892	0,112	0,039
-414,657	127,731	-0,050	-0,046
-413,642	-113,768	0,083	-0,012
-412,628	306,494	0,055	0,075
-411,613	219,142	0,097	-0,113
-410,598	-200,000	-0,003	-0,013
-409,584	-200,000	0,000	0,056
-408,569	-200,000	-0,011	0,053
-407,555	-200,000	0,005	-0,059
-406,540	77,349	0,016	-0,013
-405,525	-66,522	-0,204	-0,058
-404,511	-49,636	-0,123	0,042
-403,496	-77,624	-0,048	0,012
-402,482	-48,249	0,213	0,074
-401,467	204,974	0,041	0,046
-400,452	-174,208	0,105	-0,002
-399,438	57,760	0,120	0,085
-398,423	800,000	-0,054	0,114
-397,409	178,021	0,038	0,040
-396,394	-200,000	-0,033	-0,117
-395,379	37,428	0,133	0,086
-394,365	539,530	-0,031	-0,053
-393,350	-32,280	-0,038	0,015
-392,336	800,000	-0,027	0,084
-391,321	355,978	0,043	0,063
-390,306	800,000	0,018	0,053
-389,292	-164,878	-0,230	-0,007
-388,277	-200,000	-0,011	0,101
-387,263	-200,000	0,016	0,098
-386,248	208,603	0,044	-0,050
-385,233	-112,107	-0,021	-0,003
-384,219	-105,235	-0,102	-0,017
-383,204	-200,000	-0,004	-0,025
-382,190	-200,000	0,011	-0,192
-381,175	-200,000	0,005	-0,040
-380,160	24,367	-0,025	-0,015
-379,146	-200,000	-0,030	0,125
-378,131	-166,865	0,111	-0,003
-377,117	15,846	0,059	0,034
-376,102	23,519	-0,135	0,081
-375,088	181,708	-0,079	0,085
-374,073	-200,000	-0,037	-0,121
-373,058	8,743	0,177	0,097
-372,044	-30,827	0,150	0,062
-371,029	-200,000	0,014	0,081
-370,015	-139,319	0,010	-0,001
-369,000	-200,000	-0,006	-0,083
-367,985	-200,000	-0,019	-0,122
-366,971	-112,131	0,108	0,016
-365,956	-14,946	0,176	-0,082
-364,942	-110,480	-0,028	-0,004
-363,927	228,450	-0,058	0,068
-362,912	-27,926	0,123	0,052
-361,898	70,109	-0,097	-0,073
-360,883	116,967	-0,078	-0,069
-359,869	678,803	0,056	-0,106
-358,854	-70,648	0,062	-0,017
-357,839	-135,968	0,168	-0,014
-356,825	800,000	0,027	0,079
-355,810	396,864	-0,042	0,063
-354,796	-200,000	0,012	-0,039
-353,781	65,721	-0,075	-0,055
-352,766	-32,371	-0,050	-0,020
-351,752	49,953	0,090	-0,061
-350,737	11,321	-0,136	0,075
-349,723	148,380	0,082	0,080
-348,708	150,492	-0,088	-0,086
-347,693	800,000	-0,064	0,165
-346,679	-101,094	-0,035	-0,006
-345,664	-71,022	0,124	-0,034
-344,650	402,921	0,039	-0,060
-343,635	-5,218	0,054	0,027
-342,620	420,460	0,049	-0,077
-341,606	26,540	0,059	-0,036
-340,591	-68,360	-0,074	-0,021
-339,577	-135,421	0,117	0,010
-338,562	-89,393	-0,119	-0,025
-337,548	96,378	0,110	-0,091
-336,533	11,653	0,131	-0,073
-335,518	-63,826	0,127	-0,037
-334,504	-129,195	0,098	0,010
-333,489	800,000	0,003	0,006
-332,475	-200,000	-0,032	-0,138
-331,460	-74,618	0,032	0,008
-330,445	161,283	-0,072	-0,073
-329,431	800,000	-0,041	-0,096
-328,416	-45,156	-0,128	0,046
-327,402	-200,000	0,015	0,067
-326,387	-28,484	-0,097	0,040
-325,372	634,564	-0,045	-0,083
-324,358	34,749	-0,080	-0,050
-323,343	8,096	-0,088	-0,048
-322,329	77,878	0,046	-0,035
-321,314	-200,000	0,027	0,141
-320,299	430,733	0,021	-0,033
-319,285	800,000	-0,029	0,075
-318,270	-162,753	-0,087	0,003
-317,256	564,723	0,041	-0,072
-316,241	35,618	0,122	0,078
-315,226	-200,000	0,020	0,204
-314,212	735,705	-0,084	0,165
-313,197	-200,000	-0,028	0,095
-312,183	473,715	-0,026	0,043
-311,168	175,569	-0,083	-0,087
-310,153	-200,000	0,051	-0,163
-309,139	800,000	0,056	-0,159
-308,124	800,000	0,065	0,183
-307,110	-109,247	0,134	0,020
-306,095	-59,744	0,079	0,024
-305,080	-200,000	0,004	0,035
-304,066	800,000	0,028	0,086
-303,051	-200,000	0,002	0,024
-302,037	800,000	0,019	0,044
-301,022	-26,744	-0,052	-0,022
-300,008	-24,321	0,061	-0,026
-298,993	-200,000	-0,012	0,190
-297,978	-200,000	0,054	0,199
-296,964	253,687	0,028	0,034
-295,949	56,079	0,019	-0,013
-294,935	-200,000	0,001	-0,116
-293,920	215,938	0,033	0,038
-292,905	-200,000	0,022	0,092
-291,891	-31,762	0,074	0,030
-290,876	98,295	-0,070	0,059
-289,862	391,422	0,088	0,132
-288,847	-53,067	0,121	-0,040
-287,832	800,000	-0,015	-0,045
-286,818	458,434	0,066	0,106
-285,803	367,470	-0,012	-0,017
-284,789	783,844	0,049	0,098
-283,774	-58,303	-0,048	-0,015
-282,759	-200,000	0,009	0,124
-281,745	166,906	-0,073	-0,075
-280,730	231,274	0,048	-0,057
-279,716	145,546	0,133	-0,129
-278,701	323,704	-0,038	0,052
-277,686	-40,729	-0,015	-0,006
-276,672	-28,656	-0,048	-0,020
-275,657	284,302	-0,026	0,034
-274,643	162,803	0,087	-0,089
-273,628	352,036	-0,095	0,137
-272,613	-200,000	0,014	0,058
-271,599	-101,056	0,074	0,013
-270,584	29,821	0,037	-0,023
-269,570	-200,000	-0,006	0,022
-268,555	197,330	-0,086	0,096
-267,540	-200,000	0,001	0,004
-266,526	800,000	0,029	-0,058
-265,511	613,384	-0,067	-0,123
-264,497	257,166	-0,030	0,037
-263,482	108,121	0,122	0,105
-262,467	7,679	0,108	0,058
-261,453	-23,756	-0,035	-0,015
-260,438	-40,694	-0,021	-0,008
-259,424	-120,273	-0,027	0,003
-258,409	-45,851	-0,019	0,007
-257,395	-162,312	-0,183	-0,006
-256,380	93,931	0,130	0,106
-255,365	262,425	0,099	-0,125
-254,351	412,787	-0,055	0,084
-253,336	59,478	-0,123	0,088
-252,322	179,510	-0,056	-0,060
-251,307	-139,945	-0,089	-0,007
-250,292	-148,487	-0,118	0,007
-249,278	-55,431	-0,126	0,040
-248,263	532,905	0,089	0,154
-247,249	81,800	-0,087	-0,068
-246,234	800,000	0,024	0,070
-245,219	-200,000	0,029	0,117
-244,205	14,443	-0,115	-0,065
-243,190	-57,982	0,038	0,012
-242,176	-200,000	-0,003	-0,075
-241,161	95,748	-0,062	-0,051
-240,146	-200,000	-0,057	0,215
-239,132	-200,000	0,002	0,025
-238,117	4,689	0,039	-0,021
-237,103	-200,000	0,035	-0,155
-236,088	-200,000	-0,002	0,058
-235,073	-6,726	0,122	0,060
-234,059	-76,474	0,055	-0,014
-233,044	-130,400	-0,065	0,006
-232,030	-200,000	-0,010	0,136
-231,015	800,000	-0,040	0,100
-230,000	-200,000	0,023	-0,129
-228,986	-63,022	0,063	-0,019
-227,971	101,540	0,052	0,043
-226,957	152,017	0,105	0,104
-225,942	-93,426	0,170	-0,034
-224,927	-200,000	0,035	-0,130
-223,913	122,933	0,072	0,065
-222,898	-200,000	-0,004	0,017
-221,884	-200,000	-0,007	-0,071
-220,869	800,000	0,031	-0,066
-219,855	215,034	-0,068	-0,078
-218,840	800,000	0,074	0,167
-217,825	788,812	-0,063	0,125
-216,811	100,129	0,047	-0,039
-215,796	203,932	-0,064	0,071
-214,782	-85,824	-0,070	-0,016
-213,767	-200,000	0,014	-0,087
-212,752	-200,000	-0,008	0,034
-211,738	-200,000	0,026	0,098
-210,723	-148,877	0,068	-0,004
-209,709	126,761	-0,047	-0,043
-208,694	-200,000	-0,005	-0,055
-207,679	-200,000	0,030	-0,124
-206,665	-159,782	0,025	-0,001
-205,650	-200,000	-0,001	-0,053
-204,636	-75,086	0,196	0,050
-203,621	787,285	-0,082	0,162
-202,606	-200,000	-0,005	0,057
-201,592	131,605	-0,015	0,014
-200,577	93,025	-0,080	-0,065
-199,563	-200,000	-0,005	0,063
-198,548	68,539	0,066	-0,049
-197,533	-200,000	-0,005	-0,028
-196,519	-36,826	0,017	-0,007
-195,504	-16,132	0,118	-0,054
-194,490	648,636	0,036	-0,067
-193,475	27,487	-0,097	-0,059
-192,460	-34,351	-0,099	0,039
-191,446	399,783	-0,068	0,104
-190,431	-19,908	-0,020	0,009
-189,417	222,894	-0,005	-0,006
-188,402	-146,138	0,126	0,008
-187,387	-27,117	-0,077	0,032
-186,373	252,642	0,020	0,024
-185,358	216,743	0,016	0,018
-184,344	-200,000	-0,008	-0,072
-183,329	198,240	0,018	0,020
-182,315	140,043	0,059	0,056
-181,300	-197,026	-0,124	-0,001
-180,285	28,690	0,023	0,014
-179,271	82,255	-0,068	0,053
-178,256	32,931	-0,029	-0,018
-177,242	118,732	0,016	0,014
-176,227	-35,200	0,096	0,037
-175,212	-48,249	0,115	-0,040
-174,198	800,000	-0,053	-0,115
-173,183	-200,000	-0,021	-0,123
-172,169	-69,005	-0,049	0,013
-171,154	-105,241	-0,103	0,017
-170,139	-83,214	-0,080	0,018
-169,125	-200,000	-0,013	0,081
-168,110	-149,540	0,046	0,003
-167,096	324,567	-0,029	0,040
-166,081	-3,253	0,047	0,023
-165,066	-200,000	0,028	-0,094
-164,052	-200,000	-0,000	-0,055
-163,037	800,000	-0,020	-0,045
-162,023	-168,016	0,113	0,003
-161,008	-110,980	-0,073	-0,011
-159,993	-200,000	0,007	-0,098
-158,979	-200,000	-0,004	0,013
-157,964	505,173	0,030	-0,051
-156,950	800,000	-0,028	0,089
-155,935	240,587	-0,049	0,059
-154,920	-200,000	-0,040	0,140
-153,906	-23,214	0,053	0,023
-152,891	130,034	-0,084	-0,078
-151,877	143,177	0,077	-0,074
-150,862	800,000	0,006	-0,014
-149,847	-200,000	-0,002	0,023
-148,833	-2,263	0,087	-0,044
-147,818	-200,000	-0,007	0,062
-146,804	-200,000	-0,025	0,080
-145,789	203,208	-0,036	0,040
-144,775	-184,787	0,085	0,001
-143,760	800,000	-0,017	0,045
-142,745	-53,082	-0,054	-0,018
-141,731	-87,655	0,067	0,014
-140,716	-98,525	0,101	0,018
-139,702	-200,000	-0,046	0,174
-138,687	9,445	0,048	0,026
-137,672	-177,725	-0,133	0,002
-136,658	-133,061	-0,110	-0,010
-135,643	-200,000	-0,014	-0,095
-134,629	91,482	-0,123	-0,100
-133,614	-122,120	0,167	-0,019
-132,599	-200,000	-0,015	-0,077
-131,585	303,059	0,050	0,067
-130,570	-200,000	-0,023	0,119
-129,556	35,592	0,077	-0,049
-128,541	-200,000	0,016	0,101
-127,526	800,000	-0,028	0,062
-126,512	800,000	0,034	0,102
-125,497	-130,680	0,096	-0,009
-124,483	-200,000	-0,030	0,109
-123,468	-200,000	0,013	-0,069
-122,453	-121,847	-0,083	0,010
-121,439	712,451	0,038	0,072
-120,424	-94,704	0,045	0,009
-119,410	800,000	0,041	0,119
