DTS Sentinel unit serial number:	SN410029Multiplexer serial number:	ORYXHardware model number:	OX2-SRSoftware version number:	ORYX F/W v4,00 Oryx Data Collector v3.7.2.0data status	okinstallation	B6 Nyhavnadifferential loss correction	single-endedforward channel	channel 2reverse channel	N/Adate	2023/12/08time	06:50:08forward acquisition time	300,00reverse acquisition time	0,00gamma	499,1914k internal	0,3165k external	0,3165temperature offset calibration	1,0000default loss term (dB/km)	0,3820temperature slope calibration	1,0000multiplexer offset coefficient	1,0000multiplexer slope coefficient	1,0000fibre end	0,00T internal ref (°C)	13,03T ext. ref 1 (°C)	-3,56T ext. ref 2 (°C)	-3,55length (m)	temperature (°C)	Stokes	anti-Stokes-744,400	-53,042	0,050	0,017
-743,385	-35,419	-0,293	0,117
-742,371	-97,968	0,175	0,033
-741,356	-117,311	-0,343	-0,045
-740,342	-113,593	0,228	0,032
-739,327	-143,658	-0,401	0,028
-738,312	161,012	0,100	-0,103
-737,298	-74,163	-0,407	-0,108
-736,283	-164,666	0,192	-0,006
-735,269	-178,358	-0,410	-0,007
-734,254	-200,000	-0,048	0,250
-733,239	-89,356	-0,447	-0,096
-732,225	-138,989	0,283	-0,022
-731,210	46,831	-0,105	0,072
-730,196	131,277	0,066	-0,062
-729,181	-44,631	-0,159	0,058
-728,167	-63,367	-0,092	0,028
-727,152	-93,670	-0,123	-0,025
-726,137	-200,000	-0,013	-0,120
-725,123	37,418	-0,022	0,015
-724,108	-80,994	-0,044	0,011
-723,094	-200,000	-0,030	-0,157
-722,079	-16,624	-0,065	0,030
-721,064	800,000	0,028	-0,079
-720,050	800,000	-0,035	-0,077
-719,035	-86,355	-0,060	-0,013
-718,021	-11,904	-0,032	-0,015
-717,006	541,154	-0,028	0,049
-715,991	162,823	-0,055	-0,056
-714,977	-50,123	0,086	-0,030
-713,962	-162,837	-0,117	0,004
-712,948	-11,038	0,112	0,054
-711,933	40,872	0,033	0,022
-710,918	136,255	0,003	-0,003
-709,904	800,000	-0,040	-0,118
-708,889	-41,558	-0,085	0,032
-707,875	725,742	-0,087	-0,171
-706,860	116,746	-0,060	0,054
-705,845	706,586	-0,045	0,088
-704,831	372,154	0,046	-0,069
-703,816	-200,000	-0,003	-0,061
-702,802	-200,000	0,007	0,024
-701,787	173,468	0,047	-0,050
-700,772	267,963	0,062	0,080
-699,758	48,031	-0,102	-0,070
-698,743	-149,258	0,076	-0,004
-697,729	-200,000	0,006	-0,097
-696,714	17,526	-0,031	0,018
-695,699	-200,000	-0,007	-0,086
-694,685	-97,625	-0,024	-0,005
-693,670	-132,077	0,031	0,003
-692,656	800,000	0,018	-0,057
-691,641	-200,000	0,000	-0,030
-690,627	75,318	-0,103	-0,080
-689,612	-4,731	0,153	-0,077
-688,597	488,187	-0,083	0,139
-687,583	162,301	0,092	-0,094
-686,568	-200,000	0,007	-0,142
-685,554	28,844	0,113	0,070
-684,539	670,541	-0,037	-0,072
-683,524	-200,000	-0,003	0,119
-682,510	-200,000	-0,018	0,119
-681,495	-11,630	-0,087	-0,042
-680,481	800,000	-0,041	-0,125
-679,466	173,453	-0,097	-0,103
-678,451	193,457	-0,071	0,079
-677,437	-200,000	0,014	0,077
-676,422	-51,827	-0,051	-0,017
-675,408	57,019	-0,047	-0,033
-674,393	-97,762	-0,113	0,021
-673,378	-24,862	-0,033	0,014
-672,364	-200,000	-0,001	-0,027
-671,349	-43,174	0,198	0,073
-670,335	318,698	-0,059	-0,082
-669,320	-71,920	0,110	-0,030
-668,305	800,000	-0,034	-0,096
-667,291	-140,523	-0,046	0,003
-666,276	-114,246	-0,177	-0,025
-665,262	85,715	-0,067	-0,054
-664,247	800,000	0,047	0,096
-663,232	7,984	-0,076	0,042
-662,218	440,088	-0,029	-0,047
-661,203	285,570	-0,064	0,085
-660,189	28,396	-0,136	0,084
-659,174	-87,921	-0,151	0,033
-658,159	-200,000	-0,020	-0,122
-657,145	-135,127	-0,049	0,004
-656,130	-200,000	0,008	-0,054
-655,116	190,016	0,023	-0,025
-654,101	-62,936	0,047	0,014
-653,086	220,937	0,028	-0,033
-652,072	-73,557	-0,154	0,041
-651,057	-134,403	-0,237	0,021
-650,043	800,000	-0,027	-0,061
-649,028	-200,000	0,003	-0,010
-648,014	-56,925	0,067	0,022
-646,999	-200,000	0,006	0,077
-645,984	-91,231	-0,018	0,004
-644,970	-21,264	0,121	-0,054
-643,955	-200,000	0,000	0,091
-642,941	-2,841	0,067	0,034
-641,926	220,575	0,031	0,037
-640,911	-8,873	-0,040	0,020
-639,897	-61,614	-0,040	0,012
-638,882	-137,241	-0,058	-0,005
-637,868	-40,411	-0,035	0,013
-636,853	15,757	0,081	-0,047
-635,838	21,567	-0,115	0,069
-634,824	308,428	0,058	-0,080
-633,809	140,399	0,048	0,046
-632,795	-57,863	0,024	0,008
-631,780	-70,422	0,042	0,011
-630,765	109,999	0,031	0,028
-629,751	-70,848	-0,054	-0,015
-628,736	31,477	0,022	-0,014
-627,722	185,273	0,088	0,095
-626,707	-152,892	0,112	-0,006
-625,692	-26,660	0,048	-0,021
-624,678	112,753	-0,080	0,071
-623,663	-11,529	0,047	-0,022
-622,649	-200,000	0,030	0,118
-621,634	-0,209	-0,118	0,061
-620,619	262,048	-0,031	-0,040
-619,605	-200,000	0,003	0,012
-618,590	-41,666	0,086	0,032
-617,576	-88,586	-0,101	0,022
-616,561	-89,072	0,042	0,009
-615,546	97,337	-0,072	-0,061
-614,532	-58,994	-0,071	0,022
-613,517	800,000	-0,045	-0,120
-612,503	-58,587	0,066	0,021
-611,488	415,027	-0,016	0,026
-610,474	311,534	-0,077	-0,106
-609,459	-132,926	-0,071	-0,007
-608,444	800,000	0,064	-0,153
-607,430	337,982	-0,041	-0,058
-606,415	-31,008	-0,073	-0,030
-605,401	109,330	0,130	0,114
-604,386	438,558	0,047	-0,075
-603,371	35,558	0,070	0,045
-602,357	800,000	0,033	-0,080
-601,342	80,122	0,065	0,051
-600,328	602,828	-0,032	-0,058
-599,313	-62,987	-0,007	-0,002
-598,298	183,366	0,046	0,049
-597,284	167,740	0,105	0,109
-596,269	-182,646	-0,015	-0,000
-595,255	233,164	-0,059	-0,071
-594,240	-29,606	-0,063	-0,026
-593,225	-13,573	0,099	-0,047
-592,211	800,000	0,027	-0,081
-591,196	30,409	0,023	0,014
-590,182	800,000	-0,035	-0,097
-589,167	-200,000	0,003	-0,024
-588,152	514,065	-0,064	0,109
-587,138	88,766	0,109	-0,089
-586,123	-39,866	-0,203	-0,077
-585,109	-200,000	0,001	-0,027
-584,094	800,000	0,034	-0,087
-583,079	-37,751	0,132	-0,051
-582,065	-137,132	-0,037	-0,003
-581,050	-97,705	0,102	-0,019
-580,036	-125,949	0,155	0,017
-579,021	167,344	-0,078	0,081
-578,006	209,084	-0,129	-0,148
-576,992	-200,000	0,006	-0,039
-575,977	183,838	0,177	0,191
-574,963	296,583	-0,027	-0,037
-573,948	-120,220	-0,065	0,008
-572,934	800,000	-0,035	-0,079
-571,919	-65,954	0,068	-0,020
-570,904	494,816	0,087	0,146
-569,890	-105,424	0,045	0,007
-568,875	461,374	-0,035	0,058
-567,861	800,000	-0,027	0,078
-566,846	-200,000	0,028	-0,133
-565,831	-103,693	-0,149	-0,025
-564,817	-200,000	-0,012	-0,058
-563,802	800,000	-0,026	0,066
-562,788	-200,000	-0,035	-0,149
-561,773	-200,000	-0,010	0,051
-560,758	-86,595	-0,057	0,013
-559,744	64,123	0,044	0,032
-558,729	325,261	-0,052	0,072
-557,715	34,850	-0,031	0,020
-556,700	-200,000	-0,023	-0,092
-555,685	-200,000	0,046	-0,196
-554,671	800,000	0,035	0,072
-553,656	415,708	0,056	0,087
-552,642	168,844	0,081	0,084
-551,627	-200,000	-0,034	0,133
-550,612	-16,691	0,079	0,036
-549,598	377,557	-0,078	0,117
-548,583	-200,000	0,039	-0,129
-547,569	-200,000	0,036	-0,172
-546,554	-50,672	0,065	0,022
-545,539	800,000	0,049	-0,114
-544,525	115,219	-0,033	0,030
-543,510	-200,000	0,038	0,125
-542,496	505,955	0,033	-0,056
-541,481	800,000	-0,103	-0,278
-540,466	-200,000	0,007	-0,075
-539,452	-88,520	0,075	0,016
-538,437	-139,023	0,177	-0,014
-537,423	800,000	-0,030	-0,065
-536,408	99,500	-0,060	-0,051
-535,393	-200,000	-0,023	-0,123
-534,379	-78,003	-0,135	-0,034
-533,364	-49,334	-0,098	0,034
-532,350	-104,941	0,100	0,017
-531,335	359,951	0,030	0,045
-530,321	257,150	-0,051	-0,064
-529,306	1,497	-0,094	-0,049
-528,291	-131,045	0,017	0,002
-527,277	-70,988	-0,018	-0,005
-526,262	368,118	-0,048	-0,070
-525,248	-200,000	-0,062	0,311
-524,233	800,000	-0,018	-0,053
-523,218	-0,883	-0,096	-0,050
-522,204	-200,000	0,036	0,169
-521,189	239,071	0,078	0,094
-520,175	2,201	-0,093	0,049
-519,160	579,418	-0,075	0,135
-518,145	61,932	0,106	0,077
-517,131	-200,000	0,010	0,124
-516,116	-92,099	-0,104	0,021
-515,102	-12,803	0,203	0,096
-514,087	107,993	-0,037	-0,032
-513,072	-200,000	0,028	0,093
-512,058	293,636	0,029	0,039
-511,043	685,515	0,067	0,129
-510,029	-173,650	-0,135	-0,003
-509,014	-200,000	0,003	0,116
-507,999	-200,000	0,011	0,131
-506,985	325,852	-0,091	-0,127
-505,970	-32,480	-0,098	0,040
-504,956	-31,033	-0,100	-0,041
-503,941	-58,267	-0,048	0,015
-502,926	-131,393	0,083	0,008
-501,912	172,191	-0,054	0,056
-500,897	800,000	0,042	0,105
-499,883	-200,000	-0,018	0,087
-498,868	118,971	0,126	0,114
-497,853	-71,170	-0,096	0,026
-496,839	-74,334	0,041	0,011
-495,824	-200,000	-0,042	0,146
-494,810	552,937	0,088	-0,154
-493,795	152,994	0,041	-0,041
-492,781	-200,000	-0,120	0,000
-491,766	-200,000	0,002	-0,128
-490,751	24,837	0,054	-0,032
-489,737	-120,593	0,040	0,005
-488,722	-200,000	-0,003	-0,045
-487,708	108,631	0,047	0,041
-486,693	130,570	-0,070	0,066
-485,678	-120,352	-0,134	0,016
-484,664	800,000	0,033	0,085
-483,649	186,541	-0,084	0,091
-482,635	-200,000	-0,004	-0,077
-481,620	-29,661	0,079	-0,033
-480,605	225,059	-0,088	0,104
-479,591	320,127	-0,054	0,075
-478,576	-179,276	0,070	0,001
-477,562	800,000	0,009	-0,024
-476,547	555,254	-0,128	0,225
-475,532	32,230	0,052	-0,033
-474,518	107,777	0,065	-0,057
-473,503	116,271	0,094	-0,084
-472,489	-149,835	0,029	0,002
-471,474	-200,000	0,004	0,093
-470,459	800,000	-0,028	-0,073
-469,445	4,170	0,046	-0,024
-468,430	-98,736	-0,143	0,026
-467,416	-200,000	0,043	0,176
-466,401	-46,937	0,087	0,031
-465,386	-55,566	-0,054	0,017
-464,372	-200,000	-0,031	0,140
-463,357	800,000	0,025	-0,055
-462,343	27,733	0,035	0,021
-461,328	268,980	-0,109	0,139
-460,313	-100,794	0,044	-0,008
-459,299	402,481	0,082	0,126
-458,284	39,898	-0,028	0,018
-457,270	-35,925	-0,018	-0,007
-456,255	-30,321	-0,141	-0,058
-455,241	-104,782	0,100	-0,017
-454,226	800,000	-0,048	-0,098
-453,211	-200,000	-0,001	-0,040
-452,197	800,000	-0,033	0,068
-451,182	119,373	-0,089	0,080
-450,168	558,671	0,064	0,113
-449,153	-31,838	-0,017	0,007
-448,138	-200,000	0,008	0,028
-447,124	-150,589	-0,179	0,010
-446,109	210,840	0,074	-0,085
-445,095	-50,336	0,149	0,051
-444,080	460,019	0,082	0,133
-443,065	-200,000	-0,009	0,092
-442,051	800,000	0,007	0,021
-441,036	262,011	-0,038	0,048
-440,022	148,937	0,042	0,041
-439,007	91,891	0,075	0,062
-437,992	-200,000	0,009	-0,124
-436,978	346,994	-0,024	-0,034
-435,963	-110,601	-0,040	-0,006
-434,949	372,282	-0,067	-0,099
-433,934	-200,000	-0,028	-0,106
-432,919	281,335	0,079	-0,104
-431,905	128,949	0,008	-0,008
-430,890	13,237	0,081	-0,046
-429,876	-200,000	-0,042	0,158
-428,861	-190,009	0,128	0,001
-427,846	15,828	-0,072	-0,041
-426,832	-105,685	0,097	-0,016
-425,817	567,878	-0,053	-0,093
-424,803	-117,233	-0,041	0,005
-423,788	-200,000	-0,016	-0,068
-422,773	-121,152	0,104	0,012
-421,759	-42,621	-0,122	-0,045
-420,744	-200,000	0,012	0,061
-419,730	-59,639	-0,183	-0,057
-418,715	420,288	-0,014	-0,022
-417,701	166,846	-0,023	0,024
-416,686	-200,000	0,024	0,101
-415,671	-51,329	0,186	0,063
-414,657	255,344	0,082	0,102
-413,642	800,000	-0,013	0,039
-412,628	-123,683	0,011	0,001
-411,613	73,701	-0,083	-0,063
-410,598	-46,975	0,151	0,053
-409,584	350,386	0,050	-0,072
-408,569	132,829	-0,025	0,024
-407,555	689,678	-0,022	0,042
-406,540	-200,000	-0,009	-0,072
-405,525	75,874	0,033	-0,025
-404,511	44,398	-0,033	0,022
-403,496	19,135	-0,173	0,100
-402,482	-38,196	0,095	-0,036
-401,467	-200,000	0,003	-0,036
-400,452	489,344	-0,052	0,086
-399,438	-200,000	-0,008	-0,116
-398,423	-147,515	-0,171	0,010
-397,409	-166,663	0,018	-0,001
-396,394	18,744	0,035	-0,020
-395,379	-107,613	0,068	0,011
-394,365	-200,000	-0,012	0,048
-393,350	-200,000	-0,031	0,186
-392,336	54,443	0,113	0,079
-391,321	-70,996	0,059	0,016
-390,306	-200,000	-0,041	-0,203
-389,292	-200,000	0,026	-0,155
-388,277	373,656	0,094	-0,139
-387,263	10,542	0,069	0,038
-386,248	138,519	0,019	0,019
-385,233	-200,000	-0,011	-0,176
-384,219	-166,492	-0,129	0,004
-383,204	736,960	0,077	-0,151
-382,190	-200,000	-0,029	-0,096
-381,175	171,245	0,066	-0,069
-380,160	-200,000	-0,016	-0,070
-379,146	-41,783	0,166	-0,062
-378,131	800,000	-0,008	0,023
-377,117	-18,915	-0,063	0,028
-376,102	-86,316	0,063	-0,014
-375,088	599,142	-0,056	-0,102
-374,073	10,452	0,045	-0,025
-373,058	102,545	-0,055	-0,047
-372,044	-200,000	-0,002	0,012
-371,029	458,014	0,071	-0,114
-370,015	-112,228	-0,142	-0,020
-369,000	800,000	0,021	0,068
-367,985	-3,381	-0,167	-0,084
-366,971	-200,000	0,004	-0,057
-365,956	289,594	0,055	-0,073
-364,942	800,000	0,030	-0,084
-363,927	40,962	-0,048	0,031
-362,912	800,000	0,017	0,039
-361,898	-200,000	0,009	-0,065
-360,883	800,000	-0,070	-0,191
-359,869	-200,000	-0,007	-0,049
-358,854	-27,430	0,080	-0,033
-357,839	74,546	-0,049	-0,037
-356,825	18,693	-0,064	0,037
-355,810	-200,000	-0,029	-0,122
-354,796	800,000	-0,062	-0,181
-353,781	91,907	-0,087	-0,071
-352,766	498,199	0,050	-0,083
-351,752	-200,000	-0,012	0,062
-350,737	211,270	0,061	-0,069
-349,723	-89,620	-0,114	-0,024
-348,708	103,707	0,089	-0,076
-347,693	323,432	-0,039	-0,055
-346,679	-79,459	-0,106	0,026
-345,664	137,312	-0,114	-0,108
-344,650	-200,000	-0,012	0,049
-343,635	20,108	-0,056	0,033
-342,620	800,000	0,059	0,139
-341,606	800,000	-0,003	0,007
-340,591	-63,099	-0,132	-0,039
-339,577	343,597	0,110	-0,157
-338,562	-200,000	-0,065	-0,232
-337,548	-13,038	0,098	0,046
-336,533	-200,000	0,055	0,194
-335,518	-147,279	0,212	-0,013
-334,504	-48,271	-0,120	0,042
-333,489	47,457	-0,092	-0,062
-332,475	-104,037	0,153	0,026
-331,460	800,000	-0,038	-0,110
-330,445	-85,736	-0,017	0,004
-329,431	-104,203	-0,085	0,014
-328,416	-87,823	0,062	0,013
-327,402	-100,039	0,098	0,017
-326,387	-200,000	-0,004	-0,034
-325,372	457,609	-0,044	-0,071
-324,358	-200,000	-0,027	-0,122
-323,343	-120,632	0,164	0,020
-322,329	699,946	0,004	0,007
-321,314	-52,262	0,073	-0,024
-320,299	56,524	0,132	0,093
-319,285	226,914	-0,061	-0,071
-318,270	-200,000	-0,009	-0,043
-317,256	-71,133	0,036	-0,010
-316,241	117,374	-0,038	0,034
-315,226	13,761	-0,048	-0,027
-314,212	177,420	0,074	0,078
-313,197	213,888	0,059	0,067
-312,183	-200,000	-0,038	0,196
-311,168	748,193	-0,064	-0,125
-310,153	-174,037	-0,119	-0,002
-309,139	-15,493	-0,055	-0,025
-308,124	200,514	-0,068	0,075
-307,110	20,114	0,066	0,038
-306,095	697,849	0,023	0,043
-305,080	-35,189	-0,068	-0,027
-304,066	-120,159	-0,139	-0,017
-303,051	-200,000	-0,018	-0,157
-302,037	-92,587	0,031	-0,006
-301,022	-200,000	0,004	0,096
-300,008	235,164	0,035	0,042
-298,993	303,743	0,066	-0,088
-297,978	-200,000	-0,009	0,115
-296,964	-200,000	0,003	-0,021
-295,949	119,819	-0,038	0,034
-294,935	416,541	-0,058	-0,090
-293,920	-9,699	-0,118	0,056
-292,905	-86,195	0,194	0,043
-291,891	-200,000	0,008	-0,112
-290,876	-30,100	-0,065	0,027
-289,862	800,000	0,054	-0,119
-288,847	-200,000	0,014	-0,052
-287,832	771,293	-0,020	-0,040
-286,818	-200,000	0,010	0,043
-285,803	205,420	-0,060	-0,068
-284,789	-191,313	0,202	0,001
-283,774	-48,247	0,024	-0,008
-282,759	359,900	0,063	0,092
-281,745	71,495	0,055	-0,041
-280,730	613,469	-0,086	-0,155
-279,716	702,768	-0,030	0,058
-278,701	104,679	0,029	0,025
-277,686	-92,216	-0,103	-0,021
-276,672	-200,000	-0,001	0,067
-275,657	-200,000	0,026	0,164
-274,643	44,087	0,082	-0,054
-273,628	-200,000	-0,014	-0,075
-272,613	-128,344	0,041	0,004
-271,599	800,000	0,019	0,051
-270,584	-43,748	0,143	0,052
-269,570	-200,000	-0,006	-0,028
-268,555	30,930	-0,075	-0,046
-267,540	361,397	-0,046	0,066
-266,526	321,176	-0,012	-0,017
-265,511	-78,310	-0,073	-0,018
-264,497	-200,000	-0,010	-0,186
-263,482	70,261	0,087	-0,065
-262,467	-8,116	-0,096	0,047
-261,453	49,928	0,095	0,064
-260,438	800,000	0,022	-0,067
-259,424	242,965	0,026	-0,032
-258,409	800,000	0,030	-0,066
-257,395	800,000	-0,042	0,105
-256,380	469,166	0,059	0,097
-255,365	354,666	-0,052	0,075
-254,351	-200,000	0,037	-0,150
-253,336	-15,410	-0,119	0,055
-252,322	118,549	-0,099	-0,088
-251,307	800,000	-0,039	-0,089
-250,292	800,000	-0,072	0,149
-249,278	-77,264	0,149	0,037
-248,263	-200,000	-0,026	0,108
-247,249	103,311	-0,013	0,011
-246,234	-141,475	0,054	-0,004
-245,219	77,111	-0,052	0,040
-244,205	395,825	0,059	0,089
-243,190	86,336	0,088	0,070
-242,176	24,081	-0,065	0,038
-241,161	800,000	-0,038	0,118
-240,146	304,219	0,066	0,088
-239,132	800,000	0,059	0,181
-238,117	-39,184	-0,086	-0,033
-237,103	76,159	0,013	0,010
-236,088	-200,000	0,000	0,104
-235,073	-200,000	-0,029	0,136
-234,059	262,343	-0,032	0,040
-233,044	-87,090	0,109	-0,024
-232,030	7,102	0,021	0,011
-231,015	-200,000	-0,001	-0,132
-230,000	85,679	-0,055	0,043
-228,986	92,020	-0,076	-0,062
-227,971	-32,319	-0,045	-0,018
-226,957	-89,137	0,134	0,028
-225,942	-200,000	0,001	0,019
-224,927	-80,464	-0,033	-0,008
-223,913	312,418	-0,016	-0,022
-222,898	-200,000	-0,038	-0,137
-221,884	800,000	0,020	-0,053
-220,869	-91,216	0,034	0,007
-219,855	247,927	0,068	0,083
-218,840	-166,723	-0,056	0,002
-217,825	800,000	-0,027	0,066
-216,811	54,155	-0,114	-0,079
-215,796	153,314	-0,080	0,079
-214,782	-200,000	0,032	-0,115
-213,767	800,000	-0,047	0,140
-212,752	-25,333	0,034	0,015
-211,738	-200,000	0,002	0,049
-210,723	0,294	0,126	-0,065
-209,709	30,353	-0,111	-0,068
-208,694	800,000	-0,026	-0,074
-207,679	-130,557	-0,044	0,004
-206,665	41,530	-0,085	-0,055
-205,650	-117,144	0,099	0,013
-204,636	116,570	-0,082	0,072
-203,621	-24,093	-0,123	0,053
-202,606	191,549	0,069	-0,075
-201,592	291,251	-0,059	0,077
-200,577	-44,090	0,092	0,033
-199,563	800,000	-0,040	-0,087
-198,548	-101,688	0,151	0,026
-197,533	800,000	0,029	-0,076
-196,519	-200,000	0,002	0,058
-195,504	334,924	-0,154	-0,215
-194,490	800,000	0,044	-0,110
-193,475	-5,185	0,059	0,029
-192,460	-105,270	0,028	-0,005
-191,446	-200,000	0,021	-0,096
-190,431	-200,000	0,002	0,049
-189,417	-200,000	0,013	0,043
-188,402	117,370	0,053	0,047
-187,387	-3,878	-0,067	-0,033
-186,373	113,652	-0,109	-0,095
-185,358	-200,000	0,003	-0,076
-184,344	-139,329	-0,048	0,004
-183,329	66,080	0,036	0,026
-182,315	800,000	-0,063	0,128
-181,300	800,000	-0,069	0,172
-180,285	-200,000	-0,022	0,086
-179,271	143,234	-0,065	-0,062
-178,256	-200,000	0,023	0,093
-177,242	35,861	0,059	0,037
-176,227	-200,000	-0,006	0,045
-175,212	-200,000	0,032	-0,104
-174,198	800,000	-0,063	-0,135
-173,183	71,738	-0,183	0,136
-172,169	163,917	-0,038	0,038
-171,154	525,493	-0,009	-0,016
-170,139	-160,496	-0,031	-0,001
-169,125	-163,027	0,071	0,002
-168,110	-67,103	0,097	0,027
-167,096	50,776	0,055	0,037
-166,081	-71,350	0,003	0,001
-165,066	-98,653	0,049	-0,009
-164,052	800,000	0,023	-0,069
-163,037	-200,000	0,009	-0,042
-162,023	-19,063	0,044	0,020
-161,008	61,965	0,032	0,023
-159,993	149,895	-0,047	-0,045
-158,979	14,390	-0,020	-0,011
-157,964	-200,000	-0,019	-0,135
-156,950	-200,000	-0,034	0,125
-155,935	37,895	0,070	-0,045
-154,920	800,000	0,010	0,022
-153,906	800,000	0,071	0,196
-152,891	-172,755	0,031	0,001
-151,877	-200,000	0,007	-0,067
-150,862	64,978	-0,081	0,059
-149,847	288,064	-0,031	-0,040
-148,833	116,947	0,081	-0,072
-147,818	346,865	-0,040	-0,057
-146,804	-200,000	-0,007	0,065
-145,789	800,000	-0,007	-0,017
-144,775	-200,000	-0,037	-0,164
-143,760	-87,286	0,122	-0,026
-142,745	561,947	0,019	-0,033
-141,731	-88,127	-0,156	0,033
-140,716	-200,000	-0,003	0,133
-139,702	-200,000	0,005	0,097
-138,687	152,202	-0,111	0,109
-137,672	800,000	0,041	0,093
-136,658	-200,000	0,023	-0,213
-135,643	211,984	-0,058	-0,066
-134,629	159,991	-0,085	0,085
-133,614	-94,320	0,030	0,006
-132,599	36,094	-0,063	-0,040
-131,585	-96,090	0,101	0,019
-130,570	-200,000	-0,002	-0,049
-129,556	32,067	-0,126	-0,078
-128,541	-200,000	0,004	-0,059
-127,526	-101,958	-0,142	-0,024
-126,512	148,411	0,096	0,093
-125,497	-200,000	0,020	0,069
-124,483	20,406	0,079	0,046
-123,468	313,811	0,085	0,115
-122,453	-13,065	-0,043	-0,020
-121,439	171,133	-0,055	-0,056
-120,424	83,581	-0,041	0,032
-119,410	160,054	0,058	0,058
