DTS Sentinel unit serial number:	SN410029Multiplexer serial number:	ORYXHardware model number:	OX2-SRSoftware version number:	ORYX F/W v4,00 Oryx Data Collector v3.7.2.0data status	okinstallation	B6 Nyhavnadifferential loss correction	single-endedforward channel	channel 2reverse channel	N/Adate	2023/12/11time	03:45:08forward acquisition time	300,00reverse acquisition time	0,00gamma	499,1914k internal	0,3125k external	0,3125temperature offset calibration	1,0000default loss term (dB/km)	0,3820temperature slope calibration	1,0000multiplexer offset coefficient	1,0000multiplexer slope coefficient	1,0000fibre end	0,00T internal ref (°C)	21,01T ext. ref 1 (°C)	3,72T ext. ref 2 (°C)	3,74length (m)	temperature (°C)	Stokes	anti-Stokes-744,400	174,525	-0,027	-0,029
-743,385	-156,721	-0,277	0,013
-742,371	-200,000	-0,007	0,029
-741,356	201,043	-0,123	0,141
-740,342	-200,000	-0,004	0,053
-739,327	-52,481	-0,211	0,072
-738,312	-200,000	-0,006	0,043
-737,298	-107,556	-0,207	0,033
-736,283	249,295	0,115	0,145
-735,269	-116,676	-0,133	-0,018
-734,254	49,340	-0,021	0,015
-733,239	-121,985	-0,323	-0,039
-732,225	383,115	0,021	-0,033
-731,210	33,306	-0,080	0,052
-730,196	-200,000	0,029	-0,122
-729,181	87,313	0,052	0,043
-728,167	-112,280	-0,047	0,007
-727,152	-65,808	0,045	-0,013
-726,137	356,698	-0,111	-0,165
-725,123	42,885	-0,053	0,036
-724,108	-200,000	0,013	-0,092
-723,094	76,603	0,036	-0,028
-722,079	71,628	-0,110	-0,085
-721,064	476,307	0,033	-0,056
-720,050	53,985	0,062	-0,045
-719,035	800,000	0,014	-0,039
-718,021	-35,570	-0,070	0,028
-717,006	585,097	0,074	-0,135
-715,991	800,000	0,013	-0,027
-714,977	-131,999	-0,021	0,002
-713,962	397,859	-0,049	0,076
-712,948	157,181	0,047	-0,048
-711,933	800,000	-0,060	-0,168
-710,918	214,716	0,084	-0,099
-709,904	502,213	-0,057	-0,099
-708,889	317,870	-0,178	-0,251
-707,875	-160,269	-0,184	-0,007
-706,860	-110,909	0,046	0,007
-705,845	-25,671	0,133	0,058
-704,831	128,807	0,104	0,098
-703,816	-38,447	-0,036	-0,014
-702,802	-200,000	0,004	-0,019
-701,787	428,175	0,017	-0,028
-700,772	179,164	-0,063	0,068
-699,758	406,517	-0,100	0,158
-698,743	110,665	0,053	0,048
-697,729	-83,468	0,055	-0,013
-696,714	-99,854	-0,104	0,019
-695,699	608,997	-0,025	0,047
-694,685	221,471	0,066	-0,079
-693,670	-200,000	-0,000	-0,188
-692,656	-145,173	0,047	-0,003
-691,641	-38,300	0,036	-0,014
-690,627	359,482	0,029	0,043
-689,612	6,531	0,055	-0,030
-688,597	800,000	-0,018	-0,049
-687,583	289,774	-0,072	0,098
-686,568	112,268	-0,062	-0,055
-685,554	220,584	-0,060	-0,072
-684,539	368,140	-0,013	-0,019
-683,524	-143,405	0,118	0,008
-682,510	-200,000	-0,029	-0,118
-681,495	-71,848	-0,084	0,023
-680,481	-76,490	-0,121	0,031
-679,466	800,000	0,005	-0,012
-678,451	-86,333	0,059	0,013
-677,437	506,881	-0,077	-0,133
-676,422	290,800	-0,023	0,031
-675,408	-39,735	0,067	0,026
-674,393	-144,116	-0,118	-0,008
-673,378	336,051	-0,067	-0,097
-672,364	126,278	-0,106	-0,100
-671,349	-50,893	-0,063	-0,022
-670,335	-200,000	0,024	-0,115
-669,320	-200,000	-0,016	-0,099
-668,305	232,596	0,098	0,120
-667,291	-61,157	-0,098	0,031
-666,276	125,314	-0,075	-0,070
-665,262	-200,000	0,015	-0,118
-664,247	62,800	0,045	0,033
-663,232	-62,432	-0,046	-0,014
-662,218	32,198	-0,047	-0,030
-661,203	-147,338	-0,138	-0,009
-660,189	-200,000	0,007	0,027
-659,174	800,000	0,057	-0,140
-658,159	800,000	0,033	-0,085
-657,145	718,753	-0,052	-0,103
-656,130	142,379	0,046	-0,046
-655,116	-200,000	-0,008	0,036
-654,101	-35,924	0,108	-0,043
-653,086	-53,772	-0,104	-0,035
-652,072	800,000	0,027	0,073
-651,057	726,197	-0,095	-0,189
-650,043	-200,000	-0,002	0,022
-649,028	-125,985	-0,056	-0,006
-648,014	800,000	-0,055	-0,177
-646,999	-158,123	-0,198	-0,008
-645,984	255,042	0,083	0,106
-644,970	180,569	-0,040	0,044
-643,955	-200,000	-0,007	-0,045
-642,941	800,000	-0,050	-0,129
-641,926	-122,511	0,076	-0,009
-640,911	359,540	-0,026	0,039
-639,897	636,094	0,083	0,158
-638,882	35,065	0,078	0,051
-637,868	-200,000	-0,001	-0,018
-636,853	-96,160	-0,163	-0,032
-635,838	-34,034	-0,117	0,048
-634,824	-79,992	-0,063	-0,015
-633,809	-200,000	0,007	0,234
-632,795	-154,636	-0,057	0,003
-631,780	-43,365	-0,038	-0,014
-630,765	516,008	0,063	0,109
-629,751	-16,498	-0,120	-0,056
-628,736	-200,000	-0,030	-0,148
-627,722	800,000	-0,009	0,025
-626,707	83,741	-0,067	-0,055
-625,692	14,044	0,034	-0,020
-624,678	185,232	0,078	0,086
-623,663	-200,000	-0,008	-0,076
-622,649	395,464	-0,022	-0,034
-621,634	-81,166	-0,056	-0,014
-620,619	-57,465	-0,062	0,020
-619,605	-200,000	0,011	-0,075
-618,590	37,678	0,063	0,042
-617,576	-200,000	-0,017	-0,123
-616,561	400,991	-0,018	-0,029
-615,546	-200,000	-0,005	-0,208
-614,532	-182,751	-0,094	-0,001
-613,517	-200,000	0,005	0,067
-612,503	800,000	0,013	-0,036
-611,488	246,608	0,044	-0,055
-610,474	800,000	0,039	-0,107
-609,459	-200,000	-0,011	0,077
-608,444	-200,000	-0,019	-0,074
-607,430	176,961	-0,025	-0,027
-606,415	143,271	-0,062	-0,061
-605,401	-200,000	-0,009	-0,036
-604,386	142,080	0,037	-0,036
-603,371	58,556	-0,012	0,009
-602,357	-200,000	0,012	-0,114
-601,342	-161,448	0,145	-0,005
-600,328	114,226	-0,060	-0,054
-599,313	-91,842	0,113	0,024
-598,298	13,259	-0,141	-0,081
-597,284	-40,847	-0,067	0,026
-596,269	-132,338	0,144	-0,014
-595,255	-200,000	-0,002	-0,055
-594,240	-142,204	0,067	0,005
-593,225	3,445	-0,065	0,035
-592,211	-85,015	-0,094	-0,022
-591,196	-200,000	-0,012	-0,122
-590,182	-200,000	0,015	0,148
-589,167	-78,314	0,079	-0,020
-588,152	-83,254	0,133	0,031
-587,138	800,000	0,066	0,160
-586,123	-39,807	0,029	-0,011
-585,109	390,410	-0,028	0,043
-584,094	-25,524	0,021	0,009
-583,079	200,865	0,076	0,087
-582,065	-164,159	-0,021	0,001
-581,050	-200,000	-0,003	-0,060
-580,036	-120,406	-0,066	0,008
-579,021	-200,000	-0,009	0,165
-578,006	-200,000	0,011	-0,067
-576,992	-200,000	-0,004	0,026
-575,977	-115,644	0,069	-0,010
-574,963	532,511	-0,023	-0,040
-573,948	143,071	-0,095	0,094
-572,934	-57,410	-0,058	0,019
-571,919	-53,357	-0,056	-0,019
-570,904	237,386	-0,036	-0,044
-569,890	32,551	-0,100	-0,064
-568,875	192,154	0,070	-0,078
-567,861	19,890	-0,135	0,080
-566,846	-200,000	0,013	0,096
-565,831	244,831	-0,018	-0,023
-564,817	-27,040	0,050	-0,021
-563,802	-200,000	-0,019	-0,075
-562,788	-200,000	0,004	0,030
-561,773	281,498	0,034	0,046
-560,758	800,000	-0,009	-0,028
-559,744	157,543	0,040	-0,041
-558,729	-200,000	-0,002	0,062
-557,715	-163,247	-0,094	-0,003
-556,700	800,000	0,045	-0,139
-555,685	780,851	-0,030	-0,061
-554,671	-200,000	-0,002	0,015
-553,656	-9,966	-0,056	-0,027
-552,642	-46,130	-0,037	0,013
-551,627	-200,000	-0,008	-0,048
-550,612	800,000	0,010	-0,028
-549,598	-200,000	-0,003	0,030
-548,583	-200,000	0,009	-0,067
-547,569	800,000	0,013	-0,040
-546,554	96,883	-0,009	0,007
-545,539	53,908	0,022	-0,015
-544,525	-200,000	-0,015	-0,112
-543,510	-145,584	0,049	0,003
-542,496	79,351	-0,067	-0,053
-541,481	-102,085	0,039	0,007
-540,466	157,538	0,072	-0,074
-539,452	7,925	0,085	0,047
-538,437	-34,460	-0,059	0,024
-537,423	629,340	0,064	0,121
-536,408	-200,000	0,022	-0,112
-535,393	-200,000	-0,001	-0,038
-534,379	2,452	0,056	0,030
-533,364	416,712	0,055	0,087
-532,350	43,683	-0,033	0,022
-531,335	189,409	-0,067	-0,074
-530,321	-68,018	0,125	-0,036
-529,306	-98,749	-0,123	0,023
-528,291	-185,000	-0,075	0,001
-527,277	-200,000	-0,028	-0,101
-526,262	-200,000	-0,011	-0,051
-525,248	394,911	0,086	-0,133
-524,233	-200,000	-0,074	0,000
-523,218	199,682	0,048	-0,054
-522,204	140,968	-0,099	0,097
-521,189	144,347	-0,029	-0,029
-520,175	208,988	-0,119	0,138
-519,160	-135,482	0,046	-0,004
-518,145	-38,557	0,040	-0,015
-517,131	23,336	0,025	0,015
-516,116	232,070	-0,060	-0,072
-515,102	-3,869	-0,032	0,016
-514,087	-200,000	-0,026	-0,101
-513,072	800,000	0,017	-0,053
-512,058	64,493	-0,072	-0,054
-511,043	-200,000	-0,003	0,060
-510,029	-47,956	0,132	-0,047
-509,014	-200,000	-0,024	0,131
-507,999	73,383	0,057	-0,044
-506,985	-104,640	-0,177	-0,030
-505,970	-69,353	-0,174	-0,049
-504,956	292,423	-0,046	-0,062
-503,941	-2,376	0,032	-0,016
-502,926	86,898	0,064	-0,053
-501,912	-49,020	0,083	0,029
-500,897	800,000	-0,031	-0,084
-499,883	154,305	0,046	0,046
-498,868	-6,739	-0,122	-0,061
-497,853	-119,328	0,179	0,023
-496,839	-200,000	0,015	0,103
-495,824	214,242	0,018	-0,022
-494,810	214,384	0,066	-0,077
-493,795	20,765	-0,085	0,051
-492,781	800,000	0,027	-0,080
-491,766	38,553	-0,088	-0,058
-490,751	-200,000	-0,014	-0,101
-489,737	132,508	0,062	-0,059
-488,722	43,871	0,073	0,050
-487,708	127,601	0,071	0,067
-486,693	-0,586	-0,018	0,010
-485,678	679,307	0,030	-0,058
-484,664	99,142	-0,084	0,072
-483,649	255,828	0,028	0,035
-482,635	-200,000	-0,015	-0,064
-481,620	310,319	-0,016	-0,022
-480,605	-30,568	-0,069	-0,029
-479,591	-43,967	0,168	-0,062
-478,576	-127,937	0,095	0,010
-477,562	-5,099	-0,113	0,057
-476,547	800,000	0,018	0,045
-475,532	-40,229	0,095	-0,036
-474,518	-46,628	-0,040	0,014
-473,503	271,366	0,038	0,050
-472,489	-200,000	-0,004	-0,076
-471,474	32,926	0,058	0,037
-470,459	258,674	0,024	0,031
-469,445	-104,773	-0,122	-0,021
-468,430	-200,000	-0,014	0,067
-467,416	-130,313	0,208	-0,021
-466,401	25,219	0,236	0,144
-465,386	300,874	0,019	-0,026
-464,372	-200,000	-0,014	0,103
-463,357	-39,884	0,082	0,031
-462,343	-200,000	0,006	-0,060
-461,328	485,045	-0,055	0,093
-460,313	-200,000	0,005	0,113
-459,299	-200,000	-0,015	0,100
-458,284	-107,437	0,137	-0,022
-457,270	21,238	-0,068	-0,040
-456,255	-200,000	0,014	0,066
-455,241	-38,788	-0,037	-0,014
-454,226	-200,000	-0,010	0,056
-453,211	-182,791	0,057	0,001
-452,197	-140,998	0,104	0,008
-451,182	45,892	0,144	0,098
-450,168	-200,000	0,005	0,242
-449,153	273,738	0,063	-0,082
-448,138	800,000	-0,008	-0,027
-447,124	-100,816	-0,024	0,004
-446,109	-72,335	0,071	-0,019
-445,095	800,000	0,019	0,048
-444,080	8,175	0,041	-0,022
-443,065	78,228	0,038	-0,030
-442,051	-77,594	-0,088	-0,022
-441,036	187,265	-0,057	-0,062
-440,022	-120,458	-0,043	-0,005
-439,007	-67,602	0,135	0,039
-437,992	-200,000	0,009	0,089
-436,978	341,420	0,118	0,170
-435,963	144,883	-0,144	0,141
-434,949	-200,000	-0,007	0,024
-433,934	-200,000	0,001	-0,044
-432,919	9,588	0,124	-0,069
-431,905	-31,895	-0,130	-0,053
-430,890	800,000	0,061	0,168
-429,876	-83,912	0,220	0,051
-428,861	-108,716	0,089	-0,014
-427,846	-20,467	0,105	0,047
-426,832	-75,946	0,120	-0,031
-425,817	-5,465	-0,092	-0,046
-424,803	-200,000	-0,016	-0,089
-423,788	-200,000	0,001	-0,066
-422,773	-139,949	0,072	-0,006
-421,759	-200,000	0,010	0,050
-420,744	-17,453	0,107	-0,049
-419,730	-200,000	-0,008	-0,120
-418,715	218,134	-0,029	0,034
-417,701	800,000	0,055	0,173
-416,686	469,468	0,047	-0,079
-415,671	-12,938	0,128	0,061
-414,657	800,000	0,047	0,128
-413,642	-32,017	0,064	-0,026
-412,628	429,769	0,006	-0,009
-411,613	-200,000	0,014	-0,068
-410,598	-200,000	-0,013	-0,100
-409,584	-92,931	-0,141	-0,029
-408,569	-200,000	0,002	-0,007
-407,555	205,833	0,080	0,092
-406,540	83,556	-0,115	0,092
-405,525	-47,412	-0,090	0,032
-404,511	-136,708	-0,115	-0,010
-403,496	167,158	0,064	-0,066
-402,482	520,933	0,091	0,157
-401,467	800,000	0,080	0,176
-400,452	104,723	-0,061	-0,053
-399,438	-200,000	0,015	0,055
-398,423	-106,649	0,038	-0,006
-397,409	301,631	-0,079	0,107
-396,394	800,000	-0,023	-0,059
-395,379	-47,734	0,055	-0,019
-394,365	263,637	0,043	-0,055
-393,350	283,990	-0,061	-0,081
-392,336	-200,000	-0,018	0,091
-391,321	-189,936	0,071	-0,001
-390,306	-200,000	0,041	-0,136
-389,292	-0,523	-0,134	0,070
-388,277	-23,811	-0,082	0,036
-387,263	19,211	0,031	0,018
-386,248	332,300	0,075	0,106
-385,233	-84,929	-0,069	0,016
-384,219	28,021	-0,051	-0,031
-383,204	84,801	-0,050	-0,040
-382,190	-200,000	0,023	-0,084
-381,175	131,598	-0,052	0,049
-380,160	-200,000	0,009	0,081
-379,146	-200,000	-0,012	0,194
-378,131	92,390	0,037	0,030
-377,117	800,000	-0,011	0,033
-376,102	70,514	0,047	0,035
-375,088	53,450	-0,038	-0,027
-374,073	-17,860	-0,124	-0,057
-373,058	-149,612	0,062	0,004
-372,044	-29,285	-0,116	0,049
-371,029	114,504	-0,086	0,077
-370,015	80,724	0,065	0,052
-369,000	-200,000	-0,024	-0,084
-367,985	156,213	-0,039	0,040
-366,971	-200,000	-0,037	-0,182
-365,956	800,000	0,027	0,065
-364,942	800,000	0,020	0,062
-363,927	-200,000	-0,006	0,101
-362,912	-54,914	-0,093	-0,030
-361,898	772,807	-0,033	-0,067
-360,883	-200,000	0,055	-0,178
-359,869	800,000	0,042	-0,089
-358,854	258,476	0,054	0,069
-357,839	-200,000	-0,009	-0,066
-356,825	-58,187	-0,120	0,038
-355,810	-47,754	-0,121	0,043
-354,796	502,712	-0,048	-0,082
-353,781	782,458	-0,081	-0,164
-352,766	-200,000	0,010	-0,093
-351,752	120,365	0,086	-0,079
-350,737	99,788	0,052	-0,044
-349,723	102,651	0,189	-0,162
-348,708	97,856	-0,087	-0,073
-347,693	200,189	-0,108	-0,122
-346,679	-42,417	0,031	-0,012
-345,664	-200,000	-0,001	-0,018
-344,650	800,000	-0,027	-0,076
-343,635	-19,797	0,043	0,019
-342,620	-78,458	0,015	0,004
-341,606	27,092	-0,068	0,042
-340,591	-0,203	0,052	0,027
-339,577	-7,359	-0,028	-0,014
-338,562	-106,303	0,139	-0,023
-337,548	-1,701	0,100	-0,051
-336,533	800,000	0,039	0,092
-335,518	-80,907	-0,070	0,017
-334,504	-46,447	0,108	0,039
-333,489	666,223	-0,063	-0,120
-332,475	-200,000	-0,010	-0,129
-331,460	55,591	-0,066	-0,047
-330,445	504,946	-0,028	-0,048
-329,431	-35,395	-0,093	-0,037
-328,416	800,000	0,016	0,040
-327,402	69,270	0,033	0,025
-326,387	-19,570	-0,048	0,022
-325,372	221,001	0,031	-0,036
-324,358	-157,991	-0,182	-0,008
-323,343	24,645	-0,105	-0,064
-322,329	800,000	-0,014	-0,030
-321,314	-107,106	-0,084	-0,014
-320,299	104,649	0,051	-0,044
-319,285	800,000	0,008	-0,022
-318,270	-200,000	0,009	-0,036
-317,256	-190,412	-0,207	0,002
-316,241	111,456	0,117	-0,103
-315,226	-200,000	-0,040	-0,183
-314,212	530,115	-0,101	0,175
-313,197	-200,000	0,031	0,100
-312,183	-200,000	-0,035	0,171
-311,168	3,317	0,114	0,060
-310,153	-174,254	-0,035	0,001
-309,139	-39,712	-0,067	-0,026
-308,124	-33,524	0,073	0,029
-307,110	-200,000	-0,017	0,162
-306,095	160,460	0,044	-0,045
-305,080	-200,000	-0,002	-0,010
-304,066	-200,000	-0,011	-0,050
-303,051	28,111	0,114	-0,070
-302,037	-103,270	-0,044	0,008
-301,022	229,378	0,088	-0,106
-300,008	113,883	0,102	0,090
-298,993	-200,000	0,000	0,189
-297,978	-14,122	-0,050	-0,024
-296,964	107,933	0,141	0,123
-295,949	80,868	-0,051	0,040
-294,935	-54,197	-0,086	0,028
-293,920	-85,286	0,189	-0,043
-292,905	389,670	-0,038	-0,058
-291,891	800,000	-0,009	0,019
-290,876	-200,000	-0,021	0,151
-289,862	73,785	-0,058	-0,044
-288,847	-59,704	-0,117	-0,037
-287,832	-25,147	0,138	0,060
-286,818	26,710	0,015	0,009
-285,803	500,463	-0,032	-0,054
-284,789	324,406	-0,008	-0,011
-283,774	232,587	-0,029	0,035
-282,759	139,960	0,052	-0,050
-281,745	244,221	0,025	-0,031
-280,730	26,636	-0,086	-0,052
-279,716	-52,472	0,117	-0,039
-278,701	464,895	-0,048	0,078
-277,686	-104,036	0,042	-0,007
-276,672	103,049	-0,089	-0,076
-275,657	-200,000	0,028	0,091
-274,643	564,868	-0,039	-0,069
-273,628	114,226	-0,089	-0,079
-272,613	11,675	0,023	-0,013
-271,599	-1,221	0,085	-0,044
-270,584	-61,137	0,102	0,031
-269,570	-200,000	-0,018	0,106
-268,555	15,072	0,046	-0,026
-267,540	-200,000	0,028	0,110
-266,526	-56,735	0,014	0,005
-265,511	-200,000	0,001	-0,058
-264,497	30,291	-0,044	-0,027
-263,482	-116,144	-0,029	0,004
-262,467	-200,000	0,021	0,072
-261,453	-200,000	0,020	0,087
-260,438	89,361	-0,045	0,037
-259,424	800,000	-0,056	-0,116
-258,409	-37,810	-0,102	0,040
-257,395	-200,000	-0,012	-0,045
-256,380	-37,025	-0,094	0,036
-255,365	192,466	-0,048	0,053
-254,351	15,197	-0,128	0,073
-253,336	-75,779	-0,087	-0,022
-252,322	82,104	0,055	0,044
-251,307	-200,000	-0,014	-0,164
-250,292	-39,465	-0,074	-0,028
-249,278	-7,775	0,071	0,035
-248,263	120,050	0,075	0,068
-247,249	130,809	0,056	0,053
-246,234	800,000	0,037	0,087
-245,219	-144,710	0,060	0,004
-244,205	-16,719	0,068	-0,031
-243,190	765,599	0,081	-0,161
-242,176	-147,252	0,070	0,004
-241,161	800,000	-0,027	0,070
-240,146	-119,555	0,045	-0,006
-239,132	-14,322	-0,072	0,034
-238,117	-23,571	-0,036	-0,016
-237,103	-68,847	-0,081	0,023
-236,088	495,369	0,065	0,110
-235,073	-200,000	0,024	-0,088
-234,059	-134,660	0,072	-0,006
-233,044	800,000	0,044	0,110
-232,030	265,675	-0,047	-0,059
-231,015	556,207	0,100	-0,177
-230,000	-200,000	-0,010	-0,065
-228,986	-200,000	0,020	-0,220
-227,971	-200,000	0,010	0,035
-226,957	113,041	0,071	0,063
-225,942	609,265	-0,029	0,054
-224,927	-64,327	0,140	-0,041
-223,913	800,000	0,013	0,028
-222,898	-132,127	-0,072	0,007
-221,884	421,894	-0,066	-0,104
-220,869	79,992	0,079	-0,062
-219,855	328,958	0,066	0,093
-218,840	-32,813	0,064	0,026
-217,825	-145,588	0,030	0,002
-216,811	331,963	-0,038	-0,054
-215,796	201,216	-0,081	-0,092
-214,782	47,971	0,091	-0,062
-213,767	-69,630	-0,102	0,028
-212,752	576,161	0,072	0,128
-211,738	174,213	-0,070	-0,074
-210,723	-200,000	0,011	0,055
-209,709	-159,752	-0,041	0,002
-208,694	78,302	-0,155	-0,121
-207,679	-200,000	0,007	-0,029
-206,665	800,000	0,025	-0,077
-205,650	5,708	0,055	0,030
-204,636	-200,000	0,029	0,106
-203,621	-100,950	-0,104	0,018
-202,606	46,207	-0,036	-0,024
-201,592	23,694	-0,073	0,044
-200,577	-200,000	0,012	0,048
-199,563	231,155	-0,028	0,034
-198,548	182,279	0,018	0,019
-197,533	44,064	-0,075	-0,050
-196,519	-3,305	-0,082	-0,042
-195,504	-200,000	0,006	-0,075
-194,490	-8,755	-0,054	0,026
-193,475	141,458	0,017	0,016
-192,460	-200,000	-0,018	0,144
-191,446	800,000	0,012	-0,031
-190,431	800,000	-0,005	-0,012
-189,417	-48,906	0,108	0,037
-188,402	800,000	-0,066	0,135
-187,387	-200,000	0,013	-0,050
-186,373	470,656	-0,020	0,033
-185,358	800,000	0,015	-0,033
-184,344	-200,000	0,005	-0,066
-183,329	-200,000	0,018	0,160
-182,315	672,358	-0,036	-0,068
-181,300	-92,014	-0,181	-0,037
-180,285	-139,418	0,078	0,006
-179,271	-121,836	-0,099	-0,012
-178,256	-184,494	-0,022	-0,000
-177,242	-81,407	0,072	-0,017
-176,227	334,491	0,054	0,076
-175,212	-200,000	-0,000	0,049
-174,198	294,563	0,033	0,045
-173,183	-40,068	-0,083	-0,031
-172,169	83,229	0,105	-0,083
-171,154	-59,053	0,032	0,010
-170,139	800,000	0,067	0,148
-169,125	-200,000	-0,005	0,151
-168,110	-200,000	-0,021	0,160
-167,096	452,507	0,081	0,131
-166,081	-200,000	0,019	0,119
-165,066	800,000	-0,065	0,139
-164,052	-200,000	0,006	-0,100
-163,037	800,000	-0,025	0,081
-162,023	-105,433	0,020	-0,003
-161,008	-33,646	-0,040	-0,016
-159,993	-200,000	-0,024	-0,097
-158,979	-200,000	-0,003	-0,138
-157,964	-200,000	-0,008	0,034
-156,950	18,456	0,085	0,049
-155,935	-200,000	-0,001	0,046
-154,920	94,295	-0,045	0,037
-153,906	-200,000	0,012	0,084
-152,891	5,736	-0,083	0,045
-151,877	3,741	-0,090	-0,048
-150,862	-147,023	-0,040	0,002
-149,847	-145,553	-0,066	-0,004
-148,833	-5,906	0,126	0,063
-147,818	-200,000	-0,008	0,045
-146,804	120,138	-0,090	-0,081
-145,789	51,219	0,012	-0,009
-144,775	-0,021	0,059	-0,030
-143,760	-200,000	-0,025	-0,115
-142,745	15,415	-0,049	-0,028
-141,731	253,492	-0,093	0,116
-140,716	294,448	0,062	-0,083
-139,702	77,740	0,179	0,139
-138,687	437,602	-0,070	0,112
-137,672	-57,661	-0,030	-0,010
-136,658	-70,339	-0,040	0,011
-135,643	226,102	-0,083	0,098
-134,629	-200,000	0,013	0,180
-133,614	71,269	0,038	0,029
-132,599	-92,406	0,117	-0,024
-131,585	-124,236	-0,091	0,010
-130,570	42,542	-0,080	0,053
-129,556	-200,000	0,004	-0,126
-128,541	-200,000	0,011	-0,041
-127,526	800,000	0,044	-0,108
-126,512	8,326	0,021	-0,011
-125,497	-200,000	0,006	0,025
-124,483	-200,000	0,011	0,050
-123,468	800,000	-0,049	-0,123
-122,453	177,372	-0,032	0,034
-121,439	83,281	-0,080	-0,063
-120,424	83,189	-0,073	0,058
