DTS Sentinel unit serial number:	SN410029Multiplexer serial number:	ORYXHardware model number:	OX2-SRSoftware version number:	ORYX F/W v4,00 Oryx Data Collector v3.7.2.0data status	okinstallation	B6 Nyhavnadifferential loss correction	single-endedforward channel	channel 2reverse channel	N/Adate	2023/12/09time	15:10:08forward acquisition time	300,00reverse acquisition time	0,00gamma	499,1914k internal	0,3133k external	0,3133temperature offset calibration	1,0000default loss term (dB/km)	0,3820temperature slope calibration	1,0000multiplexer offset coefficient	1,0000multiplexer slope coefficient	1,0000fibre end	0,00T internal ref (°C)	20,60T ext. ref 1 (°C)	4,43T ext. ref 2 (°C)	4,42length (m)	temperature (°C)	Stokes	anti-Stokes-744,400	-200,000	0,053	-0,187
-743,385	-55,382	-0,198	0,066
-742,371	-5,733	0,092	0,047
-741,356	-200,000	-0,279	0,000
-740,342	-4,119	0,113	-0,058
-739,327	-114,054	-0,201	0,029
-738,312	-200,000	0,008	-0,100
-737,298	-37,471	-0,323	-0,127
-736,283	-196,250	0,074	-0,000
-735,269	-68,762	-0,100	0,029
-734,254	632,150	0,033	-0,063
-733,239	-77,612	-0,367	-0,094
-732,225	-200,000	0,030	-0,129
-731,210	451,184	0,101	0,166
-730,196	800,000	-0,038	0,107
-729,181	-84,893	-0,155	-0,036
-728,167	-33,620	-0,077	-0,031
-727,152	-200,000	0,003	-0,066
-726,137	127,089	-0,110	-0,103
-725,123	-200,000	0,005	-0,083
-724,108	-135,103	-0,095	-0,008
-723,094	53,588	-0,036	-0,026
-722,079	96,698	-0,113	-0,096
-721,064	241,674	0,052	0,065
-720,050	84,613	0,032	0,026
-719,035	460,484	-0,014	-0,023
-718,021	206,291	-0,069	-0,080
-717,006	63,145	-0,083	-0,062
-715,991	50,430	-0,203	-0,142
-714,977	-19,205	-0,027	-0,012
-713,962	800,000	-0,026	-0,072
-712,948	188,328	-0,023	-0,026
-711,933	-200,000	-0,018	0,117
-710,918	-26,285	0,060	0,026
-709,904	613,785	-0,064	-0,119
-708,889	-171,052	-0,167	0,004
-707,875	-200,000	-0,019	0,090
-706,860	-200,000	0,003	0,078
-705,845	-93,063	-0,100	0,020
-704,831	-200,000	-0,049	0,180
-703,816	-200,000	-0,012	-0,097
-702,802	160,107	0,026	0,027
-701,787	-142,075	-0,148	-0,011
-700,772	-83,005	0,073	0,017
-699,758	-173,110	-0,089	-0,002
-698,743	-200,000	0,008	0,115
-697,729	170,867	0,037	0,039
-696,714	-200,000	-0,053	0,201
-695,699	-200,000	-0,008	-0,115
-694,685	-200,000	0,035	-0,195
-693,670	-3,103	-0,131	0,067
-692,656	-140,003	-0,015	-0,001
-691,641	-200,000	-0,029	-0,100
-690,627	800,000	0,050	0,111
-689,612	-200,000	0,019	0,076
-688,597	285,654	-0,009	-0,012
-687,583	-17,562	-0,107	-0,049
-686,568	50,341	-0,066	-0,046
-685,554	-72,454	-0,187	-0,051
-684,539	-64,453	0,029	0,009
-683,524	157,718	-0,055	-0,057
-682,510	800,000	0,087	0,237
-681,495	-20,514	-0,059	-0,027
-680,481	70,531	-0,137	0,105
-679,466	690,824	0,039	-0,076
-678,451	-200,000	-0,025	-0,093
-677,437	-200,000	0,016	-0,111
-676,422	119,604	0,031	0,029
-675,408	517,584	-0,005	0,009
-674,393	800,000	-0,013	0,042
-673,378	800,000	-0,067	-0,195
-672,364	-200,000	0,005	-0,023
-671,349	-200,000	-0,006	0,027
-670,335	-19,321	0,094	0,043
-669,320	-200,000	0,014	0,050
-668,305	-200,000	0,012	0,093
-667,291	-200,000	0,009	0,057
-666,276	38,134	-0,119	-0,078
-665,262	223,512	-0,051	-0,061
-664,247	800,000	-0,050	0,138
-663,232	435,846	-0,040	0,065
-662,218	-39,170	0,130	0,050
-661,203	-200,000	-0,014	0,111
-660,189	334,900	-0,074	-0,107
-659,174	-200,000	-0,003	0,023
-658,159	-43,837	-0,020	-0,007
-657,145	-24,278	-0,178	-0,078
-656,130	2,140	0,028	0,015
-655,116	800,000	0,045	0,130
-654,101	32,101	0,108	-0,069
-653,086	800,000	-0,023	-0,064
-652,072	800,000	0,056	-0,134
-651,057	-200,000	-0,006	0,038
-650,043	322,001	-0,043	-0,060
-649,028	22,964	-0,115	-0,069
-648,014	-51,948	-0,051	-0,017
-646,999	-200,000	-0,010	0,072
-645,984	-200,000	-0,041	-0,139
-644,970	-144,741	-0,157	-0,011
-643,955	238,399	0,069	-0,085
-642,941	116,454	-0,111	-0,100
-641,926	800,000	0,019	0,041
-640,911	-88,971	0,090	-0,020
-639,897	-79,925	-0,045	-0,011
-638,882	-200,000	0,030	-0,105
-637,868	138,478	-0,058	-0,057
-636,853	800,000	0,019	-0,057
-635,838	562,029	-0,037	-0,067
-634,824	-144,847	-0,091	-0,006
-633,809	21,206	0,027	0,016
-632,795	-200,000	-0,006	0,066
-631,780	-139,582	0,122	-0,009
-630,765	0,011	-0,057	-0,030
-629,751	62,387	-0,113	-0,083
-628,736	800,000	0,052	-0,139
-627,722	-200,000	0,008	-0,148
-626,707	-200,000	-0,006	0,046
-625,692	247,889	-0,031	-0,039
-624,678	800,000	-0,058	-0,122
-623,663	-112,838	-0,017	-0,002
-622,649	168,314	-0,130	-0,137
-621,634	322,543	0,089	0,125
-620,619	671,506	0,101	-0,194
-619,605	-48,656	-0,028	0,010
-618,590	800,000	-0,051	0,114
-617,576	-103,086	-0,152	0,026
-616,561	800,000	-0,068	0,141
-615,546	-114,932	0,203	0,028
-614,532	800,000	0,005	0,017
-613,517	-200,000	0,003	-0,066
-612,503	16,348	0,091	-0,053
-611,488	34,817	0,041	-0,027
-610,474	508,267	0,028	0,048
-609,459	187,155	0,010	-0,011
-608,444	-104,800	-0,174	-0,029
-607,430	130,086	0,070	0,066
-606,415	-96,011	-0,115	-0,022
-605,401	-100,304	-0,110	0,020
-604,386	290,783	0,063	0,085
-603,371	15,254	-0,085	0,049
-602,357	119,213	0,058	0,053
-601,342	341,781	0,091	0,132
-600,328	800,000	-0,060	-0,140
-599,313	800,000	0,022	0,068
-598,298	64,214	-0,084	-0,062
-597,284	165,234	0,022	-0,023
-596,269	-108,260	-0,099	-0,016
-595,255	800,000	0,046	0,125
-594,240	58,399	-0,140	-0,101
-593,225	-200,000	0,010	-0,230
-592,211	387,358	-0,019	0,029
-591,196	168,340	-0,116	0,122
-590,182	-200,000	-0,022	0,141
-589,167	-40,557	0,030	0,012
-588,152	-64,472	-0,112	0,033
-587,138	508,825	0,048	0,083
-586,123	27,537	-0,142	0,088
-585,109	38,246	0,040	-0,026
-584,094	386,483	0,049	0,075
-583,079	71,066	0,037	-0,028
-582,065	-63,148	-0,078	0,024
-581,050	-104,706	-0,027	-0,005
-580,036	320,641	-0,071	-0,100
-579,021	163,124	0,080	-0,083
-578,006	800,000	0,048	-0,147
-576,992	-39,627	-0,084	0,032
-575,977	54,146	0,080	-0,057
-574,963	-50,499	-0,116	-0,040
-573,948	-46,284	0,105	0,038
-572,934	433,570	-0,031	0,050
-571,919	177,636	-0,061	-0,065
-570,904	800,000	-0,036	-0,086
-569,890	548,508	0,043	0,076
-568,875	63,055	0,138	-0,102
-567,861	-200,000	0,002	0,012
-566,846	489,479	0,047	0,079
-565,831	-74,398	-0,036	0,009
-564,817	41,527	-0,069	-0,046
-563,802	16,206	-0,079	0,046
-562,788	254,575	-0,081	-0,103
-561,773	-60,791	0,080	0,025
-560,758	-28,794	-0,128	0,054
-559,744	553,076	0,005	0,009
-558,729	-9,233	0,130	-0,064
-557,715	125,722	-0,094	0,088
-556,700	-61,162	-0,164	-0,051
-555,685	4,974	0,061	0,033
-554,671	-144,790	0,096	-0,006
-553,656	57,682	0,080	0,057
-552,642	-200,000	-0,031	0,203
-551,627	197,940	0,027	-0,030
-550,612	480,842	-0,035	0,059
-549,598	800,000	-0,031	-0,075
-548,583	158,793	0,057	-0,059
-547,569	-16,686	-0,091	-0,042
-546,554	-200,000	-0,041	0,159
-545,539	165,131	-0,042	0,043
-544,525	-200,000	0,037	0,154
-543,510	27,669	-0,026	0,016
-542,496	-195,597	-0,104	0,001
-541,481	397,086	-0,040	-0,062
-540,466	-200,000	0,026	0,118
-539,452	-16,969	0,165	0,076
-538,437	-170,683	-0,078	0,002
-537,423	156,726	0,142	0,144
-536,408	137,898	0,050	-0,048
-535,393	-200,000	-0,008	-0,050
-534,379	30,145	-0,231	-0,145
-533,364	158,654	-0,041	-0,042
-532,350	762,341	-0,027	-0,055
-531,335	-129,091	0,088	0,009
-530,321	354,135	-0,039	-0,057
-529,306	728,222	-0,024	-0,047
-528,291	-200,000	-0,013	-0,080
-527,277	-79,045	-0,160	-0,040
-526,262	-69,207	-0,037	0,010
-525,248	-200,000	-0,006	-0,123
-524,233	56,717	0,118	0,085
-523,218	-100,432	-0,174	0,031
-522,204	445,725	-0,058	-0,095
-521,189	151,845	-0,047	-0,048
-520,175	10,219	0,055	-0,031
-519,160	800,000	0,038	-0,098
-518,145	800,000	0,047	0,139
-517,131	217,216	0,034	-0,040
-516,116	-110,849	-0,042	0,006
-515,102	130,295	0,029	0,027
-514,087	779,968	-0,042	-0,085
-513,072	-200,000	-0,010	-0,048
-512,058	101,528	0,073	-0,063
-511,043	590,546	-0,025	-0,045
-510,029	-147,834	0,166	-0,010
-509,014	430,642	0,027	0,043
-507,999	-14,306	0,029	-0,014
-506,985	-19,150	0,023	-0,010
-505,970	369,858	0,098	-0,147
-504,956	-200,000	0,001	-0,032
-503,941	508,082	0,053	-0,090
-502,926	-200,000	-0,013	0,093
-501,912	-200,000	0,002	-0,008
-500,897	-111,169	0,063	0,009
-499,883	699,982	-0,019	0,037
-498,868	39,103	-0,059	0,039
-497,853	-200,000	0,001	-0,061
-496,839	-79,098	0,085	-0,021
-495,824	-17,579	0,095	-0,044
-494,810	-45,048	0,046	0,017
-493,795	-200,000	-0,015	0,108
-492,781	157,808	0,053	0,054
-491,766	461,857	-0,070	-0,115
-490,751	-107,273	-0,103	-0,016
-489,737	252,536	0,022	0,028
-488,722	800,000	-0,022	0,058
-487,708	-200,000	0,005	0,085
-486,693	800,000	0,038	-0,088
-485,678	800,000	-0,052	0,122
-484,664	-200,000	0,001	-0,071
-483,649	162,050	0,029	0,030
-482,635	800,000	-0,045	-0,097
-481,620	-86,686	0,055	0,012
-480,605	140,196	-0,054	0,052
-479,591	407,021	-0,040	-0,062
-478,576	84,719	0,105	-0,084
-477,562	149,422	-0,070	-0,070
-476,547	800,000	-0,026	-0,069
-475,532	291,254	-0,126	-0,169
-474,518	-200,000	0,017	0,090
-473,503	110,670	0,129	0,114
-472,489	-12,252	-0,163	0,078
-471,474	340,267	0,034	-0,048
-470,459	199,584	-0,113	-0,128
-469,445	-22,860	0,033	0,015
-468,430	-86,916	0,045	0,010
-467,416	-200,000	0,035	0,132
-466,401	800,000	-0,042	0,100
-465,386	-105,537	0,010	-0,002
-464,372	589,589	-0,041	-0,075
-463,357	73,447	-0,038	0,029
-462,343	-200,000	-0,028	0,144
-461,328	37,586	-0,095	0,062
-460,313	-200,000	0,025	-0,085
-459,299	800,000	0,012	-0,032
-458,284	144,593	0,061	0,060
-457,270	510,157	-0,065	0,112
-456,255	-200,000	0,026	-0,126
-455,241	-1,612	-0,083	-0,043
-454,226	0,761	-0,006	-0,003
-453,211	-125,754	0,089	0,010
-452,197	-200,000	-0,003	-0,045
-451,182	87,955	-0,068	0,055
-450,168	-200,000	0,009	-0,103
-449,153	-38,242	0,024	0,009
-448,138	-32,351	-0,069	-0,028
-447,124	148,897	-0,056	0,056
-446,109	92,229	0,114	0,094
-445,095	-200,000	-0,013	-0,111
-444,080	69,626	0,103	0,078
-443,065	-200,000	0,009	0,164
-442,051	-200,000	0,006	-0,025
-441,036	131,371	0,036	-0,034
-440,022	-200,000	0,012	0,120
-439,007	307,059	0,045	-0,061
-437,992	-200,000	-0,015	-0,070
-436,978	-179,205	0,101	-0,002
-435,963	143,236	-0,085	0,083
-434,949	-72,421	0,046	0,012
-433,934	92,347	0,049	0,041
-432,919	-200,000	-0,028	-0,190
-431,905	-200,000	-0,006	0,104
-430,890	540,194	0,075	0,132
-429,876	-200,000	-0,006	0,040
-428,861	-200,000	-0,013	0,124
-427,846	-200,000	-0,023	-0,107
-426,832	112,587	0,062	-0,055
-425,817	-200,000	0,016	0,126
-424,803	344,656	0,065	0,094
-423,788	-45,026	0,089	0,032
-422,773	602,357	-0,041	0,076
-421,759	-121,601	-0,070	-0,008
-420,744	-167,190	0,044	-0,001
-419,730	800,000	0,016	0,035
-418,715	-48,573	-0,016	0,006
-417,701	800,000	0,036	-0,100
-416,686	-24,028	-0,134	-0,059
-415,671	178,052	0,042	0,045
-414,657	-200,000	0,013	0,067
-413,642	350,893	0,083	0,121
-412,628	667,826	-0,058	0,110
-411,613	-20,703	-0,049	-0,022
-410,598	38,512	0,043	-0,028
-409,584	-126,430	0,115	0,012
-408,569	800,000	-0,054	0,114
-407,555	17,515	0,022	0,013
-406,540	-60,502	0,078	0,024
-405,525	-67,269	-0,080	0,023
-404,511	-164,434	-0,023	0,001
-403,496	389,576	0,007	0,010
-402,482	-3,256	0,071	-0,036
-401,467	165,475	0,098	0,102
-400,452	-200,000	0,017	0,138
-399,438	674,869	-0,039	0,075
-398,423	25,792	-0,039	-0,024
-397,409	-145,481	-0,074	0,005
-396,394	189,893	-0,042	0,047
-395,379	-200,000	-0,010	-0,047
-394,365	-158,919	0,055	0,002
-393,350	-200,000	-0,045	0,206
-392,336	800,000	0,035	0,081
-391,321	-69,231	0,097	0,027
-390,306	-200,000	0,004	-0,148
-389,292	247,942	0,086	0,107
-388,277	189,457	0,070	0,077
-387,263	-3,545	0,123	-0,063
-386,248	-200,000	0,004	0,013
-385,233	-188,568	0,056	0,000
-384,219	-123,517	0,059	0,007
-383,204	80,957	-0,048	0,038
-382,190	23,648	0,085	-0,051
-381,175	3,438	0,053	0,028
-380,160	-200,000	-0,009	0,036
-379,146	-200,000	-0,020	0,076
-378,131	-85,786	0,147	-0,033
-377,117	-200,000	-0,008	-0,076
-376,102	626,681	-0,025	-0,047
-375,088	-126,197	-0,084	0,009
-374,073	314,043	0,048	0,066
-373,058	577,209	0,052	-0,093
-372,044	176,702	0,017	0,018
-371,029	800,000	0,042	0,135
-370,015	310,918	0,057	-0,079
-369,000	28,093	0,101	-0,062
-367,985	-147,586	-0,014	-0,001
-366,971	-112,493	-0,094	-0,014
-365,956	556,193	0,067	0,118
-364,942	-200,000	0,019	0,103
-363,927	39,111	0,111	-0,072
-362,912	234,902	-0,022	0,026
-361,898	-200,000	-0,024	-0,091
-360,883	-200,000	-0,014	-0,046
-359,869	-26,273	0,029	-0,012
-358,854	-30,662	-0,096	0,039
-357,839	-104,697	0,086	-0,014
-356,825	113,465	0,045	0,040
-355,810	128,946	0,097	0,091
-354,796	209,173	-0,060	-0,069
-353,781	-200,000	0,005	-0,112
-352,766	756,957	0,022	-0,043
-351,752	596,263	0,061	-0,112
-350,737	168,214	0,040	0,042
-349,723	172,132	0,060	0,063
-348,708	318,049	-0,038	-0,053
-347,693	27,845	-0,040	0,025
-346,679	12,222	-0,045	-0,025
-345,664	-110,261	0,080	-0,012
-344,650	-139,422	0,161	0,012
-343,635	-200,000	-0,004	-0,106
-342,620	235,703	0,051	-0,062
-341,606	-18,482	-0,027	0,012
-340,591	800,000	-0,048	0,100
-339,577	800,000	0,021	-0,050
-338,562	-200,000	-0,035	-0,127
-337,548	-200,000	-0,003	0,040
-336,533	-29,977	-0,019	-0,008
-335,518	-12,236	-0,047	0,022
-334,504	-12,667	-0,022	0,010
-333,489	-200,000	-0,027	0,091
-332,475	-200,000	-0,015	0,103
-331,460	317,524	-0,088	-0,121
-330,445	-67,760	0,136	-0,039
-329,431	-200,000	-0,004	-0,161
-328,416	-200,000	-0,011	-0,060
-327,402	-53,815	0,051	0,017
-326,387	20,630	0,031	-0,018
-325,372	-200,000	-0,004	0,021
-324,358	-60,061	-0,081	0,025
-323,343	431,109	0,050	0,079
-322,329	-200,000	0,015	0,059
-321,314	31,164	0,086	0,054
-320,299	210,574	0,043	-0,049
-319,285	41,224	-0,062	0,041
-318,270	333,798	-0,035	0,050
-317,256	-200,000	0,003	-0,075
-316,241	11,247	-0,161	-0,090
-315,226	411,125	0,030	-0,047
-314,212	-156,405	0,100	-0,004
-313,197	185,777	0,054	-0,058
-312,183	-61,832	0,119	-0,036
-311,168	54,912	-0,056	-0,039
-310,153	182,976	-0,098	-0,105
-309,139	790,052	0,055	-0,110
-308,124	-200,000	-0,000	0,011
-307,110	524,247	0,025	0,044
-306,095	800,000	-0,055	0,142
-305,080	800,000	0,037	0,082
-304,066	-200,000	-0,014	-0,139
-303,051	-131,592	-0,108	-0,010
-302,037	492,852	-0,079	-0,134
-301,022	-16,585	0,038	-0,018
-300,008	-107,997	-0,029	0,005
-298,993	-87,135	-0,162	0,036
-297,978	-98,099	-0,068	-0,013
-296,964	-80,247	-0,057	0,014
-295,949	-76,667	0,083	0,021
-294,935	-77,545	-0,108	0,027
-293,920	-97,116	0,089	-0,017
-292,905	180,287	0,075	0,081
-291,891	800,000	0,031	0,082
-290,876	-99,936	0,030	-0,005
-289,862	37,602	0,039	0,025
-288,847	-0,539	-0,157	-0,081
-287,832	800,000	0,012	-0,026
-286,818	16,665	0,051	-0,029
-285,803	-200,000	0,009	-0,072
-284,789	-14,935	0,170	0,079
-283,774	368,721	0,044	0,065
-282,759	-200,000	-0,012	-0,101
-281,745	461,081	0,041	-0,068
-280,730	800,000	-0,038	-0,094
-279,716	-18,429	0,095	-0,043
-278,701	-80,387	-0,017	0,004
-277,686	290,525	0,048	0,064
-276,672	310,184	0,064	0,087
-275,657	-200,000	-0,042	-0,151
-274,643	11,586	-0,117	0,065
-273,628	-94,837	0,085	0,017
-272,613	498,352	-0,052	-0,087
-271,599	104,984	0,014	0,012
-270,584	462,814	0,047	0,077
-269,570	370,488	-0,062	0,092
-268,555	212,198	0,082	0,095
-267,540	-200,000	0,002	-0,177
-266,526	-76,663	0,093	-0,024
-265,511	800,000	-0,021	-0,054
-264,497	-150,401	0,158	-0,009
-263,482	-200,000	0,005	0,187
-262,467	-200,000	-0,034	0,128
-261,453	-200,000	0,016	-0,116
-260,438	168,738	-0,138	-0,144
-259,424	-200,000	0,012	-0,057
-258,409	151,075	-0,076	-0,076
-257,395	308,845	0,060	-0,082
-256,380	167,202	0,031	0,032
-255,365	-19,942	0,093	0,042
-254,351	331,327	-0,032	-0,044
-253,336	-200,000	0,036	0,119
-252,322	-62,030	0,070	0,021
-251,307	117,656	0,044	0,040
-250,292	800,000	0,046	0,120
-249,278	-29,410	0,117	0,048
-248,263	-200,000	-0,008	-0,054
-247,249	-96,959	-0,117	-0,022
-246,234	-9,756	0,039	-0,019
-245,219	422,546	-0,057	-0,090
-244,205	-116,832	-0,077	0,010
-243,190	454,354	-0,022	-0,036
-242,176	-51,616	0,027	0,009
-241,161	-200,000	-0,026	0,127
-240,146	800,000	-0,017	-0,047
-239,132	-80,376	-0,047	0,011
-238,117	-136,480	-0,164	0,014
-237,103	216,821	-0,038	0,045
-236,088	800,000	-0,046	0,116
-235,073	177,459	0,074	0,079
-234,059	111,290	-0,027	-0,024
-233,044	-200,000	0,037	0,178
-232,030	-87,192	0,076	0,017
-231,015	82,113	0,058	-0,046
-230,000	601,679	0,031	0,056
-228,986	525,730	0,071	0,123
-227,971	-5,030	0,111	-0,055
-226,957	-158,976	0,087	0,004
-225,942	-96,866	-0,098	0,019
-224,927	-200,000	-0,005	0,109
-223,913	800,000	-0,042	-0,124
-222,898	-200,000	-0,036	-0,126
-221,884	292,028	-0,061	-0,081
-220,869	117,101	-0,072	-0,064
-219,855	-4,731	0,146	0,073
-218,840	37,779	0,093	-0,060
-217,825	-200,000	-0,021	-0,081
-216,811	-200,000	0,003	0,050
-215,796	35,989	0,012	-0,008
-214,782	344,190	0,020	0,029
-213,767	-200,000	-0,022	0,180
-212,752	-200,000	0,003	0,010
-211,738	800,000	0,027	-0,062
-210,723	800,000	0,036	-0,079
-209,709	800,000	-0,026	-0,065
-208,694	800,000	0,036	-0,097
-207,679	37,848	0,063	-0,041
-206,665	-33,807	0,036	0,014
-205,650	-146,334	-0,105	0,007
-204,636	41,275	-0,028	0,019
-203,621	81,087	0,048	0,038
-202,606	127,524	-0,072	-0,067
-201,592	137,814	-0,033	-0,032
-200,577	-91,842	-0,083	-0,017
-199,563	-33,084	-0,066	0,026
-198,548	459,229	-0,031	0,051
-197,533	34,311	0,010	-0,006
-196,519	-42,416	0,090	0,033
-195,504	-0,457	-0,082	-0,042
-194,490	35,171	-0,016	-0,010
-193,475	-151,032	-0,092	-0,005
-192,460	-28,735	0,088	0,037
-191,446	-200,000	-0,013	0,092
-190,431	800,000	0,062	0,157
-189,417	407,484	0,023	0,036
-188,402	-200,000	-0,036	-0,146
-187,387	346,719	-0,034	-0,049
-186,373	193,835	-0,062	-0,069
-185,358	800,000	-0,028	0,059
-184,344	-200,000	-0,003	-0,019
-183,329	25,188	-0,079	0,047
-182,315	-200,000	-0,018	-0,085
-181,300	-0,198	0,060	-0,031
-180,285	126,620	-0,035	-0,032
-179,271	13,552	-0,087	-0,049
-178,256	-15,230	0,045	0,021
-177,242	340,059	-0,036	0,051
-176,227	-200,000	0,010	-0,048
-175,212	29,826	0,035	0,022
-174,198	-200,000	-0,040	0,169
-173,183	-51,328	-0,044	0,015
-172,169	800,000	-0,058	-0,120
-171,154	448,355	-0,034	0,055
-170,139	-200,000	0,041	0,161
-169,125	128,195	0,048	0,045
-168,110	-115,066	0,088	0,012
-167,096	85,973	-0,123	0,098
-166,081	-112,129	0,156	0,023
-165,066	-5,249	-0,143	0,071
-164,052	-98,526	0,029	-0,005
-163,037	-200,000	0,010	-0,156
-162,023	-194,850	-0,051	0,000
-161,008	-4,023	-0,079	-0,039
-159,993	-104,354	0,059	-0,010
-158,979	37,911	-0,099	-0,064
-157,964	229,076	-0,083	-0,098
-156,950	350,927	0,092	-0,133
-155,935	160,464	0,076	0,077
-154,920	-200,000	0,009	-0,043
-153,906	-200,000	0,016	0,144
-152,891	-200,000	-0,012	0,148
-151,877	-91,523	-0,233	-0,048
-150,862	-27,703	-0,058	0,025
-149,847	241,789	-0,116	-0,141
-148,833	309,669	-0,017	0,023
-147,818	-200,000	0,002	0,123
-146,804	166,023	0,122	-0,126
-145,789	60,649	-0,074	0,053
-144,775	704,805	-0,039	0,075
-143,760	-3,316	0,154	-0,077
-142,745	255,223	-0,056	-0,070
-141,731	800,000	0,037	0,086
-140,716	-33,090	-0,009	-0,004
-139,702	-11,751	0,070	-0,033
-138,687	7,481	-0,027	0,015
-137,672	-115,534	-0,155	0,021
-136,658	334,532	0,081	-0,115
-135,643	54,586	-0,114	-0,080
-134,629	249,711	-0,023	0,028
-133,614	242,134	-0,087	0,106
-132,599	222,338	0,080	0,093
-131,585	-200,000	-0,011	0,077
-130,570	800,000	-0,025	-0,058
-129,556	-92,513	0,088	0,018
-128,541	-54,283	-0,140	-0,046
-127,526	-20,342	0,032	0,014
-126,512	-200,000	0,008	0,068
-125,497	-156,067	0,088	0,004
-124,483	-94,861	-0,113	-0,022
-123,468	-200,000	0,019	0,090
-122,453	-65,122	-0,042	-0,012
-121,439	128,187	-0,070	-0,065
-120,424	-75,938	0,134	0,034
-119,410	-36,167	0,059	0,023
