DTS Sentinel unit serial number:	SN410029Multiplexer serial number:	ORYXHardware model number:	OX2-SRSoftware version number:	ORYX F/W v4,00 Oryx Data Collector v3.7.2.0data status	okinstallation	B6 Nyhavnadifferential loss correction	single-endedforward channel	channel 2reverse channel	N/Adate	2023/12/08time	13:30:08forward acquisition time	300,00reverse acquisition time	0,00gamma	499,1914k internal	0,3159k external	0,3159temperature offset calibration	1,0000default loss term (dB/km)	0,3820temperature slope calibration	1,0000multiplexer offset coefficient	1,0000multiplexer slope coefficient	1,0000fibre end	0,00T internal ref (°C)	15,06T ext. ref 1 (°C)	-1,56T ext. ref 2 (°C)	-1,55length (m)	temperature (°C)	Stokes	anti-Stokes-744,400	156,957	0,148	0,151
-743,385	-90,602	-0,353	-0,075
-742,371	-108,471	0,178	0,028
-741,356	-83,061	-0,340	0,080
-740,342	-43,155	0,108	0,040
-739,327	-128,376	-0,268	0,028
-738,312	154,803	0,152	0,154
-737,298	-141,899	-0,474	0,034
-736,283	51,612	0,188	0,131
-735,269	-136,372	-0,334	0,028
-734,254	800,000	0,056	0,174
-733,239	-39,914	-0,405	-0,155
-732,225	-41,067	0,206	0,078
-731,210	-15,090	0,064	-0,030
-730,196	103,951	-0,135	0,117
-729,181	800,000	0,015	-0,042
-728,167	800,000	0,038	-0,105
-727,152	-66,496	-0,020	-0,006
-726,137	263,766	0,080	-0,102
-725,123	800,000	0,034	-0,078
-724,108	13,207	-0,161	-0,091
-723,094	-4,540	0,025	-0,012
-722,079	800,000	-0,029	-0,078
-721,064	-200,000	-0,003	0,069
-720,050	-200,000	0,002	0,048
-719,035	-200,000	0,063	-0,211
-718,021	139,035	-0,159	-0,154
-717,006	-200,000	-0,001	-0,035
-715,991	41,872	0,009	-0,006
-714,977	64,575	-0,119	-0,088
-713,962	-111,008	-0,157	0,023
-712,948	800,000	0,015	0,034
-711,933	169,685	-0,079	0,083
-710,918	31,097	-0,126	-0,080
-709,904	800,000	-0,031	-0,082
-708,889	98,637	-0,059	-0,050
-707,875	148,911	-0,117	-0,117
-706,860	-200,000	0,024	-0,232
-705,845	-200,000	-0,001	-0,040
-704,831	157,208	-0,107	0,109
-703,816	800,000	-0,061	-0,135
-702,802	19,935	-0,071	0,042
-701,787	231,781	0,059	-0,071
-700,772	145,767	-0,061	0,060
-699,758	-108,283	-0,123	0,019
-698,743	800,000	0,025	-0,053
-697,729	18,079	-0,039	0,023
-696,714	198,019	0,073	-0,083
-695,699	76,993	-0,126	-0,098
-694,685	107,349	-0,064	-0,056
-693,670	-139,158	-0,121	-0,009
-692,656	-200,000	-0,013	-0,056
-691,641	41,723	0,131	0,087
-690,627	173,664	0,061	0,065
-689,612	-73,289	-0,069	0,018
-688,597	180,842	0,054	0,058
-687,583	721,499	-0,018	-0,036
-686,568	17,974	-0,148	0,087
-685,554	-56,643	-0,066	-0,021
-684,539	-200,000	0,013	0,142
-683,524	451,664	-0,016	0,027
-682,510	-200,000	-0,008	0,027
-681,495	800,000	-0,011	-0,033
-680,481	-113,683	-0,074	-0,010
-679,466	-200,000	-0,007	-0,034
-678,451	-100,498	-0,248	0,045
-677,437	-200,000	-0,010	-0,100
-676,422	-200,000	0,009	-0,183
-675,408	800,000	-0,021	-0,066
-674,393	-77,155	-0,069	0,018
-673,378	-140,982	-0,087	-0,006
-672,364	32,162	-0,161	-0,102
-671,349	-170,105	-0,032	-0,001
-670,335	267,416	-0,024	-0,031
-669,320	204,562	-0,051	-0,058
-668,305	-34,967	-0,140	0,056
-667,291	-200,000	-0,004	-0,160
-666,276	-189,852	-0,061	-0,000
-665,262	-48,568	0,127	-0,045
-664,247	800,000	-0,057	0,140
-663,232	-105,854	0,083	-0,014
-662,218	800,000	-0,046	0,094
-661,203	67,497	0,043	-0,032
-660,189	-88,704	0,067	0,014
-659,174	33,192	0,065	0,042
-658,159	496,908	-0,100	-0,169
-657,145	456,715	-0,100	-0,164
-656,130	-200,000	-0,001	0,073
-655,116	-100,643	-0,154	-0,028
-654,101	-44,059	-0,113	-0,042
-653,086	-200,000	-0,011	0,073
-652,072	24,278	0,028	-0,017
-651,057	270,064	0,063	0,081
-650,043	-200,000	0,004	0,075
-649,028	235,885	0,036	-0,044
-648,014	-90,837	0,069	-0,014
-646,999	800,000	-0,047	-0,121
-645,984	393,285	-0,024	-0,036
-644,970	24,019	-0,098	-0,059
-643,955	52,988	-0,094	-0,066
-642,941	-200,000	0,001	-0,006
-641,926	-200,000	0,005	0,150
-640,911	-28,351	0,070	-0,029
-639,897	800,000	-0,049	0,108
-638,882	-65,613	0,163	0,048
-637,868	800,000	0,025	-0,074
-636,853	767,297	-0,062	0,124
-635,838	336,363	0,022	-0,031
-634,824	508,279	0,060	-0,103
-633,809	-194,741	-0,031	-0,000
-632,795	19,888	-0,051	0,030
-631,780	-1,692	0,035	0,018
-630,765	192,521	-0,120	0,133
-629,751	132,360	0,033	0,031
-628,736	-200,000	-0,055	-0,193
-627,722	-99,023	-0,079	-0,015
-626,707	387,354	0,009	0,014
-625,692	541,493	-0,021	0,037
-624,678	-200,000	-0,026	-0,122
-623,663	-16,642	0,029	-0,013
-622,649	351,411	-0,057	-0,084
-621,634	-200,000	0,004	0,089
-620,619	91,475	0,167	-0,137
-619,605	800,000	-0,044	0,114
-618,590	537,330	-0,061	0,107
-617,576	-136,485	0,119	0,010
-616,561	-107,362	-0,110	0,018
-615,546	-138,657	-0,094	-0,007
-614,532	-200,000	-0,012	-0,103
-613,517	800,000	0,068	-0,140
-612,503	227,037	-0,037	-0,044
-611,488	-142,058	0,061	-0,004
-610,474	-86,547	-0,034	-0,008
-609,459	-107,011	0,131	0,021
-608,444	800,000	0,011	-0,031
-607,430	61,575	-0,082	-0,060
-606,415	30,160	-0,093	-0,058
-605,401	294,873	-0,045	0,061
-604,386	-200,000	0,016	-0,077
-603,371	-107,581	-0,187	0,030
-602,357	267,725	0,032	0,042
-601,342	112,781	0,074	-0,066
-600,328	12,858	0,117	-0,066
-599,313	-38,824	-0,186	0,072
-598,298	-112,958	0,107	-0,015
-597,284	800,000	0,054	0,111
-596,269	136,579	0,093	-0,089
-595,255	800,000	-0,017	-0,036
-594,240	-30,273	-0,014	-0,006
-593,225	-200,000	0,015	-0,114
-592,211	-200,000	0,011	0,054
-591,196	-75,712	0,106	0,027
-590,182	451,985	0,050	0,082
-589,167	108,814	0,136	-0,119
-588,152	800,000	-0,035	0,080
-587,138	-200,000	0,036	0,148
-586,123	14,697	-0,062	-0,035
-585,109	-200,000	0,022	0,105
-584,094	-54,680	0,147	-0,048
-583,079	-8,310	0,095	-0,047
-582,065	75,813	-0,095	0,074
-581,050	25,043	-0,063	-0,038
-580,036	-59,940	0,031	-0,010
-579,021	63,615	-0,076	0,056
-578,006	355,541	-0,033	-0,048
-576,992	282,102	0,024	0,032
-575,977	3,271	-0,090	-0,048
-574,963	-200,000	0,024	0,085
-573,948	-157,541	-0,059	0,003
-572,934	463,592	0,035	-0,057
-571,919	170,469	0,039	0,041
-570,904	373,540	0,066	-0,099
-569,890	558,485	0,053	-0,094
-568,875	-200,000	0,002	0,034
-567,861	-91,865	-0,056	0,012
-566,846	800,000	-0,047	0,103
-565,831	155,934	-0,094	-0,095
-564,817	-200,000	-0,014	0,087
-563,802	-78,709	-0,056	0,014
-562,788	800,000	-0,038	0,088
-561,773	-200,000	-0,005	0,109
-560,758	74,907	-0,088	0,068
-559,744	113,396	0,065	-0,058
-558,729	800,000	-0,037	0,077
-557,715	-200,000	0,027	-0,134
-556,700	800,000	0,040	-0,127
-555,685	-189,556	-0,111	0,001
-554,671	138,380	0,010	0,009
-553,656	-200,000	-0,005	0,092
-552,642	374,200	0,053	0,080
-551,627	-200,000	-0,025	-0,095
-550,612	800,000	0,043	-0,122
-549,598	-87,303	0,056	-0,012
-548,583	-7,468	0,146	0,072
-547,569	132,188	-0,097	-0,091
-546,554	-75,565	-0,041	-0,011
-545,539	-200,000	0,001	0,036
-544,525	-100,873	-0,048	-0,009
-543,510	800,000	-0,016	-0,038
-542,496	111,414	-0,064	-0,057
-541,481	-200,000	0,007	-0,132
-540,466	800,000	0,049	-0,151
-539,452	-10,990	0,044	-0,021
-538,437	-107,400	-0,017	0,003
-537,423	-18,572	-0,088	0,040
-536,408	309,625	0,051	0,069
-535,393	800,000	-0,046	0,109
-534,379	-31,085	-0,097	-0,040
-533,364	149,114	0,034	-0,033
-532,350	-200,000	0,009	0,113
-531,335	480,547	0,073	-0,121
-530,321	-200,000	0,005	0,035
-529,306	-4,545	0,092	-0,046
-528,291	-200,000	-0,018	-0,103
-527,277	-200,000	-0,014	0,068
-526,262	-200,000	-0,023	0,098
-525,248	-59,871	0,058	0,018
-524,233	288,197	0,118	0,156
-523,218	329,973	-0,059	0,083
-522,204	-30,340	-0,103	0,042
-521,189	-200,000	-0,004	-0,223
-520,175	800,000	-0,041	-0,094
-519,160	-200,000	-0,001	-0,031
-518,145	-200,000	-0,010	0,167
-517,131	558,786	-0,036	0,064
-516,116	220,619	0,043	0,051
-515,102	-105,129	-0,159	0,026
-514,087	-200,000	-0,016	-0,091
-513,072	-179,793	-0,208	-0,003
-512,058	800,000	0,024	-0,061
-511,043	800,000	-0,029	-0,081
-510,029	76,195	0,067	-0,051
-509,014	108,802	0,027	0,023
-507,999	404,300	0,036	0,056
-506,985	591,140	-0,018	-0,033
-505,970	-156,898	-0,084	0,004
-504,956	553,292	0,014	0,025
-503,941	-200,000	-0,008	0,119
-502,926	77,326	-0,081	-0,063
-501,912	268,154	0,040	0,051
-500,897	-200,000	0,032	0,136
-499,883	-179,382	-0,155	-0,002
-498,868	-200,000	0,008	-0,039
-497,853	-134,548	-0,087	-0,008
-496,839	-200,000	0,004	0,034
-495,824	-79,593	0,060	0,015
-494,810	292,127	-0,090	0,120
-493,795	-200,000	0,006	-0,071
-492,781	-70,540	-0,097	0,027
-491,766	31,459	-0,071	-0,045
-490,751	180,409	-0,074	-0,080
-489,737	253,555	-0,032	-0,039
-488,722	163,796	0,139	0,143
-487,708	-200,000	-0,014	-0,114
-486,693	-200,000	-0,013	-0,102
-485,678	-191,673	0,006	0,000
-484,664	800,000	-0,022	-0,045
-483,649	-200,000	0,004	0,041
-482,635	800,000	-0,019	-0,057
-481,620	-200,000	0,006	0,127
-480,605	204,847	0,145	0,164
-479,591	314,998	0,032	-0,044
-478,576	800,000	-0,025	0,076
-477,562	94,389	-0,118	-0,098
-476,547	-200,000	0,006	-0,077
-475,532	-200,000	-0,024	0,085
-474,518	35,205	0,030	0,019
-473,503	-200,000	0,016	0,055
-472,489	-200,000	-0,003	0,123
-471,474	800,000	-0,071	0,165
-470,459	-200,000	0,003	0,058
-469,445	274,227	0,059	-0,077
-468,430	800,000	0,053	-0,121
-467,416	-110,960	0,069	-0,010
-466,401	-200,000	-0,019	0,108
-465,386	223,729	0,072	0,084
-464,372	390,024	-0,052	0,078
-463,357	-200,000	-0,002	0,023
-462,343	-200,000	0,012	-0,240
-461,328	-200,000	0,002	0,068
-460,313	192,982	0,090	0,099
-459,299	-200,000	0,004	0,068
-458,284	594,309	0,069	-0,125
-457,270	800,000	0,028	0,064
-456,255	-200,000	-0,019	0,120
-455,241	-200,000	0,001	-0,017
-454,226	24,539	0,148	0,089
-453,211	213,109	0,070	0,081
-452,197	-151,389	0,114	-0,006
-451,182	-62,673	-0,066	0,020
-450,168	-200,000	-0,000	0,187
-449,153	-200,000	-0,004	-0,075
-448,138	-73,042	-0,106	-0,028
-447,124	412,084	0,065	0,101
-446,109	-139,778	0,039	0,003
-445,095	-64,062	0,126	-0,037
-444,080	290,965	-0,080	-0,106
-443,065	-200,000	-0,021	-0,200
-442,051	352,947	0,023	-0,033
-441,036	-2,755	-0,073	-0,037
-440,022	-10,932	-0,042	-0,020
-439,007	-67,466	-0,155	0,044
-437,992	-88,024	0,069	-0,015
-436,978	800,000	-0,006	0,013
-435,963	514,108	0,026	-0,044
-434,949	-52,834	-0,156	-0,052
-433,934	604,966	-0,066	-0,119
-432,919	-200,000	-0,001	0,010
-431,905	-200,000	0,035	0,188
-430,890	-35,785	0,049	-0,019
-429,876	60,962	0,139	0,100
-428,861	291,584	-0,077	0,102
-427,846	114,705	-0,091	0,080
-426,832	271,583	0,058	0,075
-425,817	-81,831	0,071	-0,017
-424,803	800,000	0,008	0,019
-423,788	-91,324	-0,014	0,003
-422,773	-82,017	0,031	0,007
-421,759	543,840	-0,047	0,082
-420,744	-35,113	-0,147	-0,058
-419,730	-11,333	-0,072	0,034
-418,715	347,500	-0,039	-0,057
-417,701	426,739	0,025	-0,040
-416,686	-200,000	-0,039	-0,131
-415,671	-200,000	-0,011	0,085
-414,657	628,060	0,024	0,045
-413,642	-118,393	-0,122	0,016
-412,628	800,000	0,021	0,061
-411,613	411,990	-0,092	-0,143
-410,598	-20,198	-0,047	-0,021
-409,584	238,747	0,102	-0,124
-408,569	-34,221	0,095	0,038
-407,555	-48,991	0,068	0,024
-406,540	-27,823	-0,122	-0,051
-405,525	-121,138	-0,064	-0,008
-404,511	-200,000	-0,020	0,071
-403,496	-147,665	-0,082	-0,005
-402,482	0,721	-0,035	-0,018
-401,467	-200,000	0,007	-0,060
-400,452	-45,712	0,048	0,017
-399,438	277,918	-0,064	-0,083
-398,423	163,000	-0,071	0,072
-397,409	-34,004	-0,087	-0,035
-396,394	4,943	0,150	-0,080
-395,379	-12,382	0,014	0,007
-394,365	225,243	0,059	0,070
-393,350	149,551	0,061	0,060
-392,336	-200,000	-0,000	-0,105
-391,321	800,000	0,051	0,155
-390,306	190,442	-0,159	-0,174
-389,292	62,257	0,062	-0,045
-388,277	-69,546	0,065	0,018
-387,263	-200,000	-0,007	-0,094
-386,248	-99,958	-0,030	-0,005
-385,233	44,586	-0,050	-0,034
-384,219	243,765	-0,084	-0,102
-383,204	-200,000	-0,005	-0,063
-382,190	800,000	-0,017	0,038
-381,175	-200,000	0,006	0,052
-380,160	-143,939	0,030	-0,002
-379,146	-200,000	0,021	-0,091
-378,131	73,397	-0,018	-0,014
-377,117	567,931	-0,069	0,122
-376,102	-200,000	-0,013	-0,055
-375,088	-200,000	-0,018	-0,122
-374,073	107,510	-0,045	-0,039
-373,058	-5,008	-0,073	-0,036
-372,044	-106,928	0,073	-0,012
-371,029	-3,413	-0,053	0,027
-370,015	110,756	0,078	0,068
-369,000	750,750	-0,042	-0,082
-367,985	-200,000	-0,013	-0,215
-366,971	-93,362	-0,139	-0,028
-365,956	52,328	0,126	0,087
-364,942	615,921	-0,050	0,091
-363,927	705,304	0,005	-0,010
-362,912	-200,000	0,015	0,061
-361,898	-200,000	-0,010	0,093
-360,883	-200,000	-0,024	0,114
-359,869	-40,342	-0,086	0,032
-358,854	209,155	0,075	0,086
-357,839	-200,000	-0,003	-0,037
-356,825	394,909	0,028	0,043
-355,810	-98,544	-0,054	-0,010
-354,796	800,000	0,030	0,088
-353,781	-200,000	-0,001	0,028
-352,766	11,042	-0,017	-0,009
-351,752	-164,946	-0,141	0,004
-350,737	-200,000	0,002	0,049
-349,723	-31,877	0,170	0,069
-348,708	-200,000	0,021	0,142
-347,693	800,000	-0,041	0,114
-346,679	-116,167	-0,126	-0,017
-345,664	507,446	-0,062	0,105
-344,650	16,379	0,151	0,086
-343,635	800,000	0,067	-0,177
-342,620	-112,850	0,112	-0,016
-341,606	-143,057	-0,149	0,010
-340,591	1,535	0,157	-0,082
-339,577	361,108	-0,053	-0,078
-338,562	-200,000	-0,026	-0,128
-337,548	800,000	-0,035	-0,093
-336,533	175,888	0,084	0,088
-335,518	-44,375	-0,035	-0,012
-334,504	-200,000	0,029	0,147
-333,489	800,000	-0,019	0,052
-332,475	-159,037	-0,199	0,008
-331,460	98,216	0,100	-0,084
-330,445	-200,000	-0,001	-0,082
-329,431	78,722	0,086	-0,067
-328,416	800,000	0,086	0,197
-327,402	161,240	0,049	-0,050
-326,387	21,416	0,046	-0,027
-325,372	79,391	-0,095	-0,074
-324,358	-170,318	-0,132	-0,003
-323,343	-70,418	-0,061	0,017
-322,329	-62,911	-0,039	0,012
-321,314	-68,091	0,029	-0,008
-320,299	58,422	0,170	0,121
-319,285	-58,558	0,064	0,020
-318,270	-200,000	-0,026	-0,084
-317,256	219,911	0,106	-0,123
-316,241	-40,639	0,051	-0,019
-315,226	-200,000	0,014	0,116
-314,212	-198,408	0,147	0,001
-313,197	-118,750	-0,107	0,014
-312,183	800,000	0,038	0,107
-311,168	-61,296	-0,017	-0,005
-310,153	-200,000	-0,030	-0,180
-309,139	223,080	-0,044	-0,052
-308,124	-54,487	-0,156	0,051
-307,110	-159,597	0,059	0,002
-306,095	-200,000	0,021	-0,071
-305,080	-200,000	0,011	0,059
-304,066	-42,472	-0,094	-0,035
-303,051	-200,000	-0,008	0,035
-302,037	78,597	-0,061	0,047
-301,022	-36,094	0,107	0,042
-300,008	80,692	-0,072	0,056
-298,993	-169,955	0,164	0,004
-297,978	220,938	-0,061	-0,071
-296,964	-200,000	0,015	-0,089
-295,949	77,450	-0,138	-0,106
-294,935	-200,000	-0,003	-0,074
-293,920	225,043	-0,032	0,037
-292,905	113,622	0,029	-0,026
-291,891	393,516	-0,057	-0,086
-290,876	-200,000	-0,002	-0,074
-289,862	269,015	-0,093	-0,118
-288,847	-46,065	0,044	0,016
-287,832	-8,436	0,060	0,029
-286,818	-63,192	-0,180	-0,053
-285,803	219,052	0,069	0,080
-284,789	-200,000	-0,035	0,135
-283,774	715,677	0,026	-0,050
-282,759	-200,000	0,020	0,127
-281,745	-93,652	-0,062	-0,012
-280,730	-68,078	-0,137	-0,038
-279,716	306,009	-0,109	-0,146
-278,701	-129,376	0,084	-0,008
-277,686	-200,000	0,015	-0,066
-276,672	37,809	0,074	-0,047
-275,657	184,013	0,051	-0,054
-274,643	-30,310	-0,058	-0,024
-273,628	431,836	0,027	-0,042
-272,613	182,305	-0,052	-0,056
-271,599	800,000	0,009	0,030
-270,584	333,505	0,053	-0,074
-269,570	-101,303	0,127	-0,022
-268,555	30,160	-0,125	0,077
-267,540	544,214	0,054	0,093
-266,526	-18,881	0,081	0,036
-265,511	-60,728	0,070	-0,021
-264,497	-192,287	0,055	0,000
-263,482	432,880	0,061	0,096
-262,467	261,441	0,045	0,057
-261,453	800,000	-0,005	-0,012
-260,438	-158,462	-0,062	-0,003
-259,424	34,183	-0,058	0,037
-258,409	200,345	-0,045	0,050
-257,395	-6,984	0,176	0,086
-256,380	-106,577	0,131	0,021
-255,365	-60,298	0,115	0,035
-254,351	-78,294	0,076	0,019
-253,336	800,000	0,024	-0,059
-252,322	-200,000	0,004	-0,117
-251,307	-116,554	-0,080	0,011
-250,292	800,000	0,041	0,088
-249,278	586,112	0,058	-0,103
-248,263	314,921	-0,071	0,097
-247,249	427,294	0,038	0,059
-246,234	-91,538	0,055	-0,011
-245,219	161,458	-0,095	-0,096
-244,205	-200,000	-0,008	-0,141
-243,190	-112,896	0,039	-0,006
-242,176	800,000	-0,044	-0,124
-241,161	7,063	0,097	0,052
-240,146	73,728	-0,134	-0,101
-239,132	342,282	0,050	0,071
-238,117	-200,000	-0,023	-0,107
-237,103	8,347	-0,039	-0,021
-236,088	800,000	-0,010	0,030
-235,073	-200,000	0,027	0,088
-234,059	49,175	0,059	0,040
-233,044	-200,000	-0,004	0,114
-232,030	-143,007	0,089	-0,006
-231,015	58,457	-0,170	0,120
-230,000	-200,000	0,017	0,077
-228,986	-200,000	0,001	-0,013
-227,971	-53,806	0,055	0,018
-226,957	-70,736	0,068	-0,018
-225,942	-81,053	0,133	0,032
-224,927	800,000	-0,034	-0,071
-223,913	300,271	-0,127	-0,170
-222,898	4,374	-0,031	0,016
-221,884	-66,794	-0,087	0,025
-220,869	41,322	0,085	0,055
-219,855	-200,000	0,067	0,224
-218,840	800,000	-0,017	0,045
-217,825	800,000	0,032	-0,082
-216,811	786,706	-0,043	0,085
-215,796	-67,175	-0,088	-0,025
-214,782	-69,079	0,074	-0,020
-213,767	0,678	0,030	-0,015
-212,752	-200,000	-0,004	-0,058
-211,738	202,835	0,055	-0,062
-210,723	230,642	-0,049	-0,058
-209,709	-200,000	-0,007	-0,169
-208,694	-200,000	-0,003	-0,249
-207,679	-82,414	0,126	0,029
-206,665	204,949	0,106	0,119
-205,650	-64,156	0,098	-0,029
-204,636	193,228	-0,040	0,044
-203,621	277,027	-0,032	0,041
-202,606	25,872	0,089	-0,053
-201,592	-132,077	0,062	0,006
-200,577	82,306	-0,023	-0,018
-199,563	800,000	0,030	0,073
-198,548	-200,000	0,039	0,197
-197,533	14,879	0,093	0,052
-196,519	155,166	-0,041	-0,041
-195,504	633,189	-0,019	-0,035
-194,490	800,000	0,059	-0,142
-193,475	-200,000	0,023	-0,119
-192,460	800,000	0,031	0,084
-191,446	-2,120	0,069	-0,035
-190,431	-10,781	-0,050	0,024
-189,417	800,000	0,012	0,036
-188,402	800,000	0,027	-0,072
-187,387	55,547	-0,014	0,010
-186,373	423,048	-0,055	-0,086
-185,358	-16,700	0,118	-0,054
-184,344	184,598	-0,035	-0,037
-183,329	800,000	0,028	0,058
-182,315	800,000	0,024	0,060
-181,300	178,655	-0,029	-0,031
-180,285	-128,776	0,041	0,004
-179,271	-50,918	0,045	0,015
-178,256	4,832	0,052	0,027
-177,242	800,000	-0,034	-0,107
-176,227	800,000	0,095	0,246
-175,212	-200,000	0,004	0,077
-174,198	-195,012	0,050	0,000
-173,183	-200,000	0,024	-0,101
-172,169	359,597	0,019	0,028
-171,154	383,949	0,065	-0,097
-170,139	556,694	-0,055	0,095
-169,125	278,741	-0,056	0,073
-168,110	-200,000	-0,006	0,097
-167,096	-200,000	-0,013	-0,145
-166,081	-200,000	-0,012	0,141
-165,066	-140,594	-0,054	-0,004
-164,052	32,228	0,184	-0,114
-163,037	-200,000	-0,179	0,000
-162,023	-3,496	0,082	-0,041
-161,008	-102,199	0,087	-0,015
-159,993	228,855	-0,036	0,042
-158,979	-77,481	-0,100	0,025
-157,964	-54,694	-0,051	0,016
-156,950	-200,000	-0,013	-0,044
-155,935	742,000	0,014	0,027
-154,920	800,000	-0,028	0,076
-153,906	-34,748	0,042	0,017
-152,891	-200,000	-0,010	0,135
-151,877	-76,249	-0,094	0,024
-150,862	-200,000	0,020	-0,104
-149,847	-8,497	-0,082	-0,039
-148,833	-200,000	0,032	0,144
-147,818	70,082	0,072	-0,054
-146,804	42,540	0,098	0,064
-145,789	-200,000	0,003	0,105
-144,775	-117,107	-0,045	-0,006
-143,760	-200,000	0,044	-0,142
-142,745	-200,000	-0,020	-0,198
-141,731	91,288	0,026	-0,021
-140,716	530,839	0,028	-0,047
-139,702	-200,000	0,018	-0,064
-138,687	-200,000	-0,012	-0,119
-137,672	263,436	-0,041	-0,052
-136,658	330,118	-0,072	-0,100
-135,643	53,383	0,167	-0,115
-134,629	-120,250	-0,247	-0,030
-133,614	233,702	0,062	0,073
-132,599	663,375	0,066	-0,124
-131,585	108,724	0,024	-0,021
-130,570	-143,399	-0,109	-0,007
-129,556	411,162	-0,021	0,032
-128,541	-55,424	0,094	0,030
-127,526	95,043	-0,080	-0,065
-126,512	-200,000	-0,002	-0,015
-125,497	-166,349	-0,031	-0,001
-124,483	-200,000	0,022	-0,182
-123,468	202,402	0,074	0,082
-122,453	123,569	0,017	-0,015
-121,439	800,000	0,024	-0,072
-120,424	-200,000	0,007	-0,067
