DTS Sentinel unit serial number:	SN410029Multiplexer serial number:	ORYXHardware model number:	OX2-SRSoftware version number:	ORYX F/W v4,00 Oryx Data Collector v3.7.2.0data status	okinstallation	B6 Nyhavnadifferential loss correction	single-endedforward channel	channel 2reverse channel	N/Adate	2023/12/08time	14:40:08forward acquisition time	300,00reverse acquisition time	0,00gamma	499,1914k internal	0,3159k external	0,3159temperature offset calibration	1,0000default loss term (dB/km)	0,3820temperature slope calibration	1,0000multiplexer offset coefficient	1,0000multiplexer slope coefficient	1,0000fibre end	0,00T internal ref (°C)	15,06T ext. ref 1 (°C)	-1,53T ext. ref 2 (°C)	-1,54length (m)	temperature (°C)	Stokes	anti-Stokes-744,400	135,523	-0,036	-0,034
-743,385	-184,278	-0,314	0,004
-742,371	27,955	0,082	-0,051
-741,356	-82,441	-0,303	0,072
-740,342	-143,658	0,156	0,011
-739,327	-42,218	-0,305	0,114
-738,312	-200,000	-0,018	-0,103
-737,298	-196,162	-0,248	0,001
-736,283	-17,361	0,073	0,034
-735,269	-174,254	-0,302	0,006
-734,254	-200,000	0,013	-0,053
-733,239	-112,145	-0,334	-0,049
-732,225	-46,070	0,230	0,083
-731,210	-200,000	0,021	0,133
-730,196	57,621	0,047	0,034
-729,181	17,616	-0,119	-0,069
-728,167	-60,179	-0,072	-0,022
-727,152	-200,000	0,011	-0,065
-726,137	-71,572	-0,058	0,016
-725,123	-115,809	-0,174	-0,024
-724,108	21,544	-0,137	-0,082
-723,094	505,847	-0,053	-0,091
-722,079	408,200	0,048	-0,075
-721,064	23,577	-0,077	-0,047
-720,050	800,000	-0,054	-0,137
-719,035	110,418	-0,121	-0,107
-718,021	89,241	0,105	-0,086
-717,006	182,763	0,070	0,076
-715,991	-200,000	0,020	-0,126
-714,977	-200,000	-0,053	-0,178
-713,962	800,000	0,018	0,040
-712,948	-200,000	0,007	-0,096
-711,933	-149,721	-0,192	-0,011
-710,918	-200,000	0,007	-0,052
-709,904	528,332	0,029	0,050
-708,889	-200,000	-0,006	0,039
-707,875	129,658	0,083	0,078
-706,860	-24,031	-0,037	0,016
-705,845	-200,000	0,032	-0,142
-704,831	-81,530	0,202	-0,048
-703,816	34,322	-0,073	-0,046
-702,802	-200,000	-0,009	-0,051
-701,787	717,992	-0,057	-0,111
-700,772	-105,476	-0,104	0,017
-699,758	-133,323	-0,128	0,012
-698,743	-92,169	-0,122	0,025
-697,729	392,668	0,053	0,081
-696,714	445,775	-0,072	-0,117
-695,699	-131,449	-0,123	-0,012
-694,685	148,606	0,096	-0,095
-693,670	124,439	0,080	-0,074
-692,656	-41,012	-0,012	-0,005
-691,641	331,649	0,053	0,075
-690,627	-134,474	-0,017	-0,001
-689,612	123,214	0,021	-0,020
-688,597	65,103	0,075	-0,055
-687,583	-31,396	0,068	-0,028
-686,568	-200,000	-0,000	0,001
-685,554	-200,000	-0,007	0,083
-684,539	-181,590	-0,075	-0,001
-683,524	-200,000	-0,002	-0,069
-682,510	-200,000	0,004	-0,038
-681,495	800,000	0,077	0,239
-680,481	-200,000	-0,074	-0,244
-679,466	-200,000	-0,003	-0,167
-678,451	-6,473	-0,040	0,020
-677,437	800,000	0,027	0,061
-676,422	134,211	-0,076	0,072
-675,408	-200,000	-0,007	0,024
-674,393	-135,292	0,044	0,004
-673,378	-39,706	-0,055	-0,021
-672,364	-76,283	-0,074	0,019
-671,349	50,928	-0,076	0,053
-670,335	-200,000	0,019	-0,089
-669,320	-21,089	0,061	-0,027
-668,305	-200,000	0,007	0,060
-667,291	72,496	0,002	0,001
-666,276	-95,242	-0,057	-0,011
-665,262	-17,908	0,026	-0,012
-664,247	-200,000	-0,001	-0,062
-663,232	-46,365	-0,088	-0,031
-662,218	47,519	-0,065	-0,045
-661,203	127,833	0,091	-0,085
-660,189	-200,000	-0,001	0,014
-659,174	-200,000	0,013	-0,092
-658,159	-82,808	-0,046	0,011
-657,145	-65,760	0,064	0,019
-656,130	-148,360	-0,015	0,001
-655,116	56,118	0,064	0,046
-654,101	-200,000	-0,004	-0,031
-653,086	-75,610	0,108	0,028
-652,072	-123,673	-0,104	-0,012
-651,057	177,679	0,070	-0,075
-650,043	-3,304	-0,069	0,035
-649,028	-200,000	0,011	-0,062
-648,014	9,760	-0,176	-0,098
-646,999	-200,000	-0,004	0,086
-645,984	-55,779	-0,095	0,031
-644,970	219,235	-0,116	-0,137
-643,955	483,032	-0,031	-0,052
-642,941	782,720	0,039	-0,080
-641,926	-34,759	0,066	-0,026
-640,911	-200,000	0,009	0,082
-639,897	744,248	0,053	0,106
-638,882	800,000	0,031	0,076
-637,868	800,000	-0,017	0,035
-636,853	147,198	-0,113	-0,112
-635,838	283,970	-0,077	0,102
-634,824	-200,000	-0,001	-0,011
-633,809	800,000	-0,016	-0,035
-632,795	800,000	0,045	-0,109
-631,780	-96,181	0,143	0,028
-630,765	-200,000	-0,001	-0,004
-629,751	195,162	-0,008	0,009
-628,736	100,416	-0,072	-0,061
-627,722	278,798	-0,030	-0,039
-626,707	-9,311	-0,069	-0,034
-625,692	43,590	0,068	0,046
-624,678	-200,000	0,001	-0,029
-623,663	-101,064	-0,159	-0,028
-622,649	-200,000	0,026	-0,091
-621,634	-200,000	-0,015	-0,067
-620,619	339,225	-0,057	0,082
-619,605	55,561	0,078	-0,056
-618,590	206,627	0,061	0,070
-617,576	51,839	-0,026	0,018
-616,561	-200,000	-0,027	0,115
-615,546	21,217	0,039	0,023
-614,532	-200,000	-0,034	-0,133
-613,517	800,000	0,010	-0,028
-612,503	-70,966	-0,067	-0,018
-611,488	96,263	0,080	0,067
-610,474	-45,575	-0,032	0,012
-609,459	-12,245	0,147	0,070
-608,444	800,000	-0,025	0,057
-607,430	-25,560	-0,246	-0,106
-606,415	-200,000	-0,001	0,031
-605,401	800,000	-0,021	0,050
-604,386	-70,549	-0,100	0,028
-603,371	485,012	0,063	0,106
-602,357	-3,999	-0,076	-0,038
-601,342	244,676	-0,098	-0,121
-600,328	668,138	0,042	-0,081
-599,313	-200,000	0,007	0,092
-598,298	-200,000	0,043	-0,142
-597,284	800,000	-0,035	-0,098
-596,269	259,755	0,078	0,099
-595,255	25,629	0,122	-0,074
-594,240	-74,310	-0,087	0,023
-593,225	734,552	-0,071	-0,140
-592,211	54,133	0,032	0,022
-591,196	-83,862	0,035	-0,008
-590,182	141,025	0,023	0,022
-589,167	-200,000	-0,026	0,096
-588,152	793,333	-0,050	-0,101
-587,138	357,780	-0,053	0,077
-586,123	-200,000	-0,000	-0,054
-585,109	8,538	0,030	-0,016
-584,094	419,678	-0,075	-0,118
-583,079	-200,000	0,026	-0,126
-582,065	-16,091	-0,123	0,057
-581,050	79,723	-0,037	-0,029
-580,036	-200,000	-0,011	-0,086
-579,021	-91,478	0,010	-0,002
-578,006	-179,707	-0,143	0,002
-576,992	329,006	-0,019	0,027
-575,977	800,000	0,009	0,024
-574,963	371,006	-0,029	-0,043
-573,948	-200,000	0,017	0,058
-572,934	-40,266	0,148	0,056
-571,919	800,000	-0,063	0,175
-570,904	3,844	-0,117	-0,063
-569,890	-131,246	0,069	-0,007
-568,875	-200,000	0,037	-0,154
-567,861	800,000	0,058	-0,130
-566,846	-108,601	0,086	-0,013
-565,831	800,000	-0,024	-0,066
-564,817	800,000	-0,072	0,152
-563,802	325,057	-0,036	0,051
-562,788	800,000	0,040	-0,122
-561,773	-34,356	0,125	0,050
-560,758	800,000	-0,042	0,088
-559,744	-200,000	0,010	0,135
-558,729	-172,777	-0,148	-0,003
-557,715	-12,837	0,130	0,062
-556,700	-47,515	0,050	-0,018
-555,685	393,850	-0,079	-0,121
-554,671	-18,571	-0,019	-0,009
-553,656	424,860	-0,046	0,073
-552,642	213,964	0,141	0,164
-551,627	-200,000	-0,025	0,110
-550,612	5,852	-0,108	-0,058
-549,598	414,015	0,047	-0,073
-548,583	-200,000	-0,011	0,103
-547,569	800,000	-0,034	0,077
-546,554	-200,000	0,000	-0,070
-545,539	-200,000	0,034	0,147
-544,525	-169,977	0,112	-0,003
-543,510	-200,000	-0,010	0,054
-542,496	14,914	-0,100	-0,057
-541,481	-10,884	0,121	-0,058
-540,466	-200,000	-0,025	-0,085
-539,452	214,732	0,074	0,086
-538,437	-153,610	0,075	0,004
-537,423	-52,434	0,069	0,023
-536,408	126,342	-0,042	0,039
-535,393	43,102	-0,049	0,032
-534,379	-200,000	-0,054	-0,177
-533,364	223,038	0,011	-0,013
-532,350	-31,873	0,059	-0,024
-531,335	-9,209	0,053	0,026
-530,321	313,385	0,045	0,062
-529,306	-8,913	0,191	0,093
-528,291	-90,169	-0,099	-0,021
-527,277	-80,910	-0,113	-0,027
-526,262	10,933	-0,090	0,050
-525,248	-123,868	0,047	0,005
-524,233	8,266	0,110	0,060
-523,218	-107,654	0,024	-0,004
-522,204	55,917	-0,021	0,015
-521,189	-200,000	-0,027	0,123
-520,175	-67,590	-0,134	-0,038
-519,160	-200,000	0,008	-0,051
-518,145	-200,000	0,033	-0,112
-517,131	731,708	0,005	0,009
-516,116	150,258	0,057	0,057
-515,102	506,124	-0,055	-0,093
-514,087	800,000	0,045	0,103
-513,072	698,292	-0,048	-0,092
-512,058	159,487	-0,108	0,110
-511,043	51,202	0,113	-0,078
-510,029	-64,634	0,155	-0,046
-509,014	24,520	-0,064	0,039
-507,999	297,409	0,011	-0,014
-506,985	302,185	-0,082	-0,111
-505,970	0,633	-0,073	-0,038
-504,956	149,766	-0,037	0,037
-503,941	-113,810	-0,089	0,013
-502,926	-200,000	-0,008	0,046
-501,912	-148,837	0,066	-0,004
-500,897	570,633	-0,064	-0,113
-499,883	577,091	-0,044	0,079
-498,868	800,000	0,029	-0,067
-497,853	37,273	-0,050	-0,033
-496,839	-200,000	-0,003	0,124
-495,824	-133,061	0,164	-0,015
-494,810	-23,888	0,134	-0,058
-493,795	-82,463	-0,119	-0,028
-492,781	19,167	-0,073	0,043
-491,766	-84,358	-0,083	-0,019
-490,751	800,000	-0,027	-0,084
-489,737	800,000	0,072	-0,172
-488,722	-200,000	-0,011	-0,097
-487,708	-67,705	0,109	0,031
-486,693	-65,178	0,110	0,032
-485,678	-200,000	-0,003	-0,093
-484,664	-200,000	0,010	-0,039
-483,649	53,487	0,053	0,037
-482,635	-200,000	0,012	-0,096
-481,620	-104,402	0,069	-0,012
-480,605	-140,935	-0,051	0,004
-479,591	800,000	-0,003	0,006
-478,576	-65,404	0,171	0,050
-477,562	-200,000	0,030	0,000
-476,547	-60,657	0,185	0,057
-475,532	-195,251	-0,134	-0,001
-474,518	231,971	0,017	-0,020
-473,503	800,000	0,045	0,122
-472,489	-82,121	-0,078	0,019
-471,474	-200,000	-0,013	0,078
-470,459	-200,000	0,022	-0,096
-469,445	-200,000	-0,019	-0,079
-468,430	-93,345	-0,138	0,028
-467,416	466,732	0,057	0,093
-466,401	600,098	-0,034	-0,062
-465,386	196,751	-0,090	-0,100
-464,372	637,512	0,045	-0,084
-463,357	66,109	-0,162	0,119
-462,343	-28,273	0,117	-0,049
-461,328	218,749	-0,069	0,081
-460,313	-124,234	0,069	0,008
-459,299	246,047	0,027	-0,033
-458,284	-200,000	0,017	0,164
-457,270	-200,000	0,010	0,105
-456,255	665,154	-0,038	0,071
-455,241	-145,543	-0,038	-0,002
-454,226	-41,053	-0,083	0,031
-453,211	-30,360	0,207	-0,085
-452,197	-200,000	0,016	-0,064
-451,182	153,770	0,007	-0,007
-450,168	800,000	-0,006	0,013
-449,153	143,391	-0,152	-0,147
-448,138	-200,000	-0,029	0,114
-447,124	208,433	-0,138	-0,158
-446,109	-31,899	-0,082	-0,033
-445,095	777,041	-0,042	0,083
-444,080	282,721	0,045	-0,059
-443,065	92,038	0,056	0,046
-442,051	12,009	-0,105	0,058
-441,036	-200,000	0,009	-0,048
-440,022	138,683	0,091	-0,088
-439,007	22,570	-0,147	-0,087
-437,992	-115,779	0,059	-0,008
-436,978	800,000	0,031	0,063
-435,963	170,178	-0,014	0,015
-434,949	241,260	-0,030	-0,036
-433,934	-57,124	-0,080	0,026
-432,919	-46,127	-0,097	0,035
-431,905	-151,498	0,178	0,009
-430,890	-200,000	-0,016	-0,082
-429,876	-82,043	0,114	0,027
-428,861	-149,262	0,069	0,004
-427,846	-137,767	0,093	-0,008
-426,832	634,694	0,058	-0,107
-425,817	590,406	0,068	-0,122
-424,803	-200,000	0,001	0,049
-423,788	-200,000	0,035	0,183
-422,773	-114,771	0,196	0,027
-421,759	800,000	-0,037	0,096
-420,744	-200,000	-0,012	0,114
-419,730	72,204	0,075	-0,057
-418,715	40,192	0,061	0,040
-417,701	-95,413	-0,035	0,007
-416,686	-200,000	0,002	-0,027
-415,671	-80,256	0,076	0,018
-414,657	-200,000	-0,002	0,035
-413,642	800,000	-0,030	-0,070
-412,628	-23,668	0,025	-0,011
-411,613	773,718	0,046	-0,092
-410,598	90,669	0,038	0,031
-409,584	283,652	0,042	0,054
-408,569	-7,666	0,037	0,018
-407,555	-200,000	-0,009	0,225
-406,540	-65,039	-0,053	-0,016
-405,525	231,546	-0,086	-0,103
-404,511	-134,628	-0,118	0,010
-403,496	800,000	-0,020	-0,055
-402,482	800,000	0,068	0,141
-401,467	282,569	0,064	0,083
-400,452	213,216	0,088	0,101
-399,438	-200,000	-0,002	-0,058
-398,423	33,379	-0,045	-0,028
-397,409	334,913	-0,100	0,141
-396,394	70,021	0,027	-0,020
-395,379	-73,907	0,064	-0,017
-394,365	237,072	-0,063	-0,076
-393,350	800,000	-0,018	0,047
-392,336	279,272	0,046	0,060
-391,321	63,291	-0,086	0,062
-390,306	800,000	0,056	0,116
-389,292	-200,000	-0,012	0,048
-388,277	142,831	-0,102	-0,099
-387,263	61,962	-0,054	0,039
-386,248	800,000	-0,030	-0,089
-385,233	-200,000	-0,017	0,055
-384,219	-200,000	-0,016	0,154
-383,204	-72,588	0,093	0,025
-382,190	-66,404	0,068	-0,020
-381,175	-28,511	-0,072	-0,030
-380,160	-61,534	0,142	0,043
-379,146	800,000	-0,012	0,030
-378,131	-200,000	0,001	0,014
-377,117	331,420	0,052	0,073
-376,102	800,000	0,004	0,012
-375,088	-200,000	-0,029	0,153
-374,073	-200,000	0,023	0,113
-373,058	-200,000	-0,014	0,067
-372,044	-89,738	-0,019	-0,004
-371,029	509,935	-0,064	-0,109
-370,015	-200,000	0,007	-0,045
-369,000	-69,544	-0,026	0,007
-367,985	475,635	-0,035	-0,057
-366,971	-200,000	0,008	-0,075
-365,956	-200,000	0,018	0,071
-364,942	-24,411	0,097	0,042
-363,927	-54,799	-0,044	0,014
-362,912	340,198	-0,037	0,053
-361,898	-100,700	-0,073	0,013
-360,883	-200,000	0,015	-0,051
-359,869	-55,296	0,066	-0,021
-358,854	572,820	-0,025	-0,044
-357,839	-200,000	-0,011	0,093
-356,825	800,000	-0,056	0,176
-355,810	348,871	0,133	0,191
-354,796	243,614	-0,067	0,082
-353,781	-200,000	0,002	-0,058
-352,766	-200,000	0,034	-0,121
-351,752	-70,158	0,065	0,018
-350,737	800,000	0,053	0,142
-349,723	-33,896	0,116	0,046
-348,708	-25,425	-0,027	-0,011
-347,693	-200,000	0,012	-0,051
-346,679	-93,916	-0,049	0,010
-345,664	-119,520	0,106	0,013
-344,650	-8,571	0,127	-0,062
-343,635	-200,000	0,010	-0,038
-342,620	-200,000	0,002	0,046
-341,606	231,508	-0,058	-0,070
-340,591	547,392	-0,065	-0,113
-339,577	-200,000	-0,006	-0,023
-338,562	675,185	-0,038	-0,073
-337,548	-135,932	0,214	-0,018
-336,533	-106,266	-0,082	0,013
-335,518	370,909	0,061	0,090
-334,504	-45,718	0,087	-0,031
-333,489	385,618	0,084	-0,127
-332,475	-200,000	0,034	-0,176
-331,460	495,595	-0,069	-0,115
-330,445	2,376	0,152	0,080
-329,431	-200,000	0,020	0,084
-328,416	344,053	0,107	0,153
-327,402	17,155	0,125	-0,071
-326,387	800,000	-0,049	0,156
-325,372	751,599	0,044	-0,087
-324,358	-200,000	-0,050	-0,205
-323,343	96,605	-0,061	0,050
-322,329	-152,556	0,022	-0,001
-321,314	-200,000	-0,005	0,071
-320,299	155,661	0,065	0,065
-319,285	-200,000	-0,018	-0,070
-318,270	128,204	0,110	0,101
-317,256	800,000	0,080	-0,188
-316,241	-10,376	0,087	-0,042
-315,226	-23,439	0,126	0,055
-314,212	-28,002	-0,078	0,033
-313,197	-57,192	-0,107	0,034
-312,183	397,474	0,027	0,041
-311,168	-165,443	0,093	-0,003
-310,153	-200,000	-0,015	-0,112
-309,139	260,165	-0,064	-0,080
-308,124	58,826	0,056	0,040
-307,110	281,391	-0,036	-0,047
-306,095	-130,378	-0,142	-0,014
-305,080	55,903	-0,045	0,031
-304,066	-74,688	-0,055	0,014
-303,051	-200,000	0,001	-0,052
-302,037	49,168	-0,113	-0,077
-301,022	-80,235	-0,093	-0,022
-300,008	-74,602	0,061	-0,016
-298,993	-91,429	-0,093	0,019
-297,978	140,946	0,040	-0,038
-296,964	159,823	-0,035	0,035
-295,949	22,284	0,102	0,060
-294,935	313,347	-0,073	-0,100
-293,920	-118,709	-0,062	0,008
-292,905	-200,000	0,042	-0,152
-291,891	800,000	0,056	0,123
-290,876	797,070	-0,037	0,075
-289,862	-135,092	-0,063	0,005
-288,847	-81,329	-0,084	0,020
-287,832	75,189	0,018	-0,014
-286,818	46,166	-0,099	0,066
-285,803	97,885	-0,006	0,005
-284,789	205,248	0,038	-0,043
-283,774	389,794	0,050	-0,075
-282,759	13,592	0,085	0,048
-281,745	800,000	-0,066	-0,173
-280,730	-99,699	-0,108	-0,019
-279,716	177,181	0,104	0,109
-278,701	146,331	0,078	0,076
-277,686	800,000	0,023	-0,061
-276,672	152,503	-0,028	0,028
-275,657	335,442	-0,075	0,106
-274,643	63,173	0,078	0,056
-273,628	176,970	-0,075	-0,079
-272,613	-112,141	-0,210	0,030
-271,599	-53,155	0,065	0,021
-270,584	-97,414	-0,039	0,007
-269,570	-200,000	0,020	-0,118
-268,555	0,844	0,053	0,027
-267,540	800,000	-0,042	-0,116
-266,526	389,431	0,067	-0,101
-265,511	-16,937	0,047	-0,021
-264,497	334,306	-0,053	-0,075
-263,482	57,041	0,118	0,083
-262,467	800,000	-0,031	0,082
-261,453	-200,000	0,002	-0,036
-260,438	7,035	-0,085	-0,046
-259,424	-116,180	0,061	0,008
-258,409	-200,000	-0,015	-0,103
-257,395	84,581	-0,100	-0,079
-256,380	-39,442	0,110	0,041
-255,365	-200,000	-0,006	-0,024
-254,351	800,000	-0,029	-0,088
-253,336	-78,617	-0,010	0,002
-252,322	-107,300	-0,006	0,001
-251,307	37,661	-0,090	-0,058
-250,292	-200,000	-0,006	-0,164
-249,278	497,095	0,056	-0,093
-248,263	-200,000	0,020	0,133
-247,249	110,677	-0,049	0,043
-246,234	92,675	0,043	0,035
-245,219	114,488	0,053	0,046
-244,205	327,107	0,120	0,166
-243,190	10,047	0,047	0,026
-242,176	310,083	-0,122	0,166
-241,161	669,234	-0,070	0,131
-240,146	-33,843	0,138	0,055
-239,132	16,603	-0,081	-0,046
-238,117	193,578	0,070	-0,076
-237,103	-200,000	0,004	0,040
-236,088	-200,000	0,027	-0,148
-235,073	-200,000	0,009	-0,084
-234,059	8,826	-0,051	-0,028
-233,044	800,000	0,011	0,028
-232,030	-58,016	-0,081	0,025
-231,015	-165,129	-0,094	-0,003
-230,000	-101,713	-0,059	0,010
-228,986	-112,894	-0,055	-0,008
-227,971	-59,083	0,078	0,024
-226,957	-137,939	-0,052	-0,004
-225,942	-200,000	0,004	0,111
-224,927	-200,000	-0,005	-0,096
-223,913	-140,233	-0,089	-0,007
-222,898	-200,000	0,006	-0,075
-221,884	-200,000	-0,022	-0,090
-220,869	-200,000	-0,003	0,022
-219,855	-200,000	-0,001	-0,050
-218,840	84,956	0,148	-0,117
-217,825	-16,084	-0,059	-0,027
-216,811	416,646	0,020	0,031
-215,796	800,000	0,025	-0,064
-214,782	576,047	-0,090	-0,159
-213,767	77,686	0,089	-0,068
-212,752	800,000	0,031	-0,067
-211,738	-200,000	0,015	0,074
-210,723	-13,241	0,113	-0,053
-209,709	-200,000	0,011	0,090
-208,694	532,714	0,039	0,067
-207,679	800,000	-0,011	0,023
-206,665	-8,325	-0,017	-0,008
-205,650	212,122	-0,097	0,111
-204,636	-58,236	-0,070	0,022
-203,621	267,961	-0,056	0,071
-202,606	-65,664	-0,137	0,039
-201,592	120,897	0,058	-0,052
-200,577	-200,000	-0,012	0,084
-199,563	-200,000	0,000	-0,050
-198,548	423,951	-0,015	0,023
-197,533	-200,000	0,003	0,122
-196,519	-65,595	-0,017	0,005
-195,504	-200,000	-0,012	0,114
-194,490	20,388	-0,098	-0,057
-193,475	-185,781	0,107	0,001
-192,460	585,985	0,050	0,089
-191,446	800,000	-0,022	-0,051
-190,431	-200,000	-0,011	0,083
-189,417	-200,000	-0,007	0,089
-188,402	800,000	0,049	0,099
-187,387	-55,252	-0,197	-0,063
-186,373	800,000	-0,044	-0,134
-185,358	185,549	0,069	-0,074
-184,344	800,000	0,027	0,061
-183,329	224,189	0,115	-0,134
-182,315	800,000	-0,021	-0,061
-181,300	-42,611	0,126	-0,046
-180,285	-120,309	0,037	0,004
-179,271	-163,896	-0,097	-0,003
-178,256	162,976	0,061	0,062
-177,242	452,883	-0,053	0,085
-176,227	-200,000	-0,007	0,087
-175,212	500,455	-0,067	0,112
-174,198	-60,558	-0,120	-0,036
-173,183	172,590	-0,071	-0,074
-172,169	-200,000	-0,001	-0,095
-171,154	-53,532	0,037	-0,012
-170,139	-171,459	-0,053	-0,001
-169,125	86,355	0,100	0,079
-168,110	-200,000	-0,015	-0,056
-167,096	-200,000	-0,017	0,088
-166,081	19,988	0,113	0,065
-165,066	800,000	0,040	-0,123
-164,052	-69,288	-0,117	-0,032
-163,037	-200,000	-0,009	-0,059
-162,023	-200,000	-0,006	0,061
-161,008	-200,000	-0,017	0,120
-159,993	800,000	0,027	0,069
-158,979	259,451	0,030	-0,038
-157,964	-179,347	-0,121	-0,002
-156,950	227,535	0,046	-0,054
-155,935	65,292	0,065	-0,047
-154,920	-88,487	0,069	0,015
-153,906	563,707	0,032	-0,057
-152,891	166,768	-0,054	0,055
-151,877	800,000	-0,047	-0,134
-150,862	105,532	-0,111	-0,094
-149,847	24,152	0,095	0,056
-148,833	522,084	0,046	-0,078
-147,818	-200,000	0,019	0,066
-146,804	20,073	0,038	0,022
-145,789	23,586	0,033	0,019
-144,775	-200,000	-0,016	-0,086
-143,760	-148,860	-0,078	-0,004
-142,745	106,919	0,059	-0,050
-141,731	-200,000	0,017	-0,128
-140,716	76,838	-0,084	0,064
-139,702	-93,062	0,168	-0,033
-138,687	-9,368	0,081	0,039
-137,672	-41,391	-0,028	-0,010
-136,658	294,023	-0,036	-0,047
-135,643	-200,000	-0,008	-0,071
-134,629	161,445	-0,060	0,060
-133,614	800,000	0,064	0,131
-132,599	93,269	0,139	0,113
-131,585	116,793	-0,055	0,048
-130,570	-139,808	-0,115	0,009
-129,556	162,911	0,034	0,034
-128,541	-116,342	-0,125	-0,016
-127,526	-87,979	-0,102	0,022
-126,512	-99,087	-0,058	-0,010
-125,497	-1,229	0,098	-0,050
-124,483	91,806	0,055	0,044
-123,468	5,714	-0,126	0,067
-122,453	-200,000	0,010	0,036
-121,439	81,680	0,085	-0,066
-120,424	77,755	-0,030	-0,023
