DTS Sentinel unit serial number:	SN410029Multiplexer serial number:	ORYXHardware model number:	OX2-SRSoftware version number:	ORYX F/W v4,00 Oryx Data Collector v3.7.2.0data status	okinstallation	B6 Nyhavnadifferential loss correction	single-endedforward channel	channel 2reverse channel	N/Adate	2023/12/09time	20:15:08forward acquisition time	300,00reverse acquisition time	0,00gamma	499,1914k internal	0,3130k external	0,3130temperature offset calibration	1,0000default loss term (dB/km)	0,3820temperature slope calibration	1,0000multiplexer offset coefficient	1,0000multiplexer slope coefficient	1,0000fibre end	0,00T internal ref (°C)	21,26T ext. ref 1 (°C)	5,33T ext. ref 2 (°C)	5,29length (m)	temperature (°C)	Stokes	anti-Stokes-744,400	139,563	0,026	-0,026
-743,385	89,532	-0,100	0,083
-742,371	-200,000	0,006	0,100
-741,356	264,391	-0,149	0,193
-740,342	41,156	0,163	0,110
-739,327	154,343	-0,068	0,069
-738,312	-96,923	0,039	-0,008
-737,298	-8,032	-0,082	0,041
-736,283	381,823	0,047	-0,072
-735,269	46,749	-0,268	0,185
-734,254	-200,000	-0,003	-0,020
-733,239	-85,903	-0,424	-0,097
-732,225	-73,253	0,155	0,042
-731,210	-200,000	-0,005	0,055
-730,196	-131,529	-0,022	-0,002
-729,181	-155,393	0,057	0,003
-728,167	800,000	0,005	-0,015
-727,152	-119,405	-0,059	0,008
-726,137	209,739	-0,111	-0,130
-725,123	187,013	-0,061	-0,068
-724,108	-46,018	-0,176	0,064
-723,094	-70,900	-0,058	0,016
-722,079	317,480	-0,044	-0,062
-721,064	68,063	-0,072	-0,055
-720,050	95,471	0,078	-0,066
-719,035	-119,194	-0,062	-0,008
-718,021	800,000	-0,044	-0,131
-717,006	800,000	-0,070	-0,176
-715,991	0,875	-0,147	0,078
-714,977	-200,000	0,002	-0,150
-713,962	123,323	0,118	-0,110
-712,948	424,843	-0,032	-0,052
-711,933	-200,000	-0,007	-0,135
-710,918	710,926	-0,090	-0,177
-709,904	-75,985	-0,072	-0,019
-708,889	178,343	-0,072	0,079
-707,875	167,721	0,049	-0,052
-706,860	-200,000	0,013	-0,119
-705,845	-200,000	0,005	0,066
-704,831	800,000	-0,042	0,091
-703,816	63,323	-0,050	-0,037
-702,802	800,000	-0,022	-0,046
-701,787	104,148	-0,124	-0,108
-700,772	800,000	0,013	-0,043
-699,758	-101,507	-0,010	-0,002
-698,743	800,000	-0,049	0,135
-697,729	800,000	0,041	-0,093
-696,714	-124,619	-0,075	-0,009
-695,699	153,903	0,076	-0,078
-694,685	-200,000	0,007	-0,057
-693,670	-200,000	-0,010	0,083
-692,656	-200,000	0,013	0,084
-691,641	-31,993	0,082	-0,034
-690,627	55,416	0,118	-0,085
-689,612	-143,777	-0,015	0,001
-688,597	-200,000	0,042	-0,145
-687,583	113,017	0,063	-0,057
-686,568	227,288	0,039	0,047
-685,554	508,034	-0,058	0,100
-684,539	338,217	0,055	-0,080
-683,524	800,000	0,020	-0,057
-682,510	-200,000	0,009	0,116
-681,495	86,243	-0,046	-0,038
-680,481	-134,500	-0,081	0,007
-679,466	-145,362	0,048	-0,003
-678,451	-200,000	-0,013	0,045
-677,437	-200,000	-0,010	0,053
-676,422	318,427	0,085	0,120
-675,408	289,378	-0,099	-0,134
-674,393	-63,429	0,029	-0,009
-673,378	-26,520	-0,043	-0,019
-672,364	-118,987	-0,060	-0,008
-671,349	-200,000	0,015	-0,086
-670,335	666,112	-0,107	-0,206
-669,320	-23,426	0,086	-0,038
-668,305	-163,868	-0,045	-0,002
-667,291	203,475	0,094	-0,108
-666,276	360,807	0,031	-0,046
-665,262	-200,000	0,027	-0,089
-664,247	221,225	-0,080	-0,096
-663,232	-37,403	0,038	-0,015
-662,218	378,936	-0,047	0,071
-661,203	59,336	-0,114	-0,083
-660,189	154,176	-0,051	0,052
-659,174	122,964	-0,061	-0,056
-658,159	308,925	0,078	0,108
-657,145	-200,000	0,022	-0,133
-656,130	50,168	0,121	0,084
-655,116	352,861	-0,013	-0,020
-654,101	-200,000	-0,005	0,083
-653,086	-108,120	-0,033	0,005
-652,072	34,807	0,049	0,032
-651,057	225,296	0,023	-0,028
-650,043	-200,000	0,006	-0,048
-649,028	-146,203	0,030	0,002
-648,014	800,000	-0,024	-0,065
-646,999	143,979	-0,061	-0,060
-645,984	800,000	0,018	0,047
-644,970	-66,673	-0,014	-0,004
-643,955	155,391	-0,077	-0,079
-642,941	-200,000	-0,003	0,049
-641,926	179,676	0,072	0,078
-640,911	222,538	0,059	0,071
-639,897	-55,937	0,106	0,035
-638,882	-114,815	0,178	-0,025
-637,868	449,154	-0,064	-0,105
-636,853	800,000	-0,034	-0,080
-635,838	-200,000	0,016	-0,098
-634,824	800,000	-0,043	0,113
-633,809	-200,000	-0,002	-0,021
-632,795	3,363	-0,069	0,037
-631,780	-200,000	-0,001	0,070
-630,765	-30,567	0,041	0,017
-629,751	77,802	-0,079	0,062
-628,736	392,913	0,052	-0,081
-627,722	-77,087	-0,133	0,034
-626,707	-200,000	-0,020	-0,152
-625,692	36,827	0,027	-0,017
-624,678	25,182	0,032	0,020
-623,663	251,920	-0,086	-0,109
-622,649	-57,265	0,102	-0,033
-621,634	318,666	0,069	-0,097
-620,619	-200,000	0,022	-0,112
-619,605	800,000	-0,037	0,120
-618,590	-116,760	0,136	0,018
-617,576	568,148	0,052	0,094
-616,561	-5,678	0,077	0,039
-615,546	-149,105	-0,085	0,005
-614,532	35,122	-0,070	-0,046
-613,517	105,237	-0,129	0,113
-612,503	-53,906	-0,158	-0,053
-611,488	-200,000	-0,021	0,117
-610,474	151,039	0,047	-0,047
-609,459	-104,451	-0,112	-0,019
-608,444	-93,486	-0,125	-0,025
-607,430	-200,000	0,036	-0,129
-606,415	-23,863	-0,238	0,105
-605,401	-200,000	-0,013	0,106
-604,386	328,062	-0,047	0,067
-603,371	188,490	-0,129	-0,143
-602,357	-53,823	-0,070	0,023
-601,342	-5,837	0,059	0,030
-600,328	800,000	0,048	-0,116
-599,313	-123,837	-0,027	0,003
-598,298	349,104	0,024	-0,035
-597,284	44,682	-0,035	0,024
-596,269	92,933	-0,029	-0,024
-595,255	-53,489	-0,068	-0,023
-594,240	-200,000	0,026	0,089
-593,225	-200,000	0,019	-0,070
-592,211	4,366	-0,146	0,079
-591,196	-102,604	0,063	0,011
-590,182	-110,636	0,109	-0,016
-589,167	16,177	0,059	-0,034
-588,152	348,641	-0,041	-0,060
-587,138	800,000	-0,022	0,053
-586,123	171,844	0,065	-0,069
-585,109	800,000	-0,068	-0,203
-584,094	-200,000	0,039	-0,194
-583,079	238,479	0,013	-0,016
-582,065	89,184	0,059	0,049
-581,050	369,370	0,064	0,097
-580,036	-200,000	-0,018	-0,063
-579,021	143,416	0,039	-0,038
-578,006	-200,000	0,015	-0,056
-576,992	-200,000	-0,007	-0,073
-575,977	-200,000	0,003	0,032
-574,963	-70,021	-0,076	-0,021
-573,948	-124,714	0,051	0,006
-572,934	63,323	0,085	0,063
-571,919	13,717	0,109	0,063
-570,904	-200,000	-0,015	-0,112
-569,890	-113,003	0,082	-0,012
-568,875	-200,000	0,013	-0,109
-567,861	82,950	-0,038	0,030
-566,846	-200,000	0,035	0,169
-565,831	-0,251	0,079	-0,041
-564,817	800,000	-0,051	0,104
-563,802	125,789	-0,047	-0,044
-562,788	-117,311	-0,122	-0,016
-561,773	8,103	0,042	-0,023
-560,758	-200,000	0,003	0,058
-559,744	800,000	-0,045	-0,104
-558,729	800,000	-0,018	0,050
-557,715	245,280	-0,052	-0,065
-556,700	-134,527	-0,087	-0,008
-555,685	-96,943	-0,158	-0,030
-554,671	399,784	-0,080	-0,124
-553,656	46,341	0,120	-0,082
-552,642	800,000	0,074	-0,156
-551,627	3,159	-0,075	-0,040
-550,612	800,000	0,016	-0,043
-549,598	239,305	-0,101	-0,125
-548,583	-200,000	0,000	-0,056
-547,569	103,311	-0,124	0,107
-546,554	-159,734	-0,041	-0,002
-545,539	-1,757	0,111	0,058
-544,525	664,117	0,075	0,144
-543,510	42,295	0,039	0,026
-542,496	-200,000	0,016	-0,148
-541,481	19,647	-0,006	0,004
-540,466	800,000	0,022	-0,072
-539,452	421,606	-0,044	0,070
-538,437	-156,736	0,084	0,004
-537,423	9,843	0,105	-0,059
-536,408	-125,129	0,096	0,011
-535,393	800,000	-0,043	-0,089
-534,379	131,029	0,041	0,038
-533,364	87,457	-0,108	-0,088
-532,350	-14,520	0,155	-0,073
-531,335	139,289	0,088	0,086
-530,321	184,412	0,040	0,044
-529,306	-96,751	-0,049	-0,009
-528,291	-200,000	0,018	0,065
-527,277	98,552	0,042	0,035
-526,262	513,193	0,057	0,098
-525,248	-159,591	-0,090	0,004
-524,233	800,000	0,035	-0,074
-523,218	-112,036	-0,085	0,012
-522,204	800,000	0,026	0,054
-521,189	-82,637	-0,060	-0,014
-520,175	48,754	-0,065	0,045
-519,160	-55,307	0,105	-0,035
-518,145	433,580	-0,016	-0,025
-517,131	150,101	0,034	0,035
-516,116	56,945	-0,069	0,049
-515,102	620,653	-0,097	0,181
-514,087	257,041	-0,071	-0,090
-513,072	-200,000	0,014	-0,150
-512,058	-55,287	0,158	-0,052
-511,043	-200,000	-0,022	-0,072
-510,029	69,022	0,055	0,042
-509,014	30,841	0,191	0,120
-507,999	68,272	-0,061	0,046
-506,985	98,317	-0,071	0,060
-505,970	-70,261	-0,018	-0,005
-504,956	800,000	-0,022	-0,051
-503,941	800,000	-0,013	0,027
-502,926	65,760	-0,023	-0,017
-501,912	-200,000	-0,010	0,165
-500,897	762,361	-0,026	0,052
-499,883	-200,000	-0,010	0,036
-498,868	-117,496	-0,059	0,008
-497,853	688,572	-0,053	-0,103
-496,839	-200,000	0,022	-0,113
-495,824	187,035	-0,055	0,060
-494,810	289,773	0,057	0,076
-493,795	510,191	-0,058	-0,100
-492,781	199,774	0,040	0,045
-491,766	36,631	-0,079	-0,051
-490,751	23,743	0,132	-0,080
-489,737	144,771	-0,131	-0,129
-488,722	411,477	0,075	-0,117
-487,708	-200,000	-0,018	-0,093
-486,693	-73,548	0,114	-0,030
-485,678	-9,827	-0,114	0,056
-484,664	-95,247	-0,198	0,039
-483,649	-168,341	-0,035	-0,001
-482,635	82,942	0,074	0,060
-481,620	147,343	0,086	-0,086
-480,605	605,794	0,021	-0,038
-479,591	62,213	0,095	0,070
-478,576	800,000	-0,020	-0,041
-477,562	-200,000	0,014	0,055
-476,547	-200,000	-0,027	-0,102
-475,532	-101,840	-0,061	0,011
-474,518	219,947	0,084	-0,099
-473,503	-200,000	0,008	0,123
-472,489	399,698	0,021	0,032
-471,474	-27,671	0,099	-0,042
-470,459	413,757	0,059	0,092
-469,445	-200,000	0,006	-0,115
-468,430	722,951	-0,010	0,019
-467,416	-145,818	0,123	-0,008
-466,401	-200,000	0,007	-0,104
-465,386	-200,000	-0,003	0,158
-464,372	-94,854	-0,070	0,014
-463,357	97,952	0,098	-0,083
-462,343	186,360	-0,082	-0,089
-461,328	168,025	0,010	-0,011
-460,313	59,616	-0,115	0,083
-459,299	151,581	0,048	0,048
-458,284	-200,000	0,008	-0,052
-457,270	-86,609	0,025	-0,006
-456,255	-54,335	0,070	-0,023
-455,241	800,000	-0,048	0,126
-454,226	2,712	-0,068	-0,036
-453,211	329,549	0,027	-0,038
-452,197	146,431	-0,028	0,028
-451,182	-200,000	0,018	0,075
-450,168	-200,000	-0,004	0,116
-449,153	-200,000	0,011	0,073
-448,138	1,185	-0,147	0,077
-447,124	-63,057	-0,105	-0,032
-446,109	112,741	0,072	-0,064
-445,095	-137,398	0,169	0,014
-444,080	348,280	-0,106	0,155
-443,065	-200,000	-0,013	0,049
-442,051	663,872	-0,046	-0,087
-441,036	212,712	-0,080	-0,093
-440,022	-102,230	-0,030	-0,005
-439,007	154,630	-0,060	-0,060
-437,992	494,423	0,050	0,084
-436,978	-33,554	0,092	0,037
-435,963	-200,000	0,017	-0,107
-434,949	-200,000	-0,037	-0,167
-433,934	800,000	-0,040	0,081
-432,919	-200,000	0,004	0,018
-431,905	-200,000	0,015	0,065
-430,890	-72,401	0,064	0,017
-429,876	-103,894	0,084	0,014
-428,861	479,702	-0,049	0,082
-427,846	9,757	0,033	-0,018
-426,832	-53,767	-0,053	-0,018
-425,817	-136,653	0,086	-0,007
-424,803	-154,033	0,198	-0,010
-423,788	800,000	0,033	0,107
-422,773	-22,154	-0,097	0,043
-421,759	-98,148	0,122	0,023
-420,744	95,592	-0,063	-0,052
-419,730	-173,643	0,052	-0,001
-418,715	-123,997	-0,054	0,006
-417,701	-49,358	0,050	-0,017
-416,686	-200,000	-0,010	0,107
-415,671	-200,000	0,014	0,091
-414,657	-134,088	0,119	0,011
-413,642	80,312	0,087	0,069
-412,628	800,000	0,029	-0,079
-411,613	126,591	-0,030	-0,028
-410,598	17,612	-0,140	-0,082
-409,584	-200,000	-0,006	-0,045
-408,569	-200,000	0,017	-0,176
-407,555	134,234	0,026	0,025
-406,540	115,055	0,058	-0,052
-405,525	156,371	-0,100	0,102
-404,511	140,757	0,016	-0,016
-403,496	66,814	-0,124	-0,093
-402,482	343,769	0,092	-0,132
-401,467	-122,935	0,049	-0,006
-400,452	-45,808	0,045	0,016
-399,438	-200,000	-0,014	0,084
-398,423	-200,000	-0,014	-0,164
-397,409	-123,380	-0,108	0,012
-396,394	800,000	0,048	-0,151
-395,379	110,508	0,083	-0,073
-394,365	-200,000	0,008	0,042
-393,350	-200,000	0,022	0,107
-392,336	51,554	0,067	0,047
-391,321	5,794	-0,087	0,047
-390,306	-150,003	-0,175	-0,010
-389,292	800,000	0,001	0,004
-388,277	707,288	0,074	0,144
-387,263	-200,000	-0,003	0,013
-386,248	231,562	0,031	-0,038
-385,233	76,212	0,055	-0,043
-384,219	-160,410	-0,014	-0,001
-383,204	-30,153	0,114	-0,047
-382,190	-200,000	-0,024	-0,105
-381,175	-8,923	-0,049	0,024
-380,160	-200,000	-0,025	0,103
-379,146	-200,000	0,005	0,051
-378,131	-200,000	-0,002	0,053
-377,117	-82,160	-0,064	0,015
-376,102	70,026	-0,066	0,050
-375,088	53,592	0,063	-0,044
-374,073	-48,137	-0,119	-0,042
-373,058	-103,132	-0,094	0,016
-372,044	-35,292	0,188	0,075
-371,029	-200,000	0,017	-0,062
-370,015	29,060	-0,126	-0,078
-369,000	111,154	0,126	-0,112
-367,985	-131,586	-0,028	0,003
-366,971	-200,000	-0,013	-0,084
-365,956	344,987	0,120	0,173
-364,942	-26,966	-0,048	0,020
-363,927	800,000	-0,027	0,070
-362,912	-102,181	0,023	-0,004
-361,898	-36,232	-0,040	-0,016
-360,883	71,741	-0,055	0,042
-359,869	-200,000	-0,013	0,159
-358,854	-200,000	0,023	-0,095
-357,839	-200,000	0,003	0,037
-356,825	433,585	0,074	0,118
-355,810	-200,000	-0,017	-0,117
-354,796	39,538	-0,124	0,081
-353,781	-78,235	-0,109	0,027
-352,766	-200,000	-0,019	0,061
-351,752	-200,000	-0,002	0,064
-350,737	10,063	0,070	0,039
-349,723	0,890	-0,087	0,046
-348,708	-86,767	0,106	-0,024
-347,693	-200,000	-0,009	-0,119
-346,679	27,607	0,069	-0,043
-345,664	-200,000	-0,030	-0,257
-344,650	-200,000	-0,024	-0,086
-343,635	-51,533	-0,050	0,017
-342,620	126,478	0,047	0,044
-341,606	71,000	0,062	-0,047
-340,591	-200,000	0,015	-0,134
-339,577	800,000	0,025	0,051
-338,562	-200,000	0,016	-0,149
-337,548	369,642	-0,012	-0,017
-336,533	674,370	0,019	-0,037
-335,518	-114,047	-0,080	-0,011
-334,504	800,000	-0,050	-0,125
-333,489	800,000	-0,036	0,103
-332,475	607,807	-0,020	-0,036
-331,460	-200,000	-0,015	-0,049
-330,445	8,085	0,029	-0,016
-329,431	-200,000	0,008	-0,032
-328,416	46,928	-0,045	-0,030
-327,402	-200,000	-0,010	0,106
-326,387	120,106	-0,051	-0,046
-325,372	450,456	-0,051	0,083
-324,358	-200,000	-0,008	-0,032
-323,343	-94,028	0,029	0,006
-322,329	687,232	-0,061	0,118
-321,314	69,384	-0,041	0,031
-320,299	-102,813	0,067	0,012
-319,285	287,407	-0,096	0,127
-318,270	0,198	-0,047	0,024
-317,256	251,739	0,062	-0,077
-316,241	779,427	-0,023	0,046
-315,226	-17,058	0,062	0,028
-314,212	30,522	0,026	0,016
-313,197	-47,316	0,133	0,047
-312,183	-200,000	-0,005	0,037
-311,168	-200,000	0,003	-0,127
-310,153	320,435	-0,071	-0,099
-309,139	-200,000	-0,011	-0,062
-308,124	-64,116	0,103	0,031
-307,110	115,392	0,054	0,049
-306,095	-24,000	0,134	0,058
-305,080	-200,000	-0,019	-0,090
-304,066	9,862	-0,108	0,060
-303,051	502,284	-0,082	0,140
-302,037	23,632	0,100	0,060
-301,022	-200,000	-0,057	0,227
-300,008	62,248	-0,020	-0,014
-298,993	67,315	0,029	0,022
-297,978	-71,212	-0,062	-0,017
-296,964	274,423	-0,029	0,037
-295,949	-200,000	0,010	-0,065
-294,935	-8,948	-0,063	-0,031
-293,920	800,000	0,026	-0,080
-292,905	-43,856	0,087	-0,032
-291,891	-1,009	0,056	0,029
-290,876	69,009	0,091	0,068
-289,862	167,680	0,050	0,052
-288,847	-116,165	-0,063	0,008
-287,832	314,348	0,011	0,015
-286,818	800,000	0,041	0,109
-285,803	-200,000	0,005	0,082
-284,789	800,000	0,003	0,009
-283,774	-200,000	-0,002	0,048
-282,759	800,000	-0,054	-0,141
-281,745	-200,000	0,052	-0,229
-280,730	203,693	-0,050	-0,056
-279,716	800,000	0,032	0,098
-278,701	-63,706	0,145	-0,043
-277,686	142,248	-0,093	0,090
-276,672	210,080	0,046	0,053
-275,657	-200,000	0,001	-0,063
-274,643	-200,000	0,041	-0,171
-273,628	17,604	-0,061	-0,036
-272,613	-132,346	0,035	-0,003
-271,599	-80,966	-0,044	-0,011
-270,584	534,637	-0,047	-0,082
-269,570	-118,544	-0,040	0,005
-268,555	239,631	0,067	0,082
-267,540	48,292	-0,064	-0,044
-266,526	51,132	-0,084	0,058
-265,511	-200,000	-0,005	-0,031
-264,497	-123,249	0,181	0,021
-263,482	-21,556	0,087	0,038
-262,467	146,511	-0,020	0,019
-261,453	118,004	0,138	0,124
-260,438	-194,483	0,040	-0,000
-259,424	26,695	0,079	-0,048
-258,409	483,608	0,051	0,085
-257,395	-104,645	-0,053	-0,009
-256,380	612,107	-0,032	0,059
-255,365	108,630	0,096	0,084
-254,351	0,252	-0,061	0,032
-253,336	-118,472	-0,106	0,014
-252,322	-83,898	-0,040	-0,009
-251,307	-27,656	-0,019	-0,008
-250,292	105,316	0,036	0,031
-249,278	-200,000	0,004	0,017
-248,263	-39,462	0,116	0,044
-247,249	283,995	0,056	0,073
-246,234	116,850	0,034	-0,030
-245,219	399,917	-0,028	0,044
-244,205	169,203	-0,084	-0,088
-243,190	32,886	-0,098	-0,062
-242,176	-200,000	0,028	0,107
-241,161	-200,000	0,018	0,060
-240,146	-100,824	-0,044	0,008
-239,132	-131,386	-0,103	-0,010
-238,117	-200,000	-0,010	-0,042
-237,103	-17,685	0,023	-0,010
-236,088	-200,000	0,006	0,042
-235,073	-200,000	-0,001	0,023
-234,059	-200,000	0,005	0,048
-233,044	-200,000	-0,005	0,029
-232,030	-200,000	0,005	0,065
-231,015	589,340	-0,105	-0,190
-230,000	155,315	-0,020	-0,020
-228,986	59,960	-0,069	-0,050
-227,971	-89,575	0,104	-0,022
-226,957	44,215	0,147	0,098
-225,942	-200,000	-0,000	-0,044
-224,927	800,000	-0,040	0,093
-223,913	-1,408	-0,121	0,062
-222,898	72,221	-0,182	-0,138
-221,884	152,109	0,102	0,101
-220,869	647,209	0,079	0,149
-219,855	-200,000	-0,044	-0,153
-218,840	45,004	0,038	-0,026
-217,825	125,724	0,020	0,018
-216,811	49,753	-0,101	0,069
-215,796	19,998	-0,102	-0,060
-214,782	-78,233	-0,075	0,019
-213,767	-200,000	0,003	0,011
-212,752	-67,383	-0,074	-0,021
-211,738	-200,000	0,028	0,107
-210,723	800,000	-0,028	0,084
-209,709	20,305	-0,079	-0,046
-208,694	-56,420	0,035	0,011
-207,679	800,000	0,020	0,050
-206,665	377,170	0,037	-0,056
-205,650	595,199	0,038	0,069
-204,636	51,802	-0,190	0,132
-203,621	800,000	0,009	-0,020
-202,606	64,493	0,079	-0,058
-201,592	-62,755	0,095	-0,028
-200,577	55,243	-0,064	0,045
-199,563	-0,407	0,026	-0,014
-198,548	-200,000	0,024	0,125
-197,533	-200,000	-0,006	-0,072
-196,519	-200,000	-0,030	-0,111
-195,504	-112,292	-0,040	0,006
-194,490	-138,826	-0,164	0,013
-193,475	-200,000	-0,003	-0,105
-192,460	59,442	0,085	0,061
-191,446	-200,000	0,019	0,138
-190,431	800,000	0,045	0,134
-189,417	-82,051	0,054	-0,013
-188,402	-200,000	0,012	0,118
-187,387	182,864	-0,025	-0,027
-186,373	623,543	0,046	0,084
-185,358	-62,390	-0,040	-0,012
-184,344	800,000	0,033	-0,101
-183,329	16,349	-0,060	0,035
-182,315	-135,121	0,118	-0,010
-181,300	-48,991	0,150	0,052
-180,285	709,317	-0,054	0,105
-179,271	146,592	-0,174	-0,170
-178,256	-200,000	-0,014	-0,094
-177,242	-200,000	-0,010	0,079
-176,227	-200,000	0,003	0,054
-175,212	101,774	0,066	0,056
-174,198	741,687	-0,030	-0,059
-173,183	96,154	0,043	0,036
-172,169	-200,000	0,007	0,074
-171,154	487,898	0,048	-0,079
-170,139	-21,734	0,086	0,038
-169,125	15,493	-0,055	0,031
-168,110	-83,621	0,008	0,002
-167,096	588,300	0,047	0,084
-166,081	81,126	-0,124	-0,097
-165,066	-200,000	0,016	0,108
-164,052	-200,000	-0,023	0,124
-163,037	800,000	0,025	-0,075
-162,023	-194,611	0,163	-0,001
-161,008	-52,272	0,043	0,014
-159,993	-200,000	-0,002	0,023
-158,979	255,602	-0,031	-0,039
-157,964	800,000	-0,022	0,045
-156,950	800,000	0,093	-0,192
-155,935	-155,393	0,134	0,006
-154,920	490,752	-0,022	0,036
-153,906	-200,000	-0,011	-0,064
-152,891	-63,299	-0,051	0,015
-151,877	-200,000	0,003	0,074
-150,862	648,696	0,024	0,045
-149,847	-200,000	-0,017	0,091
-148,833	-8,625	-0,073	0,035
-147,818	75,265	0,037	0,028
-146,804	-200,000	0,000	0,075
-145,789	651,083	0,024	0,045
-144,775	199,864	0,031	0,034
-143,760	236,677	0,043	0,052
-142,745	-160,069	-0,053	0,002
-141,731	61,212	-0,091	0,065
-140,716	-200,000	0,024	0,144
-139,702	-200,000	0,000	0,189
-138,687	118,789	0,052	0,047
-137,672	444,394	0,089	-0,143
-136,658	147,582	-0,049	0,048
-135,643	436,158	-0,042	-0,066
-134,629	-174,215	-0,032	-0,001
-133,614	137,601	0,061	0,058
-132,599	-200,000	-0,004	0,025
-131,585	47,340	0,099	0,067
-130,570	190,268	0,008	0,009
-129,556	311,026	0,058	-0,079
-128,541	10,557	-0,143	-0,079
-127,526	36,800	0,041	0,026
-126,512	-200,000	-0,011	0,073
-125,497	-161,226	0,098	0,004
-124,483	-46,937	0,053	-0,019
-123,468	44,835	0,063	-0,042
-122,453	-51,833	-0,122	-0,041
-121,439	-200,000	0,006	0,019
-120,424	-137,585	-0,087	0,007
-119,410	-123,811	-0,086	0,010
-118,395	-200,000	0,003	0,094
