DTS Sentinel unit serial number:	SN410029Multiplexer serial number:	ORYXHardware model number:	OX2-SRSoftware version number:	ORYX F/W v4,00 Oryx Data Collector v3.7.2.0data status	okinstallation	B6 Nyhavnadifferential loss correction	single-endedforward channel	channel 2reverse channel	N/Adate	2023/12/10time	16:20:08forward acquisition time	300,00reverse acquisition time	0,00gamma	499,1914k internal	0,3123k external	0,3123temperature offset calibration	1,0000default loss term (dB/km)	0,3820temperature slope calibration	1,0000multiplexer offset coefficient	1,0000multiplexer slope coefficient	1,0000fibre end	0,00T internal ref (°C)	22,37T ext. ref 1 (°C)	6,13T ext. ref 2 (°C)	6,13length (m)	temperature (°C)	Stokes	anti-Stokes-744,400	464,199	-0,033	-0,054
-743,385	-100,850	-0,329	-0,060
-742,371	800,000	0,044	0,120
-741,356	150,497	-0,250	0,253
-740,342	13,268	-0,072	-0,042
-739,327	-48,267	-0,237	0,085
-738,312	-94,041	0,068	0,014
-737,298	119,604	-0,154	0,143
-736,283	317,312	0,067	0,095
-735,269	-103,649	-0,118	0,020
-734,254	385,381	-0,028	-0,044
-733,239	-68,275	-0,464	-0,134
-732,225	-104,203	0,044	0,008
-731,210	-200,000	0,005	0,110
-730,196	9,805	-0,098	-0,055
-729,181	-15,412	0,068	-0,032
-728,167	800,000	0,016	-0,034
-727,152	-55,716	0,044	0,015
-726,137	-200,000	-0,016	0,139
-725,123	174,779	-0,056	-0,060
-724,108	-200,000	-0,019	-0,064
-723,094	60,994	-0,119	-0,088
-722,079	41,152	-0,099	-0,066
-721,064	800,000	0,018	-0,054
-720,050	724,491	0,009	-0,017
-719,035	347,028	-0,033	-0,048
-718,021	88,138	-0,084	-0,069
-717,006	-200,000	0,023	-0,096
-715,991	-200,000	-0,010	-0,056
-714,977	37,073	-0,042	-0,027
-713,962	800,000	0,012	0,025
-712,948	-18,821	0,042	0,019
-711,933	800,000	0,038	0,118
-710,918	-200,000	0,039	-0,134
-709,904	-53,764	-0,101	-0,034
-708,889	-31,592	-0,053	0,022
-707,875	-106,168	0,076	0,013
-706,860	-116,055	-0,036	0,005
-705,845	381,035	-0,073	-0,112
-704,831	-2,081	0,120	0,063
-703,816	-161,360	-0,043	0,002
-702,802	259,984	-0,028	0,036
-701,787	-132,823	-0,043	-0,004
-700,772	-29,436	0,034	-0,014
-699,758	250,354	0,062	0,079
-698,743	-75,139	0,158	0,042
-697,729	173,325	-0,020	-0,021
-696,714	800,000	0,052	-0,108
-695,699	38,187	-0,048	0,032
-694,685	519,297	0,025	0,044
-693,670	29,035	-0,086	-0,054
-692,656	-128,008	-0,009	0,001
-691,641	201,213	-0,028	-0,033
-690,627	800,000	-0,025	0,068
-689,612	-200,000	-0,004	-0,083
-688,597	587,322	-0,044	-0,080
-687,583	7,951	-0,096	-0,053
-686,568	-59,857	0,105	0,033
-685,554	800,000	-0,050	-0,128
-684,539	5,067	-0,090	-0,049
-683,524	-49,071	0,069	0,024
-682,510	211,130	-0,056	0,065
-681,495	20,862	-0,054	-0,032
-680,481	611,526	0,020	-0,037
-679,466	-86,114	-0,147	-0,033
-678,451	167,414	-0,119	0,126
-677,437	171,527	0,101	0,108
-676,422	130,001	-0,102	0,097
-675,408	-200,000	-0,006	-0,143
-674,393	32,279	-0,077	0,049
-673,378	615,442	-0,032	0,061
-672,364	-36,307	-0,070	-0,028
-671,349	-173,260	-0,044	0,001
-670,335	800,000	0,030	0,071
-669,320	-10,984	-0,093	0,046
-668,305	309,186	0,058	-0,080
-667,291	-191,751	-0,030	-0,000
-666,276	800,000	0,031	-0,063
-665,262	-172,527	0,108	0,002
-664,247	-200,000	0,007	-0,108
-663,232	537,084	0,046	-0,082
-662,218	227,341	0,048	-0,058
-661,203	-118,339	-0,025	0,003
-660,189	42,373	0,071	0,048
-659,174	-83,695	-0,192	-0,045
-658,159	-200,000	-0,001	0,015
-657,145	-200,000	0,002	-0,020
-656,130	49,318	0,134	-0,093
-655,116	-14,349	0,071	-0,034
-654,101	-200,000	0,044	0,159
-653,086	-91,324	0,054	0,011
-652,072	-161,192	-0,049	0,002
-651,057	-200,000	0,014	-0,057
-650,043	-200,000	0,002	-0,016
-649,028	-12,840	0,020	-0,010
-648,014	-155,719	-0,106	-0,005
-646,999	-21,547	-0,060	-0,027
-645,984	-69,802	0,109	0,031
-644,970	42,686	0,063	0,043
-643,955	202,950	-0,064	0,073
-642,941	800,000	0,021	-0,063
-641,926	65,402	0,061	-0,046
-640,911	-29,414	-0,068	-0,029
-639,897	-200,000	0,033	0,134
-638,882	-61,586	0,083	0,026
-637,868	800,000	0,009	0,029
-636,853	142,301	0,073	0,072
-635,838	610,603	-0,028	-0,053
-634,824	800,000	0,011	0,034
-633,809	100,193	0,031	-0,027
-632,795	800,000	-0,038	0,109
-631,780	93,758	0,060	-0,050
-630,765	22,129	0,020	0,012
-629,751	-21,599	-0,110	0,049
-628,736	-115,565	-0,059	-0,008
-627,722	85,218	-0,096	0,078
-626,707	-63,768	-0,154	0,047
-625,692	-169,254	0,065	0,002
-624,678	800,000	-0,021	0,053
-623,663	125,455	-0,078	0,073
-622,649	-79,796	-0,080	-0,020
-621,634	54,624	-0,072	-0,052
-620,619	800,000	-0,033	-0,075
-619,605	-200,000	-0,003	0,094
-618,590	367,076	0,047	-0,071
-617,576	800,000	0,035	0,106
-616,561	-125,055	0,081	-0,009
-615,546	-200,000	-0,016	-0,060
-614,532	-152,385	-0,049	0,003
-613,517	250,370	-0,089	-0,112
-612,503	39,963	0,076	-0,051
-611,488	800,000	-0,039	-0,097
-610,474	800,000	-0,017	-0,054
-609,459	-200,000	-0,008	0,029
-608,444	-170,024	-0,092	0,002
-607,430	341,133	0,061	-0,089
-606,415	-132,680	-0,072	0,007
-605,401	107,529	0,013	-0,012
-604,386	163,888	0,088	0,092
-603,371	180,971	-0,025	0,028
-602,357	800,000	0,029	-0,077
-601,342	-200,000	0,027	0,172
-600,328	46,146	0,043	-0,029
-599,313	19,171	-0,109	-0,065
-598,298	223,669	-0,038	-0,046
-597,284	-200,000	-0,047	0,158
-596,269	-200,000	0,023	0,167
-595,255	800,000	0,029	0,086
-594,240	-200,000	-0,019	-0,109
-593,225	-200,000	0,004	-0,086
-592,211	-3,685	-0,093	0,048
-591,196	-118,956	0,047	0,006
-590,182	800,000	0,008	-0,021
-589,167	-37,378	-0,129	0,051
-588,152	96,027	-0,060	-0,051
-587,138	-18,387	-0,027	-0,012
-586,123	-184,841	-0,179	0,002
-585,109	-0,670	0,039	0,021
-584,094	800,000	0,023	-0,071
-583,079	-200,000	-0,008	-0,052
-582,065	440,110	0,025	0,041
-581,050	800,000	-0,050	0,126
-580,036	21,711	-0,036	-0,022
-579,021	82,310	-0,062	-0,050
-578,006	-37,410	-0,073	-0,029
-576,992	-117,269	0,183	0,024
-575,977	800,000	-0,019	0,051
-574,963	-200,000	0,001	-0,094
-573,948	5,267	0,076	0,041
-572,934	430,240	-0,064	-0,104
-571,919	-89,995	-0,148	-0,032
-570,904	256,871	-0,046	-0,058
-569,890	622,366	0,041	-0,077
-568,875	-200,000	0,000	0,068
-567,861	-122,214	0,097	0,012
-566,846	-0,238	0,082	-0,043
-565,831	-200,000	0,104	0,000
-564,817	-46,101	-0,154	0,056
-563,802	2,187	-0,014	-0,007
-562,788	-200,000	0,020	0,109
-561,773	-31,489	-0,091	0,038
-560,758	-200,000	0,003	0,072
-559,744	51,922	0,043	0,030
-558,729	56,860	0,031	0,022
-557,715	-187,320	-0,045	0,000
-556,700	-33,615	0,062	-0,025
-555,685	34,713	-0,037	-0,024
-554,671	144,045	0,043	0,042
-553,656	-125,742	0,046	0,005
-552,642	458,082	0,018	0,030
-551,627	-5,811	-0,161	-0,081
-550,612	94,598	-0,114	0,096
-549,598	-200,000	-0,006	-0,098
-548,583	-200,000	0,008	-0,042
-547,569	120,416	-0,051	-0,047
-546,554	59,499	0,044	0,032
-545,539	-42,592	-0,123	-0,046
-544,525	-200,000	0,028	0,187
-543,510	-200,000	0,011	0,047
-542,496	-200,000	0,008	0,039
-541,481	460,349	-0,039	0,065
-540,466	-200,000	0,008	0,079
-539,452	-99,959	0,064	-0,012
-538,437	5,399	0,190	-0,103
-537,423	157,631	-0,090	-0,092
-536,408	-115,891	-0,098	-0,013
-535,393	-200,000	0,019	-0,081
-534,379	-123,954	-0,097	0,011
-533,364	-24,562	0,063	-0,028
-532,350	104,059	0,049	0,043
-531,335	-200,000	-0,000	-0,020
-530,321	213,135	0,054	0,063
-529,306	54,046	-0,153	-0,109
-528,291	142,280	-0,053	-0,052
-527,277	-10,645	0,020	0,010
-526,262	73,053	-0,090	-0,069
-525,248	-56,113	0,085	0,028
-524,233	-200,000	0,004	0,032
-523,218	-138,560	0,123	0,010
-522,204	64,277	0,127	0,095
-521,189	170,817	-0,093	0,099
-520,175	-30,403	0,043	0,018
-519,160	-5,837	0,108	0,055
-518,145	800,000	0,018	-0,038
-517,131	-200,000	0,061	-0,223
-516,116	-46,457	-0,011	-0,004
-515,102	87,760	-0,076	-0,062
-514,087	-63,321	-0,151	0,046
-513,072	63,800	-0,103	0,077
-512,058	116,889	0,087	-0,079
-511,043	137,055	-0,064	0,062
-510,029	-24,576	0,103	0,045
-509,014	52,565	-0,040	-0,028
-507,999	-35,406	0,044	-0,018
-506,985	800,000	-0,052	0,111
-505,970	800,000	-0,059	-0,133
-504,956	4,115	-0,187	-0,101
-503,941	-200,000	-0,039	0,128
-502,926	103,406	-0,068	0,059
-501,912	179,856	0,071	0,077
-500,897	4,404	0,139	0,075
-499,883	-52,236	0,033	-0,011
-498,868	539,641	-0,071	0,126
-497,853	137,789	0,041	-0,040
-496,839	784,857	0,062	-0,127
-495,824	428,296	-0,018	-0,029
-494,810	-200,000	-0,015	0,093
-493,795	459,799	0,034	0,056
-492,781	-48,493	0,049	-0,017
-491,766	-82,985	-0,100	-0,024
-490,751	-111,624	-0,155	0,023
-489,737	340,636	-0,112	-0,162
-488,722	637,283	-0,012	-0,022
-487,708	87,489	0,038	-0,031
-486,693	-119,373	0,036	-0,005
-485,678	-140,312	0,030	-0,002
-484,664	252,621	0,076	0,096
-483,649	59,234	-0,021	0,015
-482,635	31,538	0,124	-0,078
-481,620	-63,866	-0,086	-0,026
-480,605	-63,164	0,084	0,025
-479,591	146,495	-0,048	0,047
-478,576	-67,849	-0,137	0,039
-477,562	-64,992	-0,033	0,010
-476,547	-22,269	-0,030	0,013
-475,532	308,715	0,010	-0,014
-474,518	-200,000	0,008	0,029
-473,503	-200,000	-0,020	0,166
-472,489	-24,673	0,163	0,071
-471,474	-200,000	0,003	0,028
-470,459	163,108	-0,031	-0,032
-469,445	-200,000	-0,001	-0,044
-468,430	800,000	-0,026	-0,063
-467,416	800,000	-0,044	0,115
-466,401	-200,000	-0,005	0,219
-465,386	-200,000	0,014	-0,140
-464,372	-33,695	-0,054	-0,022
-463,357	696,055	-0,043	0,083
-462,343	21,424	-0,075	-0,045
-461,328	-200,000	0,000	0,008
-460,313	-82,236	-0,082	-0,019
-459,299	197,369	0,149	0,168
-458,284	149,115	0,093	0,093
-457,270	-66,786	-0,089	0,026
-456,255	-200,000	0,000	0,108
-455,241	-200,000	-0,042	-0,161
-454,226	-200,000	-0,035	-0,115
-453,211	-162,676	0,060	-0,002
-452,197	97,105	-0,007	-0,006
-451,182	-200,000	-0,010	0,068
-450,168	-131,725	0,085	-0,008
-449,153	800,000	-0,038	-0,113
-448,138	-195,004	-0,157	-0,001
-447,124	-98,331	-0,175	-0,033
-446,109	800,000	-0,011	-0,037
-445,095	109,896	0,070	0,062
-444,080	-200,000	0,001	0,101
-443,065	-200,000	0,002	0,234
-442,051	-200,000	0,007	0,113
-441,036	-57,357	0,121	-0,039
-440,022	262,426	-0,047	0,060
-439,007	87,989	-0,044	-0,036
-437,992	-138,829	0,033	-0,003
-436,978	293,449	-0,085	0,115
-435,963	329,378	0,063	0,090
-434,949	352,322	0,102	-0,149
-433,934	19,374	-0,058	-0,034
-432,919	800,000	0,048	0,123
-431,905	-200,000	-0,014	-0,132
-430,890	127,262	0,116	0,108
-429,876	-96,541	0,122	-0,023
-428,861	-200,000	0,005	0,072
-427,846	195,501	-0,034	-0,038
-426,832	-115,213	-0,203	-0,028
-425,817	800,000	-0,021	-0,056
-424,803	56,498	0,047	-0,034
-423,788	-112,872	-0,140	-0,020
-422,773	277,788	0,082	0,108
-421,759	-200,000	0,030	0,173
-420,744	800,000	-0,015	-0,046
-419,730	109,171	-0,065	-0,057
-418,715	-200,000	-0,023	-0,204
-417,701	-12,332	0,081	-0,039
-416,686	171,752	0,054	0,057
-415,671	-200,000	0,007	0,057
-414,657	-2,456	0,199	-0,102
-413,642	800,000	-0,068	0,153
-412,628	800,000	0,050	-0,150
-411,613	427,840	0,018	-0,029
-410,598	-88,903	0,062	-0,013
-409,584	-200,000	0,001	0,010
-408,569	19,207	0,159	-0,093
-407,555	-40,845	-0,093	0,035
-406,540	-200,000	-0,032	0,135
-405,525	-36,859	0,098	-0,039
-404,511	-200,000	-0,054	-0,189
-403,496	90,577	-0,075	-0,062
-402,482	-200,000	0,012	-0,177
-401,467	54,059	0,082	-0,058
-400,452	-110,630	0,101	0,015
-399,438	-142,544	-0,096	0,007
-398,423	98,103	-0,032	-0,027
-397,409	800,000	0,020	-0,044
-396,394	434,492	-0,091	-0,146
-395,379	-105,631	0,192	0,032
-394,365	191,578	-0,039	-0,043
-393,350	-200,000	-0,004	-0,115
-392,336	-6,992	0,109	0,054
-391,321	-36,424	-0,124	-0,049
-390,306	-13,282	0,066	0,031
-389,292	-200,000	0,014	-0,068
-388,277	-171,415	0,157	-0,004
-387,263	800,000	0,030	0,074
-386,248	-200,000	0,042	0,145
-385,233	-111,487	0,128	0,019
-384,219	-79,464	0,085	-0,021
-383,204	472,481	0,046	0,077
-382,190	143,961	-0,112	-0,110
-381,175	47,397	0,114	-0,078
-380,160	800,000	-0,018	-0,042
-379,146	-98,870	0,144	0,027
-378,131	-63,098	-0,181	0,054
-377,117	-62,606	0,033	-0,010
-376,102	800,000	-0,006	0,021
-375,088	800,000	0,045	0,095
-374,073	181,346	0,042	-0,045
-373,058	249,227	-0,049	0,061
-372,044	-200,000	-0,005	0,018
-371,029	538,628	-0,019	-0,034
-370,015	-24,141	0,064	0,028
-369,000	-131,118	0,026	-0,002
-367,985	-169,681	-0,009	0,000
-366,971	-200,000	0,015	0,085
-365,956	-200,000	0,024	-0,108
-364,942	75,256	0,147	-0,114
-363,927	-200,000	0,014	0,071
-362,912	-200,000	-0,034	-0,148
-361,898	742,696	-0,026	-0,052
-360,883	-21,888	-0,193	-0,086
-359,869	-38,710	-0,063	0,024
-358,854	50,355	0,087	0,060
-357,839	-102,650	0,021	0,004
-356,825	96,222	0,066	0,055
-355,810	-200,000	-0,001	0,066
-354,796	800,000	-0,027	-0,071
-353,781	396,568	0,069	-0,107
-352,766	-200,000	0,024	-0,081
-351,752	42,224	-0,135	0,090
-350,737	-84,928	-0,089	0,020
-349,723	28,625	0,091	0,056
-348,708	621,926	-0,052	-0,097
-347,693	-200,000	0,001	0,007
-346,679	800,000	-0,042	-0,094
-345,664	-14,435	-0,078	0,037
-344,650	-153,017	0,193	-0,010
-343,635	33,951	0,079	-0,051
-342,620	619,898	-0,022	-0,040
-341,606	800,000	0,026	-0,067
-340,591	61,153	0,061	0,044
-339,577	-78,515	-0,085	0,021
-338,562	189,852	0,069	-0,076
-337,548	588,378	-0,110	-0,199
-336,533	-108,596	0,109	-0,017
-335,518	323,772	0,081	0,113
-334,504	-200,000	0,019	-0,137
-333,489	-59,110	0,076	0,024
-332,475	-200,000	-0,005	-0,034
-331,460	800,000	-0,011	-0,034
-330,445	-200,000	-0,018	-0,063
-329,431	-200,000	0,007	0,198
-328,416	13,514	0,091	-0,052
-327,402	475,863	-0,020	0,033
-326,387	37,936	0,053	-0,035
-325,372	-7,347	-0,039	0,019
-324,358	-200,000	-0,023	-0,110
-323,343	114,906	0,055	-0,049
-322,329	203,911	0,087	-0,099
-321,314	-155,393	0,014	-0,001
-320,299	92,155	0,105	0,087
-319,285	-200,000	0,009	0,119
-318,270	-200,000	0,006	-0,038
-317,256	-90,527	-0,025	0,005
-316,241	800,000	-0,045	0,129
-315,226	-96,414	0,030	-0,006
-314,212	43,962	0,089	0,060
-313,197	-61,346	0,084	0,026
-312,183	421,501	-0,081	0,128
-311,168	-71,153	0,173	-0,047
-310,153	-198,946	-0,026	-0,000
-309,139	-200,000	-0,005	0,029
-308,124	0,406	0,046	0,024
-307,110	800,000	0,012	-0,026
-306,095	386,887	-0,067	0,101
-305,080	141,241	-0,047	-0,046
-304,066	11,495	0,044	-0,025
-303,051	-114,000	-0,079	-0,011
-302,037	56,953	-0,063	-0,045
-301,022	183,525	0,033	-0,036
-300,008	-51,860	0,173	-0,059
-298,993	-200,000	-0,019	-0,064
-297,978	163,370	0,162	0,167
-296,964	47,876	-0,045	0,031
-295,949	103,957	-0,113	-0,097
-294,935	-60,516	-0,063	-0,020
-293,920	674,772	-0,042	-0,079
-292,905	451,368	0,063	-0,102
-291,891	721,569	-0,037	-0,073
-290,876	22,338	0,033	0,020
-289,862	454,715	-0,072	-0,117
-288,847	-180,920	-0,111	-0,002
-287,832	122,920	0,114	-0,105
-286,818	-88,042	0,090	-0,020
-285,803	106,372	-0,040	0,035
-284,789	26,078	-0,063	0,038
-283,774	-46,143	0,106	-0,038
-282,759	-167,617	-0,105	-0,003
-281,745	437,700	-0,056	-0,090
-280,730	331,044	0,086	-0,122
-279,716	209,398	-0,138	-0,158
-278,701	-161,176	-0,122	0,005
-277,686	-200,000	0,018	0,131
-276,672	4,569	-0,071	-0,038
-275,657	239,890	0,040	0,049
-274,643	-21,266	-0,023	0,010
-273,628	-149,451	-0,068	-0,004
-272,613	-200,000	0,014	0,165
-271,599	800,000	-0,013	0,029
-270,584	-68,277	0,045	0,013
-269,570	800,000	0,024	0,078
-268,555	67,912	-0,069	0,052
-267,540	-25,763	0,122	-0,052
-266,526	-200,000	-0,017	-0,092
-265,511	-200,000	0,006	0,098
-264,497	113,018	0,074	-0,065
-263,482	91,159	0,107	0,088
-262,467	35,632	-0,060	-0,039
-261,453	531,745	0,114	0,199
-260,438	-76,577	0,186	0,047
-259,424	-102,811	0,166	0,029
-258,409	-200,000	0,007	-0,097
-257,395	-162,176	0,030	0,001
-256,380	319,420	0,120	0,167
-255,365	464,038	0,053	0,087
-254,351	764,011	-0,015	0,031
-253,336	430,436	-0,013	0,021
-252,322	422,063	-0,092	-0,144
-251,307	191,377	-0,042	-0,046
-250,292	800,000	0,024	0,052
-249,278	-19,152	0,090	-0,041
-248,263	31,821	0,053	0,033
-247,249	800,000	0,028	0,084
-246,234	-200,000	-0,009	-0,101
-245,219	68,567	-0,087	-0,066
-244,205	682,033	-0,023	-0,043
-243,190	-200,000	0,013	-0,043
-242,176	-200,000	-0,002	-0,067
-241,161	142,047	0,045	0,044
-240,146	-200,000	-0,016	0,086
-239,132	25,701	0,006	0,004
-238,117	-200,000	-0,033	-0,117
-237,103	-140,238	-0,107	-0,008
-236,088	800,000	0,053	-0,159
-235,073	-100,936	-0,034	0,006
-234,059	770,332	0,036	0,071
-233,044	-200,000	-0,000	0,057
-232,030	-138,261	0,092	0,007
-231,015	-107,989	-0,129	-0,020
-230,000	175,226	-0,009	-0,009
-228,986	-11,113	-0,158	-0,076
-227,971	666,274	-0,035	0,066
-226,957	800,000	-0,025	0,077
-225,942	-200,000	0,016	-0,092
-224,927	-42,030	-0,110	-0,041
-223,913	-200,000	-0,006	-0,114
-222,898	-200,000	0,025	-0,217
-221,884	-167,433	0,082	-0,002
-220,869	-200,000	-0,009	0,181
-219,855	-132,459	0,169	0,016
-218,840	497,817	-0,071	0,121
-217,825	-60,128	-0,055	0,017
-216,811	135,002	-0,037	0,035
-215,796	556,553	-0,080	-0,141
-214,782	51,041	-0,028	-0,019
-213,767	800,000	0,042	-0,093
-212,752	-76,855	0,078	-0,020
-211,738	800,000	0,027	0,061
-210,723	-200,000	-0,014	0,075
-209,709	-27,085	-0,158	0,067
-208,694	-13,235	-0,048	-0,022
-207,679	-154,044	-0,057	-0,003
-206,665	800,000	0,037	0,086
-205,650	141,140	0,064	-0,062
-204,636	281,566	-0,047	0,062
-203,621	-24,269	0,069	0,030
-202,606	-102,859	0,125	-0,021
-201,592	117,005	-0,042	-0,037
-200,577	171,140	0,028	0,029
-199,563	175,688	-0,025	-0,027
-198,548	-200,000	0,021	0,070
-197,533	800,000	-0,072	0,186
-196,519	238,391	0,109	0,132
-195,504	800,000	0,034	0,100
-194,490	207,815	0,028	-0,032
-193,475	-179,434	-0,015	0,000
-192,460	-88,150	0,069	-0,015
-191,446	-84,176	0,081	0,019
-190,431	265,840	-0,075	0,096
-189,417	192,144	-0,062	0,068
-188,402	-49,380	0,080	-0,028
-187,387	15,570	-0,032	-0,018
-186,373	157,737	-0,036	-0,036
-185,358	16,921	0,063	-0,037
-184,344	-200,000	0,004	-0,053
-183,329	-101,219	0,056	-0,010
-182,315	800,000	-0,096	0,248
-181,300	800,000	-0,044	-0,104
-180,285	-7,366	-0,176	-0,087
-179,271	81,413	-0,149	-0,117
-178,256	-23,055	0,047	0,021
-177,242	-41,365	-0,069	-0,026
-176,227	5,287	0,164	-0,088
-175,212	125,458	0,084	-0,078
-174,198	-200,000	0,018	0,140
-173,183	-200,000	-0,010	0,156
-172,169	23,896	-0,169	-0,102
-171,154	254,606	-0,092	-0,114
-170,139	192,020	0,012	0,013
-169,125	510,762	-0,078	0,133
-168,110	800,000	0,035	0,091
-167,096	90,833	0,096	-0,078
-166,081	-120,204	0,029	-0,004
-165,066	-177,902	-0,172	0,003
-164,052	355,192	0,017	-0,024
-163,037	-200,000	-0,040	0,217
-162,023	-200,000	0,005	0,103
-161,008	-16,053	0,055	0,025
-159,993	-200,000	-0,000	-0,042
-158,979	-200,000	0,025	-0,085
-157,964	-200,000	-0,018	-0,080
-156,950	297,928	-0,065	-0,087
-155,935	800,000	-0,033	-0,107
-154,920	433,766	0,072	-0,115
-153,906	108,980	0,029	-0,025
-152,891	-92,610	-0,053	-0,011
-151,877	71,101	0,022	-0,017
-150,862	1,728	-0,052	0,027
-149,847	800,000	0,013	-0,033
-148,833	22,242	-0,067	-0,040
-147,818	-60,787	-0,061	-0,019
-146,804	-120,805	-0,038	-0,005
-145,789	800,000	-0,064	0,140
-144,775	-25,767	-0,121	-0,052
-143,760	47,852	0,037	0,025
-142,745	-200,000	-0,014	0,048
-141,731	-200,000	0,004	-0,088
-140,716	-14,862	0,109	0,051
-139,702	-118,796	0,038	0,005
-138,687	-104,840	-0,033	0,005
-137,672	-158,855	-0,183	-0,007
-136,658	-161,991	-0,030	0,001
-135,643	132,214	-0,105	-0,099
-134,629	195,712	-0,041	-0,045
-133,614	-200,000	-0,051	0,167
-132,599	800,000	0,073	0,181
-131,585	12,859	-0,072	-0,040
-130,570	-200,000	-0,011	-0,151
-129,556	-200,000	-0,013	0,111
-128,541	-9,305	0,082	-0,040
-127,526	800,000	-0,049	-0,105
-126,512	-200,000	0,028	0,119
-125,497	574,924	0,061	0,108
-124,483	800,000	-0,035	-0,091
-123,468	70,551	-0,035	0,027
-122,453	268,981	-0,045	0,058
-121,439	-200,000	0,011	-0,143
-120,424	323,087	-0,016	-0,023
-119,410	-44,856	0,065	0,023
