DTS Sentinel unit serial number:	SN410029Multiplexer serial number:	ORYXHardware model number:	OX2-SRSoftware version number:	ORYX F/W v4,00 Oryx Data Collector v3.7.2.0data status	okinstallation	B6 Nyhavnadifferential loss correction	single-endedforward channel	channel 2reverse channel	N/Adate	2023/12/09time	13:50:08forward acquisition time	300,00reverse acquisition time	0,00gamma	499,1914k internal	0,3135k external	0,3135temperature offset calibration	1,0000default loss term (dB/km)	0,3820temperature slope calibration	1,0000multiplexer offset coefficient	1,0000multiplexer slope coefficient	1,0000fibre end	0,00T internal ref (°C)	20,37T ext. ref 1 (°C)	4,43T ext. ref 2 (°C)	4,44length (m)	temperature (°C)	Stokes	anti-Stokes-744,400	-160,645	0,015	0,001
-743,385	-121,315	-0,130	0,016
-742,371	800,000	-0,056	0,124
-741,356	-106,642	-0,190	0,031
-740,342	87,295	0,103	0,085
-739,327	-57,556	-0,236	0,076
-738,312	-200,000	-0,005	-0,020
-737,298	-19,090	-0,223	0,102
-736,283	-27,951	0,207	0,089
-735,269	183,109	-0,121	0,133
-734,254	-200,000	-0,006	0,038
-733,239	-23,001	-0,389	-0,173
-732,225	-173,035	0,205	-0,005
-731,210	53,819	-0,021	0,015
-730,196	-76,035	-0,076	0,020
-729,181	257,792	-0,046	-0,059
-728,167	-118,321	0,068	-0,009
-727,152	800,000	-0,047	0,130
-726,137	-50,960	-0,117	0,040
-725,123	-200,000	-0,001	0,027
-724,108	-66,250	-0,169	-0,050
-723,094	-200,000	0,007	-0,104
-722,079	11,761	-0,127	-0,072
-721,064	800,000	0,045	-0,124
-720,050	6,722	-0,105	0,058
-719,035	-53,594	0,048	-0,016
-718,021	-200,000	-0,019	-0,110
-717,006	-131,167	0,100	-0,010
-715,991	-200,000	0,031	-0,223
-714,977	-200,000	0,000	-0,091
-713,962	800,000	0,032	-0,082
-712,948	-189,220	0,107	0,001
-711,933	21,758	-0,109	-0,066
-710,918	-200,000	0,009	-0,209
-709,904	-156,632	-0,135	-0,006
-708,889	-200,000	0,036	-0,163
-707,875	800,000	-0,071	-0,217
-706,860	-3,344	0,065	-0,033
-705,845	-200,000	-0,002	-0,045
-704,831	20,229	0,083	-0,049
-703,816	721,885	0,067	0,133
-702,802	352,654	0,029	0,043
-701,787	-144,224	-0,055	-0,004
-700,772	100,320	-0,166	0,143
-699,758	738,487	0,065	0,130
-698,743	-6,070	0,126	0,064
-697,729	-43,030	-0,152	0,057
-696,714	800,000	0,052	0,141
-695,699	-102,278	-0,141	0,025
-694,685	-182,489	-0,085	-0,001
-693,670	129,290	-0,075	-0,071
-692,656	-156,157	-0,105	0,005
-691,641	-200,000	-0,005	-0,091
-690,627	34,189	0,025	0,016
-689,612	-200,000	0,017	-0,088
-688,597	233,676	0,052	0,063
-687,583	252,655	-0,050	-0,064
-686,568	-200,000	0,008	-0,080
-685,554	-200,000	0,009	-0,052
-684,539	-200,000	0,015	-0,106
-683,524	27,311	-0,125	-0,078
-682,510	143,433	-0,060	-0,059
-681,495	800,000	0,011	-0,026
-680,481	-50,893	-0,069	-0,024
-679,466	-128,541	-0,153	-0,016
-678,451	439,803	0,013	-0,021
-677,437	-93,663	-0,142	-0,029
-676,422	800,000	0,040	-0,102
-675,408	-200,000	0,022	-0,089
-674,393	-65,853	-0,110	0,032
-673,378	80,241	0,057	-0,045
-672,364	196,223	0,011	-0,012
-671,349	-55,500	-0,023	0,008
-670,335	767,764	0,053	-0,107
-669,320	61,385	-0,032	0,024
-668,305	-85,086	-0,027	0,006
-667,291	-72,169	-0,079	0,021
-666,276	-200,000	-0,011	-0,249
-665,262	0,597	0,074	0,039
-664,247	800,000	-0,073	0,151
-663,232	-68,828	-0,034	-0,010
-662,218	-170,080	-0,140	-0,004
-661,203	-35,744	-0,047	0,019
-660,189	173,804	0,025	0,027
-659,174	127,829	-0,093	-0,088
-658,159	-200,000	-0,012	0,074
-657,145	26,432	-0,040	-0,025
-656,130	-200,000	0,004	0,082
-655,116	331,577	0,053	-0,076
-654,101	-200,000	0,001	-0,034
-653,086	800,000	-0,017	-0,039
-652,072	-54,568	-0,125	-0,042
-651,057	800,000	-0,061	-0,165
-650,043	130,979	0,021	-0,020
-649,028	-121,190	-0,014	-0,002
-648,014	454,534	0,034	0,055
-646,999	266,238	0,031	-0,041
-645,984	353,209	-0,020	-0,029
-644,970	-200,000	0,002	0,099
-643,955	-200,000	-0,010	-0,167
-642,941	-109,628	-0,090	0,014
-641,926	-79,211	-0,126	0,031
-640,911	800,000	0,012	-0,034
-639,897	-119,210	0,105	0,013
-638,882	50,230	0,072	0,050
-637,868	800,000	0,011	0,034
-636,853	-138,923	-0,073	-0,006
-635,838	40,035	-0,043	-0,028
-634,824	800,000	-0,049	0,113
-633,809	-200,000	0,002	-0,031
-632,795	198,264	-0,033	-0,037
-631,780	84,058	0,061	-0,049
-630,765	-4,184	0,150	-0,076
-629,751	-107,032	-0,035	0,006
-628,736	800,000	-0,023	0,064
-627,722	800,000	-0,049	-0,126
-626,707	5,733	-0,138	0,075
-625,692	-200,000	0,012	0,083
-624,678	-56,881	-0,031	-0,010
-623,663	-200,000	0,004	0,017
-622,649	-82,921	-0,092	0,022
-621,634	800,000	0,095	-0,216
-620,619	-82,364	-0,201	-0,048
-619,605	17,469	-0,057	0,033
-618,590	140,901	0,049	0,048
-617,576	241,389	0,030	-0,037
-616,561	-65,527	-0,130	-0,038
-615,546	-200,000	-0,009	-0,110
-614,532	800,000	-0,059	-0,128
-613,517	201,161	-0,068	-0,078
-612,503	406,296	-0,027	-0,042
-611,488	-127,783	0,080	-0,008
-610,474	35,636	-0,126	-0,082
-609,459	800,000	0,025	0,060
-608,444	390,668	0,047	0,073
-607,430	267,603	-0,082	-0,106
-606,415	129,451	0,064	0,060
-605,401	107,394	0,039	0,034
-604,386	219,056	0,066	-0,077
-603,371	-200,000	0,000	-0,050
-602,357	-139,245	-0,123	0,010
-601,342	-119,313	0,147	0,019
-600,328	-200,000	0,003	-0,152
-599,313	-106,574	0,026	-0,004
-598,298	-9,480	-0,076	0,037
-597,284	800,000	-0,007	0,017
-596,269	-200,000	0,002	0,014
-595,255	-88,800	-0,112	0,024
-594,240	-25,718	0,112	-0,048
-593,225	-77,918	-0,060	-0,015
-592,211	-82,961	-0,153	-0,036
-591,196	-200,000	0,006	0,027
-590,182	337,336	-0,068	-0,098
-589,167	22,680	0,070	0,042
-588,152	-21,508	0,056	0,025
-587,138	78,318	-0,164	-0,129
-586,123	-43,271	-0,127	-0,047
-585,109	-200,000	-0,007	-0,065
-584,094	-200,000	0,005	-0,108
-583,079	-115,845	0,074	-0,010
-582,065	400,273	-0,014	-0,022
-581,050	-131,181	0,082	0,008
-580,036	-200,000	0,016	-0,089
-579,021	-60,367	0,055	0,017
-578,006	-56,379	-0,093	-0,030
-576,992	-18,797	0,064	-0,029
-575,977	561,934	-0,058	0,104
-574,963	800,000	-0,008	0,020
-573,948	-95,032	-0,173	0,034
-572,934	38,471	0,046	0,030
-571,919	800,000	0,021	-0,044
-570,904	-200,000	0,046	-0,219
-569,890	-123,773	-0,073	-0,008
-568,875	43,726	-0,039	-0,027
-567,861	85,588	-0,023	0,018
-566,846	-169,890	0,115	-0,003
-565,831	-200,000	-0,011	-0,108
-564,817	-200,000	0,016	0,073
-563,802	55,684	0,065	-0,046
-562,788	-200,000	-0,002	-0,030
-561,773	800,000	0,014	-0,044
-560,758	-12,099	0,038	0,018
-559,744	800,000	-0,055	-0,133
-558,729	34,104	0,091	0,058
-557,715	-45,955	0,166	-0,060
-556,700	394,100	-0,091	-0,141
-555,685	368,941	0,041	0,061
-554,671	-49,334	0,150	0,053
-553,656	97,460	0,058	-0,049
-552,642	-200,000	0,034	-0,151
-551,627	-14,563	0,117	-0,055
-550,612	-23,873	0,136	0,060
-549,598	-94,536	-0,068	0,013
-548,583	-61,615	-0,027	0,008
-547,569	-200,000	0,002	0,101
-546,554	-200,000	-0,018	0,092
-545,539	61,460	0,059	-0,043
-544,525	-93,091	0,096	-0,019
-543,510	24,592	0,090	0,055
-542,496	131,293	-0,143	0,135
-541,481	-102,520	-0,191	-0,033
-540,466	182,466	0,101	-0,110
-539,452	131,840	-0,058	-0,055
-538,437	-200,000	0,034	0,136
-537,423	-141,148	0,050	-0,004
-536,408	65,701	0,133	-0,099
-535,393	45,922	-0,047	-0,032
-534,379	-143,388	0,037	-0,003
-533,364	607,924	-0,070	-0,129
-532,350	-75,181	-0,030	0,008
-531,335	-200,000	0,003	0,025
-530,321	96,356	-0,067	-0,057
-529,306	32,809	-0,117	-0,074
-528,291	22,278	0,061	-0,037
-527,277	171,971	0,065	-0,069
-526,262	200,190	-0,074	0,084
-525,248	-200,000	0,010	-0,044
-524,233	220,661	0,079	-0,093
-523,218	800,000	0,054	0,113
-522,204	7,312	-0,151	-0,083
-521,189	42,288	-0,114	-0,076
-520,175	-59,807	0,017	0,005
-519,160	-24,588	-0,064	-0,028
-518,145	-200,000	-0,009	0,078
-517,131	132,697	-0,010	-0,010
-516,116	-200,000	0,002	0,125
-515,102	80,183	-0,053	0,042
-514,087	459,117	-0,075	-0,124
-513,072	-137,484	0,024	-0,002
-512,058	600,237	-0,069	0,126
-511,043	42,166	0,034	-0,023
-510,029	-121,752	0,029	-0,004
-509,014	12,611	-0,122	-0,069
-507,999	-136,563	0,195	-0,016
-506,985	182,559	-0,090	-0,098
-505,970	-58,578	-0,059	-0,019
-504,956	208,637	-0,012	0,014
-503,941	-200,000	-0,006	0,086
-502,926	-57,747	-0,017	0,005
-501,912	800,000	-0,018	0,050
-500,897	286,960	-0,082	0,110
-499,883	800,000	-0,056	0,128
-498,868	14,856	-0,014	0,008
-497,853	140,127	-0,093	-0,090
-496,839	-17,909	0,080	0,037
-495,824	800,000	-0,043	-0,090
-494,810	-53,246	0,085	-0,029
-493,795	35,259	0,067	-0,043
-492,781	-200,000	-0,019	0,067
-491,766	7,032	-0,027	0,015
-490,751	34,763	-0,057	0,037
-489,737	256,939	0,056	0,071
-488,722	133,136	0,148	0,141
-487,708	-200,000	0,003	0,020
-486,693	196,931	0,067	-0,075
-485,678	800,000	-0,033	0,090
-484,664	-200,000	-0,012	-0,046
-483,649	-49,588	0,032	0,011
-482,635	-15,108	-0,078	0,036
-481,620	-200,000	0,007	0,084
-480,605	185,396	0,075	0,082
-479,591	-200,000	-0,016	0,221
-478,576	800,000	0,035	0,082
-477,562	529,177	0,041	0,071
-476,547	-23,433	0,070	-0,031
-475,532	-200,000	-0,001	0,065
-474,518	-120,964	-0,079	0,010
-473,503	164,238	-0,038	-0,039
-472,489	314,702	-0,077	0,107
-471,474	800,000	0,029	0,065
-470,459	800,000	-0,038	0,079
-469,445	-54,796	-0,104	0,034
-468,430	-49,190	0,097	0,034
-467,416	-133,068	0,138	0,013
-466,401	800,000	0,015	0,047
-465,386	-200,000	0,015	-0,052
-464,372	93,861	-0,048	0,040
-463,357	519,818	0,054	-0,093
-462,343	-200,000	-0,008	-0,230
-461,328	-15,510	-0,113	0,053
-460,313	-200,000	0,020	0,125
-459,299	-200,000	0,026	0,096
-458,284	-63,522	-0,015	-0,004
-457,270	-200,000	-0,000	0,039
-456,255	-164,650	0,015	0,000
-455,241	-200,000	0,005	0,100
-454,226	206,206	-0,064	0,074
-453,211	353,678	-0,106	-0,155
-452,197	800,000	-0,049	-0,138
-451,182	-200,000	-0,001	-0,002
-450,168	-52,499	-0,046	-0,016
-449,153	-136,194	-0,136	0,012
-448,138	75,988	-0,029	-0,023
-447,124	-80,658	-0,045	-0,011
-446,109	-200,000	-0,040	0,156
-445,095	8,894	0,021	-0,012
-444,080	800,000	0,039	0,105
-443,065	-79,877	0,091	0,022
-442,051	97,823	-0,086	0,073
-441,036	-18,103	-0,126	0,058
-440,022	-42,260	-0,057	-0,021
-439,007	-71,348	0,048	0,013
-437,992	-65,701	0,110	0,032
-436,978	800,000	0,066	0,142
-435,963	-200,000	-0,004	-0,020
-434,949	800,000	-0,046	-0,116
-433,934	-71,725	0,139	-0,038
-432,919	800,000	-0,013	-0,042
-431,905	-123,137	-0,044	-0,005
-430,890	-137,500	0,047	-0,004
-429,876	-200,000	-0,008	0,062
-428,861	-24,324	0,101	-0,044
-427,846	263,808	0,052	0,066
-426,832	800,000	0,031	-0,065
-425,817	734,868	-0,055	-0,108
-424,803	-96,118	0,081	-0,016
-423,788	-200,000	-0,015	-0,122
-422,773	246,231	-0,004	0,004
-421,759	-43,540	-0,115	-0,042
-420,744	800,000	-0,050	0,118
-419,730	-200,000	-0,007	-0,028
-418,715	800,000	-0,020	-0,055
-417,701	-200,000	-0,000	-0,083
-416,686	42,009	0,060	0,040
-415,671	-3,607	0,028	0,014
-414,657	800,000	-0,043	0,093
-413,642	-200,000	-0,012	0,067
-412,628	111,892	-0,078	0,069
-411,613	-161,059	-0,024	0,001
-410,598	-200,000	0,016	-0,070
-409,584	-61,308	0,134	-0,041
-408,569	-102,465	0,040	0,007
-407,555	203,108	0,070	0,079
-406,540	-5,759	0,104	-0,052
-405,525	191,383	-0,045	0,050
-404,511	375,505	0,049	-0,073
-403,496	800,000	-0,062	-0,127
-402,482	-99,164	0,086	-0,016
-401,467	-61,822	-0,200	0,061
-400,452	-10,825	0,063	-0,030
-399,438	800,000	0,035	0,096
-398,423	-200,000	0,017	-0,063
-397,409	138,202	-0,094	-0,091
-396,394	173,393	-0,033	-0,035
-395,379	253,441	-0,040	-0,050
-394,365	-43,129	0,101	-0,037
-393,350	424,629	0,026	0,041
-392,336	-200,000	-0,015	0,049
-391,321	800,000	0,032	-0,089
-390,306	317,513	0,059	-0,082
-389,292	146,930	-0,036	-0,035
-388,277	-121,224	0,048	0,006
-387,263	-200,000	-0,023	-0,087
-386,248	150,079	0,089	0,088
-385,233	-200,000	0,011	0,047
-384,219	-200,000	0,042	0,148
-383,204	20,990	0,050	0,030
-382,190	486,466	-0,027	0,046
-381,175	113,922	0,067	0,060
-380,160	-7,543	-0,074	-0,036
-379,146	-133,004	0,124	-0,011
-378,131	-38,454	0,128	0,049
-377,117	250,258	0,063	0,078
-376,102	-64,879	-0,126	0,037
-375,088	464,250	0,085	0,139
-374,073	43,955	-0,097	-0,065
-373,058	73,218	0,136	0,104
-372,044	800,000	-0,012	0,032
-371,029	800,000	0,028	0,080
-370,015	17,601	0,053	0,031
-369,000	727,854	-0,056	-0,109
-367,985	343,981	0,074	-0,106
-366,971	229,412	-0,076	-0,091
-365,956	-108,140	-0,033	-0,005
-364,942	18,245	0,027	0,016
-363,927	355,122	0,104	0,152
-362,912	79,937	-0,037	0,029
-361,898	-200,000	-0,008	-0,100
-360,883	800,000	0,056	-0,117
-359,869	-200,000	-0,001	-0,036
-358,854	-200,000	0,005	0,042
-357,839	-69,253	0,067	-0,019
-356,825	17,254	0,042	-0,024
-355,810	800,000	-0,034	0,077
-354,796	48,912	0,086	0,059
-353,781	-200,000	-0,022	-0,169
-352,766	36,597	-0,108	0,070
-351,752	-191,769	0,023	0,000
-350,737	-24,966	0,097	-0,042
-349,723	-178,016	0,130	0,002
-348,708	-113,123	-0,040	0,006
-347,693	-98,215	0,115	0,021
-346,679	-200,000	-0,002	-0,064
-345,664	-200,000	0,015	0,202
-344,650	65,750	-0,027	-0,020
-343,635	800,000	0,027	0,077
-342,620	76,265	0,027	0,021
-341,606	800,000	-0,011	-0,025
-340,591	-200,000	-0,023	-0,189
-339,577	-200,000	-0,023	-0,188
-338,562	-200,000	-0,004	-0,141
-337,548	521,758	0,017	-0,029
-336,533	-200,000	0,016	0,136
-335,518	800,000	-0,037	0,108
-334,504	-200,000	-0,029	0,153
-333,489	800,000	-0,045	0,104
-332,475	83,074	0,058	0,046
-331,460	-89,925	0,014	0,003
-330,445	-200,000	0,011	-0,086
-329,431	-62,156	-0,023	0,007
-328,416	-30,574	-0,099	0,041
-327,402	-200,000	-0,014	0,089
-326,387	-200,000	0,001	-0,061
-325,372	-200,000	0,000	-0,031
-324,358	-200,000	0,010	-0,067
-323,343	800,000	0,051	-0,150
-322,329	-127,862	0,073	-0,008
-321,314	800,000	0,058	0,172
-320,299	-200,000	-0,002	-0,029
-319,285	-51,882	-0,030	0,010
-318,270	800,000	0,013	0,038
-317,256	123,645	-0,116	-0,106
-316,241	800,000	0,008	-0,024
-315,226	-200,000	-0,043	-0,147
-314,212	-200,000	0,002	0,085
-313,197	796,666	0,053	0,108
-312,183	-12,537	-0,068	0,032
-311,168	18,818	-0,084	-0,049
-310,153	-23,971	-0,070	0,030
-309,139	-200,000	-0,006	-0,097
-308,124	800,000	-0,019	0,044
-307,110	82,828	0,096	0,077
-306,095	137,791	0,067	-0,065
-305,080	-88,379	0,174	-0,038
-304,066	800,000	0,038	-0,079
-303,051	113,875	-0,084	0,074
-302,037	800,000	0,027	-0,073
-301,022	-200,000	-0,005	-0,044
-300,008	800,000	0,060	0,165
-298,993	-24,706	-0,110	0,048
-297,978	0,149	0,099	0,051
-296,964	-63,684	-0,064	0,019
-295,949	-200,000	-0,005	-0,066
-294,935	131,965	0,053	0,050
-293,920	113,122	-0,045	-0,040
-292,905	-16,699	0,060	0,027
-291,891	-19,848	0,038	0,017
-290,876	-65,809	-0,047	0,014
-289,862	80,871	0,074	-0,058
-288,847	173,981	-0,033	-0,035
-287,832	125,277	0,041	0,038
-286,818	-200,000	0,009	-0,042
-285,803	-200,000	-0,028	-0,115
-284,789	800,000	0,069	0,149
-283,774	268,412	0,043	-0,056
-282,759	-34,201	-0,084	-0,034
-281,745	499,883	0,023	0,040
-280,730	47,255	0,138	0,094
-279,716	-81,728	0,096	0,023
-278,701	-22,485	-0,016	-0,007
-277,686	125,097	0,101	0,093
-276,672	693,226	0,070	-0,134
-275,657	-60,804	-0,144	0,044
-274,643	212,652	-0,186	-0,215
-273,628	-200,000	0,011	-0,088
-272,613	-26,944	-0,062	-0,026
-271,599	800,000	0,064	0,174
-270,584	172,704	-0,053	0,055
-269,570	800,000	-0,019	0,042
-268,555	142,123	-0,051	-0,049
-267,540	230,745	0,093	0,112
-266,526	224,143	-0,065	-0,077
-265,511	-53,324	0,077	0,026
-264,497	45,226	0,134	0,090
-263,482	212,830	0,094	0,109
-262,467	-76,130	0,174	0,044
-261,453	-200,000	-0,011	0,057
-260,438	433,109	-0,138	-0,219
-259,424	230,978	-0,059	-0,070
-258,409	-200,000	-0,008	-0,091
-257,395	-200,000	0,016	0,075
-256,380	-123,750	0,023	0,003
-255,365	-200,000	-0,038	0,133
-254,351	-158,143	-0,053	-0,002
-253,336	-145,419	0,032	0,002
-252,322	145,652	-0,085	-0,083
-251,307	789,945	-0,027	-0,053
-250,292	-1,832	0,058	0,030
-249,278	29,578	0,046	0,029
-248,263	210,607	-0,109	0,125
-247,249	-200,000	0,026	-0,110
-246,234	-79,850	-0,190	0,046
-245,219	-64,465	0,129	0,038
-244,205	-73,448	-0,143	-0,038
-243,190	800,000	-0,041	0,091
-242,176	-200,000	-0,029	0,137
-241,161	-87,887	0,124	-0,027
-240,146	-125,005	-0,155	-0,017
-239,132	-30,748	0,120	0,049
-238,117	-200,000	0,023	-0,128
-237,103	-50,869	0,055	0,019
-236,088	800,000	0,021	0,043
-235,073	800,000	0,058	-0,156
-234,059	69,581	-0,035	0,026
-233,044	-200,000	0,003	0,045
-232,030	268,344	-0,067	0,085
-231,015	-200,000	0,024	0,104
-230,000	-56,349	-0,152	0,049
-228,986	-200,000	0,003	-0,087
-227,971	800,000	0,033	0,102
-226,957	-200,000	0,004	0,082
-225,942	252,756	0,054	0,067
-224,927	-98,932	0,049	-0,009
-223,913	170,959	0,020	-0,021
-222,898	-76,377	-0,083	-0,021
-221,884	67,256	-0,047	0,035
-220,869	800,000	0,009	-0,029
-219,855	184,183	-0,070	0,075
-218,840	86,416	0,135	0,108
-217,825	-200,000	-0,001	0,046
-216,811	439,743	0,050	-0,080
-215,796	434,686	-0,037	-0,058
-214,782	311,518	0,030	-0,041
-213,767	800,000	-0,075	-0,175
-212,752	-200,000	0,005	-0,031
-211,738	-200,000	-0,007	0,060
-210,723	481,162	0,010	0,017
-209,709	-200,000	-0,018	0,087
-208,694	341,490	0,077	0,110
-207,679	166,918	-0,131	-0,135
-206,665	128,114	-0,016	0,015
-205,650	270,582	-0,106	0,136
-204,636	-200,000	0,015	0,080
-203,621	126,392	-0,091	0,084
-202,606	-184,856	-0,044	-0,000
-201,592	206,175	0,024	-0,027
-200,577	455,507	0,038	-0,062
-199,563	-161,209	0,071	-0,003
-198,548	800,000	0,061	0,140
-197,533	517,170	0,019	-0,032
-196,519	-200,000	-0,018	0,081
-195,504	-31,624	-0,068	-0,028
-194,490	449,489	0,050	-0,081
-193,475	-200,000	0,032	-0,103
-192,460	-200,000	0,016	-0,101
-191,446	92,578	0,052	-0,043
-190,431	800,000	0,036	0,088
-189,417	-72,215	-0,039	0,010
-188,402	111,018	0,037	0,033
-187,387	223,270	0,090	0,106
-186,373	680,725	0,020	-0,039
-185,358	-200,000	0,009	-0,116
-184,344	442,149	-0,058	0,092
-183,329	517,105	-0,073	0,124
-182,315	800,000	-0,007	0,014
-181,300	-200,000	0,003	-0,110
-180,285	119,591	0,087	-0,079
-179,271	73,879	-0,039	0,029
-178,256	-200,000	0,009	0,102
-177,242	112,465	0,059	0,052
-176,227	-27,223	0,091	0,038
-175,212	-200,000	0,003	0,009
-174,198	158,292	-0,054	-0,054
-173,183	453,571	0,020	0,032
-172,169	322,378	-0,108	-0,150
-171,154	64,629	-0,050	-0,037
-170,139	800,000	-0,029	-0,079
-169,125	800,000	-0,062	0,168
-168,110	-200,000	-0,023	0,142
-167,096	110,759	-0,103	-0,090
-166,081	-130,198	-0,119	-0,012
-165,066	-200,000	-0,027	-0,105
-164,052	-200,000	0,013	-0,042
-163,037	800,000	0,035	0,090
-162,023	375,502	-0,043	-0,064
-161,008	-166,248	0,135	-0,004
-159,993	-118,830	-0,136	0,017
-158,979	-71,103	-0,057	0,015
-157,964	-200,000	-0,003	0,021
-156,950	-200,000	-0,029	-0,144
-155,935	-200,000	-0,006	-0,023
-154,920	800,000	0,031	-0,080
-153,906	16,768	0,111	-0,064
-152,891	466,641	0,063	0,103
-151,877	-142,475	-0,050	0,004
-150,862	159,256	0,110	-0,111
-149,847	-200,000	-0,003	0,064
-148,833	7,482	-0,093	0,050
-147,818	214,018	0,024	0,028
-146,804	-32,339	-0,114	0,046
-145,789	800,000	0,066	0,182
-144,775	-160,853	0,136	-0,005
-143,760	-200,000	-0,008	-0,074
-142,745	502,527	-0,068	-0,115
-141,731	-62,381	-0,102	0,031
-140,716	-200,000	-0,015	0,075
-139,702	99,715	0,147	0,123
-138,687	250,390	0,033	0,041
-137,672	800,000	-0,055	0,117
-136,658	196,013	0,062	0,068
-135,643	106,696	-0,079	-0,068
-134,629	603,424	-0,038	-0,070
-133,614	173,296	-0,044	0,046
-132,599	-118,269	-0,098	0,012
-131,585	-200,000	-0,017	0,152
-130,570	50,183	-0,072	0,049
-129,556	71,830	-0,046	0,035
-128,541	-200,000	-0,006	0,038
-127,526	-14,193	0,050	-0,023
-126,512	70,550	0,057	-0,042
-125,497	-127,082	0,221	0,023
-124,483	256,376	-0,093	0,116
-123,468	-200,000	0,005	0,073
-122,453	145,404	-0,049	-0,048
-121,439	301,625	0,043	-0,058
-120,424	800,000	0,069	0,143
-119,410	-147,930	-0,146	-0,009
