DTS Sentinel unit serial number:	SN410029Multiplexer serial number:	ORYXHardware model number:	OX2-SRSoftware version number:	ORYX F/W v4,00 Oryx Data Collector v3.7.2.0data status	okinstallation	B6 Nyhavnadifferential loss correction	single-endedforward channel	channel 2reverse channel	N/Adate	2023/12/09time	15:35:08forward acquisition time	300,00reverse acquisition time	0,00gamma	499,1914k internal	0,3133k external	0,3133temperature offset calibration	1,0000default loss term (dB/km)	0,3820temperature slope calibration	1,0000multiplexer offset coefficient	1,0000multiplexer slope coefficient	1,0000fibre end	0,00T internal ref (°C)	20,68T ext. ref 1 (°C)	4,62T ext. ref 2 (°C)	4,61length (m)	temperature (°C)	Stokes	anti-Stokes-744,400	33,489	-0,167	-0,107
-743,385	-71,722	-0,221	0,061
-742,371	96,548	0,101	0,086
-741,356	17,475	-0,236	0,139
-740,342	-41,433	-0,086	0,033
-739,327	-55,888	-0,284	0,094
-738,312	-59,227	0,118	-0,038
-737,298	-83,987	-0,328	0,077
-736,283	-200,000	-0,007	-0,073
-735,269	-109,312	-0,136	0,021
-734,254	276,022	-0,051	0,068
-733,239	-124,249	-0,396	-0,046
-732,225	31,956	0,083	0,053
-731,210	-200,000	-0,013	0,162
-730,196	-105,599	-0,077	-0,013
-729,181	800,000	-0,030	0,074
-728,167	191,502	-0,114	0,127
-727,152	123,673	0,062	-0,058
-726,137	122,513	0,020	-0,019
-725,123	483,701	0,010	-0,017
-724,108	-200,000	-0,016	-0,100
-723,094	800,000	-0,113	-0,273
-722,079	-48,971	-0,148	-0,052
-721,064	337,752	0,057	0,083
-720,050	693,242	-0,106	0,207
-719,035	-91,920	0,063	0,013
-718,021	-79,906	-0,046	-0,011
-717,006	212,331	-0,026	0,030
-715,991	-73,231	-0,141	0,038
-714,977	279,030	-0,089	-0,118
-713,962	110,195	0,138	-0,123
-712,948	-59,761	0,124	0,039
-711,933	-200,000	-0,020	0,109
-710,918	-200,000	-0,005	0,058
-709,904	-95,431	-0,132	0,026
-708,889	-200,000	0,008	-0,067
-707,875	-200,000	-0,006	-0,194
-706,860	757,616	-0,033	-0,067
-705,845	374,357	0,033	0,050
-704,831	99,121	0,034	0,029
-703,816	447,306	-0,077	0,126
-702,802	-200,000	0,006	-0,049
-701,787	800,000	-0,025	0,064
-700,772	102,569	-0,049	-0,042
-699,758	-46,252	-0,057	-0,021
-698,743	27,225	0,056	0,035
-697,729	-200,000	-0,003	0,128
-696,714	171,140	-0,027	0,029
-695,699	345,654	-0,045	-0,065
-694,685	437,534	0,044	-0,071
-693,670	202,510	-0,066	-0,076
-692,656	-83,845	-0,093	-0,022
-691,641	-200,000	0,010	0,055
-690,627	800,000	-0,022	0,066
-689,612	-148,717	0,065	0,004
-688,597	-73,012	-0,091	-0,025
-687,583	-200,000	-0,038	-0,129
-686,568	800,000	0,030	-0,061
-685,554	100,085	0,065	0,056
-684,539	-200,000	0,002	-0,050
-683,524	13,932	0,058	0,034
-682,510	-157,152	0,091	-0,004
-681,495	100,404	-0,061	-0,052
-680,481	-151,644	-0,131	-0,007
-679,466	101,441	0,033	-0,028
-678,451	800,000	0,021	0,064
-677,437	675,013	0,043	-0,084
-676,422	238,092	0,051	-0,063
-675,408	-30,434	-0,097	0,041
-674,393	289,679	0,107	-0,144
-673,378	800,000	-0,055	-0,121
-672,364	800,000	0,067	-0,147
-671,349	32,789	-0,075	-0,048
-670,335	-200,000	-0,012	-0,100
-669,320	-200,000	-0,022	0,075
-668,305	474,872	0,039	-0,065
-667,291	-94,613	-0,084	-0,017
-666,276	-177,780	-0,176	-0,003
-665,262	-48,079	-0,155	-0,055
-664,247	800,000	0,016	0,040
-663,232	179,135	-0,037	0,040
-662,218	-91,496	0,180	0,038
-661,203	-200,000	-0,002	0,093
-660,189	-71,312	0,067	-0,019
-659,174	-92,122	-0,074	0,015
-658,159	-85,967	-0,141	0,032
-657,145	86,260	-0,068	-0,055
-656,130	48,631	0,054	-0,038
-655,116	330,067	-0,064	0,092
-654,101	-200,000	-0,013	0,132
-653,086	179,751	-0,094	-0,102
-652,072	411,839	-0,061	0,096
-651,057	267,468	-0,050	0,065
-650,043	-13,315	0,063	-0,030
-649,028	120,055	-0,156	0,143
-648,014	56,158	0,020	-0,014
-646,999	-123,210	0,114	-0,013
-645,984	95,350	-0,128	-0,108
-644,970	506,240	0,010	-0,018
-643,955	192,674	-0,084	0,094
-642,941	-135,210	0,059	0,005
-641,926	-200,000	0,003	-0,024
-640,911	-200,000	-0,006	-0,022
-639,897	-133,710	-0,022	-0,002
-638,882	-200,000	-0,002	0,074
-637,868	-200,000	-0,006	0,074
-636,853	110,888	-0,123	-0,110
-635,838	479,972	0,014	-0,024
-634,824	800,000	-0,045	-0,106
-633,809	-121,557	-0,066	-0,008
-632,795	364,924	-0,083	0,124
-631,780	-200,000	-0,019	0,104
-630,765	-98,345	0,066	0,012
-629,751	-129,860	-0,138	0,014
-628,736	45,248	-0,205	-0,140
-627,722	-138,079	-0,142	-0,011
-626,707	-200,000	-0,034	-0,152
-625,692	-105,670	0,064	-0,011
-624,678	-91,124	-0,143	0,030
-623,663	-121,250	-0,126	-0,015
-622,649	17,454	-0,101	-0,059
-621,634	-93,157	0,041	-0,008
-620,619	77,633	-0,020	0,015
-619,605	-200,000	0,009	-0,036
-618,590	90,323	0,084	0,069
-617,576	-33,580	-0,012	-0,005
-616,561	512,797	0,052	0,090
-615,546	-160,001	-0,039	-0,002
-614,532	56,068	-0,044	-0,032
-613,517	-17,880	0,029	0,013
-612,503	99,126	0,066	0,057
-611,488	-50,147	0,076	0,026
-610,474	-200,000	-0,007	-0,059
-609,459	65,168	-0,069	-0,052
-608,444	-138,672	0,092	0,007
-607,430	-111,140	-0,194	-0,029
-606,415	-200,000	0,000	0,018
-605,401	785,236	0,045	0,092
-604,386	-200,000	-0,015	0,096
-603,371	151,443	-0,032	-0,032
-602,357	280,708	-0,082	-0,109
-601,342	-200,000	-0,000	0,126
-600,328	220,828	-0,042	-0,050
-599,313	119,052	-0,020	-0,018
-598,298	-58,919	0,161	-0,051
-597,284	-147,155	0,041	0,003
-596,269	-56,447	0,122	-0,040
-595,255	162,336	0,043	-0,045
-594,240	-101,046	0,049	0,009
-593,225	-200,000	0,034	-0,162
-592,211	-29,437	-0,107	-0,045
-591,196	800,000	0,024	-0,075
-590,182	-23,177	0,069	0,031
-589,167	-200,000	0,013	0,054
-588,152	61,501	-0,035	-0,026
-587,138	92,111	-0,081	0,067
-586,123	-6,040	-0,054	0,027
-585,109	-200,000	0,008	-0,041
-584,094	300,977	-0,044	-0,060
-583,079	800,000	0,033	-0,078
-582,065	145,660	-0,092	-0,091
-581,050	-200,000	-0,000	-0,012
-580,036	78,489	-0,055	-0,044
-579,021	-103,533	-0,091	0,016
-578,006	149,792	-0,022	0,022
-576,992	-134,856	0,076	-0,007
-575,977	148,824	0,045	0,045
-574,963	-0,860	0,146	-0,076
-573,948	-142,467	-0,136	-0,010
-572,934	-39,645	-0,121	-0,046
-571,919	-200,000	0,007	0,025
-570,904	308,548	-0,076	-0,105
-569,890	288,177	-0,026	0,035
-568,875	457,829	-0,012	0,020
-567,861	-86,768	0,144	0,032
-566,846	295,050	-0,062	-0,084
-565,831	-200,000	0,004	-0,092
-564,817	9,170	-0,055	-0,031
-563,802	-29,307	-0,105	-0,044
-562,788	-200,000	0,013	-0,098
-561,773	800,000	-0,050	-0,124
-560,758	-37,676	0,088	-0,034
-559,744	208,416	-0,052	-0,060
-558,729	271,494	0,104	-0,136
-557,715	-110,252	0,058	-0,009
-556,700	-200,000	-0,008	0,109
-555,685	-53,001	-0,177	-0,060
-554,671	-200,000	-0,003	0,120
-553,656	-200,000	-0,003	0,079
-552,642	-200,000	-0,011	0,042
-551,627	800,000	0,019	0,057
-550,612	671,473	-0,061	-0,117
-549,598	-12,910	-0,038	-0,018
-548,583	-200,000	-0,038	-0,162
-547,569	0,547	0,076	-0,040
-546,554	191,528	-0,010	0,011
-545,539	-200,000	0,019	0,092
-544,525	-200,000	0,017	0,103
-543,510	-72,810	-0,068	-0,018
-542,496	-200,000	0,012	-0,154
-541,481	-30,745	-0,077	-0,032
-540,466	800,000	-0,038	0,104
-539,452	574,152	0,049	-0,089
-538,437	632,908	0,036	0,068
-537,423	-67,980	0,024	-0,007
-536,408	0,691	-0,095	-0,050
-535,393	62,890	0,071	0,052
-534,379	341,302	-0,045	-0,065
-533,364	124,995	0,049	-0,046
-532,350	145,727	-0,073	-0,072
-531,335	52,122	0,041	-0,029
-530,321	-33,014	0,061	-0,025
-529,306	-76,285	0,084	0,022
-528,291	800,000	0,051	-0,110
-527,277	800,000	-0,038	-0,089
-526,262	-26,581	-0,072	0,031
-525,248	307,669	-0,048	0,066
-524,233	-200,000	-0,008	0,047
-523,218	-200,000	-0,002	0,097
-522,204	89,408	0,115	-0,094
-521,189	791,873	-0,017	0,035
-520,175	-102,161	0,018	-0,003
-519,160	235,096	-0,109	-0,132
-518,145	-200,000	0,015	-0,050
-517,131	-200,000	-0,036	0,148
-516,116	43,809	0,116	0,078
-515,102	7,781	0,042	0,023
-514,087	-7,720	0,060	0,030
-513,072	-118,906	0,069	-0,009
-512,058	188,431	-0,094	0,104
-511,043	-200,000	-0,020	-0,121
-510,029	-200,000	0,004	0,079
-509,014	41,239	0,136	0,090
-507,999	-200,000	0,002	0,085
-506,985	177,080	-0,045	-0,049
-505,970	800,000	-0,031	-0,065
-504,956	-143,434	-0,036	-0,002
-503,941	-200,000	-0,021	0,128
-502,926	1,057	0,082	0,043
-501,912	218,048	-0,042	0,050
-500,897	1,474	0,039	0,021
-499,883	63,811	0,105	0,078
-498,868	800,000	-0,079	0,187
-497,853	-200,000	0,008	-0,111
-496,839	-9,433	0,143	0,070
-495,824	770,181	-0,046	0,092
-494,810	79,600	-0,110	-0,087
-493,795	58,444	-0,019	-0,014
-492,781	-112,218	0,121	-0,018
-491,766	-79,858	-0,040	-0,010
-490,751	-69,525	-0,072	0,020
-489,737	295,224	-0,085	-0,114
-488,722	-12,725	0,096	0,046
-487,708	-200,000	0,010	0,162
-486,693	-49,110	0,106	-0,037
-485,678	-200,000	0,010	-0,130
-484,664	-127,400	-0,012	-0,001
-483,649	-85,089	-0,048	-0,011
-482,635	160,790	-0,029	-0,030
-481,620	-21,999	0,008	0,004
-480,605	33,240	0,152	0,097
-479,591	360,807	0,043	0,064
-478,576	-117,565	-0,102	-0,013
-477,562	0,211	-0,039	-0,020
-476,547	800,000	0,034	0,083
-475,532	800,000	-0,023	0,052
-474,518	-103,311	0,089	-0,015
-473,503	24,393	-0,115	0,070
-472,489	-200,000	0,013	0,050
-471,474	113,954	0,068	0,061
-470,459	-118,493	0,034	-0,004
-469,445	-200,000	0,000	-0,011
-468,430	-174,490	-0,090	-0,002
-467,416	800,000	0,043	-0,096
-466,401	41,089	0,090	-0,060
-465,386	62,905	-0,070	-0,051
-464,372	-7,096	0,060	-0,030
-463,357	-2,500	-0,073	0,037
-462,343	-54,375	-0,078	-0,026
-461,328	-200,000	0,045	0,176
-460,313	-200,000	-0,001	-0,047
-459,299	-200,000	0,001	-0,045
-458,284	-200,000	-0,012	0,110
-457,270	57,682	0,054	0,039
-456,255	113,973	-0,085	-0,076
-455,241	3,301	-0,011	0,006
-454,226	800,000	0,052	-0,147
-453,211	12,039	0,064	0,036
-452,197	188,653	-0,042	0,046
-451,182	-200,000	0,004	-0,088
-450,168	203,085	-0,099	0,113
-449,153	281,625	-0,082	0,109
-448,138	-103,774	0,020	0,003
-447,124	-21,950	-0,060	0,027
-446,109	255,418	-0,027	-0,035
-445,095	-98,124	0,045	0,008
-444,080	-144,409	-0,056	0,004
-443,065	800,000	0,053	0,164
-442,051	-94,345	-0,055	-0,011
-441,036	-60,357	-0,111	0,035
-440,022	-200,000	-0,004	-0,034
-439,007	40,455	0,060	-0,040
-437,992	800,000	0,037	-0,118
-436,978	-200,000	-0,015	0,131
-435,963	-60,700	0,015	0,005
-434,949	-142,756	-0,060	-0,004
-433,934	-122,916	-0,109	-0,013
-432,919	175,323	-0,025	0,027
-431,905	777,513	0,029	-0,059
-430,890	638,234	0,061	-0,114
-429,876	21,283	0,142	0,084
-428,861	-200,000	0,001	-0,055
-427,846	-91,795	0,126	0,026
-426,832	-200,000	0,002	-0,043
-425,817	-161,697	0,094	-0,003
-424,803	800,000	-0,020	0,065
-423,788	-200,000	0,004	-0,025
-422,773	-200,000	0,023	0,129
-421,759	494,377	-0,109	0,185
-420,744	-148,771	0,054	-0,003
-419,730	-124,586	0,014	-0,002
-418,715	-200,000	-0,007	-0,062
-417,701	421,792	-0,016	-0,025
-416,686	-114,680	-0,085	-0,012
-415,671	-82,585	0,079	-0,019
-414,657	-15,327	0,158	0,074
-413,642	800,000	0,015	-0,047
-412,628	242,461	-0,050	-0,062
-411,613	263,969	0,081	0,104
-410,598	-121,850	-0,064	0,008
-409,584	-200,000	-0,005	-0,050
-408,569	-200,000	0,002	0,190
-407,555	-47,544	-0,025	-0,009
-406,540	-200,000	0,006	-0,110
-405,525	-98,197	-0,067	-0,012
-404,511	800,000	0,025	0,056
-403,496	-1,088	-0,104	-0,054
-402,482	10,144	0,027	0,015
-401,467	-53,013	-0,033	-0,011
-400,452	-62,138	0,094	-0,028
-399,438	-82,887	0,091	0,021
-398,423	-95,604	-0,068	-0,013
-397,409	-200,000	-0,001	0,095
-396,394	160,453	-0,083	-0,084
-395,379	63,112	-0,074	0,054
-394,365	196,835	0,073	0,082
-393,350	-60,085	-0,133	-0,041
-392,336	-57,702	0,034	-0,011
-391,321	-78,294	-0,104	0,026
-390,306	800,000	0,040	-0,091
-389,292	-131,395	-0,142	-0,014
-388,277	112,500	0,091	0,081
-387,263	800,000	-0,027	0,082
-386,248	-200,000	-0,030	-0,139
-385,233	168,081	0,087	0,091
-384,219	-200,000	0,018	-0,108
-383,204	30,467	-0,060	-0,038
-382,190	-16,860	0,057	-0,026
-381,175	-200,000	-0,015	-0,165
-380,160	52,702	-0,124	-0,087
-379,146	-113,825	0,103	-0,015
-378,131	191,225	0,067	0,074
-377,117	-200,000	0,012	-0,056
-376,102	61,668	0,076	0,055
-375,088	29,299	-0,120	0,074
-374,073	800,000	0,010	0,030
-373,058	800,000	-0,013	-0,028
-372,044	-200,000	0,005	0,042
-371,029	-96,456	0,107	0,021
-370,015	112,024	-0,076	-0,067
-369,000	28,292	0,070	0,043
-367,985	-28,750	0,069	-0,029
-366,971	-19,466	-0,083	0,037
-365,956	-200,000	0,020	-0,145
-364,942	-169,675	0,195	0,005
-363,927	-200,000	0,003	0,015
-362,912	97,415	0,036	0,030
-361,898	-88,185	-0,057	0,012
-360,883	225,595	-0,073	-0,086
-359,869	-200,000	0,010	0,081
-358,854	311,649	-0,057	-0,078
-357,839	180,619	-0,046	0,049
-356,825	-58,890	0,084	0,026
-355,810	87,776	-0,089	0,072
-354,796	-200,000	-0,001	0,052
-353,781	-67,064	0,163	-0,047
-352,766	-200,000	-0,003	-0,027
-351,752	0,270	-0,049	-0,025
-350,737	-200,000	0,020	0,172
-349,723	205,551	0,056	0,064
-348,708	-200,000	0,002	-0,108
-347,693	-200,000	0,007	-0,043
-346,679	-66,255	-0,083	-0,024
-345,664	422,308	-0,072	0,113
-344,650	-200,000	0,011	0,048
-343,635	-1,523	0,070	0,036
-342,620	-95,770	-0,167	-0,032
-341,606	163,138	0,048	-0,049
-340,591	4,179	-0,050	-0,027
-339,577	27,126	0,057	-0,035
-338,562	-200,000	-0,006	-0,070
-337,548	-200,000	0,025	0,098
-336,533	800,000	0,013	-0,027
-335,518	-152,131	-0,074	0,004
-334,504	-84,451	-0,091	-0,021
-333,489	321,123	-0,052	0,073
-332,475	-112,380	-0,112	0,016
-331,460	-200,000	-0,007	0,043
-330,445	-200,000	0,015	0,065
-329,431	558,990	0,029	-0,052
-328,416	-89,478	0,132	-0,028
-327,402	-181,221	-0,096	0,001
-326,387	14,782	0,111	-0,064
-325,372	-117,630	-0,067	0,009
-324,358	-200,000	-0,020	-0,078
-323,343	186,621	0,147	-0,161
-322,329	444,127	0,093	0,149
-321,314	-75,266	0,063	-0,016
-320,299	-163,987	-0,042	0,001
-319,285	-137,854	-0,115	0,009
-318,270	-173,378	-0,064	0,001
-317,256	86,117	-0,071	-0,057
-316,241	-63,333	0,093	0,028
-315,226	246,666	0,030	-0,037
-314,212	60,286	0,089	-0,064
-313,197	344,188	-0,026	-0,037
-312,183	128,407	0,063	0,059
-311,168	-200,000	-0,009	-0,148
-310,153	-200,000	0,035	-0,150
-309,139	-200,000	0,021	-0,172
-308,124	800,000	0,011	-0,027
-307,110	800,000	-0,080	0,166
-306,095	800,000	-0,040	0,105
-305,080	261,988	0,059	0,075
-304,066	-124,537	0,122	0,014
-303,051	-200,000	-0,008	-0,095
-302,037	800,000	-0,035	-0,079
-301,022	-98,393	0,100	0,019
-300,008	-171,951	0,084	-0,002
-298,993	-77,394	-0,082	-0,021
-297,978	216,973	0,061	-0,072
-296,964	-200,000	-0,035	-0,121
-295,949	-114,534	-0,136	-0,019
-294,935	800,000	0,024	0,051
-293,920	-14,155	-0,075	0,035
-292,905	784,602	0,020	-0,041
-291,891	-200,000	-0,023	0,111
-290,876	-120,208	-0,030	-0,004
-289,862	-9,980	-0,039	0,019
-288,847	800,000	-0,025	-0,072
-287,832	117,898	-0,111	-0,100
-286,818	-75,901	-0,084	-0,022
-285,803	-200,000	-0,023	0,074
-284,789	-200,000	-0,016	0,089
-283,774	-200,000	0,001	0,135
-282,759	22,624	0,059	-0,035
-281,745	-200,000	0,008	-0,138
-280,730	-200,000	-0,013	-0,047
-279,716	-200,000	0,014	0,106
-278,701	-5,618	0,072	-0,036
-277,686	197,706	-0,053	0,059
-276,672	-124,821	0,147	0,016
-275,657	192,044	-0,085	0,094
-274,643	135,664	-0,063	-0,059
-273,628	189,502	-0,049	-0,054
-272,613	189,621	0,131	0,144
-271,599	44,172	0,148	0,099
-270,584	105,845	0,074	0,064
-269,570	29,170	0,047	0,029
-268,555	461,625	0,046	0,076
-267,540	800,000	0,061	-0,163
-266,526	692,307	-0,033	-0,063
-265,511	-79,293	-0,023	-0,006
-264,497	-1,041	0,145	-0,074
-263,482	-200,000	0,024	0,082
-262,467	198,872	0,060	0,067
-261,453	-200,000	-0,026	0,083
-260,438	800,000	-0,059	-0,150
-259,424	800,000	-0,039	-0,094
-258,409	-200,000	0,004	-0,097
-257,395	46,661	-0,043	-0,029
-256,380	-200,000	-0,003	0,111
-255,365	178,444	0,065	0,069
-254,351	-11,816	-0,081	0,039
-253,336	-110,346	-0,049	0,007
-252,322	-200,000	-0,037	0,120
-251,307	519,396	-0,057	-0,097
-250,292	37,112	0,128	0,083
-249,278	99,353	0,105	-0,089
-248,263	516,819	-0,044	0,075
-247,249	-93,598	0,056	0,011
-246,234	109,880	-0,030	-0,026
-245,219	155,326	-0,038	0,038
-244,205	-92,143	-0,110	-0,022
-243,190	72,034	0,047	0,035
-242,176	64,479	0,218	0,160
-241,161	-98,313	0,144	0,027
-240,146	532,431	0,025	0,044
-239,132	-200,000	-0,031	0,102
-238,117	-200,000	-0,008	-0,045
-237,103	-200,000	-0,037	-0,151
-236,088	800,000	0,048	-0,100
-235,073	-66,321	0,066	0,019
-234,059	347,766	0,086	0,123
-233,044	800,000	0,036	-0,073
-232,030	748,898	-0,070	-0,139
-231,015	-67,725	0,046	0,013
-230,000	606,615	0,031	0,057
-228,986	800,000	-0,047	-0,122
-227,971	-200,000	-0,011	0,116
-226,957	-103,577	0,039	0,007
-225,942	-85,640	0,041	-0,009
-224,927	-46,014	0,183	-0,065
-223,913	-200,000	0,003	-0,027
-222,898	-200,000	0,003	-0,149
-221,884	800,000	-0,040	-0,091
-220,869	-200,000	0,001	0,113
-219,855	-200,000	0,008	0,087
-218,840	-26,707	-0,061	-0,026
-217,825	82,721	-0,023	-0,018
-216,811	-35,170	-0,054	-0,021
-215,796	-200,000	-0,026	-0,193
-214,782	-77,918	-0,075	-0,019
-213,767	-59,495	-0,048	-0,015
-212,752	1,260	0,096	-0,050
-211,738	-129,455	0,137	0,014
-210,723	22,197	0,048	-0,028
-209,709	200,838	-0,065	-0,073
-208,694	-61,892	-0,032	-0,010
-207,679	216,322	-0,048	-0,055
-206,665	260,798	-0,046	0,058
-205,650	-71,564	0,135	0,037
-204,636	-200,000	0,017	0,114
-203,621	729,450	0,047	0,093
-202,606	-52,854	-0,083	-0,028
-201,592	116,353	-0,039	-0,035
-200,577	-93,207	-0,088	0,018
-199,563	800,000	0,017	0,052
-198,548	-22,086	0,140	0,061
-197,533	-200,000	0,003	0,032
-196,519	55,879	0,099	-0,070
-195,504	-200,000	0,016	0,122
-194,490	800,000	0,039	-0,106
-193,475	-200,000	-0,019	-0,198
-192,460	481,771	0,050	0,083
-191,446	800,000	0,022	0,052
-190,431	-35,875	-0,072	0,028
-189,417	-106,397	0,035	-0,006
-188,402	410,230	-0,051	0,079
-187,387	166,508	0,020	0,021
-186,373	243,617	0,033	0,041
-185,358	-200,000	0,064	0,216
-184,344	-58,440	-0,038	-0,012
-183,329	-63,959	0,101	-0,030
-182,315	144,646	0,093	-0,091
-181,300	94,670	0,083	-0,068
-180,285	-112,251	0,094	-0,014
-179,271	121,260	-0,026	0,023
-178,256	439,048	-0,015	0,023
-177,242	96,250	-0,031	0,026
-176,227	-153,007	-0,081	0,004
-175,212	-26,716	0,050	-0,021
-174,198	718,752	-0,022	0,043
-173,183	-108,217	-0,066	0,010
-172,169	-54,127	0,097	-0,032
-171,154	163,468	-0,077	0,079
-170,139	466,802	-0,017	0,028
-169,125	-162,128	0,095	-0,003
-168,110	182,394	0,101	0,108
-167,096	98,352	0,035	0,029
-166,081	13,816	-0,130	0,073
-165,066	-200,000	-0,057	-0,192
-164,052	-52,116	0,173	0,058
-163,037	59,229	0,093	0,066
-162,023	-35,735	-0,046	-0,018
-161,008	-200,000	-0,002	0,181
-159,993	236,292	0,038	0,046
-158,979	191,462	-0,120	-0,132
-157,964	142,202	-0,038	-0,036
-156,950	-200,000	-0,006	0,041
-155,935	-158,128	0,059	0,002
-154,920	-200,000	0,008	0,090
-153,906	674,760	-0,092	0,174
-152,891	183,056	-0,068	-0,073
-151,877	7,805	-0,174	-0,094
-150,862	6,797	0,044	0,023
-149,847	800,000	0,012	0,033
-148,833	-200,000	-0,004	0,078
-147,818	-54,224	0,086	-0,028
-146,804	221,569	0,089	-0,104
-145,789	-19,350	-0,125	0,056
-144,775	800,000	-0,050	-0,106
-143,760	546,040	0,046	-0,080
-142,745	72,829	0,100	-0,076
-141,731	800,000	-0,043	0,128
-140,716	800,000	0,056	0,143
-139,702	403,197	-0,085	0,129
-138,687	699,887	0,045	0,086
-137,672	-200,000	-0,019	0,063
-136,658	152,450	-0,076	-0,075
-135,643	309,266	-0,064	0,087
-134,629	800,000	0,028	-0,076
-133,614	140,446	0,016	-0,016
-132,599	-84,150	-0,163	0,037
-131,585	-35,226	0,166	-0,065
-130,570	-155,684	-0,079	0,004
-129,556	402,523	-0,015	-0,023
-128,541	30,464	-0,190	-0,117
-127,526	227,230	-0,066	-0,079
-126,512	85,227	0,038	0,030
-125,497	-200,000	-0,016	0,056
-124,483	8,483	-0,141	-0,077
-123,468	800,000	-0,031	0,086
-122,453	-107,896	-0,164	-0,026
-121,439	-200,000	-0,019	-0,081
-120,424	-88,183	0,072	-0,015
