DTS Sentinel unit serial number:	SN410029Multiplexer serial number:	ORYXHardware model number:	OX2-SRSoftware version number:	ORYX F/W v4,00 Oryx Data Collector v3.7.2.0data status	okinstallation	B6 Nyhavnadifferential loss correction	single-endedforward channel	channel 2reverse channel	N/Adate	2023/12/07time	17:40:08forward acquisition time	300,00reverse acquisition time	0,00gamma	499,1914k internal	0,3164k external	0,3164temperature offset calibration	1,0000default loss term (dB/km)	0,3820temperature slope calibration	1,0000multiplexer offset coefficient	1,0000multiplexer slope coefficient	1,0000fibre end	0,00T internal ref (°C)	14,42T ext. ref 1 (°C)	-2,52T ext. ref 2 (°C)	-2,52length (m)	temperature (°C)	Stokes	anti-Stokes-744,400	-200,000	0,033	-0,169
-743,385	-23,778	-0,352	0,155
-742,371	115,960	0,097	0,088
-741,356	-88,802	-0,106	0,023
-740,342	-176,531	0,142	-0,003
-739,327	-110,645	-0,353	-0,053
-738,312	234,391	0,090	-0,110
-737,298	-92,907	-0,349	0,071
-736,283	85,488	0,104	-0,084
-735,269	-87,452	-0,357	0,079
-734,254	425,002	0,065	0,103
-733,239	-28,783	-0,642	-0,270
-732,225	36,525	0,095	0,061
-731,210	-200,000	-0,021	0,093
-730,196	-134,496	-0,085	-0,007
-729,181	800,000	0,013	-0,036
-728,167	-200,000	-0,004	0,180
-727,152	-140,718	-0,158	-0,012
-726,137	-35,607	-0,111	-0,044
-725,123	800,000	-0,033	-0,069
-724,108	41,371	-0,175	-0,116
-723,094	215,444	-0,082	-0,095
-722,079	800,000	-0,052	-0,128
-721,064	-135,406	-0,085	0,007
-720,050	-200,000	-0,003	0,045
-719,035	-31,325	-0,126	-0,052
-718,021	400,814	-0,029	-0,044
-717,006	-63,211	-0,122	-0,037
-715,991	-160,346	-0,071	-0,003
-714,977	708,555	0,026	-0,051
-713,962	-200,000	0,007	-0,069
-712,948	6,951	0,125	-0,068
-711,933	49,068	-0,056	0,038
-710,918	-7,720	0,103	0,051
-709,904	-200,000	-0,002	-0,092
-708,889	698,311	-0,066	-0,127
-707,875	-200,000	0,000	-0,010
-706,860	-200,000	-0,011	0,189
-705,845	-69,192	-0,054	-0,015
-704,831	-200,000	0,075	-0,000
-703,816	42,139	-0,152	0,101
-702,802	-200,000	-0,046	-0,177
-701,787	-111,614	0,049	0,007
-700,772	386,667	-0,073	0,111
-699,758	536,291	0,094	0,164
-698,743	79,888	-0,069	0,055
-697,729	192,085	0,088	0,097
-696,714	-28,395	0,008	-0,003
-695,699	-74,532	-0,088	0,023
-694,685	18,803	0,057	0,033
-693,670	77,044	-0,091	-0,071
-692,656	28,187	-0,062	-0,038
-691,641	605,668	-0,045	0,083
-690,627	-37,221	0,132	0,052
-689,612	-200,000	0,036	-0,157
-688,597	275,385	-0,029	0,038
-687,583	-200,000	-0,011	0,038
-686,568	137,087	-0,083	-0,080
-685,554	-80,081	-0,083	0,020
-684,539	564,817	0,024	-0,042
-683,524	64,439	0,049	-0,037
-682,510	-118,537	-0,016	-0,002
-681,495	-51,852	-0,142	0,048
-680,481	125,543	-0,108	-0,100
-679,466	-200,000	0,002	-0,156
-678,451	368,775	0,077	-0,114
-677,437	740,100	0,004	-0,008
-676,422	-29,423	-0,024	-0,010
-675,408	800,000	-0,022	0,057
-674,393	-200,000	0,023	-0,099
-673,378	800,000	-0,013	0,036
-672,364	800,000	-0,045	-0,109
-671,349	-200,000	-0,011	0,047
-670,335	-200,000	-0,013	-0,085
-669,320	-48,486	0,166	-0,058
-668,305	-2,606	0,055	0,028
-667,291	265,739	-0,030	-0,038
-666,276	-200,000	0,019	-0,149
-665,262	800,000	0,043	-0,136
-664,247	176,376	0,048	-0,052
-663,232	800,000	-0,047	0,098
-662,218	800,000	0,041	0,120
-661,203	-142,061	0,019	-0,001
-660,189	575,872	0,013	-0,023
-659,174	800,000	-0,033	-0,068
-658,159	-90,521	-0,075	0,016
-657,145	171,484	-0,106	-0,112
-656,130	-200,000	-0,005	0,219
-655,116	-200,000	-0,009	0,202
-654,101	104,416	0,085	0,074
-653,086	-46,227	0,130	0,046
-652,072	192,777	-0,038	0,042
-651,057	-24,586	-0,069	-0,030
-650,043	-181,160	-0,134	-0,002
-649,028	99,164	-0,064	0,054
-648,014	-200,000	-0,034	0,113
-646,999	-78,379	-0,032	0,008
-645,984	262,422	-0,045	0,058
-644,970	-200,000	-0,014	-0,121
-643,955	-13,144	-0,147	0,070
-642,941	443,360	-0,064	-0,103
-641,926	-200,000	-0,011	-0,235
-640,911	-200,000	0,011	0,117
-639,897	-200,000	-0,001	-0,008
-638,882	-14,047	-0,105	-0,049
-637,868	-80,991	0,127	0,031
-636,853	165,867	-0,025	0,026
-635,838	-150,718	0,038	0,002
-634,824	141,122	-0,086	0,084
-633,809	69,722	0,046	0,035
-632,795	-0,143	0,047	0,024
-631,780	-200,000	-0,021	-0,105
-630,765	156,056	0,013	-0,013
-629,751	322,803	-0,054	-0,076
-628,736	-141,792	0,026	-0,002
-627,722	-200,000	-0,030	0,111
-626,707	-200,000	0,001	0,023
-625,692	-200,000	0,005	-0,062
-624,678	155,954	-0,049	0,049
-623,663	800,000	0,026	0,071
-622,649	355,045	0,101	-0,147
-621,634	204,348	0,029	-0,033
-620,619	116,417	0,068	-0,061
-619,605	4,106	0,041	0,022
-618,590	-45,514	-0,063	0,023
-617,576	267,608	0,016	-0,020
-616,561	-24,868	-0,119	0,051
-615,546	333,719	0,038	-0,054
-614,532	63,078	0,029	0,021
-613,517	-170,399	-0,152	0,004
-612,503	67,307	0,047	0,035
-611,488	54,410	0,142	0,100
-610,474	133,221	0,091	0,086
-609,459	-112,149	0,092	0,013
-608,444	800,000	-0,053	-0,121
-607,430	312,346	0,077	-0,106
-606,415	800,000	-0,081	-0,212
-605,401	-200,000	0,015	-0,131
-604,386	-16,656	-0,101	0,046
-603,371	126,317	-0,064	-0,059
-602,357	-128,961	-0,119	0,012
-601,342	-49,068	0,100	-0,035
-600,328	115,939	0,108	0,097
-599,313	-200,000	0,007	0,072
-598,298	257,247	0,064	0,081
-597,284	-200,000	0,024	0,156
-596,269	-48,925	-0,072	-0,025
-595,255	206,958	0,033	0,038
-594,240	176,924	-0,052	-0,056
-593,225	319,312	-0,035	-0,049
-592,211	209,461	-0,054	0,062
-591,196	431,307	0,041	-0,065
-590,182	800,000	0,014	0,046
-589,167	-30,882	0,121	-0,050
-588,152	-200,000	0,018	0,125
-587,138	-138,826	-0,104	-0,008
-586,123	-200,000	-0,020	-0,103
-585,109	227,461	0,011	0,013
-584,094	-17,223	0,083	0,038
-583,079	800,000	0,020	-0,061
-582,065	645,104	0,032	0,059
-581,050	-84,183	0,058	0,013
-580,036	-40,897	-0,073	-0,028
-579,021	28,086	-0,130	-0,080
-578,006	365,043	0,030	0,045
-576,992	-200,000	-0,016	0,135
-575,977	-200,000	0,030	-0,114
-574,963	-200,000	0,009	0,075
-573,948	350,381	-0,014	-0,020
-572,934	-154,160	-0,130	-0,006
-571,919	-108,639	-0,111	0,017
-570,904	190,838	-0,057	-0,063
-569,890	800,000	0,039	-0,086
-568,875	-159,971	0,087	-0,003
-567,861	-200,000	-0,019	0,121
-566,846	800,000	0,017	-0,041
-565,831	-200,000	-0,007	-0,052
-564,817	38,942	-0,093	0,060
-563,802	800,000	0,017	-0,046
-562,788	264,300	-0,073	-0,093
-561,773	14,659	-0,047	-0,027
-560,758	800,000	0,047	0,121
-559,744	-114,700	-0,104	-0,014
-558,729	288,792	0,058	0,077
-557,715	-84,291	-0,092	-0,021
-556,700	-22,290	-0,028	-0,012
-555,685	-200,000	0,016	-0,076
-554,671	-200,000	0,035	-0,119
-553,656	375,029	0,049	-0,073
-552,642	-24,927	0,155	0,067
-551,627	-3,412	-0,105	-0,053
-550,612	800,000	0,065	0,155
-549,598	-111,333	-0,212	-0,031
-548,583	-90,515	-0,065	-0,014
-547,569	800,000	-0,034	0,105
-546,554	4,822	-0,099	0,053
-545,539	-200,000	-0,006	0,168
-544,525	-200,000	-0,026	0,085
-543,510	375,760	-0,023	-0,035
-542,496	-68,393	-0,063	0,018
-541,481	58,876	-0,029	0,021
-540,466	800,000	-0,028	0,070
-539,452	160,143	-0,033	0,034
-538,437	-153,016	-0,048	-0,002
-537,423	-200,000	0,001	-0,023
-536,408	-200,000	0,019	-0,076
-535,393	106,451	-0,050	-0,043
-534,379	-106,396	0,061	-0,010
-533,364	-46,225	0,061	-0,022
-532,350	435,703	-0,123	-0,196
-531,335	-113,869	0,001	0,000
-530,321	-200,000	0,007	0,140
-529,306	666,082	0,069	0,130
-528,291	-200,000	0,024	-0,104
-527,277	-183,913	0,095	0,001
-526,262	-200,000	0,035	-0,140
-525,248	16,678	0,137	0,079
-524,233	-200,000	0,001	-0,031
-523,218	64,964	-0,151	0,111
-522,204	-200,000	-0,017	-0,066
-521,189	-200,000	0,027	-0,218
-520,175	-71,332	0,010	0,003
-519,160	159,119	0,084	0,085
-518,145	800,000	-0,005	0,012
-517,131	78,138	0,090	0,070
-516,116	276,337	0,115	-0,150
-515,102	800,000	0,032	0,069
-514,087	7,137	0,077	-0,042
-513,072	289,859	-0,044	-0,058
-512,058	156,547	-0,043	0,044
-511,043	4,585	0,054	-0,029
-510,029	322,460	0,071	0,099
-509,014	-46,879	0,036	-0,013
-507,999	119,818	0,056	0,051
-506,985	136,077	0,032	-0,030
-505,970	518,382	-0,083	-0,142
-504,956	538,220	0,058	-0,100
-503,941	-200,000	0,000	-0,166
-502,926	-200,000	-0,015	0,062
-501,912	-135,352	0,073	0,006
-500,897	800,000	0,049	0,142
-499,883	-65,876	-0,061	-0,018
-498,868	800,000	-0,024	-0,054
-497,853	800,000	0,026	0,067
-496,839	-65,994	-0,065	0,019
-495,824	-200,000	-0,012	-0,052
-494,810	-200,000	-0,027	0,108
-493,795	48,310	-0,085	0,058
-492,781	325,175	0,117	-0,163
-491,766	-200,000	-0,013	0,044
-490,751	114,838	-0,061	0,054
-489,737	318,647	0,026	-0,036
-488,722	-130,160	0,112	-0,011
-487,708	102,908	0,139	0,118
-486,693	-29,917	-0,150	0,062
-485,678	33,701	-0,066	0,042
-484,664	-170,959	0,109	0,003
-483,649	-33,845	-0,079	-0,032
-482,635	-200,000	0,032	0,152
-481,620	-200,000	-0,004	0,102
-480,605	-200,000	-0,003	0,022
-479,591	726,227	-0,020	-0,039
-478,576	-4,920	-0,064	-0,032
-477,562	-200,000	-0,004	-0,021
-476,547	-78,408	0,046	0,011
-475,532	-90,149	-0,098	-0,021
-474,518	-200,000	0,007	-0,083
-473,503	-200,000	0,021	0,070
-472,489	-51,055	0,043	0,015
-471,474	-82,980	-0,034	-0,008
-470,459	-63,414	-0,093	0,028
-469,445	-200,000	0,008	0,066
-468,430	-116,409	-0,099	0,013
-467,416	75,996	0,103	-0,079
-466,401	40,500	-0,054	-0,035
-465,386	800,000	0,065	0,188
-464,372	-200,000	0,015	-0,130
-463,357	216,028	-0,007	0,008
-462,343	68,400	0,063	-0,047
-461,328	-46,846	-0,122	-0,043
-460,313	-200,000	0,006	-0,066
-459,299	247,894	-0,132	-0,162
-458,284	-91,737	-0,117	-0,024
-457,270	46,700	0,134	-0,091
-456,255	800,000	-0,050	-0,115
-455,241	418,351	-0,046	0,072
-454,226	-162,172	-0,080	0,003
-453,211	140,330	-0,026	-0,025
-452,197	-200,000	-0,003	-0,103
-451,182	-200,000	-0,000	0,074
-450,168	-174,781	-0,056	-0,001
-449,153	-200,000	0,008	0,094
-448,138	-133,696	-0,102	-0,009
-447,124	-117,975	-0,049	0,006
-446,109	-200,000	-0,017	-0,080
-445,095	-2,654	-0,048	0,024
-444,080	-3,425	0,060	0,030
-443,065	190,696	-0,059	0,065
-442,051	-155,892	0,063	0,003
-441,036	64,878	-0,039	-0,029
-440,022	5,103	0,051	-0,027
-439,007	24,177	-0,129	0,077
-437,992	121,502	0,090	-0,082
-436,978	-19,312	0,196	0,088
-435,963	147,125	0,074	0,072
-434,949	3,511	0,046	0,024
-433,934	765,024	0,033	-0,066
-432,919	164,390	0,041	0,042
-431,905	-46,496	-0,089	0,031
-430,890	-72,750	0,039	0,010
-429,876	3,318	0,068	-0,036
-428,861	238,133	0,023	-0,027
-427,846	67,980	0,154	-0,115
-426,832	-152,286	-0,059	0,003
-425,817	178,869	-0,044	0,046
-424,803	96,680	-0,098	0,082
-423,788	-117,093	0,026	-0,003
-422,773	195,550	-0,076	0,085
-421,759	-200,000	0,004	0,179
-420,744	240,775	0,014	0,018
-419,730	-200,000	0,017	-0,122
-418,715	-111,677	0,031	0,004
-417,701	800,000	0,058	0,129
-416,686	-200,000	-0,009	0,103
-415,671	-200,000	-0,003	-0,088
-414,657	-112,904	0,120	0,017
-413,642	68,232	0,053	-0,040
-412,628	372,025	0,023	-0,034
-411,613	33,859	-0,023	0,015
-410,598	224,616	0,025	0,029
-409,584	-83,266	0,191	0,044
-408,569	-12,901	0,041	0,019
-407,555	580,155	0,029	0,051
-406,540	5,552	0,045	-0,024
-405,525	-200,000	-0,001	0,018
-404,511	-48,417	-0,166	-0,058
-403,496	379,745	0,010	-0,015
-402,482	247,461	0,070	-0,086
-401,467	-200,000	0,030	0,126
-400,452	51,008	-0,025	-0,017
-399,438	-65,259	0,078	0,023
-398,423	292,165	-0,097	0,128
-397,409	360,168	0,046	0,067
-396,394	-200,000	-0,042	-0,135
-395,379	-23,915	0,070	0,030
-394,365	34,452	0,052	0,033
-393,350	-14,454	0,107	0,050
-392,336	34,631	-0,069	-0,044
-391,321	-200,000	0,011	-0,079
-390,306	-37,795	-0,084	-0,032
-389,292	77,230	-0,088	-0,068
-388,277	-72,338	-0,157	-0,042
-387,263	800,000	0,060	0,139
-386,248	-20,588	0,117	0,052
-385,233	-142,488	-0,030	-0,002
-384,219	-200,000	-0,007	0,104
-383,204	-89,168	0,130	-0,028
-382,190	75,690	-0,069	0,053
-381,175	800,000	-0,018	-0,047
-380,160	352,717	0,044	0,063
-379,146	-32,792	-0,022	-0,009
-378,131	-111,489	-0,137	-0,020
-377,117	13,485	-0,016	0,009
-376,102	3,774	-0,091	-0,048
-375,088	-47,809	0,038	-0,013
-374,073	69,676	0,105	-0,078
-373,058	-200,000	-0,014	0,098
-372,044	-200,000	0,009	0,113
-371,029	-80,042	0,159	0,038
-370,015	800,000	-0,056	0,125
-369,000	-110,909	0,032	0,005
-367,985	-200,000	-0,003	0,053
-366,971	-68,688	0,105	0,029
-365,956	-200,000	-0,014	-0,064
-364,942	-200,000	-0,000	0,020
-363,927	-200,000	-0,005	0,016
-362,912	-188,239	-0,103	0,001
-361,898	364,798	-0,060	-0,088
-360,883	-93,561	0,083	0,017
-359,869	58,223	-0,098	0,069
-358,854	22,800	-0,125	0,074
-357,839	-103,550	0,160	-0,027
-356,825	-200,000	-0,018	0,110
-355,810	527,015	0,019	-0,033
-354,796	800,000	-0,015	-0,033
-353,781	727,730	0,032	0,063
-352,766	800,000	-0,045	-0,100
-351,752	34,979	0,099	0,063
-350,737	32,837	0,042	0,026
-349,723	315,473	0,099	0,135
-348,708	101,774	0,047	-0,040
-347,693	173,525	0,062	0,065
-346,679	14,533	0,029	0,016
-345,664	126,777	0,036	-0,033
-344,650	-200,000	-0,006	0,136
-343,635	174,165	-0,038	0,040
-342,620	159,627	0,064	0,065
-341,606	90,684	0,069	0,056
-340,591	-200,000	0,018	-0,108
-339,577	-200,000	-0,004	0,028
-338,562	246,104	0,068	-0,083
-337,548	182,380	0,112	0,120
-336,533	-200,000	-0,029	0,188
-335,518	-108,507	0,103	0,016
-334,504	-106,582	0,084	0,013
-333,489	-200,000	-0,011	0,043
-332,475	-81,857	-0,062	-0,015
-331,460	-19,490	-0,078	0,035
-330,445	800,000	-0,023	-0,069
-329,431	-200,000	0,028	-0,148
-328,416	-20,636	-0,072	0,032
-327,402	533,193	0,049	-0,085
-326,387	-86,188	0,111	0,025
-325,372	237,482	-0,088	0,106
-324,358	-50,472	-0,117	-0,040
-323,343	-200,000	-0,007	-0,049
-322,329	-57,949	-0,124	0,039
-321,314	15,059	0,171	0,097
-320,299	-186,286	-0,069	0,001
-319,285	-200,000	0,017	-0,057
-318,270	16,092	0,114	-0,065
-317,256	-200,000	0,016	0,000
-316,241	640,561	-0,038	0,071
-315,226	69,662	0,138	0,103
-314,212	88,127	0,041	0,033
-313,197	-55,900	-0,083	0,026
-312,183	43,031	-0,002	-0,001
-311,168	-57,252	0,197	-0,062
-310,153	1,146	-0,126	-0,065
-309,139	-200,000	-0,012	0,070
-308,124	-118,793	0,022	0,003
-307,110	-91,776	0,138	-0,028
-306,095	800,000	0,022	-0,065
-305,080	-9,131	0,036	0,017
-304,066	800,000	0,047	-0,117
-303,051	-134,813	-0,058	-0,005
-302,037	-200,000	-0,006	-0,052
-301,022	127,677	0,052	0,048
-300,008	-20,718	0,073	0,032
-298,993	-129,092	-0,056	0,006
-297,978	53,790	0,065	0,045
-296,964	77,079	0,071	0,055
-295,949	-25,967	-0,047	0,020
-294,935	27,993	-0,238	-0,145
-293,920	-200,000	-0,034	-0,130
-292,905	800,000	0,038	-0,090
-291,891	277,346	-0,063	-0,082
-290,876	-200,000	0,018	0,057
-289,862	17,218	0,073	-0,042
-288,847	-87,427	-0,126	-0,027
-287,832	800,000	0,009	0,024
-286,818	121,025	0,100	-0,090
-285,803	231,310	-0,070	0,083
-284,789	800,000	0,087	0,182
-283,774	-141,527	-0,068	-0,005
-282,759	-150,869	-0,092	-0,005
-281,745	-200,000	0,038	-0,135
-280,730	-125,208	-0,047	0,005
-279,716	32,873	-0,019	0,012
-278,701	800,000	-0,045	-0,119
-277,686	800,000	-0,032	0,078
-276,672	776,148	0,035	-0,069
-275,657	-148,554	-0,085	0,005
-274,643	800,000	-0,028	-0,058
-273,628	77,894	0,100	0,077
-272,613	299,084	-0,039	0,051
-271,599	-200,000	-0,002	-0,082
-270,584	800,000	0,018	-0,044
-269,570	-200,000	-0,003	-0,037
-268,555	76,201	-0,107	0,082
-267,540	35,420	0,014	0,009
-266,526	576,430	-0,098	-0,174
-265,511	-45,023	0,072	0,026
-264,497	800,000	-0,041	0,082
-263,482	-68,991	-0,043	0,012
-262,467	206,147	-0,024	-0,027
-261,453	-9,045	-0,125	0,060
-260,438	-12,586	-0,053	-0,025
-259,424	-90,972	-0,053	-0,011
-258,409	-116,391	-0,061	0,008
-257,395	188,429	-0,050	0,054
-256,380	10,059	-0,091	0,050
-255,365	-12,998	0,118	-0,055
-254,351	-200,000	-0,003	0,057
-253,336	-4,784	0,113	-0,056
-252,322	-116,805	0,119	-0,016
-251,307	-200,000	0,018	-0,130
-250,292	-200,000	-0,021	0,121
-249,278	-200,000	0,019	0,227
-248,263	154,326	0,090	0,089
-247,249	-15,033	-0,066	0,030
-246,234	-200,000	0,025	-0,129
-245,219	89,059	-0,185	-0,149
-244,205	-200,000	0,009	-0,047
-243,190	131,739	0,024	-0,022
-242,176	213,085	0,044	0,050
-241,161	335,561	0,037	0,052
-240,146	-200,000	0,006	-0,108
-239,132	800,000	0,045	0,132
-238,117	412,196	0,008	0,013
-237,103	287,915	0,092	-0,121
-236,088	60,009	0,017	-0,012
-235,073	-81,541	0,037	0,009
-234,059	-109,394	0,041	-0,006
-233,044	217,462	0,050	-0,058
-232,030	149,542	-0,114	-0,111
-231,015	-27,452	-0,091	0,038
-230,000	-137,117	-0,030	0,002
-228,986	84,736	-0,091	-0,072
-227,971	-116,823	-0,144	0,019
-226,957	160,706	0,122	0,123
-225,942	-92,852	0,083	0,017
-224,927	-200,000	0,002	0,130
-223,913	-200,000	-0,013	0,073
-222,898	64,152	-0,026	0,019
-221,884	412,018	-0,054	-0,083
-220,869	800,000	0,027	-0,062
-219,855	-2,163	-0,163	0,082
-218,840	127,205	0,049	0,045
-217,825	155,684	0,068	-0,068
-216,811	464,905	-0,020	0,032
-215,796	-38,322	0,099	-0,038
-214,782	-17,054	0,059	-0,027
-213,767	594,301	0,034	0,062
-212,752	256,047	-0,074	-0,092
-211,738	800,000	-0,026	0,056
-210,723	-74,864	-0,124	0,032
-209,709	-130,464	-0,148	-0,014
-208,694	-200,000	0,002	-0,096
-207,679	-115,923	-0,107	0,014
-206,665	78,980	-0,118	-0,091
-205,650	-76,028	0,135	-0,034
-204,636	-124,831	0,068	0,008
-203,621	146,903	0,043	0,042
-202,606	800,000	-0,039	-0,087
-201,592	-200,000	-0,007	-0,109
-200,577	-200,000	0,000	-0,153
-199,563	-200,000	0,002	-0,092
-198,548	-54,641	-0,047	-0,015
-197,533	623,507	0,024	0,043
-196,519	148,925	0,095	0,093
-195,504	680,639	-0,079	-0,149
-194,490	218,052	-0,011	0,013
-193,475	34,240	0,170	-0,106
-192,460	-200,000	0,001	0,036
-191,446	-188,156	0,165	-0,001
-190,431	60,052	0,041	0,029
-189,417	-200,000	-0,030	0,097
-188,402	266,371	-0,048	-0,061
-187,387	-200,000	0,002	0,019
-186,373	390,626	0,016	-0,024
-185,358	800,000	0,059	-0,163
-184,344	800,000	0,026	-0,081
-183,329	74,953	-0,069	0,053
-182,315	605,198	0,048	0,086
-181,300	792,185	-0,023	0,046
-180,285	519,271	-0,049	0,083
-179,271	25,504	-0,091	0,054
-178,256	800,000	-0,016	0,035
-177,242	-47,312	0,082	-0,028
-176,227	220,039	-0,022	-0,025
-175,212	489,591	-0,039	-0,064
-174,198	-47,651	-0,040	-0,014
-173,183	-200,000	0,035	-0,161
-172,169	-200,000	0,012	-0,140
-171,154	-200,000	-0,005	-0,042
-170,139	13,250	0,084	0,047
-169,125	257,548	0,049	0,061
-168,110	800,000	0,034	0,090
-167,096	443,785	0,037	0,058
-166,081	447,793	-0,054	-0,086
-165,066	108,237	0,111	-0,095
-164,052	-39,150	-0,124	0,047
-163,037	-145,526	-0,174	0,011
-162,023	128,156	-0,028	0,026
-161,008	374,332	-0,016	0,024
-159,993	-200,000	0,003	0,045
-158,979	-200,000	-0,016	-0,104
-157,964	0,582	-0,064	-0,033
-156,950	-200,000	-0,032	-0,198
-155,935	-119,427	-0,029	0,004
-154,920	39,175	0,066	-0,043
-153,906	-3,269	0,163	0,081
-152,891	667,573	-0,011	0,020
-151,877	-200,000	-0,003	0,020
-150,862	-73,658	-0,057	0,015
-149,847	-36,984	0,056	0,022
-148,833	-78,192	-0,159	0,039
-147,818	800,000	0,005	0,013
-146,804	-200,000	-0,014	0,209
-145,789	-179,086	0,169	0,003
-144,775	-101,919	-0,046	-0,008
-143,760	-122,965	-0,050	0,006
-142,745	-200,000	-0,016	-0,198
-141,731	167,521	-0,120	-0,122
-140,716	-108,309	0,053	-0,008
-139,702	-176,912	-0,070	0,001
-138,687	-13,025	0,017	0,008
-137,672	-171,505	-0,048	-0,001
-136,658	-200,000	-0,001	-0,063
-135,643	126,855	-0,102	0,093
-134,629	101,887	0,111	-0,093
-133,614	-200,000	0,011	-0,119
-132,599	800,000	0,023	0,048
-131,585	-154,512	0,072	-0,003
-130,570	-104,800	-0,144	-0,024
-129,556	-41,411	-0,067	-0,025
-128,541	558,582	0,039	-0,068
-127,526	-200,000	-0,005	-0,062
-126,512	42,710	0,038	-0,025
-125,497	-92,381	-0,048	0,010
-124,483	108,368	-0,042	0,036
-123,468	-88,422	0,065	-0,014
-122,453	67,259	-0,028	-0,021
-121,439	800,000	-0,032	-0,087
-120,424	-157,177	0,062	-0,003
-119,410	-200,000	-0,028	0,100
