DTS Sentinel unit serial number:	SN410029Multiplexer serial number:	ORYXHardware model number:	OX2-SRSoftware version number:	ORYX F/W v4,00 Oryx Data Collector v3.7.2.0data status	okinstallation	B6 Nyhavnadifferential loss correction	single-endedforward channel	channel 2reverse channel	N/Adate	2023/12/08time	05:30:08forward acquisition time	300,00reverse acquisition time	0,00gamma	499,1914k internal	0,3165k external	0,3165temperature offset calibration	1,0000default loss term (dB/km)	0,3820temperature slope calibration	1,0000multiplexer offset coefficient	1,0000multiplexer slope coefficient	1,0000fibre end	0,00T internal ref (°C)	13,01T ext. ref 1 (°C)	-3,89T ext. ref 2 (°C)	-3,89length (m)	temperature (°C)	Stokes	anti-Stokes-744,400	91,187	0,147	-0,122
-743,385	-144,028	-0,401	-0,027
-742,371	-113,143	0,115	0,017
-741,356	-28,943	-0,238	-0,100
-740,342	201,228	0,147	0,167
-739,327	-139,697	-0,369	0,028
-738,312	-94,215	0,155	0,031
-737,298	-129,628	-0,207	0,021
-736,283	800,000	0,046	-0,094
-735,269	-142,299	-0,383	-0,027
-734,254	636,139	-0,048	-0,090
-733,239	1,311	-0,544	-0,287
-732,225	-27,168	0,255	0,109
-731,210	-200,000	-0,006	0,072
-730,196	-41,414	-0,061	-0,023
-729,181	-190,820	-0,113	-0,001
-728,167	-10,528	-0,063	-0,030
-727,152	227,860	-0,021	0,025
-726,137	99,327	-0,076	0,065
-725,123	5,987	-0,145	-0,079
-724,108	571,498	-0,068	-0,123
-723,094	50,612	-0,040	-0,028
-722,079	-200,000	0,012	-0,083
-721,064	359,684	0,038	-0,057
-720,050	47,754	-0,125	0,086
-719,035	-137,832	0,062	-0,005
-718,021	6,331	-0,096	-0,052
-717,006	76,371	0,018	-0,014
-715,991	-137,780	-0,137	0,011
-714,977	206,835	-0,093	-0,106
-713,962	114,691	0,074	-0,066
-712,948	718,807	-0,014	0,027
-711,933	-200,000	-0,011	-0,090
-710,918	125,721	-0,062	-0,057
-709,904	-200,000	-0,020	0,107
-708,889	-138,346	-0,073	0,006
-707,875	800,000	-0,038	-0,117
-706,860	745,176	-0,049	-0,098
-705,845	11,978	-0,045	0,025
-704,831	15,084	0,064	0,037
-703,816	800,000	-0,044	-0,110
-702,802	204,295	-0,106	-0,121
-701,787	509,320	-0,072	-0,124
-700,772	-200,000	0,009	0,130
-699,758	800,000	-0,051	-0,124
-698,743	63,029	0,035	-0,026
-697,729	-200,000	-0,011	-0,055
-696,714	233,066	0,031	-0,038
-695,699	-200,000	-0,017	0,076
-694,685	-28,529	0,017	0,007
-693,670	316,700	-0,049	-0,068
-692,656	154,188	-0,015	0,015
-691,641	800,000	0,027	-0,057
-690,627	-200,000	-0,022	0,158
-689,612	-200,000	0,012	-0,055
-688,597	324,226	-0,068	0,095
-687,583	-200,000	0,022	0,102
-686,568	800,000	0,055	-0,164
-685,554	-200,000	-0,051	-0,188
-684,539	-62,686	0,056	0,017
-683,524	64,986	0,087	-0,064
-682,510	0,261	-0,085	-0,045
-681,495	-130,842	0,047	0,005
-680,481	385,468	-0,051	0,077
-679,466	800,000	-0,076	-0,224
-678,451	164,783	0,134	-0,139
-677,437	-200,000	-0,040	0,146
-676,422	135,457	-0,005	0,004
-675,408	-199,842	-0,091	-0,000
-674,393	76,736	-0,036	-0,028
-673,378	313,034	-0,029	0,040
-672,364	-200,000	0,017	-0,082
-671,349	-96,781	-0,068	-0,013
-670,335	-151,494	0,070	-0,004
-669,320	105,236	-0,117	0,101
-668,305	37,955	0,044	0,029
-667,291	364,553	0,041	-0,061
-666,276	-200,000	0,057	-0,216
-665,262	-200,000	0,011	-0,140
-664,247	-200,000	0,006	-0,082
-663,232	29,406	-0,084	-0,052
-662,218	30,129	0,035	0,022
-661,203	800,000	-0,018	0,055
-660,189	188,832	0,044	-0,048
-659,174	-37,657	0,069	0,027
-658,159	43,159	-0,127	-0,085
-657,145	428,856	-0,024	-0,038
-656,130	-200,000	-0,015	0,058
-655,116	800,000	0,024	-0,070
-654,101	393,248	-0,027	0,041
-653,086	-116,599	-0,104	-0,014
-652,072	388,667	0,021	-0,033
-651,057	194,872	-0,035	-0,039
-650,043	25,972	-0,220	-0,134
-649,028	11,122	-0,087	-0,048
-648,014	123,334	0,065	0,060
-646,999	-143,977	0,086	-0,006
-645,984	-56,370	0,078	-0,025
-644,970	198,918	-0,086	-0,097
-643,955	71,451	-0,045	-0,034
-642,941	-200,000	-0,005	-0,040
-641,926	800,000	-0,038	-0,086
-640,911	-87,709	0,033	-0,007
-639,897	205,749	0,096	0,110
-638,882	-200,000	0,004	-0,048
-637,868	401,447	0,054	0,083
-636,853	-200,000	0,005	-0,067
-635,838	113,810	-0,147	-0,131
-634,824	-141,186	-0,098	0,007
-633,809	124,720	0,082	-0,076
-632,795	-200,000	-0,001	-0,025
-631,780	-111,862	-0,082	0,012
-630,765	40,599	-0,084	0,056
-629,751	198,975	-0,094	-0,105
-628,736	197,521	-0,027	-0,030
-627,722	-165,732	-0,042	0,001
-626,707	800,000	0,035	-0,081
-625,692	-17,562	0,095	0,043
-624,678	-132,873	-0,090	-0,008
-623,663	74,345	-0,110	-0,084
-622,649	-200,000	-0,013	-0,133
-621,634	-149,806	-0,105	0,006
-620,619	-162,555	-0,058	-0,002
-619,605	49,675	-0,037	0,025
-618,590	63,011	-0,019	0,014
-617,576	800,000	-0,022	0,058
-616,561	-117,058	0,072	-0,010
-615,546	48,630	-0,175	0,120
-614,532	26,548	-0,106	0,065
-613,517	138,864	-0,017	-0,017
-612,503	-3,613	-0,143	0,073
-611,488	133,918	0,120	0,114
-610,474	-200,000	0,012	0,163
-609,459	89,370	-0,070	0,057
-608,444	-200,000	-0,004	-0,193
-607,430	387,601	0,030	-0,046
-606,415	-84,302	-0,115	-0,026
-605,401	181,408	-0,059	0,063
-604,386	162,056	0,035	0,036
-603,371	-200,000	-0,018	0,159
-602,357	192,042	-0,042	-0,046
-601,342	325,682	0,036	-0,051
-600,328	-200,000	-0,001	-0,064
-599,313	80,473	0,016	0,012
-598,298	-200,000	0,016	-0,068
-597,284	0,001	-0,071	0,037
-596,269	295,816	-0,044	0,059
-595,255	502,342	0,025	0,042
-594,240	3,201	0,074	0,039
-593,225	59,889	-0,172	0,124
-592,211	800,000	-0,022	-0,067
-591,196	575,546	-0,039	-0,070
-590,182	-200,000	-0,007	0,062
-589,167	-63,267	-0,033	-0,010
-588,152	-33,530	-0,026	0,010
-587,138	-104,983	-0,153	-0,025
-586,123	110,381	0,029	-0,025
-585,109	53,616	0,065	0,046
-584,094	36,558	0,134	0,086
-583,079	85,828	0,117	-0,094
-582,065	-164,068	-0,140	-0,005
-581,050	-200,000	0,010	0,074
-580,036	-200,000	-0,002	0,023
-579,021	-200,000	-0,006	-0,035
-578,006	452,909	0,022	-0,035
-576,992	800,000	0,010	0,031
-575,977	-112,028	0,136	-0,020
-574,963	121,909	0,141	-0,129
-573,948	58,838	-0,079	-0,057
-572,934	-200,000	0,004	-0,055
-571,919	39,041	-0,102	-0,067
-570,904	-112,458	-0,089	0,013
-569,890	-30,194	-0,067	-0,028
-568,875	98,721	0,093	0,078
-567,861	179,521	-0,030	0,032
-566,846	32,381	-0,077	-0,048
-565,831	135,367	-0,044	-0,042
-564,817	114,102	0,035	0,031
-563,802	-87,007	-0,110	-0,024
-562,788	-138,514	0,089	-0,007
-561,773	800,000	-0,047	-0,128
-560,758	800,000	-0,045	-0,092
-559,744	312,575	0,053	0,073
-558,729	-56,158	0,059	0,019
-557,715	-8,120	0,120	0,059
-556,700	6,359	0,068	-0,037
-555,685	-200,000	-0,010	-0,053
-554,671	-108,204	-0,125	-0,020
-553,656	-0,057	-0,058	0,030
-552,642	-200,000	-0,007	0,110
-551,627	800,000	0,012	0,032
-550,612	-200,000	0,002	-0,032
-549,598	-145,583	-0,099	0,006
-548,583	-200,000	0,011	-0,103
-547,569	122,387	-0,024	0,022
-546,554	93,428	0,010	0,008
-545,539	644,948	0,029	-0,054
-544,525	106,408	-0,046	0,040
-543,510	16,384	-0,037	-0,021
-542,496	58,719	0,065	-0,046
-541,481	763,999	0,029	0,058
-540,466	800,000	-0,046	0,102
-539,452	74,322	0,076	-0,058
-538,437	197,554	0,037	-0,042
-537,423	527,995	-0,021	0,036
-536,408	-200,000	-0,029	-0,147
-535,393	-200,000	-0,034	-0,144
-534,379	-200,000	0,006	-0,089
-533,364	-46,951	-0,013	0,005
-532,350	-63,636	0,056	0,017
-531,335	36,461	-0,044	-0,028
-530,321	249,077	0,026	0,033
-529,306	-200,000	0,003	0,064
-528,291	-129,163	0,087	0,009
-527,277	-55,139	-0,067	0,022
-526,262	-200,000	-0,014	-0,216
-525,248	-200,000	-0,008	-0,039
-524,233	800,000	0,050	0,105
-523,218	586,246	-0,052	-0,094
-522,204	127,936	-0,087	-0,080
-521,189	-101,499	-0,151	0,026
-520,175	-78,697	-0,070	-0,017
-519,160	800,000	-0,044	-0,129
-518,145	-32,006	0,048	0,019
-517,131	568,744	-0,008	0,014
-516,116	800,000	0,068	0,147
-515,102	-109,323	0,125	0,019
-514,087	-200,000	0,007	-0,076
-513,072	253,919	-0,009	0,012
-512,058	-200,000	-0,022	-0,077
-511,043	387,682	-0,009	0,014
-510,029	-200,000	0,003	0,014
-509,014	175,403	0,153	0,161
-507,999	-200,000	0,004	0,017
-506,985	116,610	-0,083	-0,074
-505,970	-200,000	0,003	0,056
-504,956	-9,804	-0,043	-0,021
-503,941	-200,000	0,012	-0,047
-502,926	-200,000	-0,004	0,032
-501,912	-129,118	0,147	0,015
-500,897	-7,822	-0,040	0,020
-499,883	584,720	0,041	0,074
-498,868	-27,471	-0,146	0,061
-497,853	41,069	-0,036	0,023
-496,839	288,749	-0,060	0,080
-495,824	-133,862	-0,064	-0,006
-494,810	20,260	-0,010	-0,006
-493,795	800,000	-0,028	-0,061
-492,781	46,024	0,009	0,006
-491,766	-200,000	0,014	0,046
-490,751	128,741	-0,067	-0,062
-489,737	-200,000	0,007	0,104
-488,722	-56,403	0,123	0,039
-487,708	74,727	0,080	0,061
-486,693	-43,168	0,109	0,040
-485,678	-27,187	-0,058	-0,024
-484,664	800,000	-0,063	-0,172
-483,649	-89,520	-0,062	0,013
-482,635	-176,061	-0,126	0,002
-481,620	-200,000	-0,020	0,160
-480,605	485,920	-0,073	0,122
-479,591	121,059	-0,107	0,097
-478,576	33,008	0,014	0,009
-477,562	800,000	-0,013	-0,040
-476,547	32,187	0,053	0,033
-475,532	-109,357	-0,056	-0,009
-474,518	800,000	0,024	0,056
-473,503	-200,000	-0,018	0,173
-472,489	800,000	-0,018	0,039
-471,474	303,060	-0,065	0,088
-470,459	-143,348	-0,171	-0,012
-469,445	100,542	-0,064	-0,054
-468,430	124,935	0,053	-0,048
-467,416	-110,472	0,114	0,017
-466,401	-200,000	0,003	0,110
-465,386	519,646	0,011	0,018
-464,372	-200,000	-0,007	0,055
-463,357	800,000	-0,022	0,052
-462,343	-200,000	0,011	-0,091
-461,328	-51,599	-0,075	-0,025
-460,313	-162,996	0,097	-0,003
-459,299	-13,840	0,134	-0,063
-458,284	-192,515	0,115	0,001
-457,270	-62,490	-0,231	0,069
-456,255	-200,000	-0,021	0,150
-455,241	-200,000	-0,007	-0,026
-454,226	742,084	0,049	-0,096
-453,211	-200,000	0,044	-0,149
-452,197	800,000	-0,029	0,070
-451,182	-200,000	0,024	0,091
-450,168	78,835	0,030	0,024
-449,153	111,731	-0,025	-0,022
-448,138	599,000	0,034	0,062
-447,124	-200,000	0,009	-0,028
-446,109	-68,255	-0,179	0,050
-445,095	-78,650	-0,067	-0,016
-444,080	119,755	-0,087	-0,078
-443,065	-144,931	0,104	0,007
-442,051	800,000	0,025	0,072
-441,036	-200,000	0,025	-0,105
-440,022	120,350	0,045	0,041
-439,007	-200,000	-0,003	0,094
-437,992	-35,001	0,041	0,016
-436,978	-57,651	-0,106	0,034
-435,963	-200,000	0,008	-0,026
-434,949	-200,000	-0,045	0,170
-433,934	-200,000	-0,026	0,087
-432,919	473,825	0,050	-0,082
-431,905	-75,181	-0,093	0,024
-430,890	334,871	-0,077	0,109
-429,876	800,000	0,034	0,086
-428,861	-44,742	-0,005	-0,002
-427,846	388,853	-0,065	-0,098
-426,832	-200,000	-0,019	-0,078
-425,817	138,200	-0,005	0,005
-424,803	-61,667	-0,111	0,034
-423,788	210,358	-0,043	-0,049
-422,773	629,182	0,046	-0,085
-421,759	128,302	0,094	0,087
-420,744	-200,000	0,000	-0,050
-419,730	183,822	-0,095	-0,102
-418,715	-108,069	-0,140	-0,022
-417,701	220,848	0,058	-0,067
-416,686	-65,923	0,043	-0,012
-415,671	-66,906	-0,058	-0,017
-414,657	474,204	0,077	0,127
-413,642	-200,000	0,003	-0,056
-412,628	-19,349	-0,064	-0,029
-411,613	-30,411	0,077	0,031
-410,598	112,419	0,053	0,047
-409,584	63,641	0,052	0,038
-408,569	224,528	0,052	0,061
-407,555	800,000	0,031	0,098
-406,540	-200,000	-0,003	-0,024
-405,525	-200,000	0,020	0,168
-404,511	649,852	0,007	0,013
-403,496	-97,545	0,055	-0,010
-402,482	189,431	0,042	-0,046
-401,467	-200,000	-0,006	0,126
-400,452	-200,000	-0,017	0,076
-399,438	800,000	0,015	-0,038
-398,423	800,000	0,029	0,062
-397,409	-69,273	0,136	-0,038
-396,394	-123,960	-0,116	-0,013
-395,379	-6,079	-0,143	-0,071
-394,365	-60,655	0,176	0,054
-393,350	-71,210	0,134	-0,036
-392,336	231,225	0,050	-0,059
-391,321	-200,000	0,001	0,084
-390,306	800,000	-0,020	-0,059
-389,292	-200,000	-0,014	-0,048
-388,277	0,890	0,099	0,051
-387,263	800,000	0,034	0,092
-386,248	217,431	0,111	0,129
-385,233	800,000	0,035	0,093
-384,219	-200,000	0,013	-0,052
-383,204	667,139	-0,069	-0,130
-382,190	-200,000	-0,006	0,029
-381,175	-200,000	-0,014	-0,091
-380,160	-58,505	-0,135	-0,042
-379,146	251,523	-0,121	0,150
-378,131	-32,701	0,106	0,042
-377,117	800,000	0,028	-0,083
-376,102	800,000	0,033	-0,096
-375,088	4,153	0,045	-0,024
-374,073	14,520	0,114	-0,064
-373,058	-70,194	0,056	0,015
-372,044	-94,781	0,099	0,019
-371,029	-148,264	0,119	0,007
-370,015	-200,000	-0,038	-0,155
-369,000	109,786	0,073	0,064
-367,985	246,616	-0,043	-0,052
-366,971	-150,997	0,102	-0,006
-365,956	-142,200	0,191	0,014
-364,942	7,823	0,108	0,059
-363,927	700,305	0,074	-0,141
-362,912	-60,684	-0,033	-0,010
-361,898	-41,206	-0,166	0,062
-360,883	213,295	0,084	0,097
-359,869	-200,000	0,013	0,087
-358,854	-66,931	0,080	0,023
-357,839	422,072	0,013	-0,021
-356,825	-200,000	-0,012	0,042
-355,810	61,931	-0,083	0,060
-354,796	-134,121	-0,115	-0,010
-353,781	309,801	0,037	-0,050
-352,766	153,587	-0,035	0,035
-351,752	259,082	0,035	0,044
-350,737	205,454	0,084	0,095
-349,723	758,124	-0,044	0,087
-348,708	69,910	-0,118	0,088
-347,693	-70,688	-0,101	0,028
-346,679	800,000	0,033	0,097
-345,664	199,239	0,104	-0,115
-344,650	-18,816	-0,091	-0,041
-343,635	800,000	0,036	0,113
-342,620	-98,238	0,175	0,032
-341,606	256,048	0,075	-0,093
-340,591	87,281	0,019	0,015
-339,577	-34,199	-0,090	-0,036
-338,562	-44,162	-0,057	0,021
-337,548	-123,694	0,083	-0,009
-336,533	800,000	-0,048	0,145
-335,518	-200,000	0,021	0,110
-334,504	0,005	0,136	0,070
-333,489	204,889	-0,029	-0,033
-332,475	413,137	-0,076	-0,117
-331,460	263,211	0,012	-0,016
-330,445	-200,000	0,003	0,063
-329,431	166,089	-0,030	0,031
-328,416	53,303	0,066	0,046
-327,402	-110,356	0,107	0,016
-326,387	-18,476	-0,053	0,024
-325,372	127,022	-0,100	-0,092
-324,358	-159,202	-0,057	0,002
-323,343	27,621	0,067	0,041
-322,329	-30,413	0,114	-0,047
-321,314	244,137	0,053	0,064
-320,299	-200,000	-0,018	-0,113
-319,285	-200,000	-0,017	-0,068
-318,270	444,073	0,103	-0,164
-317,256	-200,000	-0,002	-0,017
-316,241	-200,000	-0,007	-0,119
-315,226	-200,000	-0,008	-0,029
-314,212	78,929	0,023	-0,018
-313,197	83,644	0,131	0,103
-312,183	-200,000	0,030	0,107
-311,168	14,484	-0,112	0,063
-310,153	56,314	0,104	0,073
-309,139	659,327	-0,064	0,121
-308,124	495,609	0,016	0,027
-307,110	-200,000	-0,008	0,052
-306,095	800,000	0,063	0,159
-305,080	-79,076	0,055	0,013
-304,066	-200,000	-0,017	-0,080
-303,051	-200,000	0,023	-0,114
-302,037	279,733	-0,052	-0,067
-301,022	-200,000	0,007	0,032
-300,008	-200,000	-0,010	-0,051
-298,993	-200,000	0,011	0,063
-297,978	-78,677	0,140	0,034
-296,964	-200,000	0,005	-0,024
-295,949	522,555	-0,047	-0,081
-294,935	124,755	0,035	-0,032
-293,920	-72,810	0,079	-0,021
-292,905	800,000	0,074	0,205
-291,891	396,939	-0,091	0,137
-290,876	-200,000	0,036	0,147
-289,862	117,935	-0,054	-0,048
-288,847	539,671	0,034	-0,058
-287,832	-27,275	0,147	0,062
-286,818	-16,249	-0,101	-0,046
-285,803	112,834	-0,040	0,035
-284,789	-8,087	0,025	0,012
-283,774	-200,000	-0,012	-0,040
-282,759	800,000	0,013	-0,030
-281,745	-200,000	0,018	0,075
-280,730	-41,835	0,079	-0,029
-279,716	168,240	-0,069	-0,071
-278,701	-19,127	-0,066	-0,030
-277,686	-200,000	0,033	0,197
-276,672	203,883	-0,054	-0,060
-275,657	-200,000	0,017	-0,169
-274,643	391,469	0,091	-0,137
-273,628	76,946	0,066	-0,051
-272,613	48,745	-0,084	0,057
-271,599	409,494	0,104	0,160
-270,584	-64,021	0,081	-0,024
-269,570	-72,217	-0,054	-0,014
-268,555	-183,997	-0,093	0,001
-267,540	-18,799	-0,111	0,050
-266,526	155,741	-0,074	-0,074
-265,511	85,169	-0,066	0,053
-264,497	-200,000	0,019	-0,101
-263,482	-16,274	-0,091	-0,042
-262,467	-200,000	-0,021	0,117
-261,453	-200,000	0,003	0,034
-260,438	263,361	0,092	-0,116
-259,424	16,628	0,053	-0,030
-258,409	-106,515	0,064	0,010
-257,395	800,000	-0,020	-0,041
-256,380	201,902	0,067	-0,075
-255,365	800,000	-0,055	0,132
-254,351	109,431	-0,054	0,047
-253,336	347,292	0,030	0,043
-252,322	-70,028	-0,122	-0,033
-251,307	-200,000	0,007	-0,032
-250,292	333,607	-0,048	0,067
-249,278	499,114	0,084	-0,140
-248,263	142,928	0,035	-0,034
-247,249	-182,001	0,073	0,001
-246,234	101,690	-0,070	0,059
-245,219	-200,000	0,020	-0,090
-244,205	-200,000	-0,006	-0,025
-243,190	-139,428	-0,126	0,010
-242,176	5,188	0,098	0,052
-241,161	-200,000	0,017	0,113
-240,146	-74,167	-0,078	-0,020
-239,132	660,163	0,012	-0,021
-238,117	-131,808	0,028	0,003
-237,103	48,115	-0,150	-0,101
-236,088	-200,000	0,000	0,131
-235,073	800,000	0,042	-0,091
-234,059	-168,026	-0,087	0,002
-233,044	-134,537	0,026	-0,002
-232,030	-71,663	-0,120	0,032
-231,015	225,398	0,038	0,045
-230,000	756,976	0,080	-0,157
-228,986	323,886	-0,073	-0,101
-227,971	800,000	-0,007	-0,021
-226,957	-200,000	-0,014	-0,102
-225,942	-200,000	-0,005	0,146
-224,927	3,082	-0,144	0,075
-223,913	444,995	-0,147	-0,233
-222,898	-136,955	0,109	0,009
-221,884	318,980	0,034	-0,047
-220,869	800,000	0,032	0,102
-219,855	-98,325	0,021	-0,004
-218,840	800,000	0,039	-0,109
-217,825	-200,000	-0,053	-0,183
-216,811	48,837	-0,083	0,056
-215,796	325,278	-0,091	-0,125
-214,782	144,283	0,065	0,062
-213,767	138,618	-0,111	0,105
-212,752	145,292	-0,062	0,060
-211,738	-200,000	0,000	0,102
-210,723	-124,513	0,149	0,017
-209,709	-53,978	0,071	-0,023
-208,694	800,000	0,014	-0,040
-207,679	800,000	-0,013	0,029
-206,665	-76,170	0,063	-0,016
-205,650	-55,139	0,104	-0,033
-204,636	-71,381	-0,057	-0,015
-203,621	78,564	0,046	-0,035
-202,606	-200,000	-0,015	-0,047
-201,592	253,439	-0,063	-0,078
-200,577	800,000	0,038	-0,078
-199,563	-200,000	-0,001	-0,016
-198,548	306,806	0,089	-0,119
-197,533	-125,910	0,124	-0,013
-196,519	-37,426	0,052	-0,020
-195,504	800,000	0,018	-0,036
-194,490	116,516	-0,125	0,110
-193,475	-154,173	-0,131	-0,006
-192,460	-171,054	0,104	0,002
-191,446	-10,399	0,114	0,054
-190,431	-102,782	-0,111	-0,019
-189,417	697,100	-0,033	0,063
-188,402	129,678	0,066	-0,061
-187,387	208,705	-0,009	0,010
-186,373	800,000	-0,054	-0,145
-185,358	4,726	-0,084	0,044
-184,344	357,120	0,036	-0,052
-183,329	-90,775	0,095	-0,020
-182,315	153,762	0,104	0,102
-181,300	111,762	0,121	0,106
-180,285	473,850	0,038	-0,062
-179,271	277,328	-0,049	-0,063
-178,256	56,893	0,057	-0,040
-177,242	800,000	0,037	-0,110
-176,227	-200,000	-0,020	0,092
-175,212	-200,000	0,011	0,084
-174,198	-200,000	-0,005	-0,153
-173,183	800,000	0,057	-0,122
-172,169	-200,000	-0,026	-0,100
-171,154	-38,076	0,053	0,020
-170,139	-140,155	0,096	-0,007
-169,125	-73,291	0,133	-0,035
-168,110	44,068	0,057	0,038
-167,096	32,320	0,196	-0,121
-166,081	-137,842	0,076	-0,006
-165,066	-200,000	-0,005	-0,039
-164,052	29,410	-0,035	-0,021
-163,037	-200,000	0,004	0,054
-162,023	-73,173	0,171	0,045
-161,008	53,585	-0,046	-0,032
-159,993	-200,000	-0,002	-0,095
-158,979	94,990	-0,035	-0,029
-157,964	-29,014	-0,081	-0,033
-156,950	192,616	-0,098	-0,107
-155,935	92,433	-0,021	0,017
-154,920	800,000	-0,038	0,084
-153,906	27,874	0,038	0,023
-152,891	-39,255	-0,073	-0,027
-151,877	26,571	-0,019	0,011
-150,862	144,434	0,103	-0,099
-149,847	394,783	-0,057	-0,085
-148,833	0,066	0,125	0,064
-147,818	131,373	0,036	0,034
-146,804	-11,168	0,105	0,050
-145,789	55,235	0,103	-0,071
-144,775	800,000	-0,006	0,015
-143,760	709,764	-0,066	-0,126
-142,745	79,887	-0,095	-0,073
-141,731	800,000	0,070	-0,158
-140,716	800,000	-0,064	-0,138
-139,702	-98,299	0,112	0,021
-138,687	-79,138	-0,053	-0,013
-137,672	-62,871	-0,065	-0,019
-136,658	-200,000	-0,024	-0,111
-135,643	-200,000	0,008	-0,057
-134,629	-200,000	-0,010	0,096
-133,614	42,320	-0,124	-0,081
-132,599	-65,575	0,079	0,023
-131,585	-200,000	-0,030	0,109
-130,570	2,437	0,057	0,030
-129,556	427,025	-0,061	-0,094
-128,541	175,750	0,099	0,103
-127,526	112,973	-0,078	0,068
-126,512	-200,000	-0,002	-0,098
-125,497	40,531	0,084	0,054
-124,483	409,540	0,099	0,151
-123,468	-45,958	0,071	0,025
-122,453	58,329	-0,178	0,125
-121,439	-147,124	-0,061	0,004
-120,424	35,520	-0,081	-0,051
-119,410	-121,061	0,013	0,002
