DTS Sentinel unit serial number:	SN410029Multiplexer serial number:	ORYXHardware model number:	OX2-SRSoftware version number:	ORYX F/W v4,00 Oryx Data Collector v3.7.2.0data status	okinstallation	B6 Nyhavnadifferential loss correction	single-endedforward channel	channel 2reverse channel	N/Adate	2023/12/08time	19:35:08forward acquisition time	300,00reverse acquisition time	0,00gamma	499,1914k internal	0,3158k external	0,3158temperature offset calibration	1,0000default loss term (dB/km)	0,3820temperature slope calibration	1,0000multiplexer offset coefficient	1,0000multiplexer slope coefficient	1,0000fibre end	0,00T internal ref (°C)	15,25T ext. ref 1 (°C)	-1,42T ext. ref 2 (°C)	-1,39length (m)	temperature (°C)	Stokes	anti-Stokes-744,400	-177,333	0,151	0,003
-743,385	-144,850	-0,238	-0,016
-742,371	54,344	0,124	0,088
-741,356	-67,847	-0,288	0,083
-740,342	172,402	0,087	0,093
-739,327	-27,950	-0,407	-0,173
-738,312	90,233	-0,053	-0,044
-737,298	-96,012	-0,404	-0,078
-736,283	216,125	0,091	0,107
-735,269	15,382	-0,261	0,150
-734,254	29,355	0,165	-0,103
-733,239	-126,625	-0,475	-0,051
-732,225	58,578	0,087	0,063
-731,210	174,811	0,009	0,010
-730,196	-200,000	0,007	-0,093
-729,181	800,000	-0,035	-0,110
-728,167	178,947	-0,036	-0,039
-727,152	-21,893	-0,054	0,024
-726,137	218,557	0,035	-0,041
-725,123	-130,702	0,007	-0,001
-724,108	110,655	0,032	-0,028
-723,094	-200,000	-0,004	-0,147
-722,079	-34,764	0,036	-0,014
-721,064	-53,474	-0,044	-0,015
-720,050	1,046	0,021	-0,011
-719,035	181,750	-0,081	-0,088
-718,021	-13,752	-0,086	0,041
-717,006	-200,000	-0,015	0,097
-715,991	-200,000	-0,027	-0,109
-714,977	800,000	-0,044	-0,133
-713,962	397,997	-0,044	-0,069
-712,948	-97,850	0,033	0,006
-711,933	-9,257	-0,047	0,023
-710,918	-200,000	-0,003	0,060
-709,904	-119,627	-0,153	-0,019
-708,889	-14,838	0,026	-0,012
-707,875	446,824	-0,024	0,039
-706,860	800,000	-0,037	0,093
-705,845	705,583	-0,090	0,176
-704,831	-200,000	0,000	0,049
-703,816	-200,000	-0,011	0,077
-702,802	-64,250	-0,148	0,044
-701,787	-200,000	-0,008	-0,068
-700,772	-200,000	-0,020	-0,091
-699,758	281,192	0,040	-0,053
-698,743	800,000	0,008	0,024
-697,729	570,981	0,066	-0,118
-696,714	-200,000	0,002	-0,099
-695,699	8,849	0,042	0,023
-694,685	-200,000	0,002	0,028
-693,670	-34,573	0,075	-0,030
-692,656	137,823	0,063	-0,061
-691,641	-22,193	-0,033	0,015
-690,627	-4,912	-0,028	-0,014
-689,612	105,055	0,095	-0,082
-688,597	304,158	-0,120	0,164
-687,583	127,054	0,098	-0,091
-686,568	432,090	-0,060	0,097
-685,554	-200,000	0,041	0,146
-684,539	-200,000	0,023	0,092
-683,524	-200,000	-0,063	0,204
-682,510	-75,999	0,092	-0,024
-681,495	800,000	0,040	0,097
-680,481	-200,000	0,027	-0,087
-679,466	-66,713	-0,076	0,022
-678,451	-200,000	-0,010	-0,170
-677,437	800,000	-0,014	0,034
-676,422	-103,646	-0,096	0,016
-675,408	10,046	-0,031	-0,017
-674,393	800,000	0,027	0,061
-673,378	-200,000	-0,054	-0,196
-672,364	-156,089	-0,096	-0,004
-671,349	-200,000	-0,014	-0,087
-670,335	-126,497	-0,104	0,011
-669,320	469,477	0,021	0,035
-668,305	142,495	0,102	0,099
-667,291	10,232	-0,029	-0,016
-666,276	90,746	-0,123	0,101
-665,262	48,318	0,106	-0,073
-664,247	226,116	-0,051	-0,061
-663,232	-157,117	0,153	-0,007
-662,218	-200,000	0,000	0,011
-661,203	24,612	-0,047	0,028
-660,189	-200,000	0,027	0,105
-659,174	-184,532	-0,017	0,000
-658,159	-104,681	-0,056	0,009
-657,145	35,611	-0,066	-0,043
-656,130	-64,122	0,056	-0,017
-655,116	-200,000	0,003	-0,015
-654,101	454,598	-0,053	-0,087
-653,086	163,291	-0,039	-0,041
-652,072	-34,269	-0,049	0,020
-651,057	684,445	-0,113	-0,218
-650,043	-155,880	-0,013	0,001
-649,028	97,542	-0,060	-0,051
-648,014	-23,074	0,005	-0,002
-646,999	-182,697	0,048	0,001
-645,984	-26,389	-0,199	0,086
-644,970	-200,000	-0,006	-0,078
-643,955	-200,000	0,020	0,106
-642,941	-131,245	-0,121	-0,012
-641,926	-94,345	0,026	-0,005
-640,911	-200,000	0,000	0,114
-639,897	-200,000	-0,013	0,173
-638,882	-200,000	0,008	0,083
-637,868	-56,312	0,105	0,034
-636,853	-200,000	0,004	0,015
-635,838	39,401	-0,116	-0,076
-634,824	-129,896	0,105	-0,010
-633,809	-200,000	-0,008	0,093
-632,795	-200,000	0,036	0,125
-631,780	-118,529	0,031	0,004
-630,765	800,000	0,064	-0,134
-629,751	800,000	-0,015	-0,037
-628,736	-34,662	-0,098	-0,039
-627,722	-90,439	-0,070	0,015
-626,707	73,825	-0,075	-0,057
-625,692	37,091	0,058	0,038
-624,678	-42,866	-0,095	0,035
-623,663	-2,292	0,092	0,047
-622,649	-53,885	-0,059	-0,020
-621,634	201,464	-0,073	-0,083
-620,619	6,196	-0,052	0,028
-619,605	-200,000	0,151	-0,000
-618,590	61,786	-0,053	0,039
-617,576	121,092	0,103	0,094
-616,561	184,505	-0,069	-0,075
-615,546	76,417	-0,097	-0,075
-614,532	-200,000	0,023	-0,120
-613,517	580,082	0,060	0,108
-612,503	-72,540	0,064	-0,017
-611,488	-61,692	0,108	0,033
-610,474	249,190	-0,074	0,093
-609,459	-139,441	-0,061	0,005
-608,444	800,000	0,056	-0,124
-607,430	800,000	-0,053	-0,124
-606,415	-200,000	0,001	-0,036
-605,401	-50,981	-0,057	-0,020
-604,386	64,300	0,200	0,148
-603,371	216,973	0,038	-0,044
-602,357	-110,018	-0,048	0,007
-601,342	-200,000	0,007	-0,056
-600,328	273,472	0,076	-0,099
-599,313	138,660	-0,020	-0,020
-598,298	503,579	0,058	-0,098
-597,284	-34,861	0,079	-0,032
-596,269	12,880	0,035	-0,020
-595,255	-147,268	0,189	0,012
-594,240	-200,000	0,006	-0,090
-593,225	-200,000	-0,004	-0,230
-592,211	88,265	-0,077	-0,063
-591,196	-144,167	0,164	0,011
-590,182	129,086	0,075	-0,070
-589,167	67,141	0,085	0,063
-588,152	187,767	-0,083	-0,091
-587,138	4,593	-0,067	-0,036
-586,123	800,000	-0,013	0,036
-585,109	81,137	0,071	0,056
-584,094	-41,925	-0,033	0,013
-583,079	-102,940	0,091	-0,016
-582,065	-200,000	0,023	-0,114
-581,050	-98,612	0,074	-0,014
-580,036	-118,235	-0,090	0,012
-579,021	800,000	-0,040	-0,118
-578,006	710,953	-0,076	-0,147
-576,992	-130,890	0,049	-0,005
-575,977	-200,000	-0,031	0,115
-574,963	-198,221	0,089	0,000
-573,948	-200,000	-0,029	0,101
-572,934	60,129	0,048	0,035
-571,919	-117,178	-0,184	-0,024
-570,904	-7,932	-0,128	-0,063
-569,890	-118,479	0,057	-0,007
-568,875	621,784	-0,066	0,121
-567,861	102,594	0,096	0,082
-566,846	-78,615	-0,015	0,004
-565,831	-200,000	0,013	-0,074
-564,817	71,542	0,079	0,060
-563,802	167,116	-0,029	0,030
-562,788	800,000	0,019	-0,055
-561,773	-29,200	-0,115	-0,048
-560,758	795,887	-0,060	-0,122
-559,744	567,405	-0,031	-0,055
-558,729	82,520	0,040	-0,032
-557,715	-15,411	-0,055	-0,026
-556,700	-200,000	-0,037	0,212
-555,685	-200,000	-0,034	0,188
-554,671	-171,394	0,039	-0,001
-553,656	-186,773	0,067	-0,001
-552,642	800,000	0,052	0,129
-551,627	-26,303	0,024	-0,010
-550,612	30,782	0,110	-0,069
-549,598	-28,644	-0,144	-0,060
-548,583	462,575	-0,038	-0,062
-547,569	8,367	-0,090	0,049
-546,554	-200,000	-0,015	0,067
-545,539	-151,571	0,098	-0,005
-544,525	-200,000	-0,002	-0,043
-543,510	-200,000	0,006	0,079
-542,496	-150,749	0,033	-0,002
-541,481	375,795	-0,040	-0,061
-540,466	-200,000	-0,011	-0,101
-539,452	-200,000	0,031	0,223
-538,437	-72,281	0,125	0,034
-537,423	-200,000	-0,001	-0,009
-536,408	140,330	-0,084	-0,081
-535,393	351,385	-0,078	0,113
-534,379	-60,946	0,050	-0,016
-533,364	800,000	-0,022	-0,050
-532,350	248,335	0,039	-0,048
-531,335	-200,000	-0,010	0,157
-530,321	7,473	-0,191	0,104
-529,306	-200,000	0,014	-0,046
-528,291	-200,000	-0,016	-0,081
-527,277	18,047	-0,074	0,043
-526,262	-70,426	0,050	-0,014
-525,248	-78,671	-0,060	0,015
-524,233	-200,000	0,010	0,035
-523,218	62,812	0,073	0,053
-522,204	240,665	0,047	-0,058
-521,189	327,995	-0,065	0,091
-520,175	-200,000	-0,001	0,033
-519,160	207,638	0,054	0,062
-518,145	-23,727	0,018	-0,008
-517,131	-79,766	-0,073	0,018
-516,116	-57,747	0,136	0,043
-515,102	-121,976	-0,043	0,005
-514,087	-200,000	-0,017	-0,057
-513,072	262,447	-0,016	-0,020
-512,058	656,780	0,035	-0,067
-511,043	-65,407	-0,113	0,033
-510,029	-57,837	0,032	0,010
-509,014	-32,137	0,014	-0,006
-507,999	11,357	0,056	-0,031
-506,985	-174,609	-0,022	-0,000
-505,970	-190,574	-0,105	0,001
-504,956	-108,514	0,196	-0,030
-503,941	-44,379	0,042	-0,015
-502,926	174,905	-0,040	0,043
-501,912	-68,466	0,070	-0,020
-500,897	-73,317	0,064	0,017
-499,883	-143,844	-0,120	-0,008
-498,868	-200,000	-0,023	-0,108
-497,853	104,115	-0,079	-0,068
-496,839	800,000	-0,054	-0,137
-495,824	-174,672	-0,099	-0,002
-494,810	-100,023	0,022	0,004
-493,795	-200,000	0,007	-0,038
-492,781	-95,468	-0,063	0,012
-491,766	-200,000	0,028	-0,115
-490,751	57,138	0,107	-0,076
-489,737	-200,000	0,009	0,163
-488,722	68,983	-0,030	0,023
-487,708	456,104	-0,058	0,094
-486,693	108,688	0,044	-0,038
-485,678	-200,000	-0,033	-0,153
-484,664	211,490	-0,052	-0,060
-483,649	125,937	0,039	-0,036
-482,635	232,156	-0,019	0,023
-481,620	-79,618	0,138	-0,034
-480,605	-200,000	0,001	-0,016
-479,591	341,678	0,064	0,092
-478,576	800,000	0,027	0,055
-477,562	12,916	-0,059	-0,033
-476,547	800,000	0,011	-0,023
-475,532	-200,000	0,033	-0,134
-474,518	432,283	0,031	0,049
-473,503	226,331	-0,030	0,036
-472,489	-200,000	0,005	-0,042
-471,474	-200,000	0,003	-0,087
-470,459	-20,432	0,150	-0,067
-469,445	-75,957	-0,241	-0,062
-468,430	280,427	-0,068	-0,088
-467,416	-9,208	0,102	0,049
-466,401	800,000	0,007	0,019
-465,386	-16,897	0,053	-0,024
-464,372	12,849	-0,079	-0,044
-463,357	176,305	0,118	0,125
-462,343	-200,000	-0,012	-0,078
-461,328	-200,000	0,000	-0,058
-460,313	800,000	0,011	-0,024
-459,299	-77,715	0,011	0,003
-458,284	63,820	-0,043	0,031
-457,270	758,400	0,036	-0,072
-456,255	-200,000	-0,012	-0,089
-455,241	-56,915	-0,100	0,032
-454,226	-168,290	-0,156	0,004
-453,211	445,854	0,035	0,057
-452,197	148,785	0,154	0,152
-451,182	7,904	-0,026	0,014
-450,168	-200,000	0,038	-0,126
-449,153	207,796	-0,036	0,041
-448,138	153,840	-0,064	0,064
-447,124	800,000	-0,060	-0,165
-446,109	193,520	0,060	-0,067
-445,095	260,737	-0,088	-0,111
-444,080	355,177	0,064	0,094
-443,065	573,961	0,054	0,096
-442,051	151,573	-0,044	-0,044
-441,036	-32,522	0,042	-0,017
-440,022	-200,000	0,010	-0,075
-439,007	-200,000	0,014	0,092
-437,992	54,896	-0,187	0,131
-436,978	-200,000	-0,007	-0,118
-435,963	-200,000	0,002	-0,064
-434,949	-200,000	0,013	0,064
-433,934	800,000	-0,008	0,020
-432,919	-38,888	-0,127	-0,049
-431,905	-110,549	0,035	-0,005
-430,890	720,595	0,047	-0,091
-429,876	-200,000	-0,012	0,067
-428,861	38,071	-0,103	-0,066
-427,846	86,209	0,182	0,146
-426,832	388,330	0,053	0,079
-425,817	800,000	-0,043	-0,087
-424,803	-109,369	-0,129	0,020
-423,788	-200,000	0,004	0,160
-422,773	268,086	-0,017	-0,022
-421,759	800,000	0,009	-0,022
-420,744	800,000	0,049	0,103
-419,730	-102,792	-0,045	-0,008
-418,715	-146,395	-0,165	0,010
-417,701	-115,832	0,042	-0,006
-416,686	741,282	0,051	0,100
-415,671	791,770	-0,027	0,054
-414,657	-10,136	0,067	0,032
-413,642	-98,340	-0,108	-0,020
-412,628	-58,125	0,084	0,027
-411,613	2,367	-0,049	-0,026
-410,598	-90,779	-0,050	-0,010
-409,584	-138,841	0,099	0,008
-408,569	190,132	0,087	0,096
-407,555	521,955	0,056	0,096
-406,540	231,900	-0,089	0,107
-405,525	-200,000	-0,002	0,075
-404,511	336,310	0,050	-0,071
-403,496	560,984	0,016	-0,027
-402,482	28,364	0,043	-0,026
-401,467	76,834	0,067	-0,051
-400,452	162,901	0,029	0,029
-399,438	-80,318	0,047	-0,011
-398,423	-3,510	-0,159	-0,080
-397,409	800,000	-0,027	-0,084
-396,394	800,000	0,027	-0,055
-395,379	634,762	-0,070	0,130
-394,365	800,000	0,015	0,048
-393,350	-121,986	0,158	-0,019
-392,336	-3,668	0,085	-0,043
-391,321	-200,000	0,012	-0,052
-390,306	800,000	-0,046	-0,115
-389,292	348,029	-0,039	-0,056
-388,277	28,856	0,065	-0,040
-387,263	-38,095	0,082	-0,031
-386,248	78,316	-0,159	0,123
-385,233	221,970	0,095	0,111
-384,219	76,787	0,060	0,046
-383,204	519,588	0,051	-0,086
-382,190	320,936	0,077	0,106
-381,175	-200,000	-0,004	-0,025
-380,160	23,847	0,114	-0,068
-379,146	294,111	0,053	-0,070
-378,131	-109,075	0,101	0,015
-377,117	-200,000	-0,001	-0,039
-376,102	-76,528	-0,015	-0,004
-375,088	59,149	-0,117	0,084
-374,073	-141,145	0,165	-0,012
-373,058	23,191	-0,064	0,038
-372,044	-159,091	-0,114	-0,005
-371,029	800,000	-0,040	0,124
-370,015	37,608	0,176	0,113
-369,000	-52,341	-0,019	-0,006
-367,985	198,241	0,119	-0,133
-366,971	-95,549	0,110	-0,021
-365,956	-200,000	0,022	0,095
-364,942	-38,753	0,091	0,035
-363,927	77,091	-0,130	0,100
-362,912	-40,867	-0,060	0,022
-361,898	577,424	-0,064	-0,114
-360,883	73,680	-0,026	-0,019
-359,869	800,000	-0,017	-0,043
-358,854	9,997	-0,007	-0,004
-357,839	469,168	0,109	-0,178
-356,825	800,000	-0,012	0,032
-355,810	18,572	-0,154	0,089
-354,796	377,676	-0,071	-0,106
-353,781	-200,000	-0,019	-0,085
-352,766	93,927	-0,075	-0,062
-351,752	97,541	-0,030	0,025
-350,737	800,000	0,046	-0,108
-349,723	1,013	0,146	0,076
-348,708	800,000	-0,022	0,068
-347,693	-67,514	-0,088	0,025
-346,679	152,944	-0,060	-0,060
-345,664	800,000	-0,064	0,136
-344,650	62,935	-0,085	-0,061
-343,635	197,243	0,100	0,111
-342,620	800,000	0,082	0,203
-341,606	388,189	-0,036	0,054
-340,591	92,432	0,045	0,036
-339,577	-200,000	-0,028	-0,143
-338,562	-48,012	-0,088	0,031
-337,548	-108,678	0,042	-0,007
-336,533	-133,660	0,110	-0,010
-335,518	34,563	-0,060	0,038
-334,504	76,439	-0,131	0,100
-333,489	-121,015	-0,116	-0,014
-332,475	51,731	0,125	-0,086
-331,460	-44,647	-0,045	0,016
-330,445	-114,547	0,175	0,024
-329,431	-200,000	-0,008	0,072
-328,416	-200,000	0,136	-0,000
-327,402	17,667	0,133	0,076
-326,387	334,038	0,029	-0,041
-325,372	800,000	-0,030	0,065
-324,358	117,108	0,081	-0,072
-323,343	239,244	0,050	0,060
-322,329	-76,931	-0,194	-0,049
-321,314	22,717	-0,130	0,077
-320,299	599,010	0,027	0,050
-319,285	-144,612	0,032	0,002
-318,270	110,654	-0,029	-0,025
-317,256	-50,033	-0,109	-0,037
-316,241	800,000	0,081	-0,237
-315,226	800,000	0,015	0,037
-314,212	234,302	0,034	-0,040
-313,197	-69,048	0,048	0,013
-312,183	-200,000	-0,002	0,011
-311,168	-26,702	-0,094	0,040
-310,153	800,000	-0,039	-0,102
-309,139	-31,369	-0,068	0,028
-308,124	-200,000	-0,021	0,079
-307,110	-30,623	0,131	-0,054
-306,095	-200,000	0,003	0,095
-305,080	353,492	-0,007	0,011
-304,066	10,909	-0,094	-0,052
-303,051	-200,000	-0,020	-0,123
-302,037	103,952	-0,105	-0,090
-301,022	101,379	-0,029	0,025
-300,008	-150,603	0,044	-0,002
-298,993	-102,781	-0,135	-0,023
-297,978	97,062	0,068	0,056
-296,964	133,324	0,034	-0,032
-295,949	114,730	-0,072	-0,064
-294,935	800,000	0,059	-0,120
-293,920	712,713	0,004	-0,008
-292,905	-200,000	0,020	0,147
-291,891	-200,000	0,003	0,125
-290,876	264,986	0,051	-0,065
-289,862	-126,520	-0,092	-0,010
-288,847	163,504	0,056	-0,057
-287,832	-59,936	-0,045	-0,014
-286,818	-28,861	-0,030	0,012
-285,803	85,411	0,044	0,035
-284,789	-200,000	0,000	0,047
-283,774	-200,000	0,006	0,031
-282,759	-41,384	0,016	-0,006
-281,745	82,087	0,009	-0,007
-280,730	39,761	-0,062	-0,040
-279,716	208,726	-0,018	-0,020
-278,701	-53,463	0,106	0,035
-277,686	493,756	0,035	0,059
-276,672	-200,000	0,008	-0,123
-275,657	205,259	0,081	-0,091
-274,643	-200,000	0,014	-0,133
-273,628	-158,027	-0,088	-0,004
-272,613	800,000	-0,076	0,198
-271,599	99,904	0,055	-0,046
-270,584	216,997	0,093	-0,107
-269,570	179,523	0,049	0,052
-268,555	356,778	-0,066	0,096
-267,540	2,321	-0,070	-0,037
-266,526	-49,702	-0,023	0,008
-265,511	-23,343	0,067	0,029
-264,497	800,000	0,019	-0,051
-263,482	454,264	0,044	0,071
-262,467	55,431	0,088	0,061
-261,453	-200,000	0,016	0,129
-260,438	-94,074	0,081	0,016
-259,424	-103,063	0,102	-0,017
-258,409	602,008	-0,095	-0,171
-257,395	800,000	0,019	0,042
-256,380	800,000	-0,046	-0,111
-255,365	-175,576	0,058	-0,001
-254,351	800,000	-0,010	0,028
-253,336	-200,000	-0,019	0,084
-252,322	18,592	0,117	0,068
-251,307	72,699	0,171	0,129
-250,292	247,804	-0,085	0,105
-249,278	31,699	0,022	0,013
-248,263	-147,142	-0,106	0,006
-247,249	-73,089	-0,064	-0,017
-246,234	7,112	0,049	0,026
-245,219	-26,972	-0,075	-0,031
-244,205	177,499	0,053	0,056
-243,190	3,162	-0,032	-0,017
-242,176	379,894	0,048	-0,071
-241,161	292,200	0,006	-0,008
-240,146	270,094	-0,130	0,165
-239,132	-1,870	-0,052	0,026
-238,117	800,000	-0,018	-0,050
-237,103	138,446	-0,077	0,073
-236,088	800,000	-0,006	-0,013
-235,073	388,505	0,053	0,079
-234,059	-164,141	0,015	-0,000
-233,044	-200,000	-0,013	0,054
-232,030	93,285	0,052	0,042
-231,015	501,143	0,031	-0,052
-230,000	635,206	-0,065	0,120
-228,986	-83,243	0,195	0,045
-227,971	426,229	0,036	0,056
-226,957	-200,000	0,027	0,130
-225,942	-10,840	0,061	-0,029
-224,927	-52,737	-0,041	-0,014
-223,913	-23,477	-0,012	-0,005
-222,898	-183,094	0,088	-0,001
-221,884	333,575	0,041	0,057
-220,869	-92,881	0,099	-0,020
-219,855	-200,000	-0,013	0,099
-218,840	-200,000	0,005	0,062
-217,825	262,900	0,033	0,042
-216,811	-200,000	-0,057	0,194
-215,796	800,000	0,052	0,123
-214,782	800,000	-0,020	-0,043
-213,767	800,000	0,042	-0,089
-212,752	248,376	-0,058	-0,071
-211,738	-200,000	-0,001	0,109
-210,723	-200,000	-0,002	0,046
-209,709	99,186	-0,106	0,088
-208,694	454,956	0,099	-0,158
-207,679	37,446	-0,067	0,043
-206,665	365,153	0,034	-0,050
-205,650	-130,721	0,109	-0,010
-204,636	204,491	0,010	-0,011
-203,621	436,570	-0,021	0,033
-202,606	434,075	-0,049	-0,077
-201,592	800,000	-0,020	-0,063
-200,577	-23,295	-0,117	0,051
-199,563	121,077	-0,035	0,032
-198,548	-67,026	0,142	-0,040
-197,533	-200,000	0,026	-0,144
-196,519	41,976	0,106	-0,069
-195,504	168,999	-0,040	-0,041
-194,490	-51,648	0,106	-0,035
-193,475	628,555	0,017	-0,031
-192,460	151,797	0,008	0,008
-191,446	242,960	-0,057	-0,069
-190,431	290,325	0,014	0,018
-189,417	141,509	0,088	-0,084
-188,402	449,702	0,032	0,051
-187,387	54,584	-0,044	-0,030
-186,373	800,000	-0,045	-0,125
-185,358	88,453	-0,075	-0,060
-184,344	800,000	0,088	0,207
-183,329	152,598	0,047	0,046
-182,315	800,000	0,031	-0,090
-181,300	-3,193	-0,062	0,031
-180,285	25,643	-0,112	0,067
-179,271	-143,004	-0,040	0,003
-178,256	-200,000	-0,001	-0,098
-177,242	-19,408	-0,103	0,046
-176,227	800,000	0,033	0,077
-175,212	6,913	-0,070	0,038
-174,198	-5,355	-0,096	0,047
-173,183	-198,917	-0,045	-0,000
-172,169	140,350	0,130	-0,123
-171,154	332,743	-0,059	-0,083
-170,139	-101,429	-0,039	0,007
-169,125	58,016	-0,146	-0,103
-168,110	-74,211	-0,100	-0,026
-167,096	166,639	-0,019	-0,020
-166,081	-200,000	-0,007	-0,038
-165,066	-97,275	-0,065	0,012
-164,052	800,000	-0,042	-0,116
-163,037	-21,514	-0,100	0,044
-162,023	186,014	-0,052	-0,056
-161,008	-200,000	0,007	0,058
-159,993	366,811	-0,073	0,107
-158,979	-169,417	0,048	-0,001
-157,964	293,212	0,045	-0,059
-156,950	145,023	-0,111	-0,107
-155,935	511,189	0,038	0,063
-154,920	-200,000	0,013	-0,094
-153,906	310,993	-0,013	0,018
-152,891	-28,097	-0,118	-0,049
-151,877	-17,394	-0,086	-0,039
-150,862	330,424	-0,095	-0,132
-149,847	403,178	-0,083	-0,127
-148,833	-98,871	0,075	0,014
-147,818	-200,000	0,007	-0,097
-146,804	-65,632	0,063	0,018
-145,789	36,682	-0,079	-0,050
-144,775	559,618	0,040	0,070
-143,760	-200,000	-0,001	-0,056
-142,745	-200,000	-0,038	-0,176
-141,731	-72,581	0,107	0,028
-140,716	-200,000	0,016	0,080
-139,702	-88,768	0,087	0,019
-138,687	-12,708	0,050	-0,024
-137,672	145,282	-0,159	-0,154
-136,658	-200,000	-0,008	-0,069
-135,643	12,184	-0,096	-0,053
-134,629	208,024	-0,032	-0,036
-133,614	-200,000	-0,012	-0,049
-132,599	743,641	0,042	-0,082
-131,585	100,960	0,054	0,046
-130,570	21,322	-0,053	0,031
-129,556	-200,000	-0,004	0,042
-128,541	800,000	-0,023	-0,064
-127,526	98,830	0,102	-0,085
-126,512	95,435	-0,023	0,019
-125,497	-119,844	0,213	-0,026
-124,483	652,608	0,054	0,100
-123,468	428,111	0,061	-0,095
-122,453	-200,000	-0,003	-0,150
-121,439	14,611	-0,055	-0,031
-120,424	-33,448	-0,094	0,037
-119,410	-41,788	0,018	0,007
