DTS Sentinel unit serial number:	SN410029Multiplexer serial number:	ORYXHardware model number:	OX2-SRSoftware version number:	ORYX F/W v4,00 Oryx Data Collector v3.7.2.0data status	okinstallation	B6 Nyhavnadifferential loss correction	single-endedforward channel	channel 2reverse channel	N/Adate	2023/12/08time	02:30:08forward acquisition time	300,00reverse acquisition time	0,00gamma	499,1914k internal	0,3165k external	0,3165temperature offset calibration	1,0000default loss term (dB/km)	0,3820temperature slope calibration	1,0000multiplexer offset coefficient	1,0000multiplexer slope coefficient	1,0000fibre end	0,00T internal ref (°C)	13,17T ext. ref 1 (°C)	-3,69T ext. ref 2 (°C)	-3,68length (m)	temperature (°C)	Stokes	anti-Stokes-744,400	800,000	0,046	0,131
-743,385	-32,840	-0,274	0,112
-742,371	800,000	0,058	0,156
-741,356	89,889	-0,199	0,164
-740,342	-68,056	0,123	-0,035
-739,327	-60,424	-0,228	-0,071
-738,312	-172,406	0,207	-0,005
-737,298	-141,492	-0,317	0,023
-736,283	0,367	0,123	0,064
-735,269	-147,529	-0,416	-0,025
-734,254	-51,301	0,157	0,054
-733,239	-47,441	-0,482	-0,171
-732,225	2,630	0,267	0,142
-731,210	501,881	0,067	0,114
-730,196	-189,061	-0,075	-0,001
-729,181	236,823	0,050	-0,061
-728,167	800,000	-0,024	0,079
-727,152	-55,131	-0,194	0,064
-726,137	6,587	-0,093	-0,051
-725,123	301,411	-0,106	-0,144
-724,108	-40,647	-0,200	-0,076
-723,094	55,906	-0,153	-0,109
-722,079	119,366	-0,079	-0,072
-721,064	-200,000	0,001	-0,065
-720,050	17,379	-0,034	-0,020
-719,035	79,921	-0,037	-0,029
-718,021	-200,000	-0,028	-0,125
-717,006	73,629	-0,172	-0,132
-715,991	108,644	-0,069	-0,061
-714,977	105,494	-0,076	-0,066
-713,962	-200,000	-0,021	0,081
-712,948	-200,000	-0,001	-0,017
-711,933	-8,120	0,125	0,062
-710,918	800,000	0,046	0,104
-709,904	463,914	-0,043	-0,072
-708,889	-137,731	0,151	-0,012
-707,875	361,345	0,032	0,048
-706,860	39,468	-0,043	0,028
-705,845	800,000	0,018	-0,044
-704,831	625,492	0,012	-0,022
-703,816	173,249	-0,120	0,127
-702,802	3,263	0,010	-0,006
-701,787	-200,000	0,006	-0,048
-700,772	-200,000	0,013	-0,189
-699,758	46,870	-0,135	-0,092
-698,743	86,125	0,085	0,069
-697,729	-55,872	0,022	0,007
-696,714	-146,646	0,117	-0,007
-695,699	800,000	0,035	0,108
-694,685	-14,345	-0,168	-0,079
-693,670	-15,931	-0,146	-0,068
-692,656	-200,000	0,003	0,048
-691,641	800,000	0,026	0,055
-690,627	610,336	0,091	0,168
-689,612	-200,000	0,002	0,098
-688,597	-6,621	-0,114	-0,057
-687,583	-20,779	-0,044	-0,020
-686,568	148,967	-0,132	0,131
-685,554	99,993	-0,048	0,041
-684,539	49,589	0,102	0,070
-683,524	65,202	0,054	0,040
-682,510	23,740	-0,033	-0,020
-681,495	-102,638	-0,183	0,032
-680,481	-200,000	0,014	0,070
-679,466	-31,559	-0,080	-0,033
-678,451	-200,000	0,000	0,070
-677,437	-43,401	-0,191	0,071
-676,422	-200,000	-0,021	-0,074
-675,408	174,195	-0,017	-0,018
-674,393	-157,513	0,195	0,008
-673,378	289,185	-0,076	0,101
-672,364	-200,000	-0,002	-0,084
-671,349	-200,000	0,019	-0,150
-670,335	-142,091	0,152	0,011
-669,320	-58,818	0,092	-0,029
-668,305	800,000	-0,018	0,048
-667,291	-114,625	0,061	0,008
-666,276	-81,006	-0,094	0,023
-665,262	-112,373	-0,119	0,017
-664,247	-200,000	0,001	-0,108
-663,232	559,961	0,072	0,128
-662,218	-200,000	-0,011	0,097
-661,203	-200,000	0,020	-0,108
-660,189	-75,589	0,074	0,019
-659,174	84,615	-0,048	-0,038
-658,159	-200,000	0,031	0,163
-657,145	182,889	-0,111	0,120
-656,130	-5,377	-0,028	-0,014
-655,116	155,275	0,061	0,062
-654,101	800,000	0,052	0,150
-653,086	-200,000	0,004	0,111
-652,072	14,023	-0,048	-0,027
-651,057	446,485	0,043	-0,070
-650,043	-69,600	-0,038	0,011
-649,028	-22,431	0,030	0,013
-648,014	-200,000	-0,020	0,066
-646,999	703,951	0,069	0,133
-645,984	-200,000	-0,001	0,122
-644,970	333,220	-0,022	-0,031
-643,955	376,760	0,043	-0,064
-642,941	-168,343	-0,062	-0,002
-641,926	-17,471	-0,118	0,054
-640,911	-52,414	0,070	-0,024
-639,897	77,047	0,112	-0,087
-638,882	-200,000	-0,010	0,091
-637,868	137,914	-0,028	0,027
-636,853	242,239	0,021	0,026
-635,838	199,041	0,072	-0,081
-634,824	800,000	-0,012	0,027
-633,809	-50,006	0,058	-0,020
-632,795	-72,524	0,096	-0,026
-631,780	153,426	-0,055	0,055
-630,765	-111,993	-0,007	-0,001
-629,751	-20,645	-0,074	-0,033
-628,736	800,000	-0,021	-0,055
-627,722	800,000	0,024	0,050
-626,707	34,635	-0,054	-0,034
-625,692	-132,589	-0,023	-0,002
-624,678	-114,476	0,051	0,007
-623,663	-200,000	0,018	-0,072
-622,649	626,157	-0,023	0,043
-621,634	217,117	-0,049	-0,058
-620,619	-157,551	0,115	0,005
-619,605	-84,509	-0,171	-0,039
-618,590	86,433	0,068	0,055
-617,576	-9,492	0,100	-0,049
-616,561	174,038	-0,070	-0,074
-615,546	113,984	0,050	-0,044
-614,532	3,959	0,081	0,043
-613,517	-98,723	-0,133	-0,025
-612,503	-199,270	0,028	-0,000
-611,488	800,000	0,012	0,036
-610,474	363,682	0,083	0,123
-609,459	115,218	0,145	0,129
-608,444	282,357	0,071	0,094
-607,430	222,137	-0,093	-0,110
-606,415	-59,001	0,154	0,048
-605,401	-149,115	-0,047	0,003
-604,386	762,603	-0,057	0,114
-603,371	800,000	0,047	0,150
-602,357	665,486	-0,055	0,104
-601,342	-143,289	0,062	0,004
-600,328	111,732	-0,116	-0,102
-599,313	234,613	0,064	0,078
-598,298	158,706	0,146	0,148
-597,284	800,000	0,038	-0,096
-596,269	-33,102	0,100	0,040
-595,255	-200,000	-0,028	0,149
-594,240	31,869	0,149	0,094
-593,225	-161,586	-0,009	0,000
-592,211	800,000	-0,042	-0,117
-591,196	-17,876	-0,084	-0,038
-590,182	758,711	-0,052	-0,103
-589,167	-151,794	0,119	0,006
-588,152	-200,000	-0,017	0,068
-587,138	255,494	-0,009	0,011
-586,123	63,063	-0,109	-0,079
-585,109	-200,000	0,003	0,124
-584,094	-36,489	0,008	0,003
-583,079	0,861	-0,029	-0,015
-582,065	12,258	0,075	-0,042
-581,050	6,637	0,052	-0,028
-580,036	800,000	-0,017	-0,043
-579,021	25,125	-0,173	-0,105
-578,006	133,510	0,029	-0,028
-576,992	-200,000	-0,001	-0,023
-575,977	579,777	0,037	0,066
-574,963	33,973	0,119	-0,076
-573,948	-200,000	-0,019	-0,080
-572,934	326,959	0,066	0,093
-571,919	800,000	0,006	-0,016
-570,904	-200,000	0,019	-0,078
-569,890	324,576	-0,059	-0,083
-568,875	-200,000	0,040	0,156
-567,861	-123,307	-0,162	-0,019
-566,846	-93,124	-0,071	-0,014
-565,831	62,736	0,012	0,009
-564,817	-200,000	0,006	-0,042
-563,802	-139,621	-0,046	0,004
-562,788	-139,358	0,013	0,001
-561,773	99,857	0,048	-0,041
-560,758	430,276	0,027	0,043
-559,744	7,284	-0,092	0,050
-558,729	-200,000	0,000	0,024
-557,715	-182,543	0,099	-0,001
-556,700	109,729	-0,132	-0,115
-555,685	185,354	-0,102	-0,111
-554,671	101,603	0,111	-0,094
-553,656	-200,000	0,015	0,081
-552,642	28,026	0,164	0,101
-551,627	302,805	-0,029	0,040
-550,612	579,573	0,018	-0,032
-549,598	-33,088	-0,055	0,022
-548,583	-200,000	0,016	0,082
-547,569	-37,834	0,040	-0,016
-546,554	203,850	0,114	0,129
-545,539	-200,000	0,031	-0,174
-544,525	201,397	0,031	0,035
-543,510	-112,856	-0,216	0,031
-542,496	-113,021	-0,123	0,017
-541,481	254,472	-0,055	-0,069
-540,466	687,305	-0,056	-0,107
-539,452	-200,000	0,005	0,023
-538,437	-187,506	0,068	0,001
-537,423	176,614	0,018	-0,019
-536,408	610,471	0,030	-0,056
-535,393	-13,817	-0,011	-0,005
-534,379	66,607	0,036	0,027
-533,364	232,548	-0,044	-0,053
-532,350	-200,000	0,024	0,173
-531,335	800,000	0,055	-0,153
-530,321	427,948	-0,044	0,069
-529,306	-15,145	0,083	0,039
-528,291	-200,000	0,014	-0,063
-527,277	800,000	-0,029	-0,072
-526,262	298,816	0,050	-0,067
-525,248	268,946	-0,028	-0,036
-524,233	-80,423	-0,183	0,044
-523,218	-200,000	-0,006	-0,057
-522,204	-200,000	0,057	-0,197
-521,189	-63,723	-0,133	0,039
-520,175	216,783	-0,106	0,123
-519,160	-162,837	-0,040	0,001
-518,145	269,372	0,121	0,156
-517,131	-200,000	0,012	-0,082
-516,116	58,487	0,037	0,026
-515,102	618,647	-0,093	0,171
-514,087	-200,000	-0,101	0,000
-513,072	230,614	0,008	0,010
-512,058	519,758	0,037	-0,064
-511,043	-200,000	0,000	0,084
-510,029	-100,943	0,013	0,002
-509,014	214,710	-0,066	0,076
-507,999	-43,688	-0,075	-0,027
-506,985	383,355	0,062	0,093
-505,970	-200,000	0,006	-0,062
-504,956	151,407	-0,097	-0,096
-503,941	55,082	0,061	0,043
-502,926	-200,000	-0,046	-0,155
-501,912	182,248	0,040	0,044
-500,897	140,441	0,022	0,021
-499,883	261,558	-0,070	-0,088
-498,868	-91,612	0,058	-0,012
-497,853	800,000	0,011	-0,030
-496,839	-167,031	0,174	0,005
-495,824	-112,623	-0,027	-0,004
-494,810	-200,000	0,001	0,141
-493,795	159,401	0,040	-0,040
-492,781	74,167	0,086	0,066
-491,766	352,759	-0,071	-0,103
-490,751	-200,000	0,000	-0,113
-489,737	-200,000	0,022	0,133
-488,722	800,000	-0,028	0,069
-487,708	82,441	0,050	0,040
-486,693	239,560	0,067	0,082
-485,678	-189,708	0,081	-0,001
-484,664	-36,557	-0,146	-0,057
-483,649	61,504	0,007	-0,005
-482,635	194,526	0,054	-0,060
-481,620	-200,000	0,072	0,000
-480,605	224,415	0,033	0,039
-479,591	-146,933	0,140	-0,009
-478,576	16,275	-0,080	-0,046
-477,562	-157,435	-0,151	-0,006
-476,547	-11,252	0,111	0,053
-475,532	194,762	0,094	0,104
-474,518	44,126	0,036	0,024
-473,503	-173,474	0,176	-0,004
-472,489	615,116	-0,026	-0,048
-471,474	162,576	-0,087	0,089
-470,459	419,337	0,026	-0,040
-469,445	627,176	-0,037	-0,068
-468,430	-200,000	-0,002	-0,159
-467,416	276,304	0,036	0,047
-466,401	-200,000	0,010	0,082
-465,386	30,459	0,094	0,058
-464,372	437,159	0,058	-0,093
-463,357	384,436	-0,034	0,051
-462,343	800,000	0,025	-0,053
-461,328	-200,000	0,004	-0,020
-460,313	800,000	-0,037	0,082
-459,299	200,578	0,085	0,095
-458,284	300,187	0,046	0,061
-457,270	-200,000	-0,005	-0,027
-456,255	105,199	-0,083	0,071
-455,241	-47,971	0,142	-0,050
-454,226	521,273	0,042	-0,072
-453,211	236,609	0,051	-0,061
-452,197	-72,922	-0,055	-0,015
-451,182	-200,000	0,001	0,051
-450,168	-200,000	-0,005	0,038
-449,153	-141,697	0,105	-0,008
-448,138	36,983	0,062	0,040
-447,124	800,000	0,035	-0,091
-446,109	-200,000	0,006	0,075
-445,095	215,257	0,088	0,101
-444,080	-86,951	0,062	0,014
-443,065	800,000	0,016	-0,046
-442,051	-132,506	-0,090	-0,008
-441,036	-23,548	-0,126	-0,055
-440,022	664,569	0,029	0,055
-439,007	800,000	-0,021	-0,058
-437,992	-16,568	0,088	0,040
-436,978	-78,926	0,104	0,025
-435,963	-200,000	0,038	0,126
-434,949	63,720	-0,116	-0,084
-433,934	42,954	0,030	0,020
-432,919	99,006	0,095	-0,080
-431,905	8,924	-0,046	-0,025
-430,890	800,000	-0,022	0,050
-429,876	-200,000	0,011	0,062
-428,861	-44,412	0,068	0,025
-427,846	-13,687	-0,085	-0,040
-426,832	-6,523	0,006	-0,003
-425,817	80,050	-0,118	-0,092
-424,803	183,995	0,043	0,046
-423,788	-200,000	0,006	0,036
-422,773	50,446	-0,065	-0,045
-421,759	-200,000	0,026	-0,097
-420,744	408,410	-0,068	0,104
-419,730	-200,000	-0,055	0,191
-418,715	-182,781	-0,059	0,001
-417,701	-200,000	0,005	-0,201
-416,686	800,000	0,023	-0,070
-415,671	800,000	0,019	-0,052
-414,657	18,984	0,028	0,016
-413,642	-200,000	0,056	-0,195
-412,628	-34,203	-0,102	0,041
-411,613	800,000	0,015	0,032
-410,598	-83,981	-0,044	0,010
-409,584	-134,004	-0,064	-0,006
-408,569	-200,000	-0,012	-0,091
-407,555	-20,475	0,077	0,034
-406,540	593,615	-0,005	-0,009
-405,525	-200,000	0,016	0,086
-404,511	-200,000	-0,006	-0,079
-403,496	-200,000	-0,015	0,070
-402,482	-3,535	-0,066	-0,033
-401,467	-200,000	0,003	0,086
-400,452	-171,132	0,086	-0,002
-399,438	129,234	-0,092	0,085
-398,423	124,073	0,060	0,055
-397,409	-200,000	0,020	-0,089
-396,394	36,268	0,173	0,110
-395,379	429,144	-0,019	-0,030
-394,365	416,287	0,014	0,021
-393,350	-29,456	0,092	-0,038
-392,336	-87,252	0,093	0,020
-391,321	-3,420	-0,140	0,071
-390,306	800,000	-0,048	0,123
-389,292	-200,000	0,011	-0,118
-388,277	-200,000	0,003	0,028
-387,263	-200,000	0,014	-0,098
-386,248	363,256	0,046	-0,067
-385,233	800,000	0,013	-0,042
-384,219	-200,000	0,041	0,163
-383,204	3,764	-0,150	0,079
-382,190	460,059	-0,024	-0,039
-381,175	-43,949	0,123	0,045
-380,160	-73,925	-0,067	-0,017
-379,146	113,109	-0,121	0,106
-378,131	-200,000	-0,028	0,144
-377,117	5,588	0,048	0,026
-376,102	800,000	-0,054	-0,171
-375,088	-47,508	-0,238	-0,083
-374,073	800,000	0,022	0,045
-373,058	-172,649	-0,121	0,003
-372,044	-13,056	0,035	0,017
-371,029	53,721	0,067	0,046
-370,015	58,573	-0,007	-0,005
-369,000	-200,000	-0,024	0,237
-367,985	-104,713	-0,138	-0,023
-366,971	82,606	0,016	0,012
-365,956	749,837	-0,062	0,122
-364,942	385,144	0,061	0,091
-363,927	33,840	-0,068	-0,043
-362,912	-200,000	-0,001	0,064
-361,898	-200,000	-0,024	-0,099
-360,883	800,000	-0,038	-0,121
-359,869	138,061	0,043	-0,041
-358,854	126,033	0,073	0,067
-357,839	800,000	0,019	0,057
-356,825	-200,000	-0,028	0,151
-355,810	53,668	-0,113	-0,079
-354,796	-200,000	-0,009	-0,064
-353,781	96,774	-0,083	-0,069
-352,766	-2,461	-0,161	-0,082
-351,752	800,000	-0,016	0,036
-350,737	-200,000	0,010	0,132
-349,723	-37,080	-0,118	0,046
-348,708	440,385	0,032	-0,050
-347,693	137,059	-0,127	-0,120
-346,679	-8,679	-0,056	-0,027
-345,664	-169,919	-0,026	-0,001
-344,650	63,128	0,117	0,085
-343,635	800,000	-0,044	0,133
-342,620	20,813	0,058	-0,034
-341,606	800,000	0,024	-0,052
-340,591	-200,000	-0,020	-0,304
-339,577	-200,000	-0,020	-0,072
-338,562	-200,000	0,003	-0,054
-337,548	507,661	-0,070	-0,118
-336,533	-96,660	0,114	0,022
-335,518	56,185	-0,011	-0,008
-334,504	181,523	0,077	-0,082
-333,489	21,120	-0,037	0,022
-332,475	-200,000	-0,020	0,183
-331,460	463,872	-0,027	0,044
-330,445	-200,000	0,031	0,106
-329,431	-129,756	-0,121	0,012
-328,416	-93,458	0,057	0,011
-327,402	149,047	0,015	0,015
-326,387	239,653	0,066	-0,080
-325,372	-40,193	-0,099	0,037
-324,358	144,486	-0,083	-0,080
-323,343	-200,000	-0,005	-0,140
-322,329	-200,000	0,000	0,078
-321,314	135,111	0,076	0,072
-320,299	-12,748	-0,108	-0,051
-319,285	285,124	0,078	0,102
-318,270	461,826	0,026	0,042
-317,256	-200,000	0,014	0,116
-316,241	-33,913	-0,106	0,042
-315,226	2,682	0,152	0,079
-314,212	157,664	0,057	-0,057
-313,197	-101,267	-0,053	0,009
-312,183	408,335	-0,022	0,033
-311,168	-41,192	-0,101	-0,037
-310,153	-200,000	-0,058	-0,215
-309,139	487,656	-0,025	-0,041
-308,124	-13,276	0,083	-0,039
-307,110	485,002	-0,102	0,169
-306,095	-200,000	0,005	-0,144
-305,080	-23,667	0,123	-0,053
-304,066	-200,000	-0,016	0,071
-303,051	-200,000	0,008	-0,045
-302,037	49,537	-0,148	0,101
-301,022	-152,707	0,038	0,002
-300,008	800,000	0,052	0,111
-298,993	-200,000	-0,028	-0,120
-297,978	800,000	-0,031	-0,083
-296,964	-87,572	-0,123	-0,027
-295,949	-23,678	-0,122	0,052
-294,935	800,000	0,006	0,017
-293,920	-171,500	0,092	0,002
-292,905	7,565	-0,053	0,029
-291,891	161,035	0,134	-0,136
-290,876	235,428	-0,035	-0,042
-289,862	800,000	0,013	-0,031
-288,847	-200,000	0,019	-0,063
-287,832	800,000	0,020	-0,040
-286,818	800,000	0,018	-0,044
-285,803	426,555	-0,078	-0,122
-284,789	374,841	-0,027	0,040
-283,774	486,821	0,066	0,109
-282,759	-97,181	0,059	-0,011
-281,745	-4,075	-0,067	0,033
-280,730	163,262	0,034	0,035
-279,716	-200,000	-0,014	-0,103
-278,701	-200,000	0,027	-0,143
-277,686	-51,775	0,106	0,036
-276,672	-39,532	-0,064	-0,024
-275,657	86,307	0,036	-0,028
-274,643	85,201	-0,113	-0,090
-273,628	-87,671	-0,108	0,023
-272,613	-181,215	-0,039	-0,001
-271,599	212,813	0,096	-0,109
-270,584	-200,000	0,010	0,070
-269,570	175,792	-0,081	-0,085
-268,555	71,746	-0,117	0,088
-267,540	-200,000	0,009	0,050
-266,526	15,702	-0,074	0,042
-265,511	-49,844	-0,074	-0,025
-264,497	-200,000	-0,016	0,083
-263,482	-200,000	-0,014	-0,065
-262,467	-200,000	0,009	0,105
-261,453	-14,397	0,122	0,056
-260,438	-200,000	-0,006	0,050
-259,424	340,233	0,027	0,038
-258,409	75,248	0,073	0,055
-257,395	553,891	-0,016	0,028
-256,380	-4,754	0,024	-0,012
-255,365	7,311	0,083	0,044
-254,351	182,234	0,057	0,061
-253,336	373,870	0,034	-0,050
-252,322	30,328	0,087	-0,054
-251,307	800,000	-0,043	-0,117
-250,292	199,036	0,061	0,067
-249,278	-102,001	0,099	0,017
-248,263	-200,000	-0,016	0,053
-247,249	-200,000	-0,003	0,090
-246,234	-200,000	-0,022	-0,209
-245,219	-145,623	0,141	-0,009
-244,205	-22,063	0,046	-0,020
-243,190	167,160	-0,081	0,083
-242,176	-102,758	0,093	0,016
-241,161	-63,992	0,080	-0,023
-240,146	217,838	0,067	0,077
-239,132	800,000	-0,047	-0,124
-238,117	-121,130	-0,079	-0,009
-237,103	-134,761	0,073	0,006
-236,088	499,676	-0,029	0,048
-235,073	800,000	-0,017	0,040
-234,059	-200,000	0,003	-0,087
-233,044	-39,752	-0,062	0,023
-232,030	-80,337	-0,121	-0,029
-231,015	800,000	0,016	-0,036
-230,000	-200,000	-0,004	-0,102
-228,986	64,131	0,046	-0,033
-227,971	68,569	0,088	-0,065
-226,957	-81,899	-0,094	-0,022
-225,942	348,781	0,054	-0,077
-224,927	-200,000	0,009	-0,039
-223,913	-200,000	-0,025	-0,092
-222,898	800,000	0,044	-0,100
-221,884	-200,000	0,031	0,136
-220,869	75,497	0,103	-0,079
-219,855	-200,000	-0,000	0,121
-218,840	-30,593	0,060	-0,024
-217,825	800,000	-0,030	-0,064
-216,811	86,335	-0,092	-0,073
-215,796	-84,650	-0,033	-0,007
-214,782	-200,000	-0,020	-0,070
-213,767	800,000	-0,049	0,100
-212,752	800,000	0,049	0,157
-211,738	800,000	-0,052	0,107
-210,723	-80,230	-0,113	0,027
-209,709	-53,865	-0,064	-0,021
-208,694	-200,000	0,024	-0,171
-207,679	800,000	-0,027	-0,054
-206,665	-200,000	0,002	-0,013
-205,650	206,981	0,092	-0,104
-204,636	-34,071	0,049	0,019
-203,621	-56,636	0,063	-0,020
-202,606	-16,929	-0,109	-0,049
-201,592	65,876	-0,019	-0,014
-200,577	2,836	-0,056	0,029
-199,563	-87,158	-0,040	0,009
-198,548	-200,000	0,008	0,094
-197,533	49,211	0,101	-0,068
-196,519	221,743	0,113	0,131
-195,504	800,000	-0,040	-0,087
-194,490	375,746	-0,044	-0,065
-193,475	688,446	0,032	0,060
-192,460	-102,045	-0,119	-0,021
-191,446	-6,397	0,080	0,039
-190,431	-200,000	0,024	-0,111
-189,417	-200,000	-0,001	-0,085
-188,402	126,054	-0,074	0,067
-187,387	-128,957	0,046	-0,005
-186,373	32,307	-0,102	0,063
-185,358	-200,000	-0,016	-0,149
-184,344	158,790	0,086	0,086
-183,329	235,026	-0,029	-0,035
-182,315	12,955	0,150	-0,083
-181,300	274,817	-0,136	0,174
-180,285	108,582	-0,052	0,045
-179,271	61,003	0,039	-0,028
-178,256	362,323	0,055	0,080
-177,242	21,530	0,086	0,050
-176,227	240,266	0,017	0,020
-175,212	-200,000	0,000	-0,107
-174,198	24,353	0,044	0,026
-173,183	369,199	-0,044	-0,064
-172,169	43,508	0,044	0,029
-171,154	440,438	0,028	-0,043
-170,139	113,459	-0,063	-0,055
-169,125	800,000	-0,031	0,071
-168,110	108,895	-0,064	-0,055
-167,096	-157,030	0,285	0,012
-166,081	-144,873	-0,143	-0,009
-165,066	349,606	-0,074	-0,105
-164,052	-62,646	-0,152	0,045
-163,037	479,120	0,040	-0,065
-162,023	-200,000	-0,004	-0,079
-161,008	-133,371	-0,034	-0,003
-159,993	38,182	0,113	0,072
-158,979	244,016	-0,051	0,062
-157,964	-5,151	-0,063	0,031
-156,950	574,693	-0,038	0,067
-155,935	234,312	0,090	0,107
-154,920	-111,848	-0,213	-0,031
-153,906	96,046	0,028	0,023
-152,891	800,000	-0,036	-0,107
-151,877	-80,412	-0,143	0,034
-150,862	-79,470	0,079	0,019
-149,847	800,000	0,034	-0,072
-148,833	-152,003	0,075	0,004
-147,818	-101,037	0,060	-0,010
-146,804	-78,258	0,116	-0,028
-145,789	-200,000	-0,011	0,153
-144,775	-8,588	-0,026	-0,012
-143,760	-27,351	-0,136	0,056
-142,745	92,717	-0,088	-0,071
-141,731	-200,000	-0,004	0,130
-140,716	-87,567	-0,162	0,035
-139,702	651,451	-0,013	0,025
-138,687	31,767	0,019	0,012
-137,672	-200,000	0,011	0,054
-136,658	-200,000	0,021	-0,128
-135,643	421,920	-0,052	-0,081
-134,629	-75,878	0,047	-0,012
-133,614	274,351	0,081	0,103
-132,599	-78,579	-0,132	0,032
-131,585	-200,000	0,002	-0,079
-130,570	800,000	0,031	-0,063
-129,556	-200,000	-0,011	0,056
-128,541	-103,544	-0,091	-0,015
-127,526	800,000	0,058	-0,117
-126,512	-200,000	0,011	0,084
-125,497	-161,544	0,104	0,004
-124,483	800,000	-0,012	0,038
-123,468	-200,000	0,009	-0,126
-122,453	-122,800	-0,156	-0,018
-121,439	-200,000	0,003	-0,011
-120,424	-61,536	0,104	-0,031
-119,410	115,868	-0,011	0,010
-118,395	129,270	-0,042	-0,038
