DTS Sentinel unit serial number:	SN410029Multiplexer serial number:	ORYXHardware model number:	OX2-SRSoftware version number:	ORYX F/W v4,00 Oryx Data Collector v3.7.2.0data status	okinstallation	B6 Nyhavnadifferential loss correction	single-endedforward channel	channel 2reverse channel	N/Adate	2023/12/09time	23:25:08forward acquisition time	300,00reverse acquisition time	0,00gamma	499,1914k internal	0,3126k external	0,3126temperature offset calibration	1,0000default loss term (dB/km)	0,3820temperature slope calibration	1,0000multiplexer offset coefficient	1,0000multiplexer slope coefficient	1,0000fibre end	0,00T internal ref (°C)	21,71T ext. ref 1 (°C)	5,54T ext. ref 2 (°C)	5,52length (m)	temperature (°C)	Stokes	anti-Stokes-744,400	556,797	0,045	-0,082
-743,385	-82,569	-0,196	0,047
-742,371	-200,000	0,036	-0,157
-741,356	-58,584	-0,183	0,059
-740,342	-200,000	0,000	0,011
-739,327	-7,456	-0,257	0,129
-738,312	526,523	-0,037	0,066
-737,298	-45,012	-0,277	0,102
-736,283	788,244	0,050	-0,102
-735,269	-98,487	-0,232	0,044
-734,254	-51,735	0,238	0,082
-733,239	-119,442	-0,505	-0,064
-732,225	800,000	-0,022	-0,069
-731,210	-200,000	-0,022	0,114
-730,196	800,000	-0,009	-0,028
-729,181	-128,877	-0,077	0,008
-728,167	-200,000	0,021	-0,080
-727,152	-18,022	-0,069	0,032
-726,137	800,000	-0,038	-0,091
-725,123	-127,448	-0,113	-0,012
-724,108	231,871	-0,111	0,136
-723,094	-200,000	0,014	-0,147
-722,079	-150,145	-0,219	-0,012
-721,064	134,559	-0,123	0,119
-720,050	50,034	-0,083	0,058
-719,035	-200,000	0,001	0,040
-718,021	-200,000	0,026	0,095
-717,006	-200,000	-0,037	-0,155
-715,991	-88,749	-0,153	-0,033
-714,977	66,020	0,108	0,081
-713,962	38,944	-0,061	-0,041
-712,948	-159,587	0,041	-0,002
-711,933	17,287	-0,055	-0,033
-710,918	147,583	0,076	0,076
-709,904	-62,232	-0,057	0,018
-708,889	204,705	0,042	0,048
-707,875	-200,000	-0,003	-0,196
-706,860	210,724	-0,071	-0,083
-705,845	12,925	0,032	0,018
-704,831	46,793	0,049	0,034
-703,816	-65,784	-0,100	-0,030
-702,802	-113,254	-0,078	0,011
-701,787	136,109	-0,014	0,014
-700,772	-44,556	0,129	0,048
-699,758	57,888	-0,024	-0,018
-698,743	800,000	0,032	-0,078
-697,729	-200,000	0,006	-0,033
-696,714	-135,105	0,015	-0,001
-695,699	35,927	0,061	-0,040
-694,685	-200,000	0,024	0,085
-693,670	125,521	-0,016	-0,015
-692,656	-200,000	-0,015	-0,120
-691,641	103,938	-0,058	-0,051
-690,627	563,407	-0,021	-0,038
-689,612	-23,646	0,136	0,060
-688,597	800,000	0,049	0,113
-687,583	-200,000	-0,002	0,125
-686,568	-117,891	0,044	0,006
-685,554	444,731	-0,070	0,114
-684,539	-200,000	-0,047	0,166
-683,524	-146,812	-0,035	0,002
-682,510	-33,949	0,080	0,032
-681,495	76,759	-0,114	-0,089
-680,481	349,285	-0,034	-0,050
-679,466	800,000	0,038	0,116
-678,451	-31,827	0,087	-0,036
-677,437	190,420	0,025	0,028
-676,422	64,105	0,082	0,061
-675,408	-43,625	0,116	0,043
-674,393	164,191	0,020	0,021
-673,378	-96,501	-0,066	-0,013
-672,364	176,194	-0,053	-0,058
-671,349	-46,143	0,094	0,034
-670,335	-200,000	-0,016	0,072
-669,320	209,158	0,012	-0,014
-668,305	37,158	0,115	0,076
-667,291	343,286	-0,075	-0,109
-666,276	327,153	-0,083	-0,119
-665,262	26,441	-0,039	-0,024
-664,247	-106,234	-0,151	-0,025
-663,232	339,729	0,015	-0,022
-662,218	18,388	0,075	-0,044
-661,203	800,000	-0,035	-0,076
-660,189	-105,114	0,143	-0,024
-659,174	105,195	-0,043	0,037
-658,159	309,757	-0,071	-0,099
-657,145	-200,000	0,018	-0,141
-656,130	-200,000	-0,012	0,046
-655,116	800,000	0,012	-0,034
-654,101	416,384	0,036	0,058
-653,086	110,110	-0,027	0,024
-652,072	800,000	-0,027	-0,064
-651,057	343,022	-0,086	-0,126
-650,043	62,352	0,013	-0,010
-649,028	155,667	0,043	-0,044
-648,014	800,000	-0,048	-0,122
-646,999	-200,000	-0,049	-0,175
-645,984	800,000	0,028	0,061
-644,970	-200,000	0,035	-0,131
-643,955	-39,994	-0,171	-0,066
-642,941	-46,910	0,048	0,017
-641,926	-25,678	-0,072	-0,031
-640,911	-117,931	-0,111	0,015
-639,897	72,836	0,022	0,017
-638,882	207,755	-0,047	-0,055
-637,868	34,477	-0,108	-0,070
-636,853	74,991	-0,042	-0,032
-635,838	-112,246	-0,087	0,013
-634,824	73,501	0,093	-0,072
-633,809	312,273	-0,025	0,035
-632,795	-200,000	-0,003	0,036
-631,780	20,386	-0,106	-0,064
-630,765	40,701	0,017	-0,011
-629,751	98,288	-0,093	0,080
-628,736	232,021	-0,077	-0,094
-627,722	31,943	0,115	0,073
-626,707	-66,306	0,016	0,005
-625,692	797,054	-0,020	0,041
-624,678	761,388	-0,045	0,091
-623,663	-22,213	0,062	0,028
-622,649	-51,499	-0,113	-0,039
-621,634	-200,000	0,005	-0,148
-620,619	58,380	-0,049	-0,036
-619,605	-200,000	0,019	0,100
-618,590	-22,704	0,099	-0,044
-617,576	155,248	-0,073	0,075
-616,561	28,524	-0,065	-0,041
-615,546	-200,000	-0,008	0,039
-614,532	530,715	-0,071	-0,125
-613,517	-200,000	-0,001	-0,030
-612,503	-111,206	-0,105	-0,016
-611,488	-89,646	-0,134	0,029
-610,474	-200,000	0,026	0,089
-609,459	-200,000	0,028	-0,154
-608,444	429,066	0,073	-0,118
-607,430	559,128	0,044	-0,078
-606,415	800,000	0,012	-0,027
-605,401	800,000	0,015	0,033
-604,386	14,157	0,090	0,052
-603,371	48,381	-0,064	-0,045
-602,357	-70,389	-0,066	-0,018
-601,342	-45,879	0,015	-0,006
-600,328	-200,000	0,006	0,072
-599,313	-200,000	-0,024	-0,090
-598,298	800,000	-0,022	-0,062
-597,284	-139,753	-0,198	-0,015
-596,269	-200,000	-0,003	0,026
-595,255	427,598	0,088	-0,140
-594,240	-145,783	-0,198	-0,013
-593,225	151,810	0,030	0,031
-592,211	-123,858	0,026	-0,003
-591,196	-200,000	0,018	-0,126
-590,182	-200,000	0,007	-0,041
-589,167	800,000	0,041	0,108
-588,152	104,790	-0,043	-0,038
-587,138	26,755	0,085	-0,053
-586,123	33,416	-0,121	-0,078
-585,109	800,000	0,029	-0,081
-584,094	219,111	-0,081	0,096
-583,079	-200,000	-0,004	0,074
-582,065	122,384	0,058	0,054
-581,050	122,638	0,053	0,049
-580,036	76,797	-0,112	-0,088
-579,021	-20,652	0,023	-0,011
-578,006	444,314	0,017	0,028
-576,992	800,000	0,028	0,082
-575,977	-111,333	0,127	-0,019
-574,963	-161,861	-0,068	-0,003
-573,948	194,844	-0,074	-0,083
-572,934	349,153	0,043	-0,063
-571,919	157,827	-0,110	0,113
-570,904	337,226	0,049	0,071
-569,890	193,163	0,034	0,038
-568,875	120,483	-0,022	0,020
-567,861	-124,494	-0,036	-0,004
-566,846	574,580	0,064	0,116
-565,831	49,230	0,075	-0,052
-564,817	-98,191	-0,047	-0,009
-563,802	-100,629	-0,112	-0,020
-562,788	50,215	-0,117	0,081
-561,773	6,608	-0,018	0,010
-560,758	800,000	0,061	0,154
-559,744	-70,316	-0,031	-0,009
-558,729	800,000	-0,077	0,158
-557,715	-77,646	-0,042	0,011
-556,700	460,614	0,056	-0,092
-555,685	130,950	-0,075	-0,071
-554,671	-24,670	0,079	0,035
-553,656	122,147	0,072	-0,066
-552,642	161,236	-0,110	0,114
-551,627	140,711	0,019	-0,018
-550,612	20,014	0,064	0,038
-549,598	134,560	-0,104	-0,100
-548,583	800,000	0,036	0,105
-547,569	-118,821	-0,187	0,024
-546,554	-56,828	0,108	-0,035
-545,539	240,357	-0,077	0,096
-544,525	-32,238	-0,127	0,052
-543,510	633,318	0,007	-0,012
-542,496	-82,020	-0,097	0,023
-541,481	-98,804	0,050	-0,009
-540,466	54,122	-0,030	-0,021
-539,452	-159,872	0,246	0,010
-538,437	371,148	-0,047	-0,071
-537,423	-200,000	-0,005	-0,092
-536,408	-200,000	-0,008	-0,090
-535,393	-152,511	0,069	-0,004
-534,379	800,000	0,014	-0,031
-533,364	-200,000	0,016	-0,092
-532,350	31,192	-0,029	0,018
-531,335	-200,000	0,020	-0,122
-530,321	138,402	-0,055	-0,054
-529,306	-62,058	-0,065	-0,020
-528,291	89,490	0,111	-0,091
-527,277	-148,174	-0,025	0,001
-526,262	31,715	-0,071	-0,045
-525,248	-200,000	-0,022	0,085
-524,233	-83,159	-0,110	-0,026
-523,218	84,849	0,052	-0,042
-522,204	-70,809	-0,062	-0,017
-521,189	91,245	0,074	-0,061
-520,175	267,196	-0,034	-0,044
-519,160	15,753	-0,117	0,068
-518,145	-176,087	0,061	0,001
-517,131	-200,000	-0,027	0,097
-516,116	-13,390	-0,076	-0,036
-515,102	800,000	-0,020	-0,050
-514,087	-46,999	-0,045	0,016
-513,072	800,000	-0,010	0,025
-512,058	764,969	-0,017	-0,035
-511,043	8,742	-0,154	0,086
-510,029	-4,290	0,107	-0,054
-509,014	185,959	-0,088	-0,097
-507,999	107,075	-0,039	-0,034
-506,985	560,344	0,034	-0,061
-505,970	-170,529	0,068	0,002
-504,956	-200,000	-0,011	-0,059
-503,941	-200,000	0,012	-0,118
-502,926	-200,000	-0,006	-0,052
-501,912	109,828	0,062	0,055
-500,897	10,267	0,033	-0,018
-499,883	-200,000	0,022	-0,077
-498,868	-81,889	-0,063	0,015
-497,853	-79,508	0,059	-0,014
-496,839	-79,905	-0,125	0,031
-495,824	-200,000	-0,008	0,066
-494,810	-200,000	0,018	0,192
-493,795	-43,004	0,055	-0,021
-492,781	-200,000	-0,016	-0,130
-491,766	800,000	-0,048	0,152
-490,751	-55,980	-0,105	-0,034
-489,737	-200,000	0,012	0,082
-488,722	-19,364	-0,092	-0,042
-487,708	-107,079	0,138	0,022
-486,693	-200,000	-0,005	0,028
-485,678	482,848	-0,027	0,045
-484,664	538,474	0,037	0,065
-483,649	196,068	-0,052	0,059
-482,635	-185,106	0,084	0,001
-481,620	800,000	0,034	0,078
-480,605	-200,000	0,009	0,120
-479,591	45,893	-0,088	0,060
-478,576	-15,258	0,032	-0,015
-477,562	-200,000	-0,008	-0,110
-476,547	-126,543	0,046	0,005
-475,532	-200,000	0,027	-0,133
-474,518	800,000	0,004	0,010
-473,503	35,407	0,043	0,028
-472,489	35,400	0,116	0,075
-471,474	77,154	0,041	0,032
-470,459	-139,442	-0,143	-0,011
-469,445	187,948	0,072	-0,080
-468,430	-40,108	0,067	-0,026
-467,416	-116,554	0,107	0,014
-466,401	50,103	0,093	-0,064
-465,386	800,000	0,035	0,100
-464,372	776,131	-0,046	-0,092
-463,357	69,711	-0,163	-0,124
-462,343	354,569	-0,042	-0,061
-461,328	800,000	0,027	-0,067
-460,313	164,417	0,081	0,085
-459,299	51,404	0,105	0,073
-458,284	-200,000	0,014	0,082
-457,270	800,000	0,056	0,153
-456,255	102,774	-0,078	-0,067
-455,241	81,827	0,089	-0,071
-454,226	-49,983	-0,203	-0,071
-453,211	-200,000	-0,006	-0,064
-452,197	391,846	-0,077	0,119
-451,182	25,253	0,108	0,066
-450,168	292,741	0,062	-0,084
-449,153	275,460	-0,046	0,060
-448,138	-61,345	-0,149	-0,046
-447,124	157,640	-0,045	-0,045
-446,109	-200,000	-0,018	-0,084
-445,095	-41,875	0,081	-0,030
-444,080	-49,870	0,120	0,042
-443,065	800,000	0,018	-0,045
-442,051	-18,913	0,093	0,043
-441,036	62,088	-0,035	0,026
-440,022	-17,433	-0,116	-0,053
-439,007	-200,000	-0,006	-0,058
-437,992	92,636	0,068	0,057
-436,978	800,000	-0,047	-0,145
-435,963	-97,949	0,061	0,011
-434,949	-200,000	0,021	0,096
-433,934	-66,580	0,055	0,016
-432,919	405,669	-0,105	-0,163
-431,905	19,401	-0,114	-0,067
-430,890	-7,247	-0,096	0,048
-429,876	-143,416	0,185	0,013
-428,861	-14,446	0,067	-0,032
-427,846	155,453	0,106	-0,107
-426,832	-129,308	-0,036	0,004
-425,817	-111,960	-0,113	0,017
-424,803	-200,000	0,014	-0,076
-423,788	800,000	0,031	0,072
-422,773	89,600	0,087	0,071
-421,759	-26,521	-0,030	-0,013
-420,744	254,570	0,055	0,070
-419,730	-13,422	-0,028	-0,014
-418,715	123,707	0,047	-0,044
-417,701	-200,000	0,008	-0,069
-416,686	37,435	0,058	0,038
-415,671	173,889	0,123	0,131
-414,657	-200,000	-0,043	-0,144
-413,642	-20,640	-0,127	0,057
-412,628	-116,364	-0,143	-0,019
-411,613	-154,319	0,012	-0,001
-410,598	-137,405	0,086	0,007
-409,584	-200,000	-0,021	0,074
-408,569	116,442	-0,046	0,042
-407,555	-12,834	0,044	0,021
-406,540	64,384	0,115	0,085
-405,525	14,570	0,050	0,029
-404,511	-200,000	-0,013	-0,077
-403,496	-74,771	-0,129	-0,034
-402,482	-200,000	-0,017	-0,058
-401,467	95,179	0,034	-0,029
-400,452	-123,460	0,077	0,009
-399,438	250,088	0,123	0,154
-398,423	-35,614	-0,144	-0,057
-397,409	52,415	-0,139	0,097
-396,394	-157,861	0,079	-0,003
-395,379	-200,000	-0,037	0,147
-394,365	-2,523	0,155	0,079
-393,350	-200,000	0,018	0,096
-392,336	-200,000	-0,002	0,110
-391,321	-200,000	-0,011	-0,114
-390,306	132,460	0,095	-0,090
-389,292	-200,000	-0,025	-0,091
-388,277	-63,040	0,070	-0,021
-387,263	25,813	0,039	0,024
-386,248	-109,364	0,143	0,022
-385,233	-180,713	0,076	-0,001
-384,219	-200,000	-0,016	-0,061
-383,204	161,927	-0,039	-0,040
-382,190	-200,000	0,006	0,107
-381,175	43,767	0,087	-0,058
-380,160	-96,369	0,097	-0,019
-379,146	155,463	0,080	0,081
-378,131	-200,000	0,006	-0,066
-377,117	96,386	0,036	-0,030
-376,102	-200,000	-0,040	-0,150
-375,088	-200,000	-0,026	-0,139
-374,073	-200,000	-0,004	-0,044
-373,058	207,508	0,073	-0,083
-372,044	154,542	-0,009	0,009
-371,029	202,374	0,119	0,135
-370,015	159,377	0,011	-0,011
-369,000	284,321	0,046	0,061
-367,985	275,206	-0,081	0,106
-366,971	-31,335	-0,103	0,043
-365,956	-200,000	0,004	0,133
-364,942	-153,491	0,097	0,005
-363,927	800,000	-0,025	0,073
-362,912	51,263	-0,081	-0,056
-361,898	800,000	0,009	0,028
-360,883	195,331	-0,041	0,046
-359,869	-200,000	0,009	-0,088
-358,854	109,032	0,068	-0,059
-357,839	-200,000	0,001	-0,118
-356,825	22,197	-0,105	0,063
-355,810	-75,854	0,113	-0,029
-354,796	800,000	-0,069	-0,165
-353,781	-200,000	-0,013	-0,128
-352,766	800,000	-0,043	-0,117
-351,752	-41,752	0,044	-0,016
-350,737	-91,841	0,084	0,017
-349,723	40,883	0,042	-0,028
-348,708	223,434	0,099	0,117
-347,693	721,930	0,036	0,071
-346,679	-138,039	0,122	-0,010
-345,664	333,514	-0,082	0,116
-344,650	-23,969	0,111	-0,049
-343,635	48,831	0,047	0,032
-342,620	42,758	-0,065	0,043
-341,606	469,298	-0,017	0,028
-340,591	800,000	0,082	0,229
-339,577	351,379	-0,034	-0,050
-338,562	-94,853	-0,105	-0,021
-337,548	800,000	0,006	-0,014
-336,533	457,383	0,072	0,117
-335,518	800,000	0,040	0,114
-334,504	-109,860	0,123	0,019
-333,489	-25,894	0,044	0,019
-332,475	-104,289	-0,130	0,022
-331,460	800,000	-0,064	0,131
-330,445	-160,732	-0,073	0,003
-329,431	-151,145	-0,051	0,003
-328,416	-200,000	-0,042	0,168
-327,402	800,000	-0,019	-0,040
-326,387	-101,102	0,008	0,001
-325,372	55,751	-0,126	-0,089
-324,358	-42,982	0,043	0,016
-323,343	152,002	-0,074	0,073
-322,329	-50,207	-0,030	0,010
-321,314	-66,929	0,113	0,032
-320,299	-119,636	0,128	0,016
-319,285	800,000	-0,041	0,090
-318,270	54,858	-0,070	0,050
-317,256	-200,000	0,004	0,031
-316,241	-33,297	0,061	-0,025
-315,226	-162,711	-0,064	0,002
-314,212	47,278	0,083	0,057
-313,197	4,291	-0,005	0,003
-312,183	800,000	-0,043	0,105
-311,168	-86,727	-0,056	0,012
-310,153	800,000	0,030	-0,078
-309,139	-200,000	-0,029	-0,116
-308,124	-131,014	-0,034	0,003
-307,110	128,038	0,040	0,037
-306,095	290,653	0,120	0,160
-305,080	116,213	-0,021	-0,018
-304,066	-200,000	0,000	0,006
-303,051	-177,373	0,057	-0,001
-302,037	800,000	0,064	-0,144
-301,022	-200,000	-0,006	0,096
-300,008	-200,000	-0,029	0,096
-298,993	-5,260	0,062	0,031
-297,978	-88,016	0,068	-0,015
-296,964	-200,000	0,003	-0,022
-295,949	15,102	-0,051	-0,029
-294,935	97,117	0,030	0,025
-293,920	-147,211	-0,032	-0,002
-292,905	-78,092	-0,018	0,005
-291,891	-32,534	0,102	0,042
-290,876	800,000	-0,033	-0,076
-289,862	245,774	-0,078	-0,096
-288,847	-200,000	0,002	-0,202
-287,832	23,812	0,094	0,057
-286,818	-65,953	0,064	-0,018
-285,803	-36,544	-0,041	-0,016
-284,789	90,472	0,119	0,097
-283,774	102,100	-0,042	0,036
-282,759	24,205	-0,071	-0,043
-281,745	90,167	0,036	0,029
-280,730	-147,148	-0,021	0,001
-279,716	-169,172	-0,040	0,001
-278,701	-120,878	0,032	-0,004
-277,686	-69,026	-0,124	0,035
-276,672	800,000	0,020	0,053
-275,657	184,218	0,101	0,110
-274,643	-16,615	0,162	-0,075
-273,628	-200,000	-0,008	-0,064
-272,613	118,098	-0,023	0,021
-271,599	263,640	0,063	0,080
-270,584	423,410	0,015	-0,024
-269,570	-7,622	-0,030	0,015
-268,555	800,000	-0,012	0,029
-267,540	-200,000	-0,003	-0,032
-266,526	-29,407	-0,046	0,019
-265,511	598,739	0,030	-0,054
-264,497	-105,948	0,135	0,022
-263,482	-99,717	0,140	0,025
-262,467	366,369	0,024	0,035
-261,453	-166,083	-0,070	0,002
-260,438	-25,164	-0,140	-0,060
-259,424	-200,000	0,007	-0,190
-258,409	-90,831	0,016	-0,003
-257,395	-135,641	0,064	0,005
-256,380	-11,601	0,051	0,024
-255,365	684,138	0,014	0,026
-254,351	-69,778	-0,052	-0,014
-253,336	-200,000	0,017	-0,085
-252,322	146,278	-0,055	-0,054
-251,307	800,000	0,025	-0,064
-250,292	42,699	0,095	-0,063
-249,278	-185,878	0,079	0,001
-248,263	800,000	0,070	0,168
-247,249	101,121	0,085	0,072
-246,234	-104,038	-0,135	0,023
-245,219	601,110	0,038	-0,069
-244,205	-161,900	-0,086	0,003
-243,190	-84,864	0,052	-0,012
-242,176	54,591	0,072	0,050
-241,161	495,823	0,033	-0,056
-240,146	-81,410	0,085	0,020
-239,132	-39,478	-0,097	0,037
-238,117	-123,876	-0,089	0,010
-237,103	-84,985	-0,040	-0,009
-236,088	-200,000	0,028	0,154
-235,073	800,000	0,017	-0,036
-234,059	-200,000	0,031	-0,126
-233,044	-73,008	0,063	0,017
-232,030	800,000	-0,033	-0,071
-231,015	-200,000	-0,020	0,084
-230,000	316,106	0,007	-0,009
-228,986	-200,000	0,007	-0,049
-227,971	-200,000	-0,023	0,171
-226,957	800,000	0,024	0,053
-225,942	-174,438	-0,114	0,002
-224,927	-200,000	-0,007	-0,096
-223,913	-200,000	-0,011	-0,101
-222,898	121,159	-0,091	0,082
-221,884	-83,653	0,187	0,043
-220,869	-100,736	0,022	0,004
-219,855	-66,497	0,126	0,036
-218,840	202,004	0,030	0,034
-217,825	547,363	0,046	0,081
-216,811	800,000	0,051	0,113
-215,796	-200,000	-0,008	0,078
-214,782	148,694	0,036	0,035
-213,767	-200,000	0,017	0,116
-212,752	-200,000	-0,012	0,076
-211,738	-115,368	-0,021	-0,003
-210,723	228,090	0,017	-0,020
-209,709	800,000	-0,034	-0,076
-208,694	-200,000	-0,009	-0,119
-207,679	167,813	-0,058	-0,060
-206,665	7,054	-0,036	0,019
-205,650	-131,018	0,124	0,012
-204,636	542,015	-0,038	0,066
-203,621	-15,506	-0,002	0,001
-202,606	-19,051	-0,024	-0,011
-201,592	-70,420	-0,073	0,020
-200,577	800,000	-0,018	0,037
-199,563	-200,000	0,000	-0,043
-198,548	211,490	-0,074	-0,085
-197,533	177,974	0,036	0,039
-196,519	-36,703	-0,039	0,015
-195,504	78,972	0,023	0,018
-194,490	-200,000	0,006	0,081
-193,475	399,958	-0,022	0,034
-192,460	-200,000	0,002	0,046
-191,446	-200,000	0,024	-0,106
-190,431	64,804	0,096	-0,070
-189,417	-200,000	-0,016	-0,094
-188,402	-26,432	-0,048	0,020
-187,387	346,448	-0,021	-0,030
-186,373	800,000	-0,040	-0,098
-185,358	-71,159	0,038	0,010
-184,344	324,313	0,073	0,102
-183,329	161,802	-0,035	0,036
-182,315	-8,979	0,042	0,020
-181,300	40,845	-0,058	-0,038
-180,285	-130,174	0,074	0,007
-179,271	-86,064	-0,114	-0,026
-178,256	-76,259	0,088	0,022
-177,242	800,000	-0,047	0,146
-176,227	-3,742	-0,062	0,031
-175,212	800,000	-0,026	0,079
-174,198	-200,000	0,023	0,164
-173,183	292,266	-0,093	-0,124
-172,169	800,000	0,041	-0,091
-171,154	-200,000	0,018	-0,159
-170,139	-36,229	0,082	-0,032
-169,125	59,537	0,093	0,067
-168,110	-148,684	0,053	0,003
-167,096	297,129	-0,106	0,142
-166,081	-48,233	-0,125	0,044
-165,066	-54,700	-0,110	-0,036
-164,052	130,936	0,079	-0,074
-163,037	706,818	0,036	0,070
-162,023	-200,000	-0,008	0,189
-161,008	20,151	-0,114	0,067
-159,993	132,817	0,091	-0,086
-158,979	-200,000	0,008	-0,092
-157,964	-108,999	-0,055	-0,008
-156,950	104,300	-0,097	-0,083
-155,935	325,461	-0,052	-0,073
-154,920	800,000	-0,036	0,112
-153,906	504,277	0,040	0,068
-152,891	-200,000	0,011	-0,151
-151,877	-200,000	-0,007	-0,161
-150,862	153,112	-0,072	-0,072
-149,847	34,790	0,037	-0,024
-148,833	-155,556	0,051	0,002
-147,818	-200,000	0,038	-0,127
-146,804	129,648	-0,087	0,081
-145,789	716,804	0,062	0,121
-144,775	-51,601	-0,121	-0,041
-143,760	-200,000	0,003	-0,125
-142,745	800,000	0,026	0,084
-141,731	41,922	0,026	-0,017
-140,716	181,651	0,045	0,048
-139,702	-200,000	-0,003	0,108
-138,687	576,974	0,045	0,080
-137,672	-15,465	0,078	-0,036
-136,658	-62,280	-0,054	-0,016
-135,643	-200,000	-0,020	-0,084
-134,629	-200,000	-0,021	-0,072
-133,614	-200,000	0,085	0,000
-132,599	-200,000	-0,004	-0,075
-131,585	-69,555	0,121	0,033
-130,570	33,208	-0,222	-0,140
-129,556	-200,000	0,008	0,130
-128,541	800,000	0,111	-0,254
-127,526	498,901	-0,072	-0,121
-126,512	-89,150	0,024	-0,005
-125,497	-10,673	0,054	0,026
-124,483	88,972	0,118	0,095
-123,468	-47,266	-0,218	0,077
-122,453	85,400	0,031	-0,025
-121,439	800,000	-0,036	-0,076
-120,424	-141,731	-0,139	0,010
-119,410	429,824	-0,048	-0,075
-118,395	689,639	-0,025	-0,048
