DTS Sentinel unit serial number:	SN410029Multiplexer serial number:	ORYXHardware model number:	OX2-SRSoftware version number:	ORYX F/W v4,00 Oryx Data Collector v3.7.2.0data status	okinstallation	B6 Nyhavnadifferential loss correction	single-endedforward channel	channel 2reverse channel	N/Adate	2023/12/10time	14:35:08forward acquisition time	300,00reverse acquisition time	0,00gamma	499,1914k internal	0,3122k external	0,3122temperature offset calibration	1,0000default loss term (dB/km)	0,3820temperature slope calibration	1,0000multiplexer offset coefficient	1,0000multiplexer slope coefficient	1,0000fibre end	0,00T internal ref (°C)	22,61T ext. ref 1 (°C)	6,07T ext. ref 2 (°C)	6,08length (m)	temperature (°C)	Stokes	anti-Stokes-744,400	21,779	0,090	-0,054
-743,385	-67,323	-0,237	0,069
-742,371	570,456	0,058	-0,106
-741,356	37,009	-0,211	0,139
-740,342	80,503	0,118	-0,095
-739,327	-26,411	-0,200	0,087
-738,312	-200,000	0,007	-0,092
-737,298	-151,660	-0,344	0,019
-736,283	800,000	-0,039	-0,094
-735,269	76,291	-0,168	0,132
-734,254	-129,482	0,043	-0,004
-733,239	-34,155	-0,319	-0,130
-732,225	-200,000	0,000	0,031
-731,210	-135,752	0,064	-0,006
-730,196	-200,000	-0,015	-0,084
-729,181	-52,944	0,111	-0,038
-728,167	43,139	0,047	0,032
-727,152	-200,000	-0,008	-0,154
-726,137	-146,591	-0,067	0,004
-725,123	59,687	-0,107	0,079
-724,108	-200,000	0,006	-0,047
-723,094	-98,216	-0,021	-0,004
-722,079	800,000	-0,045	-0,115
-721,064	-58,099	-0,099	0,032
-720,050	-200,000	-0,003	-0,142
-719,035	374,316	-0,052	0,080
-718,021	-64,652	-0,116	0,035
-717,006	161,316	0,102	-0,107
-715,991	275,178	-0,043	-0,057
-714,977	93,959	-0,148	-0,125
-713,962	-45,147	-0,197	-0,072
-712,948	101,171	0,015	0,013
-711,933	-200,000	0,013	0,092
-710,918	84,789	-0,065	-0,053
-709,904	65,108	-0,072	-0,054
-708,889	-81,108	-0,080	-0,020
-707,875	-200,000	-0,016	-0,166
-706,860	137,056	-0,118	-0,115
-705,845	-200,000	0,019	0,081
-704,831	-4,068	-0,086	-0,044
-703,816	420,340	0,039	-0,063
-702,802	800,000	-0,026	0,080
-701,787	331,751	-0,013	-0,019
-700,772	-143,771	0,062	-0,004
-699,758	-70,694	-0,082	-0,023
-698,743	580,249	0,066	0,120
-697,729	-200,000	-0,006	0,067
-696,714	95,332	-0,122	-0,104
-695,699	-48,838	0,143	-0,051
-694,685	6,828	-0,110	-0,061
-693,670	733,885	-0,025	-0,049
-692,656	-190,966	0,081	-0,001
-691,641	-80,431	0,125	0,031
-690,627	188,463	0,054	-0,060
-689,612	-12,482	0,104	0,050
-688,597	60,622	-0,104	-0,077
-687,583	139,075	0,044	-0,043
-686,568	216,395	-0,047	-0,056
-685,554	-107,365	0,048	0,008
-684,539	84,691	0,047	0,038
-683,524	-200,000	-0,050	0,213
-682,510	800,000	0,029	-0,071
-681,495	800,000	-0,032	-0,099
-680,481	-27,766	-0,087	-0,037
-679,466	273,320	-0,061	-0,080
-678,451	665,997	0,024	0,046
-677,437	-200,000	0,027	0,105
-676,422	199,645	0,053	0,061
-675,408	-81,261	-0,081	0,020
-674,393	589,252	0,009	-0,016
-673,378	33,624	-0,030	0,020
-672,364	170,614	-0,081	0,087
-671,349	197,205	-0,120	-0,137
-670,335	329,908	-0,035	-0,050
-669,320	121,455	0,057	-0,053
-668,305	-134,371	0,038	-0,003
-667,291	4,608	-0,104	-0,056
-666,276	-15,202	-0,127	0,060
-665,262	116,253	-0,050	-0,046
-664,247	63,384	0,073	-0,055
-663,232	-200,000	-0,019	0,108
-662,218	175,195	0,032	0,034
-661,203	-200,000	0,020	0,129
-660,189	-200,000	0,002	0,053
-659,174	-200,000	-0,002	-0,025
-658,159	-200,000	0,007	-0,085
-657,145	-55,397	0,158	0,052
-656,130	800,000	-0,006	-0,013
-655,116	775,591	0,049	-0,099
-654,101	-87,271	0,093	-0,021
-653,086	289,285	0,021	0,028
-652,072	-200,000	0,009	-0,177
-651,057	740,119	-0,082	-0,164
-650,043	38,841	0,041	0,027
-649,028	2,955	0,067	-0,036
-648,014	128,885	0,075	0,071
-646,999	255,056	0,051	0,064
-645,984	33,227	-0,032	0,021
-644,970	334,913	-0,043	-0,062
-643,955	-185,143	-0,007	0,000
-642,941	-200,000	-0,173	-0,000
-641,926	-101,001	0,082	-0,015
-640,911	-33,908	-0,080	-0,032
-639,897	-108,616	0,055	-0,009
-638,882	-73,569	0,121	-0,033
-637,868	158,099	0,063	0,065
-636,853	237,286	-0,104	-0,129
-635,838	90,809	-0,080	-0,067
-634,824	-94,829	0,037	0,007
-633,809	-200,000	-0,012	-0,042
-632,795	-69,457	0,049	0,014
-631,780	-200,000	-0,007	-0,036
-630,765	-127,407	-0,112	0,012
-629,751	164,907	-0,153	-0,160
-628,736	158,537	-0,029	-0,030
-627,722	256,989	-0,030	-0,038
-626,707	800,000	-0,030	-0,089
-625,692	69,598	-0,033	-0,025
-624,678	647,003	0,056	0,107
-623,663	93,477	-0,036	0,030
-622,649	-71,397	0,111	0,031
-621,634	800,000	-0,011	0,026
-620,619	800,000	-0,017	0,055
-619,605	98,936	-0,071	-0,061
-618,590	-200,000	-0,013	0,068
-617,576	126,442	-0,122	0,114
-616,561	-129,865	0,075	-0,007
-615,546	85,371	0,066	0,053
-614,532	-57,472	-0,048	-0,016
-613,517	14,024	-0,087	-0,050
-612,503	268,584	-0,018	-0,023
-611,488	86,457	0,120	-0,098
-610,474	-200,000	0,015	0,094
-609,459	401,614	0,043	0,067
-608,444	-12,230	-0,043	-0,021
-607,430	172,715	0,048	0,052
-606,415	15,279	-0,098	0,057
-605,401	800,000	0,042	0,121
-604,386	73,803	0,054	0,042
-603,371	3,568	0,098	0,053
-602,357	-70,874	-0,114	-0,032
-601,342	92,456	0,065	-0,054
-600,328	88,598	-0,081	0,067
-599,313	-128,658	-0,083	-0,009
-598,298	-14,910	0,089	-0,042
-597,284	800,000	0,057	0,147
-596,269	-51,931	-0,038	0,013
-595,255	-88,365	-0,126	-0,028
-594,240	-74,029	-0,120	-0,032
-593,225	230,503	-0,054	-0,065
-592,211	152,704	-0,090	-0,092
-591,196	800,000	-0,038	0,117
-590,182	34,999	-0,076	0,049
-589,167	18,810	0,165	0,098
-588,152	-51,608	0,123	0,042
-587,138	-200,000	-0,012	0,103
-586,123	-33,194	0,022	-0,009
-585,109	-142,354	0,023	0,002
-584,094	358,814	-0,046	0,069
-583,079	-200,000	0,001	-0,107
-582,065	445,315	-0,018	0,030
-581,050	13,765	0,103	0,059
-580,036	-115,553	-0,004	-0,001
-579,021	17,319	0,116	-0,068
-578,006	800,000	0,033	-0,083
-576,992	-42,719	-0,038	0,014
-575,977	-200,000	0,010	-0,069
-574,963	-200,000	-0,001	0,039
-573,948	-200,000	0,005	-0,051
-572,934	-200,000	0,014	0,090
-571,919	-200,000	-0,011	-0,146
-570,904	-111,077	-0,007	-0,001
-569,890	-48,878	-0,162	-0,057
-568,875	-158,877	0,027	0,001
-567,861	177,588	0,038	-0,041
-566,846	-200,000	0,014	-0,090
-565,831	376,949	0,062	-0,094
-564,817	-33,662	-0,111	0,045
-563,802	-200,000	0,022	-0,193
-562,788	-200,000	-0,012	-0,087
-561,773	463,133	0,016	0,027
-560,758	-27,144	0,052	0,022
-559,744	43,136	-0,110	0,074
-558,729	103,909	0,046	0,040
-557,715	-86,312	-0,104	-0,023
-556,700	90,016	0,012	0,010
-555,685	-200,000	0,030	-0,103
-554,671	-99,048	-0,114	-0,021
-553,656	800,000	-0,018	-0,042
-552,642	-200,000	-0,017	0,116
-551,627	-200,000	-0,014	-0,047
-550,612	3,631	0,103	-0,055
-549,598	103,725	-0,047	-0,041
-548,583	-200,000	0,000	-0,145
-547,569	73,815	0,047	0,036
-546,554	70,544	-0,095	-0,073
-545,539	555,360	0,019	-0,034
-544,525	-40,138	0,021	-0,008
-543,510	702,515	-0,033	-0,064
-542,496	-140,601	-0,097	-0,007
-541,481	-60,007	-0,115	-0,036
-540,466	212,564	0,033	0,038
-539,452	123,936	-0,056	-0,052
-538,437	449,943	0,084	-0,138
-537,423	-20,329	0,081	0,037
-536,408	800,000	-0,023	0,070
-535,393	789,266	0,027	-0,055
-534,379	505,211	-0,043	-0,074
-533,364	-200,000	0,009	-0,035
-532,350	-200,000	0,017	0,091
-531,335	249,193	-0,045	0,057
-530,321	202,982	-0,144	0,165
-529,306	168,295	-0,112	0,118
-528,291	268,373	-0,074	0,097
-527,277	-75,170	0,027	0,007
-526,262	-200,000	-0,012	0,102
-525,248	35,498	0,069	0,045
-524,233	260,713	-0,041	-0,053
-523,218	-84,544	0,098	0,023
-522,204	604,646	-0,031	-0,057
-521,189	-32,789	-0,126	-0,052
-520,175	-195,772	-0,120	-0,001
-519,160	294,483	0,053	-0,072
-518,145	-33,809	-0,097	0,039
-517,131	-200,000	0,005	0,065
-516,116	-200,000	-0,008	-0,068
-515,102	800,000	-0,051	0,105
-514,087	-97,038	0,060	-0,011
-513,072	-200,000	0,002	-0,156
-512,058	328,238	-0,031	-0,044
-511,043	591,950	-0,018	0,033
-510,029	800,000	-0,015	0,032
-509,014	321,338	0,071	0,100
-507,999	168,335	0,025	-0,026
-506,985	800,000	0,018	-0,046
-505,970	134,749	-0,130	-0,125
-504,956	-200,000	-0,028	-0,103
-503,941	-72,406	0,179	-0,049
-502,926	-92,435	0,065	-0,013
-501,912	19,917	0,087	0,052
-500,897	-52,399	-0,060	0,020
-499,883	-60,811	-0,116	0,036
-498,868	267,821	0,096	-0,125
-497,853	800,000	-0,046	-0,117
-496,839	525,350	0,053	-0,093
-495,824	-55,467	0,114	-0,038
-494,810	413,335	0,047	0,074
-493,795	-130,795	-0,126	-0,012
-492,781	300,567	-0,064	-0,088
-491,766	-200,000	-0,084	0,000
-490,751	159,638	-0,063	0,064
-489,737	-200,000	0,018	0,060
-488,722	-200,000	0,001	0,094
-487,708	-67,967	0,183	-0,052
-486,693	800,000	0,055	0,129
-485,678	587,515	-0,036	0,065
-484,664	9,704	0,032	0,018
-483,649	51,238	-0,151	-0,106
-482,635	304,231	0,050	-0,069
-481,620	-167,357	0,034	0,001
-480,605	36,507	0,057	0,037
-479,591	-55,998	0,084	0,027
-478,576	81,750	-0,090	-0,072
-477,562	-200,000	0,006	-0,064
-476,547	179,221	-0,094	-0,102
-475,532	237,150	-0,052	-0,064
-474,518	-54,590	0,054	0,018
-473,503	115,639	0,136	0,123
-472,489	-123,510	0,097	0,011
-471,474	-44,468	-0,159	-0,058
-470,459	-45,317	-0,037	-0,014
-469,445	213,010	0,099	0,116
-468,430	800,000	-0,093	-0,222
-467,416	71,471	0,135	-0,103
-466,401	224,105	-0,036	0,043
-465,386	-200,000	0,004	0,113
-464,372	-200,000	0,016	0,072
-463,357	60,355	-0,110	-0,080
-462,343	-200,000	-0,008	0,034
-461,328	753,780	-0,022	-0,043
-460,313	-200,000	0,002	-0,108
-459,299	665,485	0,078	0,149
-458,284	1,176	-0,098	0,052
-457,270	-102,400	-0,046	0,008
-456,255	118,751	-0,128	-0,117
-455,241	9,097	0,034	-0,019
-454,226	-200,000	0,006	-0,076
-453,211	-28,561	0,050	-0,021
-452,197	-200,000	0,003	0,088
-451,182	386,384	0,043	0,065
-450,168	-111,498	-0,099	-0,015
-449,153	800,000	-0,049	0,108
-448,138	54,196	0,048	-0,034
-447,124	-81,040	0,096	0,023
-446,109	-97,395	0,091	0,017
-445,095	112,074	0,085	-0,075
-444,080	800,000	0,026	0,070
-443,065	670,238	0,024	-0,045
-442,051	800,000	-0,052	0,110
-441,036	-86,936	-0,055	-0,012
-440,022	-200,000	0,026	-0,121
-439,007	-133,498	0,117	-0,011
-437,992	-74,056	0,081	0,022
-436,978	587,091	-0,015	-0,027
-435,963	231,537	0,079	0,096
-434,949	378,909	-0,104	0,158
-433,934	-49,389	0,056	-0,020
-432,919	78,896	-0,049	-0,039
-431,905	437,735	0,035	0,057
-430,890	-146,325	-0,169	0,011
-429,876	-200,000	-0,009	0,111
-428,861	-200,000	-0,023	0,152
-427,846	-55,772	-0,199	-0,065
-426,832	-97,273	-0,105	0,020
-425,817	-200,000	-0,025	-0,127
-424,803	-62,963	0,074	-0,022
-423,788	-173,869	0,129	-0,003
-422,773	800,000	0,022	0,064
-421,759	800,000	-0,068	0,150
-420,744	-102,091	0,096	-0,017
-419,730	-2,775	-0,038	0,020
-418,715	-200,000	-0,040	-0,174
-417,701	341,846	-0,088	-0,128
-416,686	-42,603	0,097	0,036
-415,671	-43,744	0,033	0,012
-414,657	-200,000	0,009	0,127
-413,642	-200,000	0,010	0,089
-412,628	-200,000	0,021	0,115
-411,613	-7,641	-0,055	-0,027
-410,598	306,038	0,097	-0,134
-409,584	247,569	0,057	0,071
-408,569	-91,176	-0,028	0,006
-407,555	-200,000	-0,034	0,144
-406,540	-15,769	0,079	-0,037
-405,525	76,804	0,153	0,119
-404,511	-146,343	0,062	0,004
-403,496	29,322	-0,043	-0,027
-402,482	171,833	0,067	-0,071
-401,467	-30,878	-0,040	-0,017
-400,452	226,013	0,100	0,120
-399,438	-200,000	0,011	0,104
-398,423	77,047	-0,125	0,098
-397,409	-116,034	0,093	0,013
-396,394	126,168	-0,070	-0,065
-395,379	-147,238	0,085	0,005
-394,365	317,124	0,101	-0,141
-393,350	414,263	0,118	0,185
-392,336	720,574	-0,035	-0,070
-391,321	9,392	0,084	0,047
-390,306	-81,764	-0,108	0,026
-389,292	800,000	0,022	0,062
-388,277	159,848	-0,078	-0,080
-387,263	-169,170	0,127	-0,003
-386,248	-200,000	0,021	0,083
-385,233	217,536	-0,021	-0,024
-384,219	-25,438	-0,112	-0,048
-383,204	-9,527	0,047	0,023
-382,190	-115,888	-0,169	0,023
-381,175	624,798	-0,025	-0,047
-380,160	158,637	0,054	0,056
-379,146	-200,000	0,011	-0,125
-378,131	246,033	-0,085	0,106
-377,117	282,248	0,113	0,149
-376,102	527,980	-0,066	-0,115
-375,088	-125,110	-0,059	-0,007
-374,073	-200,000	-0,012	-0,134
-373,058	232,635	-0,048	-0,058
-372,044	110,523	0,058	0,052
-371,029	-89,819	-0,035	0,007
-370,015	386,986	0,033	-0,050
-369,000	-200,000	-0,012	-0,039
-367,985	88,239	0,088	-0,072
-366,971	-44,014	-0,030	0,011
-365,956	-9,017	0,066	-0,032
-364,942	-32,109	0,108	-0,044
-363,927	-200,000	0,007	0,113
-362,912	800,000	0,024	0,065
-361,898	329,248	-0,056	0,080
-360,883	-200,000	-0,004	-0,047
-359,869	-113,393	0,018	0,003
-358,854	-200,000	0,020	0,086
-357,839	800,000	-0,034	0,072
-356,825	-200,000	0,012	-0,055
-355,810	-119,877	0,088	-0,011
-354,796	-142,653	0,075	-0,005
-353,781	-88,138	-0,132	-0,029
-352,766	133,558	-0,016	0,015
-351,752	-106,316	0,067	0,011
-350,737	212,256	-0,070	0,081
-349,723	-109,727	0,083	0,013
-348,708	96,531	0,012	0,010
-347,693	-178,713	-0,051	-0,001
-346,679	445,515	-0,054	0,087
-345,664	598,257	-0,043	0,078
-344,650	127,207	-0,094	-0,088
-343,635	800,000	0,053	0,117
-342,620	-69,931	-0,108	0,030
-341,606	11,496	-0,081	0,046
-340,591	-200,000	0,002	0,068
-339,577	-79,849	-0,104	0,026
-338,562	79,600	-0,061	-0,048
-337,548	-165,990	-0,090	-0,003
-336,533	190,571	0,110	0,122
-335,518	-148,257	0,041	-0,002
-334,504	-200,000	-0,019	0,065
-333,489	62,020	0,087	-0,064
-332,475	23,884	-0,112	0,068
-331,460	129,772	0,082	-0,077
-330,445	-60,416	-0,033	0,010
-329,431	-200,000	-0,014	-0,048
-328,416	-130,560	0,168	-0,016
-327,402	-200,000	-0,019	0,095
-326,387	-4,018	0,033	0,017
-325,372	386,976	-0,010	0,015
-324,358	800,000	-0,007	0,016
-323,343	-63,524	-0,078	-0,023
-322,329	166,820	0,069	0,072
-321,314	800,000	0,029	0,069
-320,299	800,000	-0,067	0,192
-319,285	-65,198	0,078	-0,023
-318,270	-146,349	-0,079	-0,005
-317,256	-200,000	-0,027	-0,135
-316,241	-0,168	-0,101	-0,053
-315,226	-186,084	0,127	0,001
-314,212	-200,000	-0,023	-0,142
-313,197	-4,820	0,042	-0,021
-312,183	349,641	-0,055	0,080
-311,168	-25,247	-0,138	-0,060
-310,153	276,628	-0,060	0,078
-309,139	-94,088	0,026	-0,005
-308,124	-200,000	0,007	-0,141
-307,110	594,936	0,059	-0,107
-306,095	-51,045	0,088	-0,030
-305,080	-18,136	0,174	0,080
-304,066	-86,464	-0,102	0,023
-303,051	29,477	-0,132	-0,082
-302,037	-200,000	0,017	-0,113
-301,022	330,546	0,012	0,017
-300,008	57,159	0,018	-0,013
-298,993	120,834	-0,060	-0,054
-297,978	-30,152	-0,068	0,028
-296,964	24,744	0,039	0,024
-295,949	159,935	0,098	0,100
-294,935	-33,000	-0,121	-0,049
-293,920	-118,607	0,219	-0,028
-292,905	118,121	0,118	0,107
-291,891	74,335	0,040	0,031
-290,876	800,000	0,023	0,050
-289,862	44,113	-0,146	-0,098
-288,847	-200,000	0,001	-0,034
-287,832	36,130	-0,059	0,038
-286,818	-67,037	0,178	0,051
-285,803	-118,063	0,157	0,020
-284,789	45,741	-0,081	0,055
-283,774	56,500	0,054	-0,038
-282,759	-107,838	-0,022	0,003
-281,745	800,000	0,056	-0,122
-280,730	-200,000	0,014	-0,150
-279,716	51,272	-0,019	-0,013
-278,701	-85,143	0,133	0,030
-277,686	-200,000	-0,010	0,063
-276,672	17,951	0,009	-0,005
-275,657	-100,546	-0,047	0,008
-274,643	-127,399	-0,106	-0,011
-273,628	800,000	0,033	0,075
-272,613	-65,005	0,052	-0,015
-271,599	-160,788	0,044	0,002
-270,584	21,386	-0,077	-0,046
-269,570	81,511	0,050	0,040
-268,555	-36,929	0,060	-0,024
-267,540	254,579	-0,057	-0,072
-266,526	-45,753	-0,111	-0,040
-265,511	-200,000	0,012	-0,122
-264,497	471,403	0,018	-0,030
-263,482	70,876	0,134	0,101
-262,467	17,528	-0,049	0,029
-261,453	189,143	0,092	0,100
-260,438	-117,445	-0,020	0,003
-259,424	-200,000	0,037	-0,129
-258,409	-90,475	-0,098	0,021
-257,395	-200,000	-0,002	0,036
-256,380	46,736	0,007	-0,005
-255,365	656,992	0,076	0,144
-254,351	800,000	-0,015	0,034
-253,336	-125,302	0,087	0,010
-252,322	-97,420	-0,047	-0,009
-251,307	175,085	-0,023	0,024
-250,292	-172,335	0,188	-0,004
-249,278	-200,000	0,013	0,044
-248,263	261,419	0,065	0,082
-247,249	-12,752	-0,105	0,050
-246,234	40,682	-0,060	0,039
-245,219	298,702	0,030	-0,041
-244,205	-86,807	0,044	0,010
-243,190	426,443	0,032	-0,051
-242,176	800,000	-0,050	0,102
-241,161	800,000	-0,012	-0,038
-240,146	-23,483	-0,092	-0,040
-239,132	-12,841	-0,043	-0,020
-238,117	800,000	0,013	-0,030
-237,103	-200,000	-0,004	-0,123
-236,088	-32,758	0,152	0,062
-235,073	226,518	0,066	0,078
-234,059	-37,369	0,049	-0,019
-233,044	716,436	0,022	0,043
-232,030	-200,000	-0,002	-0,087
-231,015	-200,000	-0,015	-0,206
-230,000	-53,817	-0,144	0,048
-228,986	192,621	-0,077	-0,085
-227,971	200,459	-0,058	-0,065
-226,957	274,444	0,085	0,110
-225,942	619,878	0,047	0,087
-224,927	108,012	-0,061	0,053
-223,913	112,148	0,071	-0,063
-222,898	-56,767	-0,124	-0,040
-221,884	120,009	-0,052	-0,047
-220,869	800,000	-0,036	-0,076
-219,855	5,680	-0,032	0,017
-218,840	139,010	0,029	-0,028
-217,825	-200,000	0,002	0,016
-216,811	-200,000	0,033	-0,119
-215,796	-200,000	-0,037	-0,195
-214,782	-200,000	-0,017	0,071
-213,767	796,251	-0,032	-0,065
-212,752	-200,000	-0,001	0,015
-211,738	-200,000	-0,004	-0,015
-210,723	361,133	-0,035	0,051
-209,709	-200,000	0,020	0,067
-208,694	76,611	-0,064	-0,050
-207,679	-200,000	-0,005	-0,066
-206,665	-200,000	0,006	0,052
-205,650	258,258	0,107	0,134
-204,636	374,878	0,012	0,018
-203,621	800,000	-0,005	0,012
-202,606	13,889	0,080	-0,045
-201,592	6,316	-0,067	-0,036
-200,577	-200,000	-0,000	0,107
-199,563	141,968	-0,096	0,093
-198,548	333,091	0,044	-0,062
-197,533	84,016	0,046	0,037
-196,519	-200,000	0,023	0,100
-195,504	63,624	0,051	-0,038
-194,490	455,986	-0,028	-0,046
-193,475	-200,000	-0,006	-0,089
-192,460	-136,377	0,052	0,004
-191,446	143,700	-0,069	0,067
-190,431	-37,629	0,137	0,053
-189,417	800,000	-0,026	0,061
-188,402	-200,000	0,028	-0,101
-187,387	-163,057	-0,033	-0,001
-186,373	-49,381	-0,059	0,020
-185,358	-101,668	-0,086	0,015
-184,344	30,765	0,133	-0,083
-183,329	-200,000	0,013	0,050
-182,315	-153,571	-0,041	0,002
-181,300	183,608	0,088	-0,095
-180,285	-200,000	-0,016	-0,162
-179,271	-125,950	0,041	-0,004
-178,256	800,000	-0,024	-0,074
-177,242	-118,140	0,056	0,007
-176,227	-200,000	-0,005	-0,039
-175,212	60,110	0,045	-0,033
-174,198	-200,000	-0,003	0,052
-173,183	-200,000	0,003	-0,073
-172,169	67,212	-0,110	-0,082
-171,154	94,288	-0,083	-0,068
-170,139	-200,000	0,005	0,066
-169,125	11,931	0,147	-0,082
-168,110	515,000	-0,068	-0,116
-167,096	-21,198	0,022	0,010
-166,081	800,000	0,043	0,120
-165,066	211,958	-0,076	0,087
-164,052	-8,345	0,096	-0,047
-163,037	-145,908	-0,074	-0,005
-162,023	-200,000	0,033	0,131
-161,008	405,846	0,042	0,065
-159,993	136,486	-0,110	0,104
-158,979	-200,000	0,003	-0,143
-157,964	669,830	0,051	-0,097
-156,950	132,844	-0,066	-0,062
-155,935	-200,000	-0,008	0,091
-154,920	-32,970	0,071	0,029
-153,906	-200,000	-0,030	0,181
-152,891	-52,638	0,175	0,058
-151,877	800,000	0,028	0,088
-150,862	800,000	0,028	-0,070
-149,847	800,000	0,045	-0,091
-148,833	-200,000	-0,009	-0,085
-147,818	-200,000	0,006	-0,123
-146,804	-200,000	0,033	0,122
-145,789	-85,620	0,079	-0,018
-144,775	-36,507	0,071	-0,028
-143,760	209,472	0,023	-0,026
-142,745	147,298	-0,079	-0,078
-141,731	406,186	0,075	-0,116
-140,716	102,179	-0,045	0,038
-139,702	-28,674	0,113	-0,047
-138,687	189,398	0,029	-0,032
-137,672	494,416	0,051	-0,086
-136,658	143,797	-0,104	-0,101
-135,643	-41,139	-0,037	-0,014
-134,629	224,726	0,121	0,142
-133,614	127,572	-0,104	0,096
-132,599	67,632	-0,033	0,024
-131,585	62,572	0,091	0,066
-130,570	-49,324	-0,080	0,028
-129,556	800,000	0,055	0,121
-128,541	243,458	-0,125	-0,153
-127,526	-200,000	0,000	-0,036
-126,512	-200,000	-0,020	-0,083
-125,497	181,975	0,042	0,045
-124,483	-76,449	-0,143	-0,036
-123,468	-200,000	0,005	-0,070
-122,453	17,025	0,074	-0,043
-121,439	-168,163	-0,044	-0,001
-120,424	-162,425	-0,065	0,002
-119,410	-200,000	0,008	0,062
