DTS Sentinel unit serial number:	SN410029Multiplexer serial number:	ORYXHardware model number:	OX2-SRSoftware version number:	ORYX F/W v4,00 Oryx Data Collector v3.7.2.0data status	okinstallation	B6 Nyhavnadifferential loss correction	single-endedforward channel	channel 2reverse channel	N/Adate	2023/12/08time	10:55:08forward acquisition time	300,00reverse acquisition time	0,00gamma	499,1914k internal	0,3162k external	0,3162temperature offset calibration	1,0000default loss term (dB/km)	0,3820temperature slope calibration	1,0000multiplexer offset coefficient	1,0000multiplexer slope coefficient	1,0000fibre end	0,00T internal ref (°C)	14,71T ext. ref 1 (°C)	-1,31T ext. ref 2 (°C)	-1,26length (m)	temperature (°C)	Stokes	anti-Stokes-744,400	800,000	0,058	0,177
-743,385	-72,048	-0,354	0,096
-742,371	-34,659	0,164	0,066
-741,356	-8,084	-0,286	-0,142
-740,342	118,512	0,128	0,117
-739,327	41,015	-0,245	0,163
-738,312	156,687	0,084	0,085
-737,298	-105,396	-0,355	0,059
-736,283	-124,442	0,119	-0,013
-735,269	-50,986	-0,209	0,072
-734,254	166,251	0,111	0,116
-733,239	-69,534	-0,513	-0,144
-732,225	-190,260	0,206	0,002
-731,210	-147,640	-0,099	-0,006
-730,196	-200,000	0,019	-0,127
-729,181	772,705	0,072	-0,145
-728,167	68,020	-0,023	-0,017
-727,152	-71,662	-0,100	-0,027
-726,137	-200,000	0,014	-0,055
-725,123	-83,948	-0,049	-0,011
-724,108	-117,337	-0,183	0,024
-723,094	-178,781	-0,037	-0,001
-722,079	75,658	-0,019	-0,015
-721,064	-82,163	0,037	0,009
-720,050	-178,574	0,111	0,002
-719,035	-43,196	0,133	-0,049
-718,021	800,000	-0,085	-0,202
-717,006	2,242	0,053	-0,028
-715,991	71,241	-0,161	-0,123
-714,977	800,000	-0,074	0,159
-713,962	-200,000	0,011	0,038
-712,948	-111,949	-0,064	-0,009
-711,933	-200,000	-0,002	-0,100
-710,918	-48,459	-0,029	-0,010
-709,904	503,756	0,060	-0,102
-708,889	121,105	-0,038	-0,035
-707,875	800,000	0,033	-0,074
-706,860	8,021	0,067	0,037
-705,845	-200,000	-0,004	0,023
-704,831	-168,905	0,150	0,004
-703,816	-102,599	0,029	-0,005
-702,802	-100,043	-0,261	0,047
-701,787	-200,000	-0,014	-0,116
-700,772	105,091	-0,046	0,040
-699,758	800,000	0,026	-0,061
-698,743	-14,585	0,068	0,032
-697,729	430,493	0,021	0,034
-696,714	-200,000	0,007	0,161
-695,699	-200,000	0,006	0,037
-694,685	-101,156	-0,006	0,001
-693,670	382,089	-0,099	0,150
-692,656	95,825	-0,036	0,030
-691,641	-200,000	0,014	-0,085
-690,627	800,000	0,039	0,109
-689,612	-200,000	-0,005	-0,052
-688,597	-63,994	0,041	-0,012
-687,583	283,626	-0,039	0,051
-686,568	-51,412	-0,120	-0,041
-685,554	-200,000	0,016	-0,107
-684,539	-200,000	-0,002	-0,025
-683,524	800,000	0,025	-0,061
-682,510	4,431	0,049	-0,026
-681,495	800,000	-0,014	-0,041
-680,481	-138,196	-0,142	0,011
-679,466	-120,403	-0,164	0,020
-678,451	-200,000	0,017	-0,141
-677,437	-200,000	-0,014	-0,073
-676,422	99,431	-0,073	0,062
-675,408	27,568	0,071	0,044
-674,393	281,298	-0,039	-0,051
-673,378	46,846	-0,090	-0,061
-672,364	-164,844	-0,082	-0,003
-671,349	-28,586	0,134	-0,057
-670,335	148,275	-0,039	-0,039
-669,320	91,380	0,027	0,022
-668,305	373,825	0,041	-0,062
-667,291	-200,000	-0,020	-0,117
-666,276	7,411	-0,048	-0,026
-665,262	8,120	0,116	-0,064
-664,247	-45,441	-0,116	-0,042
-663,232	752,069	0,009	-0,018
-662,218	-200,000	-0,004	0,049
-661,203	-106,019	-0,036	0,006
-660,189	47,421	0,034	0,023
-659,174	-59,449	0,051	0,016
-658,159	557,312	-0,065	-0,115
-657,145	20,492	-0,058	0,035
-656,130	-178,356	-0,100	0,002
-655,116	267,428	-0,011	-0,014
-654,101	459,992	0,030	-0,049
-653,086	-115,806	0,024	0,003
-652,072	128,694	0,045	0,042
-651,057	-200,000	-0,002	-0,100
-650,043	-35,693	-0,072	0,028
-649,028	-200,000	0,009	-0,033
-648,014	-200,000	0,024	0,113
-646,999	-1,485	0,109	0,056
-645,984	306,765	-0,029	-0,040
-644,970	-200,000	-0,026	-0,109
-643,955	-37,036	-0,111	-0,043
-642,941	-200,000	0,014	-0,086
-641,926	298,002	-0,065	-0,088
-640,911	269,501	-0,066	-0,085
-639,897	154,048	0,101	0,101
-638,882	800,000	-0,036	0,096
-637,868	800,000	0,065	-0,182
-636,853	104,386	0,003	0,003
-635,838	-200,000	-0,002	0,068
-634,824	-200,000	-0,007	-0,091
-633,809	60,676	0,127	0,092
-632,795	-171,880	0,097	-0,002
-631,780	-102,090	-0,094	-0,016
-630,765	-170,202	-0,204	-0,005
-629,751	-200,000	0,018	0,093
-628,736	190,377	-0,134	-0,148
-627,722	179,244	-0,050	0,053
-626,707	42,249	-0,100	0,067
-625,692	123,684	0,116	-0,106
-624,678	197,758	-0,040	0,045
-623,663	-173,138	0,032	-0,001
-622,649	110,101	-0,072	-0,064
-621,634	-105,841	-0,130	0,021
-620,619	102,446	-0,059	-0,051
-619,605	-200,000	-0,005	-0,019
-618,590	-147,364	0,175	-0,011
-617,576	-200,000	-0,020	-0,107
-616,561	602,542	0,097	-0,177
-615,546	279,726	0,061	-0,080
-614,532	-141,099	-0,051	-0,004
-613,517	800,000	0,051	-0,117
-612,503	-112,902	0,077	-0,011
-611,488	62,555	-0,037	-0,027
-610,474	505,530	0,056	0,095
-609,459	170,965	0,095	0,100
-608,444	233,665	0,038	-0,046
-607,430	331,039	-0,057	-0,080
-606,415	278,210	-0,054	-0,071
-605,401	9,489	0,091	0,050
-604,386	102,754	0,055	0,047
-603,371	691,522	0,039	0,075
-602,357	373,614	-0,066	0,098
-601,342	21,826	-0,094	-0,056
-600,328	689,541	0,054	-0,104
-599,313	-98,969	0,075	0,014
-598,298	-37,916	-0,036	0,014
-597,284	6,958	0,022	-0,012
-596,269	-200,000	0,018	-0,164
-595,255	-66,817	0,042	-0,012
-594,240	53,071	-0,131	-0,092
-593,225	800,000	0,040	0,118
-592,211	-172,330	-0,147	0,003
-591,196	-128,389	0,032	-0,003
-590,182	4,876	0,157	0,084
-589,167	302,776	-0,086	0,117
-588,152	-200,000	0,017	0,058
-587,138	-200,000	0,012	-0,122
-586,123	-200,000	-0,003	-0,126
-585,109	-115,625	-0,072	-0,010
-584,094	-96,143	0,024	0,005
-583,079	-97,513	0,077	-0,015
-582,065	-29,421	-0,085	0,036
-581,050	196,263	-0,019	0,022
-580,036	62,811	-0,070	-0,051
-579,021	140,298	-0,152	-0,146
-578,006	-172,534	-0,105	-0,002
-576,992	800,000	0,057	0,123
-575,977	301,971	0,128	-0,174
-574,963	-148,941	-0,058	0,003
-573,948	285,337	-0,035	-0,046
-572,934	115,997	-0,085	-0,076
-571,919	800,000	0,028	0,082
-570,904	800,000	-0,036	-0,096
-569,890	-128,311	-0,098	-0,010
-568,875	355,970	-0,036	-0,053
-567,861	-173,430	0,110	-0,002
-566,846	328,647	-0,042	-0,059
-565,831	-200,000	-0,006	-0,036
-564,817	34,761	-0,066	-0,042
-563,802	-83,045	0,053	0,012
-562,788	-200,000	0,007	-0,164
-561,773	51,665	-0,092	-0,064
-560,758	629,388	-0,053	0,098
-559,744	-42,564	-0,013	-0,005
-558,729	174,771	0,075	-0,080
-557,715	-52,815	-0,146	0,049
-556,700	-162,759	-0,038	0,001
-555,685	461,137	-0,033	-0,053
-554,671	455,944	0,069	0,113
-553,656	35,536	0,015	-0,009
-552,642	-200,000	-0,010	-0,036
-551,627	-200,000	-0,002	-0,076
-550,612	432,798	-0,052	0,082
-549,598	267,917	-0,064	-0,082
-548,583	800,000	-0,024	0,067
-547,569	198,142	0,018	-0,020
-546,554	79,100	0,062	0,048
-545,539	-200,000	0,011	0,140
-544,525	-97,355	-0,066	-0,012
-543,510	270,685	0,117	0,150
-542,496	800,000	0,035	0,096
-541,481	800,000	-0,036	0,075
-540,466	-200,000	-0,001	-0,020
-539,452	-164,600	0,170	0,006
-538,437	-149,950	0,076	-0,004
-537,423	150,530	0,064	0,064
-536,408	-86,369	-0,088	-0,019
-535,393	-53,533	0,099	0,033
-534,379	301,507	-0,043	-0,058
-533,364	33,543	-0,147	0,093
-532,350	153,161	-0,088	0,088
-531,335	-145,470	0,060	-0,004
-530,321	-19,872	0,076	0,034
-529,306	197,226	0,027	0,030
-528,291	800,000	-0,038	0,091
-527,277	99,304	0,056	-0,048
-526,262	-200,000	0,014	-0,084
-525,248	70,198	-0,060	0,045
-524,233	323,024	-0,025	-0,034
-523,218	-200,000	0,012	0,113
-522,204	-200,000	0,010	0,066
-521,189	800,000	-0,006	0,012
-520,175	-200,000	-0,028	-0,104
-519,160	800,000	-0,058	0,169
-518,145	800,000	0,050	-0,155
-517,131	800,000	0,047	0,141
-516,116	-101,656	0,052	0,009
-515,102	800,000	-0,028	-0,062
-514,087	-127,429	-0,056	-0,006
-513,072	152,555	-0,029	-0,029
-512,058	21,348	-0,130	-0,077
-511,043	-100,874	0,024	0,004
-510,029	300,902	-0,036	0,049
-509,014	799,883	0,015	-0,031
-507,999	160,785	-0,082	0,083
-506,985	-200,000	-0,025	-0,162
-505,970	269,427	0,050	-0,064
-504,956	112,551	-0,109	-0,097
-503,941	-56,064	0,031	-0,010
-502,926	152,827	-0,034	-0,034
-501,912	180,565	0,123	0,132
-500,897	-26,494	-0,029	0,013
-499,883	800,000	0,038	-0,113
-498,868	800,000	0,061	-0,130
-497,853	-200,000	-0,009	-0,054
-496,839	33,031	0,197	0,124
-495,824	-200,000	-0,001	0,068
-494,810	160,145	0,085	0,087
-493,795	-200,000	-0,000	0,058
-492,781	4,499	0,144	0,077
-491,766	-87,542	-0,098	-0,021
-490,751	-18,525	-0,050	-0,023
-489,737	800,000	0,031	0,081
-488,722	-60,472	0,060	0,018
-487,708	-1,854	0,028	-0,014
-486,693	-52,537	-0,143	0,048
-485,678	-114,155	0,059	-0,008
-484,664	25,518	-0,044	0,027
-483,649	457,660	0,093	-0,151
-482,635	176,388	0,132	0,140
-481,620	7,896	-0,033	-0,018
-480,605	-200,000	-0,021	0,101
-479,591	800,000	0,054	0,127
-478,576	800,000	0,039	-0,116
-477,562	-53,523	-0,132	-0,044
-476,547	800,000	0,052	0,137
-475,532	347,547	-0,038	0,055
-474,518	-145,208	-0,158	-0,010
-473,503	154,530	0,088	0,088
-472,489	800,000	-0,029	-0,076
-471,474	359,519	-0,040	-0,058
-470,459	-200,000	-0,017	0,063
-469,445	527,965	-0,046	-0,080
-468,430	-200,000	0,036	-0,124
-467,416	800,000	0,027	0,072
-466,401	451,240	0,056	0,090
-465,386	478,796	0,004	-0,007
-464,372	115,507	-0,127	0,113
-463,357	-152,083	-0,073	0,004
-462,343	32,611	-0,069	-0,043
-461,328	-200,000	-0,014	-0,119
-460,313	-104,694	-0,072	0,012
-459,299	-79,845	0,142	0,035
-458,284	-200,000	0,030	0,119
-457,270	-200,000	0,017	0,089
-456,255	-5,225	0,060	0,030
-455,241	9,757	-0,111	0,061
-454,226	30,139	0,064	0,040
-453,211	-75,163	-0,043	0,011
-452,197	-200,000	-0,006	0,047
-451,182	800,000	-0,017	0,051
-450,168	800,000	0,085	0,227
-449,153	800,000	0,037	-0,078
-448,138	-200,000	-0,014	-0,147
-447,124	800,000	0,036	-0,100
-446,109	287,548	-0,012	0,015
-445,095	-200,000	-0,009	0,106
-444,080	55,539	0,053	0,037
-443,065	800,000	0,020	0,059
-442,051	800,000	0,020	0,056
-441,036	-200,000	0,015	-0,136
-440,022	-200,000	-0,032	-0,124
-439,007	-200,000	0,008	-0,185
-437,992	-200,000	-0,011	-0,041
-436,978	-29,280	-0,071	0,030
-435,963	-200,000	0,044	-0,170
-434,949	51,883	-0,060	0,041
-433,934	-85,911	-0,080	-0,018
-432,919	-200,000	0,012	-0,100
-431,905	-14,558	0,010	-0,005
-430,890	72,363	-0,039	-0,029
-429,876	-4,157	0,015	-0,008
-428,861	17,254	-0,127	0,073
-427,846	20,802	0,044	0,026
-426,832	-37,868	0,058	-0,022
-425,817	174,607	-0,062	-0,065
-424,803	-200,000	0,010	0,099
-423,788	-17,144	0,114	0,052
-422,773	714,079	0,035	0,067
-421,759	39,682	-0,086	-0,056
-420,744	332,956	0,029	-0,041
-419,730	-182,843	-0,127	0,002
-418,715	92,117	-0,088	0,072
-417,701	159,542	0,057	0,058
-416,686	-12,531	-0,104	0,049
-415,671	-131,751	0,057	-0,005
-414,657	-5,853	-0,124	-0,062
-413,642	107,877	-0,058	-0,050
-412,628	-95,647	0,126	0,024
-411,613	800,000	-0,012	-0,027
-410,598	-200,000	-0,035	-0,146
-409,584	800,000	-0,024	-0,060
-408,569	800,000	0,024	0,065
-407,555	68,420	0,101	-0,075
-406,540	162,610	0,064	-0,065
-405,525	77,208	-0,099	-0,076
-404,511	-200,000	-0,000	-0,052
-403,496	800,000	0,057	-0,130
-402,482	-119,752	0,118	0,015
-401,467	-77,866	0,030	0,007
-400,452	-200,000	0,006	0,076
-399,438	-100,166	-0,158	0,028
-398,423	143,494	0,023	-0,022
-397,409	-84,962	-0,181	-0,041
-396,394	19,996	-0,085	-0,050
-395,379	530,005	0,012	-0,021
-394,365	195,304	-0,033	0,036
-393,350	-200,000	-0,011	0,126
-392,336	-200,000	-0,008	-0,120
-391,321	-200,000	-0,009	-0,088
-390,306	800,000	-0,057	-0,170
-389,292	-200,000	-0,021	0,111
-388,277	800,000	0,019	-0,054
-387,263	80,541	-0,077	-0,060
-386,248	217,509	0,039	0,045
-385,233	479,705	0,051	-0,084
-384,219	69,640	-0,055	-0,041
-383,204	388,930	0,052	-0,078
-382,190	-200,000	-0,023	0,145
-381,175	800,000	-0,016	-0,035
-380,160	-200,000	-0,003	-0,151
-379,146	12,706	0,048	-0,027
-378,131	358,645	-0,056	0,081
-377,117	-200,000	0,015	0,068
-376,102	-45,260	0,073	-0,026
-375,088	-200,000	-0,007	-0,094
-374,073	-200,000	-0,022	0,072
-373,058	117,441	0,005	0,005
-372,044	-200,000	0,027	0,100
-371,029	-200,000	0,005	0,055
-370,015	213,456	0,101	-0,116
-369,000	159,418	0,059	0,060
-367,985	-40,056	-0,088	0,033
-366,971	-135,350	0,129	0,011
-365,956	-200,000	-0,008	0,053
-364,942	800,000	0,006	-0,015
-363,927	15,659	0,056	-0,032
-362,912	-103,183	0,048	-0,008
-361,898	431,232	0,013	0,021
-360,883	43,704	-0,059	-0,039
-359,869	-40,937	0,094	-0,035
-358,854	-95,097	0,067	-0,013
-357,839	-200,000	-0,005	-0,085
-356,825	800,000	-0,048	-0,106
-355,810	562,088	-0,073	-0,128
-354,796	460,643	-0,046	-0,075
-353,781	493,475	-0,069	-0,115
-352,766	-200,000	-0,002	-0,066
-351,752	800,000	0,031	0,081
-350,737	-58,671	0,067	0,021
-349,723	-150,570	0,173	-0,009
-348,708	-200,000	-0,010	0,096
-347,693	-200,000	0,007	-0,151
-346,679	-200,000	-0,004	-0,030
-345,664	-200,000	0,002	0,095
-344,650	-61,298	0,067	-0,020
-343,635	-131,445	0,129	-0,012
-342,620	82,370	0,048	0,038
-341,606	-200,000	-0,028	0,184
-340,591	-200,000	-0,009	0,056
-339,577	800,000	-0,007	-0,021
-338,562	4,200	-0,099	-0,052
-337,548	273,602	0,016	0,021
-336,533	-0,157	0,052	-0,027
-335,518	-57,943	0,062	0,019
-334,504	328,868	-0,046	-0,064
-333,489	-103,365	-0,072	-0,012
-332,475	28,036	-0,093	-0,057
-331,460	-18,414	0,082	0,037
-330,445	-200,000	0,045	0,197
-329,431	383,318	0,039	0,059
-328,416	-141,338	-0,036	0,003
-327,402	-200,000	0,006	0,197
-326,387	-12,966	-0,108	-0,051
-325,372	-74,250	0,056	-0,015
-324,358	-200,000	0,010	0,069
-323,343	-200,000	-0,015	-0,048
-322,329	-200,000	0,032	0,159
-321,314	367,679	0,079	0,115
-320,299	800,000	0,040	0,116
-319,285	82,308	-0,119	0,094
-318,270	800,000	0,023	0,061
-317,256	158,957	-0,091	-0,091
-316,241	800,000	0,061	-0,131
-315,226	598,398	0,059	0,107
-314,212	427,100	0,063	-0,099
-313,197	-119,504	0,087	0,011
-312,183	-62,915	0,011	0,003
-311,168	42,374	-0,095	-0,063
-310,153	-200,000	0,014	-0,086
-309,139	554,297	0,037	0,065
-308,124	257,847	0,032	-0,039
-307,110	800,000	-0,033	0,092
-306,095	47,233	-0,144	0,097
-305,080	800,000	0,031	0,071
-304,066	112,286	-0,046	0,040
-303,051	82,419	0,107	-0,084
-302,037	-200,000	0,032	0,130
-301,022	-68,038	-0,049	-0,014
-300,008	-200,000	0,018	-0,100
-298,993	314,910	0,107	0,146
-297,978	-114,659	-0,098	0,013
-296,964	140,399	-0,059	0,056
-295,949	-118,699	0,024	0,003
-294,935	-2,064	-0,086	-0,043
-293,920	-54,507	-0,078	0,025
-292,905	800,000	0,029	0,089
-291,891	-44,906	0,138	0,050
-290,876	180,293	0,061	-0,065
-289,862	-67,473	-0,069	-0,020
-288,847	-7,665	-0,074	-0,036
-287,832	-41,884	-0,193	0,071
-286,818	-92,438	0,097	-0,019
-285,803	-127,326	0,097	-0,010
-284,789	96,998	-0,019	-0,016
-283,774	-200,000	0,002	-0,017
-282,759	-77,196	0,082	-0,021
-281,745	-55,761	-0,167	-0,054
-280,730	-200,000	-0,010	-0,047
-279,716	800,000	0,030	0,087
-278,701	39,478	-0,066	0,043
-277,686	800,000	0,027	0,059
-276,672	207,330	-0,107	0,121
-275,657	-142,435	0,113	0,008
-274,643	740,519	0,027	0,053
-273,628	-200,000	-0,016	-0,104
-272,613	-200,000	0,033	-0,121
-271,599	-2,453	0,062	-0,032
-270,584	-200,000	-0,017	0,087
-269,570	-200,000	0,004	-0,184
-268,555	261,083	-0,069	-0,087
-267,540	33,611	-0,190	-0,119
-266,526	800,000	-0,044	-0,115
-265,511	-200,000	-0,005	-0,056
-264,497	289,398	-0,045	-0,060
-263,482	130,626	0,037	0,035
-262,467	477,163	0,016	0,026
-261,453	-200,000	-0,023	0,120
-260,438	334,551	-0,061	-0,085
-259,424	800,000	0,031	-0,078
-258,409	111,736	0,038	-0,033
-257,395	-157,062	0,080	0,003
-256,380	-200,000	-0,009	0,137
-255,365	-9,674	-0,060	0,029
-254,351	2,936	-0,045	0,024
-253,336	-200,000	-0,025	-0,133
-252,322	-185,380	-0,044	0,000
-251,307	-200,000	-0,019	-0,088
-250,292	-200,000	-0,009	-0,102
-249,278	-39,803	0,164	-0,061
-248,263	-200,000	-0,014	0,057
-247,249	88,191	-0,076	0,061
-246,234	-87,738	-0,061	-0,013
-245,219	-1,948	0,025	0,012
-244,205	66,201	0,072	-0,053
-243,190	109,188	-0,111	0,096
-242,176	300,915	-0,074	0,099
-241,161	185,184	0,090	-0,097
-240,146	-154,205	-0,116	0,006
-239,132	-200,000	0,005	0,132
-238,117	-108,211	-0,085	-0,013
-237,103	-200,000	0,024	-0,202
-236,088	-168,401	-0,126	-0,003
-235,073	115,984	0,033	0,029
-234,059	-129,305	-0,078	0,008
-233,044	-31,142	0,032	0,013
-232,030	-200,000	-0,009	0,071
-231,015	800,000	-0,039	0,108
-230,000	-99,146	-0,203	0,037
-228,986	800,000	0,039	-0,079
-227,971	9,566	0,057	-0,031
-226,957	-74,776	0,013	-0,003
-225,942	-73,557	0,032	0,008
-224,927	-98,852	-0,080	-0,015
-223,913	-200,000	-0,003	-0,044
-222,898	800,000	0,045	-0,109
-221,884	-200,000	0,019	-0,079
-220,869	-78,414	0,030	0,007
-219,855	800,000	0,045	0,102
-218,840	339,458	-0,042	0,059
-217,825	-129,331	0,033	0,003
-216,811	-48,147	-0,106	0,037
-215,796	197,539	0,047	-0,052
-214,782	-116,961	0,170	0,022
-213,767	630,951	0,068	0,125
-212,752	-200,000	0,041	0,158
-211,738	185,071	0,153	0,164
-210,723	66,018	-0,070	-0,051
-209,709	-200,000	0,044	-0,159
-208,694	63,263	-0,094	0,068
-207,679	800,000	0,009	-0,026
-206,665	420,851	0,085	0,132
-205,650	-15,529	-0,088	0,040
-204,636	-200,000	0,006	0,160
-203,621	537,929	0,032	0,055
-202,606	-200,000	-0,009	0,170
-201,592	389,095	0,053	-0,079
-200,577	-200,000	0,035	-0,131
-199,563	320,028	0,052	0,071
-198,548	-125,903	0,027	-0,003
-197,533	-200,000	0,016	0,072
-196,519	20,713	0,021	-0,012
-195,504	-80,293	-0,085	-0,020
-194,490	169,585	0,080	-0,083
-193,475	-200,000	0,017	-0,074
-192,460	445,012	0,042	-0,067
-191,446	-17,916	0,172	-0,077
-190,431	159,688	-0,061	-0,061
-189,417	-200,000	-0,011	0,036
-188,402	-95,515	0,080	-0,015
-187,387	-38,930	0,017	-0,007
-186,373	161,463	0,046	0,047
-185,358	248,901	-0,051	-0,062
-184,344	-95,268	0,118	-0,023
-183,329	290,340	0,068	0,090
-182,315	253,608	0,023	-0,029
-181,300	-4,828	0,090	0,045
-180,285	800,000	0,061	0,145
-179,271	-81,281	-0,079	-0,019
-178,256	27,333	-0,018	0,011
-177,242	159,921	0,181	0,182
-176,227	39,060	-0,071	0,046
-175,212	1,471	0,045	-0,023
-174,198	-7,118	-0,053	-0,026
-173,183	-200,000	0,004	0,071
-172,169	177,717	-0,139	0,146
-171,154	800,000	0,062	-0,130
-170,139	123,954	0,062	0,056
-169,125	-200,000	-0,020	0,099
-168,110	800,000	0,023	0,049
-167,096	114,487	-0,051	0,045
-166,081	36,637	0,030	-0,019
-165,066	-200,000	-0,015	0,052
-164,052	161,008	0,061	0,061
-163,037	1,142	0,046	-0,024
-162,023	800,000	0,057	0,146
-161,008	-43,850	-0,022	0,008
-159,993	14,990	-0,114	-0,064
-158,979	81,118	0,094	-0,073
-157,964	35,978	-0,053	0,034
-156,950	164,334	-0,043	-0,043
-155,935	-200,000	0,006	0,097
-154,920	-200,000	-0,026	-0,109
-153,906	-54,094	0,110	-0,036
-152,891	-113,447	0,075	0,010
-151,877	712,990	-0,014	0,027
-150,862	11,174	0,047	0,026
-149,847	-200,000	0,009	0,123
-148,833	417,129	0,057	-0,089
-147,818	662,920	-0,063	0,117
-146,804	-14,343	0,084	0,039
-145,789	-103,473	-0,062	-0,010
-144,775	-100,160	0,019	-0,003
-143,760	-77,507	0,047	0,012
-142,745	439,011	-0,040	0,063
-141,731	-12,903	0,144	-0,067
-140,716	-200,000	-0,002	-0,010
-139,702	-163,235	0,032	-0,001
-138,687	780,027	0,062	0,122
-137,672	800,000	-0,078	-0,196
-136,658	-198,215	0,198	0,001
-135,643	800,000	0,017	0,040
-134,629	-58,124	-0,081	0,025
-133,614	26,438	-0,103	0,062
-132,599	520,429	0,113	0,191
-131,585	-41,170	0,092	0,034
-130,570	-105,598	-0,128	0,021
-129,556	-200,000	-0,017	-0,185
-128,541	800,000	-0,066	-0,180
-127,526	800,000	0,013	0,031
-126,512	-200,000	0,046	0,232
-125,497	-200,000	-0,035	0,186
-124,483	485,583	0,040	0,066
-123,468	800,000	0,022	0,048
-122,453	41,629	-0,059	-0,038
-121,439	-64,585	-0,088	0,025
-120,424	787,441	0,032	0,063
-119,410	185,544	0,042	-0,045
