DTS Sentinel unit serial number:	SN410029Multiplexer serial number:	ORYXHardware model number:	OX2-SRSoftware version number:	ORYX F/W v4,00 Oryx Data Collector v3.7.2.0data status	okinstallation	B6 Nyhavnadifferential loss correction	single-endedforward channel	channel 2reverse channel	N/Adate	2023/12/08time	22:35:08forward acquisition time	300,00reverse acquisition time	0,00gamma	499,1914k internal	0,3157k external	0,3157temperature offset calibration	1,0000default loss term (dB/km)	0,3820temperature slope calibration	1,0000multiplexer offset coefficient	1,0000multiplexer slope coefficient	1,0000fibre end	0,00T internal ref (°C)	15,34T ext. ref 1 (°C)	-1,05T ext. ref 2 (°C)	-1,06length (m)	temperature (°C)	Stokes	anti-Stokes-744,400	-80,253	0,122	-0,030
-743,385	-164,438	-0,417	-0,014
-742,371	323,359	0,093	0,131
-741,356	-111,955	-0,244	-0,036
-740,342	-34,110	0,167	0,067
-739,327	-200,000	-0,303	0,000
-738,312	800,000	0,064	0,199
-737,298	-23,222	-0,292	-0,129
-736,283	151,841	0,050	0,050
-735,269	-24,316	-0,303	-0,133
-734,254	-75,261	0,221	-0,058
-733,239	-31,071	-0,521	-0,216
-732,225	-77,239	0,166	0,042
-731,210	135,700	-0,091	0,087
-730,196	800,000	0,047	-0,101
-729,181	39,089	-0,064	-0,042
-728,167	-117,243	-0,096	0,013
-727,152	26,054	0,070	0,043
-726,137	183,994	-0,024	-0,026
-725,123	143,347	-0,108	-0,106
-724,108	315,532	-0,025	-0,035
-723,094	800,000	0,046	-0,107
-722,079	-88,374	-0,255	-0,056
-721,064	-200,000	0,022	-0,097
-720,050	316,321	-0,027	-0,038
-719,035	-112,235	0,091	-0,013
-718,021	251,722	-0,120	-0,151
-717,006	800,000	-0,047	-0,112
-715,991	84,112	-0,090	0,072
-714,977	336,127	-0,050	-0,071
-713,962	800,000	0,046	-0,120
-712,948	116,303	-0,032	0,029
-711,933	81,264	-0,091	-0,072
-710,918	136,781	0,078	-0,075
-709,904	-200,000	-0,009	-0,063
-708,889	800,000	-0,022	-0,058
-707,875	-81,012	-0,082	0,020
-706,860	-141,589	-0,060	-0,004
-705,845	65,457	-0,073	0,054
-704,831	-200,000	0,012	0,045
-703,816	37,014	0,108	0,070
-702,802	-200,000	-0,019	-0,067
-701,787	-173,158	-0,097	-0,002
-700,772	605,376	-0,022	-0,040
-699,758	-200,000	0,004	0,023
-698,743	800,000	-0,041	0,097
-697,729	-200,000	0,022	0,119
-696,714	-200,000	-0,087	-0,000
-695,699	704,027	-0,010	0,019
-694,685	42,095	-0,036	-0,024
-693,670	-200,000	-0,023	-0,081
-692,656	24,533	0,074	0,045
-691,641	27,029	-0,096	0,059
-690,627	-110,314	0,119	-0,018
-689,612	92,367	0,023	-0,019
-688,597	-134,066	-0,168	0,015
-687,583	-94,955	-0,122	0,024
-686,568	117,816	-0,017	0,015
-685,554	69,350	0,056	0,042
-684,539	201,073	0,116	0,131
-683,524	-200,000	-0,046	0,164
-682,510	800,000	-0,008	-0,017
-681,495	29,706	-0,013	0,008
-680,481	-35,789	-0,133	-0,053
-679,466	-200,000	0,007	0,090
-678,451	407,432	0,031	-0,049
-677,437	517,801	-0,042	-0,072
-676,422	224,716	0,053	0,063
-675,408	-77,221	0,021	0,005
-674,393	-200,000	0,005	-0,058
-673,378	-64,284	0,042	0,013
-672,364	5,226	-0,132	-0,072
-671,349	-200,000	-0,024	-0,079
-670,335	83,240	-0,075	-0,060
-669,320	-123,218	0,127	0,015
-668,305	-115,363	0,010	0,001
-667,291	800,000	-0,046	-0,098
-666,276	42,077	-0,066	0,044
-665,262	512,183	0,020	0,034
-664,247	574,602	-0,025	-0,045
-663,232	-77,852	0,078	-0,020
-662,218	-74,310	0,129	0,034
-661,203	-200,000	-0,013	-0,099
-660,189	-91,149	-0,133	0,028
-659,174	51,984	0,084	0,059
-658,159	800,000	-0,009	0,030
-657,145	-200,000	-0,010	0,101
-656,130	-200,000	-0,005	0,145
-655,116	128,613	0,029	-0,027
-654,101	-84,716	-0,089	-0,020
-653,086	-82,345	0,110	0,026
-652,072	427,019	-0,079	-0,125
-651,057	344,107	0,039	0,056
-650,043	800,000	0,018	-0,049
-649,028	42,612	0,004	-0,003
-648,014	15,570	-0,058	0,033
-646,999	800,000	-0,047	-0,123
-645,984	58,753	0,126	-0,091
-644,970	-57,747	-0,060	-0,019
-643,955	166,879	-0,079	-0,082
-642,941	-28,636	-0,034	-0,014
-641,926	34,013	-0,071	0,046
-640,911	-200,000	-0,015	-0,074
-639,897	2,044	-0,024	0,013
-638,882	-98,071	-0,067	0,013
-637,868	-104,321	0,037	0,006
-636,853	-200,000	-0,004	-0,029
-635,838	-200,000	0,009	-0,058
-634,824	-93,212	-0,052	-0,011
-633,809	-200,000	-0,003	0,027
-632,795	-117,842	0,149	0,019
-631,780	57,144	-0,065	0,047
-630,765	29,211	-0,023	0,014
-629,751	134,219	0,041	0,039
-628,736	-77,212	0,105	0,027
-627,722	-200,000	-0,014	-0,097
-626,707	-200,000	-0,003	-0,088
-625,692	539,240	0,007	0,012
-624,678	365,846	-0,106	0,157
-623,663	247,451	-0,057	-0,071
-622,649	-61,252	-0,120	-0,037
-621,634	800,000	0,027	-0,084
-620,619	-131,749	0,029	-0,003
-619,605	16,606	0,130	-0,075
-618,590	47,078	0,088	0,060
-617,576	370,058	0,058	0,086
-616,561	354,075	0,058	-0,085
-615,546	-31,659	-0,163	0,067
-614,532	-200,000	-0,012	-0,086
-613,517	272,012	-0,048	-0,062
-612,503	125,373	-0,050	0,046
-611,488	-156,028	0,089	0,004
-610,474	-59,024	0,101	-0,032
-609,459	97,898	-0,106	0,089
-608,444	-200,000	-0,001	0,023
-607,430	-28,994	-0,110	0,046
-606,415	800,000	0,034	0,105
-605,401	800,000	-0,022	0,069
-604,386	800,000	0,015	0,044
-603,371	424,065	-0,061	0,097
-602,357	-200,000	0,038	0,000
-601,342	800,000	0,022	0,057
-600,328	-17,812	0,064	-0,029
-599,313	-200,000	0,011	-0,047
-598,298	76,949	-0,095	-0,074
-597,284	800,000	0,060	0,150
-596,269	-2,246	0,135	0,069
-595,255	694,308	-0,057	-0,110
-594,240	66,449	-0,066	-0,049
-593,225	146,123	-0,072	-0,071
-592,211	9,039	-0,129	-0,071
-591,196	-54,016	-0,126	0,042
-590,182	800,000	-0,005	-0,010
-589,167	-200,000	0,010	0,119
-588,152	265,078	-0,041	-0,052
-587,138	368,505	-0,053	-0,079
-586,123	36,358	-0,130	-0,084
-585,109	-200,000	0,008	0,061
-584,094	517,156	0,035	0,060
-583,079	800,000	0,011	-0,023
-582,065	-108,199	0,119	0,019
-581,050	-200,000	-0,017	0,091
-580,036	129,866	-0,031	0,029
-579,021	-200,000	0,012	0,071
-578,006	16,632	0,064	0,037
-576,992	-175,120	0,024	0,000
-575,977	800,000	0,030	0,062
-574,963	-200,000	0,001	0,044
-573,948	-25,086	-0,136	0,059
-572,934	-70,354	-0,054	-0,015
-571,919	-200,000	-0,014	-0,065
-570,904	-47,111	-0,115	-0,041
-569,890	278,909	-0,048	-0,063
-568,875	-200,000	0,003	-0,239
-567,861	213,447	-0,074	-0,086
-566,846	354,145	0,104	0,151
-565,831	769,756	-0,046	0,093
-564,817	-48,602	-0,039	0,014
-563,802	257,023	0,054	-0,068
-562,788	7,102	-0,137	-0,075
-561,773	-48,760	-0,082	-0,029
-560,758	-200,000	-0,016	0,206
-559,744	29,992	0,059	0,037
-558,729	-100,371	-0,089	-0,016
-557,715	661,518	0,050	-0,094
-556,700	424,194	-0,095	-0,149
-555,685	-50,067	0,127	-0,044
-554,671	20,382	0,040	0,023
-553,656	33,255	0,025	-0,016
-552,642	349,230	0,074	-0,107
-551,627	800,000	-0,023	0,054
-550,612	-200,000	0,003	-0,038
-549,598	209,234	-0,070	-0,081
-548,583	-74,253	0,060	0,016
-547,569	216,135	0,026	-0,030
-546,554	-200,000	0,008	0,056
-545,539	267,478	0,056	0,072
-544,525	221,197	0,039	-0,046
-543,510	-159,861	-0,035	-0,001
-542,496	130,410	-0,070	-0,066
-541,481	-200,000	0,030	-0,106
-540,466	800,000	-0,030	-0,064
-539,452	96,005	-0,015	-0,013
-538,437	-47,253	-0,067	0,024
-537,423	326,954	-0,032	0,045
-536,408	-92,563	0,023	-0,005
-535,393	574,808	-0,064	0,115
-534,379	-200,000	0,014	-0,059
-533,364	-82,329	-0,093	-0,022
-532,350	-200,000	-0,050	0,162
-531,335	-159,765	0,077	0,003
-530,321	-39,909	0,054	0,020
-529,306	-200,000	-0,004	-0,092
-528,291	148,713	0,033	0,032
-527,277	-48,646	-0,063	-0,022
-526,262	312,251	0,046	-0,064
-525,248	-75,020	0,036	0,009
-524,233	352,504	0,031	-0,045
-523,218	705,253	0,063	-0,123
-522,204	-200,000	0,001	-0,022
-521,189	-200,000	-0,012	-0,049
-520,175	800,000	-0,015	0,039
-519,160	-200,000	0,027	-0,111
-518,145	-200,000	-0,024	-0,086
-517,131	168,989	0,070	-0,073
-516,116	43,507	-0,123	-0,082
-515,102	-200,000	0,021	0,114
-514,087	107,205	0,053	0,046
-513,072	-200,000	-0,033	0,181
-512,058	-74,441	0,042	-0,011
-511,043	800,000	-0,021	-0,055
-510,029	489,950	-0,043	0,073
-509,014	580,522	0,034	0,060
-507,999	-200,000	-0,002	0,074
-506,985	152,219	0,085	-0,085
-505,970	-200,000	-0,002	-0,011
-504,956	-200,000	0,010	-0,077
-503,941	457,374	-0,049	0,079
-502,926	800,000	0,033	0,100
-501,912	101,900	-0,051	0,043
-500,897	-71,831	-0,026	0,007
-499,883	177,626	-0,040	-0,043
-498,868	-146,145	-0,116	0,007
-497,853	-32,035	-0,112	0,046
-496,839	800,000	-0,019	0,039
-495,824	-109,255	0,064	-0,010
-494,810	68,470	0,140	0,105
-493,795	-170,864	0,245	-0,006
-492,781	436,193	-0,043	0,069
-491,766	91,216	-0,048	0,039
-490,751	129,859	-0,086	0,080
-489,737	296,045	-0,097	-0,131
-488,722	-200,000	-0,008	0,049
-487,708	800,000	0,041	0,111
-486,693	-200,000	-0,014	0,055
-485,678	150,249	-0,046	0,046
-484,664	800,000	0,017	0,045
-483,649	27,427	0,073	0,045
-482,635	386,965	0,024	-0,036
-481,620	-172,971	0,120	0,003
-480,605	-200,000	0,018	0,120
-479,591	800,000	-0,028	0,084
-478,576	-78,915	-0,044	0,011
-477,562	-200,000	0,013	0,081
-476,547	293,665	-0,019	0,025
-475,532	160,633	-0,103	-0,105
-474,518	-23,827	0,094	0,041
-473,503	-193,154	0,094	0,001
-472,489	-89,781	-0,127	0,027
-471,474	-200,000	0,008	-0,076
-470,459	-105,301	-0,110	-0,018
-469,445	-154,225	-0,077	-0,004
-468,430	800,000	-0,061	-0,136
-467,416	560,466	0,067	0,118
-466,401	240,825	-0,057	0,069
-465,386	-104,143	-0,071	-0,012
-464,372	-103,518	0,070	-0,012
-463,357	756,564	0,027	-0,054
-462,343	771,418	-0,067	-0,134
-461,328	-200,000	-0,016	-0,142
-460,313	157,715	-0,078	0,079
-459,299	-200,000	0,017	0,060
-458,284	-60,219	-0,063	0,019
-457,270	104,551	-0,072	-0,061
-456,255	123,724	0,077	-0,071
-455,241	166,129	-0,063	-0,065
-454,226	-137,806	-0,048	-0,004
-453,211	-200,000	0,002	-0,056
-452,197	-200,000	0,001	0,103
-451,182	-200,000	0,028	0,092
-450,168	319,081	0,054	-0,075
-449,153	-200,000	-0,032	-0,174
-448,138	164,779	-0,075	-0,077
-447,124	-200,000	-0,017	-0,100
-446,109	-35,740	0,085	-0,033
-445,095	219,618	-0,038	0,044
-444,080	-85,344	0,104	-0,024
-443,065	30,401	0,116	-0,072
-442,051	-51,907	-0,179	0,060
-441,036	-95,173	-0,153	-0,030
-440,022	800,000	0,036	-0,098
-439,007	-200,000	-0,046	-0,161
-437,992	800,000	0,030	0,071
-436,978	-35,870	0,149	-0,058
-435,963	-83,105	0,066	0,015
-434,949	170,324	-0,043	0,045
-433,934	-38,869	-0,027	-0,010
-432,919	245,794	0,121	0,149
-431,905	800,000	-0,040	-0,099
-430,890	170,597	-0,045	-0,047
-429,876	516,502	0,070	-0,119
-428,861	-200,000	0,010	0,033
-427,846	-200,000	-0,013	0,065
-426,832	157,399	-0,029	0,029
-425,817	635,269	-0,021	0,040
-424,803	32,914	-0,030	-0,019
-423,788	5,375	-0,072	-0,038
-422,773	-112,011	0,117	0,017
-421,759	644,992	0,068	-0,128
-420,744	647,087	-0,094	0,175
-419,730	364,927	0,019	0,028
-418,715	-200,000	0,001	-0,192
-417,701	-200,000	0,023	0,085
-416,686	-92,971	-0,025	-0,005
-415,671	-89,314	0,068	-0,015
-414,657	-19,624	-0,123	0,055
-413,642	26,825	-0,080	0,049
-412,628	111,884	-0,013	0,011
-411,613	800,000	0,048	0,149
-410,598	68,059	-0,097	-0,072
-409,584	-44,458	0,105	-0,038
-408,569	-200,000	-0,005	0,045
-407,555	17,300	-0,016	0,009
-406,540	-200,000	-0,034	-0,122
-405,525	-68,635	-0,071	-0,020
-404,511	86,121	-0,127	-0,102
-403,496	128,096	0,091	0,084
-402,482	-76,882	-0,194	-0,049
-401,467	293,669	0,143	0,190
-400,452	796,867	-0,038	0,077
-399,438	224,035	-0,088	0,104
-398,423	-132,325	0,087	0,008
-397,409	69,761	-0,062	-0,047
-396,394	16,590	0,151	-0,087
-395,379	-167,112	-0,068	0,002
-394,365	-183,740	0,094	-0,001
-393,350	800,000	-0,032	0,081
-392,336	-45,783	0,109	-0,039
-391,321	460,225	-0,091	-0,148
-390,306	220,838	-0,018	-0,021
-389,292	-200,000	-0,004	0,105
-388,277	-36,133	-0,040	0,015
-387,263	180,125	0,052	0,056
-386,248	-61,896	0,109	-0,033
-385,233	405,589	-0,009	0,014
-384,219	-7,974	0,043	0,021
-383,204	76,372	-0,044	0,034
-382,190	70,952	-0,019	-0,014
-381,175	-200,000	-0,002	0,066
-380,160	800,000	0,045	-0,094
-379,146	800,000	0,055	0,114
-378,131	72,640	0,044	-0,033
-377,117	23,593	-0,103	0,061
-376,102	71,696	-0,038	0,028
-375,088	-131,442	-0,085	0,008
-374,073	-9,836	-0,016	0,008
-373,058	24,021	0,093	0,056
-372,044	-89,746	0,136	0,029
-371,029	-39,694	-0,166	-0,063
-370,015	-128,948	0,071	-0,007
-369,000	115,894	0,060	-0,054
-367,985	606,886	-0,034	-0,062
-366,971	624,680	0,008	-0,014
-365,956	800,000	0,012	0,032
-364,942	-200,000	0,019	-0,070
-363,927	607,550	0,025	-0,045
-362,912	800,000	0,024	-0,054
-361,898	-200,000	-0,093	0,000
-360,883	225,822	-0,047	-0,055
-359,869	-107,894	0,244	0,038
-358,854	-44,052	0,113	0,041
-357,839	-200,000	0,001	-0,008
-356,825	-144,064	0,140	-0,009
-355,810	48,004	-0,066	0,045
-354,796	-200,000	-0,004	0,111
-353,781	-200,000	-0,007	-0,066
-352,766	38,787	-0,010	-0,006
-351,752	303,704	0,060	0,081
-350,737	-74,420	0,068	-0,018
-349,723	732,441	0,056	0,110
-348,708	-14,281	0,135	-0,063
-347,693	800,000	-0,024	0,073
-346,679	169,951	-0,081	-0,084
-345,664	-64,709	-0,107	-0,031
-344,650	800,000	0,011	-0,025
-343,635	-200,000	0,023	0,086
-342,620	-50,846	0,154	-0,052
-341,606	112,481	-0,126	0,110
-340,591	32,040	0,085	-0,053
-339,577	800,000	-0,024	-0,073
-338,562	-200,000	-0,010	-0,098
-337,548	800,000	0,036	-0,091
-336,533	800,000	0,068	0,177
-335,518	216,579	0,073	0,084
-334,504	238,019	-0,044	-0,053
-333,489	-16,667	-0,126	0,058
-332,475	60,101	-0,124	-0,089
-331,460	162,581	0,181	-0,185
-330,445	15,822	0,030	0,017
-329,431	-109,546	0,032	-0,005
-328,416	517,358	0,092	0,157
-327,402	800,000	0,109	0,228
-326,387	112,083	-0,068	0,059
-325,372	-200,000	0,022	-0,111
-324,358	89,773	-0,054	-0,043
-323,343	36,447	-0,121	0,077
-322,329	345,081	-0,017	0,024
-321,314	-164,863	0,049	-0,002
-320,299	317,667	0,072	0,099
-319,285	-136,146	0,052	-0,004
-318,270	-154,979	-0,047	0,002
-317,256	800,000	-0,036	-0,102
-316,241	304,141	0,064	-0,086
-315,226	-115,262	-0,037	-0,005
-314,212	683,550	0,093	0,177
-313,197	152,738	-0,059	0,059
-312,183	116,195	-0,069	-0,061
-311,168	80,923	0,073	-0,057
-310,153	-200,000	-0,011	-0,052
-309,139	-125,743	-0,086	-0,009
-308,124	374,915	0,033	-0,049
-307,110	12,645	0,023	0,013
-306,095	800,000	-0,019	0,042
-305,080	124,176	0,070	0,064
-304,066	81,072	0,063	-0,049
-303,051	-64,707	-0,087	-0,025
-302,037	-200,000	0,043	0,143
-301,022	223,190	-0,066	0,077
-300,008	-90,749	0,048	-0,010
-298,993	-152,173	0,110	0,006
-297,978	722,134	0,009	-0,018
-296,964	-94,515	-0,116	-0,023
-295,949	-36,201	0,040	-0,016
-294,935	-25,649	-0,089	-0,038
-293,920	-127,977	0,037	-0,004
-292,905	-200,000	-0,002	0,075
-291,891	139,957	0,093	0,089
-290,876	431,462	0,013	-0,021
-289,862	-200,000	-0,015	-0,067
-288,847	-200,000	-0,015	-0,105
-287,832	198,940	-0,128	-0,142
-286,818	20,672	0,101	-0,059
-285,803	72,840	0,087	0,066
-284,789	53,916	-0,033	0,023
-283,774	800,000	0,017	-0,038
-282,759	61,477	0,031	-0,023
-281,745	-70,505	-0,100	0,027
-280,730	91,702	-0,134	0,109
-279,716	468,043	0,034	0,056
-278,701	-114,425	0,014	0,002
-277,686	23,919	0,058	0,035
-276,672	57,409	0,117	-0,082
-275,657	118,955	-0,089	0,079
-274,643	800,000	-0,034	-0,072
-273,628	-200,000	0,029	-0,121
-272,613	-104,498	0,178	0,030
-271,599	58,933	-0,043	-0,030
-270,584	377,117	-0,095	0,141
-269,570	-41,184	0,067	0,025
-268,555	113,695	-0,083	0,073
-267,540	267,803	-0,123	0,156
-266,526	800,000	0,033	0,101
-265,511	198,109	-0,126	-0,140
-264,497	-72,690	0,042	-0,011
-263,482	-10,273	0,096	0,046
-262,467	-80,234	0,055	0,013
-261,453	-57,423	0,089	0,028
-260,438	-108,451	-0,147	-0,023
-259,424	-200,000	0,050	-0,163
-258,409	31,998	-0,041	-0,026
-257,395	-36,532	0,177	0,069
-256,380	665,418	0,068	0,127
-255,365	707,399	0,054	0,104
-254,351	92,482	0,102	-0,083
-253,336	267,689	-0,050	-0,063
-252,322	285,697	-0,073	-0,096
-251,307	800,000	0,029	0,085
-250,292	-57,624	0,111	0,035
-249,278	-200,000	-0,002	-0,008
-248,263	-37,014	0,056	0,022
-247,249	-149,156	-0,087	-0,005
-246,234	-65,870	0,157	-0,045
-245,219	87,668	0,064	-0,051
-244,205	-200,000	-0,002	-0,062
-243,190	314,497	-0,062	0,085
-242,176	-200,000	-0,004	-0,099
-241,161	800,000	0,076	0,161
-240,146	178,067	0,077	-0,081
-239,132	-100,199	-0,061	-0,011
-238,117	-200,000	0,003	-0,075
-237,103	-145,991	-0,059	0,004
-236,088	77,741	-0,062	0,047
-235,073	19,067	0,074	-0,043
-234,059	127,511	0,023	-0,021
-233,044	27,159	0,111	-0,067
-232,030	210,148	-0,013	0,015
-231,015	606,887	-0,035	-0,063
-230,000	498,624	-0,055	-0,092
-228,986	-156,405	0,077	-0,003
-227,971	800,000	0,050	0,108
-226,957	16,924	0,051	0,029
-225,942	-13,112	0,092	0,043
-224,927	312,824	0,046	0,062
-223,913	-200,000	0,023	-0,087
-222,898	-69,606	-0,017	0,005
-221,884	-148,407	-0,027	-0,002
-220,869	59,673	-0,034	0,024
-219,855	-175,992	-0,113	-0,002
-218,840	-152,423	-0,110	-0,006
-217,825	-125,818	-0,067	0,007
-216,811	-65,063	-0,113	-0,033
-215,796	343,331	-0,052	0,074
-214,782	20,337	-0,094	0,055
-213,767	250,601	-0,079	0,097
-212,752	-35,609	-0,083	0,032
-211,738	-68,478	0,192	-0,053
-210,723	-80,534	0,052	-0,012
-209,709	-20,696	-0,084	0,037
-208,694	800,000	-0,024	0,054
-207,679	6,478	-0,065	-0,035
-206,665	-54,254	-0,088	-0,029
-205,650	-123,053	0,051	-0,006
-204,636	618,136	0,037	0,067
-203,621	65,243	0,037	0,027
-202,606	-96,163	-0,091	0,017
-201,592	123,021	-0,109	0,098
-200,577	-200,000	0,002	-0,030
-199,563	800,000	-0,048	0,106
-198,548	510,904	-0,023	-0,039
-197,533	-27,785	0,082	0,034
-196,519	-200,000	0,014	0,080
-195,504	64,591	0,067	0,049
-194,490	585,696	-0,080	-0,142
-193,475	-185,174	-0,084	0,001
-192,460	164,849	-0,066	0,067
-191,446	453,261	-0,036	0,057
-190,431	-200,000	0,011	-0,106
-189,417	449,159	0,073	0,117
-188,402	-200,000	-0,023	0,075
-187,387	-200,000	0,001	-0,187
-186,373	-120,522	0,025	-0,003
-185,358	-81,534	0,038	-0,009
-184,344	-200,000	-0,013	0,099
-183,329	11,065	0,158	0,087
-182,315	-145,978	-0,171	-0,011
-181,300	-200,000	0,003	-0,033
-180,285	-200,000	0,012	-0,196
-179,271	-200,000	0,002	0,037
-178,256	-40,280	0,033	0,012
-177,242	-200,000	-0,023	0,073
-176,227	800,000	0,062	-0,193
-175,212	186,579	0,117	-0,126
-174,198	608,191	0,025	-0,045
-173,183	-48,712	-0,064	-0,022
-172,169	800,000	-0,016	-0,042
-171,154	199,936	0,069	-0,077
-170,139	-200,000	0,036	-0,140
-169,125	-200,000	0,018	0,069
-168,110	11,930	0,086	0,048
-167,096	800,000	0,030	-0,075
-166,081	-59,163	0,112	0,034
-165,066	99,381	0,069	0,058
-164,052	67,533	-0,048	0,035
-163,037	-178,562	-0,070	-0,001
-162,023	508,781	0,074	-0,125
-161,008	-200,000	0,018	0,099
-159,993	13,747	0,043	-0,024
-158,979	411,668	0,031	0,048
-157,964	-200,000	-0,013	-0,047
-156,950	542,529	-0,051	0,087
-155,935	2,322	-0,039	0,020
-154,920	-198,155	0,144	0,001
-153,906	-22,070	-0,098	0,043
-152,891	239,577	0,119	-0,143
-151,877	-125,987	0,055	0,006
-150,862	21,382	-0,083	-0,048
-149,847	-38,777	0,063	-0,024
-148,833	238,848	-0,059	0,071
-147,818	-10,491	0,080	0,038
-146,804	-105,043	-0,033	0,005
-145,789	800,000	0,050	-0,149
-144,775	151,026	-0,025	-0,025
-143,760	-200,000	-0,011	-0,037
-142,745	459,654	-0,029	0,047
-141,731	-200,000	0,019	-0,073
-140,716	800,000	0,020	-0,045
-139,702	628,330	-0,009	0,017
-138,687	-41,772	-0,092	-0,034
-137,672	-129,076	-0,063	0,006
-136,658	5,622	-0,154	-0,082
-135,643	-200,000	-0,027	-0,098
-134,629	473,820	-0,043	-0,070
-133,614	9,323	0,138	0,075
-132,599	800,000	0,029	0,080
-131,585	800,000	-0,016	0,049
-130,570	-200,000	0,033	0,119
-129,556	25,875	-0,085	0,051
-128,541	-61,988	-0,020	-0,006
-127,526	-200,000	-0,005	-0,028
-126,512	-3,517	-0,117	-0,058
-125,497	800,000	0,018	0,053
-124,483	56,702	-0,019	-0,013
-123,468	800,000	0,044	0,092
-122,453	532,598	0,035	0,059
-121,439	-200,000	-0,005	0,040
-120,424	51,728	0,012	0,008
-119,410	110,875	0,020	0,018
