DTS Sentinel unit serial number:	SN410029Multiplexer serial number:	ORYXHardware model number:	OX2-SRSoftware version number:	ORYX F/W v4,00 Oryx Data Collector v3.7.2.0data status	okinstallation	B6 Nyhavnadifferential loss correction	single-endedforward channel	channel 2reverse channel	N/Adate	2023/12/10time	00:00:08forward acquisition time	300,00reverse acquisition time	0,00gamma	499,1914k internal	0,3126k external	0,3126temperature offset calibration	1,0000default loss term (dB/km)	0,3820temperature slope calibration	1,0000multiplexer offset coefficient	1,0000multiplexer slope coefficient	1,0000fibre end	0,00T internal ref (°C)	21,76T ext. ref 1 (°C)	5,62T ext. ref 2 (°C)	5,59length (m)	temperature (°C)	Stokes	anti-Stokes-744,400	257,604	-0,032	-0,042
-743,385	-0,631	-0,264	0,139
-742,371	-37,536	0,181	-0,071
-741,356	-83,099	-0,226	-0,054
-740,342	81,877	0,119	-0,096
-739,327	-30,857	-0,226	0,095
-738,312	-46,939	0,149	-0,054
-737,298	-155,932	-0,327	0,015
-736,283	74,892	0,129	-0,101
-735,269	-160,592	-0,207	0,008
-734,254	193,428	0,024	-0,027
-733,239	-36,236	-0,303	-0,121
-732,225	-45,447	0,144	-0,053
-731,210	800,000	-0,024	0,057
-730,196	87,144	0,125	-0,103
-729,181	543,290	0,016	0,028
-728,167	700,417	0,022	-0,043
-727,152	446,901	-0,045	0,074
-726,137	-74,242	-0,152	-0,041
-725,123	147,149	-0,031	-0,031
-724,108	800,000	-0,061	-0,151
-723,094	175,754	-0,144	-0,156
-722,079	800,000	-0,052	-0,130
-721,064	-200,000	-0,019	-0,137
-720,050	-200,000	0,019	-0,081
-719,035	800,000	0,025	-0,076
-718,021	60,645	-0,099	0,073
-717,006	800,000	0,027	-0,074
-715,991	70,781	-0,096	-0,074
-714,977	-200,000	-0,008	0,037
-713,962	-45,024	0,097	-0,036
-712,948	-200,000	-0,025	0,172
-711,933	-35,107	-0,074	0,030
-710,918	33,957	-0,024	0,016
-709,904	-200,000	-0,030	-0,126
-708,889	145,180	-0,086	-0,086
-707,875	800,000	0,035	-0,074
-706,860	800,000	-0,019	0,059
-705,845	-18,999	0,061	0,028
-704,831	-40,970	-0,131	0,050
-703,816	-86,135	0,124	-0,028
-702,802	-86,334	0,030	0,007
-701,787	-36,011	-0,128	-0,051
-700,772	203,912	-0,106	-0,123
-699,758	408,903	0,030	0,048
-698,743	800,000	0,026	-0,054
-697,729	-200,000	-0,008	0,070
-696,714	-200,000	0,005	0,077
-695,699	-200,000	0,006	-0,039
-694,685	-200,000	0,008	0,049
-693,670	800,000	0,016	-0,033
-692,656	-200,000	0,005	-0,027
-691,641	-82,147	-0,067	0,016
-690,627	800,000	-0,069	0,149
-689,612	390,936	-0,074	0,115
-688,597	13,628	0,196	-0,113
-687,583	-78,469	-0,036	-0,009
-686,568	800,000	-0,027	0,058
-685,554	-200,000	-0,028	-0,142
-684,539	-93,055	0,185	-0,038
-683,524	236,930	0,028	0,034
-682,510	-126,598	-0,117	-0,013
-681,495	50,156	-0,041	-0,029
-680,481	-13,851	-0,114	0,054
-679,466	82,793	-0,137	-0,111
-678,451	-142,598	-0,082	0,006
-677,437	-138,755	0,084	0,007
-676,422	800,000	-0,013	-0,037
-675,408	800,000	0,024	0,053
-674,393	44,444	0,049	-0,034
-673,378	-88,799	-0,066	0,014
-672,364	328,234	-0,077	0,110
-671,349	251,871	-0,083	-0,106
-670,335	216,741	0,109	-0,129
-669,320	-29,200	0,141	0,060
-668,305	-200,000	0,015	-0,052
-667,291	-200,000	0,011	0,073
-666,276	-102,932	-0,096	-0,017
-665,262	-48,025	-0,200	0,071
-664,247	800,000	-0,018	0,041
-663,232	-102,159	0,070	0,012
-662,218	327,924	0,053	0,076
-661,203	800,000	-0,033	0,073
-660,189	-79,746	-0,086	0,021
-659,174	-48,133	-0,094	0,033
-658,159	-41,445	-0,021	0,008
-657,145	-200,000	-0,009	-0,046
-656,130	-200,000	-0,004	0,052
-655,116	158,789	0,020	-0,020
-654,101	56,981	-0,018	0,013
-653,086	-200,000	-0,003	-0,031
-652,072	180,505	-0,094	-0,103
-651,057	800,000	0,042	0,111
-650,043	704,845	-0,003	0,006
-649,028	-200,000	0,001	0,069
-648,014	800,000	-0,040	-0,096
-646,999	-200,000	0,025	0,107
-645,984	-46,116	-0,041	0,015
-644,970	800,000	-0,034	0,088
-643,955	-200,000	0,004	0,115
-642,941	-200,000	-0,019	-0,067
-641,926	-45,074	-0,089	-0,033
-640,911	9,960	-0,006	0,004
-639,897	800,000	0,023	-0,059
-638,882	-107,450	0,017	0,003
-637,868	11,358	-0,052	-0,029
-636,853	-147,407	-0,157	0,010
-635,838	-16,148	0,083	0,039
-634,824	-200,000	-0,006	-0,098
-633,809	-200,000	-0,030	0,117
-632,795	728,084	-0,041	-0,082
-631,780	107,445	-0,083	0,073
-630,765	420,895	0,022	0,036
-629,751	28,828	-0,091	-0,057
-628,736	-56,161	-0,105	-0,035
-627,722	198,548	-0,034	-0,038
-626,707	-4,826	-0,065	0,033
-625,692	-31,618	0,115	-0,048
-624,678	-158,805	0,029	-0,001
-623,663	-16,282	-0,099	0,046
-622,649	33,597	-0,056	-0,036
-621,634	369,563	-0,077	-0,116
-620,619	800,000	-0,044	-0,102
-619,605	180,504	0,044	-0,048
-618,590	18,074	-0,087	-0,051
-617,576	-56,577	0,136	-0,044
-616,561	291,199	-0,080	-0,109
-615,546	-200,000	-0,002	-0,121
-614,532	-27,993	-0,038	-0,016
-613,517	800,000	0,034	0,107
-612,503	-200,000	-0,026	0,093
-611,488	-60,419	-0,196	-0,061
-610,474	800,000	0,025	-0,053
-609,459	58,785	-0,081	0,059
-608,444	800,000	-0,070	-0,195
-607,430	-200,000	0,019	-0,078
-606,415	-200,000	-0,005	0,049
-605,401	-200,000	0,015	0,131
-604,386	94,645	-0,170	0,143
-603,371	32,192	0,055	0,035
-602,357	612,712	-0,038	-0,070
-601,342	53,053	-0,087	0,062
-600,328	-200,000	-0,030	0,133
-599,313	800,000	-0,073	0,155
-598,298	-200,000	0,006	-0,061
-597,284	31,484	0,048	-0,031
-596,269	-172,601	-0,076	0,002
-595,255	-152,482	0,105	0,005
-594,240	-43,386	-0,189	0,070
-593,225	484,627	0,019	-0,032
-592,211	6,783	-0,060	0,033
-591,196	715,753	-0,012	0,023
-590,182	266,995	-0,047	-0,061
-589,167	65,912	-0,088	0,066
-588,152	290,182	-0,008	-0,011
-587,138	-200,000	0,003	-0,053
-586,123	265,618	-0,040	-0,052
-585,109	-4,045	0,111	0,057
-584,094	-200,000	0,003	-0,029
-583,079	-45,888	-0,072	-0,026
-582,065	87,247	-0,069	0,057
-581,050	800,000	0,023	-0,049
-580,036	800,000	0,043	-0,089
-579,021	367,415	-0,070	-0,105
-578,006	92,321	-0,058	-0,048
-576,992	611,234	0,027	-0,051
-575,977	-200,000	0,010	-0,065
-574,963	-33,026	0,036	-0,015
-573,948	6,466	0,023	0,013
-572,934	-72,091	-0,131	-0,036
-571,919	-114,440	-0,068	0,010
-570,904	800,000	0,032	-0,097
-569,890	-200,000	-0,010	-0,139
-568,875	432,629	-0,081	-0,131
-567,861	109,112	-0,024	-0,021
-566,846	-128,916	0,091	0,009
-565,831	-153,969	-0,050	0,002
-564,817	-158,693	-0,103	0,004
-563,802	-32,336	-0,042	-0,017
-562,788	152,289	-0,096	0,097
-561,773	-105,689	-0,063	-0,010
-560,758	-145,217	0,114	0,008
-559,744	800,000	-0,045	0,109
-558,729	640,500	0,015	0,029
-557,715	-200,000	-0,020	-0,105
-556,700	66,424	-0,171	-0,128
-555,685	-200,000	0,018	-0,091
-554,671	-130,997	0,087	-0,008
-553,656	-39,601	-0,020	-0,008
-552,642	99,721	0,087	-0,075
-551,627	67,834	0,099	0,075
-550,612	572,554	0,048	-0,088
-549,598	-8,084	-0,040	0,020
-548,583	-110,075	-0,041	0,006
-547,569	-127,086	-0,083	-0,009
-546,554	-16,374	0,225	0,105
-545,539	-186,331	0,166	0,002
-544,525	-164,429	0,090	0,003
-543,510	24,600	0,036	0,022
-542,496	774,891	0,021	-0,042
-541,481	-84,658	-0,139	0,032
-540,466	800,000	-0,047	-0,113
-539,452	56,546	-0,012	-0,009
-538,437	-122,806	-0,059	-0,007
-537,423	-200,000	-0,018	-0,073
-536,408	718,154	-0,024	-0,046
-535,393	82,036	0,006	-0,004
-534,379	-33,773	-0,099	-0,040
-533,364	182,558	0,056	-0,061
-532,350	-138,461	-0,142	-0,011
-531,335	191,426	0,121	0,134
-530,321	-200,000	0,019	-0,088
-529,306	587,236	-0,032	-0,059
-528,291	-200,000	0,000	-0,147
-527,277	656,133	-0,051	-0,096
-526,262	-9,669	-0,123	-0,060
-525,248	-60,214	-0,038	-0,012
-524,233	-200,000	-0,028	-0,099
-523,218	-200,000	0,034	0,157
-522,204	266,563	-0,056	0,072
-521,189	-137,692	-0,153	-0,013
-520,175	103,982	-0,112	-0,097
-519,160	146,422	0,057	0,056
-518,145	-145,427	-0,119	-0,008
-517,131	-200,000	-0,008	-0,085
-516,116	-200,000	-0,008	-0,065
-515,102	800,000	-0,066	0,139
-514,087	-200,000	0,019	-0,115
-513,072	-153,853	-0,015	-0,001
-512,058	-200,000	0,018	0,061
-511,043	312,110	-0,052	-0,073
-510,029	-28,991	0,025	0,010
-509,014	175,177	-0,087	0,093
-507,999	315,307	-0,029	-0,041
-506,985	-45,224	0,102	0,037
-505,970	587,968	-0,024	-0,044
-504,956	-170,109	0,051	-0,001
-503,941	-85,394	-0,025	0,006
-502,926	482,634	-0,019	0,032
-501,912	410,276	0,059	0,093
-500,897	-122,536	-0,133	0,016
-499,883	-79,629	0,066	0,016
-498,868	-95,035	-0,074	-0,015
-497,853	553,528	-0,033	-0,058
-496,839	99,529	-0,058	-0,049
-495,824	653,134	0,068	0,128
-494,810	40,763	0,048	0,032
-493,795	800,000	-0,050	-0,103
-492,781	126,248	-0,108	0,100
-491,766	-200,000	0,014	-0,191
-490,751	-200,000	0,025	-0,089
-489,737	-122,265	-0,041	-0,005
-488,722	73,917	-0,026	0,020
-487,708	115,824	0,078	0,070
-486,693	300,934	0,068	0,093
-485,678	271,449	0,008	0,010
-484,664	800,000	0,039	-0,088
-483,649	-165,748	0,012	-0,000
-482,635	53,297	0,106	-0,075
-481,620	-97,178	0,151	-0,029
-480,605	337,415	-0,073	-0,106
-479,591	-200,000	-0,021	-0,069
-478,576	11,074	0,095	0,053
-477,562	-142,572	0,092	-0,007
-476,547	-20,627	-0,026	-0,012
-475,532	388,638	-0,067	0,103
-474,518	638,278	-0,015	0,028
-473,503	-0,005	0,015	-0,008
-472,489	-200,000	0,004	-0,126
-471,474	-76,081	-0,083	0,022
-470,459	-6,824	-0,043	-0,021
-469,445	41,625	-0,042	0,028
-468,430	-115,567	-0,186	-0,025
-467,416	87,771	-0,039	-0,032
-466,401	-200,000	0,003	0,049
-465,386	324,037	-0,002	-0,003
-464,372	-74,166	-0,076	-0,020
-463,357	403,843	0,026	-0,041
-462,343	-200,000	0,008	0,060
-461,328	-168,951	0,093	-0,003
-460,313	221,196	-0,037	0,044
-459,299	-80,678	-0,045	-0,011
-458,284	170,170	0,031	0,033
-457,270	-140,180	-0,111	-0,008
-456,255	732,442	0,055	-0,108
-455,241	-200,000	-0,007	0,104
-454,226	-87,821	-0,135	-0,030
-453,211	-54,107	0,012	-0,004
-452,197	126,925	-0,035	-0,033
-451,182	-200,000	0,004	-0,038
-450,168	211,519	0,056	0,065
-449,153	-17,325	0,065	0,030
-448,138	556,611	-0,021	0,037
-447,124	79,807	-0,077	-0,061
-446,109	-200,000	0,000	-0,050
-445,095	-33,969	0,061	0,025
-444,080	169,815	0,083	0,087
-443,065	-142,063	-0,061	0,004
-442,051	-200,000	0,004	0,018
-441,036	231,630	0,049	-0,059
-440,022	-200,000	-0,000	-0,001
-439,007	89,575	0,115	-0,094
-437,992	-22,595	0,031	0,014
-436,978	800,000	0,039	0,119
-435,963	561,384	-0,030	-0,054
-434,949	800,000	0,013	0,033
-433,934	-115,640	0,049	-0,007
-432,919	800,000	0,018	-0,049
-431,905	800,000	-0,023	-0,063
-430,890	-45,641	-0,033	-0,012
-429,876	-200,000	-0,001	0,082
-428,861	-200,000	0,009	0,190
-427,846	98,712	0,126	0,107
-426,832	379,766	0,094	0,143
-425,817	-98,134	-0,055	0,010
-424,803	125,422	0,052	0,048
-423,788	-145,101	0,102	0,007
-422,773	-200,000	0,003	0,135
-421,759	84,951	-0,083	0,067
-420,744	-200,000	0,008	0,143
-419,730	-200,000	0,011	0,082
-418,715	180,446	-0,102	-0,110
-417,701	-22,966	0,069	0,031
-416,686	-200,000	0,001	0,054
-415,671	90,564	0,086	-0,071
-414,657	-79,378	-0,074	-0,018
-413,642	-172,719	0,144	-0,003
-412,628	-170,551	-0,068	0,002
-411,613	-75,879	0,095	0,025
-410,598	-200,000	0,018	0,059
-409,584	27,733	0,078	0,048
-408,569	800,000	0,017	0,036
-407,555	-137,831	0,072	0,006
-406,540	-200,000	-0,009	-0,116
-405,525	-200,000	0,001	0,127
-404,511	89,400	0,016	-0,013
-403,496	-200,000	-0,018	0,100
-402,482	443,934	0,056	-0,091
-401,467	504,751	0,020	-0,034
-400,452	282,667	0,121	0,160
-399,438	363,514	0,074	0,110
-398,423	192,757	-0,038	-0,043
-397,409	123,779	0,077	-0,071
-396,394	162,850	-0,043	0,044
-395,379	-106,680	-0,072	0,012
-394,365	43,038	0,140	-0,094
-393,350	40,656	0,079	0,052
-392,336	204,096	0,086	0,098
-391,321	-172,151	0,154	-0,004
-390,306	-171,753	-0,099	0,002
-389,292	-200,000	0,048	-0,227
-388,277	-200,000	-0,034	-0,124
-387,263	-200,000	0,037	0,170
-386,248	56,319	0,196	0,140
-385,233	800,000	0,100	-0,206
-384,219	699,550	0,067	-0,131
-383,204	320,540	-0,080	-0,112
-382,190	-190,140	0,036	0,000
-381,175	460,721	-0,058	0,095
-380,160	-200,000	-0,022	0,082
-379,146	-181,096	0,090	0,001
-378,131	250,838	0,084	0,105
-377,117	-37,044	-0,164	-0,064
-376,102	800,000	-0,074	-0,152
-375,088	526,700	-0,039	-0,068
-374,073	609,959	0,046	-0,085
-373,058	-14,685	0,141	-0,066
-372,044	346,290	0,068	-0,098
-371,029	-200,000	-0,001	0,018
-370,015	-110,684	-0,124	0,019
-369,000	-200,000	-0,002	-0,066
-367,985	800,000	0,022	-0,062
-366,971	-161,547	-0,184	0,007
-365,956	217,590	-0,060	0,071
-364,942	94,560	-0,027	0,023
-363,927	-200,000	-0,015	0,112
-362,912	19,731	0,057	-0,034
-361,898	800,000	0,018	-0,045
-360,883	715,150	-0,101	-0,197
-359,869	-200,000	-0,004	-0,105
-358,854	188,799	-0,020	-0,022
-357,839	325,297	0,121	0,170
-356,825	800,000	0,029	0,073
-355,810	13,887	0,118	0,067
-354,796	-200,000	-0,016	-0,124
-353,781	-200,000	-0,020	-0,072
-352,766	-0,355	-0,070	-0,036
-351,752	-200,000	-0,038	0,225
-350,737	-200,000	0,003	0,015
-349,723	800,000	0,036	0,101
-348,708	322,664	-0,026	0,037
-347,693	-200,000	0,005	-0,185
-346,679	-1,227	-0,084	-0,043
-345,664	-102,091	-0,084	-0,015
-344,650	-7,666	0,029	0,014
-343,635	-137,255	0,144	0,012
-342,620	-54,566	0,014	0,005
-341,606	-82,020	-0,079	-0,019
-340,591	-44,178	0,091	-0,033
-339,577	199,365	-0,046	0,051
-338,562	800,000	0,037	0,085
-337,548	-95,269	0,119	-0,023
-336,533	-200,000	0,022	0,147
-335,518	-200,000	0,031	0,167
-334,504	-200,000	0,004	0,083
-333,489	28,985	0,048	0,030
-332,475	-200,000	0,020	-0,122
-331,460	129,953	-0,199	-0,186
-330,445	-1,955	-0,062	-0,032
-329,431	283,872	0,049	0,065
-328,416	238,068	0,051	-0,062
-327,402	8,139	0,071	-0,039
-326,387	800,000	0,062	0,158
-325,372	-3,411	0,042	-0,022
-324,358	-63,463	-0,101	-0,030
-323,343	55,889	0,069	-0,049
-322,329	-200,000	-0,010	0,171
-321,314	21,108	0,148	0,088
-320,299	175,333	-0,080	0,085
-319,285	-70,510	0,140	-0,038
-318,270	-200,000	-0,006	0,133
-317,256	517,341	-0,043	0,073
-316,241	21,965	0,097	0,058
-315,226	-128,279	0,015	0,002
-314,212	-18,350	-0,014	-0,006
-313,197	-119,482	0,087	-0,011
-312,183	-116,633	-0,148	0,020
-311,168	45,468	-0,108	0,073
-310,153	-71,317	-0,079	0,022
-309,139	435,002	-0,076	0,122
-308,124	17,159	0,212	0,123
-307,110	800,000	0,040	0,085
-306,095	-5,347	-0,017	-0,009
-305,080	-109,832	-0,132	-0,020
-304,066	-200,000	0,034	-0,141
-303,051	800,000	-0,018	0,043
-302,037	-11,287	0,069	-0,033
-301,022	-200,000	-0,016	0,085
-300,008	-74,287	0,143	0,038
-298,993	158,127	0,024	0,024
-297,978	211,436	0,055	0,063
-296,964	-113,343	-0,135	0,019
-295,949	-200,000	-0,087	0,000
-294,935	-200,000	0,028	-0,124
-293,920	37,166	0,028	0,018
-292,905	-200,000	0,029	0,133
-291,891	-86,338	0,150	-0,034
-290,876	-200,000	-0,010	-0,112
-289,862	-0,860	0,087	0,045
-288,847	447,085	-0,047	0,076
-287,832	24,882	-0,098	0,059
-286,818	523,862	-0,034	-0,058
-285,803	-200,000	0,048	0,170
-284,789	800,000	0,037	0,115
-283,774	800,000	0,022	0,061
-282,759	800,000	-0,040	-0,089
-281,745	564,893	0,073	0,130
-280,730	-200,000	0,013	-0,111
-279,716	-80,893	0,100	0,024
-278,701	800,000	0,022	0,057
-277,686	509,444	0,026	0,044
-276,672	-34,962	0,208	-0,083
-275,657	297,575	0,061	-0,082
-274,643	800,000	-0,062	0,172
-273,628	-133,439	-0,079	-0,007
-272,613	-200,000	-0,010	-0,122
-271,599	61,939	0,122	-0,089
-270,584	-200,000	-0,001	0,006
-269,570	4,218	-0,020	0,010
-268,555	-121,235	-0,073	-0,009
-267,540	800,000	0,028	-0,084
-266,526	800,000	0,014	-0,030
-265,511	800,000	-0,088	-0,179
-264,497	672,192	0,048	-0,091
-263,482	32,379	-0,115	-0,072
-262,467	-200,000	-0,031	0,111
-261,453	-3,030	0,121	-0,062
-260,438	581,372	0,062	-0,112
-259,424	-200,000	-0,005	-0,090
-258,409	-200,000	0,007	-0,087
-257,395	-167,981	0,046	0,001
-256,380	-118,519	-0,107	0,014
-255,365	-197,949	0,178	0,001
-254,351	151,215	-0,024	0,024
-253,336	-78,028	-0,065	-0,016
-252,322	53,588	-0,070	-0,049
-251,307	-31,477	0,016	-0,007
-250,292	-109,701	-0,096	0,015
-249,278	37,518	0,152	-0,098
-248,263	406,135	-0,035	-0,054
-247,249	-138,461	-0,031	-0,002
-246,234	-200,000	0,015	-0,086
-245,219	-172,577	-0,029	-0,001
-244,205	-200,000	0,008	0,067
-243,190	-29,589	-0,110	-0,046
-242,176	-130,783	-0,091	-0,009
-241,161	33,152	0,184	0,116
-240,146	-200,000	-0,001	0,076
-239,132	278,516	0,092	0,120
-238,117	136,939	0,096	0,091
-237,103	-161,172	0,049	0,002
-236,088	188,448	-0,027	-0,030
-235,073	16,224	0,060	-0,035
-234,059	800,000	0,009	0,019
-233,044	10,797	-0,068	0,038
-232,030	-200,000	-0,011	0,042
-231,015	82,815	-0,045	0,036
-230,000	-200,000	0,023	-0,106
-228,986	-200,000	0,004	-0,129
-227,971	-200,000	-0,008	0,139
-226,957	103,005	0,095	0,081
-225,942	-200,000	0,001	0,030
-224,927	-200,000	-0,001	-0,056
-223,913	-14,675	-0,085	-0,040
-222,898	800,000	-0,013	0,031
-221,884	345,875	-0,065	-0,094
-220,869	594,937	0,036	0,065
-219,855	328,982	0,108	0,151
-218,840	406,720	0,041	-0,064
-217,825	800,000	-0,058	0,158
-216,811	-45,456	-0,155	-0,056
-215,796	585,708	-0,027	-0,048
-214,782	-110,882	0,047	0,007
-213,767	800,000	-0,037	0,111
-212,752	-65,440	0,050	-0,014
-211,738	46,066	-0,074	0,050
-210,723	-79,685	0,023	-0,006
-209,709	25,388	-0,088	0,053
-208,694	-143,175	-0,031	0,002
-207,679	800,000	0,028	-0,078
-206,665	-200,000	-0,004	0,111
-205,650	78,648	0,046	-0,036
-204,636	427,810	0,030	0,047
-203,621	-200,000	-0,008	0,166
-202,606	-69,586	-0,109	0,030
-201,592	-102,840	-0,137	-0,023
-200,577	-103,122	-0,095	0,016
-199,563	-111,291	0,187	-0,028
-198,548	800,000	0,054	0,117
-197,533	800,000	0,005	-0,015
-196,519	-119,645	0,061	-0,008
-195,504	800,000	0,011	-0,033
-194,490	670,415	-0,090	-0,170
-193,475	-144,265	-0,148	0,010
-192,460	-161,004	0,029	-0,001
-191,446	-200,000	0,018	-0,069
-190,431	-81,338	0,208	0,050
-189,417	-46,998	-0,028	0,010
-188,402	-124,991	-0,105	-0,012
-187,387	-200,000	0,033	0,122
-186,373	-67,710	-0,051	-0,015
-185,358	-200,000	-0,016	-0,083
-184,344	-122,115	0,143	0,017
-183,329	-200,000	-0,008	-0,054
-182,315	494,594	-0,051	0,086
-181,300	800,000	-0,032	-0,067
-180,285	-200,000	-0,019	-0,106
-179,271	-200,000	-0,014	-0,074
-178,256	207,732	0,056	-0,063
-177,242	449,534	0,043	0,070
-176,227	-23,427	-0,079	-0,034
-175,212	186,812	0,053	0,058
-174,198	222,664	-0,011	0,013
-173,183	548,176	-0,079	0,139
-172,169	144,786	0,067	-0,065
-171,154	800,000	0,049	-0,108
-170,139	-62,465	0,080	-0,024
-169,125	-183,590	0,103	0,001
-168,110	-82,239	-0,080	-0,019
-167,096	-141,224	0,079	0,006
-166,081	800,000	0,049	-0,113
-165,066	-200,000	0,031	-0,114
-164,052	-154,128	0,145	-0,007
-163,037	436,670	-0,047	-0,075
-162,023	205,074	0,124	0,140
-161,008	800,000	0,097	0,210
-159,993	-19,858	0,073	0,033
-158,979	-200,000	-0,001	-0,134
-157,964	127,029	0,045	0,042
-156,950	-123,660	0,184	0,021
-155,935	-46,927	0,074	0,026
-154,920	147,886	-0,084	0,082
-153,906	-63,507	-0,227	0,067
-152,891	159,653	0,105	0,106
-151,877	362,564	-0,080	-0,118
-150,862	-200,000	0,023	0,095
-149,847	-3,832	-0,054	-0,027
-148,833	62,826	-0,031	-0,022
-147,818	17,633	0,147	-0,085
-146,804	75,426	0,029	0,022
-145,789	233,751	0,053	-0,064
-144,775	27,111	-0,127	0,077
-143,760	800,000	0,017	-0,039
-142,745	36,612	-0,064	-0,041
-141,731	102,403	0,082	-0,069
-140,716	-35,572	0,029	-0,011
-139,702	-96,027	0,141	-0,027
-138,687	378,832	-0,017	0,025
-137,672	800,000	0,011	-0,025
-136,658	-200,000	-0,019	0,134
-135,643	800,000	-0,025	0,057
-134,629	-57,196	0,062	0,020
-133,614	575,592	0,028	0,049
-132,599	456,848	-0,040	0,065
-131,585	143,925	-0,038	-0,037
-130,570	800,000	-0,029	-0,082
-129,556	17,957	-0,163	-0,094
-128,541	-200,000	-0,007	-0,202
-127,526	26,698	0,070	0,043
-126,512	-200,000	0,087	0,000
-125,497	718,959	0,088	0,171
-124,483	800,000	0,042	0,119
-123,468	-200,000	0,008	0,046
-122,453	-144,322	-0,088	-0,006
-121,439	-200,000	0,002	0,015
-120,424	268,012	-0,093	0,119
