DTS Sentinel unit serial number:	SN410029Multiplexer serial number:	ORYXHardware model number:	OX2-SRSoftware version number:	ORYX F/W v4,00 Oryx Data Collector v3.7.2.0data status	okinstallation	B6 Nyhavnadifferential loss correction	single-endedforward channel	channel 2reverse channel	N/Adate	2023/12/08time	21:00:08forward acquisition time	300,00reverse acquisition time	0,00gamma	499,1914k internal	0,3158k external	0,3158temperature offset calibration	1,0000default loss term (dB/km)	0,3820temperature slope calibration	1,0000multiplexer offset coefficient	1,0000multiplexer slope coefficient	1,0000fibre end	0,00T internal ref (°C)	15,21T ext. ref 1 (°C)	-1,39T ext. ref 2 (°C)	-1,39length (m)	temperature (°C)	Stokes	anti-Stokes-744,400	-200,000	-0,001	-0,043
-743,385	-100,401	-0,318	0,058
-742,371	-70,289	0,130	0,036
-741,356	-84,289	-0,292	-0,068
-740,342	205,984	0,080	-0,092
-739,327	-47,821	-0,344	-0,122
-738,312	-47,062	0,106	-0,038
-737,298	-190,854	-0,284	-0,002
-736,283	-71,782	0,134	-0,037
-735,269	-99,057	-0,301	0,056
-734,254	-149,778	0,179	0,010
-733,239	-42,278	-0,550	-0,206
-732,225	-47,459	0,267	0,095
-731,210	84,286	-0,076	0,061
-730,196	32,107	0,091	0,058
-729,181	28,816	-0,098	-0,061
-728,167	304,935	0,088	0,121
-727,152	174,292	0,089	-0,095
-726,137	147,434	-0,106	-0,106
-725,123	-67,545	0,016	0,005
-724,108	800,000	-0,066	0,151
-723,094	-200,000	-0,025	-0,097
-722,079	-40,149	-0,111	0,042
-721,064	-200,000	0,008	-0,033
-720,050	46,644	-0,007	-0,004
-719,035	262,233	-0,091	-0,116
-718,021	-3,788	0,060	0,031
-717,006	9,621	-0,081	-0,045
-715,991	452,089	-0,067	-0,109
-714,977	-178,710	0,040	0,001
-713,962	800,000	-0,043	-0,106
-712,948	10,101	-0,107	0,060
-711,933	715,047	0,056	-0,109
-710,918	328,636	-0,057	-0,081
-709,904	-200,000	0,002	-0,161
-708,889	50,725	-0,175	0,122
-707,875	44,257	-0,121	-0,082
-706,860	192,014	-0,048	-0,053
-705,845	-200,000	-0,006	0,130
-704,831	800,000	0,069	-0,151
-703,816	-200,000	-0,012	0,051
-702,802	-200,000	0,018	-0,083
-701,787	-36,059	-0,081	-0,032
-700,772	84,691	-0,163	-0,131
-699,758	800,000	-0,034	-0,103
-698,743	800,000	0,014	-0,035
-697,729	-114,066	0,087	0,012
-696,714	89,446	0,048	0,039
-695,699	-200,000	0,019	-0,065
-694,685	206,518	-0,133	-0,152
-693,670	800,000	0,009	-0,024
-692,656	-75,459	-0,034	-0,009
-691,641	-83,836	0,135	0,031
-690,627	-123,934	0,057	-0,007
-689,612	-66,055	0,062	-0,018
-688,597	-200,000	-0,032	-0,168
-687,583	649,229	-0,071	-0,134
-686,568	-200,000	-0,002	-0,031
-685,554	474,548	-0,059	-0,097
-684,539	783,245	-0,031	0,063
-683,524	224,656	0,026	0,031
-682,510	141,105	0,017	0,017
-681,495	620,053	-0,049	-0,091
-680,481	296,200	0,024	0,032
-679,466	-200,000	-0,000	0,026
-678,451	-200,000	0,042	-0,156
-677,437	800,000	-0,055	-0,118
-676,422	-124,685	-0,069	-0,008
-675,408	800,000	0,038	0,120
-674,393	53,056	-0,074	-0,052
-673,378	-46,834	-0,105	0,037
-672,364	7,169	-0,166	-0,091
-671,349	112,693	-0,045	0,040
-670,335	-83,342	-0,077	0,018
-669,320	113,828	0,077	-0,068
-668,305	-200,000	0,038	0,136
-667,291	1,999	0,045	-0,024
-666,276	117,244	0,055	-0,050
-665,262	324,046	-0,054	0,075
-664,247	-200,000	-0,037	-0,133
-663,232	48,758	0,123	-0,085
-662,218	-72,279	-0,097	0,026
-661,203	-17,087	0,091	0,042
-660,189	800,000	0,024	0,051
-659,174	-38,627	0,098	0,038
-658,159	-95,074	-0,146	0,029
-657,145	365,256	-0,033	0,049
-656,130	87,571	0,035	0,029
-655,116	574,823	-0,064	-0,116
-654,101	227,488	0,073	-0,088
-653,086	800,000	0,030	-0,093
-652,072	-200,000	-0,003	-0,021
-651,057	800,000	-0,033	-0,078
-650,043	-7,902	-0,122	-0,060
-649,028	21,317	0,071	-0,042
-648,014	-200,000	0,009	-0,045
-646,999	230,528	0,045	0,054
-645,984	-17,526	-0,018	0,008
-644,970	-81,291	0,042	-0,010
-643,955	-200,000	0,036	0,129
-642,941	-200,000	-0,019	-0,111
-641,926	108,513	-0,077	-0,067
-640,911	-200,000	-0,017	-0,162
-639,897	-77,418	0,151	-0,038
-638,882	-200,000	-0,013	0,115
-637,868	528,589	-0,011	0,019
-636,853	-200,000	0,023	-0,125
-635,838	-33,033	-0,154	-0,062
-634,824	495,938	-0,030	0,050
-633,809	800,000	-0,034	0,071
-632,795	283,776	0,106	0,141
-631,780	453,780	-0,026	-0,043
-630,765	35,854	-0,092	0,059
-629,751	-200,000	-0,006	-0,020
-628,736	-200,000	-0,023	-0,118
-627,722	564,918	-0,014	-0,025
-626,707	95,407	-0,075	-0,063
-625,692	551,191	0,022	0,038
-624,678	473,191	-0,010	0,016
-623,663	-200,000	-0,013	-0,058
-622,649	67,107	-0,048	-0,036
-621,634	152,975	-0,072	0,072
-620,619	-168,035	0,079	-0,002
-619,605	90,161	0,045	-0,037
-618,590	-200,000	-0,002	-0,047
-617,576	92,606	0,078	0,064
-616,561	-200,000	-0,008	0,079
-615,546	57,297	0,092	0,066
-614,532	307,155	-0,090	-0,124
-613,517	56,600	-0,083	-0,059
-612,503	-163,744	-0,024	0,001
-611,488	439,188	0,086	-0,139
-610,474	432,967	0,026	0,041
-609,459	-200,000	-0,005	0,117
-608,444	-200,000	0,006	0,034
-607,430	-200,000	-0,013	-0,051
-606,415	5,081	0,045	-0,024
-605,401	-120,882	0,053	-0,006
-604,386	247,605	0,024	0,030
-603,371	13,283	0,056	0,032
-602,357	-151,413	-0,124	-0,007
-601,342	-17,271	-0,061	-0,028
-600,328	-62,157	-0,071	0,022
-599,313	621,699	0,044	-0,082
-598,298	98,348	0,056	0,047
-597,284	516,786	0,047	0,080
-596,269	-70,966	-0,089	0,024
-595,255	419,655	0,035	0,055
-594,240	-200,000	-0,021	-0,128
-593,225	800,000	0,046	-0,111
-592,211	-170,087	-0,053	-0,001
-591,196	105,083	-0,108	-0,093
-590,182	73,632	0,038	-0,029
-589,167	-200,000	0,006	0,049
-588,152	209,353	-0,043	-0,050
-587,138	-149,339	0,005	-0,000
-586,123	-200,000	-0,029	-0,133
-585,109	800,000	-0,045	-0,124
-584,094	260,580	-0,051	-0,065
-583,079	-200,000	0,014	0,120
-582,065	486,018	0,063	-0,105
-581,050	181,132	-0,085	-0,092
-580,036	128,611	-0,007	-0,007
-579,021	196,233	-0,140	-0,157
-578,006	-121,150	0,129	0,016
-576,992	12,779	0,053	0,030
-575,977	800,000	0,042	-0,090
-574,963	-43,756	0,061	-0,022
-573,948	137,064	-0,080	0,076
-572,934	-22,267	-0,085	0,038
-571,919	-200,000	0,024	0,089
-570,904	444,722	-0,029	0,047
-569,890	82,372	0,086	0,069
-568,875	13,354	0,054	-0,031
-567,861	736,602	-0,016	-0,031
-566,846	22,642	0,031	-0,019
-565,831	427,509	-0,055	0,087
-564,817	310,622	-0,104	-0,144
-563,802	144,637	-0,017	-0,016
-562,788	91,447	0,029	0,024
-561,773	361,277	0,053	-0,079
-560,758	-62,839	0,215	-0,065
-559,744	-40,214	-0,079	-0,030
-558,729	-46,098	0,017	0,006
-557,715	-200,000	0,022	-0,108
-556,700	-150,614	-0,178	-0,010
-555,685	-191,745	-0,070	-0,000
-554,671	367,001	-0,032	-0,047
-553,656	15,450	-0,004	-0,002
-552,642	111,316	0,107	0,095
-551,627	38,287	0,013	-0,008
-550,612	800,000	-0,024	0,065
-549,598	-40,478	-0,078	0,029
-548,583	106,363	0,032	-0,028
-547,569	80,445	0,052	-0,041
-546,554	-200,000	0,012	0,090
-545,539	-17,590	-0,154	0,071
-544,525	-200,000	-0,037	0,160
-543,510	-160,736	-0,200	0,008
-542,496	591,271	-0,045	-0,081
-541,481	-160,727	-0,194	0,007
-540,466	425,884	0,067	0,105
-539,452	-100,139	-0,010	0,002
-538,437	800,000	-0,039	0,102
-537,423	800,000	0,036	0,115
-536,408	-17,944	-0,116	0,053
-535,393	222,367	-0,097	0,114
-534,379	109,178	0,108	-0,095
-533,364	-57,502	0,176	0,056
-532,350	-152,918	0,149	0,008
-531,335	-200,000	0,028	0,140
-530,321	209,446	0,097	0,111
-529,306	260,321	-0,106	0,134
-528,291	800,000	-0,014	0,034
-527,277	-73,744	-0,145	-0,038
-526,262	800,000	-0,014	-0,040
-525,248	-200,000	-0,009	0,042
-524,233	6,714	0,013	-0,007
-523,218	30,391	0,124	-0,077
-522,204	-200,000	-0,018	0,062
-521,189	121,893	-0,051	0,046
-520,175	166,490	-0,030	-0,031
-519,160	-200,000	-0,024	-0,121
-518,145	-35,211	0,105	0,041
-517,131	-200,000	0,003	-0,021
-516,116	-200,000	0,000	0,088
-515,102	56,099	0,033	-0,023
-514,087	800,000	-0,023	0,070
-513,072	-55,072	0,095	0,031
-512,058	78,464	-0,078	0,061
-511,043	-200,000	0,006	-0,073
-510,029	-68,779	0,202	0,057
-509,014	87,235	0,098	0,079
-507,999	91,221	-0,031	-0,025
-506,985	47,177	-0,065	-0,044
-505,970	800,000	-0,007	0,016
-504,956	186,980	0,056	-0,061
-503,941	-200,000	-0,008	0,076
-502,926	800,000	0,027	0,068
-501,912	353,819	-0,042	0,061
-500,897	213,831	-0,068	-0,079
-499,883	148,865	0,111	-0,110
-498,868	-13,023	0,096	-0,046
-497,853	355,737	0,067	-0,097
-496,839	-31,995	0,094	-0,038
-495,824	579,395	0,019	-0,035
-494,810	-144,619	0,102	-0,007
-493,795	-200,000	-0,005	-0,062
-492,781	0,795	0,064	-0,033
-491,766	-30,795	0,062	-0,026
-490,751	-78,794	-0,152	-0,038
-489,737	139,611	0,107	0,103
-488,722	275,760	0,023	-0,030
-487,708	-71,001	0,154	-0,042
-486,693	107,396	0,018	-0,016
-485,678	115,660	0,058	0,052
-484,664	-90,286	-0,097	-0,020
-483,649	285,360	-0,136	-0,180
-482,635	800,000	-0,014	-0,033
-481,620	-35,915	0,082	0,032
-480,605	800,000	-0,006	0,020
-479,591	800,000	0,013	0,039
-478,576	-200,000	0,002	0,157
-477,562	399,709	0,009	-0,013
-476,547	60,481	0,049	0,035
-475,532	-101,024	0,122	-0,022
-474,518	-25,778	0,174	0,074
-473,503	-23,734	0,136	-0,059
-472,489	800,000	0,015	0,037
-471,474	83,188	0,041	-0,033
-470,459	-60,694	-0,114	0,035
-469,445	-67,320	-0,075	-0,021
-468,430	36,674	-0,094	-0,060
-467,416	-200,000	-0,039	-0,158
-466,401	4,909	0,194	0,104
-465,386	9,481	0,058	-0,032
-464,372	71,361	-0,057	-0,043
-463,357	-162,628	-0,071	0,003
-462,343	-200,000	-0,032	-0,128
-461,328	334,053	0,035	0,049
-460,313	800,000	-0,034	0,100
-459,299	-200,000	-0,008	0,047
-458,284	800,000	-0,077	-0,160
-457,270	715,199	-0,008	-0,016
-456,255	800,000	0,017	-0,054
-455,241	33,273	0,051	0,032
-454,226	101,505	-0,090	0,076
-453,211	23,787	-0,114	0,068
-452,197	800,000	-0,012	0,036
-451,182	159,971	-0,108	-0,110
-450,168	-54,601	0,100	-0,033
-449,153	-147,619	-0,090	0,005
-448,138	534,954	-0,053	-0,091
-447,124	8,849	-0,027	-0,015
-446,109	800,000	0,038	-0,103
-445,095	-26,200	0,109	0,046
-444,080	-200,000	0,033	0,254
-443,065	800,000	-0,033	0,083
-442,051	-152,729	-0,128	0,007
-441,036	791,433	-0,009	0,018
-440,022	46,630	0,056	-0,038
-439,007	-200,000	-0,029	0,100
-437,992	-200,000	0,024	-0,144
-436,978	-200,000	0,005	0,016
-435,963	-106,337	-0,086	-0,014
-434,949	-200,000	-0,047	-0,177
-433,934	800,000	-0,047	-0,147
-432,919	-200,000	0,002	0,019
-431,905	124,921	-0,055	0,051
-430,890	800,000	0,034	0,075
-429,876	12,181	0,040	0,022
-428,861	323,214	0,089	-0,124
-427,846	800,000	-0,040	-0,087
-426,832	352,153	0,073	0,106
-425,817	800,000	-0,027	-0,059
-424,803	-186,721	-0,107	-0,001
-423,788	-200,000	0,079	0,294
-422,773	503,652	-0,097	0,163
-421,759	337,478	0,048	0,068
-420,744	-200,000	-0,002	-0,009
-419,730	-200,000	-0,010	0,126
-418,715	-68,537	-0,043	-0,012
-417,701	-93,486	0,121	0,024
-416,686	-141,774	0,078	0,006
-415,671	544,227	-0,031	0,054
-414,657	-200,000	0,002	0,053
-413,642	-200,000	-0,005	0,060
-412,628	-200,000	0,005	-0,059
-411,613	-91,452	-0,094	-0,019
-410,598	66,587	-0,100	-0,074
-409,584	-61,587	0,050	0,015
-408,569	-130,195	0,064	-0,006
-407,555	-200,000	0,004	0,064
-406,540	229,989	0,058	-0,070
-405,525	-41,976	-0,169	-0,062
-404,511	-200,000	0,008	-0,053
-403,496	5,973	0,079	-0,042
-402,482	39,393	-0,196	0,128
-401,467	800,000	0,074	-0,152
-400,452	-162,987	-0,007	0,000
-399,438	-177,048	0,106	0,002
-398,423	54,235	-0,097	0,068
-397,409	-63,379	0,075	-0,022
-396,394	352,955	-0,017	0,024
-395,379	800,000	0,049	-0,118
-394,365	-200,000	-0,009	-0,076
-393,350	800,000	0,038	-0,119
-392,336	-101,308	-0,100	0,018
-391,321	800,000	0,016	0,043
-390,306	-31,679	-0,067	-0,027
-389,292	800,000	-0,026	0,066
-388,277	-200,000	-0,003	0,054
-387,263	-109,616	0,177	-0,027
-386,248	-54,150	0,059	-0,019
-385,233	-166,989	0,098	-0,003
-384,219	192,908	-0,019	0,021
-383,204	-200,000	-0,012	0,043
-382,190	-200,000	-0,007	-0,070
-381,175	-200,000	-0,025	-0,117
-380,160	230,154	0,067	0,080
-379,146	-31,368	-0,021	-0,009
-378,131	-200,000	-0,001	0,069
-377,117	282,065	0,047	-0,061
-376,102	93,200	0,014	-0,011
-375,088	-166,430	-0,100	-0,003
-374,073	94,236	-0,038	-0,031
-373,058	673,674	-0,012	0,023
-372,044	33,242	0,114	-0,072
-371,029	29,351	0,093	-0,057
-370,015	77,933	-0,137	0,106
-369,000	800,000	-0,011	-0,028
-367,985	366,659	-0,024	0,035
-366,971	-200,000	0,006	0,029
-365,956	3,676	-0,099	-0,052
-364,942	-5,682	0,072	0,036
-363,927	-30,569	0,121	0,050
-362,912	800,000	0,027	0,078
-361,898	800,000	-0,011	0,026
-360,883	316,804	0,018	0,025
-359,869	84,638	-0,086	-0,068
-358,854	800,000	-0,012	0,024
-357,839	-200,000	-0,005	0,077
-356,825	-15,746	0,140	-0,065
-355,810	188,014	-0,022	0,024
-354,796	-200,000	0,002	0,033
-353,781	800,000	0,012	0,030
-352,766	110,164	-0,046	-0,040
-351,752	-200,000	-0,018	0,059
-350,737	800,000	0,031	-0,087
-349,723	-133,597	0,047	-0,004
-348,708	800,000	-0,039	0,094
-347,693	273,716	0,031	0,040
-346,679	206,060	-0,060	-0,068
-345,664	-200,000	0,022	0,093
-344,650	-178,611	-0,156	-0,003
-343,635	-73,509	-0,017	0,004
-342,620	-31,283	0,052	-0,021
-341,606	-200,000	-0,003	-0,091
-340,591	-129,961	0,076	0,008
-339,577	-200,000	-0,015	-0,051
-338,562	-43,416	-0,141	-0,051
-337,548	127,544	0,148	-0,137
-336,533	800,000	0,019	0,050
-335,518	-200,000	0,034	0,111
-334,504	161,899	-0,068	0,069
-333,489	-29,858	0,098	-0,040
-332,475	175,809	0,005	0,005
-331,460	800,000	-0,029	-0,075
-330,445	291,819	0,053	0,070
-329,431	-200,000	-0,045	0,201
-328,416	-145,621	0,073	0,005
-327,402	800,000	0,031	-0,093
-326,387	427,854	0,048	0,076
-325,372	-8,114	-0,144	-0,070
-324,358	71,089	-0,093	0,070
-323,343	800,000	0,029	0,059
-322,329	-200,000	-0,020	-0,073
-321,314	279,298	-0,027	0,036
-320,299	214,738	0,065	0,074
-319,285	-88,511	0,043	-0,009
-318,270	101,314	-0,044	-0,037
-317,256	98,919	-0,053	-0,045
-316,241	-107,646	-0,080	-0,012
-315,226	492,653	0,105	0,175
-314,212	-74,451	0,135	0,035
-313,197	-115,793	-0,068	-0,009
-312,183	18,057	-0,107	-0,062
-311,168	30,118	-0,023	0,014
-310,153	-73,001	0,058	0,015
-309,139	562,921	-0,022	-0,039
-308,124	-27,167	-0,090	-0,038
-307,110	-200,000	0,015	0,131
-306,095	-139,541	-0,182	-0,014
-305,080	-106,802	-0,052	0,008
-304,066	-200,000	0,010	-0,072
-303,051	-200,000	0,008	0,047
-302,037	-200,000	-0,011	-0,092
-301,022	-200,000	0,027	0,098
-300,008	-152,108	0,022	0,001
-298,993	381,934	-0,018	0,027
-297,978	-160,163	0,116	-0,004
-296,964	31,259	-0,142	-0,088
-295,949	-70,004	0,059	-0,016
-294,935	-132,473	0,034	-0,003
-293,920	800,000	-0,045	0,107
-292,905	-38,178	0,031	-0,012
-291,891	800,000	-0,015	0,038
-290,876	441,897	0,073	0,115
-289,862	-149,512	0,198	0,011
-288,847	-200,000	0,012	-0,112
-287,832	42,889	-0,048	0,031
-286,818	-86,609	-0,104	-0,023
-285,803	190,810	0,084	-0,092
-284,789	116,723	0,060	0,054
-283,774	-61,444	0,093	0,028
-282,759	272,890	0,031	0,039
-281,745	-59,865	0,049	0,015
-280,730	145,109	0,025	0,025
-279,716	115,246	0,044	0,039
-278,701	-200,000	0,025	-0,166
-277,686	-200,000	-0,001	0,020
-276,672	269,824	0,100	-0,127
-275,657	-200,000	0,007	0,088
-274,643	228,374	-0,016	-0,019
-273,628	297,243	0,072	-0,096
-272,613	-112,434	-0,089	-0,013
-271,599	10,255	-0,098	0,054
-270,584	589,995	0,012	-0,022
-269,570	253,067	0,076	-0,094
-268,555	-62,302	0,154	0,046
-267,540	-6,100	0,090	-0,044
-266,526	-200,000	-0,018	-0,060
-265,511	-115,347	-0,101	-0,014
-264,497	-38,747	0,085	0,032
-263,482	88,622	0,027	0,022
-262,467	178,983	-0,049	0,052
-261,453	90,563	-0,094	0,076
-260,438	-200,000	-0,008	-0,122
-259,424	220,072	-0,039	-0,045
-258,409	800,000	0,083	-0,175
-257,395	-200,000	0,005	0,055
-256,380	143,480	0,125	0,121
-255,365	-200,000	-0,001	0,004
-254,351	116,804	0,089	0,079
-253,336	-200,000	0,007	-0,058
-252,322	549,124	0,063	-0,110
-251,307	-104,576	-0,045	-0,008
-250,292	254,357	-0,061	0,075
-249,278	-200,000	0,004	0,020
-248,263	-109,583	-0,096	-0,015
-247,249	119,812	0,022	-0,020
-246,234	125,010	-0,070	-0,064
-245,219	-200,000	0,005	0,094
-244,205	317,478	-0,050	-0,069
-243,190	-76,177	0,051	-0,013
-242,176	84,858	-0,047	0,037
-241,161	36,152	-0,093	0,059
-240,146	734,214	-0,032	-0,061
-239,132	-200,000	-0,015	0,091
-238,117	497,957	-0,016	0,027
-237,103	-200,000	0,019	0,080
-236,088	176,149	0,080	-0,084
-235,073	-200,000	-0,007	0,046
-234,059	-27,069	0,042	-0,018
-233,044	137,061	0,034	-0,033
-232,030	-200,000	-0,019	-0,108
-231,015	800,000	-0,040	-0,096
-230,000	93,064	-0,035	-0,028
-228,986	270,564	-0,045	0,058
-227,971	-200,000	-0,023	0,113
-226,957	-36,140	-0,027	-0,011
-225,942	-200,000	0,011	-0,035
-224,927	-115,661	-0,109	0,015
-223,913	-116,217	-0,145	0,019
-222,898	-151,539	-0,188	0,010
-221,884	-200,000	-0,017	-0,094
-220,869	-164,832	0,087	0,003
-219,855	67,149	-0,028	0,021
-218,840	0,498	0,119	-0,061
-217,825	-200,000	-0,008	0,064
-216,811	394,434	-0,043	-0,065
-215,796	709,923	0,069	0,132
-214,782	800,000	-0,019	0,058
-213,767	-103,712	-0,053	-0,009
-212,752	-200,000	-0,020	-0,109
-211,738	-39,833	-0,177	-0,066
-210,723	191,266	0,041	-0,045
-209,709	-63,833	-0,130	0,038
-208,694	273,580	-0,074	-0,095
-207,679	-57,585	0,040	-0,013
-206,665	-200,000	0,016	-0,150
-205,650	800,000	-0,032	0,074
-204,636	800,000	0,044	0,100
-203,621	410,797	-0,057	0,087
-202,606	597,564	-0,047	0,084
-201,592	-161,224	-0,044	0,002
-200,577	-200,000	0,034	0,115
-199,563	-200,000	-0,000	-0,183
-198,548	-200,000	0,058	0,193
-197,533	800,000	0,029	0,073
-196,519	3,718	-0,106	0,056
-195,504	-31,401	0,027	0,011
-194,490	173,522	0,076	-0,079
-193,475	224,214	-0,060	-0,070
-192,460	19,992	-0,080	-0,046
-191,446	800,000	0,023	0,051
-190,431	268,066	0,131	0,165
-189,417	-122,122	-0,031	-0,004
-188,402	-54,107	-0,016	-0,005
-187,387	-108,995	-0,065	0,010
-186,373	233,291	-0,083	-0,099
-185,358	125,747	-0,082	-0,075
-184,344	-26,081	-0,055	-0,023
-183,329	-200,000	0,012	-0,048
-182,315	96,093	0,041	-0,034
-181,300	800,000	-0,020	0,057
-180,285	85,999	-0,016	0,013
-179,271	563,671	0,011	-0,019
-178,256	-200,000	-0,006	0,049
-177,242	53,030	-0,041	0,028
-176,227	-200,000	0,032	0,124
-175,212	800,000	-0,010	-0,021
-174,198	-137,185	0,014	-0,001
-173,183	800,000	-0,072	-0,161
-172,169	-200,000	-0,001	-0,013
-171,154	-200,000	-0,014	-0,128
-170,139	800,000	0,025	0,078
-169,125	461,221	-0,010	-0,015
-168,110	71,048	0,055	0,041
-167,096	374,311	0,038	0,056
-166,081	305,358	0,031	-0,042
-165,066	-200,000	-0,002	-0,148
-164,052	-200,000	0,046	-0,213
-163,037	54,661	0,114	0,079
-162,023	-22,658	-0,063	0,027
-161,008	212,464	0,157	0,179
-159,993	46,592	0,074	0,049
-158,979	-48,568	-0,196	-0,067
-157,964	531,881	-0,038	0,065
-156,950	15,327	-0,098	-0,055
-155,935	-96,994	0,094	0,018
-154,920	32,729	0,172	0,107
-153,906	-200,000	0,005	0,072
-152,891	-33,595	0,129	0,051
-151,877	800,000	-0,027	-0,059
-150,862	-119,456	-0,205	-0,025
-149,847	503,487	0,056	0,094
-148,833	-200,000	0,018	-0,108
-147,818	537,618	-0,072	0,124
-146,804	224,948	0,035	0,041
-145,789	800,000	-0,032	0,086
-144,775	-57,665	0,096	0,030
-143,760	-25,785	0,164	-0,069
-142,745	-79,279	-0,045	-0,011
-141,731	800,000	-0,068	0,140
-140,716	-200,000	0,003	0,058
-139,702	235,077	0,060	0,071
-138,687	800,000	-0,026	0,074
-137,672	-200,000	-0,006	0,025
-136,658	-200,000	-0,022	0,112
-135,643	-200,000	0,015	0,104
-134,629	-200,000	-0,002	-0,142
-133,614	265,930	0,065	-0,082
-132,599	83,472	-0,029	0,022
-131,585	-78,791	-0,101	0,025
-130,570	-176,484	-0,094	-0,002
-129,556	-200,000	0,005	-0,085
-128,541	-200,000	-0,025	-0,170
-127,526	-200,000	-0,021	0,104
-126,512	126,466	0,071	-0,065
-125,497	125,667	-0,064	-0,058
-124,483	449,650	0,076	0,121
-123,468	-8,659	0,141	0,068
-122,453	173,261	-0,097	-0,100
-121,439	-69,718	0,018	0,005
-120,424	-157,151	0,051	0,002
-119,410	107,499	-0,125	0,107
