DTS Sentinel unit serial number:	SN410029Multiplexer serial number:	ORYXHardware model number:	OX2-SRSoftware version number:	ORYX F/W v4,00 Oryx Data Collector v3.7.2.0data status	okinstallation	B6 Nyhavnadifferential loss correction	single-endedforward channel	channel 2reverse channel	N/Adate	2023/12/10time	06:40:08forward acquisition time	300,00reverse acquisition time	0,00gamma	499,1914k internal	0,3124k external	0,3124temperature offset calibration	1,0000default loss term (dB/km)	0,3820temperature slope calibration	1,0000multiplexer offset coefficient	1,0000multiplexer slope coefficient	1,0000fibre end	0,00T internal ref (°C)	22,62T ext. ref 1 (°C)	6,44T ext. ref 2 (°C)	6,42length (m)	temperature (°C)	Stokes	anti-Stokes-744,400	151,642	-0,063	-0,064
-743,385	72,488	-0,225	0,175
-742,371	391,855	0,098	-0,152
-741,356	244,268	-0,170	0,213
-740,342	800,000	-0,016	0,041
-739,327	23,840	-0,198	0,121
-738,312	-200,000	-0,001	-0,077
-737,298	-145,581	-0,136	0,009
-736,283	800,000	0,040	-0,096
-735,269	62,706	-0,228	0,169
-734,254	-37,524	0,071	-0,028
-733,239	-39,061	-0,359	-0,140
-732,225	-149,159	0,200	0,012
-731,210	-92,788	0,116	0,024
-730,196	800,000	-0,056	-0,115
-729,181	-200,000	-0,015	-0,124
-728,167	57,749	0,140	-0,102
-727,152	251,462	0,034	-0,043
-726,137	270,746	-0,107	-0,140
-725,123	-80,706	0,150	-0,037
-724,108	-200,000	0,001	-0,043
-723,094	323,568	-0,067	-0,096
-722,079	-26,027	-0,152	-0,066
-721,064	176,336	-0,123	-0,134
-720,050	800,000	0,052	-0,158
-719,035	36,827	-0,045	-0,030
-718,021	51,456	-0,044	0,031
-717,006	38,078	-0,075	0,049
-715,991	273,912	0,009	0,011
-714,977	118,789	-0,143	-0,132
-713,962	-200,000	-0,029	-0,176
-712,948	-200,000	-0,017	0,105
-711,933	63,937	-0,103	-0,077
-710,918	45,456	0,092	-0,063
-709,904	2,896	0,125	-0,067
-708,889	104,111	-0,076	-0,067
-707,875	-57,562	-0,245	-0,080
-706,860	-200,000	-0,006	-0,138
-705,845	558,878	0,031	-0,056
-704,831	-75,688	0,119	-0,031
-703,816	82,677	-0,082	0,066
-702,802	-200,000	0,014	0,082
-701,787	800,000	-0,036	-0,103
-700,772	19,252	0,124	-0,074
-699,758	-85,627	0,219	-0,050
-698,743	800,000	-0,014	0,029
-697,729	25,934	-0,102	-0,063
-696,714	583,253	-0,062	0,115
-695,699	561,619	-0,068	-0,123
-694,685	-21,443	-0,086	-0,039
-693,670	83,114	-0,053	0,043
-692,656	64,261	-0,044	0,033
-691,641	614,855	-0,054	0,102
-690,627	-200,000	-0,066	0,223
-689,612	200,200	0,017	0,019
-688,597	-34,835	-0,061	0,025
-687,583	-1,855	-0,063	0,033
-686,568	102,626	-0,086	-0,075
-685,554	149,961	0,043	0,043
-684,539	-200,000	0,017	-0,117
-683,524	-165,301	0,066	0,002
-682,510	-65,397	-0,164	0,049
-681,495	97,099	-0,108	-0,092
-680,481	10,444	0,070	0,040
-679,466	109,393	-0,021	0,019
-678,451	341,752	-0,043	-0,063
-677,437	-200,000	-0,038	-0,177
-676,422	278,169	-0,020	0,026
-675,408	286,094	-0,060	-0,080
-674,393	44,778	0,062	-0,042
-673,378	5,405	-0,206	-0,113
-672,364	-200,000	0,016	-0,075
-671,349	109,457	-0,070	0,062
-670,335	91,288	-0,013	0,011
-669,320	-75,186	0,075	-0,020
-668,305	-49,479	0,127	0,045
-667,291	-129,255	0,094	0,010
-666,276	581,448	-0,062	-0,114
-665,262	99,033	0,015	-0,013
-664,247	-83,780	-0,151	-0,035
-663,232	85,252	0,048	-0,039
-662,218	-200,000	-0,015	0,052
-661,203	-66,338	-0,105	0,031
-660,189	-16,726	-0,115	0,054
-659,174	-200,000	0,034	-0,174
-658,159	800,000	-0,043	-0,132
-657,145	98,631	0,028	-0,024
-656,130	-109,314	0,075	-0,012
-655,116	172,632	0,074	-0,080
-654,101	-56,106	0,087	-0,029
-653,086	70,465	-0,091	0,069
-652,072	655,416	-0,036	0,069
-651,057	78,643	-0,036	-0,028
-650,043	-156,268	0,150	0,007
-649,028	661,908	-0,077	-0,149
-648,014	-131,073	0,174	-0,017
-646,999	-33,617	0,141	-0,058
-645,984	542,553	-0,024	-0,043
-644,970	-200,000	-0,007	-0,147
-643,955	-37,033	-0,035	-0,014
-642,941	146,676	-0,095	-0,095
-641,926	800,000	-0,023	-0,071
-640,911	-1,718	0,206	0,107
-639,897	-200,000	0,008	-0,037
-638,882	123,150	0,041	-0,038
-637,868	-200,000	-0,006	-0,060
-636,853	-104,205	-0,083	0,014
-635,838	800,000	-0,002	-0,005
-634,824	34,226	-0,142	-0,091
-633,809	-1,749	-0,055	-0,028
-632,795	-81,040	-0,093	0,023
-631,780	85,562	0,045	0,036
-630,765	-83,101	-0,061	-0,014
-629,751	-200,000	-0,008	-0,094
-628,736	190,830	-0,105	-0,117
-627,722	-93,836	-0,101	0,020
-626,707	800,000	0,018	-0,060
-625,692	479,206	0,058	-0,097
-624,678	-14,403	-0,020	0,009
-623,663	637,057	-0,076	-0,144
-622,649	-181,288	-0,041	-0,001
-621,634	711,839	-0,039	-0,076
-620,619	-200,000	-0,010	-0,275
-619,605	-29,005	-0,045	0,019
-618,590	48,924	-0,015	-0,011
-617,576	-34,186	0,150	0,061
-616,561	-18,891	-0,054	-0,025
-615,546	-119,439	-0,121	-0,015
-614,532	-57,963	-0,154	0,050
-613,517	319,112	-0,055	-0,077
-612,503	800,000	0,033	0,099
-611,488	800,000	0,013	-0,029
-610,474	189,679	0,067	-0,075
-609,459	267,829	0,050	-0,065
-608,444	-200,000	0,018	0,089
-607,430	582,380	-0,042	0,076
-606,415	-200,000	-0,032	-0,228
-605,401	635,302	0,030	-0,057
-604,386	92,629	0,089	0,074
-603,371	58,136	-0,084	0,061
-602,357	-200,000	0,007	0,107
-601,342	-87,852	-0,173	0,038
-600,328	64,536	-0,055	0,041
-599,313	153,534	0,063	0,064
-598,298	157,894	0,079	-0,082
-597,284	-200,000	0,042	-0,147
-596,269	800,000	0,024	-0,066
-595,255	-200,000	-0,018	0,259
-594,240	-149,180	-0,131	0,008
-593,225	-58,555	0,028	-0,009
-592,211	-200,000	-0,044	-0,165
-591,196	-200,000	0,006	0,045
-590,182	-200,000	0,039	-0,214
-589,167	108,257	0,068	0,060
-588,152	-200,000	-0,010	0,088
-587,138	-43,723	-0,111	-0,041
-586,123	75,138	-0,175	-0,137
-585,109	356,704	-0,105	-0,156
-584,094	-200,000	0,020	0,102
-583,079	-43,768	0,060	0,022
-582,065	-200,000	-0,008	-0,080
-581,050	800,000	-0,001	0,002
-580,036	-120,922	-0,132	0,016
-579,021	-200,000	-0,013	-0,047
-578,006	-200,000	-0,009	-0,053
-576,992	324,843	-0,017	-0,024
-575,977	424,194	0,032	-0,052
-574,963	233,343	0,100	0,122
-573,948	800,000	-0,062	0,151
-572,934	-113,440	-0,092	-0,013
-571,919	800,000	0,020	0,060
-570,904	55,997	-0,052	0,037
-569,890	-193,262	-0,075	-0,000
-568,875	-133,741	-0,014	0,001
-567,861	-36,808	0,136	0,054
-566,846	-38,600	-0,217	-0,084
-565,831	120,385	-0,133	0,122
-564,817	-26,097	0,095	0,041
-563,802	108,798	0,175	-0,155
-562,788	279,087	-0,079	-0,105
-561,773	31,883	-0,079	0,050
-560,758	-69,910	0,069	0,019
-559,744	-32,583	0,044	0,018
-558,729	122,555	0,037	-0,034
-557,715	-12,499	-0,194	-0,093
-556,700	-92,174	0,065	-0,014
-555,685	-200,000	0,012	-0,120
-554,671	-168,500	-0,124	0,003
-553,656	305,108	0,052	0,072
-552,642	47,604	0,062	-0,043
-551,627	-11,327	0,095	0,046
-550,612	-166,160	0,064	-0,002
-549,598	-146,120	-0,179	-0,011
-548,583	54,512	-0,066	-0,047
-547,569	-183,591	0,099	-0,001
-546,554	77,105	0,053	0,042
-545,539	-200,000	-0,005	0,059
-544,525	-15,605	0,135	0,064
-543,510	800,000	0,010	-0,030
-542,496	39,730	0,071	0,047
-541,481	793,296	0,032	-0,066
-540,466	168,414	-0,047	-0,050
-539,452	800,000	-0,043	-0,092
-538,437	61,782	0,137	-0,101
-537,423	3,151	-0,108	-0,058
-536,408	-200,000	-0,009	0,184
-535,393	536,994	-0,016	-0,029
-534,379	271,958	-0,019	0,025
-533,364	-200,000	-0,011	0,075
-532,350	90,144	0,086	0,071
-531,335	-142,622	0,160	0,011
-530,321	-87,183	-0,022	-0,005
-529,306	-61,366	-0,184	0,057
-528,291	800,000	0,019	-0,048
-527,277	-200,000	-0,021	0,073
-526,262	-60,465	-0,061	0,019
-525,248	140,414	0,096	0,093
-524,233	-154,724	0,062	0,003
-523,218	800,000	0,021	-0,059
-522,204	-108,668	-0,155	0,024
-521,189	-56,810	-0,078	-0,025
-520,175	-200,000	-0,031	-0,177
-519,160	-200,000	0,037	-0,158
-518,145	174,472	0,119	0,127
-517,131	120,445	-0,056	-0,051
-516,116	-55,891	0,103	-0,034
-515,102	800,000	-0,056	0,120
-514,087	85,457	0,030	0,024
-513,072	-171,838	-0,102	-0,002
-512,058	-36,453	0,104	0,041
-511,043	-111,556	-0,032	-0,005
-510,029	800,000	0,068	-0,171
-509,014	-123,256	0,098	0,011
-507,999	41,193	0,041	-0,027
-506,985	-123,372	-0,145	-0,017
-505,970	800,000	0,017	0,049
-504,956	800,000	0,006	-0,015
-503,941	800,000	0,031	-0,078
-502,926	185,848	0,148	0,163
-501,912	-200,000	-0,022	0,116
-500,897	121,354	0,073	-0,068
-499,883	-200,000	0,001	0,015
-498,868	44,670	-0,128	-0,087
-497,853	-2,866	-0,050	-0,026
-496,839	-200,000	0,004	-0,025
-495,824	-53,968	0,172	-0,057
-494,810	25,304	-0,062	-0,038
-493,795	-200,000	-0,011	0,144
-492,781	-200,000	0,007	-0,081
-491,766	578,789	-0,062	-0,112
-490,751	-200,000	0,022	-0,093
-489,737	-200,000	0,058	-0,195
-488,722	38,062	0,070	0,046
-487,708	632,990	-0,056	0,105
-486,693	21,268	-0,050	-0,030
-485,678	-200,000	0,009	0,107
-484,664	108,980	-0,107	-0,094
-483,649	-19,238	-0,076	-0,035
-482,635	-5,505	-0,050	0,025
-481,620	188,056	0,063	-0,070
-480,605	181,960	0,052	0,057
-479,591	15,781	0,091	-0,053
-478,576	137,339	-0,032	0,031
-477,562	-192,501	0,061	0,000
-476,547	147,097	-0,039	-0,039
-475,532	-45,514	-0,055	-0,020
-474,518	-200,000	0,008	0,049
-473,503	-200,000	0,006	-0,054
-472,489	151,232	-0,015	0,015
-471,474	800,000	0,050	0,132
-470,459	-47,864	-0,071	0,025
-469,445	-200,000	0,018	0,118
-468,430	-200,000	0,000	0,026
-467,416	-178,480	-0,034	-0,001
-466,401	-200,000	-0,012	0,167
-465,386	115,888	-0,016	-0,014
-464,372	-180,903	0,079	0,001
-463,357	-200,000	0,018	0,062
-462,343	-200,000	-0,015	-0,097
-461,328	-98,688	-0,044	-0,008
-460,313	-200,000	-0,024	0,102
-459,299	-200,000	0,008	0,092
-458,284	-156,037	-0,152	0,007
-457,270	-184,215	-0,111	-0,001
-456,255	-101,015	0,094	0,017
-455,241	2,677	-0,038	0,020
-454,226	-200,000	-0,003	0,114
-453,211	130,598	0,072	0,068
-452,197	145,663	0,057	0,057
-451,182	4,721	0,029	0,015
-450,168	320,453	0,089	0,124
-449,153	378,617	-0,092	0,139
-448,138	9,356	-0,037	-0,020
-447,124	15,277	-0,082	-0,047
-446,109	401,096	0,031	0,048
-445,095	132,222	0,113	0,107
-444,080	800,000	-0,079	0,183
-443,065	33,270	-0,058	0,037
-442,051	-200,000	-0,001	0,008
-441,036	320,034	-0,048	-0,067
-440,022	-200,000	-0,006	-0,083
-439,007	-200,000	0,011	-0,120
-437,992	189,414	0,027	-0,030
-436,978	374,957	0,039	-0,058
-435,963	-19,719	0,095	0,043
-434,949	83,053	-0,045	-0,036
-433,934	124,741	-0,042	-0,039
-432,919	-73,610	-0,085	0,023
-431,905	-200,000	0,019	-0,215
-430,890	-200,000	-0,009	0,077
-429,876	-2,571	0,122	0,063
-428,861	-78,995	0,044	0,011
-427,846	101,821	-0,002	0,002
-426,832	-46,012	0,073	-0,026
-425,817	253,988	0,047	-0,059
-424,803	2,538	-0,033	-0,017
-423,788	-142,472	0,172	0,012
-422,773	611,743	-0,011	-0,021
-421,759	171,363	0,060	0,063
-420,744	-200,000	-0,002	0,112
-419,730	5,369	-0,032	0,017
-418,715	800,000	0,045	-0,134
-417,701	145,982	0,109	-0,107
-416,686	457,087	-0,059	-0,097
-415,671	264,719	0,088	0,112
-414,657	-200,000	0,005	-0,032
-413,642	24,163	-0,096	-0,058
-412,628	103,522	0,026	-0,022
-411,613	122,764	0,127	0,117
-410,598	238,772	-0,051	-0,063
-409,584	-200,000	0,010	-0,097
-408,569	152,450	0,097	-0,098
-407,555	53,744	-0,034	0,024
-406,540	64,529	-0,061	0,045
-405,525	800,000	-0,025	0,081
-404,511	-70,735	-0,130	-0,036
-403,496	-44,955	0,049	-0,018
-402,482	-56,834	-0,049	0,016
-401,467	113,131	0,084	0,075
-400,452	-200,000	-0,022	0,130
-399,438	213,373	-0,089	0,104
-398,423	800,000	0,016	0,037
-397,409	-200,000	0,007	-0,056
-396,394	-200,000	0,011	-0,138
-395,379	149,337	0,065	0,065
-394,365	-91,474	-0,150	-0,031
-393,350	206,354	0,032	-0,037
-392,336	-200,000	-0,037	-0,180
-391,321	800,000	0,012	-0,037
-390,306	-200,000	0,001	-0,031
-389,292	800,000	-0,012	-0,025
-388,277	96,209	0,073	-0,061
-387,263	98,035	0,122	0,103
-386,248	51,570	0,084	-0,059
-385,233	-200,000	-0,017	0,062
-384,219	-123,026	0,046	0,005
-383,204	-50,481	0,038	-0,013
-382,190	685,968	-0,030	0,058
-381,175	34,832	0,020	-0,013
-380,160	-173,927	-0,118	-0,003
-379,146	-0,628	0,128	0,066
-378,131	-145,904	0,202	0,013
-377,117	0,213	-0,053	0,028
-376,102	-65,655	-0,085	-0,025
-375,088	93,434	0,021	-0,017
-374,073	-89,935	0,076	-0,016
-373,058	-200,000	-0,017	-0,062
-372,044	66,595	0,114	-0,085
-371,029	-200,000	-0,031	0,118
-370,015	95,891	0,054	-0,045
-369,000	-200,000	0,015	-0,072
-367,985	-161,966	-0,128	-0,005
-366,971	642,651	-0,037	-0,070
-365,956	66,558	-0,016	-0,012
-364,942	-200,000	0,015	0,055
-363,927	-112,309	-0,058	-0,008
-362,912	86,565	-0,057	0,046
-361,898	-8,922	0,072	-0,035
-360,883	238,437	-0,092	-0,112
-359,869	-5,169	-0,085	0,043
-358,854	2,323	-0,058	-0,031
-357,839	-200,000	0,013	0,117
-356,825	45,400	-0,086	-0,058
-355,810	15,229	0,078	-0,045
-354,796	237,803	0,123	-0,150
-353,781	-200,000	0,008	-0,049
-352,766	-108,409	0,033	0,005
-351,752	51,017	0,063	0,044
-350,737	800,000	0,015	-0,033
-349,723	-93,857	-0,054	0,011
-348,708	504,486	-0,050	-0,086
-347,693	800,000	-0,008	-0,019
-346,679	42,607	0,071	-0,047
-345,664	-34,150	-0,138	-0,055
-344,650	-45,812	0,061	-0,022
-343,635	-200,000	-0,013	0,096
-342,620	-83,838	0,122	0,028
-341,606	79,220	0,037	0,029
-340,591	-200,000	-0,006	-0,026
-339,577	59,074	-0,054	-0,039
-338,562	210,172	-0,038	0,044
-337,548	313,187	0,059	0,082
-336,533	-200,000	0,012	-0,040
-335,518	-23,685	0,028	-0,012
-334,504	572,834	0,085	0,152
-333,489	-200,000	0,002	0,090
-332,475	-200,000	0,012	-0,071
-331,460	183,018	-0,024	-0,026
-330,445	253,740	-0,031	0,039
-329,431	800,000	0,034	0,082
-328,416	37,346	0,082	0,054
-327,402	-21,126	0,115	0,052
-326,387	452,000	0,064	-0,105
-325,372	478,496	-0,070	-0,117
-324,358	685,352	0,039	-0,075
-323,343	82,791	-0,163	-0,130
-322,329	-130,610	0,093	0,009
-321,314	800,000	-0,041	-0,093
-320,299	615,679	-0,042	0,078
-319,285	-200,000	0,020	-0,064
-318,270	800,000	-0,020	-0,051
-317,256	-200,000	0,015	-0,080
-316,241	231,572	-0,076	-0,091
-315,226	69,823	0,088	-0,066
-314,212	234,569	0,061	0,074
-313,197	-189,561	0,081	-0,001
-312,183	-200,000	-0,010	0,035
-311,168	-119,098	-0,088	0,011
-310,153	800,000	0,010	-0,022
-309,139	-200,000	0,010	-0,159
-308,124	-200,000	0,003	-0,041
-307,110	-181,379	0,075	0,001
-306,095	-69,229	-0,111	-0,031
-305,080	42,255	0,130	0,087
-304,066	174,795	0,057	-0,061
-303,051	800,000	-0,055	0,122
-302,037	530,200	-0,020	-0,035
-301,022	-106,846	0,040	-0,007
-300,008	187,415	-0,039	0,042
-298,993	204,048	0,081	0,092
-297,978	-69,746	-0,033	0,009
-296,964	-132,550	-0,147	0,014
-295,949	362,134	-0,062	-0,092
-294,935	800,000	0,008	0,015
-293,920	28,745	0,140	0,087
-292,905	-200,000	-0,036	-0,174
-291,891	-200,000	0,006	0,177
-290,876	26,838	-0,074	-0,045
-289,862	-200,000	-0,006	-0,048
-288,847	698,552	-0,063	-0,122
-287,832	211,981	-0,007	-0,008
-286,818	35,181	-0,114	-0,073
-285,803	746,647	0,072	0,142
-284,789	42,810	-0,152	0,101
-283,774	89,305	0,118	0,096
-282,759	800,000	-0,050	-0,154
-281,745	-124,456	0,011	0,001
-280,730	180,689	0,032	-0,035
-279,716	-200,000	-0,025	0,081
-278,701	-200,000	-0,006	0,078
-277,686	27,652	0,176	0,108
-276,672	485,800	-0,031	0,052
-275,657	-64,708	-0,109	-0,032
-274,643	-200,000	0,008	0,035
-273,628	458,767	-0,040	-0,065
-272,613	-200,000	0,007	0,110
-271,599	-200,000	0,011	0,047
-270,584	-122,469	-0,058	-0,007
-269,570	301,800	-0,072	0,097
-268,555	-28,132	-0,043	-0,018
-267,540	86,095	-0,044	-0,035
-266,526	-200,000	0,006	-0,042
-265,511	207,786	0,054	-0,061
-264,497	-61,907	-0,056	-0,017
-263,482	-200,000	0,004	0,096
-262,467	-4,549	0,169	0,085
-261,453	292,929	-0,027	0,036
-260,438	-9,724	0,044	0,022
-259,424	163,207	0,073	-0,075
-258,409	2,183	-0,052	-0,028
-257,395	43,313	0,059	-0,040
-256,380	-200,000	0,002	0,063
-255,365	118,250	0,113	0,102
-254,351	58,575	0,104	0,075
-253,336	800,000	-0,038	-0,081
-252,322	800,000	0,054	0,111
-251,307	-115,585	-0,058	-0,008
-250,292	-142,208	0,124	0,009
-249,278	2,121	0,066	0,035
-248,263	-200,000	0,000	0,019
-247,249	-200,000	-0,029	0,114
-246,234	-158,893	0,089	0,004
-245,219	260,093	-0,032	-0,041
-244,205	460,688	-0,057	-0,093
-243,190	-113,330	0,051	0,007
-242,176	149,612	0,063	-0,062
-241,161	800,000	0,064	0,140
-240,146	-200,000	0,004	-0,049
-239,132	-200,000	0,046	0,183
-238,117	-80,434	0,039	-0,010
-237,103	2,378	0,133	-0,070
-236,088	-152,864	-0,088	-0,004
-235,073	102,368	-0,073	0,062
-234,059	800,000	-0,018	0,047
-233,044	800,000	0,031	0,079
-232,030	247,582	-0,097	-0,119
-231,015	-29,014	-0,139	-0,058
-230,000	156,532	0,019	-0,019
-228,986	217,365	0,046	0,054
-227,971	76,330	0,046	-0,035
-226,957	-2,835	-0,085	-0,043
-225,942	-200,000	0,008	0,093
-224,927	93,289	0,037	0,030
-223,913	713,810	0,050	-0,098
-222,898	73,986	-0,088	-0,068
-221,884	82,526	-0,112	-0,089
-220,869	140,034	0,101	0,097
-219,855	-200,000	-0,030	0,160
-218,840	-40,066	-0,058	0,022
-217,825	394,796	-0,043	0,065
-216,811	-52,491	-0,106	0,036
-215,796	23,232	0,095	0,057
-214,782	-5,232	-0,053	0,026
-213,767	2,550	0,099	0,052
-212,752	104,131	0,151	-0,129
-211,738	-104,438	0,024	-0,004
-210,723	-108,773	-0,085	-0,013
-209,709	-84,029	-0,051	0,012
-208,694	-5,896	-0,044	0,022
-207,679	800,000	-0,010	0,031
-206,665	-14,375	0,124	-0,058
-205,650	-200,000	-0,017	0,173
-204,636	-23,806	0,142	0,062
-203,621	-200,000	0,005	0,080
-202,606	-28,224	-0,152	-0,064
-201,592	800,000	0,009	-0,029
-200,577	-39,867	0,060	-0,023
-199,563	-93,128	0,009	-0,002
-198,548	308,248	0,044	0,060
-197,533	581,696	-0,043	0,077
-196,519	371,087	-0,034	0,050
-195,504	280,955	-0,055	0,073
-194,490	-70,592	-0,075	-0,021
-193,475	591,522	0,034	-0,062
-192,460	160,855	-0,140	-0,143
-191,446	-76,234	0,106	0,027
-190,431	-62,862	0,097	-0,029
-189,417	176,400	0,073	0,078
-188,402	751,851	-0,037	0,074
-187,387	440,020	-0,037	0,059
-186,373	-200,000	0,007	0,145
-185,358	-31,901	0,162	0,066
-184,344	137,597	-0,021	-0,020
-183,329	234,961	0,031	-0,037
-182,315	-65,375	0,055	-0,016
-181,300	-200,000	-0,003	-0,046
-180,285	-15,229	-0,199	-0,093
-179,271	-3,295	0,103	-0,052
-178,256	-71,078	-0,043	0,012
-177,242	-200,000	0,004	0,190
-176,227	-1,795	0,120	0,061
-175,212	61,842	0,053	0,038
-174,198	593,288	-0,022	0,039
-173,183	31,631	-0,091	0,057
-172,169	-200,000	-0,002	0,044
-171,154	-200,000	-0,003	-0,026
-170,139	-1,730	-0,039	0,020
-169,125	328,679	0,056	0,078
-168,110	-200,000	0,010	0,060
-167,096	1,684	0,042	-0,022
-166,081	457,064	-0,084	-0,137
-165,066	165,767	-0,052	0,054
-164,052	-47,465	0,084	-0,030
-163,037	-200,000	0,003	-0,045
-162,023	-200,000	-0,006	0,032
-161,008	545,844	-0,058	0,101
-159,993	-200,000	-0,015	0,064
-158,979	409,617	-0,132	0,205
-157,964	800,000	0,012	-0,031
-156,950	-200,000	0,002	-0,034
-155,935	-73,997	0,072	-0,019
-154,920	342,894	-0,049	-0,071
-153,906	-200,000	-0,039	0,151
-152,891	800,000	-0,087	0,186
-151,877	800,000	-0,048	0,103
-150,862	-39,727	-0,086	-0,032
-149,847	-138,941	0,122	-0,010
-148,833	721,448	-0,024	0,047
-147,818	800,000	-0,022	-0,062
-146,804	543,241	0,067	-0,116
-145,789	-106,220	-0,109	-0,018
-144,775	-200,000	0,028	0,139
-143,760	329,318	0,099	-0,139
-142,745	800,000	0,022	-0,062
-141,731	-200,000	0,014	0,049
-140,716	-200,000	-0,002	-0,091
-139,702	27,933	0,154	0,094
-138,687	800,000	0,026	0,063
-137,672	-150,011	-0,117	-0,007
-136,658	-93,991	0,030	0,006
-135,643	99,765	-0,131	-0,110
-134,629	162,966	-0,032	-0,033
-133,614	-200,000	-0,020	0,115
-132,599	-200,000	-0,001	0,066
-131,585	-116,795	0,123	-0,016
-130,570	-150,563	-0,084	0,005
-129,556	189,598	-0,075	-0,082
-128,541	800,000	-0,033	-0,084
-127,526	-200,000	-0,014	0,142
-126,512	42,840	0,102	0,068
-125,497	-187,666	-0,109	-0,001
-124,483	746,174	-0,011	0,021
-123,468	119,724	0,051	0,046
-122,453	192,686	-0,101	-0,111
-121,439	-41,981	-0,082	-0,030
-120,424	-200,000	-0,032	0,137
-119,410	269,532	0,022	-0,028
-118,395	249,272	0,092	0,114
