DTS Sentinel unit serial number:	SN410029Multiplexer serial number:	ORYXHardware model number:	OX2-SRSoftware version number:	ORYX F/W v4,00 Oryx Data Collector v3.7.2.0data status	okinstallation	B6 Nyhavnadifferential loss correction	single-endedforward channel	channel 2reverse channel	N/Adate	2023/12/09time	17:40:09forward acquisition time	300,00reverse acquisition time	0,00gamma	499,1914k internal	0,3130k external	0,3130temperature offset calibration	1,0000default loss term (dB/km)	0,3820temperature slope calibration	1,0000multiplexer offset coefficient	1,0000multiplexer slope coefficient	1,0000fibre end	0,00T internal ref (°C)	21,01T ext. ref 1 (°C)	4,72T ext. ref 2 (°C)	4,73length (m)	temperature (°C)	Stokes	anti-Stokes-744,400	-158,829	0,126	0,005
-743,385	-57,585	-0,262	0,085
-742,371	-17,439	-0,047	0,022
-741,356	154,166	-0,209	0,214
-740,342	-132,533	0,050	-0,005
-739,327	9,039	-0,209	0,117
-738,312	-19,324	0,094	-0,043
-737,298	-148,233	-0,319	0,019
-736,283	-156,727	0,160	0,007
-735,269	34,008	-0,208	0,134
-734,254	-187,658	0,087	0,001
-733,239	-181,534	-0,352	0,005
-732,225	-200,000	0,044	0,193
-731,210	-134,308	-0,041	0,004
-730,196	52,015	0,139	0,098
-729,181	-200,000	0,003	-0,051
-728,167	108,080	-0,045	0,040
-727,152	16,408	-0,160	-0,094
-726,137	-200,000	0,003	-0,036
-725,123	143,124	-0,105	-0,104
-724,108	800,000	-0,021	-0,064
-723,094	-200,000	0,036	-0,168
-722,079	80,664	-0,130	-0,104
-721,064	-200,000	-0,009	-0,060
-720,050	-1,114	-0,059	-0,031
-719,035	347,887	0,062	-0,090
-718,021	94,774	-0,084	-0,071
-717,006	800,000	0,020	-0,061
-715,991	-28,008	-0,071	0,030
-714,977	-31,146	-0,096	0,040
-713,962	-117,241	-0,153	-0,020
-712,948	734,528	0,017	-0,033
-711,933	187,309	0,092	-0,102
-710,918	127,470	-0,056	0,053
-709,904	98,779	-0,015	-0,013
-708,889	-200,000	-0,046	-0,152
-707,875	-200,000	0,040	-0,141
-706,860	177,645	0,061	-0,066
-705,845	656,379	0,043	-0,083
-704,831	135,151	-0,111	-0,108
-703,816	800,000	0,026	-0,072
-702,802	-81,566	0,128	0,031
-701,787	297,707	-0,120	-0,164
-700,772	491,143	-0,034	-0,058
-699,758	218,565	-0,041	-0,048
-698,743	-200,000	0,007	0,035
-697,729	800,000	0,034	0,075
-696,714	-200,000	-0,009	0,204
-695,699	171,961	-0,045	0,048
-694,685	-200,000	-0,018	0,071
-693,670	-200,000	-0,001	0,086
-692,656	38,964	-0,057	-0,038
-691,641	327,066	-0,026	0,037
-690,627	31,944	-0,122	0,078
-689,612	800,000	0,030	-0,088
-688,597	-200,000	-0,010	0,057
-687,583	38,933	0,104	-0,069
-686,568	53,114	0,024	-0,017
-685,554	-200,000	0,009	0,055
-684,539	-200,000	-0,006	0,131
-683,524	-132,743	-0,105	0,010
-682,510	80,784	0,123	0,098
-681,495	-80,439	-0,180	0,044
-680,481	33,290	-0,034	0,022
-679,466	205,316	0,065	-0,075
-678,451	69,042	-0,112	0,085
-677,437	287,734	-0,094	-0,126
-676,422	800,000	0,062	0,133
-675,408	-8,704	-0,043	0,021
-674,393	686,236	-0,073	-0,141
-673,378	-200,000	0,027	-0,145
-672,364	73,092	-0,023	0,018
-671,349	-70,159	-0,124	-0,035
-670,335	45,276	-0,132	0,090
-669,320	99,083	0,065	0,055
-668,305	660,683	0,041	0,079
-667,291	716,850	-0,031	0,062
-666,276	-200,000	0,047	-0,198
-665,262	-200,000	-0,005	-0,064
-664,247	274,875	0,023	-0,030
-663,232	800,000	-0,053	-0,132
-662,218	-143,574	0,191	0,013
-661,203	164,593	0,056	-0,058
-660,189	113,292	-0,059	0,053
-659,174	800,000	0,038	-0,089
-658,159	800,000	0,032	-0,104
-657,145	-76,629	-0,099	-0,026
-656,130	259,404	0,090	-0,115
-655,116	117,185	-0,100	-0,091
-654,101	302,292	0,083	0,114
-653,086	-121,878	-0,117	0,014
-652,072	205,145	-0,120	-0,138
-651,057	-115,566	-0,099	0,014
-650,043	-50,307	-0,032	-0,011
-649,028	800,000	-0,028	-0,091
-648,014	-20,680	0,111	0,050
-646,999	-2,121	-0,063	0,033
-645,984	29,612	0,048	-0,030
-644,970	111,444	-0,089	-0,080
-643,955	584,027	-0,034	-0,062
-642,941	-41,160	-0,143	-0,055
-641,926	-20,671	-0,102	0,046
-640,911	45,981	0,065	0,045
-639,897	-117,568	0,073	-0,010
-638,882	-12,368	-0,098	0,047
-637,868	37,159	0,114	-0,075
-636,853	646,542	-0,025	-0,047
-635,838	-124,197	-0,102	0,012
-634,824	150,857	-0,025	-0,025
-633,809	176,620	-0,145	-0,156
-632,795	194,785	0,059	0,066
-631,780	21,118	0,089	0,054
-630,765	22,841	-0,148	-0,089
-629,751	115,825	-0,109	-0,098
-628,736	474,618	0,080	0,135
-627,722	411,703	0,087	-0,137
-626,707	-117,543	0,068	0,009
-625,692	-71,413	0,091	0,025
-624,678	-200,000	-0,007	0,084
-623,663	800,000	-0,038	-0,114
-622,649	800,000	0,014	-0,029
-621,634	-59,986	0,076	0,024
-620,619	52,185	-0,149	-0,105
-619,605	-50,882	-0,080	0,028
-618,590	27,991	-0,035	0,022
-617,576	-40,619	-0,097	0,037
-616,561	-107,479	-0,152	-0,024
-615,546	-200,000	-0,021	-0,128
-614,532	-200,000	-0,039	-0,135
-613,517	-200,000	-0,035	-0,177
-612,503	204,854	-0,117	-0,134
-611,488	-25,307	0,054	-0,023
-610,474	800,000	-0,048	0,118
-609,459	-68,348	0,089	0,025
-608,444	800,000	0,043	0,108
-607,430	-51,754	-0,043	-0,015
-606,415	46,737	-0,033	-0,023
-605,401	-200,000	-0,019	-0,112
-604,386	800,000	0,045	-0,099
-603,371	-200,000	0,014	0,080
-602,357	-15,465	0,019	0,009
-601,342	43,352	-0,123	-0,083
-600,328	470,486	-0,081	-0,135
-599,313	-116,581	-0,138	-0,019
-598,298	-39,025	-0,190	-0,074
-597,284	-200,000	0,025	0,137
-596,269	-25,612	-0,083	-0,036
-595,255	800,000	-0,035	0,085
-594,240	-17,486	0,131	0,061
-593,225	297,806	0,091	-0,124
-592,211	-119,533	-0,130	0,016
-591,196	-46,563	0,155	0,056
-590,182	-200,000	0,024	0,102
-589,167	-76,414	0,037	-0,009
-588,152	-165,672	0,026	0,001
-587,138	-70,831	-0,115	0,032
-586,123	70,490	-0,052	0,039
-585,109	158,982	-0,086	-0,089
-584,094	227,483	-0,054	-0,065
-583,079	-171,191	0,142	0,003
-582,065	378,931	-0,035	0,054
-581,050	499,295	-0,064	-0,109
-580,036	-200,000	0,011	0,041
-579,021	800,000	0,059	-0,168
-578,006	72,040	-0,060	-0,046
-576,992	-26,255	-0,123	0,053
-575,977	87,372	0,092	0,076
-574,963	-200,000	0,000	0,060
-573,948	38,553	0,079	0,052
-572,934	149,785	-0,076	-0,076
-571,919	54,136	0,109	0,077
-570,904	383,727	0,066	-0,100
-569,890	17,676	-0,141	0,083
-568,875	800,000	0,055	-0,113
-567,861	-200,000	0,023	0,163
-566,846	800,000	0,057	0,136
-565,831	249,211	0,073	-0,092
-564,817	-200,000	0,000	-0,032
-563,802	-78,417	-0,150	-0,038
-562,788	-200,000	0,049	-0,165
-561,773	456,818	-0,048	0,078
-560,758	800,000	0,029	0,094
-559,744	186,785	0,010	0,011
-558,729	206,114	0,042	-0,048
-557,715	434,073	-0,038	-0,062
-556,700	-36,775	-0,049	0,019
-555,685	-104,668	-0,055	-0,009
-554,671	-19,950	0,072	0,033
-553,656	-200,000	0,017	-0,090
-552,642	-200,000	0,024	0,146
-551,627	-65,590	-0,053	-0,016
-550,612	628,529	-0,073	-0,138
-549,598	46,506	0,213	-0,146
-548,583	99,200	-0,118	-0,101
-547,569	-58,188	0,100	0,032
-546,554	-200,000	0,013	0,121
-545,539	85,116	-0,078	-0,063
-544,525	-12,778	0,046	-0,022
-543,510	-200,000	-0,002	0,044
-542,496	143,555	-0,127	-0,125
-541,481	-114,543	0,054	-0,008
-540,466	270,375	-0,032	0,042
-539,452	800,000	-0,042	-0,131
-538,437	-200,000	0,003	-0,083
-537,423	166,780	0,019	0,020
-536,408	247,183	0,044	-0,055
-535,393	-115,341	-0,039	0,005
-534,379	-116,911	-0,044	0,006
-533,364	-95,384	0,067	0,013
-532,350	-12,330	-0,079	-0,038
-531,335	-88,193	-0,051	0,011
-530,321	184,852	0,044	-0,048
-529,306	800,000	0,031	0,088
-528,291	-200,000	-0,007	0,050
-527,277	445,369	-0,049	-0,080
-526,262	-200,000	-0,039	-0,134
-525,248	65,252	-0,127	-0,095
-524,233	-200,000	-0,005	0,049
-523,218	-200,000	-0,007	-0,103
-522,204	-200,000	-0,011	-0,047
-521,189	626,266	-0,073	-0,137
-520,175	-200,000	0,024	-0,093
-519,160	-52,593	-0,058	-0,020
-518,145	-200,000	0,002	0,068
-517,131	32,827	-0,070	0,045
-516,116	-200,000	0,041	-0,184
-515,102	800,000	-0,011	-0,033
-514,087	-200,000	-0,012	0,058
-513,072	-200,000	-0,002	-0,024
-512,058	-94,749	0,038	0,008
-511,043	209,274	0,093	-0,108
-510,029	800,000	-0,032	0,087
-509,014	94,566	0,032	0,027
-507,999	-76,061	0,134	-0,035
-506,985	-112,692	0,082	0,012
-505,970	-98,665	-0,204	0,038
-504,956	-49,122	-0,018	-0,006
-503,941	-45,800	0,069	-0,025
-502,926	-200,000	0,002	-0,051
-501,912	-200,000	0,005	0,055
-500,897	31,214	0,028	0,018
-499,883	324,244	0,080	0,113
-498,868	-0,665	-0,124	0,065
-497,853	-19,019	0,104	0,047
-496,839	152,532	-0,076	-0,076
-495,824	75,354	0,018	0,014
-494,810	183,322	0,081	0,088
-493,795	-113,297	-0,148	0,021
-492,781	188,548	0,055	0,060
-491,766	-54,526	-0,081	0,027
-490,751	135,799	-0,104	-0,100
-489,737	-153,439	-0,079	-0,004
-488,722	206,447	0,109	-0,125
-487,708	112,507	0,030	0,027
-486,693	-200,000	0,041	0,176
-485,678	-200,000	-0,006	-0,148
-484,664	69,606	-0,090	-0,068
-483,649	-156,864	-0,068	0,003
-482,635	-200,000	0,007	0,035
-481,620	10,192	0,073	-0,041
-480,605	800,000	0,053	0,132
-479,591	-49,196	0,102	0,036
-478,576	-14,142	0,045	-0,022
-477,562	-200,000	-0,023	-0,079
-476,547	-200,000	0,027	-0,137
-475,532	-56,765	-0,059	0,019
-474,518	-101,406	0,085	-0,015
-473,503	197,879	-0,037	0,041
-472,489	-180,887	0,042	0,001
-471,474	-200,000	-0,009	0,060
-470,459	378,097	-0,061	-0,092
-469,445	-44,464	-0,054	-0,020
-468,430	29,994	0,059	0,037
-467,416	800,000	0,008	0,026
-466,401	-64,689	0,084	-0,025
-465,386	113,489	0,043	0,038
-464,372	156,146	-0,092	0,093
-463,357	800,000	0,028	-0,084
-462,343	-67,933	-0,092	-0,026
-461,328	52,158	-0,087	-0,061
-460,313	-75,924	0,106	0,027
-459,299	-200,000	0,016	0,117
-458,284	485,359	-0,031	0,053
-457,270	117,329	0,090	0,081
-456,255	-163,469	-0,140	-0,005
-455,241	-200,000	0,013	-0,066
-454,226	369,182	0,071	-0,105
-453,211	-200,000	-0,005	0,023
-452,197	-115,593	-0,019	0,003
-451,182	148,377	0,105	0,105
-450,168	-200,000	-0,004	-0,066
-449,153	263,044	-0,061	0,078
-448,138	800,000	0,014	-0,037
-447,124	164,244	-0,098	-0,102
-446,109	17,692	0,044	-0,025
-445,095	234,697	0,005	-0,006
-444,080	650,292	-0,016	0,031
-443,065	110,959	-0,038	0,033
-442,051	-54,686	-0,114	-0,038
-441,036	-200,000	0,013	0,140
-440,022	30,456	0,068	0,042
-439,007	222,531	0,013	-0,015
-437,992	-200,000	0,002	0,027
-436,978	-70,309	0,054	-0,015
-435,963	527,953	-0,026	0,044
-434,949	-109,848	-0,105	0,016
-433,934	-168,971	0,061	-0,002
-432,919	-200,000	-0,023	-0,095
-431,905	101,705	0,135	-0,115
-430,890	-200,000	0,009	-0,052
-429,876	200,679	0,146	0,165
-428,861	-200,000	0,019	-0,085
-427,846	-200,000	-0,000	-0,004
-426,832	119,018	0,042	-0,038
-425,817	-200,000	0,023	-0,094
-424,803	-72,005	0,034	0,009
-423,788	800,000	-0,025	0,077
-422,773	675,067	-0,061	0,117
-421,759	224,323	0,103	0,123
-420,744	74,578	0,039	0,030
-419,730	-171,375	-0,073	-0,002
-418,715	88,648	-0,084	-0,068
-417,701	-200,000	0,019	0,147
-416,686	164,408	0,127	0,132
-415,671	800,000	0,043	0,130
-414,657	-118,029	0,032	0,004
-413,642	-73,297	0,090	-0,024
-412,628	-200,000	-0,019	0,083
-411,613	-198,361	-0,141	-0,001
-410,598	-200,000	0,032	0,123
-409,584	26,597	0,056	-0,034
-408,569	-75,875	0,150	0,039
-407,555	800,000	0,038	0,124
-406,540	-122,909	-0,034	0,004
-405,525	545,655	-0,011	0,019
-404,511	183,022	0,073	-0,079
-403,496	626,421	-0,040	-0,075
-402,482	-200,000	-0,015	-0,055
-401,467	145,447	0,123	-0,121
-400,452	-67,064	-0,100	-0,029
-399,438	421,387	-0,022	-0,034
-398,423	-117,488	-0,071	0,009
-397,409	-156,135	-0,143	-0,007
-396,394	-33,956	0,094	0,038
-395,379	800,000	0,049	0,156
-394,365	92,018	-0,086	-0,071
-393,350	-100,525	0,165	0,030
-392,336	-115,120	-0,064	0,009
-391,321	149,556	0,090	0,090
-390,306	467,747	-0,030	0,049
-389,292	800,000	-0,028	-0,084
-388,277	122,829	-0,106	0,097
-387,263	146,627	0,083	0,082
-386,248	58,813	0,083	0,060
-385,233	-200,000	0,031	-0,109
-384,219	165,838	0,054	-0,056
-383,204	-200,000	-0,003	-0,119
-382,190	-200,000	-0,009	-0,101
-381,175	-50,092	-0,064	-0,022
-380,160	-119,358	0,144	0,018
-379,146	120,533	0,126	-0,115
-378,131	800,000	0,024	0,048
-377,117	61,962	0,115	0,084
-376,102	-34,711	-0,070	-0,028
-375,088	-59,359	0,058	0,018
-374,073	26,929	-0,070	-0,043
-373,058	-0,546	0,020	0,010
-372,044	269,955	0,135	0,174
-371,029	-56,471	0,069	-0,022
-370,015	800,000	-0,034	0,084
-369,000	683,556	-0,050	0,095
-367,985	-96,996	0,157	-0,030
-366,971	241,795	-0,027	0,033
-365,956	106,367	-0,007	0,006
-364,942	-111,945	0,217	-0,032
-363,927	-200,000	0,013	0,082
-362,912	104,605	0,208	0,179
-361,898	93,626	0,054	-0,044
-360,883	199,330	-0,183	-0,206
-359,869	-200,000	0,007	-0,100
-358,854	-200,000	-0,021	0,203
-357,839	-132,068	0,068	-0,006
-356,825	-68,292	0,019	-0,005
-355,810	569,997	-0,102	0,182
-354,796	-200,000	0,009	0,042
-353,781	800,000	-0,035	-0,103
-352,766	-200,000	-0,001	0,043
-351,752	-110,462	0,211	-0,032
-350,737	-83,418	-0,106	-0,025
-349,723	35,018	0,065	0,041
-348,708	165,127	-0,085	-0,088
-347,693	-200,000	0,015	0,086
-346,679	-200,000	0,002	-0,115
-345,664	-110,236	-0,226	-0,034
-344,650	15,161	-0,016	-0,009
-343,635	-48,174	0,106	0,037
-342,620	593,130	-0,039	-0,071
-341,606	150,858	0,072	-0,072
-340,591	-200,000	-0,004	0,026
-339,577	-200,000	0,011	0,076
-338,562	525,339	-0,073	0,126
-337,548	133,604	0,028	0,026
-336,533	-200,000	-0,017	0,097
-335,518	-101,412	0,074	0,013
-334,504	84,812	0,082	-0,066
-333,489	800,000	0,040	0,086
-332,475	-110,607	-0,074	-0,011
-331,460	128,141	-0,075	0,069
-330,445	-102,796	0,172	0,030
-329,431	-200,000	0,018	0,146
-328,416	94,151	0,219	0,182
-327,402	494,289	0,044	0,074
-326,387	-160,058	-0,063	0,002
-325,372	-83,044	-0,123	-0,029
-324,358	470,346	0,014	0,023
-323,343	-151,285	-0,048	0,003
-322,329	14,198	-0,086	-0,049
-321,314	-83,963	0,155	-0,036
-320,299	800,000	-0,076	0,183
-319,285	-200,000	-0,050	0,174
-318,270	144,699	-0,080	-0,078
-317,256	800,000	-0,017	-0,044
-316,241	-44,554	-0,036	-0,013
-315,226	28,024	-0,118	0,073
-314,212	20,026	0,081	0,048
-313,197	-200,000	0,005	0,076
-312,183	800,000	-0,008	-0,016
-311,168	203,652	0,073	-0,083
-310,153	174,636	-0,043	-0,046
-309,139	-67,430	0,106	0,030
-308,124	-144,440	-0,095	0,006
-307,110	-23,950	-0,084	-0,037
-306,095	284,472	0,063	0,084
-305,080	99,201	-0,122	-0,103
-304,066	43,528	-0,045	-0,030
-303,051	-200,000	-0,008	0,075
-302,037	-130,407	-0,059	-0,006
-301,022	140,758	0,056	0,054
-300,008	-200,000	-0,012	0,129
-298,993	-200,000	-0,029	-0,116
-297,978	17,109	-0,088	0,051
-296,964	-9,796	0,035	-0,017
-295,949	-108,570	-0,055	0,009
-294,935	327,060	-0,057	0,080
-293,920	-70,332	-0,078	0,021
-292,905	134,127	0,026	-0,024
-291,891	800,000	0,047	0,118
-290,876	-200,000	0,013	0,108
-289,862	160,796	0,061	-0,062
-288,847	-200,000	0,023	-0,184
-287,832	339,466	-0,056	-0,080
-286,818	800,000	0,041	-0,108
-285,803	137,480	-0,037	0,035
-284,789	-200,000	0,019	-0,071
-283,774	-9,886	-0,042	0,020
-282,759	800,000	-0,040	0,096
-281,745	-114,987	-0,037	-0,005
-280,730	800,000	-0,023	-0,062
-279,716	221,960	-0,021	0,025
-278,701	-200,000	-0,000	0,056
-277,686	-14,473	0,161	0,075
-276,672	800,000	-0,030	0,065
-275,657	800,000	-0,014	-0,037
-274,643	-103,094	0,043	-0,007
-273,628	322,582	-0,051	-0,072
-272,613	86,985	0,064	0,052
-271,599	800,000	0,021	0,052
-270,584	3,663	0,029	0,015
-269,570	-200,000	-0,010	-0,044
-268,555	800,000	-0,050	-0,108
-267,540	-58,487	-0,139	-0,044
-266,526	-200,000	-0,008	-0,058
-265,511	561,963	-0,025	0,045
-264,497	-147,575	0,098	0,006
-263,482	-185,513	-0,027	0,000
-262,467	-200,000	-0,009	0,079
-261,453	313,100	0,079	0,109
-260,438	492,088	-0,097	-0,163
-259,424	623,660	0,035	0,065
-258,409	-200,000	0,052	-0,171
-257,395	-200,000	0,003	0,021
-256,380	-44,325	-0,087	-0,032
-255,365	53,104	-0,029	0,020
-254,351	800,000	-0,020	-0,053
-253,336	321,203	0,123	0,171
-252,322	219,027	-0,057	-0,067
-251,307	-82,614	-0,042	0,010
-250,292	28,226	-0,100	0,062
-249,278	-34,535	0,157	0,062
-248,263	251,305	0,104	0,129
-247,249	-30,673	0,013	0,005
-246,234	-200,000	0,018	-0,099
-245,219	-96,948	-0,094	-0,018
-244,205	-200,000	-0,004	-0,017
-243,190	522,028	-0,041	-0,070
-242,176	-49,782	0,144	-0,050
-241,161	217,273	0,139	0,162
-240,146	800,000	0,037	0,114
-239,132	136,692	0,105	-0,100
-238,117	257,882	-0,075	0,094
-237,103	629,024	0,049	0,092
-236,088	47,757	0,152	0,103
-235,073	-71,079	0,141	-0,038
-234,059	-200,000	0,019	0,165
-233,044	548,224	-0,056	-0,098
-232,030	-200,000	-0,010	-0,126
-231,015	-200,000	-0,015	-0,101
-230,000	-92,445	-0,168	0,034
-228,986	800,000	-0,034	-0,096
-227,971	-200,000	0,006	0,087
-226,957	800,000	0,034	0,096
-225,942	-136,122	0,046	0,004
-224,927	256,383	-0,010	-0,013
-223,913	64,986	-0,140	-0,103
-222,898	-114,648	0,111	-0,015
-221,884	109,561	-0,084	-0,073
-220,869	800,000	-0,023	0,067
-219,855	417,930	0,084	0,132
-218,840	261,964	0,013	0,017
-217,825	-83,107	0,067	-0,016
-216,811	470,733	0,121	-0,199
-215,796	800,000	-0,042	0,093
-214,782	187,732	0,082	-0,090
-213,767	629,871	-0,031	0,057
-212,752	315,096	0,039	0,054
-211,738	-200,000	0,002	0,199
-210,723	29,120	0,133	-0,082
-209,709	-200,000	0,014	-0,063
-208,694	800,000	0,039	-0,100
-207,679	-200,000	0,011	-0,037
-206,665	-200,000	-0,013	0,107
-205,650	-200,000	0,014	0,106
-204,636	800,000	0,025	0,065
-203,621	462,339	0,061	-0,099
-202,606	722,386	-0,063	-0,123
-201,592	-73,706	-0,107	0,028
-200,577	800,000	-0,049	-0,138
-199,563	707,524	0,026	-0,050
-198,548	-50,632	0,110	0,037
-197,533	88,513	0,197	-0,159
-196,519	668,112	0,049	0,092
-195,504	-200,000	-0,028	-0,138
-194,490	-58,006	-0,208	-0,066
-193,475	-30,169	0,059	-0,024
-192,460	689,773	-0,030	-0,057
-191,446	310,302	-0,073	-0,099
-190,431	-200,000	-0,018	0,076
-189,417	-17,396	-0,113	0,052
-188,402	80,268	-0,079	0,062
-187,387	800,000	0,010	0,022
-186,373	520,632	-0,083	-0,142
-185,358	-200,000	-0,010	0,115
-184,344	-83,274	0,044	0,010
-183,329	-153,627	0,180	0,009
-182,315	-200,000	0,004	-0,109
-181,300	39,585	0,040	-0,026
-180,285	195,929	-0,042	0,046
-179,271	331,424	-0,033	-0,047
-178,256	470,320	-0,050	-0,081
-177,242	-200,000	-0,013	0,103
-176,227	34,457	0,175	-0,111
-175,212	38,244	0,049	-0,032
-174,198	629,191	0,015	-0,028
-173,183	-200,000	-0,004	0,043
-172,169	-116,140	0,052	-0,007
-171,154	-85,657	-0,066	-0,015
-170,139	20,205	0,133	-0,078
-169,125	361,334	-0,051	0,075
-168,110	-164,223	-0,061	0,002
-167,096	112,602	-0,033	0,029
-166,081	-79,429	-0,176	0,043
-165,066	317,745	-0,045	-0,061
-164,052	-55,036	-0,146	-0,047
-163,037	-128,388	-0,060	-0,006
-162,023	176,263	0,118	0,124
-161,008	-200,000	-0,002	0,006
-159,993	195,515	-0,033	0,036
-158,979	179,368	-0,137	0,146
-157,964	-51,861	0,031	0,011
-156,950	-46,038	-0,129	-0,046
-155,935	-200,000	-0,004	-0,014
-154,920	-200,000	-0,039	0,181
-153,906	-200,000	0,008	0,121
-152,891	-19,805	0,115	0,052
-151,877	554,555	-0,030	-0,053
-150,862	548,186	-0,075	-0,131
-149,847	-115,349	-0,049	0,007
-148,833	800,000	-0,020	-0,042
-147,818	186,886	0,025	0,027
-146,804	8,707	0,162	0,088
-145,789	800,000	0,027	-0,057
-144,775	350,961	-0,084	-0,121
-143,760	142,414	-0,081	-0,078
-142,745	65,609	0,058	0,042
-141,731	-30,054	0,097	-0,040
-140,716	28,617	0,127	-0,078
-139,702	-70,729	0,150	0,041
-138,687	800,000	0,040	0,117
-137,672	284,172	-0,061	-0,080
-136,658	779,121	-0,024	-0,047
-135,643	-122,405	-0,040	-0,005
-134,629	-61,166	0,041	-0,012
-133,614	241,979	0,018	-0,022
-132,599	-200,000	0,023	0,114
-131,585	155,795	0,075	-0,075
-130,570	-142,324	0,067	0,005
-129,556	16,767	0,058	0,033
-128,541	161,354	0,016	-0,016
-127,526	778,957	-0,098	-0,196
-126,512	154,704	0,086	0,086
-125,497	800,000	-0,038	0,116
-124,483	323,066	0,067	-0,093
-123,468	-33,817	0,094	-0,038
-122,453	109,664	0,050	-0,044
-121,439	293,958	0,056	-0,074
-120,424	800,000	0,050	-0,140
-119,410	99,628	0,126	-0,106
