DTS Sentinel unit serial number:	SN410029Multiplexer serial number:	ORYXHardware model number:	OX2-SRSoftware version number:	ORYX F/W v4,00 Oryx Data Collector v3.7.2.0data status	okinstallation	B6 Nyhavnadifferential loss correction	single-endedforward channel	channel 2reverse channel	N/Adate	2023/12/09time	04:45:08forward acquisition time	300,00reverse acquisition time	0,00gamma	499,1914k internal	0,3146k external	0,3146temperature offset calibration	1,0000default loss term (dB/km)	0,3820temperature slope calibration	1,0000multiplexer offset coefficient	1,0000multiplexer slope coefficient	1,0000fibre end	0,00T internal ref (°C)	17,30T ext. ref 1 (°C)	1,86T ext. ref 2 (°C)	1,88length (m)	temperature (°C)	Stokes	anti-Stokes-744,400	800,000	-0,031	-0,076
-743,385	-200,000	-0,259	0,000
-742,371	38,010	0,158	-0,104
-741,356	56,254	-0,210	0,150
-740,342	164,781	0,158	-0,165
-739,327	-26,599	-0,149	-0,064
-738,312	94,430	0,044	-0,037
-737,298	-82,037	-0,472	0,113
-736,283	63,150	0,117	0,087
-735,269	247,509	-0,153	0,191
-734,254	88,935	0,138	0,114
-733,239	-22,975	-0,513	-0,228
-732,225	-40,195	0,125	0,048
-731,210	-17,633	-0,066	0,031
-730,196	-111,851	-0,046	0,007
-729,181	-200,000	0,014	-0,083
-728,167	384,292	-0,086	-0,131
-727,152	51,574	-0,045	0,032
-726,137	352,776	-0,030	-0,044
-725,123	-200,000	-0,011	-0,060
-724,108	106,283	-0,095	-0,083
-723,094	51,180	-0,183	-0,128
-722,079	124,199	-0,065	-0,060
-721,064	-200,000	0,011	-0,069
-720,050	-100,095	-0,152	-0,028
-719,035	68,612	-0,151	0,114
-718,021	107,062	-0,069	-0,061
-717,006	221,170	-0,045	-0,054
-715,991	305,103	-0,048	0,066
-714,977	254,417	-0,032	0,040
-713,962	-200,000	0,014	-0,057
-712,948	-45,202	-0,167	0,061
-711,933	317,687	0,097	-0,137
-710,918	-200,000	0,003	-0,119
-709,904	678,488	-0,037	-0,072
-708,889	21,380	-0,135	-0,081
-707,875	800,000	-0,092	-0,212
-706,860	-88,821	0,049	-0,011
-705,845	-200,000	-0,010	-0,085
-704,831	-137,101	0,060	0,005
-703,816	-76,253	0,131	0,034
-702,802	800,000	-0,001	-0,002
-701,787	-78,050	0,051	-0,013
-700,772	-200,000	-0,002	-0,034
-699,758	-11,250	-0,087	0,042
-698,743	26,722	0,051	-0,032
-697,729	-109,567	0,063	0,010
-696,714	357,408	0,071	0,105
-695,699	42,313	0,062	-0,042
-694,685	800,000	0,003	0,006
-693,670	-71,964	0,040	-0,011
-692,656	-200,000	-0,010	-0,104
-691,641	-50,157	0,089	-0,031
-690,627	-23,129	-0,079	0,035
-689,612	275,495	0,075	-0,098
-688,597	-200,000	0,013	-0,080
-687,583	-200,000	0,031	-0,216
-686,568	-139,246	-0,076	0,006
-685,554	-200,000	-0,017	0,080
-684,539	111,307	0,023	-0,021
-683,524	-3,563	0,096	0,049
-682,510	-86,924	-0,109	-0,024
-681,495	558,539	-0,041	0,074
-680,481	781,692	0,006	-0,012
-679,466	284,185	-0,019	-0,026
-678,451	132,675	-0,012	0,012
-677,437	-200,000	0,010	-0,050
-676,422	77,817	-0,028	0,022
-675,408	709,456	-0,052	-0,102
-674,393	800,000	-0,051	0,108
-673,378	140,155	-0,129	-0,126
-672,364	14,758	0,044	-0,025
-671,349	294,030	0,036	-0,049
-670,335	-28,877	0,073	0,031
-669,320	-135,468	0,137	-0,012
-668,305	29,986	0,047	0,029
-667,291	3,783	-0,100	-0,054
-666,276	326,519	-0,107	-0,151
-665,262	469,193	-0,056	-0,093
-664,247	165,637	-0,031	-0,032
-663,232	-5,730	0,076	-0,038
-662,218	-33,318	-0,052	0,021
-661,203	250,115	-0,098	0,122
-660,189	-126,582	-0,095	-0,010
-659,174	258,392	-0,090	-0,114
-658,159	334,992	-0,082	-0,118
-657,145	142,628	-0,071	0,069
-656,130	266,353	0,058	0,075
-655,116	74,797	0,091	0,070
-654,101	-111,390	0,050	0,007
-653,086	354,412	0,060	-0,088
-652,072	-200,000	-0,006	-0,060
-651,057	-70,702	-0,094	-0,026
-650,043	426,156	-0,034	-0,055
-649,028	-106,494	-0,054	0,009
-648,014	-48,639	0,048	0,017
-646,999	28,058	-0,075	-0,047
-645,984	-86,531	0,028	-0,006
-644,970	-200,000	0,015	-0,072
-643,955	36,626	0,123	-0,080
-642,941	-200,000	0,010	-0,066
-641,926	800,000	0,022	0,067
-640,911	-200,000	-0,012	0,055
-639,897	-200,000	0,014	0,083
-638,882	-200,000	0,006	0,129
-637,868	-200,000	0,001	0,032
-636,853	800,000	-0,048	-0,115
-635,838	800,000	-0,057	-0,167
-634,824	422,284	0,071	-0,113
-633,809	480,226	-0,076	-0,127
-632,795	-45,825	0,103	0,037
-631,780	-200,000	0,024	-0,082
-630,765	98,419	0,061	-0,052
-629,751	302,708	0,022	0,029
-628,736	-200,000	-0,008	-0,051
-627,722	-85,436	0,061	-0,014
-626,707	-29,814	0,089	-0,037
-625,692	-200,000	0,004	0,060
-624,678	-200,000	0,014	0,059
-623,663	115,489	-0,104	0,094
-622,649	-119,069	0,119	-0,015
-621,634	98,814	-0,141	-0,120
-620,619	-3,845	-0,074	-0,038
-619,605	116,498	-0,069	-0,063
-618,590	46,335	-0,031	-0,021
-617,576	-119,404	0,087	-0,011
-616,561	-58,376	0,056	-0,018
-615,546	-71,786	-0,040	-0,011
-614,532	-149,163	-0,079	-0,005
-613,517	435,874	0,018	0,029
-612,503	356,137	-0,059	-0,087
-611,488	-200,000	-0,013	0,055
-610,474	-161,288	-0,192	0,007
-609,459	-5,834	0,054	0,027
-608,444	43,847	0,057	-0,038
-607,430	-160,079	-0,157	-0,006
-606,415	724,208	-0,031	0,061
-605,401	-21,656	0,069	0,031
-604,386	-200,000	-0,019	0,087
-603,371	116,665	0,105	0,095
-602,357	-74,703	-0,066	0,017
-601,342	800,000	-0,015	-0,043
-600,328	-200,000	-0,029	-0,134
-599,313	21,628	-0,042	-0,025
-598,298	632,008	-0,064	0,119
-597,284	-59,776	-0,020	0,006
-596,269	78,556	-0,024	0,019
-595,255	102,150	0,122	0,105
-594,240	-25,062	0,176	-0,076
-593,225	160,814	-0,121	-0,124
-592,211	370,447	0,070	-0,105
-591,196	158,053	0,044	-0,045
-590,182	143,731	0,091	-0,089
-589,167	76,739	0,120	-0,093
-588,152	-200,000	-0,021	-0,094
-587,138	-190,232	0,013	0,000
-586,123	800,000	-0,024	-0,071
-585,109	702,834	0,042	0,081
-584,094	347,477	-0,042	-0,062
-583,079	-200,000	-0,022	0,099
-582,065	800,000	-0,063	0,141
-581,050	-200,000	0,011	0,048
-580,036	51,164	0,027	0,019
-579,021	195,277	-0,052	-0,058
-578,006	-200,000	0,003	0,064
-576,992	-31,611	0,068	0,028
-575,977	87,088	0,091	0,074
-574,963	-26,464	-0,083	0,036
-573,948	-55,933	0,087	-0,028
-572,934	-51,107	-0,117	0,040
-571,919	174,056	0,094	-0,100
-570,904	-12,771	-0,072	0,034
-569,890	77,443	-0,129	-0,101
-568,875	24,676	0,101	0,062
-567,861	-163,554	-0,055	-0,002
-566,846	191,571	0,126	-0,139
-565,831	446,857	-0,044	0,071
-564,817	-75,310	-0,126	-0,033
-563,802	-200,000	-0,000	-0,126
-562,788	-14,500	0,105	0,050
-561,773	-200,000	0,007	-0,036
-560,758	1,526	0,023	0,012
-559,744	-46,730	-0,092	0,033
-558,729	89,672	0,099	0,081
-557,715	-200,000	-0,047	0,159
-556,700	148,932	-0,080	0,080
-555,685	-149,242	-0,175	-0,010
-554,671	85,727	-0,102	0,082
-553,656	173,986	0,063	0,067
-552,642	379,875	0,027	0,040
-551,627	470,967	0,052	0,086
-550,612	-200,000	0,011	0,065
-549,598	223,353	-0,035	0,042
-548,583	-200,000	0,006	-0,032
-547,569	800,000	-0,008	-0,018
-546,554	-54,343	-0,072	-0,024
-545,539	34,946	0,067	0,043
-544,525	-39,938	0,080	-0,030
-543,510	-200,000	-0,003	-0,073
-542,496	211,065	-0,027	-0,031
-541,481	-200,000	0,000	0,024
-540,466	25,069	-0,090	0,055
-539,452	85,474	-0,005	-0,004
-538,437	-200,000	-0,002	0,101
-537,423	387,144	-0,078	0,118
-536,408	48,311	-0,140	-0,096
-535,393	-154,019	0,029	-0,001
-534,379	-200,000	-0,014	-0,190
-533,364	800,000	0,031	0,100
-532,350	297,295	-0,096	0,129
-531,335	-135,275	0,160	0,014
-530,321	-126,136	0,053	0,006
-529,306	-102,916	-0,107	0,019
-528,291	743,807	0,041	-0,081
-527,277	-200,000	-0,007	0,046
-526,262	-92,546	-0,116	-0,024
-525,248	800,000	-0,009	-0,024
-524,233	-77,134	0,066	0,017
-523,218	-200,000	0,000	0,085
-522,204	-104,547	0,053	0,009
-521,189	-85,767	-0,111	0,025
-520,175	-200,000	-0,010	-0,073
-519,160	-200,000	-0,012	-0,045
-518,145	253,185	-0,042	0,052
-517,131	92,033	0,102	-0,084
-516,116	266,870	0,002	0,003
-515,102	800,000	-0,085	0,179
-514,087	-137,850	-0,103	0,008
-513,072	-200,000	-0,004	0,039
-512,058	-116,477	-0,096	-0,013
-511,043	-94,604	0,217	-0,043
-510,029	-144,115	0,112	0,008
-509,014	-173,706	-0,150	0,003
-507,999	-115,980	0,076	0,010
-506,985	800,000	-0,055	-0,118
-505,970	-200,000	-0,062	-0,250
-504,956	-200,000	-0,007	0,041
-503,941	-200,000	-0,011	0,068
-502,926	-158,911	0,088	-0,004
-501,912	-200,000	-0,023	0,080
-500,897	-11,409	0,037	0,018
-499,883	800,000	-0,031	-0,068
-498,868	800,000	-0,039	-0,088
-497,853	154,309	0,054	0,054
-496,839	171,696	-0,066	-0,069
-495,824	-200,000	-0,013	0,065
-494,810	800,000	-0,021	0,063
-493,795	800,000	-0,042	0,097
-492,781	-200,000	0,004	0,090
-491,766	-18,888	0,074	-0,034
-490,751	-182,371	-0,035	-0,000
-489,737	196,636	0,081	-0,090
-488,722	-81,956	0,031	-0,007
-487,708	800,000	0,039	0,096
-486,693	-18,726	-0,083	-0,038
-485,678	698,286	-0,039	-0,076
-484,664	93,527	-0,084	-0,070
-483,649	732,699	0,110	-0,216
-482,635	-200,000	-0,014	-0,059
-481,620	-200,000	-0,016	0,128
-480,605	208,393	0,086	0,099
-479,591	-135,547	0,172	0,015
-478,576	-90,387	0,110	0,023
-477,562	800,000	-0,029	-0,071
-476,547	-101,442	-0,030	0,005
-475,532	441,022	0,043	-0,070
-474,518	148,573	0,055	-0,054
-473,503	-200,000	0,021	0,138
-472,489	-200,000	0,006	0,090
-471,474	-200,000	-0,008	0,032
-470,459	135,582	-0,111	0,105
-469,445	-75,935	-0,084	0,022
-468,430	-12,820	-0,104	-0,049
-467,416	-152,414	-0,025	-0,001
-466,401	-200,000	-0,017	0,115
-465,386	-200,000	0,007	0,100
-464,372	-200,000	-0,008	0,067
-463,357	16,966	-0,053	-0,031
-462,343	-200,000	0,014	0,116
-461,328	-132,497	0,064	0,006
-460,313	-16,221	-0,032	-0,015
-459,299	119,237	0,033	0,030
-458,284	-125,822	0,050	0,005
-457,270	-200,000	0,006	0,044
-456,255	116,223	0,023	0,020
-455,241	-90,853	-0,040	0,008
-454,226	-153,479	0,034	0,002
-453,211	-6,776	0,088	-0,044
-452,197	-124,077	0,043	0,005
-451,182	-15,881	0,081	0,037
-450,168	-98,280	-0,067	0,012
-449,153	-73,315	-0,103	-0,027
-448,138	59,520	0,026	-0,018
-447,124	-159,987	0,039	-0,002
-446,109	-26,557	0,095	-0,040
-445,095	305,443	-0,041	-0,056
-444,080	-29,899	-0,048	0,020
-443,065	111,094	-0,081	0,071
-442,051	-200,000	0,023	-0,199
-441,036	-17,715	-0,149	-0,068
-440,022	145,465	-0,039	-0,038
-439,007	267,780	0,071	-0,092
-437,992	800,000	-0,066	0,172
-436,978	299,916	-0,005	-0,007
-435,963	282,196	0,076	0,100
-434,949	-143,289	-0,169	0,012
-433,934	800,000	-0,050	0,104
-432,919	-162,261	0,091	-0,003
-431,905	800,000	0,046	-0,143
-430,890	-200,000	0,003	0,060
-429,876	-79,159	0,130	-0,032
-428,861	363,031	-0,077	0,114
-427,846	-128,028	-0,097	-0,010
-426,832	-67,262	0,068	-0,020
-425,817	800,000	0,039	-0,120
-424,803	-161,411	-0,015	0,001
-423,788	31,228	0,128	0,080
-422,773	-200,000	-0,029	0,095
-421,759	199,688	0,051	0,058
-420,744	53,336	-0,104	0,072
-419,730	61,226	-0,169	-0,123
-418,715	800,000	0,025	0,062
-417,701	-200,000	0,002	-0,040
-416,686	-155,782	-0,085	-0,004
-415,671	-157,422	0,113	-0,005
-414,657	28,011	-0,073	-0,045
-413,642	-200,000	-0,009	-0,037
-412,628	800,000	0,022	0,059
-411,613	-200,000	-0,006	0,097
-410,598	150,286	0,065	0,064
-409,584	-81,151	0,067	0,016
-408,569	314,148	0,050	-0,069
-407,555	-12,041	0,088	0,042
-406,540	-73,785	0,013	-0,003
-405,525	503,029	0,072	0,122
-404,511	-200,000	-0,002	-0,072
-403,496	295,830	-0,046	-0,061
-402,482	-86,788	-0,228	0,050
-401,467	-200,000	-0,016	0,077
-400,452	-137,679	0,093	0,008
-399,438	800,000	-0,035	0,077
-398,423	222,134	0,013	0,015
-397,409	272,026	0,078	-0,100
-396,394	690,585	-0,044	-0,085
-395,379	-83,906	0,090	0,021
-394,365	-90,261	-0,055	0,012
-393,350	-200,000	-0,001	-0,106
-392,336	-200,000	-0,010	-0,065
-391,321	218,290	-0,047	0,054
-390,306	450,547	-0,045	-0,073
-389,292	-200,000	-0,016	-0,180
-388,277	-56,595	-0,101	0,033
-387,263	-200,000	0,002	-0,072
-386,248	-200,000	0,040	-0,175
-385,233	-200,000	0,001	0,009
-384,219	800,000	-0,062	-0,147
-383,204	43,343	0,088	-0,058
-382,190	654,192	-0,033	-0,062
-381,175	-98,277	0,076	0,014
-380,160	-159,537	0,087	-0,003
-379,146	-200,000	0,004	0,038
-378,131	9,337	0,103	0,057
-377,117	800,000	-0,007	-0,019
-376,102	415,825	0,038	0,060
-375,088	-40,195	0,072	-0,027
-374,073	-200,000	0,015	0,098
-373,058	-105,920	-0,067	0,011
-372,044	145,145	0,031	0,030
-371,029	219,969	0,070	-0,082
-370,015	69,701	0,029	0,022
-369,000	200,182	0,038	-0,043
-367,985	800,000	-0,036	-0,101
-366,971	-60,766	0,078	0,024
-365,956	-14,796	0,062	0,029
-364,942	800,000	0,028	0,082
-363,927	-76,483	0,102	-0,026
-362,912	295,087	0,064	-0,086
-361,898	-61,314	0,081	0,025
-360,883	446,027	-0,057	-0,092
-359,869	-46,894	0,147	0,052
-358,854	-173,185	-0,061	-0,001
-357,839	-200,000	-0,003	0,037
-356,825	-200,000	0,001	0,126
-355,810	800,000	0,036	0,087
-354,796	75,615	-0,063	-0,048
-353,781	-129,254	-0,042	-0,004
-352,766	-91,997	0,075	0,015
-351,752	-101,298	0,065	-0,011
-350,737	800,000	-0,034	0,076
-349,723	771,422	0,007	-0,013
-348,708	-4,064	-0,066	-0,033
-347,693	-200,000	0,002	0,177
-346,679	-35,691	0,061	0,024
-345,664	-200,000	-0,020	-0,186
-344,650	-200,000	0,013	-0,163
-343,635	-98,896	-0,042	-0,008
-342,620	800,000	-0,057	0,136
-341,606	-200,000	-0,002	-0,054
-340,591	506,735	-0,043	-0,073
-339,577	-200,000	0,019	-0,072
-338,562	-200,000	0,001	-0,068
-337,548	598,333	0,093	-0,169
-336,533	800,000	0,009	-0,029
-335,518	-200,000	-0,028	0,149
-334,504	611,579	-0,035	-0,065
-333,489	751,731	0,037	-0,073
-332,475	756,044	-0,063	-0,125
-331,460	196,392	-0,053	0,059
-330,445	-51,215	-0,022	0,007
-329,431	215,046	-0,024	0,028
-328,416	-33,142	0,184	0,074
-327,402	-116,729	-0,132	0,017
-326,387	-94,349	-0,090	0,018
-325,372	-200,000	0,010	0,056
-324,358	-162,793	-0,165	-0,006
-323,343	-139,365	0,085	0,007
-322,329	800,000	-0,023	0,047
-321,314	-27,674	-0,126	-0,053
-320,299	-200,000	-0,007	0,048
-319,285	-200,000	-0,024	0,184
-318,270	-200,000	-0,033	0,129
-317,256	12,894	-0,099	-0,056
-316,241	-76,814	-0,171	-0,043
-315,226	83,481	0,037	0,030
-314,212	800,000	-0,024	0,056
-313,197	-102,707	-0,112	-0,019
-312,183	76,919	-0,106	0,081
-311,168	-22,424	-0,080	-0,035
-310,153	267,969	-0,046	-0,059
-309,139	74,292	-0,042	-0,032
-308,124	301,408	0,084	-0,114
-307,110	800,000	-0,013	0,034
-306,095	800,000	-0,005	0,014
-305,080	-200,000	-0,023	0,113
-304,066	-104,468	0,077	-0,013
-303,051	-55,812	-0,025	-0,008
-302,037	60,159	-0,046	0,033
-301,022	-60,724	0,024	0,007
-300,008	-104,405	0,225	-0,038
-298,993	332,928	0,036	-0,051
-297,978	-15,004	-0,040	0,018
-296,964	-200,000	-0,008	0,045
-295,949	800,000	0,035	-0,071
-294,935	-41,425	-0,085	0,032
-293,920	131,218	0,077	0,072
-292,905	800,000	0,039	-0,085
-291,891	-69,861	0,075	-0,021
-290,876	800,000	-0,046	0,113
-289,862	-200,000	-0,004	0,031
-288,847	137,468	-0,126	-0,120
-287,832	318,294	0,012	0,016
-286,818	-200,000	-0,031	0,145
-285,803	-90,342	0,089	0,019
-284,789	-73,374	0,165	0,044
-283,774	800,000	0,031	0,084
-282,759	-105,415	-0,031	-0,005
-281,745	-200,000	0,022	0,135
-280,730	-86,353	0,083	0,018
-279,716	-200,000	-0,010	-0,050
-278,701	800,000	-0,025	-0,062
-277,686	-154,081	0,124	0,006
-276,672	-31,515	0,049	-0,020
-275,657	800,000	-0,034	-0,095
-274,643	-200,000	-0,001	0,045
-273,628	-200,000	-0,030	0,105
-272,613	115,263	-0,042	-0,038
-271,599	193,292	-0,062	0,068
-270,584	154,245	0,031	0,031
-269,570	800,000	-0,023	0,066
-268,555	800,000	-0,009	-0,019
-267,540	-148,605	-0,162	-0,009
-266,526	-200,000	0,027	-0,148
-265,511	176,407	0,070	-0,074
-264,497	63,498	-0,055	0,040
-263,482	800,000	0,052	0,125
-262,467	593,251	-0,055	-0,099
-261,453	-11,737	-0,037	0,018
-260,438	26,927	0,071	0,043
-259,424	152,001	-0,075	-0,074
-258,409	-200,000	0,001	-0,097
-257,395	-200,000	-0,009	-0,041
-256,380	797,636	0,035	0,070
-255,365	-69,113	0,133	0,037
-254,351	800,000	-0,045	0,101
-253,336	-200,000	0,009	-0,088
-252,322	-51,962	0,102	0,034
-251,307	800,000	-0,039	0,097
-250,292	-94,329	0,060	-0,012
-249,278	-200,000	-0,012	0,107
-248,263	-200,000	0,010	0,136
-247,249	721,009	0,018	0,035
-246,234	548,716	-0,022	-0,038
-245,219	-126,909	-0,040	0,004
-244,205	678,892	-0,053	-0,101
-243,190	-200,000	-0,004	-0,168
-242,176	-200,000	0,014	0,080
-241,161	44,848	0,073	0,048
-240,146	-19,852	-0,044	0,020
-239,132	800,000	-0,016	0,048
-238,117	12,321	0,041	0,023
-237,103	-9,292	-0,036	0,017
-236,088	-106,151	-0,078	0,013
-235,073	-19,078	0,055	0,025
-234,059	-45,137	0,015	-0,005
-233,044	800,000	0,053	0,144
-232,030	-164,925	0,112	-0,004
-231,015	72,730	0,097	-0,073
-230,000	-27,771	-0,101	0,042
-228,986	31,159	0,046	0,029
-227,971	59,609	-0,042	-0,030
-226,957	800,000	0,036	-0,091
-225,942	156,367	0,088	0,088
-224,927	-18,201	-0,077	0,035
-223,913	76,165	0,030	-0,023
-222,898	219,608	-0,053	-0,062
-221,884	20,573	-0,139	0,081
-220,869	4,763	-0,093	0,049
-219,855	-200,000	0,032	0,137
-218,840	800,000	-0,030	-0,079
-217,825	529,022	-0,053	-0,091
-216,811	229,029	0,069	-0,082
-215,796	228,478	-0,079	-0,093
-214,782	290,102	-0,075	0,099
-213,767	29,164	-0,048	-0,030
-212,752	623,329	0,033	0,060
-211,738	186,211	-0,040	0,043
-210,723	-173,625	-0,126	0,003
-209,709	-200,000	-0,034	-0,134
-208,694	-200,000	0,028	-0,212
-207,679	92,609	-0,081	-0,066
-206,665	-49,111	-0,099	-0,034
-205,650	-3,443	0,028	-0,014
-204,636	800,000	0,092	-0,192
-203,621	-200,000	0,006	0,031
-202,606	228,757	0,043	0,051
-201,592	-200,000	0,025	-0,111
-200,577	800,000	-0,043	0,097
-199,563	-57,746	0,077	0,024
-198,548	600,883	-0,035	0,064
-197,533	-34,562	-0,089	0,035
-196,519	-95,233	-0,050	0,010
-195,504	575,086	0,046	-0,081
-194,490	-88,482	-0,041	-0,009
-193,475	800,000	0,037	-0,115
-192,460	-200,000	0,022	-0,084
-191,446	800,000	0,086	0,218
-190,431	126,262	0,049	0,045
-189,417	-200,000	-0,021	-0,070
-188,402	-200,000	-0,009	-0,034
-187,387	45,571	-0,082	-0,055
-186,373	-97,007	0,136	0,026
-185,358	120,879	0,039	-0,035
-184,344	58,353	0,077	0,055
-183,329	-81,480	0,208	0,049
-182,315	-79,285	-0,121	-0,029
-181,300	-200,000	-0,008	-0,030
-180,285	-98,118	-0,088	0,016
-179,271	553,747	-0,089	0,156
-178,256	-200,000	-0,023	0,146
-177,242	-200,000	0,019	0,095
-176,227	195,377	-0,066	0,073
-175,212	800,000	0,007	-0,020
-174,198	652,649	0,021	0,039
-173,183	-200,000	0,027	-0,148
-172,169	800,000	-0,036	-0,075
-171,154	53,504	0,131	-0,091
-170,139	107,645	0,076	-0,065
-169,125	699,088	0,110	0,210
-168,110	12,278	0,033	-0,018
-167,096	48,644	0,132	-0,089
-166,081	-131,881	-0,074	-0,007
-165,066	-200,000	-0,010	-0,053
-164,052	133,832	-0,041	0,038
-163,037	-200,000	-0,004	-0,072
-162,023	-119,866	0,171	-0,021
-161,008	17,893	0,132	0,076
-159,993	-63,843	0,090	-0,027
-158,979	-200,000	-0,010	-0,171
-157,964	66,443	-0,099	-0,073
-156,950	-200,000	0,004	-0,131
-155,935	-59,230	-0,130	-0,040
-154,920	-12,461	0,155	0,073
-153,906	-88,372	-0,047	-0,010
-152,891	-76,868	-0,047	-0,012
-151,877	62,132	0,126	-0,091
-150,862	70,196	0,053	-0,040
-149,847	354,035	-0,052	-0,074
-148,833	-61,647	-0,123	0,037
-147,818	-200,000	0,011	0,090
-146,804	-200,000	-0,022	0,190
-145,789	-200,000	-0,018	0,123
-144,775	-132,376	-0,115	0,011
-143,760	39,875	0,111	0,072
-142,745	632,731	0,026	-0,047
-141,731	106,765	0,087	-0,075
-140,716	-100,050	0,100	-0,018
-139,702	-136,323	-0,098	-0,008
-138,687	800,000	-0,023	0,064
-137,672	99,065	0,037	-0,031
-136,658	-85,404	-0,102	-0,023
-135,643	800,000	-0,026	-0,083
-134,629	710,775	0,003	0,006
-133,614	-200,000	0,011	0,111
-132,599	483,927	0,062	0,102
-131,585	800,000	-0,052	0,147
-130,570	800,000	-0,011	0,023
-129,556	12,553	-0,117	0,065
-128,541	353,491	0,049	-0,070
-127,526	193,270	-0,089	0,097
-126,512	-117,347	0,053	-0,007
-125,497	-101,836	0,080	0,014
-124,483	-62,134	0,154	-0,046
-123,468	76,250	-0,023	0,017
-122,453	-200,000	0,028	-0,120
-121,439	232,172	-0,054	0,064
-120,424	697,935	0,050	-0,096
