DTS Sentinel unit serial number:	SN410029Multiplexer serial number:	ORYXHardware model number:	OX2-SRSoftware version number:	ORYX F/W v4,00 Oryx Data Collector v3.7.2.0data status	okinstallation	B6 Nyhavnadifferential loss correction	single-endedforward channel	channel 2reverse channel	N/Adate	2023/12/10time	10:45:08forward acquisition time	300,00reverse acquisition time	0,00gamma	499,1914k internal	0,3123k external	0,3123temperature offset calibration	1,0000default loss term (dB/km)	0,3820temperature slope calibration	1,0000multiplexer offset coefficient	1,0000multiplexer slope coefficient	1,0000fibre end	0,00T internal ref (°C)	22,59T ext. ref 1 (°C)	6,45T ext. ref 2 (°C)	6,45length (m)	temperature (°C)	Stokes	anti-Stokes-744,400	-200,000	-0,045	-0,157
-743,385	-105,545	-0,143	0,024
-742,371	-9,557	-0,041	-0,020
-741,356	-15,776	-0,209	0,099
-740,342	-107,926	0,031	0,005
-739,327	-57,376	-0,249	0,081
-738,312	-200,000	0,000	0,084
-737,298	-135,113	-0,240	0,021
-736,283	-200,000	0,027	-0,102
-735,269	618,659	-0,073	0,138
-734,254	1,035	0,075	0,040
-733,239	-151,325	-0,333	0,018
-732,225	-114,553	0,172	0,024
-731,210	800,000	-0,044	0,101
-730,196	94,908	-0,096	0,081
-729,181	435,685	-0,054	-0,088
-728,167	280,140	-0,083	0,110
-727,152	219,366	0,059	-0,070
-726,137	-200,000	0,042	-0,158
-725,123	-200,000	0,007	-0,077
-724,108	-79,693	-0,072	0,018
-723,094	98,606	-0,110	-0,095
-722,079	-65,041	-0,054	-0,016
-721,064	43,649	-0,132	0,090
-720,050	340,224	-0,111	-0,162
-719,035	-93,511	-0,123	-0,025
-718,021	24,058	-0,040	-0,024
-717,006	209,392	0,025	-0,029
-715,991	138,405	-0,047	-0,046
-714,977	73,924	0,091	-0,071
-713,962	-200,000	0,007	-0,038
-712,948	-200,000	0,005	0,036
-711,933	604,801	-0,032	-0,060
-710,918	-37,315	0,063	0,025
-709,904	-73,024	-0,048	0,013
-708,889	-77,017	0,082	0,021
-707,875	800,000	-0,053	-0,166
-706,860	64,069	-0,113	-0,085
-705,845	-122,834	-0,063	0,008
-704,831	-117,128	0,076	0,010
-703,816	-158,173	-0,100	0,004
-702,802	226,072	0,047	0,057
-701,787	-200,000	0,025	-0,113
-700,772	13,658	-0,105	0,061
-699,758	-200,000	0,007	0,096
-698,743	450,248	-0,046	-0,076
-697,729	-200,000	0,010	-0,034
-696,714	556,462	0,057	0,102
-695,699	-129,616	-0,090	-0,009
-694,685	-200,000	-0,005	-0,099
-693,670	121,464	-0,032	0,029
-692,656	800,000	0,057	0,119
-691,641	-44,293	0,095	0,035
-690,627	-170,311	0,075	0,002
-689,612	527,110	-0,041	-0,071
-688,597	-50,629	-0,025	-0,009
-687,583	-38,479	0,048	0,019
-686,568	-117,184	0,023	0,003
-685,554	800,000	0,039	-0,094
-684,539	262,462	-0,064	0,083
-683,524	-47,763	0,010	-0,004
-682,510	800,000	-0,023	-0,061
-681,495	266,282	-0,067	0,087
-680,481	800,000	-0,026	0,080
-679,466	-200,000	-0,018	-0,069
-678,451	478,024	0,068	-0,115
-677,437	-104,529	0,085	-0,014
-676,422	800,000	0,013	-0,039
-675,408	237,370	-0,015	-0,018
-674,393	736,375	-0,048	-0,097
-673,378	207,422	-0,029	-0,034
-672,364	492,244	0,017	0,029
-671,349	772,252	-0,022	0,046
-670,335	800,000	-0,074	0,163
-669,320	-200,000	0,007	0,053
-668,305	-82,942	0,111	-0,026
-667,291	568,334	-0,079	-0,143
-666,276	70,813	-0,117	-0,090
-665,262	-200,000	-0,015	-0,072
-664,247	-44,072	-0,092	-0,034
-663,232	220,617	0,053	0,063
-662,218	15,702	-0,050	0,029
-661,203	800,000	-0,066	-0,140
-660,189	164,478	0,059	-0,062
-659,174	-200,000	-0,021	-0,087
-658,159	-200,000	-0,005	-0,094
-657,145	-200,000	0,045	-0,202
-656,130	-200,000	-0,035	-0,125
-655,116	27,944	0,072	-0,045
-654,101	99,533	0,040	-0,035
-653,086	-23,127	0,113	-0,050
-652,072	54,573	-0,041	-0,029
-651,057	44,787	-0,085	0,058
-650,043	48,858	0,046	-0,032
-649,028	229,451	0,013	0,016
-648,014	-200,000	-0,008	-0,058
-646,999	-134,226	-0,020	0,002
-645,984	72,954	0,088	-0,068
-644,970	-62,646	0,064	0,020
-643,955	-200,000	-0,015	-0,057
-642,941	-200,000	0,024	-0,080
-641,926	-40,981	-0,104	-0,040
-640,911	-200,000	-0,007	-0,099
-639,897	-200,000	-0,009	-0,083
-638,882	-186,444	-0,059	0,001
-637,868	-200,000	-0,007	-0,139
-636,853	800,000	0,040	0,088
-635,838	-32,243	0,065	0,027
-634,824	800,000	0,008	-0,020
-633,809	-44,063	-0,070	-0,026
-632,795	800,000	-0,017	0,043
-631,780	104,706	0,103	0,090
-630,765	-98,984	-0,038	-0,007
-629,751	-17,459	0,094	0,043
-628,736	159,427	-0,059	-0,061
-627,722	37,760	-0,043	-0,028
-626,707	178,150	0,105	-0,113
-625,692	-94,665	-0,078	0,016
-624,678	331,602	-0,016	-0,024
-623,663	800,000	-0,048	-0,115
-622,649	800,000	0,056	-0,130
-621,634	-200,000	0,005	-0,049
-620,619	-101,832	-0,102	-0,018
-619,605	-96,578	0,176	0,034
-618,590	8,249	0,089	-0,049
-617,576	-200,000	0,009	0,129
-616,561	-200,000	-0,012	0,062
-615,546	275,384	-0,052	-0,069
-614,532	800,000	-0,020	-0,047
-613,517	800,000	-0,060	-0,148
-612,503	-200,000	-0,002	-0,061
-611,488	-200,000	-0,007	-0,113
-610,474	-200,000	0,004	0,077
-609,459	-1,505	-0,143	-0,075
-608,444	-8,365	-0,102	0,051
-607,430	-32,881	0,146	-0,060
-606,415	136,318	-0,066	-0,064
-605,401	800,000	-0,053	0,124
-604,386	800,000	0,016	0,049
-603,371	800,000	0,021	-0,059
-602,357	800,000	0,035	0,079
-601,342	44,618	0,004	0,003
-600,328	-94,309	-0,011	-0,002
-599,313	800,000	-0,032	-0,073
-598,298	68,970	0,054	-0,041
-597,284	284,295	-0,023	-0,031
-596,269	264,499	0,026	0,034
-595,255	-81,150	0,069	-0,017
-594,240	92,157	0,102	-0,085
-593,225	-16,670	0,179	0,084
-592,211	-200,000	0,003	0,012
-591,196	34,132	0,141	0,091
-590,182	185,028	-0,032	-0,036
-589,167	380,431	0,078	0,118
-588,152	-159,279	0,182	0,007
-587,138	-102,747	-0,067	0,012
-586,123	123,427	-0,172	-0,160
-585,109	142,475	-0,095	-0,094
-584,094	-41,830	-0,028	0,011
-583,079	-200,000	0,009	0,118
-582,065	216,263	0,064	-0,076
-581,050	-200,000	0,008	0,096
-580,036	-200,000	0,014	-0,077
-579,021	197,320	0,072	-0,081
-578,006	49,728	-0,106	-0,074
-576,992	-101,341	-0,207	-0,037
-575,977	800,000	-0,021	0,045
-574,963	23,332	0,070	0,042
-573,948	-32,150	-0,133	0,055
-572,934	800,000	0,033	-0,069
-571,919	-200,000	0,006	-0,039
-570,904	276,845	0,036	0,047
-569,890	-30,912	0,056	-0,023
-568,875	-100,405	-0,058	-0,011
-567,861	199,258	-0,016	-0,018
-566,846	48,220	-0,096	-0,067
-565,831	-51,728	-0,026	0,009
-564,817	89,221	-0,208	-0,172
-563,802	800,000	0,024	-0,053
-562,788	-90,216	0,090	0,019
-561,773	-133,624	0,093	0,008
-560,758	130,315	-0,059	0,056
-559,744	-123,462	-0,191	0,022
-558,729	-200,000	-0,011	0,043
-557,715	-200,000	0,001	-0,103
-556,700	124,381	0,039	0,036
-555,685	84,589	-0,044	-0,035
-554,671	-200,000	0,000	-0,104
-553,656	800,000	-0,026	-0,055
-552,642	358,408	-0,051	0,076
-551,627	2,491	0,040	0,022
-550,612	-150,403	-0,051	-0,003
-549,598	67,771	-0,027	0,020
-548,583	-21,611	-0,185	-0,083
-547,569	-28,542	0,135	-0,057
-546,554	-70,484	-0,023	0,006
-545,539	-103,939	0,055	-0,009
-544,525	-200,000	-0,018	0,108
-543,510	-92,642	-0,141	-0,029
-542,496	-48,161	-0,071	0,025
-541,481	81,040	-0,048	-0,038
-540,466	-18,942	-0,047	-0,022
-539,452	-200,000	0,046	0,158
-538,437	69,924	0,066	0,050
-537,423	-129,280	-0,079	-0,008
-536,408	384,063	-0,088	-0,134
-535,393	-200,000	0,026	-0,139
-534,379	119,733	-0,022	0,021
-533,364	800,000	-0,041	0,097
-532,350	-100,553	0,072	-0,013
-531,335	-94,261	-0,129	0,026
-530,321	800,000	0,012	-0,026
-529,306	560,579	-0,053	0,094
-528,291	273,507	-0,082	-0,107
-527,277	-200,000	-0,026	-0,176
-526,262	-17,683	-0,074	-0,034
-525,248	44,552	-0,074	-0,050
-524,233	-200,000	0,012	0,045
-523,218	800,000	-0,018	0,052
-522,204	-89,134	-0,097	-0,021
-521,189	-34,877	-0,155	-0,062
-520,175	-129,636	0,074	-0,007
-519,160	677,766	-0,027	0,052
-518,145	-59,048	-0,034	-0,011
-517,131	-165,458	0,129	0,004
-516,116	-200,000	0,018	0,103
-515,102	-18,966	0,053	0,024
-514,087	-200,000	0,001	0,066
-513,072	-181,563	0,049	-0,001
-512,058	0,322	-0,051	-0,027
-511,043	-171,398	0,110	0,003
-510,029	763,140	0,044	0,089
-509,014	-97,244	-0,231	0,044
-507,999	-200,000	0,009	0,095
-506,985	-200,000	0,001	-0,031
-505,970	-171,920	-0,088	-0,002
-504,956	271,440	0,031	0,041
-503,941	-142,078	0,109	-0,008
-502,926	151,112	0,057	0,057
-501,912	6,120	0,132	0,072
-500,897	800,000	0,008	-0,022
-499,883	-200,000	-0,028	0,111
-498,868	209,452	-0,059	0,068
-497,853	213,990	0,025	0,029
-496,839	89,363	0,051	0,042
-495,824	-57,202	0,049	-0,016
-494,810	-181,881	0,089	-0,001
-493,795	705,301	0,073	0,142
-492,781	-90,442	0,110	0,023
-491,766	220,159	0,086	0,102
-490,751	800,000	-0,047	-0,105
-489,737	800,000	-0,007	-0,021
-488,722	800,000	-0,050	0,163
-487,708	-114,309	-0,042	0,006
-486,693	-200,000	0,035	0,154
-485,678	51,602	-0,046	-0,032
-484,664	-53,933	0,128	0,043
-483,649	800,000	-0,029	-0,070
-482,635	197,473	0,043	0,048
-481,620	216,337	0,031	0,037
-480,605	25,003	0,044	0,027
-479,591	800,000	-0,015	-0,037
-478,576	800,000	-0,029	0,088
-477,562	-200,000	0,001	-0,062
-476,547	210,188	-0,033	-0,039
-475,532	-27,523	0,073	0,031
-474,518	3,761	0,051	-0,027
-473,503	-8,315	-0,056	-0,028
-472,489	-144,286	0,119	-0,008
-471,474	-200,000	0,007	0,049
-470,459	239,963	-0,006	-0,008
-469,445	-153,204	0,135	-0,007
-468,430	-49,173	-0,058	-0,020
-467,416	71,065	0,009	-0,007
-466,401	-184,414	0,071	0,001
-465,386	-200,000	0,021	0,122
-464,372	385,937	0,018	-0,028
-463,357	-98,995	-0,104	-0,019
-462,343	-130,830	0,013	0,001
-461,328	-200,000	-0,001	-0,003
-460,313	-200,000	-0,001	0,039
-459,299	200,283	0,053	-0,060
-458,284	140,502	0,085	-0,083
-457,270	-200,000	0,001	0,040
-456,255	138,765	-0,119	0,115
-455,241	-68,909	0,089	0,025
-454,226	84,470	-0,092	0,074
-453,211	-115,226	0,109	0,015
-452,197	37,950	0,068	-0,044
-451,182	800,000	0,056	0,120
-450,168	-200,000	-0,022	0,078
-449,153	-200,000	-0,002	0,036
-448,138	755,999	-0,036	-0,072
-447,124	-125,952	0,080	-0,009
-446,109	429,526	0,012	-0,019
-445,095	21,141	0,146	-0,087
-444,080	-200,000	0,007	0,112
-443,065	88,784	-0,008	0,007
-442,051	-47,153	0,108	-0,039
-441,036	800,000	0,028	-0,071
-440,022	579,925	-0,072	-0,131
-439,007	608,607	0,047	-0,086
-437,992	-154,739	0,155	0,007
-436,978	-110,527	0,106	0,016
-435,963	-150,446	0,126	0,007
-434,949	-200,000	0,002	-0,006
-433,934	429,803	-0,052	-0,083
-432,919	-67,108	-0,058	0,017
-431,905	800,000	-0,029	0,065
-430,890	509,712	0,104	-0,178
-429,876	-132,751	-0,115	-0,011
-428,861	-97,860	-0,094	-0,018
-427,846	25,137	-0,066	0,040
-426,832	657,898	0,033	-0,064
-425,817	227,712	-0,057	-0,068
-424,803	-200,000	0,012	-0,106
-423,788	415,785	0,078	0,122
-422,773	236,978	0,021	-0,026
-421,759	687,553	0,016	0,032
-420,744	-200,000	0,001	-0,036
-419,730	261,841	-0,038	0,049
-418,715	40,105	-0,047	0,031
-417,701	391,395	-0,025	-0,038
-416,686	206,448	0,016	-0,019
-415,671	725,871	-0,030	-0,059
-414,657	51,945	0,019	0,013
-413,642	-45,003	0,148	0,054
-412,628	-90,236	-0,124	0,026
-411,613	-200,000	-0,015	-0,051
-410,598	719,818	0,017	-0,033
-409,584	144,977	0,064	0,063
-408,569	-115,532	0,051	-0,007
-407,555	-127,342	0,114	0,012
-406,540	-200,000	0,026	-0,112
-405,525	254,520	-0,033	-0,041
-404,511	800,000	-0,005	-0,015
-403,496	380,099	-0,077	0,116
-402,482	-200,000	0,004	0,103
-401,467	-200,000	0,006	-0,057
-400,452	-200,000	-0,017	0,085
-399,438	-2,225	-0,079	0,041
-398,423	191,609	0,082	-0,091
-397,409	800,000	-0,025	-0,052
-396,394	501,652	-0,052	0,089
-395,379	-75,348	0,084	0,022
-394,365	-200,000	-0,003	-0,043
-393,350	643,620	0,030	-0,057
-392,336	800,000	0,028	-0,091
-391,321	-69,419	-0,083	0,023
-390,306	409,642	0,033	-0,051
-389,292	-14,754	-0,128	-0,060
-388,277	8,944	-0,135	0,075
-387,263	-200,000	0,030	0,103
-386,248	800,000	0,049	0,107
-385,233	-104,548	-0,027	0,005
-384,219	-92,196	0,079	0,016
-383,204	-79,938	-0,148	0,036
-382,190	-142,073	0,078	-0,006
-381,175	800,000	-0,065	-0,162
-380,160	202,421	0,156	0,177
-379,146	117,353	-0,084	-0,076
-378,131	-69,137	0,129	0,036
-377,117	-200,000	0,037	0,166
-376,102	-200,000	0,004	0,181
-375,088	79,738	0,058	0,046
-374,073	530,408	0,055	0,095
-373,058	295,441	0,075	-0,101
-372,044	148,205	0,152	0,151
-371,029	120,493	0,051	0,047
-370,015	165,539	-0,040	0,041
-369,000	-200,000	-0,008	-0,032
-367,985	-18,500	-0,036	-0,016
-366,971	-148,821	0,098	-0,006
-365,956	-200,000	-0,005	0,089
-364,942	-139,291	0,114	-0,009
-363,927	303,962	0,019	0,026
-362,912	88,961	-0,133	-0,109
-361,898	800,000	-0,047	0,141
-360,883	62,940	-0,041	-0,030
-359,869	-200,000	-0,001	-0,100
-358,854	77,341	0,119	0,093
-357,839	-200,000	-0,006	0,021
-356,825	-15,046	0,101	0,047
-355,810	-155,704	0,050	-0,002
-354,796	286,912	-0,070	0,093
-353,781	319,765	-0,019	-0,027
-352,766	566,761	-0,053	-0,094
-351,752	-50,863	0,035	0,012
-350,737	388,537	0,048	0,073
-349,723	-44,959	0,112	0,041
-348,708	262,869	0,066	-0,085
-347,693	-200,000	0,003	0,057
-346,679	800,000	-0,036	0,082
-345,664	82,393	-0,103	-0,082
-344,650	-200,000	0,001	-0,147
-343,635	-113,384	0,099	0,014
-342,620	-200,000	0,001	0,081
-341,606	800,000	-0,044	0,121
-340,591	-73,633	0,170	0,045
-339,577	441,179	-0,062	-0,100
-338,562	800,000	0,008	0,018
-337,548	260,050	0,010	0,013
-336,533	-109,783	0,089	-0,014
-335,518	84,481	-0,020	0,016
-334,504	800,000	0,003	-0,006
-333,489	331,455	0,023	-0,032
-332,475	-200,000	-0,005	0,169
-331,460	800,000	0,022	0,047
-330,445	182,618	-0,207	-0,224
-329,431	800,000	0,025	-0,070
-328,416	-102,589	0,129	-0,022
-327,402	-53,913	0,102	-0,034
-326,387	-200,000	-0,008	-0,033
-325,372	-200,000	0,001	-0,048
-324,358	3,593	-0,077	-0,041
-323,343	233,156	0,044	-0,053
-322,329	165,383	-0,021	-0,022
-321,314	291,341	0,103	0,138
-320,299	800,000	0,013	0,030
-319,285	-74,080	-0,133	0,035
-318,270	-79,041	0,098	-0,024
-317,256	-200,000	-0,007	-0,044
-316,241	556,688	-0,045	-0,080
-315,226	747,487	0,017	-0,034
-314,212	42,834	0,029	-0,019
-313,197	41,140	-0,079	0,052
-312,183	-200,000	-0,018	0,174
-311,168	-68,271	0,046	-0,013
-310,153	71,981	-0,079	-0,060
-309,139	800,000	-0,061	-0,124
-308,124	325,948	-0,039	-0,055
-307,110	-53,970	0,084	0,028
-306,095	31,147	0,098	0,061
-305,080	328,709	0,046	0,065
-304,066	300,792	0,106	0,144
-303,051	-126,505	-0,184	-0,020
-302,037	800,000	0,027	-0,077
-301,022	-200,000	-0,001	-0,023
-300,008	800,000	-0,053	0,109
-298,993	155,085	0,051	0,051
-297,978	5,333	0,101	0,055
-296,964	33,036	-0,126	-0,080
-295,949	-114,270	-0,044	-0,006
-294,935	-200,000	-0,018	-0,079
-293,920	-200,000	0,006	-0,059
-292,905	-95,463	-0,025	-0,005
-291,891	-106,624	0,034	-0,006
-290,876	-82,355	-0,049	-0,012
-289,862	-41,617	0,093	0,035
-288,847	600,533	-0,016	0,029
-287,832	-200,000	0,008	0,085
-286,818	-80,732	0,127	0,031
-285,803	334,172	-0,011	0,016
-284,789	183,677	0,065	0,071
-283,774	800,000	0,035	0,105
-282,759	169,612	-0,093	0,098
-281,745	-43,080	-0,044	-0,016
-280,730	-68,506	-0,021	0,006
-279,716	-145,063	-0,106	-0,007
-278,701	-150,570	-0,142	-0,008
-277,686	-200,000	-0,007	-0,047
-276,672	800,000	0,053	0,114
-275,657	-83,031	-0,093	0,022
-274,643	161,766	-0,110	-0,113
-273,628	-99,516	-0,100	-0,018
-272,613	-127,960	0,136	-0,014
-271,599	415,805	-0,038	-0,060
-270,584	234,302	0,089	0,107
-269,570	-200,000	-0,006	0,055
-268,555	800,000	-0,017	0,035
-267,540	67,365	0,016	-0,012
-266,526	800,000	0,051	-0,125
-265,511	-200,000	-0,017	-0,121
-264,497	-8,240	0,037	-0,018
-263,482	170,902	-0,098	-0,103
-262,467	18,847	-0,055	-0,032
-261,453	710,236	-0,013	-0,026
-260,438	63,093	-0,059	-0,043
-259,424	61,319	-0,063	-0,046
-258,409	61,188	0,106	0,077
-257,395	534,251	0,029	0,051
-256,380	-22,716	-0,105	0,046
-255,365	-42,603	0,158	0,059
-254,351	-105,897	0,086	0,014
-253,336	800,000	-0,052	0,152
-252,322	-200,000	0,014	-0,087
-251,307	800,000	0,097	-0,225
-250,292	0,453	-0,063	-0,033
-249,278	-8,870	0,052	-0,025
-248,263	-200,000	-0,010	0,043
-247,249	178,701	0,133	0,143
-246,234	-29,530	-0,138	-0,057
-245,219	301,728	-0,016	0,022
-244,205	112,136	-0,031	-0,028
-243,190	800,000	0,025	-0,078
-242,176	-200,000	-0,022	0,259
-241,161	-200,000	-0,006	0,047
-240,146	495,215	-0,033	0,056
-239,132	42,769	-0,095	-0,063
-238,117	425,838	0,016	0,026
-237,103	75,484	-0,129	-0,100
-236,088	-200,000	0,026	-0,105
-235,073	90,446	0,112	0,092
-234,059	-200,000	0,011	0,061
-233,044	-37,192	0,140	0,054
-232,030	-200,000	-0,008	0,033
-231,015	-34,851	-0,171	0,068
-230,000	367,986	0,025	-0,038
-228,986	-36,176	0,073	0,028
-227,971	281,102	-0,049	-0,064
-226,957	-200,000	-0,038	0,145
-225,942	128,496	0,083	0,077
-224,927	257,354	-0,044	0,055
-223,913	800,000	-0,089	-0,217
-222,898	800,000	-0,055	-0,135
-221,884	-200,000	0,005	0,106
-220,869	533,317	0,073	0,128
-219,855	-200,000	0,009	0,040
-218,840	-13,949	-0,032	0,015
-217,825	191,086	-0,092	-0,101
-216,811	-200,000	-0,000	-0,068
-215,796	800,000	-0,044	0,091
-214,782	518,858	0,034	0,058
-213,767	-64,061	0,020	0,006
-212,752	1,091	-0,115	0,060
-211,738	521,887	-0,047	0,081
-210,723	2,649	-0,014	0,008
-209,709	-28,161	0,105	0,044
-208,694	18,009	0,130	-0,076
-207,679	800,000	-0,012	0,029
-206,665	145,549	-0,074	-0,072
-205,650	-121,443	0,024	0,003
-204,636	326,614	-0,059	0,083
-203,621	-200,000	-0,010	-0,121
-202,606	228,552	-0,054	-0,064
-201,592	-200,000	-0,016	-0,059
-200,577	145,366	0,066	-0,064
-199,563	680,443	0,069	0,131
-198,548	90,306	0,036	0,030
-197,533	-21,250	-0,152	-0,068
-196,519	-27,958	-0,129	-0,054
-195,504	-136,429	-0,111	0,009
-194,490	298,793	-0,018	-0,025
-193,475	48,360	-0,046	-0,031
-192,460	44,996	-0,058	-0,039
-191,446	-200,000	-0,003	-0,034
-190,431	36,940	0,057	-0,037
-189,417	-125,615	-0,187	0,020
-188,402	-200,000	0,014	0,129
-187,387	-19,218	-0,019	-0,009
-186,373	800,000	-0,017	0,039
-185,358	800,000	0,020	0,048
-184,344	320,198	0,048	0,067
-183,329	469,589	-0,015	-0,024
-182,315	764,548	0,080	0,159
-181,300	-200,000	-0,071	0,000
-180,285	-123,478	-0,085	0,010
-179,271	800,000	0,041	-0,096
-178,256	-200,000	0,001	0,019
-177,242	9,579	-0,064	-0,035
-176,227	-200,000	0,014	0,150
-175,212	-123,667	-0,077	0,009
-174,198	-200,000	0,016	-0,141
-173,183	507,779	-0,042	0,072
-172,169	-137,706	-0,131	0,011
-171,154	-37,735	0,019	0,007
-170,139	-168,441	-0,058	0,002
-169,125	-200,000	0,000	-0,026
-168,110	155,671	0,041	0,041
-167,096	800,000	-0,017	-0,044
-166,081	-157,461	0,111	-0,005
-165,066	-107,895	0,043	0,007
-164,052	488,993	0,063	-0,106
-163,037	-73,690	-0,117	-0,031
-162,023	-57,710	0,044	-0,014
-161,008	-200,000	-0,001	-0,007
-159,993	248,638	-0,047	-0,058
-158,979	486,454	-0,129	-0,215
-157,964	-200,000	-0,029	-0,174
-156,950	-11,049	-0,014	-0,007
-155,935	-200,000	-0,004	0,085
-154,920	-89,865	0,091	0,019
-153,906	61,179	0,041	0,030
-152,891	407,603	0,096	-0,149
-151,877	-200,000	0,004	0,171
-150,862	-168,864	0,090	-0,002
-149,847	-145,073	-0,049	0,003
-148,833	-82,823	-0,095	-0,022
-147,818	79,410	0,024	-0,019
-146,804	-117,980	0,067	-0,009
-145,789	-200,000	0,023	0,121
-144,775	-98,280	-0,192	0,036
-143,760	-200,000	0,001	-0,085
-142,745	800,000	0,065	-0,170
-141,731	-200,000	-0,001	-0,019
-140,716	800,000	-0,051	0,127
-139,702	207,691	0,134	0,153
-138,687	-200,000	-0,013	0,057
-137,672	-38,409	0,029	-0,011
-136,658	-63,358	0,069	-0,020
-135,643	-112,976	-0,114	0,016
-134,629	-80,353	-0,038	-0,009
-133,614	190,309	0,048	0,052
-132,599	6,253	0,057	-0,031
-131,585	-200,000	-0,025	0,098
-130,570	2,319	0,023	0,012
-129,556	149,930	-0,125	0,123
-128,541	-200,000	-0,006	-0,107
-127,526	-97,258	-0,032	0,006
-126,512	800,000	0,024	-0,075
-125,497	553,569	0,076	0,134
-124,483	259,693	-0,037	-0,046
-123,468	17,136	-0,037	-0,021
-122,453	434,430	0,062	-0,098
-121,439	7,063	-0,041	0,022
-120,424	-200,000	0,021	0,113
-119,410	401,110	0,066	-0,101
