DTS Sentinel unit serial number:	SN410029Multiplexer serial number:	ORYXHardware model number:	OX2-SRSoftware version number:	ORYX F/W v4,00 Oryx Data Collector v3.7.2.0data status	okinstallation	B6 Nyhavnadifferential loss correction	single-endedforward channel	channel 2reverse channel	N/Adate	2023/12/08time	18:15:08forward acquisition time	300,00reverse acquisition time	0,00gamma	499,1914k internal	0,3158k external	0,3158temperature offset calibration	1,0000default loss term (dB/km)	0,3820temperature slope calibration	1,0000multiplexer offset coefficient	1,0000multiplexer slope coefficient	1,0000fibre end	0,00T internal ref (°C)	15,25T ext. ref 1 (°C)	-1,24T ext. ref 2 (°C)	-1,25length (m)	temperature (°C)	Stokes	anti-Stokes-744,400	-60,860	0,228	-0,071
-743,385	-136,715	-0,436	0,037
-742,371	173,972	0,133	0,142
-741,356	-107,668	-0,182	-0,029
-740,342	135,791	0,013	0,013
-739,327	-58,873	-0,390	-0,124
-738,312	30,725	0,125	-0,079
-737,298	-99,397	-0,211	0,039
-736,283	-56,548	0,085	0,027
-735,269	-114,596	-0,367	0,051
-734,254	46,052	0,159	0,108
-733,239	-40,761	-0,456	-0,173
-732,225	136,421	0,084	0,081
-731,210	217,843	-0,049	0,058
-730,196	-25,380	0,086	-0,037
-729,181	252,337	-0,061	0,077
-728,167	41,228	0,117	-0,078
-727,152	-200,000	-0,020	-0,119
-726,137	-200,000	-0,041	-0,160
-725,123	0,195	-0,074	0,039
-724,108	-200,000	0,016	-0,059
-723,094	74,339	-0,105	0,081
-722,079	-114,493	-0,070	0,010
-721,064	-200,000	-0,016	-0,089
-720,050	-156,069	0,123	0,006
-719,035	283,248	-0,130	-0,173
-718,021	-120,619	-0,064	0,008
-717,006	800,000	-0,034	-0,100
-715,991	471,614	-0,032	-0,053
-714,977	442,439	-0,044	0,072
-713,962	503,386	-0,074	0,127
-712,948	97,758	-0,051	-0,043
-711,933	800,000	0,027	0,058
-710,918	436,877	-0,065	-0,105
-709,904	800,000	-0,079	-0,193
-708,889	-74,205	0,038	0,010
-707,875	-200,000	0,025	-0,132
-706,860	61,161	-0,072	0,052
-705,845	-200,000	-0,010	0,185
-704,831	-200,000	0,009	-0,033
-703,816	-173,306	0,097	-0,002
-702,802	-200,000	-0,003	0,045
-701,787	-200,000	-0,015	0,069
-700,772	800,000	-0,043	0,099
-699,758	-67,015	-0,037	0,011
-698,743	317,309	0,032	0,045
-697,729	60,062	0,071	0,052
-696,714	153,281	0,022	-0,022
-695,699	-25,497	0,049	0,021
-694,685	154,385	-0,078	-0,079
-693,670	665,984	0,073	-0,140
-692,656	-200,000	-0,022	-0,082
-691,641	-200,000	-0,017	0,071
-690,627	157,289	-0,043	0,044
-689,612	-53,787	-0,029	-0,010
-688,597	-200,000	0,021	-0,106
-687,583	68,673	-0,119	-0,090
-686,568	800,000	-0,012	-0,031
-685,554	517,162	-0,083	-0,144
-684,539	609,665	0,056	-0,104
-683,524	-127,752	-0,121	-0,013
-682,510	-200,000	0,001	-0,079
-681,495	-114,158	-0,119	0,017
-680,481	-200,000	-0,010	-0,035
-679,466	79,573	-0,144	-0,114
-678,451	41,162	0,091	-0,060
-677,437	172,620	0,102	0,108
-676,422	140,413	-0,076	0,074
-675,408	-200,000	0,007	-0,038
-674,393	800,000	-0,023	0,058
-673,378	283,596	0,034	0,045
-672,364	-94,904	0,062	-0,012
-671,349	-200,000	-0,006	-0,049
-670,335	800,000	0,057	-0,141
-669,320	98,771	-0,090	-0,077
-668,305	31,525	-0,103	0,065
-667,291	37,046	0,044	0,029
-666,276	712,633	-0,065	-0,127
-665,262	-200,000	-0,011	-0,042
-664,247	-89,756	0,071	-0,015
-663,232	800,000	0,040	-0,121
-662,218	-11,953	0,053	0,025
-661,203	581,380	-0,046	-0,084
-660,189	5,888	-0,052	0,028
-659,174	30,026	0,043	0,027
-658,159	-200,000	-0,031	0,104
-657,145	289,328	-0,100	-0,134
-656,130	286,156	-0,032	0,043
-655,116	0,829	0,111	0,058
-654,101	-200,000	0,019	-0,096
-653,086	296,920	0,025	-0,034
-652,072	44,507	-0,125	-0,084
-651,057	-200,000	-0,019	-0,099
-650,043	-71,700	0,037	-0,010
-649,028	-108,534	0,026	-0,004
-648,014	-200,000	0,017	0,166
-646,999	-200,000	-0,021	0,136
-645,984	800,000	0,050	-0,105
-644,970	48,618	-0,046	0,032
-643,955	-200,000	0,008	-0,065
-642,941	-200,000	-0,018	-0,117
-641,926	409,866	-0,011	-0,016
-640,911	-111,005	-0,062	0,009
-639,897	800,000	0,058	-0,125
-638,882	800,000	0,036	-0,074
-637,868	-200,000	-0,011	-0,132
-636,853	-154,284	-0,235	-0,011
-635,838	800,000	-0,048	0,124
-634,824	800,000	-0,013	0,033
-633,809	-200,000	0,011	-0,049
-632,795	-200,000	0,001	0,070
-631,780	-200,000	0,012	0,106
-630,765	-84,488	-0,050	0,012
-629,751	-124,005	0,076	0,009
-628,736	-6,206	0,049	0,024
-627,722	65,312	-0,068	-0,051
-626,707	-85,386	-0,116	-0,026
-625,692	-112,239	-0,104	0,015
-624,678	-200,000	-0,001	0,073
-623,663	-14,331	-0,071	-0,033
-622,649	275,761	0,036	-0,047
-621,634	213,667	-0,036	0,042
-620,619	60,283	0,099	-0,072
-619,605	31,217	-0,124	0,078
-618,590	562,967	0,040	0,072
-617,576	-127,330	-0,099	0,010
-616,561	800,000	-0,087	0,178
-615,546	-192,369	0,066	-0,000
-614,532	75,019	-0,140	0,108
-613,517	120,422	0,061	0,056
-612,503	197,656	-0,070	0,078
-611,488	800,000	-0,049	0,107
-610,474	546,420	0,066	-0,116
-609,459	-200,000	-0,008	0,104
-608,444	9,403	0,051	-0,028
-607,430	666,040	-0,034	-0,065
-606,415	-64,972	-0,109	0,032
-605,401	91,686	0,030	0,025
-604,386	-44,077	-0,115	-0,042
-603,371	157,036	0,040	0,041
-602,357	-92,589	-0,092	-0,019
-601,342	-108,320	0,086	-0,013
-600,328	93,712	-0,111	-0,092
-599,313	-95,042	-0,109	-0,021
-598,298	113,907	0,115	0,102
-597,284	66,021	0,064	0,047
-596,269	-22,431	-0,104	-0,046
-595,255	137,788	0,061	-0,059
-594,240	-34,229	0,142	0,057
-593,225	-200,000	-0,073	-0,291
-592,211	77,594	0,068	-0,053
-591,196	800,000	-0,039	-0,089
-590,182	800,000	-0,054	0,175
-589,167	-99,231	0,098	0,018
-588,152	10,020	-0,110	0,061
-587,138	-200,000	0,014	0,060
-586,123	-200,000	0,020	-0,086
-585,109	120,626	-0,084	-0,076
-584,094	46,427	0,054	0,037
-583,079	518,415	0,091	0,157
-582,065	-42,061	-0,169	0,063
-581,050	-200,000	-0,042	0,162
-580,036	-46,081	-0,101	0,036
-579,021	-200,000	-0,036	-0,237
-578,006	683,794	0,048	-0,092
-576,992	365,314	-0,093	-0,137
-575,977	97,876	-0,074	0,062
-574,963	800,000	-0,015	0,046
-573,948	148,121	-0,067	-0,067
-572,934	-200,000	-0,035	-0,167
-571,919	-200,000	-0,007	-0,108
-570,904	28,498	-0,125	-0,077
-569,890	-124,179	-0,065	0,007
-568,875	666,593	0,100	-0,189
-567,861	-200,000	-0,004	-0,191
-566,846	39,040	0,056	-0,036
-565,831	43,587	0,012	0,008
-564,817	-53,183	-0,100	0,034
-563,802	800,000	-0,031	-0,078
-562,788	-14,222	0,028	-0,013
-561,773	-200,000	0,002	0,073
-560,758	-200,000	0,023	0,093
-559,744	-200,000	0,025	0,159
-558,729	-96,489	0,041	0,008
-557,715	-18,015	-0,065	0,030
-556,700	-89,144	0,009	-0,002
-555,685	121,720	-0,104	-0,095
-554,671	-200,000	-0,016	-0,078
-553,656	200,177	0,086	0,097
-552,642	800,000	0,042	0,126
-551,627	-27,084	-0,071	0,030
-550,612	20,159	-0,133	-0,078
-549,598	800,000	0,082	-0,176
-548,583	-82,521	-0,076	0,018
-547,569	-200,000	0,022	-0,113
-546,554	-112,457	0,042	0,006
-545,539	-26,327	0,099	-0,042
-544,525	-200,000	-0,039	-0,147
-543,510	800,000	0,049	0,153
-542,496	-34,709	-0,132	-0,053
-541,481	-110,189	-0,115	-0,017
-540,466	115,280	-0,088	-0,079
-539,452	-200,000	0,018	0,064
-538,437	800,000	0,020	0,042
-537,423	-161,171	0,060	-0,002
-536,408	-200,000	0,014	0,059
-535,393	213,441	-0,036	-0,041
-534,379	738,816	0,041	-0,081
-533,364	-200,000	-0,035	0,145
-532,350	370,865	0,055	-0,082
-531,335	-144,204	0,167	-0,011
-530,321	37,760	-0,111	-0,072
-529,306	-200,000	-0,074	0,000
-528,291	800,000	0,051	-0,106
-527,277	-146,156	0,166	0,011
-526,262	-14,313	0,039	-0,018
-525,248	800,000	0,014	0,030
-524,233	800,000	-0,011	0,032
-523,218	-185,848	0,115	0,001
-522,204	-173,578	0,081	-0,002
-521,189	-91,453	-0,085	0,018
-520,175	-132,454	-0,040	-0,004
-519,160	-65,798	0,112	0,033
-518,145	800,000	0,025	0,056
-517,131	-200,000	0,008	0,113
-516,116	-200,000	-0,004	0,178
-515,102	-102,520	-0,105	0,018
-514,087	-69,492	0,048	0,013
-513,072	-200,000	-0,025	-0,129
-512,058	343,649	0,050	-0,072
-511,043	-200,000	-0,010	0,147
-510,029	219,284	0,042	0,049
-509,014	800,000	0,020	0,043
-507,999	66,320	0,070	-0,052
-506,985	-200,000	0,029	-0,203
-505,970	-9,669	-0,138	0,067
-504,956	800,000	-0,038	0,102
-503,941	800,000	0,024	-0,059
-502,926	800,000	0,030	-0,082
-501,912	27,215	-0,089	0,055
-500,897	220,666	-0,033	0,039
-499,883	-120,724	-0,103	-0,013
-498,868	800,000	-0,041	-0,101
-497,853	-200,000	0,012	-0,201
-496,839	-130,723	-0,117	-0,011
-495,824	344,308	-0,007	0,010
-494,810	-74,025	-0,060	0,016
-493,795	331,251	-0,051	-0,072
-492,781	146,326	0,021	0,021
-491,766	170,720	0,019	0,020
-490,751	-200,000	0,003	-0,058
-489,737	-200,000	0,005	-0,074
-488,722	24,879	0,090	0,054
-487,708	44,171	-0,038	0,026
-486,693	239,411	-0,089	-0,108
-485,678	-200,000	0,003	0,112
-484,664	-40,932	0,158	-0,059
-483,649	15,658	-0,081	0,046
-482,635	-200,000	0,015	-0,125
-481,620	-24,904	-0,050	0,022
-480,605	-200,000	0,020	0,092
-479,591	-149,352	0,136	-0,008
-478,576	800,000	-0,025	-0,064
-477,562	-176,366	-0,018	-0,000
-476,547	-60,385	-0,125	-0,039
-475,532	-84,118	-0,036	-0,008
-474,518	272,503	0,011	-0,015
-473,503	-69,860	0,089	0,025
-472,489	201,136	0,078	0,088
-471,474	71,529	-0,049	-0,037
-470,459	-200,000	-0,005	-0,172
-469,445	541,180	-0,065	-0,114
-468,430	178,650	0,021	0,023
-467,416	-200,000	0,004	0,087
-466,401	0,039	0,071	0,037
-465,386	516,864	-0,009	-0,015
-464,372	-81,336	0,139	0,033
-463,357	438,684	-0,045	-0,071
-462,343	-200,000	-0,027	-0,091
-461,328	24,057	-0,031	-0,018
-460,313	571,873	0,033	-0,059
-459,299	-37,818	-0,067	0,026
-458,284	-49,225	0,052	0,018
-457,270	-200,000	-0,001	-0,071
-456,255	105,533	-0,012	0,010
-455,241	76,720	-0,147	-0,113
-454,226	-200,000	0,015	-0,144
-453,211	71,591	-0,086	0,065
-452,197	-200,000	-0,010	-0,133
-451,182	-155,162	0,203	-0,010
-450,168	-200,000	-0,014	0,090
-449,153	800,000	0,048	0,108
-448,138	621,950	-0,031	-0,058
-447,124	800,000	0,020	-0,042
-446,109	-4,054	-0,062	0,031
-445,095	-200,000	-0,007	0,171
-444,080	-200,000	0,019	0,091
-443,065	12,461	-0,221	0,124
-442,051	-200,000	0,002	0,096
-441,036	-29,523	0,038	-0,016
-440,022	72,768	0,082	-0,062
-439,007	-42,321	-0,161	-0,060
-437,992	800,000	0,033	-0,088
-436,978	800,000	0,082	-0,170
-435,963	-200,000	-0,009	0,038
-434,949	-123,398	-0,088	0,010
-433,934	563,590	0,016	0,028
-432,919	-200,000	0,004	-0,073
-431,905	358,513	-0,078	0,114
-430,890	-173,223	0,094	0,002
-429,876	-122,198	0,048	0,006
-428,861	-187,535	0,090	0,001
-427,846	178,546	-0,016	0,017
-426,832	800,000	-0,053	-0,116
-425,817	192,142	0,081	-0,089
-424,803	102,587	-0,087	0,074
-423,788	-88,623	-0,062	0,013
-422,773	-36,639	0,162	-0,063
-421,759	629,638	-0,050	-0,092
-420,744	105,211	-0,066	0,057
-419,730	-114,085	-0,126	0,018
-418,715	100,595	-0,110	-0,093
-417,701	-95,301	-0,056	0,011
-416,686	220,756	0,025	-0,029
-415,671	497,995	-0,040	-0,067
-414,657	-200,000	-0,006	0,047
-413,642	800,000	-0,030	-0,076
-412,628	-200,000	-0,019	0,097
-411,613	800,000	0,044	-0,095
-410,598	-200,000	0,005	0,084
-409,584	-55,121	-0,068	0,022
-408,569	800,000	0,054	-0,112
-407,555	742,253	0,043	0,084
-406,540	800,000	-0,041	0,096
-405,525	800,000	-0,063	-0,150
-404,511	-200,000	0,028	-0,119
-403,496	-200,000	0,003	-0,033
-402,482	-200,000	0,011	0,083
-401,467	-122,989	-0,029	0,003
-400,452	47,420	0,084	0,057
-399,438	376,389	-0,064	-0,096
-398,423	34,174	-0,054	-0,034
-397,409	-111,979	-0,080	0,012
-396,394	-91,794	0,174	-0,036
-395,379	-200,000	-0,001	-0,035
-394,365	356,065	0,097	0,141
-393,350	-65,763	-0,055	0,016
-392,336	-4,014	-0,030	0,015
-391,321	-109,582	0,144	-0,022
-390,306	-114,479	0,073	0,010
-389,292	375,996	0,048	0,072
-388,277	-200,000	0,005	-0,047
-387,263	-200,000	0,039	0,149
-386,248	75,863	0,036	0,028
-385,233	-200,000	-0,017	0,081
-384,219	-101,181	0,060	-0,010
-383,204	173,075	0,010	-0,011
-382,190	-200,000	-0,039	0,126
-381,175	338,022	0,020	0,028
-380,160	494,379	0,049	-0,082
-379,146	106,846	0,068	0,059
-378,131	-200,000	-0,005	0,134
-377,117	254,856	-0,069	0,085
-376,102	141,294	-0,109	-0,105
-375,088	2,465	0,023	-0,012
-374,073	-163,156	0,122	0,004
-373,058	-144,477	0,048	0,003
-372,044	420,138	0,084	0,131
-371,029	-200,000	0,016	-0,058
-370,015	-106,354	0,194	-0,031
-369,000	3,765	-0,044	-0,023
-367,985	-200,000	-0,033	0,109
-366,971	22,070	-0,054	-0,032
-365,956	-84,461	0,167	0,038
-364,942	-200,000	0,005	0,025
-363,927	80,172	-0,090	0,070
-362,912	544,074	0,010	-0,018
-361,898	-200,000	0,000	-0,092
-360,883	117,772	-0,086	0,077
-359,869	-200,000	0,021	-0,069
-358,854	800,000	0,033	-0,092
-357,839	-200,000	0,013	0,069
-356,825	-129,936	0,145	0,014
-355,810	-68,522	-0,030	-0,008
-354,796	-200,000	-0,021	0,075
-353,781	-200,000	0,007	0,157
-352,766	-10,761	0,133	0,064
-351,752	-123,843	0,163	0,018
-350,737	-78,325	0,120	-0,030
-349,723	124,732	0,072	0,066
-348,708	-200,000	-0,007	0,047
-347,693	-200,000	-0,003	0,013
-346,679	800,000	0,016	0,049
-345,664	-8,029	-0,077	0,037
-344,650	87,812	0,091	0,073
-343,635	800,000	-0,041	-0,114
-342,620	215,752	0,088	-0,101
-341,606	-24,484	0,064	0,028
-340,591	-24,430	-0,060	0,026
-339,577	-200,000	0,008	-0,044
-338,562	-46,364	0,042	-0,015
-337,548	412,780	0,074	0,115
-336,533	800,000	-0,075	0,215
-335,518	-3,811	0,117	0,059
-334,504	-200,000	0,025	0,121
-333,489	125,715	0,139	0,127
-332,475	527,444	-0,048	-0,082
-331,460	-90,737	-0,067	-0,014
-330,445	-42,818	0,058	-0,021
-329,431	-40,779	0,119	-0,045
-328,416	55,869	-0,084	-0,059
-327,402	-159,912	0,050	0,002
-326,387	143,546	-0,034	0,033
-325,372	670,521	0,007	0,013
-324,358	737,230	-0,012	0,024
-323,343	-200,000	-0,021	0,106
-322,329	-84,447	-0,051	0,011
-321,314	-200,000	0,008	0,032
-320,299	59,958	0,109	0,078
-319,285	81,634	-0,085	-0,066
-318,270	800,000	-0,045	-0,102
-317,256	-200,000	0,004	-0,024
-316,241	-0,903	0,010	-0,005
-315,226	-200,000	-0,041	0,141
-314,212	-200,000	0,011	0,062
-313,197	-10,254	-0,106	0,051
-312,183	110,027	-0,088	0,077
-311,168	-76,911	0,094	-0,024
-310,153	160,609	-0,043	-0,043
-309,139	-200,000	-0,018	-0,070
-308,124	641,333	-0,047	0,088
-307,110	5,726	0,139	0,074
-306,095	259,984	0,030	-0,038
-305,080	-200,000	-0,055	0,220
-304,066	-200,000	0,005	0,021
-303,051	54,955	0,103	-0,072
-302,037	735,625	-0,052	-0,101
-301,022	28,121	0,059	0,036
-300,008	217,552	0,056	0,065
-298,993	800,000	0,045	-0,097
-297,978	-6,440	-0,084	0,041
-296,964	-14,532	-0,130	0,061
-295,949	-117,249	-0,108	-0,014
-294,935	258,124	0,024	-0,030
-293,920	119,780	0,050	-0,045
-292,905	-200,000	-0,007	0,148
-291,891	6,771	0,119	0,064
-290,876	58,427	-0,067	-0,047
-289,862	-74,060	-0,113	-0,029
-288,847	61,256	-0,032	0,023
-287,832	-115,315	0,116	0,016
-286,818	3,626	-0,068	0,036
-285,803	529,647	0,039	0,067
-284,789	-200,000	0,021	0,116
-283,774	-200,000	0,003	0,024
-282,759	-99,009	-0,100	-0,018
-281,745	-200,000	0,001	-0,096
-280,730	699,528	-0,047	-0,090
-279,716	416,994	0,030	-0,046
-278,701	800,000	0,023	0,046
-277,686	800,000	0,027	-0,078
-276,672	107,647	0,073	-0,063
-275,657	216,383	-0,051	-0,059
-274,643	-200,000	-0,012	-0,102
-273,628	44,789	-0,051	0,034
-272,613	-27,058	-0,060	0,025
-271,599	544,068	0,087	-0,151
-270,584	46,120	0,100	0,067
-269,570	-200,000	-0,002	-0,044
-268,555	-200,000	-0,014	-0,086
-267,540	-200,000	-0,001	-0,017
-266,526	-96,430	-0,103	0,020
-265,511	68,984	-0,126	-0,093
-264,497	720,350	0,050	0,097
-263,482	3,719	0,115	0,061
-262,467	-200,000	0,016	0,114
-261,453	62,827	-0,131	0,095
-260,438	150,822	-0,063	-0,062
-259,424	-98,378	-0,133	-0,024
-258,409	-74,862	0,099	-0,026
-257,395	-144,868	0,067	0,004
-256,380	-200,000	-0,022	0,111
-255,365	183,310	0,051	0,055
-254,351	44,516	-0,122	0,081
-253,336	409,618	0,074	-0,114
-252,322	162,230	-0,057	-0,058
-251,307	800,000	0,036	0,084
-250,292	-200,000	0,010	0,132
-249,278	671,471	0,040	0,076
-248,263	-200,000	0,053	0,254
-247,249	-200,000	0,024	0,147
-246,234	800,000	0,060	-0,129
-245,219	21,855	-0,088	-0,052
-244,205	34,105	-0,057	-0,036
-243,190	6,958	0,110	0,059
-242,176	800,000	-0,006	-0,020
-241,161	-89,274	0,172	0,036
-240,146	-200,000	0,016	-0,085
-239,132	800,000	-0,081	-0,168
-238,117	800,000	-0,053	-0,112
-237,103	9,334	-0,057	-0,031
-236,088	-36,634	0,104	-0,040
-235,073	180,516	-0,059	0,062
-234,059	-200,000	-0,009	0,082
-233,044	-142,776	0,095	0,007
-232,030	118,607	-0,079	0,070
-231,015	-2,073	-0,070	-0,035
-230,000	800,000	-0,011	-0,026
-228,986	327,809	0,032	-0,044
-227,971	-200,000	0,022	-0,152
-226,957	-70,361	-0,042	-0,011
-225,942	-59,892	0,149	-0,046
-224,927	-18,249	-0,108	-0,049
-223,913	277,838	0,016	0,020
-222,898	-30,268	-0,056	-0,023
-221,884	800,000	-0,051	-0,122
-220,869	-20,280	0,119	-0,053
-219,855	116,059	0,069	-0,061
-218,840	391,985	0,051	0,076
-217,825	413,014	0,060	-0,092
-216,811	800,000	0,053	-0,144
-215,796	234,419	-0,032	0,038
-214,782	151,876	-0,138	-0,136
-213,767	-200,000	0,008	-0,110
-212,752	119,093	0,049	0,044
-211,738	-200,000	-0,014	-0,069
-210,723	800,000	-0,031	-0,089
-209,709	-54,771	-0,176	-0,057
-208,694	-26,562	0,076	-0,032
-207,679	-44,166	-0,076	0,028
-206,665	800,000	-0,043	-0,104
-205,650	-5,320	0,059	-0,029
-204,636	63,623	0,062	0,045
-203,621	550,850	0,080	0,139
-202,606	12,384	-0,054	-0,030
-201,592	75,685	-0,067	0,051
-200,577	-129,344	-0,064	0,006
-199,563	-200,000	-0,017	-0,116
-198,548	129,754	0,122	0,112
-197,533	156,755	0,030	0,030
-196,519	34,683	-0,077	0,049
-195,504	74,733	-0,104	-0,079
-194,490	9,151	0,075	0,041
-193,475	-124,917	0,107	0,012
-192,460	-200,000	-0,004	-0,023
-191,446	-61,666	0,073	0,022
-190,431	38,009	0,111	-0,071
-189,417	800,000	-0,059	0,136
-188,402	-191,853	0,074	-0,001
-187,387	800,000	-0,047	-0,101
-186,373	248,774	-0,006	0,007
-185,358	800,000	0,055	-0,126
-184,344	30,903	0,129	0,079
-183,329	-200,000	0,018	-0,067
-182,315	-135,076	-0,083	-0,007
-181,300	-200,000	0,001	-0,076
-180,285	-200,000	-0,022	-0,089
-179,271	800,000	0,022	0,045
-178,256	18,929	0,093	0,054
-177,242	33,406	-0,113	0,070
-176,227	-200,000	-0,019	0,099
-175,212	237,408	-0,028	0,033
-174,198	212,574	0,037	0,042
-173,183	21,558	-0,091	-0,053
-172,169	-71,351	0,124	-0,033
-171,154	800,000	-0,011	0,033
-170,139	-140,889	0,131	-0,010
-169,125	19,152	0,080	0,046
-168,110	507,272	0,097	0,162
-167,096	-33,891	-0,058	0,023
-166,081	17,892	-0,064	-0,036
-165,066	8,601	0,128	0,069
-164,052	800,000	-0,011	0,033
-163,037	800,000	0,034	0,085
-162,023	800,000	-0,031	0,079
-161,008	115,071	-0,064	0,056
-159,993	161,112	-0,021	0,021
-158,979	461,601	-0,074	-0,119
-157,964	-200,000	-0,004	-0,132
-156,950	-82,879	0,093	0,021
-155,935	34,361	0,111	0,070
-154,920	42,712	0,105	0,069
-153,906	800,000	0,014	-0,039
-152,891	-121,013	-0,041	0,005
-151,877	-14,468	0,134	-0,062
-150,862	-68,177	-0,087	-0,024
-149,847	-65,125	0,132	-0,038
-148,833	800,000	0,053	-0,119
-147,818	-151,510	-0,042	0,002
-146,804	800,000	-0,025	0,061
-145,789	-200,000	0,013	-0,053
-144,775	12,010	0,187	0,104
-143,760	223,727	-0,054	-0,063
-142,745	244,520	0,056	-0,068
-141,731	250,968	0,125	0,153
-140,716	86,017	-0,070	0,056
-139,702	800,000	0,068	0,137
-138,687	-200,000	0,001	0,137
-137,672	800,000	-0,022	-0,062
-136,658	164,542	-0,084	0,085
-135,643	137,335	-0,117	-0,111
-134,629	-74,832	0,067	0,017
-133,614	243,888	0,109	-0,132
-132,599	126,023	0,037	0,033
-131,585	430,943	0,037	-0,058
-130,570	-27,677	-0,084	0,035
-129,556	206,565	0,053	0,060
-128,541	110,665	-0,103	-0,089
-127,526	-91,336	0,136	-0,028
-126,512	-38,846	0,163	-0,061
-125,497	715,828	0,037	0,071
-124,483	75,976	-0,086	-0,066
-123,468	800,000	-0,047	-0,099
-122,453	73,045	-0,003	-0,002
-121,439	-73,038	-0,193	-0,051
-120,424	-63,080	0,165	-0,049
-119,410	-77,584	0,086	-0,021
-118,395	-200,000	0,012	0,055
