DTS Sentinel unit serial number:	SN410029Multiplexer serial number:	ORYXHardware model number:	OX2-SRSoftware version number:	ORYX F/W v4,00 Oryx Data Collector v3.7.2.0data status	okinstallation	B6 Nyhavnadifferential loss correction	single-endedforward channel	channel 2reverse channel	N/Adate	2023/12/11time	00:20:08forward acquisition time	300,00reverse acquisition time	0,00gamma	499,1914k internal	0,3122k external	0,3122temperature offset calibration	1,0000default loss term (dB/km)	0,3820temperature slope calibration	1,0000multiplexer offset coefficient	1,0000multiplexer slope coefficient	1,0000fibre end	0,00T internal ref (°C)	22,36T ext. ref 1 (°C)	5,87T ext. ref 2 (°C)	5,89length (m)	temperature (°C)	Stokes	anti-Stokes-744,400	-52,568	0,085	-0,029
-743,385	121,439	-0,185	0,171
-742,371	-14,824	0,113	-0,054
-741,356	-126,405	-0,149	0,016
-740,342	-74,302	0,048	-0,013
-739,327	-65,116	-0,223	0,066
-738,312	645,557	-0,039	-0,074
-737,298	800,000	-0,051	0,118
-736,283	37,738	-0,061	-0,040
-735,269	131,197	-0,118	-0,113
-734,254	336,986	-0,064	0,093
-733,239	-26,808	-0,395	-0,172
-732,225	800,000	-0,053	-0,145
-731,210	-200,000	0,013	0,048
-730,196	121,241	-0,057	0,053
-729,181	-52,235	-0,121	0,042
-728,167	-143,948	0,069	-0,005
-727,152	197,143	0,039	0,045
-726,137	251,917	0,065	0,083
-725,123	800,000	-0,051	0,148
-724,108	285,275	-0,125	-0,168
-723,094	-200,000	0,003	-0,041
-722,079	-74,306	-0,028	-0,007
-721,064	-59,995	-0,059	-0,019
-720,050	236,827	-0,049	-0,060
-719,035	424,929	-0,026	0,042
-718,021	-49,945	0,089	-0,031
-717,006	80,001	-0,101	-0,081
-715,991	-200,000	-0,041	-0,137
-714,977	-200,000	-0,111	-0,000
-713,962	-200,000	0,007	-0,112
-712,948	715,363	0,021	-0,042
-711,933	58,813	-0,159	-0,116
-710,918	800,000	-0,031	0,085
-709,904	-61,228	-0,161	-0,050
-708,889	-200,000	-0,018	-0,168
-707,875	-200,000	0,008	-0,107
-706,860	-200,000	0,018	-0,090
-705,845	109,825	0,040	-0,036
-704,831	-72,881	0,158	0,043
-703,816	-200,000	-0,018	0,082
-702,802	-200,000	0,033	-0,124
-701,787	162,463	-0,067	-0,070
-700,772	185,948	-0,036	0,040
-699,758	-8,727	0,059	-0,029
-698,743	-200,000	0,017	-0,080
-697,729	-15,856	0,058	0,028
-696,714	40,050	0,064	0,043
-695,699	-91,266	0,053	-0,011
-694,685	-0,061	-0,095	0,050
-693,670	-35,919	-0,086	-0,034
-692,656	-76,566	-0,063	-0,016
-691,641	-132,440	0,068	0,006
-690,627	630,452	0,025	-0,047
-689,612	-200,000	0,003	-0,090
-688,597	5,748	0,056	-0,031
-687,583	-79,342	-0,158	0,040
-686,568	-117,539	-0,079	-0,011
-685,554	88,067	-0,004	-0,003
-684,539	-117,248	0,168	-0,022
-683,524	103,595	-0,063	-0,055
-682,510	800,000	0,021	0,049
-681,495	-116,306	0,130	0,018
-680,481	-142,583	-0,089	-0,006
-679,466	800,000	-0,016	0,047
-678,451	800,000	-0,006	0,016
-677,437	-98,984	-0,122	-0,023
-676,422	800,000	0,011	0,031
-675,408	-200,000	-0,001	-0,012
-674,393	772,087	-0,053	0,108
-673,378	-143,563	-0,047	-0,003
-672,364	800,000	-0,052	-0,168
-671,349	-200,000	0,021	-0,112
-670,335	-200,000	-0,001	-0,142
-669,320	654,760	-0,090	0,173
-668,305	26,480	0,040	0,025
-667,291	30,410	0,122	-0,077
-666,276	-76,472	-0,253	-0,066
-665,262	191,683	-0,061	0,069
-664,247	800,000	0,026	-0,054
-663,232	2,439	0,087	-0,046
-662,218	-136,080	0,104	0,009
-661,203	57,383	0,113	-0,082
-660,189	-200,000	0,003	-0,040
-659,174	-142,973	-0,069	0,005
-658,159	-200,000	-0,003	-0,105
-657,145	800,000	-0,059	-0,177
-656,130	176,305	-0,099	-0,107
-655,116	2,273	0,109	0,058
-654,101	-200,000	-0,024	-0,088
-653,086	800,000	0,016	0,050
-652,072	-43,327	-0,085	-0,032
-651,057	786,472	-0,043	-0,088
-650,043	239,426	-0,106	-0,131
-649,028	135,700	-0,021	-0,020
-648,014	149,080	-0,010	-0,010
-646,999	-200,000	0,012	0,086
-645,984	-200,000	0,006	-0,096
-644,970	339,289	-0,067	-0,097
-643,955	800,000	0,080	-0,172
-642,941	-15,015	-0,079	-0,038
-641,926	-69,056	-0,031	-0,009
-640,911	-137,446	-0,075	-0,006
-639,897	-46,500	0,132	0,048
-638,882	-165,447	0,023	0,001
-637,868	137,566	0,041	0,040
-636,853	-200,000	0,007	0,101
-635,838	21,114	0,004	-0,002
-634,824	148,843	0,049	-0,049
-633,809	385,070	0,037	-0,056
-632,795	519,437	-0,005	-0,010
-631,780	-34,771	-0,055	0,022
-630,765	161,965	0,064	-0,066
-629,751	800,000	0,044	-0,121
-628,736	-200,000	-0,013	-0,204
-627,722	229,907	0,071	0,086
-626,707	61,403	0,141	-0,104
-625,692	-114,602	0,095	-0,013
-624,678	78,374	0,023	0,018
-623,663	-200,000	-0,011	0,165
-622,649	-200,000	-0,001	0,063
-621,634	-37,170	0,040	0,016
-620,619	-45,689	-0,120	0,044
-619,605	362,204	0,039	-0,059
-618,590	-51,968	0,059	-0,020
-617,576	-41,700	0,076	0,029
-616,561	46,334	0,106	0,073
-615,546	-75,719	-0,118	-0,031
-614,532	-200,000	-0,024	-0,127
-613,517	-200,000	-0,015	-0,082
-612,503	195,235	0,010	-0,011
-611,488	-200,000	0,011	0,070
-610,474	389,955	0,077	0,119
-609,459	197,907	-0,107	0,122
-608,444	800,000	-0,024	-0,056
-607,430	258,728	-0,046	0,058
-606,415	-92,213	0,051	0,011
-605,401	-200,000	-0,018	-0,071
-604,386	14,618	0,087	0,050
-603,371	-200,000	0,000	-0,070
-602,357	-132,462	0,041	-0,004
-601,342	250,459	-0,024	0,030
-600,328	-200,000	-0,013	0,089
-599,313	-200,000	-0,039	-0,163
-598,298	-57,228	0,029	-0,009
-597,284	-13,379	-0,083	-0,040
-596,269	545,344	0,031	0,055
-595,255	698,390	0,025	0,049
-594,240	292,495	-0,058	-0,079
-593,225	-99,590	-0,046	-0,008
-592,211	165,868	-0,078	-0,081
-591,196	-200,000	-0,022	-0,131
-590,182	800,000	0,079	0,212
-589,167	418,074	0,046	-0,073
-588,152	-26,499	0,054	-0,023
-587,138	-62,031	0,080	0,025
-586,123	-200,000	-0,010	0,051
-585,109	-79,913	-0,039	0,010
-584,094	24,676	-0,158	-0,097
-583,079	-200,000	-0,002	0,067
-582,065	-67,626	0,028	-0,008
-581,050	694,673	-0,083	0,162
-580,036	-200,000	-0,010	-0,060
-579,021	85,664	-0,207	-0,168
-578,006	118,845	-0,073	-0,067
-576,992	-200,000	-0,044	-0,171
-575,977	-87,623	0,071	0,016
-574,963	180,075	0,015	0,017
-573,948	29,504	0,023	-0,015
-572,934	59,746	0,042	0,031
-571,919	641,631	-0,059	0,112
-570,904	-71,180	-0,148	0,041
-569,890	-200,000	0,009	0,120
-568,875	83,328	-0,061	0,049
-567,861	186,094	0,041	0,046
-566,846	-92,647	0,034	0,007
-565,831	439,548	0,020	-0,032
-564,817	800,000	-0,021	-0,049
-563,802	39,370	0,066	0,043
-562,788	81,164	-0,085	0,068
-561,773	800,000	0,049	-0,140
-560,758	292,750	0,028	0,038
-559,744	-83,849	0,084	0,020
-558,729	214,205	0,049	-0,058
-557,715	217,278	-0,062	-0,074
-556,700	37,698	0,146	0,096
-555,685	98,872	-0,099	-0,084
-554,671	-183,091	0,065	0,001
-553,656	-71,341	-0,088	0,024
-552,642	-88,571	0,031	-0,007
-551,627	-200,000	0,029	0,097
-550,612	-200,000	0,007	-0,059
-549,598	121,213	0,027	0,025
-548,583	-200,000	0,002	0,066
-547,569	-200,000	0,009	-0,072
-546,554	-22,759	-0,044	-0,020
-545,539	-1,216	0,186	-0,097
-544,525	77,679	-0,068	0,054
-543,510	-77,720	-0,102	0,026
-542,496	-159,404	-0,066	0,003
-541,481	370,196	0,041	-0,062
-540,466	-27,178	-0,053	0,023
-539,452	349,301	0,105	0,154
-538,437	232,070	-0,089	0,108
-537,423	-200,000	-0,029	0,182
-536,408	129,033	0,045	0,043
-535,393	505,523	0,059	0,101
-534,379	104,727	-0,175	-0,153
-533,364	-141,573	0,080	0,006
-532,350	495,214	-0,022	-0,038
-531,335	62,046	0,104	-0,077
-530,321	-7,843	0,080	0,040
-529,306	460,145	-0,100	-0,166
-528,291	390,999	0,037	-0,057
-527,277	-8,888	-0,058	-0,029
-526,262	800,000	0,008	0,019
-525,248	800,000	0,033	-0,076
-524,233	367,774	-0,073	-0,110
-523,218	-200,000	0,026	0,122
-522,204	-200,000	0,013	-0,055
-521,189	51,621	-0,094	0,066
-520,175	-200,000	-0,005	-0,166
-519,160	-1,505	-0,035	0,018
-518,145	645,973	-0,074	-0,140
-517,131	-110,636	-0,114	0,017
-516,116	-141,979	0,091	-0,007
-515,102	-15,883	-0,096	0,045
-514,087	-55,134	0,040	-0,013
-513,072	-200,000	-0,026	-0,097
-512,058	-49,352	0,050	-0,017
-511,043	711,699	-0,043	-0,084
-510,029	638,216	-0,044	0,082
-509,014	-131,589	0,108	-0,010
-507,999	472,449	0,098	0,164
-506,985	288,453	0,026	-0,035
-505,970	331,741	-0,047	0,066
-504,956	160,502	-0,045	0,046
-503,941	800,000	0,036	-0,096
-502,926	-200,000	0,020	-0,166
-501,912	-77,239	0,085	-0,022
-500,897	85,244	-0,055	-0,045
-499,883	179,469	0,058	0,063
-498,868	-95,438	-0,178	-0,035
-497,853	-200,000	0,005	-0,074
-496,839	53,047	0,095	-0,067
-495,824	-153,029	0,106	-0,005
-494,810	-168,406	0,036	-0,001
-493,795	767,413	0,044	0,089
-492,781	-96,344	0,033	-0,006
-491,766	800,000	-0,045	-0,092
-490,751	800,000	-0,043	0,119
-489,737	-83,598	0,171	0,040
-488,722	-200,000	-0,007	0,184
-487,708	-71,781	0,071	0,020
-486,693	609,519	0,061	-0,112
-485,678	65,551	0,070	-0,052
-484,664	-30,509	-0,081	-0,034
-483,649	800,000	0,031	0,086
-482,635	55,090	-0,126	-0,090
-481,620	224,533	0,050	-0,060
-480,605	-163,905	-0,069	0,002
-479,591	-200,000	-0,006	0,080
-478,576	447,258	-0,064	0,104
-477,562	-88,956	-0,045	-0,010
-476,547	-129,194	-0,098	0,010
-475,532	-91,857	-0,112	-0,023
-474,518	-200,000	-0,046	0,157
-473,503	-200,000	-0,002	0,128
-472,489	-200,000	0,026	-0,110
-471,474	-31,592	-0,057	-0,024
-470,459	-108,314	-0,080	-0,013
-469,445	-103,187	-0,040	-0,007
-468,430	-200,000	-0,011	0,048
-467,416	-12,528	-0,109	-0,052
-466,401	-118,285	0,140	0,018
-465,386	187,256	0,031	0,035
-464,372	276,573	-0,060	-0,079
-463,357	-200,000	0,006	-0,067
-462,343	259,547	0,019	0,024
-461,328	-200,000	0,033	-0,112
-460,313	-123,482	-0,083	0,010
-459,299	-97,371	0,197	0,037
-458,284	-86,977	-0,112	0,025
-457,270	164,869	0,058	0,061
-456,255	-148,547	-0,047	0,003
-455,241	363,853	0,061	-0,090
-454,226	-200,000	-0,027	-0,140
-453,211	179,391	-0,072	-0,078
-452,197	-200,000	0,011	-0,171
-451,182	800,000	0,020	0,051
-450,168	52,442	-0,091	0,064
-449,153	-200,000	0,044	0,152
-448,138	-151,113	-0,032	-0,002
-447,124	443,475	0,052	-0,085
-446,109	800,000	-0,056	-0,165
-445,095	-60,485	0,052	-0,016
-444,080	800,000	0,032	0,068
-443,065	54,582	0,036	-0,026
-442,051	25,157	-0,108	-0,066
-441,036	10,119	0,103	0,057
-440,022	-200,000	-0,003	-0,107
-439,007	-166,381	0,056	0,002
-437,992	-200,000	-0,003	0,146
-436,978	501,155	-0,059	0,101
-435,963	236,546	-0,036	0,043
-434,949	691,903	0,077	0,150
-433,934	280,462	-0,036	-0,048
-432,919	-166,801	-0,099	-0,003
-431,905	161,739	0,067	-0,070
-430,890	-114,057	0,102	-0,014
-429,876	-10,668	-0,149	-0,072
-428,861	-32,497	0,040	0,016
-427,846	1,941	0,094	0,050
-426,832	-88,829	-0,156	-0,034
-425,817	800,000	0,016	-0,034
-424,803	-18,111	-0,155	-0,071
-423,788	-8,476	-0,069	-0,034
-422,773	-200,000	0,028	0,166
-421,759	766,546	0,084	0,169
-420,744	588,035	-0,067	0,123
-419,730	103,991	-0,063	-0,054
-418,715	-200,000	0,013	-0,116
-417,701	343,044	0,054	-0,078
-416,686	55,773	-0,051	-0,036
-415,671	800,000	0,027	-0,066
-414,657	-84,731	0,050	0,012
-413,642	166,811	0,097	0,101
-412,628	37,182	-0,086	0,056
-411,613	-200,000	0,002	-0,028
-410,598	464,247	-0,059	0,097
-409,584	800,000	-0,070	0,185
-408,569	261,330	0,081	0,103
-407,555	-32,603	-0,110	0,045
-406,540	81,770	0,022	-0,017
-405,525	385,228	-0,052	0,080
-404,511	-200,000	-0,017	-0,099
-403,496	800,000	-0,060	0,141
-402,482	-200,000	0,000	-0,030
-401,467	-140,248	0,106	-0,008
-400,452	213,528	-0,050	-0,058
-399,438	53,992	-0,037	-0,026
-398,423	-134,355	-0,061	0,005
-397,409	-157,107	0,102	0,004
-396,394	-51,621	-0,014	0,005
-395,379	-31,338	0,127	0,052
-394,365	-164,828	-0,091	-0,003
-393,350	-200,000	-0,004	0,087
-392,336	168,965	-0,069	0,072
-391,321	-200,000	0,001	0,029
-390,306	800,000	-0,019	-0,062
-389,292	-200,000	-0,002	0,064
-388,277	800,000	-0,057	-0,117
-387,263	244,318	0,061	-0,075
-386,248	-200,000	0,026	0,099
-385,233	-57,687	-0,034	-0,011
-384,219	143,708	0,032	-0,031
-383,204	-107,207	-0,110	0,018
-382,190	-130,640	-0,154	0,015
-381,175	299,652	-0,064	-0,087
-380,160	-67,268	-0,158	0,045
-379,146	497,487	0,077	0,130
-378,131	-120,527	0,150	-0,019
-377,117	-134,824	-0,097	0,008
-376,102	-200,000	0,001	-0,068
-375,088	377,097	0,010	0,015
-374,073	120,179	0,117	0,107
-373,058	-200,000	0,011	0,119
-372,044	251,940	0,051	-0,064
-371,029	800,000	-0,019	-0,050
-370,015	239,712	0,114	0,140
-369,000	287,360	0,071	0,095
-367,985	-90,379	0,113	0,024
-366,971	-200,000	0,012	-0,115
-365,956	-137,056	0,017	-0,001
-364,942	-17,443	-0,082	0,038
-363,927	-161,377	0,092	0,003
-362,912	-73,421	-0,085	0,023
-361,898	-157,739	0,117	-0,005
-360,883	72,835	0,079	-0,060
-359,869	-200,000	0,034	-0,219
-358,854	31,767	0,078	0,049
-357,839	-82,064	-0,097	-0,023
-356,825	800,000	0,003	-0,009
-355,810	-108,783	0,073	-0,011
-354,796	-31,208	0,042	0,017
-353,781	-200,000	-0,008	-0,047
-352,766	105,822	-0,057	-0,049
-351,752	-200,000	-0,020	0,074
-350,737	30,831	0,048	-0,030
-349,723	303,708	0,013	-0,018
-348,708	-59,036	-0,127	0,040
-347,693	-4,482	-0,082	0,041
-346,679	-200,000	0,015	0,078
-345,664	403,113	-0,028	-0,043
-344,650	-200,000	0,019	-0,064
-343,635	336,348	0,034	-0,049
-342,620	-2,832	0,062	0,031
-341,606	17,093	0,038	0,022
-340,591	142,992	-0,056	-0,055
-339,577	-174,964	0,073	0,001
-338,562	-134,353	0,059	0,005
-337,548	1,514	-0,090	-0,047
-336,533	-67,815	0,024	-0,007
-335,518	-65,779	0,066	-0,019
-334,504	138,190	0,032	-0,031
-333,489	182,844	-0,155	-0,168
-332,475	-200,000	-0,020	-0,092
-331,460	-197,556	0,065	0,000
-330,445	-200,000	0,009	-0,065
-329,431	-200,000	-0,003	-0,047
-328,416	-47,312	0,072	0,025
-327,402	800,000	-0,052	0,140
-326,387	-181,459	-0,026	-0,000
-325,372	-200,000	-0,005	-0,102
-324,358	316,172	-0,067	-0,093
-323,343	207,886	-0,021	0,024
-322,329	-200,000	0,019	0,144
-321,314	-200,000	-0,025	0,142
-320,299	442,966	0,080	0,129
-319,285	760,589	0,050	-0,099
-318,270	-200,000	0,026	-0,095
-317,256	-114,019	-0,164	-0,023
-316,241	-29,813	-0,106	-0,044
-315,226	-10,916	0,125	-0,060
-314,212	148,834	-0,039	0,039
-313,197	800,000	-0,070	0,187
-312,183	359,963	-0,025	-0,036
-311,168	201,135	-0,045	-0,051
-310,153	87,345	0,036	0,029
-309,139	-200,000	-0,013	-0,060
-308,124	548,531	-0,036	-0,063
-307,110	-200,000	-0,009	0,050
-306,095	290,570	-0,077	0,103
-305,080	-200,000	-0,010	0,091
-304,066	-7,739	-0,064	-0,032
-303,051	-14,121	-0,108	-0,051
-302,037	418,273	0,072	-0,114
-301,022	800,000	0,031	0,094
-300,008	-200,000	0,016	-0,083
-298,993	-200,000	-0,033	0,146
-297,978	-200,000	0,002	0,024
-296,964	-76,918	-0,173	-0,044
-295,949	800,000	0,032	0,092
-294,935	-168,082	-0,130	0,004
-293,920	-200,000	-0,014	0,067
-292,905	-200,000	0,029	0,126
-291,891	-200,000	-0,010	0,104
-290,876	161,837	-0,052	0,054
-289,862	-200,000	0,007	0,025
-288,847	-128,336	-0,057	-0,006
-287,832	7,642	0,119	0,065
-286,818	115,443	-0,036	-0,033
-285,803	-200,000	-0,002	0,019
-284,789	-200,000	-0,009	-0,145
-283,774	87,284	0,111	-0,089
-282,759	-200,000	-0,002	-0,093
-281,745	-13,163	-0,029	-0,014
-280,730	-49,715	-0,054	0,019
-279,716	-200,000	0,001	-0,077
-278,701	800,000	-0,011	0,028
-277,686	-141,976	0,118	0,008
-276,672	11,768	-0,098	-0,055
-275,657	-200,000	-0,003	0,056
-274,643	157,541	-0,021	0,022
-273,628	800,000	-0,032	-0,084
-272,613	118,619	0,089	0,081
-271,599	-200,000	-0,001	0,084
-270,584	-200,000	0,025	0,106
-269,570	385,618	-0,033	-0,049
-268,555	145,246	-0,060	0,059
-267,540	520,935	0,092	-0,158
-266,526	-3,054	-0,155	-0,079
-265,511	-200,000	0,024	-0,083
-264,497	-106,422	0,094	0,015
-263,482	-31,549	-0,044	0,018
-262,467	-84,238	0,106	-0,024
-261,453	-200,000	-0,000	-0,056
-260,438	800,000	0,057	-0,132
-259,424	237,193	-0,104	-0,126
-258,409	-4,812	-0,070	0,035
-257,395	-101,380	0,077	-0,014
-256,380	-60,488	0,069	0,021
-255,365	39,917	0,009	-0,006
-254,351	176,750	-0,053	0,056
-253,336	537,945	0,030	0,052
-252,322	338,799	0,026	0,037
-251,307	-29,002	0,011	0,005
-250,292	88,552	-0,074	-0,061
-249,278	-163,221	0,074	0,003
-248,263	10,681	-0,050	0,028
-247,249	171,086	0,035	0,037
-246,234	-49,473	-0,066	-0,023
-245,219	800,000	-0,011	0,029
-244,205	-89,755	-0,040	-0,009
-243,190	-34,141	-0,061	-0,024
-242,176	-82,970	-0,064	0,015
-241,161	25,945	0,078	0,048
-240,146	-119,465	0,036	0,004
-239,132	-200,000	-0,026	0,086
-238,117	-200,000	-0,037	-0,122
-237,103	800,000	-0,031	-0,087
-236,088	-200,000	-0,008	-0,062
-235,073	-200,000	0,007	-0,066
-234,059	-200,000	0,014	0,103
-233,044	-200,000	-0,018	0,154
-232,030	-153,270	0,133	0,007
-231,015	63,553	0,029	-0,021
-230,000	766,964	-0,076	-0,151
-228,986	70,869	0,118	0,089
-227,971	-200,000	-0,010	-0,083
-226,957	-200,000	0,033	0,122
-225,942	85,676	0,195	0,157
-224,927	800,000	-0,052	0,147
-223,913	-11,320	-0,082	0,039
-222,898	800,000	-0,022	-0,070
-221,884	-56,598	0,053	-0,017
-220,869	365,225	0,009	0,013
-219,855	-200,000	-0,011	0,062
-218,840	59,740	0,097	-0,070
-217,825	373,053	0,063	0,094
-216,811	-154,225	-0,064	0,003
-215,796	-200,000	0,026	-0,159
-214,782	258,182	-0,075	-0,094
-213,767	-121,502	-0,040	-0,005
-212,752	-172,187	0,125	0,003
-211,738	147,737	-0,044	0,043
-210,723	-200,000	-0,012	-0,050
-209,709	51,202	0,002	0,002
-208,694	-200,000	-0,007	-0,054
-207,679	-69,143	0,155	0,043
-206,665	800,000	0,014	0,042
-205,650	429,749	0,057	-0,090
-204,636	-139,308	0,083	-0,006
-203,621	-47,554	-0,101	-0,036
-202,606	800,000	0,004	-0,012
-201,592	800,000	-0,031	-0,092
-200,577	437,553	-0,020	-0,031
-199,563	60,681	0,109	0,079
-198,548	-8,842	0,024	-0,012
-197,533	-2,862	0,125	0,063
-196,519	123,626	-0,072	0,066
-195,504	-77,189	-0,102	-0,026
-194,490	-200,000	-0,016	0,093
-193,475	-200,000	0,006	-0,065
-192,460	289,439	-0,041	0,054
-191,446	-200,000	0,005	-0,053
-190,431	32,549	0,127	0,080
-189,417	-36,588	0,138	-0,054
-188,402	-159,863	0,065	0,003
-187,387	-200,000	-0,025	-0,110
-186,373	158,963	-0,102	-0,103
-185,358	-123,340	0,067	-0,008
-184,344	686,710	0,045	0,085
-183,329	38,205	0,053	-0,034
-182,315	126,586	-0,054	0,050
-181,300	323,521	-0,032	0,045
-180,285	58,161	-0,072	-0,051
-179,271	-200,000	-0,023	0,092
-178,256	-134,582	0,079	-0,007
-177,242	800,000	0,043	0,087
-176,227	193,130	0,082	0,091
-175,212	-200,000	0,018	0,094
-174,198	475,101	0,067	0,111
-173,183	-126,662	0,131	-0,014
-172,169	-200,000	-0,007	-0,125
-171,154	303,369	0,090	0,122
-170,139	-33,641	-0,090	0,036
-169,125	-56,589	0,142	0,046
-168,110	37,934	-0,013	-0,008
-167,096	-43,571	-0,050	-0,018
-166,081	34,310	-0,077	-0,049
-165,066	800,000	-0,022	0,054
-164,052	-83,896	0,064	-0,015
-163,037	-26,381	-0,080	-0,034
-162,023	800,000	-0,031	-0,081
-161,008	80,435	-0,140	0,110
-159,993	-20,286	0,141	-0,063
-158,979	29,346	-0,089	-0,055
-157,964	196,755	-0,083	-0,092
-156,950	-106,788	0,132	0,021
-155,935	191,192	0,014	-0,016
-154,920	-91,812	-0,074	0,015
-153,906	800,000	0,070	0,150
-152,891	800,000	0,055	0,111
-151,877	354,308	0,087	0,127
-150,862	-53,934	-0,147	0,049
-149,847	-200,000	-0,026	-0,085
-148,833	-44,988	-0,025	-0,009
-147,818	-6,450	-0,056	0,028
-146,804	-200,000	0,017	0,125
-145,789	111,193	0,152	0,134
-144,775	-94,775	-0,130	-0,026
-143,760	-80,909	-0,006	-0,001
-142,745	195,046	-0,062	0,069
-141,731	-129,100	-0,057	0,006
-140,716	270,472	-0,050	0,064
-139,702	454,733	-0,044	0,071
-138,687	-129,559	0,138	0,014
-137,672	319,249	0,055	-0,076
-136,658	118,669	-0,067	-0,060
-135,643	800,000	0,044	0,097
-134,629	-200,000	-0,033	0,108
-133,614	800,000	-0,026	0,055
-132,599	-7,282	0,081	-0,040
-131,585	800,000	-0,069	0,150
-130,570	444,089	-0,144	0,231
-129,556	2,615	-0,091	0,048
-128,541	484,540	0,068	-0,113
-127,526	-127,027	-0,147	-0,015
-126,512	-200,000	-0,001	0,039
-125,497	-18,034	0,024	0,011
-124,483	-80,618	0,100	0,024
-123,468	1,612	-0,027	-0,014
-122,453	-128,982	-0,025	0,003
-121,439	58,780	-0,043	-0,031
-120,424	-153,231	-0,091	-0,005
