DTS Sentinel unit serial number:	SN410029Multiplexer serial number:	ORYXHardware model number:	OX2-SRSoftware version number:	ORYX F/W v4,00 Oryx Data Collector v3.7.2.0data status	okinstallation	B6 Nyhavnadifferential loss correction	single-endedforward channel	channel 2reverse channel	N/Adate	2023/12/09time	16:40:08forward acquisition time	300,00reverse acquisition time	0,00gamma	499,1914k internal	0,3131k external	0,3131temperature offset calibration	1,0000default loss term (dB/km)	0,3820temperature slope calibration	1,0000multiplexer offset coefficient	1,0000multiplexer slope coefficient	1,0000fibre end	0,00T internal ref (°C)	20,89T ext. ref 1 (°C)	4,69T ext. ref 2 (°C)	4,67length (m)	temperature (°C)	Stokes	anti-Stokes-744,400	139,521	0,056	0,055
-743,385	-139,693	-0,385	0,030
-742,371	-200,000	0,026	0,143
-741,356	382,286	-0,129	0,198
-740,342	649,616	-0,005	0,010
-739,327	130,745	-0,257	0,245
-738,312	483,041	0,032	0,054
-737,298	-66,033	-0,320	-0,094
-736,283	-93,994	0,081	0,016
-735,269	36,682	-0,187	0,122
-734,254	800,000	0,091	0,190
-733,239	-100,239	-0,449	-0,082
-732,225	80,334	0,077	-0,061
-731,210	88,192	-0,032	-0,026
-730,196	169,491	0,073	0,078
-729,181	-121,100	-0,088	0,011
-728,167	-122,700	0,104	-0,012
-727,152	-13,411	0,118	0,057
-726,137	192,725	-0,049	-0,055
-725,123	160,364	-0,152	-0,158
-724,108	-200,000	-0,030	-0,132
-723,094	163,206	-0,108	0,113
-722,079	54,650	-0,068	-0,048
-721,064	198,131	0,082	0,093
-720,050	246,238	0,096	0,121
-719,035	800,000	-0,020	0,052
-718,021	223,070	-0,095	-0,113
-717,006	22,048	-0,079	-0,048
-715,991	-65,587	-0,173	-0,051
-714,977	65,271	-0,050	-0,037
-713,962	-26,791	0,057	-0,025
-712,948	-200,000	-0,004	0,031
-711,933	459,316	-0,111	0,184
-710,918	7,225	0,020	-0,011
-709,904	-119,348	-0,107	0,014
-708,889	800,000	-0,068	-0,206
-707,875	-200,000	0,019	-0,123
-706,860	-131,096	-0,084	-0,008
-705,845	176,352	-0,019	-0,020
-704,831	65,657	0,059	-0,044
-703,816	4,041	-0,042	0,023
-702,802	7,828	-0,104	0,057
-701,787	129,949	-0,057	-0,054
-700,772	-200,000	0,018	-0,097
-699,758	-58,550	-0,196	-0,063
-698,743	800,000	-0,013	0,041
-697,729	1,274	0,036	0,019
-696,714	194,495	-0,088	-0,099
-695,699	-108,740	-0,095	0,015
-694,685	-34,121	-0,041	0,017
-693,670	800,000	-0,028	-0,064
-692,656	234,569	-0,029	-0,036
-691,641	-200,000	-0,016	-0,102
-690,627	189,417	0,060	0,066
-689,612	62,161	0,031	0,023
-688,597	800,000	-0,026	-0,075
-687,583	299,934	-0,017	-0,023
-686,568	-133,551	-0,086	0,008
-685,554	-64,554	-0,135	0,040
-684,539	-25,026	0,031	-0,014
-683,524	279,860	0,017	-0,023
-682,510	-120,513	0,125	-0,016
-681,495	-67,389	-0,034	-0,010
-680,481	53,735	-0,019	-0,013
-679,466	-111,605	-0,051	0,008
-678,451	800,000	0,029	-0,069
-677,437	-25,567	0,134	-0,059
-676,422	91,918	-0,051	0,043
-675,408	293,662	-0,083	0,112
-674,393	20,674	0,060	0,036
-673,378	72,718	-0,079	0,061
-672,364	-200,000	-0,027	-0,094
-671,349	732,991	-0,034	0,068
-670,335	-200,000	-0,013	-0,050
-669,320	800,000	-0,018	-0,043
-668,305	800,000	-0,049	-0,139
-667,291	-54,388	0,087	-0,029
-666,276	-200,000	0,032	-0,124
-665,262	-200,000	-0,006	0,065
-664,247	-200,000	-0,013	-0,082
-663,232	0,337	-0,041	-0,022
-662,218	-133,215	0,068	-0,006
-661,203	317,756	0,053	0,075
-660,189	-118,198	-0,169	0,022
-659,174	423,132	-0,024	0,038
-658,159	-171,052	0,097	-0,002
-657,145	150,162	0,065	-0,065
-656,130	318,020	-0,032	-0,045
-655,116	-133,733	-0,115	0,010
-654,101	-200,000	-0,011	0,041
-653,086	695,233	-0,040	0,078
-652,072	58,101	0,066	0,048
-651,057	439,763	-0,094	-0,152
-650,043	508,529	-0,048	-0,084
-649,028	-200,000	-0,022	-0,096
-648,014	-73,530	0,081	0,022
-646,999	-32,403	0,100	0,041
-645,984	-159,440	0,066	0,003
-644,970	800,000	0,032	0,085
-643,955	-200,000	-0,017	-0,130
-642,941	800,000	0,047	-0,120
-641,926	21,775	-0,041	0,024
-640,911	-200,000	-0,001	0,092
-639,897	-178,704	0,103	0,002
-638,882	319,667	-0,032	0,046
-637,868	-111,015	-0,175	-0,026
-636,853	800,000	0,027	-0,061
-635,838	-45,496	0,097	0,035
-634,824	800,000	0,017	-0,041
-633,809	-63,118	0,079	-0,024
-632,795	800,000	0,057	0,154
-631,780	220,280	-0,071	-0,085
-630,765	147,402	-0,053	-0,053
-629,751	-200,000	-0,004	0,028
-628,736	-25,282	-0,101	-0,044
-627,722	257,851	0,038	-0,048
-626,707	-200,000	-0,049	0,255
-625,692	-200,000	0,026	0,123
-624,678	-200,000	0,002	-0,042
-623,663	14,406	0,077	-0,044
-622,649	-200,000	0,045	-0,216
-621,634	172,688	-0,137	-0,146
-620,619	-62,278	-0,069	0,021
-619,605	-200,000	-0,022	-0,118
-618,590	231,816	0,093	0,113
-617,576	800,000	0,038	0,097
-616,561	-60,936	0,016	-0,005
-615,546	45,002	0,038	-0,026
-614,532	-200,000	-0,002	-0,059
-613,517	161,097	0,109	-0,113
-612,503	-59,794	-0,083	-0,026
-611,488	510,074	-0,046	-0,080
-610,474	221,305	0,054	-0,065
-609,459	39,303	0,043	0,028
-608,444	23,454	-0,103	-0,063
-607,430	-101,145	-0,140	-0,025
-606,415	-59,287	-0,155	0,049
-605,401	-84,810	-0,102	0,024
-604,386	-44,405	-0,042	-0,016
-603,371	-200,000	-0,033	-0,149
-602,357	-83,004	0,052	0,012
-601,342	-200,000	-0,022	-0,112
-600,328	54,392	-0,084	-0,060
-599,313	-85,169	-0,073	0,017
-598,298	-65,159	0,050	0,015
-597,284	-166,112	0,074	-0,002
-596,269	-200,000	0,000	0,015
-595,255	800,000	0,056	0,168
-594,240	228,178	-0,079	0,096
-593,225	-200,000	0,025	-0,087
-592,211	-200,000	0,016	-0,091
-591,196	128,358	0,033	-0,031
-590,182	-6,411	0,044	-0,022
-589,167	-200,000	-0,055	0,183
-588,152	12,830	0,099	0,057
-587,138	-200,000	0,000	0,022
-586,123	202,529	0,105	0,120
-585,109	800,000	-0,035	0,087
-584,094	800,000	-0,048	0,139
-583,079	-171,601	0,123	-0,003
-582,065	502,335	-0,021	-0,037
-581,050	-10,006	-0,098	-0,048
-580,036	94,386	0,079	0,066
-579,021	-135,206	-0,049	0,004
-578,006	-10,790	0,129	-0,063
-576,992	356,231	-0,033	-0,049
-575,977	-200,000	0,011	0,088
-574,963	112,258	0,089	0,080
-573,948	-200,000	-0,020	-0,128
-572,934	-199,038	-0,105	0,000
-571,919	800,000	0,021	0,048
-570,904	-107,745	-0,086	-0,014
-569,890	-60,484	-0,144	-0,045
-568,875	327,217	0,043	-0,061
-567,861	800,000	0,021	-0,052
-566,846	800,000	0,040	0,094
-565,831	-117,819	-0,031	-0,004
-564,817	800,000	-0,025	-0,061
-563,802	561,028	-0,041	-0,074
-562,788	-200,000	-0,009	-0,041
-561,773	47,099	0,076	0,052
-560,758	-30,727	0,112	-0,047
-559,744	-101,549	-0,037	-0,006
-558,729	212,063	0,014	0,016
-557,715	-200,000	-0,024	0,117
-556,700	800,000	0,018	-0,039
-555,685	800,000	-0,015	-0,033
-554,671	-13,046	0,088	0,042
-553,656	800,000	-0,028	0,073
-552,642	800,000	0,014	0,041
-551,627	-200,000	0,005	0,039
-550,612	-46,190	-0,085	-0,031
-549,598	-12,182	-0,040	-0,019
-548,583	-200,000	0,024	0,121
-547,569	623,000	0,023	-0,042
-546,554	-35,714	-0,028	-0,011
-545,539	-200,000	0,019	0,106
-544,525	-200,000	-0,042	0,166
-543,510	-200,000	0,013	-0,133
-542,496	146,993	-0,039	-0,039
-541,481	-31,557	-0,119	-0,049
-540,466	-153,140	0,134	-0,007
-539,452	-5,699	-0,027	-0,013
-538,437	-91,613	0,149	-0,031
-537,423	-128,968	0,045	0,005
-536,408	-50,856	-0,062	0,021
-535,393	2,616	-0,109	0,058
-534,379	-200,000	0,014	-0,051
-533,364	183,221	-0,016	0,017
-532,350	-107,617	0,133	0,021
-531,335	-44,246	0,088	-0,032
-530,321	240,155	0,077	-0,094
-529,306	202,529	0,031	-0,035
-528,291	-200,000	0,021	0,157
-527,277	131,859	-0,018	-0,017
-526,262	72,817	-0,026	-0,020
-525,248	-200,000	0,013	-0,066
-524,233	-200,000	-0,035	0,198
-523,218	-200,000	-0,048	0,184
-522,204	-13,261	-0,170	0,081
-521,189	288,822	-0,017	-0,022
-520,175	-60,411	-0,069	-0,022
-519,160	-46,970	-0,102	-0,037
-518,145	-108,376	-0,070	-0,011
-517,131	-39,308	-0,017	0,006
-516,116	92,212	0,070	-0,058
-515,102	262,050	-0,094	-0,120
-514,087	800,000	0,007	-0,016
-513,072	32,199	-0,045	0,029
-512,058	-30,527	0,029	-0,012
-511,043	-200,000	0,012	0,059
-510,029	-90,260	0,105	0,022
-509,014	87,845	0,059	-0,048
-507,999	82,352	0,133	0,106
-506,985	791,697	-0,025	-0,051
-505,970	668,527	0,039	-0,075
-504,956	-200,000	0,000	-0,180
-503,941	235,868	0,066	-0,080
-502,926	50,925	-0,046	0,032
-501,912	287,169	0,113	0,150
-500,897	-110,571	0,022	-0,003
-499,883	-7,167	-0,083	-0,041
-498,868	-28,885	-0,168	0,071
-497,853	-200,000	0,015	0,053
-496,839	-70,405	-0,095	-0,026
-495,824	46,356	0,141	-0,096
-494,810	800,000	0,052	0,146
-493,795	59,495	0,036	-0,026
-492,781	400,989	0,031	-0,048
-491,766	-75,457	-0,095	-0,025
-490,751	279,735	0,015	0,020
-489,737	161,248	0,051	-0,052
-488,722	59,007	-0,037	0,027
-487,708	-64,993	-0,105	0,031
-486,693	800,000	0,051	0,109
-485,678	-1,976	-0,044	0,023
-484,664	-29,033	-0,133	-0,056
-483,649	383,145	0,072	-0,109
-482,635	-200,000	0,033	-0,148
-481,620	-6,214	0,030	0,015
-480,605	-38,240	-0,110	0,043
-479,591	800,000	-0,032	0,080
-478,576	160,330	0,086	-0,089
-477,562	-200,000	-0,057	-0,193
-476,547	480,428	-0,047	-0,079
-475,532	393,905	-0,055	-0,085
-474,518	117,183	-0,054	-0,049
-473,503	110,869	-0,077	0,068
-472,489	119,386	0,080	-0,073
-471,474	800,000	0,033	-0,080
-470,459	-10,976	-0,121	-0,058
-469,445	-86,534	-0,070	-0,016
-468,430	-126,329	-0,096	0,010
-467,416	66,234	0,104	0,078
-466,401	29,876	0,114	-0,072
-465,386	156,851	-0,063	0,064
-464,372	-10,896	0,097	0,047
-463,357	26,510	0,028	-0,017
-462,343	629,567	-0,068	0,127
-461,328	800,000	0,026	0,065
-460,313	-86,086	0,100	0,023
-459,299	-200,000	-0,007	0,046
-458,284	-71,583	-0,100	0,027
-457,270	104,132	-0,127	0,110
-456,255	-134,861	-0,157	0,014
-455,241	-200,000	-0,049	-0,235
-454,226	-72,314	-0,141	-0,038
-453,211	-145,335	-0,049	0,003
-452,197	51,923	0,065	-0,046
-451,182	298,712	0,021	0,028
-450,168	-11,086	0,114	0,055
-449,153	800,000	-0,048	-0,113
-448,138	373,579	-0,029	-0,043
-447,124	-126,569	0,067	-0,007
-446,109	522,898	-0,072	0,126
-445,095	244,502	0,072	0,089
-444,080	-14,765	-0,047	-0,022
-443,065	241,619	-0,040	0,049
-442,051	449,624	-0,021	-0,035
-441,036	800,000	0,021	0,054
-440,022	35,133	-0,093	0,060
-439,007	-168,351	-0,145	-0,004
-437,992	-123,886	0,137	0,016
-436,978	-81,327	0,070	0,017
-435,963	800,000	-0,054	0,112
-434,949	-99,333	-0,056	0,010
-433,934	182,744	-0,088	0,096
-432,919	-54,774	-0,063	-0,021
-431,905	-29,478	0,105	-0,044
-430,890	-69,214	0,032	-0,009
-429,876	-23,947	0,051	0,022
-428,861	12,796	-0,069	0,039
-427,846	-200,000	-0,005	0,030
-426,832	-41,781	0,061	-0,023
-425,817	-58,869	-0,162	0,051
-424,803	26,204	0,056	0,034
-423,788	-200,000	-0,026	0,128
-422,773	333,938	0,058	0,082
-421,759	165,457	0,055	-0,057
-420,744	188,851	0,058	-0,064
-419,730	127,745	0,025	0,024
-418,715	-74,601	0,121	0,032
-417,701	-200,000	-0,001	-0,036
-416,686	800,000	-0,024	-0,075
-415,671	487,195	0,068	0,114
-414,657	171,397	-0,036	-0,038
-413,642	239,017	0,039	-0,047
-412,628	-200,000	0,012	-0,058
-411,613	13,202	0,061	-0,035
-410,598	525,785	0,069	-0,120
-409,584	378,462	0,060	-0,090
-408,569	11,081	0,110	0,062
-407,555	-200,000	0,000	0,005
-406,540	29,322	-0,027	0,017
-405,525	-0,868	-0,144	-0,075
-404,511	13,541	0,075	-0,043
-403,496	800,000	-0,059	-0,148
-402,482	800,000	-0,044	-0,105
-401,467	-83,464	0,005	0,001
-400,452	46,680	0,097	0,066
-399,438	-200,000	-0,025	0,142
-398,423	149,923	-0,048	0,047
-397,409	800,000	-0,027	0,074
-396,394	800,000	0,018	0,040
-395,379	-60,622	-0,082	0,025
-394,365	800,000	0,031	0,082
-393,350	389,820	0,095	0,145
-392,336	25,379	-0,091	-0,055
-391,321	-200,000	0,047	-0,235
-390,306	-116,682	-0,044	-0,006
-389,292	219,958	-0,041	-0,049
-388,277	-146,200	0,010	0,001
-387,263	-1,768	0,064	0,033
-386,248	-25,960	0,142	-0,061
-385,233	800,000	0,047	-0,117
-384,219	238,746	-0,011	0,014
-383,204	-200,000	-0,001	0,129
-382,190	78,346	0,043	-0,034
-381,175	-200,000	0,024	-0,077
-380,160	167,119	-0,136	-0,142
-379,146	-200,000	0,000	0,096
-378,131	33,371	-0,068	-0,043
-377,117	39,091	-0,056	0,037
-376,102	-74,622	0,101	0,026
-375,088	-163,552	0,073	-0,003
-374,073	-117,034	0,081	0,011
-373,058	-1,350	-0,039	0,020
-372,044	800,000	0,012	0,033
-371,029	6,622	0,080	0,043
-370,015	-156,842	-0,049	-0,002
-369,000	-200,000	-0,010	0,095
-367,985	220,485	-0,073	0,085
-366,971	151,845	0,119	0,119
-365,956	800,000	0,036	-0,089
-364,942	-14,830	0,120	-0,056
-363,927	762,417	0,060	0,121
-362,912	21,967	-0,088	-0,052
-361,898	188,726	-0,032	0,035
-360,883	-30,678	-0,124	-0,051
-359,869	-78,341	-0,075	0,019
-358,854	73,856	-0,148	0,114
-357,839	0,447	0,146	0,076
-356,825	800,000	0,033	0,089
-355,810	433,463	-0,074	0,117
-354,796	800,000	0,045	0,095
-353,781	157,873	0,085	-0,086
-352,766	-200,000	-0,001	-0,105
-351,752	-175,866	-0,067	0,001
-350,737	-200,000	-0,001	-0,030
-349,723	238,614	-0,037	-0,045
-348,708	-200,000	-0,050	0,203
-347,693	-200,000	-0,010	0,033
-346,679	19,702	-0,050	0,029
-345,664	30,110	-0,055	-0,035
-344,650	800,000	0,017	-0,038
-343,635	26,954	-0,062	-0,038
-342,620	14,953	0,084	0,048
-341,606	171,898	0,051	-0,054
-340,591	-36,736	0,049	0,019
-339,577	800,000	0,032	-0,075
-338,562	49,184	-0,008	0,006
-337,548	-200,000	-0,009	-0,078
-336,533	19,827	0,067	0,039
-335,518	-117,419	0,031	-0,004
-334,504	53,720	0,090	0,063
-333,489	580,230	0,029	-0,052
-332,475	317,804	-0,131	-0,182
-331,460	85,916	-0,067	-0,054
-330,445	-200,000	0,013	0,093
-329,431	800,000	-0,038	-0,095
-328,416	-53,511	0,189	0,063
-327,402	-74,503	0,085	0,022
-326,387	-128,392	-0,073	-0,007
-325,372	28,244	-0,068	-0,042
-324,358	-200,000	0,008	-0,028
-323,343	-200,000	0,007	-0,030
-322,329	-200,000	-0,006	-0,122
-321,314	800,000	-0,032	-0,093
-320,299	-77,819	0,081	-0,020
-319,285	28,004	0,040	0,025
-318,270	-100,717	0,013	-0,002
-317,256	-171,071	-0,017	0,000
-316,241	-200,000	0,014	-0,071
-315,226	7,478	0,053	0,029
-314,212	-36,894	0,114	0,045
-313,197	355,601	0,053	0,077
-312,183	-161,076	-0,025	0,001
-311,168	566,255	0,034	0,061
-310,153	294,978	-0,063	0,084
-309,139	157,079	0,034	0,035
-308,124	-73,831	-0,075	-0,020
-307,110	84,193	-0,031	0,025
-306,095	356,341	-0,034	0,049
-305,080	516,973	0,045	-0,077
-304,066	71,726	-0,171	-0,130
-303,051	-83,172	-0,132	0,031
-302,037	198,439	0,048	-0,053
-301,022	45,712	0,135	-0,091
-300,008	-7,814	0,044	0,022
-298,993	-45,488	-0,083	0,030
-297,978	-200,000	-0,025	0,090
-296,964	56,042	0,023	-0,016
-295,949	-67,929	-0,178	-0,050
-294,935	800,000	-0,011	-0,027
-293,920	691,731	0,045	0,086
-292,905	-77,953	0,084	0,021
-291,891	-200,000	-0,003	-0,010
-290,876	-115,243	-0,028	0,004
-289,862	-185,166	0,106	0,001
-288,847	800,000	0,042	0,095
-287,832	-70,180	-0,029	0,008
-286,818	-126,689	-0,087	-0,009
-285,803	-84,046	0,049	0,011
-284,789	97,683	0,102	0,086
-283,774	284,142	0,099	-0,131
-282,759	-87,144	0,152	0,034
-281,745	23,393	-0,107	-0,064
-280,730	-167,094	-0,060	-0,002
-279,716	-200,000	-0,018	0,071
-278,701	-200,000	0,003	0,013
-277,686	-35,758	0,164	-0,064
-276,672	-32,199	0,046	-0,019
-275,657	800,000	0,013	-0,038
-274,643	37,199	0,102	0,066
-273,628	179,835	0,057	-0,062
-272,613	138,578	0,064	0,061
-271,599	800,000	-0,011	0,030
-270,584	-200,000	-0,031	0,099
-269,570	-104,268	0,061	-0,010
-268,555	51,096	-0,020	-0,014
-267,540	112,440	-0,057	0,050
-266,526	-200,000	0,029	-0,104
-265,511	13,126	0,014	0,008
-264,497	-101,732	0,090	-0,016
-263,482	283,973	0,031	0,040
-262,467	114,514	0,043	0,038
-261,453	8,071	-0,127	0,069
-260,438	-46,656	0,117	0,042
-259,424	-71,775	-0,146	-0,039
-258,409	-39,473	-0,040	-0,015
-257,395	343,320	0,070	-0,100
-256,380	-170,297	0,095	-0,002
-255,365	-50,171	0,043	0,015
-254,351	-95,795	0,096	-0,018
-253,336	-200,000	0,000	-0,066
-252,322	321,902	-0,065	-0,091
-251,307	302,790	-0,038	-0,052
-250,292	116,996	-0,086	0,077
-249,278	-142,844	0,011	-0,001
-248,263	123,718	0,079	-0,072
-247,249	-180,732	0,083	-0,001
-246,234	800,000	-0,032	-0,091
-245,219	-200,000	-0,001	0,023
-244,205	-200,000	0,024	0,129
-243,190	-121,059	0,197	-0,024
-242,176	-200,000	0,022	0,098
-241,161	-161,753	0,085	0,003
-240,146	-86,623	-0,030	-0,007
-239,132	59,546	-0,080	-0,058
-238,117	-82,226	-0,157	-0,037
-237,103	-49,304	0,028	0,010
-236,088	178,461	-0,064	0,068
-235,073	800,000	-0,016	0,035
-234,059	449,598	-0,020	0,032
-233,044	70,155	0,059	0,044
-232,030	-200,000	-0,021	0,073
-231,015	-19,661	-0,049	0,022
-230,000	301,786	-0,083	-0,112
-228,986	-200,000	0,008	0,124
-227,971	-146,384	0,111	-0,007
-226,957	800,000	0,080	0,219
-225,942	119,045	0,079	0,071
-224,927	-126,580	0,104	-0,011
-223,913	429,688	-0,056	0,088
-222,898	-34,313	-0,160	-0,064
-221,884	-200,000	-0,019	-0,104
-220,869	28,319	0,136	0,083
-219,855	800,000	0,022	-0,064
-218,840	-149,031	0,042	-0,002
-217,825	-85,995	-0,047	0,011
-216,811	-39,720	0,126	-0,048
-215,796	-134,265	-0,137	-0,012
-214,782	219,678	-0,041	-0,048
-213,767	-31,252	-0,097	-0,040
-212,752	-200,000	0,010	0,038
-211,738	-31,931	-0,226	0,092
-210,723	-200,000	0,022	-0,113
-209,709	-158,891	-0,161	0,007
-208,694	-59,195	-0,067	-0,021
-207,679	800,000	-0,051	-0,157
-206,665	-200,000	0,046	-0,160
-205,650	800,000	-0,028	0,091
-204,636	-200,000	0,000	0,119
-203,621	634,312	-0,009	0,016
-202,606	-200,000	0,000	-0,092
-201,592	-61,766	-0,038	-0,012
-200,577	-69,364	-0,065	-0,018
-199,563	800,000	0,042	-0,118
-198,548	-100,428	-0,022	-0,004
-197,533	137,738	-0,072	0,069
-196,519	33,136	0,064	0,040
-195,504	278,973	-0,040	0,052
-194,490	244,389	0,044	0,054
-193,475	-33,259	0,055	0,022
-192,460	119,571	-0,026	0,023
-191,446	771,669	-0,070	0,139
-190,431	144,199	-0,130	-0,126
-189,417	-16,632	-0,139	0,064
-188,402	-74,250	-0,051	-0,013
-187,387	-200,000	-0,052	-0,214
-186,373	-200,000	-0,009	0,000
-185,358	523,797	-0,007	-0,013
-184,344	-175,557	0,062	-0,001
-183,329	172,764	-0,029	0,030
-182,315	-200,000	0,015	-0,086
-181,300	46,177	-0,094	0,063
-180,285	-200,000	-0,015	-0,246
-179,271	-120,951	-0,065	-0,008
-178,256	520,805	0,033	0,057
-177,242	660,090	0,024	0,045
-176,227	800,000	0,048	-0,096
-175,212	-200,000	0,002	-0,123
-174,198	-111,997	0,134	0,019
-173,183	-117,647	-0,102	0,013
-172,169	613,819	-0,081	-0,148
-171,154	185,680	0,031	-0,033
-170,139	-139,723	0,187	-0,014
-169,125	562,400	0,014	0,024
-168,110	-66,616	0,161	0,046
-167,096	-200,000	0,023	0,145
-166,081	-22,208	-0,105	0,046
-165,066	100,205	0,066	0,056
-164,052	66,518	0,082	0,061
-163,037	90,977	-0,093	0,076
-162,023	-200,000	-0,029	0,150
-161,008	-200,000	0,015	-0,070
-159,993	-100,646	0,101	0,018
-158,979	-48,743	0,089	-0,031
-157,964	-82,982	-0,073	-0,017
-156,950	18,699	0,072	-0,042
-155,935	-200,000	0,032	-0,144
-154,920	498,692	-0,075	0,125
-153,906	-27,276	-0,080	-0,034
-152,891	-200,000	0,010	0,089
-151,877	690,389	-0,049	0,093
-150,862	234,569	-0,080	-0,095
-149,847	800,000	0,036	-0,100
-148,833	46,675	-0,035	0,024
-147,818	-122,452	-0,025	-0,003
-146,804	52,556	-0,058	-0,040
-145,789	-200,000	-0,009	0,034
-144,775	-200,000	0,001	-0,077
-143,760	619,537	0,063	-0,115
-142,745	232,299	-0,039	0,046
-141,731	447,790	-0,070	0,113
-140,716	413,724	-0,038	0,058
-139,702	-109,320	0,118	0,018
-138,687	20,598	-0,068	0,040
-137,672	109,319	-0,091	-0,079
-136,658	-78,679	0,009	-0,002
-135,643	-200,000	-0,038	-0,122
-134,629	-0,428	-0,088	0,045
-133,614	134,265	-0,030	-0,028
-132,599	-200,000	0,023	0,082
-131,585	800,000	-0,041	0,096
-130,570	164,022	-0,132	-0,136
-129,556	-172,378	-0,101	-0,002
-128,541	-200,000	0,021	-0,090
-127,526	534,744	0,054	0,094
-126,512	596,131	0,079	0,143
-125,497	645,095	-0,047	0,088
-124,483	800,000	0,020	-0,054
-123,468	117,287	0,057	0,051
-122,453	-107,596	-0,091	0,014
-121,439	237,356	0,043	0,052
-120,424	-200,000	0,005	-0,071
-119,410	3,694	0,083	-0,044
