DTS Sentinel unit serial number:	SN410029Multiplexer serial number:	ORYXHardware model number:	OX2-SRSoftware version number:	ORYX F/W v4,00 Oryx Data Collector v3.7.2.0data status	okinstallation	B6 Nyhavnadifferential loss correction	single-endedforward channel	channel 2reverse channel	N/Adate	2023/12/07time	18:05:08forward acquisition time	300,00reverse acquisition time	0,00gamma	499,1914k internal	0,3164k external	0,3164temperature offset calibration	1,0000default loss term (dB/km)	0,3820temperature slope calibration	1,0000multiplexer offset coefficient	1,0000multiplexer slope coefficient	1,0000fibre end	0,00T internal ref (°C)	14,33T ext. ref 1 (°C)	-2,64T ext. ref 2 (°C)	-2,65length (m)	temperature (°C)	Stokes	anti-Stokes-744,400	147,634	0,076	0,076
-743,385	-52,489	-0,327	-0,111
-742,371	-200,000	0,043	0,230
-741,356	-116,346	-0,321	0,043
-740,342	-42,359	0,019	-0,007
-739,327	-91,694	-0,197	-0,041
-738,312	-60,392	0,168	0,052
-737,298	6,344	-0,184	0,100
-736,283	47,448	0,114	0,078
-735,269	0,997	-0,205	-0,108
-734,254	270,195	-0,022	0,029
-733,239	-64,017	-0,434	-0,130
-732,225	164,853	0,070	0,073
-731,210	-200,000	-0,003	0,159
-730,196	37,476	-0,088	0,057
-729,181	800,000	-0,046	-0,120
-728,167	-145,559	-0,068	-0,004
-727,152	-200,000	-0,029	0,154
-726,137	800,000	0,034	0,109
-725,123	485,771	-0,019	0,032
-724,108	-200,000	-0,008	-0,065
-723,094	800,000	0,059	-0,142
-722,079	-6,383	-0,076	-0,038
-721,064	-68,484	0,041	-0,012
-720,050	-8,220	-0,051	-0,025
-719,035	-115,895	-0,065	0,009
-718,021	-200,000	-0,004	0,088
-717,006	119,990	-0,018	0,016
-715,991	-123,763	-0,129	0,015
-714,977	-65,449	0,099	-0,029
-713,962	329,325	-0,052	-0,074
-712,948	-200,000	-0,001	-0,180
-711,933	-200,000	-0,008	-0,074
-710,918	-200,000	-0,007	0,069
-709,904	-200,000	0,003	-0,070
-708,889	-128,356	0,137	-0,014
-707,875	21,496	-0,081	-0,048
-706,860	-26,281	-0,138	0,059
-705,845	-200,000	0,008	-0,092
-704,831	800,000	-0,067	-0,181
-703,816	800,000	-0,033	-0,092
-702,802	166,321	-0,121	-0,126
-701,787	132,038	-0,067	-0,064
-700,772	-59,508	-0,090	0,028
-699,758	-48,102	-0,025	-0,009
-698,743	800,000	-0,023	0,072
-697,729	800,000	0,044	-0,129
-696,714	-48,228	0,024	0,009
-695,699	-42,228	0,132	-0,049
-694,685	-124,644	-0,154	-0,017
-693,670	43,419	-0,066	-0,044
-692,656	-114,099	-0,031	-0,004
-691,641	749,322	0,021	-0,041
-690,627	-200,000	0,011	0,054
-689,612	239,619	0,019	0,023
-688,597	520,905	-0,023	-0,040
-687,583	128,485	-0,049	-0,046
-686,568	-126,394	-0,130	-0,014
-685,554	-200,000	-0,027	-0,131
-684,539	-144,403	-0,129	0,009
-683,524	204,875	-0,005	-0,006
-682,510	-66,676	-0,110	0,032
-681,495	323,234	0,074	-0,104
-680,481	407,613	-0,043	-0,067
-679,466	-200,000	-0,010	-0,066
-678,451	800,000	0,016	-0,045
-677,437	31,315	0,045	0,028
-676,422	-74,273	-0,130	-0,034
-675,408	-1,686	0,031	-0,016
-674,393	-200,000	-0,038	0,152
-673,378	-51,086	0,124	-0,043
-672,364	-68,924	-0,099	-0,028
-671,349	-200,000	-0,009	0,064
-670,335	-94,194	0,101	0,020
-669,320	221,026	0,042	-0,050
-668,305	-200,000	-0,004	0,083
-667,291	-14,394	-0,063	-0,030
-666,276	800,000	0,016	0,034
-665,262	193,261	-0,055	-0,061
-664,247	-72,742	-0,040	0,011
-663,232	-200,000	0,021	-0,090
-662,218	-200,000	0,000	-0,018
-661,203	45,491	-0,062	-0,042
-660,189	-200,000	-0,054	0,000
-659,174	-200,000	0,006	0,067
-658,159	239,482	-0,027	0,033
-657,145	800,000	0,049	-0,125
-656,130	335,935	0,044	-0,063
-655,116	2,445	0,014	0,007
-654,101	20,565	-0,074	0,044
-653,086	17,676	0,066	0,039
-652,072	-132,138	-0,025	-0,002
-651,057	584,372	0,047	0,086
-650,043	7,719	-0,065	0,036
-649,028	-51,288	-0,095	-0,032
-648,014	-68,444	0,047	-0,013
-646,999	-62,064	0,071	-0,021
-645,984	344,492	0,036	0,052
-644,970	529,597	-0,070	-0,122
-643,955	800,000	-0,065	-0,195
-642,941	-200,000	-0,009	-0,137
-641,926	47,758	0,096	-0,066
-640,911	800,000	0,042	-0,091
-639,897	800,000	0,046	0,139
-638,882	-141,429	0,069	-0,005
-637,868	467,868	0,034	-0,057
-636,853	324,384	0,022	0,030
-635,838	307,403	-0,073	-0,100
-634,824	-121,109	0,174	-0,021
-633,809	683,434	0,092	0,177
-632,795	-73,376	-0,175	-0,046
-631,780	152,675	-0,049	-0,049
-630,765	-10,721	0,099	0,048
-629,751	800,000	0,050	0,135
-628,736	-35,846	-0,192	0,076
-627,722	390,246	-0,018	0,027
-626,707	-200,000	-0,023	-0,114
-625,692	-110,425	0,088	0,013
-624,678	800,000	0,036	-0,075
-623,663	-200,000	0,019	-0,140
-622,649	-83,751	-0,163	0,038
-621,634	119,927	-0,085	-0,077
-620,619	82,062	0,077	0,061
-619,605	800,000	-0,022	-0,048
-618,590	657,242	-0,070	-0,133
-617,576	764,492	-0,052	0,103
-616,561	-92,990	0,114	-0,023
-615,546	-200,000	-0,007	-0,101
-614,532	216,748	-0,053	-0,062
-613,517	-24,413	-0,134	0,058
-612,503	-31,134	-0,094	0,039
-611,488	-134,240	0,173	-0,015
-610,474	112,950	-0,151	-0,134
-609,459	-200,000	0,064	0,232
-608,444	800,000	-0,038	-0,089
-607,430	73,400	-0,073	-0,056
-606,415	-200,000	-0,013	-0,060
-605,401	-200,000	-0,018	0,059
-604,386	52,133	0,114	0,080
-603,371	260,346	-0,066	0,083
-602,357	62,973	-0,072	0,053
-601,342	-200,000	0,034	-0,111
-600,328	-200,000	0,002	-0,048
-599,313	396,884	-0,039	-0,060
-598,298	800,000	-0,021	0,049
-597,284	-200,000	-0,027	-0,110
-596,269	534,004	-0,041	-0,071
-595,255	247,078	-0,056	0,069
-594,240	126,380	-0,034	0,032
-593,225	-200,000	0,014	0,063
-592,211	800,000	-0,017	0,044
-591,196	800,000	0,035	0,102
-590,182	-163,010	0,084	0,003
-589,167	-200,000	0,021	0,075
-588,152	-111,694	0,121	-0,018
-587,138	140,968	0,055	-0,053
-586,123	-200,000	0,000	0,143
-585,109	287,568	0,026	-0,034
-584,094	59,869	0,074	0,053
-583,079	-62,778	0,089	0,027
-582,065	129,118	-0,045	-0,042
-581,050	192,478	-0,067	-0,074
-580,036	-95,581	-0,073	0,014
-579,021	-200,000	0,021	0,072
-578,006	130,178	-0,057	0,053
-576,992	-200,000	0,023	0,133
-575,977	-200,000	-0,019	0,089
-574,963	301,056	0,054	-0,073
-573,948	101,716	0,114	0,098
-572,934	-124,942	-0,086	-0,010
-571,919	202,167	-0,071	0,081
-570,904	-200,000	0,016	-0,187
-569,890	-200,000	0,027	-0,198
-568,875	-200,000	0,011	-0,045
-567,861	276,035	0,044	0,057
-566,846	378,569	0,080	-0,120
-565,831	-196,923	-0,092	0,000
-564,817	84,150	0,045	-0,036
-563,802	-200,000	-0,030	0,194
-562,788	66,968	-0,035	0,026
-561,773	-200,000	0,010	-0,134
-560,758	57,496	0,066	0,047
-559,744	-200,000	0,012	0,098
-558,729	-200,000	0,018	-0,094
-557,715	-200,000	0,026	-0,093
-556,700	-114,609	0,112	0,016
-555,685	131,806	-0,125	-0,118
-554,671	800,000	-0,004	0,011
-553,656	15,613	0,123	-0,070
-552,642	-12,972	0,051	0,024
-551,627	-123,691	0,057	0,006
-550,612	-200,000	-0,012	-0,055
-549,598	-132,431	0,021	-0,002
-548,583	424,351	-0,055	-0,086
-547,569	800,000	0,046	0,129
-546,554	-31,140	0,132	-0,054
-545,539	332,046	-0,027	0,037
-544,525	800,000	-0,030	0,071
-543,510	-200,000	0,002	-0,032
-542,496	-200,000	0,001	0,010
-541,481	-200,000	0,019	-0,077
-540,466	-3,848	-0,059	0,030
-539,452	216,572	0,086	-0,100
-538,437	800,000	0,053	0,151
-537,423	768,287	-0,053	0,105
-536,408	282,191	-0,018	-0,024
-535,393	707,828	0,042	0,080
-534,379	-72,804	-0,024	-0,006
-533,364	-38,896	0,062	0,024
-532,350	315,664	-0,016	-0,022
-531,335	248,483	-0,114	0,141
-530,321	800,000	-0,027	-0,082
-529,306	-200,000	-0,018	0,113
-528,291	243,696	0,115	0,140
-527,277	101,574	0,062	-0,052
-526,262	711,719	-0,057	-0,111
-525,248	15,320	-0,097	-0,056
-524,233	-95,182	0,090	0,018
-523,218	271,584	-0,074	-0,096
-522,204	800,000	0,052	0,109
-521,189	-27,650	-0,069	0,029
-520,175	-85,790	-0,031	0,007
-519,160	280,329	-0,085	0,111
-518,145	-18,452	-0,119	-0,054
-517,131	176,154	0,085	0,090
-516,116	-200,000	0,005	0,056
-515,102	-200,000	-0,044	0,190
-514,087	327,756	-0,079	0,110
-513,072	-89,114	-0,101	0,022
-512,058	-50,815	0,087	-0,030
-511,043	8,261	-0,073	0,040
-510,029	189,685	0,031	-0,034
-509,014	254,323	-0,093	-0,117
-507,999	65,493	0,037	-0,027
-506,985	-9,912	0,037	-0,018
-505,970	-128,599	-0,086	-0,009
-504,956	-63,636	0,132	-0,039
-503,941	-200,000	-0,011	-0,061
-502,926	-200,000	-0,003	-0,029
-501,912	-7,902	-0,077	-0,038
-500,897	368,989	-0,069	-0,102
-499,883	-22,060	0,062	-0,027
-498,868	367,047	-0,032	-0,047
-497,853	-11,733	-0,084	-0,040
-496,839	-29,289	-0,079	0,033
-495,824	21,982	0,172	-0,102
-494,810	2,075	0,111	0,058
-493,795	-150,125	-0,229	0,013
-492,781	-200,000	0,021	-0,072
-491,766	19,975	0,081	0,048
-490,751	800,000	-0,035	0,108
-489,737	-5,771	0,099	0,049
-488,722	516,776	0,034	-0,058
-487,708	800,000	0,080	0,186
-486,693	800,000	-0,040	0,100
-485,678	-9,732	0,100	-0,048
-484,664	396,769	-0,005	-0,008
-483,649	183,244	-0,096	0,103
-482,635	-200,000	-0,016	-0,096
-481,620	280,856	0,103	0,135
-480,605	-88,886	-0,108	-0,023
-479,591	-196,760	-0,021	0,000
-478,576	-11,951	-0,089	-0,043
-477,562	180,716	0,016	-0,017
-476,547	215,524	-0,059	-0,068
-475,532	318,968	0,032	-0,045
-474,518	247,447	-0,068	-0,084
-473,503	-200,000	0,005	0,045
-472,489	800,000	0,063	0,176
-471,474	800,000	0,006	0,016
-470,459	69,071	0,046	-0,035
-469,445	719,226	0,022	-0,042
-468,430	-80,157	-0,058	-0,014
-467,416	-200,000	-0,005	0,018
-466,401	-82,156	0,033	0,008
-465,386	189,570	0,126	0,138
-464,372	-113,327	-0,108	0,015
-463,357	640,186	0,038	0,070
-462,343	-76,795	0,219	0,055
-461,328	-18,677	-0,006	0,003
-460,313	-200,000	-0,025	-0,150
-459,299	-105,747	0,067	-0,011
-458,284	800,000	0,026	0,075
-457,270	-200,000	-0,031	0,150
-456,255	30,041	-0,112	-0,069
-455,241	-200,000	0,013	-0,063
-454,226	9,069	-0,072	-0,039
-453,211	-22,799	-0,155	-0,068
-452,197	-78,214	0,213	0,053
-451,182	234,516	-0,036	-0,043
-450,168	-24,647	0,054	0,023
-449,153	481,692	0,058	-0,096
-448,138	-32,465	-0,063	0,025
-447,124	87,169	-0,150	-0,121
-446,109	178,769	0,082	0,087
-445,095	-129,816	0,038	0,004
-444,080	800,000	0,041	-0,113
-443,065	-9,036	0,076	0,037
-442,051	-103,825	-0,156	-0,026
-441,036	800,000	0,028	-0,089
-440,022	445,947	0,060	-0,097
-439,007	-88,079	-0,036	0,008
-437,992	92,608	-0,066	0,054
-436,978	83,948	0,114	0,091
-435,963	-200,000	-0,041	0,181
-434,949	800,000	-0,010	0,026
-433,934	-42,673	0,145	-0,053
-432,919	343,338	-0,025	-0,036
-431,905	800,000	-0,032	0,090
-430,890	-200,000	-0,018	0,080
-429,876	-87,858	-0,091	0,020
-428,861	78,026	0,120	0,093
-427,846	800,000	0,023	-0,050
-426,832	327,238	-0,022	0,030
-425,817	178,081	-0,085	0,090
-424,803	-200,000	-0,006	0,061
-423,788	27,042	0,059	-0,036
-422,773	-200,000	0,027	-0,146
-421,759	-200,000	-0,009	0,129
-420,744	187,379	-0,083	0,090
-419,730	379,829	-0,072	-0,107
-418,715	90,346	-0,123	0,100
-417,701	800,000	-0,039	0,083
-416,686	388,789	-0,043	-0,066
-415,671	-200,000	0,009	-0,100
-414,657	800,000	0,047	0,106
-413,642	-12,650	-0,059	-0,028
-412,628	-200,000	0,005	-0,094
-411,613	0,501	-0,033	-0,017
-410,598	27,330	0,073	-0,045
-409,584	626,736	0,033	0,062
-408,569	59,821	0,087	-0,062
-407,555	19,613	0,093	0,054
-406,540	89,923	-0,120	0,097
-405,525	-25,202	0,090	-0,038
-404,511	-200,000	-0,004	-0,071
-403,496	-60,912	0,128	-0,039
-402,482	-94,147	0,055	-0,011
-401,467	800,000	0,043	-0,110
-400,452	800,000	-0,051	0,122
-399,438	151,078	-0,087	-0,086
-398,423	800,000	0,025	-0,052
-397,409	9,361	0,030	-0,017
-396,394	-55,414	-0,124	-0,040
-395,379	113,390	-0,018	0,016
-394,365	-200,000	-0,009	0,077
-393,350	633,100	0,056	0,103
-392,336	110,108	-0,023	-0,020
-391,321	-47,762	0,068	0,024
-390,306	-57,614	-0,090	-0,029
-389,292	223,236	0,104	-0,122
-388,277	800,000	-0,022	0,047
-387,263	397,244	-0,041	0,062
-386,248	-108,565	0,123	0,019
-385,233	111,742	0,050	-0,044
-384,219	800,000	0,030	0,074
-383,204	191,636	-0,070	-0,077
-382,190	-132,689	-0,060	0,005
-381,175	-18,652	0,109	0,049
-380,160	800,000	0,021	-0,054
-379,146	85,562	0,010	-0,008
-378,131	168,758	0,065	0,068
-377,117	0,896	-0,073	0,038
-376,102	-103,287	-0,052	-0,009
-375,088	-96,622	-0,076	-0,014
-374,073	3,267	0,147	-0,077
-373,058	208,620	0,073	0,083
-372,044	118,588	0,131	-0,117
-371,029	22,324	-0,110	0,065
-370,015	194,720	-0,023	0,025
-369,000	490,009	-0,043	-0,071
-367,985	800,000	-0,064	-0,141
-366,971	-75,466	0,083	0,021
-365,956	-47,168	-0,044	0,016
-364,942	-112,875	-0,084	0,012
-363,927	-200,000	0,009	0,067
-362,912	267,401	-0,046	0,058
-361,898	-200,000	0,006	0,021
-360,883	253,728	0,094	-0,117
-359,869	1,019	-0,055	0,028
-358,854	-84,009	0,103	0,024
-357,839	-36,445	0,160	-0,062
-356,825	352,586	0,052	0,075
-355,810	-125,219	0,177	-0,019
-354,796	-44,607	-0,196	-0,071
-353,781	-66,755	-0,038	-0,011
-352,766	-47,227	0,086	-0,030
-351,752	-52,512	0,133	0,044
-350,737	9,166	0,032	-0,018
-349,723	-63,611	0,038	0,011
-348,708	322,412	-0,063	0,088
-347,693	-154,177	-0,116	0,006
-346,679	-200,000	-0,044	0,162
-345,664	-64,916	0,116	0,034
-344,650	800,000	-0,025	0,062
-343,635	671,809	0,036	0,069
-342,620	800,000	0,037	0,082
-341,606	-200,000	0,036	-0,174
-340,591	-200,000	0,004	-0,015
-339,577	8,394	-0,146	0,079
-338,562	-18,980	-0,067	-0,030
-337,548	454,254	0,116	-0,187
-336,533	800,000	0,012	0,029
-335,518	262,894	0,016	-0,020
-334,504	-158,505	0,016	-0,001
-333,489	-32,671	-0,017	-0,007
-332,475	144,732	0,042	-0,041
-331,460	-96,383	-0,057	0,011
-330,445	-200,000	-0,014	-0,148
-329,431	-200,000	0,008	0,189
-328,416	800,000	0,101	0,220
-327,402	30,976	0,082	0,051
-326,387	-57,526	-0,099	-0,031
-325,372	-91,398	-0,082	0,017
-324,358	-30,154	-0,033	0,013
-323,343	-200,000	-0,015	-0,104
-322,329	152,726	0,026	-0,025
-321,314	800,000	0,004	0,013
-320,299	-96,650	-0,121	-0,023
-319,285	90,304	-0,043	0,035
-318,270	-16,828	0,146	-0,066
-317,256	39,595	-0,127	-0,082
-316,241	89,539	0,077	-0,062
-315,226	-63,047	-0,179	0,053
-314,212	378,528	0,056	-0,083
-313,197	-166,053	0,047	-0,001
-312,183	-200,000	-0,008	0,158
-311,168	311,423	-0,054	0,074
-310,153	21,946	-0,047	-0,028
-309,139	338,675	-0,006	0,008
-308,124	800,000	-0,027	-0,080
-307,110	-200,000	-0,002	0,017
-306,095	800,000	0,016	0,049
-305,080	800,000	-0,023	-0,049
-304,066	79,696	0,027	-0,021
-303,051	-142,185	0,069	-0,005
-302,037	-152,936	0,043	-0,002
-301,022	787,812	0,052	0,104
-300,008	222,320	-0,073	0,085
-298,993	16,337	-0,035	0,020
-297,978	800,000	-0,014	0,041
-296,964	-141,595	-0,065	0,005
-295,949	13,129	-0,104	0,058
-294,935	-200,000	0,007	0,050
-293,920	-200,000	-0,008	-0,153
-292,905	-200,000	-0,031	0,146
-291,891	-200,000	-0,001	-0,005
-290,876	607,604	0,012	0,022
-289,862	250,095	0,040	-0,049
-288,847	135,969	-0,141	0,133
-287,832	-200,000	0,015	0,050
-286,818	61,505	-0,023	0,017
-285,803	391,125	0,017	-0,025
-284,789	278,828	-0,093	-0,120
-283,774	-106,863	-0,062	0,010
-282,759	78,853	-0,123	-0,095
-281,745	-200,000	-0,009	0,068
-280,730	800,000	-0,031	0,063
-279,716	55,385	0,110	0,077
-278,701	133,623	-0,089	0,083
-277,686	656,496	-0,010	-0,018
-276,672	164,386	0,051	0,052
-275,657	114,520	0,073	0,064
-274,643	41,278	-0,075	-0,049
-273,628	-200,000	0,005	-0,019
-272,613	-34,545	0,229	-0,090
-271,599	-200,000	0,002	-0,083
-270,584	251,324	0,078	-0,096
-269,570	-200,000	0,015	-0,122
-268,555	-78,986	-0,139	0,034
-267,540	-34,876	0,104	0,041
-266,526	95,849	-0,105	-0,086
-265,511	-200,000	0,033	-0,227
-264,497	-63,008	0,055	-0,016
-263,482	237,456	-0,019	0,022
-262,467	103,937	0,121	-0,103
-261,453	-94,801	0,121	-0,024
-260,438	52,077	0,110	-0,075
-259,424	-13,474	-0,030	0,014
-258,409	525,501	-0,016	0,028
-257,395	800,000	0,050	0,136
-256,380	-158,999	-0,129	0,005
-255,365	131,552	-0,054	0,050
-254,351	785,325	-0,025	-0,049
-253,336	85,144	0,011	0,008
-252,322	89,473	-0,039	0,031
-251,307	31,174	0,101	0,062
-250,292	79,049	0,073	0,056
-249,278	27,520	0,060	0,037
-248,263	277,283	0,046	0,060
-247,249	-200,000	0,000	-0,029
-246,234	800,000	-0,063	-0,147
-245,219	491,136	-0,019	-0,031
-244,205	800,000	-0,050	-0,113
-243,190	800,000	0,037	-0,092
-242,176	-156,508	0,088	0,004
-241,161	-200,000	0,011	-0,038
-240,146	143,823	-0,033	0,031
-239,132	-200,000	-0,043	-0,163
-238,117	735,263	-0,060	-0,117
-237,103	776,169	0,042	-0,083
-236,088	259,761	0,063	0,078
-235,073	9,535	0,109	0,059
-234,059	-64,876	-0,127	-0,037
-233,044	-200,000	0,019	0,107
-232,030	71,993	0,064	0,048
-231,015	-200,000	0,002	-0,070
-230,000	365,079	0,018	0,026
-228,986	28,691	-0,046	-0,028
-227,971	-200,000	-0,012	-0,092
-226,957	-42,449	0,060	0,022
-225,942	-85,907	0,035	-0,008
-224,927	800,000	-0,025	0,057
-223,913	-51,133	-0,026	-0,009
-222,898	-200,000	-0,016	-0,128
-221,884	-200,000	-0,015	-0,113
-220,869	-12,859	0,106	0,050
-219,855	-200,000	0,015	0,075
-218,840	463,051	-0,079	0,128
-217,825	511,969	-0,029	0,049
-216,811	146,923	0,084	0,082
-215,796	596,654	-0,056	0,100
-214,782	334,758	0,058	0,081
-213,767	-200,000	0,022	-0,202
-212,752	-200,000	0,020	0,071
-211,738	-200,000	0,009	0,073
-210,723	85,442	-0,118	0,093
-209,709	800,000	-0,019	-0,060
-208,694	17,508	-0,034	0,020
-207,679	212,990	0,065	0,074
-206,665	-76,921	0,110	-0,027
-205,650	800,000	0,059	0,183
-204,636	-68,734	-0,027	0,007
-203,621	58,401	-0,085	0,060
-202,606	119,084	0,056	-0,050
-201,592	261,775	-0,022	-0,027
-200,577	83,338	0,096	-0,075
-199,563	-21,240	-0,089	-0,039
-198,548	-3,085	-0,096	-0,048
-197,533	-49,963	-0,135	-0,046
-196,519	-200,000	0,013	0,083
-195,504	-18,246	-0,070	-0,031
-194,490	800,000	-0,018	0,038
-193,475	800,000	0,043	0,086
-192,460	-200,000	0,000	-0,018
-191,446	800,000	0,032	-0,071
-190,431	-100,156	0,122	0,022
-189,417	-200,000	0,016	0,061
-188,402	-173,217	-0,080	0,002
-187,387	449,758	-0,083	-0,132
-186,373	157,472	0,018	-0,018
-185,358	140,948	-0,039	-0,037
-184,344	800,000	-0,047	-0,108
-183,329	-200,000	-0,002	-0,080
-182,315	-200,000	-0,003	-0,010
-181,300	-8,934	-0,084	0,041
-180,285	-32,750	-0,066	-0,026
-179,271	-9,104	-0,108	-0,052
-178,256	20,717	0,156	-0,091
-177,242	800,000	0,038	0,089
-176,227	800,000	0,006	-0,016
-175,212	31,140	0,033	-0,020
-174,198	-90,566	0,047	-0,010
-173,183	-200,000	0,007	-0,125
-172,169	-40,149	0,045	-0,017
-171,154	800,000	-0,018	-0,055
-170,139	-73,341	-0,098	-0,026
-169,125	-40,412	-0,032	-0,012
-168,110	-200,000	0,011	-0,058
-167,096	-90,250	-0,018	-0,004
-166,081	140,723	0,030	-0,028
-165,066	290,490	-0,028	-0,036
-164,052	387,628	-0,060	0,090
-163,037	-93,338	0,070	-0,014
-162,023	-88,947	-0,027	0,006
-161,008	527,501	-0,075	0,128
-159,993	-46,666	0,100	0,035
-158,979	163,664	0,035	0,036
-157,964	-111,544	-0,164	0,024
-156,950	132,298	0,078	-0,072
-155,935	-59,541	-0,111	0,034
-154,920	-8,316	-0,061	-0,029
-153,906	800,000	-0,032	0,092
-152,891	-200,000	0,005	0,112
-151,877	800,000	-0,020	-0,045
-150,862	-200,000	0,013	-0,101
-149,847	-28,486	-0,089	-0,037
-148,833	730,810	-0,029	0,056
-147,818	154,598	0,049	-0,049
-146,804	-200,000	0,022	0,092
-145,789	-67,068	-0,024	0,007
-144,775	-80,472	-0,125	-0,030
-143,760	-50,468	0,088	-0,030
-142,745	800,000	0,013	0,040
-141,731	-200,000	-0,019	-0,109
-140,716	-5,845	0,144	0,071
-139,702	-200,000	0,004	0,013
-138,687	337,841	0,083	0,117
-137,672	277,570	-0,020	0,025
-136,658	-117,390	-0,196	0,025
-135,643	-26,339	-0,142	0,060
-134,629	-29,521	0,139	-0,057
-133,614	-45,124	0,087	0,031
-132,599	800,000	-0,058	0,172
-131,585	374,536	0,063	0,092
-130,570	462,342	0,031	-0,049
-129,556	-106,616	-0,153	0,024
-128,541	-74,351	0,071	-0,018
-127,526	-200,000	-0,014	0,051
-126,512	372,482	0,045	0,066
-125,497	282,188	0,099	0,128
-124,483	-59,551	0,174	0,053
-123,468	529,905	-0,064	-0,108
-122,453	800,000	0,037	-0,095
-121,439	-196,490	0,044	0,000
-120,424	22,775	-0,062	0,036
-119,410	-14,735	0,058	0,027
-118,395	-200,000	-0,020	0,075
