DTS Sentinel unit serial number:	SN410029Multiplexer serial number:	ORYXHardware model number:	OX2-SRSoftware version number:	ORYX F/W v4,00 Oryx Data Collector v3.7.2.0data status	okinstallation	B6 Nyhavnadifferential loss correction	single-endedforward channel	channel 2reverse channel	N/Adate	2023/12/07time	15:45:08forward acquisition time	300,00reverse acquisition time	0,00gamma	499,1914k internal	0,3165k external	0,3165temperature offset calibration	1,0000default loss term (dB/km)	0,3820temperature slope calibration	1,0000multiplexer offset coefficient	1,0000multiplexer slope coefficient	1,0000fibre end	0,00T internal ref (°C)	14,44T ext. ref 1 (°C)	-2,00T ext. ref 2 (°C)	-2,00length (m)	temperature (°C)	Stokes	anti-Stokes-744,400	48,462	-0,033	0,023
-743,385	-124,534	-0,260	-0,029
-742,371	-114,223	0,168	-0,024
-741,356	-100,568	-0,273	-0,049
-740,342	-117,931	0,217	-0,028
-739,327	-17,099	-0,295	0,136
-738,312	-116,148	0,063	-0,008
-737,298	-55,122	-0,387	0,127
-736,283	40,925	0,160	-0,106
-735,269	-9,537	-0,203	0,099
-734,254	453,881	0,034	-0,055
-733,239	0,125	-0,418	-0,218
-732,225	92,279	0,125	0,103
-731,210	-200,000	0,039	-0,128
-730,196	-97,173	0,091	-0,017
-729,181	55,793	-0,051	0,036
-728,167	-86,753	-0,067	-0,015
-727,152	-7,987	-0,067	0,033
-726,137	-200,000	0,009	-0,086
-725,123	-37,831	-0,109	-0,042
-724,108	800,000	0,034	-0,109
-723,094	408,488	-0,024	-0,037
-722,079	371,481	0,089	-0,133
-721,064	800,000	0,037	-0,094
-720,050	800,000	0,011	0,028
-719,035	338,185	-0,092	0,131
-718,021	-104,344	-0,134	-0,023
-717,006	197,948	0,043	-0,049
-715,991	39,603	-0,254	-0,167
-714,977	271,808	0,139	-0,180
-713,962	-155,502	-0,069	0,003
-712,948	-82,919	-0,045	0,011
-711,933	177,764	-0,058	0,062
-710,918	153,794	-0,059	0,060
-709,904	-133,767	-0,149	-0,013
-708,889	760,041	-0,024	-0,049
-707,875	-65,667	-0,127	0,037
-706,860	231,198	0,050	0,060
-705,845	-165,427	0,061	0,002
-704,831	-104,545	-0,014	0,002
-703,816	544,419	-0,090	0,158
-702,802	116,414	0,032	0,029
-701,787	-154,621	-0,079	-0,004
-700,772	-158,656	-0,116	-0,005
-699,758	34,105	0,027	0,017
-698,743	-200,000	-0,011	0,124
-697,729	-200,000	-0,025	0,149
-696,714	219,237	-0,018	0,021
-695,699	800,000	0,024	0,051
-694,685	22,651	-0,233	-0,140
-693,670	-57,469	-0,093	0,030
-692,656	-136,569	0,087	-0,007
-691,641	-200,000	0,032	-0,163
-690,627	-133,799	-0,118	0,011
-689,612	-200,000	0,021	-0,122
-688,597	23,596	-0,098	0,059
-687,583	-107,788	-0,032	-0,005
-686,568	-200,000	-0,015	0,104
-685,554	80,280	0,089	0,070
-684,539	800,000	0,024	-0,078
-683,524	177,010	0,064	-0,069
-682,510	-95,709	-0,155	-0,030
-681,495	800,000	-0,038	-0,103
-680,481	-114,180	-0,115	-0,016
-679,466	-68,478	-0,102	-0,029
-678,451	74,832	0,074	0,057
-677,437	262,304	0,063	-0,080
-676,422	-200,000	0,002	-0,034
-675,408	98,397	-0,037	-0,032
-674,393	-22,459	0,028	-0,013
-673,378	43,749	-0,106	-0,071
-672,364	123,268	0,024	-0,022
-671,349	40,314	-0,111	-0,073
-670,335	795,045	-0,063	-0,127
-669,320	-166,910	-0,050	0,001
-668,305	293,522	0,042	0,057
-667,291	-51,577	0,094	0,032
-666,276	128,803	-0,061	-0,057
-665,262	-156,300	-0,034	-0,002
-664,247	-114,202	-0,064	0,009
-663,232	-191,733	-0,080	-0,001
-662,218	119,570	0,113	-0,103
-661,203	-200,000	0,033	0,113
-660,189	-85,558	-0,079	-0,018
-659,174	-158,830	-0,058	-0,002
-658,159	117,523	-0,055	-0,049
-657,145	456,476	0,036	-0,059
-656,130	414,129	-0,011	-0,017
-655,116	115,475	0,041	0,036
-654,101	-111,355	0,145	0,021
-653,086	186,535	-0,049	0,053
-652,072	-144,117	0,029	0,002
-651,057	-16,282	-0,113	-0,052
-650,043	-200,000	0,033	0,130
-649,028	82,232	-0,101	0,080
-648,014	84,905	0,043	-0,035
-646,999	800,000	0,037	0,095
-645,984	-200,000	0,023	0,157
-644,970	14,259	0,083	-0,047
-643,955	29,148	0,017	0,011
-642,941	-200,000	-0,114	-0,000
-641,926	-60,890	0,024	0,007
-640,911	165,142	0,134	-0,139
-639,897	-200,000	-0,010	0,128
-638,882	-120,019	-0,035	-0,004
-637,868	141,466	-0,018	0,017
-636,853	70,775	-0,057	-0,043
-635,838	-200,000	0,001	-0,077
-634,824	-200,000	0,016	-0,055
-633,809	-132,212	0,033	-0,003
-632,795	800,000	0,010	0,026
-631,780	-200,000	-0,003	0,033
-630,765	-117,665	-0,216	-0,028
-629,751	185,242	-0,039	0,043
-628,736	-147,228	-0,109	-0,007
-627,722	800,000	-0,028	-0,078
-626,707	-200,000	0,005	-0,043
-625,692	154,449	0,089	-0,089
-624,678	641,708	0,068	-0,127
-623,663	800,000	-0,020	0,057
-622,649	687,021	-0,066	-0,127
-621,634	112,017	-0,044	-0,039
-620,619	187,253	-0,071	-0,078
-619,605	-121,803	0,183	0,022
-618,590	797,252	-0,017	-0,035
-617,576	-87,752	-0,096	0,021
-616,561	800,000	-0,044	-0,092
-615,546	-200,000	0,012	-0,117
-614,532	-22,279	-0,090	-0,040
-613,517	-93,825	0,071	0,014
-612,503	-38,033	-0,055	0,021
-611,488	7,414	-0,091	-0,049
-610,474	-200,000	0,009	-0,064
-609,459	68,186	0,032	0,024
-608,444	-25,756	-0,144	-0,062
-607,430	117,248	0,062	-0,056
-606,415	-38,240	-0,106	-0,041
-605,401	43,806	0,147	-0,098
-604,386	800,000	-0,030	-0,063
-603,371	800,000	-0,028	0,070
-602,357	-103,185	0,115	-0,020
-601,342	220,023	-0,089	-0,105
-600,328	50,950	0,036	-0,025
-599,313	-10,845	-0,051	0,025
-598,298	-76,815	0,039	-0,010
-597,284	-200,000	-0,008	0,121
-596,269	231,980	0,072	0,087
-595,255	77,004	0,079	0,061
-594,240	-150,845	-0,177	-0,010
-593,225	-200,000	0,039	-0,168
-592,211	-103,320	-0,115	-0,020
-591,196	-124,583	0,065	0,007
-590,182	90,664	-0,087	0,071
-589,167	-58,442	0,073	-0,023
-588,152	-67,168	0,159	-0,046
-587,138	291,866	0,084	0,112
-586,123	99,439	-0,091	-0,077
-585,109	800,000	0,052	0,143
-584,094	-53,035	0,028	-0,009
-583,079	267,615	-0,047	-0,061
-582,065	-200,000	0,019	0,061
-581,050	62,005	0,128	0,093
-580,036	217,501	0,051	-0,060
-579,021	-200,000	-0,000	0,053
-578,006	-200,000	-0,006	-0,117
-576,992	543,603	0,077	-0,135
-575,977	-200,000	0,002	0,008
-574,963	97,676	0,120	-0,101
-573,948	-73,242	0,145	0,039
-572,934	800,000	-0,046	-0,107
-571,919	-85,766	-0,085	0,019
-570,904	-200,000	0,004	0,038
-569,890	61,848	0,023	0,017
-568,875	-26,519	-0,124	-0,053
-567,861	10,949	0,095	-0,053
-566,846	-200,000	-0,008	-0,093
-565,831	378,179	-0,013	0,020
-564,817	777,944	-0,040	-0,080
-563,802	15,852	-0,046	0,026
-562,788	27,219	-0,074	0,045
-561,773	134,584	-0,060	-0,057
-560,758	800,000	-0,030	-0,080
-559,744	153,473	-0,043	-0,043
-558,729	800,000	0,017	0,034
-557,715	103,777	-0,025	0,022
-556,700	-164,933	-0,114	-0,004
-555,685	324,941	0,108	0,151
-554,671	-200,000	-0,028	0,123
-553,656	-200,000	0,034	0,152
-552,642	-124,766	0,090	-0,010
-551,627	267,849	-0,068	0,087
-550,612	119,450	0,057	-0,052
-549,598	100,340	-0,017	0,014
-548,583	-200,000	-0,041	0,179
-547,569	-74,955	-0,151	0,039
-546,554	33,689	0,108	-0,068
-545,539	-99,060	-0,061	-0,011
-544,525	11,289	0,149	0,083
-543,510	-128,944	-0,104	0,011
-542,496	184,760	-0,055	-0,060
-541,481	533,700	0,095	-0,164
-540,466	-70,577	0,033	-0,009
-539,452	192,713	-0,046	-0,051
-538,437	-6,574	0,012	0,006
-537,423	-119,390	-0,086	0,011
-536,408	17,854	0,115	-0,067
-535,393	-161,981	-0,089	0,003
-534,379	-129,765	-0,106	-0,011
-533,364	800,000	0,052	-0,105
-532,350	22,509	0,074	-0,044
-531,335	-200,000	0,013	-0,141
-530,321	96,081	-0,017	0,014
-529,306	12,601	0,035	-0,019
-528,291	41,087	0,026	0,017
-527,277	800,000	-0,017	-0,041
-526,262	107,302	-0,023	0,020
-525,248	-48,528	0,207	-0,072
-524,233	24,207	-0,035	-0,021
-523,218	-48,588	-0,034	0,012
-522,204	-200,000	0,032	0,106
-521,189	-58,961	-0,138	0,043
-520,175	-84,123	0,072	0,016
-519,160	199,225	0,062	-0,069
-518,145	800,000	-0,081	0,215
-517,131	-52,673	0,098	0,033
-516,116	800,000	0,054	0,110
-515,102	231,404	-0,047	0,056
-514,087	-13,629	0,105	0,049
-513,072	94,378	-0,123	-0,101
-512,058	-200,000	-0,005	-0,118
-511,043	-200,000	0,036	-0,143
-510,029	797,063	0,065	-0,131
-509,014	-50,793	0,078	0,026
-507,999	-78,066	-0,107	0,027
-506,985	-200,000	0,008	-0,056
-505,970	-200,000	-0,006	0,063
-504,956	-200,000	-0,006	0,024
-503,941	-200,000	0,010	-0,147
-502,926	48,485	0,025	0,017
-501,912	-140,717	-0,102	0,008
-500,897	386,535	0,059	0,089
-499,883	117,564	-0,043	-0,039
-498,868	-193,430	-0,092	-0,001
-497,853	-59,906	0,165	-0,051
-496,839	-200,000	-0,037	0,128
-495,824	-200,000	0,031	0,110
-494,810	159,324	0,121	0,122
-493,795	310,425	0,075	0,103
-492,781	-200,000	0,015	0,131
-491,766	433,393	-0,077	-0,122
-490,751	-200,000	-0,034	0,118
-489,737	-200,000	-0,010	0,052
-488,722	800,000	0,028	-0,079
-487,708	111,083	-0,122	0,107
-486,693	97,771	0,104	0,087
-485,678	252,738	-0,052	0,064
-484,664	-44,288	-0,082	-0,030
-483,649	-102,920	0,096	0,016
-482,635	39,384	-0,076	0,050
-481,620	450,788	0,026	0,042
-480,605	133,407	0,050	0,047
-479,591	36,297	0,090	0,058
-478,576	649,070	-0,057	0,106
-477,562	728,669	0,062	-0,120
-476,547	206,127	-0,018	0,021
-475,532	619,665	0,007	-0,012
-474,518	10,324	0,061	0,034
-473,503	54,276	0,029	-0,020
-472,489	64,374	0,087	0,064
-471,474	-200,000	0,031	0,116
-470,459	30,914	0,012	-0,007
-469,445	800,000	0,071	-0,144
-468,430	60,149	0,022	0,016
-467,416	-200,000	-0,002	-0,048
-466,401	800,000	-0,039	-0,082
-465,386	-124,199	0,091	-0,010
-464,372	-147,376	-0,061	-0,004
-463,357	-173,557	-0,301	-0,006
-462,343	-200,000	-0,001	-0,236
-461,328	-200,000	0,027	-0,091
-460,313	-13,549	0,098	-0,046
-459,299	-200,000	-0,008	0,084
-458,284	183,935	0,125	0,135
-457,270	50,978	-0,074	0,051
-456,255	771,328	0,041	0,082
-455,241	-200,000	0,012	0,050
-454,226	-200,000	0,006	0,093
-453,211	-24,899	0,072	-0,031
-452,197	-200,000	0,024	0,173
-451,182	139,320	0,033	-0,032
-450,168	-112,452	0,010	-0,001
-449,153	-200,000	0,022	-0,152
-448,138	29,820	-0,067	-0,042
-447,124	330,501	-0,016	0,023
-446,109	106,703	0,032	0,027
-445,095	103,252	-0,084	-0,072
-444,080	-200,000	0,002	0,068
-443,065	-4,265	-0,095	0,047
-442,051	-200,000	0,012	-0,050
-441,036	57,545	-0,053	-0,037
-440,022	800,000	-0,050	-0,108
-439,007	800,000	-0,042	-0,117
-437,992	-110,963	0,164	-0,024
-436,978	-3,484	0,067	0,034
-435,963	-115,580	0,127	-0,017
-434,949	230,983	-0,110	-0,131
-433,934	-96,932	-0,105	0,020
-432,919	-200,000	0,002	-0,008
-431,905	363,127	-0,088	-0,129
-430,890	50,070	0,055	-0,037
-429,876	-200,000	0,003	0,046
-428,861	172,962	-0,107	0,112
-427,846	-200,000	-0,034	-0,129
-426,832	-138,513	-0,147	0,012
-425,817	148,552	-0,136	-0,133
-424,803	-56,782	0,118	-0,038
-423,788	550,066	0,063	0,109
-422,773	321,969	0,021	0,029
-421,759	800,000	-0,029	0,066
-420,744	-200,000	-0,008	0,095
-419,730	-30,418	-0,081	-0,033
-418,715	342,856	-0,006	-0,009
-417,701	232,249	-0,018	0,022
-416,686	24,922	0,073	0,044
-415,671	-151,191	0,173	0,009
-414,657	26,353	-0,024	0,014
-413,642	120,955	0,052	0,047
-412,628	24,587	-0,073	-0,044
-411,613	-59,150	0,031	-0,010
-410,598	552,912	-0,057	0,099
-409,584	800,000	-0,041	0,094
-408,569	4,331	-0,043	-0,023
-407,555	800,000	0,036	0,111
-406,540	252,105	0,040	0,050
-405,525	-104,685	-0,058	-0,010
-404,511	231,882	-0,072	-0,086
-403,496	59,870	-0,076	0,055
-402,482	800,000	-0,012	-0,030
-401,467	-200,000	0,037	0,131
-400,452	-200,000	0,003	0,160
-399,438	-68,234	0,144	0,040
-398,423	313,734	0,080	-0,110
-397,409	800,000	-0,023	0,067
-396,394	-200,000	-0,031	-0,119
-395,379	800,000	0,033	-0,098
-394,365	170,459	-0,063	0,065
-393,350	177,449	0,039	0,041
-392,336	34,168	0,046	-0,029
-391,321	-25,359	-0,132	-0,056
-390,306	-18,913	0,035	0,016
-389,292	362,458	-0,054	-0,079
-388,277	441,258	-0,025	-0,040
-387,263	-85,325	0,129	-0,029
-386,248	-5,162	0,029	-0,014
-385,233	-9,634	0,129	-0,062
-384,219	442,548	0,027	0,043
-383,204	770,219	0,027	-0,054
-382,190	403,225	-0,043	-0,066
-381,175	-192,993	0,013	0,000
-380,160	-180,490	0,047	0,001
-379,146	-200,000	-0,013	0,079
-378,131	38,173	0,066	0,043
-377,117	-105,563	0,036	-0,006
-376,102	72,307	-0,073	0,055
-375,088	-160,243	0,274	0,011
-374,073	96,825	-0,025	0,021
-373,058	-22,338	0,098	0,043
-372,044	289,834	0,047	0,062
-371,029	-200,000	-0,023	0,135
-370,015	357,727	-0,052	0,075
-369,000	-166,810	-0,075	-0,002
-367,985	-94,107	-0,123	0,024
-366,971	59,779	0,150	0,107
-365,956	-200,000	-0,027	0,117
-364,942	-33,547	0,099	0,039
-363,927	-200,000	-0,040	0,180
-362,912	75,991	0,061	0,047
-361,898	-122,768	-0,081	0,009
-360,883	800,000	0,022	-0,048
-359,869	13,462	-0,125	-0,070
-358,854	-200,000	-0,002	0,241
-357,839	179,489	0,074	0,079
-356,825	800,000	-0,050	0,111
-355,810	13,982	0,060	0,034
-354,796	800,000	-0,021	0,050
-353,781	-200,000	-0,006	0,112
-352,766	800,000	-0,069	-0,143
-351,752	267,205	0,094	0,119
-350,737	-200,000	0,014	-0,046
-349,723	-200,000	0,045	-0,190
-348,708	-200,000	0,005	-0,079
-347,693	-42,296	0,117	0,043
-346,679	37,311	-0,061	-0,039
-345,664	86,954	-0,032	-0,025
-344,650	-66,139	-0,098	-0,028
-343,635	-23,496	0,076	0,033
-342,620	63,127	-0,084	-0,061
-341,606	12,579	-0,113	-0,063
-340,591	565,309	0,061	-0,107
-339,577	-108,149	0,130	-0,020
-338,562	-200,000	-0,001	0,006
-337,548	-83,809	0,072	-0,016
-336,533	-40,108	-0,059	0,022
-335,518	800,000	0,047	0,149
-334,504	355,599	-0,046	-0,067
-333,489	67,336	0,048	0,035
-332,475	304,710	-0,054	-0,073
-331,460	112,168	-0,064	-0,056
-330,445	-54,947	-0,117	-0,038
-329,431	5,433	0,058	0,031
-328,416	-200,000	0,018	0,066
-327,402	-74,211	-0,126	0,033
-326,387	-36,011	0,071	-0,027
-325,372	-200,000	0,001	-0,086
-324,358	-184,577	-0,116	-0,001
-323,343	800,000	0,048	-0,110
-322,329	-11,464	0,014	0,006
-321,314	22,277	-0,043	-0,025
-320,299	186,580	-0,035	-0,037
-319,285	-131,731	-0,155	0,015
-318,270	132,016	-0,048	0,044
-317,256	-185,253	-0,073	0,001
-316,241	5,552	0,093	0,050
-315,226	244,566	-0,036	0,044
-314,212	800,000	0,021	-0,056
-313,197	23,961	0,120	-0,071
-312,183	-200,000	-0,014	0,079
-311,168	-76,802	-0,115	-0,029
-310,153	-200,000	-0,000	-0,118
-309,139	402,338	-0,013	0,020
-308,124	99,772	0,038	-0,032
-307,110	800,000	-0,057	0,143
-306,095	240,177	0,017	0,020
-305,080	377,100	0,025	0,037
-304,066	-57,417	-0,051	-0,016
-303,051	649,997	-0,037	-0,070
-302,037	28,425	-0,020	-0,012
-301,022	30,361	-0,045	0,028
-300,008	-69,855	0,117	0,032
-298,993	4,461	-0,115	-0,061
-297,978	-67,745	0,098	-0,027
-296,964	-200,000	0,039	-0,127
-295,949	386,990	-0,040	0,059
-294,935	-25,199	0,057	-0,024
-293,920	-43,216	-0,020	-0,007
-292,905	130,485	-0,076	0,071
-291,891	-200,000	0,001	0,057
-290,876	104,012	-0,031	0,027
-289,862	-5,965	0,091	-0,045
-288,847	222,268	-0,019	-0,022
-287,832	-200,000	-0,016	-0,093
-286,818	-7,029	0,058	0,028
-285,803	-200,000	0,013	0,067
-284,789	86,588	0,109	0,087
-283,774	-200,000	0,020	0,064
-282,759	-85,261	-0,091	-0,020
-281,745	-40,354	-0,060	-0,023
-280,730	542,113	0,015	0,026
-279,716	-49,118	0,085	0,029
-278,701	56,539	-0,057	-0,040
-277,686	112,235	0,085	0,074
-276,672	-200,000	-0,006	-0,039
-275,657	800,000	0,065	-0,201
-274,643	-200,000	-0,039	-0,291
-273,628	800,000	-0,021	0,043
-272,613	-93,461	-0,096	-0,019
-271,599	-200,000	-0,005	-0,067
-270,584	-117,045	0,068	-0,009
-269,570	-200,000	-0,015	0,050
-268,555	226,408	-0,036	-0,043
-267,540	-200,000	-0,019	-0,070
-266,526	567,197	-0,035	0,061
-265,511	-8,147	-0,072	-0,035
-264,497	297,617	0,052	0,070
-263,482	106,589	0,115	0,098
-262,467	-55,362	-0,068	-0,022
-261,453	-133,148	-0,120	0,011
-260,438	800,000	-0,057	0,119
-259,424	-63,472	-0,075	-0,022
-258,409	-75,662	0,059	0,015
-257,395	-49,435	0,111	0,038
-256,380	678,226	0,030	0,057
-255,365	-146,522	0,068	0,004
-254,351	687,828	0,062	-0,117
-253,336	-12,269	-0,142	-0,067
-252,322	-200,000	0,042	-0,156
-251,307	-200,000	0,005	-0,149
-250,292	-120,763	-0,036	-0,004
-249,278	800,000	0,009	-0,026
-248,263	1,780	0,034	-0,018
-247,249	-102,423	-0,058	-0,010
-246,234	38,621	0,044	-0,028
-245,219	317,455	-0,035	-0,048
-244,205	800,000	-0,051	-0,149
-243,190	-42,271	-0,139	0,051
-242,176	-174,349	-0,104	-0,002
-241,161	-200,000	0,024	0,166
-240,146	-150,087	-0,166	-0,009
-239,132	-126,102	0,093	0,010
-238,117	-143,272	-0,072	0,005
-237,103	239,288	-0,066	0,079
-236,088	128,556	0,024	0,023
-235,073	272,888	0,057	0,072
-234,059	184,784	-0,079	0,084
-233,044	-200,000	0,022	0,099
-232,030	800,000	0,018	0,045
-231,015	72,180	-0,041	-0,031
-230,000	-55,759	0,054	0,017
-228,986	-125,904	-0,131	-0,014
-227,971	-66,125	0,149	0,042
-226,957	-16,501	-0,087	-0,040
-225,942	-90,187	-0,095	-0,020
-224,927	-200,000	-0,001	-0,038
-223,913	-200,000	0,000	0,060
-222,898	-46,696	-0,020	-0,007
-221,884	656,755	0,018	-0,033
-220,869	67,349	0,195	0,143
-219,855	800,000	-0,029	0,077
-218,840	410,854	0,065	0,100
-217,825	-200,000	0,004	-0,086
-216,811	-26,222	-0,055	0,023
-215,796	187,163	-0,109	0,117
-214,782	-46,735	0,061	-0,021
-213,767	202,152	0,074	-0,083
-212,752	800,000	-0,031	0,076
-211,738	208,367	0,068	0,077
-210,723	-83,039	0,018	-0,004
-209,709	800,000	0,013	0,027
-208,694	-53,905	-0,115	-0,037
-207,679	-55,018	-0,111	-0,036
-206,665	-40,317	0,087	0,032
-205,650	-105,885	0,134	0,022
-204,636	-15,486	0,057	0,026
-203,621	279,169	-0,017	0,021
-202,606	-54,573	-0,097	-0,032
-201,592	800,000	0,036	-0,073
-200,577	92,122	0,036	-0,030
-199,563	-200,000	-0,005	-0,076
-198,548	148,889	0,039	0,038
-197,533	99,566	0,082	0,069
-196,519	-200,000	0,008	-0,038
-195,504	-200,000	-0,004	-0,045
-194,490	-75,259	-0,105	-0,027
-193,475	800,000	0,017	0,049
-192,460	800,000	-0,027	-0,077
-191,446	145,741	0,028	-0,027
-190,431	105,595	0,151	0,128
-189,417	72,076	0,031	-0,023
-188,402	32,462	-0,044	0,027
-187,387	-200,000	0,013	-0,043
-186,373	152,502	-0,054	0,053
-185,358	800,000	-0,012	-0,026
-184,344	177,695	0,054	-0,057
-183,329	-200,000	0,028	0,093
-182,315	305,494	0,031	-0,042
-181,300	153,670	-0,039	0,038
-180,285	-132,238	-0,053	-0,005
-179,271	13,568	0,021	0,012
-178,256	800,000	0,062	0,191
-177,242	-200,000	0,044	0,146
-176,227	386,297	-0,067	-0,100
-175,212	800,000	-0,033	0,078
-174,198	-31,305	0,055	-0,022
-173,183	256,784	-0,093	-0,115
-172,169	800,000	0,025	-0,074
-171,154	221,738	0,007	-0,009
-170,139	-152,971	0,195	-0,010
-169,125	-200,000	-0,010	0,051
-168,110	-40,505	-0,037	0,014
-167,096	800,000	0,056	-0,165
-166,081	-65,124	0,124	-0,036
-165,066	-59,236	-0,160	-0,049
-164,052	495,381	0,047	0,077
-163,037	161,464	0,107	0,107
-162,023	-85,286	-0,078	0,017
-161,008	23,119	-0,059	0,035
-159,993	732,427	-0,071	-0,138
-158,979	-200,000	-0,033	-0,124
-157,964	386,729	0,040	-0,060
-156,950	-200,000	-0,006	-0,029
-155,935	-200,000	-0,125	0,000
-154,920	464,591	0,040	0,065
-153,906	720,655	0,052	0,100
-152,891	-200,000	0,002	-0,160
-151,877	-84,329	0,081	0,018
-150,862	800,000	0,008	-0,015
-149,847	616,255	-0,087	-0,158
-148,833	-127,551	-0,045	-0,005
-147,818	437,129	0,062	-0,098
-146,804	-200,000	0,038	-0,162
-145,789	257,663	0,065	0,081
-144,775	125,219	-0,128	-0,116
-143,760	34,232	-0,150	0,094
-142,745	3,965	0,033	-0,017
-141,731	33,373	-0,068	-0,042
-140,716	800,000	0,010	0,026
-139,702	-200,000	0,034	-0,143
-138,687	540,818	0,060	0,103
-137,672	-200,000	0,005	-0,100
-136,658	-200,000	0,021	-0,102
-135,643	-200,000	0,007	0,058
-134,629	800,000	-0,041	0,085
-133,614	0,504	0,178	0,091
-132,599	0,560	0,155	0,079
-131,585	-200,000	0,017	0,065
-130,570	800,000	0,036	-0,072
-129,556	239,871	0,128	-0,153
-128,541	238,177	-0,040	-0,047
-127,526	-200,000	0,031	-0,101
-126,512	690,606	-0,089	0,169
-125,497	-126,789	0,052	0,005
-124,483	800,000	0,019	-0,059
-123,468	35,695	0,044	0,027
-122,453	-8,986	-0,156	0,075
-121,439	800,000	-0,037	-0,109
-120,424	800,000	0,039	-0,100
-119,410	-200,000	-0,006	0,031
-118,395	-123,666	-0,080	-0,009
