DTS Sentinel unit serial number:	SN410029Multiplexer serial number:	ORYXHardware model number:	OX2-SRSoftware version number:	ORYX F/W v4,00 Oryx Data Collector v3.7.2.0data status	okinstallation	B6 Nyhavnadifferential loss correction	single-endedforward channel	channel 2reverse channel	N/Adate	2023/12/09time	02:50:08forward acquisition time	300,00reverse acquisition time	0,00gamma	499,1914k internal	0,3155k external	0,3155temperature offset calibration	1,0000default loss term (dB/km)	0,3820temperature slope calibration	1,0000multiplexer offset coefficient	1,0000multiplexer slope coefficient	1,0000fibre end	0,00T internal ref (°C)	16,12T ext. ref 1 (°C)	-0,08T ext. ref 2 (°C)	-0,09length (m)	temperature (°C)	Stokes	anti-Stokes-744,400	236,964	0,103	0,126
-743,385	-174,118	-0,348	0,007
-742,371	7,441	0,130	0,072
-741,356	-79,216	-0,340	0,085
-740,342	800,000	0,011	-0,032
-739,327	-92,741	-0,287	0,059
-738,312	72,139	0,145	0,112
-737,298	-66,709	-0,315	-0,091
-736,283	-18,582	0,067	0,031
-735,269	-18,019	-0,143	-0,066
-734,254	-111,530	0,186	0,028
-733,239	-12,332	-0,535	-0,257
-732,225	-181,914	0,142	-0,002
-731,210	800,000	0,033	0,072
-730,196	243,763	-0,109	-0,135
-729,181	-200,000	0,015	-0,052
-728,167	-0,706	-0,103	-0,054
-727,152	800,000	-0,066	-0,150
-726,137	-200,000	-0,003	-0,163
-725,123	-78,019	-0,113	-0,029
-724,108	620,218	-0,051	-0,095
-723,094	-79,849	-0,111	-0,027
-722,079	-134,623	0,011	-0,001
-721,064	44,223	-0,064	-0,043
-720,050	-4,903	-0,055	-0,028
-719,035	149,206	-0,161	0,161
-718,021	800,000	-0,044	-0,134
-717,006	-135,619	-0,080	-0,007
-715,991	-200,000	-0,016	-0,156
-714,977	104,994	-0,103	-0,089
-713,962	-200,000	0,019	0,065
-712,948	409,029	-0,080	0,124
-711,933	-200,000	0,030	-0,153
-710,918	400,310	0,057	-0,088
-709,904	800,000	-0,022	-0,055
-708,889	800,000	-0,023	-0,068
-707,875	703,435	0,055	-0,108
-706,860	-200,000	-0,008	-0,138
-705,845	114,422	-0,023	-0,020
-704,831	-70,446	-0,146	0,040
-703,816	463,684	0,023	-0,037
-702,802	-123,642	-0,052	-0,006
-701,787	2,855	-0,146	-0,078
-700,772	800,000	-0,056	-0,114
-699,758	800,000	0,055	-0,135
-698,743	482,574	0,054	-0,091
-697,729	800,000	0,045	0,111
-696,714	70,023	-0,078	-0,059
-695,699	12,544	-0,076	0,043
-694,685	800,000	-0,022	0,059
-693,670	370,963	-0,024	-0,036
-692,656	347,500	0,121	0,176
-691,641	-83,075	0,050	0,012
-690,627	654,178	0,011	0,021
-689,612	-121,340	0,178	0,022
-688,597	221,096	-0,136	-0,162
-687,583	-72,678	-0,187	-0,050
-686,568	708,673	-0,048	-0,093
-685,554	-200,000	-0,026	0,121
-684,539	-28,773	-0,098	-0,041
-683,524	800,000	-0,017	0,055
-682,510	-150,586	0,097	0,005
-681,495	116,058	-0,130	0,117
-680,481	-123,833	-0,151	0,017
-679,466	490,096	0,054	-0,092
-678,451	-35,946	-0,076	0,030
-677,437	-27,122	-0,032	0,013
-676,422	-14,607	-0,122	0,057
-675,408	-52,839	0,035	0,012
-674,393	252,105	-0,050	0,063
-673,378	-200,000	-0,004	-0,028
-672,364	156,068	-0,095	-0,097
-671,349	-200,000	0,001	-0,034
-670,335	-107,328	0,060	-0,010
-669,320	243,470	-0,033	0,041
-668,305	800,000	-0,022	0,048
-667,291	-116,990	-0,112	-0,015
-666,276	-191,832	-0,076	0,001
-665,262	-37,214	-0,057	0,022
-664,247	800,000	0,007	-0,018
-663,232	56,443	-0,040	-0,029
-662,218	44,798	0,064	-0,044
-661,203	750,223	-0,022	-0,044
-660,189	257,098	0,077	0,097
-659,174	-99,981	-0,084	0,015
-658,159	800,000	-0,018	-0,056
-657,145	-200,000	-0,044	0,000
-656,130	100,508	-0,102	-0,087
-655,116	-72,592	-0,093	-0,025
-654,101	800,000	0,024	0,078
-653,086	85,540	-0,031	-0,025
-652,072	144,603	-0,052	-0,051
-651,057	-200,000	0,004	-0,118
-650,043	-200,000	-0,010	-0,167
-649,028	4,108	0,083	-0,044
-648,014	-200,000	-0,005	-0,026
-646,999	250,878	-0,052	0,066
-645,984	227,036	-0,098	0,117
-644,970	-13,573	0,013	0,006
-643,955	-83,396	-0,125	-0,029
-642,941	13,939	-0,102	0,058
-641,926	105,338	-0,083	0,072
-640,911	-165,991	0,091	0,003
-639,897	-155,029	0,089	0,004
-638,882	800,000	-0,054	0,124
-637,868	-141,431	-0,110	0,008
-636,853	347,807	0,036	-0,053
-635,838	-200,000	0,000	-0,053
-634,824	-200,000	0,029	-0,208
-633,809	-200,000	0,007	-0,098
-632,795	590,431	-0,045	0,082
-631,780	-200,000	-0,000	0,021
-630,765	175,677	-0,054	-0,058
-629,751	800,000	-0,019	-0,047
-628,736	800,000	-0,070	-0,167
-627,722	-153,049	-0,104	-0,005
-626,707	800,000	0,054	-0,158
-625,692	50,520	0,033	0,023
-624,678	75,748	0,058	-0,045
-623,663	595,675	-0,087	0,159
-622,649	-200,000	-0,009	-0,067
-621,634	-200,000	-0,021	-0,165
-620,619	330,782	-0,049	-0,070
-619,605	-49,466	-0,149	-0,052
-618,590	-200,000	0,016	0,063
-617,576	-181,992	-0,111	0,002
-616,561	56,066	0,054	-0,039
-615,546	-200,000	0,015	-0,230
-614,532	33,415	0,049	0,031
-613,517	162,567	-0,083	-0,085
-612,503	157,453	0,080	0,082
-611,488	-73,698	0,171	0,045
-610,474	143,043	0,020	0,020
-609,459	-90,216	-0,165	0,035
-608,444	-56,158	-0,065	0,021
-607,430	800,000	-0,052	-0,151
-606,415	-55,121	-0,055	-0,018
-605,401	-76,761	0,138	0,035
-604,386	206,576	-0,042	-0,048
-603,371	-200,000	-0,028	0,157
-602,357	-200,000	-0,008	-0,047
-601,342	61,477	0,026	-0,019
-600,328	198,559	-0,039	-0,044
-599,313	90,526	0,039	0,032
-598,298	6,648	-0,005	-0,003
-597,284	-4,445	-0,063	0,032
-596,269	-200,000	-0,022	0,100
-595,255	-60,827	0,118	-0,037
-594,240	36,802	-0,048	0,031
-593,225	-200,000	-0,011	-0,107
-592,211	87,458	-0,024	-0,019
-591,196	-200,000	0,024	-0,138
-590,182	-200,000	0,019	-0,100
-589,167	-200,000	0,015	0,211
-588,152	-66,713	0,106	0,031
-587,138	-84,682	0,087	-0,020
-586,123	800,000	0,024	0,052
-585,109	0,972	0,064	-0,034
-584,094	88,437	-0,106	-0,086
-583,079	800,000	0,071	0,170
-582,065	-200,000	-0,002	0,037
-581,050	-200,000	-0,013	-0,138
-580,036	800,000	-0,062	-0,147
-579,021	143,685	-0,069	0,068
-578,006	178,725	0,148	-0,159
-576,992	133,482	-0,051	0,049
-575,977	-73,340	0,011	-0,003
-574,963	-174,156	0,092	0,002
-573,948	-200,000	-0,014	0,119
-572,934	281,811	-0,088	0,116
-571,919	800,000	0,021	-0,066
-570,904	-200,000	-0,040	-0,202
-569,890	-119,379	-0,162	-0,020
-568,875	-20,545	0,052	-0,023
-567,861	-200,000	-0,009	0,065
-566,846	97,603	0,094	0,079
-565,831	38,111	-0,109	0,071
-564,817	27,686	0,062	-0,038
-563,802	119,957	0,031	-0,028
-562,788	-148,656	0,189	0,011
-561,773	-200,000	-0,025	0,082
-560,758	-80,899	0,067	0,016
-559,744	-200,000	-0,031	0,151
-558,729	800,000	0,057	-0,143
-557,715	-105,100	0,075	0,012
-556,700	800,000	-0,023	-0,057
-555,685	-200,000	-0,018	-0,069
-554,671	43,193	0,091	-0,061
-553,656	169,544	-0,076	0,080
-552,642	-200,000	0,009	-0,141
-551,627	248,689	0,032	-0,040
-550,612	-12,056	-0,135	-0,065
-549,598	-200,000	-0,016	-0,117
-548,583	73,434	-0,065	0,050
-547,569	658,361	0,047	-0,089
-546,554	-200,000	-0,000	-0,005
-545,539	-200,000	0,003	0,021
-544,525	-41,196	-0,101	0,038
-543,510	-200,000	-0,001	-0,090
-542,496	-200,000	0,028	-0,143
-541,481	-200,000	0,003	0,022
-540,466	-200,000	0,023	0,106
-539,452	-200,000	-0,021	-0,075
-538,437	800,000	0,025	0,080
-537,423	101,882	-0,102	0,087
-536,408	141,590	-0,077	0,075
-535,393	2,771	-0,050	-0,027
-534,379	-76,537	-0,094	-0,024
-533,364	-168,227	-0,105	0,003
-532,350	-200,000	-0,022	0,082
-531,335	41,298	-0,143	0,094
-530,321	-63,023	0,039	-0,012
-529,306	722,172	-0,040	-0,079
-528,291	82,073	-0,029	0,023
-527,277	417,668	0,023	0,036
-526,262	84,153	-0,046	-0,037
-525,248	-81,519	-0,045	-0,011
-524,233	-200,000	-0,032	0,166
-523,218	-86,246	0,049	0,011
-522,204	465,324	0,042	-0,069
-521,189	367,066	-0,042	-0,063
-520,175	108,017	-0,161	-0,140
-519,160	-158,608	0,164	-0,007
-518,145	-200,000	-0,015	-0,135
-517,131	-93,609	0,119	-0,024
-516,116	759,834	-0,052	0,103
-515,102	115,424	0,075	-0,067
-514,087	-200,000	0,034	0,137
-513,072	800,000	0,019	-0,053
-512,058	142,633	-0,094	-0,091
-511,043	-50,083	-0,027	0,009
-510,029	-34,504	0,089	0,036
-509,014	800,000	0,010	-0,029
-507,999	-22,630	-0,025	-0,011
-506,985	-61,285	-0,127	0,039
-505,970	-110,289	0,076	-0,011
-504,956	-200,000	0,009	0,061
-503,941	800,000	0,059	0,166
-502,926	-119,567	-0,035	-0,004
-501,912	21,892	0,063	-0,037
-500,897	292,231	-0,066	0,088
-499,883	800,000	0,002	0,004
-498,868	-200,000	-0,007	0,077
-497,853	-200,000	0,037	0,137
-496,839	-47,492	0,061	0,021
-495,824	-110,071	0,119	-0,018
-494,810	-200,000	0,030	0,153
-493,795	-200,000	-0,006	-0,110
-492,781	7,757	-0,102	0,056
-491,766	-200,000	0,003	-0,036
-490,751	403,379	-0,075	-0,116
-489,737	800,000	0,063	-0,148
-488,722	141,319	0,084	-0,081
-487,708	184,255	-0,087	-0,094
-486,693	-200,000	0,027	-0,167
-485,678	-200,000	0,012	0,053
-484,664	-43,529	-0,153	-0,056
-483,649	800,000	-0,045	0,119
-482,635	747,433	-0,020	-0,040
-481,620	293,490	-0,047	0,063
-480,605	-52,679	0,094	0,032
-479,591	-39,451	0,080	-0,030
-478,576	-48,798	-0,058	-0,020
-477,562	800,000	-0,022	-0,062
-476,547	-60,363	0,012	0,004
-475,532	-55,915	-0,064	0,021
-474,518	1,664	-0,068	0,036
-473,503	-200,000	0,032	0,112
-472,489	-56,678	-0,130	0,042
-471,474	-200,000	0,021	-0,084
-470,459	-140,134	-0,049	-0,004
-469,445	681,714	0,038	0,073
-468,430	800,000	0,049	-0,145
-467,416	133,686	0,076	0,072
-466,401	129,054	0,088	0,082
-465,386	62,165	0,107	0,078
-464,372	782,240	0,042	0,084
-463,357	156,722	-0,078	0,078
-462,343	615,752	0,038	-0,070
-461,328	176,270	-0,102	-0,108
-460,313	11,689	-0,089	0,050
-459,299	-200,000	-0,006	0,042
-458,284	-200,000	0,014	0,158
-457,270	800,000	0,013	0,038
-456,255	33,666	-0,076	0,048
-455,241	-70,259	0,131	0,036
-454,226	-120,375	0,081	-0,010
-453,211	-120,790	0,114	0,014
-452,197	-88,491	-0,049	0,010
-451,182	800,000	0,054	0,166
-450,168	-200,000	-0,008	0,136
-449,153	-200,000	-0,002	-0,031
-448,138	86,815	-0,012	0,010
-447,124	38,655	0,036	-0,023
-446,109	-67,706	-0,074	-0,021
-445,095	600,249	0,058	0,105
-444,080	258,000	-0,126	0,159
-443,065	56,351	-0,066	0,047
-442,051	-200,000	0,007	-0,158
-441,036	151,062	-0,019	-0,019
-440,022	734,792	-0,072	-0,141
-439,007	800,000	-0,033	-0,082
-437,992	-89,590	-0,066	-0,014
-436,978	800,000	-0,049	0,115
-435,963	-60,019	0,294	0,091
-434,949	327,086	0,085	-0,119
-433,934	-200,000	-0,036	-0,213
-432,919	19,727	-0,117	-0,068
-431,905	-200,000	0,019	-0,122
-430,890	-200,000	-0,016	0,130
-429,876	123,167	-0,044	0,040
-428,861	-200,000	-0,030	0,106
-427,846	-58,886	0,047	-0,015
-426,832	-174,085	-0,098	0,002
-425,817	-8,675	-0,101	0,049
-424,803	-88,472	0,187	0,040
-423,788	-164,468	0,113	0,004
-422,773	-126,588	0,095	-0,010
-421,759	89,346	0,048	0,039
-420,744	164,280	-0,003	-0,003
-419,730	800,000	0,004	0,009
-418,715	-200,000	-0,004	-0,079
-417,701	800,000	0,035	-0,102
-416,686	-61,320	-0,047	-0,014
-415,671	-200,000	0,002	-0,068
-414,657	800,000	0,012	-0,029
-413,642	378,164	0,042	-0,063
-412,628	-114,286	-0,121	0,017
-411,613	23,721	-0,085	-0,051
-410,598	800,000	-0,036	0,099
-409,584	68,346	0,153	-0,114
-408,569	-20,058	-0,010	0,004
-407,555	800,000	0,023	-0,056
-406,540	-92,100	0,137	0,028
-405,525	-143,228	0,074	-0,005
-404,511	-200,000	0,014	-0,092
-403,496	-200,000	-0,004	-0,051
-402,482	-200,000	-0,027	-0,145
-401,467	390,689	0,058	0,088
-400,452	348,718	-0,057	0,082
-399,438	770,780	-0,048	0,095
-398,423	-194,658	0,095	0,001
-397,409	-152,635	0,004	0,000
-396,394	475,179	-0,052	-0,086
-395,379	120,185	-0,097	0,087
-394,365	361,588	0,085	0,124
-393,350	-14,806	0,122	-0,057
-392,336	-200,000	0,011	0,116
-391,321	-200,000	-0,005	0,036
-390,306	800,000	0,035	0,077
-389,292	-200,000	-0,016	-0,162
-388,277	18,961	0,125	0,073
-387,263	800,000	0,039	-0,115
-386,248	316,133	0,080	-0,111
-385,233	18,508	0,068	0,039
-384,219	-188,066	0,037	-0,000
-383,204	91,425	-0,091	0,075
-382,190	225,785	-0,086	-0,102
-381,175	14,478	0,118	-0,067
-380,160	41,611	0,080	-0,053
-379,146	800,000	-0,042	0,096
-378,131	183,176	-0,028	0,030
-377,117	-200,000	0,010	-0,033
-376,102	24,606	-0,072	0,043
-375,088	-126,389	-0,005	-0,001
-374,073	13,385	0,108	-0,061
-373,058	800,000	0,036	-0,084
-372,044	-97,798	0,071	-0,013
-371,029	800,000	-0,023	0,059
-370,015	190,478	0,022	-0,025
-369,000	-200,000	0,006	-0,062
-367,985	-92,147	-0,113	0,023
-366,971	94,613	-0,056	-0,046
-365,956	-200,000	0,038	-0,200
-364,942	800,000	0,049	-0,139
-363,927	-67,918	-0,144	-0,041
-362,912	-200,000	0,000	-0,137
-361,898	-200,000	0,013	-0,204
-360,883	7,735	0,069	-0,037
-359,869	21,555	-0,064	-0,038
-358,854	-200,000	-0,002	-0,017
-357,839	30,579	0,084	0,052
-356,825	629,125	0,055	-0,102
-355,810	62,789	-0,149	0,108
-354,796	67,110	0,073	0,054
-353,781	116,589	-0,050	0,045
-352,766	78,309	-0,030	0,023
-351,752	566,833	0,068	-0,121
-350,737	-133,589	0,052	0,005
-349,723	133,325	0,083	0,078
-348,708	-83,045	-0,046	-0,011
-347,693	300,286	0,075	-0,101
-346,679	26,415	-0,071	-0,043
-345,664	145,321	0,042	-0,041
-344,650	-200,000	0,010	-0,037
-343,635	122,478	0,093	0,084
-342,620	800,000	0,028	0,068
-341,606	127,244	0,081	0,075
-340,591	30,992	-0,103	-0,064
-339,577	-109,698	-0,058	0,009
-338,562	-200,000	0,017	-0,060
-337,548	3,668	0,088	0,047
-336,533	-200,000	0,003	0,090
-335,518	167,591	0,073	0,075
-334,504	-143,196	0,122	0,008
-333,489	278,101	-0,028	0,037
-332,475	606,213	-0,042	-0,075
-331,460	446,264	-0,070	-0,113
-330,445	111,374	0,057	0,050
-329,431	249,903	-0,018	0,022
-328,416	-158,585	-0,053	-0,002
-327,402	583,511	-0,031	-0,055
-326,387	-92,675	-0,174	0,035
-325,372	-60,725	-0,079	0,024
-324,358	-200,000	0,011	-0,053
-323,343	734,082	-0,054	-0,106
-322,329	-182,059	0,089	-0,001
-321,314	79,824	0,036	0,028
-320,299	82,962	0,017	0,013
-319,285	548,603	-0,070	0,122
-318,270	289,966	0,041	-0,055
-317,256	-159,309	-0,059	0,002
-316,241	-122,944	0,093	-0,011
-315,226	40,725	0,111	-0,073
-314,212	-78,275	0,014	-0,004
-313,197	-85,751	-0,059	-0,013
-312,183	-200,000	0,069	0,329
-311,168	109,092	-0,094	0,082
-310,153	800,000	-0,039	-0,104
-309,139	263,408	0,026	0,032
-308,124	194,524	-0,049	-0,054
-307,110	-138,759	0,086	-0,007
-306,095	-200,000	0,005	0,065
-305,080	143,965	-0,025	0,024
-304,066	-39,163	-0,098	0,037
-303,051	-200,000	-0,019	0,091
-302,037	-184,880	-0,067	-0,001
-301,022	800,000	-0,037	0,082
-300,008	-200,000	0,040	0,202
-298,993	200,079	-0,050	-0,056
-297,978	45,628	-0,047	0,031
-296,964	35,543	-0,042	-0,027
-295,949	106,651	0,054	-0,047
-294,935	-200,000	0,015	-0,134
-293,920	172,408	-0,050	-0,052
-292,905	-200,000	-0,002	0,174
-291,891	-200,000	0,015	0,074
-290,876	800,000	0,051	0,115
-289,862	-106,942	-0,052	0,008
-288,847	348,799	0,052	-0,075
-287,832	800,000	-0,021	0,043
-286,818	-17,247	-0,037	0,017
-285,803	-0,875	0,151	0,077
-284,789	-200,000	-0,013	0,089
-283,774	69,521	-0,024	-0,018
-282,759	-200,000	-0,006	-0,073
-281,745	300,370	-0,073	-0,097
-280,730	-200,000	0,015	-0,109
-279,716	-112,529	0,069	0,010
-278,701	-45,545	0,009	0,003
-277,686	62,337	0,099	0,072
-276,672	217,364	-0,101	-0,117
-275,657	121,121	-0,059	-0,053
-274,643	-200,000	-0,013	-0,098
-273,628	382,543	-0,035	-0,052
-272,613	-136,572	0,026	0,002
-271,599	567,481	0,068	0,121
-270,584	-200,000	0,013	0,105
-269,570	-88,557	-0,170	0,036
-268,555	-109,627	-0,091	-0,014
-267,540	-7,402	0,065	-0,032
-266,526	398,487	-0,088	-0,134
-265,511	20,619	0,093	0,054
-264,497	-200,000	-0,014	-0,083
-263,482	-100,339	0,101	-0,018
-262,467	-172,448	0,081	0,002
-261,453	-2,181	0,038	0,019
-260,438	800,000	0,022	-0,070
-259,424	569,092	-0,075	-0,133
-258,409	-200,000	-0,011	-0,095
-257,395	128,344	-0,056	0,052
-256,380	91,884	-0,007	0,006
-255,365	396,838	-0,063	0,095
-254,351	-137,825	0,081	0,006
-253,336	-200,000	-0,009	-0,048
-252,322	77,415	-0,061	-0,047
-251,307	162,322	-0,030	0,031
-250,292	508,476	0,045	0,075
-249,278	-200,000	0,011	-0,054
-248,263	-200,000	-0,019	0,098
-247,249	144,538	0,061	0,059
-246,234	-2,738	-0,151	0,076
-245,219	64,496	0,029	-0,021
-244,205	-200,000	0,007	-0,043
-243,190	73,748	0,066	0,050
-242,176	-56,359	0,076	-0,024
-241,161	800,000	0,090	0,284
-240,146	518,615	0,035	-0,060
-239,132	-200,000	0,011	-0,159
-238,117	112,534	-0,020	-0,018
-237,103	169,120	-0,027	-0,028
-236,088	262,658	0,071	-0,089
-235,073	-200,000	0,023	0,134
-234,059	-131,233	0,014	0,001
-233,044	521,671	-0,025	0,042
-232,030	-17,168	-0,046	-0,021
-231,015	-126,967	-0,054	-0,006
-230,000	-148,494	0,130	0,008
-228,986	497,533	0,051	-0,086
-227,971	-200,000	-0,005	-0,077
-226,957	-200,000	0,001	-0,051
-225,942	14,308	0,072	-0,041
-224,927	-140,103	-0,144	0,011
-223,913	800,000	0,012	-0,033
-222,898	-137,796	-0,032	0,003
-221,884	-200,000	-0,010	0,039
-220,869	40,337	0,144	0,093
-219,855	-200,000	0,005	0,016
-218,840	800,000	0,060	0,153
-217,825	-200,000	0,002	0,076
-216,811	-200,000	-0,021	-0,217
-215,796	-200,000	-0,009	-0,133
-214,782	100,025	-0,109	0,092
-213,767	-200,000	-0,004	-0,112
-212,752	-200,000	0,014	0,056
-211,738	800,000	0,051	0,132
-210,723	-200,000	-0,013	0,082
-209,709	236,448	-0,057	-0,068
-208,694	0,182	-0,151	0,078
-207,679	-93,866	-0,118	-0,023
-206,665	440,772	-0,042	-0,066
-205,650	-200,000	0,017	-0,065
-204,636	38,935	0,061	-0,039
-203,621	-20,666	0,023	0,010
-202,606	587,683	-0,045	0,080
-201,592	694,538	-0,020	-0,038
-200,577	322,992	-0,039	0,054
-199,563	237,503	0,025	0,030
-198,548	698,000	0,061	0,115
-197,533	800,000	0,036	0,115
-196,519	-200,000	-0,014	0,127
-195,504	167,126	-0,064	0,065
-194,490	63,695	0,100	0,072
-193,475	-44,254	0,114	-0,041
-192,460	139,734	-0,093	0,089
-191,446	155,236	-0,044	-0,044
-190,431	800,000	0,047	0,129
-189,417	-200,000	-0,021	0,101
-188,402	-200,000	-0,024	-0,100
-187,387	1,695	0,060	-0,031
-186,373	-117,235	-0,050	0,006
-185,358	800,000	-0,025	0,073
-184,344	-200,000	-0,002	0,031
-183,329	14,343	0,046	-0,026
-182,315	800,000	0,051	0,104
-181,300	158,264	-0,077	0,077
-180,285	-96,655	0,045	0,009
-179,271	800,000	-0,029	-0,063
-178,256	-55,652	-0,022	0,007
-177,242	393,849	0,028	0,043
-176,227	-119,393	0,097	0,012
-175,212	-200,000	-0,038	0,236
-174,198	-138,380	0,069	0,005
-173,183	151,559	0,018	0,017
-172,169	688,249	0,052	0,098
-171,154	800,000	0,033	0,097
-170,139	230,654	0,048	0,057
-169,125	564,601	-0,113	0,199
-168,110	800,000	-0,049	-0,154
-167,096	162,108	-0,014	0,014
-166,081	-112,681	0,043	-0,006
-165,066	454,802	0,033	0,053
-164,052	341,221	-0,072	-0,102
-163,037	167,051	-0,038	-0,039
-162,023	99,732	0,065	0,054
-161,008	-70,667	-0,072	0,020
-159,993	-162,535	0,084	0,003
-158,979	-200,000	-0,018	-0,077
-157,964	-200,000	-0,020	-0,132
-156,950	38,037	-0,069	-0,044
-155,935	-200,000	-0,000	0,089
-154,920	-126,058	0,108	-0,012
-153,906	-27,079	0,088	0,037
-152,891	-116,341	0,030	-0,004
-151,877	-69,255	-0,065	0,018
-150,862	-200,000	-0,016	-0,160
-149,847	-200,000	-0,006	-0,069
-148,833	456,547	-0,085	-0,137
-147,818	800,000	0,034	-0,080
-146,804	-152,612	-0,066	-0,003
-145,789	153,760	-0,072	0,071
-144,775	-110,359	-0,085	0,013
-143,760	-112,777	0,030	-0,004
-142,745	757,630	-0,068	-0,134
-141,731	487,619	-0,019	-0,031
-140,716	109,937	-0,080	0,069
-139,702	-200,000	0,029	0,165
-138,687	20,675	0,021	0,012
-137,672	800,000	0,018	0,046
-136,658	5,675	-0,022	0,011
-135,643	92,106	-0,131	-0,106
-134,629	-143,481	-0,083	0,006
-133,614	-200,000	-0,004	0,081
-132,599	-200,000	0,004	0,054
-131,585	800,000	0,050	0,121
-130,570	-3,572	-0,047	0,024
-129,556	-200,000	0,007	-0,048
-128,541	47,151	-0,098	-0,066
-127,526	-39,374	0,082	0,031
-126,512	-87,008	-0,076	0,017
-125,497	-65,898	0,099	-0,028
-124,483	43,721	-0,120	-0,079
-123,468	469,973	0,082	-0,133
-122,453	262,634	-0,077	-0,097
-121,439	70,748	-0,061	-0,045
-120,424	-200,000	0,015	0,081
