DTS Sentinel unit serial number:	SN410029Multiplexer serial number:	ORYXHardware model number:	OX2-SRSoftware version number:	ORYX F/W v4,00 Oryx Data Collector v3.7.2.0data status	okinstallation	B6 Nyhavnadifferential loss correction	single-endedforward channel	channel 2reverse channel	N/Adate	2023/12/10time	00:10:08forward acquisition time	300,00reverse acquisition time	0,00gamma	499,1914k internal	0,3126k external	0,3126temperature offset calibration	1,0000default loss term (dB/km)	0,3820temperature slope calibration	1,0000multiplexer offset coefficient	1,0000multiplexer slope coefficient	1,0000fibre end	0,00T internal ref (°C)	21,79T ext. ref 1 (°C)	5,68T ext. ref 2 (°C)	5,67length (m)	temperature (°C)	Stokes	anti-Stokes-744,400	-200,000	-0,003	-0,017
-743,385	2,130	-0,226	0,121
-742,371	147,639	0,104	-0,105
-741,356	-5,562	-0,174	0,088
-740,342	-200,000	0,005	-0,104
-739,327	16,917	-0,145	0,085
-738,312	-200,000	-0,003	-0,126
-737,298	-77,805	-0,229	0,058
-736,283	315,528	0,097	-0,137
-735,269	6,502	-0,162	0,090
-734,254	-89,563	0,166	0,036
-733,239	-35,696	-0,349	-0,140
-732,225	247,804	0,024	-0,031
-731,210	-66,205	-0,088	-0,026
-730,196	-19,377	0,027	0,012
-729,181	225,443	-0,039	-0,048
-728,167	-119,241	0,110	0,014
-727,152	34,131	-0,051	0,033
-726,137	-200,000	-0,017	-0,105
-725,123	-200,000	0,051	-0,203
-724,108	134,407	-0,097	-0,094
-723,094	-200,000	0,012	-0,069
-722,079	-68,854	-0,032	0,009
-721,064	-149,345	-0,045	0,003
-720,050	-30,912	-0,183	-0,076
-719,035	363,526	0,020	-0,030
-718,021	41,613	0,008	0,005
-717,006	580,465	-0,036	-0,067
-715,991	-200,000	0,017	-0,077
-714,977	-200,000	0,013	0,124
-713,962	-200,000	0,001	0,130
-712,948	-168,904	-0,049	0,001
-711,933	-200,000	0,022	-0,117
-710,918	-200,000	-0,043	0,143
-709,904	6,682	-0,096	0,053
-708,889	468,278	0,021	0,035
-707,875	-176,717	-0,164	-0,003
-706,860	222,155	0,115	0,138
-705,845	-71,922	0,116	0,032
-704,831	101,370	-0,037	0,032
-703,816	-71,067	0,144	0,040
-702,802	25,065	-0,084	-0,052
-701,787	450,196	-0,058	-0,095
-700,772	-14,064	0,027	-0,013
-699,758	167,968	-0,070	-0,074
-698,743	800,000	-0,065	0,158
-697,729	199,501	-0,043	0,049
-696,714	-42,804	-0,094	0,035
-695,699	-200,000	-0,015	0,061
-694,685	800,000	-0,024	-0,065
-693,670	218,283	-0,044	-0,052
-692,656	-151,046	-0,040	0,002
-691,641	-200,000	-0,015	-0,092
-690,627	-70,879	0,106	0,030
-689,612	-200,000	0,006	0,085
-688,597	-90,699	0,068	-0,014
-687,583	-200,000	0,002	-0,120
-686,568	800,000	-0,033	-0,094
-685,554	-200,000	-0,015	-0,056
-684,539	-58,478	-0,107	0,034
-683,524	137,749	-0,064	0,062
-682,510	435,269	-0,110	0,179
-681,495	556,080	-0,086	0,154
-680,481	-200,000	-0,002	-0,026
-679,466	464,329	-0,094	-0,157
-678,451	-200,000	0,007	-0,095
-677,437	238,316	-0,056	0,069
-676,422	-136,787	0,046	-0,004
-675,408	-60,328	-0,098	0,031
-674,393	-200,000	-0,001	-0,035
-673,378	86,776	-0,068	-0,055
-672,364	-179,947	-0,102	-0,002
-671,349	32,333	-0,115	0,073
-670,335	800,000	-0,024	0,072
-669,320	-27,899	0,033	-0,014
-668,305	-73,835	-0,061	-0,016
-667,291	193,549	0,036	-0,041
-666,276	-94,567	-0,089	0,018
-665,262	257,998	-0,012	-0,015
-664,247	-200,000	-0,021	-0,076
-663,232	-200,000	-0,018	0,061
-662,218	29,625	0,060	-0,038
-661,203	-200,000	0,011	0,080
-660,189	-200,000	0,006	0,041
-659,174	-112,802	-0,094	-0,014
-658,159	156,754	-0,019	0,019
-657,145	64,810	-0,037	-0,027
-656,130	-200,000	0,018	-0,081
-655,116	452,484	0,041	-0,068
-654,101	-51,793	0,076	-0,026
-653,086	204,557	-0,088	-0,101
-652,072	162,416	0,056	0,058
-651,057	-32,268	-0,054	-0,022
-650,043	72,348	-0,051	0,039
-649,028	-156,068	0,046	0,002
-648,014	-164,550	0,047	0,002
-646,999	53,853	-0,119	-0,085
-645,984	164,800	-0,038	-0,040
-644,970	342,122	-0,117	-0,170
-643,955	9,730	-0,068	-0,038
-642,941	-200,000	-0,007	-0,043
-641,926	649,693	0,031	0,059
-640,911	454,819	-0,025	-0,041
-639,897	492,174	0,027	0,047
-638,882	20,001	0,091	0,054
-637,868	-200,000	-0,003	-0,146
-636,853	-35,153	-0,063	0,025
-635,838	17,687	0,075	0,044
-634,824	-200,000	-0,002	0,096
-633,809	-125,554	-0,044	-0,005
-632,795	-200,000	-0,004	0,019
-631,780	-200,000	-0,015	-0,098
-630,765	108,974	-0,093	-0,083
-629,751	62,495	-0,056	-0,042
-628,736	-59,435	-0,095	0,030
-627,722	-200,000	-0,014	0,057
-626,707	-124,837	0,139	0,016
-625,692	171,961	0,048	-0,051
-624,678	63,378	0,016	-0,012
-623,663	-72,424	0,083	0,023
-622,649	-200,000	0,004	-0,024
-621,634	-89,616	-0,098	-0,021
-620,619	-89,591	-0,101	0,022
-619,605	800,000	0,025	-0,073
-618,590	-200,000	0,000	-0,058
-617,576	800,000	0,073	0,160
-616,561	-200,000	-0,042	0,000
-615,546	-200,000	0,011	-0,055
-614,532	196,718	0,063	-0,072
-613,517	800,000	-0,071	-0,182
-612,503	-54,854	0,044	0,015
-611,488	165,035	0,035	0,037
-610,474	130,895	-0,054	0,052
-609,459	34,637	0,122	0,079
-608,444	-200,000	-0,014	-0,130
-607,430	404,002	-0,042	0,065
-606,415	444,588	0,051	-0,083
-605,401	-200,000	-0,011	-0,038
-604,386	202,739	0,060	0,069
-603,371	-200,000	-0,006	0,106
-602,357	800,000	0,056	0,129
-601,342	-200,000	-0,013	0,047
-600,328	-3,608	0,033	-0,017
-599,313	-17,062	0,078	-0,036
-598,298	-200,000	-0,020	-0,093
-597,284	-200,000	0,016	0,072
-596,269	437,620	-0,022	0,035
-595,255	-200,000	0,031	0,116
-594,240	229,596	-0,070	0,084
-593,225	159,819	-0,022	0,023
-592,211	-176,962	-0,067	-0,001
-591,196	800,000	-0,023	-0,049
-590,182	-185,127	0,084	0,001
-589,167	800,000	0,042	0,108
-588,152	-48,201	0,089	-0,032
-587,138	-111,082	-0,068	-0,010
-586,123	800,000	0,049	-0,125
-585,109	-200,000	0,002	-0,091
-584,094	800,000	0,043	-0,115
-583,079	-57,217	-0,119	0,038
-582,065	22,589	0,112	0,068
-581,050	800,000	0,047	-0,120
-580,036	-200,000	-0,019	-0,085
-579,021	350,427	0,047	0,069
-578,006	-126,133	-0,066	0,007
-576,992	-200,000	-0,004	-0,138
-575,977	121,084	0,058	0,054
-574,963	138,707	-0,067	0,066
-573,948	155,586	0,129	0,131
-572,934	-88,925	-0,050	0,011
-571,919	-165,376	-0,169	0,005
-570,904	800,000	-0,033	-0,070
-569,890	45,453	-0,045	-0,031
-568,875	77,228	-0,158	0,124
-567,861	165,836	-0,062	0,065
-566,846	800,000	0,023	0,052
-565,831	33,137	-0,137	0,087
-564,817	17,524	-0,075	-0,044
-563,802	539,103	0,111	-0,197
-562,788	82,268	-0,095	-0,076
-561,773	-51,600	0,020	-0,007
-560,758	-200,000	0,008	-0,026
-559,744	-200,000	0,037	0,134
-558,729	-200,000	-0,002	-0,055
-557,715	-128,191	0,071	-0,007
-556,700	-150,742	-0,073	-0,004
-555,685	800,000	0,052	-0,127
-554,671	104,397	-0,043	0,037
-553,656	83,761	-0,047	0,038
-552,642	800,000	0,030	-0,079
-551,627	149,924	0,010	0,010
-550,612	-66,856	-0,206	-0,060
-549,598	-143,761	-0,097	0,007
-548,583	261,001	-0,057	0,072
-547,569	-11,097	0,049	-0,024
-546,554	-32,141	0,031	0,013
-545,539	105,088	-0,056	0,049
-544,525	36,299	0,046	-0,030
-543,510	-200,000	-0,012	-0,093
-542,496	-200,000	0,009	-0,153
-541,481	294,986	0,036	-0,049
-540,466	2,262	0,031	0,017
-539,452	-147,217	0,268	0,017
-538,437	-200,000	0,044	0,172
-537,423	-200,000	0,015	0,062
-536,408	800,000	0,021	0,055
-535,393	-155,133	-0,010	-0,000
-534,379	-200,000	-0,010	-0,148
-533,364	-49,900	-0,043	-0,015
-532,350	-200,000	-0,006	-0,037
-531,335	800,000	-0,032	0,092
-530,321	-124,767	-0,125	-0,014
-529,306	-108,431	-0,066	0,010
-528,291	384,837	0,021	0,032
-527,277	-200,000	-0,019	-0,225
-526,262	154,715	0,102	0,103
-525,248	78,711	0,095	0,075
-524,233	-73,054	0,057	-0,015
-523,218	-200,000	0,010	0,178
-522,204	353,748	-0,078	-0,115
-521,189	15,757	-0,044	-0,025
-520,175	800,000	-0,024	0,062
-519,160	28,005	-0,059	-0,037
-518,145	61,456	0,043	-0,032
-517,131	238,366	0,036	-0,045
-516,116	-200,000	0,027	0,091
-515,102	-33,481	-0,099	-0,040
-514,087	2,862	0,073	-0,039
-513,072	-69,964	0,036	-0,010
-512,058	-200,000	-0,000	-0,117
-511,043	800,000	0,034	0,088
-510,029	202,729	0,058	0,066
-509,014	800,000	-0,008	-0,023
-507,999	25,117	0,064	0,039
-506,985	232,615	0,072	-0,088
-505,970	140,120	0,120	-0,117
-504,956	-200,000	-0,034	0,136
-503,941	320,240	-0,047	-0,066
-502,926	43,520	0,077	0,052
-501,912	-200,000	0,005	0,079
-500,897	-92,732	0,049	-0,010
-499,883	308,537	-0,089	0,124
-498,868	800,000	-0,014	-0,030
-497,853	167,482	-0,087	0,091
-496,839	210,951	0,006	0,007
-495,824	443,105	0,084	0,136
-494,810	-122,883	0,028	-0,003
-493,795	280,118	0,032	0,042
-492,781	184,005	-0,028	-0,030
-491,766	-200,000	-0,019	-0,112
-490,751	221,290	-0,072	-0,085
-489,737	-58,797	0,127	-0,040
-488,722	-200,000	-0,003	0,058
-487,708	-15,099	-0,007	0,003
-486,693	109,449	-0,040	-0,035
-485,678	154,449	0,071	-0,072
-484,664	-8,118	-0,096	-0,047
-483,649	800,000	0,057	-0,169
-482,635	100,678	-0,076	0,065
-481,620	208,358	0,030	0,035
-480,605	-200,000	-0,054	0,269
-479,591	392,475	-0,062	-0,095
-478,576	276,056	-0,041	-0,054
-477,562	-40,118	0,086	-0,033
-476,547	182,680	-0,033	-0,036
-475,532	-94,124	0,111	-0,022
-474,518	-200,000	0,024	-0,138
-473,503	-35,899	-0,046	-0,018
-472,489	-200,000	-0,019	0,120
-471,474	421,371	0,086	0,136
-470,459	-118,994	0,111	0,014
-469,445	391,261	0,028	-0,043
-468,430	115,291	-0,145	-0,130
-467,416	800,000	-0,043	-0,117
-466,401	69,338	0,081	0,061
-465,386	-122,047	0,067	-0,008
-464,372	-136,266	-0,132	0,011
-463,357	-200,000	0,001	-0,039
-462,343	800,000	-0,005	0,010
-461,328	-56,395	-0,042	0,014
-460,313	48,182	0,099	0,068
-459,299	-115,216	0,112	0,015
-458,284	-104,823	0,124	0,021
-457,270	-200,000	-0,009	0,054
-456,255	800,000	0,024	-0,063
-455,241	-40,001	-0,070	0,027
-454,226	221,576	-0,070	-0,083
-453,211	-200,000	-0,004	-0,047
-452,197	-98,243	0,072	0,014
-451,182	230,746	0,127	0,154
-450,168	-91,351	-0,048	0,010
-449,153	103,055	-0,083	-0,072
-448,138	-68,730	-0,099	-0,028
-447,124	-200,000	0,016	0,067
-446,109	-113,031	-0,113	-0,016
-445,095	267,274	0,077	0,099
-444,080	64,323	-0,116	0,086
-443,065	118,494	0,021	0,019
-442,051	183,205	0,043	0,047
-441,036	-142,130	-0,070	0,005
-440,022	7,508	-0,124	-0,068
-439,007	242,304	0,008	0,010
-437,992	-161,632	0,185	-0,007
-436,978	36,956	0,053	-0,035
-435,963	-105,013	-0,104	-0,017
-434,949	-200,000	-0,011	0,056
-433,934	602,574	0,011	0,020
-432,919	-49,096	-0,104	-0,036
-431,905	288,261	-0,015	-0,021
-430,890	115,049	0,070	0,063
-429,876	800,000	0,057	-0,117
-428,861	800,000	0,046	0,116
-427,846	117,338	-0,095	-0,086
-426,832	800,000	-0,022	0,061
-425,817	-49,827	0,193	-0,067
-424,803	322,910	0,033	-0,047
-423,788	355,593	-0,030	0,044
-422,773	106,539	-0,102	0,089
-421,759	0,793	0,074	0,039
-420,744	108,415	0,037	-0,033
-419,730	800,000	-0,037	-0,095
-418,715	-120,543	-0,156	-0,019
-417,701	69,639	0,119	-0,090
-416,686	-102,657	-0,047	0,008
-415,671	758,509	-0,029	-0,058
-414,657	800,000	0,052	0,126
-413,642	-66,143	0,042	-0,012
-412,628	800,000	0,032	-0,066
-411,613	104,019	-0,076	-0,066
-410,598	-200,000	-0,002	0,074
-409,584	-200,000	0,037	-0,157
-408,569	-63,931	0,062	-0,019
-407,555	69,413	-0,073	0,055
-406,540	-200,000	-0,023	0,159
-405,525	60,365	-0,184	-0,134
-404,511	-195,434	0,053	-0,000
-403,496	800,000	-0,031	0,065
-402,482	322,154	-0,039	0,054
-401,467	-59,942	0,040	-0,013
-400,452	170,044	0,049	0,051
-399,438	213,648	-0,072	-0,084
-398,423	710,428	-0,026	0,051
-397,409	564,575	-0,046	-0,082
-396,394	81,845	-0,079	-0,063
-395,379	166,080	-0,092	-0,095
-394,365	-33,128	-0,054	0,022
-393,350	242,903	0,098	0,120
-392,336	-200,000	-0,016	0,076
-391,321	-139,072	-0,080	-0,006
-390,306	377,117	0,042	-0,064
-389,292	464,472	-0,029	-0,047
-388,277	128,395	0,076	-0,071
-387,263	72,264	-0,120	0,092
-386,248	-69,429	-0,097	0,027
-385,233	-76,502	-0,015	0,004
-384,219	-200,000	-0,025	-0,119
-383,204	-72,887	-0,022	0,006
-382,190	-54,645	-0,089	-0,030
-381,175	87,205	-0,068	-0,055
-380,160	303,056	-0,109	-0,149
-379,146	-185,859	0,200	0,002
-378,131	90,952	-0,099	0,081
-377,117	800,000	-0,044	-0,098
-376,102	-73,730	-0,100	-0,027
-375,088	800,000	0,024	-0,063
-374,073	43,679	0,176	-0,118
-373,058	261,669	0,133	-0,169
-372,044	-117,285	-0,075	0,010
-371,029	-87,342	0,101	-0,022
-370,015	426,764	-0,024	-0,038
-369,000	89,345	0,103	0,085
-367,985	73,269	0,034	0,026
-366,971	-68,880	-0,066	0,019
-365,956	-3,389	-0,013	-0,007
-364,942	113,703	0,056	0,050
-363,927	-200,000	-0,010	0,112
-362,912	800,000	0,034	0,071
-361,898	495,927	0,034	0,058
-360,883	54,613	-0,160	-0,113
-359,869	-69,081	0,019	0,005
-358,854	214,452	-0,069	0,080
-357,839	-200,000	0,026	0,204
-356,825	40,789	-0,122	-0,080
-355,810	-27,662	0,099	0,042
-354,796	321,347	0,037	0,051
-353,781	-155,372	0,142	-0,007
-352,766	90,936	0,038	-0,031
-351,752	36,820	0,050	-0,032
-350,737	800,000	0,004	0,012
-349,723	-200,000	0,024	0,080
-348,708	-200,000	0,185	-0,000
-347,693	399,074	-0,099	0,152
-346,679	-77,685	-0,082	-0,021
-345,664	-200,000	0,014	0,082
-344,650	-80,397	-0,089	0,022
-343,635	-149,042	-0,090	0,005
-342,620	-112,253	-0,061	-0,009
-341,606	111,636	-0,050	0,044
-340,591	227,032	-0,027	-0,033
-339,577	761,037	-0,015	0,030
-338,562	-17,760	0,066	-0,030
-337,548	-200,000	0,001	0,052
-336,533	-200,000	0,002	0,055
-335,518	295,345	-0,035	-0,047
-334,504	-116,219	0,117	-0,016
-333,489	414,356	-0,033	0,052
-332,475	155,269	0,099	0,100
-331,460	-200,000	0,016	0,085
-330,445	-84,163	-0,196	-0,045
-329,431	-200,000	-0,003	0,069
-328,416	-200,000	-0,041	0,155
-327,402	-54,094	0,023	-0,008
-326,387	15,566	0,073	0,042
-325,372	-200,000	0,023	-0,076
-324,358	-85,533	-0,120	0,027
-323,343	317,535	-0,047	-0,065
-322,329	-6,993	-0,113	-0,056
-321,314	-59,458	0,229	0,072
-320,299	-143,604	0,119	0,008
-319,285	158,210	0,082	-0,083
-318,270	800,000	-0,055	-0,120
-317,256	-200,000	-0,004	-0,104
-316,241	697,456	-0,037	-0,071
-315,226	800,000	0,020	-0,059
-314,212	-73,370	0,040	-0,011
-313,197	48,579	-0,035	-0,024
-312,183	-28,473	0,056	0,024
-311,168	101,764	0,065	-0,056
-310,153	-200,000	0,014	-0,081
-309,139	-200,000	-0,022	-0,098
-308,124	407,959	0,071	0,110
-307,110	185,937	-0,131	0,142
-306,095	131,364	0,083	-0,078
-305,080	18,192	-0,005	0,003
-304,066	-40,747	0,094	0,035
-303,051	-133,982	-0,138	-0,012
-302,037	-200,000	0,025	0,123
-301,022	-200,000	-0,010	0,087
-300,008	-81,585	0,075	0,018
-298,993	-32,593	0,263	-0,107
-297,978	-200,000	-0,011	0,156
-296,964	377,344	0,050	-0,076
-295,949	-132,687	-0,120	0,011
-294,935	192,589	0,033	-0,037
-293,920	800,000	-0,030	-0,086
-292,905	47,060	0,243	0,165
-291,891	-200,000	-0,040	0,211
-290,876	793,822	-0,087	0,175
-289,862	-163,762	0,084	-0,003
-288,847	71,547	-0,071	-0,054
-287,832	-147,149	0,185	-0,011
-286,818	800,000	0,093	-0,224
-285,803	31,938	0,076	0,048
-284,789	-77,514	0,020	-0,005
-283,774	-200,000	0,006	0,203
-282,759	0,063	-0,051	-0,026
-281,745	-87,026	0,133	0,029
-280,730	260,890	-0,023	0,029
-279,716	-93,143	-0,067	0,014
-278,701	43,470	0,094	-0,062
-277,686	800,000	-0,029	-0,084
-276,672	-91,735	0,082	0,017
-275,657	147,026	0,079	0,078
-274,643	396,416	-0,047	-0,072
-273,628	-34,470	-0,070	0,028
-272,613	-200,000	-0,000	-0,036
-271,599	27,138	0,126	0,077
-270,584	-200,000	0,009	0,104
-269,570	1,873	0,157	-0,082
-268,555	-200,000	-0,007	-0,050
-267,540	-59,535	-0,119	0,037
-266,526	48,421	0,079	-0,054
-265,511	-16,382	-0,123	-0,057
-264,497	800,000	0,083	-0,188
-263,482	800,000	-0,027	0,085
-262,467	-200,000	-0,010	0,064
-261,453	-200,000	0,006	0,063
-260,438	-200,000	-0,014	-0,068
-259,424	-173,310	-0,063	0,001
-258,409	58,222	-0,072	0,052
-257,395	130,892	0,045	0,042
-256,380	-45,209	0,128	0,046
-255,365	800,000	-0,033	0,100
-254,351	-60,025	0,046	0,014
-253,336	40,546	0,100	-0,066
-252,322	-200,000	0,067	-0,251
-251,307	59,977	-0,168	-0,121
-250,292	-123,705	-0,170	-0,019
-249,278	11,297	-0,036	0,020
-248,263	390,085	-0,040	0,060
-247,249	-200,000	-0,021	-0,098
-246,234	-160,255	-0,071	0,003
-245,219	-140,612	0,097	-0,007
-244,205	-200,000	-0,035	-0,139
-243,190	522,666	0,026	-0,045
-242,176	-84,094	-0,066	0,015
-241,161	266,544	0,066	0,084
-240,146	-119,279	0,086	-0,011
-239,132	-88,840	0,086	0,019
-238,117	800,000	0,056	0,156
-237,103	800,000	0,008	0,017
-236,088	526,099	-0,052	-0,089
-235,073	-200,000	-0,008	0,059
-234,059	-200,000	0,036	-0,123
-233,044	61,136	0,049	0,036
-232,030	-200,000	0,008	-0,106
-231,015	-14,920	-0,115	-0,054
-230,000	-68,692	-0,101	-0,028
-228,986	-200,000	0,008	0,061
-227,971	59,852	0,051	-0,036
-226,957	-123,401	0,163	-0,019
-225,942	-114,659	-0,065	0,009
-224,927	-200,000	0,013	-0,095
-223,913	-162,588	-0,179	-0,006
-222,898	312,543	-0,130	0,179
-221,884	800,000	0,035	-0,088
-220,869	519,552	-0,047	-0,080
-219,855	-70,385	0,132	0,036
-218,840	121,478	-0,019	0,017
-217,825	15,699	-0,056	0,032
-216,811	-200,000	0,012	-0,081
-215,796	-200,000	-0,009	-0,082
-214,782	800,000	-0,050	0,135
-213,767	495,390	0,030	0,050
-212,752	-200,000	-0,012	0,102
-211,738	33,351	-0,059	0,038
-210,723	519,414	-0,073	-0,125
-209,709	800,000	-0,014	0,034
-208,694	800,000	-0,042	-0,107
-207,679	-142,131	-0,164	-0,012
-206,665	-200,000	-0,013	0,081
-205,650	30,445	0,046	-0,029
-204,636	79,232	0,161	0,126
-203,621	-104,028	0,122	-0,020
-202,606	-26,628	-0,094	0,040
-201,592	-200,000	0,002	-0,093
-200,577	-88,322	-0,087	0,019
-199,563	-37,734	-0,101	0,039
-198,548	800,000	-0,059	0,147
-197,533	-200,000	0,025	0,114
-196,519	714,287	0,051	-0,099
-195,504	-67,952	-0,125	-0,035
-194,490	-200,000	0,003	-0,051
-193,475	73,998	-0,116	0,089
-192,460	-200,000	-0,009	0,059
-191,446	-93,975	-0,067	-0,013
-190,431	-63,217	0,130	-0,039
-189,417	-200,000	0,015	-0,197
-188,402	485,324	0,057	0,095
-187,387	75,110	0,095	-0,073
-186,373	-27,804	-0,050	-0,021
-185,358	-127,681	0,077	-0,008
-184,344	-92,609	0,023	-0,005
-183,329	800,000	-0,023	-0,055
-182,315	38,551	0,063	0,041
-181,300	227,386	-0,072	0,086
-180,285	-134,408	-0,108	0,009
-179,271	-79,478	0,060	-0,015
-178,256	800,000	0,080	0,169
-177,242	800,000	0,035	0,109
-176,227	333,852	-0,019	0,026
-175,212	-112,166	0,047	0,007
-174,198	10,630	-0,080	-0,045
-173,183	109,094	-0,061	-0,053
-172,169	-0,392	0,086	-0,044
-171,154	102,290	0,087	0,074
-170,139	-45,900	0,169	-0,060
-169,125	-200,000	0,027	0,114
-168,110	800,000	-0,069	0,158
-167,096	800,000	0,022	0,061
-166,081	-35,066	-0,084	-0,033
-165,066	242,346	-0,043	0,052
-164,052	147,956	-0,090	0,089
-163,037	59,144	-0,045	-0,032
-162,023	-200,000	0,025	-0,099
-161,008	11,176	-0,086	0,048
-159,993	-92,697	0,089	-0,018
-158,979	-44,814	-0,012	-0,004
-157,964	-200,000	0,015	0,095
-156,950	-86,045	-0,087	-0,019
-155,935	-200,000	0,021	-0,069
-154,920	800,000	-0,007	-0,016
-153,906	-200,000	0,014	-0,045
-152,891	675,523	-0,025	0,047
-151,877	-129,419	-0,064	0,006
-150,862	293,962	0,037	0,050
-149,847	-113,866	0,126	0,018
-148,833	-45,580	0,020	-0,007
-147,818	135,414	-0,019	-0,018
-146,804	40,134	-0,053	0,035
-145,789	-29,293	0,061	0,025
-144,775	-79,825	0,036	0,009
-143,760	15,659	-0,057	-0,032
-142,745	-46,866	0,045	-0,016
-141,731	66,498	-0,072	0,053
-140,716	10,505	-0,055	0,031
-139,702	-200,000	0,021	0,136
-138,687	92,686	-0,050	-0,041
-137,672	-200,000	0,004	0,036
-136,658	800,000	-0,048	-0,115
-135,643	-81,903	-0,040	0,009
-134,629	-200,000	-0,005	-0,054
-133,614	347,654	-0,014	0,020
-132,599	62,945	-0,048	-0,035
-131,585	-59,877	-0,168	-0,052
-130,570	-33,633	-0,028	-0,011
-129,556	17,691	0,055	0,032
-128,541	116,702	-0,054	-0,048
-127,526	551,693	0,042	0,073
-126,512	800,000	0,014	-0,029
-125,497	-200,000	0,024	0,080
-124,483	258,171	-0,020	0,025
-123,468	-172,210	0,103	0,002
-122,453	800,000	-0,043	-0,088
-121,439	-124,420	-0,091	-0,010
-120,424	-142,113	-0,145	0,010
-119,410	-200,000	0,025	0,120
