DTS Sentinel unit serial number:	SN410029Multiplexer serial number:	ORYXHardware model number:	OX2-SRSoftware version number:	ORYX F/W v4,00 Oryx Data Collector v3.7.2.0data status	okinstallation	B6 Nyhavnadifferential loss correction	single-endedforward channel	channel 2reverse channel	N/Adate	2023/12/08time	04:40:08forward acquisition time	300,00reverse acquisition time	0,00gamma	499,1914k internal	0,3166k external	0,3166temperature offset calibration	1,0000default loss term (dB/km)	0,3820temperature slope calibration	1,0000multiplexer offset coefficient	1,0000multiplexer slope coefficient	1,0000fibre end	0,00T internal ref (°C)	13,05T ext. ref 1 (°C)	-3,77T ext. ref 2 (°C)	-3,75length (m)	temperature (°C)	Stokes	anti-Stokes-744,400	-165,238	0,169	0,005
-743,385	-106,896	-0,283	-0,046
-742,371	147,902	0,169	0,167
-741,356	51,187	-0,269	0,187
-740,342	-152,928	0,118	0,006
-739,327	-105,266	-0,272	-0,045
-738,312	30,087	0,135	0,085
-737,298	-148,159	-0,248	0,015
-736,283	119,422	0,078	0,071
-735,269	1,157	-0,271	0,143
-734,254	527,018	0,077	0,134
-733,239	-110,930	-0,546	-0,082
-732,225	-80,039	0,146	0,036
-731,210	146,989	0,070	0,069
-730,196	143,320	-0,030	-0,029
-729,181	-5,074	0,074	0,037
-728,167	-129,016	-0,123	0,013
-727,152	-145,403	-0,092	0,006
-726,137	472,778	-0,024	-0,039
-725,123	-200,000	0,012	-0,088
-724,108	419,179	-0,112	-0,177
-723,094	800,000	0,088	-0,190
-722,079	-86,232	-0,078	0,017
-721,064	20,915	0,113	0,067
-720,050	-40,090	-0,118	-0,045
-719,035	-200,000	0,052	-0,249
-718,021	-36,441	-0,077	0,030
-717,006	-200,000	0,007	0,031
-715,991	-82,705	-0,083	-0,020
-714,977	800,000	-0,017	-0,050
-713,962	107,061	0,086	-0,075
-712,948	-55,319	-0,030	0,010
-711,933	6,501	-0,090	0,049
-710,918	111,093	0,021	-0,018
-709,904	-58,126	-0,203	-0,065
-708,889	-135,525	-0,041	0,004
-707,875	-3,903	0,036	-0,018
-706,860	-200,000	-0,050	0,171
-705,845	124,527	0,070	0,065
-704,831	-89,843	-0,107	0,023
-703,816	-62,973	0,137	0,041
-702,802	-95,265	-0,165	0,032
-701,787	800,000	-0,034	-0,108
-700,772	-29,888	0,110	-0,046
-699,758	-200,000	-0,003	0,010
-698,743	-80,400	-0,083	-0,020
-697,729	800,000	-0,027	0,063
-696,714	-200,000	-0,001	0,076
-695,699	800,000	0,027	-0,077
-694,685	48,616	-0,097	-0,066
-693,670	308,041	-0,064	-0,088
-692,656	-99,873	0,046	0,008
-691,641	166,699	-0,002	0,003
-690,627	80,674	0,069	0,054
-689,612	340,525	0,020	-0,028
-688,597	127,610	-0,048	0,044
-687,583	317,111	-0,012	0,017
-686,568	-200,000	0,019	-0,146
-685,554	-48,276	-0,138	-0,049
-684,539	-7,562	0,103	0,051
-683,524	-200,000	-0,012	0,136
-682,510	-200,000	0,024	0,171
-681,495	137,293	0,065	-0,062
-680,481	-125,702	-0,084	-0,009
-679,466	55,269	0,033	-0,023
-678,451	-29,500	0,039	-0,016
-677,437	55,264	-0,100	0,071
-676,422	-200,000	0,046	0,152
-675,408	800,000	0,090	0,196
-674,393	-8,662	0,102	-0,050
-673,378	434,674	-0,044	-0,070
-672,364	315,190	0,013	0,017
-671,349	-200,000	-0,001	0,084
-670,335	-19,249	0,111	-0,050
-669,320	-134,625	-0,111	0,010
-668,305	-200,000	0,022	0,111
-667,291	-200,000	0,007	-0,053
-666,276	676,722	0,056	-0,108
-665,262	271,105	-0,036	0,047
-664,247	-200,000	-0,008	0,054
-663,232	-200,000	0,002	-0,025
-662,218	-165,693	0,057	-0,002
-661,203	219,608	0,041	0,048
-660,189	-200,000	-0,009	0,122
-659,174	-200,000	0,012	0,108
-658,159	184,578	0,049	0,054
-657,145	16,611	-0,149	-0,086
-656,130	800,000	-0,042	0,124
-655,116	341,642	0,033	0,047
-654,101	-200,000	0,011	0,046
-653,086	471,894	-0,059	0,098
-652,072	191,155	0,079	-0,087
-651,057	362,167	0,083	-0,122
-650,043	-200,000	0,011	-0,035
-649,028	-117,299	-0,123	0,016
-648,014	-109,850	0,134	-0,020
-646,999	123,851	0,007	0,006
-645,984	-200,000	-0,004	-0,038
-644,970	-17,701	0,098	0,045
-643,955	800,000	0,028	0,069
-642,941	303,506	0,025	-0,034
-641,926	-143,809	0,042	0,003
-640,911	469,536	0,042	0,069
-639,897	93,007	0,102	0,084
-638,882	-48,960	-0,108	0,038
-637,868	297,691	-0,064	-0,087
-636,853	-12,121	-0,066	0,031
-635,838	-200,000	-0,002	0,155
-634,824	-200,000	-0,017	0,068
-633,809	-200,000	0,030	-0,131
-632,795	2,094	-0,087	0,046
-631,780	-115,820	0,046	0,006
-630,765	23,570	0,047	-0,028
-629,751	-126,633	0,051	0,005
-628,736	-56,672	-0,111	-0,036
-627,722	119,306	0,057	0,052
-626,707	800,000	0,023	0,069
-625,692	800,000	0,024	-0,077
-624,678	534,158	-0,070	0,122
-623,663	271,402	-0,059	-0,076
-622,649	-73,165	-0,056	-0,015
-621,634	800,000	0,015	-0,039
-620,619	-8,187	-0,071	-0,035
-619,605	-128,606	-0,138	-0,014
-618,590	525,198	-0,049	0,085
-617,576	4,866	-0,042	-0,023
-616,561	-200,000	0,016	0,097
-615,546	206,412	-0,068	-0,078
-614,532	783,796	-0,045	0,090
-613,517	-86,549	-0,053	-0,012
-612,503	50,393	-0,114	0,079
-611,488	-56,844	0,047	0,015
-610,474	0,536	0,078	0,040
-609,459	-56,806	-0,111	0,036
-608,444	-200,000	-0,010	-0,146
-607,430	5,464	0,103	-0,055
-606,415	-200,000	-0,015	-0,153
-605,401	142,941	-0,088	-0,086
-604,386	800,000	0,023	0,061
-603,371	800,000	0,063	0,140
-602,357	136,240	-0,080	0,076
-601,342	-82,819	0,103	0,024
-600,328	-135,967	-0,215	-0,018
-599,313	-33,963	0,153	0,061
-598,298	-200,000	-0,003	-0,164
-597,284	-200,000	0,008	-0,100
-596,269	800,000	0,037	0,083
-595,255	-200,000	0,019	-0,083
-594,240	-55,728	-0,080	-0,026
-593,225	97,307	0,071	-0,060
-592,211	-26,378	0,032	-0,014
-591,196	17,980	-0,113	0,066
-590,182	800,000	-0,022	-0,046
-589,167	-27,704	-0,087	-0,037
-588,152	-200,000	0,003	-0,102
-587,138	198,477	-0,012	0,013
-586,123	-74,624	0,154	-0,040
-585,109	15,512	-0,102	-0,058
-584,094	-69,412	0,083	-0,023
-583,079	800,000	0,043	0,130
-582,065	-200,000	0,003	-0,093
-581,050	800,000	-0,033	0,077
-580,036	209,517	0,069	0,079
-579,021	-200,000	0,006	-0,126
-578,006	-200,000	0,003	-0,045
-576,992	-103,495	-0,087	-0,015
-575,977	-178,314	-0,098	-0,002
-574,963	800,000	-0,014	0,041
-573,948	-200,000	0,005	-0,030
-572,934	-120,875	-0,088	0,011
-571,919	-200,000	-0,019	0,141
-570,904	139,883	-0,070	0,067
-569,890	252,105	0,067	0,084
-568,875	800,000	-0,042	0,104
-567,861	56,824	-0,047	-0,033
-566,846	308,260	0,023	0,032
-565,831	299,137	-0,029	-0,039
-564,817	800,000	-0,028	0,089
-563,802	488,602	-0,022	-0,038
-562,788	119,775	-0,022	-0,020
-561,773	-200,000	-0,003	-0,050
-560,758	446,319	0,088	0,142
-559,744	-12,459	-0,103	-0,049
-558,729	173,937	0,068	-0,071
-557,715	68,637	-0,096	0,072
-556,700	757,412	-0,072	-0,143
-555,685	206,941	0,055	-0,063
-554,671	-52,266	0,027	0,009
-553,656	-200,000	0,002	0,031
-552,642	794,238	-0,015	-0,030
-551,627	-87,901	0,103	0,022
-550,612	-105,653	0,064	0,011
-549,598	-72,657	-0,018	0,005
-548,583	-110,014	0,037	-0,006
-547,569	-200,000	-0,018	-0,097
-546,554	616,305	0,024	-0,044
-545,539	726,877	-0,032	0,062
-544,525	131,314	0,045	0,042
-543,510	185,409	-0,055	0,059
-542,496	-200,000	0,038	-0,126
-541,481	-137,847	-0,055	-0,004
-540,466	-200,000	-0,008	-0,059
-539,452	-62,729	0,190	0,057
-538,437	62,861	0,074	0,054
-537,423	81,245	-0,137	0,108
-536,408	-54,748	0,022	-0,007
-535,393	107,814	-0,087	0,076
-534,379	800,000	0,049	-0,118
-533,364	68,894	-0,037	0,028
-532,350	251,114	-0,102	0,127
-531,335	-26,310	0,022	-0,009
-530,321	329,512	0,058	-0,082
-529,306	141,686	-0,058	-0,056
-528,291	800,000	-0,033	-0,072
-527,277	-102,834	0,084	-0,014
-526,262	229,161	-0,016	0,020
-525,248	800,000	0,031	0,079
-524,233	235,252	-0,038	-0,046
-523,218	800,000	-0,041	0,096
-522,204	-200,000	0,028	0,143
-521,189	478,494	0,052	-0,086
-520,175	800,000	0,011	-0,031
-519,160	800,000	-0,041	-0,101
-518,145	800,000	-0,040	-0,086
-517,131	-144,624	0,049	-0,003
-516,116	566,667	0,048	-0,085
-515,102	800,000	0,028	-0,062
-514,087	-200,000	-0,024	-0,145
-513,072	495,603	0,020	-0,034
-512,058	95,144	-0,023	-0,019
-511,043	-84,231	0,078	0,018
-510,029	290,266	-0,057	0,076
-509,014	-145,349	0,093	0,006
-507,999	-40,714	0,128	-0,048
-506,985	-144,108	-0,132	-0,009
-505,970	-54,163	-0,046	-0,015
-504,956	800,000	0,041	-0,085
-503,941	-200,000	-0,002	0,100
-502,926	-84,170	-0,050	0,011
-501,912	-200,000	0,022	-0,085
-500,897	-200,000	-0,047	-0,161
-499,883	-200,000	-0,021	0,084
-498,868	800,000	0,041	0,116
-497,853	-179,672	-0,249	0,004
-496,839	102,990	-0,062	-0,052
-495,824	13,909	0,101	0,057
-494,810	-21,656	0,107	0,047
-493,795	-200,000	-0,001	-0,072
-492,781	-140,285	-0,039	0,003
-491,766	-169,692	-0,137	0,004
-490,751	128,895	-0,076	0,071
-489,737	182,041	0,060	-0,064
-488,722	617,145	0,075	0,137
-487,708	331,436	-0,017	-0,023
-486,693	-200,000	-0,022	-0,175
-485,678	-200,000	0,022	-0,091
-484,664	-56,906	-0,142	0,045
-483,649	67,866	-0,109	-0,081
-482,635	-200,000	0,008	0,056
-481,620	363,230	-0,032	0,048
-480,605	-200,000	-0,003	-0,059
-479,591	-63,229	0,102	0,030
-478,576	278,732	0,100	-0,130
-477,562	-178,805	-0,149	-0,002
-476,547	68,278	-0,104	-0,077
-475,532	537,187	-0,052	-0,091
-474,518	-17,359	0,147	0,067
-473,503	-80,457	-0,154	-0,037
-472,489	40,460	-0,058	-0,038
-471,474	241,569	-0,049	0,059
-470,459	111,328	0,078	-0,068
-469,445	-40,056	-0,096	0,036
-468,430	800,000	0,020	-0,054
-467,416	-111,047	0,104	0,015
-466,401	-200,000	-0,005	0,065
-465,386	-152,222	0,135	0,007
-464,372	-127,282	-0,099	-0,010
-463,357	99,099	0,091	-0,076
-462,343	-4,851	-0,108	-0,054
-461,328	59,339	-0,078	-0,056
-460,313	-102,451	0,170	-0,029
-459,299	800,000	0,033	0,069
-458,284	-115,556	-0,131	-0,018
-457,270	-93,304	0,168	0,034
-456,255	349,101	-0,037	0,053
-455,241	-75,191	-0,284	0,073
-454,226	21,537	-0,051	0,030
-453,211	-142,216	0,083	-0,006
-452,197	-145,054	-0,174	-0,011
-451,182	-129,748	-0,037	0,004
-450,168	32,522	-0,023	0,014
-449,153	208,894	-0,023	0,026
-448,138	-15,926	-0,110	-0,051
-447,124	83,796	-0,153	-0,121
-446,109	-200,000	-0,001	-0,112
-445,095	125,808	0,104	0,096
-444,080	-19,411	-0,042	0,019
-443,065	800,000	-0,031	0,094
-442,051	-130,122	0,156	-0,015
-441,036	-130,427	0,114	0,011
-440,022	-0,271	-0,094	-0,049
-439,007	49,455	0,093	-0,064
-437,992	800,000	0,033	-0,100
-436,978	-200,000	0,017	0,117
-435,963	-82,225	0,119	0,028
-434,949	-97,069	-0,083	-0,016
-433,934	-200,000	0,017	-0,115
-432,919	407,047	-0,022	-0,034
-431,905	800,000	0,091	-0,184
-430,890	800,000	-0,062	0,164
-429,876	359,833	0,057	0,083
-428,861	177,524	-0,033	0,035
-427,846	336,661	0,068	0,096
-426,832	421,877	0,025	0,039
-425,817	-93,543	-0,125	-0,025
-424,803	563,775	-0,023	-0,040
-423,788	143,174	0,059	0,057
-422,773	-154,295	0,079	-0,004
-421,759	-200,000	-0,008	0,122
-420,744	46,276	0,115	0,077
-419,730	346,501	0,097	0,138
-418,715	-32,742	-0,066	-0,027
-417,701	800,000	-0,022	-0,052
-416,686	247,512	0,075	-0,093
-415,671	-35,291	0,098	-0,039
-414,657	128,297	0,102	-0,094
-413,642	-123,877	0,052	0,006
-412,628	33,504	0,049	-0,031
-411,613	-200,000	-0,024	-0,098
-410,598	-119,497	-0,102	0,013
-409,584	-122,574	0,052	-0,006
-408,569	-81,138	0,116	-0,028
-407,555	-124,141	0,089	0,010
-406,540	-200,000	0,004	0,043
-405,525	800,000	-0,010	0,029
-404,511	-200,000	0,003	-0,024
-403,496	-200,000	-0,005	0,103
-402,482	-200,000	0,004	0,047
-401,467	30,370	0,075	-0,046
-400,452	-99,568	0,083	0,015
-399,438	243,245	0,015	-0,019
-398,423	-200,000	-0,008	-0,104
-397,409	157,680	-0,062	-0,063
-396,394	443,759	-0,072	-0,115
-395,379	45,424	-0,133	-0,089
-394,365	572,408	-0,073	0,130
-393,350	409,940	0,063	-0,096
-392,336	168,559	-0,038	-0,039
-391,321	-200,000	-0,029	0,101
-390,306	800,000	0,043	-0,089
-389,292	118,039	-0,047	0,042
-388,277	124,136	-0,052	0,048
-387,263	-29,284	0,031	0,013
-386,248	-200,000	-0,001	0,008
-385,233	202,534	0,069	-0,077
-384,219	800,000	-0,048	-0,107
-383,204	126,611	0,058	-0,053
-382,190	-16,897	-0,022	-0,010
-381,175	-127,443	0,214	-0,022
-380,160	-102,513	-0,039	-0,007
-379,146	277,052	-0,065	0,085
-378,131	99,413	0,057	0,048
-377,117	12,044	0,036	0,020
-376,102	-39,286	-0,099	-0,038
-375,088	738,931	-0,019	0,037
-374,073	-82,009	-0,075	0,018
-373,058	-0,834	0,092	-0,047
-372,044	363,304	0,090	0,131
-371,029	800,000	-0,006	0,019
-370,015	-94,608	0,119	0,023
-369,000	240,171	-0,051	0,062
-367,985	140,478	0,045	0,043
-366,971	166,200	0,131	-0,135
-365,956	-200,000	0,009	-0,152
-364,942	800,000	-0,028	-0,067
-363,927	-200,000	0,033	0,154
-362,912	667,745	0,065	0,123
-361,898	-200,000	-0,007	0,122
-360,883	115,327	0,063	-0,056
-359,869	397,555	0,064	0,098
-358,854	31,055	0,035	-0,022
-357,839	800,000	0,032	-0,096
-356,825	413,703	0,050	0,077
-355,810	-30,242	-0,126	0,052
-354,796	249,778	-0,036	0,044
-353,781	-73,513	-0,029	-0,007
-352,766	79,859	0,036	0,028
-351,752	66,670	0,103	0,076
-350,737	501,410	-0,054	-0,091
-349,723	799,378	0,017	-0,033
-348,708	103,402	-0,046	0,039
-347,693	292,226	-0,074	0,098
-346,679	689,415	-0,061	0,117
-345,664	800,000	-0,030	-0,087
-344,650	27,828	-0,056	0,034
-343,635	80,848	0,019	-0,015
-342,620	800,000	0,029	-0,059
-341,606	800,000	0,050	0,148
-340,591	-84,993	0,086	-0,019
-339,577	180,419	-0,053	0,057
-338,562	379,434	0,045	0,067
-337,548	800,000	-0,027	0,066
-336,533	-200,000	0,012	0,063
-335,518	-73,607	0,116	-0,030
-334,504	800,000	-0,008	0,018
-333,489	-200,000	-0,002	0,050
-332,475	425,149	-0,057	0,089
-331,460	-4,284	-0,038	-0,019
-330,445	-94,687	-0,077	-0,015
-329,431	-200,000	-0,021	0,148
-328,416	-200,000	0,019	-0,084
-327,402	375,862	0,020	-0,029
-326,387	243,548	0,035	-0,042
-325,372	-124,871	-0,083	-0,009
-324,358	430,165	-0,031	-0,048
-323,343	-56,006	0,047	-0,015
-322,329	-99,573	0,103	-0,019
-321,314	-83,668	0,036	-0,008
-320,299	-169,009	0,122	0,003
-319,285	92,550	0,051	0,042
-318,270	616,803	0,009	-0,016
-317,256	-10,145	-0,092	-0,044
-316,241	12,485	0,045	0,025
-315,226	800,000	0,024	-0,051
-314,212	-200,000	0,003	-0,030
-313,197	226,556	-0,022	0,025
-312,183	10,691	-0,142	0,078
-311,168	167,910	0,106	0,109
-310,153	85,886	0,075	-0,059
-309,139	-155,652	-0,080	0,004
-308,124	-200,000	-0,033	0,130
-307,110	149,445	-0,031	0,030
-306,095	105,052	0,072	0,061
-305,080	-200,000	0,033	0,144
-304,066	-141,556	0,072	0,005
-303,051	-200,000	0,002	0,047
-302,037	-188,458	-0,072	0,001
-301,022	800,000	-0,031	-0,064
-300,008	-158,312	-0,115	0,005
-298,993	6,993	0,112	0,060
-297,978	619,618	0,079	0,144
-296,964	325,533	0,073	-0,102
-295,949	-38,200	0,041	-0,016
-294,935	506,752	0,062	-0,105
-293,920	800,000	0,047	-0,095
-292,905	-200,000	-0,014	0,067
-291,891	800,000	0,005	0,013
-290,876	233,213	-0,023	0,027
-289,862	800,000	-0,021	-0,046
-288,847	800,000	-0,052	0,109
-287,832	62,389	0,073	-0,053
-286,818	147,790	-0,189	-0,185
-285,803	-91,921	0,120	-0,024
-284,789	-185,558	-0,014	-0,000
-283,774	-179,647	0,114	-0,002
-282,759	75,882	-0,032	0,024
-281,745	-105,523	-0,128	-0,021
-280,730	602,766	-0,052	0,094
-279,716	-105,646	-0,088	-0,014
-278,701	197,407	0,040	-0,045
-277,686	25,087	-0,012	-0,007
-276,672	800,000	0,020	0,046
-275,657	75,143	-0,056	0,043
-274,643	342,872	-0,080	-0,114
-273,628	-125,683	-0,108	0,012
-272,613	-200,000	-0,036	-0,153
-271,599	-87,374	-0,135	-0,029
-270,584	-200,000	0,010	0,059
-269,570	137,413	0,079	0,074
-268,555	-71,157	0,050	0,014
-267,540	330,271	0,018	0,024
-266,526	-200,000	-0,019	-0,091
-265,511	800,000	-0,083	0,186
-264,497	-200,000	-0,012	0,091
-263,482	800,000	-0,020	0,049
-262,467	396,431	0,056	0,085
-261,453	-140,217	0,061	-0,005
-260,438	16,494	-0,023	0,013
-259,424	385,116	0,065	-0,097
-258,409	-32,749	-0,074	-0,030
-257,395	-96,275	0,081	0,015
-256,380	-200,000	0,003	0,080
-255,365	220,661	-0,043	-0,050
-254,351	605,509	0,016	0,030
-253,336	55,190	-0,025	-0,017
-252,322	78,534	-0,101	-0,078
-251,307	-200,000	0,019	-0,100
-250,292	-200,000	0,005	-0,031
-249,278	-143,981	-0,069	0,005
-248,263	-35,824	0,071	-0,028
-247,249	49,389	-0,068	-0,046
-246,234	800,000	0,015	0,045
-245,219	-13,723	-0,079	-0,037
-244,205	800,000	-0,045	-0,092
-243,190	-150,516	0,032	0,002
-242,176	-54,305	0,016	-0,005
-241,161	-200,000	-0,010	-0,069
-240,146	195,797	-0,066	-0,072
-239,132	800,000	-0,054	-0,135
-238,117	23,605	-0,082	-0,049
-237,103	800,000	0,057	-0,128
-236,088	106,188	-0,073	-0,062
-235,073	-32,172	0,208	0,083
-234,059	800,000	0,002	-0,005
-233,044	-200,000	-0,005	0,112
-232,030	179,014	-0,057	0,060
-231,015	-15,292	-0,025	-0,011
-230,000	13,512	-0,019	0,011
-228,986	91,740	0,057	0,046
-227,971	-200,000	-0,025	-0,150
-226,957	-200,000	-0,098	0,000
-225,942	-200,000	-0,009	0,130
-224,927	-200,000	0,027	0,153
-223,913	48,014	0,043	-0,029
-222,898	168,149	-0,082	-0,084
-221,884	-200,000	-0,025	-0,256
-220,869	-200,000	0,010	-0,059
-219,855	-12,531	0,097	0,045
-218,840	-200,000	-0,017	0,063
-217,825	-12,651	0,047	-0,022
-216,811	125,687	-0,015	-0,014
-215,796	-103,690	-0,082	0,014
-214,782	-200,000	0,008	-0,069
-213,767	-58,702	0,180	0,056
-212,752	6,788	0,076	0,041
-211,738	114,016	-0,030	-0,026
-210,723	349,094	0,043	-0,061
-209,709	-177,363	0,146	-0,003
-208,694	-154,579	0,059	0,003
-207,679	221,263	-0,057	0,066
-206,665	268,099	-0,019	0,024
-205,650	800,000	0,040	0,099
-204,636	4,401	0,189	-0,100
-203,621	800,000	-0,032	0,069
-202,606	667,456	0,019	-0,036
-201,592	-78,015	-0,099	0,024
-200,577	529,574	0,031	-0,053
-199,563	104,681	0,141	0,119
-198,548	-200,000	0,025	-0,083
-197,533	38,345	0,089	-0,057
-196,519	-168,414	0,060	-0,002
-195,504	117,674	-0,144	-0,128
-194,490	130,744	0,039	-0,036
-193,475	-93,361	0,127	-0,025
-192,460	34,711	-0,125	-0,079
-191,446	-200,000	-0,000	-0,091
-190,431	-23,689	0,010	-0,004
-189,417	433,914	-0,019	-0,030
-188,402	-200,000	0,004	0,071
-187,387	87,719	-0,109	-0,087
-186,373	-200,000	-0,001	0,045
-185,358	-200,000	-0,001	0,048
-184,344	-12,519	-0,032	0,015
-183,329	-200,000	-0,000	0,032
-182,315	184,110	-0,028	-0,030
-181,300	148,350	0,077	0,074
-180,285	23,603	-0,040	0,024
-179,271	503,550	0,029	0,048
-178,256	-200,000	-0,027	0,091
-177,242	214,548	0,077	0,087
-176,227	261,313	-0,029	0,036
-175,212	-29,459	0,059	0,024
-174,198	88,701	-0,097	0,078
-173,183	248,203	-0,051	-0,062
-172,169	214,493	0,021	-0,024
-171,154	-200,000	0,022	-0,072
-170,139	800,000	0,017	-0,050
-169,125	-200,000	-0,027	0,102
-168,110	223,256	0,142	0,165
-167,096	618,821	-0,028	-0,051
-166,081	-167,787	0,059	-0,002
-165,066	-200,000	0,006	0,188
-164,052	-44,487	0,117	0,042
-163,037	260,599	0,075	-0,093
-162,023	800,000	-0,010	-0,032
-161,008	-200,000	-0,013	-0,098
-159,993	800,000	-0,073	-0,153
-158,979	-68,378	-0,084	0,023
-157,964	-63,103	-0,076	0,022
-156,950	122,372	0,082	0,073
-155,935	-200,000	-0,005	0,145
-154,920	-180,478	0,099	-0,001
-153,906	446,822	-0,094	0,149
-152,891	46,176	0,053	-0,035
-151,877	-200,000	0,042	-0,140
-150,862	-108,109	0,175	-0,027
-149,847	255,865	-0,045	0,055
-148,833	-200,000	0,016	0,062
-147,818	800,000	0,019	0,053
-146,804	-128,510	0,096	-0,010
-145,789	-200,000	0,029	0,097
-144,775	-114,736	0,057	0,008
-143,760	202,974	0,023	0,026
-142,745	396,877	-0,096	0,145
-141,731	800,000	0,025	0,079
-140,716	-130,185	0,022	-0,002
-139,702	10,255	0,094	0,051
-138,687	-200,000	-0,035	0,209
-137,672	43,780	-0,018	0,012
-136,658	83,820	-0,086	-0,067
-135,643	-133,338	0,092	-0,008
-134,629	-200,000	0,020	-0,129
-133,614	-78,491	0,151	-0,037
-132,599	445,147	-0,089	0,141
-131,585	733,540	-0,014	-0,026
-130,570	-200,000	-0,020	0,068
-129,556	178,247	0,029	-0,030
-128,541	-143,471	-0,087	0,006
-127,526	18,436	0,100	0,057
-126,512	800,000	-0,030	-0,073
-125,497	-47,339	0,128	-0,045
-124,483	-200,000	0,009	-0,177
-123,468	143,462	-0,133	0,128
-122,453	275,465	0,025	-0,031
-121,439	800,000	-0,015	-0,036
-120,424	265,142	0,034	0,042
-119,410	800,000	0,054	-0,108
