DTS Sentinel unit serial number:	SN410029Multiplexer serial number:	ORYXHardware model number:	OX2-SRSoftware version number:	ORYX F/W v4,00 Oryx Data Collector v3.7.2.0data status	okinstallation	B6 Nyhavnadifferential loss correction	single-endedforward channel	channel 2reverse channel	N/Adate	2023/12/07time	12:10:08forward acquisition time	300,00reverse acquisition time	0,00gamma	499,1914k internal	0,3203k external	0,3203temperature offset calibration	1,0000default loss term (dB/km)	0,3820temperature slope calibration	1,0000multiplexer offset coefficient	1,0000multiplexer slope coefficient	1,0000fibre end	0,00T internal ref (°C)	9,64T ext. ref 1 (°C)	-4,13T ext. ref 2 (°C)	-4,10length (m)	temperature (°C)	Stokes	anti-Stokes-744,400	19,495	0,082	0,048
-743,385	-69,709	-0,416	-0,115
-742,371	-108,842	0,239	0,037
-741,356	24,725	-0,330	-0,198
-740,342	-2,893	0,214	0,108
-739,327	-173,906	-0,329	-0,007
-738,312	-50,266	0,186	0,064
-737,298	70,703	-0,199	-0,149
-736,283	-52,624	0,171	0,057
-735,269	-57,595	-0,367	-0,116
-734,254	-44,593	0,110	0,040
-733,239	0,221	-0,566	-0,292
-732,225	-5,121	0,150	0,075
-731,210	414,907	-0,026	0,040
-730,196	72,959	0,041	-0,031
-729,181	115,037	-0,149	-0,132
-728,167	134,518	-0,075	0,071
-727,152	-200,000	-0,008	0,054
-726,137	-42,895	-0,062	0,023
-725,123	800,000	0,036	-0,088
-724,108	-62,274	-0,115	-0,034
-723,094	800,000	0,049	-0,118
-722,079	184,041	0,022	0,024
-721,064	173,891	-0,068	0,071
-720,050	38,676	-0,021	0,013
-719,035	-38,640	-0,266	0,102
-718,021	-200,000	0,012	-0,046
-717,006	800,000	-0,038	-0,081
-715,991	682,207	-0,123	-0,234
-714,977	60,614	-0,160	-0,115
-713,962	-200,000	-0,004	-0,093
-712,948	-117,710	0,071	0,009
-711,933	779,091	0,018	-0,035
-710,918	18,293	-0,157	-0,091
-709,904	-121,419	-0,021	0,003
-708,889	-28,104	-0,063	0,026
-707,875	-200,000	-0,008	-0,185
-706,860	800,000	-0,012	-0,036
-705,845	-200,000	0,004	-0,065
-704,831	107,954	0,017	0,015
-703,816	-200,000	-0,009	-0,076
-702,802	-27,358	-0,113	0,047
-701,787	532,317	-0,036	-0,062
-700,772	-111,484	-0,086	0,013
-699,758	-200,000	-0,009	0,059
-698,743	279,977	0,079	0,102
-697,729	800,000	-0,032	0,081
-696,714	-151,620	-0,029	0,002
-695,699	-95,954	0,074	-0,014
-694,685	-155,680	-0,083	0,004
-693,670	316,526	0,086	-0,119
-692,656	13,511	-0,076	0,043
-691,641	-78,156	0,023	-0,006
-690,627	-200,000	-0,013	0,050
-689,612	-53,157	-0,051	-0,017
-688,597	16,339	0,077	-0,044
-687,583	-200,000	-0,014	-0,056
-686,568	545,124	-0,058	0,101
-685,554	352,101	-0,022	-0,032
-684,539	-48,949	0,094	-0,033
-683,524	800,000	-0,020	-0,059
-682,510	-200,000	0,014	-0,066
-681,495	353,616	-0,046	-0,067
-680,481	-200,000	-0,003	-0,077
-679,466	48,138	-0,087	-0,059
-678,451	97,221	-0,143	-0,119
-677,437	-200,000	0,004	-0,110
-676,422	800,000	0,040	-0,089
-675,408	-200,000	-0,002	-0,027
-674,393	800,000	0,033	0,083
-673,378	345,454	0,026	0,037
-672,364	110,039	-0,112	-0,097
-671,349	-200,000	0,012	-0,092
-670,335	800,000	0,021	0,051
-669,320	-125,339	0,017	-0,002
-668,305	14,320	-0,064	0,036
-667,291	-136,618	-0,011	-0,001
-666,276	-200,000	-0,057	-0,199
-665,262	757,174	-0,047	-0,093
-664,247	800,000	0,056	-0,112
-663,232	-200,000	0,038	0,156
-662,218	29,845	-0,052	0,032
-661,203	364,352	0,038	-0,056
-660,189	158,057	-0,024	-0,024
-659,174	-40,256	0,044	-0,017
-658,159	523,943	-0,033	-0,056
-657,145	-67,650	-0,093	-0,026
-656,130	41,669	0,078	-0,051
-655,116	504,901	0,066	-0,111
-654,101	508,573	-0,039	0,065
-653,086	677,615	-0,068	0,128
-652,072	800,000	0,052	-0,111
-651,057	800,000	-0,064	-0,128
-650,043	73,667	-0,072	0,054
-649,028	800,000	0,031	-0,085
-648,014	371,512	0,059	0,087
-646,999	-200,000	0,017	-0,063
-645,984	-200,000	0,000	0,017
-644,970	-200,000	-0,005	0,050
-643,955	-134,078	-0,097	-0,009
-642,941	-20,672	-0,046	0,020
-641,926	800,000	-0,027	-0,056
-640,911	14,915	-0,036	-0,020
-639,897	264,669	0,136	0,172
-638,882	15,247	-0,034	-0,020
-637,868	150,116	0,069	0,068
-636,853	376,641	-0,055	0,081
-635,838	7,824	-0,063	0,034
-634,824	-200,000	0,032	-0,183
-633,809	62,227	0,067	0,048
-632,795	-200,000	-0,015	0,105
-631,780	-200,000	-0,010	0,036
-630,765	542,378	-0,125	-0,217
-629,751	-157,210	0,063	0,003
-628,736	333,874	0,045	-0,063
-627,722	-200,000	-0,020	-0,184
-626,707	33,029	0,111	0,070
-625,692	251,763	0,049	0,060
-624,678	681,419	-0,033	0,062
-623,663	-176,458	-0,083	0,002
-622,649	-200,000	-0,005	-0,053
-621,634	-44,637	0,062	-0,022
-620,619	-35,362	-0,092	-0,036
-619,605	-45,349	0,097	0,035
-618,590	-200,000	0,021	-0,171
-617,576	587,130	0,099	0,176
-616,561	-200,000	-0,008	-0,066
-615,546	640,780	-0,056	-0,103
-614,532	546,275	-0,047	-0,081
-613,517	-6,818	0,125	0,061
-612,503	-200,000	-0,002	-0,033
-611,488	6,919	-0,055	0,030
-610,474	-112,661	-0,155	-0,022
-609,459	-131,362	-0,118	0,011
-608,444	-200,000	-0,005	-0,026
-607,430	478,654	0,089	-0,146
-606,415	800,000	-0,039	-0,112
-605,401	562,092	0,051	0,090
-604,386	-200,000	0,014	0,053
-603,371	-127,515	0,138	0,014
-602,357	199,226	-0,090	-0,100
-601,342	800,000	0,023	-0,063
-600,328	30,655	-0,026	-0,016
-599,313	157,588	0,065	0,066
-598,298	-200,000	0,000	0,019
-597,284	800,000	-0,015	0,035
-596,269	-200,000	-0,012	0,172
-595,255	292,895	-0,022	0,029
-594,240	558,586	-0,099	-0,173
-593,225	508,947	-0,036	-0,061
-592,211	-97,095	-0,098	0,018
-591,196	-200,000	0,062	-0,203
-590,182	317,166	-0,006	-0,009
-589,167	-51,992	0,065	-0,022
-588,152	715,086	-0,020	0,039
-587,138	-200,000	0,023	-0,138
-586,123	-200,000	0,001	0,068
-585,109	403,612	-0,058	-0,089
-584,094	800,000	-0,038	-0,099
-583,079	117,553	0,095	-0,085
-582,065	-200,000	-0,007	0,050
-581,050	-19,063	0,030	0,013
-580,036	76,930	-0,074	-0,056
-579,021	38,997	0,042	-0,027
-578,006	-121,168	-0,169	-0,020
-576,992	-127,388	-0,069	0,007
-575,977	800,000	-0,028	-0,075
-574,963	684,063	0,089	0,168
-573,948	800,000	0,032	0,082
-572,934	600,164	0,029	0,052
-571,919	117,439	-0,144	-0,128
-570,904	14,982	-0,131	-0,074
-569,890	132,947	-0,167	-0,156
-568,875	-154,199	-0,045	-0,002
-567,861	32,620	-0,035	0,022
-566,846	800,000	-0,011	0,026
-565,831	-200,000	0,016	0,090
-564,817	-200,000	0,019	-0,068
-563,802	-138,530	-0,033	-0,003
-562,788	800,000	-0,024	-0,061
-561,773	243,430	-0,058	-0,071
-560,758	-23,781	0,030	0,013
-559,744	-71,742	-0,024	0,006
-558,729	-30,434	-0,065	-0,026
-557,715	-200,000	0,001	0,007
-556,700	18,048	-0,143	-0,082
-555,685	219,735	0,070	-0,081
-554,671	-200,000	-0,004	-0,041
-553,656	800,000	0,029	-0,086
-552,642	-200,000	0,036	0,240
-551,627	112,676	-0,060	0,052
-550,612	-200,000	-0,019	-0,107
-549,598	109,506	-0,089	-0,077
-548,583	800,000	0,060	-0,123
-547,569	52,883	0,046	0,032
-546,554	422,360	0,018	-0,028
-545,539	54,785	0,088	0,061
-544,525	-174,885	-0,038	0,001
-543,510	-109,931	-0,043	-0,006
-542,496	414,074	-0,075	-0,115
-541,481	800,000	-0,019	-0,049
-540,466	45,567	0,085	-0,057
-539,452	-200,000	0,019	0,096
-538,437	-200,000	0,029	-0,155
-537,423	59,261	0,048	-0,034
-536,408	40,841	-0,128	-0,083
-535,393	-58,965	-0,052	-0,016
-534,379	-85,249	-0,156	-0,035
-533,364	-51,277	-0,064	-0,022
-532,350	-76,201	0,055	-0,014
-531,335	222,653	0,111	-0,129
-530,321	-12,398	0,091	-0,043
-529,306	-65,671	0,064	-0,018
-528,291	-39,777	-0,098	-0,037
-527,277	-200,000	-0,006	-0,024
-526,262	-73,024	-0,141	0,037
-525,248	-200,000	-0,008	0,096
-524,233	800,000	0,040	0,080
-523,218	800,000	-0,018	-0,037
-522,204	9,631	-0,033	-0,018
-521,189	-200,000	0,005	0,156
-520,175	-41,654	0,102	0,038
-519,160	115,638	0,084	-0,074
-518,145	345,901	-0,038	-0,054
-517,131	365,335	-0,071	-0,103
-516,116	337,675	-0,027	0,038
-515,102	-200,000	-0,006	0,119
-514,087	-129,369	0,054	0,005
-513,072	75,951	-0,071	-0,054
-512,058	-102,859	-0,082	0,014
-511,043	-112,390	0,167	0,024
-510,029	147,913	-0,129	0,126
-509,014	-200,000	0,003	0,056
-507,999	-200,000	-0,001	0,041
-506,985	69,563	-0,067	0,049
-505,970	524,262	-0,027	0,045
-504,956	513,210	-0,027	0,046
-503,941	188,237	0,121	0,130
-502,926	633,264	0,073	0,133
-501,912	-200,000	0,005	0,154
-500,897	291,282	0,037	-0,048
-499,883	-200,000	-0,036	0,127
-498,868	239,135	-0,036	0,043
-497,853	-200,000	0,017	0,138
-496,839	101,505	0,065	0,054
-495,824	50,855	0,108	0,074
-494,810	-51,072	0,047	0,016
-493,795	800,000	-0,035	-0,080
-492,781	-79,949	-0,096	0,023
-491,766	-169,432	-0,071	0,002
-490,751	-68,424	-0,142	-0,039
-489,737	800,000	0,011	-0,026
-488,722	800,000	0,036	-0,103
-487,708	224,025	-0,063	0,074
-486,693	342,759	0,061	-0,086
-485,678	380,452	-0,048	0,071
-484,664	593,633	0,075	-0,134
-483,649	-200,000	-0,006	-0,103
-482,635	-29,971	0,080	-0,033
-481,620	-118,014	-0,068	-0,009
-480,605	206,620	-0,129	-0,144
-479,591	-61,245	0,051	-0,015
-478,576	-200,000	-0,024	-0,145
-477,562	-200,000	0,023	-0,092
-476,547	-134,163	-0,082	-0,007
-475,532	-200,000	0,015	0,050
-474,518	-9,161	0,024	0,011
-473,503	-200,000	-0,013	0,072
-472,489	-8,796	0,076	-0,036
-471,474	-75,786	-0,001	-0,000
-470,459	-200,000	-0,017	0,079
-469,445	-200,000	0,009	0,100
-468,430	-200,000	0,007	-0,053
-467,416	-148,541	-0,080	-0,005
-466,401	-200,000	0,033	0,148
-465,386	-200,000	0,009	0,088
-464,372	800,000	0,034	0,080
-463,357	800,000	0,048	-0,148
-462,343	800,000	-0,036	-0,093
-461,328	-112,503	-0,049	-0,007
-460,313	83,142	-0,102	0,080
-459,299	-50,526	0,056	-0,019
-458,284	-94,851	0,137	-0,027
-457,270	800,000	-0,025	-0,071
-456,255	203,249	-0,088	0,098
-455,241	341,452	-0,025	-0,035
-454,226	-65,657	0,084	0,024
-453,211	723,132	0,028	0,054
-452,197	-200,000	0,003	-0,029
-451,182	702,000	-0,053	0,102
-450,168	-119,159	0,060	-0,007
-449,153	800,000	-0,024	-0,063
-448,138	61,522	-0,069	-0,049
-447,124	800,000	0,013	-0,033
-446,109	800,000	0,042	-0,087
-445,095	-200,000	0,003	0,064
-444,080	308,144	0,081	0,109
-443,065	-81,118	-0,071	-0,017
-442,051	-124,662	0,183	-0,020
-441,036	-40,919	-0,101	-0,037
-440,022	-200,000	0,001	-0,050
-439,007	501,555	-0,086	-0,144
-437,992	-59,519	0,083	0,025
-436,978	193,053	0,071	0,077
-435,963	-200,000	-0,008	0,195
-434,949	385,930	-0,067	-0,100
-433,934	-200,000	0,001	0,069
-432,919	24,161	-0,067	-0,040
-431,905	-104,161	-0,095	0,016
-430,890	247,202	0,081	-0,099
-429,876	-200,000	-0,019	-0,087
-428,861	90,598	0,045	0,036
-427,846	-95,902	-0,062	-0,012
-426,832	577,184	0,058	0,102
-425,817	-200,000	0,018	-0,119
-424,803	-88,669	0,153	0,032
-423,788	484,994	-0,068	-0,111
-422,773	38,439	0,096	-0,061
-421,759	-38,786	0,177	0,067
-420,744	178,470	-0,139	0,145
-419,730	-200,000	0,066	-0,224
-418,715	-28,789	-0,160	-0,066
-417,701	49,666	-0,033	-0,023
-416,686	-102,961	0,026	-0,004
-415,671	16,308	0,053	0,030
-414,657	-41,145	0,126	0,046
-413,642	800,000	-0,042	0,092
-412,628	-200,000	-0,007	0,029
-411,613	800,000	-0,018	-0,040
-410,598	-102,843	0,101	-0,017
-409,584	-47,590	-0,074	-0,026
-408,569	40,935	0,144	-0,093
-407,555	-78,460	-0,090	-0,022
-406,540	-200,000	-0,017	-0,100
-405,525	-200,000	0,043	-0,145
-404,511	-200,000	0,006	-0,036
-403,496	622,704	0,042	-0,077
-402,482	-9,702	0,068	-0,032
-401,467	-149,756	0,185	-0,010
-400,452	-200,000	-0,045	0,149
-399,438	171,441	0,088	0,090
-398,423	800,000	-0,032	0,077
-397,409	533,175	-0,055	0,094
-396,394	-40,561	0,049	-0,018
-395,379	-200,000	-0,003	0,049
-394,365	95,117	0,078	-0,064
-393,350	56,600	-0,039	0,027
-392,336	-62,852	0,030	-0,009
-391,321	-114,912	-0,095	-0,013
-390,306	0,280	-0,050	-0,025
-389,292	6,811	-0,157	0,084
-388,277	13,424	0,091	0,051
-387,263	-57,680	0,086	0,027
-386,248	248,683	0,085	0,103
-385,233	29,728	-0,092	-0,056
-384,219	-51,593	0,090	0,030
-383,204	146,446	-0,034	-0,032
-382,190	-54,054	-0,113	-0,037
-381,175	236,440	-0,050	-0,059
-380,160	-200,000	0,012	-0,109
-379,146	-74,328	-0,125	0,032
-378,131	-200,000	0,000	0,011
-377,117	515,566	0,008	0,013
-376,102	800,000	-0,044	0,094
-375,088	-21,021	-0,042	0,019
-374,073	-25,398	0,071	-0,030
-373,058	-71,353	0,094	0,025
-372,044	-100,756	0,119	-0,021
-371,029	32,564	-0,081	0,050
-370,015	800,000	-0,054	0,146
-369,000	68,438	0,045	-0,033
-367,985	46,951	0,066	-0,044
-366,971	-20,050	0,086	-0,038
-365,956	2,941	0,154	-0,080
-364,942	110,176	-0,093	0,080
-363,927	401,315	0,069	0,103
-362,912	800,000	0,035	-0,078
-361,898	-125,192	-0,107	-0,012
-360,883	800,000	-0,038	-0,102
-359,869	-16,375	-0,166	-0,075
-358,854	800,000	0,053	0,104
-357,839	-123,905	0,254	0,028
-356,825	-200,000	-0,006	0,059
-355,810	-98,861	0,115	0,021
-354,796	-200,000	0,024	0,182
-353,781	82,060	-0,076	-0,059
-352,766	800,000	-0,021	-0,063
-351,752	-200,000	0,000	-0,007
-350,737	-200,000	-0,001	0,057
-349,723	800,000	-0,034	0,086
-348,708	204,359	0,067	0,074
-347,693	184,053	-0,072	-0,076
-346,679	-45,089	-0,068	-0,024
-345,664	800,000	-0,063	-0,133
-344,650	36,804	0,058	0,036
-343,635	-10,644	0,102	-0,048
-342,620	-76,222	-0,099	-0,025
-341,606	-120,495	-0,090	-0,011
-340,591	663,976	0,037	-0,069
-339,577	-3,859	-0,103	-0,051
-338,562	-200,000	-0,010	0,102
-337,548	-83,474	0,116	0,026
-336,533	-200,000	0,005	0,115
-335,518	-200,000	0,001	-0,054
-334,504	-72,859	0,092	0,024
-333,489	-84,634	-0,039	0,009
-332,475	177,656	-0,034	-0,035
-331,460	-200,000	-0,023	-0,091
-330,445	46,123	-0,088	-0,058
-329,431	800,000	0,025	-0,072
-328,416	122,345	-0,114	0,102
-327,402	800,000	-0,010	0,024
-326,387	-91,601	-0,071	-0,014
-325,372	800,000	-0,030	-0,090
-324,358	167,290	0,019	-0,019
-323,343	800,000	-0,016	0,047
-322,329	251,226	-0,080	0,098
-321,314	-200,000	-0,030	0,174
-320,299	75,880	-0,157	-0,118
-319,285	-5,347	-0,218	-0,107
-318,270	-200,000	0,025	-0,134
-317,256	143,698	-0,023	-0,022
-316,241	-3,459	0,168	0,083
-315,226	9,053	-0,079	-0,043
-314,212	-45,967	0,128	-0,045
-313,197	-200,000	-0,011	0,078
-312,183	223,591	0,019	-0,022
-311,168	74,467	0,077	-0,058
-310,153	61,746	-0,133	-0,095
-309,139	-65,402	0,108	0,031
-308,124	75,770	0,083	0,063
-307,110	-200,000	0,007	0,075
-306,095	-111,415	0,146	0,021
-305,080	-160,733	-0,075	-0,003
-304,066	-35,509	-0,099	0,038
-303,051	800,000	-0,067	-0,174
-302,037	-200,000	-0,012	-0,101
-301,022	-131,121	0,076	-0,007
-300,008	-197,752	0,034	0,000
-298,993	-49,563	0,080	0,027
-297,978	-61,404	0,075	0,022
-296,964	-117,152	-0,027	-0,003
-295,949	800,000	-0,062	-0,130
-294,935	-200,000	0,012	-0,051
-293,920	-109,814	0,039	-0,006
-292,905	-82,458	0,076	-0,017
-291,891	-22,176	0,096	0,042
-290,876	-200,000	-0,012	0,057
-289,862	417,103	0,031	0,048
-288,847	4,352	-0,075	-0,039
-287,832	-200,000	0,036	-0,157
-286,818	216,135	-0,084	-0,095
-285,803	100,489	0,132	0,109
-284,789	-200,000	-0,006	0,049
-283,774	-19,815	0,074	0,033
-282,759	10,298	-0,073	-0,039
-281,745	800,000	0,019	0,037
-280,730	241,361	-0,028	0,033
-279,716	-200,000	0,013	0,113
-278,701	-2,080	0,027	-0,013
-277,686	-38,511	0,069	-0,026
-276,672	-200,000	0,003	0,053
-275,657	-131,723	-0,048	0,004
-274,643	131,267	0,106	-0,097
-273,628	-47,186	0,092	-0,032
-272,613	800,000	-0,038	-0,099
-271,599	47,314	0,019	0,013
-270,584	800,000	-0,041	0,088
-269,570	174,254	0,112	0,116
-268,555	-200,000	-0,032	0,101
-267,540	285,070	-0,060	-0,078
-266,526	-103,998	-0,071	-0,012
-265,511	-200,000	-0,013	0,090
-264,497	66,245	0,130	-0,094
-263,482	94,176	0,057	-0,046
-262,467	800,000	0,076	0,156
-261,453	33,561	0,158	0,097
-260,438	29,514	-0,122	-0,074
-259,424	557,729	0,034	-0,058
-258,409	-70,872	-0,077	0,021
-257,395	800,000	0,077	-0,217
-256,380	11,934	0,073	0,040
-255,365	-71,696	0,037	0,010
-254,351	84,443	-0,125	-0,097
-253,336	800,000	0,027	-0,069
-252,322	498,586	-0,051	-0,083
-251,307	278,892	-0,045	0,057
-250,292	-200,000	-0,003	-0,132
-249,278	320,387	0,071	0,097
-248,263	-171,180	0,115	0,003
-247,249	-200,000	0,017	0,169
-246,234	464,710	-0,010	-0,017
-245,219	-100,124	0,133	-0,023
-244,205	-200,000	0,006	0,024
-243,190	31,468	-0,083	0,051
-242,176	406,726	0,019	0,029
-241,161	121,237	0,157	0,139
-240,146	-123,318	0,054	0,006
-239,132	-140,745	-0,149	0,011
-238,117	114,302	-0,129	-0,112
-237,103	-126,874	-0,090	-0,009
-236,088	110,142	-0,054	-0,047
-235,073	-63,266	-0,067	-0,019
-234,059	-200,000	0,000	-0,047
-233,044	6,514	0,067	-0,035
-232,030	-168,859	-0,189	-0,005
-231,015	-124,982	0,099	-0,011
-230,000	-200,000	-0,021	-0,224
-228,986	-90,445	-0,094	-0,019
-227,971	800,000	0,027	0,064
-226,957	-91,020	0,087	0,018
-225,942	367,841	-0,058	0,083
-224,927	-200,000	-0,016	-0,057
-223,913	395,116	0,039	-0,059
-222,898	800,000	0,079	0,167
-221,884	-54,544	-0,106	-0,034
-220,869	-200,000	0,005	-0,072
-219,855	58,268	-0,043	-0,030
-218,840	74,864	0,179	0,134
-217,825	-200,000	0,002	0,053
-216,811	-136,261	-0,199	-0,016
-215,796	173,900	-0,060	0,062
-214,782	12,925	-0,012	-0,007
-213,767	-200,000	-0,037	0,133
-212,752	3,092	0,067	-0,034
-211,738	116,903	0,070	0,061
-210,723	15,039	0,076	0,042
-209,709	-200,000	0,006	-0,160
-208,694	800,000	0,042	0,112
-207,679	36,375	0,099	0,062
-206,665	800,000	0,025	0,051
-205,650	-144,523	0,072	-0,005
-204,636	23,259	0,140	0,082
-203,621	-200,000	0,007	-0,054
-202,606	261,916	0,053	-0,065
-201,592	-85,108	-0,166	-0,037
-200,577	800,000	-0,039	-0,107
-199,563	36,601	0,050	-0,031
-198,548	157,850	0,084	0,083
-197,533	800,000	0,035	0,071
-196,519	-200,000	0,020	0,087
-195,504	800,000	-0,030	0,091
-194,490	468,927	-0,014	-0,023
-193,475	-200,000	-0,005	0,040
-192,460	530,383	-0,031	0,053
-191,446	-200,000	-0,002	0,010
-190,431	800,000	-0,014	0,032
-189,417	-200,000	-0,031	-0,106
-188,402	-124,256	-0,077	-0,008
-187,387	-183,098	0,088	-0,001
-186,373	-200,000	-0,027	0,097
-185,358	-200,000	-0,013	-0,042
-184,344	-22,406	0,169	0,072
-183,329	70,693	0,075	0,055
-182,315	-200,000	-0,026	0,096
-181,300	-165,408	-0,124	0,004
-180,285	-163,409	-0,089	0,003
-179,271	800,000	0,031	0,098
-178,256	26,457	0,120	0,071
-177,242	-5,273	0,054	0,026
-176,227	-200,000	-0,003	0,022
-175,212	606,434	-0,109	0,195
-174,198	-200,000	-0,005	0,088
-173,183	317,853	0,020	0,027
-172,169	620,660	0,013	-0,023
-171,154	399,876	-0,047	-0,070
-170,139	-48,452	-0,119	-0,040
-169,125	7,256	0,137	-0,073
-168,110	-200,000	-0,001	-0,022
-167,096	800,000	0,067	0,140
-166,081	-103,465	-0,135	0,022
-165,066	-200,000	0,003	-0,084
-164,052	189,623	0,051	0,054
-163,037	222,557	-0,084	0,097
-162,023	800,000	-0,011	0,022
-161,008	-200,000	0,003	0,226
-159,993	21,540	0,069	-0,040
-158,979	800,000	-0,032	0,069
-157,964	116,758	-0,092	-0,080
-156,950	627,388	0,011	0,020
-155,935	726,302	-0,061	0,117
-154,920	346,296	0,100	0,141
-153,906	796,861	-0,046	0,090
-152,891	-200,000	0,035	0,135
-151,877	135,970	0,162	0,150
-150,862	173,128	-0,053	-0,055
-149,847	800,000	0,018	-0,043
-148,833	2,277	-0,101	-0,052
-147,818	83,417	0,204	0,158
-146,804	13,254	0,069	0,038
-145,789	-200,000	-0,013	0,114
-144,775	-35,241	0,105	-0,040
-143,760	-149,876	-0,084	0,005
-142,745	252,041	-0,026	0,031
-141,731	246,275	0,045	0,054
-140,716	-159,666	-0,121	-0,005
-139,702	415,948	-0,031	-0,047
-138,687	339,386	0,017	-0,024
-137,672	29,427	0,011	-0,007
-136,658	-200,000	-0,041	0,165
-135,643	-200,000	-0,015	0,130
-134,629	91,291	-0,095	-0,076
-133,614	-130,256	-0,028	0,003
-132,599	462,844	-0,022	0,035
-131,585	43,967	0,053	0,034
-130,570	75,314	0,081	0,060
-129,556	-116,232	-0,161	0,021
-128,541	-66,442	0,033	-0,009
-127,526	800,000	0,022	-0,044
-126,512	475,885	0,007	-0,012
-125,497	-60,974	0,096	-0,029
-124,483	-200,000	-0,013	-0,046
-123,468	112,531	0,046	-0,039
-122,453	62,747	0,032	0,022
-121,439	85,583	-0,144	0,112
-120,424	-37,757	-0,070	0,026
-119,410	-200,000	0,019	0,081
