DTS Sentinel unit serial number:	SN410029Multiplexer serial number:	ORYXHardware model number:	OX2-SRSoftware version number:	ORYX F/W v4,00 Oryx Data Collector v3.7.2.0data status	okinstallation	B6 Nyhavnadifferential loss correction	single-endedforward channel	channel 2reverse channel	N/Adate	2023/12/10time	01:45:08forward acquisition time	300,00reverse acquisition time	0,00gamma	499,1914k internal	0,3126k external	0,3126temperature offset calibration	1,0000default loss term (dB/km)	0,3820temperature slope calibration	1,0000multiplexer offset coefficient	1,0000multiplexer slope coefficient	1,0000fibre end	0,00T internal ref (°C)	21,93T ext. ref 1 (°C)	5,68T ext. ref 2 (°C)	5,68length (m)	temperature (°C)	Stokes	anti-Stokes-744,400	-44,209	0,041	-0,015
-743,385	359,020	-0,201	0,300
-742,371	239,883	0,077	-0,096
-741,356	25,500	-0,102	0,063
-740,342	-164,227	0,100	-0,003
-739,327	358,496	-0,124	0,185
-738,312	-158,056	-0,065	-0,003
-737,298	-68,941	-0,236	-0,067
-736,283	800,000	-0,024	-0,075
-735,269	-67,275	-0,189	0,055
-734,254	-74,008	0,160	-0,043
-733,239	-153,270	-0,409	-0,021
-732,225	355,488	0,110	-0,163
-731,210	-200,000	0,002	-0,082
-730,196	-200,000	-0,002	0,011
-729,181	-200,000	0,017	-0,069
-728,167	-200,000	-0,012	-0,099
-727,152	292,021	-0,081	-0,110
-726,137	-200,000	-0,007	0,070
-725,123	21,012	-0,157	-0,095
-724,108	800,000	-0,073	-0,167
-723,094	44,925	-0,073	-0,050
-722,079	52,999	-0,073	0,052
-721,064	-44,251	-0,063	-0,023
-720,050	800,000	-0,027	-0,058
-719,035	552,929	-0,009	-0,017
-718,021	-200,000	-0,143	0,000
-717,006	99,710	-0,017	0,015
-715,991	320,095	-0,050	-0,071
-714,977	179,322	-0,028	-0,031
-713,962	-200,000	0,018	-0,160
-712,948	63,422	0,074	-0,055
-711,933	-40,249	-0,100	-0,039
-710,918	456,330	-0,055	0,091
-709,904	-38,927	-0,038	0,015
-708,889	149,967	-0,165	-0,167
-707,875	-76,773	-0,097	-0,025
-706,860	388,527	0,014	0,021
-705,845	-110,093	0,058	0,009
-704,831	-200,000	0,009	-0,088
-703,816	-200,000	0,005	0,022
-702,802	-60,860	-0,014	0,004
-701,787	570,438	-0,067	-0,121
-700,772	-200,000	0,019	-0,072
-699,758	-200,000	-0,029	-0,120
-698,743	-105,426	-0,047	0,008
-697,729	800,000	-0,008	-0,018
-696,714	219,713	0,017	0,020
-695,699	270,892	-0,127	-0,167
-694,685	-102,676	0,030	0,005
-693,670	596,254	0,075	-0,138
-692,656	800,000	-0,031	-0,075
-691,641	454,163	-0,031	0,052
-690,627	-77,811	0,002	-0,001
-689,612	173,448	-0,039	-0,042
-688,597	-70,354	-0,057	0,016
-687,583	-200,000	0,015	0,052
-686,568	800,000	-0,014	0,030
-685,554	-168,132	-0,088	-0,002
-684,539	250,650	0,058	-0,073
-683,524	18,544	-0,007	0,004
-682,510	-126,106	0,083	0,009
-681,495	-120,857	-0,193	0,024
-680,481	142,048	0,036	-0,035
-679,466	-145,650	-0,071	-0,005
-678,451	-200,000	-0,008	-0,033
-677,437	799,731	-0,030	0,062
-676,422	-200,000	-0,030	-0,144
-675,408	800,000	-0,008	0,022
-674,393	-74,351	0,069	-0,018
-673,378	-91,196	-0,076	0,016
-672,364	31,169	-0,044	-0,028
-671,349	261,652	-0,038	-0,049
-670,335	206,786	0,112	-0,130
-669,320	30,048	0,046	0,029
-668,305	-200,000	0,004	0,166
-667,291	-200,000	-0,002	-0,140
-666,276	-200,000	0,017	0,102
-665,262	-119,137	-0,104	-0,013
-664,247	-200,000	-0,004	-0,060
-663,232	38,245	-0,144	-0,095
-662,218	135,320	0,093	0,090
-661,203	59,108	0,070	-0,051
-660,189	-200,000	0,011	0,111
-659,174	-158,158	-0,121	0,005
-658,159	281,555	-0,051	-0,068
-657,145	42,824	-0,084	-0,056
-656,130	479,593	0,041	-0,069
-655,116	-129,008	0,161	0,017
-654,101	158,469	0,026	-0,026
-653,086	134,832	0,010	-0,009
-652,072	53,130	-0,038	0,027
-651,057	-200,000	0,011	-0,165
-650,043	-200,000	0,001	-0,134
-649,028	-65,143	0,106	0,032
-648,014	731,311	-0,021	0,042
-646,999	414,024	0,051	-0,080
-645,984	-200,000	0,009	0,102
-644,970	800,000	0,031	-0,096
-643,955	-200,000	0,008	-0,049
-642,941	14,536	-0,166	-0,096
-641,926	275,523	-0,047	0,062
-640,911	15,498	0,116	-0,067
-639,897	-74,412	0,088	-0,023
-638,882	-30,002	-0,225	-0,094
-637,868	-27,477	0,091	0,039
-636,853	800,000	0,083	-0,173
-635,838	-97,900	-0,113	0,021
-634,824	100,581	-0,028	-0,025
-633,809	800,000	0,057	-0,158
-632,795	454,604	0,038	-0,062
-631,780	44,598	-0,078	0,053
-630,765	800,000	-0,062	-0,131
-629,751	800,000	0,018	0,054
-628,736	681,260	0,025	-0,048
-627,722	-11,569	-0,102	-0,050
-626,707	-200,000	0,002	0,022
-625,692	-10,206	0,041	-0,020
-624,678	-4,516	-0,088	0,045
-623,663	-101,863	-0,071	0,013
-622,649	800,000	0,037	-0,080
-621,634	-200,000	-0,002	-0,162
-620,619	41,942	0,017	0,011
-619,605	103,419	-0,045	0,039
-618,590	-73,263	0,060	0,016
-617,576	-94,526	0,051	0,010
-616,561	-46,857	-0,057	0,021
-615,546	162,906	-0,080	0,083
-614,532	192,672	-0,023	-0,025
-613,517	53,189	-0,065	-0,046
-612,503	33,554	0,063	0,040
-611,488	29,781	0,118	0,074
-610,474	35,873	0,062	0,040
-609,459	4,552	-0,105	-0,057
-608,444	31,208	0,065	-0,041
-607,430	-200,000	0,004	-0,148
-606,415	-162,666	-0,064	-0,002
-605,401	200,733	0,057	-0,065
-604,386	-56,678	0,125	0,041
-603,371	19,223	-0,140	0,083
-602,357	19,831	-0,057	-0,034
-601,342	-115,437	0,046	-0,006
-600,328	129,881	-0,068	0,064
-599,313	-146,429	0,137	0,009
-598,298	121,362	-0,118	-0,109
-597,284	-200,000	-0,023	0,118
-596,269	12,084	-0,034	0,019
-595,255	-74,368	0,025	0,007
-594,240	612,438	0,091	0,168
-593,225	2,825	-0,090	-0,048
-592,211	-200,000	0,029	-0,142
-591,196	-200,000	0,016	-0,173
-590,182	-59,013	-0,061	-0,019
-589,167	800,000	-0,026	0,073
-588,152	184,395	0,084	0,093
-587,138	-2,027	0,033	0,017
-586,123	204,769	0,002	0,002
-585,109	58,710	-0,045	-0,033
-584,094	543,944	0,043	0,076
-583,079	43,307	-0,071	-0,048
-582,065	158,863	-0,053	-0,055
-581,050	433,653	-0,040	0,064
-580,036	46,218	0,097	0,066
-579,021	27,377	0,122	-0,076
-578,006	-125,492	0,076	-0,008
-576,992	-72,281	-0,132	0,036
-575,977	-200,000	-0,021	-0,142
-574,963	115,153	-0,119	-0,108
-573,948	800,000	-0,031	0,096
-572,934	-70,791	-0,055	0,015
-571,919	-102,452	-0,100	-0,018
-570,904	-200,000	-0,005	-0,127
-569,890	14,124	0,077	0,044
-568,875	-36,410	0,046	-0,018
-567,861	188,747	0,118	0,131
-566,846	382,138	0,088	0,134
-565,831	-200,000	-0,034	-0,119
-564,817	-200,000	-0,005	0,044
-563,802	-70,248	-0,027	0,008
-562,788	-15,671	0,079	-0,037
-561,773	65,989	-0,141	0,105
-560,758	-200,000	0,000	0,099
-559,744	205,774	-0,045	-0,052
-558,729	65,549	-0,118	-0,089
-557,715	-200,000	0,002	-0,014
-556,700	43,361	-0,043	-0,029
-555,685	-10,294	-0,022	-0,011
-554,671	-73,634	0,115	-0,031
-553,656	151,013	0,028	0,028
-552,642	590,936	-0,059	0,109
-551,627	-105,286	-0,087	-0,015
-550,612	-47,043	0,062	0,022
-549,598	216,383	-0,030	-0,035
-548,583	-200,000	0,000	-0,036
-547,569	278,607	0,064	0,084
-546,554	521,205	-0,066	-0,115
-545,539	62,489	-0,072	0,053
-544,525	280,070	-0,141	0,187
-543,510	293,937	0,067	-0,091
-542,496	800,000	-0,048	-0,155
-541,481	-97,201	-0,116	-0,022
-540,466	-35,967	-0,072	0,029
-539,452	-200,000	-0,010	0,155
-538,437	-41,573	-0,032	-0,012
-537,423	239,489	-0,072	-0,089
-536,408	800,000	-0,017	0,040
-535,393	192,463	0,055	0,062
-534,379	336,787	-0,016	-0,023
-533,364	56,214	0,061	0,043
-532,350	-200,000	-0,006	0,051
-531,335	-200,000	0,008	0,094
-530,321	-200,000	-0,036	0,199
-529,306	5,796	-0,031	-0,017
-528,291	95,860	-0,124	-0,105
-527,277	134,962	-0,018	0,017
-526,262	-200,000	0,011	-0,106
-525,248	-200,000	-0,006	0,035
-524,233	264,162	0,055	0,071
-523,218	-19,107	-0,011	0,005
-522,204	-200,000	0,030	-0,184
-521,189	800,000	0,057	-0,132
-520,175	-192,919	-0,089	-0,001
-519,160	-200,000	-0,007	0,113
-518,145	23,580	0,053	0,032
-517,131	83,599	-0,131	0,106
-516,116	-170,137	-0,145	-0,004
-515,102	385,884	-0,056	-0,085
-514,087	-200,000	0,014	-0,065
-513,072	800,000	0,023	0,064
-512,058	-18,205	0,052	0,024
-511,043	-43,301	-0,073	-0,027
-510,029	1,174	0,073	0,039
-509,014	-58,081	-0,104	0,033
-507,999	-200,000	-0,056	0,190
-506,985	624,093	-0,062	0,115
-505,970	21,614	-0,076	-0,045
-504,956	-154,193	0,033	0,002
-503,941	-76,647	-0,132	-0,034
-502,926	472,032	-0,022	0,036
-501,912	-69,878	0,160	-0,045
-500,897	800,000	-0,037	0,107
-499,883	-99,669	0,104	-0,019
-498,868	296,988	0,041	-0,055
-497,853	-55,657	0,146	0,048
-496,839	800,000	0,009	-0,019
-495,824	-200,000	0,003	-0,018
-494,810	162,121	0,140	0,144
-493,795	-200,000	0,019	0,077
-492,781	-92,492	-0,153	-0,031
-491,766	-126,401	0,031	-0,003
-490,751	-6,811	-0,112	-0,056
-489,737	-151,483	-0,074	0,004
-488,722	601,586	0,053	0,097
-487,708	529,263	-0,067	-0,118
-486,693	122,336	-0,079	0,073
-485,678	-200,000	-0,004	-0,089
-484,664	57,826	-0,110	0,079
-483,649	409,878	-0,060	-0,094
-482,635	178,508	0,117	0,126
-481,620	800,000	0,012	-0,038
-480,605	424,181	-0,031	0,049
-479,591	-48,329	0,039	0,014
-478,576	55,207	0,089	-0,063
-477,562	-200,000	-0,032	-0,186
-476,547	85,340	-0,097	-0,078
-475,532	156,350	-0,111	-0,113
-474,518	-200,000	-0,027	0,102
-473,503	-7,324	0,062	0,031
-472,489	-58,707	-0,024	0,008
-471,474	-87,897	0,095	-0,021
-470,459	444,348	0,091	-0,148
-469,445	315,573	0,021	-0,030
-468,430	-200,000	0,017	0,112
-467,416	-200,000	-0,024	-0,117
-466,401	-7,844	0,052	-0,026
-465,386	161,097	-0,031	0,032
-464,372	-16,174	0,039	-0,018
-463,357	-143,453	-0,050	-0,003
-462,343	-200,000	-0,033	-0,121
-461,328	170,981	0,020	-0,021
-460,313	-200,000	0,007	0,075
-459,299	742,140	0,057	-0,113
-458,284	160,189	0,030	-0,031
-457,270	-23,720	0,098	-0,043
-456,255	-62,911	-0,066	0,020
-455,241	-200,000	-0,014	-0,064
-454,226	-169,012	-0,056	-0,002
-453,211	108,721	-0,028	-0,025
-452,197	513,941	-0,058	-0,101
-451,182	-200,000	-0,001	-0,067
-450,168	53,586	0,080	0,056
-449,153	180,233	-0,059	0,064
-448,138	555,549	-0,036	0,064
-447,124	269,752	0,048	-0,062
-446,109	84,151	-0,048	-0,038
-445,095	-151,586	0,096	0,005
-444,080	-200,000	-0,012	-0,113
-443,065	-200,000	0,019	-0,069
-442,051	-200,000	0,025	0,112
-441,036	-200,000	-0,047	-0,201
-440,022	-83,108	-0,023	0,005
-439,007	-60,176	0,129	0,040
-437,992	36,990	0,100	0,065
-436,978	-106,403	-0,092	-0,015
-435,963	130,361	-0,132	0,125
-434,949	-200,000	-0,021	0,097
-433,934	188,002	-0,038	-0,042
-432,919	-200,000	-0,029	-0,117
-431,905	800,000	0,015	-0,045
-430,890	8,488	0,066	0,036
-429,876	135,102	-0,054	0,052
-428,861	-200,000	0,002	0,093
-427,846	-200,000	-0,007	-0,099
-426,832	800,000	0,031	0,082
-425,817	-28,942	0,065	0,027
-424,803	-200,000	0,021	0,102
-423,788	-12,465	0,076	-0,036
-422,773	85,835	0,064	0,052
-421,759	35,122	0,033	-0,021
-420,744	730,925	-0,024	-0,048
-419,730	453,236	0,034	0,056
-418,715	78,969	0,058	0,046
-417,701	174,233	0,058	0,062
-416,686	800,000	0,027	0,071
-415,671	-154,219	-0,055	-0,003
-414,657	631,147	0,044	0,083
-413,642	293,755	-0,056	-0,075
-412,628	127,232	-0,108	-0,100
-411,613	120,960	0,129	-0,118
-410,598	-200,000	-0,007	-0,124
-409,584	-152,349	-0,064	-0,003
-408,569	-143,322	0,069	-0,005
-407,555	-104,537	-0,036	0,006
-406,540	14,796	0,027	0,016
-405,525	-26,970	-0,006	-0,002
-404,511	335,147	-0,037	0,052
-403,496	-200,000	-0,019	-0,082
-402,482	10,161	0,070	0,039
-401,467	-200,000	0,005	0,057
-400,452	85,426	0,103	0,083
-399,438	-88,936	0,187	0,040
-398,423	148,331	0,069	-0,068
-397,409	-105,461	0,078	-0,013
-396,394	-200,000	0,018	0,079
-395,379	-22,812	0,024	-0,011
-394,365	-75,491	-0,092	0,024
-393,350	-200,000	-0,020	0,076
-392,336	57,694	-0,082	-0,059
-391,321	406,525	-0,091	-0,142
-390,306	-200,000	-0,020	-0,080
-389,292	-56,190	0,035	-0,011
-388,277	217,613	-0,082	0,096
-387,263	4,711	0,037	-0,020
-386,248	-200,000	-0,008	-0,066
-385,233	-200,000	0,003	0,127
-384,219	89,199	-0,106	0,087
-383,204	98,228	-0,091	-0,077
-382,190	121,171	0,056	0,051
-381,175	-200,000	0,012	0,141
-380,160	-13,884	0,098	-0,046
-379,146	18,384	0,051	0,030
-378,131	-34,634	0,116	0,046
-377,117	338,878	-0,035	0,051
-376,102	-200,000	-0,012	-0,053
-375,088	-172,700	0,139	-0,003
-374,073	-200,000	0,014	-0,125
-373,058	-161,045	0,089	-0,003
-372,044	-200,000	0,052	0,172
-371,029	-93,255	0,075	0,015
-370,015	800,000	-0,030	0,077
-369,000	-200,000	-0,002	0,067
-367,985	469,261	0,056	-0,092
-366,971	253,763	-0,065	-0,082
-365,956	437,854	0,010	-0,015
-364,942	89,486	0,107	0,088
-363,927	257,177	-0,051	-0,064
-362,912	-200,000	0,011	0,052
-361,898	384,938	0,039	-0,059
-360,883	-56,822	-0,072	0,023
-359,869	-200,000	-0,001	-0,030
-358,854	72,353	0,119	-0,091
-357,839	262,103	0,093	0,118
-356,825	-12,568	-0,070	0,033
-355,810	-200,000	0,020	0,099
-354,796	800,000	-0,021	-0,069
-353,781	-200,000	0,035	0,215
-352,766	28,923	-0,065	0,040
-351,752	-8,158	-0,061	0,030
-350,737	3,681	0,148	-0,079
-349,723	-142,819	0,054	-0,004
-348,708	510,048	0,072	0,122
-347,693	352,574	0,092	0,134
-346,679	565,607	0,014	-0,026
-345,664	24,773	-0,052	-0,032
-344,650	-106,138	-0,070	-0,011
-343,635	192,713	0,109	0,121
-342,620	-82,119	-0,047	0,011
-341,606	800,000	0,042	-0,095
-340,591	-200,000	0,012	0,042
-339,577	186,366	-0,095	-0,104
-338,562	19,926	0,054	-0,032
-337,548	-200,000	0,003	-0,067
-336,533	204,077	-0,008	0,009
-335,518	153,630	-0,031	-0,031
-334,504	-87,424	-0,063	-0,014
-333,489	9,520	0,089	0,049
-332,475	128,930	0,027	-0,025
-331,460	42,525	-0,067	-0,045
-330,445	-49,563	-0,055	0,019
-329,431	68,153	-0,079	0,059
-328,416	-200,000	0,011	0,085
-327,402	-200,000	-0,024	0,088
-326,387	546,082	0,085	-0,150
-325,372	-200,000	-0,005	-0,063
-324,358	-52,489	-0,042	0,014
-323,343	-76,382	0,120	-0,031
-322,329	-200,000	-0,026	0,093
-321,314	-10,581	0,060	0,029
-320,299	800,000	0,054	0,158
-319,285	-102,620	0,132	0,023
-318,270	-77,126	-0,084	-0,021
-317,256	83,080	0,027	-0,021
-316,241	230,438	0,041	-0,049
-315,226	115,306	0,022	0,020
-314,212	-200,000	0,035	-0,000
-313,197	-152,351	0,032	-0,002
-312,183	-200,000	0,014	0,048
-311,168	247,721	-0,031	0,038
-310,153	128,953	-0,047	-0,044
-309,139	-200,000	-0,014	-0,051
-308,124	-200,000	-0,001	-0,084
-307,110	800,000	0,032	-0,086
-306,095	-107,458	0,136	0,022
-305,080	140,862	0,089	0,087
-304,066	149,842	-0,075	0,075
-303,051	293,675	-0,022	0,030
-302,037	224,084	-0,048	-0,057
-301,022	49,685	0,060	0,042
-300,008	406,083	0,056	0,087
-298,993	397,661	0,078	0,119
-297,978	-36,413	0,105	-0,041
-296,964	-200,000	0,008	-0,053
-295,949	-200,000	0,043	-0,000
-294,935	449,330	0,063	0,101
-293,920	114,149	-0,032	-0,029
-292,905	80,645	0,094	0,074
-291,891	800,000	0,011	0,034
-290,876	563,384	-0,012	0,021
-289,862	510,032	-0,034	-0,058
-288,847	-112,462	-0,067	0,010
-287,832	21,558	-0,029	0,017
-286,818	-200,000	-0,016	-0,057
-285,803	-9,440	0,074	0,036
-284,789	-200,000	0,010	0,058
-283,774	102,806	0,087	-0,074
-282,759	-200,000	-0,002	0,106
-281,745	800,000	0,024	-0,052
-280,730	800,000	0,006	-0,017
-279,716	800,000	0,027	-0,079
-278,701	193,842	-0,057	-0,063
-277,686	800,000	-0,024	-0,069
-276,672	103,691	0,108	0,093
-275,657	-87,264	-0,053	0,012
-274,643	412,373	0,035	-0,055
-273,628	800,000	-0,024	0,051
-272,613	-200,000	-0,013	-0,042
-271,599	528,012	0,052	0,090
-270,584	85,185	0,080	0,064
-269,570	-200,000	-0,008	0,138
-268,555	40,428	0,105	0,069
-267,540	22,603	-0,115	0,069
-266,526	-80,521	-0,024	0,006
-265,511	-54,266	0,091	0,030
-264,497	800,000	0,040	-0,113
-263,482	-92,359	-0,090	0,018
-262,467	372,084	0,028	0,042
-261,453	-68,674	0,087	-0,025
-260,438	-200,000	0,006	0,071
-259,424	41,485	-0,171	-0,113
-258,409	-102,387	-0,080	-0,014
-257,395	129,957	-0,063	0,059
-256,380	-200,000	0,033	0,187
-255,365	-61,425	0,033	0,010
-254,351	24,779	-0,069	-0,042
-253,336	62,480	0,117	-0,085
-252,322	-200,000	-0,012	-0,078
-251,307	-200,000	0,016	-0,128
-250,292	373,928	0,009	-0,013
-249,278	-39,371	-0,071	0,027
-248,263	-200,000	-0,033	0,180
-247,249	-200,000	0,003	0,143
-246,234	-200,000	-0,007	0,043
-245,219	204,889	-0,098	-0,111
-244,205	55,568	-0,110	0,077
-243,190	-200,000	-0,015	0,115
-242,176	-200,000	0,015	0,052
-241,161	800,000	-0,027	0,070
-240,146	-187,849	-0,109	-0,001
-239,132	591,630	-0,047	0,085
-238,117	102,225	0,046	-0,039
-237,103	-200,000	-0,012	-0,154
-236,088	478,272	0,020	-0,032
-235,073	-200,000	0,007	-0,157
-234,059	-200,000	-0,002	0,033
-233,044	164,075	0,050	0,052
-232,030	-141,709	-0,119	0,009
-231,015	-200,000	-0,022	-0,103
-230,000	-64,044	-0,103	0,030
-228,986	800,000	-0,040	0,114
-227,971	279,418	-0,049	0,063
-226,957	-40,946	0,065	0,024
-225,942	-88,327	0,051	-0,011
-224,927	-129,237	-0,172	0,017
-223,913	800,000	0,033	-0,068
-222,898	197,017	-0,106	-0,118
-221,884	495,931	-0,089	-0,150
-220,869	54,806	0,120	0,085
-219,855	210,775	-0,056	0,065
-218,840	116,887	-0,085	0,076
-217,825	-140,489	0,112	0,008
-216,811	-200,000	0,004	-0,037
-215,796	800,000	0,027	-0,059
-214,782	11,542	-0,062	0,034
-213,767	-200,000	-0,044	0,212
-212,752	39,168	0,062	-0,041
-211,738	295,901	-0,040	0,053
-210,723	60,987	-0,028	0,021
-209,709	-137,508	-0,050	-0,004
-208,694	51,791	0,058	-0,040
-207,679	262,518	0,045	-0,057
-206,665	6,201	0,105	0,057
-205,650	94,431	0,108	0,090
-204,636	-74,015	0,056	-0,015
-203,621	-50,258	0,094	-0,032
-202,606	443,374	0,050	-0,080
-201,592	242,016	0,084	-0,102
-200,577	462,507	-0,092	-0,151
-199,563	87,777	-0,037	-0,030
-198,548	-122,507	0,072	0,008
-197,533	65,454	-0,105	0,077
-196,519	800,000	-0,003	0,008
-195,504	399,448	-0,050	-0,076
-194,490	-128,893	0,004	-0,000
-193,475	-200,000	-0,023	0,097
-192,460	-148,826	0,130	0,008
-191,446	50,085	-0,025	-0,017
-190,431	347,627	0,049	-0,070
-189,417	800,000	-0,017	-0,043
-188,402	205,895	-0,071	-0,081
-187,387	800,000	-0,046	-0,099
-186,373	178,455	0,067	-0,072
-185,358	75,747	-0,122	-0,094
-184,344	-146,732	0,022	0,001
-183,329	-72,525	-0,096	0,026
-182,315	-200,000	-0,001	0,024
-181,300	-73,510	0,068	-0,018
-180,285	-86,445	0,091	-0,020
-179,271	-93,650	-0,026	0,005
-178,256	694,493	-0,030	-0,058
-177,242	-200,000	-0,029	-0,098
-176,227	340,149	0,074	0,105
-175,212	-129,960	0,061	0,006
-174,198	-79,054	-0,109	-0,027
-173,183	64,677	-0,053	-0,039
-172,169	143,187	-0,084	-0,081
-171,154	-0,903	-0,036	0,018
-170,139	-157,677	0,124	0,005
-169,125	-176,069	0,117	-0,002
-168,110	800,000	-0,028	0,079
-167,096	-92,025	0,106	0,022
-166,081	-59,092	0,075	-0,023
-165,066	-53,268	-0,054	-0,018
-164,052	-123,035	-0,148	0,017
-163,037	117,217	0,070	0,063
-162,023	-200,000	-0,009	0,040
-161,008	283,323	-0,045	0,059
-159,993	-4,585	0,079	0,039
-158,979	800,000	-0,031	-0,084
-157,964	800,000	-0,040	-0,110
-156,950	47,734	-0,040	0,027
-155,935	-200,000	0,026	-0,110
-154,920	-200,000	-0,010	0,064
-153,906	226,777	-0,036	-0,043
-152,891	214,278	-0,093	-0,108
-151,877	164,618	0,042	-0,044
-150,862	-200,000	0,022	-0,098
-149,847	-111,284	0,099	-0,015
-148,833	800,000	0,031	0,075
-147,818	40,856	-0,129	0,085
-146,804	-200,000	0,028	0,108
-145,789	55,775	-0,060	-0,042
-144,775	397,346	-0,056	-0,085
-143,760	72,493	-0,146	0,110
-142,745	-126,604	0,032	0,003
-141,731	-118,304	0,156	0,020
-140,716	265,653	-0,007	-0,009
-139,702	-200,000	0,018	0,096
-138,687	-54,113	-0,039	-0,013
-137,672	503,942	-0,091	0,153
-136,658	14,658	0,096	-0,054
-135,643	278,642	-0,079	-0,103
-134,629	-69,540	0,083	0,023
-133,614	-200,000	0,033	-0,112
-132,599	-200,000	-0,010	0,053
-131,585	-160,494	-0,079	0,003
-130,570	734,816	0,022	-0,042
-129,556	-7,982	-0,093	-0,045
-128,541	13,593	0,040	0,022
-127,526	-17,124	-0,091	-0,041
-126,512	455,660	0,119	0,192
-125,497	-16,548	0,123	0,056
-124,483	-200,000	0,014	0,092
-123,468	800,000	-0,017	0,052
-122,453	-200,000	0,021	0,146
-121,439	463,342	-0,043	-0,070
-120,424	-200,000	-0,018	-0,172
-119,410	209,664	-0,039	0,045
