DTS Sentinel unit serial number:	SN410029Multiplexer serial number:	ORYXHardware model number:	OX2-SRSoftware version number:	ORYX F/W v4,00 Oryx Data Collector v3.7.2.0data status	okinstallation	B6 Nyhavnadifferential loss correction	single-endedforward channel	channel 2reverse channel	N/Adate	2023/12/11time	03:50:08forward acquisition time	300,00reverse acquisition time	0,00gamma	499,1914k internal	0,3125k external	0,3125temperature offset calibration	1,0000default loss term (dB/km)	0,3820temperature slope calibration	1,0000multiplexer offset coefficient	1,0000multiplexer slope coefficient	1,0000fibre end	0,00T internal ref (°C)	20,94T ext. ref 1 (°C)	3,68T ext. ref 2 (°C)	3,70length (m)	temperature (°C)	Stokes	anti-Stokes-744,400	130,071	-0,075	-0,071
-743,385	-83,895	-0,259	0,061
-742,371	-47,875	0,142	-0,051
-741,356	62,823	-0,196	0,146
-740,342	78,290	0,080	0,064
-739,327	102,332	-0,115	0,100
-738,312	433,660	-0,017	0,028
-737,298	-39,236	-0,225	-0,087
-736,283	399,743	0,030	-0,046
-735,269	-46,895	-0,369	0,134
-734,254	-200,000	-0,003	-0,016
-733,239	24,650	-0,318	-0,195
-732,225	150,555	0,045	-0,046
-731,210	119,516	0,004	0,004
-730,196	800,000	0,020	-0,052
-729,181	-14,382	-0,113	-0,054
-728,167	800,000	-0,090	-0,186
-727,152	501,026	-0,068	0,118
-726,137	-78,484	0,026	0,007
-725,123	17,357	-0,147	-0,087
-724,108	433,826	-0,066	-0,107
-723,094	-28,564	-0,185	-0,079
-722,079	-193,076	-0,151	-0,001
-721,064	127,788	0,064	0,061
-720,050	72,754	0,063	-0,049
-719,035	800,000	-0,015	0,036
-718,021	-22,496	0,033	0,015
-717,006	156,368	-0,124	-0,128
-715,991	37,796	-0,142	-0,094
-714,977	119,038	0,042	-0,039
-713,962	414,764	-0,076	0,121
-712,948	-0,837	-0,127	0,067
-711,933	18,038	-0,062	-0,037
-710,918	490,098	-0,024	-0,041
-709,904	-63,013	-0,092	0,028
-708,889	800,000	-0,026	0,065
-707,875	-174,310	-0,087	-0,002
-706,860	-64,461	-0,062	0,018
-705,845	-5,905	-0,059	0,030
-704,831	800,000	0,039	0,117
-703,816	111,214	0,084	0,075
-702,802	800,000	0,007	0,019
-701,787	-200,000	-0,021	0,160
-700,772	699,546	0,030	-0,059
-699,758	-200,000	0,032	-0,194
-698,743	-200,000	0,009	0,090
-697,729	-200,000	-0,043	-0,164
-696,714	-200,000	-0,028	-0,138
-695,699	-35,612	-0,106	-0,043
-694,685	367,567	-0,071	-0,107
-693,670	325,253	0,067	-0,096
-692,656	203,751	0,049	-0,056
-691,641	-76,698	0,132	-0,034
-690,627	-172,314	0,159	0,004
-689,612	-200,000	-0,020	0,070
-688,597	-77,356	-0,087	-0,022
-687,583	-172,562	-0,108	-0,002
-686,568	-200,000	0,016	-0,083
-685,554	50,056	0,001	0,001
-684,539	-200,000	0,016	0,148
-683,524	-200,000	0,021	0,106
-682,510	177,436	0,093	0,101
-681,495	-93,679	-0,139	-0,028
-680,481	91,066	-0,056	0,047
-679,466	800,000	-0,036	0,094
-678,451	-185,369	-0,125	-0,001
-677,437	-200,000	0,011	0,088
-676,422	-83,312	0,044	-0,010
-675,408	800,000	-0,039	0,096
-674,393	-200,000	0,015	-0,056
-673,378	-16,382	-0,071	0,033
-672,364	-200,000	-0,018	0,091
-671,349	87,648	0,063	0,052
-670,335	223,989	0,041	-0,049
-669,320	-51,618	0,016	0,006
-668,305	-63,953	0,064	0,019
-667,291	219,355	-0,082	-0,097
-666,276	47,156	-0,133	0,092
-665,262	-144,515	-0,174	-0,012
-664,247	-200,000	-0,033	-0,111
-663,232	-200,000	-0,021	-0,111
-662,218	800,000	0,035	-0,095
-661,203	170,288	-0,027	-0,029
-660,189	-200,000	-0,032	-0,153
-659,174	116,524	-0,035	0,032
-658,159	-200,000	-0,003	0,091
-657,145	-47,049	-0,067	-0,024
-656,130	53,779	0,041	-0,029
-655,116	-200,000	0,003	-0,023
-654,101	800,000	0,073	0,158
-653,086	800,000	-0,072	-0,182
-652,072	-200,000	0,017	-0,063
-651,057	425,679	-0,034	-0,054
-650,043	800,000	-0,067	-0,187
-649,028	93,198	-0,109	-0,092
-648,014	-24,607	0,013	-0,006
-646,999	-200,000	-0,017	0,099
-645,984	-151,010	0,141	-0,008
-644,970	-200,000	0,002	-0,042
-643,955	800,000	0,038	-0,080
-642,941	-200,000	-0,001	-0,074
-641,926	-200,000	0,017	-0,106
-640,911	-200,000	-0,019	0,144
-639,897	-200,000	0,003	0,080
-638,882	-174,639	0,032	-0,001
-637,868	58,836	-0,082	0,060
-636,853	332,097	0,086	-0,124
-635,838	-4,182	0,011	-0,006
-634,824	-114,492	-0,209	-0,029
-633,809	-27,386	-0,037	0,016
-632,795	800,000	0,071	0,209
-631,780	-50,165	0,197	0,069
-630,765	126,220	-0,040	-0,038
-629,751	800,000	0,080	-0,189
-628,736	800,000	0,042	-0,126
-627,722	63,501	-0,044	0,032
-626,707	800,000	0,006	-0,016
-625,692	-200,000	0,014	0,089
-624,678	38,036	-0,052	-0,034
-623,663	-200,000	0,000	0,146
-622,649	309,501	-0,034	-0,048
-621,634	-200,000	0,043	-0,255
-620,619	-0,794	0,028	-0,014
-619,605	30,399	0,057	0,036
-618,590	-13,931	0,071	-0,034
-617,576	82,641	0,119	0,096
-616,561	800,000	0,028	0,060
-615,546	-74,086	-0,035	-0,009
-614,532	195,053	-0,035	-0,039
-613,517	34,083	0,065	0,042
-612,503	-71,867	-0,057	0,016
-611,488	-94,004	-0,044	-0,009
-610,474	-18,047	-0,079	-0,037
-609,459	-200,000	-0,012	-0,069
-608,444	254,538	-0,017	0,021
-607,430	56,360	-0,088	-0,063
-606,415	-88,145	-0,048	-0,011
-605,401	-52,766	0,070	0,024
-604,386	-128,537	0,097	0,010
-603,371	-18,970	-0,101	0,046
-602,357	-132,503	0,070	-0,007
-601,342	800,000	-0,053	-0,143
-600,328	745,827	-0,025	-0,050
-599,313	-200,000	-0,015	-0,104
-598,298	-21,296	-0,244	-0,110
-597,284	741,369	0,055	0,111
-596,269	-200,000	-0,009	0,070
-595,255	800,000	-0,005	-0,017
-594,240	800,000	-0,017	-0,043
-593,225	-200,000	-0,001	-0,023
-592,211	800,000	-0,027	-0,062
-591,196	-159,622	-0,010	-0,000
-590,182	-48,770	-0,147	-0,052
-589,167	-200,000	0,006	0,023
-588,152	-200,000	-0,015	0,119
-587,138	-200,000	-0,009	-0,110
-586,123	800,000	-0,027	0,071
-585,109	32,465	-0,090	0,058
-584,094	53,181	0,086	0,061
-583,079	-6,945	-0,089	-0,044
-582,065	-153,971	0,070	0,003
-581,050	149,802	-0,062	0,062
-580,036	66,461	0,087	0,066
-579,021	800,000	0,027	0,064
-578,006	-37,759	-0,102	-0,040
-576,992	-200,000	-0,009	-0,054
-575,977	800,000	0,064	0,166
-574,963	158,254	-0,140	0,144
-573,948	-200,000	0,026	0,178
-572,934	-51,033	-0,068	0,024
-571,919	-200,000	0,005	-0,077
-570,904	320,297	-0,107	-0,151
-569,890	252,439	0,087	-0,110
-568,875	575,763	-0,007	0,012
-567,861	-6,241	0,034	-0,017
-566,846	265,786	-0,032	-0,042
-565,831	-200,000	-0,009	-0,048
-564,817	153,704	-0,046	-0,046
-563,802	58,482	0,096	-0,069
-562,788	-200,000	-0,015	-0,149
-561,773	359,045	-0,032	0,047
-560,758	-68,042	0,122	-0,035
-559,744	-16,922	-0,047	-0,022
-558,729	-200,000	-0,014	0,063
-557,715	-4,448	0,046	0,023
-556,700	67,338	0,029	0,022
-555,685	50,114	0,112	-0,078
-554,671	-200,000	0,015	-0,141
-553,656	-0,082	-0,094	0,049
-552,642	800,000	-0,033	0,091
-551,627	800,000	0,034	0,083
-550,612	-200,000	-0,004	0,026
-549,598	303,328	-0,040	-0,054
-548,583	800,000	-0,033	-0,095
-547,569	177,864	0,049	0,053
-546,554	88,048	0,043	-0,035
-545,539	8,521	0,042	0,024
-544,525	-200,000	0,000	-0,039
-543,510	421,782	0,073	-0,116
-542,496	800,000	-0,028	-0,076
-541,481	-113,261	0,014	0,002
-540,466	-68,594	0,171	0,049
-539,452	-177,096	-0,042	-0,001
-538,437	-51,964	0,058	0,020
-537,423	43,006	0,030	-0,020
-536,408	575,472	0,039	-0,071
-535,393	-27,905	0,151	-0,064
-534,379	-52,487	-0,174	0,059
-533,364	649,418	0,063	0,120
-532,350	-20,197	0,079	0,036
-531,335	800,000	-0,052	0,109
-530,321	5,098	-0,072	0,039
-529,306	-200,000	0,002	-0,013
-528,291	-200,000	0,013	-0,081
-527,277	26,298	0,052	-0,032
-526,262	605,182	0,050	0,093
-525,248	41,159	-0,100	0,067
-524,233	-21,866	0,123	0,055
-523,218	800,000	0,025	0,080
-522,204	-24,715	0,026	0,011
-521,189	86,994	-0,075	0,062
-520,175	113,345	-0,083	-0,074
-519,160	-200,000	0,008	0,048
-518,145	141,642	0,118	-0,115
-517,131	10,761	0,058	-0,032
-516,116	242,375	-0,033	-0,040
-515,102	590,261	0,033	0,061
-514,087	-45,804	-0,098	-0,035
-513,072	43,680	-0,023	-0,016
-512,058	-142,715	-0,013	-0,001
-511,043	142,958	0,030	0,029
-510,029	-80,155	0,074	-0,018
-509,014	690,181	-0,024	-0,047
-507,999	139,991	-0,117	0,114
-506,985	27,574	-0,064	0,040
-505,970	-200,000	0,029	-0,169
-504,956	800,000	0,024	-0,058
-503,941	-39,962	0,089	0,034
-502,926	209,219	-0,032	-0,037
-501,912	-152,598	0,035	-0,002
-500,897	-200,000	-0,005	-0,085
-499,883	-200,000	-0,028	-0,110
-498,868	-123,599	-0,044	0,005
-497,853	-66,001	0,050	0,015
-496,839	-200,000	0,005	0,101
-495,824	-200,000	0,021	0,073
-494,810	800,000	0,006	-0,013
-493,795	-200,000	0,040	0,189
-492,781	421,417	0,089	-0,141
-491,766	62,398	0,044	-0,032
-490,751	19,391	0,036	-0,021
-489,737	800,000	-0,013	0,034
-488,722	421,394	-0,077	0,122
-487,708	80,592	-0,046	0,037
-486,693	-15,091	0,123	0,058
-485,678	-200,000	-0,012	0,136
-484,664	21,285	-0,100	0,060
-483,649	-200,000	-0,021	-0,078
-482,635	800,000	-0,043	-0,115
-481,620	252,187	0,075	0,095
-480,605	140,384	-0,086	0,084
-479,591	-49,181	0,017	0,006
-478,576	800,000	0,023	0,056
-477,562	589,935	-0,027	-0,049
-476,547	800,000	-0,023	-0,071
-475,532	800,000	-0,016	0,049
-474,518	-200,000	0,007	0,044
-473,503	21,458	0,092	0,055
-472,489	-97,390	-0,109	-0,021
-471,474	235,926	0,036	-0,043
-470,459	-200,000	0,006	-0,039
-469,445	800,000	-0,016	-0,044
-468,430	-200,000	0,021	-0,094
-467,416	74,105	-0,046	-0,036
-466,401	50,779	0,109	0,076
-465,386	114,963	-0,043	0,039
-464,372	456,111	0,044	0,073
-463,357	118,603	-0,134	0,122
-462,343	-200,000	-0,015	0,129
-461,328	800,000	0,048	0,149
-460,313	610,596	0,064	-0,119
-459,299	242,958	0,047	0,058
-458,284	-200,000	-0,000	0,215
-457,270	-200,000	0,004	-0,036
-456,255	593,903	-0,033	-0,061
-455,241	800,000	-0,021	-0,060
-454,226	-161,776	-0,053	-0,002
-453,211	214,976	0,040	0,047
-452,197	-185,006	0,029	-0,000
-451,182	-62,310	-0,073	0,022
-450,168	800,000	0,062	-0,167
-449,153	295,883	-0,025	0,034
-448,138	-85,379	-0,072	-0,016
-447,124	-12,225	-0,094	-0,045
-446,109	-200,000	0,008	-0,044
-445,095	74,564	0,083	-0,064
-444,080	-200,000	0,006	0,074
-443,065	-104,995	0,103	-0,017
-442,051	-200,000	-0,012	-0,169
-441,036	225,248	-0,073	-0,087
-440,022	-200,000	-0,008	-0,033
-439,007	-200,000	0,002	0,116
-437,992	14,434	-0,136	0,078
-436,978	-200,000	-0,001	-0,067
-435,963	800,000	0,015	0,032
-434,949	-198,646	-0,058	0,000
-433,934	31,913	-0,176	-0,111
-432,919	107,929	-0,033	0,029
-431,905	48,473	-0,020	0,014
-430,890	-16,473	0,128	0,060
-429,876	-141,969	-0,103	0,007
-428,861	-200,000	-0,007	0,202
-427,846	-81,283	0,068	-0,016
-426,832	161,578	-0,097	0,100
-425,817	553,431	-0,041	-0,074
-424,803	800,000	-0,033	-0,094
-423,788	39,303	0,027	0,018
-422,773	-121,907	-0,049	-0,006
-421,759	339,047	-0,091	-0,131
-420,744	800,000	-0,010	0,026
-419,730	-3,941	-0,083	-0,042
-418,715	92,364	-0,175	-0,145
-417,701	-36,458	0,043	-0,017
-416,686	800,000	-0,022	-0,045
-415,671	-200,000	0,013	0,053
-414,657	-200,000	0,001	0,112
-413,642	800,000	0,033	-0,108
-412,628	800,000	-0,018	-0,054
-411,613	473,398	-0,039	0,065
-410,598	97,747	-0,063	-0,053
-409,584	548,403	0,054	0,095
-408,569	-200,000	0,001	0,075
-407,555	800,000	-0,020	0,058
-406,540	558,721	0,030	0,054
-405,525	-200,000	-0,018	0,109
-404,511	313,737	0,045	-0,063
-403,496	324,546	0,055	-0,078
-402,482	-78,747	0,068	0,017
-401,467	-200,000	0,014	-0,056
-400,452	-200,000	-0,014	0,179
-399,438	-41,880	0,087	0,033
-398,423	522,199	0,026	-0,045
-397,409	143,975	-0,112	0,109
-396,394	-110,457	0,111	0,017
-395,379	-69,042	0,132	-0,037
-394,365	17,591	0,075	0,044
-393,350	800,000	0,037	0,088
-392,336	12,040	0,041	0,023
-391,321	-200,000	0,013	-0,057
-390,306	-200,000	-0,026	0,086
-389,292	800,000	-0,086	-0,185
-388,277	-17,134	0,103	0,047
-387,263	-200,000	-0,005	0,071
-386,248	0,724	0,141	0,074
-385,233	386,997	0,064	0,098
-384,219	170,335	0,012	-0,012
-383,204	-200,000	-0,008	-0,151
-382,190	535,848	-0,007	0,012
-381,175	-20,983	-0,107	-0,048
-380,160	-138,697	0,173	0,014
-379,146	800,000	0,083	0,197
-378,131	-90,571	-0,100	0,021
-377,117	285,247	-0,088	0,116
-376,102	24,421	0,063	-0,038
-375,088	800,000	-0,038	-0,079
-374,073	99,881	0,070	-0,059
-373,058	541,063	-0,088	-0,155
-372,044	83,808	0,116	-0,093
-371,029	-200,000	-0,015	0,072
-370,015	-101,864	-0,126	0,022
-369,000	-80,226	0,078	0,019
-367,985	38,314	-0,065	0,042
-366,971	-30,833	-0,094	0,039
-365,956	107,715	-0,117	0,102
-364,942	190,505	0,033	0,037
-363,927	109,680	0,045	0,040
-362,912	-4,482	-0,088	0,044
-361,898	723,916	-0,047	-0,093
-360,883	800,000	0,014	-0,037
-359,869	426,412	-0,060	-0,095
-358,854	-154,883	0,068	0,003
-357,839	290,718	-0,106	0,142
-356,825	35,819	-0,016	0,010
-355,810	-200,000	-0,004	0,038
-354,796	-91,820	0,084	-0,017
-353,781	-200,000	0,008	-0,117
-352,766	36,935	-0,093	-0,060
-351,752	576,285	0,048	-0,086
-350,737	460,582	-0,058	0,095
-349,723	-200,000	0,048	0,169
-348,708	-200,000	-0,019	0,140
-347,693	29,818	0,149	-0,093
-346,679	-125,971	0,091	0,010
-345,664	-166,152	-0,086	0,003
-344,650	60,319	-0,212	-0,154
-343,635	-132,087	0,041	-0,004
-342,620	-100,209	-0,027	0,005
-341,606	-5,120	-0,017	-0,009
-340,591	625,310	0,023	-0,042
-339,577	-200,000	0,000	0,002
-338,562	340,022	0,057	0,081
-337,548	532,951	-0,012	-0,021
-336,533	-200,000	0,004	0,054
-335,518	290,320	-0,033	-0,044
-334,504	168,353	0,048	0,050
-333,489	352,122	-0,020	0,029
-332,475	76,492	0,016	0,013
-331,460	800,000	0,023	-0,052
-330,445	800,000	-0,044	-0,121
-329,431	234,790	0,016	0,020
-328,416	-6,066	0,074	0,037
-327,402	140,737	-0,071	0,069
-326,387	800,000	-0,038	-0,119
-325,372	208,077	-0,065	-0,074
-324,358	-200,000	-0,011	-0,044
-323,343	-200,000	-0,004	-0,078
-322,329	-54,011	-0,062	-0,021
-321,314	-15,924	0,163	0,076
-320,299	57,335	-0,135	0,096
-319,285	31,982	0,086	0,054
-318,270	-39,453	-0,018	0,007
-317,256	201,841	-0,083	-0,094
-316,241	129,433	-0,064	-0,060
-315,226	278,562	-0,047	0,061
-314,212	-142,360	0,065	0,005
-313,197	-9,815	0,133	0,065
-312,183	-61,136	-0,045	0,014
-311,168	-87,889	0,032	-0,007
-310,153	403,241	-0,061	-0,094
-309,139	-200,000	0,008	-0,099
-308,124	392,713	-0,029	0,044
-307,110	-200,000	-0,001	0,109
-306,095	-134,009	0,079	-0,007
-305,080	-130,105	-0,162	0,016
-304,066	539,685	-0,066	-0,115
-303,051	-135,500	-0,065	-0,006
-302,037	559,649	0,049	-0,088
-301,022	-94,374	0,166	0,033
-300,008	-47,048	0,020	-0,007
-298,993	167,040	0,077	-0,080
-297,978	-17,057	-0,197	-0,091
-296,964	-97,460	-0,094	-0,018
-295,949	-200,000	-0,008	0,045
-294,935	-200,000	-0,005	0,041
-293,920	-200,000	0,022	-0,078
-292,905	49,191	-0,044	-0,031
-291,891	50,360	0,082	0,057
-290,876	-162,964	0,018	-0,001
-289,862	479,064	-0,060	0,100
-288,847	382,886	-0,079	-0,119
-287,832	48,061	0,071	-0,048
-286,818	-78,229	0,044	-0,011
-285,803	800,000	0,043	0,104
-284,789	-200,000	-0,011	-0,093
-283,774	320,499	0,078	-0,109
-282,759	45,161	0,060	0,041
-281,745	262,565	0,074	0,094
-280,730	111,578	-0,088	-0,078
-279,716	-137,339	0,094	-0,008
-278,701	728,558	0,029	0,058
-277,686	-67,390	0,067	0,019
-276,672	323,550	-0,021	0,030
-275,657	-200,000	-0,009	0,160
-274,643	-90,476	0,111	0,023
-273,628	800,000	0,005	0,010
-272,613	-200,000	0,015	0,176
-271,599	-72,993	0,126	0,034
-270,584	605,398	0,014	-0,025
-269,570	800,000	0,024	-0,051
-268,555	326,369	-0,082	-0,114
-267,540	-146,665	0,019	0,001
-266,526	-40,227	-0,190	-0,072
-265,511	580,928	-0,059	0,107
-264,497	-39,907	0,133	0,050
-263,482	-58,951	-0,154	0,048
-262,467	590,717	0,057	-0,103
-261,453	800,000	-0,050	0,124
-260,438	800,000	-0,044	-0,123
-259,424	421,581	0,038	-0,059
-258,409	800,000	0,016	-0,043
-257,395	164,336	0,104	0,108
-256,380	193,503	-0,038	-0,042
-255,365	119,388	0,080	0,073
-254,351	-147,187	0,009	-0,001
-253,336	-200,000	-0,001	-0,101
-252,322	800,000	0,011	0,029
-251,307	-200,000	0,002	-0,056
-250,292	-86,145	0,101	-0,023
-249,278	-118,157	0,215	0,028
-248,263	598,513	0,054	0,098
-247,249	601,124	0,058	-0,105
-246,234	-125,219	-0,045	0,005
-245,219	-200,000	0,002	-0,056
-244,205	-108,439	-0,102	0,016
-243,190	366,650	0,027	-0,040
-242,176	800,000	-0,049	0,122
-241,161	-200,000	0,050	0,172
-240,146	-56,317	0,096	-0,031
-239,132	-157,939	-0,077	-0,003
-238,117	-65,855	-0,046	0,013
-237,103	-200,000	-0,005	0,086
-236,088	-171,841	-0,218	0,005
-235,073	-63,162	0,096	-0,029
-234,059	-144,378	-0,016	0,001
-233,044	-90,872	-0,107	-0,022
-232,030	118,750	-0,130	-0,117
-231,015	-200,000	-0,039	-0,215
-230,000	-7,410	-0,063	0,031
-228,986	12,385	0,027	-0,015
-227,971	-200,000	0,029	-0,120
-226,957	-55,214	0,178	0,058
-225,942	-200,000	-0,035	0,168
-224,927	-200,000	-0,006	-0,027
-223,913	-162,424	-0,201	0,007
-222,898	-200,000	-0,002	0,009
-221,884	-200,000	-0,016	-0,098
-220,869	-20,184	0,096	0,043
-219,855	-200,000	0,003	-0,033
-218,840	-127,369	0,066	-0,007
-217,825	-39,508	0,074	0,028
-216,811	314,719	-0,115	-0,159
-215,796	-127,954	-0,097	0,010
-214,782	-200,000	-0,003	-0,083
-213,767	-14,530	-0,010	-0,005
-212,752	297,164	0,035	0,047
-211,738	-200,000	0,007	-0,025
-210,723	17,403	0,144	0,083
-209,709	174,582	-0,031	0,033
-208,694	-56,013	-0,158	0,051
-207,679	716,125	0,018	0,035
-206,665	223,523	0,034	-0,041
-205,650	178,023	-0,005	-0,005
-204,636	-129,478	0,079	-0,008
-203,621	-200,000	0,008	-0,027
-202,606	-200,000	0,012	0,086
-201,592	800,000	-0,052	-0,143
-200,577	-200,000	0,014	-0,208
-199,563	-39,923	-0,035	0,013
-198,548	74,552	0,017	-0,013
-197,533	-160,483	0,129	-0,005
-196,519	-200,000	-0,004	0,067
-195,504	-200,000	-0,021	-0,121
-194,490	-200,000	-0,006	0,066
-193,475	278,913	-0,075	-0,098
-192,460	371,493	-0,081	-0,121
-191,446	93,069	0,104	0,086
-190,431	-200,000	-0,036	0,121
-189,417	4,291	0,100	0,053
-188,402	-92,654	0,027	-0,005
-187,387	39,881	-0,107	-0,070
-186,373	800,000	0,011	0,033
-185,358	-37,864	0,089	-0,034
-184,344	-119,382	0,072	-0,009
-183,329	-200,000	0,028	0,145
-182,315	24,843	-0,074	-0,045
-181,300	-141,197	0,086	0,006
-180,285	174,375	-0,079	-0,083
-179,271	255,833	-0,078	-0,098
-178,256	-12,461	0,081	0,039
-177,242	198,821	0,077	0,086
-176,227	-127,280	-0,149	-0,016
-175,212	19,499	0,083	-0,048
-174,198	165,641	0,045	0,046
-173,183	260,322	-0,112	-0,142
-172,169	800,000	-0,050	-0,126
-171,154	-20,235	-0,099	0,044
-170,139	-200,000	0,009	-0,045
-169,125	124,854	0,056	0,052
-168,110	-149,511	0,089	0,005
-167,096	-157,529	0,101	0,004
-166,081	30,873	-0,058	0,036
-165,066	237,441	0,039	0,047
-164,052	107,586	-0,047	-0,041
-163,037	117,396	0,092	0,083
-162,023	-58,641	0,169	0,053
-161,008	477,466	-0,045	0,074
-159,993	800,000	-0,018	0,055
-158,979	800,000	-0,010	0,022
-157,964	-28,098	0,035	0,015
-156,950	64,247	-0,063	0,046
-155,935	643,888	0,034	0,063
-154,920	18,200	-0,023	0,013
-153,906	-200,000	-0,014	-0,053
-152,891	100,992	0,070	0,059
-151,877	-24,547	-0,021	-0,009
-150,862	-61,779	-0,067	-0,020
-149,847	-200,000	-0,014	-0,129
-148,833	73,165	0,055	0,042
-147,818	-122,746	-0,153	-0,018
-146,804	-17,887	0,173	-0,079
-145,789	21,219	-0,051	-0,030
-144,775	285,847	0,013	-0,017
-143,760	-200,000	-0,004	-0,133
-142,745	14,225	-0,109	-0,061
-141,731	-91,478	0,044	0,009
-140,716	-65,770	-0,120	0,035
-139,702	-82,744	0,168	0,039
-138,687	800,000	-0,014	0,036
-137,672	800,000	0,060	0,156
-136,658	-53,641	-0,156	0,052
-135,643	-200,000	-0,018	0,094
-134,629	-25,345	-0,048	0,021
-133,614	-157,810	0,061	-0,003
-132,599	479,542	-0,029	0,047
-131,585	-85,256	0,137	0,031
-130,570	800,000	0,004	-0,008
-129,556	487,483	-0,059	0,099
-128,541	205,143	-0,078	-0,089
-127,526	371,288	0,035	0,051
-126,512	-142,185	0,039	-0,003
-125,497	-200,000	-0,028	0,089
-124,483	-200,000	0,008	-0,059
-123,468	800,000	0,017	0,035
-122,453	-64,626	0,031	-0,009
-121,439	-200,000	0,016	0,098
-120,424	-147,736	-0,015	0,001
-119,410	-69,896	0,138	0,038
