DTS Sentinel unit serial number:	SN410029Multiplexer serial number:	ORYXHardware model number:	OX2-SRSoftware version number:	ORYX F/W v4,00 Oryx Data Collector v3.7.2.0data status	okinstallation	B6 Nyhavnadifferential loss correction	single-endedforward channel	channel 2reverse channel	N/Adate	2023/12/08time	02:35:08forward acquisition time	300,00reverse acquisition time	0,00gamma	499,1914k internal	0,3165k external	0,3165temperature offset calibration	1,0000default loss term (dB/km)	0,3820temperature slope calibration	1,0000multiplexer offset coefficient	1,0000multiplexer slope coefficient	1,0000fibre end	0,00T internal ref (°C)	13,17T ext. ref 1 (°C)	-3,70T ext. ref 2 (°C)	-3,71length (m)	temperature (°C)	Stokes	anti-Stokes-744,400	73,338	0,098	0,076
-743,385	-106,133	-0,256	0,042
-742,371	-39,486	0,233	0,090
-741,356	-57,216	-0,337	0,108
-740,342	54,424	0,109	0,077
-739,327	-158,220	-0,271	-0,011
-738,312	450,141	0,147	-0,239
-737,298	-107,200	-0,440	-0,071
-736,283	-200,000	0,001	-0,036
-735,269	-112,413	-0,198	0,029
-734,254	108,722	0,036	0,031
-733,239	-68,285	-0,546	-0,155
-732,225	28,678	0,250	0,155
-731,210	-200,000	-0,041	0,165
-730,196	-200,000	0,009	-0,039
-729,181	86,487	0,044	-0,036
-728,167	-200,000	0,000	0,080
-727,152	-170,926	-0,101	0,002
-726,137	160,473	-0,073	-0,075
-725,123	530,200	0,077	-0,135
-724,108	151,329	-0,081	-0,081
-723,094	274,229	-0,079	-0,103
-722,079	-200,000	-0,001	0,112
-721,064	78,380	0,040	0,032
-720,050	109,750	-0,041	-0,036
-719,035	321,875	-0,026	-0,036
-718,021	107,666	0,047	0,041
-717,006	39,476	-0,052	-0,034
-715,991	-200,000	0,005	-0,053
-714,977	-134,491	0,041	-0,004
-713,962	699,430	-0,040	-0,078
-712,948	-200,000	-0,021	0,078
-711,933	-15,672	-0,065	0,030
-710,918	-127,465	0,030	0,003
-709,904	-200,000	0,037	-0,122
-708,889	800,000	-0,072	-0,174
-707,875	-198,911	0,065	0,000
-706,860	-84,444	0,163	0,037
-705,845	85,196	0,091	-0,073
-704,831	-200,000	-0,006	0,116
-703,816	-11,970	-0,100	0,048
-702,802	-200,000	-0,002	0,134
-701,787	-94,210	-0,080	0,016
-700,772	-200,000	-0,017	-0,122
-699,758	800,000	0,028	0,074
-698,743	-19,161	0,078	0,036
-697,729	26,195	-0,071	0,043
-696,714	800,000	-0,010	-0,026
-695,699	-200,000	-0,002	-0,127
-694,685	594,962	-0,040	-0,072
-693,670	558,303	0,048	-0,086
-692,656	-145,815	0,054	-0,003
-691,641	-200,000	0,010	-0,096
-690,627	-82,694	-0,092	0,022
-689,612	643,895	0,084	-0,158
-688,597	-125,509	-0,026	-0,003
-687,583	22,150	-0,108	0,064
-686,568	714,883	-0,071	-0,140
-685,554	-44,037	-0,141	0,052
-684,539	-35,322	-0,058	0,023
-683,524	165,950	-0,059	0,061
-682,510	-200,000	0,002	-0,110
-681,495	-200,000	-0,007	0,120
-680,481	-64,259	0,047	-0,014
-679,466	-152,888	-0,094	-0,005
-678,451	44,003	-0,042	-0,028
-677,437	-200,000	-0,003	-0,013
-676,422	-65,476	0,034	0,010
-675,408	-79,785	0,076	0,019
-674,393	30,592	-0,018	0,011
-673,378	-34,436	-0,101	-0,040
-672,364	800,000	-0,030	-0,067
-671,349	-144,818	-0,151	-0,010
-670,335	-47,720	0,093	-0,033
-669,320	108,658	0,040	0,035
-668,305	-39,686	-0,077	-0,030
-667,291	-20,567	0,058	0,026
-666,276	-200,000	0,033	-0,128
-665,262	-200,000	0,007	-0,049
-664,247	-177,062	-0,096	0,002
-663,232	132,068	-0,081	0,076
-662,218	27,762	-0,131	0,081
-661,203	131,720	0,053	-0,050
-660,189	789,292	-0,030	-0,060
-659,174	156,388	-0,074	0,075
-658,159	800,000	0,040	0,111
-657,145	57,811	0,094	-0,068
-656,130	-200,000	-0,001	0,030
-655,116	48,048	-0,073	-0,050
-654,101	-14,333	-0,042	-0,020
-653,086	-8,625	0,082	0,040
-652,072	362,321	-0,084	-0,124
-651,057	57,404	-0,119	0,085
-650,043	-149,848	-0,052	-0,003
-649,028	-200,000	-0,008	-0,064
-648,014	-34,185	-0,054	0,022
-646,999	-64,232	-0,069	0,021
-645,984	72,339	0,065	0,050
-644,970	-200,000	-0,015	0,091
-643,955	571,636	-0,030	0,054
-642,941	800,000	-0,041	0,126
-641,926	-139,339	0,102	0,008
-640,911	800,000	-0,007	0,019
-639,897	46,994	0,022	-0,015
-638,882	-181,955	0,090	0,001
-637,868	-200,000	-0,001	0,039
-636,853	-150,745	-0,009	0,000
-635,838	800,000	0,052	-0,137
-634,824	194,075	-0,053	-0,059
-633,809	800,000	-0,032	0,069
-632,795	-200,000	-0,015	0,057
-631,780	-144,031	0,037	-0,002
-630,765	-200,000	-0,004	0,021
-629,751	-122,630	-0,159	0,019
-628,736	75,704	-0,053	-0,041
-627,722	800,000	-0,049	-0,142
-626,707	-147,731	0,126	-0,008
-625,692	77,947	-0,099	0,077
-624,678	-89,509	-0,007	0,001
-623,663	-40,299	-0,089	0,034
-622,649	800,000	-0,045	-0,138
-621,634	182,308	-0,069	-0,074
-620,619	582,150	-0,061	-0,110
-619,605	729,987	-0,036	-0,070
-618,590	19,163	-0,080	-0,047
-617,576	-200,000	0,018	0,108
-616,561	-86,690	0,045	-0,010
-615,546	800,000	0,032	-0,098
-614,532	-129,962	-0,115	-0,011
-613,517	-197,124	-0,166	-0,001
-612,503	-200,000	0,026	0,213
-611,488	-200,000	0,038	0,271
-610,474	645,298	-0,050	0,093
-609,459	37,690	-0,046	0,030
-608,444	-27,468	-0,072	-0,031
-607,430	-53,209	-0,137	-0,046
-606,415	178,878	0,053	0,057
-605,401	800,000	0,021	0,063
-604,386	-200,000	0,027	0,106
-603,371	-105,934	0,148	-0,024
-602,357	800,000	0,071	-0,175
-601,342	-0,272	0,072	0,037
-600,328	-200,000	-0,004	-0,101
-599,313	-200,000	0,004	-0,103
-598,298	714,411	-0,016	-0,031
-597,284	135,012	-0,008	-0,008
-596,269	-49,877	-0,053	0,018
-595,255	800,000	0,038	0,085
-594,240	-86,775	-0,026	0,006
-593,225	-91,511	0,178	0,037
-592,211	-200,000	0,017	-0,081
-591,196	34,644	-0,035	0,023
-590,182	-9,716	0,045	-0,022
-589,167	178,389	0,034	-0,036
-588,152	-200,000	-0,021	-0,082
-587,138	-200,000	0,031	-0,186
-586,123	-133,610	0,034	0,003
-585,109	499,464	-0,101	-0,170
-584,094	-196,245	-0,080	-0,000
-583,079	-22,382	0,115	-0,051
-582,065	-200,000	0,009	-0,053
-581,050	-174,995	-0,081	0,002
-580,036	-200,000	0,008	-0,056
-579,021	109,801	-0,100	-0,088
-578,006	-73,580	-0,085	-0,023
-576,992	-112,063	0,137	0,020
-575,977	-200,000	0,000	0,055
-574,963	-200,000	-0,004	0,099
-573,948	-200,000	0,000	0,036
-572,934	145,994	0,119	0,116
-571,919	-200,000	-0,014	-0,062
-570,904	29,384	-0,086	0,053
-569,890	-81,775	0,152	-0,036
-568,875	439,079	-0,014	0,023
-567,861	456,553	-0,065	0,105
-566,846	529,314	0,103	0,179
-565,831	136,685	-0,177	0,169
-564,817	800,000	-0,036	-0,108
-563,802	-67,393	0,052	0,015
-562,788	233,570	-0,028	-0,034
-561,773	-200,000	-0,016	-0,104
-560,758	-116,574	0,139	-0,018
-559,744	454,760	-0,030	0,049
-558,729	-99,250	0,151	-0,028
-557,715	98,051	-0,036	0,030
-556,700	-71,462	0,109	-0,030
-555,685	-97,030	-0,146	-0,028
-554,671	-200,000	0,002	0,119
-553,656	-73,998	0,088	-0,023
-552,642	-159,671	-0,095	-0,004
-551,627	-129,147	-0,109	-0,011
-550,612	-117,136	0,076	-0,010
-549,598	-37,686	-0,049	0,019
-548,583	-107,864	0,152	-0,024
-547,569	-15,776	0,102	-0,047
-546,554	21,243	-0,013	0,007
-545,539	800,000	0,071	-0,186
-544,525	-102,229	0,068	-0,012
-543,510	-66,256	-0,048	-0,014
-542,496	234,209	0,059	-0,071
-541,481	168,358	-0,043	-0,045
-540,466	153,052	-0,073	-0,073
-539,452	113,864	0,046	0,041
-538,437	800,000	-0,031	0,075
-537,423	-200,000	0,015	-0,089
-536,408	-200,000	0,022	0,086
-535,393	89,780	0,101	0,082
-534,379	-52,193	0,065	-0,022
-533,364	242,380	0,068	0,083
-532,350	209,346	0,039	0,044
-531,335	-19,126	-0,051	0,023
-530,321	-200,000	0,023	-0,077
-529,306	-88,130	-0,091	-0,020
-528,291	179,509	-0,021	-0,022
-527,277	-200,000	-0,028	-0,146
-526,262	-153,767	-0,116	-0,006
-525,248	-77,632	0,245	0,061
-524,233	800,000	-0,042	0,107
-523,218	351,072	-0,010	-0,014
-522,204	2,442	0,098	0,052
-521,189	-82,973	-0,113	-0,026
-520,175	53,276	0,052	0,036
-519,160	800,000	-0,045	0,102
-518,145	-51,502	-0,064	0,022
-517,131	144,369	-0,022	0,021
-516,116	72,533	0,053	-0,040
-515,102	-115,757	-0,036	-0,005
-514,087	-200,000	-0,003	-0,027
-513,072	244,828	0,073	-0,089
-512,058	-130,912	-0,045	0,004
-511,043	-30,806	0,051	-0,021
-510,029	411,940	0,085	0,133
-509,014	-133,407	-0,013	-0,001
-507,999	51,711	-0,070	0,048
-506,985	-140,877	0,102	-0,008
-505,970	-45,974	-0,084	-0,030
-504,956	800,000	-0,032	0,088
-503,941	146,520	0,091	0,089
-502,926	46,789	0,070	-0,047
-501,912	-0,499	0,133	-0,069
-500,897	-101,073	-0,111	-0,020
-499,883	686,806	-0,053	-0,101
-498,868	800,000	-0,045	-0,117
-497,853	24,105	-0,040	0,024
-496,839	-41,884	-0,050	-0,019
-495,824	125,295	0,036	-0,033
-494,810	-105,764	-0,043	-0,007
-493,795	-53,738	-0,130	-0,043
-492,781	-11,986	-0,135	0,064
-491,766	800,000	-0,044	0,113
-490,751	94,949	0,033	0,028
-489,737	208,993	-0,148	-0,170
-488,722	116,616	0,061	0,054
-487,708	800,000	0,025	0,061
-486,693	105,316	0,018	-0,016
-485,678	-14,764	-0,031	0,014
-484,664	-200,000	0,000	0,029
-483,649	800,000	0,030	-0,096
-482,635	-200,000	0,003	-0,062
-481,620	384,547	0,044	0,067
-480,605	-83,725	0,152	-0,035
-479,591	55,346	-0,028	-0,020
-478,576	-200,000	-0,002	-0,064
-477,562	-124,239	-0,085	-0,010
-476,547	-96,973	-0,036	-0,007
-475,532	-200,000	-0,024	-0,081
-474,518	285,689	-0,035	0,047
-473,503	-93,548	0,095	0,019
-472,489	800,000	0,014	-0,036
-471,474	498,311	-0,035	-0,058
-470,459	-82,740	-0,084	-0,020
-469,445	-200,000	-0,019	-0,100
-468,430	85,214	-0,026	-0,020
-467,416	-200,000	-0,048	0,193
-466,401	-144,620	-0,066	0,004
-465,386	-200,000	0,007	0,089
-464,372	800,000	-0,015	0,046
-463,357	263,660	0,095	0,121
-462,343	-200,000	0,015	-0,054
-461,328	101,903	0,029	0,024
-460,313	18,443	-0,139	0,080
-459,299	-200,000	0,015	-0,118
-458,284	-74,760	0,086	-0,022
-457,270	407,203	0,112	0,172
-456,255	476,712	0,076	-0,126
-455,241	-200,000	0,000	-0,187
-454,226	-200,000	-0,016	-0,077
-453,211	-53,543	-0,137	-0,045
-452,197	-200,000	-0,000	-0,013
-451,182	-200,000	0,025	0,134
-450,168	-99,869	-0,088	0,016
-449,153	209,037	-0,079	-0,090
-448,138	116,425	-0,035	-0,031
-447,124	-52,850	-0,101	-0,034
-446,109	800,000	-0,036	-0,109
-445,095	-91,680	-0,082	-0,017
-444,080	-71,023	0,162	0,044
-443,065	-84,571	-0,102	-0,023
-442,051	-113,259	-0,078	0,011
-441,036	48,843	0,101	-0,069
-440,022	-140,734	-0,061	-0,004
-439,007	-90,384	-0,056	0,012
-437,992	745,571	0,040	0,078
-436,978	162,612	0,097	-0,099
-435,963	-36,590	0,044	-0,017
-434,949	-200,000	-0,015	-0,052
-433,934	110,933	-0,032	-0,028
-432,919	129,821	-0,072	0,067
-431,905	-12,037	0,061	-0,029
-430,890	-66,848	-0,030	-0,009
-429,876	71,180	0,128	0,096
-428,861	-200,000	-0,006	0,059
-427,846	138,501	-0,085	-0,081
-426,832	-200,000	0,001	0,034
-425,817	-200,000	-0,024	0,160
-424,803	-49,144	-0,084	0,029
-423,788	17,947	0,093	-0,054
-422,773	-200,000	0,008	0,150
-421,759	195,778	0,100	0,110
-420,744	800,000	-0,030	-0,065
-419,730	800,000	-0,027	0,077
-418,715	-200,000	0,012	0,114
-417,701	-200,000	0,021	-0,090
-416,686	-200,000	0,018	0,064
-415,671	-200,000	0,013	0,046
-414,657	-200,000	0,019	0,127
-413,642	130,265	-0,051	-0,048
-412,628	421,631	-0,043	-0,067
-411,613	-70,653	0,096	-0,026
-410,598	-200,000	0,003	-0,135
-409,584	-126,361	-0,115	0,012
-408,569	-200,000	-0,005	0,031
-407,555	89,992	0,064	0,052
-406,540	-200,000	-0,003	0,082
-405,525	-81,626	-0,046	-0,011
-404,511	-27,676	-0,167	-0,070
-403,496	-155,977	-0,040	-0,002
-402,482	282,717	0,071	-0,092
-401,467	-200,000	0,022	0,125
-400,452	-200,000	0,024	0,089
-399,438	-114,444	0,110	-0,015
-398,423	552,412	-0,054	0,094
-397,409	186,128	0,053	-0,057
-396,394	-200,000	-0,003	-0,042
-395,379	-200,000	0,008	0,028
-394,365	345,795	-0,032	-0,046
-393,350	800,000	-0,017	-0,045
-392,336	800,000	-0,036	-0,088
-391,321	-200,000	0,006	0,044
-390,306	337,186	0,087	-0,122
-389,292	800,000	-0,086	-0,191
-388,277	2,078	0,043	-0,022
-387,263	3,086	-0,063	0,033
-386,248	323,207	-0,079	0,109
-385,233	-200,000	0,013	0,083
-384,219	-129,693	-0,074	-0,007
-383,204	-10,866	-0,032	-0,015
-382,190	104,741	0,018	-0,015
-381,175	652,168	-0,063	-0,118
-380,160	800,000	0,048	-0,097
-379,146	373,189	0,041	-0,061
-378,131	800,000	-0,044	0,123
-377,117	18,704	0,008	0,005
-376,102	-200,000	0,034	-0,118
-375,088	29,344	0,041	0,025
-374,073	-200,000	0,027	0,094
-373,058	-200,000	0,017	0,139
-372,044	-4,104	-0,028	0,014
-371,029	256,257	-0,056	-0,070
-370,015	-46,095	-0,004	-0,001
-369,000	-200,000	-0,014	0,110
-367,985	-69,033	-0,068	-0,019
-366,971	-200,000	-0,017	0,070
-365,956	-200,000	0,009	0,053
-364,942	356,664	-0,048	0,069
-363,927	-200,000	-0,016	0,063
-362,912	-63,984	0,072	0,021
-361,898	-200,000	-0,019	-0,092
-360,883	-144,989	0,054	-0,004
-359,869	-135,886	-0,152	-0,013
-358,854	123,822	0,055	-0,050
-357,839	-13,967	-0,118	0,055
-356,825	193,235	-0,076	-0,083
-355,810	340,083	0,095	-0,134
-354,796	-27,588	-0,041	-0,017
-353,781	-118,946	-0,116	0,015
-352,766	388,861	-0,074	0,112
-351,752	-194,009	0,037	0,000
-350,737	171,390	0,077	0,080
-349,723	506,072	0,054	-0,092
-348,708	110,682	-0,132	-0,115
-347,693	-200,000	0,007	0,092
-346,679	169,098	-0,151	-0,156
-345,664	-200,000	0,010	-0,137
-344,650	-200,000	0,021	-0,135
-343,635	-1,998	-0,054	0,027
-342,620	-117,986	0,089	0,011
-341,606	-66,635	-0,085	0,024
-340,591	-19,324	-0,146	0,065
-339,577	529,873	0,004	0,007
-338,562	96,197	0,022	-0,018
-337,548	-200,000	-0,018	-0,066
-336,533	67,203	-0,044	0,033
-335,518	320,639	-0,065	-0,090
-334,504	1,017	0,063	0,032
-333,489	423,058	0,027	0,042
-332,475	84,738	-0,103	0,082
-331,460	-200,000	0,016	-0,055
-330,445	148,527	0,035	0,034
-329,431	-200,000	0,007	0,076
-328,416	-200,000	0,002	-0,144
-327,402	-200,000	0,001	-0,140
-326,387	59,347	0,045	-0,032
-325,372	-200,000	0,001	-0,026
-324,358	-200,000	0,002	-0,158
-323,343	-200,000	-0,006	0,023
-322,329	147,187	-0,026	0,026
-321,314	-26,693	0,161	0,068
-320,299	359,260	0,013	-0,019
-319,285	-125,583	0,057	-0,006
-318,270	-200,000	0,010	-0,171
-317,256	113,722	-0,176	-0,154
-316,241	-8,001	-0,087	-0,042
-315,226	71,358	0,067	-0,050
-314,212	-200,000	0,021	0,098
-313,197	249,722	0,113	0,139
-312,183	-122,901	0,056	0,006
-311,168	-119,244	0,018	-0,002
-310,153	-151,270	0,159	0,008
-309,139	45,675	-0,105	0,070
-308,124	318,809	-0,028	-0,038
-307,110	259,207	0,080	0,100
-306,095	-108,306	0,072	0,011
-305,080	800,000	-0,015	-0,044
-304,066	62,560	-0,048	0,035
-303,051	546,234	-0,091	-0,159
-302,037	55,298	0,027	-0,019
-301,022	-149,947	-0,027	-0,002
-300,008	-59,607	-0,027	-0,008
-298,993	-79,896	0,098	0,024
-297,978	4,057	0,114	0,060
-296,964	800,000	0,034	-0,078
-295,949	-200,000	-0,023	-0,108
-294,935	-72,954	-0,010	-0,003
-293,920	-16,911	0,058	-0,026
-292,905	-81,727	-0,096	0,023
-291,891	105,031	0,163	0,139
-290,876	-200,000	0,005	-0,043
-289,862	343,505	0,063	0,090
-288,847	-149,554	-0,154	-0,009
-287,832	45,757	0,047	0,031
-286,818	-130,120	-0,092	-0,009
-285,803	27,572	0,080	0,049
-284,789	-101,328	0,028	-0,005
-283,774	46,633	0,040	0,027
-282,759	269,427	-0,032	0,041
-281,745	777,072	-0,062	-0,123
-280,730	-126,890	-0,089	-0,009
-279,716	-43,616	0,137	-0,050
-278,701	-200,000	-0,016	0,119
-277,686	-77,331	0,137	0,034
-276,672	-200,000	0,015	-0,168
-275,657	-200,000	0,024	-0,108
-274,643	768,711	-0,015	0,029
-273,628	-110,595	-0,137	-0,020
-272,613	800,000	-0,033	-0,091
-271,599	-200,000	-0,006	0,140
-270,584	-11,328	0,114	-0,054
-269,570	-200,000	0,026	0,102
-268,555	301,448	0,087	0,117
-267,540	-200,000	0,033	0,114
-266,526	-200,000	-0,012	-0,111
-265,511	800,000	-0,021	0,065
-264,497	0,673	0,107	-0,055
-263,482	261,063	0,009	-0,011
-262,467	-200,000	0,001	0,017
-261,453	-200,000	0,006	0,149
-260,438	55,495	0,087	-0,061
-259,424	-200,000	0,017	-0,069
-258,409	-56,350	-0,122	0,039
-257,395	135,952	0,040	-0,037
-256,380	-200,000	0,010	0,047
-255,365	-150,017	0,113	-0,006
-254,351	800,000	0,011	0,025
-253,336	-200,000	-0,023	-0,131
-252,322	219,419	-0,148	-0,171
-251,307	244,815	0,039	-0,048
-250,292	-53,033	0,077	-0,025
-249,278	86,680	0,053	0,042
-248,263	304,839	-0,066	0,089
-247,249	21,315	-0,126	0,074
-246,234	-2,585	0,139	0,070
-245,219	189,079	0,024	-0,026
-244,205	-200,000	-0,003	0,034
-243,190	-93,203	0,115	0,023
-242,176	-67,056	0,073	-0,021
-241,161	70,765	0,078	0,058
-240,146	-15,054	-0,028	0,013
-239,132	740,236	-0,059	-0,115
-238,117	47,849	0,071	0,048
-237,103	-36,794	-0,013	-0,005
-236,088	-200,000	-0,015	-0,080
-235,073	152,243	0,107	0,105
-234,059	-200,000	-0,021	0,196
-233,044	9,725	-0,034	0,018
-232,030	19,020	0,094	0,054
-231,015	-151,770	-0,124	-0,006
-230,000	-74,233	-0,150	-0,039
-228,986	800,000	-0,043	0,092
-227,971	-200,000	-0,004	0,052
-226,957	-124,633	0,109	0,012
-225,942	-159,223	-0,068	0,003
-224,927	552,592	0,051	0,089
-223,913	800,000	-0,055	-0,143
-222,898	617,380	-0,022	-0,040
-221,884	175,111	-0,037	-0,038
-220,869	-60,618	-0,018	-0,005
-219,855	157,062	0,090	0,089
-218,840	-128,055	0,045	0,005
-217,825	-200,000	0,049	0,156
-216,811	-71,065	-0,145	0,039
-215,796	-71,732	-0,157	-0,042
-214,782	112,230	0,016	-0,014
-213,767	-200,000	-0,003	-0,031
-212,752	-8,965	0,168	0,081
-211,738	616,504	-0,062	0,113
-210,723	314,155	0,051	0,070
-209,709	-151,775	0,056	-0,003
-208,694	-200,000	-0,016	-0,058
-207,679	-76,023	0,035	-0,009
-206,665	58,114	-0,069	-0,049
-205,650	8,791	0,087	0,047
-204,636	-200,000	-0,030	0,116
-203,621	252,030	0,074	-0,091
-202,606	36,811	-0,073	-0,046
-201,592	135,378	-0,089	-0,083
-200,577	-26,200	-0,058	0,024
-199,563	-26,418	0,095	0,040
-198,548	-200,000	-0,010	0,043
-197,533	-34,111	0,134	-0,053
-196,519	297,733	-0,058	-0,077
-195,504	-200,000	-0,009	0,132
-194,490	800,000	-0,035	0,074
-193,475	-200,000	0,014	-0,073
-192,460	-19,791	-0,022	0,010
-191,446	112,378	-0,103	0,089
-190,431	234,503	0,093	0,111
-189,417	-83,222	0,047	-0,011
-188,402	-44,851	-0,118	0,042
-187,387	800,000	-0,031	-0,069
-186,373	-106,329	-0,067	-0,011
-185,358	-107,951	0,100	0,016
-184,344	278,935	-0,046	-0,059
-183,329	-162,325	0,123	-0,004
-182,315	44,171	0,225	-0,148
-181,300	-92,908	-0,049	-0,010
-180,285	-37,434	-0,110	0,042
-179,271	-20,411	0,149	0,066
-178,256	150,028	-0,120	-0,117
-177,242	-200,000	-0,000	0,117
-176,227	-200,000	0,010	0,138
-175,212	-200,000	-0,008	-0,036
-174,198	-41,399	0,103	0,038
-173,183	-30,706	0,087	-0,035
-172,169	157,181	0,025	0,025
-171,154	-200,000	0,010	0,057
-170,139	193,326	0,045	0,049
-169,125	-93,918	0,164	0,032
-168,110	103,655	0,110	0,093
-167,096	-3,472	-0,121	0,060
-166,081	-200,000	0,046	-0,157
-165,066	800,000	-0,040	-0,085
-164,052	746,741	0,071	-0,138
-163,037	-144,963	0,127	-0,008
-162,023	800,000	0,026	0,057
-161,008	-134,745	0,197	0,017
-159,993	-30,346	-0,026	0,011
-158,979	44,291	-0,181	-0,119
-157,964	800,000	0,021	0,066
-156,950	800,000	0,040	0,106
-155,935	16,001	-0,121	0,068
-154,920	-88,152	0,066	-0,014
-153,906	-76,389	-0,121	0,030
-152,891	13,805	-0,049	-0,027
-151,877	800,000	0,026	-0,059
-150,862	-3,308	-0,096	0,048
-149,847	47,211	0,056	-0,037
-148,833	-200,000	0,022	-0,108
-147,818	20,176	0,137	-0,079
-146,804	-75,931	-0,089	-0,022
-145,789	-200,000	0,005	-0,115
-144,775	-200,000	0,010	-0,121
-143,760	59,149	-0,105	-0,074
-142,745	-99,721	-0,041	0,007
-141,731	102,484	0,115	0,096
-140,716	800,000	0,037	0,090
-139,702	-16,314	0,088	0,040
-138,687	800,000	0,049	-0,104
-137,672	-200,000	0,028	-0,136
-136,658	590,844	-0,030	-0,053
-135,643	726,947	-0,020	0,039
-134,629	800,000	-0,012	-0,038
-133,614	-99,627	0,039	0,007
-132,599	288,191	-0,086	-0,112
-131,585	-200,000	-0,034	-0,122
-130,570	122,728	-0,077	-0,070
-129,556	761,229	0,024	0,046
-128,541	211,520	-0,073	-0,083
-127,526	-98,641	-0,038	-0,007
-126,512	-142,208	-0,042	0,003
-125,497	530,842	0,022	0,038
-124,483	479,927	0,073	0,119
-123,468	-39,515	0,150	0,056
-122,453	-200,000	-0,008	0,026
-121,439	100,969	-0,081	-0,068
