DTS Sentinel unit serial number:	SN410029Multiplexer serial number:	ORYXHardware model number:	OX2-SRSoftware version number:	ORYX F/W v4,00 Oryx Data Collector v3.7.2.0data status	okinstallation	B6 Nyhavnadifferential loss correction	single-endedforward channel	channel 2reverse channel	N/Adate	2023/12/09time	13:20:08forward acquisition time	300,00reverse acquisition time	0,00gamma	499,1914k internal	0,3137k external	0,3137temperature offset calibration	1,0000default loss term (dB/km)	0,3820temperature slope calibration	1,0000multiplexer offset coefficient	1,0000multiplexer slope coefficient	1,0000fibre end	0,00T internal ref (°C)	20,06T ext. ref 1 (°C)	4,71T ext. ref 2 (°C)	4,69length (m)	temperature (°C)	Stokes	anti-Stokes-744,400	-66,947	0,119	0,035
-743,385	24,354	-0,188	0,115
-742,371	21,689	0,051	0,031
-741,356	-70,282	-0,308	0,086
-740,342	-200,000	0,041	0,188
-739,327	-200,000	-0,030	0,102
-738,312	800,000	-0,036	-0,111
-737,298	-173,845	-0,275	-0,006
-736,283	114,981	0,022	0,020
-735,269	-90,649	-0,319	0,068
-734,254	-116,722	0,107	-0,014
-733,239	-54,099	-0,533	-0,179
-732,225	-140,932	0,171	0,013
-731,210	86,251	0,086	0,070
-730,196	-200,000	0,011	0,053
-729,181	-131,152	-0,123	0,012
-728,167	-154,959	-0,104	0,005
-727,152	800,000	0,042	-0,112
-726,137	-118,869	-0,207	-0,027
-725,123	-200,000	0,011	0,062
-724,108	-69,617	0,062	-0,018
-723,094	800,000	-0,051	-0,147
-722,079	-200,000	0,003	-0,101
-721,064	-200,000	-0,006	0,071
-720,050	0,258	0,064	0,034
-719,035	800,000	0,021	-0,055
-718,021	301,168	0,050	-0,068
-717,006	230,236	-0,062	0,076
-715,991	800,000	-0,030	-0,096
-714,977	-141,384	-0,115	-0,009
-713,962	-151,754	-0,183	0,010
-712,948	-150,943	-0,075	0,004
-711,933	241,563	0,093	0,115
-710,918	800,000	0,048	-0,102
-709,904	-47,043	-0,088	-0,032
-708,889	272,793	-0,046	-0,060
-707,875	681,347	0,043	0,083
-706,860	117,113	-0,100	-0,091
-705,845	-155,575	-0,062	0,003
-704,831	556,576	0,014	-0,026
-703,816	313,204	-0,088	-0,123
-702,802	-200,000	-0,029	-0,104
-701,787	800,000	-0,039	-0,082
-700,772	-81,329	-0,104	0,025
-699,758	523,081	0,023	-0,040
-698,743	-200,000	-0,003	-0,129
-697,729	-23,851	-0,048	-0,021
-696,714	-140,298	-0,107	-0,008
-695,699	800,000	0,046	-0,120
-694,685	136,028	-0,049	-0,047
-693,670	-158,687	-0,111	0,005
-692,656	-92,320	0,158	0,033
-691,641	800,000	-0,023	0,074
-690,627	-200,000	-0,007	-0,245
-689,612	270,818	0,086	-0,112
-688,597	-96,745	-0,170	0,033
-687,583	-200,000	0,022	-0,083
-686,568	-29,543	-0,083	-0,035
-685,554	-118,596	0,108	-0,014
-684,539	199,256	-0,050	-0,057
-683,524	-54,095	0,062	0,021
-682,510	237,784	-0,077	0,095
-681,495	-9,157	0,085	-0,042
-680,481	15,292	-0,120	-0,070
-679,466	800,000	-0,058	-0,160
-678,451	679,071	-0,011	-0,022
-677,437	-200,000	0,002	-0,022
-676,422	-162,164	-0,110	0,004
-675,408	151,993	-0,026	-0,026
-674,393	145,321	0,037	-0,037
-673,378	130,336	0,133	-0,126
-672,364	-69,905	-0,049	-0,014
-671,349	-114,915	-0,068	-0,010
-670,335	53,626	-0,132	-0,093
-669,320	-55,272	-0,070	-0,023
-668,305	-200,000	-0,016	-0,055
-667,291	71,297	0,131	0,101
-666,276	-149,600	0,064	0,004
-665,262	137,615	-0,138	-0,134
-664,247	-200,000	-0,007	0,126
-663,232	-56,175	-0,069	-0,022
-662,218	76,513	0,030	-0,024
-661,203	-200,000	0,054	0,197
-660,189	687,830	0,088	0,170
-659,174	-55,220	-0,112	0,037
-658,159	240,975	-0,094	-0,116
-657,145	-173,932	-0,061	-0,001
-656,130	-66,663	0,040	-0,012
-655,116	69,268	0,021	-0,016
-654,101	-200,000	-0,009	0,128
-653,086	23,432	-0,120	0,073
-652,072	653,122	-0,047	-0,090
-651,057	-200,000	-0,009	-0,067
-650,043	-65,045	0,066	0,019
-649,028	-200,000	-0,007	-0,118
-648,014	800,000	0,006	-0,014
-646,999	256,935	0,020	0,025
-645,984	-200,000	-0,001	-0,050
-644,970	138,204	0,102	-0,099
-643,955	-99,245	-0,139	-0,026
-642,941	800,000	0,020	0,049
-641,926	360,678	-0,037	-0,055
-640,911	-53,973	-0,068	-0,023
-639,897	-200,000	0,004	-0,080
-638,882	20,721	-0,013	0,008
-637,868	-67,352	0,104	0,030
-636,853	-69,975	-0,132	-0,037
-635,838	120,222	0,068	-0,062
-634,824	103,299	-0,084	0,073
-633,809	800,000	-0,041	0,123
-632,795	434,252	0,020	0,033
-631,780	-96,318	-0,096	0,019
-630,765	438,461	0,029	-0,047
-629,751	-200,000	0,025	0,084
-628,736	-170,889	-0,135	-0,003
-627,722	145,628	-0,062	-0,062
-626,707	193,691	-0,082	-0,091
-625,692	-119,215	-0,090	-0,011
-624,678	-22,219	-0,032	0,014
-623,663	471,816	0,017	0,028
-622,649	283,778	-0,093	-0,124
-621,634	571,471	-0,073	-0,131
-620,619	-121,874	-0,054	0,006
-619,605	-148,528	0,048	0,003
-618,590	-1,555	0,005	-0,002
-617,576	-200,000	0,022	0,094
-616,561	34,263	0,054	0,035
-615,546	-200,000	0,035	0,136
-614,532	442,463	-0,016	-0,025
-613,517	-111,914	-0,068	0,010
-612,503	-200,000	0,013	-0,121
-611,488	95,782	0,058	0,049
-610,474	290,556	0,048	0,065
-609,459	-200,000	-0,019	0,061
-608,444	104,068	-0,106	-0,092
-607,430	-100,463	0,122	0,022
-606,415	242,439	-0,071	-0,087
-605,401	98,323	0,074	-0,062
-604,386	-105,993	-0,022	0,004
-603,371	318,940	-0,084	0,118
-602,357	-86,625	-0,088	-0,020
-601,342	-40,131	-0,106	-0,041
-600,328	-200,000	-0,006	-0,032
-599,313	-200,000	-0,005	0,062
-598,298	-141,286	0,073	-0,005
-597,284	346,818	0,024	0,036
-596,269	-65,132	0,031	0,009
-595,255	-27,936	-0,065	0,028
-594,240	66,526	-0,070	-0,053
-593,225	53,050	0,055	-0,039
-592,211	-200,000	-0,022	-0,082
-591,196	625,858	-0,072	-0,134
-590,182	68,005	0,077	0,058
-589,167	-200,000	-0,013	0,133
-588,152	372,384	-0,039	0,058
-587,138	-34,132	-0,092	0,037
-586,123	-59,076	-0,126	0,040
-585,109	-200,000	0,016	-0,151
-584,094	0,202	-0,147	-0,077
-583,079	-54,399	0,097	-0,032
-582,065	-51,759	0,116	0,040
-581,050	513,862	0,013	-0,022
-580,036	800,000	-0,034	-0,088
-579,021	24,089	-0,103	0,063
-578,006	678,647	-0,071	-0,137
-576,992	800,000	0,016	-0,033
-575,977	800,000	-0,039	-0,106
-574,963	-200,000	0,047	-0,162
-573,948	82,362	-0,045	-0,036
-572,934	-200,000	0,031	-0,103
-571,919	-48,905	-0,033	-0,012
-570,904	63,368	0,068	0,050
-569,890	-200,000	0,005	0,040
-568,875	60,194	0,124	-0,090
-567,861	-200,000	0,004	-0,025
-566,846	-200,000	0,001	0,022
-565,831	755,240	-0,033	-0,067
-564,817	121,734	0,051	0,047
-563,802	-200,000	-0,011	-0,047
-562,788	-42,822	-0,113	-0,042
-561,773	33,643	-0,030	-0,019
-560,758	800,000	0,006	-0,018
-559,744	-4,017	-0,074	-0,038
-558,729	800,000	-0,025	-0,070
-557,715	9,763	0,077	0,043
-556,700	-45,596	-0,126	-0,046
-555,685	18,628	0,134	-0,079
-554,671	-150,338	-0,174	-0,010
-553,656	353,965	-0,099	0,145
-552,642	-65,125	0,044	0,013
-551,627	50,244	0,072	-0,050
-550,612	-104,860	-0,183	-0,031
-549,598	505,199	-0,061	-0,104
-548,583	-13,413	-0,060	0,029
-547,569	698,119	-0,044	0,085
-546,554	-33,361	-0,088	0,036
-545,539	-20,591	-0,056	0,025
-544,525	-68,825	-0,077	0,022
-543,510	-122,868	-0,124	-0,015
-542,496	-200,000	0,001	-0,065
-541,481	-200,000	0,010	0,072
-540,466	-200,000	-0,003	0,059
-539,452	440,830	-0,020	0,032
-538,437	-200,000	-0,001	0,050
-537,423	-65,614	0,158	0,046
-536,408	-19,186	0,047	-0,022
-535,393	-200,000	0,013	-0,046
-534,379	142,889	-0,083	0,081
-533,364	-9,531	-0,118	-0,058
-532,350	198,760	0,071	0,080
-531,335	-136,115	0,151	0,013
-530,321	-200,000	0,003	0,071
-529,306	70,893	-0,080	0,061
-528,291	306,701	0,014	0,019
-527,277	454,534	-0,064	-0,105
-526,262	-200,000	-0,005	0,076
-525,248	9,230	0,098	0,055
-524,233	-200,000	-0,038	0,177
-523,218	800,000	0,054	0,152
-522,204	-143,232	-0,087	0,006
-521,189	800,000	-0,039	-0,103
-520,175	57,491	-0,059	0,042
-519,160	72,072	0,034	-0,026
-518,145	800,000	0,080	0,172
-517,131	-103,441	0,058	0,010
-516,116	4,465	-0,072	-0,039
-515,102	800,000	-0,052	-0,128
-514,087	-197,743	-0,106	0,000
-513,072	800,000	-0,054	-0,126
-512,058	-200,000	-0,007	-0,127
-511,043	-124,216	-0,033	0,004
-510,029	800,000	0,010	-0,030
-509,014	-42,035	0,166	-0,062
-507,999	800,000	0,054	-0,137
-506,985	268,175	-0,076	0,098
-505,970	-200,000	0,009	-0,066
-504,956	800,000	0,036	-0,108
-503,941	324,657	-0,079	-0,111
-502,926	72,457	-0,043	0,033
-501,912	-199,085	0,078	-0,000
-500,897	-4,022	0,085	0,043
-499,883	-35,457	0,039	-0,016
-498,868	-4,014	-0,050	0,026
-497,853	154,530	-0,111	-0,113
-496,839	260,952	0,035	0,044
-495,824	-29,298	-0,021	0,009
-494,810	-200,000	0,019	0,117
-493,795	-68,651	-0,117	0,033
-492,781	-200,000	0,016	-0,123
-491,766	222,598	0,029	-0,035
-490,751	800,000	-0,044	0,120
-489,737	800,000	0,039	0,102
-488,722	-101,235	-0,067	-0,012
-487,708	800,000	0,031	0,070
-486,693	800,000	-0,011	-0,033
-485,678	-119,781	-0,063	-0,008
-484,664	135,791	-0,172	-0,165
-483,649	800,000	0,053	-0,123
-482,635	-200,000	0,025	-0,172
-481,620	-117,151	0,117	-0,015
-480,605	-18,989	-0,050	-0,023
-479,591	-200,000	0,107	0,000
-478,576	-200,000	0,011	-0,094
-477,562	346,810	0,017	-0,024
-476,547	768,489	-0,012	-0,023
-475,532	-200,000	-0,003	-0,123
-474,518	223,633	0,038	-0,045
-473,503	-200,000	0,043	0,150
-472,489	-200,000	0,005	0,070
-471,474	304,992	0,070	-0,096
-470,459	-200,000	-0,006	0,020
-469,445	395,400	-0,028	-0,043
-468,430	-127,614	0,111	0,012
-467,416	-200,000	0,012	0,060
-466,401	-103,752	0,131	-0,022
-465,386	472,817	0,098	0,163
-464,372	465,116	0,002	0,004
-463,357	800,000	-0,007	0,019
-462,343	6,620	0,092	-0,050
-461,328	-200,000	0,007	-0,098
-460,313	-146,674	0,064	-0,004
-459,299	-141,037	0,174	0,013
-458,284	552,229	-0,062	0,110
-457,270	334,166	0,097	-0,138
-456,255	800,000	-0,096	-0,225
-455,241	121,209	0,019	0,018
-454,226	-200,000	-0,012	0,076
-453,211	309,667	0,065	-0,089
-452,197	-200,000	-0,005	0,066
-451,182	800,000	-0,005	-0,015
-450,168	210,115	-0,021	0,025
-449,153	800,000	-0,030	0,070
-448,138	299,855	-0,077	0,105
-447,124	-35,950	-0,060	0,024
-446,109	16,831	0,124	0,072
-445,095	-136,482	0,030	0,003
-444,080	-15,009	-0,042	0,020
-443,065	-200,000	0,005	0,015
-442,051	-47,284	-0,089	0,032
-441,036	-200,000	0,004	0,027
-440,022	226,189	-0,053	0,063
-439,007	229,467	0,096	-0,116
-437,992	800,000	-0,040	-0,090
-436,978	-200,000	-0,003	-0,050
-435,963	76,112	-0,075	-0,058
-434,949	800,000	-0,063	-0,157
-433,934	121,606	0,043	0,040
-432,919	377,923	0,031	0,047
-431,905	39,040	-0,009	-0,006
-430,890	123,091	0,138	0,127
-429,876	-8,313	0,137	0,067
-428,861	-89,164	-0,029	0,006
-427,846	800,000	0,026	0,064
-426,832	91,971	0,045	0,037
-425,817	98,236	-0,092	-0,077
-424,803	800,000	0,026	0,065
-423,788	388,105	-0,021	0,032
-422,773	483,288	0,059	0,099
-421,759	-97,118	0,111	-0,021
-420,744	-200,000	-0,001	0,086
-419,730	80,698	0,067	0,053
-418,715	9,627	0,069	0,038
-417,701	57,427	-0,155	-0,111
-416,686	492,108	0,044	-0,074
-415,671	800,000	-0,050	0,114
-414,657	0,724	0,054	-0,028
-413,642	-200,000	-0,017	-0,100
-412,628	13,552	-0,012	0,007
-411,613	-55,347	-0,059	-0,019
-410,598	800,000	-0,053	-0,119
-409,584	-45,143	0,118	0,043
-408,569	-200,000	-0,001	-0,046
-407,555	74,738	-0,014	-0,011
-406,540	-84,908	0,133	0,030
-405,525	-51,485	0,045	-0,015
-404,511	-200,000	-0,001	0,135
-403,496	-200,000	-0,013	-0,077
-402,482	800,000	-0,047	0,101
-401,467	85,764	0,166	0,134
-400,452	-122,932	0,065	0,008
-399,438	-153,231	-0,047	-0,002
-398,423	203,406	-0,082	-0,093
-397,409	368,535	-0,039	0,058
-396,394	-29,684	0,097	0,040
-395,379	800,000	0,035	0,075
-394,365	800,000	0,081	0,166
-393,350	-38,192	0,070	0,027
-392,336	-200,000	0,017	0,071
-391,321	208,938	0,066	0,076
-390,306	-200,000	-0,008	0,111
-389,292	800,000	-0,045	-0,131
-388,277	-19,664	-0,144	-0,065
-387,263	-15,710	0,068	0,032
-386,248	309,718	0,096	-0,132
-385,233	-51,370	0,127	0,043
-384,219	-147,394	-0,077	-0,005
-383,204	565,124	0,054	0,097
-382,190	58,261	0,062	-0,044
-381,175	-81,821	0,116	0,028
-380,160	44,665	0,081	0,054
-379,146	-200,000	-0,003	0,185
-378,131	749,269	0,057	0,113
-377,117	-92,575	-0,081	0,017
-376,102	-200,000	-0,016	-0,056
-375,088	282,223	-0,038	0,049
-374,073	2,466	0,113	0,060
-373,058	-43,559	0,236	0,087
-372,044	96,201	0,100	0,083
-371,029	-200,000	-0,040	0,134
-370,015	-42,914	-0,096	-0,035
-369,000	-133,630	0,135	0,012
-367,985	-96,379	-0,103	-0,020
-366,971	542,939	0,050	0,087
-365,956	88,376	-0,022	0,018
-364,942	-200,000	-0,004	0,031
-363,927	109,122	0,081	0,071
-362,912	145,317	0,044	0,043
-361,898	183,769	-0,009	0,010
-360,883	-30,072	0,064	0,027
-359,869	-200,000	-0,001	-0,039
-358,854	-43,239	0,012	-0,004
-357,839	259,355	0,079	-0,100
-356,825	261,516	-0,093	0,118
-355,810	800,000	0,074	0,151
-354,796	231,754	-0,067	-0,081
-353,781	-18,537	0,062	-0,028
-352,766	-200,000	0,005	0,024
-351,752	710,146	0,009	-0,017
-350,737	44,568	0,065	0,044
-349,723	128,331	0,062	0,057
-348,708	-200,000	0,018	-0,134
-347,693	88,996	0,096	-0,078
-346,679	-200,000	-0,017	-0,062
-345,664	-200,000	0,000	-0,090
-344,650	25,608	-0,046	-0,028
-343,635	105,146	-0,107	0,093
-342,620	-200,000	-0,002	0,141
-341,606	800,000	0,039	0,093
-340,591	199,631	-0,089	0,100
-339,577	129,412	-0,064	-0,060
-338,562	-28,346	0,057	0,024
-337,548	40,729	-0,107	-0,070
-336,533	-200,000	0,000	0,026
-335,518	-55,025	0,060	-0,020
-334,504	400,884	0,047	0,072
-333,489	31,956	-0,061	0,038
-332,475	-146,310	-0,120	-0,008
-331,460	-103,099	0,058	-0,010
-330,445	-21,654	-0,043	-0,019
-329,431	-118,418	0,015	-0,002
-328,416	-37,898	-0,151	0,058
-327,402	-200,000	-0,008	-0,065
-326,387	-200,000	0,057	0,194
-325,372	-46,354	-0,116	-0,042
-324,358	-134,387	-0,112	0,010
-323,343	-84,635	0,085	-0,019
-322,329	-200,000	0,031	-0,130
-321,314	-200,000	0,032	0,112
-320,299	-200,000	0,010	0,062
-319,285	-26,587	0,150	-0,064
-318,270	627,997	0,052	0,096
-317,256	800,000	0,088	-0,189
-316,241	-72,530	-0,075	0,020
-315,226	-58,262	0,096	0,030
-314,212	800,000	0,064	0,156
-313,197	-200,000	0,059	0,000
-312,183	-200,000	0,005	0,123
-311,168	800,000	-0,065	-0,160
-310,153	-200,000	-0,022	-0,179
-309,139	800,000	0,051	0,152
-308,124	-19,187	-0,105	0,047
-307,110	800,000	-0,035	-0,108
-306,095	376,261	0,077	-0,115
-305,080	800,000	0,046	-0,130
-304,066	-200,000	0,003	0,070
-303,051	-35,516	-0,190	0,075
-302,037	580,685	0,017	0,031
-301,022	-127,482	0,090	0,009
-300,008	-200,000	0,027	-0,129
-298,993	-69,983	-0,145	0,040
-297,978	227,542	0,071	-0,084
-296,964	-200,000	-0,014	-0,109
-295,949	-7,084	-0,037	0,018
-294,935	444,115	0,043	-0,069
-293,920	44,604	0,116	-0,078
-292,905	148,756	0,039	-0,038
-291,891	-200,000	-0,005	0,051
-290,876	76,022	0,075	-0,058
-289,862	-200,000	-0,061	-0,000
-288,847	750,766	-0,041	-0,082
-287,832	755,353	-0,058	-0,116
-286,818	800,000	0,019	0,047
-285,803	-16,219	0,180	0,083
-284,789	-0,386	-0,054	0,028
-283,774	37,300	0,038	0,024
-282,759	-32,994	0,014	0,006
-281,745	-129,765	0,061	0,006
-280,730	-146,179	-0,065	-0,004
-279,716	-200,000	-0,023	0,076
-278,701	70,973	0,011	-0,009
-277,686	-200,000	0,033	0,109
-276,672	-84,298	-0,069	-0,016
-275,657	-85,352	-0,028	0,006
-274,643	-10,933	-0,102	0,049
-273,628	467,866	-0,044	0,071
-272,613	13,860	-0,143	-0,081
-271,599	347,383	0,024	0,035
-270,584	101,609	-0,057	0,049
-269,570	-200,000	-0,013	-0,047
-268,555	-84,373	0,027	-0,006
-267,540	559,767	-0,026	-0,047
-266,526	800,000	-0,077	-0,170
-265,511	-172,772	-0,092	0,002
-264,497	800,000	-0,007	-0,021
-263,482	492,073	-0,036	-0,060
-262,467	-35,072	-0,065	-0,026
-261,453	-18,255	0,114	-0,052
-260,438	800,000	0,021	-0,059
-259,424	542,638	-0,074	-0,129
-258,409	560,630	-0,066	-0,116
-257,395	163,523	-0,028	-0,029
-256,380	205,530	-0,044	0,050
-255,365	9,944	0,020	-0,011
-254,351	800,000	-0,049	0,151
-253,336	206,223	0,053	0,060
-252,322	-55,546	-0,042	0,014
-251,307	227,863	-0,089	-0,106
-250,292	303,591	-0,080	-0,109
-249,278	-200,000	0,005	0,062
-248,263	-169,448	0,111	-0,003
-247,249	65,062	0,127	0,093
-246,234	800,000	-0,028	-0,074
-245,219	-200,000	0,002	-0,091
-244,205	139,296	0,020	-0,020
-243,190	-200,000	0,017	0,065
-242,176	6,203	0,083	-0,045
-241,161	5,077	0,118	-0,063
-240,146	800,000	-0,063	0,134
-239,132	800,000	0,008	0,017
-238,117	-135,211	0,040	-0,003
-237,103	540,295	0,010	0,018
-236,088	800,000	-0,015	0,046
-235,073	72,523	0,097	0,073
-234,059	12,160	-0,070	0,039
-233,044	78,980	0,100	-0,078
-232,030	800,000	0,030	0,063
-231,015	800,000	0,016	0,050
-230,000	154,808	-0,137	-0,138
-228,986	800,000	0,055	-0,137
-227,971	59,786	0,093	-0,066
-226,957	-133,839	0,109	0,010
-225,942	196,459	-0,081	0,090
-224,927	-67,813	-0,060	-0,017
-223,913	-55,184	0,053	0,017
-222,898	591,317	0,027	0,049
-221,884	-72,269	0,162	0,043
-220,869	90,211	0,155	-0,126
-219,855	-200,000	0,005	0,080
-218,840	-200,000	0,031	0,138
-217,825	348,257	0,100	0,144
-216,811	-79,439	-0,141	-0,034
-215,796	-73,156	-0,087	-0,023
-214,782	-157,379	-0,108	-0,005
-213,767	-7,736	0,082	-0,040
-212,752	800,000	-0,009	-0,026
-211,738	-200,000	-0,028	0,130
-210,723	800,000	-0,047	-0,121
-209,709	-200,000	0,003	-0,231
-208,694	-70,232	0,096	-0,026
-207,679	-46,044	-0,058	-0,021
-206,665	-200,000	0,008	-0,052
-205,650	197,257	0,052	0,058
-204,636	58,003	-0,072	0,051
-203,621	0,331	0,050	-0,026
-202,606	23,296	0,114	-0,068
-201,592	-77,432	-0,124	0,031
-200,577	-200,000	0,013	-0,101
-199,563	-30,471	0,035	-0,014
-198,548	-200,000	0,034	0,145
-197,533	257,969	-0,039	0,049
-196,519	-29,565	-0,078	0,032
-195,504	63,898	0,041	0,030
-194,490	800,000	0,018	-0,050
-193,475	232,681	0,093	-0,112
-192,460	-116,411	-0,151	-0,020
-191,446	800,000	-0,028	0,082
-190,431	800,000	0,072	0,148
-189,417	716,152	-0,049	0,096
-188,402	-199,910	-0,092	0,000
-187,387	785,977	0,059	0,118
-186,373	53,959	-0,039	-0,027
-185,358	-118,450	-0,088	0,011
-184,344	800,000	-0,022	0,052
-183,329	-200,000	0,028	0,118
-182,315	800,000	0,020	-0,053
-181,300	-200,000	-0,002	-0,127
-180,285	175,389	0,062	-0,065
-179,271	-49,818	-0,147	-0,050
-178,256	203,064	-0,069	-0,077
-177,242	800,000	0,020	-0,051
-176,227	32,620	0,116	0,073
-175,212	387,982	-0,049	0,074
-174,198	-200,000	0,003	0,163
-173,183	209,098	-0,062	0,070
-172,169	-82,801	-0,039	0,009
-171,154	394,989	-0,059	0,090
-170,139	-34,973	0,100	-0,039
-169,125	72,271	-0,104	0,078
-168,110	800,000	0,024	0,067
-167,096	-39,843	0,064	-0,024
-166,081	325,236	-0,042	0,058
-165,066	800,000	-0,025	0,063
-164,052	-54,505	-0,143	-0,047
-163,037	-3,375	0,027	0,014
-162,023	763,696	0,041	0,081
-161,008	263,351	-0,075	-0,095
-159,993	-54,685	0,081	0,026
-158,979	-99,044	0,097	-0,018
-157,964	786,822	-0,085	-0,169
-156,950	-200,000	-0,017	-0,089
-155,935	-47,602	0,100	-0,035
-154,920	-200,000	0,003	0,108
-153,906	441,450	-0,039	0,063
-152,891	-98,623	0,078	0,014
-151,877	-153,771	-0,179	-0,009
-150,862	23,290	0,050	0,030
-149,847	394,591	-0,018	0,027
-148,833	-200,000	0,008	-0,083
-147,818	120,557	0,038	-0,034
-146,804	4,450	-0,042	0,022
-145,789	-153,601	0,086	0,004
-144,775	-200,000	-0,012	-0,142
-143,760	800,000	-0,044	0,122
-142,745	146,421	-0,073	-0,071
-141,731	-3,568	0,103	-0,052
-140,716	5,982	0,096	-0,051
-139,702	202,954	0,154	0,173
-138,687	800,000	0,102	-0,207
-137,672	800,000	-0,052	0,116
-136,658	-113,418	-0,045	0,006
-135,643	-200,000	-0,015	0,108
-134,629	-87,833	-0,104	0,022
-133,614	-200,000	0,013	0,049
-132,599	472,494	-0,044	0,072
-131,585	62,083	0,061	0,044
-130,570	-200,000	-0,012	-0,087
-129,556	800,000	0,020	-0,047
-128,541	800,000	0,041	0,089
-127,526	-200,000	-0,031	0,101
-126,512	44,015	0,084	0,056
-125,497	-200,000	-0,007	0,127
-124,483	65,486	0,059	0,043
-123,468	800,000	0,039	0,121
-122,453	74,622	-0,132	0,101
-121,439	-200,000	-0,002	-0,009
-120,424	439,629	-0,059	0,094
-119,410	-9,698	0,066	0,032
-118,395	193,825	-0,035	0,039
