DTS Sentinel unit serial number:	SN410029Multiplexer serial number:	ORYXHardware model number:	OX2-SRSoftware version number:	ORYX F/W v4,00 Oryx Data Collector v3.7.2.0data status	okinstallation	B6 Nyhavnadifferential loss correction	single-endedforward channel	channel 2reverse channel	N/Adate	2023/12/10time	21:10:08forward acquisition time	300,00reverse acquisition time	0,00gamma	499,1914k internal	0,3123k external	0,3123temperature offset calibration	1,0000default loss term (dB/km)	0,3820temperature slope calibration	1,0000multiplexer offset coefficient	1,0000multiplexer slope coefficient	1,0000fibre end	0,00T internal ref (°C)	22,25T ext. ref 1 (°C)	5,98T ext. ref 2 (°C)	5,99length (m)	temperature (°C)	Stokes	anti-Stokes-744,400	800,000	0,080	-0,174
-743,385	194,587	-0,147	0,167
-742,371	-10,672	0,093	-0,046
-741,356	-36,209	-0,242	0,097
-740,342	800,000	-0,022	-0,066
-739,327	-4,465	-0,182	0,094
-738,312	319,705	-0,012	0,017
-737,298	-85,076	-0,312	0,072
-736,283	-20,021	0,094	0,043
-735,269	-113,555	-0,258	0,037
-734,254	800,000	-0,019	-0,048
-733,239	-9,394	-0,401	-0,199
-732,225	800,000	-0,023	-0,058
-731,210	0,446	-0,064	0,034
-730,196	-90,808	0,124	0,026
-729,181	800,000	-0,018	0,055
-728,167	60,673	-0,093	0,068
-727,152	417,681	0,043	-0,068
-726,137	-200,000	-0,034	-0,165
-725,123	800,000	0,043	-0,102
-724,108	-23,007	0,029	-0,013
-723,094	392,965	-0,041	-0,064
-722,079	106,944	-0,112	-0,099
-721,064	-24,647	0,134	0,059
-720,050	-200,000	0,007	-0,060
-719,035	-200,000	-0,004	0,028
-718,021	131,112	0,053	-0,051
-717,006	-171,836	-0,149	0,004
-715,991	623,604	0,029	-0,054
-714,977	215,174	-0,057	0,067
-713,962	-197,289	0,055	0,000
-712,948	-177,640	-0,048	0,001
-711,933	12,832	-0,022	-0,012
-710,918	10,349	-0,066	0,037
-709,904	-8,266	-0,039	-0,019
-708,889	25,907	-0,178	-0,110
-707,875	-200,000	-0,010	-0,040
-706,860	-200,000	-0,028	0,096
-705,845	-48,289	0,058	0,021
-704,831	289,770	-0,043	0,058
-703,816	800,000	-0,040	-0,092
-702,802	-94,832	-0,096	-0,019
-701,787	-72,899	0,056	0,015
-700,772	-17,683	-0,143	0,066
-699,758	-200,000	0,014	0,078
-698,743	516,758	0,065	0,113
-697,729	-32,600	-0,088	0,036
-696,714	239,412	-0,113	0,140
-695,699	226,164	0,086	-0,103
-694,685	-36,776	-0,228	-0,091
-693,670	-200,000	-0,007	-0,133
-692,656	-200,000	-0,015	-0,108
-691,641	-200,000	0,031	-0,157
-690,627	-200,000	0,006	-0,136
-689,612	46,166	-0,075	0,052
-688,597	64,338	-0,050	0,037
-687,583	-75,620	-0,073	0,019
-686,568	-142,582	0,054	0,004
-685,554	-200,000	-0,010	-0,123
-684,539	95,149	0,088	0,074
-683,524	-131,779	0,003	0,000
-682,510	-200,000	-0,029	-0,113
-681,495	496,687	0,052	-0,090
-680,481	253,662	-0,027	-0,035
-679,466	-200,000	0,026	-0,093
-678,451	24,852	0,090	-0,055
-677,437	213,617	0,039	-0,046
-676,422	-44,168	-0,045	-0,017
-675,408	194,347	0,073	-0,082
-674,393	-114,743	-0,052	-0,007
-673,378	-102,123	-0,056	0,010
-672,364	-156,869	-0,072	-0,003
-671,349	-94,975	-0,153	0,030
-670,335	-200,000	-0,026	0,109
-669,320	800,000	-0,031	0,080
-668,305	738,540	-0,022	0,043
-667,291	99,782	-0,096	0,082
-666,276	155,282	-0,030	-0,031
-665,262	-185,036	0,060	0,001
-664,247	-200,000	-0,009	0,052
-663,232	-152,430	-0,043	-0,002
-662,218	211,264	-0,063	0,074
-661,203	-200,000	0,014	0,096
-660,189	-200,000	-0,014	0,056
-659,174	628,687	-0,049	-0,093
-658,159	-106,005	-0,177	0,029
-657,145	26,705	0,075	-0,046
-656,130	800,000	0,029	-0,082
-655,116	-200,000	-0,004	-0,125
-654,101	-200,000	0,014	-0,080
-653,086	-94,244	-0,039	-0,008
-652,072	-122,923	0,064	0,008
-651,057	253,646	0,021	-0,027
-650,043	372,199	0,064	0,097
-649,028	303,365	0,066	-0,092
-648,014	-129,681	-0,072	-0,007
-646,999	338,067	0,039	0,057
-645,984	-200,000	-0,007	0,035
-644,970	302,528	-0,088	0,122
-643,955	800,000	-0,044	-0,109
-642,941	-200,000	-0,006	-0,054
-641,926	404,042	-0,057	0,089
-640,911	76,399	0,065	0,051
-639,897	-200,000	-0,023	0,079
-638,882	-200,000	-0,001	-0,030
-637,868	-77,900	0,040	0,010
-636,853	-143,003	-0,039	0,003
-635,838	29,887	0,067	-0,042
-634,824	-200,000	-0,005	-0,057
-633,809	800,000	-0,038	-0,082
-632,795	800,000	-0,029	0,060
-631,780	-40,288	-0,053	0,020
-630,765	544,281	0,034	-0,060
-629,751	-130,478	0,123	-0,012
-628,736	-144,926	-0,197	-0,013
-627,722	223,678	0,066	0,079
-626,707	-200,000	-0,004	0,119
-625,692	-200,000	-0,038	0,136
-624,678	-200,000	-0,009	0,202
-623,663	-102,641	0,102	-0,018
-622,649	34,991	-0,082	-0,053
-621,634	-71,093	-0,031	0,009
-620,619	24,276	0,118	0,072
-619,605	169,498	0,167	0,177
-618,590	223,461	0,058	0,070
-617,576	282,730	0,077	0,103
-616,561	-200,000	-0,008	0,076
-615,546	-6,163	0,041	-0,021
-614,532	-50,720	0,127	-0,044
-613,517	-200,000	0,027	-0,102
-612,503	241,913	-0,101	-0,126
-611,488	-109,368	0,006	0,001
-610,474	-104,675	0,135	0,023
-609,459	13,815	0,069	0,040
-608,444	29,039	-0,151	-0,095
-607,430	150,506	-0,118	-0,119
-606,415	66,805	-0,076	-0,057
-605,401	132,011	0,059	0,056
-604,386	-46,218	-0,072	-0,026
-603,371	800,000	-0,011	0,030
-602,357	487,675	-0,074	-0,127
-601,342	62,313	-0,057	0,042
-600,328	-200,000	0,013	-0,053
-599,313	224,431	0,096	-0,115
-598,298	563,613	0,056	0,100
-597,284	240,635	0,075	0,093
-596,269	714,142	0,044	-0,087
-595,255	-200,000	-0,004	0,111
-594,240	-15,804	-0,095	0,045
-593,225	-7,727	0,029	0,015
-592,211	-200,000	0,005	-0,091
-591,196	1,002	0,080	-0,042
-590,182	-87,715	-0,118	-0,026
-589,167	134,184	-0,048	0,047
-588,152	-200,000	0,012	0,040
-587,138	0,129	-0,064	-0,034
-586,123	-80,001	-0,143	-0,035
-585,109	800,000	0,027	-0,075
-584,094	-200,000	0,009	0,065
-583,079	229,873	-0,031	0,038
-582,065	-117,429	0,077	-0,010
-581,050	730,253	-0,012	0,024
-580,036	-200,000	-0,015	-0,085
-579,021	51,354	-0,038	0,027
-578,006	-200,000	-0,004	-0,041
-576,992	-126,820	-0,143	0,015
-575,977	402,089	0,068	0,106
-574,963	-200,000	0,028	0,149
-573,948	-32,668	-0,080	-0,033
-572,934	94,356	-0,076	0,064
-571,919	1,698	0,079	0,042
-570,904	82,785	0,081	0,065
-569,890	64,701	0,033	-0,024
-568,875	-18,098	-0,051	-0,024
-567,861	-110,114	-0,151	0,023
-566,846	185,969	0,124	0,137
-565,831	-200,000	-0,024	-0,184
-564,817	459,768	-0,039	-0,065
-563,802	185,303	0,060	-0,066
-562,788	46,726	0,039	-0,027
-561,773	76,100	-0,030	0,023
-560,758	171,355	0,042	0,045
-559,744	800,000	-0,022	-0,068
-558,729	-64,046	-0,064	0,019
-557,715	-200,000	-0,003	0,031
-556,700	-80,892	0,078	0,019
-555,685	-200,000	-0,006	-0,058
-554,671	-38,433	0,062	0,024
-553,656	232,977	0,054	-0,066
-552,642	192,886	0,085	0,095
-551,627	681,923	0,046	0,090
-550,612	-6,553	-0,037	-0,019
-549,598	270,633	-0,101	-0,132
-548,583	19,266	-0,016	-0,009
-547,569	800,000	0,051	-0,122
-546,554	800,000	-0,090	-0,195
-545,539	800,000	0,035	0,113
-544,525	800,000	-0,008	0,017
-543,510	93,927	0,062	-0,052
-542,496	275,090	-0,024	-0,032
-541,481	800,000	-0,074	-0,161
-540,466	428,561	0,027	-0,044
-539,452	-79,112	0,177	0,044
-538,437	71,349	-0,055	0,042
-537,423	-200,000	0,016	0,149
-536,408	167,865	0,116	0,122
-535,393	-200,000	-0,016	0,066
-534,379	-49,862	0,149	0,052
-533,364	267,849	-0,074	-0,096
-532,350	-60,450	0,107	0,033
-531,335	154,167	0,023	0,023
-530,321	89,631	-0,093	-0,076
-529,306	-200,000	-0,016	-0,063
-528,291	-200,000	-0,014	-0,086
-527,277	-200,000	-0,023	-0,142
-526,262	-200,000	-0,003	-0,103
-525,248	-200,000	-0,027	0,091
-524,233	-2,872	0,113	-0,058
-523,218	-6,240	-0,073	0,037
-522,204	78,868	0,052	-0,041
-521,189	-15,016	0,105	-0,050
-520,175	800,000	-0,023	-0,056
-519,160	122,056	-0,080	-0,074
-518,145	36,422	-0,060	-0,039
-517,131	62,234	-0,098	0,072
-516,116	-197,137	0,139	0,001
-515,102	-200,000	-0,007	0,083
-514,087	-200,000	0,026	0,107
-513,072	800,000	-0,034	0,089
-512,058	-51,379	-0,075	0,026
-511,043	285,199	0,069	-0,093
-510,029	800,000	0,001	-0,004
-509,014	286,887	0,045	0,061
-507,999	93,894	-0,090	-0,075
-506,985	-102,203	0,031	-0,005
-505,970	204,839	-0,057	-0,066
-504,956	-200,000	-0,034	-0,112
-503,941	-116,531	0,056	0,008
-502,926	800,000	0,072	0,159
-501,912	800,000	0,046	0,136
-500,897	312,332	-0,067	0,093
-499,883	-39,009	-0,037	0,014
-498,868	47,434	-0,159	-0,110
-497,853	-4,823	-0,041	-0,021
-496,839	295,304	0,036	-0,049
-495,824	298,620	-0,028	-0,038
-494,810	4,603	-0,098	-0,053
-493,795	74,430	0,039	-0,030
-492,781	6,135	-0,083	-0,046
-491,766	-153,996	-0,046	0,002
-490,751	-149,972	0,028	-0,002
-489,737	-200,000	-0,020	0,088
-488,722	-200,000	-0,015	-0,109
-487,708	196,930	-0,039	-0,044
-486,693	616,530	0,029	0,054
-485,678	-104,422	-0,155	-0,026
-484,664	322,976	0,042	-0,060
-483,649	102,269	-0,060	0,052
-482,635	-200,000	0,007	0,104
-481,620	-200,000	0,027	0,101
-480,605	-54,222	0,045	0,015
-479,591	368,660	0,039	0,058
-478,576	-123,712	-0,152	-0,018
-477,562	-80,266	-0,070	-0,017
-476,547	-200,000	-0,016	-0,256
-475,532	93,570	-0,093	-0,078
-474,518	484,031	0,034	-0,058
-473,503	-140,883	-0,103	-0,008
-472,489	800,000	0,015	-0,043
-471,474	84,999	0,087	-0,071
-470,459	-48,464	-0,108	0,038
-469,445	-18,119	-0,038	-0,018
-468,430	119,062	-0,079	-0,072
-467,416	160,932	0,134	-0,139
-466,401	732,821	0,035	-0,069
-465,386	-44,830	0,161	-0,059
-464,372	383,642	-0,057	-0,087
-463,357	66,737	-0,086	-0,064
-462,343	42,195	0,052	-0,035
-461,328	114,209	0,103	-0,093
-460,313	-200,000	0,013	-0,075
-459,299	22,697	0,148	0,089
-458,284	-200,000	-0,006	-0,077
-457,270	-200,000	0,015	0,085
-456,255	-159,135	-0,166	-0,007
-455,241	-115,841	-0,229	-0,031
-454,226	-200,000	0,005	-0,157
-453,211	23,917	-0,023	0,014
-452,197	-200,000	-0,004	0,158
-451,182	-200,000	0,000	-0,062
-450,168	-200,000	-0,013	0,058
-449,153	-83,865	-0,149	0,035
-448,138	412,037	0,123	-0,193
-447,124	800,000	-0,012	-0,032
-446,109	240,256	-0,039	0,048
-445,095	800,000	0,014	0,035
-444,080	87,008	-0,019	-0,016
-443,065	349,882	0,092	-0,134
-442,051	800,000	0,024	-0,070
-441,036	452,747	0,043	-0,071
-440,022	-200,000	-0,014	-0,051
-439,007	119,561	-0,051	0,047
-437,992	541,578	0,074	0,131
-436,978	213,338	0,145	0,169
-435,963	800,000	0,016	-0,045
-434,949	566,504	-0,051	0,091
-433,934	-1,108	-0,087	0,045
-432,919	148,869	0,040	-0,039
-431,905	102,036	-0,117	0,100
-430,890	-200,000	0,003	0,013
-429,876	619,661	0,028	0,053
-428,861	43,414	-0,096	0,064
-427,846	-138,889	0,103	0,008
-426,832	800,000	0,031	0,089
-425,817	128,301	-0,159	-0,149
-424,803	-149,196	0,015	-0,001
-423,788	458,438	0,048	0,080
-422,773	-138,854	-0,117	0,009
-421,759	111,906	0,073	-0,065
-420,744	-200,000	0,001	-0,051
-419,730	-200,000	-0,006	0,031
-418,715	183,827	0,112	-0,122
-417,701	-200,000	0,000	-0,058
-416,686	-96,263	-0,113	-0,022
-415,671	-33,941	0,096	0,039
-414,657	119,402	0,100	0,091
-413,642	-151,310	0,015	-0,001
-412,628	-36,514	-0,128	-0,050
-411,613	-14,485	-0,164	0,077
-410,598	591,385	-0,032	0,058
-409,584	-200,000	0,004	-0,015
-408,569	81,373	0,058	-0,046
-407,555	800,000	0,034	0,081
-406,540	-168,087	0,050	0,001
-405,525	126,628	0,096	-0,089
-404,511	267,898	-0,070	-0,090
-403,496	82,644	0,018	-0,015
-402,482	452,832	-0,037	-0,061
-401,467	-200,000	0,003	-0,123
-400,452	467,041	0,025	0,041
-399,438	24,953	0,128	-0,078
-398,423	800,000	-0,045	-0,147
-397,409	-200,000	-0,047	-0,164
-396,394	-100,718	-0,067	-0,012
-395,379	48,377	-0,110	-0,076
-394,365	107,590	-0,032	0,028
-393,350	-50,740	0,136	0,047
-392,336	25,426	-0,109	-0,067
-391,321	-51,798	0,106	-0,036
-390,306	214,840	-0,186	-0,217
-389,292	60,032	-0,060	0,044
-388,277	143,334	-0,034	-0,033
-387,263	133,434	0,092	0,088
-386,248	-200,000	0,009	-0,051
-385,233	-200,000	0,001	-0,020
-384,219	544,529	0,059	-0,103
-383,204	-90,228	-0,090	-0,019
-382,190	13,224	-0,073	0,041
-381,175	-200,000	0,036	-0,123
-380,160	800,000	0,028	-0,083
-379,146	-57,655	0,168	0,054
-378,131	-200,000	-0,004	0,021
-377,117	-200,000	-0,003	-0,063
-376,102	205,783	0,096	-0,109
-375,088	-127,303	-0,082	0,009
-374,073	437,046	0,041	-0,065
-373,058	112,937	-0,033	0,029
-372,044	-129,383	0,147	0,015
-371,029	-200,000	0,005	0,062
-370,015	-4,161	-0,118	-0,060
-369,000	-1,293	0,073	-0,038
-367,985	-21,586	-0,185	-0,083
-366,971	46,778	0,024	0,016
-365,956	150,216	0,058	-0,057
-364,942	73,013	0,116	-0,089
-363,927	-26,131	0,149	0,064
-362,912	345,841	0,036	-0,053
-361,898	-45,877	-0,107	0,039
-360,883	-183,944	-0,096	-0,001
-359,869	-62,844	-0,120	0,036
-358,854	800,000	-0,061	0,136
-357,839	800,000	-0,026	-0,063
-356,825	-19,494	0,101	-0,046
-355,810	467,164	0,058	-0,096
-354,796	484,533	0,024	-0,040
-353,781	800,000	0,070	-0,145
-352,766	-200,000	-0,014	-0,056
-351,752	68,556	0,077	-0,058
-350,737	472,298	0,004	-0,006
-349,723	-79,229	0,101	-0,025
-348,708	800,000	-0,028	0,088
-347,693	448,175	-0,065	-0,105
-346,679	110,823	-0,022	-0,020
-345,664	3,166	-0,108	-0,058
-344,650	-200,000	0,006	-0,024
-343,635	-200,000	-0,016	0,137
-342,620	199,706	0,082	0,093
-341,606	8,628	0,087	0,048
-340,591	-180,403	-0,068	0,001
-339,577	5,586	-0,129	-0,070
-338,562	-28,404	0,207	-0,087
-337,548	-169,957	0,172	0,004
-336,533	-200,000	0,031	0,199
-335,518	-3,570	0,022	0,011
-334,504	800,000	-0,067	0,142
-333,489	338,129	-0,030	0,043
-332,475	28,755	0,136	0,084
-331,460	-200,000	0,004	0,030
-330,445	104,375	0,063	-0,054
-329,431	-200,000	0,008	0,151
-328,416	-200,000	-0,004	-0,022
-327,402	-200,000	-0,029	0,159
-326,387	800,000	-0,055	0,145
-325,372	-46,262	-0,097	0,035
-324,358	-145,607	0,047	0,003
-323,343	800,000	-0,046	-0,126
-322,329	-93,051	0,019	-0,004
-321,314	-91,584	-0,040	0,008
-320,299	-200,000	0,002	0,097
-319,285	50,800	-0,122	0,085
-318,270	383,425	-0,023	-0,035
-317,256	164,260	0,021	0,021
-316,241	-39,384	-0,067	-0,026
-315,226	-77,354	-0,048	0,012
-314,212	25,229	0,107	0,065
-313,197	74,176	0,097	-0,075
-312,183	342,522	0,112	0,161
-311,168	800,000	-0,014	-0,038
-310,153	-142,495	-0,216	-0,015
-309,139	-41,669	0,127	-0,047
-308,124	-52,309	0,127	0,043
-307,110	-200,000	0,018	0,112
-306,095	623,192	-0,028	0,051
-305,080	-200,000	-0,034	0,119
-304,066	-200,000	-0,001	0,087
-303,051	-53,149	0,098	0,033
-302,037	752,480	-0,047	-0,093
-301,022	233,738	0,083	-0,100
-300,008	194,394	0,017	-0,019
-298,993	34,641	0,023	0,015
-297,978	38,785	0,082	-0,053
-296,964	96,731	-0,093	-0,078
-295,949	181,026	0,073	0,078
-294,935	55,114	0,066	-0,046
-293,920	129,840	-0,067	-0,063
-292,905	-200,000	0,043	-0,179
-291,891	-200,000	-0,004	-0,078
-290,876	-23,572	-0,089	-0,039
-289,862	-200,000	-0,004	0,035
-288,847	48,116	0,053	0,036
-287,832	-200,000	0,003	-0,034
-286,818	99,808	0,059	0,050
-285,803	-200,000	-0,040	-0,164
-284,789	-200,000	-0,020	0,134
-283,774	74,907	0,080	-0,061
-282,759	-200,000	0,020	0,112
-281,745	64,526	0,103	0,076
-280,730	-86,313	-0,044	-0,010
-279,716	-200,000	0,003	-0,070
-278,701	-200,000	-0,004	0,063
-277,686	-200,000	0,034	0,245
-276,672	-140,691	0,159	0,012
-275,657	-200,000	-0,003	0,058
-274,643	-72,069	-0,092	-0,025
-273,628	-5,695	-0,164	-0,082
-272,613	-35,049	-0,056	0,022
-271,599	81,743	0,055	-0,043
-270,584	155,024	-0,097	0,098
-269,570	-200,000	0,023	0,107
-268,555	-200,000	-0,000	0,004
-267,540	-200,000	0,025	-0,085
-266,526	247,610	-0,078	-0,097
-265,511	-150,512	0,029	-0,002
-264,497	200,649	-0,032	-0,036
-263,482	800,000	-0,038	0,091
-262,467	127,838	0,060	0,055
-261,453	-30,202	0,077	0,032
-260,438	-52,797	-0,061	0,020
-259,424	-200,000	0,022	0,126
-258,409	-200,000	0,011	-0,048
-257,395	96,911	0,042	0,035
-256,380	401,669	0,060	0,092
-255,365	505,256	0,066	0,112
-254,351	-200,000	-0,012	0,129
-253,336	-200,000	0,009	-0,108
-252,322	-150,551	0,059	-0,003
-251,307	-200,000	-0,010	-0,057
-250,292	46,722	-0,022	-0,015
-249,278	-104,152	-0,067	-0,011
-248,263	-75,982	0,045	0,012
-247,249	800,000	-0,009	0,020
-246,234	432,087	0,036	-0,058
-245,219	-92,814	0,174	0,035
-244,205	298,300	0,065	-0,087
-243,190	-148,610	-0,111	0,007
-242,176	-200,000	0,003	0,035
-241,161	-200,000	0,038	0,134
-240,146	-64,551	-0,012	-0,004
-239,132	-101,426	-0,156	0,028
-238,117	-26,613	-0,075	0,032
-237,103	618,253	0,069	-0,128
-236,088	37,586	-0,146	0,094
-235,073	800,000	-0,014	-0,040
-234,059	-118,489	0,073	0,009
-233,044	-27,625	-0,117	-0,050
-232,030	112,293	0,026	-0,023
-231,015	18,740	0,110	0,064
-230,000	-200,000	-0,006	-0,119
-228,986	-200,000	-0,013	0,073
-227,971	-93,602	0,060	0,012
-226,957	-200,000	-0,034	0,152
-225,942	-200,000	-0,002	-0,042
-224,927	154,098	-0,034	-0,034
-223,913	-200,000	0,012	-0,085
-222,898	800,000	-0,027	-0,084
-221,884	369,067	0,129	-0,191
-220,869	101,816	-0,078	0,066
-219,855	8,065	0,102	0,055
-218,840	800,000	0,043	0,132
-217,825	-200,000	-0,007	-0,123
-216,811	95,478	0,095	0,079
-215,796	800,000	-0,028	-0,071
-214,782	800,000	-0,024	0,053
-213,767	800,000	-0,038	0,082
-212,752	800,000	-0,037	0,111
-211,738	695,703	0,036	0,070
-210,723	-200,000	-0,005	-0,106
-209,709	-79,889	-0,029	0,007
-208,694	-200,000	0,005	0,045
-207,679	71,573	-0,086	0,065
-206,665	-200,000	-0,006	0,032
-205,650	800,000	0,033	-0,078
-204,636	7,346	-0,102	0,056
-203,621	800,000	0,072	0,195
-202,606	800,000	0,020	0,053
-201,592	236,694	-0,066	0,080
-200,577	-200,000	0,009	0,030
-199,563	400,576	0,053	0,082
-198,548	-200,000	-0,017	0,114
-197,533	-200,000	-0,014	0,129
-196,519	-133,711	0,041	0,004
-195,504	-200,000	0,016	-0,148
-194,490	-193,521	-0,006	0,000
-193,475	-61,949	0,026	-0,008
-192,460	39,823	-0,157	-0,102
-191,446	800,000	-0,054	0,169
-190,431	-200,000	0,003	0,087
-189,417	-200,000	0,010	0,038
-188,402	-200,000	0,026	-0,129
-187,387	136,859	-0,089	0,085
-186,373	203,641	-0,064	-0,073
-185,358	-200,000	-0,002	-0,064
-184,344	-200,000	0,007	-0,031
-183,329	-22,712	-0,036	0,016
-182,315	-200,000	0,010	0,036
-181,300	71,660	0,106	0,080
-180,285	-200,000	-0,019	0,085
-179,271	67,559	-0,112	-0,084
-178,256	517,091	0,073	0,124
-177,242	-200,000	0,022	-0,129
-176,227	-77,852	0,158	0,040
-175,212	-163,292	0,139	0,005
-174,198	160,533	-0,068	0,069
-173,183	224,107	-0,118	-0,139
-172,169	288,532	0,013	0,018
-171,154	-34,995	-0,089	-0,035
-170,139	-200,000	0,010	0,040
-169,125	-50,657	0,104	0,036
-168,110	-116,619	0,144	-0,019
-167,096	594,811	-0,055	0,100
-166,081	574,284	0,058	0,103
-165,066	-142,313	-0,067	0,005
-164,052	-200,000	-0,006	0,023
-163,037	65,973	0,037	-0,027
-162,023	456,535	0,004	0,007
-161,008	157,817	0,100	0,101
-159,993	95,110	-0,065	-0,054
-158,979	-200,000	-0,029	0,102
-157,964	170,442	-0,068	-0,071
-156,950	-74,918	-0,105	0,027
-155,935	319,216	-0,051	0,070
-154,920	-119,548	0,103	0,013
-153,906	-200,000	0,004	-0,073
-152,891	-126,636	-0,114	-0,012
-151,877	800,000	-0,003	0,009
-150,862	-10,972	-0,043	0,021
-149,847	23,056	-0,069	-0,041
-148,833	112,679	-0,123	-0,108
-147,818	-175,209	-0,168	-0,003
-146,804	329,007	0,023	0,032
-145,789	-2,873	-0,044	0,022
-144,775	-56,453	-0,091	0,029
-143,760	-200,000	-0,014	-0,130
-142,745	396,604	-0,050	0,077
-141,731	-100,576	0,051	-0,009
-140,716	-91,737	0,046	-0,009
-139,702	-200,000	0,016	0,082
-138,687	800,000	0,026	-0,061
-137,672	33,371	0,122	0,077
-136,658	369,170	-0,047	-0,070
-135,643	137,900	0,035	0,033
-134,629	-2,548	0,099	-0,050
-133,614	106,435	0,035	-0,030
-132,599	-200,000	0,022	-0,111
-131,585	-83,543	-0,060	0,014
-130,570	800,000	-0,013	-0,038
-129,556	687,839	-0,020	0,038
-128,541	-200,000	0,013	-0,085
-127,526	12,763	-0,042	-0,024
-126,512	67,624	0,072	-0,054
-125,497	100,627	0,053	-0,044
-124,483	68,226	0,034	-0,025
-123,468	107,924	-0,076	-0,066
-122,453	-5,902	-0,025	0,012
-121,439	-200,000	-0,040	-0,149
-120,424	800,000	-0,042	-0,114
-119,410	503,246	0,026	0,045
