DTS Sentinel unit serial number:	SN410029Multiplexer serial number:	ORYXHardware model number:	OX2-SRSoftware version number:	ORYX F/W v4,00 Oryx Data Collector v3.7.2.0data status	okinstallation	B6 Nyhavnadifferential loss correction	single-endedforward channel	channel 2reverse channel	N/Adate	2023/12/11time	05:25:08forward acquisition time	300,00reverse acquisition time	0,00gamma	499,1914k internal	0,3127k external	0,3127temperature offset calibration	1,0000default loss term (dB/km)	0,3820temperature slope calibration	1,0000multiplexer offset coefficient	1,0000multiplexer slope coefficient	1,0000fibre end	0,00T internal ref (°C)	20,00T ext. ref 1 (°C)	3,09T ext. ref 2 (°C)	3,12length (m)	temperature (°C)	Stokes	anti-Stokes-744,400	39,730	0,082	0,055
-743,385	-2,578	-0,234	0,122
-742,371	139,265	0,123	0,121
-741,356	-91,586	-0,188	0,040
-740,342	-106,508	0,029	-0,005
-739,327	-147,336	-0,275	-0,017
-738,312	-200,000	0,007	-0,061
-737,298	43,195	-0,169	0,114
-736,283	159,492	0,026	-0,027
-735,269	-16,940	-0,244	0,114
-734,254	-200,000	-0,001	0,036
-733,239	-55,057	-0,357	-0,119
-732,225	432,004	0,119	0,193
-731,210	-11,309	-0,097	-0,047
-730,196	9,539	-0,113	0,063
-729,181	-28,076	0,061	-0,026
-728,167	-200,000	0,017	0,069
-727,152	131,639	0,113	0,108
-726,137	-200,000	-0,019	-0,075
-725,123	-85,716	-0,075	-0,017
-724,108	-200,000	-0,018	-0,098
-723,094	-28,993	-0,109	-0,046
-722,079	-200,000	-0,038	-0,162
-721,064	192,770	-0,117	-0,131
-720,050	90,420	-0,085	0,071
-719,035	-200,000	0,022	0,192
-718,021	74,942	0,021	-0,016
-717,006	-85,612	-0,150	-0,034
-715,991	-80,487	0,081	0,020
-714,977	459,356	-0,019	0,031
-713,962	-200,000	0,001	-0,043
-712,948	-61,213	-0,056	0,018
-711,933	92,194	-0,017	-0,014
-710,918	-15,130	-0,080	-0,038
-709,904	-97,661	-0,101	-0,019
-708,889	76,678	-0,118	-0,093
-707,875	368,184	0,027	-0,040
-706,860	-200,000	-0,003	-0,076
-705,845	-0,136	0,103	0,054
-704,831	151,364	-0,033	-0,034
-703,816	-4,087	-0,183	0,094
-702,802	-95,973	0,096	0,019
-701,787	212,230	-0,065	-0,077
-700,772	384,285	0,085	-0,131
-699,758	-69,659	-0,084	-0,024
-698,743	-0,363	-0,163	0,086
-697,729	703,732	0,062	0,122
-696,714	324,360	0,028	0,040
-695,699	-200,000	0,008	0,051
-694,685	-200,000	-0,020	-0,067
-693,670	-89,058	0,118	0,026
-692,656	692,943	0,057	0,112
-691,641	0,272	0,088	-0,047
-690,627	214,357	0,063	0,074
-689,612	355,362	-0,048	0,071
-688,597	-136,210	0,077	-0,007
-687,583	246,971	-0,051	-0,065
-686,568	-200,000	-0,016	-0,093
-685,554	800,000	-0,022	0,069
-684,539	107,915	-0,048	0,043
-683,524	-200,000	0,039	0,135
-682,510	-200,000	0,036	0,138
-681,495	35,034	-0,069	0,045
-680,481	278,970	-0,024	0,032
-679,466	369,834	-0,019	-0,028
-678,451	54,437	-0,089	-0,064
-677,437	287,076	0,007	-0,010
-676,422	55,175	0,088	0,063
-675,408	800,000	0,050	0,156
-674,393	48,800	-0,085	-0,059
-673,378	274,361	-0,062	0,081
-672,364	67,705	-0,056	0,042
-671,349	800,000	0,033	-0,082
-670,335	268,096	0,079	-0,104
-669,320	-156,294	-0,115	-0,005
-668,305	34,280	0,125	0,081
-667,291	-200,000	-0,004	0,119
-666,276	148,140	0,104	0,105
-665,262	54,787	-0,078	-0,056
-664,247	456,442	-0,054	0,089
-663,232	-63,244	-0,065	-0,020
-662,218	-90,218	-0,014	-0,003
-661,203	-200,000	-0,032	-0,136
-660,189	108,033	-0,029	0,026
-659,174	-23,425	0,051	0,023
-658,159	-200,000	0,003	-0,026
-657,145	-119,877	0,071	-0,009
-656,130	-200,000	0,020	0,077
-655,116	46,920	0,039	-0,027
-654,101	17,361	0,064	0,038
-653,086	-105,689	-0,269	-0,045
-652,072	794,931	-0,020	0,041
-651,057	-200,000	0,003	-0,109
-650,043	-200,000	0,025	0,160
-649,028	-200,000	-0,022	0,075
-648,014	-59,505	0,077	0,025
-646,999	-131,237	-0,027	-0,003
-645,984	153,748	-0,012	-0,012
-644,970	379,469	-0,088	-0,134
-643,955	47,028	-0,063	0,043
-642,941	29,161	-0,124	0,078
-641,926	156,150	0,024	-0,024
-640,911	-15,220	0,124	0,059
-639,897	-11,647	-0,077	-0,038
-638,882	-200,000	0,015	0,073
-637,868	800,000	-0,075	0,195
-636,853	86,401	-0,138	-0,113
-635,838	-86,519	-0,113	0,026
-634,824	-123,003	0,027	0,003
-633,809	-200,000	-0,015	0,070
-632,795	479,496	-0,100	0,169
-631,780	-200,000	-0,013	-0,053
-630,765	-141,484	-0,148	0,011
-629,751	800,000	-0,051	-0,129
-628,736	-200,000	-0,013	-0,176
-627,722	90,251	-0,027	0,022
-626,707	55,825	0,049	0,035
-625,692	94,060	-0,043	-0,036
-624,678	-200,000	0,002	-0,094
-623,663	228,282	0,082	0,099
-622,649	46,553	-0,128	-0,088
-621,634	-57,812	-0,158	0,051
-620,619	-116,056	0,041	0,006
-619,605	620,063	0,033	-0,062
-618,590	710,563	-0,017	0,033
-617,576	15,035	0,051	0,030
-616,561	-112,681	0,086	-0,013
-615,546	-82,118	-0,104	0,025
-614,532	327,386	-0,113	-0,161
-613,517	-200,000	-0,019	-0,068
-612,503	-200,000	0,003	-0,091
-611,488	-38,325	0,120	0,047
-610,474	-200,000	-0,004	0,066
-609,459	800,000	-0,023	0,049
-608,444	-200,000	-0,006	-0,125
-607,430	520,406	0,031	-0,053
-606,415	160,756	-0,090	-0,093
-605,401	-82,736	-0,141	0,033
-604,386	800,000	-0,028	-0,073
-603,371	139,841	-0,073	0,072
-602,357	367,184	-0,075	-0,113
-601,342	103,664	-0,015	0,013
-600,328	247,040	0,029	-0,036
-599,313	368,043	-0,055	-0,083
-598,298	800,000	0,020	-0,051
-597,284	222,582	-0,061	-0,072
-596,269	557,438	0,054	0,097
-595,255	241,226	0,045	0,056
-594,240	-200,000	-0,005	-0,036
-593,225	-200,000	-0,010	-0,039
-592,211	156,994	-0,046	0,047
-591,196	551,393	-0,061	0,108
-590,182	217,067	-0,060	-0,071
-589,167	-113,949	-0,049	0,007
-588,152	45,721	0,020	0,014
-587,138	800,000	0,053	0,157
-586,123	19,673	-0,121	-0,072
-585,109	-43,500	-0,088	-0,033
-584,094	96,980	0,060	0,051
-583,079	207,872	0,043	0,049
-582,065	-200,000	0,005	0,048
-581,050	208,136	-0,090	0,104
-580,036	39,116	0,131	0,087
-579,021	-200,000	-0,009	0,066
-578,006	-200,000	-0,005	0,034
-576,992	203,774	-0,110	-0,126
-575,977	-96,334	0,201	-0,039
-574,963	-200,000	0,006	-0,053
-573,948	-65,350	-0,046	-0,014
-572,934	-200,000	0,023	0,100
-571,919	515,404	-0,092	-0,159
-570,904	193,981	-0,046	-0,052
-569,890	-200,000	0,003	-0,094
-568,875	-200,000	0,002	0,012
-567,861	800,000	0,022	0,071
-566,846	-128,804	-0,063	0,006
-565,831	-107,539	0,060	0,010
-564,817	-149,363	-0,075	0,004
-563,802	-200,000	0,009	-0,044
-562,788	707,036	-0,057	-0,111
-561,773	19,717	0,013	-0,007
-560,758	27,548	0,111	-0,069
-559,744	-58,880	0,106	-0,034
-558,729	-200,000	-0,015	0,103
-557,715	105,392	-0,035	-0,030
-556,700	-86,677	0,042	0,009
-555,685	478,297	-0,034	-0,057
-554,671	-142,647	0,225	-0,016
-553,656	-99,467	0,117	0,022
-552,642	304,735	-0,026	0,036
-551,627	-200,000	0,019	-0,082
-550,612	-200,000	-0,000	-0,014
-549,598	115,326	-0,023	-0,021
-548,583	-200,000	-0,011	0,136
-547,569	-200,000	-0,001	-0,101
-546,554	-200,000	0,011	-0,045
-545,539	786,227	-0,033	-0,067
-544,525	379,966	-0,047	0,071
-543,510	-30,126	0,041	0,017
-542,496	746,821	-0,037	-0,073
-541,481	800,000	-0,023	-0,050
-540,466	715,073	0,063	0,125
-539,452	132,781	0,046	0,044
-538,437	264,996	-0,042	-0,055
-537,423	-97,028	0,053	-0,010
-536,408	-200,000	-0,018	0,000
-535,393	-200,000	0,002	-0,085
-534,379	-156,208	-0,064	0,003
-533,364	-200,000	-0,005	-0,050
-532,350	-200,000	-0,005	-0,082
-531,335	275,816	0,030	-0,039
-530,321	-145,141	0,098	-0,006
-529,306	800,000	-0,076	-0,174
-528,291	-31,019	-0,155	0,064
-527,277	-36,081	-0,086	0,034
-526,262	800,000	0,039	0,088
-525,248	-200,000	-0,006	0,026
-524,233	-200,000	-0,002	-0,047
-523,218	-91,662	0,041	0,008
-522,204	-60,364	-0,135	-0,042
-521,189	33,308	0,064	-0,041
-520,175	4,005	0,108	-0,058
-519,160	140,950	0,045	0,044
-518,145	-0,755	-0,063	0,033
-517,131	-98,829	0,081	-0,015
-516,116	-44,318	0,060	-0,022
-515,102	-28,411	-0,159	-0,068
-514,087	171,974	-0,126	-0,134
-513,072	-200,000	-0,005	0,026
-512,058	88,011	0,083	0,068
-511,043	-200,000	-0,003	0,174
-510,029	684,945	-0,015	0,030
-509,014	244,666	-0,070	0,087
-507,999	800,000	0,019	0,053
-506,985	6,165	-0,057	-0,031
-505,970	800,000	-0,046	-0,105
-504,956	-185,820	0,059	-0,001
-503,941	-26,692	-0,042	-0,018
-502,926	28,489	0,053	0,033
-501,912	278,440	0,032	-0,042
-500,897	-200,000	0,001	-0,037
-499,883	115,348	0,036	-0,032
-498,868	-200,000	0,014	-0,122
-497,853	-92,236	-0,150	-0,031
-496,839	82,320	0,064	0,051
-495,824	-200,000	0,002	0,025
-494,810	734,634	-0,045	0,090
-493,795	-73,561	0,069	-0,018
-492,781	800,000	-0,020	0,050
-491,766	294,435	0,014	-0,019
-490,751	192,784	-0,124	-0,138
-489,737	-112,938	-0,046	0,007
-488,722	26,528	-0,015	0,009
-487,708	84,520	0,090	0,073
-486,693	-98,723	-0,117	-0,022
-485,678	-91,642	0,116	0,024
-484,664	-100,312	-0,089	0,016
-483,649	-66,521	0,018	-0,005
-482,635	130,555	0,021	0,020
-481,620	-200,000	0,042	0,141
-480,605	74,669	0,028	-0,022
-479,591	293,723	0,085	0,115
-478,576	-200,000	0,005	-0,034
-477,562	800,000	-0,017	0,043
-476,547	-200,000	-0,007	-0,073
-475,532	800,000	0,029	-0,061
-474,518	375,283	0,047	-0,071
-473,503	-107,791	0,084	0,013
-472,489	-107,084	-0,216	0,035
-471,474	205,334	0,009	0,010
-470,459	-168,529	-0,016	0,000
-469,445	800,000	-0,054	-0,116
-468,430	-147,705	0,122	-0,007
-467,416	-96,276	-0,018	0,003
-466,401	56,010	-0,086	-0,062
-465,386	51,857	0,085	-0,059
-464,372	-31,486	-0,051	-0,021
-463,357	183,305	-0,036	-0,039
-462,343	412,887	0,026	-0,040
-461,328	-35,320	-0,039	0,016
-460,313	-200,000	-0,008	0,121
-459,299	111,628	0,143	0,127
-458,284	72,182	-0,033	0,025
-457,270	-200,000	0,088	-0,000
-456,255	124,583	-0,014	0,013
-455,241	105,875	-0,041	0,036
-454,226	-2,628	-0,063	-0,033
-453,211	800,000	0,010	0,026
-452,197	239,806	-0,036	-0,044
-451,182	800,000	0,041	0,097
-450,168	-101,381	-0,112	0,020
-449,153	-200,000	0,003	-0,035
-448,138	143,583	-0,028	-0,028
-447,124	-200,000	0,031	-0,135
-446,109	-158,330	-0,007	-0,000
-445,095	-200,000	0,018	-0,065
-444,080	-57,213	0,087	-0,028
-443,065	310,021	-0,030	0,041
-442,051	87,634	-0,084	-0,068
-441,036	800,000	-0,050	-0,104
-440,022	29,385	0,037	-0,023
-439,007	800,000	0,009	-0,020
-437,992	-95,317	0,171	0,033
-436,978	406,630	-0,010	0,015
-435,963	-200,000	-0,007	0,031
-434,949	133,333	-0,065	0,061
-433,934	90,580	-0,061	0,050
-432,919	42,406	-0,107	-0,072
-431,905	-19,995	0,060	0,027
-430,890	800,000	0,105	-0,238
-429,876	-200,000	0,002	0,240
-428,861	-200,000	-0,006	0,084
-427,846	136,247	0,030	-0,028
-426,832	-1,463	-0,066	0,034
-425,817	273,147	-0,026	-0,034
-424,803	800,000	-0,056	-0,149
-423,788	-25,291	0,083	-0,036
-422,773	800,000	-0,015	0,043
-421,759	800,000	0,086	0,189
-420,744	-40,448	0,153	0,058
-419,730	17,404	-0,044	-0,026
-418,715	-128,273	0,054	0,006
-417,701	-89,267	-0,160	0,034
-416,686	-200,000	0,030	0,126
-415,671	180,862	0,060	0,065
-414,657	-104,263	0,159	-0,027
-413,642	215,982	-0,018	-0,021
-412,628	94,746	-0,016	0,013
-411,613	800,000	-0,029	-0,086
-410,598	-200,000	0,007	0,051
-409,584	179,998	0,076	-0,082
-408,569	-200,000	0,014	-0,071
-407,555	-92,706	0,217	0,044
-406,540	126,992	-0,048	-0,044
-405,525	733,136	0,036	-0,071
-404,511	-99,136	-0,143	-0,026
-403,496	-200,000	-0,036	-0,117
-402,482	800,000	0,033	-0,083
-401,467	-136,120	0,147	-0,013
-400,452	146,241	-0,025	-0,024
-399,438	-72,368	-0,077	-0,021
-398,423	-200,000	-0,031	-0,121
-397,409	-200,000	-0,018	0,101
-396,394	-200,000	-0,003	0,018
-395,379	-73,917	-0,023	0,006
-394,365	151,534	-0,087	0,087
-393,350	-200,000	0,011	0,060
-392,336	-200,000	0,016	0,053
-391,321	-200,000	0,021	-0,087
-390,306	-33,559	-0,125	-0,050
-389,292	-200,000	0,008	0,048
-388,277	308,927	0,010	0,013
-387,263	115,566	0,056	-0,050
-386,248	197,890	-0,073	0,082
-385,233	100,830	-0,039	0,033
-384,219	-199,316	0,117	-0,000
-383,204	800,000	-0,027	0,062
-382,190	-67,354	-0,038	-0,011
-381,175	800,000	-0,051	0,111
-380,160	487,067	-0,044	0,074
-379,146	-200,000	0,007	0,068
-378,131	4,462	0,055	0,029
-377,117	232,772	0,067	0,081
-376,102	800,000	-0,088	0,220
-375,088	13,417	-0,118	0,067
-374,073	-22,286	0,032	0,014
-373,058	-83,596	-0,051	-0,012
-372,044	-2,698	-0,046	-0,024
-371,029	-200,000	-0,021	-0,082
-370,015	195,870	0,084	0,094
-369,000	89,562	-0,020	0,016
-367,985	-200,000	0,021	0,095
-366,971	800,000	-0,041	0,131
-365,956	-63,511	0,135	0,040
-364,942	-83,109	0,083	-0,019
-363,927	-200,000	0,019	0,123
-362,912	-200,000	0,009	0,090
-361,898	-155,613	0,032	0,002
-360,883	174,797	-0,034	-0,037
-359,869	800,000	0,074	-0,179
-358,854	270,167	-0,027	0,035
-357,839	-131,253	0,173	0,017
-356,825	-200,000	-0,001	0,074
-355,810	82,177	0,036	-0,029
-354,796	800,000	-0,067	-0,155
-353,781	-200,000	-0,064	0,227
-352,766	-45,668	0,082	-0,030
-351,752	-165,603	0,079	0,002
-350,737	591,901	0,120	0,218
-349,723	-200,000	-0,037	-0,194
-348,708	478,494	-0,025	0,041
-347,693	519,702	-0,067	0,116
-346,679	205,157	0,050	0,057
-345,664	55,886	-0,040	-0,028
-344,650	-200,000	-0,008	-0,063
-343,635	-200,000	0,010	0,090
-342,620	-200,000	-0,020	0,077
-341,606	0,723	-0,087	-0,046
-340,591	-102,426	0,036	-0,006
-339,577	800,000	0,023	0,066
-338,562	-2,987	-0,103	-0,052
-337,548	-200,000	0,018	-0,092
-336,533	800,000	0,064	0,144
-335,518	507,926	0,101	-0,173
-334,504	-200,000	0,028	-0,131
-333,489	371,116	-0,003	0,005
-332,475	-1,680	-0,120	-0,062
-331,460	156,321	-0,138	-0,139
-330,445	547,053	0,082	-0,144
-329,431	423,958	0,047	-0,075
-328,416	-200,000	0,005	-0,090
-327,402	103,815	0,055	-0,047
-326,387	800,000	0,053	0,169
-325,372	121,090	-0,161	-0,147
-324,358	300,785	-0,063	-0,085
-323,343	101,767	0,146	-0,124
-322,329	800,000	0,049	0,110
-321,314	-200,000	0,017	0,199
-320,299	-200,000	-0,002	-0,009
-319,285	-95,640	0,031	0,006
-318,270	145,261	0,094	0,092
-317,256	318,123	-0,044	-0,061
-316,241	29,353	0,061	-0,038
-315,226	260,041	0,064	0,081
-314,212	343,724	0,086	0,124
-313,197	529,772	-0,048	0,084
-312,183	800,000	-0,027	0,074
-311,168	-200,000	-0,008	-0,098
-310,153	760,620	0,060	-0,120
-309,139	-124,129	0,076	0,009
-308,124	-107,029	-0,034	0,005
-307,110	-84,105	0,212	0,049
-306,095	82,825	-0,080	-0,063
-305,080	800,000	0,025	-0,065
-304,066	-200,000	-0,014	0,110
-303,051	153,923	0,033	-0,033
-302,037	51,728	0,027	-0,019
-301,022	-182,192	0,089	-0,001
-300,008	120,806	0,147	0,134
-298,993	89,046	-0,076	-0,062
-297,978	61,258	0,036	0,026
-296,964	-200,000	-0,003	-0,013
-295,949	15,574	-0,096	-0,055
-294,935	340,623	-0,064	0,092
-293,920	-200,000	-0,053	0,180
-292,905	-93,455	0,068	-0,014
-291,891	-150,043	0,093	0,005
-290,876	22,761	0,066	0,039
-289,862	-56,413	-0,072	-0,023
-288,847	-200,000	0,006	-0,067
-287,832	-82,400	0,161	-0,038
-286,818	755,917	-0,074	-0,147
-285,803	105,619	0,060	0,052
-284,789	204,790	0,123	0,140
-283,774	-200,000	0,005	0,052
-282,759	105,599	0,071	-0,061
-281,745	332,333	-0,048	0,068
-280,730	65,632	-0,132	-0,097
-279,716	28,994	-0,080	-0,049
-278,701	670,603	0,053	0,100
-277,686	800,000	0,023	0,060
-276,672	-51,123	0,021	-0,007
-275,657	800,000	-0,028	0,068
-274,643	150,067	-0,043	-0,043
-273,628	513,448	-0,032	-0,056
-272,613	-165,102	-0,055	-0,002
-271,599	-200,000	0,056	0,199
-270,584	68,300	0,011	0,008
-269,570	-13,727	-0,073	-0,034
-268,555	-30,719	0,100	0,041
-267,540	-115,720	-0,096	0,013
-266,526	800,000	-0,019	0,041
-265,511	-170,038	-0,136	0,003
-264,497	-200,000	0,003	0,137
-263,482	800,000	0,012	-0,031
-262,467	-65,921	0,077	0,022
-261,453	304,940	-0,055	0,075
-260,438	-200,000	-0,037	0,122
-259,424	29,794	0,111	-0,069
-258,409	-200,000	-0,022	-0,091
-257,395	-200,000	0,006	0,052
-256,380	160,515	0,028	-0,029
-255,365	-44,132	0,195	0,071
-254,351	446,662	-0,062	0,101
-253,336	92,763	-0,044	0,036
-252,322	141,626	-0,186	0,180
-251,307	-200,000	0,020	-0,197
-250,292	-36,424	-0,047	0,018
-249,278	800,000	-0,044	-0,108
-248,263	-79,143	-0,016	0,004
-247,249	66,345	0,108	0,080
-246,234	88,352	-0,098	0,079
-245,219	-93,012	-0,043	0,009
-244,205	-200,000	-0,026	-0,162
-243,190	-200,000	0,003	-0,046
-242,176	-60,634	0,134	0,041
-241,161	800,000	-0,036	0,097
-240,146	-79,575	-0,046	0,011
-239,132	-122,396	0,024	0,003
-238,117	-60,173	-0,033	-0,010
-237,103	124,448	-0,028	0,025
-236,088	-94,863	0,039	0,008
-235,073	-80,078	0,123	0,030
-234,059	-62,015	0,065	0,020
-233,044	12,412	0,091	0,051
-232,030	-200,000	-0,052	-0,241
-231,015	-200,000	-0,008	-0,089
-230,000	135,906	0,116	-0,110
-228,986	-133,369	-0,122	0,011
-227,971	529,788	0,012	-0,021
-226,957	-200,000	0,002	-0,142
-225,942	-200,000	0,043	0,154
-224,927	-115,203	-0,030	0,004
-223,913	86,748	0,128	-0,103
-222,898	241,634	-0,061	-0,075
-221,884	-2,085	-0,035	-0,018
-220,869	800,000	0,007	-0,021
-219,855	-63,019	0,017	-0,005
-218,840	86,650	-0,040	0,032
-217,825	691,772	-0,053	0,102
-216,811	484,009	0,054	-0,090
-215,796	57,566	-0,156	-0,111
-214,782	5,350	-0,027	-0,014
-213,767	-113,822	0,130	0,018
-212,752	-200,000	-0,001	0,060
-211,738	-117,050	0,074	0,010
-210,723	-89,299	0,017	-0,004
-209,709	800,000	-0,052	0,106
-208,694	566,305	-0,024	0,042
-207,679	-13,269	0,153	-0,072
-206,665	18,748	0,017	0,010
-205,650	-98,730	0,039	0,007
-204,636	286,574	0,131	0,173
-203,621	-200,000	-0,005	-0,031
-202,606	-97,970	0,064	-0,012
-201,592	-200,000	0,028	0,100
-200,577	305,248	-0,055	-0,074
-199,563	720,379	0,040	0,079
-198,548	150,597	0,058	0,057
-197,533	800,000	0,008	0,016
-196,519	-200,000	0,032	-0,122
-195,504	-85,117	-0,144	-0,033
-194,490	106,790	0,070	-0,061
-193,475	161,134	-0,056	-0,057
-192,460	76,600	-0,114	0,088
-191,446	-200,000	0,007	-0,026
-190,431	351,193	0,059	-0,085
-189,417	-200,000	0,047	-0,177
-188,402	323,414	0,044	-0,062
-187,387	-200,000	-0,016	-0,140
-186,373	-200,000	-0,028	0,116
-185,358	-62,985	-0,060	0,018
-184,344	-200,000	-0,026	-0,110
-183,329	-168,389	0,103	-0,003
-182,315	122,168	0,104	0,095
-181,300	128,837	-0,043	-0,040
-180,285	126,951	-0,031	-0,029
-179,271	-71,015	-0,064	0,017
-178,256	-11,325	0,128	0,061
-177,242	-148,397	-0,037	-0,002
-176,227	53,612	0,081	0,057
-175,212	-108,952	-0,009	0,001
-174,198	311,662	-0,050	0,068
-173,183	529,879	-0,084	-0,145
-172,169	-200,000	-0,008	-0,041
-171,154	-200,000	-0,003	-0,032
-170,139	-176,695	0,125	0,002
-169,125	-167,093	0,201	-0,006
-168,110	800,000	0,029	-0,087
-167,096	596,378	-0,047	0,086
-166,081	-69,597	0,084	0,023
-165,066	143,033	0,102	-0,099
-164,052	365,536	-0,010	0,015
-163,037	-58,157	-0,065	-0,021
-162,023	-200,000	-0,006	0,028
-161,008	-200,000	0,024	0,115
-159,993	656,519	-0,029	0,055
-158,979	-200,000	-0,026	-0,108
-157,964	-82,240	-0,131	-0,031
-156,950	30,057	-0,059	-0,037
-155,935	-78,495	-0,064	0,016
-154,920	-200,000	-0,024	-0,078
-153,906	236,990	-0,090	0,109
-152,891	-200,000	0,025	0,095
-151,877	228,300	-0,060	-0,071
-150,862	800,000	-0,016	-0,035
-149,847	-68,986	0,138	0,039
-148,833	311,961	0,022	-0,031
-147,818	54,007	-0,087	-0,061
-146,804	11,730	0,118	0,066
-145,789	-200,000	0,048	0,159
-144,775	-70,713	0,136	-0,037
-143,760	260,412	0,025	-0,032
-142,745	23,048	0,028	-0,017
-141,731	145,755	0,065	0,064
-140,716	-200,000	0,003	0,056
-139,702	38,880	0,106	0,068
-138,687	254,839	0,045	0,056
-137,672	-200,000	-0,030	0,103
-136,658	-8,442	-0,100	-0,049
-135,643	-98,329	0,071	-0,013
-134,629	-200,000	0,027	0,165
-133,614	5,278	0,049	0,026
-132,599	228,201	-0,061	0,073
-131,585	64,711	-0,144	0,105
-130,570	-200,000	0,022	0,072
-129,556	-200,000	-0,000	0,071
-128,541	-41,539	-0,111	0,041
-127,526	170,623	0,028	0,030
-126,512	314,644	0,044	0,060
-125,497	-47,926	0,053	0,019
-124,483	-53,092	0,100	-0,033
-123,468	48,508	0,051	-0,035
-122,453	-18,155	-0,095	-0,043
-121,439	-149,071	-0,132	0,008
-120,424	302,484	-0,038	0,051
-119,410	-75,677	-0,132	-0,034
