DTS Sentinel unit serial number:	SN410029Multiplexer serial number:	ORYXHardware model number:	OX2-SRSoftware version number:	ORYX F/W v4,00 Oryx Data Collector v3.7.2.0data status	okinstallation	B6 Nyhavnadifferential loss correction	single-endedforward channel	channel 2reverse channel	N/Adate	2023/12/09time	18:10:08forward acquisition time	300,00reverse acquisition time	0,00gamma	499,1914k internal	0,3130k external	0,3130temperature offset calibration	1,0000default loss term (dB/km)	0,3820temperature slope calibration	1,0000multiplexer offset coefficient	1,0000multiplexer slope coefficient	1,0000fibre end	0,00T internal ref (°C)	21,03T ext. ref 1 (°C)	4,74T ext. ref 2 (°C)	4,75length (m)	temperature (°C)	Stokes	anti-Stokes-744,400	93,906	0,086	-0,072
-743,385	-8,894	-0,150	-0,075
-742,371	57,015	0,216	0,157
-741,356	73,072	-0,220	0,171
-740,342	-142,919	0,216	0,015
-739,327	46,351	-0,192	0,133
-738,312	-187,837	0,100	-0,001
-737,298	-53,664	-0,255	-0,086
-736,283	530,743	0,039	-0,069
-735,269	-120,178	-0,265	0,033
-734,254	-0,612	0,028	-0,015
-733,239	-48,615	-0,344	-0,122
-732,225	17,538	0,179	-0,106
-731,210	-43,849	0,176	0,066
-730,196	-200,000	0,002	-0,014
-729,181	334,013	-0,010	-0,015
-728,167	-49,178	0,167	-0,059
-727,152	-76,401	-0,135	-0,035
-726,137	800,000	0,027	-0,079
-725,123	-121,423	-0,187	-0,023
-724,108	512,737	-0,095	-0,165
-723,094	-200,000	-0,015	-0,118
-722,079	-151,529	0,068	0,004
-721,064	-200,000	-0,016	-0,137
-720,050	387,691	-0,022	-0,034
-719,035	-200,000	0,018	0,194
-718,021	261,755	-0,035	0,045
-717,006	61,117	-0,053	-0,039
-715,991	-103,898	-0,100	-0,017
-714,977	98,749	0,071	-0,061
-713,962	144,962	0,006	-0,006
-712,948	106,929	-0,066	0,058
-711,933	800,000	-0,040	0,103
-710,918	-35,956	-0,133	-0,053
-709,904	-6,430	-0,042	-0,021
-708,889	76,434	0,055	-0,043
-707,875	250,647	-0,084	-0,107
-706,860	15,956	-0,062	-0,036
-705,845	-200,000	0,007	0,176
-704,831	256,656	0,150	0,192
-703,816	-42,895	-0,089	0,033
-702,802	-200,000	-0,008	0,032
-701,787	-200,000	-0,015	-0,101
-700,772	800,000	0,023	-0,060
-699,758	800,000	0,031	-0,098
-698,743	-200,000	-0,025	-0,135
-697,729	800,000	-0,053	0,111
-696,714	266,583	-0,090	-0,117
-695,699	-91,161	-0,057	-0,012
-694,685	-200,000	0,012	-0,115
-693,670	563,731	-0,085	-0,153
-692,656	-200,000	-0,026	-0,103
-691,641	77,702	0,062	0,049
-690,627	-163,731	-0,013	0,000
-689,612	206,294	0,014	-0,016
-688,597	800,000	-0,065	-0,181
-687,583	-200,000	0,007	0,090
-686,568	-177,134	-0,082	-0,001
-685,554	331,614	-0,095	-0,137
-684,539	82,398	0,065	0,052
-683,524	-74,004	-0,085	-0,023
-682,510	121,690	-0,088	-0,082
-681,495	47,143	-0,026	-0,018
-680,481	192,018	-0,083	-0,093
-679,466	-200,000	-0,004	-0,061
-678,451	287,704	0,045	0,061
-677,437	577,957	0,043	-0,079
-676,422	46,211	0,025	-0,017
-675,408	372,363	0,056	-0,085
-674,393	-200,000	0,012	-0,129
-673,378	416,111	-0,052	-0,083
-672,364	-97,146	0,075	-0,014
-671,349	-200,000	-0,019	-0,071
-670,335	481,728	-0,054	0,092
-669,320	-200,000	0,029	-0,097
-668,305	-28,831	0,062	-0,026
-667,291	174,591	-0,102	-0,110
-666,276	800,000	0,036	0,093
-665,262	-56,077	-0,140	0,046
-664,247	36,670	-0,105	0,068
-663,232	109,016	0,079	0,070
-662,218	311,814	-0,061	0,085
-661,203	156,648	0,029	-0,030
-660,189	-108,310	-0,145	0,023
-659,174	-31,448	-0,033	-0,014
-658,159	800,000	0,086	-0,180
-657,145	41,885	-0,069	-0,046
-656,130	-200,000	-0,005	-0,038
-655,116	800,000	-0,042	-0,124
-654,101	354,522	-0,031	-0,046
-653,086	-50,393	-0,089	-0,031
-652,072	800,000	0,013	0,042
-651,057	-144,202	0,074	-0,005
-650,043	800,000	-0,021	-0,069
-649,028	-200,000	-0,005	-0,090
-648,014	800,000	0,037	-0,113
-646,999	-129,034	0,089	0,009
-645,984	-38,099	-0,022	-0,009
-644,970	-200,000	-0,041	-0,194
-643,955	-200,000	-0,060	-0,201
-642,941	-200,000	-0,015	0,064
-641,926	0,274	0,071	0,037
-640,911	-27,093	-0,085	-0,037
-639,897	-200,000	-0,002	-0,020
-638,882	-200,000	0,025	-0,114
-637,868	-93,741	-0,121	0,024
-636,853	459,868	0,036	-0,059
-635,838	-13,283	-0,070	0,034
-634,824	180,874	0,023	0,025
-633,809	-126,512	-0,076	0,008
-632,795	-200,000	-0,006	0,082
-631,780	491,495	0,099	0,168
-630,765	-200,000	-0,032	-0,110
-629,751	-200,000	-0,001	-0,021
-628,736	-112,908	-0,074	-0,011
-627,722	216,115	0,108	-0,127
-626,707	124,041	0,015	0,014
-625,692	69,963	-0,149	-0,114
-624,678	200,413	-0,037	0,042
-623,663	254,807	-0,099	-0,125
-622,649	279,283	-0,055	0,072
-621,634	-200,000	-0,007	-0,095
-620,619	250,815	-0,112	0,142
-619,605	-200,000	-0,018	0,065
-618,590	-200,000	0,005	0,073
-617,576	238,883	0,055	-0,068
-616,561	-200,000	0,022	0,126
-615,546	800,000	-0,024	0,056
-614,532	48,663	0,014	0,010
-613,517	7,286	-0,094	-0,052
-612,503	87,090	0,019	-0,016
-611,488	201,869	0,090	-0,103
-610,474	-200,000	-0,042	0,204
-609,459	548,383	-0,035	0,063
-608,444	-122,745	-0,098	0,012
-607,430	56,168	-0,078	-0,056
-606,415	-112,502	-0,146	0,021
-605,401	-200,000	0,005	-0,068
-604,386	-66,830	0,035	-0,010
-603,371	-200,000	-0,005	0,019
-602,357	193,130	-0,096	-0,108
-601,342	-42,888	-0,098	-0,037
-600,328	800,000	0,070	-0,164
-599,313	120,809	0,069	-0,064
-598,298	226,538	0,075	-0,091
-597,284	-75,745	0,121	-0,031
-596,269	-200,000	0,012	0,100
-595,255	-200,000	-0,005	0,099
-594,240	-200,000	-0,032	0,190
-593,225	-150,327	-0,047	0,003
-592,211	122,095	-0,072	-0,066
-591,196	800,000	-0,006	0,017
-590,182	-88,921	0,101	-0,022
-589,167	-38,519	0,090	0,035
-588,152	126,552	-0,015	0,014
-587,138	-200,000	0,004	-0,042
-586,123	-80,975	-0,104	0,025
-585,109	-24,502	-0,055	-0,024
-584,094	104,578	0,175	-0,153
-583,079	708,660	0,082	0,161
-582,065	-78,848	-0,204	0,051
-581,050	-128,632	-0,043	-0,004
-580,036	526,746	0,030	-0,053
-579,021	235,867	-0,056	0,068
-578,006	298,342	-0,067	-0,091
-576,992	-16,146	-0,116	0,054
-575,977	13,693	0,013	-0,007
-574,963	202,201	0,008	-0,009
-573,948	-200,000	0,010	0,080
-572,934	-54,061	0,040	-0,013
-571,919	-200,000	0,007	-0,063
-570,904	-90,483	0,228	-0,048
-569,890	-169,424	-0,082	0,002
-568,875	800,000	0,054	-0,126
-567,861	-4,124	0,045	0,023
-566,846	145,777	0,081	0,080
-565,831	53,777	-0,029	-0,020
-564,817	800,000	0,015	-0,034
-563,802	32,069	-0,063	-0,040
-562,788	-57,180	-0,054	0,017
-561,773	123,187	0,064	0,059
-560,758	453,094	0,038	0,063
-559,744	-200,000	-0,002	0,038
-558,729	-200,000	0,000	-0,097
-557,715	184,608	0,086	0,094
-556,700	18,167	0,110	-0,065
-555,685	-200,000	-0,021	0,117
-554,671	-200,000	0,009	-0,070
-553,656	93,817	0,084	0,071
-552,642	800,000	0,020	0,047
-551,627	124,664	-0,048	-0,044
-550,612	-75,890	-0,120	-0,031
-549,598	-200,000	-0,026	-0,133
-548,583	800,000	-0,056	-0,154
-547,569	38,367	0,133	-0,088
-546,554	208,544	-0,024	0,028
-545,539	128,781	0,102	-0,096
-544,525	-196,009	-0,080	-0,000
-543,510	237,922	0,026	-0,032
-542,496	35,493	-0,069	-0,044
-541,481	-200,000	-0,000	-0,116
-540,466	123,244	0,055	0,050
-539,452	164,783	-0,066	-0,069
-538,437	92,890	0,056	-0,047
-537,423	182,949	-0,074	0,081
-536,408	800,000	-0,012	0,037
-535,393	-200,000	0,018	-0,150
-534,379	-200,000	0,015	-0,215
-533,364	423,723	0,063	0,100
-532,350	225,900	0,043	0,051
-531,335	-117,807	0,054	-0,007
-530,321	223,516	0,049	-0,058
-529,306	-35,530	0,020	-0,008
-528,291	-29,055	-0,090	-0,038
-527,277	800,000	0,016	-0,053
-526,262	22,958	0,055	0,033
-525,248	-113,529	-0,041	0,006
-524,233	48,229	0,050	-0,034
-523,218	323,099	-0,067	0,094
-522,204	742,580	-0,064	-0,127
-521,189	295,272	-0,064	-0,086
-520,175	-95,160	-0,099	0,020
-519,160	-5,017	-0,124	-0,063
-518,145	205,512	0,065	0,075
-517,131	-103,777	0,117	0,020
-516,116	-100,608	0,109	-0,020
-515,102	-25,959	-0,057	-0,024
-514,087	-200,000	0,012	0,063
-513,072	-200,000	-0,004	-0,022
-512,058	-200,000	0,019	-0,161
-511,043	-200,000	-0,029	-0,120
-510,029	726,567	0,040	0,079
-509,014	236,335	0,051	-0,062
-507,999	800,000	0,031	-0,066
-506,985	168,840	-0,096	-0,101
-505,970	800,000	0,031	-0,072
-504,956	-36,945	-0,109	0,043
-503,941	184,292	0,108	-0,118
-502,926	800,000	-0,020	0,065
-501,912	-40,690	-0,118	-0,045
-500,897	-194,412	0,098	0,001
-499,883	-136,814	0,105	0,009
-498,868	91,994	0,022	0,018
-497,853	340,917	-0,020	-0,028
-496,839	270,112	-0,028	-0,036
-495,824	-108,807	-0,159	-0,025
-494,810	109,626	-0,084	0,075
-493,795	800,000	-0,047	0,124
-492,781	-200,000	-0,017	0,073
-491,766	-200,000	0,023	-0,086
-490,751	-200,000	-0,022	0,076
-489,737	733,687	0,023	0,046
-488,722	-107,096	0,182	-0,029
-487,708	-200,000	0,067	0,229
-486,693	-200,000	0,005	0,078
-485,678	-200,000	-0,014	0,082
-484,664	75,144	-0,044	-0,034
-483,649	-200,000	-0,009	-0,056
-482,635	-122,683	0,036	-0,004
-481,620	350,073	-0,001	-0,002
-480,605	512,322	0,082	-0,141
-479,591	245,147	0,096	0,120
-478,576	588,582	0,022	0,041
-477,562	153,554	-0,006	0,006
-476,547	375,734	-0,044	0,066
-475,532	616,228	-0,032	0,059
-474,518	-138,223	-0,125	0,010
-473,503	-41,048	0,064	0,024
-472,489	45,741	0,020	-0,014
-471,474	-200,000	0,010	-0,236
-470,459	-44,802	-0,114	0,042
-469,445	377,008	-0,028	-0,043
-468,430	6,259	0,134	-0,073
-467,416	113,721	0,138	0,123
-466,401	298,336	0,055	0,074
-465,386	-200,000	0,028	0,112
-464,372	-200,000	-0,007	-0,089
-463,357	800,000	0,022	-0,055
-462,343	-78,825	-0,123	0,031
-461,328	-53,744	-0,098	-0,033
-460,313	113,649	0,091	0,082
-459,299	800,000	0,047	-0,100
-458,284	-52,771	-0,007	0,003
-457,270	-180,029	0,101	0,002
-456,255	48,610	0,025	-0,017
-455,241	250,326	-0,094	-0,118
-454,226	-125,122	-0,044	0,005
-453,211	-110,683	0,117	0,018
-452,197	800,000	-0,020	0,045
-451,182	-200,000	0,024	-0,084
-450,168	442,917	-0,023	0,037
-449,153	631,391	-0,047	0,089
-448,138	-59,720	-0,035	-0,011
-447,124	81,197	-0,032	-0,025
-446,109	175,394	-0,023	0,025
-445,095	324,687	-0,058	0,082
-444,080	-200,000	-0,014	0,098
-443,065	99,340	0,043	0,037
-442,051	800,000	-0,053	-0,127
-441,036	-200,000	0,012	-0,176
-440,022	338,712	-0,051	-0,073
-439,007	-200,000	0,001	0,022
-437,992	-200,000	-0,025	0,148
-436,978	-17,680	-0,055	0,026
-435,963	-20,458	0,101	0,046
-434,949	524,503	0,031	-0,054
-433,934	59,510	-0,196	-0,142
-432,919	347,530	-0,033	0,048
-431,905	406,929	-0,039	-0,060
-430,890	-200,000	0,006	-0,081
-429,876	-50,132	0,063	-0,022
-428,861	800,000	0,042	0,091
-427,846	800,000	0,036	0,102
-426,832	-200,000	0,026	-0,109
-425,817	-200,000	0,025	-0,082
-424,803	411,447	-0,039	-0,060
-423,788	81,245	0,110	-0,087
-422,773	260,900	0,031	-0,039
-421,759	-200,000	0,023	0,131
-420,744	91,762	0,046	0,038
-419,730	-110,674	-0,054	0,008
-418,715	-50,697	-0,097	-0,033
-417,701	161,598	-0,049	-0,050
-416,686	16,598	0,075	0,044
-415,671	313,856	0,064	0,089
-414,657	100,914	0,023	-0,020
-413,642	-132,732	0,069	0,006
-412,628	-85,451	0,013	-0,003
-411,613	371,844	-0,046	-0,068
-410,598	800,000	0,007	0,019
-409,584	-99,120	0,083	-0,015
-408,569	800,000	0,009	0,024
-407,555	8,568	0,042	-0,023
-406,540	-50,860	0,079	0,027
-405,525	-143,243	-0,107	-0,007
-404,511	315,939	-0,076	0,106
-403,496	-200,000	0,007	0,092
-402,482	119,531	-0,094	-0,085
-401,467	-200,000	0,046	0,152
-400,452	11,191	0,101	0,057
-399,438	-200,000	0,012	-0,118
-398,423	57,977	-0,159	0,114
-397,409	-200,000	0,023	-0,122
-396,394	-122,703	-0,094	-0,011
-395,379	800,000	0,013	0,036
-394,365	601,605	0,046	-0,085
-393,350	269,753	0,032	0,041
-392,336	-200,000	-0,006	0,019
-391,321	-80,907	-0,047	0,011
-390,306	800,000	-0,017	-0,041
-389,292	-28,696	-0,114	0,048
-388,277	120,983	-0,078	-0,071
-387,263	-200,000	0,010	-0,035
-386,248	-103,556	0,147	0,025
-385,233	488,585	-0,034	0,057
-384,219	-154,587	-0,076	-0,004
-383,204	-200,000	0,011	-0,058
-382,190	50,371	-0,134	-0,092
-381,175	175,103	0,063	-0,066
-380,160	232,082	0,035	0,042
-379,146	-62,538	0,158	-0,048
-378,131	25,163	0,048	0,029
-377,117	-175,880	0,154	0,003
-376,102	86,594	-0,120	0,097
-375,088	-200,000	0,000	0,057
-374,073	-161,340	-0,072	-0,003
-373,058	-200,000	-0,015	0,097
-372,044	191,745	-0,018	0,020
-371,029	-111,382	-0,039	0,006
-370,015	286,689	0,034	0,046
-369,000	800,000	0,037	-0,111
-367,985	-79,014	0,114	0,028
-366,971	-35,269	-0,123	0,049
-365,956	-200,000	-0,018	0,069
-364,942	93,605	0,099	0,083
-363,927	-94,214	0,173	-0,034
-362,912	599,573	-0,021	-0,037
-361,898	-105,145	-0,209	0,035
-360,883	-200,000	0,025	-0,097
-359,869	430,555	-0,054	0,086
-358,854	9,490	0,206	0,114
-357,839	-30,469	0,105	0,043
-356,825	207,804	0,081	0,093
-355,810	417,795	-0,059	0,093
-354,796	-200,000	-0,005	-0,121
-353,781	179,238	0,046	0,049
-352,766	800,000	0,021	0,067
-351,752	99,169	-0,062	0,053
-350,737	327,601	0,034	-0,047
-349,723	-200,000	0,005	0,098
-348,708	-16,940	-0,154	0,071
-347,693	39,982	0,077	-0,050
-346,679	-196,702	0,120	0,001
-345,664	-200,000	0,004	-0,040
-344,650	-200,000	0,009	-0,065
-343,635	388,996	0,093	0,141
-342,620	-200,000	-0,015	-0,084
-341,606	136,544	-0,039	-0,038
-340,591	-200,000	-0,038	-0,132
-339,577	545,479	0,037	0,065
-338,562	800,000	0,059	0,140
-337,548	-200,000	-0,005	-0,034
-336,533	-88,906	0,012	-0,003
-335,518	19,330	0,040	-0,024
-334,504	800,000	0,037	0,090
-333,489	-131,367	-0,103	0,010
-332,475	301,859	0,046	-0,063
-331,460	-177,087	-0,074	0,001
-330,445	-73,253	-0,021	-0,005
-329,431	-200,000	0,014	0,094
-328,416	800,000	0,040	0,118
-327,402	-200,000	-0,020	-0,109
-326,387	-14,178	-0,026	-0,012
-325,372	800,000	0,009	-0,028
-324,358	64,933	0,062	-0,045
-323,343	-117,713	0,147	-0,019
-322,329	-110,423	0,102	-0,015
-321,314	800,000	-0,042	-0,111
-320,299	62,898	0,105	-0,077
-319,285	800,000	0,013	0,034
-318,270	-185,323	-0,086	-0,001
-317,256	-32,329	-0,030	0,012
-316,241	56,700	-0,082	0,058
-315,226	10,476	-0,083	-0,046
-314,212	-30,966	0,098	-0,040
-313,197	-200,000	0,012	0,128
-312,183	-5,218	-0,078	-0,039
-311,168	177,574	-0,054	0,058
-310,153	-200,000	-0,021	-0,195
-309,139	275,836	0,023	-0,030
-308,124	44,585	0,067	-0,045
-307,110	157,713	0,080	0,081
-306,095	627,734	-0,060	0,111
-305,080	278,383	-0,085	0,110
-304,066	234,177	-0,022	0,026
-303,051	667,498	0,052	0,100
-302,037	290,242	0,042	0,056
-301,022	101,221	0,089	0,076
-300,008	800,000	0,038	0,118
-298,993	-120,131	-0,058	-0,007
-297,978	221,046	-0,054	0,063
-296,964	-200,000	-0,013	0,091
-295,949	605,066	-0,078	-0,143
-294,935	-36,519	0,083	0,033
-293,920	42,402	-0,016	-0,010
-292,905	800,000	-0,032	0,087
-291,891	10,729	-0,119	-0,066
-290,876	-200,000	0,002	0,058
-289,862	228,630	-0,073	0,087
-288,847	-200,000	0,020	-0,136
-287,832	-169,455	0,203	0,005
-286,818	-200,000	0,012	-0,058
-285,803	111,912	0,057	-0,051
-284,789	-200,000	-0,001	0,064
-283,774	-200,000	0,021	-0,088
-282,759	92,053	-0,090	0,074
-281,745	-187,615	0,135	-0,001
-280,730	144,835	-0,132	-0,129
-279,716	-200,000	0,011	-0,137
-278,701	-200,000	0,013	0,090
-277,686	273,425	-0,094	0,121
-276,672	800,000	-0,035	-0,098
-275,657	191,930	0,035	0,038
-274,643	413,401	-0,067	-0,105
-273,628	-149,283	0,017	-0,001
-272,613	19,822	-0,057	0,033
-271,599	160,267	0,004	-0,004
-270,584	482,630	-0,070	0,116
-269,570	800,000	-0,059	0,137
-268,555	159,062	-0,054	-0,055
-267,540	-200,000	-0,039	-0,180
-266,526	0,344	-0,104	-0,054
-265,511	800,000	0,039	-0,093
-264,497	120,870	0,121	-0,110
-263,482	-200,000	-0,032	0,198
-262,467	-200,000	0,014	0,053
-261,453	800,000	0,049	0,138
-260,438	800,000	0,020	0,060
-259,424	110,209	0,037	0,033
-258,409	-200,000	-0,002	0,026
-257,395	302,899	0,083	0,112
-256,380	52,885	0,100	0,070
-255,365	-87,346	-0,090	0,020
-254,351	46,214	-0,128	-0,086
-253,336	-162,785	-0,118	0,004
-252,322	-100,645	0,073	0,013
-251,307	119,652	0,048	-0,043
-250,292	18,344	0,109	-0,063
-249,278	272,440	-0,025	-0,033
-248,263	-103,015	-0,058	0,010
-247,249	800,000	0,018	0,045
-246,234	358,066	0,035	-0,050
-245,219	219,891	-0,098	-0,115
-244,205	800,000	-0,020	-0,055
-243,190	101,925	-0,045	-0,038
-242,176	800,000	0,028	-0,083
-241,161	-200,000	0,017	0,190
-240,146	-200,000	0,005	-0,046
-239,132	134,379	-0,019	0,018
-238,117	-20,510	-0,105	0,047
-237,103	7,744	-0,084	-0,046
-236,088	800,000	0,017	0,053
-235,073	-200,000	-0,009	0,081
-234,059	243,913	0,053	0,065
-233,044	-200,000	-0,029	0,118
-232,030	134,675	-0,069	-0,065
-231,015	-84,629	-0,089	0,020
-230,000	98,303	-0,065	0,055
-228,986	800,000	-0,035	-0,103
-227,971	-106,708	0,106	-0,017
-226,957	36,751	-0,063	-0,040
-225,942	-2,906	0,153	0,078
-224,927	-200,000	0,028	-0,137
-223,913	-75,103	0,033	-0,009
-222,898	-200,000	-0,007	-0,047
-221,884	-85,640	0,172	-0,039
-220,869	203,810	0,043	0,049
-219,855	800,000	0,007	-0,022
-218,840	-18,719	0,098	0,044
-217,825	140,703	-0,041	-0,040
-216,811	724,234	-0,026	-0,051
-215,796	800,000	0,023	-0,058
-214,782	-162,463	0,010	0,000
-213,767	-104,194	-0,130	0,022
-212,752	330,588	0,045	-0,064
-211,738	-45,628	-0,116	-0,042
-210,723	-200,000	-0,003	-0,013
-209,709	-84,427	0,035	0,008
-208,694	110,408	-0,033	0,029
-207,679	295,577	-0,097	-0,130
-206,665	193,181	0,090	0,099
-205,650	702,188	0,054	0,104
-204,636	800,000	0,014	0,046
-203,621	-20,683	-0,051	0,023
-202,606	-81,710	-0,156	-0,037
-201,592	339,266	0,065	-0,093
-200,577	128,138	0,163	-0,151
-199,563	-200,000	0,001	0,026
-198,548	92,968	0,058	0,047
-197,533	20,731	0,101	0,059
-196,519	243,083	0,055	0,068
-195,504	800,000	0,035	0,095
-194,490	99,497	-0,162	0,137
-193,475	-200,000	0,000	-0,072
-192,460	149,129	0,082	0,080
-191,446	7,749	0,134	0,073
-190,431	167,613	-0,057	-0,059
-189,417	-200,000	0,004	0,052
-188,402	-95,003	-0,021	0,004
-187,387	372,893	-0,047	0,069
-186,373	-200,000	0,002	0,010
-185,358	-7,792	-0,075	0,037
-184,344	287,126	0,077	-0,101
-183,329	800,000	-0,035	0,071
-182,315	12,321	0,039	0,022
-181,300	-135,273	0,052	-0,005
-180,285	-107,374	0,019	0,003
-179,271	106,824	0,032	0,028
-178,256	144,228	-0,031	-0,030
-177,242	2,069	-0,061	0,032
-176,227	-145,998	0,034	-0,002
-175,212	-60,354	0,038	-0,012
-174,198	-200,000	-0,003	-0,072
-173,183	303,175	0,070	0,094
-172,169	232,399	0,010	0,012
-171,154	-180,681	-0,117	-0,002
-170,139	26,308	-0,019	0,011
-169,125	786,987	0,057	0,114
-168,110	-200,000	0,010	0,136
-167,096	-200,000	-0,008	0,109
-166,081	15,770	-0,050	0,029
-165,066	-200,000	-0,020	-0,095
-164,052	-41,046	-0,041	0,015
-163,037	-76,987	0,063	-0,016
-162,023	-190,233	0,163	-0,001
-161,008	428,508	-0,064	0,101
-159,993	-174,156	-0,056	-0,001
-158,979	1,088	-0,064	0,033
-157,964	-99,764	-0,156	-0,028
-156,950	502,866	-0,073	-0,123
-155,935	33,160	-0,028	0,018
-154,920	-200,000	0,017	0,080
-153,906	-147,751	0,143	0,009
-152,891	-200,000	-0,002	-0,021
-151,877	-41,609	0,126	0,047
-150,862	-67,666	0,114	-0,032
-149,847	-182,912	0,160	-0,002
-148,833	-200,000	-0,024	0,104
-147,818	800,000	0,018	0,044
-146,804	261,617	0,072	0,091
-145,789	-152,139	0,112	-0,006
-144,775	-137,490	0,015	0,001
-143,760	327,906	-0,039	-0,055
-142,745	-137,439	-0,038	0,003
-141,731	-200,000	-0,001	-0,032
-140,716	-88,311	0,111	-0,024
-139,702	50,819	0,111	-0,076
-138,687	519,021	0,059	0,101
-137,672	-200,000	0,016	-0,067
-136,658	-200,000	0,008	0,027
-135,643	-200,000	-0,014	-0,094
-134,629	81,700	0,065	0,051
-133,614	78,594	-0,013	-0,010
-132,599	-200,000	-0,018	0,150
-131,585	105,672	-0,069	0,059
-130,570	-50,644	0,047	-0,016
-129,556	-200,000	-0,037	0,121
-128,541	35,572	-0,064	-0,040
-127,526	-54,232	0,193	0,063
-126,512	-12,649	0,126	-0,059
-125,497	378,975	0,024	0,035
-124,483	800,000	-0,011	-0,031
-123,468	800,000	0,073	0,170
-122,453	-200,000	0,001	-0,117
-121,439	-200,000	-0,016	-0,139
-120,424	-21,086	-0,038	-0,017
-119,410	175,500	0,085	0,090
