DTS Sentinel unit serial number:	SN410029Multiplexer serial number:	ORYXHardware model number:	OX2-SRSoftware version number:	ORYX F/W v4,00 Oryx Data Collector v3.7.2.0data status	okinstallation	B6 Nyhavnadifferential loss correction	single-endedforward channel	channel 2reverse channel	N/Adate	2023/12/09time	03:25:08forward acquisition time	300,00reverse acquisition time	0,00gamma	499,1914k internal	0,3153k external	0,3153temperature offset calibration	1,0000default loss term (dB/km)	0,3820temperature slope calibration	1,0000multiplexer offset coefficient	1,0000multiplexer slope coefficient	1,0000fibre end	0,00T internal ref (°C)	16,32T ext. ref 1 (°C)	0,35T ext. ref 2 (°C)	0,35length (m)	temperature (°C)	Stokes	anti-Stokes-744,400	-200,000	-0,034	0,127
-743,385	-69,129	-0,237	0,067
-742,371	800,000	0,043	0,095
-741,356	75,244	-0,185	0,144
-740,342	284,667	0,125	0,167
-739,327	-62,523	-0,190	0,058
-738,312	800,000	0,078	0,190
-737,298	-85,340	-0,253	0,058
-736,283	-42,362	0,159	0,060
-735,269	-120,425	-0,247	-0,031
-734,254	-20,231	0,059	0,027
-733,239	-50,551	-0,538	-0,186
-732,225	-118,179	0,225	0,029
-731,210	-108,736	-0,050	0,008
-730,196	87,095	-0,043	-0,035
-729,181	800,000	-0,054	-0,156
-728,167	267,065	0,061	0,078
-727,152	122,495	0,017	0,015
-726,137	-8,973	-0,100	-0,049
-725,123	-200,000	-0,041	-0,165
-724,108	286,477	0,035	-0,047
-723,094	-145,804	-0,033	-0,002
-722,079	130,789	-0,085	-0,081
-721,064	-110,710	0,185	0,028
-720,050	153,810	0,012	0,012
-719,035	106,565	-0,122	-0,107
-718,021	800,000	0,020	-0,051
-717,006	-110,448	-0,036	0,005
-715,991	79,107	-0,094	-0,074
-714,977	-57,061	0,057	-0,018
-713,962	280,907	0,069	0,091
-712,948	40,637	-0,041	0,027
-711,933	-200,000	0,013	-0,067
-710,918	-200,000	0,010	0,105
-709,904	-200,000	0,001	-0,037
-708,889	-200,000	0,023	-0,208
-707,875	800,000	-0,066	-0,208
-706,860	800,000	0,014	-0,045
-705,845	561,360	-0,070	0,126
-704,831	-200,000	0,011	0,078
-703,816	76,699	-0,074	0,058
-702,802	-200,000	0,007	-0,073
-701,787	616,971	-0,063	-0,118
-700,772	-43,682	0,122	0,045
-699,758	75,596	-0,016	-0,012
-698,743	-45,285	-0,015	-0,005
-697,729	-200,000	-0,031	0,105
-696,714	-200,000	0,007	0,078
-695,699	-47,686	0,060	0,021
-694,685	-170,182	-0,211	-0,005
-693,670	-28,005	-0,093	-0,039
-692,656	57,357	-0,058	-0,042
-691,641	-200,000	-0,011	-0,140
-690,627	800,000	0,021	0,058
-689,612	-121,336	0,121	-0,015
-688,597	319,312	0,058	-0,081
-687,583	-200,000	-0,015	-0,063
-686,568	185,534	-0,087	0,095
-685,554	800,000	0,036	0,075
-684,539	-19,981	-0,083	0,037
-683,524	239,506	-0,049	0,060
-682,510	-100,419	-0,080	0,014
-681,495	800,000	-0,026	0,055
-680,481	168,616	-0,110	0,116
-679,466	-200,000	0,003	-0,102
-678,451	264,603	-0,101	0,130
-677,437	192,791	0,082	-0,091
-676,422	-200,000	0,022	0,160
-675,408	-121,303	0,072	0,009
-674,393	800,000	0,055	0,135
-673,378	779,097	-0,058	-0,117
-672,364	-200,000	-0,006	-0,048
-671,349	800,000	-0,038	-0,087
-670,335	-43,590	-0,073	-0,027
-669,320	800,000	-0,034	0,106
-668,305	-180,337	-0,074	0,001
-667,291	435,275	0,060	-0,097
-666,276	217,422	-0,089	0,105
-665,262	758,265	0,064	-0,129
-664,247	295,628	-0,041	-0,056
-663,232	-91,805	0,023	-0,005
-662,218	-32,029	0,117	0,048
-661,203	800,000	0,029	-0,088
-660,189	428,342	0,027	-0,043
-659,174	800,000	-0,027	-0,064
-658,159	-200,000	-0,002	-0,016
-657,145	162,428	-0,019	-0,019
-656,130	94,902	0,122	-0,102
-655,116	800,000	0,062	0,145
-654,101	-22,475	-0,080	0,036
-653,086	-200,000	-0,022	-0,123
-652,072	-73,775	-0,106	0,028
-651,057	117,785	-0,055	-0,050
-650,043	214,804	-0,062	-0,073
-649,028	336,279	-0,077	-0,110
-648,014	-70,707	0,102	-0,028
-646,999	92,141	0,085	-0,071
-645,984	251,438	0,025	0,031
-644,970	-120,140	0,046	-0,006
-643,955	59,209	-0,112	0,081
-642,941	-49,876	-0,080	-0,028
-641,926	-77,975	0,046	0,011
-640,911	-86,361	0,117	0,026
-639,897	-200,000	-0,034	0,207
-638,882	254,513	-0,105	0,132
-637,868	10,882	-0,062	0,035
-636,853	-200,000	-0,012	-0,073
-635,838	90,011	-0,134	0,110
-634,824	-200,000	0,011	0,047
-633,809	-200,000	-0,025	-0,095
-632,795	507,187	-0,034	-0,058
-631,780	41,340	-0,057	0,038
-630,765	38,258	-0,066	-0,043
-629,751	-200,000	0,008	-0,110
-628,736	800,000	-0,048	-0,112
-627,722	-161,105	0,044	0,002
-626,707	-140,743	-0,082	0,006
-625,692	74,248	0,044	-0,034
-624,678	4,764	0,014	0,008
-623,663	-83,090	-0,030	0,007
-622,649	-41,039	-0,127	-0,048
-621,634	146,659	0,040	-0,040
-620,619	-46,897	0,012	0,004
-619,605	-200,000	-0,001	0,098
-618,590	5,946	-0,057	0,031
-617,576	166,092	-0,075	0,078
-616,561	-61,968	-0,035	-0,011
-615,546	-56,026	-0,181	-0,059
-614,532	-200,000	-0,025	-0,163
-613,517	221,604	-0,041	-0,049
-612,503	60,413	0,112	0,082
-611,488	-151,646	0,121	-0,006
-610,474	375,972	0,090	0,135
-609,459	-200,000	-0,007	-0,129
-608,444	360,138	-0,096	-0,142
-607,430	-200,000	-0,024	0,097
-606,415	-131,977	-0,037	-0,003
-605,401	-49,975	-0,022	0,008
-604,386	-144,517	0,198	0,013
-603,371	-81,414	-0,118	0,028
-602,357	800,000	0,047	-0,137
-601,342	-61,053	-0,068	-0,021
-600,328	334,258	-0,023	0,032
-599,313	-12,199	-0,137	-0,065
-598,298	203,138	0,113	-0,128
-597,284	-200,000	0,006	0,056
-596,269	-200,000	0,009	-0,151
-595,255	800,000	0,023	0,060
-594,240	800,000	-0,058	-0,138
-593,225	-200,000	0,003	0,082
-592,211	-12,160	-0,074	-0,035
-591,196	73,101	-0,121	-0,093
-590,182	314,090	-0,078	0,109
-589,167	-58,653	0,049	0,016
-588,152	152,065	-0,038	0,038
-587,138	800,000	0,039	0,086
-586,123	800,000	0,016	-0,044
-585,109	-99,602	-0,059	0,011
-584,094	800,000	-0,027	0,076
-583,079	-29,130	0,094	0,039
-582,065	-158,030	0,094	0,004
-581,050	800,000	-0,023	-0,060
-580,036	-200,000	-0,007	0,091
-579,021	800,000	0,026	-0,074
-578,006	63,758	-0,058	-0,043
-576,992	-11,990	0,107	0,051
-575,977	-6,482	0,104	-0,052
-574,963	-200,000	0,003	0,066
-573,948	800,000	0,036	0,083
-572,934	-0,215	-0,105	0,054
-571,919	197,927	-0,061	0,069
-570,904	743,481	-0,033	-0,066
-569,890	-17,090	-0,108	-0,050
-568,875	32,481	-0,099	0,063
-567,861	697,476	0,038	0,073
-566,846	484,286	0,068	0,113
-565,831	-11,577	0,065	0,031
-564,817	-200,000	0,070	0,000
-563,802	1,072	-0,111	-0,058
-562,788	-200,000	0,038	-0,210
-561,773	-200,000	0,020	0,113
-560,758	386,779	0,058	0,089
-559,744	23,248	0,139	-0,083
-558,729	-200,000	0,005	-0,041
-557,715	350,835	0,037	-0,054
-556,700	469,465	-0,099	-0,163
-555,685	64,369	0,108	-0,080
-554,671	23,628	0,046	-0,028
-553,656	800,000	0,018	-0,041
-552,642	-124,233	0,149	0,017
-551,627	10,397	0,094	-0,052
-550,612	-200,000	-0,031	0,188
-549,598	-123,544	-0,089	-0,010
-548,583	-144,300	-0,148	0,010
-547,569	89,053	-0,133	0,108
-546,554	379,732	0,043	0,064
-545,539	800,000	0,029	0,068
-544,525	93,409	-0,074	-0,061
-543,510	96,105	-0,123	-0,103
-542,496	-150,758	0,105	0,006
-541,481	-130,003	-0,038	-0,004
-540,466	-200,000	0,009	0,039
-539,452	-170,502	-0,048	-0,001
-538,437	-200,000	0,023	-0,089
-537,423	800,000	0,034	0,107
-536,408	28,212	-0,112	-0,069
-535,393	800,000	-0,011	0,034
-534,379	-124,779	0,113	-0,013
-533,364	-49,747	-0,160	-0,055
-532,350	-84,333	-0,075	-0,017
-531,335	-200,000	0,017	0,081
-530,321	-28,546	0,047	0,020
-529,306	-97,032	-0,041	-0,008
-528,291	-186,460	-0,098	0,001
-527,277	561,417	-0,033	0,058
-526,262	200,909	0,078	-0,088
-525,248	-63,909	0,090	0,027
-524,233	-102,505	0,060	-0,010
-523,218	704,362	-0,062	0,120
-522,204	16,769	0,076	0,044
-521,189	-25,664	0,075	0,032
-520,175	-200,000	0,025	-0,094
-519,160	170,697	-0,034	0,036
-518,145	-65,128	-0,076	-0,022
-517,131	-106,198	0,066	-0,011
-516,116	664,881	0,017	-0,032
-515,102	-200,000	0,009	-0,066
-514,087	481,014	0,077	-0,129
-513,072	645,920	0,039	-0,073
-512,058	-200,000	0,009	-0,098
-511,043	-143,349	-0,100	0,007
-510,029	-200,000	0,003	0,083
-509,014	-200,000	0,021	0,091
-507,999	-200,000	0,003	-0,102
-506,985	-8,805	0,032	0,016
-505,970	-111,200	-0,084	-0,013
-504,956	123,888	-0,063	0,058
-503,941	13,396	0,065	0,037
-502,926	-81,903	0,109	0,026
-501,912	203,904	0,066	0,075
-500,897	-78,057	-0,068	-0,017
-499,883	800,000	-0,127	-0,269
-498,868	800,000	-0,078	-0,162
-497,853	-100,775	0,128	0,023
-496,839	800,000	0,044	0,101
-495,824	151,811	-0,039	-0,039
-494,810	-200,000	0,004	0,119
-493,795	-200,000	0,013	0,146
-492,781	147,053	-0,111	0,109
-491,766	49,509	0,053	0,037
-490,751	-97,560	0,067	0,013
-489,737	-158,886	-0,075	0,003
-488,722	-50,865	0,141	-0,048
-487,708	-200,000	0,027	0,136
-486,693	122,250	0,042	-0,038
-485,678	-200,000	-0,006	0,087
-484,664	289,671	-0,056	-0,074
-483,649	222,552	-0,078	-0,092
-482,635	-200,000	0,013	0,112
-481,620	-70,843	0,065	0,018
-480,605	-40,047	-0,021	-0,008
-479,591	-200,000	-0,032	0,110
-478,576	-119,345	0,020	0,002
-477,562	-113,618	0,215	0,030
-476,547	800,000	-0,129	-0,266
-475,532	-200,000	-0,004	-0,079
-474,518	790,887	0,022	0,045
-473,503	-200,000	-0,062	-0,200
-472,489	155,218	0,062	0,062
-471,474	-142,139	-0,057	-0,004
-470,459	-14,456	-0,147	-0,069
-469,445	-200,000	0,003	0,137
-468,430	-161,287	-0,107	0,004
-467,416	535,395	0,040	0,070
-466,401	800,000	-0,011	-0,028
-465,386	57,145	-0,087	-0,062
-464,372	800,000	-0,089	-0,205
-463,357	82,979	-0,146	-0,116
-462,343	-10,179	-0,075	0,036
-461,328	123,031	0,076	0,069
-460,313	79,378	0,152	0,119
-459,299	-200,000	-0,007	0,109
-458,284	198,572	0,038	0,042
-457,270	46,372	0,081	-0,055
-456,255	800,000	-0,039	-0,091
-455,241	800,000	-0,049	-0,106
-454,226	-146,516	0,024	-0,002
-453,211	590,249	0,029	0,053
-452,197	290,526	-0,021	-0,028
-451,182	315,880	-0,027	0,037
-450,168	291,307	-0,082	0,110
-449,153	-57,729	0,025	-0,008
-448,138	304,096	-0,043	-0,059
-447,124	214,141	0,108	-0,125
-446,109	-155,335	-0,051	0,002
-445,095	-40,607	-0,016	-0,006
-444,080	-96,246	-0,035	0,007
-443,065	151,246	0,018	0,018
-442,051	-200,000	0,008	-0,054
-441,036	-200,000	-0,001	-0,033
-440,022	160,929	0,018	0,018
-439,007	-121,207	-0,114	-0,014
-437,992	478,531	0,063	-0,104
-436,978	30,725	0,073	-0,045
-435,963	800,000	0,011	0,028
-434,949	-200,000	0,000	0,068
-433,934	268,285	-0,048	-0,062
-432,919	-30,343	0,087	0,036
-431,905	365,094	-0,012	0,018
-430,890	-200,000	-0,010	0,067
-429,876	-106,340	0,085	-0,014
-428,861	800,000	-0,024	0,058
-427,846	182,378	0,032	0,034
-426,832	800,000	0,095	-0,217
-425,817	-200,000	-0,001	-0,039
-424,803	9,884	-0,045	-0,025
-423,788	48,991	0,091	0,062
-422,773	140,803	-0,028	0,027
-421,759	800,000	0,056	0,121
-420,744	-16,793	-0,019	0,009
-419,730	-86,196	-0,050	-0,011
-418,715	75,574	0,048	0,037
-417,701	-27,576	-0,069	0,029
-416,686	-200,000	0,015	0,091
-415,671	-111,558	0,066	-0,010
-414,657	800,000	0,041	0,117
-413,642	36,453	0,048	-0,031
-412,628	-200,000	-0,013	0,066
-411,613	62,297	0,020	-0,015
-410,598	28,251	-0,137	-0,084
-409,584	-97,670	0,103	-0,019
-408,569	-82,879	0,017	0,004
-407,555	-86,830	0,056	-0,012
-406,540	277,566	-0,079	-0,102
-405,525	497,768	0,049	-0,082
-404,511	50,370	-0,073	0,050
-403,496	-97,669	0,062	-0,012
-402,482	292,903	-0,004	0,005
-401,467	-52,830	0,113	0,038
-400,452	513,118	-0,074	0,126
-399,438	514,194	0,053	0,090
-398,423	179,162	0,022	-0,023
-397,409	-98,233	0,045	0,008
-396,394	679,707	0,056	0,106
-395,379	-200,000	-0,005	-0,024
-394,365	-130,416	-0,014	0,001
-393,350	-200,000	-0,003	0,132
-392,336	432,326	0,046	0,073
-391,321	209,839	-0,040	-0,045
-390,306	-200,000	-0,014	-0,224
-389,292	-200,000	0,018	-0,086
-388,277	23,675	-0,034	0,020
-387,263	-102,022	-0,165	0,029
-386,248	-200,000	0,025	0,084
-385,233	-200,000	0,028	0,146
-384,219	-200,000	-0,019	-0,154
-383,204	-12,600	-0,079	-0,037
-382,190	-114,214	-0,164	0,023
-381,175	800,000	0,046	0,140
-380,160	-200,000	0,036	0,147
-379,146	-200,000	-0,021	0,144
-378,131	671,565	0,041	0,078
-377,117	220,821	-0,047	0,055
-376,102	-46,524	-0,035	0,012
-375,088	440,921	0,118	-0,188
-374,073	344,796	0,034	-0,048
-373,058	-200,000	0,012	0,088
-372,044	203,693	-0,017	-0,019
-371,029	193,148	0,090	-0,099
-370,015	241,415	-0,098	-0,120
-369,000	-200,000	-0,001	-0,092
-367,985	732,176	0,039	0,077
-366,971	-200,000	0,005	0,057
-365,956	-200,000	-0,003	0,016
-364,942	-103,700	-0,070	0,012
-363,927	-198,225	0,112	0,000
-362,912	800,000	0,044	0,133
-361,898	-141,207	-0,066	-0,005
-360,883	646,924	0,047	-0,088
-359,869	185,885	-0,092	-0,099
-358,854	38,803	0,102	0,066
-357,839	-200,000	-0,005	0,049
-356,825	249,663	0,069	0,086
-355,810	412,560	-0,093	0,145
-354,796	-112,748	-0,110	0,016
-353,781	371,302	0,059	0,088
-352,766	-200,000	-0,005	0,039
-351,752	348,851	0,067	-0,097
-350,737	800,000	0,052	0,126
-349,723	-87,525	0,085	0,018
-348,708	55,587	0,049	-0,035
-347,693	-127,111	-0,141	0,015
-346,679	67,095	-0,054	-0,040
-345,664	-200,000	-0,027	0,202
-344,650	-110,229	-0,046	-0,007
-343,635	-200,000	0,006	0,041
-342,620	-121,375	-0,124	0,015
-341,606	-55,159	0,106	0,034
-340,591	197,423	-0,091	0,101
-339,577	47,665	-0,013	-0,009
-338,562	146,673	-0,082	0,080
-337,548	194,463	-0,045	-0,050
-336,533	-52,022	0,117	-0,039
-335,518	-90,784	0,165	0,034
-334,504	-200,000	0,016	0,107
-333,489	-120,305	-0,035	0,004
-332,475	-200,000	0,025	-0,080
-331,460	86,617	-0,067	-0,053
-330,445	-200,000	-0,024	-0,138
-329,431	15,174	0,041	0,023
-328,416	-2,828	0,085	-0,043
-327,402	800,000	0,034	0,085
-326,387	-52,609	0,115	-0,038
-325,372	800,000	-0,053	0,108
-324,358	-200,000	-0,003	0,069
-323,343	72,494	0,067	0,050
-322,329	-106,840	-0,106	0,017
-321,314	-25,109	0,067	0,029
-320,299	262,558	-0,068	0,085
-319,285	594,725	0,064	-0,116
-318,270	341,960	0,074	0,105
-317,256	380,457	0,029	0,043
-316,241	-165,063	-0,095	0,003
-315,226	-157,686	0,109	-0,005
-314,212	-200,000	0,007	0,169
-313,197	37,878	0,092	-0,059
-312,183	523,486	0,080	-0,137
-311,168	20,080	0,080	-0,047
-310,153	-144,129	-0,053	0,004
-309,139	449,210	0,007	0,012
-308,124	9,917	-0,058	-0,032
-307,110	-18,713	0,068	-0,031
-306,095	-133,261	0,127	-0,011
-305,080	21,954	0,037	0,022
-304,066	209,293	-0,095	0,108
-303,051	-200,000	-0,003	-0,044
-302,037	356,621	-0,065	-0,094
-301,022	-28,096	0,066	0,028
-300,008	-200,000	-0,025	-0,100
-298,993	800,000	0,021	0,057
-297,978	-200,000	-0,010	0,033
-296,964	-32,650	0,074	0,030
-295,949	628,500	-0,105	-0,194
-294,935	-9,006	0,077	-0,037
-293,920	800,000	-0,047	0,137
-292,905	-163,600	0,113	0,004
-291,891	4,977	0,073	0,039
-290,876	-200,000	-0,019	0,082
-289,862	800,000	-0,017	-0,049
-288,847	-53,499	-0,096	0,032
-287,832	-139,473	0,058	-0,004
-286,818	-3,270	0,122	-0,061
-285,803	-200,000	0,004	-0,089
-284,789	98,095	0,109	-0,091
-283,774	-200,000	0,017	-0,068
-282,759	-200,000	-0,012	-0,137
-281,745	-66,699	0,090	0,026
-280,730	269,283	0,010	0,013
-279,716	-67,520	-0,050	-0,014
-278,701	365,507	0,081	0,118
-277,686	800,000	-0,018	0,046
-276,672	-200,000	0,004	-0,138
-275,657	243,808	0,049	0,059
-274,643	-200,000	-0,022	-0,175
-273,628	800,000	-0,053	-0,146
-272,613	625,467	-0,076	-0,140
-271,599	-155,283	0,138	-0,006
-270,584	-200,000	0,035	0,116
-269,570	30,603	0,111	0,069
-268,555	-200,000	0,022	0,155
-267,540	-133,843	-0,087	0,008
-266,526	93,598	0,052	0,043
-265,511	-40,395	-0,068	-0,025
-264,497	399,277	0,073	-0,111
-263,482	800,000	0,023	-0,062
-262,467	94,715	0,024	-0,019
-261,453	-200,000	0,016	-0,054
-260,438	800,000	-0,030	-0,092
-259,424	228,024	-0,099	-0,117
-258,409	19,498	-0,038	-0,022
-257,395	61,132	-0,076	-0,055
-256,380	313,227	0,059	0,081
-255,365	31,767	0,046	0,028
-254,351	202,437	-0,041	-0,046
-253,336	778,014	0,041	-0,082
-252,322	-90,354	-0,057	-0,012
-251,307	-65,365	0,090	0,026
-250,292	7,267	-0,087	0,047
-249,278	800,000	0,030	-0,072
-248,263	221,915	-0,055	0,065
-247,249	800,000	-0,065	0,176
-246,234	59,326	-0,161	-0,114
-245,219	800,000	0,017	-0,043
-244,205	800,000	-0,037	0,093
-243,190	-46,985	0,054	-0,019
-242,176	-200,000	0,018	0,086
-241,161	-148,996	0,122	0,007
-240,146	160,425	-0,076	0,077
-239,132	184,210	0,076	0,081
-238,117	-200,000	-0,045	-0,217
-237,103	-200,000	-0,002	0,033
-236,088	122,929	0,039	-0,035
-235,073	92,829	-0,069	-0,056
-234,059	800,000	-0,043	0,103
-233,044	503,283	0,059	-0,100
-232,030	764,869	0,012	-0,024
-231,015	-200,000	0,002	0,016
-230,000	-200,000	-0,024	-0,083
-228,986	67,464	0,062	0,046
-227,971	328,247	0,016	-0,022
-226,957	800,000	0,041	0,084
-225,942	-47,238	-0,104	0,037
-224,927	63,151	-0,085	-0,062
-223,913	510,156	-0,022	-0,037
-222,898	470,487	0,039	-0,063
-221,884	-200,000	0,024	-0,115
-220,869	231,275	0,052	-0,061
-219,855	113,621	0,072	0,063
-218,840	-29,863	0,120	0,049
-217,825	-123,876	-0,079	0,009
-216,811	783,505	-0,044	-0,088
-215,796	464,447	0,023	-0,038
-214,782	-9,501	-0,062	-0,030
-213,767	-134,026	0,120	-0,011
-212,752	-200,000	-0,019	0,071
-211,738	-200,000	0,029	0,097
-210,723	-42,583	-0,037	-0,014
-209,709	800,000	0,029	-0,089
-208,694	27,216	-0,080	0,049
-207,679	62,911	0,101	0,073
-206,665	64,868	-0,026	0,019
-205,650	-153,770	0,048	-0,002
-204,636	-200,000	-0,026	0,099
-203,621	19,964	-0,093	0,054
-202,606	123,723	0,108	-0,098
-201,592	327,307	-0,093	-0,130
-200,577	-200,000	-0,014	-0,094
-199,563	-38,281	0,134	-0,051
-198,548	800,000	0,034	-0,097
-197,533	708,039	-0,073	0,140
-196,519	800,000	0,023	0,047
-195,504	-102,574	0,022	0,004
-194,490	-120,531	-0,046	-0,006
-193,475	-123,876	-0,130	-0,015
-192,460	-133,987	-0,078	-0,007
-191,446	-200,000	-0,005	0,094
-190,431	412,433	0,079	0,122
-189,417	-200,000	0,001	0,061
-188,402	76,319	-0,113	0,086
-187,387	565,877	-0,083	-0,147
-186,373	65,167	-0,051	-0,037
-185,358	-130,822	-0,092	0,009
-184,344	-200,000	0,005	0,152
-183,329	-200,000	0,017	-0,105
-182,315	-200,000	-0,009	0,055
-181,300	84,010	0,057	0,045
-180,285	-26,952	0,133	-0,056
-179,271	-200,000	-0,000	-0,003
-178,256	-200,000	-0,011	0,036
-177,242	-200,000	-0,023	-0,129
-176,227	197,712	0,070	0,077
-175,212	46,412	-0,140	0,094
-174,198	-4,167	-0,107	-0,053
-173,183	-155,813	0,071	-0,003
-172,169	29,013	-0,039	0,024
-171,154	-200,000	0,004	-0,062
-170,139	220,172	0,079	0,092
-169,125	183,862	0,023	0,025
-168,110	-116,999	0,096	0,013
-167,096	-57,998	0,111	-0,035
-166,081	7,095	-0,127	-0,068
-165,066	-200,000	-0,043	-0,142
-164,052	-56,876	0,067	-0,021
-163,037	89,882	-0,091	-0,073
-162,023	75,576	0,092	0,070
-161,008	-200,000	-0,036	0,137
-159,993	-51,729	-0,065	-0,022
-158,979	-200,000	-0,004	0,096
-157,964	-56,989	-0,169	-0,053
-156,950	800,000	-0,038	-0,084
-155,935	-135,096	0,057	0,005
-154,920	-200,000	-0,005	0,055
-153,906	77,046	-0,037	0,028
-152,891	6,789	0,116	-0,062
-151,877	-107,040	0,039	-0,006
-150,862	-200,000	0,003	-0,114
-149,847	-200,000	-0,012	0,102
-148,833	-200,000	-0,021	-0,099
-147,818	800,000	-0,013	0,028
-146,804	586,327	-0,020	0,036
-145,789	237,016	-0,039	0,047
-144,775	56,347	0,062	-0,044
-143,760	-200,000	0,013	-0,083
-142,745	-98,124	-0,130	0,024
-141,731	126,411	0,119	0,108
-140,716	-200,000	-0,005	0,035
-139,702	-37,730	-0,074	0,028
-138,687	322,753	-0,068	0,094
-137,672	-200,000	-0,051	-0,170
-136,658	-14,394	-0,042	-0,019
-135,643	-132,738	-0,189	0,017
-134,629	-26,565	0,154	-0,065
-133,614	-200,000	0,000	-0,050
-132,599	800,000	0,062	0,136
-131,585	-200,000	0,008	0,053
-130,570	-119,269	-0,186	0,023
-129,556	649,310	-0,054	-0,100
-128,541	800,000	-0,056	-0,140
-127,526	-96,558	0,100	0,019
-126,512	104,044	0,060	0,051
-125,497	423,106	0,068	0,105
-124,483	2,139	-0,079	-0,041
-123,468	25,356	0,130	-0,078
-122,453	-50,314	0,135	-0,046
-121,439	422,561	-0,091	-0,141
-120,424	-200,000	-0,008	0,063
-119,410	-138,730	-0,125	0,010
