DTS Sentinel unit serial number:	SN410029Multiplexer serial number:	ORYXHardware model number:	OX2-SRSoftware version number:	ORYX F/W v4,00 Oryx Data Collector v3.7.2.0data status	okinstallation	B6 Nyhavnadifferential loss correction	single-endedforward channel	channel 2reverse channel	N/Adate	2023/12/07time	16:30:08forward acquisition time	300,00reverse acquisition time	0,00gamma	499,1914k internal	0,3164k external	0,3164temperature offset calibration	1,0000default loss term (dB/km)	0,3820temperature slope calibration	1,0000multiplexer offset coefficient	1,0000multiplexer slope coefficient	1,0000fibre end	0,00T internal ref (°C)	14,52T ext. ref 1 (°C)	-2,15T ext. ref 2 (°C)	-2,15length (m)	temperature (°C)	Stokes	anti-Stokes-744,400	82,717	0,090	0,072
-743,385	-119,779	-0,269	0,034
-742,371	-117,510	0,114	-0,015
-741,356	-80,711	-0,256	0,062
-740,342	-26,345	0,159	0,068
-739,327	-158,523	-0,254	-0,011
-738,312	220,612	0,126	0,149
-737,298	-200,000	-0,359	0,000
-736,283	-97,055	0,127	-0,024
-735,269	-119,174	-0,422	-0,054
-734,254	-13,646	0,048	-0,023
-733,239	-78,220	-0,550	-0,138
-732,225	-130,434	0,152	0,015
-731,210	-62,397	0,072	0,022
-730,196	-90,047	-0,070	-0,015
-729,181	-200,000	0,006	-0,069
-728,167	626,699	-0,083	-0,155
-727,152	66,442	-0,097	-0,072
-726,137	55,926	-0,068	0,049
-725,123	-133,699	-0,163	0,015
-724,108	-200,000	-0,003	-0,199
-723,094	-200,000	-0,040	-0,166
-722,079	-29,199	-0,131	-0,055
-721,064	800,000	0,036	-0,084
-720,050	800,000	0,018	-0,046
-719,035	-200,000	0,005	-0,067
-718,021	-61,830	-0,134	-0,041
-717,006	800,000	0,044	0,125
-715,991	306,604	-0,129	-0,177
-714,977	800,000	0,040	-0,094
-713,962	-73,394	-0,066	0,018
-712,948	-163,981	0,104	-0,003
-711,933	189,672	0,029	-0,032
-710,918	122,141	-0,034	-0,031
-709,904	-200,000	-0,021	-0,161
-708,889	-150,567	-0,019	0,001
-707,875	-156,307	-0,120	0,005
-706,860	-8,483	-0,099	-0,049
-705,845	-200,000	0,005	0,080
-704,831	-200,000	0,003	-0,033
-703,816	-4,706	-0,094	-0,048
-702,802	-19,336	0,066	-0,030
-701,787	-200,000	-0,022	-0,107
-700,772	615,649	0,024	0,044
-699,758	2,531	0,105	0,056
-698,743	140,533	-0,016	0,015
-697,729	-200,000	-0,017	0,078
-696,714	179,416	0,047	-0,051
-695,699	-200,000	0,005	0,030
-694,685	113,659	-0,071	0,064
-693,670	302,763	0,045	-0,062
-692,656	33,367	-0,012	0,007
-691,641	-191,938	-0,071	-0,000
-690,627	-74,032	-0,058	-0,015
-689,612	86,092	0,018	0,015
-688,597	-68,368	-0,041	0,012
-687,583	-61,516	-0,103	0,031
-686,568	-105,751	0,081	-0,013
-685,554	247,919	0,069	-0,086
-684,539	-66,530	0,151	0,044
-683,524	-200,000	-0,007	0,090
-682,510	26,771	-0,055	-0,034
-681,495	-200,000	-0,027	-0,093
-680,481	212,882	-0,079	-0,091
-679,466	-1,170	-0,066	0,034
-678,451	-60,605	-0,123	-0,038
-677,437	179,605	-0,062	0,066
-676,422	-200,000	-0,027	0,145
-675,408	-200,000	-0,031	-0,120
-674,393	-132,616	-0,076	-0,007
-673,378	661,729	-0,033	0,063
-672,364	-200,000	0,010	0,083
-671,349	-200,000	0,011	0,112
-670,335	-26,581	-0,133	0,057
-669,320	-59,545	0,085	-0,027
-668,305	-183,604	-0,028	-0,000
-667,291	-44,915	-0,117	-0,043
-666,276	41,260	-0,030	0,020
-665,262	800,000	0,075	-0,160
-664,247	-200,000	0,002	-0,148
-663,232	-144,415	0,078	0,005
-662,218	96,937	0,104	0,088
-661,203	-72,876	-0,068	-0,018
-660,189	-46,146	-0,121	-0,043
-659,174	-200,000	-0,042	-0,144
-658,159	525,970	-0,076	-0,132
-657,145	-200,000	-0,005	-0,097
-656,130	800,000	-0,033	-0,083
-655,116	-42,308	-0,073	-0,027
-654,101	-36,140	-0,083	-0,033
-653,086	63,730	-0,094	-0,069
-652,072	-44,155	-0,118	-0,043
-651,057	-13,790	-0,031	-0,015
-650,043	292,423	-0,043	0,057
-649,028	335,825	-0,032	0,046
-648,014	-200,000	-0,018	-0,065
-646,999	627,518	-0,027	-0,049
-645,984	-128,249	0,087	0,009
-644,970	-62,029	-0,184	0,056
-643,955	183,630	-0,129	-0,139
-642,941	-200,000	-0,001	-0,142
-641,926	800,000	0,019	0,053
-640,911	-200,000	-0,032	-0,178
-639,897	255,366	0,075	0,095
-638,882	800,000	-0,037	-0,107
-637,868	130,314	-0,029	0,027
-636,853	17,690	-0,206	-0,120
-635,838	-89,193	-0,028	0,006
-634,824	-200,000	0,044	-0,151
-633,809	-200,000	0,027	-0,115
-632,795	89,753	-0,009	-0,008
-631,780	10,770	-0,070	-0,039
-630,765	-200,000	0,020	0,142
-629,751	377,706	0,026	0,040
-628,736	238,081	-0,079	-0,096
-627,722	-200,000	0,025	0,088
-626,707	-112,770	0,028	-0,004
-625,692	52,809	0,164	0,115
-624,678	-200,000	0,008	0,115
-623,663	-200,000	0,003	0,027
-622,649	-13,248	0,109	0,052
-621,634	59,990	-0,035	-0,025
-620,619	188,178	-0,031	-0,034
-619,605	324,840	-0,051	-0,071
-618,590	-14,866	0,169	0,079
-617,576	800,000	-0,045	-0,127
-616,561	132,623	0,085	-0,080
-615,546	37,729	-0,024	0,016
-614,532	800,000	-0,014	-0,030
-613,517	244,589	0,074	-0,092
-612,503	191,865	0,037	-0,041
-611,488	295,666	0,063	-0,084
-610,474	-200,000	-0,010	-0,108
-609,459	-30,603	-0,095	0,039
-608,444	183,952	-0,035	0,038
-607,430	764,610	-0,046	-0,093
-606,415	-131,501	-0,074	-0,007
-605,401	-18,189	0,057	-0,026
-604,386	-200,000	-0,044	-0,171
-603,371	-134,191	0,041	0,004
-602,357	-200,000	-0,028	0,184
-601,342	-83,187	0,079	0,018
-600,328	135,819	0,070	-0,067
-599,313	154,410	-0,065	-0,065
-598,298	800,000	0,028	-0,070
-597,284	-117,505	0,027	0,004
-596,269	-58,416	-0,106	-0,034
-595,255	65,771	0,047	0,035
-594,240	-200,000	0,017	-0,081
-593,225	-200,000	-0,003	-0,112
-592,211	150,562	-0,123	0,123
-591,196	800,000	-0,011	0,026
-590,182	87,207	-0,032	0,026
-589,167	-100,911	0,063	-0,011
-588,152	-97,889	0,091	0,017
-587,138	-41,733	-0,059	-0,022
-586,123	-200,000	-0,017	-0,081
-585,109	768,634	-0,014	-0,029
-584,094	-44,683	0,073	0,027
-583,079	295,953	0,026	0,035
-582,065	-136,914	-0,067	0,006
-581,050	91,495	0,075	-0,062
-580,036	203,182	0,107	0,121
-579,021	13,083	0,032	-0,018
-578,006	403,272	-0,051	-0,079
-576,992	800,000	0,030	-0,067
-575,977	-138,898	0,105	-0,008
-574,963	72,380	0,055	0,042
-573,948	73,048	0,074	0,057
-572,934	18,369	-0,098	-0,057
-571,919	-200,000	-0,011	-0,099
-570,904	-200,000	-0,038	-0,216
-569,890	800,000	-0,018	0,055
-568,875	12,960	-0,067	0,038
-567,861	-200,000	0,006	-0,039
-566,846	475,572	0,059	0,098
-565,831	99,432	-0,086	0,073
-564,817	-35,647	-0,043	-0,017
-563,802	9,348	0,044	0,024
-562,788	8,366	-0,055	-0,030
-561,773	503,927	0,021	-0,036
-560,758	-74,741	0,111	0,029
-559,744	-200,000	0,026	0,115
-558,729	-200,000	-0,014	0,071
-557,715	800,000	-0,031	-0,092
-556,700	-97,626	-0,075	-0,014
-555,685	-200,000	-0,049	-0,193
-554,671	-30,963	-0,069	0,028
-553,656	-200,000	0,002	-0,029
-552,642	-200,000	0,006	0,229
-551,627	211,688	0,047	0,055
-550,612	61,989	-0,016	0,011
-549,598	-103,532	-0,048	0,008
-548,583	676,108	-0,040	-0,076
-547,569	-136,636	0,041	-0,003
-546,554	-200,000	0,015	0,078
-545,539	-48,017	0,178	0,062
-544,525	69,888	-0,083	0,062
-543,510	83,409	-0,040	-0,032
-542,496	43,087	0,062	-0,041
-541,481	337,442	0,031	0,044
-540,466	-200,000	-0,014	0,124
-539,452	0,379	-0,036	-0,019
-538,437	414,835	-0,014	-0,021
-537,423	-50,976	-0,162	0,055
-536,408	-9,091	0,054	-0,026
-535,393	337,608	0,018	-0,026
-534,379	127,262	-0,079	-0,073
-533,364	-128,707	0,037	0,004
-532,350	-64,262	0,146	0,043
-531,335	58,307	0,067	-0,048
-530,321	-49,116	0,031	-0,011
-529,306	-200,000	0,025	-0,123
-528,291	163,845	0,102	-0,105
-527,277	-1,976	-0,048	0,024
-526,262	-89,797	0,013	0,003
-525,248	-200,000	0,019	0,101
-524,233	-200,000	0,077	0,273
-523,218	53,956	-0,145	0,102
-522,204	5,434	0,054	-0,029
-521,189	-157,858	-0,047	-0,002
-520,175	354,152	-0,077	-0,112
-519,160	-200,000	-0,002	-0,049
-518,145	-200,000	0,008	0,092
-517,131	69,730	0,041	-0,031
-516,116	140,428	-0,036	0,035
-515,102	-200,000	-0,011	0,063
-514,087	-57,513	0,069	-0,022
-513,072	-200,000	-0,004	0,087
-512,058	43,586	0,052	0,035
-511,043	800,000	0,022	-0,045
-510,029	1,174	0,076	0,040
-509,014	-117,294	0,092	0,012
-507,999	-134,910	-0,085	-0,007
-506,985	15,257	-0,073	0,042
-505,970	71,621	-0,125	-0,094
-504,956	474,849	-0,058	0,096
-503,941	-174,304	0,095	-0,002
-502,926	-8,547	0,067	0,033
-501,912	-200,000	-0,017	0,102
-500,897	98,995	0,087	0,073
-499,883	434,099	-0,055	-0,088
-498,868	729,494	0,040	0,078
-497,853	-79,951	-0,149	-0,036
-496,839	357,054	-0,022	-0,031
-495,824	203,270	-0,033	0,037
-494,810	132,744	0,066	0,062
-493,795	-161,994	-0,052	-0,002
-492,781	-27,177	0,050	-0,021
-491,766	800,000	-0,018	0,057
-490,751	-200,000	0,009	-0,044
-489,737	157,660	-0,075	0,075
-488,722	307,751	-0,065	0,089
-487,708	-200,000	-0,004	-0,060
-486,693	257,161	-0,051	-0,064
-485,678	376,787	-0,114	-0,171
-484,664	-200,000	0,002	0,006
-483,649	-142,451	0,150	-0,011
-482,635	570,564	-0,013	0,023
-481,620	-200,000	0,033	0,000
-480,605	391,976	-0,059	0,089
-479,591	-165,977	0,102	0,003
-478,576	76,544	-0,099	0,077
-477,562	-9,514	0,086	-0,042
-476,547	371,664	-0,120	-0,178
-475,532	-200,000	-0,004	0,037
-474,518	282,922	0,037	-0,049
-473,503	-81,640	0,094	0,022
-472,489	-132,437	-0,124	-0,012
-471,474	800,000	0,030	-0,064
-470,459	-200,000	0,015	-0,127
-469,445	-200,000	-0,023	0,077
-468,430	-200,000	-0,015	0,061
-467,416	97,449	-0,028	-0,023
-466,401	38,949	0,149	0,097
-465,386	-200,000	-0,016	-0,054
-464,372	-200,000	0,006	-0,083
-463,357	800,000	0,018	0,038
-462,343	-200,000	-0,013	-0,057
-461,328	224,733	-0,031	0,036
-460,313	2,499	0,064	0,034
-459,299	47,122	0,064	0,043
-458,284	-66,348	0,161	-0,046
-457,270	-24,217	0,059	0,026
-456,255	-121,907	0,069	-0,008
-455,241	-56,169	0,130	0,042
-454,226	-124,204	-0,176	-0,020
-453,211	800,000	-0,077	-0,170
-452,197	182,278	-0,067	-0,072
-451,182	-184,258	0,044	0,001
-450,168	-60,943	0,100	-0,031
-449,153	-200,000	0,084	0,000
-448,138	-200,000	0,020	-0,080
-447,124	1,834	-0,105	-0,055
-446,109	-102,233	0,113	-0,020
-445,095	-200,000	-0,026	0,084
-444,080	463,235	0,057	0,093
-443,065	-141,247	-0,116	-0,008
-442,051	543,540	-0,061	-0,106
-441,036	-37,706	-0,025	-0,010
-440,022	40,629	0,058	-0,038
-439,007	-200,000	-0,003	0,096
-437,992	160,934	0,102	0,104
-436,978	-200,000	-0,006	-0,086
-435,963	302,073	0,118	-0,158
-434,949	-103,178	-0,148	-0,025
-433,934	800,000	0,022	0,067
-432,919	-135,314	-0,117	-0,010
-431,905	31,453	-0,068	0,042
-430,890	-200,000	0,024	0,109
-429,876	113,699	0,081	-0,071
-428,861	-200,000	0,026	0,152
-427,846	-138,232	0,042	-0,003
-426,832	-56,863	-0,121	0,039
-425,817	623,713	-0,025	0,046
-424,803	-5,082	0,042	0,021
-423,788	194,894	-0,045	0,050
-422,773	800,000	0,040	0,102
-421,759	-152,775	0,084	0,004
-420,744	-200,000	-0,014	0,054
-419,730	800,000	0,058	-0,124
-418,715	531,511	0,054	-0,093
-417,701	82,861	0,117	-0,092
-416,686	-114,629	0,089	0,012
-415,671	800,000	-0,036	0,094
-414,657	-114,838	0,061	0,008
-413,642	-172,951	0,110	0,002
-412,628	-60,230	-0,111	0,034
-411,613	-200,000	-0,010	-0,111
-410,598	800,000	0,044	-0,126
-409,584	102,950	-0,030	0,026
-408,569	800,000	-0,017	-0,038
-407,555	128,231	0,141	0,130
-406,540	130,620	-0,065	0,060
-405,525	558,853	-0,015	0,027
-404,511	-200,000	-0,018	-0,153
-403,496	389,034	-0,043	0,065
-402,482	800,000	0,012	-0,027
-401,467	115,109	0,104	-0,092
-400,452	20,643	-0,159	0,093
-399,438	-148,283	-0,045	-0,003
-398,423	-80,087	-0,156	0,038
-397,409	-30,282	0,053	0,022
-396,394	126,913	0,071	0,065
-395,379	800,000	-0,081	0,174
-394,365	181,179	0,094	0,100
-393,350	-153,765	-0,074	-0,004
-392,336	-200,000	-0,014	0,080
-391,321	226,987	0,036	0,042
-390,306	9,190	-0,078	0,043
-389,292	172,232	-0,101	-0,105
-388,277	-200,000	0,006	-0,037
-387,263	800,000	-0,051	0,154
-386,248	-135,276	0,070	-0,006
-385,233	771,280	-0,045	0,089
-384,219	182,039	-0,020	0,021
-383,204	317,070	-0,016	0,022
-382,190	453,037	0,028	0,046
-381,175	81,334	0,104	0,082
-380,160	-200,000	0,006	0,084
-379,146	-127,033	0,054	0,006
-378,131	-18,474	0,048	-0,022
-377,117	-200,000	-0,005	0,085
-376,102	800,000	-0,003	0,009
-375,088	124,945	0,072	-0,066
-374,073	-200,000	-0,016	0,113
-373,058	800,000	-0,044	0,133
-372,044	71,155	0,076	-0,057
-371,029	-200,000	0,012	0,071
-370,015	-200,000	-0,004	-0,053
-369,000	15,164	-0,150	-0,085
-367,985	-89,249	-0,106	-0,022
-366,971	-117,623	-0,042	-0,005
-365,956	-200,000	-0,000	-0,106
-364,942	409,406	0,027	0,041
-363,927	-71,262	0,065	0,018
-362,912	192,677	-0,080	0,088
-361,898	-200,000	0,001	0,036
-360,883	95,954	-0,105	-0,087
-359,869	-23,748	-0,032	0,014
-358,854	-200,000	0,014	0,044
-357,839	-2,586	0,034	-0,017
-356,825	-92,946	-0,028	-0,006
-355,810	-200,000	-0,018	0,087
-354,796	200,050	-0,055	-0,062
-353,781	800,000	-0,071	-0,168
-352,766	800,000	0,020	-0,052
-351,752	61,021	0,151	-0,109
-350,737	-118,859	-0,050	-0,006
-349,723	-64,954	0,074	0,022
-348,708	41,935	0,083	0,054
-347,693	40,609	-0,062	0,040
-346,679	152,937	0,078	-0,078
-345,664	-200,000	0,049	-0,250
-344,650	19,283	0,057	0,033
-343,635	-200,000	0,004	-0,018
-342,620	800,000	0,048	0,132
-341,606	0,283	0,044	-0,023
-340,591	-200,000	-0,005	0,097
-339,577	210,295	-0,032	0,036
-338,562	-200,000	-0,025	-0,100
-337,548	182,160	-0,026	0,028
-336,533	-55,162	0,137	-0,044
-335,518	-56,497	0,049	-0,016
-334,504	-200,000	-0,021	0,098
-333,489	-70,221	-0,136	-0,037
-332,475	-82,698	-0,091	-0,021
-331,460	-66,444	0,102	0,029
-330,445	308,208	0,061	-0,083
-329,431	-200,000	0,000	0,165
-328,416	-98,588	-0,044	-0,008
-327,402	0,173	-0,083	-0,042
-326,387	-200,000	0,006	0,150
-325,372	-84,830	-0,185	-0,042
-324,358	800,000	0,018	-0,050
-323,343	-147,761	0,128	0,008
-322,329	800,000	0,011	0,025
-321,314	132,783	-0,047	0,043
-320,299	-58,761	0,102	-0,032
-319,285	-200,000	0,001	-0,019
-318,270	800,000	-0,051	0,104
-317,256	84,951	-0,069	-0,054
-316,241	-200,000	-0,011	-0,045
-315,226	-200,000	-0,009	-0,142
-314,212	275,026	0,013	-0,017
-313,197	800,000	-0,034	0,070
-312,183	170,699	0,068	-0,071
-311,168	-4,782	0,028	-0,014
-310,153	-200,000	0,024	-0,137
-309,139	222,544	0,074	-0,086
-308,124	97,460	0,091	-0,076
-307,110	-79,512	0,047	-0,011
-306,095	-54,844	0,034	-0,011
-305,080	-86,937	-0,064	-0,014
-304,066	16,979	-0,156	-0,089
-303,051	445,828	0,081	-0,130
-302,037	59,848	-0,087	-0,062
-301,022	-200,000	0,016	0,149
-300,008	-200,000	0,001	0,133
-298,993	89,602	-0,053	0,042
-297,978	13,136	0,080	-0,045
-296,964	501,574	0,016	0,026
-295,949	-139,148	0,017	0,001
-294,935	-6,040	0,090	-0,044
-293,920	132,865	-0,100	-0,093
-292,905	-200,000	0,016	-0,055
-291,891	477,459	-0,084	0,138
-290,876	102,739	-0,140	0,119
-289,862	-200,000	-0,035	-0,119
-288,847	-200,000	0,014	-0,139
-287,832	641,157	-0,031	-0,058
-286,818	-200,000	-0,002	0,080
-285,803	-62,057	0,029	-0,009
-284,789	-134,083	0,107	-0,009
-283,774	750,162	-0,044	0,086
-282,759	-200,000	-0,011	0,057
-281,745	800,000	-0,050	-0,123
-280,730	-197,569	-0,155	-0,001
-279,716	80,201	-0,074	0,058
-278,701	109,940	0,081	-0,070
-277,686	67,229	-0,041	0,030
-276,672	-200,000	-0,045	-0,222
-275,657	-105,744	-0,117	0,019
-274,643	90,800	0,100	0,081
-273,628	-200,000	0,035	0,206
-272,613	800,000	-0,037	0,100
-271,599	-200,000	0,013	0,127
-270,584	-12,532	-0,154	0,072
-269,570	800,000	0,037	0,116
-268,555	-42,888	0,075	0,027
-267,540	-12,809	-0,173	0,081
-266,526	-139,836	0,072	-0,005
-265,511	148,614	-0,112	-0,109
-264,497	-73,539	0,008	0,002
-263,482	221,912	0,078	-0,091
-262,467	800,000	-0,034	0,083
-261,453	-200,000	-0,010	0,034
-260,438	-49,237	-0,116	0,040
-259,424	271,914	-0,044	0,056
-258,409	322,465	0,110	-0,151
-257,395	-18,324	0,090	0,040
-256,380	-21,667	0,111	-0,049
-255,365	337,871	-0,072	0,102
-254,351	-41,001	0,057	0,021
-253,336	-110,112	0,074	0,011
-252,322	-21,584	0,048	-0,021
-251,307	474,647	0,009	0,015
-250,292	-70,987	0,062	0,017
-249,278	211,047	0,119	0,135
-248,263	243,116	0,065	0,078
-247,249	442,714	0,011	0,018
-246,234	-105,948	-0,100	-0,016
-245,219	800,000	-0,021	-0,064
-244,205	85,619	-0,107	0,085
-243,190	294,718	0,035	0,046
-242,176	-200,000	-0,003	0,040
-241,161	-200,000	0,012	0,067
-240,146	800,000	0,010	0,031
-239,132	-200,000	-0,008	-0,077
-238,117	-200,000	0,000	-0,069
-237,103	350,971	-0,039	-0,056
-236,088	-43,492	-0,099	-0,036
-235,073	42,289	-0,025	-0,016
-234,059	67,083	-0,042	0,031
-233,044	61,125	0,049	-0,035
-232,030	-145,266	0,101	0,006
-231,015	-154,845	-0,160	-0,008
-230,000	-3,241	-0,135	-0,068
-228,986	139,626	-0,038	-0,036
-227,971	-200,000	0,035	-0,148
-226,957	-117,455	0,056	-0,007
-225,942	-14,807	0,129	0,060
-224,927	36,802	0,087	0,056
-223,913	-200,000	0,036	-0,147
-222,898	800,000	-0,055	0,154
-221,884	-200,000	-0,003	0,061
-220,869	800,000	-0,025	-0,060
-219,855	92,875	0,060	0,049
-218,840	-25,712	0,057	0,024
-217,825	521,668	0,017	0,029
-216,811	146,039	0,018	-0,017
-215,796	-200,000	-0,005	-0,028
-214,782	-57,491	0,067	0,021
-213,767	-92,800	0,103	0,021
-212,752	-120,051	0,047	0,006
-211,738	11,797	0,079	0,043
-210,723	-177,827	-0,105	0,002
-209,709	30,504	-0,048	0,029
-208,694	-158,894	-0,052	0,002
-207,679	752,975	-0,081	-0,158
-206,665	39,762	0,051	0,033
-205,650	-145,456	0,025	0,002
-204,636	33,969	0,069	-0,043
-203,621	800,000	-0,038	0,077
-202,606	111,177	-0,101	0,088
-201,592	119,990	-0,061	0,055
-200,577	-200,000	-0,021	-0,078
-199,563	-135,106	0,115	0,010
-198,548	-4,071	-0,042	-0,021
-197,533	2,001	-0,057	-0,030
-196,519	-52,364	0,089	0,030
-195,504	-91,723	0,051	0,010
-194,490	-76,111	0,089	0,022
-193,475	-83,979	-0,012	0,003
-192,460	428,488	0,044	0,068
-191,446	-37,411	-0,254	0,097
-190,431	-84,912	0,032	0,007
-189,417	800,000	0,068	0,166
-188,402	-200,000	-0,021	-0,080
-187,387	-119,326	-0,068	0,008
-186,373	-200,000	-0,011	-0,070
-185,358	-200,000	-0,004	0,041
-184,344	-200,000	-0,040	-0,129
-183,329	433,644	-0,077	-0,120
-182,315	-200,000	0,002	0,031
-181,300	-71,793	0,132	0,035
-180,285	-200,000	-0,003	-0,150
-179,271	76,718	0,097	0,074
-178,256	-200,000	0,015	-0,084
-177,242	36,501	-0,055	0,035
-176,227	736,432	0,034	-0,065
-175,212	-200,000	0,001	-0,022
-174,198	-107,321	0,055	0,009
-173,183	-13,978	-0,160	-0,074
-172,169	31,868	0,047	0,029
-171,154	-200,000	0,015	-0,052
-170,139	-200,000	-0,004	-0,039
-169,125	-200,000	-0,036	0,157
-168,110	206,376	0,018	0,020
-167,096	220,564	0,076	-0,088
-166,081	-43,201	-0,106	0,038
-165,066	-200,000	-0,008	-0,034
-164,052	-156,850	-0,061	-0,003
-163,037	487,822	-0,039	0,064
-162,023	701,283	0,034	0,064
-161,008	-128,397	0,150	-0,015
-159,993	244,242	0,102	-0,124
-158,979	441,832	-0,032	-0,050
-157,964	-25,556	-0,075	0,032
-156,950	88,629	-0,070	0,056
-155,935	-76,887	-0,051	-0,013
-154,920	431,026	0,022	0,035
-153,906	287,393	-0,072	0,094
-152,891	800,000	-0,021	-0,043
-151,877	33,364	-0,084	0,053
-150,862	35,559	0,097	-0,061
-149,847	-200,000	-0,003	0,095
-148,833	-152,952	-0,137	-0,007
-147,818	85,476	0,161	0,127
-146,804	-200,000	-0,004	0,166
-145,789	-69,674	0,056	0,015
-144,775	48,320	0,064	-0,043
-143,760	-18,168	-0,110	-0,049
-142,745	-200,000	0,008	-0,137
-141,731	-200,000	0,014	-0,057
-140,716	-200,000	-0,037	-0,118
-139,702	800,000	0,016	0,046
-138,687	-200,000	0,007	0,127
-137,672	-200,000	-0,000	0,053
-136,658	800,000	-0,052	-0,112
-135,643	226,623	0,034	0,040
-134,629	-200,000	0,006	0,059
-133,614	143,424	0,089	0,085
-132,599	800,000	-0,013	-0,031
-131,585	-4,925	-0,081	0,040
-130,570	27,328	0,099	0,060
-129,556	-49,807	0,027	0,009
-128,541	800,000	0,052	-0,140
-127,526	800,000	-0,029	-0,079
-126,512	-66,396	-0,048	0,014
-125,497	-200,000	-0,010	0,058
-124,483	145,394	0,107	-0,103
-123,468	-200,000	0,010	-0,103
-122,453	-200,000	0,002	0,010
-121,439	634,860	-0,042	-0,077
-120,424	800,000	0,034	-0,087
-119,410	800,000	-0,047	-0,101
