DTS Sentinel unit serial number:	SN410029Multiplexer serial number:	ORYXHardware model number:	OX2-SRSoftware version number:	ORYX F/W v4,00 Oryx Data Collector v3.7.2.0data status	okinstallation	B6 Nyhavnadifferential loss correction	single-endedforward channel	channel 2reverse channel	N/Adate	2023/12/08time	14:25:08forward acquisition time	300,00reverse acquisition time	0,00gamma	499,1914k internal	0,3159k external	0,3159temperature offset calibration	1,0000default loss term (dB/km)	0,3820temperature slope calibration	1,0000multiplexer offset coefficient	1,0000multiplexer slope coefficient	1,0000fibre end	0,00T internal ref (°C)	15,06T ext. ref 1 (°C)	-1,55T ext. ref 2 (°C)	-1,55length (m)	temperature (°C)	Stokes	anti-Stokes-744,400	-60,603	0,071	0,022
-743,385	-107,982	-0,219	-0,035
-742,371	610,877	0,041	-0,076
-741,356	24,992	-0,237	0,144
-740,342	-53,722	0,105	0,035
-739,327	-103,376	-0,369	-0,063
-738,312	-16,703	0,205	0,095
-737,298	-179,489	-0,273	0,004
-736,283	157,099	0,138	-0,141
-735,269	-200,000	-0,361	0,001
-734,254	641,600	0,073	0,138
-733,239	-74,151	-0,419	-0,111
-732,225	-58,095	0,061	0,019
-731,210	-129,315	0,133	0,013
-730,196	-122,526	-0,149	0,018
-729,181	18,520	-0,179	0,105
-728,167	-62,584	0,064	-0,020
-727,152	-195,150	0,142	-0,001
-726,137	198,046	-0,080	-0,090
-725,123	173,524	-0,085	-0,091
-724,108	800,000	0,026	-0,081
-723,094	-200,000	-0,017	-0,112
-722,079	-200,000	-0,030	-0,145
-721,064	675,692	-0,037	-0,071
-720,050	197,794	-0,141	-0,159
-719,035	-44,051	-0,151	0,055
-718,021	-200,000	-0,029	-0,157
-717,006	342,118	0,066	-0,095
-715,991	13,906	-0,155	-0,089
-714,977	13,555	-0,062	-0,035
-713,962	651,019	-0,035	-0,067
-712,948	219,252	0,100	-0,118
-711,933	-20,726	0,097	0,044
-710,918	271,872	-0,028	0,036
-709,904	389,392	-0,127	-0,195
-708,889	127,947	-0,120	0,112
-707,875	-181,916	0,105	0,001
-706,860	24,556	-0,090	0,055
-705,845	96,578	0,107	0,090
-704,831	-6,907	-0,118	-0,059
-703,816	171,818	0,064	0,068
-702,802	607,242	-0,036	-0,067
-701,787	800,000	0,025	-0,075
-700,772	238,627	-0,059	-0,072
-699,758	-200,000	-0,012	-0,097
-698,743	237,336	0,053	0,065
-697,729	800,000	0,008	0,023
-696,714	-114,806	0,056	0,008
-695,699	42,748	-0,045	-0,030
-694,685	-200,000	0,005	0,112
-693,670	479,011	-0,033	0,055
-692,656	-92,065	0,099	0,021
-691,641	800,000	0,020	0,059
-690,627	4,293	0,090	0,048
-689,612	-164,431	-0,096	0,003
-688,597	-110,241	0,093	0,014
-687,583	-89,083	-0,076	-0,016
-686,568	185,446	-0,014	-0,015
-685,554	581,708	-0,045	-0,081
-684,539	204,939	-0,031	0,035
-683,524	57,704	-0,073	0,053
-682,510	698,004	0,015	0,028
-681,495	-174,110	0,096	-0,002
-680,481	49,493	-0,079	-0,055
-679,466	-200,000	-0,007	-0,040
-678,451	-106,849	-0,096	0,016
-677,437	8,209	-0,040	-0,022
-676,422	-39,733	0,051	0,019
-675,408	800,000	-0,022	-0,056
-674,393	31,469	0,154	0,097
-673,378	800,000	-0,030	0,065
-672,364	65,157	-0,036	-0,027
-671,349	278,220	-0,076	-0,099
-670,335	136,182	0,069	-0,066
-669,320	-21,242	-0,045	-0,020
-668,305	44,602	0,037	0,025
-667,291	62,283	-0,063	-0,046
-666,276	-44,330	-0,078	0,028
-665,262	777,734	-0,052	-0,105
-664,247	-200,000	-0,010	-0,200
-663,232	-200,000	-0,014	-0,047
-662,218	-120,292	-0,036	-0,004
-661,203	-88,553	-0,084	0,018
-660,189	-200,000	-0,013	-0,128
-659,174	84,599	0,016	0,013
-658,159	135,916	-0,158	-0,152
-657,145	-200,000	-0,000	-0,084
-656,130	15,589	0,080	-0,046
-655,116	-63,309	-0,045	0,014
-654,101	113,216	0,012	-0,010
-653,086	-94,207	0,093	-0,019
-652,072	213,475	-0,034	0,039
-651,057	-45,423	-0,165	-0,060
-650,043	-41,393	-0,031	-0,012
-649,028	-200,000	-0,008	-0,028
-648,014	-7,967	-0,068	0,034
-646,999	61,474	0,015	-0,011
-645,984	-200,000	0,015	0,074
-644,970	95,694	-0,134	0,112
-643,955	800,000	-0,048	-0,138
-642,941	-114,673	-0,066	0,009
-641,926	259,424	-0,126	-0,160
-640,911	-200,000	0,012	0,083
-639,897	133,203	0,086	0,082
-638,882	-200,000	0,038	0,137
-637,868	-169,562	-0,054	-0,001
-636,853	800,000	0,028	-0,075
-635,838	-113,302	-0,098	-0,014
-634,824	800,000	-0,044	0,140
-633,809	-200,000	0,001	-0,008
-632,795	800,000	-0,045	0,124
-631,780	68,788	0,088	-0,066
-630,765	301,040	-0,035	-0,048
-629,751	-200,000	-0,010	0,148
-628,736	294,551	0,032	-0,043
-627,722	100,914	0,108	-0,092
-626,707	-200,000	-0,004	-0,060
-625,692	123,015	-0,064	0,059
-624,678	-63,887	0,089	-0,026
-623,663	25,602	-0,096	0,058
-622,649	-77,945	-0,163	0,041
-621,634	26,012	-0,042	0,026
-620,619	73,094	-0,085	0,065
-619,605	-12,290	-0,082	-0,039
-618,590	39,475	-0,124	-0,081
-617,576	-200,000	-0,007	0,061
-616,561	-67,651	-0,124	-0,035
-615,546	-200,000	0,013	-0,064
-614,532	635,739	-0,098	-0,183
-613,517	179,319	-0,048	-0,052
-612,503	525,835	-0,005	0,008
-611,488	151,347	0,063	-0,062
-610,474	-200,000	0,019	0,110
-609,459	-200,000	-0,006	-0,059
-608,444	23,633	-0,019	-0,012
-607,430	-65,535	-0,093	-0,027
-606,415	-19,930	-0,141	0,063
-605,401	201,291	-0,039	0,044
-604,386	0,469	-0,040	0,021
-603,371	-43,604	0,101	0,037
-602,357	362,369	-0,044	-0,065
-601,342	-40,608	-0,127	-0,048
-600,328	-45,970	-0,219	-0,079
-599,313	-200,000	0,004	0,062
-598,298	117,713	0,048	0,043
-597,284	-150,148	-0,106	0,006
-596,269	-11,529	0,105	0,051
-595,255	-43,110	0,092	-0,034
-594,240	-200,000	-0,010	-0,083
-593,225	-102,157	0,108	0,019
-592,211	-200,000	-0,015	-0,128
-591,196	-200,000	0,002	-0,066
-590,182	553,667	-0,051	-0,090
-589,167	258,284	0,042	0,053
-588,152	524,305	0,045	-0,079
-587,138	159,127	0,041	-0,042
-586,123	610,279	-0,036	0,066
-585,109	254,064	-0,054	-0,068
-584,094	-153,615	0,066	0,003
-583,079	-161,541	0,062	-0,002
-582,065	-200,000	0,026	0,092
-581,050	-67,684	0,192	-0,055
-580,036	143,238	0,035	-0,034
-579,021	-57,764	0,044	0,014
-578,006	43,611	0,065	0,043
-576,992	361,065	-0,035	0,051
-575,977	-134,120	-0,038	-0,003
-574,963	-200,000	0,007	0,196
-573,948	-200,000	-0,011	0,226
-572,934	-200,000	-0,008	-0,058
-571,919	193,692	0,053	-0,059
-570,904	-43,215	-0,223	-0,082
-569,890	-44,698	-0,057	0,021
-568,875	-200,000	0,020	0,098
-567,861	-200,000	0,017	-0,063
-566,846	-200,000	0,004	0,105
-565,831	73,738	0,071	0,055
-564,817	-200,000	0,002	0,167
-563,802	74,207	-0,156	-0,120
-562,788	205,041	-0,094	-0,106
-561,773	382,768	-0,022	-0,033
-560,758	800,000	-0,006	0,016
-559,744	257,260	0,017	-0,022
-558,729	-200,000	0,012	-0,152
-557,715	-85,843	-0,120	0,027
-556,700	-77,485	-0,149	-0,037
-555,685	669,792	-0,072	0,137
-554,671	-36,634	0,150	0,059
-553,656	45,491	-0,080	0,054
-552,642	-73,446	0,103	0,027
-551,627	-200,000	0,026	0,109
-550,612	212,525	0,129	-0,150
-549,598	354,874	-0,037	-0,053
-548,583	-48,376	0,021	0,007
-547,569	-189,670	-0,084	0,001
-546,554	-200,000	0,007	0,057
-545,539	800,000	0,053	0,112
-544,525	342,120	-0,039	0,056
-543,510	19,689	0,038	0,022
-542,496	-12,947	-0,157	-0,075
-541,481	114,624	0,074	0,066
-540,466	-73,877	-0,043	0,011
-539,452	422,126	0,076	-0,119
-538,437	-200,000	-0,002	0,076
-537,423	800,000	-0,030	-0,085
-536,408	800,000	-0,010	-0,029
-535,393	800,000	-0,040	-0,095
-534,379	-200,000	0,015	0,068
-533,364	-200,000	0,031	0,139
-532,350	800,000	0,023	0,069
-531,335	119,165	0,071	0,065
-530,321	-39,713	0,034	-0,013
-529,306	-200,000	0,004	0,097
-528,291	589,664	-0,059	-0,107
-527,277	779,599	-0,053	0,107
-526,262	-27,833	0,098	-0,041
-525,248	-117,601	0,153	0,020
-524,233	747,450	-0,025	-0,049
-523,218	-0,969	0,123	0,063
-522,204	186,910	-0,049	0,053
-521,189	398,401	-0,150	-0,230
-520,175	-15,286	-0,030	0,014
-519,160	-93,673	-0,096	-0,019
-518,145	-173,602	0,065	0,001
-517,131	-23,281	-0,044	-0,019
-516,116	-81,814	0,063	0,015
-515,102	96,892	0,173	-0,145
-514,087	350,595	-0,069	-0,100
-513,072	-159,133	-0,090	-0,004
-512,058	-40,149	0,084	0,032
-511,043	67,593	-0,018	0,013
-510,029	-52,968	-0,065	-0,022
-509,014	-78,833	0,094	0,023
-507,999	-200,000	0,002	0,124
-506,985	-200,000	0,021	-0,103
-505,970	386,828	-0,050	-0,075
-504,956	26,003	-0,051	0,031
-503,941	228,034	-0,041	-0,049
-502,926	-180,897	0,130	0,002
-501,912	-200,000	-0,017	0,058
-500,897	800,000	-0,040	0,086
-499,883	791,032	-0,033	-0,067
-498,868	-16,992	-0,112	-0,051
-497,853	94,683	-0,046	-0,038
-496,839	114,717	0,073	-0,065
-495,824	-103,470	0,164	0,028
-494,810	800,000	0,022	-0,044
-493,795	-80,382	-0,097	0,024
-492,781	-200,000	0,033	-0,109
-491,766	-87,265	0,117	-0,026
-490,751	11,241	-0,184	-0,103
-489,737	18,593	0,069	-0,040
-488,722	-200,000	-0,021	-0,096
-487,708	800,000	-0,074	0,183
-486,693	413,043	0,036	-0,057
-485,678	-122,508	-0,085	-0,010
-484,664	86,789	-0,053	-0,043
-483,649	-200,000	-0,002	0,061
-482,635	191,458	0,053	-0,058
-481,620	249,043	-0,020	-0,025
-480,605	46,705	0,062	-0,042
-479,591	-146,039	-0,128	-0,008
-478,576	-200,000	0,019	-0,105
-477,562	65,050	0,087	-0,064
-476,547	20,157	-0,093	0,055
-475,532	-51,041	-0,033	-0,011
-474,518	-200,000	0,005	0,114
-473,503	-12,340	0,069	0,033
-472,489	-200,000	-0,011	0,102
-471,474	-200,000	0,013	-0,072
-470,459	-79,386	0,070	0,017
-469,445	251,874	0,053	-0,066
-468,430	-200,000	0,018	-0,074
-467,416	800,000	0,018	0,039
-466,401	-34,033	-0,061	0,024
-465,386	-200,000	-0,022	0,128
-464,372	-200,000	-0,019	0,089
-463,357	-130,738	-0,062	-0,006
-462,343	800,000	0,023	-0,068
-461,328	-47,809	0,026	0,009
-460,313	-57,497	0,123	-0,039
-459,299	-200,000	-0,000	0,072
-458,284	-200,000	0,002	-0,122
-457,270	-200,000	-0,005	0,091
-456,255	-200,000	0,011	-0,081
-455,241	-200,000	0,029	-0,118
-454,226	118,485	0,092	-0,083
-453,211	243,046	0,030	-0,037
-452,197	399,699	-0,036	0,055
-451,182	800,000	0,026	0,080
-450,168	-200,000	0,013	-0,116
-449,153	584,114	-0,028	0,051
-448,138	33,145	-0,078	-0,049
-447,124	169,292	-0,096	-0,099
-446,109	-71,931	0,086	0,023
-445,095	800,000	0,043	0,111
-444,080	800,000	0,049	0,150
-443,065	-200,000	-0,019	0,086
-442,051	170,349	-0,084	-0,087
-441,036	-200,000	0,036	-0,141
-440,022	-200,000	-0,023	-0,162
-439,007	249,792	-0,048	0,059
-437,992	-142,913	-0,138	-0,010
-436,978	36,154	0,127	-0,081
-435,963	-200,000	-0,002	0,050
-434,949	382,126	0,045	-0,067
-433,934	-181,026	0,071	0,001
-432,919	-130,306	-0,018	-0,002
-431,905	-167,250	-0,074	-0,002
-430,890	-200,000	0,023	0,115
-429,876	800,000	0,029	0,075
-428,861	-96,555	0,172	0,033
-427,846	-31,813	-0,033	0,013
-426,832	479,779	0,056	0,094
-425,817	23,503	-0,015	0,009
-424,803	-62,334	0,077	0,023
-423,788	-125,636	0,127	0,014
-422,773	-200,000	-0,010	0,120
-421,759	-106,811	0,081	0,013
-420,744	163,163	-0,098	-0,100
-419,730	168,838	-0,085	0,088
-418,715	800,000	-0,051	-0,109
-417,701	462,450	-0,104	0,170
-416,686	128,143	0,070	0,065
-415,671	-97,378	0,116	0,022
-414,657	-96,670	0,064	-0,012
-413,642	722,410	-0,035	-0,068
-412,628	309,379	0,083	-0,113
-411,613	-49,292	0,153	0,053
-410,598	-80,526	-0,130	0,031
-409,584	-41,514	-0,049	-0,018
-408,569	-200,000	-0,022	0,084
-407,555	109,912	-0,046	-0,040
-406,540	800,000	0,014	-0,036
-405,525	-200,000	-0,012	-0,153
-404,511	60,909	-0,073	-0,053
-403,496	-200,000	-0,015	-0,106
-402,482	-116,357	0,120	0,016
-401,467	181,554	-0,025	-0,027
-400,452	74,367	-0,149	-0,114
-399,438	55,524	0,103	0,072
-398,423	-200,000	0,001	0,108
-397,409	-19,321	0,061	-0,027
-396,394	-200,000	0,010	-0,127
-395,379	-0,444	0,061	-0,031
-394,365	-99,331	-0,122	0,022
-393,350	290,783	0,120	0,159
-392,336	-82,313	-0,136	-0,032
-391,321	-200,000	0,011	0,071
-390,306	575,090	0,051	-0,090
-389,292	-14,323	-0,059	0,027
-388,277	420,080	0,052	0,081
-387,263	-200,000	0,001	-0,094
-386,248	800,000	0,054	0,133
-385,233	-45,056	-0,042	-0,015
-384,219	800,000	-0,062	-0,133
-383,204	609,589	0,034	0,062
-382,190	-22,980	-0,113	-0,049
-381,175	15,906	-0,123	-0,070
-380,160	-200,000	-0,010	0,079
-379,146	-38,107	-0,021	0,008
-378,131	121,856	0,033	0,030
-377,117	-46,735	0,101	0,036
-376,102	-60,467	-0,078	-0,024
-375,088	-200,000	-0,024	0,122
-374,073	302,927	-0,102	-0,137
-373,058	-200,000	0,007	-0,104
-372,044	800,000	0,030	0,091
-371,029	-200,000	0,012	0,048
-370,015	150,166	0,016	0,015
-369,000	17,921	0,095	0,055
-367,985	263,646	0,022	0,027
-366,971	-53,743	-0,049	0,016
-365,956	800,000	0,033	0,084
-364,942	222,702	0,123	0,144
-363,927	-91,589	-0,002	0,000
-362,912	-200,000	0,014	-0,093
-361,898	-49,624	-0,122	0,042
-360,883	367,195	-0,072	-0,106
-359,869	-200,000	-0,040	-0,134
-358,854	-71,704	0,054	0,014
-357,839	-93,109	0,190	0,038
-356,825	-157,669	-0,144	-0,006
-355,810	-70,616	0,122	0,033
-354,796	-200,000	-0,032	-0,167
-353,781	105,975	-0,094	-0,081
-352,766	640,344	-0,007	-0,013
-351,752	97,907	0,058	0,048
-350,737	-164,011	0,139	-0,005
-349,723	237,950	0,044	0,053
-348,708	800,000	0,033	0,100
-347,693	91,351	0,115	-0,094
-346,679	-123,225	-0,093	-0,011
-345,664	-200,000	-0,005	-0,033
-344,650	390,570	0,016	-0,024
-343,635	100,386	0,052	-0,044
-342,620	800,000	0,035	0,072
-341,606	674,110	0,052	-0,099
-340,591	800,000	0,025	0,074
-339,577	-200,000	0,027	0,119
-338,562	366,276	-0,036	-0,053
-337,548	-56,637	-0,153	-0,049
-336,533	136,954	0,045	0,042
-335,518	607,524	-0,074	0,134
-334,504	10,815	0,139	-0,077
-333,489	41,533	0,049	-0,032
-332,475	3,554	0,065	-0,034
-331,460	-114,290	0,026	0,004
-330,445	-134,647	0,031	0,003
-329,431	800,000	0,051	-0,132
-328,416	-83,781	0,085	-0,020
-327,402	-200,000	0,001	-0,020
-326,387	800,000	-0,059	0,146
-325,372	80,801	0,052	0,040
-324,358	372,592	0,060	-0,089
-323,343	-123,129	-0,070	0,008
-322,329	26,472	0,144	0,087
-321,314	800,000	-0,019	0,050
-320,299	-200,000	-0,013	0,096
-319,285	-121,373	-0,026	0,003
-318,270	-188,503	0,082	-0,001
-317,256	-200,000	0,004	-0,090
-316,241	-200,000	-0,024	-0,103
-315,226	800,000	0,063	-0,188
-314,212	-193,041	-0,091	0,001
-313,197	-73,809	-0,088	0,023
-312,183	392,761	-0,068	-0,103
-311,168	-7,992	-0,018	0,009
-310,153	-54,048	-0,078	-0,026
-309,139	-159,543	0,071	-0,003
-308,124	800,000	0,007	-0,021
-307,110	465,741	-0,058	0,094
-306,095	800,000	-0,040	-0,081
-305,080	-200,000	0,006	-0,064
-304,066	53,708	0,008	0,006
-303,051	282,112	-0,080	-0,104
-302,037	396,699	-0,119	0,180
-301,022	-63,964	-0,088	-0,026
-300,008	260,556	-0,035	0,044
-298,993	436,722	0,051	0,081
-297,978	79,178	0,104	-0,081
-296,964	800,000	-0,042	0,088
-295,949	800,000	0,079	0,187
-294,935	-35,404	0,021	-0,008
-293,920	-200,000	-0,002	0,090
-292,905	-20,177	0,067	-0,030
-291,891	635,025	0,025	0,047
-290,876	-200,000	0,005	0,078
-289,862	-162,986	0,124	-0,004
-288,847	84,682	-0,114	0,091
-287,832	-200,000	0,042	-0,140
-286,818	-57,454	-0,125	-0,040
-285,803	800,000	-0,025	0,076
-284,789	800,000	-0,043	0,095
-283,774	101,483	0,039	0,033
-282,759	-200,000	-0,004	-0,063
-281,745	-178,405	-0,114	0,002
-280,730	472,930	0,073	-0,119
-279,716	-150,036	-0,049	0,003
-278,701	557,131	0,026	0,046
-277,686	673,452	-0,019	0,036
-276,672	43,863	-0,095	0,063
-275,657	-148,800	0,134	0,008
-274,643	-200,000	0,009	-0,038
-273,628	-200,000	-0,007	-0,186
-272,613	800,000	0,092	-0,219
-271,599	-56,450	0,015	0,005
-270,584	111,839	0,103	-0,090
-269,570	309,950	0,052	0,070
-268,555	-12,999	0,097	0,045
-267,540	128,418	-0,019	0,018
-266,526	-200,000	-0,015	0,073
-265,511	-30,977	0,114	0,046
-264,497	-4,872	-0,071	0,035
-263,482	-176,663	0,235	0,004
-262,467	303,951	0,041	-0,056
-261,453	242,479	-0,091	-0,111
-260,438	-200,000	-0,015	0,092
-259,424	6,055	-0,013	-0,007
-258,409	-3,613	0,050	0,025
-257,395	119,501	0,080	0,072
-256,380	215,434	-0,026	0,030
-255,365	-200,000	0,005	-0,048
-254,351	41,270	0,200	0,131
-253,336	102,528	0,021	0,018
-252,322	-200,000	0,008	-0,067
-251,307	-200,000	-0,011	-0,092
-250,292	-38,835	0,063	-0,024
-249,278	269,814	0,143	0,182
-248,263	-29,604	-0,113	-0,047
-247,249	-27,702	0,065	-0,027
-246,234	108,261	-0,024	0,021
-245,219	73,021	-0,053	0,040
-244,205	113,167	0,055	-0,048
-243,190	-3,376	-0,128	0,064
-242,176	489,542	0,055	-0,091
-241,161	322,215	-0,038	0,053
-240,146	28,560	-0,025	-0,015
-239,132	103,954	0,053	-0,045
-238,117	-200,000	0,038	0,121
-237,103	800,000	0,054	-0,144
-236,088	-124,447	0,079	0,009
-235,073	374,784	-0,010	-0,014
-234,059	-200,000	-0,005	0,119
-233,044	800,000	-0,035	0,079
-232,030	800,000	0,039	0,119
-231,015	142,297	-0,017	-0,016
-230,000	84,551	0,049	0,039
-228,986	-200,000	0,018	-0,076
-227,971	-171,654	0,060	0,001
-226,957	51,835	0,094	0,065
-225,942	-200,000	-0,006	0,165
-224,927	-144,663	-0,063	0,004
-223,913	138,464	0,133	-0,126
-222,898	331,485	-0,044	0,062
-221,884	-104,314	-0,092	0,015
-220,869	-200,000	0,002	-0,117
-219,855	34,676	0,019	0,012
-218,840	800,000	-0,042	0,125
-217,825	-200,000	-0,009	0,042
-216,811	-200,000	-0,025	-0,189
-215,796	-134,977	0,088	0,008
-214,782	59,158	0,009	0,006
-213,767	-11,270	-0,017	0,008
-212,752	233,361	0,080	0,095
-211,738	-200,000	-0,002	-0,098
-210,723	673,712	-0,057	-0,107
-209,709	-149,936	-0,103	-0,006
-208,694	-200,000	0,026	-0,099
-207,679	-200,000	0,018	-0,079
-206,665	-72,094	0,082	-0,022
-205,650	-91,601	0,130	0,027
-204,636	-160,708	0,074	-0,003
-203,621	697,232	-0,017	0,033
-202,606	-61,591	-0,159	-0,048
-201,592	757,297	0,040	0,078
-200,577	-82,078	-0,020	0,005
-199,563	33,650	0,041	0,025
-198,548	-48,195	-0,044	0,015
-197,533	-122,699	-0,056	0,006
-196,519	135,691	-0,029	-0,028
-195,504	404,906	-0,053	0,080
-194,490	800,000	0,028	-0,088
-193,475	144,825	0,109	-0,105
-192,460	791,573	0,018	0,036
-191,446	-151,174	-0,086	-0,005
-190,431	-122,500	-0,063	0,007
-189,417	-36,108	0,152	0,059
-188,402	-200,000	0,011	0,039
-187,387	768,939	0,053	0,105
-186,373	179,360	-0,026	-0,027
-185,358	701,600	0,080	0,153
-184,344	-123,747	-0,099	-0,011
-183,329	54,501	-0,010	-0,007
-182,315	-200,000	0,014	0,054
-181,300	-6,845	-0,194	-0,095
-180,285	-51,848	0,034	0,011
-179,271	85,505	-0,123	-0,097
-178,256	-166,649	0,086	0,003
-177,242	-200,000	0,038	-0,198
-176,227	-200,000	0,018	0,060
-175,212	591,034	-0,011	0,020
-174,198	86,170	-0,094	0,075
-173,183	127,330	0,042	-0,038
-172,169	-59,626	-0,061	-0,019
-171,154	-149,693	-0,149	0,008
-170,139	159,149	0,036	-0,037
-169,125	-98,080	0,060	0,011
-168,110	-200,000	-0,008	0,197
-167,096	-69,089	-0,038	-0,011
-166,081	377,927	-0,010	-0,015
-165,066	220,655	-0,063	0,073
-164,052	107,496	-0,043	-0,037
-163,037	800,000	0,042	-0,089
-162,023	-98,451	-0,028	0,005
-161,008	255,818	0,016	-0,019
-159,993	-200,000	-0,009	0,065
-158,979	87,771	-0,060	-0,048
-157,964	58,954	-0,125	-0,088
-156,950	-0,257	-0,037	-0,019
-155,935	-200,000	0,011	0,063
-154,920	659,395	-0,052	0,098
-153,906	-16,332	0,168	0,076
-152,891	800,000	-0,013	-0,040
-151,877	190,266	-0,071	-0,077
-150,862	236,549	-0,098	-0,117
-149,847	-155,690	-0,089	0,004
-148,833	306,109	0,077	0,103
-147,818	420,638	0,024	0,037
-146,804	-200,000	0,029	0,141
-145,789	800,000	-0,015	0,030
-144,775	-144,706	-0,112	0,007
-143,760	578,447	0,001	0,002
-142,745	-17,242	-0,035	0,016
-141,731	800,000	0,034	0,093
-140,716	7,716	-0,016	-0,009
-139,702	-98,394	0,071	-0,013
-138,687	800,000	0,045	0,137
-137,672	-52,167	-0,105	-0,035
-136,658	429,527	-0,040	-0,063
-135,643	800,000	-0,013	0,030
-134,629	288,960	0,074	0,097
-133,614	56,800	0,053	0,037
-132,599	340,906	0,048	-0,068
-131,585	224,598	-0,067	0,078
-130,570	-55,837	-0,081	0,026
-129,556	800,000	-0,018	0,051
-128,541	335,157	0,107	-0,149
-127,526	314,390	0,083	-0,113
-126,512	-200,000	0,006	-0,041
-125,497	-72,084	0,091	0,024
-124,483	-200,000	-0,028	0,091
-123,468	-25,078	0,080	0,034
-122,453	800,000	-0,028	-0,079
-121,439	-200,000	0,039	-0,206
-120,424	70,095	-0,086	-0,064
-119,410	-200,000	-0,010	-0,072
