DTS Sentinel unit serial number:	SN410029Multiplexer serial number:	ORYXHardware model number:	OX2-SRSoftware version number:	ORYX F/W v4,00 Oryx Data Collector v3.7.2.0data status	okinstallation	B6 Nyhavnadifferential loss correction	single-endedforward channel	channel 2reverse channel	N/Adate	2023/12/08time	09:45:08forward acquisition time	300,00reverse acquisition time	0,00gamma	499,1914k internal	0,3166k external	0,3166temperature offset calibration	1,0000default loss term (dB/km)	0,3820temperature slope calibration	1,0000multiplexer offset coefficient	1,0000multiplexer slope coefficient	1,0000fibre end	0,00T internal ref (°C)	13,74T ext. ref 1 (°C)	-1,87T ext. ref 2 (°C)	-1,85length (m)	temperature (°C)	Stokes	anti-Stokes-744,400	167,547	0,112	-0,117
-743,385	23,714	-0,276	-0,167
-742,371	-103,145	0,131	0,023
-741,356	-114,315	-0,375	0,052
-740,342	354,850	0,032	-0,047
-739,327	15,365	-0,301	-0,173
-738,312	271,029	0,057	0,074
-737,298	-59,802	-0,373	-0,117
-736,283	5,318	0,242	0,131
-735,269	-98,026	-0,442	0,083
-734,254	-115,985	0,092	0,013
-733,239	34,437	-0,536	-0,344
-732,225	-132,275	0,284	0,027
-731,210	385,257	0,124	0,188
-730,196	-167,096	-0,055	-0,002
-729,181	336,283	-0,076	0,108
-728,167	174,759	0,078	-0,083
-727,152	5,654	-0,075	0,041
-726,137	-143,620	-0,099	-0,007
-725,123	32,458	-0,137	-0,087
-724,108	321,272	0,057	-0,080
-723,094	-200,000	0,006	-0,023
-722,079	-95,378	-0,126	-0,025
-721,064	-30,784	0,050	-0,021
-720,050	106,752	-0,072	-0,063
-719,035	294,647	-0,076	-0,102
-718,021	800,000	0,058	-0,165
-717,006	220,804	-0,105	-0,125
-715,991	-200,000	-0,001	-0,023
-714,977	-200,000	-0,042	-0,166
-713,962	604,518	-0,030	-0,055
-712,948	545,964	0,068	0,119
-711,933	-22,916	-0,157	-0,069
-710,918	439,634	-0,033	-0,053
-709,904	800,000	-0,006	0,014
-708,889	45,914	-0,135	-0,092
-707,875	70,904	-0,036	-0,027
-706,860	-1,264	-0,058	-0,030
-705,845	29,567	0,121	0,076
-704,831	305,267	-0,091	0,125
-703,816	-107,207	0,074	0,012
-702,802	-152,264	-0,194	-0,010
-701,787	537,228	-0,033	-0,057
-700,772	455,920	-0,014	-0,023
-699,758	-200,000	0,002	-0,099
-698,743	168,090	-0,048	-0,051
-697,729	-169,147	-0,129	0,003
-696,714	-200,000	0,001	-0,097
-695,699	334,008	-0,084	-0,120
-694,685	149,589	-0,051	0,051
-693,670	75,696	-0,060	-0,046
-692,656	33,386	-0,061	-0,039
-691,641	-200,000	0,018	-0,086
-690,627	77,023	-0,100	0,078
-689,612	-52,317	-0,054	0,018
-688,597	-82,868	-0,143	0,034
-687,583	-200,000	-0,011	-0,124
-686,568	-46,800	-0,116	-0,041
-685,554	126,502	0,012	-0,011
-684,539	800,000	-0,040	-0,097
-683,524	19,889	-0,025	0,015
-682,510	-200,000	0,025	0,107
-681,495	2,907	0,026	0,014
-680,481	-50,712	0,054	-0,019
-679,466	-200,000	0,029	-0,187
-678,451	462,844	0,031	0,051
-677,437	143,841	0,050	-0,049
-676,422	91,974	0,140	0,116
-675,408	-6,445	-0,063	0,032
-674,393	404,153	-0,034	0,052
-673,378	-200,000	-0,023	-0,093
-672,364	-200,000	0,004	-0,067
-671,349	679,259	-0,029	-0,055
-670,335	75,554	0,072	-0,056
-669,320	490,998	-0,038	-0,064
-668,305	800,000	0,060	-0,122
-667,291	24,176	-0,124	-0,075
-666,276	-63,163	-0,154	0,046
-665,262	-151,895	-0,197	-0,010
-664,247	-82,217	0,025	-0,006
-663,232	90,981	-0,068	-0,056
-662,218	-75,847	-0,098	-0,025
-661,203	95,436	0,049	0,041
-660,189	-40,559	-0,020	-0,008
-659,174	-200,000	-0,047	-0,199
-658,159	-163,908	0,042	-0,001
-657,145	7,123	-0,135	0,074
-656,130	-200,000	-0,024	0,093
-655,116	-73,474	0,078	0,021
-654,101	34,227	-0,108	0,069
-653,086	103,554	-0,100	-0,086
-652,072	371,219	-0,037	0,056
-651,057	657,594	-0,100	-0,190
-650,043	-8,195	-0,030	-0,015
-649,028	-100,334	-0,022	-0,004
-648,014	-87,924	0,092	0,020
-646,999	-200,000	0,027	-0,113
-645,984	23,331	0,119	0,072
-644,970	430,443	0,030	-0,047
-643,955	-200,000	0,031	0,156
-642,941	102,974	-0,070	-0,060
-641,926	-124,813	0,094	0,010
-640,911	-200,000	-0,004	-0,087
-639,897	-200,000	-0,003	-0,072
-638,882	507,798	-0,052	-0,088
-637,868	-114,102	-0,034	-0,005
-636,853	-45,702	-0,134	0,048
-635,838	-134,146	0,035	-0,003
-634,824	21,862	0,052	-0,031
-633,809	90,165	0,066	-0,054
-632,795	435,471	0,030	0,048
-631,780	-200,000	0,008	0,028
-630,765	18,185	-0,069	-0,040
-629,751	131,798	0,057	-0,054
-628,736	-132,642	-0,122	-0,011
-627,722	-200,000	-0,019	-0,118
-626,707	137,444	0,117	0,112
-625,692	-81,746	-0,032	0,008
-624,678	-69,868	0,164	-0,045
-623,663	800,000	0,005	0,014
-622,649	-25,793	-0,129	-0,055
-621,634	-16,296	-0,030	-0,014
-620,619	-200,000	-0,011	-0,041
-619,605	458,720	0,111	0,182
-618,590	-135,453	-0,196	0,017
-617,576	-200,000	-0,015	-0,119
-616,561	436,474	-0,040	0,065
-615,546	-200,000	0,027	-0,124
-614,532	-32,806	-0,192	-0,078
-613,517	-74,205	0,067	0,018
-612,503	104,828	0,082	-0,070
-611,488	160,144	-0,113	0,115
-610,474	-131,192	0,101	-0,010
-609,459	150,996	-0,058	0,058
-608,444	90,546	-0,043	-0,035
-607,430	-64,117	-0,065	-0,019
-606,415	149,914	0,087	-0,086
-605,401	-151,949	-0,064	0,003
-604,386	800,000	0,043	-0,096
-603,371	-161,540	-0,158	0,006
-602,357	127,112	-0,063	0,058
-601,342	367,595	-0,095	-0,141
-600,328	-200,000	-0,017	-0,059
-599,313	-200,000	0,000	-0,014
-598,298	-91,053	0,032	-0,007
-597,284	-175,619	-0,090	0,002
-596,269	-200,000	0,016	0,096
-595,255	-200,000	-0,021	0,081
-594,240	-54,407	-0,075	-0,025
-593,225	44,333	0,065	0,043
-592,211	217,892	0,121	-0,141
-591,196	-200,000	-0,027	-0,120
-590,182	284,215	-0,028	0,037
-589,167	47,588	-0,021	0,015
-588,152	-46,524	0,114	0,041
-587,138	-89,010	-0,172	0,037
-586,123	673,084	-0,121	-0,230
-585,109	-183,476	-0,166	-0,002
-584,094	-200,000	0,028	0,134
-583,079	447,118	0,043	0,069
-582,065	119,661	-0,153	0,139
-581,050	800,000	-0,064	0,185
-580,036	-44,379	-0,119	-0,043
-579,021	-200,000	-0,012	-0,090
-578,006	127,630	-0,118	-0,109
-576,992	388,691	-0,039	-0,059
-575,977	-180,570	-0,037	-0,001
-574,963	-69,027	-0,064	-0,018
-573,948	129,676	-0,075	0,071
-572,934	-14,200	-0,006	0,003
-571,919	-16,397	-0,131	-0,060
-570,904	320,547	-0,048	-0,067
-569,890	-26,735	0,121	0,051
-568,875	-73,879	0,069	-0,018
-567,861	-39,368	0,093	-0,036
-566,846	449,641	-0,046	0,074
-565,831	-200,000	-0,016	0,202
-564,817	69,052	-0,073	-0,055
-563,802	91,463	0,060	0,049
-562,788	-39,562	0,066	-0,025
-561,773	800,000	0,024	0,059
-560,758	800,000	0,056	0,173
-559,744	800,000	0,048	0,128
-558,729	74,722	0,047	0,036
-557,715	-79,478	-0,021	0,005
-556,700	99,868	0,020	0,017
-555,685	662,798	-0,065	-0,124
-554,671	-200,000	0,007	-0,043
-553,656	800,000	0,038	-0,106
-552,642	704,239	-0,008	0,015
-551,627	-35,781	0,050	-0,020
-550,612	-200,000	0,000	0,045
-549,598	173,425	-0,121	-0,127
-548,583	-200,000	0,007	-0,046
-547,569	-200,000	-0,009	0,114
-546,554	21,276	0,128	0,076
-545,539	331,801	0,044	0,061
-544,525	10,030	0,024	-0,013
-543,510	800,000	0,052	0,106
-542,496	254,251	-0,123	-0,154
-541,481	195,363	-0,088	-0,098
-540,466	47,656	0,036	0,025
-539,452	-200,000	-0,029	-0,113
-538,437	800,000	-0,028	0,076
-537,423	-14,707	0,078	0,037
-536,408	-64,262	0,087	-0,026
-535,393	51,949	0,019	-0,013
-534,379	130,294	0,113	-0,106
-533,364	775,873	0,092	-0,184
-532,350	800,000	0,049	-0,135
-531,335	-106,531	0,142	-0,023
-530,321	77,784	-0,170	-0,132
-529,306	-200,000	0,008	0,043
-528,291	800,000	-0,020	-0,046
-527,277	163,579	0,069	-0,071
-526,262	-200,000	0,001	-0,033
-525,248	-86,557	0,027	-0,006
-524,233	-200,000	0,035	-0,122
-523,218	-200,000	-0,023	-0,095
-522,204	-200,000	0,005	-0,091
-521,189	800,000	0,037	0,117
-520,175	-116,829	-0,074	-0,010
-519,160	36,765	-0,109	0,070
-518,145	10,252	-0,078	-0,043
-517,131	800,000	0,039	0,088
-516,116	800,000	-0,024	-0,073
-515,102	380,783	-0,053	0,080
-514,087	77,289	0,037	0,029
-513,072	19,444	-0,066	-0,039
-512,058	280,360	0,022	0,029
-511,043	-9,329	0,181	0,088
-510,029	-21,272	0,106	-0,047
-509,014	-200,000	0,031	0,152
-507,999	433,441	0,057	0,091
-506,985	-200,000	-0,005	-0,146
-505,970	-153,291	-0,149	-0,007
-504,956	412,275	-0,054	-0,084
-503,941	10,527	0,059	-0,032
-502,926	108,859	-0,041	-0,036
-501,912	800,000	0,064	0,190
-500,897	31,588	0,100	-0,062
-499,883	-200,000	0,015	0,053
-498,868	800,000	-0,041	0,125
-497,853	160,760	0,100	0,101
-496,839	60,243	0,088	0,063
-495,824	-200,000	0,012	0,044
-494,810	-30,123	0,035	-0,014
-493,795	59,830	0,108	-0,077
-492,781	145,235	-0,035	-0,034
-491,766	-158,325	0,070	0,003
-490,751	177,653	-0,064	-0,068
-489,737	201,271	0,077	0,087
-488,722	546,523	0,042	0,074
-487,708	-200,000	0,018	0,146
-486,693	-200,000	-0,051	0,218
-485,678	23,059	0,086	-0,051
-484,664	-11,157	-0,178	-0,085
-483,649	-62,424	-0,067	-0,020
-482,635	24,371	-0,063	0,038
-481,620	126,322	-0,066	-0,061
-480,605	60,055	0,140	0,100
-479,591	77,967	0,081	0,063
-478,576	-187,240	0,191	0,002
-477,562	56,366	-0,078	-0,055
-476,547	-63,583	0,078	-0,023
-475,532	-200,000	-0,018	0,108
-474,518	800,000	0,046	0,139
-473,503	-200,000	-0,031	0,142
-472,489	529,845	-0,021	0,036
-471,474	-72,809	0,061	0,016
-470,459	-200,000	0,013	-0,055
-469,445	-200,000	0,006	-0,071
-468,430	-200,000	0,010	-0,037
-467,416	155,949	-0,019	0,019
-466,401	21,969	0,074	-0,044
-465,386	-45,116	0,032	0,012
-464,372	127,486	0,036	0,033
-463,357	211,854	-0,087	-0,100
-462,343	-64,456	-0,093	0,027
-461,328	-200,000	-0,002	-0,009
-460,313	25,121	-0,073	0,044
-459,299	800,000	0,129	0,286
-458,284	-200,000	-0,030	0,118
-457,270	-50,688	0,046	-0,016
-456,255	542,914	0,033	0,058
-455,241	-134,262	-0,039	0,003
-454,226	-81,080	-0,162	-0,039
-453,211	118,177	0,043	-0,039
-452,197	21,003	0,039	-0,023
-451,182	-200,000	-0,011	0,073
-450,168	-97,762	-0,127	-0,024
-449,153	197,897	-0,114	0,127
-448,138	-165,303	0,090	0,003
-447,124	233,857	0,054	0,065
-446,109	28,855	-0,073	-0,045
-445,095	640,679	-0,040	-0,075
-444,080	41,711	0,039	0,026
-443,065	-169,062	-0,086	0,002
-442,051	202,769	-0,049	-0,055
-441,036	-200,000	0,010	-0,064
-440,022	-44,060	-0,036	0,013
-439,007	95,000	-0,100	0,083
-437,992	-119,629	-0,052	0,006
-436,978	800,000	0,040	-0,090
-435,963	-71,691	0,014	-0,004
-434,949	-200,000	0,006	0,054
-433,934	-200,000	-0,127	-0,000
-432,919	-11,028	0,115	0,055
-431,905	-200,000	-0,001	-0,081
-430,890	-86,961	-0,078	-0,017
-429,876	800,000	0,034	0,101
-428,861	-19,248	-0,088	-0,039
-427,846	800,000	-0,041	0,083
-426,832	-54,260	-0,186	0,061
-425,817	-167,544	0,118	-0,003
-424,803	-200,000	-0,048	0,172
-423,788	-61,240	0,018	-0,006
-422,773	-200,000	0,003	-0,040
-421,759	58,371	0,096	-0,068
-420,744	800,000	-0,006	-0,013
-419,730	800,000	0,064	-0,136
-418,715	-0,083	-0,076	-0,039
-417,701	-62,512	-0,042	0,013
-416,686	-200,000	0,022	0,083
-415,671	225,352	0,073	0,086
-414,657	-193,280	0,051	-0,000
-413,642	-48,547	-0,098	-0,034
-412,628	-200,000	0,025	-0,125
-411,613	-200,000	0,010	-0,095
-410,598	800,000	-0,013	-0,029
-409,584	-57,250	-0,075	0,024
-408,569	691,668	-0,037	0,071
-407,555	389,173	-0,040	0,060
-406,540	330,553	-0,041	0,058
-405,525	-111,102	-0,106	0,016
-404,511	219,089	-0,064	0,075
-403,496	-157,653	0,142	-0,006
-402,482	592,889	0,022	-0,039
-401,467	211,797	0,078	0,090
-400,452	-200,000	0,017	0,112
-399,438	-54,215	0,184	-0,060
-398,423	47,009	0,029	-0,019
-397,409	279,515	-0,059	-0,077
-396,394	-200,000	-0,010	-0,076
-395,379	-200,000	0,014	-0,106
-394,365	649,472	0,033	-0,061
-393,350	-200,000	0,000	-0,004
-392,336	-200,000	0,024	-0,189
-391,321	-177,857	-0,089	0,002
-390,306	-200,000	0,001	0,042
-389,292	83,211	-0,089	0,070
-388,277	673,591	0,048	0,091
-387,263	1,157	0,071	0,037
-386,248	38,786	-0,007	-0,005
-385,233	350,706	-0,062	0,090
-384,219	15,250	-0,130	0,074
-383,204	-128,241	-0,119	0,012
-382,190	-73,210	-0,105	-0,028
-381,175	694,909	-0,010	-0,019
-380,160	373,459	0,031	-0,046
-379,146	135,082	-0,066	0,062
-378,131	-96,332	-0,077	-0,015
-377,117	-164,487	0,053	0,002
-376,102	490,301	-0,074	-0,123
-375,088	-200,000	-0,024	0,083
-374,073	-200,000	-0,017	0,057
-373,058	-107,389	0,124	0,020
-372,044	510,053	0,067	0,114
-371,029	800,000	0,037	0,110
-370,015	48,847	-0,070	-0,047
-369,000	385,448	0,010	0,015
-367,985	-3,734	0,041	-0,021
-366,971	211,747	-0,054	-0,062
-365,956	-119,580	0,147	0,018
-364,942	159,055	0,067	-0,068
-363,927	-137,852	0,087	0,007
-362,912	-200,000	0,017	-0,075
-361,898	117,912	-0,120	-0,107
-360,883	800,000	0,033	0,086
-359,869	342,492	0,126	-0,180
-358,854	800,000	0,027	0,064
-357,839	800,000	0,013	-0,027
-356,825	-1,753	0,143	-0,073
-355,810	163,431	0,046	-0,047
-354,796	-200,000	0,054	-0,183
-353,781	243,336	-0,094	-0,114
-352,766	256,693	-0,046	-0,057
-351,752	-200,000	0,020	0,067
-350,737	275,117	-0,060	0,077
-349,723	-200,000	0,005	-0,023
-348,708	63,317	0,049	0,036
-347,693	98,667	-0,120	-0,100
-346,679	-76,836	0,075	-0,019
-345,664	-200,000	-0,044	-0,142
-344,650	-85,719	-0,112	-0,025
-343,635	354,757	0,070	0,100
-342,620	122,412	-0,085	0,077
-341,606	-200,000	0,035	0,218
-340,591	-200,000	-0,044	0,177
-339,577	-103,885	0,118	-0,020
-338,562	53,142	-0,153	-0,106
-337,548	-200,000	0,003	0,025
-336,533	-200,000	0,057	0,251
-335,518	-110,123	0,027	0,004
-334,504	17,972	0,141	-0,081
-333,489	27,425	0,106	-0,064
-332,475	55,747	-0,077	0,054
-331,460	369,510	-0,022	-0,032
-330,445	5,253	0,063	-0,033
-329,431	800,000	-0,028	0,069
-328,416	-59,939	0,104	0,032
-327,402	514,663	0,015	-0,025
-326,387	-60,975	-0,107	-0,033
-325,372	800,000	-0,054	0,138
-324,358	531,706	0,036	-0,063
-323,343	-180,299	-0,043	-0,001
-322,329	-124,070	0,043	-0,005
-321,314	-106,073	0,044	-0,007
-320,299	100,949	0,112	0,094
-319,285	0,650	-0,108	0,056
-318,270	666,087	0,045	0,084
-317,256	139,681	0,075	0,071
-316,241	800,000	0,032	0,093
-315,226	7,903	-0,130	-0,070
-314,212	417,074	-0,037	-0,058
-313,197	-5,360	-0,079	0,039
-312,183	400,298	-0,025	0,038
-311,168	225,390	-0,016	-0,019
-310,153	132,582	-0,069	-0,064
-309,139	-119,804	0,094	0,012
-308,124	266,212	-0,073	0,092
-307,110	9,658	0,102	-0,056
-306,095	-36,060	0,088	-0,034
-305,080	18,327	0,117	-0,067
-304,066	145,541	0,107	-0,104
-303,051	-146,569	-0,117	0,007
-302,037	800,000	-0,035	0,075
-301,022	-139,861	-0,129	-0,010
-300,008	-132,252	0,041	0,004
-298,993	367,391	-0,050	0,072
-297,978	-200,000	-0,009	-0,097
-296,964	7,534	-0,055	-0,029
-295,949	401,894	-0,028	0,043
-294,935	-39,009	-0,128	0,048
-293,920	-153,237	-0,044	-0,002
-292,905	-17,762	0,119	0,054
-291,891	62,363	0,041	0,030
-290,876	-200,000	-0,023	0,087
-289,862	-76,980	-0,064	0,016
-288,847	-200,000	-0,000	0,020
-287,832	430,292	-0,035	0,054
-286,818	-102,346	0,022	-0,004
-285,803	-81,136	0,087	0,021
-284,789	-149,682	0,123	-0,007
-283,774	-192,418	-0,082	-0,001
-282,759	-200,000	-0,016	-0,107
-281,745	-200,000	-0,004	0,024
-280,730	-200,000	0,037	-0,138
-279,716	-200,000	0,003	-0,192
-278,701	-200,000	0,009	-0,108
-277,686	291,304	-0,032	-0,043
-276,672	416,822	-0,062	-0,096
-275,657	233,235	-0,042	-0,049
-274,643	-187,025	-0,144	-0,001
-273,628	8,113	-0,094	0,051
-272,613	-74,072	0,171	0,045
-271,599	-200,000	0,027	-0,113
-270,584	800,000	0,049	0,112
-269,570	184,263	-0,052	0,056
-268,555	800,000	0,042	0,084
-267,540	161,348	-0,052	0,053
-266,526	8,429	0,087	-0,047
-265,511	-27,281	0,076	-0,032
-264,497	800,000	0,050	0,121
-263,482	455,665	-0,037	-0,060
-262,467	-200,000	-0,002	0,029
-261,453	-16,234	0,113	-0,052
-260,438	800,000	-0,035	0,074
-259,424	-200,000	-0,030	-0,154
-258,409	-65,786	-0,084	0,024
-257,395	-200,000	-0,007	-0,048
-256,380	6,856	0,099	-0,053
-255,365	-200,000	0,004	0,037
-254,351	-92,086	-0,125	0,025
-253,336	-200,000	-0,003	0,011
-252,322	366,894	0,039	-0,057
-251,307	800,000	0,040	0,080
-250,292	-200,000	0,021	-0,071
-249,278	-200,000	-0,008	0,057
-248,263	-29,823	0,139	-0,057
-247,249	-200,000	-0,017	0,063
-246,234	-200,000	0,001	-0,080
-245,219	-200,000	0,028	-0,177
-244,205	151,739	-0,068	0,067
-243,190	-200,000	-0,016	-0,140
-242,176	69,510	0,116	-0,086
-241,161	169,798	-0,061	0,063
-240,146	800,000	-0,059	0,176
-239,132	294,674	0,041	0,054
-238,117	-20,083	-0,030	0,014
-237,103	-200,000	-0,027	-0,087
-236,088	96,161	0,033	-0,027
-235,073	-88,575	0,170	0,036
-234,059	143,685	-0,051	0,049
-233,044	-43,431	-0,067	0,024
-232,030	11,287	-0,032	-0,017
-231,015	-200,000	-0,022	-0,114
-230,000	-200,000	0,008	-0,057
-228,986	-98,276	-0,048	0,009
-227,971	40,751	0,123	-0,080
-226,957	-33,240	0,079	-0,031
-225,942	26,030	-0,138	-0,083
-224,927	-200,000	0,001	0,113
-223,913	48,750	-0,072	0,049
-222,898	-36,638	-0,086	-0,033
-221,884	53,991	-0,058	0,040
-220,869	-200,000	0,009	0,042
-219,855	422,588	0,033	-0,051
-218,840	-124,055	0,035	-0,004
-217,825	365,403	0,057	0,083
-216,811	-200,000	0,005	0,049
-215,796	-200,000	-0,005	-0,099
-214,782	77,565	0,101	0,078
-213,767	-102,426	0,077	0,013
-212,752	-114,053	0,048	0,007
-211,738	-77,759	0,069	0,017
-210,723	228,771	0,052	-0,061
-209,709	-8,733	-0,053	0,026
-208,694	45,516	-0,051	-0,034
-207,679	20,016	-0,080	-0,046
-206,665	662,453	0,027	-0,051
-205,650	-200,000	0,003	0,124
-204,636	198,961	0,065	-0,072
-203,621	1,134	0,040	-0,021
-202,606	-21,916	0,099	0,043
-201,592	276,186	-0,057	0,073
-200,577	-200,000	0,009	0,111
-199,563	131,858	-0,058	-0,054
-198,548	21,270	0,098	0,057
-197,533	-51,802	0,205	0,068
-196,519	-200,000	-0,058	0,210
-195,504	-200,000	-0,003	0,029
-194,490	-17,252	-0,101	-0,046
-193,475	-200,000	0,015	-0,094
-192,460	8,457	0,088	-0,048
-191,446	278,332	0,068	0,087
-190,431	42,155	0,046	0,030
-189,417	688,673	-0,041	-0,077
-188,402	-161,069	-0,123	0,005
-187,387	64,874	-0,074	0,054
-186,373	21,943	-0,148	-0,087
-185,358	-200,000	0,101	-0,000
-184,344	676,637	-0,068	-0,128
-183,329	800,000	0,050	0,151
-182,315	248,225	-0,055	-0,067
-181,300	800,000	0,035	-0,101
-180,285	-138,112	-0,067	-0,005
-179,271	-98,431	0,074	0,014
-178,256	-61,599	-0,035	0,010
-177,242	-200,000	0,006	-0,039
-176,227	-57,288	0,010	0,003
-175,212	-200,000	-0,000	-0,089
-174,198	336,256	0,029	0,041
-173,183	-200,000	0,001	0,022
-172,169	362,577	0,049	0,071
-171,154	-200,000	0,024	0,126
-170,139	3,190	0,093	-0,048
-169,125	-200,000	-0,001	0,146
-168,110	-31,351	-0,068	0,028
-167,096	-162,100	0,091	-0,003
-166,081	-171,207	-0,073	-0,002
-165,066	-45,612	-0,048	-0,017
-164,052	35,138	0,022	-0,014
-163,037	708,090	0,016	-0,030
-162,023	179,418	0,144	0,151
-161,008	-35,570	0,053	0,021
-159,993	-7,385	0,047	-0,023
-158,979	65,951	-0,094	-0,068
-157,964	-200,000	-0,082	0,000
-156,950	586,239	-0,104	-0,185
-155,935	-15,386	0,178	-0,082
-154,920	-200,000	-0,013	-0,121
-153,906	-200,000	0,002	0,059
-152,891	800,000	0,069	-0,161
-151,877	-12,070	-0,120	0,056
-150,862	800,000	0,009	0,024
-149,847	-34,411	-0,098	-0,038
-148,833	190,927	0,026	0,028
-147,818	85,984	-0,090	0,071
-146,804	-48,909	0,054	0,018
-145,789	-200,000	-0,007	0,037
-144,775	338,167	0,090	-0,126
-143,760	29,777	-0,141	-0,086
-142,745	-65,501	0,078	-0,022
-141,731	-200,000	-0,039	-0,156
-140,716	-200,000	-0,011	0,100
-139,702	505,093	0,056	-0,093
-138,687	219,157	-0,059	-0,068
-137,672	-200,000	0,012	0,075
-136,658	319,918	-0,024	0,033
-135,643	593,895	0,027	0,048
-134,629	-133,391	-0,036	0,003
-133,614	-42,440	0,074	-0,027
-132,599	-96,494	-0,014	0,003
-131,585	-20,781	-0,055	0,024
-130,570	800,000	0,043	-0,128
-129,556	130,118	-0,068	-0,063
-128,541	526,466	0,040	-0,068
-127,526	800,000	0,086	-0,206
-126,512	-64,464	0,087	0,025
-125,497	144,632	0,209	0,200
-124,483	-200,000	0,012	0,037
-123,468	-200,000	-0,016	-0,098
-122,453	-200,000	0,017	-0,080
-121,439	-200,000	-0,032	-0,103
-120,424	66,453	-0,165	-0,121
-119,410	193,002	0,060	-0,065
