DTS Sentinel unit serial number:	SN410029Multiplexer serial number:	ORYXHardware model number:	OX2-SRSoftware version number:	ORYX F/W v4,00 Oryx Data Collector v3.7.2.0data status	okinstallation	B6 Nyhavnadifferential loss correction	single-endedforward channel	channel 2reverse channel	N/Adate	2023/12/09time	11:05:08forward acquisition time	300,00reverse acquisition time	0,00gamma	499,1914k internal	0,3139k external	0,3139temperature offset calibration	1,0000default loss term (dB/km)	0,3820temperature slope calibration	1,0000multiplexer offset coefficient	1,0000multiplexer slope coefficient	1,0000fibre end	0,00T internal ref (°C)	18,69T ext. ref 1 (°C)	2,56T ext. ref 2 (°C)	2,56length (m)	temperature (°C)	Stokes	anti-Stokes-744,400	-24,402	-0,078	-0,034
-743,385	-183,349	-0,221	-0,003
-742,371	-200,000	0,032	-0,145
-741,356	122,615	-0,134	0,125
-740,342	-172,733	0,067	0,002
-739,327	141,530	-0,197	0,194
-738,312	-200,000	0,010	0,047
-737,298	-182,496	-0,266	-0,004
-736,283	295,751	0,065	-0,088
-735,269	-187,935	-0,268	0,003
-734,254	-1,504	0,032	-0,017
-733,239	-20,692	-0,451	-0,204
-732,225	-95,972	0,097	0,019
-731,210	33,978	0,052	0,033
-730,196	498,031	0,014	-0,024
-729,181	-30,857	-0,084	-0,035
-728,167	261,612	-0,039	0,050
-727,152	-200,000	-0,010	-0,061
-726,137	-200,000	0,005	-0,042
-725,123	-200,000	0,020	0,105
-724,108	800,000	0,058	-0,121
-723,094	25,567	-0,165	-0,102
-722,079	119,847	0,047	0,043
-721,064	-200,000	-0,002	0,036
-720,050	87,194	-0,119	-0,097
-719,035	-200,000	-0,006	0,054
-718,021	-82,315	0,089	-0,021
-717,006	19,556	0,084	-0,050
-715,991	104,411	-0,117	-0,102
-714,977	192,889	-0,061	-0,069
-713,962	-200,000	0,002	-0,141
-712,948	-200,000	0,032	0,130
-711,933	332,144	-0,038	0,055
-710,918	113,909	-0,084	0,075
-709,904	10,390	0,085	-0,048
-708,889	91,885	-0,097	-0,081
-707,875	800,000	0,039	-0,121
-706,860	-134,003	0,075	-0,007
-705,845	-200,000	-0,005	0,027
-704,831	109,974	0,043	0,038
-703,816	-200,000	0,004	0,102
-702,802	207,101	-0,075	0,086
-701,787	578,647	-0,021	0,037
-700,772	2,170	0,020	0,011
-699,758	-75,926	-0,103	0,027
-698,743	-53,220	0,060	-0,020
-697,729	800,000	0,055	-0,130
-696,714	-55,278	-0,037	-0,012
-695,699	358,682	-0,067	-0,100
-694,685	66,930	0,072	-0,054
-693,670	-200,000	0,005	-0,124
-692,656	-39,259	-0,039	0,015
-691,641	-111,683	-0,053	-0,008
-690,627	800,000	0,037	-0,080
-689,612	-200,000	-0,002	0,059
-688,597	328,715	-0,033	0,047
-687,583	78,629	-0,096	-0,076
-686,568	-38,468	-0,013	-0,005
-685,554	147,134	-0,048	0,048
-684,539	-200,000	-0,026	-0,097
-683,524	800,000	0,055	-0,128
-682,510	754,853	-0,088	-0,177
-681,495	-200,000	0,018	-0,163
-680,481	-200,000	-0,035	-0,146
-679,466	-200,000	0,017	-0,071
-678,451	-66,754	-0,093	-0,027
-677,437	8,772	0,098	0,055
-676,422	20,448	-0,065	0,039
-675,408	-110,588	-0,097	-0,015
-674,393	19,824	-0,132	0,078
-673,378	-84,448	-0,055	-0,013
-672,364	158,371	-0,050	-0,052
-671,349	-110,037	0,051	0,008
-670,335	234,362	0,095	0,116
-669,320	-200,000	-0,002	-0,081
-668,305	-16,564	0,054	0,025
-667,291	122,221	-0,167	-0,154
-666,276	-200,000	0,010	-0,059
-665,262	304,591	-0,044	-0,061
-664,247	800,000	-0,014	-0,030
-663,232	-200,000	0,002	-0,022
-662,218	527,780	-0,069	-0,122
-661,203	-200,000	0,003	0,035
-660,189	73,537	-0,048	0,037
-659,174	-56,053	-0,050	-0,016
-658,159	-105,009	-0,095	0,016
-657,145	-101,271	-0,131	-0,023
-656,130	-148,672	0,118	-0,007
-655,116	-200,000	0,027	-0,100
-654,101	471,624	0,061	-0,101
-653,086	-159,407	-0,112	0,005
-652,072	50,238	-0,010	0,007
-651,057	-126,299	-0,067	-0,007
-650,043	-113,456	0,065	-0,009
-649,028	-200,000	0,022	-0,115
-648,014	-200,000	-0,001	-0,083
-646,999	-200,000	0,010	-0,061
-645,984	79,893	-0,051	-0,040
-644,970	-200,000	-0,025	0,105
-643,955	389,094	0,043	0,065
-642,941	-94,216	-0,190	-0,038
-641,926	-200,000	-0,011	0,048
-640,911	94,397	-0,016	0,014
-639,897	230,593	0,033	0,041
-638,882	-200,000	0,005	0,090
-637,868	132,204	-0,054	0,051
-636,853	48,079	-0,122	-0,084
-635,838	795,707	-0,043	-0,087
-634,824	230,678	-0,097	-0,118
-633,809	420,882	0,015	-0,024
-632,795	36,299	0,056	0,036
-631,780	-122,738	-0,024	0,003
-630,765	248,523	0,015	-0,019
-629,751	17,643	-0,035	0,021
-628,736	-200,000	-0,008	-0,142
-627,722	42,644	0,162	-0,108
-626,707	70,879	0,121	-0,093
-625,692	375,368	0,044	-0,066
-624,678	-200,000	-0,011	0,078
-623,663	163,511	0,073	0,075
-622,649	-200,000	-0,078	-0,264
-621,634	222,591	-0,072	-0,086
-620,619	800,000	-0,020	-0,061
-619,605	-52,932	-0,212	-0,071
-618,590	139,371	0,023	0,023
-617,576	-200,000	0,002	0,180
-616,561	-99,443	-0,117	-0,022
-615,546	342,820	0,051	-0,074
-614,532	584,455	-0,040	-0,073
-613,517	-116,986	-0,125	0,017
-612,503	800,000	0,027	-0,055
-611,488	263,786	-0,031	0,040
-610,474	186,436	0,121	0,133
-609,459	-200,000	-0,010	-0,050
-608,444	800,000	-0,043	-0,099
-607,430	12,091	-0,152	-0,086
-606,415	800,000	-0,006	0,021
-605,401	-123,196	-0,006	-0,001
-604,386	363,113	0,067	-0,100
-603,371	-200,000	0,003	0,075
-602,357	-160,662	0,033	-0,001
-601,342	366,625	-0,057	-0,085
-600,328	-9,995	-0,083	0,041
-599,313	-200,000	0,023	-0,124
-598,298	114,900	-0,079	0,071
-597,284	-140,904	-0,073	0,005
-596,269	46,219	0,032	0,022
-595,255	800,000	0,037	0,079
-594,240	769,292	-0,009	-0,017
-593,225	800,000	-0,058	-0,169
-592,211	-31,812	0,107	-0,044
-591,196	47,099	-0,093	0,064
-590,182	-200,000	-0,020	-0,166
-589,167	-62,854	0,145	0,044
-588,152	262,421	0,070	0,090
-587,138	28,178	-0,094	0,059
-586,123	-120,122	-0,120	0,015
-585,109	-200,000	-0,032	-0,109
-584,094	-200,000	-0,012	0,046
-583,079	211,501	0,043	-0,050
-582,065	493,763	-0,014	-0,023
-581,050	297,111	0,109	-0,148
-580,036	214,029	0,056	0,065
-579,021	-200,000	-0,004	-0,079
-578,006	-200,000	-0,006	-0,175
-576,992	-200,000	-0,001	0,017
-575,977	135,360	0,047	0,045
-574,963	4,594	-0,056	-0,030
-573,948	800,000	-0,024	0,076
-572,934	-200,000	0,007	-0,111
-571,919	341,802	0,042	-0,061
-570,904	135,962	0,030	-0,029
-569,890	123,167	-0,080	-0,074
-568,875	-38,136	-0,099	-0,039
-567,861	511,053	0,035	0,060
-566,846	352,086	0,124	-0,181
-565,831	-64,270	0,108	0,032
-564,817	766,916	0,056	0,112
-563,802	-57,292	-0,194	-0,062
-562,788	30,826	0,036	-0,023
-561,773	-170,067	-0,096	-0,002
-560,758	495,739	0,026	0,044
-559,744	-17,610	-0,100	-0,046
-558,729	-200,000	0,005	0,043
-557,715	800,000	0,038	-0,080
-556,700	109,223	-0,036	-0,032
-555,685	800,000	-0,064	-0,176
-554,671	-115,898	0,092	0,013
-553,656	30,878	-0,056	0,035
-552,642	-74,709	0,195	0,051
-551,627	-171,532	-0,046	0,001
-550,612	-200,000	-0,013	-0,046
-549,598	-200,000	-0,003	0,014
-548,583	14,963	-0,028	0,016
-547,569	800,000	0,027	0,077
-546,554	171,526	0,124	0,131
-545,539	-200,000	-0,028	-0,132
-544,525	-200,000	0,010	0,105
-543,510	-200,000	0,014	0,051
-542,496	557,559	-0,015	0,027
-541,481	-200,000	0,010	0,043
-540,466	-200,000	0,016	-0,182
-539,452	-86,304	-0,048	0,011
-538,437	70,426	0,042	0,032
-537,423	-200,000	-0,005	-0,140
-536,408	-105,883	0,137	-0,023
-535,393	-33,609	-0,081	-0,033
-534,379	-167,106	-0,141	0,004
-533,364	154,058	-0,102	-0,103
-532,350	-200,000	-0,007	-0,075
-531,335	-200,000	0,013	-0,081
-530,321	-200,000	-0,004	0,053
-529,306	800,000	0,028	-0,065
-528,291	775,073	0,032	-0,064
-527,277	43,259	-0,141	0,095
-526,262	303,624	-0,064	0,087
-525,248	750,785	-0,026	0,052
-524,233	493,667	0,033	0,055
-523,218	14,652	0,077	-0,044
-522,204	800,000	-0,065	0,154
-521,189	526,456	0,032	0,056
-520,175	-54,311	-0,039	-0,013
-519,160	163,020	0,130	-0,135
-518,145	-154,851	-0,063	-0,003
-517,131	-140,964	0,073	0,005
-516,116	-51,389	0,063	0,022
-515,102	800,000	0,035	0,110
-514,087	-57,965	-0,092	0,029
-513,072	40,743	0,044	0,029
-512,058	-200,000	-0,046	0,168
-511,043	291,459	0,083	-0,111
-510,029	98,262	-0,065	0,055
-509,014	-200,000	-0,023	0,110
-507,999	-74,674	-0,020	-0,005
-506,985	554,245	-0,072	0,127
-505,970	98,459	-0,074	-0,062
-504,956	800,000	0,015	-0,045
-503,941	116,400	0,031	0,028
-502,926	-23,502	0,081	-0,036
-501,912	112,791	0,098	0,087
-500,897	-200,000	0,016	0,073
-499,883	-123,995	-0,203	-0,023
-498,868	118,309	-0,049	0,045
-497,853	230,763	0,032	-0,038
-496,839	-114,426	-0,082	0,011
-495,824	114,802	0,040	0,036
-494,810	-114,772	-0,074	0,010
-493,795	122,955	-0,054	0,049
-492,781	457,192	-0,020	-0,032
-491,766	186,914	0,033	-0,036
-490,751	-46,800	-0,043	-0,015
-489,737	-112,061	0,098	0,014
-488,722	92,608	0,079	0,066
-487,708	303,585	0,002	0,003
-486,693	-54,361	0,156	-0,051
-485,678	265,919	-0,006	0,008
-484,664	322,769	-0,032	0,045
-483,649	-14,273	0,002	-0,001
-482,635	-43,485	-0,143	-0,053
-481,620	-30,667	-0,058	0,024
-480,605	-112,798	0,093	0,013
-479,591	-200,000	0,005	-0,027
-478,576	-139,424	-0,021	-0,002
-477,562	54,630	0,047	-0,033
-476,547	532,566	-0,074	0,130
-475,532	124,713	0,091	0,084
-474,518	-153,301	0,108	0,005
-473,503	800,000	-0,027	0,057
-472,489	246,558	0,081	-0,101
-471,474	10,926	0,106	-0,059
-470,459	-124,521	-0,136	-0,015
-469,445	800,000	-0,045	-0,116
-468,430	261,096	0,060	-0,076
-467,416	253,063	-0,009	-0,011
-466,401	-200,000	0,018	-0,131
-465,386	49,804	0,077	0,053
-464,372	-71,932	-0,105	0,028
-463,357	-200,000	-0,007	-0,103
-462,343	-200,000	0,013	0,080
-461,328	81,243	0,060	0,048
-460,313	67,044	-0,112	-0,084
-459,299	-144,212	0,118	-0,008
-458,284	129,252	-0,119	0,111
-457,270	53,001	-0,040	0,028
-456,255	-200,000	0,003	-0,057
-455,241	-169,543	-0,086	-0,002
-454,226	-200,000	0,024	0,103
-453,211	-200,000	-0,002	-0,080
-452,197	-200,000	-0,010	0,117
-451,182	-42,835	0,051	-0,019
-450,168	-12,049	0,140	-0,067
-449,153	219,462	0,051	0,060
-448,138	-38,958	-0,078	-0,030
-447,124	99,803	0,133	0,113
-446,109	75,942	0,042	-0,033
-445,095	-83,428	0,059	0,014
-444,080	-200,000	0,034	0,136
-443,065	315,130	0,070	0,097
-442,051	-200,000	0,016	0,111
-441,036	525,397	0,038	-0,066
-440,022	800,000	0,016	-0,040
-439,007	-111,929	-0,206	0,030
-437,992	286,210	0,054	-0,071
-436,978	-52,801	0,126	0,042
-435,963	14,218	-0,161	-0,091
-434,949	-15,924	-0,120	-0,056
-433,934	-68,572	0,130	-0,037
-432,919	-54,936	-0,064	-0,021
-431,905	291,674	-0,054	0,072
-430,890	411,550	0,071	0,111
-429,876	-68,887	0,037	0,010
-428,861	159,075	0,011	-0,011
-427,846	-23,026	0,120	-0,053
-426,832	136,122	-0,052	-0,049
-425,817	-200,000	-0,006	-0,034
-424,803	209,965	-0,010	-0,012
-423,788	503,969	-0,033	0,056
-422,773	-76,277	0,057	0,014
-421,759	-93,207	0,136	0,027
-420,744	800,000	0,021	-0,055
-419,730	690,133	0,052	-0,100
-418,715	2,024	0,109	-0,058
-417,701	136,950	0,084	-0,081
-416,686	218,279	0,105	-0,123
-415,671	22,005	0,057	0,034
-414,657	58,343	0,139	0,100
-413,642	-41,619	0,116	-0,044
-412,628	-200,000	0,006	-0,116
-411,613	51,453	0,041	-0,029
-410,598	-200,000	0,008	-0,065
-409,584	-200,000	-0,005	-0,046
-408,569	800,000	0,014	-0,038
-407,555	-19,193	0,096	0,043
-406,540	-90,269	-0,148	-0,031
-405,525	-200,000	0,018	0,070
-404,511	210,843	-0,049	-0,056
-403,496	800,000	0,033	-0,078
-402,482	-5,727	0,091	0,045
-401,467	7,161	0,072	0,039
-400,452	-2,480	-0,124	0,063
-399,438	238,246	0,044	0,053
-398,423	-88,383	-0,073	-0,016
-397,409	-200,000	-0,022	0,111
-396,394	-200,000	0,017	0,067
-395,379	311,441	-0,018	0,025
-394,365	522,371	-0,065	-0,113
-393,350	-42,629	0,084	-0,031
-392,336	-200,000	-0,019	-0,078
-391,321	-61,482	0,071	-0,022
-390,306	-35,626	-0,060	0,024
-389,292	289,196	-0,070	-0,092
-388,277	-102,329	-0,101	0,018
-387,263	-71,833	0,096	-0,026
-386,248	142,199	0,071	-0,069
-385,233	71,377	-0,043	0,032
-384,219	128,326	-0,056	0,053
-383,204	800,000	-0,037	0,093
-382,190	76,683	-0,035	-0,027
-381,175	-200,000	0,036	0,165
-380,160	-55,701	0,027	0,009
-379,146	47,881	0,021	0,014
-378,131	-200,000	-0,038	0,142
-377,117	-186,132	-0,123	-0,001
-376,102	-200,000	-0,003	0,065
-375,088	464,181	0,065	-0,107
-374,073	509,960	-0,040	-0,067
-373,058	800,000	-0,034	0,081
-372,044	-200,000	0,018	0,099
-371,029	-200,000	0,011	0,048
-370,015	63,100	0,076	-0,056
-369,000	800,000	-0,045	-0,115
-367,985	725,581	-0,075	-0,148
-366,971	-64,167	-0,053	0,016
-365,956	800,000	0,011	-0,034
-364,942	-200,000	-0,055	0,221
-363,927	456,087	0,094	0,153
-362,912	-200,000	-0,000	-0,070
-361,898	29,015	0,070	-0,043
-360,883	-200,000	-0,014	0,049
-359,869	25,220	0,021	-0,013
-358,854	398,272	0,021	-0,032
-357,839	-164,471	-0,145	-0,005
-356,825	311,587	0,037	0,051
-355,810	85,574	0,104	0,083
-354,796	-61,779	-0,005	0,002
-353,781	800,000	-0,035	-0,090
-352,766	-44,110	0,107	0,039
-351,752	-200,000	-0,026	0,111
-350,737	644,332	0,019	0,035
-349,723	52,510	0,007	-0,005
-348,708	-200,000	-0,006	0,058
-347,693	31,451	0,036	0,022
-346,679	-129,390	0,158	-0,016
-345,664	-94,688	0,134	-0,026
-344,650	39,683	-0,025	-0,016
-343,635	-200,000	0,027	0,090
-342,620	302,915	0,037	-0,050
-341,606	18,356	0,057	0,033
-340,591	-200,000	-0,007	-0,112
-339,577	-36,098	-0,092	0,036
-338,562	325,684	0,026	-0,036
-337,548	-70,433	0,040	-0,011
-336,533	-23,228	-0,066	0,029
-335,518	-200,000	0,033	0,141
-334,504	-200,000	-0,016	-0,076
-333,489	82,063	0,106	0,084
-332,475	-200,000	0,006	-0,045
-331,460	800,000	0,015	-0,036
-330,445	-200,000	-0,019	0,075
-329,431	-200,000	0,020	-0,092
-328,416	-200,000	-0,014	-0,053
-327,402	16,790	0,155	0,089
-326,387	-200,000	-0,004	0,050
-325,372	-200,000	-0,035	-0,133
-324,358	800,000	-0,034	-0,090
-323,343	-200,000	-0,005	0,066
-322,329	178,038	0,049	0,052
-321,314	121,986	0,059	-0,054
-320,299	1,812	0,109	0,057
-319,285	598,585	0,014	-0,026
-318,270	26,286	0,114	0,070
-317,256	-190,292	0,094	-0,001
-316,241	91,126	0,110	0,090
-315,226	78,534	-0,097	-0,075
-314,212	34,616	-0,098	0,062
-313,197	-104,532	0,058	0,010
-312,183	800,000	-0,025	-0,055
-311,168	23,990	-0,076	-0,045
-310,153	-200,000	0,020	-0,217
-309,139	-58,930	0,060	-0,019
-308,124	711,526	0,024	-0,047
-307,110	-32,056	0,075	-0,031
-306,095	-128,138	0,092	-0,009
-305,080	359,687	0,029	-0,043
-304,066	383,669	0,059	-0,089
-303,051	-22,337	-0,044	0,019
-302,037	211,515	-0,036	-0,042
-301,022	800,000	-0,047	-0,121
-300,008	-4,796	0,028	-0,014
-298,993	275,730	0,070	0,090
-297,978	-49,509	0,096	0,033
-296,964	45,525	-0,044	0,029
-295,949	55,956	-0,002	0,001
-294,935	-123,133	-0,052	-0,006
-293,920	104,142	0,048	0,041
-292,905	800,000	-0,022	0,053
-291,891	152,340	-0,039	0,039
-290,876	152,528	0,082	-0,082
-289,862	-200,000	-0,011	-0,173
-288,847	-200,000	-0,001	-0,069
-287,832	179,475	-0,011	-0,012
-286,818	142,106	0,032	0,030
-285,803	-57,673	-0,121	0,038
-284,789	15,828	0,094	-0,054
-283,774	534,539	-0,100	0,173
-282,759	402,725	-0,054	0,083
-281,745	370,826	-0,047	0,070
-280,730	46,310	-0,065	0,044
-279,716	36,320	0,045	0,029
-278,701	362,067	-0,017	0,025
-277,686	48,334	-0,072	0,049
-276,672	800,000	-0,014	0,036
-275,657	800,000	0,047	-0,110
-274,643	-200,000	-0,002	0,037
-273,628	722,606	-0,024	-0,047
-272,613	135,386	-0,054	-0,051
-271,599	-20,130	0,047	0,021
-270,584	800,000	-0,029	0,069
-269,570	48,183	0,105	0,072
-268,555	17,158	-0,072	0,041
-267,540	581,826	0,032	0,057
-266,526	33,725	-0,095	-0,060
-265,511	149,988	0,100	0,098
-264,497	247,109	0,077	-0,095
-263,482	-24,731	0,175	0,075
-262,467	-66,805	0,038	0,011
-261,453	800,000	-0,037	0,094
-260,438	279,149	-0,049	-0,064
-259,424	268,039	0,031	-0,039
-258,409	-200,000	-0,010	0,137
-257,395	-28,463	0,060	0,025
-256,380	-200,000	-0,002	-0,151
-255,365	-200,000	-0,012	0,064
-254,351	-38,576	-0,136	0,052
-253,336	98,622	-0,094	-0,079
-252,322	-23,387	-0,093	-0,041
-251,307	-45,189	0,021	0,007
-250,292	-200,000	0,001	-0,014
-249,278	569,573	-0,038	0,067
-248,263	800,000	0,052	0,112
-247,249	-19,376	-0,082	0,037
-246,234	400,082	-0,093	0,142
-245,219	61,718	-0,079	-0,057
-244,205	243,601	0,035	-0,043
-243,190	84,611	-0,039	-0,031
-242,176	54,388	-0,039	0,027
-241,161	128,621	0,124	0,115
-240,146	252,369	-0,080	0,100
-239,132	-200,000	0,001	0,037
-238,117	800,000	-0,030	0,096
-237,103	800,000	-0,023	-0,051
-236,088	172,418	-0,054	-0,057
-235,073	-200,000	0,013	0,047
-234,059	-200,000	-0,014	0,152
-233,044	100,994	-0,135	-0,115
-232,030	-83,229	-0,012	0,003
-231,015	189,989	0,048	0,052
-230,000	-104,161	-0,123	-0,021
-228,986	-142,316	-0,127	0,009
-227,971	30,419	0,125	0,078
-226,957	40,295	-0,026	0,017
-225,942	-126,542	-0,030	0,003
-224,927	-200,000	-0,019	0,067
-223,913	461,485	0,032	-0,053
-222,898	13,789	0,013	-0,007
-221,884	-39,021	0,055	-0,021
-220,869	292,337	0,057	0,075
-219,855	-200,000	0,000	0,090
-218,840	151,046	0,011	0,011
-217,825	114,790	0,071	-0,063
-216,811	-102,200	-0,157	-0,027
-215,796	-200,000	-0,039	-0,136
-214,782	-106,562	-0,108	-0,017
-213,767	800,000	0,005	-0,015
-212,752	297,982	0,101	0,135
-211,738	800,000	-0,011	-0,026
-210,723	769,002	0,021	-0,042
-209,709	-35,199	0,127	0,050
-208,694	240,012	-0,125	-0,151
-207,679	-70,345	-0,067	0,018
-206,665	-25,717	-0,047	0,020
-205,650	-85,432	0,049	-0,011
-204,636	-200,000	-0,035	0,192
-203,621	-200,000	0,016	-0,061
-202,606	800,000	-0,030	-0,076
-201,592	353,039	-0,056	-0,080
-200,577	69,378	0,033	0,025
-199,563	-200,000	0,024	0,114
-198,548	2,343	-0,059	-0,031
-197,533	127,900	0,038	0,035
-196,519	3,471	0,134	0,071
-195,504	-117,534	-0,056	-0,007
-194,490	-123,401	-0,093	-0,011
-193,475	800,000	0,057	0,169
-192,460	-98,226	0,156	0,029
-191,446	800,000	-0,048	-0,116
-190,431	213,722	-0,050	0,058
-189,417	-200,000	0,023	0,095
-188,402	800,000	-0,019	0,057
-187,387	-200,000	-0,006	-0,067
-186,373	-96,665	-0,088	-0,017
-185,358	-16,428	-0,048	0,022
-184,344	800,000	-0,045	-0,114
-183,329	-103,366	0,096	0,016
-182,315	74,092	0,064	0,048
-181,300	800,000	-0,015	-0,039
-180,285	740,001	-0,090	0,175
-179,271	800,000	-0,031	-0,077
-178,256	-71,013	0,162	-0,044
-177,242	-103,110	-0,067	-0,011
-176,227	9,119	-0,039	0,021
-175,212	800,000	0,023	0,061
-174,198	488,118	0,040	-0,066
-173,183	28,553	-0,203	-0,124
-172,169	21,570	-0,080	-0,047
-171,154	-50,925	0,142	-0,048
-170,139	119,591	-0,125	0,112
-169,125	-200,000	0,003	0,094
-168,110	-4,431	-0,077	0,039
-167,096	503,589	-0,018	-0,031
-166,081	113,716	-0,103	-0,091
-165,066	369,152	0,029	0,043
-164,052	-200,000	-0,003	0,048
-163,037	-137,810	0,097	0,008
-162,023	-200,000	0,030	0,128
-161,008	-200,000	0,002	0,101
-159,993	87,155	0,101	-0,081
-158,979	93,141	-0,076	0,062
-157,964	-115,891	0,047	0,006
-156,950	800,000	-0,016	-0,046
-155,935	-200,000	-0,021	0,089
-154,920	-63,741	-0,145	0,043
-153,906	554,895	0,016	-0,028
-152,891	-200,000	-0,002	-0,098
-151,877	344,228	0,065	-0,092
-150,862	-55,252	-0,073	0,024
-149,847	-7,740	-0,018	-0,009
-148,833	32,912	0,087	0,055
-147,818	125,481	0,018	0,016
-146,804	-200,000	0,019	0,076
-145,789	-135,088	0,096	-0,008
-144,775	46,481	0,086	-0,058
-143,760	800,000	0,026	-0,056
-142,745	800,000	-0,024	-0,052
-141,731	190,414	0,044	-0,048
-140,716	77,015	0,068	0,052
-139,702	34,484	-0,013	-0,008
-138,687	-107,959	0,032	-0,005
-137,672	404,842	0,062	0,095
-136,658	-136,010	0,025	0,002
-135,643	356,347	-0,050	-0,072
-134,629	-65,656	0,027	-0,008
-133,614	-66,491	-0,082	-0,023
-132,599	-200,000	-0,018	0,075
-131,585	306,989	0,075	-0,101
-130,570	130,986	0,083	-0,077
-129,556	76,810	-0,052	-0,040
-128,541	169,664	0,042	-0,044
-127,526	57,529	-0,101	-0,071
-126,512	178,188	0,074	0,078
-125,497	14,790	0,121	0,068
-124,483	-119,666	0,066	-0,008
-123,468	-11,454	0,097	0,046
-122,453	90,415	-0,052	0,042
-121,439	463,286	-0,006	-0,010
-120,424	-200,000	0,011	-0,066
-119,410	258,372	-0,070	0,087
-118,395	-200,000	0,000	0,038
