DTS Sentinel unit serial number:	SN410029Multiplexer serial number:	ORYXHardware model number:	OX2-SRSoftware version number:	ORYX F/W v4,00 Oryx Data Collector v3.7.2.0data status	okinstallation	B6 Nyhavnadifferential loss correction	single-endedforward channel	channel 2reverse channel	N/Adate	2023/12/09time	06:20:08forward acquisition time	300,00reverse acquisition time	0,00gamma	499,1914k internal	0,3140k external	0,3140temperature offset calibration	1,0000default loss term (dB/km)	0,3820temperature slope calibration	1,0000multiplexer offset coefficient	1,0000multiplexer slope coefficient	1,0000fibre end	0,00T internal ref (°C)	18,39T ext. ref 1 (°C)	2,28T ext. ref 2 (°C)	2,31length (m)	temperature (°C)	Stokes	anti-Stokes-744,400	800,000	0,056	-0,163
-743,385	19,784	-0,128	-0,076
-742,371	44,427	0,115	0,078
-741,356	-5,225	-0,235	0,119
-740,342	61,962	0,135	0,099
-739,327	-165,451	-0,278	-0,009
-738,312	185,296	0,053	0,058
-737,298	-85,736	-0,293	-0,067
-736,283	153,417	0,041	0,042
-735,269	-24,293	-0,279	0,123
-734,254	800,000	0,066	0,138
-733,239	-43,768	-0,426	-0,158
-732,225	49,545	0,136	-0,094
-731,210	-200,000	-0,034	0,117
-730,196	-100,390	-0,118	-0,021
-729,181	-110,874	-0,142	0,021
-728,167	45,382	-0,184	0,126
-727,152	-97,132	0,104	0,020
-726,137	-120,897	-0,192	-0,024
-725,123	-107,287	-0,127	0,021
-724,108	-47,762	-0,059	0,021
-723,094	800,000	-0,066	-0,203
-722,079	476,626	-0,050	-0,085
-721,064	800,000	-0,055	-0,131
-720,050	-140,318	0,134	-0,010
-719,035	66,724	-0,093	-0,070
-718,021	82,489	-0,034	-0,027
-717,006	-120,853	-0,073	-0,009
-715,991	61,934	-0,217	-0,160
-714,977	-128,957	-0,140	0,014
-713,962	-60,256	-0,083	0,026
-712,948	380,004	0,035	0,053
-711,933	-145,058	0,122	0,008
-710,918	128,323	-0,099	-0,094
-709,904	800,000	0,012	-0,033
-708,889	167,550	-0,161	-0,170
-707,875	225,564	0,083	-0,099
-706,860	50,786	0,022	-0,015
-705,845	-200,000	-0,007	-0,108
-704,831	-200,000	-0,032	-0,123
-703,816	-200,000	0,003	-0,014
-702,802	41,775	0,063	-0,043
-701,787	-36,401	-0,127	-0,050
-700,772	-200,000	-0,024	-0,253
-699,758	800,000	-0,052	-0,113
-698,743	-200,000	0,029	0,100
-697,729	800,000	0,031	0,099
-696,714	98,624	-0,015	0,013
-695,699	104,168	-0,056	0,049
-694,685	-200,000	0,002	-0,099
-693,670	-122,013	-0,067	-0,008
-692,656	626,047	-0,059	-0,110
-691,641	-200,000	-0,008	-0,113
-690,627	-200,000	0,006	0,131
-689,612	34,756	-0,017	-0,011
-688,597	100,525	0,009	0,007
-687,583	-172,978	-0,014	-0,000
-686,568	-200,000	-0,011	-0,104
-685,554	-138,102	-0,168	0,014
-684,539	800,000	-0,041	-0,118
-683,524	-200,000	-0,022	0,090
-682,510	800,000	-0,007	0,014
-681,495	-200,000	0,016	-0,112
-680,481	-55,901	-0,140	-0,046
-679,466	800,000	-0,082	-0,184
-678,451	-200,000	0,015	-0,191
-677,437	585,577	-0,072	-0,131
-676,422	-76,568	0,144	-0,037
-675,408	501,061	0,036	-0,061
-674,393	152,341	-0,023	0,023
-673,378	60,404	-0,158	-0,115
-672,364	-200,000	0,003	-0,048
-671,349	-92,059	-0,154	0,032
-670,335	-16,512	-0,032	-0,015
-669,320	135,162	0,050	-0,048
-668,305	800,000	-0,004	0,013
-667,291	-200,000	0,035	-0,158
-666,276	-200,000	-0,010	0,073
-665,262	404,038	-0,077	-0,120
-664,247	34,702	-0,154	-0,099
-663,232	-200,000	-0,011	-0,151
-662,218	-52,247	0,026	0,009
-661,203	-200,000	-0,008	-0,074
-660,189	-57,191	-0,178	-0,058
-659,174	-34,845	-0,043	-0,017
-658,159	-200,000	0,032	0,112
-657,145	666,411	-0,082	-0,158
-656,130	-31,913	-0,055	0,023
-655,116	800,000	-0,029	0,089
-654,101	-200,000	-0,003	0,077
-653,086	-173,122	-0,049	0,001
-652,072	-200,000	-0,027	-0,176
-651,057	-91,938	-0,107	0,022
-650,043	-111,620	-0,139	0,021
-649,028	82,031	0,065	0,052
-648,014	-200,000	-0,009	0,089
-646,999	354,789	0,080	0,117
-645,984	77,837	-0,068	-0,054
-644,970	-59,623	0,078	-0,025
-643,955	160,367	-0,061	-0,063
-642,941	-13,997	-0,097	0,046
-641,926	800,000	0,007	0,015
-640,911	12,495	-0,081	0,046
-639,897	241,521	-0,018	-0,023
-638,882	282,631	0,062	0,082
-637,868	-30,942	0,059	0,025
-636,853	153,576	-0,092	-0,093
-635,838	69,370	-0,056	0,043
-634,824	-200,000	0,029	-0,143
-633,809	-69,184	0,017	0,005
-632,795	333,183	-0,015	-0,022
-631,780	-10,518	0,019	-0,009
-630,765	177,177	-0,053	0,057
-629,751	-22,498	0,137	-0,061
-628,736	-200,000	0,022	-0,093
-627,722	-162,134	-0,061	-0,002
-626,707	-131,574	-0,042	-0,004
-625,692	800,000	0,009	0,027
-624,678	-95,431	0,162	0,032
-623,663	-200,000	0,025	0,113
-622,649	10,333	-0,167	0,093
-621,634	-200,000	-0,012	0,106
-620,619	791,092	-0,058	-0,117
-619,605	245,063	-0,113	-0,141
-618,590	800,000	0,044	0,145
-617,576	217,870	-0,048	0,056
-616,561	774,986	0,083	0,169
-615,546	800,000	0,023	-0,058
-614,532	264,610	-0,061	-0,079
-613,517	550,661	0,034	0,061
-612,503	-200,000	-0,024	0,104
-611,488	-72,736	0,017	-0,005
-610,474	60,279	0,056	-0,041
-609,459	36,653	0,057	0,037
-608,444	-200,000	-0,020	-0,092
-607,430	180,324	-0,032	-0,034
-606,415	48,142	0,079	-0,054
-605,401	-23,011	0,090	-0,040
-604,386	484,690	0,038	0,065
-603,371	-200,000	-0,006	0,120
-602,357	800,000	-0,032	0,091
-601,342	-200,000	-0,057	0,284
-600,328	-96,806	-0,040	-0,008
-599,313	636,537	0,016	0,031
-598,298	-200,000	-0,005	-0,045
-597,284	-200,000	-0,004	-0,038
-596,269	-119,659	0,117	-0,015
-595,255	-19,107	0,113	-0,051
-594,240	766,516	0,014	-0,029
-593,225	124,118	-0,119	-0,111
-592,211	-85,831	-0,180	-0,041
-591,196	52,260	0,026	0,018
-590,182	20,055	-0,048	-0,028
-589,167	192,554	-0,096	-0,107
-588,152	-93,751	0,080	0,016
-587,138	-131,267	-0,051	0,005
-586,123	-200,000	-0,032	-0,115
-585,109	27,133	0,051	-0,031
-584,094	81,606	-0,138	0,110
-583,079	-200,000	-0,003	0,105
-582,065	177,269	-0,038	0,041
-581,050	-30,439	0,122	-0,051
-580,036	800,000	-0,034	-0,094
-579,021	20,727	0,039	-0,023
-578,006	30,620	-0,056	0,035
-576,992	68,022	-0,082	0,062
-575,977	-42,155	0,090	-0,034
-574,963	-98,119	0,105	0,020
-573,948	-200,000	-0,004	0,071
-572,934	-30,463	-0,120	0,050
-571,919	352,107	-0,029	0,042
-570,904	-113,697	0,024	0,003
-569,890	-146,334	-0,155	-0,010
-568,875	800,000	-0,021	-0,047
-567,861	-53,287	0,119	-0,040
-566,846	-200,000	0,015	-0,103
-565,831	-127,246	-0,112	0,012
-564,817	-93,302	-0,073	0,015
-563,802	704,989	-0,061	-0,120
-562,788	-183,594	-0,041	-0,001
-561,773	-48,875	-0,084	0,029
-560,758	-10,429	0,093	0,045
-559,744	-200,000	0,008	0,069
-558,729	289,263	-0,017	0,023
-557,715	-23,993	-0,107	0,047
-556,700	372,865	-0,064	-0,096
-555,685	-123,068	-0,191	-0,022
-554,671	6,689	0,112	-0,061
-553,656	-200,000	-0,001	-0,048
-552,642	93,942	-0,052	0,043
-551,627	800,000	-0,028	-0,060
-550,612	800,000	-0,037	-0,085
-549,598	373,211	0,050	-0,075
-548,583	25,826	-0,137	0,084
-547,569	281,933	0,084	0,111
-546,554	-200,000	0,002	-0,071
-545,539	-141,550	0,084	-0,006
-544,525	665,197	0,088	-0,168
-543,510	-200,000	-0,194	0,000
-542,496	-45,244	-0,134	-0,049
-541,481	-83,358	-0,164	0,038
-540,466	159,795	0,021	-0,021
-539,452	-200,000	-0,004	0,044
-538,437	800,000	0,023	0,047
-537,423	-133,250	0,215	-0,020
-536,408	299,939	0,042	0,057
-535,393	8,672	0,076	0,042
-534,379	800,000	0,040	0,083
-533,364	585,120	-0,016	0,029
-532,350	-200,000	-0,015	0,093
-531,335	-54,131	-0,100	0,033
-530,321	207,481	-0,029	-0,034
-529,306	-53,181	-0,067	0,022
-528,291	-200,000	0,010	0,072
-527,277	-200,000	0,005	0,121
-526,262	800,000	0,010	-0,027
-525,248	-33,434	0,091	0,037
-524,233	-200,000	0,007	0,050
-523,218	74,713	0,092	0,071
-522,204	110,885	-0,086	-0,076
-521,189	-90,903	-0,131	-0,028
-520,175	243,672	0,041	0,050
-519,160	205,395	-0,073	0,084
-518,145	-112,822	0,066	0,010
-517,131	-31,628	0,119	-0,049
-516,116	-26,079	-0,055	-0,024
-515,102	-200,000	-0,011	0,114
-514,087	323,354	-0,016	-0,022
-513,072	117,591	0,054	-0,049
-512,058	201,390	0,029	0,033
-511,043	-200,000	0,016	0,150
-510,029	800,000	-0,033	-0,069
-509,014	-97,865	0,139	-0,026
-507,999	800,000	-0,027	0,086
-506,985	217,541	-0,057	0,067
-505,970	125,811	0,083	-0,077
-504,956	800,000	-0,026	-0,082
-503,941	263,524	0,020	-0,026
-502,926	-149,127	0,149	0,009
-501,912	-123,080	0,144	0,017
-500,897	-200,000	0,009	-0,040
-499,883	-99,451	0,102	-0,019
-498,868	-37,014	-0,139	-0,055
-497,853	228,555	-0,069	-0,082
-496,839	-27,997	0,063	0,027
-495,824	-91,597	-0,044	-0,009
-494,810	278,155	0,100	-0,131
-493,795	-33,045	-0,144	-0,058
-492,781	-200,000	-0,011	-0,086
-491,766	-104,431	-0,079	-0,013
-490,751	-200,000	0,034	-0,137
-489,737	281,977	-0,096	-0,127
-488,722	562,074	-0,048	-0,085
-487,708	-200,000	-0,007	0,028
-486,693	-200,000	-0,011	0,098
-485,678	-200,000	0,020	-0,069
-484,664	-119,255	-0,067	-0,008
-483,649	-24,179	-0,097	0,042
-482,635	1,506	0,055	-0,029
-481,620	-65,660	-0,014	-0,004
-480,605	-0,364	0,087	0,045
-479,591	143,199	-0,027	0,027
-478,576	-124,250	-0,043	-0,005
-477,562	-65,190	-0,054	0,016
-476,547	552,782	-0,051	-0,090
-475,532	-28,262	-0,078	0,033
-474,518	28,489	0,204	-0,126
-473,503	-140,657	-0,051	-0,004
-472,489	-111,144	-0,083	0,012
-471,474	800,000	0,042	0,093
-470,459	181,147	-0,097	0,105
-469,445	800,000	-0,043	0,104
-468,430	-163,059	-0,040	-0,001
-467,416	96,090	0,088	-0,074
-466,401	71,989	0,087	0,066
-465,386	-26,070	0,081	-0,035
-464,372	-181,233	0,099	0,001
-463,357	365,545	-0,102	-0,152
-462,343	14,176	0,014	-0,008
-461,328	-11,759	0,046	-0,022
-460,313	-160,455	0,059	-0,002
-459,299	-68,661	-0,020	0,006
-458,284	771,124	0,027	-0,055
-457,270	800,000	0,013	-0,031
-456,255	-200,000	0,041	0,145
-455,241	196,585	0,060	-0,067
-454,226	800,000	-0,043	-0,091
-453,211	-144,116	0,138	-0,009
-452,197	75,844	-0,067	-0,052
-451,182	800,000	0,041	-0,092
-450,168	540,905	0,022	0,039
-449,153	-200,000	-0,013	-0,146
-448,138	-98,073	-0,056	-0,010
-447,124	55,750	-0,042	0,030
-446,109	517,828	-0,067	-0,115
-445,095	-200,000	0,006	-0,056
-444,080	800,000	-0,004	0,008
-443,065	800,000	-0,037	0,078
-442,051	-57,856	0,094	-0,030
-441,036	163,462	-0,036	-0,037
-440,022	-134,593	0,181	-0,016
-439,007	-75,845	-0,057	0,015
-437,992	603,140	-0,014	-0,025
-436,978	-200,000	0,004	0,075
-435,963	130,542	0,037	-0,035
-434,949	-58,268	-0,072	0,023
-433,934	800,000	0,009	-0,020
-432,919	80,901	-0,169	-0,134
-431,905	-145,130	-0,043	-0,003
-430,890	315,782	0,066	0,091
-429,876	-85,135	-0,178	0,040
-428,861	-97,075	0,181	0,034
-427,846	67,693	0,077	-0,058
-426,832	137,197	-0,007	0,007
-425,817	462,165	0,041	-0,067
-424,803	800,000	0,058	-0,122
-423,788	64,245	0,007	-0,005
-422,773	-101,035	0,089	0,016
-421,759	-17,485	-0,107	0,049
-420,744	612,942	0,076	-0,139
-419,730	25,309	-0,076	-0,046
-418,715	137,884	-0,072	0,069
-417,701	-200,000	-0,014	0,064
-416,686	-200,000	0,025	0,183
-415,671	800,000	-0,021	-0,048
-414,657	23,616	0,054	0,032
-413,642	298,499	0,019	0,026
-412,628	405,096	-0,062	-0,095
-411,613	-55,344	-0,122	-0,040
-410,598	-10,536	-0,093	0,045
-409,584	-200,000	-0,004	-0,023
-408,569	-200,000	-0,001	0,194
-407,555	-65,838	0,054	-0,016
-406,540	53,785	-0,069	0,049
-405,525	800,000	0,035	-0,085
-404,511	25,171	0,092	-0,056
-403,496	81,863	-0,121	-0,096
-402,482	-57,816	0,011	0,003
-401,467	119,702	-0,051	0,046
-400,452	-57,286	-0,056	0,018
-399,438	-88,303	0,005	0,001
-398,423	-200,000	-0,003	0,096
-397,409	-11,533	-0,057	-0,027
-396,394	800,000	-0,003	0,007
-395,379	11,573	0,072	0,040
-394,365	-117,083	0,246	0,032
-393,350	-200,000	-0,012	0,054
-392,336	408,947	-0,056	-0,086
-391,321	-200,000	0,014	-0,074
-390,306	-96,241	0,122	-0,023
-389,292	-5,595	0,021	-0,011
-388,277	174,863	0,016	0,017
-387,263	57,463	-0,132	-0,094
-386,248	-62,550	-0,032	0,010
-385,233	42,406	0,061	-0,040
-384,219	-21,449	-0,079	0,035
-383,204	388,824	0,070	-0,106
-382,190	-200,000	0,028	-0,124
-381,175	-25,470	0,183	0,079
-380,160	124,590	0,135	0,125
-379,146	352,708	0,054	-0,078
-378,131	350,399	-0,029	0,042
-377,117	200,181	0,064	0,072
-376,102	-137,856	0,083	-0,007
-375,088	800,000	-0,051	-0,117
-374,073	421,406	0,031	-0,049
-373,058	800,000	-0,011	-0,022
-372,044	-133,703	0,038	-0,003
-371,029	-27,018	0,073	-0,031
-370,015	-129,672	-0,136	-0,014
-369,000	800,000	0,025	0,052
-367,985	13,028	-0,051	-0,029
-366,971	262,390	-0,047	-0,059
-365,956	-200,000	-0,017	-0,056
-364,942	128,229	0,056	0,052
-363,927	247,824	-0,035	-0,043
-362,912	139,406	-0,025	-0,024
-361,898	301,238	-0,015	-0,020
-360,883	-200,000	0,026	-0,142
-359,869	48,643	0,090	-0,062
-358,854	32,724	0,190	0,120
-357,839	-200,000	0,006	0,147
-356,825	-119,411	0,066	0,008
-355,810	-103,443	0,120	0,020
-354,796	-200,000	-0,026	0,154
-353,781	800,000	-0,035	0,086
-352,766	-200,000	-0,021	-0,107
-351,752	-139,818	0,082	-0,006
-350,737	-200,000	-0,021	0,096
-349,723	-55,433	0,058	0,019
-348,708	-114,392	-0,105	-0,015
-347,693	800,000	0,045	-0,114
-346,679	-200,000	-0,014	0,088
-345,664	-62,642	-0,134	-0,040
-344,650	647,170	0,025	-0,047
-343,635	287,058	0,045	-0,059
-342,620	434,725	0,093	0,148
-341,606	-70,255	-0,104	0,029
-340,591	-132,323	0,078	0,007
-339,577	344,067	-0,022	0,031
-338,562	152,463	-0,070	-0,070
-337,548	123,592	0,070	0,064
-336,533	68,914	-0,033	0,025
-335,518	379,146	-0,017	-0,026
-334,504	39,655	0,032	0,021
-333,489	221,144	0,061	0,072
-332,475	-106,220	-0,143	0,023
-331,460	41,247	0,016	-0,010
-330,445	-200,000	-0,003	0,086
-329,431	800,000	-0,009	-0,022
-328,416	319,722	-0,081	-0,112
-327,402	38,541	0,061	-0,040
-326,387	34,075	-0,102	0,065
-325,372	-70,457	0,041	-0,011
-324,358	286,652	-0,061	0,081
-323,343	-31,073	-0,087	0,036
-322,329	-200,000	-0,004	0,044
-321,314	-62,050	0,085	0,026
-320,299	28,220	0,180	0,110
-319,285	218,063	-0,024	-0,028
-318,270	800,000	-0,005	0,013
-317,256	654,494	0,025	0,047
-316,241	796,825	-0,030	-0,060
-315,226	282,649	0,066	0,087
-314,212	-200,000	-0,024	0,098
-313,197	-200,000	0,016	-0,074
-312,183	-200,000	-0,027	-0,106
-311,168	-25,687	-0,112	-0,048
-310,153	800,000	0,034	-0,093
-309,139	-118,061	-0,071	0,009
-308,124	-144,649	0,083	0,006
-307,110	42,737	-0,066	0,044
-306,095	214,463	-0,061	-0,071
-305,080	-14,266	0,061	0,028
-304,066	-200,000	0,022	-0,141
-303,051	-36,233	-0,092	-0,036
-302,037	68,929	-0,113	0,085
-301,022	198,637	0,010	0,011
-300,008	153,823	0,018	0,018
-298,993	267,799	-0,048	0,061
-297,978	-74,394	0,073	-0,019
-296,964	-200,000	0,023	0,082
-295,949	-200,000	-0,027	0,097
-294,935	-85,007	-0,117	0,026
-293,920	-19,891	-0,072	0,032
-292,905	-200,000	-0,017	0,149
-291,891	-57,892	0,083	-0,026
-290,876	75,457	0,079	0,061
-289,862	334,979	-0,034	0,048
-288,847	-97,462	0,053	-0,010
-287,832	250,993	0,091	0,112
-286,818	370,073	0,071	0,105
-285,803	-180,692	0,022	-0,000
-284,789	-89,984	0,237	0,050
-283,774	800,000	-0,045	-0,096
-282,759	240,869	-0,095	-0,115
-281,745	299,353	0,028	-0,038
-280,730	119,716	-0,032	0,029
-279,716	-200,000	0,025	0,185
-278,701	-200,000	0,001	0,027
-277,686	-128,708	0,037	0,004
-276,672	550,129	0,088	0,155
-275,657	800,000	0,074	0,178
-274,643	366,323	0,080	-0,118
-273,628	-200,000	-0,018	-0,092
-272,613	75,122	0,072	0,055
-271,599	-47,133	0,159	0,056
-270,584	53,049	0,058	0,040
-269,570	32,734	-0,092	0,058
-268,555	800,000	0,023	-0,062
-267,540	253,215	-0,037	-0,046
-266,526	-43,415	0,037	-0,013
-265,511	46,401	0,086	-0,058
-264,497	-24,675	-0,126	0,054
-263,482	101,932	0,033	0,028
-262,467	348,028	-0,048	-0,070
-261,453	412,328	0,049	0,075
-260,438	-73,487	-0,074	-0,020
-259,424	265,665	-0,044	0,056
-258,409	-91,385	0,090	-0,019
-257,395	163,639	0,057	0,059
-256,380	-130,367	0,099	-0,010
-255,365	-5,201	0,176	0,088
-254,351	40,381	-0,078	-0,051
-253,336	-200,000	-0,011	-0,054
-252,322	10,381	0,082	0,045
-251,307	-142,794	-0,054	0,004
-250,292	-200,000	-0,012	-0,077
-249,278	-200,000	-0,014	-0,067
-248,263	-184,229	0,052	-0,001
-247,249	800,000	0,015	0,046
-246,234	47,034	-0,065	-0,044
-245,219	243,143	0,059	-0,072
-244,205	800,000	0,052	-0,144
-243,190	-42,204	-0,127	0,047
-242,176	800,000	-0,055	0,120
-241,161	244,752	-0,081	0,099
-240,146	-87,137	0,068	-0,015
-239,132	656,817	-0,029	0,055
-238,117	227,901	-0,043	0,051
-237,103	-200,000	-0,012	0,052
-236,088	82,261	-0,124	0,097
-235,073	-200,000	-0,026	0,134
-234,059	-200,000	0,003	-0,054
-233,044	-37,956	0,032	-0,012
-232,030	-200,000	-0,018	-0,162
-231,015	157,699	-0,047	0,047
-230,000	-80,927	-0,063	0,015
-228,986	151,231	-0,101	0,100
-227,971	260,666	0,043	0,054
-226,957	139,104	-0,031	0,030
-225,942	-136,189	0,168	-0,014
-224,927	-25,377	0,120	0,052
-223,913	102,354	-0,031	0,027
-222,898	800,000	-0,032	-0,099
-221,884	377,737	-0,100	-0,149
-220,869	800,000	0,065	-0,155
-219,855	88,045	0,133	0,107
-218,840	-200,000	-0,003	-0,067
-217,825	191,990	-0,040	-0,043
-216,811	-200,000	-0,026	-0,099
-215,796	-200,000	-0,049	-0,166
-214,782	-118,123	-0,044	-0,006
-213,767	64,466	0,097	0,071
-212,752	107,875	0,137	-0,118
-211,738	718,796	-0,081	0,156
-210,723	-200,000	-0,055	0,178
-209,709	-83,843	0,067	0,015
-208,694	-200,000	-0,031	-0,135
-207,679	-200,000	0,006	-0,088
-206,665	21,345	0,083	-0,049
-205,650	-78,337	0,166	0,041
-204,636	-26,708	-0,101	-0,043
-203,621	0,989	-0,108	0,056
-202,606	-73,519	0,035	0,009
-201,592	-107,611	-0,098	0,015
-200,577	84,364	-0,087	-0,069
-199,563	17,940	0,039	-0,023
-198,548	636,729	0,025	0,046
-197,533	56,333	0,090	0,063
-196,519	174,082	-0,033	-0,035
-195,504	-29,729	-0,024	0,010
-194,490	800,000	-0,002	0,007
-193,475	-45,264	-0,139	0,050
-192,460	800,000	-0,044	0,135
-191,446	800,000	0,049	-0,124
-190,431	800,000	0,023	-0,069
-189,417	-82,696	0,127	0,030
-188,402	800,000	0,051	-0,114
-187,387	-200,000	0,008	-0,050
-186,373	-20,538	-0,126	0,056
-185,358	-200,000	0,003	-0,023
-184,344	671,936	-0,026	-0,049
-183,329	-56,799	-0,040	-0,013
-182,315	-30,632	0,193	-0,079
-181,300	-50,013	-0,104	-0,036
-180,285	-155,930	-0,114	-0,005
-179,271	-200,000	0,001	-0,007
-178,256	800,000	-0,026	-0,074
-177,242	-100,931	-0,173	0,031
-176,227	-57,279	0,053	0,017
-175,212	190,093	-0,033	-0,036
-174,198	125,825	0,066	0,060
-173,183	-34,089	0,054	-0,021
-172,169	-200,000	0,008	-0,108
-171,154	307,428	-0,034	-0,046
-170,139	-200,000	0,031	0,134
-169,125	-6,855	-0,021	0,010
-168,110	800,000	-0,030	0,087
-167,096	800,000	0,031	-0,091
-166,081	800,000	-0,065	-0,167
-165,066	28,038	-0,096	-0,058
-164,052	-200,000	-0,012	-0,195
-163,037	382,392	0,019	-0,028
-162,023	-17,869	0,157	0,071
-161,008	-96,088	-0,132	-0,025
-159,993	319,376	-0,093	0,128
-158,979	264,562	-0,029	0,036
-157,964	267,572	0,030	-0,038
-156,950	-200,000	-0,002	0,147
-155,935	800,000	0,003	-0,010
-154,920	-200,000	-0,024	0,090
-153,906	349,315	0,057	-0,082
-152,891	-200,000	0,008	-0,080
-151,877	9,316	-0,138	0,075
-150,862	-7,937	-0,077	0,037
-149,847	-200,000	-0,012	-0,067
-148,833	70,748	-0,138	-0,103
-147,818	-111,417	0,048	-0,007
-146,804	-59,543	0,140	0,043
-145,789	-56,379	-0,095	0,030
-144,775	199,381	0,029	0,032
-143,760	-0,009	0,049	-0,025
-142,745	-148,732	-0,105	0,006
-141,731	-123,197	0,062	-0,007
-140,716	50,876	-0,072	0,049
-139,702	-188,599	0,049	-0,000
-138,687	-200,000	-0,029	0,096
-137,672	-34,571	-0,061	0,024
-136,658	90,391	-0,066	0,054
-135,643	-200,000	0,003	0,022
-134,629	154,080	-0,027	-0,027
-133,614	82,613	0,050	0,040
-132,599	-200,000	0,019	0,083
-131,585	732,901	0,074	0,144
-130,570	47,109	-0,078	-0,052
-129,556	-200,000	0,008	0,043
-128,541	63,989	0,059	-0,043
-127,526	14,800	0,096	-0,054
-126,512	97,821	0,061	0,051
-125,497	549,959	0,055	-0,096
-124,483	181,296	0,132	-0,141
-123,468	365,456	-0,035	0,051
-122,453	800,000	-0,041	-0,100
-121,439	-200,000	-0,016	0,061
-120,424	568,135	-0,045	0,080
