DTS Sentinel unit serial number:	SN410029Multiplexer serial number:	ORYXHardware model number:	OX2-SRSoftware version number:	ORYX F/W v4,00 Oryx Data Collector v3.7.2.0data status	okinstallation	B6 Nyhavnadifferential loss correction	single-endedforward channel	channel 2reverse channel	N/Adate	2023/12/09time	06:30:09forward acquisition time	300,00reverse acquisition time	0,00gamma	499,1914k internal	0,3140k external	0,3140temperature offset calibration	1,0000default loss term (dB/km)	0,3820temperature slope calibration	1,0000multiplexer offset coefficient	1,0000multiplexer slope coefficient	1,0000fibre end	0,00T internal ref (°C)	18,44T ext. ref 1 (°C)	2,25T ext. ref 2 (°C)	2,28length (m)	temperature (°C)	Stokes	anti-Stokes-744,400	249,257	0,064	0,080
-743,385	-5,367	-0,303	0,154
-742,371	-200,000	0,113	0,000
-741,356	-186,611	-0,327	0,003
-740,342	70,353	0,100	0,076
-739,327	-22,029	-0,254	0,114
-738,312	60,512	0,021	0,015
-737,298	-1,921	-0,310	0,161
-736,283	88,058	0,095	0,078
-735,269	-141,736	-0,336	0,025
-734,254	-69,424	0,085	0,024
-733,239	-8,082	-0,398	-0,198
-732,225	272,412	0,061	0,080
-731,210	-200,000	-0,010	0,074
-730,196	177,808	0,048	0,051
-729,181	-98,255	-0,104	-0,020
-728,167	166,333	0,112	-0,118
-727,152	-88,068	-0,116	0,026
-726,137	-108,592	0,072	-0,011
-725,123	157,610	-0,062	0,063
-724,108	-99,197	-0,199	-0,037
-723,094	800,000	-0,039	-0,115
-722,079	-145,328	-0,062	-0,004
-721,064	29,475	-0,082	0,052
-720,050	-8,739	0,159	-0,079
-719,035	-200,000	-0,026	0,112
-718,021	201,143	0,084	-0,096
-717,006	-7,046	-0,115	-0,057
-715,991	-114,973	0,042	0,006
-714,977	183,530	-0,047	0,052
-713,962	10,191	-0,022	-0,012
-712,948	231,570	0,062	0,075
-711,933	44,963	-0,089	-0,061
-710,918	-18,718	-0,051	0,023
-709,904	-117,594	0,018	0,002
-708,889	-35,861	-0,142	-0,057
-707,875	-10,832	0,062	-0,030
-706,860	76,171	-0,083	0,065
-705,845	112,814	-0,082	0,074
-704,831	295,687	-0,075	0,102
-703,816	-31,260	0,094	-0,039
-702,802	82,253	0,045	-0,036
-701,787	452,285	-0,102	-0,168
-700,772	290,720	-0,031	-0,042
-699,758	-200,000	-0,006	-0,118
-698,743	539,625	0,077	0,136
-697,729	800,000	0,057	-0,131
-696,714	-82,918	-0,117	-0,028
-695,699	-18,275	-0,058	-0,027
-694,685	-144,946	-0,125	0,008
-693,670	218,523	-0,074	-0,088
-692,656	-162,225	0,080	-0,003
-691,641	-12,427	0,103	-0,050
-690,627	698,873	-0,047	0,091
-689,612	-18,933	0,112	0,051
-688,597	-62,709	0,076	-0,023
-687,583	-200,000	-0,012	-0,160
-686,568	-200,000	-0,004	-0,097
-685,554	760,631	-0,057	-0,116
-684,539	-16,536	-0,062	-0,029
-683,524	53,707	0,128	0,091
-682,510	527,015	0,012	0,021
-681,495	-200,000	0,006	-0,091
-680,481	185,847	0,002	-0,002
-679,466	-129,811	-0,138	-0,014
-678,451	800,000	0,085	-0,196
-677,437	800,000	-0,064	-0,132
-676,422	2,751	-0,021	0,011
-675,408	651,661	0,055	0,104
-674,393	-113,920	-0,049	-0,007
-673,378	-200,000	-0,027	-0,133
-672,364	83,657	-0,126	-0,102
-671,349	146,575	-0,139	-0,138
-670,335	-17,451	0,121	0,056
-669,320	-131,956	-0,060	0,006
-668,305	-42,609	-0,053	-0,020
-667,291	800,000	-0,020	-0,059
-666,276	-200,000	0,001	-0,082
-665,262	297,105	-0,033	0,045
-664,247	81,148	-0,081	-0,065
-663,232	-29,151	0,085	0,036
-662,218	-32,915	-0,080	0,033
-661,203	190,568	0,060	-0,067
-660,189	-71,165	-0,088	-0,024
-659,174	-35,651	-0,156	0,062
-658,159	6,810	-0,046	0,025
-657,145	-200,000	0,017	0,105
-656,130	2,927	0,120	0,064
-655,116	800,000	-0,026	0,075
-654,101	-96,381	0,179	0,035
-653,086	-200,000	-0,019	-0,066
-652,072	800,000	-0,038	-0,091
-651,057	251,649	-0,105	0,132
-650,043	283,697	-0,131	-0,175
-649,028	800,000	0,027	0,072
-648,014	40,337	0,018	0,012
-646,999	-200,000	-0,034	-0,149
-645,984	-112,634	0,045	0,007
-644,970	-77,703	-0,134	-0,034
-643,955	800,000	0,063	-0,132
-642,941	-81,610	-0,146	-0,035
-641,926	15,201	-0,016	0,009
-640,911	-200,000	-0,014	-0,139
-639,897	800,000	0,035	0,083
-638,882	-200,000	0,011	0,148
-637,868	-200,000	-0,019	0,078
-636,853	47,604	-0,035	0,024
-635,838	800,000	-0,050	0,132
-634,824	800,000	0,027	-0,066
-633,809	-102,158	0,159	-0,028
-632,795	613,908	0,069	-0,128
-631,780	175,099	-0,027	-0,028
-630,765	-33,130	0,051	0,021
-629,751	-27,843	-0,194	-0,083
-628,736	-200,000	-0,005	-0,130
-627,722	-200,000	-0,031	-0,136
-626,707	452,899	0,037	0,060
-625,692	1,726	0,100	-0,053
-624,678	-91,758	0,130	-0,027
-623,663	162,501	-0,040	0,041
-622,649	-200,000	0,008	-0,095
-621,634	-200,000	0,009	0,031
-620,619	26,257	-0,044	0,027
-619,605	-117,396	0,083	0,011
-618,590	-200,000	-0,023	0,113
-617,576	229,986	0,048	-0,058
-616,561	606,096	0,025	-0,046
-615,546	-123,190	-0,065	-0,008
-614,532	-200,000	-0,004	-0,223
-613,517	-98,753	-0,203	0,038
-612,503	85,467	0,170	0,137
-611,488	-65,619	-0,182	0,054
-610,474	77,806	0,053	0,042
-609,459	426,275	0,037	0,059
-608,444	19,041	-0,049	-0,029
-607,430	21,388	0,094	-0,056
-606,415	36,395	-0,031	-0,020
-605,401	414,643	-0,014	-0,022
-604,386	53,264	0,062	0,044
-603,371	76,075	-0,006	-0,005
-602,357	24,966	-0,102	0,062
-601,342	-41,243	0,029	0,011
-600,328	-200,000	-0,038	-0,180
-599,313	-34,307	0,102	0,041
-598,298	105,897	-0,051	0,045
-597,284	-11,286	0,081	0,039
-596,269	-200,000	-0,004	0,000
-595,255	-200,000	0,030	0,172
-594,240	-65,434	-0,046	-0,014
-593,225	-181,992	-0,159	-0,002
-592,211	308,316	-0,032	0,044
-591,196	49,184	0,106	-0,073
-590,182	-200,000	0,014	-0,078
-589,167	-200,000	0,008	-0,058
-588,152	-5,181	0,018	-0,009
-587,138	-200,000	-0,085	0,000
-586,123	-200,000	-0,033	-0,136
-585,109	329,604	-0,073	-0,104
-584,094	206,314	-0,097	-0,112
-583,079	-142,479	0,085	-0,006
-582,065	-200,000	-0,001	0,021
-581,050	-188,764	-0,135	0,001
-580,036	800,000	-0,029	0,071
-579,021	-87,522	0,130	-0,029
-578,006	2,380	-0,022	-0,012
-576,992	-110,709	-0,061	-0,009
-575,977	65,286	-0,015	0,011
-574,963	-56,078	0,062	0,020
-573,948	-200,000	0,022	0,084
-572,934	-68,052	-0,012	-0,003
-571,919	-65,964	0,041	-0,012
-570,904	-81,216	-0,149	0,036
-569,890	58,542	-0,055	-0,040
-568,875	147,414	0,032	0,031
-567,861	-78,071	-0,040	0,010
-566,846	-200,000	0,045	-0,166
-565,831	800,000	0,030	-0,072
-564,817	-41,771	0,048	0,018
-563,802	81,793	-0,062	-0,049
-562,788	98,408	0,072	0,061
-561,773	124,241	-0,032	-0,029
-560,758	-125,571	0,072	0,008
-559,744	-77,854	-0,082	-0,021
-558,729	287,910	-0,123	0,164
-557,715	-82,109	-0,089	0,021
-556,700	172,093	-0,090	-0,095
-555,685	116,187	0,056	0,051
-554,671	-200,000	0,014	-0,106
-553,656	-200,000	0,008	0,042
-552,642	504,297	0,039	-0,067
-551,627	67,670	0,095	0,072
-550,612	206,231	-0,125	0,144
-549,598	248,753	0,041	0,052
-548,583	715,789	-0,032	0,063
-547,569	-110,832	0,087	0,013
-546,554	-200,000	0,006	0,032
-545,539	-188,492	0,073	0,001
-544,525	450,869	0,048	0,078
-543,510	-200,000	-0,005	-0,039
-542,496	48,743	0,122	0,084
-541,481	56,258	0,053	-0,038
-540,466	226,786	0,023	0,028
-539,452	-200,000	-0,002	-0,061
-538,437	-200,000	-0,030	0,112
-537,423	-200,000	-0,020	0,180
-536,408	800,000	-0,019	0,048
-535,393	312,932	-0,141	-0,195
-534,379	800,000	-0,011	0,029
-533,364	-68,074	0,041	0,012
-532,350	71,108	0,101	-0,077
-531,335	800,000	-0,066	-0,140
-530,321	-77,038	0,045	-0,011
-529,306	800,000	-0,100	-0,220
-528,291	231,273	-0,098	-0,119
-527,277	110,528	0,039	-0,035
-526,262	100,993	-0,044	0,038
-525,248	-28,769	0,188	-0,079
-524,233	-29,390	0,099	-0,041
-523,218	119,891	0,085	0,078
-522,204	108,728	-0,038	-0,033
-521,189	500,622	0,042	-0,072
-520,175	151,820	-0,095	-0,096
-519,160	279,010	-0,043	0,057
-518,145	226,518	0,028	-0,034
-517,131	127,512	-0,075	-0,070
-516,116	160,870	0,082	-0,084
-515,102	-200,000	-0,044	0,160
-514,087	94,926	-0,079	-0,066
-513,072	-51,528	-0,087	-0,030
-512,058	-28,155	-0,050	0,021
-511,043	36,511	0,097	-0,063
-510,029	800,000	0,067	-0,175
-509,014	-200,000	0,024	0,118
-507,999	800,000	0,033	-0,082
-506,985	-200,000	-0,019	0,076
-505,970	-25,951	0,151	-0,065
-504,956	800,000	-0,026	-0,082
-503,941	800,000	0,012	-0,035
-502,926	326,040	0,087	0,123
-501,912	-11,315	-0,068	0,033
-500,897	-16,290	-0,051	0,024
-499,883	150,361	0,156	0,156
-498,868	-1,988	0,096	-0,049
-497,853	800,000	-0,037	0,094
-496,839	-102,920	0,144	0,025
-495,824	-36,261	-0,094	0,037
-494,810	112,018	0,079	-0,070
-493,795	-99,298	0,103	0,019
-492,781	234,034	-0,118	-0,143
-491,766	295,990	-0,017	-0,023
-490,751	800,000	0,038	0,112
-489,737	361,351	-0,030	-0,044
-488,722	44,809	0,075	0,050
-487,708	-170,883	0,053	-0,001
-486,693	269,881	0,061	0,079
-485,678	102,880	-0,033	0,028
-484,664	-200,000	0,007	-0,037
-483,649	353,442	0,034	0,050
-482,635	800,000	-0,028	-0,069
-481,620	-126,704	0,142	-0,015
-480,605	-200,000	0,028	0,096
-479,591	-89,611	0,038	0,008
-478,576	-200,000	-0,008	0,033
-477,562	-40,668	-0,019	0,007
-476,547	-200,000	-0,020	-0,166
-475,532	-50,231	-0,126	-0,044
-474,518	50,319	-0,129	0,089
-473,503	78,175	0,011	-0,009
-472,489	303,880	0,083	-0,113
-471,474	-200,000	0,000	-0,056
-470,459	-150,679	-0,100	0,006
-469,445	286,106	-0,064	-0,085
-468,430	-200,000	-0,006	-0,030
-467,416	102,275	-0,073	0,063
-466,401	-168,416	-0,078	-0,002
-465,386	-133,187	0,061	0,006
-464,372	-86,735	-0,082	0,018
-463,357	-116,647	-0,144	-0,019
-462,343	-200,000	-0,005	0,107
-461,328	387,683	0,044	0,066
-460,313	132,243	0,099	-0,093
-459,299	230,852	-0,031	0,037
-458,284	-14,937	-0,063	0,029
-457,270	-200,000	0,021	-0,094
-456,255	-142,026	0,030	0,002
-455,241	-185,601	-0,090	0,001
-454,226	-200,000	0,041	-0,182
-453,211	106,387	0,076	0,066
-452,197	-60,207	0,142	-0,044
-451,182	120,824	0,002	-0,001
-450,168	800,000	0,011	-0,024
-449,153	-22,131	-0,033	0,015
-448,138	429,531	0,051	0,081
-447,124	-96,720	0,085	-0,016
-446,109	-46,852	-0,025	0,009
-445,095	-164,700	0,020	-0,001
-444,080	444,012	0,051	0,083
-443,065	-50,521	0,128	-0,044
-442,051	421,467	-0,031	0,048
-441,036	-200,000	0,008	0,225
-440,022	465,573	0,012	-0,020
-439,007	-200,000	-0,007	-0,038
-437,992	-22,226	-0,053	0,024
-436,978	800,000	0,025	0,054
-435,963	-28,052	-0,106	0,045
-434,949	-200,000	0,015	0,064
-433,934	800,000	-0,047	-0,123
-432,919	-55,117	0,046	-0,015
-431,905	-154,696	-0,095	-0,005
-430,890	-73,344	-0,131	0,035
-429,876	-170,433	0,077	-0,002
-428,861	357,633	0,055	0,080
-427,846	-200,000	0,002	0,071
-426,832	224,783	-0,041	-0,048
-425,817	-124,134	0,145	-0,016
-424,803	97,137	0,035	0,030
-423,788	800,000	0,037	0,076
-422,773	131,590	0,125	0,118
-421,759	-20,617	0,103	0,046
-420,744	-200,000	0,005	-0,089
-419,730	-28,980	0,067	-0,028
-418,715	210,426	0,074	-0,085
-417,701	109,298	-0,088	0,077
-416,686	389,968	0,072	0,110
-415,671	800,000	0,013	-0,027
-414,657	445,258	0,088	0,142
-413,642	97,961	0,048	-0,040
-412,628	405,144	0,056	-0,087
-411,613	-176,659	0,077	0,001
-410,598	436,034	0,030	-0,048
-409,584	-134,163	0,096	0,009
-408,569	-47,113	-0,024	-0,008
-407,555	-128,222	0,093	-0,010
-406,540	800,000	0,028	-0,066
-405,525	-200,000	0,005	-0,100
-404,511	800,000	-0,022	-0,058
-403,496	-200,000	0,017	-0,111
-402,482	-200,000	-0,006	0,120
-401,467	324,832	0,052	0,073
-400,452	-138,589	-0,044	-0,003
-399,438	-200,000	0,010	0,050
-398,423	632,155	0,018	0,034
-397,409	-77,266	-0,082	-0,021
-396,394	16,503	0,028	-0,016
-395,379	30,709	-0,076	0,047
-394,365	-200,000	-0,010	0,090
-393,350	-109,408	0,038	-0,006
-392,336	800,000	-0,038	0,094
-391,321	-83,607	-0,040	0,009
-390,306	296,517	-0,059	0,080
-389,292	110,530	-0,093	0,081
-388,277	-200,000	0,033	0,136
-387,263	-200,000	0,019	0,180
-386,248	800,000	0,023	0,067
-385,233	214,634	0,051	0,059
-384,219	121,068	-0,134	0,122
-383,204	-145,910	0,010	0,001
-382,190	-156,762	-0,071	0,003
-381,175	131,639	-0,060	-0,056
-380,160	-200,000	-0,022	0,078
-379,146	800,000	0,024	0,049
-378,131	164,317	0,027	-0,028
-377,117	240,307	0,030	0,036
-376,102	313,226	-0,086	-0,119
-375,088	-89,184	0,033	0,007
-374,073	-200,000	-0,010	0,051
-373,058	275,194	0,066	0,086
-372,044	173,721	0,021	-0,022
-371,029	-200,000	-0,010	0,183
-370,015	800,000	0,058	-0,127
-369,000	-134,436	-0,196	-0,017
-367,985	-200,000	-0,028	-0,118
-366,971	800,000	0,028	0,069
-365,956	86,749	-0,059	-0,048
-364,942	146,727	0,056	0,055
-363,927	-63,250	-0,129	0,039
-362,912	-200,000	-0,025	-0,101
-361,898	-200,000	0,001	-0,113
-360,883	-40,326	-0,119	-0,045
-359,869	677,975	-0,052	-0,100
-358,854	-19,994	0,043	-0,019
-357,839	800,000	0,025	0,070
-356,825	-200,000	0,009	0,101
-355,810	14,873	-0,097	-0,055
-354,796	-76,178	0,059	-0,015
-353,781	-67,899	-0,047	0,013
-352,766	800,000	-0,021	0,046
-351,752	-156,410	0,094	0,004
-350,737	800,000	0,036	0,079
-349,723	-1,767	0,060	0,031
-348,708	309,898	0,024	0,032
-347,693	-52,208	-0,070	-0,023
-346,679	292,190	-0,077	-0,103
-345,664	210,204	-0,050	-0,057
-344,650	228,642	0,120	-0,143
-343,635	-4,861	0,027	0,014
-342,620	87,077	-0,067	-0,054
-341,606	800,000	0,050	0,142
-340,591	-152,249	0,027	-0,001
-339,577	-168,544	-0,036	0,001
-338,562	800,000	-0,052	0,111
-337,548	137,641	-0,036	-0,034
-336,533	800,000	-0,049	0,116
-335,518	-99,437	0,126	-0,023
-334,504	-14,313	0,079	-0,037
-333,489	-22,872	0,069	-0,030
-332,475	219,905	-0,134	-0,156
-331,460	800,000	-0,085	-0,237
-330,445	94,505	0,023	-0,019
-329,431	-200,000	0,000	-0,009
-328,416	-41,238	0,089	0,033
-327,402	694,110	-0,044	0,084
-326,387	-200,000	0,002	0,088
-325,372	-41,765	-0,089	-0,033
-324,358	130,125	0,067	0,063
-323,343	-105,855	-0,105	-0,017
-322,329	307,613	-0,006	0,008
-321,314	800,000	-0,029	0,085
-320,299	-200,000	0,001	0,116
-319,285	-14,100	0,120	0,056
-318,270	-200,000	-0,038	-0,134
-317,256	-200,000	0,008	-0,168
-316,241	-200,000	-0,007	-0,097
-315,226	800,000	0,009	0,025
-314,212	-200,000	-0,007	0,107
-313,197	220,944	-0,026	0,030
-312,183	-121,953	0,028	0,003
-311,168	45,314	0,111	-0,075
-310,153	151,635	-0,052	-0,051
-309,139	800,000	0,048	-0,132
-308,124	-6,604	0,033	-0,016
-307,110	327,694	0,097	0,136
-306,095	-182,663	0,075	-0,001
-305,080	402,256	0,078	0,120
-304,066	-131,890	-0,088	-0,008
-303,051	-200,000	0,001	-0,022
-302,037	65,999	0,137	-0,101
-301,022	29,075	0,120	0,074
-300,008	800,000	-0,004	-0,011
-298,993	-159,907	0,118	0,005
-297,978	470,465	0,047	0,077
-296,964	-200,000	-0,013	-0,172
-295,949	800,000	-0,054	0,117
-294,935	-122,878	-0,100	0,012
-293,920	-161,006	0,141	-0,005
-292,905	15,634	-0,082	0,047
-291,891	579,081	0,036	-0,064
-290,876	-78,314	-0,054	0,013
-289,862	-11,537	0,033	0,016
-288,847	329,742	-0,074	0,104
-287,832	155,154	-0,085	-0,085
-286,818	-200,000	0,010	-0,036
-285,803	-103,430	0,106	0,018
-284,789	274,564	-0,060	-0,077
-283,774	8,492	0,054	0,029
-282,759	-2,119	-0,068	-0,035
-281,745	-83,376	-0,175	-0,041
-280,730	-23,659	-0,069	0,030
-279,716	-200,000	0,009	0,047
-278,701	800,000	0,017	-0,053
-277,686	219,757	-0,028	-0,032
-276,672	-38,846	0,042	-0,016
-275,657	423,429	0,051	0,080
-274,643	222,860	-0,024	0,028
-273,628	-107,178	0,031	0,005
-272,613	108,746	0,048	0,042
-271,599	473,383	0,045	-0,074
-270,584	124,882	0,090	0,083
-269,570	-154,339	0,045	-0,002
-268,555	-200,000	0,000	0,056
-267,540	475,041	0,077	-0,127
-266,526	134,595	0,088	-0,083
-265,511	59,446	-0,039	-0,028
-264,497	-2,039	0,167	0,085
-263,482	409,194	0,021	-0,032
-262,467	83,184	-0,025	-0,020
-261,453	-145,451	-0,136	-0,009
-260,438	-200,000	0,015	-0,052
-259,424	-200,000	0,015	-0,057
-258,409	800,000	-0,034	-0,097
-257,395	-130,822	-0,038	0,004
-256,380	800,000	0,025	0,067
-255,365	-200,000	0,008	0,047
-254,351	-200,000	-0,006	-0,032
-253,336	-155,222	-0,072	0,003
-252,322	800,000	-0,032	-0,100
-251,307	134,331	0,082	-0,078
-250,292	-86,024	-0,063	-0,014
-249,278	800,000	0,053	-0,149
-248,263	14,151	0,015	0,008
-247,249	139,632	-0,064	0,061
-246,234	-95,957	0,065	-0,012
-245,219	-8,091	-0,086	0,042
-244,205	-128,268	0,080	0,008
-243,190	-99,491	0,049	-0,009
-242,176	66,442	-0,064	0,047
-241,161	204,455	0,091	0,103
-240,146	-82,307	0,106	-0,025
-239,132	-185,255	0,039	-0,000
-238,117	46,143	-0,023	-0,016
-237,103	800,000	-0,024	0,058
-236,088	-200,000	-0,021	0,162
-235,073	517,587	-0,066	0,112
-234,059	304,437	-0,053	0,072
-233,044	800,000	-0,022	0,069
-232,030	-200,000	0,003	0,088
-231,015	11,880	-0,111	-0,062
-230,000	-200,000	-0,012	-0,079
-228,986	44,158	-0,071	0,047
-227,971	299,603	0,066	-0,088
-226,957	-69,210	0,123	-0,034
-225,942	-160,619	-0,102	-0,004
-224,927	-200,000	-0,002	0,071
-223,913	-200,000	-0,048	0,192
-222,898	800,000	0,018	0,049
-221,884	658,597	-0,019	-0,035
-220,869	7,881	-0,082	-0,044
-219,855	-0,841	0,099	0,051
-218,840	800,000	0,093	0,276
-217,825	-200,000	-0,004	0,096
-216,811	9,929	-0,082	0,045
-215,796	-200,000	-0,006	-0,096
-214,782	655,300	-0,033	-0,062
-213,767	-147,003	0,053	0,003
-212,752	-102,336	0,041	-0,007
-211,738	59,781	-0,051	0,036
-210,723	142,061	-0,136	0,131
-209,709	0,243	0,072	-0,037
-208,694	-139,708	-0,138	-0,010
-207,679	-122,614	-0,154	-0,018
-206,665	110,156	0,026	-0,023
-205,650	-200,000	-0,005	-0,075
-204,636	5,467	-0,046	0,025
-203,621	41,732	-0,074	0,049
-202,606	-124,383	-0,107	-0,012
-201,592	296,207	-0,091	0,121
-200,577	-1,841	-0,095	-0,049
-199,563	800,000	-0,042	0,097
-198,548	215,856	-0,010	0,011
-197,533	800,000	0,018	0,053
-196,519	-126,606	0,059	-0,006
-195,504	-133,782	0,108	-0,010
-194,490	130,990	-0,046	-0,043
-193,475	-200,000	-0,032	-0,147
-192,460	3,106	0,058	0,031
-191,446	800,000	-0,027	0,062
-190,431	800,000	0,015	-0,032
-189,417	-51,516	-0,094	0,032
-188,402	175,240	-0,060	0,063
-187,387	-200,000	0,023	-0,128
-186,373	-3,791	-0,114	0,057
-185,358	-141,252	-0,036	0,003
-184,344	186,528	-0,119	0,128
-183,329	413,767	0,055	0,085
-182,315	165,556	-0,061	-0,063
-181,300	-200,000	0,002	-0,007
-180,285	-200,000	-0,005	0,033
-179,271	288,617	0,018	-0,023
-178,256	-200,000	0,005	-0,037
-177,242	2,046	-0,062	0,032
-176,227	580,854	-0,012	0,021
-175,212	149,507	0,058	-0,057
-174,198	198,534	-0,011	0,012
-173,183	-28,688	-0,161	-0,067
-172,169	-54,345	0,127	-0,041
-171,154	800,000	0,034	-0,080
-170,139	-200,000	0,021	-0,086
-169,125	492,576	0,078	-0,130
-168,110	-200,000	0,003	0,028
-167,096	800,000	0,024	-0,052
-166,081	13,838	0,018	0,010
-165,066	-200,000	-0,055	-0,223
-164,052	-200,000	-0,029	-0,122
-163,037	315,363	-0,063	0,087
-162,023	546,139	0,048	0,083
-161,008	-18,448	0,032	-0,014
-159,993	800,000	-0,048	-0,140
-158,979	653,176	-0,039	0,073
-157,964	-0,631	0,034	-0,017
-156,950	-200,000	-0,032	-0,104
-155,935	-200,000	-0,014	0,162
-154,920	45,326	-0,088	-0,059
-153,906	-116,581	0,104	0,014
-152,891	-78,616	0,079	0,019
-151,877	704,423	-0,039	0,074
-150,862	-38,871	-0,119	-0,045
-149,847	208,650	0,021	0,024
-148,833	-200,000	-0,019	0,063
-147,818	31,677	0,053	-0,033
-146,804	19,408	-0,034	0,020
-145,789	335,035	0,071	-0,101
-144,775	427,913	-0,052	-0,082
-143,760	172,975	-0,105	0,109
-142,745	-71,750	-0,116	-0,031
-141,731	246,681	-0,028	0,034
-140,716	-200,000	0,007	0,127
-139,702	-200,000	-0,002	0,187
-138,687	104,759	-0,022	0,019
-137,672	-200,000	-0,044	0,146
-136,658	324,540	-0,059	0,082
-135,643	800,000	0,041	-0,122
-134,629	-45,251	-0,055	-0,020
-133,614	-200,000	-0,010	0,081
-132,599	800,000	0,033	0,067
-131,585	-1,381	0,193	0,098
-130,570	121,374	-0,084	0,076
-129,556	-148,689	0,062	0,004
-128,541	481,810	0,037	0,061
-127,526	-200,000	-0,006	-0,084
-126,512	141,258	0,088	-0,085
-125,497	-200,000	0,014	-0,172
-124,483	-28,453	-0,126	-0,052
-123,468	800,000	0,024	-0,055
-122,453	800,000	-0,038	-0,092
-121,439	720,571	-0,001	0,002
-120,424	26,703	0,137	0,083
-119,410	800,000	0,042	-0,096
-118,395	148,929	0,017	0,017
