DTS Sentinel unit serial number:	SN410029Multiplexer serial number:	ORYXHardware model number:	OX2-SRSoftware version number:	ORYX F/W v4,00 Oryx Data Collector v3.7.2.0data status	okinstallation	B6 Nyhavnadifferential loss correction	single-endedforward channel	channel 2reverse channel	N/Adate	2023/12/09time	19:20:08forward acquisition time	300,00reverse acquisition time	0,00gamma	499,1914k internal	0,3130k external	0,3130temperature offset calibration	1,0000default loss term (dB/km)	0,3820temperature slope calibration	1,0000multiplexer offset coefficient	1,0000multiplexer slope coefficient	1,0000fibre end	0,00T internal ref (°C)	21,07T ext. ref 1 (°C)	4,93T ext. ref 2 (°C)	4,90length (m)	temperature (°C)	Stokes	anti-Stokes-744,400	-22,237	0,106	-0,047
-743,385	114,976	-0,165	0,149
-742,371	86,966	0,012	0,010
-741,356	57,176	-0,159	0,115
-740,342	800,000	0,082	0,211
-739,327	26,620	-0,152	0,094
-738,312	-4,298	-0,213	0,109
-737,298	-128,547	-0,275	-0,029
-736,283	57,077	-0,109	0,079
-735,269	211,715	-0,146	0,172
-734,254	121,462	0,061	0,056
-733,239	-125,094	-0,461	0,052
-732,225	-86,573	0,188	0,042
-731,210	44,742	-0,030	-0,021
-730,196	141,852	0,064	0,063
-729,181	-9,195	-0,070	0,034
-728,167	136,946	0,074	0,072
-727,152	67,775	-0,042	0,032
-726,137	800,000	0,029	0,074
-725,123	14,410	-0,076	-0,044
-724,108	-89,394	-0,107	-0,023
-723,094	422,001	-0,097	-0,155
-722,079	-200,000	0,034	-0,122
-721,064	-200,000	0,015	0,150
-720,050	-110,310	-0,069	0,011
-719,035	-65,183	-0,065	0,019
-718,021	-200,000	-0,004	-0,022
-717,006	61,245	-0,211	-0,155
-715,991	-41,590	-0,058	0,022
-714,977	-200,000	0,035	-0,117
-713,962	-200,000	-0,024	-0,106
-712,948	-200,000	-0,004	-0,020
-711,933	120,990	0,028	-0,026
-710,918	-200,000	0,024	0,115
-709,904	-200,000	-0,031	-0,115
-708,889	-95,153	-0,080	0,016
-707,875	-53,534	-0,092	0,031
-706,860	800,000	-0,012	-0,037
-705,845	34,477	0,033	0,021
-704,831	-20,110	0,037	0,017
-703,816	-118,315	-0,129	0,017
-702,802	800,000	0,010	0,022
-701,787	-200,000	0,002	-0,115
-700,772	178,037	-0,045	-0,049
-699,758	-92,210	-0,060	-0,012
-698,743	-20,894	-0,032	0,015
-697,729	-111,442	-0,079	0,012
-696,714	216,288	-0,098	0,116
-695,699	-192,188	0,047	0,000
-694,685	254,125	-0,101	-0,129
-693,670	-71,009	-0,030	-0,008
-692,656	800,000	-0,036	-0,098
-691,641	-200,000	-0,003	-0,029
-690,627	-81,231	0,041	0,010
-689,612	109,861	-0,021	-0,019
-688,597	274,866	-0,085	-0,112
-687,583	784,349	0,082	-0,167
-686,568	-200,000	-0,030	-0,101
-685,554	-127,161	-0,120	0,013
-684,539	178,097	-0,075	-0,081
-683,524	74,326	-0,054	0,042
-682,510	-200,000	-0,020	0,067
-681,495	-180,024	-0,112	0,002
-680,481	120,832	0,048	0,044
-679,466	-200,000	-0,023	-0,092
-678,451	-146,473	-0,085	-0,005
-677,437	800,000	0,033	0,100
-676,422	-108,142	0,107	0,017
-675,408	-95,987	0,127	-0,025
-674,393	-200,000	-0,013	-0,070
-673,378	142,988	-0,128	-0,126
-672,364	-46,874	-0,114	-0,041
-671,349	-103,213	0,046	0,008
-670,335	343,588	0,060	0,088
-669,320	-200,000	0,022	-0,076
-668,305	46,978	0,093	-0,064
-667,291	39,246	-0,103	-0,068
-666,276	165,423	0,157	-0,164
-665,262	-200,000	-0,011	-0,128
-664,247	-72,067	0,022	0,006
-663,232	61,056	-0,083	-0,061
-662,218	-200,000	-0,001	0,034
-661,203	90,604	0,094	-0,078
-660,189	426,798	-0,062	-0,100
-659,174	92,943	-0,086	-0,072
-658,159	230,104	0,045	0,055
-657,145	158,177	-0,043	-0,044
-656,130	-200,000	0,020	-0,211
-655,116	765,991	-0,101	-0,205
-654,101	800,000	0,022	-0,053
-653,086	800,000	0,028	0,062
-652,072	-200,000	-0,021	0,128
-651,057	121,933	-0,077	0,071
-650,043	188,178	-0,049	0,054
-649,028	50,275	0,075	-0,052
-648,014	-4,666	0,032	0,016
-646,999	-200,000	0,010	0,076
-645,984	800,000	-0,093	-0,195
-644,970	-5,775	-0,042	-0,021
-643,955	-110,286	0,126	-0,019
-642,941	793,823	-0,053	-0,108
-641,926	-117,887	0,218	0,029
-640,911	-200,000	0,012	-0,070
-639,897	645,180	0,005	-0,010
-638,882	-77,035	-0,125	0,032
-637,868	21,631	0,036	0,021
-636,853	-129,206	0,025	0,003
-635,838	287,950	0,079	-0,106
-634,824	126,696	-0,082	-0,077
-633,809	-156,291	-0,085	-0,004
-632,795	-97,633	0,058	0,011
-631,780	-54,859	0,103	0,034
-630,765	-137,333	0,025	0,002
-629,751	-39,267	-0,081	-0,031
-628,736	20,033	-0,123	-0,073
-627,722	-200,000	-0,028	-0,210
-626,707	-200,000	0,020	-0,074
-625,692	17,446	-0,046	-0,027
-624,678	-200,000	0,043	-0,143
-623,663	56,305	-0,096	-0,069
-622,649	800,000	-0,023	-0,058
-621,634	129,374	-0,032	0,030
-620,619	8,068	-0,106	-0,059
-619,605	-121,810	0,104	0,013
-618,590	-141,427	0,094	-0,007
-617,576	-76,253	0,086	-0,022
-616,561	-200,000	0,003	-0,061
-615,546	101,116	-0,037	-0,032
-614,532	-200,000	0,010	-0,121
-613,517	63,920	-0,157	-0,116
-612,503	-200,000	-0,005	0,039
-611,488	81,580	0,101	0,081
-610,474	13,922	0,073	0,042
-609,459	43,146	-0,043	0,029
-608,444	-200,000	0,020	-0,079
-607,430	57,911	-0,094	-0,068
-606,415	291,584	0,032	0,043
-605,401	86,219	0,095	0,078
-604,386	-0,612	-0,073	0,038
-603,371	243,160	0,104	0,129
-602,357	157,401	0,047	0,048
-601,342	-200,000	0,003	-0,011
-600,328	-93,065	-0,073	-0,015
-599,313	219,457	-0,092	-0,109
-598,298	94,700	-0,035	0,029
-597,284	528,908	0,045	-0,079
-596,269	-118,117	0,113	0,015
-595,255	-200,000	0,019	-0,070
-594,240	366,607	-0,026	-0,038
-593,225	371,745	-0,063	-0,095
-592,211	-200,000	-0,015	-0,074
-591,196	733,530	0,057	0,113
-590,182	800,000	-0,015	-0,040
-589,167	800,000	-0,008	-0,022
-588,152	-200,000	0,009	-0,044
-587,138	-200,000	0,007	-0,050
-586,123	800,000	-0,017	0,042
-585,109	-200,000	0,014	-0,059
-584,094	126,300	-0,028	-0,026
-583,079	-200,000	0,000	0,086
-582,065	-18,205	0,148	0,068
-581,050	-26,351	0,002	-0,001
-580,036	104,072	0,143	-0,124
-579,021	14,202	0,150	0,086
-578,006	-182,880	-0,159	0,002
-576,992	50,377	-0,060	0,042
-575,977	74,378	0,124	-0,097
-574,963	-200,000	0,019	-0,117
-573,948	-200,000	-0,047	-0,157
-572,934	92,030	0,045	-0,038
-571,919	800,000	0,042	-0,101
-570,904	-127,471	-0,049	0,005
-569,890	-148,816	-0,094	0,006
-568,875	-192,812	-0,101	-0,001
-567,861	576,678	-0,034	-0,061
-566,846	-110,851	-0,094	-0,014
-565,831	431,874	0,066	0,106
-564,817	149,013	0,047	0,047
-563,802	800,000	-0,059	0,129
-562,788	-2,604	-0,085	0,044
-561,773	131,924	-0,074	-0,070
-560,758	121,225	-0,066	-0,060
-559,744	-133,055	0,127	0,012
-558,729	-85,022	0,044	0,010
-557,715	-200,000	0,001	-0,132
-556,700	350,789	-0,048	-0,071
-555,685	-63,178	-0,109	-0,033
-554,671	65,684	0,052	0,039
-553,656	484,271	-0,018	-0,031
-552,642	-200,000	0,020	0,077
-551,627	-200,000	-0,009	-0,043
-550,612	559,008	0,018	-0,032
-549,598	-179,345	0,156	-0,002
-548,583	272,491	0,030	-0,039
-547,569	-25,381	-0,147	-0,064
-546,554	381,718	0,013	-0,020
-545,539	20,751	0,092	0,055
-544,525	201,602	-0,075	-0,085
-543,510	602,496	-0,003	0,005
-542,496	93,901	-0,154	-0,128
-541,481	-176,312	-0,075	0,001
-540,466	-157,312	-0,035	-0,002
-539,452	-174,126	0,046	0,001
-538,437	719,851	-0,059	0,115
-537,423	1,334	-0,095	0,050
-536,408	-126,355	-0,054	-0,006
-535,393	-52,046	0,052	0,018
-534,379	538,208	-0,046	-0,081
-533,364	-143,668	-0,052	-0,004
-532,350	3,073	-0,074	-0,040
-531,335	94,919	-0,098	-0,082
-530,321	-200,000	-0,003	0,045
-529,306	278,272	-0,036	-0,048
-528,291	-200,000	0,021	-0,126
-527,277	800,000	0,031	-0,070
-526,262	-75,411	0,106	-0,028
-525,248	800,000	0,028	0,058
-524,233	105,453	0,138	0,120
-523,218	260,595	-0,020	-0,026
-522,204	-28,224	-0,033	0,014
-521,189	-200,000	0,012	-0,054
-520,175	-200,000	-0,015	0,069
-519,160	-200,000	-0,035	-0,126
-518,145	103,317	0,099	-0,085
-517,131	-200,000	-0,001	-0,021
-516,116	-200,000	0,019	0,146
-515,102	151,536	-0,078	-0,079
-514,087	-200,000	-0,002	0,033
-513,072	800,000	-0,002	0,005
-512,058	305,565	-0,079	-0,109
-511,043	800,000	0,030	0,098
-510,029	322,718	0,100	0,141
-509,014	-200,000	-0,001	0,149
-507,999	-200,000	-0,044	-0,158
-506,985	114,970	-0,064	-0,057
-505,970	91,903	-0,036	-0,030
-504,956	390,122	0,087	-0,133
-503,941	31,818	0,046	-0,029
-502,926	-110,464	0,099	0,015
-501,912	204,807	-0,032	0,037
-500,897	22,069	-0,120	0,072
-499,883	51,831	0,054	-0,038
-498,868	451,431	-0,037	-0,060
-497,853	729,328	-0,017	-0,035
-496,839	-200,000	0,006	0,037
-495,824	-166,673	0,069	-0,002
-494,810	-136,809	-0,054	0,005
-493,795	680,290	0,024	0,046
-492,781	420,933	0,037	-0,059
-491,766	-34,728	-0,112	0,045
-490,751	-200,000	0,008	-0,144
-489,737	-200,000	0,006	0,031
-488,722	57,613	0,034	0,024
-487,708	-200,000	-0,010	0,064
-486,693	177,335	0,114	0,122
-485,678	-111,241	0,042	-0,006
-484,664	-200,000	-0,004	0,089
-483,649	-82,898	0,069	0,016
-482,635	-18,544	0,110	0,050
-481,620	-200,000	0,021	0,116
-480,605	-200,000	-0,009	0,036
-479,591	-19,979	-0,036	0,017
-478,576	800,000	-0,064	-0,167
-477,562	464,939	0,044	-0,072
-476,547	-200,000	0,018	-0,088
-475,532	407,437	0,045	0,070
-474,518	323,741	0,022	-0,031
-473,503	-182,825	0,116	0,002
-472,489	-68,852	-0,063	-0,018
-471,474	-200,000	0,022	0,078
-470,459	265,650	-0,056	0,072
-469,445	800,000	0,010	0,020
-468,430	-200,000	0,028	0,105
-467,416	59,376	0,038	0,028
-466,401	800,000	0,089	0,184
-465,386	-68,156	0,032	-0,009
-464,372	-26,414	0,076	-0,033
-463,357	-101,107	0,097	0,017
-462,343	230,362	-0,056	0,067
-461,328	-200,000	-0,027	-0,226
-460,313	557,567	0,082	-0,145
-459,299	-200,000	-0,016	0,061
-458,284	-34,517	-0,019	0,008
-457,270	30,573	0,024	0,015
-456,255	32,508	-0,129	0,082
-455,241	-200,000	0,009	-0,057
-454,226	-141,795	0,128	0,009
-453,211	159,365	-0,023	0,023
-452,197	127,636	-0,026	0,024
-451,182	-200,000	-0,010	0,052
-450,168	145,849	0,058	0,057
-449,153	527,585	-0,023	-0,040
-448,138	328,510	-0,039	0,055
-447,124	-200,000	0,043	-0,145
-446,109	-108,731	-0,064	-0,010
-445,095	317,076	-0,044	0,062
-444,080	-111,655	0,127	-0,019
-443,065	-200,000	0,029	0,193
-442,051	800,000	0,021	-0,061
-441,036	10,762	-0,091	0,051
-440,022	108,940	0,037	-0,032
-439,007	149,628	-0,061	0,061
-437,992	490,712	0,049	0,082
-436,978	-200,000	-0,019	0,157
-435,963	114,880	0,087	0,078
-434,949	-200,000	-0,023	-0,084
-433,934	-62,365	-0,054	0,017
-432,919	494,006	-0,090	-0,153
-431,905	-109,701	-0,072	-0,011
-430,890	654,898	0,069	0,130
-429,876	-177,429	-0,049	-0,001
-428,861	560,911	-0,021	-0,038
-427,846	158,816	-0,063	0,064
-426,832	800,000	-0,036	0,076
-425,817	800,000	-0,029	-0,065
-424,803	-134,556	0,016	-0,001
-423,788	-45,670	0,011	0,004
-422,773	123,440	-0,085	0,078
-421,759	-34,509	0,012	0,005
-420,744	-15,510	-0,092	0,043
-419,730	259,284	0,038	0,049
-418,715	76,719	0,011	0,008
-417,701	-42,464	0,065	-0,024
-416,686	-32,560	-0,038	-0,016
-415,671	-200,000	-0,024	0,123
-414,657	17,227	0,093	0,054
-413,642	689,757	-0,089	0,171
-412,628	218,449	-0,116	-0,136
-411,613	189,190	0,080	-0,088
-410,598	35,015	-0,058	0,037
-409,584	23,650	0,042	-0,025
-408,569	800,000	-0,074	-0,239
-407,555	-114,346	0,108	-0,015
-406,540	319,473	-0,010	0,014
-405,525	84,171	-0,036	-0,029
-404,511	-69,992	-0,070	0,019
-403,496	800,000	-0,036	-0,102
-402,482	800,000	0,031	0,081
-401,467	185,473	0,144	0,157
-400,452	-129,574	0,071	-0,007
-399,438	800,000	-0,072	0,176
-398,423	12,869	0,051	0,029
-397,409	473,456	0,028	0,046
-396,394	221,032	-0,097	0,115
-395,379	502,779	-0,069	0,118
-394,365	-200,000	-0,038	-0,144
-393,350	356,371	0,040	-0,058
-392,336	-7,721	-0,086	-0,043
-391,321	337,617	-0,025	-0,036
-390,306	-200,000	-0,022	-0,082
-389,292	494,145	0,056	-0,095
-388,277	-200,000	-0,006	-0,056
-387,263	239,845	-0,032	-0,039
-386,248	-128,101	-0,038	0,004
-385,233	641,838	0,067	0,126
-384,219	24,827	0,025	0,015
-383,204	-200,000	-0,046	-0,155
-382,190	131,320	-0,039	-0,037
-381,175	654,835	0,021	-0,039
-380,160	175,886	-0,103	-0,110
-379,146	85,233	0,098	0,079
-378,131	-33,662	-0,038	0,015
-377,117	-34,701	-0,025	0,010
-376,102	-73,200	-0,041	-0,011
-375,088	76,044	-0,087	-0,067
-374,073	174,653	0,030	-0,032
-373,058	-200,000	0,004	0,048
-372,044	-200,000	-0,027	0,101
-371,029	-200,000	0,025	-0,088
-370,015	-200,000	-0,008	-0,053
-369,000	800,000	-0,058	0,169
-367,985	82,687	-0,067	0,053
-366,971	-98,251	0,032	-0,006
-365,956	160,775	-0,067	0,069
-364,942	-200,000	-0,004	0,144
-363,927	-94,068	0,128	0,025
-362,912	800,000	0,049	0,155
-361,898	-23,744	-0,084	-0,037
-360,883	44,255	0,033	-0,022
-359,869	161,278	0,059	0,061
-358,854	800,000	0,026	0,054
-357,839	35,037	0,188	0,120
-356,825	127,135	0,016	0,015
-355,810	17,870	0,084	-0,049
-354,796	127,962	-0,056	0,052
-353,781	169,154	-0,056	-0,059
-352,766	217,434	-0,028	-0,033
-351,752	208,991	0,073	-0,084
-350,737	-200,000	0,024	0,096
-349,723	-200,000	-0,001	0,028
-348,708	397,158	0,029	0,044
-347,693	-123,679	-0,175	0,020
-346,679	477,222	-0,042	0,070
-345,664	800,000	0,010	-0,026
-344,650	507,423	0,042	-0,072
-343,635	-200,000	0,016	0,124
-342,620	-106,578	0,078	-0,013
-341,606	292,259	0,078	-0,105
-340,591	-49,316	-0,075	0,026
-339,577	57,388	0,044	0,031
-338,562	800,000	0,015	0,037
-337,548	-8,953	0,044	0,021
-336,533	800,000	-0,057	0,167
-335,518	380,864	0,030	0,045
-334,504	380,051	-0,066	-0,100
-333,489	26,990	0,057	0,035
-332,475	56,709	-0,066	-0,047
-331,460	72,148	-0,040	0,031
-330,445	800,000	0,019	0,047
-329,431	-122,133	0,040	-0,005
-328,416	316,946	0,066	0,091
-327,402	34,074	-0,097	0,062
-326,387	230,353	-0,045	0,054
-325,372	756,838	0,045	0,089
-324,358	355,394	-0,040	-0,059
-323,343	-200,000	0,000	-0,156
-322,329	21,329	-0,058	0,034
-321,314	1,672	0,094	0,049
-320,299	156,233	-0,080	0,081
-319,285	156,535	-0,060	0,061
-318,270	791,226	0,011	0,023
-317,256	-200,000	-0,008	-0,142
-316,241	-36,270	-0,050	-0,020
-315,226	-200,000	-0,009	0,109
-314,212	-200,000	-0,013	-0,154
-313,197	800,000	0,017	0,040
-312,183	-105,283	-0,084	-0,014
-311,168	276,763	-0,082	-0,107
-310,153	551,131	-0,033	0,059
-309,139	380,778	-0,078	0,118
-308,124	22,207	-0,123	0,073
-307,110	-80,357	0,148	-0,036
-306,095	-79,793	0,081	0,020
-305,080	-78,083	-0,039	0,010
-304,066	780,306	-0,020	-0,040
-303,051	800,000	-0,042	-0,099
-302,037	800,000	-0,064	-0,144
-301,022	-200,000	0,022	-0,149
-300,008	610,938	-0,069	0,126
-298,993	-200,000	-0,005	-0,044
-297,978	-200,000	0,016	-0,084
-296,964	-200,000	-0,005	0,021
-295,949	50,703	-0,019	-0,013
-294,935	800,000	-0,058	-0,151
-293,920	-62,230	0,073	-0,022
-292,905	800,000	0,044	0,130
-291,891	-49,864	0,178	0,061
-290,876	234,914	0,080	0,097
-289,862	800,000	0,016	0,043
-288,847	-200,000	0,008	0,046
-287,832	-144,529	-0,097	-0,006
-286,818	-113,646	0,081	-0,011
-285,803	-51,264	0,116	0,039
-284,789	118,958	0,037	-0,033
-283,774	-83,680	0,128	-0,030
-282,759	-7,834	-0,017	-0,008
-281,745	-64,149	0,017	-0,005
-280,730	14,591	-0,025	-0,014
-279,716	114,048	0,054	0,048
-278,701	-66,994	0,053	0,015
-277,686	-200,000	-0,045	-0,149
-276,672	273,817	0,033	-0,043
-275,657	241,207	-0,078	0,095
-274,643	188,335	-0,122	-0,133
-273,628	131,034	0,094	-0,088
-272,613	345,826	-0,156	0,224
-271,599	-186,169	0,052	0,001
-270,584	-200,000	-0,013	-0,117
-269,570	193,212	0,109	0,121
-268,555	800,000	-0,033	0,075
-267,540	457,175	0,081	-0,132
-266,526	-6,972	0,030	0,015
-265,511	48,455	-0,056	-0,038
-264,497	-134,742	-0,166	-0,014
-263,482	249,046	-0,025	-0,030
-262,467	87,588	0,149	0,121
-261,453	-52,576	0,106	-0,036
-260,438	-76,213	-0,022	-0,006
-259,424	87,329	-0,031	-0,025
-258,409	207,084	0,032	-0,036
-257,395	701,017	0,045	0,086
-256,380	-1,785	0,105	-0,054
-255,365	-200,000	0,006	0,059
-254,351	78,327	0,090	0,070
-253,336	-19,499	-0,058	0,026
-252,322	-200,000	0,042	-0,166
-251,307	61,050	-0,186	-0,135
-250,292	-171,199	-0,041	-0,001
-249,278	-53,549	0,076	-0,025
-248,263	-62,021	-0,020	0,006
-247,249	800,000	0,010	0,025
-246,234	29,271	0,117	-0,072
-245,219	112,064	-0,074	-0,065
-244,205	454,936	0,019	0,031
-243,190	-126,924	-0,170	0,018
-242,176	236,392	0,070	0,085
-241,161	-200,000	0,006	0,047
-240,146	-175,963	0,137	-0,003
-239,132	26,723	0,073	-0,045
-238,117	42,463	-0,083	-0,055
-237,103	69,860	0,109	0,082
-236,088	-200,000	0,021	0,098
-235,073	88,570	-0,122	0,099
-234,059	-200,000	-0,007	0,134
-233,044	113,848	-0,123	0,109
-232,030	516,572	0,020	0,034
-231,015	-91,917	-0,069	0,014
-230,000	175,167	-0,055	0,058
-228,986	222,452	0,033	-0,039
-227,971	185,665	0,032	-0,035
-226,957	86,723	-0,042	-0,034
-225,942	319,499	-0,048	-0,067
-224,927	-200,000	0,007	0,051
-223,913	-90,562	0,008	0,002
-222,898	-166,449	0,043	0,001
-221,884	-159,193	0,177	0,007
-220,869	800,000	0,030	-0,064
-219,855	800,000	-0,052	0,144
-218,840	-200,000	0,012	0,057
-217,825	-36,770	0,024	0,009
-216,811	485,967	-0,034	0,057
-215,796	-200,000	0,034	0,130
-214,782	-200,000	0,002	0,091
-213,767	-82,227	0,016	-0,004
-212,752	11,544	0,057	0,032
-211,738	22,689	0,060	-0,036
-210,723	-200,000	0,003	0,046
-209,709	-200,000	0,010	0,088
-208,694	-200,000	0,004	0,100
-207,679	47,572	-0,059	0,040
-206,665	-46,921	0,083	-0,029
-205,650	-200,000	-0,018	0,097
-204,636	800,000	-0,027	0,080
-203,621	-200,000	0,001	0,059
-202,606	-92,501	-0,080	0,016
-201,592	-200,000	0,030	0,114
-200,577	49,172	0,013	-0,009
-199,563	96,834	0,126	0,105
-198,548	-29,955	-0,057	0,024
-197,533	8,293	0,063	0,034
-196,519	-125,024	0,112	0,012
-195,504	386,792	-0,084	-0,127
-194,490	-118,725	-0,092	-0,012
-193,475	800,000	-0,063	-0,145
-192,460	40,193	-0,182	-0,119
-191,446	11,084	0,073	-0,040
-190,431	86,013	0,054	-0,044
-189,417	-200,000	-0,026	-0,115
-188,402	427,585	0,028	-0,044
-187,387	-200,000	0,002	0,105
-186,373	675,885	0,035	-0,067
-185,358	122,210	-0,036	0,032
-184,344	-37,565	-0,098	-0,038
-183,329	430,678	0,021	-0,034
-182,315	-30,279	0,075	0,031
-181,300	-200,000	-0,017	0,131
-180,285	-76,424	-0,084	0,021
-179,271	-200,000	-0,001	-0,141
-178,256	-200,000	0,014	-0,187
-177,242	800,000	-0,008	-0,018
-176,227	-42,550	0,079	0,029
-175,212	-81,713	0,054	-0,013
-174,198	-147,663	0,066	0,004
-173,183	-103,244	-0,150	-0,025
-172,169	165,281	0,112	0,115
-171,154	-16,116	-0,113	-0,052
-170,139	684,351	0,021	0,039
-169,125	-200,000	-0,018	0,071
-168,110	-200,000	0,011	0,055
-167,096	4,143	0,037	-0,020
-166,081	-144,506	-0,010	0,001
-165,066	368,365	-0,060	-0,089
-164,052	-25,050	-0,049	-0,021
-163,037	131,831	-0,076	0,071
-162,023	768,193	0,051	-0,101
-161,008	535,778	-0,040	-0,070
-159,993	800,000	-0,048	-0,104
-158,979	-200,000	-0,004	-0,106
-157,964	131,109	0,010	0,010
-156,950	85,047	0,054	0,043
-155,935	-200,000	0,002	0,095
-154,920	-200,000	0,026	0,183
-153,906	13,793	0,017	-0,009
-152,891	62,708	-0,032	0,023
-151,877	-200,000	0,004	-0,017
-150,862	3,759	0,018	0,010
-149,847	-93,552	-0,016	-0,003
-148,833	5,310	0,007	0,004
-147,818	184,089	-0,084	0,090
-146,804	-70,381	0,077	0,021
-145,789	800,000	0,031	-0,077
-144,775	55,667	-0,132	-0,092
-143,760	18,804	0,070	-0,041
-142,745	-89,222	-0,109	-0,023
-141,731	22,356	0,082	0,048
-140,716	83,460	0,029	0,023
-139,702	800,000	-0,066	-0,150
-138,687	-96,988	0,211	0,040
-137,672	309,075	-0,098	-0,134
-136,658	-200,000	-0,020	-0,146
-135,643	39,290	-0,039	-0,025
-134,629	-49,487	-0,089	0,031
-133,614	731,188	0,107	0,208
-132,599	-61,598	0,071	0,022
-131,585	104,663	0,076	-0,065
-130,570	300,361	-0,046	0,062
-129,556	-200,000	-0,010	-0,047
-128,541	47,109	-0,082	0,055
-127,526	-133,189	0,095	0,009
-126,512	-20,146	-0,040	-0,018
-125,497	284,057	0,036	-0,047
-124,483	102,747	-0,066	-0,056
-123,468	770,695	0,097	0,193
-122,453	-200,000	-0,005	0,090
-121,439	-200,000	0,016	0,088
-120,424	-200,000	0,002	-0,018
-119,410	-3,962	0,084	0,042
-118,395	14,678	0,019	0,011
