DTS Sentinel unit serial number:	SN410029Multiplexer serial number:	ORYXHardware model number:	OX2-SRSoftware version number:	ORYX F/W v4,00 Oryx Data Collector v3.7.2.0data status	okinstallation	B6 Nyhavnadifferential loss correction	single-endedforward channel	channel 2reverse channel	N/Adate	2023/12/07time	17:20:08forward acquisition time	300,00reverse acquisition time	0,00gamma	499,1914k internal	0,3164k external	0,3164temperature offset calibration	1,0000default loss term (dB/km)	0,3820temperature slope calibration	1,0000multiplexer offset coefficient	1,0000multiplexer slope coefficient	1,0000fibre end	0,00T internal ref (°C)	14,48T ext. ref 1 (°C)	-2,41T ext. ref 2 (°C)	-2,43length (m)	temperature (°C)	Stokes	anti-Stokes-744,400	800,000	0,024	-0,057
-743,385	-89,894	-0,269	0,057
-742,371	-96,554	0,110	0,021
-741,356	-102,388	-0,309	0,054
-740,342	57,669	0,148	0,107
-739,327	-74,813	-0,271	-0,071
-738,312	-107,580	0,108	0,017
-737,298	-135,935	-0,360	-0,031
-736,283	-200,000	0,142	0,000
-735,269	-158,235	-0,332	0,014
-734,254	-18,884	0,131	0,060
-733,239	-1,896	-0,354	-0,183
-732,225	-20,235	0,209	0,094
-731,210	800,000	0,040	0,086
-730,196	-85,298	-0,070	0,016
-729,181	-200,000	-0,003	-0,018
-728,167	172,995	0,066	0,070
-727,152	-200,000	0,003	-0,031
-726,137	62,318	-0,168	-0,123
-725,123	76,848	-0,175	-0,136
-724,108	800,000	-0,037	-0,102
-723,094	-200,000	-0,001	0,080
-722,079	-151,284	-0,029	-0,002
-721,064	-106,246	0,131	0,021
-720,050	-32,158	-0,048	0,020
-719,035	-83,866	0,046	0,011
-718,021	-33,782	-0,051	-0,021
-717,006	216,373	-0,129	-0,151
-715,991	145,656	-0,126	-0,124
-714,977	800,000	0,017	0,038
-713,962	-69,035	-0,092	-0,026
-712,948	-150,342	0,053	0,003
-711,933	-54,984	0,022	0,007
-710,918	-200,000	-0,018	-0,071
-709,904	-200,000	-0,010	-0,075
-708,889	800,000	-0,016	0,039
-707,875	-34,979	-0,059	0,023
-706,860	-118,678	-0,097	0,012
-705,845	617,237	0,022	-0,041
-704,831	289,261	0,063	-0,084
-703,816	800,000	0,041	0,084
-702,802	108,569	-0,035	-0,031
-701,787	352,792	-0,145	-0,211
-700,772	111,358	-0,099	-0,088
-699,758	800,000	0,046	-0,105
-698,743	302,729	0,030	0,041
-697,729	258,454	0,029	0,037
-696,714	174,518	-0,027	0,029
-695,699	122,147	-0,081	-0,074
-694,685	800,000	-0,011	0,028
-693,670	144,414	0,110	-0,108
-692,656	-33,003	0,062	0,025
-691,641	800,000	-0,035	-0,080
-690,627	415,004	-0,079	-0,124
-689,612	794,153	-0,030	-0,061
-688,597	432,555	0,068	0,109
-687,583	-151,621	-0,070	0,004
-686,568	800,000	-0,068	-0,140
-685,554	800,000	0,033	-0,070
-684,539	174,093	-0,068	-0,072
-683,524	800,000	-0,033	0,087
-682,510	-1,681	-0,065	0,033
-681,495	-200,000	-0,001	-0,158
-680,481	800,000	-0,041	0,101
-679,466	543,850	-0,041	0,072
-678,451	-200,000	0,011	0,081
-677,437	-200,000	0,021	-0,110
-676,422	426,472	-0,098	0,156
-675,408	504,402	-0,061	0,105
-674,393	383,524	-0,072	0,109
-673,378	-117,183	-0,222	0,029
-672,364	85,908	-0,047	-0,038
-671,349	-147,371	-0,088	0,005
-670,335	-96,922	0,164	-0,031
-669,320	158,747	0,031	-0,031
-668,305	-49,588	-0,136	0,047
-667,291	-200,000	0,068	-0,223
-666,276	-130,065	0,055	-0,005
-665,262	800,000	0,054	-0,122
-664,247	800,000	-0,023	-0,064
-663,232	663,466	0,057	0,108
-662,218	552,795	0,034	0,060
-661,203	-78,614	0,127	-0,032
-660,189	57,845	-0,072	0,052
-659,174	-11,701	-0,026	-0,013
-658,159	173,336	-0,046	-0,048
-657,145	-200,000	-0,002	0,069
-656,130	-200,000	-0,016	0,098
-655,116	506,766	0,042	0,071
-654,101	800,000	-0,050	0,109
-653,086	105,963	-0,068	-0,059
-652,072	-12,857	0,085	0,040
-651,057	-38,828	0,068	-0,026
-650,043	684,536	-0,061	-0,117
-649,028	49,353	0,065	-0,045
-648,014	200,066	-0,073	-0,082
-646,999	-200,000	-0,001	-0,066
-645,984	-180,370	0,069	-0,001
-644,970	-126,184	-0,086	0,009
-643,955	-150,601	-0,091	-0,005
-642,941	200,081	-0,034	0,039
-641,926	800,000	0,026	0,061
-640,911	181,857	0,059	0,064
-639,897	0,929	0,112	-0,058
-638,882	8,234	-0,006	0,003
-637,868	205,151	0,064	-0,073
-636,853	-84,964	-0,167	-0,038
-635,838	362,668	0,006	0,009
-634,824	-45,506	-0,042	-0,015
-633,809	-99,378	-0,060	-0,011
-632,795	-92,070	0,064	0,013
-631,780	53,932	-0,027	-0,019
-630,765	-74,509	0,021	-0,006
-629,751	323,660	0,114	-0,160
-628,736	102,869	-0,058	0,050
-627,722	256,404	-0,101	-0,128
-626,707	800,000	-0,037	0,089
-625,692	20,913	0,174	0,103
-624,678	-36,400	0,078	0,031
-623,663	-200,000	0,003	0,113
-622,649	-200,000	0,067	0,219
-621,634	-200,000	-0,017	0,077
-620,619	-200,000	0,005	0,073
-619,605	-70,375	-0,111	0,031
-618,590	-147,721	-0,045	-0,003
-617,576	-200,000	-0,015	-0,057
-616,561	416,717	0,047	0,074
-615,546	-119,676	-0,032	-0,004
-614,532	517,268	-0,031	0,053
-613,517	-32,947	-0,077	0,031
-612,503	61,695	0,031	0,022
-611,488	-200,000	-0,015	0,064
-610,474	-34,581	-0,174	0,070
-609,459	463,021	-0,038	0,063
-608,444	283,647	-0,051	0,067
-607,430	51,095	-0,014	0,010
-606,415	800,000	-0,019	-0,056
-605,401	56,963	0,128	-0,091
-604,386	-200,000	0,015	-0,145
-603,371	-134,675	0,088	0,008
-602,357	138,294	0,050	-0,048
-601,342	-75,272	0,142	-0,037
-600,328	-175,338	-0,073	-0,001
-599,313	-43,249	-0,094	-0,035
-598,298	-200,000	-0,002	-0,061
-597,284	595,053	0,020	-0,036
-596,269	-85,921	-0,098	0,022
-595,255	-99,928	0,067	0,012
-594,240	-18,138	0,069	0,032
-593,225	800,000	-0,039	0,107
-592,211	186,130	0,050	-0,055
-591,196	126,045	-0,041	-0,038
-590,182	30,231	0,103	-0,064
-589,167	-27,038	-0,110	-0,047
-588,152	132,469	-0,036	-0,034
-587,138	-94,741	-0,095	-0,019
-586,123	-47,463	-0,115	-0,041
-585,109	78,893	0,040	0,031
-584,094	-200,000	0,014	0,082
-583,079	-200,000	0,027	0,116
-582,065	-23,492	-0,166	0,073
-581,050	-143,300	-0,234	-0,016
-580,036	800,000	0,045	-0,118
-579,021	800,000	0,026	-0,079
-578,006	-200,000	0,010	-0,073
-576,992	127,225	-0,051	-0,047
-575,977	137,561	0,089	-0,085
-574,963	34,571	0,055	0,035
-573,948	-49,430	-0,144	0,050
-572,934	-68,717	0,111	0,031
-571,919	-122,725	-0,055	-0,006
-570,904	-130,192	-0,015	0,001
-569,890	800,000	-0,079	-0,172
-568,875	196,331	0,081	-0,090
-567,861	-200,000	0,002	0,041
-566,846	-41,026	-0,023	0,009
-565,831	-200,000	0,007	-0,059
-564,817	-6,875	-0,144	0,071
-563,802	800,000	-0,035	0,088
-562,788	185,045	-0,066	-0,071
-561,773	113,486	0,036	-0,032
-560,758	61,823	0,114	-0,083
-559,744	-89,697	0,037	0,008
-558,729	236,335	-0,028	-0,034
-557,715	-23,720	-0,034	-0,015
-556,700	-200,000	-0,012	0,111
-555,685	-19,420	-0,166	0,075
-554,671	-200,000	0,018	0,067
-553,656	209,803	-0,086	0,099
-552,642	-29,192	0,061	0,025
-551,627	-121,395	-0,160	-0,019
-550,612	502,368	0,045	-0,077
-549,598	-121,501	-0,078	0,009
-548,583	-200,000	-0,012	-0,089
-547,569	-200,000	-0,008	0,051
-546,554	-200,000	0,015	0,128
-545,539	111,961	0,095	0,084
-544,525	470,727	-0,023	0,038
-543,510	8,224	-0,185	-0,101
-542,496	98,930	-0,148	-0,124
-541,481	-108,192	0,021	-0,003
-540,466	-11,499	0,080	0,038
-539,452	88,233	0,155	-0,126
-538,437	416,248	0,076	0,118
-537,423	-31,931	-0,060	0,024
-536,408	800,000	0,076	0,171
-535,393	95,547	-0,100	-0,084
-534,379	196,149	-0,063	-0,070
-533,364	-200,000	0,010	-0,141
-532,350	-200,000	-0,021	0,076
-531,335	-106,271	0,063	-0,010
-530,321	314,585	0,086	0,119
-529,306	-200,000	-0,004	-0,029
-528,291	-200,000	0,019	-0,120
-527,277	800,000	-0,037	-0,119
-526,262	-108,411	0,178	-0,028
-525,248	-6,080	0,036	-0,018
-524,233	463,759	-0,012	0,019
-523,218	-1,171	0,120	-0,062
-522,204	-112,624	-0,093	0,013
-521,189	464,652	-0,037	0,061
-520,175	125,158	-0,108	-0,099
-519,160	285,895	-0,030	-0,040
-518,145	79,735	-0,009	0,007
-517,131	-5,406	0,125	0,062
-516,116	-182,779	-0,080	0,001
-515,102	386,457	0,120	0,181
-514,087	585,333	0,005	-0,010
-513,072	800,000	0,013	0,026
-512,058	-102,634	0,127	0,022
-511,043	471,796	0,012	-0,020
-510,029	108,688	0,117	0,102
-509,014	16,349	-0,054	0,031
-507,999	352,370	0,032	0,046
-506,985	183,723	-0,068	-0,073
-505,970	-37,699	0,049	-0,019
-504,956	-100,189	0,080	-0,014
-503,941	379,519	0,046	-0,069
-502,926	-152,985	0,060	-0,003
-501,912	307,917	0,078	0,107
-500,897	177,767	0,025	-0,026
-499,883	590,834	-0,056	-0,101
-498,868	-162,059	0,083	0,003
-497,853	132,347	-0,111	0,104
-496,839	800,000	-0,018	0,039
-495,824	-78,254	-0,077	0,019
-494,810	-16,702	-0,087	0,040
-493,795	100,948	-0,093	0,079
-492,781	-200,000	-0,029	-0,125
-491,766	-142,652	-0,136	0,010
-490,751	-83,512	-0,177	-0,041
-489,737	-200,000	0,000	-0,131
-488,722	768,167	-0,030	-0,061
-487,708	-155,698	0,072	-0,003
-486,693	81,898	0,039	-0,031
-485,678	383,512	-0,070	0,105
-484,664	37,703	-0,142	0,092
-483,649	-200,000	-0,004	0,089
-482,635	-38,060	-0,141	-0,054
-481,620	-75,992	0,047	0,012
-480,605	111,792	0,070	0,061
-479,591	265,991	-0,078	0,099
-478,576	-32,329	0,078	0,031
-477,562	536,713	0,018	0,032
-476,547	-200,000	0,011	-0,053
-475,532	-200,000	-0,018	0,072
-474,518	37,968	0,031	-0,020
-473,503	-55,123	0,177	0,058
-472,489	-67,396	0,098	-0,028
-471,474	346,513	0,060	-0,086
-470,459	-200,000	0,008	-0,185
-469,445	-47,055	0,090	-0,032
-468,430	-145,611	-0,030	0,002
-467,416	-200,000	-0,009	-0,128
-466,401	800,000	-0,031	-0,066
-465,386	-200,000	-0,012	-0,094
-464,372	226,755	-0,092	-0,108
-463,357	272,128	0,059	0,076
-462,343	800,000	-0,063	0,130
-461,328	1,628	0,118	0,062
-460,313	-173,066	0,159	-0,003
-459,299	-5,430	0,130	0,065
-458,284	-85,812	-0,098	-0,022
-457,270	-200,000	0,000	0,012
-456,255	-2,242	-0,075	-0,038
-455,241	-23,762	-0,007	0,003
-454,226	-200,000	0,049	-0,214
-453,211	-200,000	0,012	-0,105
-452,197	-7,329	0,080	-0,039
-451,182	-200,000	0,004	-0,078
-450,168	108,394	0,078	0,068
-449,153	-129,122	-0,146	0,015
-448,138	76,940	-0,072	0,056
-447,124	800,000	-0,032	-0,078
-446,109	459,286	-0,022	-0,036
-445,095	800,000	-0,019	0,053
-444,080	-95,367	-0,092	0,018
-443,065	124,995	0,081	0,074
-442,051	266,481	0,027	-0,034
-441,036	-115,981	0,068	-0,009
-440,022	188,602	-0,031	-0,034
-439,007	-200,000	-0,001	0,089
-437,992	413,429	0,026	0,040
-436,978	-200,000	-0,016	0,060
-435,963	-66,210	-0,092	0,026
-434,949	-140,110	-0,107	-0,008
-433,934	-200,000	0,004	-0,039
-432,919	800,000	0,031	0,080
-431,905	800,000	0,065	0,132
-430,890	-200,000	0,013	0,108
-429,876	196,906	0,071	0,079
-428,861	38,315	0,079	-0,051
-427,846	-71,692	-0,222	0,060
-426,832	-200,000	0,033	0,171
-425,817	552,472	-0,076	-0,134
-424,803	143,893	0,091	-0,088
-423,788	21,349	-0,091	0,054
-422,773	23,790	0,043	-0,025
-421,759	39,004	0,067	0,043
-420,744	800,000	0,016	-0,041
-419,730	63,654	-0,067	-0,049
-418,715	-56,876	-0,056	-0,018
-417,701	354,999	-0,049	0,071
-416,686	162,991	-0,112	0,114
-415,671	-76,296	0,137	0,035
-414,657	462,614	0,041	0,066
-413,642	9,474	0,028	-0,015
-412,628	578,101	-0,036	0,065
-411,613	616,956	0,073	-0,133
-410,598	27,308	-0,091	-0,055
-409,584	-33,645	-0,039	0,016
-408,569	225,652	-0,036	0,043
-407,555	68,090	0,122	0,091
-406,540	-20,702	-0,155	0,069
-405,525	627,898	0,037	-0,068
-404,511	785,500	-0,010	0,020
-403,496	164,978	-0,077	0,079
-402,482	-42,404	0,098	0,036
-401,467	-54,583	0,036	-0,012
-400,452	-58,756	-0,112	-0,035
-399,438	-40,627	-0,035	0,013
-398,423	-200,000	0,000	0,074
-397,409	67,638	-0,099	-0,073
-396,394	295,966	0,103	-0,138
-395,379	-117,733	-0,165	-0,021
-394,365	-200,000	0,026	-0,122
-393,350	-200,000	-0,019	0,066
-392,336	800,000	0,017	0,043
-391,321	129,331	-0,073	0,068
-390,306	500,686	-0,030	0,051
-389,292	800,000	0,013	0,037
-388,277	179,683	0,048	0,051
-387,263	78,485	0,043	0,033
-386,248	175,398	0,068	-0,072
-385,233	-58,952	0,048	-0,015
-384,219	-115,628	-0,073	-0,010
-383,204	-128,758	0,097	0,010
-382,190	-200,000	0,040	-0,176
-381,175	32,100	0,042	0,026
-380,160	-200,000	-0,003	0,056
-379,146	-116,298	0,047	-0,006
-378,131	150,314	0,093	0,092
-377,117	10,735	-0,174	-0,096
-376,102	-137,322	-0,042	-0,003
-375,088	-200,000	-0,039	0,131
-374,073	-200,000	-0,002	-0,039
-373,058	722,100	0,051	0,098
-372,044	-200,000	0,003	0,031
-371,029	12,896	0,062	-0,035
-370,015	-200,000	-0,028	0,098
-369,000	-200,000	-0,001	-0,051
-367,985	272,785	-0,061	0,078
-366,971	364,526	0,043	-0,063
-365,956	800,000	-0,024	-0,065
-364,942	-200,000	-0,005	0,074
-363,927	103,896	0,076	0,064
-362,912	-200,000	-0,007	0,054
-361,898	800,000	-0,020	0,048
-360,883	800,000	0,004	-0,013
-359,869	800,000	0,075	0,194
-358,854	-200,000	0,025	0,106
-357,839	-200,000	0,027	-0,120
-356,825	800,000	0,061	-0,143
-355,810	-136,918	0,031	-0,003
-354,796	349,422	0,015	0,022
-353,781	800,000	-0,037	-0,105
-352,766	-78,643	-0,104	0,026
-351,752	33,505	0,047	0,029
-350,737	-23,019	0,223	0,097
-349,723	26,511	-0,056	-0,034
-348,708	-69,122	0,067	0,019
-347,693	-58,125	-0,158	-0,050
-346,679	-200,000	0,009	-0,067
-345,664	-88,317	-0,111	0,024
-344,650	800,000	0,015	-0,038
-343,635	385,019	0,023	-0,034
-342,620	-200,000	-0,005	0,074
-341,606	227,318	0,140	0,165
-340,591	-200,000	-0,002	-0,083
-339,577	800,000	-0,018	-0,047
-338,562	22,846	-0,056	-0,033
-337,548	-200,000	-0,020	-0,068
-336,533	446,551	-0,045	-0,072
-335,518	-129,542	0,044	-0,004
-334,504	30,534	0,106	0,066
-333,489	109,805	-0,053	0,046
-332,475	219,839	0,058	0,068
-331,460	800,000	-0,018	0,042
-330,445	-134,164	0,168	-0,015
-329,431	-200,000	-0,032	-0,215
-328,416	-200,000	0,030	0,100
-327,402	-200,000	-0,005	0,052
-326,387	800,000	-0,031	-0,076
-325,372	55,986	-0,128	-0,090
-324,358	27,037	0,086	-0,052
-323,343	800,000	-0,039	-0,086
-322,329	-72,842	-0,149	0,039
-321,314	800,000	0,023	0,063
-320,299	3,427	0,059	-0,031
-319,285	673,612	-0,017	-0,032
-318,270	86,876	-0,090	-0,072
-317,256	-200,000	0,027	0,136
-316,241	-49,843	-0,107	0,037
-315,226	3,494	0,063	0,033
-314,212	800,000	0,033	0,101
-313,197	172,783	-0,067	-0,070
-312,183	800,000	0,048	-0,126
-311,168	-99,824	0,064	-0,011
-310,153	43,939	-0,039	0,026
-309,139	-200,000	-0,010	-0,072
-308,124	-200,000	-0,005	0,029
-307,110	-30,847	-0,121	-0,049
-306,095	-74,478	0,099	-0,026
-305,080	163,803	-0,039	-0,039
-304,066	98,577	0,049	0,041
-303,051	-69,544	-0,091	0,025
-302,037	-72,131	-0,057	-0,015
-301,022	53,047	0,094	-0,065
-300,008	96,012	0,074	0,061
-298,993	43,249	0,100	-0,066
-297,978	-10,463	0,117	-0,056
-296,964	-200,000	0,002	-0,101
-295,949	-54,568	-0,119	-0,039
-294,935	-200,000	0,030	-0,165
-293,920	-200,000	-0,006	0,088
-292,905	269,883	0,053	0,067
-291,891	800,000	-0,028	0,071
-290,876	-50,774	0,137	0,046
-289,862	221,098	-0,055	0,064
-288,847	639,541	-0,050	-0,092
-287,832	175,414	0,018	0,019
-286,818	-184,857	-0,034	0,000
-285,803	-90,525	0,052	0,011
-284,789	21,907	-0,028	-0,016
-283,774	800,000	-0,010	-0,025
-282,759	-77,088	-0,103	0,026
-281,745	255,322	0,035	0,044
-280,730	-200,000	-0,017	-0,252
-279,716	-76,073	0,034	0,009
-278,701	129,586	0,092	-0,085
-277,686	-103,459	0,051	0,009
-276,672	278,053	-0,120	0,154
-275,657	-200,000	-0,001	-0,038
-274,643	-114,022	0,114	0,016
-273,628	176,558	-0,122	-0,129
-272,613	-18,191	-0,092	0,041
-271,599	-62,990	0,157	-0,047
-270,584	-119,393	0,051	-0,006
-269,570	-2,159	0,019	-0,010
-268,555	-81,176	0,086	0,020
-267,540	-200,000	-0,005	0,022
-266,526	441,228	-0,052	-0,083
-265,511	-50,986	0,136	-0,046
-264,497	-200,000	-0,003	0,009
-263,482	-200,000	0,010	0,100
-262,467	-128,114	0,140	-0,014
-261,453	267,216	-0,059	0,075
-260,438	-86,773	0,104	0,023
-259,424	-51,792	-0,058	-0,019
-258,409	800,000	-0,023	0,071
-257,395	-88,432	-0,114	0,024
-256,380	-40,208	-0,084	0,031
-255,365	221,091	-0,077	0,089
-254,351	8,358	-0,041	-0,022
-253,336	-31,138	0,017	-0,007
-252,322	-200,000	0,005	-0,150
-251,307	599,853	0,107	-0,193
-250,292	-134,704	0,070	-0,006
-249,278	-200,000	0,013	0,061
-248,263	-64,940	0,068	-0,020
-247,249	186,094	-0,048	0,052
-246,234	-200,000	-0,025	-0,082
-245,219	75,012	-0,051	-0,039
-244,205	83,430	0,052	0,041
-243,190	-168,920	0,058	-0,002
-242,176	371,664	0,102	-0,150
-241,161	238,008	-0,036	-0,043
-240,146	800,000	-0,020	-0,043
-239,132	-4,640	0,047	0,023
-238,117	-62,379	-0,018	0,005
-237,103	91,166	-0,078	-0,063
-236,088	-34,521	-0,114	-0,045
-235,073	800,000	-0,034	0,083
-234,059	17,773	0,049	0,028
-233,044	-200,000	0,004	-0,185
-232,030	-55,681	-0,057	0,018
-231,015	-200,000	-0,011	-0,117
-230,000	-11,501	-0,037	-0,017
-228,986	-74,899	0,030	-0,008
-227,971	800,000	-0,065	-0,135
-226,957	179,536	0,021	0,022
-225,942	113,310	0,047	0,041
-224,927	-8,794	0,051	0,024
-223,913	180,898	-0,062	-0,066
-222,898	148,014	-0,040	-0,039
-221,884	-79,158	0,144	-0,035
-220,869	237,135	-0,099	0,119
-219,855	-200,000	0,011	0,081
-218,840	200,109	0,124	0,137
-217,825	-89,860	0,007	-0,002
-216,811	-200,000	-0,014	-0,046
-215,796	8,631	-0,061	-0,033
-214,782	206,827	0,050	0,057
-213,767	-123,011	-0,119	-0,014
-212,752	419,253	-0,012	0,018
-211,738	-4,195	-0,192	0,095
-210,723	-200,000	-0,022	0,095
-209,709	-193,359	-0,026	-0,000
-208,694	800,000	0,013	0,026
-207,679	-151,232	0,131	0,007
-206,665	117,526	0,067	0,060
-205,650	-34,643	0,164	0,065
-204,636	0,461	0,140	-0,072
-203,621	-13,474	-0,105	0,049
-202,606	36,568	0,106	-0,067
-201,592	-73,072	-0,101	-0,026
-200,577	143,717	0,087	0,083
-199,563	800,000	-0,072	0,168
-198,548	125,810	0,048	0,044
-197,533	50,524	0,056	-0,038
-196,519	69,783	0,094	0,070
-195,504	-71,515	-0,039	-0,010
-194,490	28,167	0,097	-0,059
-193,475	-33,123	-0,135	0,054
-192,460	9,568	0,081	-0,044
-191,446	209,770	0,112	-0,127
-190,431	6,105	0,052	-0,028
-189,417	-148,407	-0,233	-0,014
-188,402	-200,000	0,015	0,077
-187,387	94,475	-0,121	-0,099
-186,373	-118,422	-0,200	-0,025
-185,358	663,086	0,078	0,146
-184,344	481,906	0,044	-0,072
-183,329	-200,000	0,021	-0,098
-182,315	-200,000	-0,012	-0,054
-181,300	-158,682	0,076	0,003
-180,285	255,307	-0,011	-0,013
-179,271	31,864	-0,125	0,078
-178,256	-108,205	0,112	0,017
-177,242	234,945	0,076	0,091
-176,227	-200,000	0,013	-0,111
-175,212	-200,000	0,027	0,100
-174,198	108,800	-0,046	0,039
-173,183	179,825	0,078	-0,083
-172,169	-55,204	-0,037	0,012
-171,154	30,484	0,071	0,043
-170,139	800,000	-0,055	0,137
-169,125	-7,823	0,223	0,108
-168,110	-200,000	-0,001	0,043
-167,096	520,156	-0,025	0,042
-166,081	567,103	-0,038	-0,066
-165,066	541,410	-0,026	0,045
-164,052	567,957	0,033	0,058
-163,037	-200,000	-0,004	-0,045
-162,023	800,000	0,026	-0,082
-161,008	724,376	-0,066	-0,128
-159,993	-175,802	0,105	-0,002
-158,979	-200,000	0,002	0,061
-157,964	137,108	0,034	0,032
-156,950	250,154	-0,024	0,029
-155,935	-200,000	-0,004	0,090
-154,920	-50,880	-0,023	-0,008
-153,906	33,011	0,045	-0,028
-152,891	-200,000	-0,032	-0,165
-151,877	520,507	-0,048	-0,081
-150,862	-25,089	0,058	0,025
-149,847	-200,000	-0,005	-0,135
-148,833	670,908	0,026	0,048
-147,818	94,206	-0,019	0,015
-146,804	207,833	0,041	-0,046
-145,789	-200,000	0,017	-0,110
-144,775	-76,113	-0,133	0,033
-143,760	200,990	0,044	0,049
-142,745	-10,601	-0,165	0,078
-141,731	182,065	0,057	-0,061
-140,716	-69,051	0,055	-0,015
-139,702	-106,472	0,110	0,017
-138,687	-200,000	0,032	0,122
-137,672	186,098	0,084	0,089
-136,658	-104,973	0,020	0,003
-135,643	-200,000	0,021	-0,120
-134,629	-130,366	0,070	0,007
-133,614	133,895	0,078	0,072
-132,599	54,697	0,133	0,092
-131,585	-40,072	0,059	-0,022
-130,570	224,984	-0,076	0,089
-129,556	381,162	0,045	-0,066
-128,541	36,880	0,088	-0,056
-127,526	-200,000	0,019	-0,076
-126,512	45,116	-0,055	-0,036
-125,497	170,762	0,100	-0,103
-124,483	-60,703	0,115	0,035
-123,468	-22,735	-0,101	-0,043
-122,453	-51,850	-0,107	0,036
-121,439	-13,072	-0,076	0,035
-120,424	9,754	0,015	0,008
-119,410	-18,688	0,188	0,084
-118,395	212,566	-0,062	0,070
