DTS Sentinel unit serial number:	SN410029Multiplexer serial number:	ORYXHardware model number:	OX2-SRSoftware version number:	ORYX F/W v4,00 Oryx Data Collector v3.7.2.0data status	okinstallation	B6 Nyhavnadifferential loss correction	single-endedforward channel	channel 2reverse channel	N/Adate	2023/12/10time	19:20:08forward acquisition time	300,00reverse acquisition time	0,00gamma	499,1914k internal	0,3122k external	0,3122temperature offset calibration	1,0000default loss term (dB/km)	0,3820temperature slope calibration	1,0000multiplexer offset coefficient	1,0000multiplexer slope coefficient	1,0000fibre end	0,00T internal ref (°C)	22,32T ext. ref 1 (°C)	6,03T ext. ref 2 (°C)	6,03length (m)	temperature (°C)	Stokes	anti-Stokes-744,400	-84,912	0,090	0,021
-743,385	-101,215	-0,264	0,048
-742,371	68,536	0,054	-0,041
-741,356	800,000	-0,048	0,146
-740,342	598,373	-0,026	-0,048
-739,327	8,552	-0,252	0,141
-738,312	-200,000	0,018	-0,103
-737,298	-173,364	-0,321	-0,007
-736,283	524,401	-0,018	0,032
-735,269	-35,484	-0,094	0,038
-734,254	-128,084	0,110	-0,012
-733,239	-135,583	-0,434	0,038
-732,225	-200,000	0,003	-0,101
-731,210	17,717	-0,123	0,073
-730,196	79,527	0,062	-0,049
-729,181	-106,540	-0,204	-0,034
-728,167	-118,296	-0,109	0,014
-727,152	69,916	0,106	0,082
-726,137	-200,000	-0,034	-0,114
-725,123	-132,986	-0,051	-0,005
-724,108	61,259	-0,087	0,065
-723,094	-75,350	-0,083	-0,022
-722,079	412,628	-0,053	0,083
-721,064	545,389	0,075	0,134
-720,050	-78,791	-0,070	0,018
-719,035	-200,000	-0,002	-0,085
-718,021	393,274	0,052	-0,081
-717,006	-200,000	-0,005	-0,106
-715,991	223,140	-0,136	-0,164
-714,977	800,000	-0,028	-0,086
-713,962	-165,292	-0,093	0,003
-712,948	-200,000	0,024	-0,083
-711,933	-200,000	0,048	-0,175
-710,918	-200,000	-0,003	-0,022
-709,904	312,806	-0,092	-0,130
-708,889	300,992	0,077	-0,105
-707,875	67,953	-0,123	-0,094
-706,860	-200,000	-0,001	-0,030
-705,845	800,000	0,021	-0,055
-704,831	316,354	0,175	0,247
-703,816	-38,182	-0,057	0,023
-702,802	30,592	-0,063	-0,040
-701,787	-55,462	-0,122	0,041
-700,772	-127,537	-0,098	0,010
-699,758	-200,000	0,020	-0,101
-698,743	140,345	0,043	-0,043
-697,729	-157,509	0,079	-0,003
-696,714	-42,639	0,190	-0,072
-695,699	800,000	0,013	0,034
-694,685	-42,992	-0,109	0,041
-693,670	800,000	-0,060	-0,125
-692,656	160,349	-0,060	-0,063
-691,641	471,395	0,026	-0,044
-690,627	390,218	-0,078	0,121
-689,612	357,038	-0,039	-0,059
-688,597	-109,883	0,150	-0,023
-687,583	-131,788	-0,084	0,008
-686,568	440,435	-0,025	-0,041
-685,554	-200,000	-0,038	0,139
-684,539	-106,905	0,079	-0,013
-683,524	264,895	-0,048	-0,062
-682,510	-200,000	0,012	-0,097
-681,495	189,492	-0,106	-0,118
-680,481	-200,000	0,012	-0,046
-679,466	800,000	-0,054	-0,128
-678,451	761,430	0,045	-0,091
-677,437	800,000	0,042	-0,095
-676,422	800,000	0,023	0,053
-675,408	93,428	-0,028	0,023
-674,393	-200,000	0,005	-0,060
-673,378	20,742	0,122	-0,073
-672,364	-162,913	-0,214	0,008
-671,349	46,523	0,091	-0,062
-670,335	-26,870	0,073	-0,032
-669,320	297,716	0,067	-0,092
-668,305	-39,553	0,066	-0,025
-667,291	-200,000	0,010	0,073
-666,276	800,000	-0,010	0,025
-665,262	-100,934	-0,057	0,010
-664,247	-101,803	0,116	0,021
-663,232	269,189	-0,024	0,032
-662,218	-54,423	0,130	-0,043
-661,203	800,000	-0,044	-0,115
-660,189	-39,399	-0,134	0,052
-659,174	699,571	0,079	0,156
-658,159	-200,000	-0,010	-0,068
-657,145	366,872	-0,054	-0,081
-656,130	47,085	-0,124	0,085
-655,116	-200,000	-0,008	0,060
-654,101	800,000	-0,033	0,100
-653,086	-200,000	0,003	0,017
-652,072	132,390	-0,090	0,086
-651,057	-200,000	-0,026	-0,103
-650,043	-200,000	-0,002	-0,022
-649,028	-15,916	-0,061	-0,029
-648,014	-84,945	0,036	0,008
-646,999	800,000	0,030	0,071
-645,984	-23,676	-0,015	0,007
-644,970	-151,905	-0,163	0,009
-643,955	-76,019	-0,067	0,018
-642,941	-69,757	-0,125	-0,035
-641,926	153,515	-0,036	0,037
-640,911	731,138	0,067	0,135
-639,897	-36,720	0,039	-0,015
-638,882	13,915	0,113	0,065
-637,868	351,786	-0,007	0,010
-636,853	-200,000	0,032	-0,143
-635,838	-118,428	-0,075	-0,010
-634,824	755,640	0,022	0,045
-633,809	-191,671	0,133	-0,001
-632,795	388,720	-0,041	-0,064
-631,780	197,157	0,116	0,131
-630,765	21,087	0,042	-0,025
-629,751	88,660	-0,046	-0,038
-628,736	800,000	-0,042	0,100
-627,722	-89,924	-0,164	0,035
-626,707	526,336	-0,014	-0,025
-625,692	77,222	0,121	0,096
-624,678	170,332	-0,088	0,093
-623,663	800,000	0,021	0,044
-622,649	-200,000	-0,011	-0,085
-621,634	69,657	-0,054	-0,041
-620,619	-200,000	-0,014	-0,199
-619,605	-200,000	0,006	0,079
-618,590	-60,494	0,047	0,015
-617,576	-100,116	-0,107	-0,020
-616,561	800,000	0,019	-0,046
-615,546	-200,000	-0,007	-0,039
-614,532	-107,146	-0,030	-0,005
-613,517	-149,719	-0,055	0,003
-612,503	-144,050	-0,064	0,004
-611,488	-200,000	-0,005	0,021
-610,474	800,000	-0,048	0,116
-609,459	-92,219	0,021	-0,004
-608,444	238,393	0,075	-0,092
-607,430	-200,000	0,001	-0,115
-606,415	800,000	-0,045	-0,113
-605,401	-200,000	-0,022	-0,139
-604,386	-108,233	0,054	0,009
-603,371	453,556	-0,014	-0,023
-602,357	550,047	0,022	0,040
-601,342	72,156	-0,087	-0,067
-600,328	503,615	-0,084	-0,145
-599,313	800,000	-0,047	0,110
-598,298	144,118	0,091	0,090
-597,284	-60,841	0,026	-0,008
-596,269	-109,024	-0,059	0,009
-595,255	83,326	0,041	-0,033
-594,240	43,231	-0,057	0,039
-593,225	800,000	0,029	-0,071
-592,211	8,287	0,099	-0,055
-591,196	148,676	-0,031	-0,031
-590,182	-84,486	0,058	-0,014
-589,167	284,389	0,079	0,106
-588,152	166,087	-0,063	0,066
-587,138	-15,787	0,008	-0,004
-586,123	-200,000	-0,026	-0,104
-585,109	749,289	-0,060	-0,121
-584,094	41,500	-0,061	-0,041
-583,079	74,765	-0,027	0,021
-582,065	-200,000	0,005	-0,038
-581,050	413,414	-0,011	0,018
-580,036	-87,378	-0,046	0,010
-579,021	800,000	-0,006	0,016
-578,006	350,691	0,023	-0,034
-576,992	-200,000	0,005	0,020
-575,977	225,238	-0,101	0,121
-574,963	-200,000	-0,036	0,174
-573,948	133,713	0,107	0,103
-572,934	-1,320	0,071	-0,037
-571,919	97,496	-0,130	0,111
-570,904	130,228	-0,064	-0,061
-569,890	-200,000	-0,007	-0,077
-568,875	-200,000	-0,003	-0,014
-567,861	-97,303	0,040	-0,008
-566,846	-63,479	0,241	0,073
-565,831	177,005	0,080	0,086
-564,817	800,000	0,034	0,095
-563,802	-98,549	-0,286	-0,054
-562,788	70,858	0,053	0,041
-561,773	-48,194	-0,099	-0,035
-560,758	158,183	0,024	-0,024
-559,744	-74,094	-0,091	0,024
-558,729	-80,702	-0,190	0,046
-557,715	137,713	0,055	-0,053
-556,700	-200,000	-0,011	0,102
-555,685	800,000	-0,051	-0,161
-554,671	222,002	-0,067	0,080
-553,656	86,208	-0,032	-0,026
-552,642	-46,220	-0,053	0,019
-551,627	311,147	-0,018	-0,025
-550,612	-200,000	-0,011	0,046
-549,598	118,753	-0,088	-0,081
-548,583	26,638	-0,126	-0,078
-547,569	212,103	-0,050	0,058
-546,554	-64,389	0,220	0,066
-545,539	-200,000	0,001	0,093
-544,525	-200,000	-0,044	0,189
-543,510	-127,463	-0,109	0,012
-542,496	-200,000	-0,018	-0,114
-541,481	-112,521	0,031	-0,004
-540,466	800,000	0,062	0,141
-539,452	-33,556	-0,135	-0,055
-538,437	-84,738	0,071	0,016
-537,423	-200,000	0,023	0,099
-536,408	-52,279	-0,074	-0,025
-535,393	0,716	0,045	-0,024
-534,379	313,015	-0,047	-0,065
-533,364	-200,000	-0,006	0,058
-532,350	-141,074	0,150	-0,011
-531,335	235,005	-0,075	0,092
-530,321	773,434	0,087	-0,176
-529,306	722,810	-0,037	-0,074
-528,291	161,540	-0,033	0,035
-527,277	-200,000	0,023	-0,095
-526,262	227,041	-0,099	-0,119
-525,248	-200,000	0,011	0,042
-524,233	247,722	-0,050	-0,062
-523,218	800,000	-0,069	-0,175
-522,204	99,044	0,151	-0,129
-521,189	13,254	0,130	-0,074
-520,175	-200,000	-0,007	0,042
-519,160	-113,811	0,148	-0,021
-518,145	9,892	0,190	-0,106
-517,131	136,872	0,132	0,127
-516,116	-88,188	0,067	0,015
-515,102	-200,000	0,023	0,153
-514,087	76,235	-0,015	0,012
-513,072	11,871	-0,116	0,066
-512,058	-200,000	0,013	0,064
-511,043	62,273	-0,107	-0,079
-510,029	-200,000	0,012	0,135
-509,014	-200,000	-0,009	0,071
-507,999	-42,496	-0,042	0,016
-506,985	800,000	0,016	0,035
-505,970	-84,846	0,039	-0,009
-504,956	549,422	-0,045	-0,079
-503,941	-103,594	0,036	-0,006
-502,926	-96,953	0,058	0,011
-501,912	226,158	0,078	0,094
-500,897	748,901	-0,037	-0,073
-499,883	34,761	-0,084	0,054
-498,868	-130,535	0,069	-0,007
-497,853	800,000	0,012	-0,033
-496,839	-147,793	0,097	0,006
-495,824	-39,846	-0,159	0,061
-494,810	244,596	0,117	-0,146
-493,795	800,000	0,021	0,060
-492,781	-200,000	0,003	0,035
-491,766	-146,794	-0,063	-0,004
-490,751	-33,275	-0,137	-0,056
-489,737	-115,191	0,156	0,022
-488,722	-42,754	-0,080	0,030
-487,708	149,325	-0,075	0,075
-486,693	136,083	0,101	-0,098
-485,678	6,416	0,027	0,015
-484,664	69,395	-0,020	0,015
-483,649	-200,000	0,012	-0,060
-482,635	94,332	-0,144	0,121
-481,620	-200,000	0,020	0,070
-480,605	28,795	0,116	0,073
-479,591	-168,155	0,096	-0,003
-478,576	-200,000	0,009	0,037
-477,562	65,039	0,073	0,055
-476,547	-200,000	-0,003	0,011
-475,532	110,400	-0,041	-0,037
-474,518	800,000	-0,055	-0,125
-473,503	800,000	0,127	-0,260
-472,489	626,995	-0,061	0,114
-471,474	-200,000	-0,011	0,047
-470,459	604,012	-0,006	-0,011
-469,445	-31,095	-0,047	-0,019
-468,430	-49,625	-0,053	-0,019
-467,416	-168,191	0,082	0,002
-466,401	20,703	0,174	0,104
-465,386	800,000	0,035	0,076
-464,372	-134,611	-0,098	0,009
-463,357	492,505	-0,046	0,079
-462,343	21,599	-0,066	-0,040
-461,328	169,383	-0,092	0,097
-460,313	96,942	-0,040	0,034
-459,299	800,000	0,055	0,141
-458,284	-200,000	0,002	0,026
-457,270	123,150	-0,103	0,096
-456,255	-200,000	-0,022	0,153
-455,241	-86,857	-0,081	-0,018
-454,226	477,717	-0,035	-0,059
-453,211	-200,000	0,010	-0,105
-452,197	185,214	-0,120	-0,131
-451,182	291,982	0,024	0,033
-450,168	197,381	0,123	0,139
-449,153	-71,772	-0,046	-0,013
-448,138	-85,371	-0,069	-0,016
-447,124	-200,000	0,028	-0,094
-446,109	800,000	0,026	0,079
-445,095	356,228	0,017	-0,025
-444,080	-200,000	0,013	-0,132
-443,065	-73,022	0,039	-0,010
-442,051	800,000	-0,014	0,030
-441,036	142,815	-0,109	-0,107
-440,022	179,775	0,036	0,039
-439,007	-200,000	0,011	0,070
-437,992	800,000	0,008	0,022
-436,978	225,331	-0,036	0,043
-435,963	-88,454	0,232	-0,051
-434,949	74,166	-0,090	0,070
-433,934	-200,000	0,001	0,133
-432,919	-200,000	-0,005	0,126
-431,905	379,517	-0,040	-0,061
-430,890	-55,574	0,035	-0,012
-429,876	-155,033	0,127	0,006
-428,861	59,715	-0,032	0,023
-427,846	28,184	-0,124	-0,077
-426,832	-200,000	0,033	0,125
-425,817	800,000	0,008	-0,018
-424,803	800,000	0,024	-0,071
-423,788	-116,970	-0,026	-0,003
-422,773	-200,000	0,019	0,107
-421,759	27,898	-0,031	-0,019
-420,744	158,068	-0,053	-0,055
-419,730	-65,975	-0,060	-0,018
-418,715	800,000	-0,057	-0,126
-417,701	267,751	0,101	-0,131
-416,686	800,000	0,036	-0,086
-415,671	-200,000	-0,002	0,064
-414,657	800,000	-0,047	0,116
-413,642	-120,783	-0,129	-0,016
-412,628	43,088	-0,050	-0,033
-411,613	131,288	0,050	-0,048
-410,598	235,501	-0,024	-0,029
-409,584	150,846	0,020	0,020
-408,569	10,620	0,044	0,025
-407,555	-146,551	-0,034	0,002
-406,540	-38,058	-0,066	0,026
-405,525	6,209	0,081	0,044
-404,511	207,561	-0,064	-0,074
-403,496	-35,663	0,054	0,021
-402,482	113,390	0,074	0,066
-401,467	-137,301	0,146	-0,012
-400,452	85,016	0,036	-0,029
-399,438	-124,958	0,130	0,015
-398,423	-36,836	-0,089	0,035
-397,409	-167,299	-0,047	0,001
-396,394	237,540	-0,140	-0,172
-395,379	800,000	0,047	-0,099
-394,365	-37,839	0,040	0,015
-393,350	-200,000	-0,011	-0,168
-392,336	23,240	0,061	0,037
-391,321	33,986	-0,054	-0,034
-390,306	-200,000	0,029	-0,116
-389,292	-134,918	-0,079	-0,007
-388,277	800,000	-0,052	-0,118
-387,263	39,904	0,068	-0,045
-386,248	-117,759	0,123	-0,016
-385,233	-200,000	-0,024	0,090
-384,219	800,000	-0,021	-0,051
-383,204	-200,000	0,029	0,121
-382,190	57,549	0,073	-0,052
-381,175	199,061	-0,038	0,043
-380,160	-200,000	0,014	0,109
-379,146	536,969	-0,081	0,142
-378,131	-200,000	-0,001	0,096
-377,117	174,997	0,134	0,143
-376,102	104,738	-0,126	-0,109
-375,088	-200,000	0,009	-0,049
-374,073	18,759	-0,063	-0,037
-373,058	-200,000	-0,016	0,079
-372,044	-66,636	0,172	-0,050
-371,029	800,000	0,044	0,130
-370,015	-200,000	-0,005	-0,067
-369,000	-200,000	-0,008	-0,100
-367,985	-66,434	-0,096	-0,028
-366,971	-10,742	-0,057	0,028
-365,956	-200,000	0,027	-0,169
-364,942	-168,986	0,073	-0,002
-363,927	-200,000	0,016	0,120
-362,912	214,161	-0,080	-0,093
-361,898	-34,039	0,085	0,034
-360,883	-142,643	-0,035	0,002
-359,869	-200,000	-0,027	-0,162
-358,854	-133,518	0,053	0,005
-357,839	-12,619	0,062	-0,030
-356,825	522,293	0,053	-0,092
-355,810	-200,000	0,028	0,239
-354,796	-119,554	0,047	-0,006
-353,781	659,157	0,091	-0,173
-352,766	37,635	0,072	-0,047
-351,752	-200,000	0,020	0,216
-350,737	112,158	0,131	0,116
-349,723	800,000	-0,037	-0,081
-348,708	108,720	-0,075	0,066
-347,693	-121,467	-0,076	-0,009
-346,679	-76,086	-0,108	0,028
-345,664	800,000	-0,011	-0,034
-344,650	-200,000	-0,002	-0,135
-343,635	-95,501	0,124	0,024
-342,620	800,000	0,054	-0,125
-341,606	-172,260	0,076	0,002
-340,591	513,167	0,076	-0,130
-339,577	26,526	-0,047	-0,029
-338,562	-200,000	0,035	-0,126
-337,548	134,496	-0,069	-0,065
-336,533	-28,965	0,020	-0,008
-335,518	149,262	0,081	0,081
-334,504	-72,848	0,046	-0,012
-333,489	800,000	-0,071	0,147
-332,475	33,011	0,079	0,050
-331,460	800,000	0,013	0,041
-330,445	-74,164	-0,112	0,030
-329,431	603,377	-0,039	0,071
-328,416	-123,943	0,191	0,022
-327,402	-99,586	-0,052	-0,009
-326,387	33,106	0,165	0,105
-325,372	527,382	-0,049	-0,084
-324,358	-200,000	0,013	-0,060
-323,343	174,594	0,019	-0,020
-322,329	-42,080	-0,084	-0,031
-321,314	66,102	0,042	-0,031
-320,299	-175,224	0,121	-0,002
-319,285	-200,000	0,027	0,137
-318,270	50,938	-0,078	-0,054
-317,256	283,399	-0,040	0,052
-316,241	211,221	-0,139	0,160
-315,226	25,697	0,024	0,015
-314,212	131,941	0,142	0,135
-313,197	511,304	0,081	-0,139
-312,183	-7,660	-0,192	0,095
-311,168	89,049	-0,094	0,077
-310,153	-52,137	0,064	0,022
-309,139	21,110	-0,011	-0,007
-308,124	-20,862	0,089	0,040
-307,110	-63,558	0,110	-0,033
-306,095	221,019	-0,013	-0,015
-305,080	183,089	0,065	-0,070
-304,066	-200,000	0,024	-0,092
-303,051	800,000	-0,024	0,052
-302,037	491,032	-0,064	-0,108
-301,022	187,528	-0,029	-0,032
-300,008	82,515	0,096	-0,076
-298,993	-151,105	0,101	-0,005
-297,978	-124,126	0,045	0,005
-296,964	65,230	-0,038	-0,028
-295,949	-200,000	-0,008	-0,058
-294,935	393,386	-0,069	-0,106
-293,920	-75,570	-0,049	-0,013
-292,905	60,621	0,148	0,107
-291,891	111,208	0,043	0,038
-290,876	-200,000	-0,018	0,094
-289,862	111,159	0,061	-0,054
-288,847	260,314	-0,024	-0,030
-287,832	-21,375	-0,047	-0,021
-286,818	-99,739	-0,055	-0,010
-285,803	18,453	0,130	-0,076
-284,789	69,558	0,030	-0,023
-283,774	-13,190	0,102	0,048
-282,759	353,873	-0,065	-0,095
-281,745	163,586	-0,025	0,026
-280,730	-89,280	-0,113	0,024
-279,716	106,300	0,046	0,040
-278,701	-200,000	-0,012	0,075
-277,686	34,647	-0,025	-0,016
-276,672	-62,638	0,054	-0,016
-275,657	-171,239	0,077	-0,002
-274,643	800,000	0,036	-0,106
-273,628	-200,000	0,022	-0,127
-272,613	-200,000	0,016	-0,104
-271,599	-6,575	0,102	-0,051
-270,584	39,941	-0,030	0,020
-269,570	-200,000	-0,001	0,222
-268,555	-69,448	-0,105	-0,029
-267,540	800,000	0,035	0,076
-266,526	800,000	0,020	0,047
-265,511	-193,500	-0,101	0,001
-264,497	261,153	-0,023	0,029
-263,482	-104,732	-0,012	-0,002
-262,467	-97,193	0,155	-0,029
-261,453	-114,389	-0,199	-0,028
-260,438	-200,000	-0,005	-0,090
-259,424	-13,299	-0,086	0,041
-258,409	-43,794	-0,082	-0,030
-257,395	-124,503	0,067	0,008
-256,380	51,522	0,098	0,068
-255,365	-200,000	0,020	0,083
-254,351	800,000	-0,006	0,020
-253,336	375,313	-0,036	-0,053
-252,322	-60,725	-0,054	-0,017
-251,307	160,702	-0,102	-0,105
-250,292	-106,659	0,083	0,013
-249,278	-114,210	-0,023	-0,003
-248,263	37,671	0,091	-0,059
-247,249	800,000	-0,019	0,050
-246,234	-200,000	0,027	-0,089
-245,219	-46,268	0,011	0,004
-244,205	66,232	-0,121	-0,089
-243,190	-160,344	0,023	-0,001
-242,176	64,880	-0,076	0,056
-241,161	-200,000	-0,012	-0,148
-240,146	48,735	0,046	0,032
-239,132	-185,817	0,094	-0,001
-238,117	-105,211	-0,075	0,012
-237,103	517,346	0,075	-0,128
-236,088	-200,000	-0,005	-0,079
-235,073	800,000	0,078	0,232
-234,059	430,302	0,048	0,077
-233,044	128,216	-0,058	-0,054
-232,030	254,028	0,107	-0,134
-231,015	-114,955	-0,090	0,012
-230,000	800,000	-0,040	-0,114
-228,986	-200,000	-0,015	0,077
-227,971	97,140	0,096	0,081
-226,957	-61,293	0,170	0,052
-225,942	-26,483	-0,033	-0,014
-224,927	-200,000	0,021	-0,171
-223,913	-144,387	-0,102	0,007
-222,898	24,514	-0,060	0,036
-221,884	-30,783	0,018	-0,008
-220,869	800,000	0,041	0,122
-219,855	-200,000	-0,030	0,112
-218,840	-27,872	0,115	0,048
-217,825	204,358	-0,064	-0,073
-216,811	-68,555	-0,059	0,017
-215,796	-200,000	-0,149	0,000
-214,782	-200,000	0,003	0,186
-213,767	7,049	0,125	0,068
-212,752	586,510	0,041	0,074
-211,738	101,371	-0,016	0,014
-210,723	-200,000	0,004	-0,062
-209,709	-91,776	0,043	-0,009
-208,694	-200,000	0,023	-0,094
-207,679	701,373	-0,096	-0,185
-206,665	800,000	0,031	0,080
-205,650	-161,948	0,141	0,005
-204,636	203,822	0,100	-0,114
-203,621	13,457	0,068	-0,039
-202,606	287,210	-0,102	0,135
-201,592	-200,000	-0,015	-0,070
-200,577	57,394	0,107	-0,076
-199,563	-97,556	0,051	-0,009
-198,548	-54,980	0,138	0,045
-197,533	-12,348	0,086	0,041
-196,519	-40,398	-0,095	0,036
-195,504	-14,429	0,132	0,062
-194,490	463,251	-0,031	-0,051
-193,475	-200,000	-0,013	0,048
-192,460	800,000	-0,051	-0,111
-191,446	267,353	-0,039	-0,050
-190,431	-200,000	0,006	0,024
-189,417	-27,231	-0,087	-0,037
-188,402	478,301	-0,041	0,068
-187,387	800,000	-0,041	-0,098
-186,373	-135,501	-0,142	0,012
-185,358	-200,000	-0,018	0,099
-184,344	-200,000	-0,005	0,104
-183,329	28,717	0,016	0,010
-182,315	800,000	-0,052	-0,133
-181,300	-154,167	-0,094	0,005
-180,285	181,175	-0,092	-0,099
-179,271	110,769	-0,102	-0,090
-178,256	22,167	-0,036	-0,022
-177,242	-200,000	0,017	-0,056
-176,227	153,535	-0,039	-0,039
-175,212	-200,000	-0,032	0,177
-174,198	-200,000	-0,011	0,052
-173,183	800,000	-0,052	0,112
-172,169	-151,634	0,121	-0,006
-171,154	53,007	-0,104	0,073
-170,139	-145,032	-0,064	0,004
-169,125	10,292	0,048	-0,026
-168,110	-156,713	0,121	0,005
-167,096	800,000	0,062	0,190
-166,081	-200,000	-0,001	-0,007
-165,066	328,386	-0,100	-0,141
-164,052	-178,226	-0,108	0,002
-163,037	800,000	0,061	0,137
-162,023	189,686	0,084	-0,092
-161,008	-200,000	0,002	-0,011
-159,993	-200,000	0,005	0,090
-158,979	125,293	0,115	-0,106
-157,964	-52,097	-0,015	-0,005
-156,950	14,522	-0,096	-0,054
-155,935	-200,000	-0,005	0,129
-154,920	93,786	-0,070	-0,058
-153,906	-160,240	-0,082	-0,003
-152,891	800,000	-0,017	-0,043
-151,877	-105,042	-0,116	0,019
-150,862	-98,929	-0,024	0,004
-149,847	-200,000	0,014	-0,060
-148,833	540,378	0,078	0,136
-147,818	-96,662	-0,056	0,011
-146,804	-92,030	0,032	-0,006
-145,789	149,864	-0,088	0,087
-144,775	163,103	-0,067	0,069
-143,760	-200,000	-0,028	-0,145
-142,745	30,234	-0,117	0,072
-141,731	-200,000	0,021	0,076
-140,716	800,000	0,051	-0,111
-139,702	-82,720	0,184	0,043
-138,687	-200,000	-0,019	0,141
-137,672	291,709	0,090	0,119
-136,658	-200,000	0,001	-0,003
-135,643	384,182	-0,052	-0,078
-134,629	258,798	-0,086	0,109
-133,614	635,068	-0,010	-0,019
-132,599	800,000	0,052	-0,139
-131,585	-40,910	-0,047	-0,018
-130,570	-170,023	-0,111	0,003
-129,556	27,552	-0,058	-0,036
-128,541	-41,202	-0,083	-0,031
-127,526	-130,450	-0,042	-0,004
-126,512	652,318	0,040	-0,075
-125,497	-17,223	0,059	0,027
-124,483	-200,000	-0,015	0,079
-123,468	800,000	0,019	-0,057
-122,453	-118,644	0,044	0,006
-121,439	285,744	-0,035	0,046
-120,424	800,000	-0,041	0,123
