DTS Sentinel unit serial number:	SN410029Multiplexer serial number:	ORYXHardware model number:	OX2-SRSoftware version number:	ORYX F/W v4,00 Oryx Data Collector v3.7.2.0data status	okinstallation	B6 Nyhavnadifferential loss correction	single-endedforward channel	channel 2reverse channel	N/Adate	2023/12/08time	03:05:08forward acquisition time	300,00reverse acquisition time	0,00gamma	499,1914k internal	0,3165k external	0,3165temperature offset calibration	1,0000default loss term (dB/km)	0,3820temperature slope calibration	1,0000multiplexer offset coefficient	1,0000multiplexer slope coefficient	1,0000fibre end	0,00T internal ref (°C)	13,13T ext. ref 1 (°C)	-3,73T ext. ref 2 (°C)	-3,72length (m)	temperature (°C)	Stokes	anti-Stokes-744,400	-199,709	0,082	-0,000
-743,385	-3,350	-0,170	-0,087
-742,371	-128,237	0,101	-0,010
-741,356	-116,170	-0,325	0,044
-740,342	-37,983	0,209	0,081
-739,327	-40,487	-0,460	-0,175
-738,312	140,381	0,095	0,092
-737,298	-143,188	-0,386	-0,027
-736,283	-200,000	0,021	0,073
-735,269	-138,399	-0,271	-0,022
-734,254	-200,000	-0,010	0,155
-733,239	-69,699	-0,414	-0,115
-732,225	25,975	0,256	0,156
-731,210	-200,000	-0,011	0,127
-730,196	-200,000	0,009	-0,066
-729,181	-106,066	-0,084	0,014
-728,167	286,598	-0,014	0,018
-727,152	8,469	-0,037	-0,020
-726,137	-59,890	-0,113	0,035
-725,123	106,547	0,020	0,018
-724,108	-47,784	-0,180	-0,064
-723,094	-200,000	0,016	-0,114
-722,079	337,495	-0,015	0,022
-721,064	-37,808	-0,168	0,065
-720,050	111,949	0,046	-0,041
-719,035	-143,971	0,102	-0,007
-718,021	258,637	-0,012	0,016
-717,006	800,000	-0,035	-0,089
-715,991	-200,000	0,018	-0,093
-714,977	-85,131	-0,280	-0,064
-713,962	-80,155	0,101	0,025
-712,948	-32,935	-0,028	0,012
-711,933	268,808	0,033	-0,043
-710,918	321,807	-0,043	-0,061
-709,904	-200,000	-0,010	-0,094
-708,889	228,118	-0,101	-0,122
-707,875	-200,000	-0,002	-0,143
-706,860	-126,823	-0,057	-0,006
-705,845	-64,914	-0,076	0,022
-704,831	-200,000	0,012	0,114
-703,816	357,789	-0,025	-0,037
-702,802	-78,040	0,161	0,040
-701,787	-102,357	-0,026	-0,005
-700,772	-200,000	0,005	-0,158
-699,758	350,059	0,008	0,011
-698,743	731,109	0,074	0,147
-697,729	800,000	-0,017	-0,047
-696,714	-200,000	-0,007	-0,030
-695,699	135,996	-0,053	0,051
-694,685	-2,594	-0,103	-0,053
-693,670	800,000	0,032	-0,076
-692,656	551,382	0,042	-0,074
-691,641	800,000	-0,075	0,187
-690,627	-200,000	-0,004	0,014
-689,612	304,410	-0,102	-0,139
-688,597	800,000	-0,057	-0,118
-687,583	-51,248	-0,141	-0,048
-686,568	-200,000	-0,009	-0,070
-685,554	308,815	-0,060	-0,083
-684,539	-147,476	0,101	0,006
-683,524	-200,000	-0,004	-0,031
-682,510	-200,000	-0,020	-0,087
-681,495	9,937	0,053	-0,030
-680,481	187,477	-0,014	-0,015
-679,466	147,625	0,108	-0,107
-678,451	-43,482	-0,035	0,013
-677,437	37,633	0,118	-0,077
-676,422	10,853	-0,029	-0,016
-675,408	122,039	-0,062	0,057
-674,393	-2,113	-0,022	0,011
-673,378	800,000	-0,029	-0,069
-672,364	280,303	0,080	-0,105
-671,349	-200,000	-0,028	0,149
-670,335	-98,663	-0,090	0,017
-669,320	305,908	0,049	-0,068
-668,305	51,716	0,015	-0,011
-667,291	-200,000	-0,006	-0,072
-666,276	104,001	-0,061	-0,052
-665,262	-127,665	-0,060	-0,006
-664,247	-16,889	-0,158	0,073
-663,232	56,252	0,119	-0,085
-662,218	47,519	-0,110	-0,075
-661,203	13,139	0,064	-0,036
-660,189	220,498	-0,056	0,066
-659,174	209,930	-0,048	0,056
-658,159	38,792	-0,159	-0,104
-657,145	-57,535	-0,129	-0,041
-656,130	800,000	-0,006	-0,018
-655,116	-108,321	-0,088	0,014
-654,101	145,397	0,067	0,066
-653,086	-200,000	0,006	0,031
-652,072	273,268	-0,043	0,055
-651,057	157,496	-0,065	-0,066
-650,043	216,752	-0,045	-0,053
-649,028	-126,720	-0,096	-0,010
-648,014	155,849	-0,038	0,038
-646,999	37,661	-0,068	-0,044
-645,984	-200,000	0,005	-0,050
-644,970	591,333	0,024	-0,043
-643,955	-34,471	-0,114	-0,045
-642,941	-200,000	-0,024	-0,081
-641,926	-98,712	-0,021	0,004
-640,911	59,737	0,057	0,041
-639,897	-200,000	-0,024	-0,084
-638,882	800,000	-0,012	0,029
-637,868	37,651	0,146	-0,095
-636,853	-107,061	-0,039	0,006
-635,838	73,511	-0,068	0,052
-634,824	800,000	-0,016	-0,043
-633,809	-200,000	-0,003	-0,058
-632,795	8,851	0,077	0,042
-631,780	321,679	0,073	0,101
-630,765	40,826	0,049	-0,033
-629,751	57,428	-0,071	-0,051
-628,736	-51,066	0,027	0,009
-627,722	800,000	-0,028	0,065
-626,707	-200,000	-0,027	-0,089
-625,692	-200,000	0,000	0,077
-624,678	383,085	-0,041	-0,061
-623,663	3,241	0,110	-0,058
-622,649	800,000	-0,002	0,005
-621,634	63,965	-0,037	-0,028
-620,619	44,579	-0,109	-0,074
-619,605	800,000	0,048	-0,117
-618,590	-30,207	0,003	0,001
-617,576	-200,000	0,017	0,087
-616,561	-200,000	0,014	0,059
-615,546	-66,583	-0,138	0,040
-614,532	50,059	-0,092	0,063
-613,517	477,627	-0,045	0,076
-612,503	-200,000	-0,015	-0,056
-611,488	-84,993	0,095	0,022
-610,474	220,365	0,078	-0,092
-609,459	-200,000	-0,026	-0,136
-608,444	-113,773	-0,114	-0,016
-607,430	755,548	-0,031	0,062
-606,415	-200,000	0,057	-0,218
-605,401	-200,000	-0,001	-0,009
-604,386	800,000	-0,043	0,096
-603,371	-185,957	0,043	-0,000
-602,357	-10,981	-0,149	0,072
-601,342	-200,000	0,019	0,150
-600,328	-166,282	-0,171	-0,005
-599,313	-9,038	-0,114	-0,056
-598,298	212,647	0,032	-0,037
-597,284	0,787	0,101	-0,053
-596,269	-139,341	-0,060	0,005
-595,255	-25,428	0,040	0,017
-594,240	-45,303	-0,061	0,022
-593,225	340,695	0,078	0,111
-592,211	-138,159	0,069	-0,005
-591,196	-59,879	-0,145	0,045
-590,182	-200,000	0,009	0,066
-589,167	26,920	-0,089	0,054
-588,152	-200,000	-0,016	0,073
-587,138	43,626	-0,086	-0,057
-586,123	786,633	0,025	-0,051
-585,109	800,000	-0,023	0,063
-584,094	50,644	0,038	0,026
-583,079	-200,000	-0,014	-0,166
-582,065	-200,000	-0,030	0,132
-581,050	645,085	0,045	0,085
-580,036	148,935	-0,056	-0,055
-579,021	142,647	0,052	-0,051
-578,006	-15,699	-0,178	-0,083
-576,992	23,379	-0,041	-0,025
-575,977	800,000	-0,047	0,117
-574,963	229,735	-0,028	-0,033
-573,948	-95,719	-0,078	0,015
-572,934	800,000	0,007	0,017
-571,919	52,491	0,029	-0,020
-570,904	59,390	-0,020	-0,014
-569,890	164,331	0,145	-0,150
-568,875	-42,662	0,180	-0,067
-567,861	-200,000	-0,023	0,076
-566,846	6,884	-0,025	0,013
-565,831	333,396	-0,066	-0,093
-564,817	691,764	-0,039	-0,075
-563,802	-49,877	-0,059	-0,020
-562,788	26,003	-0,046	-0,028
-561,773	33,142	-0,150	-0,095
-560,758	117,824	0,036	-0,033
-559,744	429,243	-0,016	-0,026
-558,729	222,153	-0,211	-0,248
-557,715	54,552	0,035	0,025
-556,700	800,000	0,040	-0,081
-555,685	-200,000	0,032	-0,116
-554,671	-200,000	0,034	-0,138
-553,656	800,000	0,035	0,098
-552,642	646,507	-0,054	0,101
-551,627	562,429	-0,015	0,026
-550,612	169,477	-0,094	-0,099
-549,598	-89,435	-0,084	-0,018
-548,583	236,973	0,059	-0,071
-547,569	479,173	-0,035	0,058
-546,554	-0,676	-0,090	0,046
-545,539	-119,627	0,155	0,019
-544,525	73,861	0,095	0,072
-543,510	800,000	0,023	0,055
-542,496	-10,917	-0,155	-0,074
-541,481	-165,780	0,039	0,001
-540,466	800,000	-0,039	0,124
-539,452	-12,002	-0,039	0,018
-538,437	204,786	0,063	-0,072
-537,423	203,796	-0,069	0,078
-536,408	329,909	-0,012	-0,017
-535,393	629,807	-0,056	-0,104
-534,379	800,000	-0,022	-0,067
-533,364	5,428	-0,112	-0,060
-532,350	273,215	0,062	-0,080
-531,335	95,102	0,168	0,140
-530,321	82,949	-0,106	0,084
-529,306	-200,000	0,008	-0,034
-528,291	-142,412	0,016	-0,001
-527,277	171,805	-0,137	0,143
-526,262	800,000	0,025	-0,077
-525,248	215,383	-0,059	0,068
-524,233	172,958	0,106	0,112
-523,218	-200,000	0,004	-0,109
-522,204	-140,724	-0,129	0,010
-521,189	-200,000	0,002	-0,053
-520,175	-13,213	0,095	-0,045
-519,160	355,268	-0,020	0,029
-518,145	477,294	-0,076	0,126
-517,131	800,000	-0,058	0,122
-516,116	68,329	-0,057	0,042
-515,102	-100,913	0,167	-0,030
-514,087	83,896	-0,070	-0,056
-513,072	-200,000	-0,011	-0,059
-512,058	-22,368	-0,068	-0,030
-511,043	353,871	-0,031	-0,045
-510,029	204,459	0,065	0,073
-509,014	-200,000	0,010	-0,074
-507,999	9,392	0,053	-0,029
-506,985	-44,089	0,028	-0,010
-505,970	-200,000	0,033	-0,113
-504,956	-15,166	-0,089	-0,041
-503,941	699,895	0,017	-0,033
-502,926	85,127	-0,045	0,036
-501,912	-200,000	0,016	-0,067
-500,897	-106,283	-0,046	0,007
-499,883	-119,069	-0,164	-0,021
-498,868	269,308	-0,022	-0,028
-497,853	64,341	-0,051	-0,038
-496,839	-186,673	0,057	0,001
-495,824	-82,620	0,051	0,012
-494,810	626,850	0,023	0,042
-493,795	-129,997	-0,033	0,003
-492,781	-95,810	0,081	0,016
-491,766	-112,093	-0,097	-0,014
-490,751	-147,269	0,081	-0,005
-489,737	303,542	-0,035	0,047
-488,722	-200,000	0,020	0,099
-487,708	112,356	0,132	0,116
-486,693	190,667	0,114	-0,125
-485,678	78,580	0,052	-0,041
-484,664	-200,000	-0,020	-0,150
-483,649	-200,000	-0,002	-0,140
-482,635	-200,000	-0,007	0,039
-481,620	110,458	-0,082	-0,072
-480,605	-200,000	-0,024	-0,093
-479,591	-200,000	0,040	0,226
-478,576	-200,000	0,020	0,093
-477,562	-23,186	0,173	-0,075
-476,547	-141,894	-0,224	-0,016
-475,532	110,419	-0,037	0,033
-474,518	-12,701	0,127	0,060
-473,503	302,123	0,033	0,044
-472,489	-200,000	0,022	0,074
-471,474	286,221	0,120	-0,158
-470,459	-200,000	0,003	-0,074
-469,445	142,959	-0,096	0,093
-468,430	-200,000	0,041	-0,152
-467,416	800,000	0,043	-0,109
-466,401	336,818	0,033	-0,047
-465,386	-200,000	0,010	0,157
-464,372	-117,747	0,097	0,013
-463,357	98,749	0,025	-0,021
-462,343	-37,474	0,059	-0,023
-461,328	84,853	-0,117	-0,093
-460,313	800,000	-0,039	-0,112
-459,299	-200,000	0,012	0,059
-458,284	168,795	-0,056	0,058
-457,270	-200,000	-0,025	0,087
-456,255	76,523	-0,157	0,121
-455,241	-115,262	0,071	0,010
-454,226	-200,000	0,041	0,155
-453,211	-48,326	-0,079	-0,027
-452,197	-127,248	0,039	0,004
-451,182	-200,000	-0,026	0,166
-450,168	471,026	-0,087	-0,142
-449,153	800,000	-0,070	-0,154
-448,138	-24,959	-0,015	-0,006
-447,124	-200,000	-0,004	0,084
-446,109	-26,902	-0,010	0,004
-445,095	27,356	0,038	-0,023
-444,080	294,006	-0,089	0,118
-443,065	21,134	-0,076	0,045
-442,051	-200,000	0,014	-0,188
-441,036	264,362	-0,040	-0,050
-440,022	-157,238	0,065	0,003
-439,007	-99,706	-0,135	-0,024
-437,992	54,770	-0,051	-0,036
-436,978	90,086	-0,052	-0,042
-435,963	609,955	0,019	0,036
-434,949	-96,820	-0,084	0,016
-433,934	106,655	0,078	-0,067
-432,919	-27,107	0,101	-0,042
-431,905	-182,854	-0,087	0,001
-430,890	800,000	-0,042	0,107
-429,876	-112,718	0,111	0,016
-428,861	800,000	0,027	-0,079
-427,846	-169,267	0,022	0,001
-426,832	-200,000	0,008	0,028
-425,817	223,761	-0,111	-0,130
-424,803	32,708	-0,039	0,024
-423,788	104,690	-0,112	-0,096
-422,773	120,417	0,065	-0,059
-421,759	108,728	0,021	0,018
-420,744	800,000	0,020	0,051
-419,730	-200,000	0,013	0,083
-418,715	-200,000	-0,003	0,036
-417,701	-200,000	-0,008	0,026
-416,686	387,754	0,055	0,082
-415,671	69,430	-0,053	-0,040
-414,657	-58,884	0,100	-0,031
-413,642	-39,205	0,092	-0,035
-412,628	-92,920	0,048	0,010
-411,613	800,000	-0,053	-0,120
-410,598	-200,000	-0,026	0,119
-409,584	-110,123	0,071	0,011
-408,569	-140,977	0,147	-0,011
-407,555	-200,000	0,051	0,232
-406,540	-200,000	0,011	-0,066
-405,525	232,156	-0,103	-0,123
-404,511	97,962	0,037	-0,031
-403,496	800,000	0,018	-0,047
-402,482	702,575	0,030	0,058
-401,467	-76,411	0,129	0,033
-400,452	-31,397	0,107	-0,044
-399,438	0,761	0,051	-0,026
-398,423	-200,000	-0,003	-0,044
-397,409	155,915	0,021	-0,021
-396,394	234,016	-0,069	0,083
-395,379	-200,000	0,037	0,122
-394,365	-24,382	0,018	-0,008
-393,350	-200,000	-0,003	0,050
-392,336	205,864	-0,036	0,040
-391,321	-200,000	-0,024	0,114
-390,306	413,641	-0,044	-0,067
-389,292	293,620	-0,064	0,084
-388,277	-150,647	0,030	-0,002
-387,263	-165,742	0,177	0,005
-386,248	-71,608	-0,041	-0,011
-385,233	56,504	0,035	0,025
-384,219	-157,482	0,038	-0,002
-383,204	200,824	0,043	-0,048
-382,190	-200,000	-0,009	-0,135
-381,175	-67,341	0,133	-0,038
-380,160	-18,638	-0,060	0,027
-379,146	-200,000	-0,001	-0,025
-378,131	103,208	0,071	-0,060
-377,117	800,000	0,034	0,096
-376,102	800,000	0,013	-0,038
-375,088	-119,271	-0,165	0,021
-374,073	12,398	-0,068	0,038
-373,058	307,227	0,078	-0,106
-372,044	-200,000	0,006	0,064
-371,029	-7,142	0,169	0,083
-370,015	203,605	0,059	0,066
-369,000	19,179	0,165	0,096
-367,985	-200,000	0,030	-0,120
-366,971	800,000	-0,070	-0,220
-365,956	418,389	0,033	0,052
-364,942	97,100	0,019	0,016
-363,927	-200,000	-0,004	0,057
-362,912	-124,809	0,016	-0,002
-361,898	72,117	0,032	0,024
-360,883	190,035	0,023	-0,025
-359,869	-200,000	0,036	-0,146
-358,854	-42,200	0,209	-0,077
-357,839	-97,165	0,113	-0,021
-356,825	-200,000	0,010	0,106
-355,810	-41,799	-0,084	0,031
-354,796	-155,719	-0,031	0,001
-353,781	746,782	0,057	-0,112
-352,766	-156,531	-0,140	0,006
-351,752	789,351	0,014	0,028
-350,737	31,152	0,077	-0,048
-349,723	494,778	0,046	0,077
-348,708	-200,000	0,021	0,074
-347,693	800,000	0,023	0,072
-346,679	187,802	-0,077	-0,084
-345,664	800,000	-0,054	0,142
-344,650	-71,415	-0,085	-0,023
-343,635	575,385	0,045	-0,079
-342,620	-24,051	0,178	0,077
-341,606	-15,065	-0,141	-0,065
-340,591	75,429	-0,031	-0,024
-339,577	412,457	-0,042	-0,065
-338,562	96,943	-0,044	0,036
-337,548	-76,756	0,045	-0,011
-336,533	555,412	0,063	0,110
-335,518	475,640	0,092	0,151
-334,504	261,386	0,061	0,077
-333,489	800,000	0,061	-0,127
-332,475	483,545	0,005	0,009
-331,460	-200,000	0,030	-0,121
-330,445	-200,000	0,001	-0,017
-329,431	501,716	-0,032	0,054
-328,416	292,974	0,034	0,045
-327,402	800,000	0,052	0,122
-326,387	-37,424	-0,098	0,038
-325,372	-200,000	0,008	-0,115
-324,358	114,045	-0,075	-0,066
-323,343	493,656	0,024	0,040
-322,329	-43,739	0,025	0,009
-321,314	-139,210	-0,094	0,007
-320,299	-200,000	0,022	0,073
-319,285	-200,000	0,006	0,140
-318,270	626,047	0,028	0,051
-317,256	800,000	0,020	-0,048
-316,241	-200,000	-0,001	-0,129
-315,226	379,302	-0,064	0,096
-314,212	56,538	-0,030	0,021
-313,197	-200,000	0,013	0,060
-312,183	800,000	0,085	0,216
-311,168	38,006	0,036	0,023
-310,153	-29,184	-0,185	-0,077
-309,139	800,000	-0,046	0,102
-308,124	-94,684	0,092	0,018
-307,110	800,000	0,015	-0,040
-306,095	-157,318	0,066	0,003
-305,080	419,641	-0,023	0,035
-304,066	11,631	-0,056	0,031
-303,051	128,110	-0,051	-0,047
-302,037	-200,000	0,009	-0,033
-301,022	-6,308	0,099	0,049
-300,008	81,933	-0,062	-0,048
-298,993	707,445	0,029	0,056
-297,978	-200,000	-0,005	-0,064
-296,964	-200,000	-0,014	-0,069
-295,949	24,031	0,060	-0,036
-294,935	105,144	0,009	-0,007
-293,920	451,676	-0,041	-0,066
-292,905	800,000	0,018	0,039
-291,891	117,286	0,088	-0,078
-290,876	274,879	0,088	0,113
-289,862	-200,000	-0,046	-0,204
-288,847	142,210	-0,116	-0,112
-287,832	-200,000	0,015	0,060
-286,818	337,357	-0,083	0,118
-285,803	-200,000	0,006	0,149
-284,789	114,212	0,122	0,107
-283,774	-144,406	0,139	0,009
-282,759	-95,604	-0,081	0,016
-281,745	-173,546	-0,050	-0,001
-280,730	-190,611	-0,017	-0,000
-279,716	178,116	0,019	0,020
-278,701	536,035	-0,115	-0,198
-277,686	-25,190	0,055	-0,024
-276,672	-105,669	-0,121	0,020
-275,657	17,311	-0,058	-0,033
-274,643	-168,902	0,050	-0,001
-273,628	-200,000	-0,037	-0,119
-272,613	129,179	-0,082	0,076
-271,599	469,404	0,045	0,073
-270,584	230,923	-0,043	-0,051
-269,570	111,645	0,098	0,085
-268,555	-200,000	0,013	0,101
-267,540	53,969	0,034	0,023
-266,526	53,826	-0,056	-0,039
-265,511	-200,000	-0,008	-0,139
-264,497	-73,822	0,166	-0,043
-263,482	-169,951	-0,129	0,003
-262,467	170,305	-0,080	-0,082
-261,453	300,865	0,066	0,088
-260,438	59,339	-0,052	-0,037
-259,424	-47,164	0,037	0,013
-258,409	-200,000	0,001	-0,084
-257,395	-78,920	-0,055	0,013
-256,380	-200,000	-0,008	-0,058
-255,365	-93,385	0,119	0,024
-254,351	-200,000	-0,003	0,088
-253,336	-200,000	0,006	-0,065
-252,322	-122,620	-0,063	-0,007
-251,307	-200,000	-0,009	0,074
-250,292	-200,000	-0,011	-0,070
-249,278	-21,665	0,115	0,050
-248,263	-10,044	0,132	-0,063
-247,249	-200,000	-0,019	0,102
-246,234	57,606	-0,125	0,088
-245,219	-200,000	0,024	0,110
-244,205	-200,000	0,001	0,074
-243,190	-115,896	-0,063	0,008
-242,176	-200,000	-0,001	0,197
-241,161	-53,539	0,063	-0,021
-240,146	-6,120	0,014	0,007
-239,132	799,730	-0,049	-0,098
-238,117	800,000	0,052	-0,133
-237,103	219,607	-0,123	-0,143
-236,088	253,506	-0,084	-0,104
-235,073	-200,000	0,023	0,072
-234,059	800,000	0,043	0,127
-233,044	317,704	0,098	0,134
-232,030	33,842	0,031	-0,019
-231,015	-200,000	-0,018	-0,095
-230,000	17,658	-0,083	-0,048
-228,986	476,462	0,032	-0,052
-227,971	167,941	-0,064	0,066
-226,957	-179,591	-0,132	-0,002
-225,942	-48,505	-0,023	-0,008
-224,927	-200,000	0,034	-0,152
-223,913	70,021	0,039	-0,029
-222,898	-200,000	0,023	-0,086
-221,884	276,182	0,108	0,139
-220,869	-131,279	-0,213	-0,020
-219,855	386,600	0,043	-0,064
-218,840	240,803	-0,021	0,025
-217,825	800,000	0,070	-0,195
-216,811	-38,594	-0,110	-0,042
-215,796	511,532	0,027	-0,045
-214,782	-200,000	0,028	0,151
-213,767	672,010	-0,062	-0,116
-212,752	-93,323	0,133	0,026
-211,738	-200,000	0,016	0,093
-210,723	-105,237	0,155	0,025
-209,709	800,000	-0,027	-0,060
-208,694	-146,748	-0,115	0,007
-207,679	-200,000	0,005	-0,077
-206,665	189,863	-0,071	0,077
-205,650	800,000	0,097	0,203
-204,636	800,000	0,074	0,179
-203,621	-200,000	0,032	0,146
-202,606	-65,099	0,085	-0,024
-201,592	218,319	-0,066	0,076
-200,577	-200,000	0,005	0,097
-199,563	-101,330	0,086	0,015
-198,548	-120,921	-0,101	0,012
-197,533	148,647	-0,115	0,112
-196,519	95,181	0,091	-0,075
-195,504	-120,986	0,194	-0,023
-194,490	782,566	-0,015	0,030
-193,475	-60,762	0,128	-0,039
-192,460	-130,977	-0,080	-0,008
-191,446	45,966	0,055	0,036
-190,431	140,533	0,082	0,078
-189,417	62,770	-0,048	-0,034
-188,402	403,385	-0,061	0,093
-187,387	800,000	-0,012	0,025
-186,373	548,146	0,023	-0,040
-185,358	209,788	0,045	0,051
-184,344	-200,000	0,004	-0,172
-183,329	-192,566	-0,053	-0,000
-182,315	-26,446	-0,029	-0,012
-181,300	-37,083	-0,012	0,005
-180,285	800,000	-0,016	-0,043
-179,271	513,680	-0,041	-0,069
-178,256	-125,820	0,102	-0,011
-177,242	-68,966	0,098	0,027
-176,227	306,943	-0,063	0,085
-175,212	469,952	-0,068	0,111
-174,198	216,562	-0,062	0,071
-173,183	800,000	-0,036	0,088
-172,169	-200,000	0,012	0,088
-171,154	-83,858	0,075	-0,017
-170,139	-25,147	0,085	-0,036
-169,125	800,000	-0,039	-0,103
-168,110	800,000	0,015	0,032
-167,096	-68,640	-0,038	-0,011
-166,081	-15,738	0,060	0,027
-165,066	534,513	0,043	-0,074
-164,052	-200,000	-0,001	-0,011
-163,037	-200,000	-0,019	-0,132
-162,023	-200,000	-0,003	0,064
-161,008	-70,534	0,042	-0,011
-159,993	-44,510	-0,063	-0,023
-158,979	800,000	-0,025	0,075
-157,964	450,907	0,012	-0,018
-156,950	274,518	0,120	0,153
-155,935	225,399	0,014	-0,016
-154,920	9,824	-0,039	-0,021
-153,906	397,491	0,034	0,051
-152,891	-39,624	0,217	0,081
-151,877	-77,697	0,098	0,024
-150,862	-2,130	-0,028	0,014
-149,847	-200,000	-0,008	-0,027
-148,833	35,314	-0,054	0,034
-147,818	-200,000	-0,012	0,168
-146,804	-200,000	0,017	0,150
-145,789	-200,000	0,017	0,236
-144,775	-200,000	-0,034	0,133
-143,760	-107,334	-0,031	0,005
-142,745	-64,631	-0,059	0,017
-141,731	195,392	-0,018	-0,019
-140,716	-5,823	-0,102	0,050
-139,702	-79,151	0,059	-0,014
-138,687	454,940	0,091	0,145
-137,672	142,024	0,086	0,082
-136,658	-38,892	-0,132	-0,050
-135,643	116,384	0,145	0,128
-134,629	-200,000	0,000	-0,044
-133,614	94,606	-0,050	-0,041
-132,599	67,314	0,077	0,056
-131,585	445,931	-0,008	0,013
-130,570	-62,861	-0,086	-0,025
-129,556	92,291	0,060	0,049
-128,541	-200,000	-0,002	0,017
-127,526	-200,000	0,023	-0,091
-126,512	800,000	0,039	-0,088
-125,497	796,588	0,026	0,052
-124,483	-46,220	-0,033	-0,012
-123,468	-22,620	-0,076	-0,033
-122,453	-162,227	-0,236	0,008
-121,439	-200,000	-0,025	0,096
-120,424	-20,854	-0,067	-0,029
