DTS Sentinel unit serial number:	SN410029Multiplexer serial number:	ORYXHardware model number:	OX2-SRSoftware version number:	ORYX F/W v4,00 Oryx Data Collector v3.7.2.0data status	okinstallation	B6 Nyhavnadifferential loss correction	single-endedforward channel	channel 2reverse channel	N/Adate	2023/12/11time	01:50:08forward acquisition time	300,00reverse acquisition time	0,00gamma	499,1914k internal	0,3122k external	0,3122temperature offset calibration	1,0000default loss term (dB/km)	0,3820temperature slope calibration	1,0000multiplexer offset coefficient	1,0000multiplexer slope coefficient	1,0000fibre end	0,00T internal ref (°C)	22,00T ext. ref 1 (°C)	5,10T ext. ref 2 (°C)	5,14length (m)	temperature (°C)	Stokes	anti-Stokes-744,400	-200,000	0,044	-0,167
-743,385	92,323	-0,153	0,128
-742,371	-48,366	0,045	0,016
-741,356	-60,191	-0,274	0,086
-740,342	-54,961	0,084	-0,028
-739,327	-63,119	-0,273	0,083
-738,312	121,834	0,075	-0,070
-737,298	-45,775	-0,117	-0,043
-736,283	50,512	0,070	-0,049
-735,269	450,266	-0,104	0,171
-734,254	-200,000	-0,037	-0,176
-733,239	-17,411	-0,406	-0,190
-732,225	-140,544	0,289	0,022
-731,210	800,000	-0,039	0,101
-730,196	-200,000	-0,003	0,041
-729,181	-200,000	0,017	-0,352
-728,167	91,366	0,078	0,065
-727,152	43,907	0,124	-0,085
-726,137	-123,744	-0,072	-0,008
-725,123	46,791	-0,181	-0,125
-724,108	-200,000	-0,001	-0,012
-723,094	-200,000	-0,000	-0,003
-722,079	-200,000	0,014	-0,056
-721,064	-61,664	-0,065	0,020
-720,050	-200,000	0,023	-0,084
-719,035	66,321	-0,073	0,055
-718,021	-97,153	0,082	-0,016
-717,006	-0,020	-0,045	-0,024
-715,991	59,240	-0,055	-0,040
-714,977	-200,000	-0,012	-0,080
-713,962	-55,050	-0,034	-0,011
-712,948	-13,041	-0,056	0,027
-711,933	32,887	0,048	0,031
-710,918	-200,000	-0,001	-0,038
-709,904	-172,915	-0,220	-0,005
-708,889	232,567	-0,034	-0,041
-707,875	324,622	-0,104	-0,148
-706,860	-8,543	0,036	0,018
-705,845	272,257	-0,052	0,069
-704,831	800,000	0,031	-0,088
-703,816	-200,000	-0,003	0,035
-702,802	476,393	-0,048	-0,080
-701,787	-155,849	-0,160	0,007
-700,772	-200,000	0,002	0,096
-699,758	-200,000	0,010	-0,077
-698,743	274,611	-0,062	-0,081
-697,729	155,890	-0,075	0,077
-696,714	197,242	0,020	0,022
-695,699	538,577	-0,041	-0,073
-694,685	187,328	-0,066	-0,073
-693,670	5,714	-0,033	-0,018
-692,656	53,214	-0,085	-0,060
-691,641	269,272	0,006	-0,008
-690,627	-110,869	0,174	0,026
-689,612	-200,000	0,004	-0,097
-688,597	-200,000	-0,012	0,065
-687,583	-134,954	-0,149	-0,013
-686,568	-101,653	-0,230	-0,041
-685,554	15,828	0,085	-0,049
-684,539	800,000	0,021	-0,051
-683,524	107,873	-0,085	0,075
-682,510	-24,820	0,040	-0,017
-681,495	-131,822	-0,180	-0,017
-680,481	-122,841	0,077	-0,009
-679,466	213,415	-0,090	-0,106
-678,451	800,000	0,039	-0,099
-677,437	-27,614	-0,069	0,030
-676,422	-200,000	0,003	-0,023
-675,408	348,928	-0,062	-0,092
-674,393	20,818	-0,119	-0,071
-673,378	474,803	-0,069	-0,116
-672,364	476,069	0,147	-0,248
-671,349	467,999	0,034	-0,057
-670,335	173,858	-0,038	-0,040
-669,320	-74,867	0,007	-0,002
-668,305	-88,673	0,113	-0,025
-667,291	136,956	-0,108	-0,105
-666,276	-200,000	-0,028	-0,129
-665,262	29,494	-0,131	-0,083
-664,247	-200,000	-0,002	-0,026
-663,232	719,538	0,030	-0,060
-662,218	110,381	-0,090	0,080
-661,203	13,035	0,104	-0,060
-660,189	552,666	0,069	-0,124
-659,174	57,985	-0,104	-0,075
-658,159	384,024	-0,066	-0,102
-657,145	-200,000	0,023	-0,089
-656,130	46,073	-0,059	0,040
-655,116	30,586	-0,034	0,022
-654,101	-200,000	0,003	0,131
-653,086	267,052	-0,048	-0,063
-652,072	420,458	0,041	0,066
-651,057	3,558	-0,090	0,048
-650,043	-109,919	-0,160	0,025
-649,028	-99,500	0,043	0,008
-648,014	347,677	0,054	0,079
-646,999	-166,559	0,050	-0,002
-645,984	10,155	-0,007	-0,004
-644,970	-75,843	-0,051	-0,013
-643,955	-135,380	-0,115	0,010
-642,941	130,597	-0,084	-0,080
-641,926	573,178	0,047	-0,085
-640,911	463,708	-0,006	-0,009
-639,897	-62,915	-0,077	0,023
-638,882	124,264	-0,074	-0,069
-637,868	727,831	0,025	0,050
-636,853	-133,582	0,074	0,007
-635,838	-200,000	-0,013	-0,136
-634,824	-13,999	-0,105	0,050
-633,809	-38,975	0,139	0,054
-632,795	-185,948	-0,082	-0,001
-631,780	-39,597	0,075	0,029
-630,765	312,409	-0,056	-0,078
-629,751	-200,000	-0,020	-0,118
-628,736	-200,000	-0,002	-0,248
-627,722	-89,513	0,053	0,011
-626,707	436,032	-0,080	0,129
-625,692	-200,000	0,040	-0,142
-624,678	800,000	-0,026	-0,069
-623,663	-20,385	0,136	0,062
-622,649	-66,324	-0,039	-0,012
-621,634	-178,244	-0,044	0,001
-620,619	368,900	0,054	0,081
-619,605	-114,821	-0,058	-0,008
-618,590	533,467	-0,012	0,021
-617,576	114,679	0,066	0,059
-616,561	466,656	0,047	0,078
-615,546	-200,000	-0,018	-0,081
-614,532	709,928	-0,017	-0,033
-613,517	-200,000	-0,002	-0,083
-612,503	-75,410	-0,064	0,017
-611,488	-60,428	0,072	-0,023
-610,474	-200,000	0,009	0,141
-609,459	640,657	-0,051	0,097
-608,444	-61,716	-0,091	-0,028
-607,430	-32,085	-0,264	0,109
-606,415	-124,694	-0,163	-0,018
-605,401	-170,643	0,030	-0,001
-604,386	241,263	-0,070	0,087
-603,371	-200,000	0,008	-0,086
-602,357	11,581	-0,127	-0,072
-601,342	-84,848	-0,231	-0,053
-600,328	-200,000	-0,002	0,009
-599,313	800,000	0,027	0,067
-598,298	196,906	-0,073	-0,082
-597,284	-200,000	0,002	-0,012
-596,269	312,478	0,086	-0,121
-595,255	419,664	0,043	0,069
-594,240	82,518	-0,016	0,013
-593,225	-200,000	-0,004	-0,105
-592,211	-200,000	0,017	-0,082
-591,196	-65,823	-0,061	-0,018
-590,182	-200,000	-0,011	-0,104
-589,167	118,344	0,087	-0,079
-588,152	-101,171	0,035	-0,006
-587,138	-88,377	-0,122	0,027
-586,123	-18,388	-0,026	-0,012
-585,109	-40,340	0,030	-0,011
-584,094	-200,000	0,016	-0,122
-583,079	507,499	0,084	0,144
-582,065	400,000	-0,031	0,049
-581,050	371,466	-0,053	0,080
-580,036	-200,000	0,007	0,100
-579,021	166,422	0,019	-0,020
-578,006	-135,878	0,158	-0,014
-576,992	254,339	-0,048	0,061
-575,977	194,380	0,102	0,114
-574,963	800,000	-0,050	-0,107
-573,948	227,408	0,021	0,025
-572,934	36,049	-0,030	0,019
-571,919	422,669	-0,036	-0,058
-570,904	-77,856	-0,051	-0,013
-569,890	204,089	-0,032	-0,037
-568,875	171,013	0,074	-0,079
-567,861	372,176	-0,043	0,065
-566,846	-52,217	0,090	-0,031
-565,831	88,312	0,043	0,036
-564,817	-42,008	-0,048	0,018
-563,802	-185,344	-0,118	-0,001
-562,788	-200,000	0,007	-0,087
-561,773	-200,000	0,019	-0,086
-560,758	-200,000	0,007	-0,029
-559,744	-200,000	0,001	0,055
-558,729	106,882	-0,074	0,065
-557,715	800,000	0,035	-0,075
-556,700	-10,153	-0,205	-0,101
-555,685	77,193	-0,110	0,087
-554,671	800,000	-0,034	0,085
-553,656	-26,600	0,128	0,055
-552,642	-200,000	-0,019	-0,243
-551,627	51,610	-0,098	-0,069
-550,612	371,581	-0,041	0,062
-549,598	-6,862	-0,105	0,053
-548,583	137,499	-0,066	-0,064
-547,569	-45,647	-0,071	0,026
-546,554	394,719	0,043	0,067
-545,539	31,424	-0,014	-0,009
-544,525	-200,000	0,010	-0,054
-543,510	3,353	0,020	0,011
-542,496	6,780	0,058	-0,032
-541,481	-200,000	-0,022	-0,075
-540,466	-56,615	-0,086	0,028
-539,452	225,622	0,097	0,116
-538,437	33,623	0,210	0,135
-537,423	-200,000	-0,013	0,100
-536,408	178,157	0,048	-0,052
-535,393	289,232	-0,044	-0,059
-534,379	800,000	0,004	0,008
-533,364	423,022	-0,021	-0,034
-532,350	-26,496	-0,068	0,029
-531,335	-200,000	0,005	0,047
-530,321	279,157	0,059	0,078
-529,306	-129,741	-0,154	-0,015
-528,291	-122,270	-0,050	-0,006
-527,277	322,638	-0,018	-0,026
-526,262	-109,225	0,047	-0,007
-525,248	-129,892	-0,043	0,004
-524,233	410,258	0,048	0,075
-523,218	19,034	-0,040	-0,024
-522,204	-148,599	-0,018	0,001
-521,189	101,732	-0,017	-0,014
-520,175	161,120	0,019	-0,020
-519,160	-183,389	0,139	-0,002
-518,145	-69,903	0,087	-0,024
-517,131	-81,119	-0,017	0,004
-516,116	800,000	0,067	0,168
-515,102	63,000	-0,013	0,010
-514,087	-138,680	-0,056	-0,004
-513,072	-200,000	-0,041	-0,201
-512,058	-52,498	0,069	-0,023
-511,043	800,000	-0,034	0,099
-510,029	-49,160	-0,082	0,029
-509,014	1,113	0,140	0,074
-507,999	-90,267	-0,024	-0,005
-506,985	-119,388	-0,145	0,018
-505,970	-200,000	0,012	0,058
-504,956	45,006	0,095	0,065
-503,941	-200,000	-0,008	-0,037
-502,926	97,067	0,072	-0,061
-501,912	800,000	0,045	0,101
-500,897	-182,857	0,057	0,001
-499,883	-111,680	-0,010	-0,001
-498,868	120,101	-0,023	-0,022
-497,853	18,421	-0,115	0,068
-496,839	41,397	-0,112	-0,075
-495,824	-151,059	-0,095	-0,005
-494,810	-72,951	0,054	0,015
-493,795	-200,000	0,024	0,121
-492,781	249,590	0,089	-0,111
-491,766	-122,023	-0,033	-0,004
-490,751	-200,000	0,025	-0,118
-489,737	389,178	-0,062	0,095
-488,722	-114,616	0,044	0,006
-487,708	-200,000	0,008	-0,042
-486,693	150,161	0,116	-0,117
-485,678	-139,876	-0,069	0,005
-484,664	34,250	-0,030	0,019
-483,649	-200,000	-0,009	0,080
-482,635	-77,905	0,057	-0,014
-481,620	800,000	0,019	-0,048
-480,605	61,376	0,067	0,049
-479,591	-133,927	0,041	0,004
-478,576	-103,422	-0,107	0,018
-477,562	608,426	-0,059	0,109
-476,547	-200,000	0,009	-0,127
-475,532	-200,000	0,016	-0,098
-474,518	282,530	0,055	0,073
-473,503	45,286	0,040	-0,027
-472,489	16,887	-0,009	0,005
-471,474	-200,000	-0,004	0,078
-470,459	318,217	-0,024	-0,034
-469,445	115,630	0,143	-0,129
-468,430	-200,000	-0,031	-0,150
-467,416	-92,294	-0,084	0,017
-466,401	-200,000	0,033	0,110
-465,386	-200,000	-0,033	0,181
-464,372	67,194	-0,080	0,060
-463,357	-91,897	0,053	0,011
-462,343	308,745	0,024	0,033
-461,328	-148,704	0,028	-0,002
-460,313	800,000	-0,005	-0,012
-459,299	297,334	0,083	-0,113
-458,284	-200,000	0,008	0,039
-457,270	-3,752	0,146	-0,075
-456,255	-200,000	-0,010	-0,075
-455,241	-49,521	-0,092	0,032
-454,226	130,196	-0,058	-0,055
-453,211	122,567	0,149	-0,138
-452,197	47,339	0,095	0,065
-451,182	103,899	0,169	0,147
-450,168	398,096	0,033	-0,052
-449,153	-200,000	0,011	-0,167
-448,138	0,913	-0,059	-0,031
-447,124	-43,375	-0,016	0,006
-446,109	67,958	0,055	0,042
-445,095	28,824	0,056	0,035
-444,080	257,283	0,118	0,150
-443,065	-131,243	0,055	-0,005
-442,051	-200,000	-0,013	0,061
-441,036	-200,000	-0,021	0,092
-440,022	-200,000	-0,006	-0,107
-439,007	34,303	0,064	0,041
-437,992	249,403	-0,017	0,021
-436,978	20,107	0,103	-0,061
-435,963	467,720	-0,013	0,021
-434,949	-200,000	-0,040	0,133
-433,934	254,458	-0,017	-0,021
-432,919	800,000	-0,035	-0,096
-431,905	220,806	-0,113	-0,133
-430,890	800,000	0,033	-0,076
-429,876	-46,330	0,105	-0,038
-428,861	-200,000	-0,008	-0,048
-427,846	-200,000	-0,008	0,090
-426,832	241,490	-0,055	0,067
-425,817	-200,000	0,016	-0,108
-424,803	115,542	-0,029	-0,026
-423,788	38,304	-0,022	-0,014
-422,773	-200,000	-0,001	-0,036
-421,759	547,582	0,060	0,107
-420,744	58,307	0,017	-0,012
-419,730	99,860	0,014	0,012
-418,715	-200,000	0,003	0,056
-417,701	-125,478	-0,054	-0,006
-416,686	-98,242	0,183	-0,034
-415,671	-23,214	0,081	0,036
-414,657	36,834	0,058	-0,038
-413,642	-24,174	-0,163	0,071
-412,628	-200,000	-0,012	0,157
-411,613	800,000	0,041	0,089
-410,598	-200,000	0,013	0,047
-409,584	490,777	0,030	-0,051
-408,569	-200,000	-0,002	-0,091
-407,555	800,000	-0,050	0,156
-406,540	640,075	0,042	-0,078
-405,525	212,430	-0,018	-0,021
-404,511	159,289	-0,085	-0,087
-403,496	36,622	-0,036	-0,023
-402,482	-93,460	0,032	0,006
-401,467	-200,000	-0,018	0,106
-400,452	-200,000	-0,058	-0,203
-399,438	68,047	0,046	-0,034
-398,423	248,655	0,039	0,049
-397,409	-200,000	0,016	0,072
-396,394	-200,000	-0,073	0,287
-395,379	-200,000	0,001	0,005
-394,365	800,000	0,012	-0,028
-393,350	-200,000	-0,023	0,182
-392,336	-200,000	-0,001	0,019
-391,321	499,841	-0,011	0,019
-390,306	143,583	0,087	0,085
-389,292	100,086	-0,116	-0,099
-388,277	-108,918	-0,035	0,006
-387,263	-18,458	0,128	0,058
-386,248	27,067	0,021	0,013
-385,233	-38,712	0,145	-0,056
-384,219	800,000	0,019	0,044
-383,204	-200,000	0,010	0,039
-382,190	-93,937	0,091	-0,018
-381,175	-112,004	-0,049	0,007
-380,160	630,091	0,010	0,018
-379,146	-82,761	0,073	0,017
-378,131	800,000	0,008	0,018
-377,117	-200,000	-0,020	-0,149
-376,102	-53,113	-0,077	-0,026
-375,088	-118,680	0,142	-0,018
-374,073	185,083	0,042	-0,046
-373,058	800,000	0,024	0,056
-372,044	94,146	-0,021	-0,017
-371,029	800,000	0,040	-0,084
-370,015	-200,000	-0,030	-0,120
-369,000	-200,000	-0,018	-0,077
-367,985	-200,000	0,030	-0,105
-366,971	-33,050	0,100	-0,041
-365,956	113,225	-0,044	-0,039
-364,942	34,812	0,043	-0,027
-363,927	-4,026	0,121	0,061
-362,912	159,188	0,046	-0,047
-361,898	-24,593	-0,057	0,025
-360,883	-98,547	-0,081	0,015
-359,869	51,479	0,194	-0,136
-358,854	558,916	-0,017	-0,031
-357,839	800,000	0,067	-0,140
-356,825	19,705	0,117	0,069
-355,810	-90,016	-0,090	0,019
-354,796	676,651	0,018	0,034
-353,781	800,000	-0,028	-0,085
-352,766	800,000	0,019	-0,050
-351,752	358,133	0,104	-0,152
-350,737	-9,464	-0,023	-0,011
-349,723	-102,867	-0,044	-0,008
-348,708	237,006	-0,105	0,127
-347,693	134,783	-0,093	-0,088
-346,679	675,951	0,039	-0,074
-345,664	133,676	0,106	-0,101
-344,650	-157,703	-0,134	-0,006
-343,635	-108,868	0,115	0,018
-342,620	-200,000	-0,020	0,086
-341,606	-153,730	0,041	-0,002
-340,591	-74,457	-0,041	0,011
-339,577	-29,210	-0,073	-0,031
-338,562	-200,000	-0,024	-0,081
-337,548	-119,724	-0,167	-0,021
-336,533	-200,000	0,025	0,086
-335,518	131,471	0,044	0,042
-334,504	267,834	0,032	0,041
-333,489	-50,911	0,129	0,044
-332,475	-168,272	-0,128	0,004
-331,460	-118,273	-0,143	0,018
-330,445	-123,167	-0,095	-0,011
-329,431	-152,793	0,076	-0,004
-328,416	800,000	0,065	0,166
-327,402	-200,000	-0,025	0,135
-326,387	84,554	-0,039	0,031
-325,372	257,933	-0,107	-0,135
-324,358	-122,357	-0,028	-0,003
-323,343	90,022	-0,014	-0,011
-322,329	-34,379	0,076	0,031
-321,314	-200,000	0,021	0,073
-320,299	120,998	0,072	-0,066
-319,285	-200,000	-0,004	-0,048
-318,270	-9,541	-0,141	-0,069
-317,256	-200,000	-0,033	-0,107
-316,241	73,930	-0,080	0,061
-315,226	-51,647	-0,152	-0,052
-314,212	29,092	0,134	-0,083
-313,197	-200,000	0,015	0,055
-312,183	-85,054	0,130	-0,030
-311,168	18,456	0,099	-0,058
-310,153	-94,214	0,058	-0,011
-309,139	14,589	0,049	0,028
-308,124	800,000	0,020	0,048
-307,110	-200,000	0,004	0,045
-306,095	-200,000	-0,001	0,127
-305,080	-79,620	0,048	0,012
-304,066	-73,166	-0,117	0,031
-303,051	13,918	-0,102	-0,058
-302,037	800,000	-0,042	0,089
-301,022	-96,970	0,081	0,015
-300,008	-70,351	-0,028	-0,008
-298,993	800,000	-0,049	0,155
-297,978	-53,927	-0,073	-0,024
-296,964	134,389	-0,102	-0,097
-295,949	162,104	-0,014	0,014
-294,935	363,979	0,056	-0,082
-293,920	-33,334	0,070	-0,028
-292,905	245,190	-0,039	-0,048
-291,891	-200,000	-0,004	0,064
-290,876	150,765	0,030	0,030
-289,862	52,591	0,070	0,049
-288,847	29,499	0,032	0,020
-287,832	95,458	-0,050	-0,042
-286,818	800,000	-0,028	0,063
-285,803	-200,000	-0,004	-0,039
-284,789	154,369	-0,054	0,054
-283,774	-1,287	-0,045	-0,023
-282,759	-200,000	-0,009	-0,054
-281,745	-111,424	-0,021	-0,003
-280,730	156,104	-0,082	-0,083
-279,716	800,000	-0,047	0,109
-278,701	-171,086	-0,067	-0,002
-277,686	-5,397	0,080	-0,040
-276,672	800,000	-0,037	0,082
-275,657	-200,000	0,021	-0,108
-274,643	-200,000	-0,020	-0,155
-273,628	-200,000	0,037	-0,133
-272,613	149,563	-0,028	0,028
-271,599	-37,683	0,070	0,027
-270,584	-200,000	0,004	-0,093
-269,570	435,625	-0,075	0,120
-268,555	-200,000	0,012	0,076
-267,540	-200,000	0,004	-0,138
-266,526	264,771	0,009	-0,011
-265,511	755,817	0,025	0,050
-264,497	800,000	0,017	-0,047
-263,482	-107,188	0,028	-0,004
-262,467	297,654	0,058	0,079
-261,453	-200,000	0,013	0,052
-260,438	800,000	0,030	-0,069
-259,424	800,000	0,086	-0,200
-258,409	-23,243	-0,102	-0,045
-257,395	800,000	0,010	0,023
-256,380	235,717	-0,035	0,042
-255,365	-75,523	0,155	-0,040
-254,351	-129,158	-0,031	-0,003
-253,336	2,702	-0,092	-0,049
-252,322	-39,082	0,133	-0,051
-251,307	156,770	0,021	0,021
-250,292	-200,000	-0,001	-0,120
-249,278	332,076	0,044	0,063
-248,263	22,821	0,018	-0,011
-247,249	-0,512	0,110	-0,057
-246,234	187,570	-0,049	0,053
-245,219	-120,452	-0,138	0,017
-244,205	163,954	0,153	-0,157
-243,190	312,896	0,048	-0,066
-242,176	602,092	-0,074	0,135
-241,161	-200,000	-0,018	-0,065
-240,146	25,832	0,052	0,031
-239,132	57,847	-0,044	-0,032
-238,117	122,907	-0,113	-0,104
-237,103	-33,728	0,111	-0,044
-236,088	-200,000	-0,029	0,145
-235,073	-78,219	-0,104	-0,026
-234,059	146,207	-0,064	0,063
-233,044	-200,000	-0,017	-0,086
-232,030	24,114	-0,091	0,055
-231,015	-200,000	0,005	0,089
-230,000	579,023	-0,039	-0,069
-228,986	800,000	-0,012	-0,029
-227,971	-200,000	-0,009	0,130
-226,957	213,237	0,043	-0,049
-225,942	216,818	-0,020	0,024
-224,927	27,664	0,054	-0,033
-223,913	-6,446	0,073	-0,036
-222,898	324,581	0,052	0,072
-221,884	-31,359	0,151	0,062
-220,869	-109,326	0,090	0,014
-219,855	-140,779	0,186	0,014
-218,840	-200,000	-0,020	-0,071
-217,825	27,938	0,033	0,020
-216,811	24,401	0,090	0,054
-215,796	5,805	-0,087	-0,047
-214,782	250,219	0,046	-0,057
-213,767	800,000	-0,015	0,039
-212,752	800,000	0,046	-0,096
-211,738	-200,000	0,033	0,156
-210,723	-158,568	0,065	0,003
-209,709	-135,566	-0,096	0,008
-208,694	-93,933	-0,080	0,016
-207,679	-200,000	0,005	0,075
-206,665	-200,000	-0,027	0,116
-205,650	-200,000	-0,023	0,103
-204,636	220,260	0,062	0,072
-203,621	-109,150	0,050	0,008
-202,606	-22,862	-0,164	0,072
-201,592	800,000	-0,029	-0,082
-200,577	800,000	-0,041	-0,122
-199,563	18,284	0,118	0,068
-198,548	-200,000	0,003	0,142
-197,533	176,280	-0,097	0,103
-196,519	-200,000	-0,013	0,128
-195,504	-14,708	0,119	-0,056
-194,490	-96,993	-0,049	0,009
-193,475	429,916	-0,030	-0,047
-192,460	311,275	0,055	0,075
-191,446	800,000	0,047	0,097
-190,431	-200,000	-0,000	0,040
-189,417	-200,000	0,001	-0,059
-188,402	800,000	0,042	0,092
-187,387	6,432	-0,131	0,071
-186,373	800,000	-0,030	0,082
-185,358	-138,666	0,007	-0,001
-184,344	-106,344	0,118	0,019
-183,329	304,214	0,075	0,102
-182,315	257,975	-0,052	0,066
-181,300	425,534	-0,026	-0,041
-180,285	37,762	-0,075	0,049
-179,271	-50,844	-0,099	0,034
-178,256	322,036	-0,021	0,029
-177,242	-200,000	-0,002	0,014
-176,227	134,205	0,098	-0,093
-175,212	-125,257	-0,156	-0,017
-174,198	-8,869	-0,060	0,029
-173,183	-103,183	-0,090	-0,015
-172,169	-200,000	0,067	0,000
-171,154	230,697	0,061	0,073
-170,139	140,174	-0,018	-0,017
-169,125	-200,000	-0,009	0,074
-168,110	557,687	-0,011	-0,020
-167,096	151,833	-0,057	-0,057
-166,081	-39,994	0,077	-0,029
-165,066	13,622	-0,025	0,014
-164,052	165,403	-0,051	0,052
-163,037	-200,000	0,005	-0,081
-162,023	-96,219	0,062	-0,012
-161,008	9,910	0,097	0,054
-159,993	800,000	0,050	0,108
-158,979	-129,791	-0,187	-0,018
-157,964	16,167	-0,063	-0,036
-156,950	52,129	0,032	0,022
-155,935	-200,000	0,021	-0,084
-154,920	-200,000	0,001	0,021
-153,906	-200,000	0,007	-0,060
-152,891	297,240	-0,033	0,045
-151,877	282,147	-0,018	-0,023
-150,862	-70,792	-0,121	0,033
-149,847	-127,175	-0,162	-0,017
-148,833	-200,000	0,001	0,089
-147,818	-200,000	-0,004	0,154
-146,804	800,000	0,020	0,042
-145,789	648,928	-0,027	0,050
-144,775	-18,243	0,055	0,025
-143,760	-32,365	-0,120	-0,048
-142,745	-170,475	-0,165	-0,004
-141,731	-9,536	0,086	-0,042
-140,716	800,000	-0,038	0,077
-139,702	167,429	0,026	-0,027
-138,687	579,919	-0,047	-0,084
-137,672	112,518	-0,048	0,042
-136,658	-200,000	-0,014	0,076
-135,643	438,141	0,034	0,054
-134,629	-200,000	-0,019	-0,077
-133,614	-169,560	-0,084	-0,002
-132,599	-14,497	-0,039	-0,018
-131,585	164,645	0,099	-0,102
-130,570	57,751	0,073	0,052
-129,556	447,482	-0,042	-0,068
-128,541	-200,000	0,023	-0,115
-127,526	-200,000	0,004	0,029
-126,512	-167,072	-0,034	-0,001
-125,497	-63,840	-0,081	0,024
-124,483	-200,000	-0,007	-0,050
-123,468	800,000	0,008	-0,023
-122,453	663,056	-0,035	-0,066
-121,439	-33,772	0,137	-0,055
-120,424	-28,331	0,086	-0,036
