DTS Sentinel unit serial number:	SN410029Multiplexer serial number:	ORYXHardware model number:	OX2-SRSoftware version number:	ORYX F/W v4,00 Oryx Data Collector v3.7.2.0data status	okinstallation	B6 Nyhavnadifferential loss correction	single-endedforward channel	channel 2reverse channel	N/Adate	2023/12/08time	09:25:08forward acquisition time	300,00reverse acquisition time	0,00gamma	499,1914k internal	0,3167k external	0,3167temperature offset calibration	1,0000default loss term (dB/km)	0,3820temperature slope calibration	1,0000multiplexer offset coefficient	1,0000multiplexer slope coefficient	1,0000fibre end	0,00T internal ref (°C)	13,39T ext. ref 1 (°C)	-2,08T ext. ref 2 (°C)	-2,04length (m)	temperature (°C)	Stokes	anti-Stokes-744,400	-8,493	0,038	-0,019
-743,385	-5,904	-0,337	-0,169
-742,371	-148,656	0,137	0,008
-741,356	-83,999	-0,228	-0,053
-740,342	-54,108	0,280	0,093
-739,327	-89,984	-0,328	-0,070
-738,312	-76,984	0,123	0,031
-737,298	14,694	-0,280	-0,161
-736,283	-67,587	0,239	0,069
-735,269	-132,443	-0,264	-0,025
-734,254	-148,806	0,100	-0,006
-733,239	-6,181	-0,456	-0,228
-732,225	60,565	0,078	-0,057
-731,210	-200,000	-0,038	0,137
-730,196	-130,977	-0,137	0,013
-729,181	800,000	-0,046	0,137
-728,167	-200,000	0,020	-0,068
-727,152	-200,000	0,010	0,038
-726,137	-200,000	0,013	-0,129
-725,123	-69,128	0,100	-0,028
-724,108	250,503	-0,064	-0,080
-723,094	800,000	0,043	0,138
-722,079	-200,000	-0,003	-0,139
-721,064	-200,000	-0,059	-0,207
-720,050	-200,000	0,006	-0,154
-719,035	177,702	-0,112	-0,120
-718,021	-72,317	-0,076	0,021
-717,006	276,283	-0,096	-0,126
-715,991	-200,000	-0,004	-0,134
-714,977	398,668	-0,004	-0,006
-713,962	-200,000	0,016	-0,108
-712,948	148,702	0,021	-0,021
-711,933	28,202	-0,211	-0,130
-710,918	-96,987	0,064	0,012
-709,904	-95,277	-0,146	-0,029
-708,889	184,188	0,013	-0,014
-707,875	319,694	-0,129	-0,179
-706,860	-16,889	0,066	0,030
-705,845	-200,000	-0,011	-0,090
-704,831	800,000	0,021	0,057
-703,816	-2,698	0,131	-0,067
-702,802	511,342	-0,024	-0,041
-701,787	68,161	-0,065	-0,048
-700,772	800,000	0,021	-0,050
-699,758	-52,604	0,089	0,030
-698,743	-101,197	0,090	-0,016
-697,729	-18,574	0,040	-0,018
-696,714	414,586	0,027	0,042
-695,699	119,168	-0,111	-0,101
-694,685	225,699	-0,036	-0,043
-693,670	25,578	-0,111	-0,067
-692,656	-102,980	0,178	-0,031
-691,641	-47,482	-0,127	-0,045
-690,627	465,412	0,061	-0,101
-689,612	-31,427	0,025	-0,010
-688,597	-200,000	0,003	0,048
-687,583	281,174	-0,028	-0,037
-686,568	-200,000	0,004	-0,133
-685,554	377,800	0,057	0,086
-684,539	186,414	-0,071	0,078
-683,524	-200,000	0,003	-0,073
-682,510	-200,000	-0,002	0,066
-681,495	-55,814	0,038	-0,012
-680,481	-169,302	-0,068	-0,002
-679,466	-117,931	-0,118	-0,015
-678,451	800,000	-0,011	-0,023
-677,437	197,225	0,036	-0,040
-676,422	476,724	0,059	0,098
-675,408	-33,144	0,094	-0,038
-674,393	83,362	-0,067	0,054
-673,378	800,000	0,024	-0,077
-672,364	190,556	-0,036	0,040
-671,349	93,233	-0,075	0,062
-670,335	159,758	0,028	-0,028
-669,320	-78,863	0,083	-0,020
-668,305	-137,477	0,043	-0,004
-667,291	42,876	-0,104	-0,069
-666,276	800,000	-0,025	0,076
-665,262	-200,000	0,018	-0,090
-664,247	800,000	0,032	-0,087
-663,232	-43,637	-0,138	-0,051
-662,218	163,700	0,026	-0,026
-661,203	800,000	0,019	0,056
-660,189	800,000	0,021	0,049
-659,174	766,455	-0,038	0,076
-658,159	778,462	-0,066	-0,133
-657,145	342,592	-0,011	-0,016
-656,130	-96,440	0,120	-0,023
-655,116	672,794	-0,044	0,084
-654,101	-146,483	0,128	0,008
-653,086	800,000	-0,027	0,072
-652,072	-63,559	-0,045	0,013
-651,057	-110,969	-0,023	-0,003
-650,043	-200,000	0,000	-0,011
-649,028	800,000	-0,025	0,079
-648,014	-98,915	0,082	0,015
-646,999	24,850	0,127	0,077
-645,984	-200,000	0,005	0,026
-644,970	34,257	-0,067	-0,043
-643,955	-200,000	-0,020	-0,089
-642,941	-54,447	-0,197	-0,065
-641,926	70,015	0,076	0,057
-640,911	30,009	0,077	-0,048
-639,897	68,451	-0,039	0,029
-638,882	-152,168	0,154	0,008
-637,868	-100,445	-0,063	0,011
-636,853	539,692	-0,069	-0,120
-635,838	-200,000	0,005	0,038
-634,824	108,858	0,102	0,089
-633,809	520,663	-0,003	0,006
-632,795	-94,336	-0,047	-0,009
-631,780	408,454	0,102	-0,158
-630,765	-134,925	-0,147	0,013
-629,751	-52,827	0,033	-0,011
-628,736	-76,955	-0,112	-0,028
-627,722	-150,447	-0,093	-0,005
-626,707	211,616	0,048	-0,056
-625,692	244,993	0,079	0,098
-624,678	266,321	0,043	0,056
-623,663	230,890	0,023	0,028
-622,649	214,857	-0,075	-0,087
-621,634	-200,000	0,012	-0,107
-620,619	268,553	-0,038	0,049
-619,605	63,267	-0,024	0,017
-618,590	53,088	0,121	0,084
-617,576	-200,000	0,029	-0,096
-616,561	795,351	0,020	-0,040
-615,546	194,496	-0,031	0,034
-614,532	-200,000	0,004	-0,020
-613,517	-144,089	-0,188	-0,013
-612,503	-111,040	0,038	0,006
-611,488	-100,027	-0,046	-0,008
-610,474	-31,957	0,041	0,017
-609,459	48,700	-0,098	-0,067
-608,444	-200,000	-0,011	0,072
-607,430	-200,000	-0,001	-0,079
-606,415	540,543	0,038	-0,066
-605,401	-5,000	0,036	-0,018
-604,386	25,131	0,089	-0,054
-603,371	-115,794	-0,067	0,009
-602,357	164,473	-0,041	-0,042
-601,342	174,229	0,016	-0,017
-600,328	135,089	-0,056	-0,054
-599,313	-200,000	-0,006	0,037
-598,298	-37,702	0,018	-0,007
-597,284	-200,000	-0,004	0,057
-596,269	9,967	-0,079	0,044
-595,255	-200,000	0,012	-0,132
-594,240	30,164	-0,130	0,081
-593,225	143,009	0,060	-0,059
-592,211	800,000	-0,028	-0,082
-591,196	-39,977	0,060	0,023
-590,182	-50,021	-0,117	0,040
-589,167	-34,627	0,124	0,049
-588,152	30,318	-0,062	-0,038
-587,138	-98,880	-0,258	-0,047
-586,123	394,453	-0,039	0,059
-585,109	-146,592	-0,093	-0,006
-584,094	-164,557	-0,144	0,005
-583,079	-90,949	0,096	0,020
-582,065	-39,367	0,020	-0,008
-581,050	-200,000	-0,052	-0,171
-580,036	-63,184	-0,078	-0,023
-579,021	382,769	-0,055	0,084
-578,006	5,171	0,069	-0,037
-576,992	-174,127	0,069	0,001
-575,977	94,505	0,082	0,068
-574,963	25,327	0,070	-0,042
-573,948	41,986	-0,024	0,016
-572,934	-78,135	0,093	0,023
-571,919	-2,403	-0,163	0,083
-570,904	-200,000	-0,004	-0,124
-569,890	-42,113	0,116	-0,043
-568,875	736,052	0,033	-0,065
-567,861	-52,292	0,072	0,024
-566,846	-200,000	-0,005	-0,080
-565,831	-117,506	-0,073	0,010
-564,817	8,748	-0,046	-0,025
-563,802	800,000	0,020	0,050
-562,788	-138,137	-0,155	0,012
-561,773	558,848	0,044	-0,077
-560,758	800,000	-0,057	0,116
-559,744	-200,000	-0,004	0,051
-558,729	198,239	0,023	0,026
-557,715	-200,000	0,000	-0,084
-556,700	-200,000	-0,003	0,023
-555,685	47,295	-0,062	0,042
-554,671	-200,000	-0,010	-0,150
-553,656	90,864	0,036	-0,030
-552,642	153,732	0,082	0,082
-551,627	-200,000	0,010	0,114
-550,612	-200,000	-0,016	-0,051
-549,598	722,156	-0,067	-0,130
-548,583	-200,000	0,015	-0,054
-547,569	275,910	-0,029	-0,037
-546,554	-200,000	-0,014	0,060
-545,539	800,000	-0,023	0,070
-544,525	-200,000	-0,004	0,101
-543,510	243,368	-0,061	0,075
-542,496	800,000	-0,035	0,073
-541,481	78,122	0,056	0,044
-540,466	-200,000	-0,001	0,031
-539,452	57,483	0,122	-0,087
-538,437	-37,842	0,064	0,025
-537,423	173,433	0,027	-0,028
-536,408	-200,000	-0,013	-0,054
-535,393	219,452	-0,069	-0,080
-534,379	122,733	-0,029	0,026
-533,364	451,878	-0,088	-0,142
-532,350	-200,000	0,026	0,094
-531,335	-200,000	0,011	0,099
-530,321	-200,000	-0,034	-0,121
-529,306	-64,989	0,037	-0,011
-528,291	-72,304	0,071	-0,019
-527,277	538,480	-0,111	-0,194
-526,262	-200,000	-0,026	-0,165
-525,248	800,000	0,026	-0,075
-524,233	800,000	0,014	0,039
-523,218	-200,000	0,013	-0,069
-522,204	800,000	0,040	-0,101
-521,189	25,064	0,083	-0,050
-520,175	-200,000	-0,035	-0,120
-519,160	-79,850	-0,121	0,029
-518,145	403,795	0,151	0,232
-517,131	800,000	-0,011	-0,025
-516,116	244,938	-0,029	0,036
-515,102	487,408	0,117	-0,196
-514,087	800,000	0,032	-0,069
-513,072	-200,000	0,003	-0,022
-512,058	92,618	0,007	-0,006
-511,043	12,064	-0,045	-0,025
-510,029	-200,000	-0,004	-0,019
-509,014	800,000	-0,032	0,069
-507,999	794,822	0,061	-0,122
-506,985	-17,918	0,141	-0,064
-505,970	640,878	-0,057	0,106
-504,956	-200,000	-0,012	-0,046
-503,941	92,684	0,059	-0,048
-502,926	-200,000	-0,012	0,119
-501,912	36,103	-0,077	0,049
-500,897	-90,710	0,175	0,036
-499,883	-22,564	-0,092	0,041
-498,868	-200,000	0,007	-0,064
-497,853	24,912	0,038	0,023
-496,839	1,646	0,054	0,028
-495,824	370,297	-0,046	0,068
-494,810	800,000	-0,010	-0,027
-493,795	140,456	-0,066	-0,063
-492,781	-0,782	-0,109	-0,056
-491,766	409,642	-0,044	-0,068
-490,751	-99,135	0,112	-0,020
-489,737	546,264	0,075	-0,132
-488,722	800,000	-0,016	0,041
-487,708	-200,000	0,000	0,122
-486,693	-114,196	-0,084	0,012
-485,678	102,010	-0,053	0,045
-484,664	223,185	-0,033	-0,038
-483,649	-94,021	-0,182	0,036
-482,635	-134,734	-0,098	0,009
-481,620	-58,923	0,111	-0,035
-480,605	-22,215	-0,085	-0,037
-479,591	-88,317	-0,103	-0,022
-478,576	9,634	0,062	0,034
-477,562	-200,000	-0,019	-0,074
-476,547	22,403	-0,148	0,088
-475,532	-200,000	0,006	-0,079
-474,518	800,000	-0,015	-0,032
-473,503	-1,332	0,136	0,069
-472,489	-200,000	-0,010	0,052
-471,474	-200,000	-0,032	0,137
-470,459	800,000	0,011	-0,026
-469,445	500,312	-0,045	-0,076
-468,430	-135,565	0,053	-0,004
-467,416	800,000	-0,017	-0,050
-466,401	48,520	0,150	0,102
-465,386	-99,484	-0,110	0,020
-464,372	780,730	-0,070	0,139
-463,357	-200,000	0,005	0,048
-462,343	-200,000	-0,010	0,077
-461,328	647,009	-0,035	-0,065
-460,313	787,241	-0,012	0,024
-459,299	362,347	0,055	0,080
-458,284	-200,000	0,013	0,077
-457,270	302,285	-0,049	0,067
-456,255	-72,526	0,050	0,013
-455,241	104,893	0,102	0,088
-454,226	18,578	-0,082	-0,048
-453,211	8,267	-0,016	0,008
-452,197	-200,000	0,008	-0,059
-451,182	164,837	0,111	0,114
-450,168	-200,000	0,024	0,088
-449,153	369,532	-0,065	0,096
-448,138	-135,337	-0,122	0,010
-447,124	-200,000	-0,023	0,140
-446,109	800,000	0,008	-0,021
-445,095	800,000	-0,009	-0,024
-444,080	117,503	0,082	0,074
-443,065	57,082	-0,071	0,050
-442,051	423,514	-0,036	0,056
-441,036	-200,000	-0,002	-0,086
-440,022	-200,000	0,019	-0,093
-439,007	-58,923	-0,034	-0,011
-437,992	114,924	-0,019	-0,017
-436,978	34,682	-0,038	0,024
-435,963	-200,000	-0,003	0,020
-434,949	-169,492	0,097	0,003
-433,934	418,714	-0,039	0,061
-432,919	-19,456	0,068	-0,030
-431,905	-200,000	-0,027	0,090
-430,890	49,068	0,133	0,091
-429,876	-39,043	0,111	0,042
-428,861	314,883	0,040	-0,055
-427,846	-7,059	0,162	0,080
-426,832	-56,537	-0,088	0,028
-425,817	800,000	-0,023	0,047
-424,803	-200,000	0,004	-0,013
-423,788	429,082	-0,016	0,025
-422,773	-200,000	-0,010	-0,043
-421,759	-105,636	-0,007	-0,001
-420,744	1,332	0,067	0,035
-419,730	800,000	-0,049	-0,119
-418,715	800,000	-0,036	-0,075
-417,701	-63,786	-0,080	-0,023
-416,686	36,194	0,045	0,029
-415,671	367,600	0,057	0,084
-414,657	-25,186	-0,083	0,036
-413,642	-1,601	-0,158	-0,080
-412,628	133,119	-0,046	-0,043
-411,613	-200,000	-0,010	0,055
-410,598	47,172	0,095	0,064
-409,584	-200,000	-0,008	-0,045
-408,569	183,648	-0,090	0,096
-407,555	-72,811	-0,101	0,027
-406,540	-146,549	-0,129	0,008
-405,525	-96,763	0,087	-0,016
-404,511	800,000	-0,044	-0,124
-403,496	-200,000	-0,019	0,075
-402,482	239,638	-0,029	0,034
-401,467	-131,128	0,056	0,005
-400,452	-200,000	-0,010	0,067
-399,438	-200,000	-0,027	0,115
-398,423	-124,460	0,206	-0,023
-397,409	-113,746	-0,115	0,016
-396,394	800,000	0,041	-0,084
-395,379	-200,000	0,016	0,099
-394,365	183,227	0,068	0,073
-393,350	-200,000	0,013	-0,099
-392,336	-78,113	-0,053	-0,013
-391,321	-200,000	0,021	-0,115
-390,306	-200,000	-0,005	0,063
-389,292	221,043	-0,049	0,057
-388,277	-200,000	0,001	0,042
-387,263	-90,418	0,033	-0,007
-386,248	-200,000	0,024	0,182
-385,233	-200,000	0,096	0,000
-384,219	605,075	-0,067	-0,122
-383,204	-200,000	-0,032	-0,136
-382,190	34,067	0,019	0,012
-381,175	-200,000	-0,010	0,187
-380,160	-27,408	0,210	-0,088
-379,146	43,899	0,097	-0,064
-378,131	800,000	0,028	0,072
-377,117	800,000	0,040	-0,088
-376,102	800,000	-0,018	-0,043
-375,088	89,765	-0,014	-0,011
-374,073	800,000	-0,035	0,096
-373,058	-109,637	0,073	0,011
-372,044	800,000	0,017	0,035
-371,029	-200,000	-0,010	0,086
-370,015	122,961	-0,107	-0,097
-369,000	800,000	-0,041	-0,119
-367,985	-200,000	0,007	-0,064
-366,971	-43,206	0,011	-0,004
-365,956	451,556	0,018	0,028
-364,942	170,879	0,108	0,112
-363,927	-132,206	0,072	0,007
-362,912	800,000	0,033	-0,096
-361,898	-116,789	-0,082	0,011
-360,883	-74,322	-0,141	0,037
-359,869	243,965	-0,083	-0,101
-358,854	-162,093	0,138	0,005
-357,839	273,052	0,048	-0,062
-356,825	-107,268	0,087	0,014
-355,810	323,205	0,060	0,083
-354,796	-33,265	0,077	-0,031
-353,781	-67,210	-0,067	0,019
-352,766	393,305	0,059	-0,089
-351,752	-33,767	0,085	0,034
-350,737	45,914	-0,083	-0,056
-349,723	800,000	-0,052	0,136
-348,708	151,933	0,070	-0,069
-347,693	-200,000	0,001	0,115
-346,679	800,000	-0,072	-0,203
-345,664	95,245	-0,118	-0,097
-344,650	-67,894	0,011	0,003
-343,635	-157,924	-0,112	0,005
-342,620	-200,000	-0,026	0,139
-341,606	-200,000	-0,008	-0,044
-340,591	-200,000	0,010	-0,064
-339,577	213,932	-0,094	-0,108
-338,562	-50,982	0,048	-0,016
-337,548	26,527	-0,055	-0,033
-336,533	279,163	0,100	-0,129
-335,518	166,088	0,015	-0,016
-334,504	-134,598	-0,106	0,009
-333,489	330,859	-0,038	-0,054
-332,475	315,398	0,062	-0,085
-331,460	-200,000	0,025	0,093
-330,445	-200,000	-0,011	-0,101
-329,431	585,808	0,033	0,058
-328,416	550,853	0,089	0,155
-327,402	131,039	0,083	0,077
-326,387	323,367	0,019	-0,027
-325,372	45,462	0,045	-0,030
-324,358	233,076	-0,103	-0,122
-323,343	27,952	0,103	0,063
-322,329	440,161	0,037	0,059
-321,314	-200,000	-0,009	0,100
-320,299	-200,000	0,022	0,162
-319,285	15,696	0,031	-0,017
-318,270	-105,599	-0,088	0,014
-317,256	-177,161	-0,076	0,001
-316,241	346,514	-0,049	0,070
-315,226	67,542	0,076	0,056
-314,212	-60,392	0,075	0,023
-313,197	401,761	-0,047	-0,071
-312,183	-141,895	0,075	-0,005
-311,168	800,000	-0,008	-0,021
-310,153	183,136	0,019	-0,020
-309,139	-200,000	0,032	0,148
-308,124	9,651	0,101	-0,055
-307,110	-124,450	0,069	-0,008
-306,095	-200,000	-0,003	-0,151
-305,080	800,000	-0,069	0,143
-304,066	-91,291	-0,112	0,023
-303,051	800,000	-0,022	-0,050
-302,037	-83,228	0,130	0,030
-301,022	800,000	-0,031	-0,067
-300,008	125,868	-0,055	0,050
-298,993	116,207	0,059	-0,052
-297,978	-42,296	0,136	-0,050
-296,964	-59,278	-0,068	0,021
-295,949	-200,000	0,001	0,004
-294,935	-55,167	0,096	0,031
-293,920	646,956	-0,013	-0,024
-292,905	800,000	0,018	-0,043
-291,891	163,564	0,019	-0,019
-290,876	375,150	-0,014	0,021
-289,862	-200,000	0,014	-0,141
-288,847	-87,694	-0,087	-0,019
-287,832	69,121	-0,050	0,037
-286,818	-57,439	0,062	-0,019
-285,803	800,000	-0,015	0,035
-284,789	800,000	0,061	0,142
-283,774	-103,535	0,020	-0,003
-282,759	-200,000	-0,016	-0,092
-281,745	-74,231	-0,107	-0,028
-280,730	25,557	-0,067	-0,040
-279,716	-200,000	0,039	0,159
-278,701	-109,417	-0,038	-0,006
-277,686	-200,000	0,002	0,123
-276,672	-47,688	-0,033	-0,012
-275,657	71,675	-0,017	0,013
-274,643	-200,000	0,005	0,121
-273,628	800,000	-0,027	-0,085
-272,613	428,288	0,027	-0,042
-271,599	-200,000	0,009	-0,054
-270,584	-17,257	0,016	-0,007
-269,570	500,300	-0,092	0,154
-268,555	600,800	-0,059	0,105
-267,540	-200,000	-0,014	0,049
-266,526	-51,180	-0,112	-0,038
-265,511	-138,395	-0,184	-0,014
-264,497	-200,000	-0,006	-0,038
-263,482	140,308	0,016	-0,015
-262,467	800,000	-0,050	0,125
-261,453	-200,000	0,002	-0,008
-260,438	134,960	-0,018	-0,017
-259,424	-37,542	-0,117	-0,045
-258,409	86,713	-0,014	-0,012
-257,395	-200,000	-0,022	0,089
-256,380	62,464	0,108	-0,078
-255,365	118,910	0,079	0,070
-254,351	167,631	0,097	0,099
-253,336	-200,000	0,026	0,088
-252,322	589,609	0,116	-0,207
-251,307	684,709	0,017	-0,033
-250,292	800,000	0,057	0,129
-249,278	105,932	0,041	-0,035
-248,263	-45,376	-0,050	0,018
-247,249	800,000	0,033	-0,083
-246,234	241,315	0,091	-0,110
-245,219	-200,000	0,012	0,085
-244,205	800,000	-0,002	-0,004
-243,190	68,541	-0,027	0,020
-242,176	-125,157	-0,040	-0,004
-241,161	-200,000	-0,014	-0,053
-240,146	-200,000	-0,008	-0,033
-239,132	800,000	0,013	0,039
-238,117	-38,485	-0,188	-0,071
-237,103	-69,755	0,112	0,031
-236,088	182,197	-0,121	-0,128
-235,073	126,489	0,019	0,017
-234,059	325,035	0,077	0,106
-233,044	97,177	-0,098	0,081
-232,030	456,579	-0,033	-0,053
-231,015	-4,914	-0,067	0,033
-230,000	-200,000	0,021	-0,091
-228,986	167,122	-0,018	-0,019
-227,971	800,000	-0,028	-0,073
-226,957	-180,844	0,170	-0,002
-225,942	-108,787	-0,163	0,025
-224,927	7,764	0,139	0,075
-223,913	348,902	-0,055	-0,078
-222,898	-18,084	0,051	-0,023
-221,884	-72,188	-0,091	0,024
-220,869	-200,000	-0,003	0,114
-219,855	209,389	-0,078	-0,088
-218,840	-200,000	-0,038	0,124
-217,825	-100,409	0,135	0,024
-216,811	-44,357	-0,178	-0,064
-215,796	-193,352	-0,113	0,001
-214,782	-136,675	-0,057	-0,005
-213,767	-200,000	0,007	0,032
-212,752	299,724	0,095	-0,126
-211,738	-112,560	0,088	-0,012
-210,723	-81,913	0,108	0,025
-209,709	179,649	-0,088	0,093
-208,694	-124,947	-0,052	0,006
-207,679	-200,000	0,002	-0,020
-206,665	800,000	0,068	-0,146
-205,650	488,547	0,027	-0,045
-204,636	-18,339	0,100	0,045
-203,621	800,000	-0,073	0,189
-202,606	308,983	-0,028	0,038
-201,592	-141,446	-0,028	-0,002
-200,577	210,995	0,020	-0,023
-199,563	-200,000	0,007	-0,086
-198,548	-200,000	-0,057	-0,201
-197,533	38,367	0,059	-0,038
-196,519	-90,914	0,069	-0,014
-195,504	-200,000	0,023	-0,091
-194,490	-200,000	0,016	-0,154
-193,475	7,101	0,145	-0,078
-192,460	660,463	0,059	0,109
-191,446	245,234	-0,050	-0,060
-190,431	9,621	0,091	0,050
-189,417	69,001	0,138	0,102
-188,402	-79,542	0,119	-0,029
-187,387	-59,305	-0,203	0,062
-186,373	-53,227	-0,055	0,018
-185,358	-59,949	0,031	-0,010
-184,344	340,682	0,010	0,015
-183,329	-122,157	0,176	0,020
-182,315	-200,000	0,021	0,121
-181,300	-82,792	0,092	0,021
-180,285	-16,562	-0,088	-0,040
-179,271	800,000	0,040	0,090
-178,256	-200,000	0,018	0,090
-177,242	-146,328	0,058	0,004
-176,227	218,570	0,065	0,075
-175,212	-200,000	0,000	0,019
-174,198	-101,861	-0,031	-0,005
-173,183	800,000	-0,025	-0,072
-172,169	-200,000	-0,083	-0,000
-171,154	470,605	0,007	-0,011
-170,139	-92,334	0,149	-0,030
-169,125	447,831	0,092	0,147
-168,110	45,441	-0,087	-0,057
-167,096	800,000	0,038	0,091
-166,081	800,000	0,045	-0,091
-165,066	800,000	0,035	-0,087
-164,052	800,000	-0,033	-0,079
-163,037	26,939	0,143	0,086
-162,023	352,856	0,048	0,068
-161,008	800,000	0,020	-0,054
-159,993	318,092	-0,027	0,036
-158,979	-23,321	0,018	0,008
-157,964	117,480	-0,056	0,049
-156,950	39,028	-0,024	-0,016
-155,935	-74,285	-0,120	0,031
-154,920	-200,000	0,038	-0,123
-153,906	-57,412	-0,082	0,026
-152,891	-113,657	0,110	-0,015
-151,877	-200,000	-0,015	-0,165
-150,862	200,314	-0,123	-0,136
-149,847	44,494	0,007	0,005
-148,833	-91,641	-0,049	0,010
-147,818	24,145	0,010	0,006
-146,804	66,099	0,111	-0,081
-145,789	363,821	0,070	0,102
-144,775	-200,000	-0,012	-0,048
-143,760	585,436	0,023	0,041
-142,745	800,000	-0,036	0,085
-141,731	-200,000	0,025	0,108
-140,716	71,435	0,053	-0,040
-139,702	-69,156	-0,018	-0,005
-138,687	267,518	-0,023	0,029
-137,672	-105,913	-0,116	0,019
-136,658	-200,000	0,009	-0,043
-135,643	120,013	-0,069	0,061
-134,629	161,448	0,118	0,119
-133,614	-64,614	-0,054	0,016
-132,599	-77,715	0,095	-0,023
-131,585	386,632	-0,052	0,077
-130,570	88,411	0,046	-0,037
-129,556	50,945	-0,065	-0,044
-128,541	-159,352	-0,059	0,002
-127,526	-91,490	0,109	0,022
-126,512	-200,000	-0,020	0,068
-125,497	-200,000	0,008	0,056
-124,483	800,000	-0,016	0,043
-123,468	148,906	-0,081	0,079
-122,453	800,000	-0,018	-0,040
-121,439	-200,000	0,004	0,031
-120,424	-63,090	-0,069	-0,020
-119,410	-200,000	0,002	-0,042
