DTS Sentinel unit serial number:	SN410029Multiplexer serial number:	ORYXHardware model number:	OX2-SRSoftware version number:	ORYX F/W v4,00 Oryx Data Collector v3.7.2.0data status	okinstallation	B6 Nyhavnadifferential loss correction	single-endedforward channel	channel 2reverse channel	N/Adate	2023/12/10time	10:30:08forward acquisition time	300,00reverse acquisition time	0,00gamma	499,1914k internal	0,3122k external	0,3122temperature offset calibration	1,0000default loss term (dB/km)	0,3820temperature slope calibration	1,0000multiplexer offset coefficient	1,0000multiplexer slope coefficient	1,0000fibre end	0,00T internal ref (°C)	22,56T ext. ref 1 (°C)	6,40T ext. ref 2 (°C)	6,39length (m)	temperature (°C)	Stokes	anti-Stokes-744,400	-73,091	0,135	0,037
-743,385	-107,361	-0,190	-0,031
-742,371	446,121	0,049	-0,080
-741,356	170,669	-0,115	0,123
-740,342	800,000	-0,045	-0,134
-739,327	47,112	-0,172	0,119
-738,312	68,089	0,031	0,023
-737,298	-108,226	-0,263	0,042
-736,283	17,875	0,078	0,046
-735,269	113,094	-0,086	0,078
-734,254	-54,108	0,041	0,014
-733,239	-146,415	-0,331	0,021
-732,225	-60,043	0,139	0,044
-731,210	800,000	0,024	0,057
-730,196	-200,000	-0,006	0,055
-729,181	31,170	-0,056	-0,036
-728,167	-200,000	0,040	0,204
-727,152	800,000	0,025	0,060
-726,137	30,461	0,038	0,024
-725,123	197,105	-0,118	-0,135
-724,108	800,000	0,043	-0,114
-723,094	79,629	-0,036	0,029
-722,079	-112,756	0,030	0,004
-721,064	-200,000	-0,019	-0,100
-720,050	-200,000	-0,008	-0,091
-719,035	800,000	0,038	0,121
-718,021	-31,606	0,053	0,022
-717,006	-200,000	0,010	-0,092
-715,991	-200,000	-0,023	-0,159
-714,977	-184,905	-0,072	0,001
-713,962	-16,165	0,101	-0,047
-712,948	86,710	-0,079	0,065
-711,933	-19,178	-0,080	0,037
-710,918	212,660	0,022	-0,026
-709,904	-37,924	-0,071	0,028
-708,889	54,047	-0,056	0,040
-707,875	-48,791	-0,128	-0,045
-706,860	-200,000	0,002	-0,091
-705,845	11,460	-0,031	-0,018
-704,831	48,813	0,017	0,012
-703,816	800,000	-0,031	0,065
-702,802	80,196	-0,039	0,031
-701,787	-200,000	0,032	-0,142
-700,772	-56,719	-0,092	0,030
-699,758	124,406	0,077	0,072
-698,743	-200,000	0,012	0,104
-697,729	65,633	-0,075	-0,056
-696,714	-179,610	-0,086	0,001
-695,699	-70,353	-0,094	-0,026
-694,685	-146,112	0,035	0,002
-693,670	30,156	-0,100	-0,064
-692,656	204,347	0,081	0,094
-691,641	800,000	-0,023	-0,058
-690,627	-200,000	-0,041	-0,144
-689,612	-17,809	0,069	-0,032
-688,597	-200,000	-0,034	-0,128
-687,583	11,908	-0,160	0,091
-686,568	143,164	-0,121	-0,119
-685,554	-157,663	0,149	-0,007
-684,539	-144,893	-0,054	0,004
-683,524	349,522	-0,048	0,070
-682,510	-58,830	0,039	-0,013
-681,495	-200,000	-0,020	-0,128
-680,481	800,000	0,038	-0,096
-679,466	-200,000	-0,039	-0,155
-678,451	800,000	-0,029	-0,089
-677,437	800,000	0,071	0,177
-676,422	-200,000	0,003	0,031
-675,408	-35,150	0,088	-0,035
-674,393	-200,000	-0,013	0,049
-673,378	-126,177	-0,148	-0,016
-672,364	248,089	0,036	-0,046
-671,349	298,285	0,051	-0,070
-670,335	-109,896	0,058	-0,009
-669,320	229,936	-0,041	0,050
-668,305	-144,468	0,062	0,004
-667,291	-113,190	0,056	-0,008
-666,276	260,181	0,033	0,043
-665,262	-200,000	-0,010	-0,035
-664,247	294,798	0,020	0,028
-663,232	111,779	-0,020	-0,018
-662,218	76,455	0,163	0,128
-661,203	-57,224	0,013	-0,004
-660,189	-1,900	-0,057	0,030
-659,174	8,375	-0,111	-0,062
-658,159	483,000	-0,039	-0,066
-657,145	-115,470	-0,113	-0,016
-656,130	101,344	-0,058	-0,050
-655,116	-2,843	0,067	-0,034
-654,101	-19,833	0,037	0,017
-653,086	-171,427	-0,070	0,002
-652,072	-166,548	-0,079	-0,002
-651,057	307,924	-0,042	-0,058
-650,043	800,000	0,055	-0,129
-649,028	-103,785	-0,113	0,019
-648,014	-200,000	0,032	0,122
-646,999	-200,000	0,032	0,122
-645,984	-200,000	-0,004	-0,022
-644,970	-15,629	0,040	0,019
-643,955	-79,318	-0,060	-0,015
-642,941	202,827	-0,066	-0,076
-641,926	-81,692	-0,090	0,022
-640,911	443,124	0,065	-0,106
-639,897	800,000	-0,060	0,152
-638,882	113,685	-0,081	-0,073
-637,868	-52,939	0,013	-0,004
-636,853	338,598	-0,040	-0,058
-635,838	48,409	-0,062	-0,043
-634,824	31,411	0,123	0,078
-633,809	18,092	0,047	-0,028
-632,795	239,888	0,046	0,058
-631,780	557,853	0,117	0,210
-630,765	68,353	0,028	-0,021
-629,751	-200,000	-0,005	-0,042
-628,736	-79,952	-0,147	0,036
-627,722	109,733	0,085	0,076
-626,707	-64,031	-0,038	-0,011
-625,692	350,648	0,089	0,131
-624,678	-149,863	-0,081	0,005
-623,663	50,110	0,109	0,076
-622,649	-200,000	-0,029	0,117
-621,634	85,876	-0,077	-0,063
-620,619	800,000	-0,040	-0,112
-619,605	-200,000	0,011	-0,053
-618,590	540,604	-0,045	-0,080
-617,576	-200,000	0,035	-0,159
-616,561	800,000	0,013	-0,041
-615,546	-35,084	-0,107	0,043
-614,532	113,369	-0,026	0,024
-613,517	159,203	-0,047	-0,049
-612,503	-200,000	-0,010	0,038
-611,488	-200,000	0,030	0,142
-610,474	-53,619	-0,030	0,010
-609,459	-144,357	-0,096	0,007
-608,444	544,145	-0,036	-0,064
-607,430	237,507	-0,068	-0,084
-606,415	315,246	-0,052	-0,074
-605,401	206,354	-0,009	0,011
-604,386	57,336	0,037	0,027
-603,371	121,912	0,074	-0,069
-602,357	-137,415	0,068	-0,006
-601,342	30,965	0,077	0,049
-600,328	-200,000	-0,019	0,142
-599,313	434,288	-0,033	-0,053
-598,298	-200,000	0,030	-0,136
-597,284	-42,633	-0,071	-0,027
-596,269	375,556	0,059	-0,089
-595,255	-165,604	0,080	-0,003
-594,240	-130,113	-0,138	0,014
-593,225	-200,000	-0,005	-0,109
-592,211	32,604	-0,085	-0,054
-591,196	625,080	0,016	-0,030
-590,182	-143,408	-0,084	-0,006
-589,167	5,230	0,065	0,035
-588,152	-115,936	0,052	-0,007
-587,138	-103,281	-0,052	-0,009
-586,123	-163,502	-0,139	-0,005
-585,109	7,749	0,028	0,015
-584,094	-43,063	-0,152	-0,057
-583,079	7,948	0,145	-0,080
-582,065	-200,000	-0,000	0,035
-581,050	-200,000	0,001	0,074
-580,036	-120,443	0,012	-0,002
-579,021	-36,406	-0,065	-0,026
-578,006	-200,000	0,017	-0,068
-576,992	346,027	0,031	-0,045
-575,977	-104,066	-0,153	0,026
-574,963	503,028	0,028	-0,048
-573,948	376,952	-0,023	0,034
-572,934	-144,196	0,119	-0,008
-571,919	31,896	0,023	-0,015
-570,904	-200,000	-0,001	-0,064
-569,890	-200,000	-0,001	0,059
-568,875	800,000	-0,018	0,051
-567,861	362,615	-0,039	-0,058
-566,846	-62,300	-0,091	0,028
-565,831	467,751	-0,040	0,066
-564,817	-200,000	-0,005	-0,046
-563,802	800,000	0,030	0,073
-562,788	-123,121	0,072	-0,008
-561,773	22,741	-0,076	0,046
-560,758	-200,000	0,123	-0,000
-559,744	-200,000	0,002	0,135
-558,729	746,665	0,024	-0,048
-557,715	-196,221	-0,102	0,001
-556,700	-26,381	-0,157	-0,068
-555,685	538,235	-0,031	0,054
-554,671	-200,000	-0,009	-0,079
-553,656	-105,232	0,041	0,007
-552,642	38,359	0,057	0,038
-551,627	800,000	0,026	-0,054
-550,612	78,435	0,058	0,046
-549,598	193,131	-0,032	-0,036
-548,583	-193,644	-0,188	0,001
-547,569	103,854	-0,059	-0,051
-546,554	113,613	0,101	0,091
-545,539	-183,287	0,151	0,002
-544,525	71,239	0,085	0,065
-543,510	-148,811	-0,186	0,011
-542,496	-200,000	0,010	-0,129
-541,481	-200,000	0,004	-0,045
-540,466	557,828	-0,033	0,059
-539,452	145,505	-0,046	-0,045
-538,437	96,835	0,129	0,109
-537,423	-65,698	0,110	0,032
-536,408	6,249	0,027	0,015
-535,393	-200,000	-0,008	-0,131
-534,379	82,922	-0,112	-0,090
-533,364	3,037	-0,019	0,010
-532,350	3,374	0,048	-0,026
-531,335	-102,274	0,170	-0,030
-530,321	150,329	0,045	0,045
-529,306	800,000	-0,026	-0,063
-528,291	-175,984	-0,077	0,001
-527,277	-118,696	-0,099	-0,013
-526,262	-94,469	-0,123	-0,025
-525,248	537,551	0,083	-0,147
-524,233	-200,000	0,023	0,166
-523,218	245,731	0,044	-0,055
-522,204	762,170	0,007	0,015
-521,189	-200,000	0,026	-0,085
-520,175	-200,000	-0,006	-0,055
-519,160	15,339	-0,037	0,022
-518,145	-115,487	-0,084	-0,012
-517,131	9,392	-0,121	-0,068
-516,116	-5,047	-0,055	0,028
-515,102	800,000	-0,026	0,057
-514,087	-152,023	-0,116	0,006
-513,072	-51,820	-0,096	0,033
-512,058	15,838	-0,050	-0,029
-511,043	-8,913	-0,139	-0,069
-510,029	191,724	0,050	0,055
-509,014	-200,000	0,001	0,026
-507,999	471,404	-0,043	-0,072
-506,985	10,127	-0,071	0,040
-505,970	-60,798	0,022	-0,007
-504,956	135,610	-0,012	0,012
-503,941	800,000	0,058	0,126
-502,926	-24,084	-0,115	-0,050
-501,912	43,295	0,109	-0,074
-500,897	-111,834	0,061	-0,009
-499,883	-200,000	-0,005	0,142
-498,868	418,357	0,048	0,077
-497,853	109,244	-0,162	-0,143
-496,839	800,000	0,040	-0,120
-495,824	-147,266	-0,047	0,003
-494,810	-200,000	-0,001	0,045
-493,795	-200,000	0,003	-0,088
-492,781	137,025	-0,027	-0,026
-491,766	-200,000	0,032	-0,186
-490,751	92,121	0,122	-0,101
-489,737	67,428	0,073	0,055
-488,722	81,878	0,069	0,055
-487,708	116,818	0,037	-0,034
-486,693	123,726	-0,033	-0,031
-485,678	-91,742	-0,072	-0,015
-484,664	-200,000	0,005	-0,096
-483,649	235,601	-0,096	-0,117
-482,635	-200,000	-0,036	0,120
-481,620	226,767	0,062	0,075
-480,605	178,243	0,063	0,068
-479,591	94,846	-0,037	0,031
-478,576	152,479	-0,047	0,048
-477,562	98,552	0,109	-0,092
-476,547	302,631	-0,069	-0,095
-475,532	453,023	-0,064	-0,106
-474,518	-200,000	-0,008	0,067
-473,503	-33,272	0,108	0,044
-472,489	261,506	0,121	-0,154
-471,474	-200,000	-0,019	-0,088
-470,459	216,100	0,055	-0,065
-469,445	800,000	0,034	0,091
-468,430	205,799	0,087	-0,100
-467,416	-200,000	0,017	0,074
-466,401	-119,469	0,086	-0,011
-465,386	377,113	-0,075	0,113
-464,372	36,899	-0,037	-0,024
-463,357	235,088	-0,094	-0,115
-462,343	-200,000	-0,017	-0,097
-461,328	-9,836	0,106	0,052
-460,313	-73,459	0,140	0,037
-459,299	-118,426	-0,206	0,027
-458,284	14,222	0,105	-0,060
-457,270	140,031	-0,034	0,033
-456,255	89,933	0,019	0,016
-455,241	-22,615	-0,096	-0,042
-454,226	400,303	0,026	0,040
-453,211	-137,293	0,139	0,012
-452,197	-200,000	-0,020	0,279
-451,182	68,220	0,059	-0,045
-450,168	-75,940	-0,078	0,020
-449,153	-99,331	0,105	-0,019
-448,138	261,482	-0,041	0,053
-447,124	680,674	0,036	-0,070
-446,109	-25,334	0,026	-0,011
-445,095	-200,000	0,005	-0,059
-444,080	800,000	0,058	0,159
-443,065	9,755	0,049	0,027
-442,051	-33,772	0,058	0,023
-441,036	-100,001	-0,129	-0,024
-440,022	-99,058	0,137	-0,025
-439,007	306,601	0,032	0,043
-437,992	-90,747	0,110	-0,023
-436,978	800,000	-0,045	0,139
-435,963	-10,280	0,068	-0,033
-434,949	125,781	0,047	0,044
-433,934	276,845	-0,046	0,061
-432,919	800,000	-0,054	0,120
-431,905	-55,372	0,039	-0,013
-430,890	175,755	-0,100	0,107
-429,876	800,000	0,049	-0,136
-428,861	-200,000	-0,001	0,039
-427,846	-200,000	-0,001	0,088
-426,832	486,602	0,011	0,019
-425,817	443,448	0,083	-0,135
-424,803	800,000	-0,046	-0,144
-423,788	-200,000	0,017	0,073
-422,773	28,500	0,176	0,109
-421,759	-200,000	0,017	0,054
-420,744	-200,000	-0,019	0,075
-419,730	-126,920	-0,094	-0,010
-418,715	-200,000	-0,047	0,156
-417,701	394,716	0,032	-0,050
-416,686	-128,679	-0,144	-0,015
-415,671	-7,925	-0,070	0,035
-414,657	204,124	0,100	0,115
-413,642	-200,000	0,003	-0,068
-412,628	309,690	0,067	-0,092
-411,613	800,000	0,028	-0,071
-410,598	-126,931	-0,150	-0,016
-409,584	632,790	-0,029	-0,055
-408,569	-12,626	0,109	-0,052
-407,555	188,878	0,086	0,095
-406,540	273,471	-0,066	0,086
-405,525	-200,000	0,009	0,105
-404,511	116,942	0,013	-0,012
-403,496	800,000	-0,026	0,067
-402,482	27,447	0,129	-0,080
-401,467	1,174	0,160	0,084
-400,452	495,816	0,053	0,090
-399,438	-200,000	0,005	-0,092
-398,423	91,653	-0,084	0,069
-397,409	-200,000	-0,013	0,061
-396,394	-200,000	0,007	0,097
-395,379	800,000	-0,026	0,069
-394,365	800,000	-0,016	-0,039
-393,350	660,545	-0,012	-0,023
-392,336	800,000	0,010	0,031
-391,321	800,000	-0,057	0,133
-390,306	-200,000	0,023	0,144
-389,292	171,726	-0,072	-0,076
-388,277	235,351	-0,013	-0,015
-387,263	129,448	-0,051	-0,048
-386,248	-200,000	0,014	0,115
-385,233	16,091	0,107	0,062
-384,219	35,766	-0,029	-0,019
-383,204	-27,101	-0,143	0,061
-382,190	-87,169	-0,006	-0,001
-381,175	-165,712	-0,065	0,002
-380,160	23,210	0,119	-0,072
-379,146	166,748	0,028	-0,029
-378,131	-150,326	-0,083	0,005
-377,117	101,413	0,009	-0,008
-376,102	74,318	0,047	0,036
-375,088	-191,171	-0,034	-0,000
-374,073	-200,000	-0,005	-0,081
-373,058	-200,000	-0,003	-0,032
-372,044	800,000	-0,060	0,146
-371,029	-188,840	0,190	-0,002
-370,015	-200,000	-0,019	0,102
-369,000	800,000	0,089	-0,191
-367,985	18,114	-0,130	0,076
-366,971	-101,906	-0,017	-0,003
-365,956	275,668	0,036	-0,047
-364,942	-200,000	0,022	0,203
-363,927	-200,000	0,032	0,194
-362,912	-200,000	-0,017	0,212
-361,898	-200,000	-0,022	-0,076
-360,883	-200,000	0,015	0,069
-359,869	-130,815	-0,096	0,009
-358,854	14,662	-0,029	0,016
-357,839	44,741	-0,040	-0,027
-356,825	-45,459	0,039	0,014
-355,810	49,715	0,057	-0,039
-354,796	-8,965	-0,096	0,047
-353,781	800,000	0,035	0,109
-352,766	-22,592	-0,075	-0,033
-351,752	235,818	0,129	0,157
-350,737	404,337	-0,054	-0,084
-349,723	-55,199	0,123	-0,041
-348,708	77,692	-0,112	0,087
-347,693	488,726	-0,041	-0,069
-346,679	54,258	0,075	0,053
-345,664	800,000	0,034	-0,074
-344,650	-78,534	-0,030	-0,007
-343,635	484,840	0,016	0,027
-342,620	117,435	-0,061	-0,055
-341,606	800,000	-0,009	0,026
-340,591	800,000	0,021	0,066
-339,577	-200,000	-0,019	-0,086
-338,562	800,000	-0,048	-0,120
-337,548	-21,415	-0,101	-0,045
-336,533	207,084	-0,016	-0,018
-335,518	4,492	0,042	0,023
-334,504	-200,000	0,023	0,115
-333,489	5,518	-0,136	-0,074
-332,475	-200,000	0,007	-0,144
-331,460	-200,000	-0,052	-0,192
-330,445	30,582	0,053	-0,033
-329,431	51,530	-0,017	-0,012
-328,416	-200,000	0,008	0,070
-327,402	-152,682	0,111	0,006
-326,387	-47,679	0,093	0,033
-325,372	-111,102	-0,042	-0,006
-324,358	101,351	-0,024	-0,021
-323,343	-200,000	0,001	0,028
-322,329	-81,572	0,124	-0,030
-321,314	-167,498	-0,058	-0,002
-320,299	24,315	0,105	0,064
-319,285	-138,837	-0,098	-0,008
-318,270	301,834	-0,087	0,118
-317,256	-200,000	0,008	0,075
-316,241	-61,219	-0,110	-0,034
-315,226	164,835	-0,023	0,023
-314,212	233,995	0,035	-0,042
-313,197	-105,548	0,088	-0,015
-312,183	-200,000	-0,007	0,034
-311,168	800,000	0,019	-0,044
-310,153	-200,000	-0,026	-0,136
-309,139	-115,340	0,135	0,018
-308,124	-200,000	-0,002	0,035
-307,110	-161,103	0,105	0,004
-306,095	-109,922	0,135	-0,021
-305,080	37,539	0,034	0,022
-304,066	-200,000	-0,014	0,131
-303,051	-200,000	0,013	-0,153
-302,037	-88,967	-0,076	-0,016
-301,022	-200,000	0,022	-0,090
-300,008	629,428	-0,044	-0,082
-298,993	15,393	0,016	-0,009
-297,978	-114,799	0,092	0,013
-296,964	-38,335	-0,156	-0,060
-295,949	-200,000	-0,004	0,143
-294,935	100,918	0,023	0,020
-293,920	800,000	0,008	0,020
-292,905	-200,000	-0,009	0,154
-291,891	-200,000	0,018	0,142
-290,876	-51,126	0,116	0,040
-289,862	102,882	0,041	0,035
-288,847	-200,000	0,046	-0,255
-287,832	-96,246	0,081	0,016
-286,818	-13,740	-0,154	-0,072
-285,803	-100,998	0,050	0,009
-284,789	-33,970	-0,084	-0,034
-283,774	125,683	-0,091	0,084
-282,759	-200,000	-0,001	-0,022
-281,745	-154,296	-0,051	0,002
-280,730	-200,000	-0,034	-0,142
-279,716	800,000	0,049	-0,103
-278,701	68,545	0,074	0,055
-277,686	800,000	0,029	-0,065
-276,672	37,381	-0,084	0,055
-275,657	800,000	0,036	-0,076
-274,643	229,767	0,027	0,032
-273,628	-200,000	-0,021	-0,103
-272,613	-200,000	-0,015	0,053
-271,599	-200,000	0,022	0,079
-270,584	57,273	0,095	-0,068
-269,570	-56,424	-0,066	-0,021
-268,555	800,000	-0,054	-0,120
-267,540	-125,531	-0,097	-0,011
-266,526	129,018	-0,044	-0,041
-265,511	-200,000	0,011	0,046
-264,497	75,126	0,109	0,084
-263,482	126,901	0,053	0,049
-262,467	758,335	0,016	-0,031
-261,453	-196,783	-0,076	-0,000
-260,438	251,882	-0,043	-0,054
-259,424	133,436	0,095	0,090
-258,409	351,370	-0,048	-0,069
-257,395	-200,000	0,008	0,089
-256,380	-30,198	0,186	-0,077
-255,365	129,585	-0,069	0,064
-254,351	-92,149	0,141	0,029
-253,336	495,420	0,114	-0,193
-252,322	-137,381	-0,184	-0,015
-251,307	145,929	0,085	-0,083
-250,292	800,000	-0,072	0,168
-249,278	-200,000	-0,015	0,063
-248,263	-91,069	0,062	0,013
-247,249	-85,579	0,073	0,016
-246,234	70,307	-0,097	0,073
-245,219	-7,263	-0,065	-0,032
-244,205	800,000	-0,012	-0,030
-243,190	-81,715	0,087	-0,021
-242,176	-200,000	-0,023	-0,089
-241,161	-200,000	0,017	-0,069
-240,146	-48,479	0,116	-0,040
-239,132	800,000	-0,069	-0,171
-238,117	208,780	0,029	0,033
-237,103	386,887	-0,031	-0,047
-236,088	257,082	-0,096	-0,120
-235,073	-87,576	-0,009	-0,002
-234,059	-170,785	0,113	0,003
-233,044	384,930	-0,103	-0,155
-232,030	-200,000	-0,032	-0,138
-231,015	8,291	0,057	-0,031
-230,000	-200,000	0,006	-0,143
-228,986	-143,683	0,218	0,015
-227,971	-200,000	-0,011	0,079
-226,957	-40,509	0,138	0,052
-225,942	-200,000	0,010	0,111
-224,927	10,310	0,082	0,045
-223,913	196,884	0,036	0,041
-222,898	800,000	0,022	0,069
-221,884	260,505	0,037	0,047
-220,869	800,000	0,005	-0,012
-219,855	76,368	-0,070	0,054
-218,840	282,224	-0,084	0,110
-217,825	-200,000	-0,007	-0,070
-216,811	173,242	-0,055	0,058
-215,796	800,000	-0,019	0,052
-214,782	-132,025	-0,092	-0,009
-213,767	800,000	0,032	0,068
-212,752	344,707	0,088	0,126
-211,738	647,394	-0,074	0,138
-210,723	7,483	0,184	0,100
-209,709	96,926	0,090	-0,076
-208,694	-103,526	-0,056	0,009
-207,679	-200,000	0,002	-0,092
-206,665	-200,000	-0,001	-0,064
-205,650	128,112	0,037	-0,035
-204,636	119,608	0,100	-0,091
-203,621	-200,000	0,007	-0,114
-202,606	249,603	-0,040	0,050
-201,592	614,015	-0,013	-0,023
-200,577	-200,000	-0,011	-0,139
-199,563	800,000	-0,034	0,070
-198,548	-44,366	0,071	0,026
-197,533	-200,000	-0,019	0,127
-196,519	-200,000	0,000	0,075
-195,504	124,327	-0,112	0,103
-194,490	203,644	0,067	-0,076
-193,475	-76,679	-0,058	0,015
-192,460	-200,000	-0,020	-0,106
-191,446	-200,000	0,028	-0,093
-190,431	800,000	-0,020	0,041
-189,417	800,000	-0,018	-0,042
-188,402	-20,465	-0,123	-0,055
-187,387	66,089	0,062	-0,046
-186,373	-200,000	0,000	0,048
-185,358	321,851	-0,077	-0,107
-184,344	800,000	0,047	-0,097
-183,329	-12,079	-0,123	0,059
-182,315	528,575	0,074	0,127
-181,300	-54,749	0,061	0,020
-180,285	-200,000	-0,012	-0,062
-179,271	225,715	-0,039	-0,047
-178,256	800,000	-0,039	-0,102
-177,242	330,106	0,086	-0,121
-176,227	41,724	0,056	0,037
-175,212	372,030	-0,051	-0,075
-174,198	-200,000	0,023	0,087
-173,183	-200,000	-0,002	0,074
-172,169	800,000	0,009	0,025
-171,154	800,000	-0,043	-0,105
-170,139	-89,428	-0,185	-0,039
-169,125	-200,000	-0,001	0,041
-168,110	82,383	0,076	-0,060
-167,096	800,000	-0,001	0,003
-166,081	-103,409	-0,134	-0,023
-165,066	800,000	0,099	-0,212
-164,052	-200,000	-0,012	-0,085
-163,037	-60,309	0,145	0,045
-162,023	-200,000	0,027	0,094
-161,008	21,563	-0,097	0,058
-159,993	333,659	-0,076	0,107
-158,979	56,861	0,065	-0,046
-157,964	800,000	-0,019	-0,056
-156,950	-38,498	0,115	-0,044
-155,935	301,528	-0,031	0,042
-154,920	66,585	-0,124	0,092
-153,906	-200,000	0,025	0,102
-152,891	-200,000	-0,023	0,177
-151,877	242,703	-0,048	0,059
-150,862	182,463	-0,154	0,165
-149,847	800,000	0,025	-0,064
-148,833	300,864	0,063	0,085
-147,818	220,708	0,080	-0,094
-146,804	785,565	0,042	-0,084
-145,789	237,974	0,079	-0,096
-144,775	239,791	0,061	-0,074
-143,760	59,640	0,100	0,072
-142,745	105,584	0,107	-0,092
-141,731	52,125	-0,150	-0,104
-140,716	-98,447	0,138	0,026
-139,702	-200,000	-0,003	0,041
-138,687	-200,000	0,015	0,207
-137,672	-130,351	-0,151	0,015
-136,658	-43,447	-0,092	-0,034
-135,643	-133,308	0,118	0,011
-134,629	-200,000	0,000	0,021
-133,614	39,007	0,046	0,030
-132,599	36,513	0,056	0,036
-131,585	480,668	-0,036	0,059
-130,570	290,818	0,063	0,083
-129,556	195,988	0,017	-0,019
-128,541	35,012	0,096	-0,061
-127,526	800,000	-0,072	0,172
-126,512	45,455	0,039	0,026
-125,497	15,709	0,040	-0,023
-124,483	132,584	-0,065	-0,061
-123,468	800,000	0,025	-0,055
-122,453	-146,075	-0,068	0,004
-121,439	-22,546	-0,063	-0,028
-120,424	369,013	0,036	-0,054
-119,410	103,309	0,097	-0,083
