DTS Sentinel unit serial number:	SN410029Multiplexer serial number:	ORYXHardware model number:	OX2-SRSoftware version number:	ORYX F/W v4,00 Oryx Data Collector v3.7.2.0data status	okinstallation	B6 Nyhavnadifferential loss correction	single-endedforward channel	channel 2reverse channel	N/Adate	2023/12/08time	02:05:08forward acquisition time	300,00reverse acquisition time	0,00gamma	499,1914k internal	0,3164k external	0,3164temperature offset calibration	1,0000default loss term (dB/km)	0,3820temperature slope calibration	1,0000multiplexer offset coefficient	1,0000multiplexer slope coefficient	1,0000fibre end	0,00T internal ref (°C)	13,19T ext. ref 1 (°C)	-3,71T ext. ref 2 (°C)	-3,70length (m)	temperature (°C)	Stokes	anti-Stokes-744,400	800,000	0,022	-0,072
-743,385	-156,416	-0,297	-0,013
-742,371	-128,373	0,161	0,017
-741,356	-29,167	-0,194	0,082
-740,342	-123,142	0,131	-0,015
-739,327	-61,214	-0,277	-0,085
-738,312	-28,570	-0,060	0,025
-737,298	-95,926	-0,283	-0,055
-736,283	-200,000	-0,010	0,051
-735,269	-23,193	-0,224	-0,099
-734,254	-85,181	0,262	0,060
-733,239	-102,629	-0,498	-0,087
-732,225	-107,447	0,216	0,034
-731,210	127,200	-0,107	0,100
-730,196	800,000	-0,055	0,113
-729,181	800,000	0,029	0,075
-728,167	474,461	-0,073	0,121
-727,152	216,761	-0,050	0,058
-726,137	-200,000	0,002	0,062
-725,123	431,946	0,011	0,018
-724,108	-82,324	-0,050	-0,012
-723,094	636,635	-0,072	-0,136
-722,079	-77,954	-0,169	0,043
-721,064	-200,000	0,004	-0,111
-720,050	-200,000	0,020	-0,068
-719,035	-14,181	-0,117	0,055
-718,021	529,252	0,086	-0,150
-717,006	-200,000	-0,020	-0,130
-715,991	145,693	-0,129	-0,127
-714,977	579,691	-0,060	-0,108
-713,962	82,273	0,095	0,075
-712,948	193,520	0,004	0,004
-711,933	181,449	-0,061	-0,066
-710,918	-200,000	0,017	-0,070
-709,904	-93,692	-0,114	-0,023
-708,889	-200,000	-0,048	-0,205
-707,875	-200,000	0,017	-0,134
-706,860	-2,098	-0,043	-0,022
-705,845	-200,000	0,011	-0,040
-704,831	-66,645	-0,163	-0,047
-703,816	-200,000	0,008	0,068
-702,802	81,979	0,078	0,062
-701,787	-141,119	-0,269	-0,020
-700,772	-140,919	-0,034	-0,003
-699,758	800,000	0,056	-0,126
-698,743	800,000	0,019	0,054
-697,729	464,663	0,051	0,083
-696,714	-200,000	0,006	0,062
-695,699	41,827	-0,081	-0,054
-694,685	-135,202	-0,126	-0,011
-693,670	-102,272	-0,170	0,030
-692,656	218,304	-0,113	0,133
-691,641	742,467	0,044	-0,087
-690,627	-200,000	0,005	0,113
-689,612	-200,000	-0,006	-0,146
-688,597	602,024	-0,077	-0,141
-687,583	91,769	-0,117	-0,097
-686,568	800,000	-0,049	-0,101
-685,554	411,825	0,059	-0,092
-684,539	-200,000	0,005	0,127
-683,524	625,097	0,021	-0,040
-682,510	719,744	-0,081	0,160
-681,495	56,350	-0,036	0,026
-680,481	458,723	0,073	0,120
-679,466	96,392	-0,059	0,050
-678,451	-125,513	-0,010	0,001
-677,437	518,291	0,026	-0,045
-676,422	-200,000	0,036	0,236
-675,408	800,000	-0,032	0,070
-674,393	395,268	-0,073	0,113
-673,378	800,000	0,046	-0,101
-672,364	800,000	-0,089	-0,226
-671,349	-71,042	0,083	0,023
-670,335	491,696	-0,080	0,134
-669,320	-200,000	0,000	0,033
-668,305	-200,000	-0,018	0,089
-667,291	115,912	-0,053	0,048
-666,276	26,212	0,093	0,057
-665,262	-33,324	-0,109	-0,044
-664,247	102,716	0,034	-0,029
-663,232	511,200	-0,016	0,027
-662,218	533,340	-0,055	-0,095
-661,203	-52,845	-0,073	-0,025
-660,189	800,000	0,035	0,110
-659,174	246,730	-0,081	-0,101
-658,159	-117,023	-0,042	-0,006
-657,145	-19,576	-0,098	-0,044
-656,130	800,000	0,060	0,158
-655,116	-36,306	-0,021	0,008
-654,101	94,441	-0,031	-0,026
-653,086	316,289	0,034	-0,047
-652,072	66,511	0,034	0,025
-651,057	9,890	0,088	-0,049
-650,043	-79,332	-0,094	0,023
-649,028	-200,000	0,000	0,109
-648,014	70,652	0,077	-0,058
-646,999	225,560	-0,056	-0,066
-645,984	-200,000	-0,016	0,066
-644,970	-39,878	0,088	-0,034
-643,955	-200,000	0,020	-0,069
-642,941	-150,205	0,028	-0,002
-641,926	-200,000	-0,009	-0,048
-640,911	-200,000	0,002	-0,012
-639,897	490,733	0,071	0,119
-638,882	-200,000	-0,002	-0,139
-637,868	430,593	-0,062	-0,099
-636,853	60,301	-0,085	-0,062
-635,838	800,000	0,031	-0,075
-634,824	800,000	0,040	-0,113
-633,809	-11,928	0,127	-0,061
-632,795	-130,894	-0,072	-0,007
-631,780	-200,000	-0,018	0,124
-630,765	273,861	0,016	-0,021
-629,751	167,160	-0,070	-0,072
-628,736	-2,923	-0,101	0,052
-627,722	522,399	0,067	-0,117
-626,707	-200,000	-0,021	-0,163
-625,692	-81,910	0,027	-0,006
-624,678	457,523	-0,045	0,074
-623,663	40,940	0,082	0,054
-622,649	89,301	0,002	-0,001
-621,634	800,000	-0,044	0,107
-620,619	-15,760	-0,097	-0,045
-619,605	800,000	0,006	0,013
-618,590	19,956	0,052	0,031
-617,576	800,000	0,049	-0,111
-616,561	-60,935	-0,113	-0,035
-615,546	-26,219	0,149	-0,064
-614,532	13,719	-0,106	-0,060
-613,517	-200,000	0,016	0,075
-612,503	800,000	-0,064	0,138
-611,488	-31,145	0,170	-0,070
-610,474	-32,407	0,099	0,040
-609,459	-164,634	0,076	0,002
-608,444	800,000	0,032	-0,100
-607,430	800,000	0,027	-0,058
-606,415	-200,000	-0,005	-0,099
-605,401	129,903	0,087	0,081
-604,386	75,146	-0,029	0,022
-603,371	-143,311	-0,100	-0,007
-602,357	643,138	-0,075	-0,140
-601,342	-200,000	-0,002	-0,032
-600,328	-200,000	-0,001	0,136
-599,313	1,183	-0,134	-0,070
-598,298	-139,019	0,186	0,015
-597,284	-200,000	-0,032	0,109
-596,269	-200,000	-0,001	0,149
-595,255	-200,000	-0,091	0,000
-594,240	-147,339	0,070	-0,004
-593,225	-200,000	0,012	-0,073
-592,211	307,037	-0,043	-0,058
-591,196	-200,000	0,000	0,050
-590,182	-200,000	0,019	-0,068
-589,167	12,711	0,143	0,081
-588,152	-125,222	0,082	-0,009
-587,138	231,435	-0,062	-0,074
-586,123	-182,154	-0,124	-0,002
-585,109	800,000	-0,080	-0,172
-584,094	127,949	0,036	0,034
-583,079	-35,811	0,098	0,038
-582,065	800,000	-0,034	-0,071
-581,050	-80,086	0,088	-0,022
-580,036	490,436	-0,050	-0,084
-579,021	130,530	-0,039	-0,037
-578,006	-200,000	-0,010	-0,224
-576,992	99,077	-0,101	-0,085
-575,977	-170,186	-0,053	-0,001
-574,963	-10,464	-0,112	0,054
-573,948	-200,000	0,029	0,144
-572,934	384,910	-0,033	0,049
-571,919	-137,915	0,102	0,008
-570,904	55,586	-0,063	0,045
-569,890	-200,000	-0,014	-0,062
-568,875	569,086	0,031	-0,055
-567,861	2,975	0,167	0,089
-566,846	-13,205	-0,154	-0,073
-565,831	-200,000	0,020	0,077
-564,817	-128,743	-0,032	-0,003
-563,802	800,000	0,022	-0,055
-562,788	-144,298	-0,023	-0,002
-561,773	241,429	0,059	-0,072
-560,758	233,191	-0,137	0,165
-559,744	23,871	0,092	0,055
-558,729	800,000	-0,030	-0,093
-557,715	-200,000	-0,002	0,076
-556,700	800,000	-0,032	-0,087
-555,685	104,292	-0,055	-0,047
-554,671	800,000	0,041	-0,086
-553,656	247,249	-0,059	-0,073
-552,642	-200,000	0,020	0,122
-551,627	32,477	-0,082	0,052
-550,612	-95,293	0,086	0,017
-549,598	239,823	-0,032	0,039
-548,583	800,000	-0,019	0,044
-547,569	367,868	0,115	-0,171
-546,554	-105,338	0,054	0,009
-545,539	290,413	0,066	-0,088
-544,525	-200,000	-0,021	-0,117
-543,510	-124,675	0,059	-0,007
-542,496	-129,636	-0,098	0,010
-541,481	59,842	-0,052	0,037
-540,466	-9,313	0,067	0,032
-539,452	29,569	-0,030	0,018
-538,437	33,544	-0,007	-0,004
-537,423	-100,536	0,038	0,007
-536,408	8,396	0,056	-0,031
-535,393	-200,000	0,004	-0,076
-534,379	-168,153	-0,143	0,004
-533,364	-14,000	0,043	-0,020
-532,350	733,870	0,040	-0,078
-531,335	308,314	0,041	-0,056
-530,321	100,188	0,088	0,074
-529,306	-200,000	-0,017	0,086
-528,291	-200,000	-0,001	-0,035
-527,277	-187,708	-0,042	0,000
-526,262	-107,963	-0,081	0,013
-525,248	26,151	0,064	-0,039
-524,233	218,482	-0,086	0,100
-523,218	-190,362	0,102	-0,001
-522,204	-200,000	-0,006	0,115
-521,189	-135,274	0,137	0,012
-520,175	112,274	-0,127	-0,112
-519,160	-200,000	-0,001	-0,028
-518,145	-200,000	-0,009	-0,095
-517,131	172,412	0,085	0,089
-516,116	800,000	-0,023	0,062
-515,102	-200,000	-0,009	-0,037
-514,087	-200,000	0,007	0,024
-513,072	58,755	0,065	-0,046
-512,058	73,760	0,099	-0,076
-511,043	78,530	-0,086	-0,067
-510,029	-99,091	0,062	0,011
-509,014	-52,211	-0,016	-0,005
-507,999	-133,671	0,101	0,009
-506,985	-20,386	0,020	-0,009
-505,970	21,302	0,068	0,040
-504,956	-200,000	0,000	-0,001
-503,941	-74,311	-0,043	0,011
-502,926	627,472	0,061	-0,112
-501,912	-200,000	-0,021	0,074
-500,897	-200,000	0,007	0,075
-499,883	-200,000	-0,038	-0,171
-498,868	287,688	-0,028	-0,037
-497,853	37,621	0,052	0,034
-496,839	-154,469	-0,218	0,010
-495,824	-128,237	0,085	0,009
-494,810	41,493	-0,115	-0,075
-493,795	141,111	-0,113	-0,109
-492,781	324,354	-0,044	-0,062
-491,766	-181,309	-0,140	-0,002
-490,751	-104,015	-0,063	0,011
-489,737	-200,000	0,009	-0,106
-488,722	-200,000	-0,004	0,107
-487,708	13,551	0,024	-0,014
-486,693	-117,921	-0,122	0,016
-485,678	202,872	-0,031	-0,035
-484,664	-105,125	-0,097	0,016
-483,649	-35,764	-0,114	-0,045
-482,635	-200,000	0,017	0,099
-481,620	-200,000	0,014	-0,140
-480,605	800,000	-0,048	0,102
-479,591	35,037	-0,099	0,063
-478,576	447,732	-0,044	0,071
-477,562	800,000	-0,024	-0,060
-476,547	800,000	-0,053	-0,121
-475,532	344,330	-0,102	-0,145
-474,518	-49,635	-0,110	0,038
-473,503	274,130	0,061	0,079
-472,489	292,698	0,110	-0,146
-471,474	27,851	-0,040	-0,024
-470,459	102,326	-0,123	0,104
-469,445	-39,526	-0,095	0,036
-468,430	336,502	-0,079	0,112
-467,416	-116,047	0,157	0,021
-466,401	-200,000	0,010	0,127
-465,386	-102,859	0,043	-0,007
-464,372	-31,027	-0,112	0,046
-463,357	71,668	0,073	-0,055
-462,343	-48,041	0,024	0,008
-461,328	-155,221	0,086	-0,004
-460,313	-200,000	-0,011	0,156
-459,299	434,157	0,064	0,102
-458,284	335,215	-0,060	0,085
-457,270	800,000	0,052	0,124
-456,255	177,039	0,056	-0,060
-455,241	490,240	0,034	-0,056
-454,226	-200,000	-0,001	0,010
-453,211	-163,482	-0,007	-0,000
-452,197	-145,686	0,183	-0,012
-451,182	800,000	0,086	0,218
-450,168	1,831	-0,060	0,032
-449,153	-43,065	0,070	0,026
-448,138	-33,566	0,042	-0,017
-447,124	-5,897	-0,058	0,029
-446,109	426,683	0,089	0,140
-445,095	-200,000	0,014	0,096
-444,080	4,499	0,072	0,038
-443,065	-2,994	0,031	-0,015
-442,051	800,000	0,042	-0,124
-441,036	156,049	-0,042	-0,042
-440,022	-107,567	-0,041	-0,006
-439,007	76,583	-0,113	0,087
-437,992	66,716	0,026	0,019
-436,978	-200,000	0,001	0,054
-435,963	121,146	-0,013	0,012
-434,949	119,995	-0,146	-0,131
-433,934	290,851	0,022	0,030
-432,919	-23,501	-0,093	-0,040
-431,905	86,797	-0,028	-0,022
-430,890	22,080	0,121	-0,072
-429,876	-60,624	0,238	0,073
-428,861	800,000	-0,029	-0,089
-427,846	-54,073	0,054	-0,018
-426,832	219,699	-0,010	0,011
-425,817	-174,132	0,019	0,000
-424,803	-153,600	-0,046	0,002
-423,788	-55,205	0,214	0,069
-422,773	684,246	0,070	0,134
-421,759	800,000	0,048	-0,100
-420,744	-200,000	-0,050	-0,180
-419,730	200,574	-0,030	-0,033
-418,715	-200,000	0,009	-0,079
-417,701	695,847	-0,026	0,049
-416,686	701,392	0,021	-0,039
-415,671	-200,000	-0,012	0,046
-414,657	-174,138	-0,069	-0,001
-413,642	379,165	0,038	-0,056
-412,628	-74,889	-0,154	-0,040
-411,613	3,390	-0,138	-0,073
-410,598	-200,000	0,005	-0,053
-409,584	101,020	-0,098	0,083
-408,569	293,501	-0,040	0,054
-407,555	-133,962	0,048	-0,004
-406,540	-29,410	0,019	0,008
-405,525	-143,959	-0,076	-0,005
-404,511	298,225	-0,060	-0,080
-403,496	-200,000	-0,034	-0,149
-402,482	120,527	0,132	-0,119
-401,467	800,000	0,023	0,054
-400,452	800,000	-0,034	-0,076
-399,438	-121,202	0,081	-0,010
-398,423	-200,000	-0,003	0,061
-397,409	130,133	-0,044	-0,041
-396,394	45,135	0,049	-0,033
-395,379	-200,000	-0,024	0,097
-394,365	114,621	0,083	0,074
-393,350	719,849	0,077	-0,149
-392,336	-200,000	0,004	0,107
-391,321	-7,065	-0,086	0,042
-390,306	49,927	-0,185	0,126
-389,292	-200,000	-0,007	-0,037
-388,277	800,000	-0,018	0,053
-387,263	-37,243	0,022	-0,009
-386,248	100,022	0,037	-0,031
-385,233	-80,502	-0,095	0,023
-384,219	-42,907	-0,100	0,036
-383,204	800,000	0,006	-0,012
-382,190	-76,609	-0,133	-0,033
-381,175	131,272	0,096	0,090
-380,160	112,744	0,057	-0,050
-379,146	-40,259	-0,092	-0,034
-378,131	-111,771	0,179	0,026
-377,117	-200,000	-0,013	0,061
-376,102	800,000	-0,018	0,055
-375,088	59,379	0,070	-0,050
-374,073	707,653	-0,011	-0,021
-373,058	20,889	0,152	0,089
-372,044	-200,000	-0,016	0,082
-371,029	800,000	0,029	0,083
-370,015	-104,370	-0,052	0,009
-369,000	313,857	-0,071	-0,097
-367,985	800,000	0,051	-0,122
-366,971	800,000	0,039	0,081
-365,956	800,000	0,061	0,126
-364,942	504,185	-0,043	-0,073
-363,927	-200,000	-0,046	0,000
-362,912	132,376	-0,053	0,050
-361,898	58,849	-0,111	0,079
-360,883	68,787	-0,093	-0,069
-359,869	0,469	-0,062	-0,032
-358,854	1,420	-0,046	0,024
-357,839	7,965	0,114	0,062
-356,825	-11,533	0,074	0,035
-355,810	-28,319	-0,050	0,021
-354,796	-89,538	0,090	0,019
-353,781	221,689	-0,109	-0,127
-352,766	285,518	-0,078	0,102
-351,752	-200,000	0,004	0,132
-350,737	-200,000	0,020	0,089
-349,723	-120,469	0,143	0,017
-348,708	-36,764	0,096	-0,037
-347,693	28,276	0,041	-0,025
-346,679	-200,000	0,016	0,067
-345,664	-120,199	-0,073	0,009
-344,650	-130,652	-0,030	0,003
-343,635	-96,312	0,176	-0,033
-342,620	-57,609	-0,079	0,025
-341,606	310,747	-0,102	-0,139
-340,591	339,362	-0,045	-0,063
-339,577	-200,000	0,017	-0,123
-338,562	800,000	-0,042	-0,117
-337,548	-43,660	0,028	0,010
-336,533	-91,913	-0,058	0,012
-335,518	800,000	-0,043	0,104
-334,504	-1,735	0,090	-0,046
-333,489	575,630	-0,019	0,033
-332,475	-25,417	-0,051	0,022
-331,460	-200,000	0,008	0,062
-330,445	-60,181	-0,105	-0,032
-329,431	203,466	0,042	0,047
-328,416	-53,504	0,099	-0,033
-327,402	680,457	0,017	0,031
-326,387	-39,342	0,096	-0,036
-325,372	168,612	-0,076	0,079
-324,358	-39,999	-0,039	0,015
-323,343	196,243	-0,090	0,099
-322,329	-200,000	0,021	-0,109
-321,314	-106,967	0,127	-0,020
-320,299	-12,730	0,045	0,021
-319,285	-103,693	0,054	0,009
-318,270	56,890	-0,094	0,066
-317,256	800,000	0,080	-0,219
-316,241	800,000	0,050	-0,134
-315,226	-148,061	-0,068	-0,004
-314,212	476,973	0,033	0,054
-313,197	38,700	-0,069	0,044
-312,183	314,530	-0,107	-0,146
-311,168	-58,464	-0,100	0,031
-310,153	-145,011	-0,149	0,010
-309,139	-200,000	0,007	-0,032
-308,124	168,552	-0,050	-0,051
-307,110	-181,868	0,130	-0,002
-306,095	-200,000	0,004	0,232
-305,080	800,000	0,025	-0,078
-304,066	-117,176	-0,212	-0,028
-303,051	-78,848	0,026	-0,006
-302,037	-194,732	0,033	0,000
-301,022	-200,000	-0,003	-0,054
-300,008	-40,709	0,098	0,036
-298,993	576,719	0,053	0,094
-297,978	382,301	0,063	0,094
-296,964	71,309	0,058	-0,043
-295,949	-36,050	-0,136	-0,053
-294,935	800,000	0,035	0,106
-293,920	106,738	0,017	-0,014
-292,905	-43,145	0,070	0,026
-291,891	-200,000	-0,028	0,100
-290,876	-200,000	0,012	0,125
-289,862	-200,000	0,021	-0,076
-288,847	-51,695	-0,077	0,026
-287,832	-65,856	0,133	-0,038
-286,818	-200,000	0,012	-0,167
-285,803	-200,000	-0,003	-0,115
-284,789	264,867	-0,042	-0,053
-283,774	156,445	0,046	-0,046
-282,759	-2,910	-0,083	0,042
-281,745	-200,000	-0,030	0,125
-280,730	389,313	0,015	0,023
-279,716	117,617	-0,098	-0,087
-278,701	-71,161	0,077	-0,021
-277,686	272,866	0,099	0,127
-276,672	-200,000	0,015	0,052
-275,657	-200,000	-0,019	0,079
-274,643	-200,000	-0,012	-0,080
-273,628	-134,337	0,070	-0,006
-272,613	-30,071	-0,012	-0,005
-271,599	17,426	0,100	0,057
-270,584	91,697	0,070	0,056
-269,570	127,410	0,141	0,129
-268,555	-105,358	-0,014	0,002
-267,540	800,000	-0,045	0,133
-266,526	76,674	0,095	-0,072
-265,511	-37,760	-0,056	0,021
-264,497	-149,986	0,087	0,005
-263,482	-200,000	-0,001	-0,027
-262,467	165,671	-0,102	0,105
-261,453	-63,320	0,115	0,034
-260,438	142,797	-0,038	0,037
-259,424	82,478	0,034	0,026
-258,409	231,434	-0,034	0,041
-257,395	-64,481	0,159	0,046
-256,380	800,000	0,071	0,142
-255,365	-200,000	-0,008	0,054
-254,351	800,000	0,040	0,082
-253,336	-200,000	-0,026	-0,109
-252,322	-17,674	0,064	0,029
-251,307	-133,136	-0,059	0,005
-250,292	568,411	0,045	0,080
-249,278	110,412	0,095	0,082
-248,263	693,452	-0,074	0,141
-247,249	-119,511	-0,105	0,013
-246,234	569,252	0,048	-0,085
-245,219	123,178	-0,088	0,080
-244,205	254,450	-0,058	0,072
-243,190	-98,368	0,034	-0,006
-242,176	800,000	0,024	-0,060
-241,161	-135,227	0,118	0,010
-240,146	10,594	-0,060	-0,033
-239,132	385,860	-0,055	-0,082
-238,117	800,000	-0,030	0,083
-237,103	566,864	-0,084	-0,148
-236,088	-91,131	0,076	-0,016
-235,073	67,209	0,154	0,113
-234,059	49,360	-0,114	-0,077
-233,044	-185,704	-0,034	-0,000
-232,030	-200,000	-0,028	-0,162
-231,015	800,000	-0,016	-0,046
-230,000	81,445	-0,060	-0,047
-228,986	483,424	-0,040	-0,066
-227,971	58,503	-0,082	-0,058
-226,957	-85,753	-0,055	0,012
-225,942	-74,161	-0,041	-0,011
-224,927	-200,000	0,003	-0,155
-223,913	715,791	-0,072	-0,139
-222,898	159,379	-0,083	0,083
-221,884	323,136	0,070	-0,096
-220,869	294,795	-0,041	0,054
-219,855	242,990	0,091	0,111
-218,840	-142,679	-0,144	0,010
-217,825	154,376	-0,040	-0,040
-216,811	-157,729	-0,109	0,005
-215,796	-106,128	-0,276	0,044
-214,782	-69,289	-0,099	-0,027
-213,767	800,000	0,033	0,070
-212,752	57,620	0,166	0,117
-211,738	-86,232	-0,092	0,020
-210,723	428,550	-0,022	0,035
-209,709	111,976	0,022	-0,019
-208,694	-200,000	-0,001	-0,144
-207,679	800,000	0,037	-0,102
-206,665	57,169	-0,075	0,053
-205,650	800,000	0,044	-0,111
-204,636	502,009	0,071	-0,118
-203,621	-200,000	-0,001	0,054
-202,606	-200,000	-0,006	-0,030
-201,592	251,959	0,038	0,046
-200,577	-27,520	0,044	0,018
-199,563	-0,616	0,066	-0,034
-198,548	800,000	0,046	0,139
-197,533	-109,070	0,136	-0,021
-196,519	-1,336	0,066	0,033
-195,504	-142,620	-0,110	0,008
-194,490	123,856	-0,036	-0,032
-193,475	-0,189	-0,100	0,051
-192,460	215,540	0,037	-0,043
-191,446	-200,000	-0,000	0,170
-190,431	42,188	0,047	0,031
-189,417	-151,808	0,160	-0,008
-188,402	336,994	-0,084	-0,117
-187,387	552,466	-0,013	-0,023
-186,373	444,380	0,034	-0,054
-185,358	-71,442	0,106	0,028
-184,344	-200,000	-0,006	0,038
-183,329	800,000	0,030	-0,067
-182,315	-105,865	0,116	-0,019
-181,300	800,000	0,024	0,051
-180,285	78,484	0,091	-0,070
-179,271	-111,255	0,065	-0,010
-178,256	800,000	0,026	-0,067
-177,242	-137,850	0,042	-0,003
-176,227	-200,000	0,000	0,015
-175,212	127,808	0,014	0,013
-174,198	133,266	-0,043	-0,040
-173,183	123,472	0,007	0,006
-172,169	231,250	0,044	-0,052
-171,154	198,109	-0,022	0,024
-170,139	800,000	-0,084	-0,172
-169,125	2,437	0,064	0,033
-168,110	800,000	0,052	0,135
-167,096	429,533	0,072	0,113
-166,081	344,730	-0,026	0,037
-165,066	-200,000	-0,018	0,160
-164,052	-71,162	0,029	0,008
-163,037	800,000	-0,036	-0,093
-162,023	3,087	0,115	0,060
-161,008	-200,000	-0,023	0,082
-159,993	-104,547	-0,086	-0,014
-158,979	-116,636	0,085	-0,011
-157,964	800,000	-0,041	0,099
-156,950	-106,787	0,058	-0,009
-155,935	478,890	0,023	0,038
-154,920	62,132	-0,063	0,045
-153,906	800,000	-0,026	0,074
-152,891	319,431	-0,078	0,106
-151,877	236,304	-0,118	0,140
-150,862	-169,995	-0,095	-0,002
-149,847	800,000	0,023	-0,068
-148,833	-200,000	-0,011	0,111
-147,818	583,499	0,106	0,189
-146,804	-163,016	-0,219	-0,007
-145,789	-148,114	-0,068	0,004
-144,775	566,481	-0,061	-0,107
-143,760	263,319	-0,028	0,035
-142,745	-113,189	-0,202	0,028
-141,731	-200,000	-0,004	0,042
-140,716	337,717	0,062	-0,087
-139,702	800,000	-0,043	0,088
-138,687	8,455	-0,033	0,018
-137,672	232,886	0,064	-0,076
-136,658	269,065	0,052	-0,065
-135,643	-200,000	-0,011	-0,052
-134,629	390,492	-0,048	-0,071
-133,614	-200,000	0,015	0,090
-132,599	252,981	-0,063	0,078
-131,585	230,386	0,096	0,112
-130,570	-59,092	-0,064	-0,020
-129,556	-200,000	0,006	-0,046
-128,541	-169,598	-0,005	-0,000
-127,526	-115,680	-0,025	-0,003
-126,512	218,347	0,067	-0,077
-125,497	97,436	-0,049	-0,040
-124,483	61,448	-0,072	0,052
-123,468	-41,943	0,156	-0,057
-122,453	-49,127	-0,095	0,032
-121,439	-200,000	-0,014	-0,081
-120,424	-79,748	-0,127	-0,030
