DTS Sentinel unit serial number:	SN410029Multiplexer serial number:	ORYXHardware model number:	OX2-SRSoftware version number:	ORYX F/W v4,00 Oryx Data Collector v3.7.2.0data status	okinstallation	B6 Nyhavnadifferential loss correction	single-endedforward channel	channel 2reverse channel	N/Adate	2023/12/09time	09:20:08forward acquisition time	300,00reverse acquisition time	0,00gamma	499,1914k internal	0,3139k external	0,3139temperature offset calibration	1,0000default loss term (dB/km)	0,3820temperature slope calibration	1,0000multiplexer offset coefficient	1,0000multiplexer slope coefficient	1,0000fibre end	0,00T internal ref (°C)	18,45T ext. ref 1 (°C)	2,02T ext. ref 2 (°C)	2,02length (m)	temperature (°C)	Stokes	anti-Stokes-744,400	31,943	-0,040	-0,026
-743,385	64,990	-0,255	-0,191
-742,371	127,280	-0,077	-0,072
-741,356	-55,125	-0,215	0,071
-740,342	411,067	0,027	0,042
-739,327	-67,772	-0,336	0,097
-738,312	19,340	-0,004	0,002
-737,298	-123,044	-0,261	-0,031
-736,283	-200,000	0,014	-0,051
-735,269	-104,330	-0,240	0,041
-734,254	-140,356	0,021	-0,002
-733,239	-109,820	-0,417	-0,064
-732,225	654,074	0,073	0,140
-731,210	-200,000	-0,010	0,038
-730,196	72,957	-0,052	-0,040
-729,181	35,180	-0,107	-0,069
-728,167	626,328	0,022	-0,041
-727,152	-78,001	-0,120	0,030
-726,137	800,000	-0,023	-0,049
-725,123	-200,000	-0,001	-0,079
-724,108	800,000	-0,060	-0,158
-723,094	-96,954	-0,075	-0,014
-722,079	-97,894	-0,202	-0,038
-721,064	209,653	0,082	0,096
-720,050	69,372	-0,080	-0,061
-719,035	-200,000	0,010	-0,033
-718,021	-200,000	-0,011	-0,080
-717,006	-137,664	-0,167	0,014
-715,991	385,685	-0,145	-0,222
-714,977	-200,000	-0,052	-0,197
-713,962	336,159	-0,060	-0,086
-712,948	335,513	-0,048	0,069
-711,933	-200,000	-0,008	-0,032
-710,918	-74,306	-0,083	-0,022
-709,904	10,514	-0,047	-0,027
-708,889	800,000	-0,034	-0,089
-707,875	111,922	0,041	-0,037
-706,860	800,000	-0,032	0,090
-705,845	-31,021	-0,124	-0,052
-704,831	-15,613	-0,078	0,037
-703,816	92,896	0,036	-0,031
-702,802	-53,940	-0,134	0,045
-701,787	94,524	-0,024	0,020
-700,772	-200,000	-0,002	-0,105
-699,758	42,084	-0,124	0,083
-698,743	-126,133	0,072	-0,008
-697,729	363,897	0,048	0,071
-696,714	-56,075	0,048	0,016
-695,699	-64,842	-0,118	0,035
-694,685	1,750	-0,058	-0,031
-693,670	800,000	-0,028	0,068
-692,656	800,000	-0,034	-0,108
-691,641	-46,997	-0,076	-0,027
-690,627	313,598	0,060	-0,084
-689,612	-82,092	-0,067	-0,016
-688,597	-200,000	-0,007	-0,037
-687,583	-200,000	0,007	-0,083
-686,568	54,047	-0,048	0,034
-685,554	-35,690	-0,039	-0,015
-684,539	228,092	0,051	0,061
-683,524	-200,000	0,023	0,114
-682,510	51,725	-0,100	-0,070
-681,495	-200,000	0,000	0,038
-680,481	141,231	-0,029	0,028
-679,466	-200,000	-0,027	0,094
-678,451	292,785	0,077	0,104
-677,437	-200,000	-0,002	-0,032
-676,422	-200,000	0,010	0,062
-675,408	800,000	-0,012	-0,031
-674,393	-165,014	0,117	0,004
-673,378	373,269	-0,078	-0,118
-672,364	800,000	-0,033	0,079
-671,349	-71,643	-0,062	0,017
-670,335	-117,769	-0,042	-0,006
-669,320	143,592	0,011	0,011
-668,305	137,252	-0,062	0,060
-667,291	3,824	-0,115	-0,062
-666,276	183,985	0,039	-0,043
-665,262	0,801	-0,120	-0,063
-664,247	98,306	-0,089	-0,075
-663,232	264,692	-0,036	0,047
-662,218	-100,218	0,072	0,013
-661,203	313,133	0,070	-0,098
-660,189	428,913	-0,104	0,167
-659,174	447,487	-0,020	-0,032
-658,159	16,378	-0,065	0,038
-657,145	328,994	0,025	0,036
-656,130	800,000	-0,014	0,035
-655,116	-200,000	-0,004	-0,121
-654,101	-44,049	0,093	0,034
-653,086	290,639	-0,036	0,048
-652,072	60,669	-0,072	0,053
-651,057	-27,300	0,069	-0,030
-650,043	-24,238	-0,128	-0,056
-649,028	100,446	-0,045	0,039
-648,014	-54,905	0,023	0,008
-646,999	156,121	0,019	0,019
-645,984	372,875	0,055	0,083
-644,970	8,966	-0,070	-0,039
-643,955	176,332	-0,095	-0,102
-642,941	579,215	0,020	0,036
-641,926	-200,000	-0,012	0,040
-640,911	-200,000	0,012	0,070
-639,897	-1,128	0,078	0,041
-638,882	-200,000	0,011	-0,038
-637,868	800,000	0,010	-0,026
-636,853	18,268	-0,024	0,014
-635,838	-200,000	-0,005	-0,089
-634,824	741,668	0,061	-0,121
-633,809	-200,000	-0,015	-0,137
-632,795	800,000	-0,006	-0,012
-631,780	-81,566	0,045	0,011
-630,765	800,000	0,011	-0,031
-629,751	44,732	-0,079	0,054
-628,736	800,000	-0,032	-0,074
-627,722	800,000	0,011	0,023
-626,707	-200,000	0,005	0,179
-625,692	110,626	-0,065	0,058
-624,678	94,529	0,044	0,037
-623,663	77,240	0,071	0,056
-622,649	-104,953	-0,026	-0,004
-621,634	-200,000	-0,001	-0,186
-620,619	-165,943	-0,075	0,002
-619,605	-102,212	0,063	0,011
-618,590	-200,000	-0,014	-0,174
-617,576	29,364	-0,030	-0,019
-616,561	-200,000	0,023	-0,095
-615,546	-140,682	-0,021	-0,002
-614,532	-70,327	0,086	0,024
-613,517	-200,000	0,004	-0,029
-612,503	352,769	-0,075	-0,111
-611,488	-200,000	0,023	0,152
-610,474	-200,000	-0,016	0,059
-609,459	229,431	-0,044	-0,053
-608,444	161,975	0,030	-0,031
-607,430	-32,647	-0,040	0,016
-606,415	-110,384	-0,026	-0,004
-605,401	-97,017	-0,081	0,016
-604,386	-141,263	0,021	-0,002
-603,371	248,753	0,050	0,063
-602,357	-200,000	0,011	-0,075
-601,342	800,000	0,028	-0,086
-600,328	-200,000	-0,001	-0,042
-599,313	166,074	-0,037	0,039
-598,298	243,819	0,060	-0,075
-597,284	-91,433	0,110	0,023
-596,269	-5,129	0,057	0,029
-595,255	-33,750	-0,024	0,010
-594,240	54,817	0,131	-0,093
-593,225	-153,056	0,042	0,002
-592,211	-200,000	0,003	-0,073
-591,196	800,000	0,016	-0,044
-590,182	800,000	-0,038	-0,100
-589,167	800,000	-0,049	-0,108
-588,152	213,740	-0,090	0,106
-587,138	3,815	-0,149	-0,080
-586,123	123,024	-0,103	-0,096
-585,109	800,000	-0,017	0,039
-584,094	-200,000	-0,011	0,053
-583,079	44,890	0,090	-0,061
-582,065	-200,000	-0,027	-0,113
-581,050	116,053	-0,073	0,065
-580,036	273,420	-0,015	-0,020
-579,021	749,827	0,044	-0,089
-578,006	800,000	-0,050	-0,144
-576,992	800,000	0,027	0,071
-575,977	800,000	-0,004	0,012
-574,963	127,948	0,083	0,078
-573,948	-200,000	0,024	0,114
-572,934	800,000	-0,011	-0,026
-571,919	-200,000	0,003	-0,068
-570,904	29,122	-0,037	-0,023
-569,890	298,886	0,105	0,143
-568,875	-200,000	-0,017	-0,070
-567,861	397,356	-0,058	-0,089
-566,846	-200,000	-0,010	0,124
-565,831	-181,837	0,129	0,002
-564,817	439,389	0,023	-0,037
-563,802	-31,609	-0,035	0,014
-562,788	360,793	0,009	-0,014
-561,773	-20,394	-0,090	-0,040
-560,758	800,000	0,048	0,134
-559,744	-34,987	-0,196	0,078
-558,729	-200,000	0,028	-0,202
-557,715	115,705	-0,119	-0,107
-556,700	162,185	-0,074	0,076
-555,685	-47,786	-0,120	-0,043
-554,671	800,000	-0,008	-0,024
-553,656	91,173	0,047	-0,039
-552,642	800,000	0,056	0,174
-551,627	368,719	0,039	-0,058
-550,612	800,000	-0,045	-0,099
-549,598	-34,209	-0,101	0,041
-548,583	289,192	0,080	-0,107
-547,569	245,705	0,073	0,090
-546,554	800,000	0,073	0,180
-545,539	-200,000	0,019	0,077
-544,525	-120,484	-0,046	-0,006
-543,510	19,903	-0,072	0,043
-542,496	287,000	-0,101	-0,135
-541,481	41,011	-0,112	-0,074
-540,466	459,866	0,022	-0,036
-539,452	800,000	0,010	0,021
-538,437	23,896	-0,092	-0,055
-537,423	112,321	-0,093	0,083
-536,408	-98,200	0,078	0,015
-535,393	-200,000	0,003	0,045
-534,379	800,000	-0,047	-0,115
-533,364	-200,000	-0,016	-0,108
-532,350	-53,736	0,158	-0,053
-531,335	-31,924	-0,038	-0,016
-530,321	160,802	0,048	-0,049
-529,306	179,009	-0,019	0,020
-528,291	-85,875	-0,011	-0,002
-527,277	-200,000	-0,005	-0,062
-526,262	-196,050	-0,085	-0,000
-525,248	50,012	-0,039	-0,027
-524,233	-107,204	-0,077	0,012
-523,218	-25,587	0,076	0,033
-522,204	-101,299	-0,045	0,008
-521,189	-45,805	0,058	0,021
-520,175	-57,042	-0,064	-0,021
-519,160	-130,897	-0,211	0,020
-518,145	31,587	-0,041	-0,026
-517,131	-44,057	-0,184	0,068
-516,116	369,970	0,056	-0,083
-515,102	-200,000	-0,007	0,079
-514,087	800,000	0,038	0,090
-513,072	364,839	-0,041	-0,061
-512,058	121,687	0,088	-0,080
-511,043	633,193	-0,019	0,036
-510,029	210,610	0,077	0,089
-509,014	-200,000	0,000	-0,072
-507,999	131,348	0,032	-0,030
-506,985	307,907	-0,092	-0,126
-505,970	-23,039	0,029	-0,013
-504,956	-126,209	0,099	-0,011
-503,941	9,023	0,009	0,005
-502,926	95,452	0,085	-0,071
-501,912	-71,326	-0,086	-0,024
-500,897	443,812	-0,055	0,089
-499,883	65,372	-0,071	-0,053
-498,868	800,000	0,011	0,031
-497,853	-102,753	0,041	0,007
-496,839	574,635	-0,024	-0,042
-495,824	-41,007	-0,065	0,024
-494,810	-121,911	0,197	-0,023
-493,795	3,176	0,079	0,042
-492,781	800,000	0,034	-0,081
-491,766	113,884	-0,096	0,086
-490,751	-200,000	-0,009	0,081
-489,737	-16,055	-0,019	0,009
-488,722	-200,000	0,010	0,076
-487,708	-84,461	-0,130	-0,030
-486,693	-200,000	-0,011	0,054
-485,678	-16,971	-0,083	-0,038
-484,664	167,202	0,048	0,050
-483,649	65,627	-0,078	-0,058
-482,635	-200,000	0,009	-0,052
-481,620	-103,868	0,102	-0,017
-480,605	-64,219	0,014	0,004
-479,591	158,690	-0,067	0,068
-478,576	800,000	0,057	0,118
-477,562	182,338	-0,068	0,074
-476,547	8,267	-0,043	-0,024
-475,532	800,000	0,038	-0,111
-474,518	-149,352	0,059	0,003
-473,503	45,041	-0,025	-0,017
-472,489	3,066	-0,108	0,058
-471,474	-98,743	-0,071	-0,013
-470,459	-64,444	-0,121	0,036
-469,445	442,111	-0,076	-0,122
-468,430	-56,481	0,036	0,011
-467,416	623,425	-0,019	0,035
-466,401	32,574	0,060	0,038
-465,386	56,849	-0,094	0,067
-464,372	-200,000	-0,007	0,051
-463,357	366,856	-0,031	-0,047
-462,343	145,396	-0,029	0,029
-461,328	299,101	-0,017	-0,023
-460,313	634,171	0,071	0,133
-459,299	371,544	0,066	0,098
-458,284	-166,917	-0,009	-0,000
-457,270	800,000	0,030	-0,062
-456,255	74,589	0,050	-0,039
-455,241	32,514	-0,107	0,068
-454,226	-15,944	-0,157	-0,073
-453,211	13,439	-0,153	0,087
-452,197	253,263	-0,042	-0,053
-451,182	-80,208	0,089	0,022
-450,168	800,000	-0,037	0,111
-449,153	-200,000	-0,003	-0,080
-448,138	-19,521	-0,053	-0,024
-447,124	336,849	0,044	-0,063
-446,109	800,000	0,023	-0,074
-445,095	800,000	-0,017	-0,041
-444,080	-53,960	0,068	0,023
-443,065	647,893	-0,024	-0,045
-442,051	-200,000	-0,018	-0,073
-441,036	-159,350	-0,078	-0,003
-440,022	-68,509	-0,099	0,028
-439,007	-41,742	-0,002	-0,001
-437,992	12,401	0,207	-0,117
-436,978	151,185	0,081	-0,081
-435,963	-101,917	-0,067	0,012
-434,949	-200,000	-0,053	0,000
-433,934	205,742	0,076	0,087
-432,919	8,893	0,008	-0,004
-431,905	-16,209	-0,124	0,057
-430,890	2,316	0,148	-0,078
-429,876	73,167	0,128	0,098
-428,861	-200,000	-0,011	0,196
-427,846	800,000	0,105	0,252
-426,832	315,522	0,081	0,112
-425,817	9,207	0,092	-0,051
-424,803	-51,114	-0,045	-0,015
-423,788	594,283	0,037	-0,067
-422,773	-98,735	-0,093	0,017
-421,759	-21,976	0,018	0,008
-420,744	-200,000	-0,006	-0,117
-419,730	210,154	0,023	0,027
-418,715	671,000	-0,094	-0,180
-417,701	800,000	-0,074	-0,167
-416,686	31,304	0,127	0,079
-415,671	-26,674	-0,074	-0,032
-414,657	-150,251	0,180	-0,010
-413,642	-142,080	0,055	-0,004
-412,628	381,498	-0,048	-0,073
-411,613	39,959	0,120	-0,079
-410,598	-90,821	0,017	-0,004
-409,584	186,170	0,059	0,065
-408,569	201,906	0,011	-0,013
-407,555	-6,910	0,039	0,019
-406,540	111,932	0,096	-0,085
-405,525	5,000	0,196	0,105
-404,511	-70,933	0,047	-0,013
-403,496	348,236	0,037	0,053
-402,482	-155,850	0,028	-0,001
-401,467	130,048	0,116	0,108
-400,452	300,898	-0,021	0,028
-399,438	800,000	-0,017	-0,042
-398,423	262,561	-0,051	0,065
-397,409	-16,489	-0,138	0,064
-396,394	205,027	-0,100	-0,114
-395,379	-200,000	0,010	0,037
-394,365	51,653	0,072	-0,050
-393,350	-97,648	0,144	0,027
-392,336	-116,392	-0,103	0,014
-391,321	-87,427	-0,186	0,041
-390,306	219,406	0,047	0,056
-389,292	-56,884	-0,060	-0,019
-388,277	395,798	-0,040	-0,061
-387,263	-200,000	0,009	-0,096
-386,248	-84,319	0,061	-0,014
-385,233	-24,710	0,129	-0,056
-384,219	449,065	-0,035	0,057
-383,204	-17,188	-0,026	-0,012
-382,190	-200,000	0,002	-0,016
-381,175	-134,395	0,086	-0,008
-380,160	474,692	0,063	0,105
-379,146	-41,399	-0,090	-0,034
-378,131	-100,290	-0,071	0,013
-377,117	135,339	0,016	-0,016
-376,102	-200,000	0,011	0,101
-375,088	-80,067	-0,060	-0,015
-374,073	-200,000	0,010	-0,046
-373,058	800,000	0,039	-0,111
-372,044	34,746	0,076	0,049
-371,029	66,636	0,103	-0,077
-370,015	-200,000	-0,004	0,094
-369,000	-200,000	-0,023	0,079
-367,985	800,000	0,012	0,034
-366,971	800,000	-0,020	0,053
-365,956	797,237	0,023	0,046
-364,942	69,286	0,048	0,036
-363,927	141,070	-0,057	0,055
-362,912	-34,630	0,039	0,016
-361,898	528,917	0,033	-0,057
-360,883	-52,052	0,109	0,037
-359,869	331,689	0,053	0,075
-358,854	-44,057	-0,206	-0,075
-357,839	-200,000	0,014	0,121
-356,825	-23,238	0,083	0,036
-355,810	-115,216	-0,063	-0,009
-354,796	-200,000	-0,008	0,089
-353,781	607,664	0,037	0,068
-352,766	-6,234	-0,076	0,038
-351,752	31,049	0,133	-0,083
-350,737	-42,941	0,215	-0,079
-349,723	510,156	0,075	0,127
-348,708	-200,000	-0,004	0,125
-347,693	800,000	0,011	0,030
-346,679	399,740	-0,098	0,150
-345,664	-200,000	0,008	-0,037
-344,650	-200,000	-0,004	-0,051
-343,635	245,795	0,097	0,120
-342,620	1,826	0,046	0,024
-341,606	-192,624	0,050	0,000
-340,591	-200,000	0,023	0,120
-339,577	88,457	-0,167	-0,136
-338,562	-12,392	0,120	-0,057
-337,548	-148,204	0,046	0,003
-336,533	800,000	-0,011	0,032
-335,518	123,210	-0,035	0,032
-334,504	94,669	0,024	0,020
-333,489	142,269	-0,079	0,076
-332,475	-30,426	-0,099	-0,041
-331,460	735,434	-0,031	-0,061
-330,445	-114,218	-0,071	-0,010
-329,431	139,731	0,078	0,075
-328,416	-171,129	0,101	-0,002
-327,402	-82,869	-0,089	0,021
-326,387	-111,269	0,079	0,012
-325,372	669,043	0,025	-0,048
-324,358	-200,000	0,007	-0,136
-323,343	-200,000	-0,003	-0,015
-322,329	224,884	-0,047	0,056
-321,314	800,000	-0,077	0,185
-320,299	-200,000	0,043	0,142
-319,285	-24,020	-0,059	-0,026
-318,270	800,000	-0,035	0,092
-317,256	-15,640	-0,106	0,049
-316,241	177,062	-0,049	0,052
-315,226	-143,631	0,071	-0,005
-314,212	-125,744	0,089	0,010
-313,197	-35,195	0,061	0,024
-312,183	-200,000	-0,018	-0,075
-311,168	537,639	-0,028	0,048
-310,153	-50,000	0,040	-0,014
-309,139	-67,607	-0,062	-0,018
-308,124	-96,123	0,217	-0,042
-307,110	-200,000	-0,003	0,028
-306,095	-200,000	0,009	0,079
-305,080	331,114	-0,015	0,021
-304,066	800,000	0,022	0,066
-303,051	-151,245	0,079	0,004
-302,037	-200,000	-0,020	-0,152
-301,022	80,427	0,090	-0,071
-300,008	-200,000	-0,001	0,166
-298,993	132,119	0,070	0,066
-297,978	-35,816	0,039	-0,015
-296,964	182,796	0,078	0,084
-295,949	-128,861	-0,079	-0,008
-294,935	-200,000	-0,003	-0,047
-293,920	-139,042	0,023	-0,002
-292,905	300,087	0,088	0,118
-291,891	-4,183	-0,106	0,053
-290,876	-200,000	0,055	0,183
-289,862	-200,000	-0,008	0,073
-288,847	-103,165	-0,113	-0,019
-287,832	0,006	-0,112	-0,058
-286,818	-73,132	0,157	-0,042
-285,803	-71,631	0,131	0,035
-284,789	-124,716	0,125	-0,014
-283,774	-1,744	0,020	-0,010
-282,759	22,896	-0,038	0,022
-281,745	800,000	0,042	-0,087
-280,730	800,000	0,060	0,124
-279,716	800,000	0,028	-0,088
-278,701	94,462	-0,102	-0,085
-277,686	-200,000	-0,044	-0,171
-276,672	800,000	0,022	0,049
-275,657	-41,241	0,092	0,034
-274,643	-200,000	-0,007	-0,115
-273,628	-114,268	0,105	-0,015
-272,613	265,886	-0,076	-0,096
-271,599	-84,046	0,055	-0,013
-270,584	15,844	-0,086	-0,049
-269,570	-65,580	-0,075	0,022
-268,555	426,327	-0,017	-0,026
-267,540	-121,700	-0,038	0,004
-266,526	316,240	0,084	-0,115
-265,511	498,592	-0,024	-0,041
-264,497	461,269	-0,022	0,037
-263,482	123,291	0,054	0,049
-262,467	-200,000	0,015	-0,076
-261,453	200,406	0,013	-0,015
-260,438	-50,049	-0,062	0,021
-259,424	82,252	-0,133	-0,105
-258,409	-35,802	-0,043	-0,017
-257,395	-200,000	0,009	0,094
-256,380	-158,043	0,038	-0,002
-255,365	800,000	-0,022	0,057
-254,351	45,110	-0,087	-0,058
-253,336	4,593	-0,063	0,033
-252,322	-200,000	-0,025	-0,099
-251,307	27,153	-0,161	-0,098
-250,292	800,000	-0,024	-0,058
-249,278	800,000	0,018	-0,054
-248,263	-200,000	0,046	0,179
-247,249	-14,260	0,105	-0,049
-246,234	-200,000	-0,030	0,153
-245,219	-200,000	-0,019	-0,140
-244,205	-120,956	0,257	0,031
-243,190	-31,451	0,078	-0,032
-242,176	-200,000	-0,019	-0,102
-241,161	93,383	0,017	-0,014
-240,146	800,000	-0,035	-0,089
-239,132	-4,323	0,035	0,018
-238,117	-200,000	-0,031	-0,155
-237,103	80,004	-0,069	0,054
-236,088	-4,112	-0,169	0,085
-235,073	800,000	0,026	0,076
-234,059	-200,000	-0,021	0,164
-233,044	37,940	0,093	0,060
-232,030	243,882	0,074	-0,090
-231,015	800,000	0,046	-0,120
-230,000	-86,916	-0,159	-0,035
-228,986	108,754	-0,055	-0,047
-227,971	-80,010	0,086	0,021
-226,957	297,718	0,114	-0,152
-225,942	800,000	-0,028	-0,085
-224,927	800,000	0,039	-0,101
-223,913	366,132	0,013	0,019
-222,898	35,594	-0,065	-0,041
-221,884	-200,000	-0,036	-0,163
-220,869	689,269	0,062	0,118
-219,855	-200,000	0,023	0,082
-218,840	203,601	0,050	0,056
-217,825	44,135	0,072	0,048
-216,811	-128,639	-0,140	0,014
-215,796	-200,000	-0,034	-0,174
-214,782	-41,838	-0,111	-0,041
-213,767	-24,136	0,096	0,041
-212,752	-64,195	0,040	0,012
-211,738	30,492	0,092	0,057
-210,723	-20,790	0,076	-0,034
-209,709	-62,424	-0,068	0,020
-208,694	375,056	-0,079	-0,117
-207,679	-14,350	-0,077	-0,036
-206,665	-47,342	0,116	-0,041
-205,650	641,530	0,087	0,161
-204,636	-200,000	0,027	0,120
-203,621	-200,000	0,025	0,084
-202,606	-74,154	0,210	-0,055
-201,592	-200,000	0,030	-0,106
-200,577	464,999	-0,088	0,144
-199,563	9,316	0,013	0,007
-198,548	-200,000	0,002	0,149
-197,533	-36,753	-0,054	0,021
-196,519	-42,137	-0,081	0,030
-195,504	487,422	0,043	-0,072
-194,490	291,906	0,026	-0,035
-193,475	82,653	-0,066	-0,052
-192,460	800,000	0,034	0,097
-191,446	17,500	-0,096	-0,055
-190,431	-175,937	0,094	0,002
-189,417	233,774	-0,072	-0,086
-188,402	450,990	-0,031	-0,050
-187,387	386,175	-0,040	-0,061
-186,373	-55,369	0,035	-0,011
-185,358	800,000	0,035	0,108
-184,344	-15,152	0,152	-0,070
-183,329	-200,000	-0,001	-0,062
-182,315	-200,000	0,000	0,024
-181,300	-200,000	-0,008	0,042
-180,285	3,185	-0,053	0,028
-179,271	109,870	-0,063	0,055
-178,256	-96,827	-0,070	-0,013
-177,242	468,200	0,002	0,004
-176,227	327,073	-0,067	0,094
-175,212	136,276	0,063	0,060
-174,198	34,395	-0,104	0,066
-173,183	90,711	0,034	0,028
-172,169	-112,799	-0,138	-0,020
-171,154	-200,000	0,028	0,098
-170,139	49,401	-0,036	-0,024
-169,125	180,979	0,088	0,094
-168,110	800,000	-0,037	0,089
-167,096	-200,000	-0,013	-0,167
-166,081	-80,121	-0,164	-0,040
-165,066	158,928	0,070	-0,071
-164,052	800,000	-0,044	-0,120
-163,037	238,013	-0,040	-0,048
-162,023	-200,000	-0,027	-0,102
-161,008	68,950	0,064	0,048
-159,993	157,294	-0,010	0,010
-158,979	216,435	-0,044	0,051
-157,964	28,593	-0,053	-0,032
-156,950	-4,634	0,111	-0,055
-155,935	157,124	-0,080	0,080
-154,920	225,257	-0,020	-0,023
-153,906	800,000	0,045	0,093
-152,891	-200,000	-0,019	0,262
-151,877	-200,000	-0,014	0,054
-150,862	-158,247	-0,135	0,006
-149,847	382,103	-0,053	-0,079
-148,833	-73,236	0,038	0,010
-147,818	31,196	0,107	0,066
-146,804	173,598	-0,036	0,038
-145,789	-200,000	-0,001	0,104
-144,775	-200,000	-0,009	-0,102
-143,760	-200,000	-0,036	-0,134
-142,745	244,048	0,087	-0,106
-141,731	-35,405	-0,141	-0,055
-140,716	-94,066	-0,030	0,006
-139,702	800,000	0,032	0,076
-138,687	217,369	0,035	-0,040
-137,672	105,596	-0,066	-0,057
-136,658	432,586	-0,076	-0,120
-135,643	32,963	-0,049	-0,031
-134,629	800,000	-0,031	-0,070
-133,614	14,494	0,083	-0,047
-132,599	42,685	-0,068	0,045
-131,585	800,000	-0,045	0,119
-130,570	196,454	0,033	0,036
-129,556	7,061	-0,162	-0,087
-128,541	-137,934	0,092	-0,007
-127,526	-200,000	0,044	0,143
-126,512	57,481	0,056	-0,040
-125,497	-103,254	-0,051	0,009
-124,483	220,281	0,075	0,087
-123,468	-143,354	-0,059	0,004
-122,453	467,120	0,058	-0,095
-121,439	800,000	-0,016	-0,052
-120,424	516,129	0,075	0,128
-119,410	538,598	0,066	0,114
-118,395	137,246	0,092	0,088
