DTS Sentinel unit serial number:	SN410029Multiplexer serial number:	ORYXHardware model number:	OX2-SRSoftware version number:	ORYX F/W v4,00 Oryx Data Collector v3.7.2.0data status	okinstallation	B6 Nyhavnadifferential loss correction	single-endedforward channel	channel 2reverse channel	N/Adate	2023/12/08time	17:30:08forward acquisition time	300,00reverse acquisition time	0,00gamma	499,1914k internal	0,3158k external	0,3158temperature offset calibration	1,0000default loss term (dB/km)	0,3820temperature slope calibration	1,0000multiplexer offset coefficient	1,0000multiplexer slope coefficient	1,0000fibre end	0,00T internal ref (°C)	15,16T ext. ref 1 (°C)	-1,34T ext. ref 2 (°C)	-1,34length (m)	temperature (°C)	Stokes	anti-Stokes-744,400	-86,159	0,115	-0,026
-743,385	-115,848	-0,356	0,048
-742,371	800,000	0,062	-0,166
-741,356	-105,193	-0,247	0,041
-740,342	286,051	0,061	0,081
-739,327	-169,785	-0,345	0,009
-738,312	376,797	0,096	0,145
-737,298	-119,635	-0,346	0,044
-736,283	8,815	0,194	-0,108
-735,269	-109,921	-0,257	0,039
-734,254	800,000	0,027	0,060
-733,239	32,592	-0,402	-0,255
-732,225	-49,350	0,218	0,076
-731,210	81,931	0,180	0,143
-730,196	800,000	-0,062	0,136
-729,181	542,069	-0,021	0,037
-728,167	-53,607	-0,184	-0,062
-727,152	-26,881	0,099	0,043
-726,137	384,020	-0,042	-0,065
-725,123	44,215	-0,028	-0,019
-724,108	-200,000	-0,026	-0,162
-723,094	17,074	-0,071	0,042
-722,079	-19,705	-0,056	-0,026
-721,064	450,603	0,056	-0,092
-720,050	-115,493	-0,091	0,012
-719,035	92,360	0,072	0,060
-718,021	-43,677	-0,064	0,024
-717,006	320,097	0,062	-0,087
-715,991	-37,313	-0,031	-0,012
-714,977	-6,228	-0,090	-0,045
-713,962	-200,000	-0,047	0,156
-712,948	-200,000	-0,002	0,037
-711,933	-125,128	-0,082	-0,009
-710,918	-96,681	-0,060	0,011
-709,904	-160,606	-0,166	0,006
-708,889	66,929	0,086	-0,064
-707,875	-186,761	-0,072	-0,001
-706,860	155,863	0,065	-0,066
-705,845	-124,252	0,039	-0,004
-704,831	-200,000	-0,013	-0,083
-703,816	307,571	0,061	-0,084
-702,802	-52,448	-0,011	-0,004
-701,787	3,568	0,059	0,032
-700,772	246,827	0,066	0,082
-699,758	521,800	0,038	-0,065
-698,743	32,790	-0,086	-0,055
-697,729	599,465	0,067	0,123
-696,714	629,728	0,046	0,085
-695,699	90,595	-0,115	-0,095
-694,685	800,000	-0,032	-0,086
-693,670	-200,000	-0,007	-0,051
-692,656	668,621	0,037	0,071
-691,641	-30,620	0,081	0,034
-690,627	467,002	0,010	0,017
-689,612	103,999	0,004	-0,004
-688,597	162,070	0,125	0,129
-687,583	151,930	-0,119	-0,119
-686,568	-200,000	-0,024	0,141
-685,554	-42,886	-0,084	-0,031
-684,539	800,000	0,026	-0,067
-683,524	733,778	0,027	-0,054
-682,510	800,000	0,013	0,027
-681,495	10,312	-0,041	0,023
-680,481	16,840	-0,023	0,013
-679,466	196,347	-0,057	0,063
-678,451	800,000	0,031	0,067
-677,437	9,541	0,124	-0,069
-676,422	62,384	0,080	0,059
-675,408	-143,236	-0,030	0,002
-674,393	-87,510	0,135	0,030
-673,378	-101,205	-0,115	-0,020
-672,364	336,489	0,055	-0,079
-671,349	78,096	-0,169	-0,132
-670,335	-42,584	0,287	-0,107
-669,320	43,876	0,053	-0,035
-668,305	93,878	0,072	-0,060
-667,291	800,000	0,055	-0,114
-666,276	-30,122	-0,093	0,039
-665,262	137,272	0,035	-0,034
-664,247	-200,000	-0,054	-0,259
-663,232	800,000	-0,062	-0,159
-662,218	177,558	-0,025	-0,027
-661,203	-200,000	-0,011	-0,097
-660,189	-14,140	-0,111	0,052
-659,174	-200,000	-0,001	-0,059
-658,159	800,000	-0,042	-0,092
-657,145	800,000	0,023	-0,074
-656,130	800,000	-0,008	-0,023
-655,116	-57,397	0,051	-0,016
-654,101	230,724	0,111	0,133
-653,086	-200,000	0,006	-0,039
-652,072	-200,000	-0,001	0,039
-651,057	349,992	-0,089	-0,129
-650,043	229,511	0,058	-0,070
-649,028	78,607	-0,023	-0,018
-648,014	800,000	-0,026	0,061
-646,999	703,391	0,053	0,103
-645,984	37,284	0,024	-0,016
-644,970	25,459	-0,063	0,038
-643,955	-200,000	-0,006	0,076
-642,941	73,580	-0,106	0,081
-641,926	-14,769	0,056	0,026
-640,911	-118,651	0,134	-0,017
-639,897	-35,201	0,086	-0,034
-638,882	-200,000	-0,002	-0,087
-637,868	-200,000	-0,001	-0,129
-636,853	-120,574	-0,073	-0,009
-635,838	49,441	-0,057	-0,039
-634,824	800,000	-0,022	0,058
-633,809	-56,310	-0,020	0,006
-632,795	139,934	-0,106	0,103
-631,780	44,731	-0,043	0,029
-630,765	800,000	0,040	-0,095
-629,751	-200,000	-0,003	-0,062
-628,736	13,311	0,119	-0,068
-627,722	226,148	-0,049	-0,059
-626,707	-200,000	-0,013	-0,091
-625,692	-92,233	-0,052	-0,011
-624,678	132,899	-0,010	-0,010
-623,663	-200,000	-0,016	0,064
-622,649	-200,000	-0,023	-0,122
-621,634	-200,000	-0,002	0,060
-620,619	607,957	0,036	-0,066
-619,605	20,207	-0,021	-0,013
-618,590	-200,000	0,066	0,000
-617,576	2,557	0,032	0,017
-616,561	-200,000	-0,004	-0,064
-615,546	103,848	-0,059	0,051
-614,532	-200,000	-0,035	-0,118
-613,517	800,000	0,026	0,054
-612,503	-26,606	-0,037	0,016
-611,488	172,716	-0,188	0,198
-610,474	-200,000	-0,039	0,186
-609,459	-200,000	0,014	-0,066
-608,444	-144,446	-0,131	0,009
-607,430	93,176	-0,107	-0,088
-606,415	-44,273	0,130	-0,047
-605,401	510,333	-0,053	0,091
-604,386	800,000	-0,050	0,121
-603,371	581,207	-0,016	-0,029
-602,357	735,000	0,056	0,110
-601,342	-200,000	0,013	0,066
-600,328	800,000	-0,073	-0,164
-599,313	-47,673	-0,049	-0,017
-598,298	198,471	0,037	-0,042
-597,284	414,205	-0,039	-0,061
-596,269	800,000	0,044	-0,106
-595,255	-136,881	-0,107	-0,009
-594,240	800,000	0,051	0,127
-593,225	159,870	-0,119	0,122
-592,211	68,294	-0,091	0,069
-591,196	87,576	-0,069	-0,056
-590,182	-11,798	-0,078	0,037
-589,167	-200,000	-0,008	0,080
-588,152	-200,000	0,005	0,057
-587,138	-180,247	-0,107	-0,002
-586,123	91,545	-0,076	-0,062
-585,109	800,000	0,030	-0,072
-584,094	800,000	0,015	0,035
-583,079	800,000	-0,036	0,107
-582,065	-50,312	0,078	0,027
-581,050	800,000	-0,008	0,018
-580,036	243,070	-0,067	0,083
-579,021	-123,184	-0,020	-0,002
-578,006	-7,020	0,057	-0,028
-576,992	9,568	0,065	0,036
-575,977	-71,836	-0,044	-0,012
-574,963	57,755	0,089	0,064
-573,948	-67,075	0,067	-0,019
-572,934	800,000	-0,044	-0,116
-571,919	800,000	-0,021	0,065
-570,904	-16,149	0,041	0,019
-569,890	800,000	-0,029	0,092
-568,875	-200,000	0,012	0,086
-567,861	-126,523	-0,033	-0,004
-566,846	330,578	0,098	0,139
-565,831	313,821	0,104	-0,144
-564,817	107,266	0,032	0,028
-563,802	33,080	-0,085	0,054
-562,788	721,400	0,048	0,094
-561,773	145,492	0,098	-0,096
-560,758	-199,056	0,111	-0,000
-559,744	231,030	0,101	-0,121
-558,729	-112,068	-0,072	-0,010
-557,715	167,391	-0,082	-0,086
-556,700	16,558	0,074	-0,043
-555,685	-200,000	0,009	0,114
-554,671	-200,000	0,017	-0,111
-553,656	146,428	0,067	-0,065
-552,642	-200,000	-0,002	-0,105
-551,627	-200,000	0,003	-0,118
-550,612	-200,000	-0,007	0,034
-549,598	-108,223	-0,015	0,002
-548,583	0,830	0,023	0,012
-547,569	649,220	0,029	0,054
-546,554	-1,373	0,108	-0,056
-545,539	-47,782	0,127	0,045
-544,525	85,967	-0,053	-0,043
-543,510	800,000	-0,044	-0,099
-542,496	800,000	0,050	-0,105
-541,481	592,872	0,064	0,116
-540,466	215,429	-0,026	-0,030
-539,452	-66,770	-0,111	-0,032
-538,437	-158,704	-0,008	-0,000
-537,423	259,363	0,077	0,098
-536,408	102,278	-0,133	-0,113
-535,393	248,655	-0,069	0,086
-534,379	118,242	0,059	0,053
-533,364	198,365	0,009	0,010
-532,350	800,000	-0,021	0,065
-531,335	-2,341	0,026	0,014
-530,321	85,549	0,048	-0,039
-529,306	800,000	0,020	-0,043
-528,291	97,713	-0,039	-0,033
-527,277	165,738	-0,065	-0,067
-526,262	800,000	0,001	0,003
-525,248	639,750	0,047	0,089
-524,233	313,779	0,048	0,066
-523,218	-200,000	-0,021	-0,106
-522,204	-154,562	-0,151	0,007
-521,189	-200,000	0,025	0,098
-520,175	-6,268	-0,129	0,064
-519,160	-200,000	-0,013	-0,096
-518,145	-85,507	0,065	0,015
-517,131	-110,632	-0,079	0,012
-516,116	13,679	0,055	-0,031
-515,102	-200,000	-0,015	0,071
-514,087	50,957	-0,083	0,057
-513,072	-200,000	-0,038	-0,209
-512,058	-84,543	0,025	0,006
-511,043	65,065	-0,066	-0,049
-510,029	-110,372	0,161	0,024
-509,014	800,000	0,091	-0,217
-507,999	603,561	-0,075	0,137
-506,985	800,000	-0,030	-0,096
-505,970	29,582	0,030	-0,018
-504,956	14,460	-0,012	0,007
-503,941	800,000	0,033	0,078
-502,926	205,945	0,094	0,107
-501,912	86,699	0,030	0,024
-500,897	117,296	-0,116	0,104
-499,883	-70,443	-0,067	-0,018
-498,868	-153,533	-0,085	0,004
-497,853	7,809	-0,297	-0,162
-496,839	102,985	-0,056	0,048
-495,824	800,000	0,016	0,050
-494,810	8,502	0,091	0,050
-493,795	-200,000	-0,003	0,126
-492,781	800,000	-0,075	-0,161
-491,766	6,830	-0,067	-0,036
-490,751	800,000	-0,041	-0,115
-489,737	423,097	0,045	-0,070
-488,722	310,900	-0,025	0,035
-487,708	800,000	0,059	0,131
-486,693	-117,168	-0,031	0,004
-485,678	-104,166	-0,058	0,010
-484,664	-136,436	-0,073	0,006
-483,649	394,461	0,031	-0,048
-482,635	-21,199	-0,144	-0,064
-481,620	70,669	-0,029	0,022
-480,605	128,063	0,098	0,091
-479,591	-72,700	0,071	0,019
-478,576	602,264	-0,019	-0,034
-477,562	126,264	0,068	-0,063
-476,547	-200,000	0,022	-0,213
-475,532	12,981	0,050	0,028
-474,518	-14,025	0,026	-0,012
-473,503	-81,579	-0,085	-0,020
-472,489	171,677	-0,062	-0,065
-471,474	800,000	-0,025	0,070
-470,459	-61,306	-0,187	-0,057
-469,445	-200,000	-0,001	-0,119
-468,430	586,354	0,017	-0,031
-467,416	-57,105	-0,140	0,045
-466,401	800,000	-0,016	-0,052
-465,386	151,572	-0,112	-0,111
-464,372	98,009	-0,084	0,071
-463,357	-14,615	-0,082	-0,038
-462,343	106,274	-0,059	0,051
-461,328	-25,620	0,169	-0,072
-460,313	-172,267	-0,105	0,002
-459,299	152,461	-0,033	0,033
-458,284	500,954	0,049	-0,083
-457,270	-19,297	0,065	-0,029
-456,255	-95,736	0,132	-0,025
-455,241	-71,264	0,063	-0,017
-454,226	-129,735	0,125	-0,012
-453,211	209,334	-0,105	0,120
-452,197	254,011	0,044	0,054
-451,182	-200,000	-0,009	0,207
-450,168	327,434	0,050	0,070
-449,153	-48,747	-0,064	0,022
-448,138	-91,844	-0,038	-0,008
-447,124	-200,000	-0,008	-0,054
-446,109	17,757	0,127	0,073
-445,095	-200,000	-0,005	0,181
-444,080	21,877	-0,065	0,039
-443,065	103,229	0,122	0,105
-442,051	-184,786	-0,064	-0,001
-441,036	-33,870	-0,155	-0,062
-440,022	-5,199	-0,085	0,042
-439,007	292,369	0,082	0,109
-437,992	800,000	0,022	-0,045
-436,978	-80,795	-0,024	0,006
-435,963	-7,492	0,101	0,050
-434,949	-200,000	0,001	0,027
-433,934	800,000	0,020	0,064
-432,919	17,191	0,084	-0,048
-431,905	-200,000	-0,041	0,133
-430,890	-125,952	0,152	-0,016
-429,876	88,603	0,036	-0,029
-428,861	141,709	-0,047	-0,046
-427,846	-200,000	0,022	-0,090
-426,832	800,000	0,052	-0,132
-425,817	-200,000	-0,008	-0,056
-424,803	464,087	-0,065	-0,106
-423,788	-200,000	0,012	-0,145
-422,773	41,552	0,067	0,044
-421,759	131,385	-0,039	-0,036
-420,744	-131,878	0,129	-0,012
-419,730	116,952	-0,107	-0,096
-418,715	-200,000	-0,023	-0,083
-417,701	59,654	0,045	0,032
-416,686	-200,000	0,031	-0,141
-415,671	423,579	-0,023	-0,037
-414,657	-25,362	-0,139	0,060
-413,642	800,000	-0,040	-0,117
-412,628	800,000	0,008	-0,022
-411,613	-89,426	-0,101	0,022
-410,598	-70,578	-0,009	-0,002
-409,584	800,000	0,038	-0,114
-408,569	430,447	0,065	0,102
-407,555	-200,000	-0,009	-0,033
-406,540	137,708	-0,033	0,031
-405,525	-77,611	-0,050	-0,013
-404,511	-90,362	0,028	-0,006
-403,496	142,103	0,067	-0,064
-402,482	-200,000	0,043	-0,180
-401,467	-92,002	0,060	-0,012
-400,452	-51,427	0,097	0,033
-399,438	-1,238	-0,030	-0,015
-398,423	800,000	-0,053	0,143
-397,409	-30,626	-0,087	-0,036
-396,394	-62,710	0,105	-0,032
-395,379	-200,000	-0,009	-0,116
-394,365	800,000	0,028	-0,069
-393,350	66,521	0,060	-0,044
-392,336	527,048	-0,034	0,059
-391,321	54,997	-0,139	-0,098
-390,306	-94,864	0,115	0,022
-389,292	800,000	0,013	-0,037
-388,277	-200,000	0,032	-0,132
-387,263	-56,323	-0,021	0,007
-386,248	800,000	0,035	0,079
-385,233	-200,000	-0,019	0,202
-384,219	43,294	-0,084	0,056
-383,204	-200,000	-0,001	0,035
-382,190	237,854	-0,083	-0,100
-381,175	-39,976	0,089	0,034
-380,160	12,103	-0,043	0,024
-379,146	-200,000	-0,005	0,053
-378,131	-24,043	0,095	0,041
-377,117	303,621	0,041	0,055
-376,102	-200,000	-0,002	0,036
-375,088	763,845	-0,030	-0,059
-374,073	-164,034	0,213	0,007
-373,058	-134,803	0,043	0,004
-372,044	-110,621	-0,093	0,014
-371,029	147,886	-0,057	0,056
-370,015	46,945	-0,097	0,066
-369,000	800,000	0,017	0,042
-367,985	78,177	-0,109	-0,084
-366,971	482,439	0,050	0,082
-365,956	-61,633	-0,058	0,018
-364,942	-200,000	0,002	-0,020
-363,927	-34,132	0,037	-0,015
-362,912	-61,545	0,141	-0,043
-361,898	-105,025	-0,094	-0,016
-360,883	800,000	-0,036	0,085
-359,869	443,354	0,043	-0,069
-358,854	-200,000	0,008	0,089
-357,839	112,714	0,065	0,057
-356,825	556,683	0,052	-0,091
-355,810	242,618	-0,037	-0,044
-354,796	17,186	-0,036	-0,021
-353,781	800,000	0,010	-0,027
-352,766	-200,000	0,006	-0,048
-351,752	-139,061	-0,041	0,003
-350,737	-7,753	0,074	0,036
-349,723	800,000	0,063	0,130
-348,708	-200,000	0,002	0,141
-347,693	-200,000	0,004	-0,103
-346,679	6,889	0,020	-0,011
-345,664	-200,000	-0,019	-0,087
-344,650	-200,000	0,018	0,133
-343,635	-67,528	-0,114	0,032
-342,620	-200,000	0,032	0,151
-341,606	-200,000	-0,006	0,037
-340,591	89,783	0,083	-0,067
-339,577	503,143	0,042	-0,070
-338,562	-200,000	0,000	-0,055
-337,548	259,711	0,074	0,093
-336,533	-8,388	0,069	0,033
-335,518	-200,000	0,014	0,080
-334,504	108,872	-0,078	-0,068
-333,489	-200,000	0,001	-0,067
-332,475	205,136	0,059	-0,066
-331,460	9,984	-0,072	0,040
-330,445	800,000	0,058	0,131
-329,431	-200,000	0,029	-0,150
-328,416	-200,000	0,028	-0,110
-327,402	-111,175	0,137	0,020
-326,387	74,460	-0,046	0,035
-325,372	346,091	0,026	-0,037
-324,358	84,108	-0,046	-0,036
-323,343	31,685	0,039	0,025
-322,329	-200,000	-0,012	-0,085
-321,314	-200,000	-0,003	-0,036
-320,299	800,000	-0,048	0,103
-319,285	87,364	-0,022	-0,018
-318,270	-84,387	0,098	-0,022
-317,256	-200,000	-0,014	-0,066
-316,241	-157,011	0,162	0,007
-315,226	-193,447	-0,105	-0,001
-314,212	-139,572	0,083	0,006
-313,197	-26,175	-0,079	0,033
-312,183	-135,557	0,142	-0,012
-311,168	800,000	0,080	-0,185
-310,153	102,791	-0,061	-0,052
-309,139	-200,000	0,004	-0,068
-308,124	-200,000	0,005	-0,080
-307,110	96,150	0,098	-0,082
-306,095	0,082	-0,079	0,041
-305,080	149,278	0,050	0,049
-304,066	-200,000	-0,002	-0,070
-303,051	-200,000	0,006	0,030
-302,037	-28,177	0,052	0,022
-301,022	-15,715	0,139	-0,064
-300,008	-9,687	-0,123	0,059
-298,993	88,144	0,028	0,023
-297,978	150,600	-0,093	-0,091
-296,964	-200,000	-0,004	0,079
-295,949	29,221	0,104	0,064
-294,935	70,474	-0,072	-0,054
-293,920	5,953	0,099	0,053
-292,905	-124,729	0,068	-0,008
-291,891	-200,000	-0,022	0,140
-290,876	-200,000	-0,010	0,062
-289,862	93,000	-0,010	-0,008
-288,847	-200,000	-0,033	0,113
-287,832	-6,227	-0,091	-0,045
-286,818	-79,184	-0,194	-0,047
-285,803	-200,000	0,010	0,080
-284,789	-60,333	-0,062	0,019
-283,774	-200,000	0,014	0,162
-282,759	-89,553	-0,059	-0,012
-281,745	800,000	-0,020	-0,061
-280,730	800,000	0,033	-0,106
-279,716	-102,227	-0,095	0,016
-278,701	-2,170	0,059	-0,030
-277,686	295,108	0,081	0,108
-276,672	-200,000	-0,006	0,062
-275,657	-46,636	-0,169	0,060
-274,643	24,739	-0,091	-0,055
-273,628	418,707	-0,064	-0,100
-272,613	183,967	0,021	0,023
-271,599	-200,000	0,007	-0,032
-270,584	27,592	0,103	0,063
-269,570	-200,000	-0,063	0,258
-268,555	-200,000	-0,007	-0,108
-267,540	-126,748	0,118	-0,012
-266,526	-146,533	0,009	0,001
-265,511	-77,941	0,139	-0,034
-264,497	-3,297	-0,044	0,022
-263,482	800,000	0,020	0,048
-262,467	-200,000	0,000	-0,042
-261,453	-200,000	-0,008	0,058
-260,438	6,203	0,168	-0,090
-259,424	649,290	0,031	0,058
-258,409	294,810	-0,088	0,116
-257,395	-32,817	0,066	-0,026
-256,380	-4,471	0,075	0,037
-255,365	-200,000	0,017	-0,081
-254,351	363,084	0,020	0,029
-253,336	154,648	-0,046	0,046
-252,322	167,499	0,058	0,060
-251,307	-60,474	-0,073	-0,022
-250,292	-200,000	-0,004	-0,015
-249,278	-200,000	0,031	0,125
-248,263	-200,000	-0,002	0,081
-247,249	800,000	-0,034	0,086
-246,234	391,767	-0,058	-0,087
-245,219	-200,000	0,005	-0,152
-244,205	8,603	-0,104	-0,057
-243,190	-72,113	-0,140	0,037
-242,176	800,000	-0,036	-0,073
-241,161	69,684	-0,030	-0,022
-240,146	423,740	0,077	0,120
-239,132	225,450	-0,051	-0,060
-238,117	-179,018	0,047	-0,001
-237,103	-146,323	-0,156	0,010
-236,088	-49,038	0,027	-0,009
-235,073	-200,000	0,006	-0,125
-234,059	43,683	-0,024	0,016
-233,044	800,000	0,026	-0,062
-232,030	47,946	-0,048	0,032
-231,015	68,316	0,093	-0,069
-230,000	-14,761	0,098	-0,045
-228,986	-200,000	-0,099	-0,000
-227,971	-200,000	-0,002	0,074
-226,957	11,727	0,076	-0,042
-225,942	800,000	0,055	0,139
-224,927	-23,959	0,034	-0,015
-223,913	-11,510	-0,106	-0,050
-222,898	-20,830	0,032	-0,014
-221,884	-160,220	0,101	-0,004
-220,869	-200,000	0,006	0,081
-219,855	-92,355	0,026	-0,005
-218,840	-200,000	-0,013	0,114
-217,825	26,436	-0,061	-0,037
-216,811	-34,531	0,136	-0,054
-215,796	-63,717	-0,076	0,022
-214,782	800,000	-0,014	-0,034
-213,767	568,193	0,083	-0,146
-212,752	800,000	0,012	0,037
-211,738	143,034	-0,031	0,029
-210,723	84,677	0,044	0,034
-209,709	101,326	0,122	-0,102
-208,694	1,394	-0,180	0,093
-207,679	-38,287	-0,167	0,064
-206,665	338,781	0,064	-0,090
-205,650	-167,047	-0,056	0,002
-204,636	800,000	0,020	0,056
-203,621	390,371	0,020	-0,031
-202,606	-200,000	0,002	0,041
-201,592	95,928	0,012	0,010
-200,577	800,000	-0,041	-0,084
-199,563	-86,923	0,064	0,014
-198,548	800,000	-0,039	0,110
-197,533	187,614	-0,091	0,098
-196,519	-200,000	-0,008	-0,032
-195,504	695,620	0,051	-0,096
-194,490	-90,609	-0,072	0,015
-193,475	-59,401	0,033	-0,010
-192,460	-29,449	0,137	0,056
-191,446	-161,198	-0,117	-0,004
-190,431	84,368	0,019	-0,015
-189,417	-28,605	-0,018	-0,007
-188,402	-9,396	-0,092	0,044
-187,387	-200,000	-0,001	-0,081
-186,373	-200,000	-0,043	-0,145
-185,358	414,163	-0,064	0,098
-184,344	-191,953	0,123	-0,001
-183,329	192,441	0,036	0,040
-182,315	-200,000	0,015	0,208
-181,300	-40,391	0,098	-0,037
-180,285	-64,086	-0,086	0,025
-179,271	800,000	-0,060	-0,130
-178,256	-38,894	0,144	-0,054
-177,242	40,387	0,098	0,063
-176,227	129,098	0,139	0,128
-175,212	80,473	0,035	0,027
-174,198	-75,323	0,123	-0,031
-173,183	308,749	-0,063	-0,085
-172,169	-118,163	-0,092	-0,012
-171,154	248,942	0,028	0,034
-170,139	6,025	-0,085	-0,045
-169,125	-155,509	0,078	-0,004
-168,110	432,740	0,062	0,097
-167,096	-26,200	-0,108	-0,045
-166,081	-200,000	-0,003	-0,041
-165,066	-200,000	-0,018	-0,082
-164,052	800,000	-0,052	0,122
-163,037	800,000	0,046	-0,116
-162,023	366,235	0,051	-0,074
-161,008	71,688	0,149	0,111
-159,993	-200,000	-0,034	0,120
-158,979	800,000	0,024	0,064
-157,964	-200,000	0,000	-0,039
-156,950	-42,724	0,055	0,020
-155,935	123,518	0,083	-0,075
-154,920	-55,581	0,023	-0,007
-153,906	800,000	0,053	0,105
-152,891	-150,582	0,141	-0,008
-151,877	-200,000	0,003	-0,053
-150,862	202,885	-0,055	-0,062
-149,847	453,181	0,054	-0,087
-148,833	-22,055	0,170	-0,074
-147,818	636,694	-0,022	-0,040
-146,804	-132,422	-0,079	0,007
-145,789	71,330	0,034	0,025
-144,775	-72,501	-0,112	-0,029
-143,760	-52,881	-0,157	0,052
-142,745	-102,207	-0,072	0,012
-141,731	-200,000	0,012	0,080
-140,716	135,237	0,115	-0,108
-139,702	-200,000	-0,014	-0,070
-138,687	-200,000	0,010	0,165
-137,672	-102,961	0,024	0,004
-136,658	-200,000	-0,014	-0,092
-135,643	-200,000	0,020	-0,079
-134,629	207,889	-0,052	0,059
-133,614	-200,000	0,002	0,051
-132,599	52,516	-0,114	0,078
-131,585	-17,280	0,054	0,025
-130,570	622,049	0,039	-0,071
-129,556	-109,458	-0,119	0,018
-128,541	-200,000	-0,017	0,093
-127,526	800,000	0,017	0,037
-126,512	10,214	0,038	-0,021
-125,497	17,292	0,192	0,109
-124,483	-157,081	-0,078	-0,003
-123,468	119,374	0,095	0,084
-122,453	-80,926	0,093	-0,022
-121,439	380,680	0,025	-0,037
-120,424	-72,852	-0,077	-0,020
-119,410	800,000	0,024	0,064
-118,395	-200,000	0,006	-0,041
