DTS Sentinel unit serial number:	SN410029Multiplexer serial number:	ORYXHardware model number:	OX2-SRSoftware version number:	ORYX F/W v4,00 Oryx Data Collector v3.7.2.0data status	okinstallation	B6 Nyhavnadifferential loss correction	single-endedforward channel	channel 2reverse channel	N/Adate	2023/12/09time	02:00:08forward acquisition time	300,00reverse acquisition time	0,00gamma	499,1914k internal	0,3155k external	0,3155temperature offset calibration	1,0000default loss term (dB/km)	0,3820temperature slope calibration	1,0000multiplexer offset coefficient	1,0000multiplexer slope coefficient	1,0000fibre end	0,00T internal ref (°C)	15,87T ext. ref 1 (°C)	-0,40T ext. ref 2 (°C)	-0,42length (m)	temperature (°C)	Stokes	anti-Stokes-744,400	-75,617	0,182	0,047
-743,385	-65,535	-0,207	0,061
-742,371	-107,521	0,168	0,027
-741,356	78,761	-0,203	0,160
-740,342	-125,475	0,257	0,028
-739,327	-97,182	-0,412	0,079
-738,312	-200,000	-0,002	-0,091
-737,298	-147,179	-0,215	0,013
-736,283	673,988	0,042	-0,080
-735,269	-96,123	-0,302	-0,059
-734,254	245,071	0,071	0,088
-733,239	-58,336	-0,502	-0,160
-732,225	-170,549	0,222	0,006
-731,210	-133,661	-0,138	0,013
-730,196	-108,523	0,130	0,020
-729,181	450,869	-0,063	-0,103
-728,167	-200,000	-0,015	-0,157
-727,152	357,798	-0,045	0,066
-726,137	-105,189	-0,051	-0,009
-725,123	-95,133	-0,106	-0,021
-724,108	-91,666	-0,010	-0,002
-723,094	-151,197	-0,082	-0,004
-722,079	526,756	-0,019	0,032
-721,064	784,985	0,047	0,096
-720,050	-155,710	-0,183	0,008
-719,035	152,419	-0,032	-0,032
-718,021	800,000	0,005	0,012
-717,006	538,405	-0,083	-0,145
-715,991	-100,428	-0,192	-0,035
-714,977	800,000	-0,070	-0,190
-713,962	-200,000	-0,025	0,117
-712,948	-200,000	-0,001	0,073
-711,933	44,607	-0,063	-0,043
-710,918	628,260	0,042	0,079
-709,904	754,209	-0,080	-0,160
-708,889	-200,000	0,010	-0,071
-707,875	714,443	-0,052	-0,102
-706,860	274,612	0,045	-0,059
-705,845	800,000	0,049	-0,126
-704,831	252,678	-0,078	0,098
-703,816	147,638	0,074	0,073
-702,802	-103,788	-0,053	0,009
-701,787	-149,689	0,111	0,006
-700,772	-32,696	-0,081	-0,033
-699,758	-200,000	0,044	-0,172
-698,743	-200,000	0,007	0,104
-697,729	-54,038	-0,037	0,012
-696,714	102,131	-0,062	-0,054
-695,699	492,712	0,048	-0,082
-694,685	-85,415	-0,104	0,024
-693,670	-200,000	0,022	-0,166
-692,656	-200,000	0,002	-0,044
-691,641	154,825	-0,007	0,007
-690,627	578,145	0,086	-0,155
-689,612	-35,301	-0,033	-0,013
-688,597	4,124	-0,142	-0,076
-687,583	728,371	0,017	-0,034
-686,568	218,678	0,073	0,086
-685,554	-2,211	-0,019	0,010
-684,539	286,359	0,046	-0,061
-683,524	55,947	-0,051	0,036
-682,510	283,625	-0,058	-0,077
-681,495	691,818	0,015	-0,030
-680,481	800,000	-0,021	-0,049
-679,466	61,011	-0,101	-0,073
-678,451	32,750	-0,040	-0,025
-677,437	800,000	-0,034	-0,073
-676,422	-43,840	-0,159	0,059
-675,408	-130,961	-0,115	0,011
-674,393	-200,000	-0,006	0,139
-673,378	-102,936	-0,075	0,013
-672,364	-200,000	-0,032	-0,191
-671,349	-200,000	-0,001	-0,039
-670,335	295,939	-0,049	0,066
-669,320	-150,604	-0,108	0,006
-668,305	0,543	0,130	-0,068
-667,291	289,892	-0,053	-0,071
-666,276	-24,210	0,047	-0,021
-665,262	-200,000	0,007	-0,054
-664,247	-200,000	0,030	-0,118
-663,232	-70,402	-0,042	-0,012
-662,218	-14,433	0,110	-0,052
-661,203	-200,000	-0,002	0,061
-660,189	-163,526	-0,021	0,001
-659,174	645,582	-0,015	-0,029
-658,159	371,305	0,058	-0,087
-657,145	14,981	-0,087	-0,050
-656,130	127,944	0,100	0,094
-655,116	274,620	0,018	0,024
-654,101	295,739	-0,031	0,041
-653,086	-62,594	-0,142	0,043
-652,072	670,822	-0,020	0,038
-651,057	-96,206	-0,214	0,041
-650,043	-116,196	-0,064	-0,009
-649,028	43,771	0,036	0,024
-648,014	800,000	0,049	0,129
-646,999	191,251	-0,062	-0,069
-645,984	68,948	0,066	0,050
-644,970	237,778	-0,040	-0,049
-643,955	349,071	0,018	0,026
-642,941	181,871	0,051	-0,055
-641,926	257,296	-0,082	-0,104
-640,911	-31,343	-0,126	0,052
-639,897	-200,000	-0,004	0,028
-638,882	-62,532	0,110	-0,033
-637,868	-59,920	-0,124	0,039
-636,853	800,000	-0,035	-0,089
-635,838	800,000	-0,049	-0,134
-634,824	-10,611	-0,041	0,020
-633,809	81,042	0,077	-0,061
-632,795	460,099	-0,034	0,055
-631,780	-200,000	-0,014	0,080
-630,765	-200,000	-0,005	-0,063
-629,751	65,900	-0,013	0,010
-628,736	-28,056	-0,104	-0,044
-627,722	-150,835	0,139	-0,008
-626,707	-126,276	-0,130	0,014
-625,692	-68,637	-0,032	0,009
-624,678	-6,370	-0,054	-0,027
-623,663	-200,000	0,010	-0,145
-622,649	125,960	0,031	-0,029
-621,634	-146,488	-0,172	0,011
-620,619	286,472	0,033	0,044
-619,605	216,077	-0,067	-0,078
-618,590	140,991	0,029	-0,028
-617,576	800,000	-0,037	0,104
-616,561	0,728	-0,042	0,022
-615,546	-200,000	0,008	-0,073
-614,532	800,000	-0,071	-0,152
-613,517	800,000	-0,028	-0,081
-612,503	-200,000	0,012	-0,115
-611,488	-0,359	-0,024	0,012
-610,474	-117,210	-0,045	-0,006
-609,459	800,000	0,022	0,056
-608,444	455,380	-0,033	-0,053
-607,430	-200,000	0,015	-0,053
-606,415	-74,960	-0,023	0,006
-605,401	59,989	-0,056	-0,040
-604,386	66,298	0,122	-0,091
-603,371	-167,519	0,115	0,003
-602,357	-200,000	-0,001	-0,022
-601,342	291,818	-0,084	0,113
-600,328	-200,000	0,006	-0,083
-599,313	-7,664	-0,023	-0,011
-598,298	-147,136	0,055	-0,003
-597,284	197,998	0,063	-0,071
-596,269	-30,935	0,090	-0,037
-595,255	293,918	0,079	0,107
-594,240	64,298	-0,073	0,054
-593,225	800,000	-0,061	-0,129
-592,211	-200,000	-0,006	-0,147
-591,196	-46,112	0,064	0,023
-590,182	-200,000	-0,035	0,116
-589,167	-62,451	0,157	0,048
-588,152	800,000	0,024	0,064
-587,138	-200,000	-0,008	-0,125
-586,123	-28,362	-0,015	-0,006
-585,109	54,962	0,030	-0,021
-584,094	-25,309	-0,207	0,089
-583,079	800,000	0,027	0,067
-582,065	760,092	-0,034	0,067
-581,050	87,871	0,111	0,090
-580,036	-200,000	-0,006	0,079
-579,021	235,412	0,031	-0,038
-578,006	0,531	-0,083	0,043
-576,992	-200,000	-0,034	-0,147
-575,977	-200,000	0,000	0,107
-574,963	-200,000	-0,005	0,162
-573,948	-59,641	0,100	0,031
-572,934	203,707	0,049	0,056
-571,919	147,819	-0,077	0,077
-570,904	800,000	-0,024	-0,074
-569,890	118,757	-0,088	-0,080
-568,875	800,000	0,023	0,059
-567,861	263,279	0,084	0,107
-566,846	-200,000	0,028	0,222
-565,831	596,945	0,029	0,053
-564,817	485,652	0,007	0,011
-563,802	-76,323	-0,151	-0,039
-562,788	-200,000	-0,010	0,127
-561,773	800,000	-0,049	0,139
-560,758	49,099	0,127	-0,087
-559,744	-106,202	-0,085	-0,014
-558,729	-200,000	-0,017	-0,074
-557,715	87,172	-0,139	-0,112
-556,700	24,599	-0,082	-0,049
-555,685	800,000	-0,062	-0,181
-554,671	199,486	-0,029	-0,032
-553,656	800,000	0,039	0,080
-552,642	-144,134	0,124	-0,008
-551,627	-200,000	0,007	-0,050
-550,612	68,330	-0,099	0,074
-549,598	459,009	-0,047	0,076
-548,583	-184,811	-0,090	-0,001
-547,569	-200,000	-0,006	0,070
-546,554	-157,490	0,091	0,004
-545,539	-200,000	0,006	0,087
-544,525	-200,000	-0,005	0,026
-543,510	800,000	0,037	0,080
-542,496	-200,000	0,011	-0,095
-541,481	331,782	0,092	-0,131
-540,466	800,000	0,055	0,132
-539,452	-200,000	-0,002	-0,017
-538,437	182,992	-0,066	-0,072
-537,423	50,988	0,020	0,014
-536,408	87,246	-0,103	-0,083
-535,393	-200,000	-0,034	-0,124
-534,379	217,156	-0,044	0,051
-533,364	-200,000	-0,035	-0,176
-532,350	-143,235	-0,018	-0,001
-531,335	800,000	-0,025	-0,072
-530,321	-53,108	0,073	-0,024
-529,306	43,373	0,109	-0,073
-528,291	101,616	-0,086	-0,073
-527,277	84,028	-0,145	0,116
-526,262	-3,145	0,091	-0,046
-525,248	800,000	0,095	-0,197
-524,233	159,392	0,046	0,047
-523,218	14,584	0,052	-0,030
-522,204	-88,106	0,078	0,017
-521,189	-121,957	-0,134	0,016
-520,175	156,188	-0,102	-0,103
-519,160	123,852	-0,060	-0,055
-518,145	32,870	0,088	-0,055
-517,131	74,443	0,133	-0,102
-516,116	-8,632	0,068	-0,033
-515,102	800,000	0,030	-0,079
-514,087	60,565	-0,043	-0,031
-513,072	71,051	-0,155	-0,118
-512,058	-200,000	0,001	-0,006
-511,043	-111,401	-0,032	-0,005
-510,029	517,230	-0,043	0,074
-509,014	-200,000	0,014	0,056
-507,999	616,109	0,109	0,201
-506,985	104,323	0,060	0,052
-505,970	-200,000	0,025	-0,107
-504,956	-9,423	0,150	-0,073
-503,941	-154,328	-0,131	-0,006
-502,926	-86,361	0,041	0,009
-501,912	800,000	0,051	0,122
-500,897	-200,000	-0,001	0,040
-499,883	-127,773	0,116	-0,012
-498,868	-200,000	-0,033	-0,191
-497,853	271,756	-0,022	0,028
-496,839	-108,169	0,042	-0,007
-495,824	168,314	0,060	-0,062
-494,810	415,737	-0,018	0,028
-493,795	111,667	-0,091	0,080
-492,781	-67,935	0,090	-0,025
-491,766	-127,179	0,064	0,007
-490,751	-200,000	0,016	-0,075
-489,737	-154,934	-0,061	0,003
-488,722	-61,757	0,150	0,046
-487,708	800,000	-0,024	0,061
-486,693	-161,296	-0,077	0,003
-485,678	-200,000	-0,001	0,049
-484,664	780,949	-0,025	-0,050
-483,649	-200,000	0,039	-0,129
-482,635	-91,941	-0,103	-0,021
-481,620	43,135	0,092	0,061
-480,605	-200,000	-0,020	-0,075
-479,591	-200,000	-0,008	0,031
-478,576	-176,507	-0,149	-0,003
-477,562	-52,752	-0,082	0,028
-476,547	-200,000	-0,014	-0,119
-475,532	800,000	0,036	0,109
-474,518	-118,310	0,095	0,012
-473,503	547,316	-0,055	0,096
-472,489	235,795	0,130	0,157
-471,474	88,619	0,075	0,061
-470,459	478,041	-0,032	-0,053
-469,445	-60,435	-0,092	-0,028
-468,430	76,868	0,131	-0,101
-467,416	-81,414	0,107	-0,026
-466,401	-200,000	-0,008	-0,049
-465,386	800,000	0,029	-0,088
-464,372	-108,473	0,054	-0,008
-463,357	-133,307	-0,089	0,008
-462,343	-29,006	0,066	-0,027
-461,328	384,427	-0,045	-0,068
-460,313	-200,000	-0,012	-0,041
-459,299	130,486	-0,072	0,067
-458,284	34,772	0,133	-0,084
-457,270	-200,000	0,005	0,027
-456,255	134,145	0,057	-0,054
-455,241	800,000	0,016	0,049
-454,226	-138,566	-0,055	-0,004
-453,211	-75,181	0,119	0,031
-452,197	-200,000	0,027	0,203
-451,182	-200,000	0,007	0,067
-450,168	278,625	-0,063	0,082
-449,153	403,484	0,046	-0,071
-448,138	152,918	-0,015	-0,015
-447,124	-200,000	0,001	-0,101
-446,109	-16,913	0,062	0,028
-445,095	-49,431	0,057	-0,020
-444,080	102,121	-0,047	0,040
-443,065	91,289	0,138	-0,113
-442,051	-72,005	0,024	0,006
-441,036	-124,402	0,119	-0,013
-440,022	249,990	0,039	0,049
-439,007	226,844	0,097	-0,115
-437,992	-128,698	0,123	0,012
-436,978	-52,650	-0,029	-0,010
-435,963	-26,388	-0,067	0,029
-434,949	-200,000	0,004	-0,119
-433,934	-94,669	-0,097	-0,019
-432,919	-34,791	-0,024	0,010
-431,905	-76,172	-0,038	0,010
-430,890	-70,734	0,099	0,027
-429,876	-94,979	0,014	-0,003
-428,861	205,328	0,057	0,064
-427,846	526,643	-0,076	0,131
-426,832	-90,003	-0,052	-0,011
-425,817	215,444	-0,102	0,118
-424,803	800,000	0,035	0,077
-423,788	20,874	0,132	0,077
-422,773	613,577	0,020	0,037
-421,759	-9,604	-0,080	0,039
-420,744	-200,000	0,010	-0,077
-419,730	-200,000	0,012	0,079
-418,715	800,000	-0,070	-0,147
-417,701	667,140	0,052	0,098
-416,686	-200,000	0,000	0,055
-415,671	195,759	0,045	0,050
-414,657	-3,998	0,139	0,070
-413,642	-42,236	0,129	-0,048
-412,628	-200,000	-0,033	-0,148
-411,613	459,154	-0,023	0,038
-410,598	-200,000	-0,020	-0,094
-409,584	29,562	0,072	0,044
-408,569	204,858	-0,027	-0,031
-407,555	173,568	0,101	0,106
-406,540	36,125	-0,090	-0,057
-405,525	-49,343	-0,138	-0,048
-404,511	185,232	-0,004	-0,004
-403,496	-200,000	-0,003	0,011
-402,482	800,000	0,036	0,098
-401,467	-200,000	0,001	0,090
-400,452	68,717	0,012	0,009
-399,438	-104,754	-0,096	0,016
-398,423	90,737	0,060	0,049
-397,409	144,461	-0,056	-0,055
-396,394	800,000	-0,040	-0,096
-395,379	-101,522	-0,079	-0,014
-394,365	111,675	0,043	0,037
-393,350	800,000	0,058	0,159
-392,336	20,602	-0,120	0,071
-391,321	800,000	0,014	0,045
-390,306	133,364	-0,139	0,131
-389,292	-11,557	-0,105	0,050
-388,277	-98,595	0,057	-0,011
-387,263	-200,000	-0,007	-0,193
-386,248	253,313	-0,061	-0,075
-385,233	308,887	0,029	0,040
-384,219	87,634	-0,030	0,024
-383,204	166,259	0,135	-0,140
-382,190	85,684	-0,030	-0,024
-381,175	599,788	0,031	0,056
-380,160	92,988	0,061	-0,050
-379,146	603,040	-0,028	-0,050
-378,131	23,282	0,053	-0,032
-377,117	800,000	-0,033	-0,086
-376,102	-6,457	-0,057	0,028
-375,088	-35,341	-0,060	0,023
-374,073	302,151	0,041	-0,055
-373,058	-200,000	-0,001	0,020
-372,044	791,795	0,063	0,127
-371,029	554,880	0,053	0,094
-370,015	-189,776	-0,155	0,001
-369,000	-12,341	-0,055	-0,026
-367,985	-69,495	-0,061	0,017
-366,971	-200,000	-0,016	0,114
-365,956	-83,284	-0,083	-0,019
-364,942	-200,000	-0,021	-0,077
-363,927	800,000	0,021	-0,056
-362,912	-167,490	0,154	0,004
-361,898	-90,881	-0,168	0,035
-360,883	-120,039	-0,062	0,008
-359,869	-12,334	0,012	-0,005
-358,854	800,000	-0,056	-0,124
-357,839	800,000	-0,041	-0,097
-356,825	-19,534	0,108	0,048
-355,810	470,697	-0,061	0,100
-354,796	261,148	0,093	0,117
-353,781	800,000	-0,034	0,076
-352,766	-200,000	0,039	0,158
-351,752	-82,728	-0,136	-0,032
-350,737	-17,627	0,037	0,017
-349,723	-16,247	0,114	0,052
-348,708	221,250	-0,035	0,041
-347,693	-61,597	-0,082	-0,025
-346,679	-127,556	0,019	0,002
-345,664	-95,027	0,071	0,014
-344,650	569,169	0,030	-0,052
-343,635	181,921	0,078	-0,083
-342,620	333,970	0,062	-0,088
-341,606	-101,446	-0,097	0,017
-340,591	800,000	-0,049	-0,115
-339,577	132,017	-0,142	0,132
-338,562	-18,799	0,130	-0,059
-337,548	800,000	0,041	0,099
-336,533	-200,000	-0,060	0,247
-335,518	442,645	-0,025	0,040
-334,504	-47,875	0,094	0,033
-333,489	-133,221	0,178	0,016
-332,475	-127,796	-0,082	0,008
-331,460	-14,883	0,074	0,034
-330,445	75,304	0,089	0,068
-329,431	655,375	0,058	0,109
-328,416	-200,000	-0,037	0,140
-327,402	-200,000	0,025	0,106
-326,387	628,761	0,062	0,114
-325,372	19,022	-0,110	-0,064
-324,358	225,914	-0,094	-0,111
-323,343	-200,000	-0,000	-0,019
-322,329	800,000	0,021	0,055
-321,314	-131,448	-0,071	-0,007
-320,299	137,797	0,116	-0,110
-319,285	391,566	-0,013	0,020
-318,270	-200,000	-0,023	-0,140
-317,256	-200,000	-0,008	-0,064
-316,241	-57,772	-0,053	0,017
-315,226	-31,933	-0,100	-0,040
-314,212	-18,059	0,081	-0,037
-313,197	630,140	-0,041	-0,075
-312,183	55,745	-0,082	0,058
-311,168	-200,000	0,015	0,059
-310,153	-62,535	-0,082	0,024
-309,139	-117,583	-0,098	0,013
-308,124	72,150	-0,162	0,122
-307,110	-21,358	-0,073	0,032
-306,095	800,000	0,035	0,085
-305,080	244,921	-0,011	0,014
-304,066	-109,456	-0,138	-0,021
-303,051	-200,000	0,026	-0,187
-302,037	-75,628	-0,086	0,022
-301,022	800,000	-0,086	-0,177
-300,008	-108,958	0,127	0,019
-298,993	-67,265	-0,052	0,015
-297,978	-98,460	0,007	0,001
-296,964	-31,316	-0,185	0,075
-295,949	-200,000	0,012	-0,053
-294,935	800,000	0,048	0,151
-293,920	170,225	-0,062	0,064
-292,905	174,912	0,064	-0,067
-291,891	201,499	-0,034	-0,038
-290,876	-200,000	-0,002	-0,019
-289,862	-133,928	0,104	0,009
-288,847	-200,000	0,009	-0,030
-287,832	-200,000	0,001	-0,036
-286,818	-28,311	0,039	0,016
-285,803	-200,000	-0,036	-0,120
-284,789	-37,955	0,099	0,038
-283,774	-44,751	0,044	0,016
-282,759	235,092	-0,042	0,050
-281,745	-200,000	0,041	-0,203
-280,730	224,109	-0,045	-0,052
-279,716	-90,569	0,026	0,005
-278,701	56,154	-0,089	0,063
-277,686	138,186	0,093	0,088
-276,672	86,875	0,105	0,084
-275,657	-92,251	-0,067	0,014
-274,643	-12,323	-0,035	-0,017
-273,628	-200,000	0,025	-0,092
-272,613	800,000	0,055	-0,121
-271,599	315,351	0,050	0,068
-270,584	-31,503	0,050	-0,020
-269,570	-11,160	-0,106	-0,051
-268,555	-45,337	-0,096	-0,034
-267,540	-200,000	-0,009	-0,109
-266,526	-107,468	-0,086	-0,014
-265,511	-200,000	-0,023	-0,077
-264,497	-101,003	0,056	0,010
-263,482	-70,582	0,020	-0,006
-262,467	-34,746	0,136	0,053
-261,453	-200,000	0,020	0,113
-260,438	-68,461	0,085	0,024
-259,424	263,938	-0,034	-0,043
-258,409	-28,309	-0,023	-0,010
-257,395	509,618	-0,060	0,102
-256,380	556,738	0,071	-0,125
-255,365	219,202	-0,024	-0,028
-254,351	45,766	0,111	-0,074
-253,336	-200,000	0,002	-0,029
-252,322	-200,000	0,063	-0,211
-251,307	-200,000	-0,027	0,115
-250,292	800,000	-0,047	0,110
-249,278	-140,731	0,070	-0,005
-248,263	72,244	0,030	0,023
-247,249	800,000	0,068	0,198
-246,234	-12,225	-0,143	-0,068
-245,219	-38,445	0,046	-0,018
-244,205	-200,000	0,033	-0,142
-243,190	122,876	0,069	0,063
-242,176	-20,352	-0,008	0,004
-241,161	579,491	0,048	-0,086
-240,146	28,666	-0,006	-0,004
-239,132	-200,000	-0,010	-0,068
-238,117	46,677	-0,070	-0,047
-237,103	-157,088	0,088	-0,004
-236,088	139,744	-0,016	-0,015
-235,073	559,564	-0,050	-0,088
-234,059	-180,813	0,109	-0,002
-233,044	263,273	-0,045	0,057
-232,030	240,734	0,054	-0,065
-231,015	-34,557	-0,106	-0,042
-230,000	294,873	0,039	-0,051
-228,986	-24,636	0,093	-0,040
-227,971	185,249	-0,076	0,081
-226,957	-55,450	0,057	0,019
-225,942	800,000	-0,048	0,126
-224,927	-118,268	0,053	-0,007
-223,913	-200,000	-0,022	-0,086
-222,898	-139,291	0,065	-0,005
-221,884	10,157	-0,098	-0,054
-220,869	57,076	0,049	0,035
-219,855	94,998	0,054	0,045
-218,840	42,798	-0,035	-0,023
-217,825	431,128	0,073	0,115
-216,811	-200,000	-0,013	-0,066
-215,796	-152,796	0,042	0,002
-214,782	407,008	-0,029	0,044
-213,767	-200,000	0,003	-0,018
-212,752	800,000	0,035	0,085
-211,738	-86,757	-0,049	-0,011
-210,723	-200,000	-0,005	-0,026
-209,709	-23,168	-0,021	-0,009
-208,694	800,000	-0,004	-0,011
-207,679	86,510	-0,118	0,094
-206,665	-106,880	0,093	-0,015
-205,650	166,743	0,088	-0,091
-204,636	-168,959	-0,047	-0,001
-203,621	59,136	-0,093	-0,066
-202,606	-152,201	-0,045	0,002
-201,592	800,000	0,032	0,072
-200,577	-200,000	-0,017	-0,128
-199,563	78,650	0,080	-0,062
-198,548	800,000	-0,013	-0,036
-197,533	-200,000	0,020	0,171
-196,519	-200,000	0,005	0,070
-195,504	-200,000	-0,037	-0,169
-194,490	800,000	0,015	-0,041
-193,475	306,734	-0,071	-0,095
-192,460	800,000	-0,009	-0,017
-191,446	-16,646	-0,076	0,035
-190,431	-200,000	-0,005	0,041
-189,417	37,749	-0,085	0,054
-188,402	-117,754	-0,069	-0,009
-187,387	-26,675	0,171	-0,072
-186,373	-114,331	0,039	0,005
-185,358	-22,051	-0,133	0,058
-184,344	580,560	0,017	-0,030
-183,329	-76,677	-0,065	0,016
-182,315	223,913	0,096	0,112
-181,300	349,531	0,066	0,094
-180,285	-0,883	0,034	0,017
-179,271	-200,000	-0,017	0,057
-178,256	391,239	-0,066	0,100
-177,242	1,443	0,039	0,020
-176,227	11,009	-0,139	0,076
-175,212	-44,681	0,155	0,056
-174,198	-200,000	-0,009	-0,046
-173,183	561,468	-0,073	0,127
-172,169	81,585	0,054	-0,042
-171,154	-200,000	-0,024	0,127
-170,139	-14,510	0,072	0,033
-169,125	47,063	-0,030	0,020
-168,110	260,873	0,121	0,151
-167,096	74,157	0,061	-0,046
-166,081	-96,754	-0,046	-0,009
-165,066	-84,579	0,101	0,023
-164,052	-106,856	-0,189	0,030
-163,037	12,389	0,090	0,050
-162,023	-200,000	-0,012	0,159
-161,008	-200,000	-0,008	0,038
-159,993	61,274	-0,055	0,039
-158,979	-200,000	0,018	-0,079
-157,964	800,000	-0,039	-0,089
-156,950	230,177	-0,053	0,062
-155,935	-42,989	0,159	-0,058
-154,920	-200,000	-0,024	-0,098
-153,906	5,734	0,121	-0,064
-152,891	105,246	-0,063	-0,054
-151,877	-137,680	-0,085	0,007
-150,862	-125,651	-0,106	-0,011
-149,847	-200,000	-0,012	0,056
-148,833	-200,000	-0,010	-0,059
-147,818	185,131	0,071	0,076
-146,804	350,202	-0,020	-0,028
-145,789	-200,000	-0,011	-0,071
-144,775	-200,000	0,002	-0,150
-143,760	-200,000	0,001	0,016
-142,745	-200,000	-0,004	-0,115
-141,731	800,000	-0,021	-0,051
-140,716	800,000	0,041	0,109
-139,702	-143,129	-0,050	-0,003
-138,687	340,317	0,067	-0,095
-137,672	-200,000	-0,017	-0,060
-136,658	-200,000	-0,015	-0,071
-135,643	800,000	0,013	-0,039
-134,629	-200,000	0,004	-0,257
-133,614	-200,000	0,004	-0,044
-132,599	-200,000	0,002	0,053
-131,585	-131,531	-0,075	-0,007
-130,570	-76,953	-0,160	-0,040
-129,556	800,000	-0,032	-0,072
-128,541	-28,908	-0,166	-0,068
-127,526	-200,000	-0,002	-0,079
-126,512	-62,985	0,212	-0,063
-125,497	80,774	-0,140	-0,109
-124,483	109,591	-0,072	-0,062
-123,468	800,000	-0,028	0,086
-122,453	444,111	-0,073	-0,115
-121,439	123,101	-0,085	-0,077
