DTS Sentinel unit serial number:	SN410029Multiplexer serial number:	ORYXHardware model number:	OX2-SRSoftware version number:	ORYX F/W v4,00 Oryx Data Collector v3.7.2.0data status	okinstallation	B6 Nyhavnadifferential loss correction	single-endedforward channel	channel 2reverse channel	N/Adate	2023/12/07time	22:40:08forward acquisition time	300,00reverse acquisition time	0,00gamma	499,1914k internal	0,3165k external	0,3165temperature offset calibration	1,0000default loss term (dB/km)	0,3820temperature slope calibration	1,0000multiplexer offset coefficient	1,0000multiplexer slope coefficient	1,0000fibre end	0,00T internal ref (°C)	13,56T ext. ref 1 (°C)	-3,37T ext. ref 2 (°C)	-3,37length (m)	temperature (°C)	Stokes	anti-Stokes-744,400	-148,882	0,178	0,010
-743,385	-119,246	-0,402	0,051
-742,371	437,704	0,118	0,190
-741,356	-31,101	-0,315	0,130
-740,342	-66,759	0,304	0,088
-739,327	-153,780	-0,457	-0,023
-738,312	-183,916	0,213	-0,003
-737,298	-74,712	-0,369	-0,097
-736,283	-143,984	0,138	0,009
-735,269	-31,975	-0,252	0,103
-734,254	-200,000	0,032	-0,109
-733,239	-13,572	-0,561	-0,266
-732,225	-40,592	0,145	0,055
-731,210	-200,000	0,014	0,056
-730,196	-119,599	-0,121	-0,015
-729,181	-39,105	-0,198	-0,076
-728,167	-200,000	0,002	0,078
-727,152	1,156	-0,090	-0,047
-726,137	362,387	-0,135	-0,200
-725,123	391,561	-0,098	-0,150
-724,108	-200,000	0,056	-0,219
-723,094	-200,000	-0,022	-0,110
-722,079	119,654	-0,150	-0,137
-721,064	46,929	0,072	0,049
-720,050	-115,507	0,073	-0,010
-719,035	299,724	0,077	0,105
-718,021	90,817	-0,044	0,036
-717,006	-94,903	-0,204	-0,040
-715,991	-200,000	-0,028	-0,123
-714,977	22,188	0,138	0,083
-713,962	779,942	0,028	-0,056
-712,948	329,839	-0,029	-0,041
-711,933	-200,000	0,009	0,097
-710,918	-135,480	-0,037	-0,003
-709,904	-200,000	0,007	-0,090
-708,889	135,097	-0,104	-0,099
-707,875	148,446	-0,180	-0,178
-706,860	800,000	0,018	-0,045
-705,845	800,000	-0,019	-0,039
-704,831	-66,541	-0,065	-0,019
-703,816	82,681	-0,034	-0,027
-702,802	211,956	0,030	0,035
-701,787	-107,251	-0,116	-0,019
-700,772	-200,000	-0,021	-0,072
-699,758	800,000	-0,029	0,060
-698,743	158,928	0,070	-0,071
-697,729	17,667	-0,030	-0,017
-696,714	-8,442	0,050	-0,025
-695,699	-86,149	0,148	-0,033
-694,685	66,147	-0,074	-0,055
-693,670	800,000	0,046	-0,119
-692,656	-4,760	-0,109	-0,055
-691,641	-123,821	-0,118	-0,013
-690,627	22,024	-0,037	-0,022
-689,612	-71,518	-0,061	-0,017
-688,597	-14,421	0,062	-0,029
-687,583	781,619	-0,021	-0,042
-686,568	17,619	-0,029	-0,017
-685,554	118,447	0,014	-0,013
-684,539	-145,609	-0,122	0,008
-683,524	-200,000	0,013	0,080
-682,510	535,146	0,010	-0,017
-681,495	-62,460	-0,147	-0,045
-680,481	115,520	-0,067	-0,060
-679,466	-200,000	-0,013	-0,268
-678,451	-105,304	-0,075	-0,012
-677,437	-135,213	-0,083	0,007
-676,422	446,358	-0,073	0,118
-675,408	-35,263	0,049	0,019
-674,393	290,126	-0,057	-0,076
-673,378	-200,000	0,002	-0,096
-672,364	314,772	-0,076	-0,106
-671,349	127,081	-0,055	-0,051
-670,335	-27,146	-0,146	-0,062
-669,320	-136,955	0,086	0,007
-668,305	102,151	-0,131	-0,112
-667,291	-120,610	0,047	0,006
-666,276	-200,000	0,027	-0,119
-665,262	-200,000	0,016	-0,107
-664,247	587,702	-0,017	-0,031
-663,232	428,336	0,024	-0,038
-662,218	41,400	-0,083	0,055
-661,203	-200,000	0,028	-0,102
-660,189	-39,736	-0,085	-0,033
-659,174	-200,000	0,005	-0,056
-658,159	128,531	-0,035	-0,033
-657,145	-200,000	0,002	-0,090
-656,130	361,804	-0,061	-0,090
-655,116	-200,000	-0,026	0,139
-654,101	160,121	0,078	0,080
-653,086	800,000	-0,019	-0,054
-652,072	-200,000	-0,014	-0,158
-651,057	-200,000	0,001	-0,021
-650,043	571,957	0,045	-0,081
-649,028	-106,434	0,069	-0,011
-648,014	-7,047	0,107	0,053
-646,999	800,000	0,031	0,076
-645,984	286,498	-0,051	0,068
-644,970	-73,928	-0,116	-0,031
-643,955	176,669	-0,129	-0,138
-642,941	-200,000	-0,026	-0,146
-641,926	-200,000	-0,005	-0,074
-640,911	800,000	-0,032	0,097
-639,897	65,301	-0,044	0,032
-638,882	-132,590	-0,080	-0,007
-637,868	-99,164	-0,170	0,031
-636,853	800,000	0,044	0,117
-635,838	-200,000	0,006	-0,061
-634,824	-200,000	0,026	-0,114
-633,809	15,916	-0,041	0,024
-632,795	36,545	-0,040	0,026
-631,780	-126,836	-0,095	0,010
-630,765	-200,000	-0,027	-0,161
-629,751	-70,288	-0,080	0,022
-628,736	-82,253	0,063	0,015
-627,722	233,792	-0,101	-0,122
-626,707	201,025	0,073	0,083
-625,692	-200,000	-0,004	-0,015
-624,678	-7,283	0,159	-0,079
-623,663	-13,393	0,013	0,006
-622,649	319,096	0,044	-0,061
-621,634	13,548	-0,020	0,011
-620,619	239,191	0,074	-0,090
-619,605	135,079	0,048	0,046
-618,590	-200,000	-0,031	0,144
-617,576	-200,000	-0,001	0,040
-616,561	-200,000	-0,019	0,106
-615,546	-16,442	0,087	0,040
-614,532	-200,000	0,026	-0,110
-613,517	-89,314	-0,110	-0,024
-612,503	800,000	-0,010	0,031
-611,488	76,802	-0,081	-0,063
-610,474	370,219	0,021	-0,032
-609,459	166,467	0,008	-0,008
-608,444	-200,000	-0,012	-0,055
-607,430	-19,095	-0,072	-0,032
-606,415	284,009	-0,020	0,026
-605,401	-93,743	-0,169	0,034
-604,386	800,000	0,045	-0,116
-603,371	800,000	-0,024	0,070
-602,357	-70,003	-0,074	-0,021
-601,342	360,666	0,019	-0,027
-600,328	800,000	0,048	-0,111
-599,313	333,893	-0,040	-0,057
-598,298	694,596	0,025	-0,049
-597,284	-119,107	0,138	0,017
-596,269	418,692	0,039	0,062
-595,255	786,991	-0,044	-0,088
-594,240	50,067	-0,069	0,048
-593,225	298,237	-0,069	-0,094
-592,211	-105,232	0,037	0,006
-591,196	-48,530	0,067	0,024
-590,182	-113,161	-0,104	-0,015
-589,167	-90,215	-0,127	0,027
-588,152	114,488	0,071	-0,063
-587,138	51,487	0,100	-0,070
-586,123	-133,579	-0,091	-0,008
-585,109	59,195	0,089	-0,064
-584,094	-200,000	0,012	0,114
-583,079	-23,912	0,033	-0,014
-582,065	484,385	-0,033	0,055
-581,050	800,000	0,019	0,051
-580,036	-200,000	0,008	0,076
-579,021	381,987	-0,063	-0,095
-578,006	-131,501	-0,141	0,013
-576,992	234,441	-0,073	-0,088
-575,977	90,155	0,063	-0,051
-574,963	-87,800	0,033	-0,007
-573,948	-200,000	-0,002	0,112
-572,934	133,100	-0,162	0,153
-571,919	-93,046	0,093	0,019
-570,904	800,000	-0,035	-0,075
-569,890	-12,523	0,096	-0,046
-568,875	16,426	-0,058	0,033
-567,861	-52,949	0,059	0,020
-566,846	-200,000	-0,008	0,061
-565,831	-200,000	-0,002	-0,033
-564,817	6,944	-0,029	0,015
-563,802	-200,000	0,020	-0,090
-562,788	-200,000	-0,013	0,123
-561,773	-70,181	0,135	-0,037
-560,758	-2,860	-0,021	-0,011
-559,744	800,000	-0,030	0,086
-558,729	99,254	0,067	-0,056
-557,715	307,607	-0,053	-0,073
-556,700	407,771	0,034	-0,052
-555,685	14,665	-0,081	0,046
-554,671	136,200	0,108	0,103
-553,656	-96,489	0,013	0,002
-552,642	437,661	-0,061	0,098
-551,627	-200,000	0,016	-0,140
-550,612	-200,000	-0,006	-0,048
-549,598	75,039	-0,074	-0,057
-548,583	40,345	-0,049	-0,032
-547,569	-110,520	-0,040	-0,006
-546,554	-165,581	0,088	0,003
-545,539	-50,247	-0,092	-0,032
-544,525	243,343	0,069	-0,084
-543,510	118,646	0,027	-0,025
-542,496	800,000	0,028	-0,077
-541,481	-91,354	-0,073	-0,015
-540,466	800,000	-0,029	0,065
-539,452	5,325	0,082	0,044
-538,437	-65,998	0,103	0,030
-537,423	68,895	0,023	0,017
-536,408	-39,676	0,100	0,038
-535,393	-107,610	-0,089	0,014
-534,379	-80,106	-0,070	0,017
-533,364	222,657	-0,018	-0,021
-532,350	800,000	-0,022	-0,062
-531,335	270,983	0,045	0,058
-530,321	800,000	0,032	0,065
-529,306	-11,232	0,070	-0,033
-528,291	-200,000	0,005	-0,071
-527,277	12,314	-0,091	0,051
-526,262	800,000	-0,021	0,063
-525,248	48,583	0,113	0,077
-524,233	-200,000	0,007	0,059
-523,218	339,702	-0,036	-0,052
-522,204	-200,000	-0,002	0,023
-521,189	-29,951	-0,072	0,030
-520,175	208,589	-0,037	-0,042
-519,160	800,000	-0,056	-0,127
-518,145	-73,728	0,116	-0,031
-517,131	-76,972	0,182	-0,046
-516,116	-200,000	0,009	0,106
-515,102	800,000	-0,024	0,055
-514,087	-200,000	0,011	-0,099
-513,072	31,235	0,008	0,005
-512,058	481,271	0,041	-0,069
-511,043	-122,571	0,127	0,015
-510,029	-200,000	0,062	0,224
-509,014	141,120	0,121	0,117
-507,999	421,624	0,046	0,072
-506,985	182,044	-0,013	-0,014
-505,970	139,934	0,035	0,034
-504,956	792,644	0,060	-0,121
-503,941	-200,000	-0,004	-0,039
-502,926	-200,000	0,019	0,134
-501,912	-200,000	0,140	0,000
-500,897	800,000	-0,022	0,064
-499,883	-200,000	0,007	0,034
-498,868	421,392	-0,035	-0,055
-497,853	-200,000	-0,019	-0,083
-496,839	221,106	0,042	0,049
-495,824	-20,669	0,084	0,038
-494,810	66,330	0,056	-0,041
-493,795	-131,014	-0,142	0,014
-492,781	209,600	-0,088	-0,100
-491,766	-8,886	-0,078	-0,038
-490,751	-150,576	-0,073	0,004
-489,737	281,753	-0,059	0,077
-488,722	147,903	0,160	0,158
-487,708	-200,000	0,004	0,073
-486,693	-200,000	0,020	-0,071
-485,678	183,697	-0,118	-0,128
-484,664	44,473	-0,132	0,088
-483,649	214,766	-0,073	-0,084
-482,635	-24,553	0,112	-0,048
-481,620	753,047	0,058	0,115
-480,605	800,000	-0,012	-0,034
-479,591	-154,432	0,130	-0,006
-478,576	-84,296	0,026	-0,006
-477,562	-200,000	0,003	-0,047
-476,547	-200,000	0,029	-0,187
-475,532	-183,289	-0,133	0,002
-474,518	434,545	0,084	0,133
-473,503	-63,248	0,101	-0,030
-472,489	621,535	0,017	0,032
-471,474	-200,000	-0,005	-0,032
-470,459	54,907	-0,096	0,067
-469,445	-200,000	-0,003	-0,133
-468,430	-200,000	-0,015	-0,058
-467,416	-145,948	0,053	0,003
-466,401	-12,110	0,103	-0,049
-465,386	211,026	-0,066	-0,075
-464,372	-134,686	0,048	-0,004
-463,357	0,502	-0,134	0,069
-462,343	72,551	-0,094	-0,071
-461,328	115,932	-0,131	0,117
-460,313	-159,760	0,096	-0,004
-459,299	83,283	0,102	0,081
-458,284	85,872	0,131	0,105
-457,270	-200,000	0,015	-0,119
-456,255	714,074	0,025	0,049
-455,241	-200,000	-0,014	-0,120
-454,226	73,578	0,041	0,031
-453,211	255,987	0,043	0,054
-452,197	14,748	0,098	0,055
-451,182	260,927	-0,056	0,071
-450,168	51,136	-0,135	0,093
-449,153	649,455	0,089	-0,167
-448,138	-200,000	-0,030	-0,124
-447,124	219,142	0,077	-0,090
-446,109	259,487	0,007	-0,008
-445,095	223,358	-0,134	0,158
-444,080	-147,718	0,052	-0,003
-443,065	256,811	0,023	0,029
-442,051	-49,346	-0,085	-0,029
-441,036	-154,343	0,083	-0,004
-440,022	-200,000	-0,012	0,042
-439,007	8,969	0,072	0,039
-437,992	-30,765	-0,056	-0,023
-436,978	-12,164	0,167	0,079
-435,963	5,041	0,037	-0,020
-434,949	-111,180	-0,121	-0,018
-433,934	-133,804	-0,145	-0,013
-432,919	-42,909	0,152	-0,056
-431,905	274,974	-0,019	-0,025
-430,890	107,006	0,066	0,057
-429,876	-133,270	-0,058	-0,005
-428,861	-51,704	0,044	-0,015
-427,846	322,319	-0,096	-0,133
-426,832	26,116	-0,040	0,024
-425,817	800,000	0,013	0,041
-424,803	-6,456	-0,045	0,022
-423,788	26,527	0,059	-0,036
-422,773	5,532	-0,095	0,051
-421,759	-60,331	0,085	0,026
-420,744	122,600	0,032	-0,029
-419,730	-90,358	-0,077	-0,016
-418,715	127,936	0,006	-0,006
-417,701	-53,697	0,045	0,015
-416,686	-200,000	-0,010	0,059
-415,671	-200,000	0,014	0,108
-414,657	-76,472	0,010	0,002
-413,642	25,681	0,066	0,040
-412,628	601,315	-0,041	0,075
-411,613	800,000	-0,061	-0,123
-410,598	-41,853	-0,140	0,052
-409,584	315,626	0,043	0,059
-408,569	-200,000	-0,031	0,159
-407,555	-200,000	-0,067	-0,233
-406,540	-107,281	0,050	-0,008
-405,525	-126,727	-0,067	0,007
-404,511	431,140	-0,058	-0,091
-403,496	-40,819	0,117	-0,044
-402,482	-200,000	-0,001	0,087
-401,467	-58,098	0,194	-0,061
-400,452	540,054	0,034	0,060
-399,438	153,775	0,071	-0,070
-398,423	800,000	0,029	0,060
-397,409	145,274	-0,093	-0,090
-396,394	647,543	-0,035	-0,065
-395,379	800,000	0,073	0,192
-394,365	800,000	0,075	0,219
-393,350	121,399	-0,084	0,076
-392,336	93,821	0,024	0,020
-391,321	800,000	0,026	0,070
-390,306	-58,185	-0,084	-0,026
-389,292	-120,516	0,045	-0,005
-388,277	275,555	0,091	-0,117
-387,263	-200,000	0,009	-0,031
-386,248	-200,000	-0,011	-0,040
-385,233	-50,476	0,018	0,006
-384,219	-116,834	0,079	-0,010
-383,204	-129,506	-0,058	0,006
-382,190	800,000	-0,037	-0,116
-381,175	2,297	-0,094	-0,049
-380,160	800,000	-0,013	-0,028
-379,146	-200,000	0,003	-0,064
-378,131	-200,000	0,036	-0,126
-377,117	89,148	-0,080	-0,065
-376,102	-41,568	0,043	-0,016
-375,088	800,000	-0,023	-0,067
-374,073	245,807	0,123	-0,151
-373,058	-200,000	0,014	0,085
-372,044	165,684	0,052	-0,054
-371,029	-132,475	-0,053	-0,005
-370,015	-56,352	0,087	-0,028
-369,000	-21,161	-0,088	-0,039
-367,985	-96,771	-0,053	0,010
-366,971	-200,000	0,019	0,075
-365,956	-200,000	0,011	-0,156
-364,942	-125,585	-0,163	-0,018
-363,927	-42,416	0,038	-0,014
-362,912	23,708	-0,093	0,055
-361,898	325,817	-0,015	-0,021
-360,883	-65,570	0,050	0,014
-359,869	-166,811	0,084	-0,002
-358,854	522,801	0,037	0,063
-357,839	557,298	0,071	0,125
-356,825	800,000	0,051	0,118
-355,810	-200,000	0,011	0,053
-354,796	-178,090	0,072	0,001
-353,781	-57,237	0,122	-0,039
-352,766	136,154	0,020	-0,019
-351,752	-73,572	0,058	0,015
-350,737	-92,974	0,025	-0,005
-349,723	-200,000	-0,001	0,058
-348,708	336,710	0,059	0,084
-347,693	78,961	0,038	-0,029
-346,679	179,519	-0,060	0,063
-345,664	-94,408	0,065	-0,013
-344,650	140,988	-0,021	-0,020
-343,635	-24,668	0,054	0,023
-342,620	-93,576	-0,038	-0,008
-341,606	16,813	-0,068	0,039
-340,591	800,000	-0,041	-0,111
-339,577	573,700	-0,070	0,124
-338,562	83,991	-0,143	-0,113
-337,548	-29,934	-0,130	0,053
-336,533	76,550	-0,129	-0,099
-335,518	66,039	-0,045	-0,033
-334,504	-71,100	-0,108	0,029
-333,489	291,184	-0,043	0,057
-332,475	551,737	-0,100	-0,175
-331,460	-45,068	0,053	0,019
-330,445	-90,981	-0,084	0,017
-329,431	-200,000	-0,023	-0,076
-328,416	-200,000	-0,006	-0,022
-327,402	320,306	-0,046	0,063
-326,387	-117,105	-0,057	-0,007
-325,372	312,409	-0,048	-0,066
-324,358	800,000	0,015	0,048
-323,343	26,893	0,060	-0,036
-322,329	-34,943	0,035	-0,014
-321,314	-42,734	0,054	0,020
-320,299	58,260	-0,098	0,069
-319,285	137,432	-0,079	0,075
-318,270	800,000	0,047	-0,112
-317,256	300,707	-0,069	0,093
-316,241	656,982	-0,041	-0,077
-315,226	57,127	-0,089	-0,063
-314,212	12,655	-0,034	0,019
-313,197	69,610	0,062	0,046
-312,183	-200,000	0,003	-0,050
-311,168	-200,000	-0,008	-0,091
-310,153	-76,358	-0,013	-0,003
-309,139	-200,000	-0,002	0,062
-308,124	-200,000	0,006	0,074
-307,110	800,000	0,016	-0,041
-306,095	-200,000	-0,000	0,123
-305,080	-200,000	0,000	-0,056
-304,066	369,648	0,050	-0,073
-303,051	-200,000	-0,028	-0,175
-302,037	-200,000	0,015	0,100
-301,022	24,067	0,038	0,023
-300,008	-59,129	0,060	-0,019
-298,993	19,139	0,150	0,087
-297,978	-4,955	-0,049	-0,024
-296,964	800,000	-0,052	-0,108
-295,949	77,287	0,028	0,022
-294,935	-53,192	0,093	-0,031
-293,920	97,641	0,072	0,060
-292,905	-172,781	0,099	0,002
-291,891	-200,000	-0,003	0,068
-290,876	723,356	-0,066	0,128
-289,862	-200,000	0,014	-0,107
-288,847	800,000	0,020	0,046
-287,832	575,132	-0,039	-0,069
-286,818	70,034	0,081	-0,060
-285,803	-200,000	0,056	0,205
-284,789	99,481	-0,067	0,056
-283,774	3,002	0,029	0,015
-282,759	223,572	0,016	0,018
-281,745	-200,000	-0,053	-0,182
-280,730	-43,765	0,068	0,025
-279,716	800,000	-0,022	-0,065
-278,701	-200,000	-0,021	-0,082
-277,686	-76,220	-0,062	0,016
-276,672	-200,000	-0,010	-0,108
-275,657	138,675	-0,101	0,096
-274,643	-200,000	-0,031	0,177
-273,628	-14,297	0,014	0,007
-272,613	363,411	0,033	0,048
-271,599	-200,000	-0,003	0,110
-270,584	-118,887	0,191	0,024
-269,570	16,118	-0,067	0,038
-268,555	-1,714	-0,068	0,034
-267,540	-103,092	-0,089	-0,015
-266,526	-68,970	0,032	0,009
-265,511	-166,702	-0,143	-0,004
-264,497	-20,411	0,024	0,011
-263,482	80,225	0,105	0,082
-262,467	-124,057	0,084	-0,009
-261,453	-22,790	0,052	0,023
-260,438	291,173	-0,067	0,088
-259,424	210,654	-0,102	-0,115
-258,409	316,162	-0,053	-0,072
-257,395	-200,000	0,013	0,137
-256,380	-200,000	0,010	0,072
-255,365	-3,293	-0,057	0,029
-254,351	800,000	-0,011	0,029
-253,336	174,985	0,052	0,055
-252,322	800,000	-0,039	-0,080
-251,307	63,582	0,036	-0,026
-250,292	233,514	0,048	-0,057
-249,278	-52,240	0,106	-0,035
-248,263	800,000	0,055	0,151
-247,249	-105,696	0,132	-0,021
-246,234	-56,175	-0,129	-0,041
-245,219	657,417	0,046	-0,086
-244,205	-200,000	0,005	-0,098
-243,190	-74,865	0,143	-0,037
-242,176	118,493	-0,027	-0,024
-241,161	-155,312	0,040	-0,002
-240,146	-200,000	-0,007	-0,088
-239,132	800,000	-0,026	0,072
-238,117	78,778	0,027	-0,021
-237,103	-200,000	0,020	-0,170
-236,088	-66,356	-0,145	-0,041
-235,073	800,000	-0,038	0,091
-234,059	800,000	0,020	0,059
-233,044	-103,257	-0,028	-0,005
-232,030	-200,000	-0,006	-0,027
-231,015	-200,000	-0,022	0,100
-230,000	25,200	-0,144	-0,086
-228,986	-124,213	-0,018	-0,002
-227,971	-15,013	-0,065	-0,030
-226,957	-107,816	0,043	-0,007
-225,942	-74,845	-0,044	0,011
-224,927	-104,422	-0,084	-0,014
-223,913	1,031	-0,058	0,030
-222,898	47,123	-0,147	0,098
-221,884	-124,695	-0,020	0,002
-220,869	-200,000	0,029	-0,124
-219,855	2,856	-0,112	-0,058
-218,840	-200,000	0,010	-0,039
-217,825	-200,000	-0,008	-0,073
-216,811	-53,656	0,086	-0,028
-215,796	-116,353	-0,126	-0,017
-214,782	-183,353	-0,149	-0,002
-213,767	-60,266	0,137	0,042
-212,752	64,524	-0,084	0,061
-211,738	-200,000	0,046	0,254
-210,723	-92,529	0,163	-0,033
-209,709	800,000	-0,049	-0,118
-208,694	-65,181	-0,049	-0,014
-207,679	-200,000	-0,013	-0,086
-206,665	243,383	0,107	0,129
-205,650	-71,731	0,173	0,046
-204,636	609,843	-0,078	0,141
-203,621	800,000	-0,031	0,074
-202,606	318,378	-0,038	-0,052
-201,592	201,342	-0,035	-0,039
-200,577	127,013	0,010	-0,009
-199,563	-59,666	-0,097	0,030
-198,548	800,000	0,046	-0,093
-197,533	410,673	0,031	0,048
-196,519	353,330	-0,062	-0,089
-195,504	-146,812	-0,107	-0,007
-194,490	-200,000	0,002	0,030
-193,475	8,084	-0,084	-0,045
-192,460	428,003	-0,034	0,054
-191,446	-183,499	-0,104	-0,001
-190,431	-125,634	0,210	-0,023
-189,417	800,000	0,054	0,117
-188,402	-7,943	0,091	-0,044
-187,387	-200,000	0,034	-0,123
-186,373	-58,388	-0,165	0,051
-185,358	-151,771	-0,041	-0,002
-184,344	-200,000	0,031	0,117
-183,329	-102,634	0,099	0,017
-182,315	-81,542	0,061	-0,014
-181,300	474,997	-0,058	0,094
-180,285	75,302	-0,078	-0,059
-179,271	800,000	-0,033	-0,092
-178,256	-85,048	-0,106	0,024
-177,242	251,815	0,006	-0,007
-176,227	397,337	-0,092	0,139
-175,212	46,748	0,129	0,086
-174,198	16,357	0,121	0,068
-173,183	-200,000	-0,009	-0,059
-172,169	-200,000	-0,042	0,160
-171,154	285,517	-0,040	-0,051
-170,139	397,865	0,038	0,057
-169,125	141,863	0,098	0,093
-168,110	-125,971	0,064	0,007
-167,096	-54,648	0,044	0,014
-166,081	-200,000	0,003	0,069
-165,066	-134,835	-0,059	0,005
-164,052	-6,125	0,084	-0,041
-163,037	293,121	0,099	-0,131
-162,023	38,500	-0,064	0,041
-161,008	-4,543	0,166	0,082
-159,993	-53,882	0,112	0,037
-158,979	263,600	-0,040	-0,050
-157,964	290,424	-0,083	-0,109
-156,950	46,395	0,069	0,046
-155,935	128,579	-0,051	-0,046
-154,920	-84,577	0,119	-0,027
-153,906	-162,612	0,178	0,006
-152,891	-200,000	-0,048	0,000
-151,877	-78,437	-0,065	0,016
-150,862	800,000	-0,032	-0,087
-149,847	50,426	0,078	0,053
-148,833	-49,023	-0,159	0,054
-147,818	-200,000	-0,013	0,043
-146,804	666,526	0,066	0,124
-145,789	492,454	-0,058	-0,096
-144,775	-200,000	0,002	-0,060
-143,760	-23,803	-0,094	-0,040
-142,745	-128,375	0,061	-0,006
-141,731	-200,000	0,004	-0,088
-140,716	-13,595	-0,045	-0,021
-139,702	-200,000	0,011	0,143
-138,687	800,000	0,020	0,047
-137,672	388,175	-0,060	0,090
-136,658	435,725	-0,048	-0,076
-135,643	614,986	-0,077	-0,140
-134,629	-200,000	0,033	-0,116
-133,614	55,099	0,019	0,013
-132,599	-200,000	0,024	0,114
-131,585	91,892	0,032	-0,026
-130,570	248,758	0,062	-0,075
-129,556	-200,000	0,025	-0,111
-128,541	-200,000	0,010	-0,074
-127,526	-200,000	0,001	-0,017
-126,512	800,000	-0,019	0,038
-125,497	320,205	0,018	0,025
-124,483	-129,632	0,075	0,007
-123,468	-82,149	-0,086	-0,020
-122,453	-200,000	-0,014	-0,194
-121,439	-99,217	-0,088	-0,016
-120,424	-43,972	-0,021	0,007
