DTS Sentinel unit serial number:	SN410029Multiplexer serial number:	ORYXHardware model number:	OX2-SRSoftware version number:	ORYX F/W v4,00 Oryx Data Collector v3.7.2.0data status	okinstallation	B6 Nyhavnadifferential loss correction	single-endedforward channel	channel 2reverse channel	N/Adate	2023/12/07time	10:45:08forward acquisition time	300,00reverse acquisition time	0,00gamma	499,1914k internal	0,3200k external	0,3200temperature offset calibration	1,0000default loss term (dB/km)	0,3820temperature slope calibration	1,0000multiplexer offset coefficient	1,0000multiplexer slope coefficient	1,0000fibre end	0,00T internal ref (°C)	7,28T ext. ref 1 (°C)	-6,88T ext. ref 2 (°C)	-6,95length (m)	temperature (°C)	Stokes	anti-Stokes-744,400	74,764	0,213	0,163
-743,385	-147,761	-0,441	0,026
-742,371	-200,000	0,050	0,171
-741,356	-71,136	-0,431	0,117
-740,342	-120,194	0,137	0,017
-739,327	-112,614	-0,347	-0,050
-738,312	-115,517	0,163	-0,022
-737,298	51,107	-0,443	-0,305
-736,283	-69,534	0,255	0,070
-735,269	-97,863	-0,438	-0,082
-734,254	377,571	0,163	0,243
-733,239	-6,095	-0,606	-0,300
-732,225	-63,144	0,423	0,126
-731,210	182,637	0,076	0,081
-730,196	-200,000	-0,015	-0,082
-729,181	3,554	-0,133	-0,070
-728,167	800,000	-0,064	-0,179
-727,152	-60,088	0,036	-0,011
-726,137	-32,719	0,044	0,018
-725,123	94,714	0,062	-0,051
-724,108	-200,000	-0,023	-0,133
-723,094	-200,000	-0,001	-0,037
-722,079	-141,535	-0,114	0,008
-721,064	754,749	0,082	0,163
-720,050	490,512	-0,032	0,053
-719,035	16,778	0,030	-0,017
-718,021	800,000	-0,019	0,052
-717,006	-200,000	-0,029	-0,113
-715,991	324,170	-0,109	-0,152
-714,977	30,329	-0,107	-0,066
-713,962	123,060	0,082	0,075
-712,948	-200,000	-0,010	0,161
-711,933	73,403	-0,093	0,071
-710,918	138,862	-0,082	-0,078
-709,904	147,894	-0,069	-0,067
-708,889	-200,000	-0,017	-0,099
-707,875	-4,844	-0,086	0,043
-706,860	366,109	-0,093	-0,136
-705,845	-84,775	0,136	-0,031
-704,831	9,238	0,051	0,028
-703,816	1,149	-0,082	-0,043
-702,802	-200,000	-0,003	0,014
-701,787	-180,388	-0,244	0,004
-700,772	-79,410	0,093	0,023
-699,758	25,069	0,089	-0,053
-698,743	179,407	-0,064	0,068
-697,729	-200,000	0,005	0,036
-696,714	-61,485	0,045	-0,014
-695,699	449,011	-0,030	-0,049
-694,685	-200,000	0,039	-0,180
-693,670	181,417	-0,076	-0,081
-692,656	660,769	0,045	-0,085
-691,641	-200,000	-0,013	0,065
-690,627	12,247	0,080	-0,045
-689,612	-200,000	0,032	0,104
-688,597	433,168	0,054	0,086
-687,583	-200,000	0,003	0,067
-686,568	800,000	-0,069	0,161
-685,554	373,516	0,031	0,046
-684,539	800,000	-0,039	-0,087
-683,524	147,876	-0,051	0,050
-682,510	3,238	0,069	0,036
-681,495	-200,000	-0,023	0,106
-680,481	800,000	0,055	0,143
-679,466	-200,000	0,012	0,059
-678,451	155,656	-0,029	-0,029
-677,437	-123,493	-0,145	-0,016
-676,422	112,654	0,028	0,024
-675,408	173,015	0,017	0,018
-674,393	-90,274	-0,051	-0,011
-673,378	-6,235	-0,025	-0,012
-672,364	-117,976	-0,166	-0,021
-671,349	-200,000	-0,004	-0,070
-670,335	-200,000	-0,010	0,059
-669,320	800,000	-0,019	0,055
-668,305	172,695	0,064	-0,067
-667,291	-200,000	0,004	-0,038
-666,276	685,694	-0,030	-0,057
-665,262	-200,000	-0,009	-0,078
-664,247	-200,000	-0,010	0,056
-663,232	31,548	-0,122	-0,076
-662,218	-200,000	-0,002	0,013
-661,203	-95,828	-0,119	0,023
-660,189	150,343	-0,044	0,043
-659,174	-139,878	-0,142	-0,011
-658,159	462,381	0,064	-0,105
-657,145	-45,665	-0,086	0,031
-656,130	-123,840	-0,131	0,015
-655,116	248,092	0,075	0,093
-654,101	-200,000	0,023	0,107
-653,086	-2,496	-0,084	0,043
-652,072	-200,000	0,006	0,148
-651,057	-200,000	0,004	-0,108
-650,043	220,060	0,014	0,016
-649,028	4,021	0,100	0,053
-648,014	-174,410	0,095	0,002
-646,999	-103,213	-0,062	0,011
-645,984	-155,927	0,014	0,001
-644,970	-12,508	-0,049	-0,023
-643,955	381,612	-0,037	-0,055
-642,941	-200,000	-0,002	-0,075
-641,926	81,338	-0,071	0,056
-640,911	-200,000	0,045	0,315
-639,897	87,308	-0,096	-0,077
-638,882	-19,605	0,070	0,031
-637,868	0,783	-0,170	0,088
-636,853	-200,000	-0,027	-0,127
-635,838	137,907	0,021	-0,020
-634,824	215,117	0,045	0,052
-633,809	-200,000	-0,032	0,158
-632,795	-200,000	0,014	0,091
-631,780	-138,321	0,114	-0,009
-630,765	360,456	-0,025	-0,037
-629,751	-107,879	-0,065	-0,010
-628,736	25,183	0,180	-0,108
-627,722	-81,184	-0,072	-0,017
-626,707	-178,702	-0,077	-0,001
-625,692	800,000	0,037	0,090
-624,678	800,000	0,035	0,109
-623,663	-200,000	0,009	-0,035
-622,649	-200,000	0,048	-0,159
-621,634	14,339	0,025	0,014
-620,619	64,497	-0,033	-0,024
-619,605	800,000	0,019	-0,058
-618,590	38,017	-0,079	-0,051
-617,576	-5,475	0,212	-0,105
-616,561	-78,297	-0,069	0,017
-615,546	-200,000	-0,028	-0,096
-614,532	-200,000	0,001	0,028
-613,517	-90,601	-0,050	-0,010
-612,503	-32,827	0,020	-0,008
-611,488	-200,000	0,012	0,101
-610,474	-200,000	-0,002	-0,045
-609,459	800,000	-0,047	-0,103
-608,444	191,045	-0,092	0,101
-607,430	800,000	-0,044	0,100
-606,415	-200,000	-0,011	0,092
-605,401	-200,000	-0,001	0,024
-604,386	-200,000	-0,001	0,056
-603,371	685,385	-0,022	0,042
-602,357	182,168	-0,041	-0,044
-601,342	132,456	0,071	0,066
-600,328	292,536	-0,086	0,113
-599,313	-181,589	-0,031	0,000
-598,298	561,580	-0,035	0,061
-597,284	171,771	0,021	0,022
-596,269	327,490	-0,008	0,011
-595,255	80,659	0,077	0,060
-594,240	-69,120	-0,157	0,043
-593,225	13,418	-0,082	0,046
-592,211	-94,121	-0,031	-0,006
-591,196	-72,301	0,086	0,023
-590,182	-200,000	0,004	-0,047
-589,167	73,763	0,080	0,060
-588,152	145,506	-0,121	-0,117
-587,138	-200,000	0,048	-0,159
-586,123	62,153	0,080	-0,058
-585,109	158,197	0,032	-0,032
-584,094	71,628	-0,116	-0,087
-583,079	-200,000	0,017	0,065
-582,065	-126,102	-0,059	0,006
-581,050	-38,545	-0,048	0,018
-580,036	117,520	-0,109	0,097
-579,021	111,245	-0,028	-0,025
-578,006	-7,703	0,007	-0,003
-576,992	398,934	0,075	0,114
-575,977	800,000	0,005	-0,013
-574,963	-200,000	0,016	0,071
-573,948	-13,824	0,097	0,045
-572,934	420,878	-0,032	-0,050
-571,919	307,843	-0,053	0,072
-570,904	-125,207	-0,036	0,004
-569,890	-83,305	-0,018	0,004
-568,875	-80,240	0,165	-0,040
-567,861	-92,779	-0,041	0,008
-566,846	6,556	0,093	-0,050
-565,831	-67,568	-0,112	0,032
-564,817	141,132	0,032	-0,030
-563,802	-200,000	0,037	-0,118
-562,788	800,000	0,014	0,040
-561,773	-133,666	-0,067	0,006
-560,758	71,558	-0,040	-0,030
-559,744	111,877	0,083	0,073
-558,729	-200,000	0,016	0,069
-557,715	-200,000	-0,020	-0,070
-556,700	-200,000	0,029	-0,179
-555,685	-200,000	0,027	-0,120
-554,671	-200,000	-0,001	0,032
-553,656	-200,000	0,008	-0,065
-552,642	121,834	0,113	-0,102
-551,627	-41,582	-0,060	0,022
-550,612	476,983	0,021	-0,034
-549,598	-200,000	-0,049	-0,199
-548,583	-78,191	-0,027	-0,007
-547,569	79,563	-0,109	-0,085
-546,554	-139,343	0,117	0,009
-545,539	800,000	0,025	-0,080
-544,525	-200,000	0,004	-0,052
-543,510	-16,995	-0,039	-0,018
-542,496	800,000	-0,022	-0,049
-541,481	-8,588	-0,130	-0,063
-540,466	621,961	0,022	0,041
-539,452	-200,000	-0,019	0,104
-538,437	-200,000	0,006	0,039
-537,423	40,436	0,009	0,006
-536,408	-200,000	0,007	-0,207
-535,393	-53,183	0,101	-0,033
-534,379	800,000	-0,025	0,071
-533,364	582,411	-0,015	0,027
-532,350	-105,799	0,104	-0,017
-531,335	800,000	0,037	0,085
-530,321	47,376	-0,050	-0,033
-529,306	800,000	-0,048	-0,113
-528,291	9,715	-0,113	-0,062
-527,277	103,367	-0,038	-0,032
-526,262	155,832	0,023	0,023
-525,248	50,454	0,086	0,059
-524,233	800,000	0,069	-0,147
-523,218	73,331	-0,087	-0,066
-522,204	35,276	-0,006	-0,004
-521,189	303,044	0,036	0,048
-520,175	-152,969	-0,125	-0,006
-519,160	173,897	-0,070	-0,073
-518,145	484,742	0,068	0,112
-517,131	-153,955	0,184	0,009
-516,116	-200,000	0,042	0,161
-515,102	-200,000	-0,056	-0,230
-514,087	-44,340	0,064	-0,023
-513,072	-200,000	0,018	0,069
-512,058	363,733	-0,024	-0,035
-511,043	-200,000	-0,002	0,033
-510,029	226,974	0,100	0,117
-509,014	113,448	0,115	0,101
-507,999	-200,000	-0,002	0,071
-506,985	-200,000	-0,000	0,015
-505,970	-149,063	0,048	-0,003
-504,956	-200,000	-0,001	0,019
-503,941	-124,276	0,097	-0,011
-502,926	37,172	0,067	0,043
-501,912	698,688	0,060	0,114
-500,897	89,002	-0,086	0,069
-499,883	-200,000	0,016	0,114
-498,868	-100,781	-0,090	-0,016
-497,853	-84,622	0,048	0,011
-496,839	-109,882	0,083	0,012
-495,824	-200,000	-0,016	-0,176
-494,810	800,000	0,054	0,121
-493,795	120,610	0,054	0,048
-492,781	-200,000	-0,044	-0,163
-491,766	-200,000	-0,011	0,049
-490,751	-27,081	-0,134	-0,056
-489,737	-18,490	-0,029	0,013
-488,722	-77,920	0,187	-0,046
-487,708	40,516	-0,080	0,052
-486,693	-118,537	0,169	0,021
-485,678	436,429	0,069	0,108
-484,664	134,567	-0,170	-0,159
-483,649	-200,000	-0,008	-0,140
-482,635	27,044	0,117	-0,071
-481,620	-200,000	0,006	-0,051
-480,605	-78,644	0,053	0,013
-479,591	-102,181	-0,054	-0,009
-478,576	97,606	0,047	0,038
-477,562	-200,000	0,024	0,087
-476,547	-76,319	-0,085	-0,021
-475,532	-200,000	0,012	-0,127
-474,518	-88,541	-0,122	-0,026
-473,503	112,116	0,081	0,070
-472,489	296,533	0,020	-0,026
-471,474	800,000	-0,025	0,063
-470,459	-196,885	-0,175	0,001
-469,445	800,000	-0,045	-0,131
-468,430	441,166	-0,059	-0,093
-467,416	-200,000	-0,014	-0,117
-466,401	800,000	-0,033	0,090
-465,386	800,000	0,050	-0,130
-464,372	800,000	0,076	0,177
-463,357	-36,977	-0,091	0,035
-462,343	-200,000	0,001	0,052
-461,328	363,822	-0,097	0,141
-460,313	800,000	-0,019	0,042
-459,299	80,320	-0,051	0,039
-458,284	587,790	0,049	-0,087
-457,270	149,339	0,051	-0,050
-456,255	800,000	0,042	-0,103
-455,241	-200,000	-0,006	0,076
-454,226	800,000	0,069	-0,166
-453,211	157,223	-0,104	0,103
-452,197	-23,743	-0,031	0,013
-451,182	-126,763	0,040	0,004
-450,168	1,224	0,085	-0,044
-449,153	-127,051	0,009	-0,001
-448,138	9,681	0,074	0,040
-447,124	176,063	-0,086	-0,090
-446,109	-51,683	-0,038	0,013
-445,095	771,017	-0,010	0,020
-444,080	-78,627	0,037	0,009
-443,065	-200,000	-0,000	0,124
-442,051	-200,000	0,018	0,196
-441,036	800,000	-0,030	-0,094
-440,022	177,014	-0,062	0,065
-439,007	92,196	-0,069	-0,056
-437,992	197,500	0,118	0,130
-436,978	-172,536	-0,063	-0,001
-435,963	-102,625	0,030	0,005
-434,949	124,679	0,046	0,041
-433,934	-53,533	-0,090	0,029
-432,919	-200,000	-0,004	-0,037
-431,905	-179,692	-0,074	0,001
-430,890	800,000	0,049	-0,099
-429,876	-87,302	-0,058	0,013
-428,861	482,318	-0,031	0,051
-427,846	-58,154	0,034	-0,011
-426,832	-127,463	-0,034	-0,003
-425,817	31,998	0,078	-0,048
-424,803	800,000	0,014	-0,036
-423,788	-74,139	0,120	-0,031
-422,773	-200,000	0,016	-0,058
-421,759	431,355	-0,043	-0,066
-420,744	224,704	0,074	0,086
-419,730	546,570	-0,063	0,108
-418,715	77,651	-0,058	0,044
-417,701	-108,927	0,015	-0,002
-416,686	164,032	0,052	-0,053
-415,671	-200,000	0,009	-0,077
-414,657	757,906	0,045	-0,088
-413,642	262,991	-0,055	0,069
-412,628	-29,546	0,016	-0,006
-411,613	-200,000	-0,008	0,046
-410,598	800,000	-0,029	0,082
-409,584	-200,000	-0,002	-0,105
-408,569	102,091	0,082	0,068
-407,555	142,451	-0,055	-0,053
-406,540	33,579	-0,086	-0,053
-405,525	67,482	0,071	-0,052
-404,511	89,313	-0,050	-0,040
-403,496	-200,000	0,034	-0,129
-402,482	198,435	-0,027	0,030
-401,467	605,348	-0,063	0,114
-400,452	504,632	-0,064	0,108
-399,438	-200,000	0,002	-0,065
-398,423	-200,000	0,001	0,101
-397,409	111,498	-0,075	-0,065
-396,394	-57,287	0,095	-0,030
-395,379	-200,000	-0,036	0,116
-394,365	-51,915	0,129	0,043
-393,350	-200,000	0,047	-0,158
-392,336	-200,000	0,009	-0,104
-391,321	173,301	-0,080	-0,083
-390,306	-200,000	0,023	-0,080
-389,292	-126,987	0,047	0,005
-388,277	-43,178	-0,046	-0,017
-387,263	6,978	0,177	0,095
-386,248	431,238	-0,060	0,093
-385,233	-200,000	0,006	-0,082
-384,219	-3,692	0,116	-0,057
-383,204	131,927	0,040	-0,037
-382,190	162,780	0,040	0,040
-381,175	-1,271	0,167	-0,084
-380,160	800,000	-0,061	0,130
-379,146	-200,000	-0,013	0,180
-378,131	-10,923	0,041	0,019
-377,117	-200,000	0,035	-0,125
-376,102	5,319	-0,097	0,051
-375,088	606,449	0,008	0,014
-374,073	109,931	-0,077	-0,066
-373,058	800,000	-0,019	0,057
-372,044	-108,995	-0,048	0,007
-371,029	-87,803	0,113	0,024
-370,015	800,000	-0,025	0,056
-369,000	90,068	0,036	0,028
-367,985	-200,000	0,012	-0,213
-366,971	-96,428	0,060	0,011
-365,956	417,797	0,085	-0,130
-364,942	-200,000	0,018	0,075
-363,927	-200,000	0,029	0,125
-362,912	-200,000	-0,010	-0,042
-361,898	-83,938	0,088	-0,020
-360,883	177,538	-0,008	-0,009
-359,869	-200,000	-0,002	0,093
-358,854	-15,298	-0,122	0,056
-357,839	-200,000	-0,009	0,182
-356,825	421,830	0,042	0,065
-355,810	800,000	-0,022	-0,054
-354,796	315,734	0,031	0,041
-353,781	-200,000	-0,001	0,058
-352,766	-200,000	0,012	-0,165
-351,752	-126,101	-0,076	0,008
-350,737	-64,591	0,072	-0,021
-349,723	-144,456	0,079	-0,005
-348,708	229,470	0,126	-0,147
-347,693	-26,124	0,082	-0,034
-346,679	-200,000	0,000	-0,049
-345,664	-200,000	0,010	-0,070
-344,650	-53,486	0,130	0,042
-343,635	-200,000	-0,001	0,029
-342,620	800,000	0,020	0,043
-341,606	-200,000	-0,019	0,125
-340,591	-34,022	-0,077	-0,030
-339,577	800,000	-0,014	0,035
-338,562	-39,131	-0,148	-0,055
-337,548	-200,000	0,011	0,052
-336,533	800,000	0,021	0,056
-335,518	800,000	-0,025	0,062
-334,504	135,171	0,069	-0,064
-333,489	-200,000	0,002	0,030
-332,475	-90,749	-0,026	0,005
-331,460	-18,270	0,108	0,048
-330,445	89,493	0,035	-0,028
-329,431	-159,329	0,121	0,005
-328,416	187,289	0,062	0,066
-327,402	-62,651	0,075	0,022
-326,387	158,564	0,048	0,047
-325,372	429,977	-0,069	-0,108
-324,358	-167,855	0,033	0,001
-323,343	-121,123	-0,090	0,011
-322,329	398,728	-0,047	-0,071
-321,314	-200,000	-0,022	-0,202
-320,299	50,732	0,042	0,028
-319,285	800,000	0,035	0,079
-318,270	800,000	-0,023	-0,053
-317,256	77,494	-0,016	-0,012
-316,241	135,856	0,013	0,013
-315,226	800,000	-0,055	0,117
-314,212	352,886	0,062	0,088
-313,197	46,377	-0,072	-0,047
-312,183	56,140	-0,116	0,080
-311,168	-38,042	0,048	0,018
-310,153	800,000	-0,057	-0,142
-309,139	-200,000	0,012	-0,067
-308,124	-200,000	-0,021	0,170
-307,110	193,092	0,028	-0,030
-306,095	441,134	0,038	0,060
-305,080	-88,941	0,054	-0,011
-304,066	-193,033	-0,146	0,001
-303,051	73,370	-0,089	-0,067
-302,037	446,700	0,040	0,062
-301,022	-9,618	-0,026	0,012
-300,008	-200,000	0,001	0,100
-298,993	-200,000	-0,033	0,104
-297,978	-105,183	0,097	-0,016
-296,964	-200,000	0,012	0,051
-295,949	-107,611	-0,063	-0,010
-294,935	-200,000	0,044	-0,151
-293,920	-200,000	0,004	-0,053
-292,905	-200,000	0,005	0,025
-291,891	400,911	-0,068	0,102
-290,876	1,644	0,115	0,059
-289,862	-191,621	-0,084	0,001
-288,847	-198,900	-0,140	0,001
-287,832	-200,000	0,012	-0,068
-286,818	-100,905	-0,085	-0,015
-285,803	-34,573	-0,125	0,049
-284,789	25,965	0,071	-0,042
-283,774	-200,000	0,013	0,195
-282,759	169,943	-0,100	0,102
-281,745	-80,194	-0,085	-0,020
-280,730	92,960	-0,086	-0,069
-279,716	42,455	-0,089	-0,058
-278,701	-47,004	0,090	-0,031
-277,686	-121,008	0,061	-0,007
-276,672	515,112	0,014	-0,024
-275,657	-200,000	-0,014	0,108
-274,643	-200,000	-0,018	-0,060
-273,628	71,271	-0,033	0,025
-272,613	-134,634	-0,060	-0,005
-271,599	-158,921	0,140	-0,006
-270,584	180,930	-0,028	0,029
-269,570	-17,541	-0,082	0,037
-268,555	61,994	-0,102	-0,072
-267,540	-2,045	-0,036	-0,018
-266,526	204,765	-0,058	-0,065
-265,511	408,882	-0,061	-0,093
-264,497	-200,000	-0,002	0,142
-263,482	60,509	0,028	0,020
-262,467	-92,425	-0,056	0,011
-261,453	-197,586	0,162	0,001
-260,438	243,470	0,032	-0,038
-259,424	-200,000	-0,014	-0,063
-258,409	-11,478	-0,156	-0,073
-257,395	-200,000	0,006	-0,044
-256,380	800,000	0,016	0,033
-255,365	124,615	0,083	0,075
-254,351	147,901	-0,061	0,059
-253,336	-200,000	0,007	-0,092
-252,322	800,000	-0,070	-0,167
-251,307	389,513	0,047	-0,070
-250,292	-23,580	0,192	0,082
-249,278	-200,000	-0,029	0,151
-248,263	-88,176	-0,071	0,015
-247,249	283,527	-0,058	-0,075
-246,234	9,478	0,073	-0,039
-245,219	-63,125	0,101	-0,030
-244,205	66,236	0,143	0,104
-243,190	55,941	-0,045	0,031
-242,176	313,555	-0,052	-0,070
-241,161	8,717	-0,041	-0,022
-240,146	-200,000	0,045	0,149
-239,132	-198,275	0,064	0,000
-238,117	49,661	-0,053	-0,036
-237,103	65,892	0,032	-0,023
-236,088	74,126	0,067	-0,050
-235,073	667,758	0,101	-0,187
-234,059	-53,215	-0,092	0,030
-233,044	80,463	0,031	0,024
-232,030	151,075	0,037	0,036
-231,015	62,542	-0,037	0,026
-230,000	800,000	-0,067	-0,198
-228,986	84,775	0,072	-0,057
-227,971	322,736	0,033	-0,044
-226,957	623,416	0,012	0,022
-225,942	-143,925	-0,134	0,009
-224,927	-136,776	-0,094	-0,008
-223,913	-200,000	0,005	-0,016
-222,898	103,001	-0,063	0,053
-221,884	129,409	-0,103	-0,094
-220,869	39,265	0,071	0,045
-219,855	177,620	-0,049	0,051
-218,840	-141,761	-0,132	0,009
-217,825	-200,000	-0,007	-0,028
-216,811	800,000	-0,028	-0,062
-215,796	96,035	0,070	-0,057
-214,782	320,722	-0,035	0,047
-213,767	-200,000	-0,008	0,100
-212,752	53,470	0,086	0,058
-211,738	-200,000	0,019	-0,124
-210,723	800,000	-0,020	0,043
-209,709	20,400	-0,142	0,082
-208,694	-60,109	-0,179	0,054
-207,679	-70,369	-0,076	-0,020
-206,665	-200,000	0,030	-0,135
-205,650	-111,441	-0,142	-0,020
-204,636	390,772	0,104	0,154
-203,621	800,000	0,032	-0,075
-202,606	59,216	-0,077	-0,054
-201,592	-87,227	0,078	-0,017
-200,577	-68,666	0,090	0,025
-199,563	-42,437	0,055	0,020
-198,548	-108,281	0,083	-0,013
-197,533	-146,392	0,121	0,007
-196,519	434,914	-0,037	0,057
-195,504	2,521	-0,118	0,061
-194,490	202,965	-0,080	-0,088
-193,475	-200,000	-0,039	-0,124
-192,460	-200,000	0,003	-0,086
-191,446	9,022	0,068	-0,036
-190,431	148,833	-0,040	-0,038
-189,417	-200,000	-0,033	0,144
-188,402	387,668	0,038	-0,056
-187,387	9,755	-0,055	0,029
-186,373	-163,886	0,031	0,001
-185,358	-200,000	0,027	-0,100
-184,344	372,035	0,035	-0,050
-183,329	33,972	0,058	-0,036
-182,315	114,089	-0,065	0,056
-181,300	800,000	-0,041	-0,090
-180,285	800,000	-0,021	-0,049
-179,271	499,677	-0,052	0,085
-178,256	-200,000	-0,008	0,041
-177,242	-200,000	0,036	0,153
-176,227	-3,089	0,084	0,042
-175,212	800,000	-0,036	-0,110
-174,198	-151,515	0,107	0,006
-173,183	54,781	0,042	-0,029
-172,169	147,456	-0,078	0,075
-171,154	-200,000	-0,006	0,025
-170,139	152,618	0,108	0,105
-169,125	84,617	0,032	0,025
-168,110	-200,000	-0,002	-0,037
-167,096	129,490	0,027	0,025
-166,081	-200,000	0,031	0,108
-165,066	-200,000	-0,021	-0,111
-164,052	-42,869	-0,026	0,009
-163,037	-200,000	-0,004	0,101
-162,023	800,000	0,053	0,130
-161,008	236,779	0,076	0,090
-159,993	-56,435	-0,067	-0,021
-158,979	172,073	-0,051	0,052
-157,964	-159,552	0,043	0,002
-156,950	39,008	-0,110	-0,070
-155,935	-194,625	0,032	-0,000
-154,920	-200,000	0,012	-0,060
-153,906	-200,000	-0,006	0,059
-152,891	183,689	0,012	-0,013
-151,877	-200,000	0,042	0,153
-150,862	185,766	-0,013	-0,014
-149,847	800,000	-0,044	0,116
-148,833	-200,000	-0,009	0,118
-147,818	-9,387	0,117	-0,055
-146,804	-64,971	0,096	-0,027
-145,789	-113,189	-0,065	0,009
-144,775	-167,861	-0,004	0,000
-143,760	-27,752	-0,030	0,012
-142,745	800,000	0,020	0,050
-141,731	-127,383	0,017	-0,002
-140,716	15,684	0,039	0,021
-139,702	-37,446	0,144	0,054
-138,687	77,565	0,040	0,030
-137,672	800,000	-0,004	0,010
-136,658	373,555	-0,084	-0,121
-135,643	359,126	0,015	-0,022
-134,629	14,201	0,121	0,067
-133,614	540,604	0,053	0,090
-132,599	-56,889	-0,054	0,017
-131,585	141,826	0,044	0,041
-130,570	128,773	-0,025	0,023
-129,556	-200,000	-0,001	-0,014
-128,541	-200,000	-0,028	-0,143
-127,526	155,110	0,049	-0,048
-126,512	800,000	0,079	0,189
-125,497	-200,000	0,025	0,163
-124,483	108,746	0,154	0,131
-123,468	-57,971	-0,094	0,029
-122,453	-84,894	-0,037	-0,008
-121,439	-97,787	-0,125	0,023
-120,424	-152,203	0,132	0,007
-119,410	63,119	0,066	0,047
-118,395	157,173	0,063	0,062
