DTS Sentinel unit serial number:	SN410029Multiplexer serial number:	ORYXHardware model number:	OX2-SRSoftware version number:	ORYX F/W v4,00 Oryx Data Collector v3.7.2.0data status	okinstallation	B6 Nyhavnadifferential loss correction	single-endedforward channel	channel 2reverse channel	N/Adate	2023/12/08time	04:25:08forward acquisition time	300,00reverse acquisition time	0,00gamma	499,1914k internal	0,3165k external	0,3165temperature offset calibration	1,0000default loss term (dB/km)	0,3820temperature slope calibration	1,0000multiplexer offset coefficient	1,0000multiplexer slope coefficient	1,0000fibre end	0,00T internal ref (°C)	13,05T ext. ref 1 (°C)	-3,79T ext. ref 2 (°C)	-3,78length (m)	temperature (°C)	Stokes	anti-Stokes-744,400	800,000	0,038	0,089
-743,385	-149,544	-0,317	0,018
-742,371	-34,453	0,131	0,053
-741,356	-132,650	-0,221	0,021
-740,342	10,015	0,117	0,065
-739,327	-157,537	-0,394	-0,017
-738,312	800,000	0,013	-0,032
-737,298	-137,827	-0,236	0,019
-736,283	-133,777	0,121	-0,011
-735,269	-129,908	-0,308	-0,031
-734,254	1,676	0,176	0,093
-733,239	-17,711	-0,463	-0,213
-732,225	0,631	0,265	0,139
-731,210	-200,000	0,009	0,115
-730,196	-136,230	-0,042	-0,004
-729,181	-15,117	-0,035	0,016
-728,167	-200,000	-0,006	-0,122
-727,152	-11,902	0,126	-0,060
-726,137	85,346	-0,096	-0,078
-725,123	287,526	0,045	-0,060
-724,108	-200,000	-0,204	0,001
-723,094	273,136	-0,056	-0,073
-722,079	-0,161	-0,090	0,047
-721,064	-200,000	0,014	-0,045
-720,050	800,000	-0,008	0,019
-719,035	221,450	-0,097	-0,114
-718,021	150,430	-0,052	0,052
-717,006	-200,000	0,015	-0,204
-715,991	99,078	-0,071	-0,060
-714,977	800,000	-0,021	0,064
-713,962	22,074	-0,045	0,027
-712,948	24,366	0,108	0,065
-711,933	-77,977	-0,202	-0,051
-710,918	-130,746	-0,147	0,014
-709,904	191,376	0,062	-0,069
-708,889	-78,158	0,133	-0,033
-707,875	752,563	0,056	-0,112
-706,860	112,759	-0,026	0,023
-705,845	-53,552	-0,021	0,007
-704,831	305,517	0,116	0,159
-703,816	556,002	0,016	-0,029
-702,802	18,907	0,048	0,028
-701,787	-200,000	0,037	-0,221
-700,772	520,467	-0,068	-0,117
-699,758	-200,000	0,006	-0,058
-698,743	7,174	0,063	0,034
-697,729	161,819	0,022	-0,022
-696,714	-200,000	0,020	-0,096
-695,699	-200,000	-0,062	-0,207
-694,685	267,726	-0,085	0,110
-693,670	100,486	0,102	-0,087
-692,656	800,000	-0,033	0,084
-691,641	338,631	0,026	-0,037
-690,627	-200,000	0,011	0,087
-689,612	224,480	-0,038	-0,045
-688,597	-62,247	-0,101	0,031
-687,583	-200,000	-0,043	-0,190
-686,568	800,000	0,042	-0,117
-685,554	-32,768	-0,217	-0,088
-684,539	12,029	0,124	0,070
-683,524	-102,832	-0,122	-0,021
-682,510	-63,821	0,040	0,012
-681,495	-130,290	-0,096	0,009
-680,481	800,000	0,030	-0,080
-679,466	800,000	-0,058	-0,120
-678,451	529,259	0,085	0,148
-677,437	185,862	-0,006	-0,007
-676,422	-62,269	-0,163	0,050
-675,408	-95,188	0,074	0,015
-674,393	454,283	0,025	-0,041
-673,378	-64,458	-0,006	-0,002
-672,364	-142,938	-0,165	-0,012
-671,349	800,000	-0,050	-0,114
-670,335	-90,930	0,041	0,009
-669,320	129,084	-0,064	-0,060
-668,305	11,670	-0,018	0,010
-667,291	87,478	-0,089	0,072
-666,276	-104,835	-0,045	-0,007
-665,262	-97,020	-0,133	-0,025
-664,247	-200,000	0,018	0,078
-663,232	704,711	-0,017	-0,032
-662,218	-200,000	0,001	-0,007
-661,203	-200,000	-0,006	-0,028
-660,189	-26,434	-0,066	-0,028
-659,174	43,666	0,054	-0,036
-658,159	-200,000	0,000	0,043
-657,145	187,171	-0,116	0,127
-656,130	64,855	-0,116	-0,086
-655,116	249,771	-0,068	-0,084
-654,101	-45,878	-0,112	0,040
-653,086	102,668	-0,108	0,093
-652,072	-60,085	-0,141	-0,044
-651,057	-123,144	-0,055	0,006
-650,043	-27,209	-0,037	0,016
-649,028	-91,268	-0,081	-0,017
-648,014	197,869	0,054	0,061
-646,999	-82,011	0,055	-0,013
-645,984	800,000	-0,034	-0,083
-644,970	316,880	-0,050	-0,069
-643,955	-117,395	-0,079	0,010
-642,941	-200,000	-0,012	-0,059
-641,926	800,000	0,032	0,073
-640,911	122,003	0,047	0,043
-639,897	-200,000	0,025	0,098
-638,882	800,000	-0,067	0,156
-637,868	630,558	0,034	-0,063
-636,853	-200,000	-0,022	0,131
-635,838	-9,505	-0,103	0,050
-634,824	800,000	-0,011	0,034
-633,809	300,644	-0,040	-0,055
-632,795	-155,582	-0,037	0,002
-631,780	-200,000	-0,021	-0,224
-630,765	-91,411	-0,026	-0,005
-629,751	54,098	0,060	0,042
-628,736	140,950	-0,140	-0,136
-627,722	305,717	-0,063	-0,086
-626,707	-200,000	-0,005	0,079
-625,692	-72,159	0,100	0,027
-624,678	-59,495	-0,104	-0,032
-623,663	117,505	0,153	-0,138
-622,649	-74,349	-0,148	-0,039
-621,634	800,000	-0,015	0,031
-620,619	-16,806	-0,098	-0,045
-619,605	-200,000	-0,009	0,055
-618,590	690,210	0,012	-0,023
-617,576	-89,361	-0,039	0,008
-616,561	0,770	0,113	-0,059
-615,546	-43,402	0,018	0,007
-614,532	48,445	-0,015	-0,010
-613,517	483,239	0,021	-0,035
-612,503	800,000	-0,046	-0,098
-611,488	-200,000	0,007	-0,039
-610,474	-200,000	0,026	-0,113
-609,459	800,000	0,009	0,025
-608,444	317,275	-0,047	-0,065
-607,430	800,000	-0,055	-0,118
-606,415	-39,588	-0,087	-0,033
-605,401	800,000	-0,026	-0,076
-604,386	129,403	-0,057	0,054
-603,371	-200,000	-0,000	-0,065
-602,357	-200,000	-0,003	0,076
-601,342	-69,391	-0,053	0,015
-600,328	280,162	-0,086	-0,113
-599,313	56,324	-0,089	-0,063
-598,298	-200,000	0,003	0,051
-597,284	-95,710	0,092	0,018
-596,269	-48,475	0,099	0,035
-595,255	140,053	0,041	0,040
-594,240	109,459	-0,064	0,056
-593,225	-16,745	0,141	-0,065
-592,211	-42,723	-0,120	0,045
-591,196	-73,122	-0,086	0,023
-590,182	227,423	0,093	-0,111
-589,167	-46,445	0,163	0,058
-588,152	319,315	0,046	-0,065
-587,138	-61,627	0,024	-0,007
-586,123	-200,000	-0,008	0,048
-585,109	111,078	0,093	-0,082
-584,094	426,735	-0,051	0,080
-583,079	-200,000	-0,015	0,060
-582,065	117,641	-0,049	0,044
-581,050	46,262	0,023	-0,015
-580,036	-200,000	0,009	0,082
-579,021	-91,223	-0,090	-0,019
-578,006	-200,000	-0,034	-0,155
-576,992	576,400	-0,067	-0,120
-575,977	-13,406	0,134	0,063
-574,963	165,158	0,021	0,022
-573,948	800,000	-0,029	0,075
-572,934	62,010	0,095	0,069
-571,919	800,000	-0,016	0,035
-570,904	562,401	-0,042	-0,075
-569,890	119,677	-0,105	-0,095
-568,875	646,582	-0,055	0,104
-567,861	13,816	0,102	0,058
-566,846	800,000	0,089	0,208
-565,831	800,000	0,039	-0,102
-564,817	29,398	0,070	-0,043
-563,802	-200,000	-0,028	0,123
-562,788	-200,000	0,033	0,110
-561,773	545,468	0,088	0,154
-560,758	35,394	0,091	0,058
-559,744	65,435	0,046	0,034
-558,729	409,828	-0,108	-0,167
-557,715	184,932	0,133	-0,144
-556,700	-5,437	-0,214	-0,107
-555,685	-94,461	-0,017	-0,003
-554,671	-52,309	-0,053	0,018
-553,656	368,134	0,075	-0,111
-552,642	-54,398	0,129	-0,042
-551,627	35,799	-0,076	-0,048
-550,612	-200,000	-0,034	-0,116
-549,598	-172,273	-0,123	0,003
-548,583	800,000	-0,032	-0,085
-547,569	-161,775	-0,092	-0,003
-546,554	-84,415	-0,126	0,029
-545,539	72,679	-0,104	0,079
-544,525	-2,629	-0,031	-0,016
-543,510	800,000	-0,055	-0,161
-542,496	-200,000	0,023	-0,149
-541,481	-200,000	-0,010	-0,078
-540,466	90,453	-0,023	-0,019
-539,452	-200,000	0,004	0,037
-538,437	586,806	0,074	0,134
-537,423	467,192	-0,033	0,054
-536,408	-200,000	-0,017	0,115
-535,393	-39,145	0,066	0,025
-534,379	-200,000	0,001	0,020
-533,364	800,000	0,041	0,098
-532,350	-36,099	-0,018	0,007
-531,335	-58,213	-0,065	0,020
-530,321	-200,000	0,012	0,130
-529,306	-200,000	-0,005	0,038
-528,291	91,396	-0,036	0,030
-527,277	-115,251	0,093	-0,013
-526,262	73,834	-0,128	-0,098
-525,248	800,000	-0,020	-0,050
-524,233	97,823	0,018	0,015
-523,218	-200,000	-0,039	-0,140
-522,204	-35,977	-0,056	-0,022
-521,189	95,877	-0,068	0,057
-520,175	-200,000	-0,007	0,033
-519,160	-34,346	-0,069	0,028
-518,145	800,000	-0,051	-0,107
-517,131	-44,025	0,122	0,044
-516,116	199,098	-0,061	-0,069
-515,102	555,443	-0,056	-0,098
-514,087	-26,226	0,050	0,021
-513,072	524,739	0,058	-0,099
-512,058	-80,193	0,037	0,009
-511,043	-200,000	-0,002	-0,008
-510,029	-200,000	0,040	0,138
-509,014	-200,000	-0,001	0,112
-507,999	-71,371	0,064	0,017
-506,985	800,000	0,039	0,108
-505,970	76,664	-0,064	0,049
-504,956	800,000	0,014	-0,036
-503,941	136,920	-0,125	0,119
-502,926	417,123	0,075	0,117
-501,912	800,000	-0,049	0,103
-500,897	800,000	0,019	0,059
-499,883	-200,000	0,004	-0,020
-498,868	-150,831	-0,028	0,002
-497,853	488,333	-0,034	0,057
-496,839	1,579	-0,033	-0,017
-495,824	282,512	-0,013	0,017
-494,810	-180,339	0,059	0,001
-493,795	-84,007	0,022	-0,005
-492,781	358,651	-0,117	0,171
-491,766	199,636	0,057	0,064
-490,751	26,017	0,035	-0,021
-489,737	192,484	-0,090	0,099
-488,722	-190,504	0,170	0,001
-487,708	-200,000	0,034	0,110
-486,693	62,212	-0,098	0,071
-485,678	-108,093	0,041	-0,006
-484,664	-61,519	-0,135	0,041
-483,649	94,276	0,124	-0,102
-482,635	-200,000	0,055	-0,191
-481,620	800,000	0,009	0,020
-480,605	62,263	0,093	-0,067
-479,591	73,266	-0,108	-0,082
-478,576	115,783	-0,066	0,059
-477,562	-126,247	0,154	-0,016
-476,547	800,000	-0,021	0,053
-475,532	120,531	-0,018	0,016
-474,518	-200,000	0,026	-0,147
-473,503	-142,073	0,097	-0,007
-472,489	800,000	-0,016	-0,034
-471,474	-9,801	-0,040	0,019
-470,459	-200,000	0,001	-0,050
-469,445	-200,000	-0,021	-0,148
-468,430	800,000	0,018	-0,048
-467,416	-164,652	0,098	0,003
-466,401	23,706	0,139	0,083
-465,386	734,322	-0,009	0,017
-464,372	28,765	0,099	0,061
-463,357	-152,006	0,151	-0,008
-462,343	-200,000	-0,009	-0,086
-461,328	-200,000	-0,022	-0,075
-460,313	-200,000	-0,031	-0,109
-459,299	800,000	-0,031	0,092
-458,284	74,215	0,123	0,094
-457,270	-200,000	-0,016	0,077
-456,255	-22,685	0,087	0,038
-455,241	31,366	-0,121	0,076
-454,226	-9,911	0,045	0,022
-453,211	237,640	-0,033	-0,040
-452,197	653,744	-0,042	0,078
-451,182	-63,927	0,042	0,012
-450,168	-44,323	0,102	0,037
-449,153	-146,513	-0,069	-0,004
-448,138	269,709	-0,034	0,044
-447,124	-102,539	-0,066	0,011
-446,109	114,705	-0,117	0,104
-445,095	800,000	-0,033	-0,071
-444,080	800,000	0,046	0,134
-443,065	-119,210	-0,017	0,002
-442,051	-200,000	-0,012	-0,042
-441,036	-74,244	-0,128	-0,033
-440,022	-88,285	-0,033	-0,007
-439,007	-200,000	0,007	-0,040
-437,992	107,107	0,116	0,100
-436,978	338,861	0,082	0,116
-435,963	-200,000	0,008	0,080
-434,949	-200,000	0,017	0,131
-433,934	-79,748	-0,057	-0,014
-432,919	-75,173	-0,162	0,042
-431,905	-78,740	0,065	-0,016
-430,890	800,000	0,099	0,229
-429,876	57,581	0,052	0,037
-428,861	-200,000	0,025	0,094
-427,846	-200,000	0,018	-0,082
-426,832	355,446	0,064	-0,093
-425,817	-74,182	-0,085	0,022
-424,803	23,776	-0,089	-0,053
-423,788	-28,278	0,125	-0,052
-422,773	-8,214	-0,046	0,023
-421,759	-200,000	0,011	-0,069
-420,744	800,000	0,033	-0,083
-419,730	73,451	-0,153	-0,116
-418,715	-78,031	0,072	-0,018
-417,701	20,313	0,142	-0,083
-416,686	-168,104	0,081	-0,002
-415,671	112,472	0,042	0,037
-414,657	800,000	-0,030	0,093
-413,642	95,812	0,029	0,024
-412,628	257,744	-0,021	-0,026
-411,613	-17,525	0,145	0,066
-410,598	186,072	0,046	0,050
-409,584	704,928	0,033	0,064
-408,569	800,000	-0,005	0,013
-407,555	-47,930	0,142	0,049
-406,540	203,435	0,007	0,008
-405,525	226,015	0,031	-0,037
-404,511	-200,000	-0,031	-0,139
-403,496	16,586	0,055	0,032
-402,482	87,681	-0,018	0,014
-401,467	-121,960	0,144	-0,017
-400,452	-73,295	0,167	-0,044
-399,438	-157,998	-0,111	0,005
-398,423	-200,000	0,021	0,087
-397,409	800,000	0,018	-0,044
-396,394	-92,128	0,096	0,019
-395,379	-87,412	-0,136	0,030
-394,365	-96,836	0,162	-0,031
-393,350	68,010	0,057	-0,042
-392,336	314,527	0,052	0,071
-391,321	444,774	-0,089	-0,142
-390,306	158,838	-0,011	0,011
-389,292	184,051	-0,064	0,069
-388,277	-200,000	-0,012	-0,055
-387,263	800,000	0,003	0,010
-386,248	561,314	0,053	0,094
-385,233	169,553	-0,071	0,073
-384,219	-200,000	0,034	-0,126
-383,204	-116,491	0,080	0,011
-382,190	158,101	-0,111	-0,112
-381,175	164,286	0,079	-0,081
-380,160	-68,121	-0,090	0,025
-379,146	-14,559	-0,096	-0,044
-378,131	-68,650	-0,051	-0,014
-377,117	-200,000	0,005	0,024
-376,102	8,819	0,093	0,051
-375,088	-92,898	-0,229	0,046
-374,073	212,503	-0,006	-0,006
-373,058	51,080	0,085	0,058
-372,044	-185,045	-0,100	0,001
-371,029	-89,314	0,014	-0,003
-370,015	-29,957	0,045	0,018
-369,000	195,902	-0,054	-0,060
-367,985	-107,622	-0,123	0,019
-366,971	-200,000	0,006	0,043
-365,956	163,571	0,075	-0,077
-364,942	-84,014	0,115	-0,026
-363,927	-169,723	-0,083	-0,002
-362,912	800,000	-0,026	-0,081
-361,898	-200,000	0,015	-0,151
-360,883	87,620	0,022	-0,018
-359,869	168,270	-0,076	0,078
-358,854	800,000	0,034	0,074
-357,839	144,510	0,032	0,031
-356,825	-35,297	0,128	0,050
-355,810	51,178	0,097	-0,067
-354,796	-200,000	0,069	-0,225
-353,781	-147,284	0,111	0,007
-352,766	800,000	-0,042	-0,092
-351,752	5,022	-0,094	0,050
-350,737	159,118	0,096	0,096
-349,723	-152,604	0,098	0,005
-348,708	-148,833	0,073	-0,004
-347,693	-81,701	0,050	-0,012
-346,679	17,108	-0,076	0,044
-345,664	37,973	-0,034	0,022
-344,650	249,296	0,076	0,093
-343,635	680,504	-0,041	0,078
-342,620	800,000	-0,019	-0,047
-341,606	-97,698	0,098	0,018
-340,591	800,000	-0,016	-0,042
-339,577	-36,260	-0,096	0,037
-338,562	-181,284	0,054	-0,001
-337,548	-119,874	-0,061	0,007
-336,533	144,868	0,069	0,066
-335,518	157,165	-0,051	0,051
-334,504	89,408	0,092	-0,074
-333,489	30,032	-0,131	-0,081
-332,475	84,675	-0,029	0,023
-331,460	-200,000	-0,053	0,171
-330,445	281,154	0,034	0,044
-329,431	-46,863	-0,157	-0,055
-328,416	-200,000	0,009	0,129
-327,402	-200,000	0,012	-0,055
-326,387	36,464	0,065	0,041
-325,372	800,000	0,039	-0,116
-324,358	699,194	-0,050	0,095
-323,343	339,823	-0,057	0,081
-322,329	230,638	-0,033	0,039
-321,314	-148,117	0,156	0,009
-320,299	-200,000	-0,014	0,062
-319,285	117,132	-0,106	0,094
-318,270	356,365	0,044	-0,064
-317,256	-13,347	-0,098	-0,046
-316,241	-200,000	0,024	-0,150
-315,226	91,341	0,013	0,011
-314,212	-200,000	0,030	0,113
-313,197	28,228	0,131	0,080
-312,183	-106,664	-0,202	0,032
-311,168	-200,000	0,007	-0,085
-310,153	184,665	-0,031	-0,033
-309,139	13,520	-0,103	-0,058
-308,124	425,950	0,043	-0,067
-307,110	10,701	0,044	-0,024
-306,095	232,483	0,092	0,110
-305,080	-200,000	0,005	-0,055
-304,066	800,000	0,031	0,063
-303,051	-159,581	0,131	-0,005
-302,037	-200,000	0,005	-0,030
-301,022	90,208	0,163	-0,132
-300,008	-150,891	0,144	-0,008
-298,993	-69,358	0,012	0,003
-297,978	-200,000	-0,017	-0,070
-296,964	-200,000	-0,014	-0,091
-295,949	800,000	-0,033	-0,095
-294,935	-95,964	-0,087	-0,017
-293,920	-200,000	-0,028	-0,097
-292,905	-12,709	0,102	-0,048
-291,891	-155,213	0,123	-0,006
-290,876	-167,966	0,087	0,002
-289,862	142,265	0,059	-0,057
-288,847	-62,978	0,055	0,016
-287,832	192,592	-0,061	-0,067
-286,818	106,242	-0,062	0,053
-285,803	-200,000	0,003	-0,117
-284,789	-104,799	0,129	-0,021
-283,774	800,000	-0,045	-0,123
-282,759	800,000	-0,029	-0,079
-281,745	-188,544	-0,073	-0,001
-280,730	-89,516	-0,068	0,014
-279,716	-68,482	-0,062	-0,017
-278,701	800,000	0,016	0,040
-277,686	-149,014	0,140	-0,008
-276,672	800,000	0,025	-0,061
-275,657	257,339	-0,071	0,088
-274,643	-200,000	0,004	-0,125
-273,628	-200,000	-0,018	-0,098
-272,613	421,814	0,066	0,102
-271,599	-120,017	0,108	-0,013
-270,584	48,864	0,078	0,053
-269,570	-0,919	-0,023	-0,012
-268,555	-200,000	-0,002	0,049
-267,540	484,828	-0,059	-0,097
-266,526	498,708	-0,035	-0,058
-265,511	422,971	0,024	-0,038
-264,497	80,348	-0,049	-0,038
-263,482	-200,000	0,020	-0,119
-262,467	124,523	-0,095	-0,086
-261,453	800,000	-0,017	-0,053
-260,438	-200,000	-0,029	-0,126
-259,424	20,108	-0,036	0,021
-258,409	-42,763	0,092	-0,033
-257,395	800,000	-0,020	0,045
-256,380	800,000	0,046	0,129
-255,365	103,012	-0,056	-0,047
-254,351	716,512	0,032	-0,062
-253,336	255,762	0,041	0,051
-252,322	438,909	-0,045	-0,071
-251,307	-59,087	0,107	0,033
-250,292	207,012	-0,033	-0,037
-249,278	-90,332	0,139	0,029
-248,263	145,282	0,158	0,152
-247,249	656,652	-0,055	-0,102
-246,234	-200,000	0,026	-0,132
-245,219	59,028	0,098	0,069
-244,205	539,701	-0,032	0,055
-243,190	178,044	-0,055	0,058
-242,176	-200,000	0,023	0,097
-241,161	230,144	0,027	-0,032
-240,146	-150,359	0,186	0,010
-239,132	145,990	0,084	-0,082
-238,117	191,153	-0,059	-0,064
-237,103	-141,654	-0,122	0,009
-236,088	-162,389	0,110	-0,004
-235,073	800,000	0,031	0,084
-234,059	-200,000	-0,011	0,072
-233,044	-33,537	0,018	0,007
-232,030	-200,000	-0,015	-0,072
-231,015	-65,553	-0,168	0,048
-230,000	-114,371	-0,041	-0,006
-228,986	-93,257	-0,100	-0,020
-227,971	172,151	0,077	0,080
-226,957	-53,338	0,025	-0,008
-225,942	-82,671	0,108	0,025
-224,927	395,735	0,083	0,125
-223,913	198,405	0,074	0,082
-222,898	800,000	-0,085	-0,206
-221,884	650,136	-0,052	-0,097
-220,869	-200,000	0,001	0,028
-219,855	-200,000	0,005	0,023
-218,840	-188,556	-0,012	-0,000
-217,825	-30,582	-0,080	0,033
-216,811	-69,801	-0,205	-0,056
-215,796	-38,061	-0,117	-0,045
-214,782	-151,593	-0,101	0,005
-213,767	-107,963	0,175	-0,027
-212,752	-200,000	-0,006	0,034
-211,738	-200,000	0,012	0,064
-210,723	136,172	-0,069	-0,065
-209,709	86,355	0,019	-0,015
-208,694	-84,181	0,044	-0,010
-207,679	28,342	0,074	-0,045
-206,665	-41,420	0,135	0,050
-205,650	-200,000	0,020	0,262
-204,636	25,984	-0,100	0,060
-203,621	28,511	0,042	-0,025
-202,606	191,701	-0,103	0,112
-201,592	-171,767	-0,106	-0,002
-200,577	24,207	-0,182	-0,108
-199,563	-55,263	0,124	-0,040
-198,548	-200,000	0,014	-0,064
-197,533	135,530	-0,120	0,113
-196,519	2,352	-0,068	-0,035
-195,504	239,654	-0,081	0,097
-194,490	-200,000	0,002	-0,041
-193,475	331,180	-0,069	0,096
-192,460	-142,515	0,061	0,004
-191,446	543,891	-0,018	0,031
-190,431	614,315	-0,100	0,180
-189,417	22,431	-0,104	-0,061
-188,402	223,884	0,053	0,062
-187,387	170,514	0,096	-0,099
-186,373	242,340	-0,032	-0,039
-185,358	347,703	0,073	-0,104
-184,344	545,499	-0,044	-0,076
-183,329	-200,000	-0,021	-0,108
-182,315	-15,699	-0,050	0,023
-181,300	320,598	-0,031	-0,043
-180,285	-94,383	0,050	-0,010
-179,271	-82,720	-0,178	0,041
-178,256	544,448	-0,027	-0,047
-177,242	800,000	-0,033	0,072
-176,227	437,692	-0,082	0,130
-175,212	-102,915	0,054	0,009
-174,198	-200,000	0,005	0,105
-173,183	-122,693	-0,154	-0,018
-172,169	382,857	0,066	-0,097
-171,154	-200,000	0,009	-0,132
-170,139	-91,268	-0,071	0,014
-169,125	295,978	-0,074	0,098
-168,110	752,937	0,093	0,182
-167,096	800,000	-0,043	0,095
-166,081	-200,000	-0,018	0,061
-165,066	-88,854	-0,084	0,018
-164,052	800,000	-0,035	0,078
-163,037	297,939	-0,036	0,047
-162,023	316,515	0,047	0,063
-161,008	108,589	0,016	-0,014
-159,993	306,771	0,094	-0,126
-158,979	-36,177	-0,126	-0,049
-157,964	327,115	0,033	-0,045
-156,950	245,244	-0,117	0,141
-155,935	-133,000	-0,018	-0,002
-154,920	413,559	0,039	-0,060
-153,906	540,565	0,054	0,092
-152,891	-200,000	0,021	-0,110
-151,877	152,380	-0,100	-0,098
-150,862	-41,150	-0,152	-0,056
-149,847	-200,000	-0,017	-0,068
-148,833	800,000	0,029	-0,078
-147,818	-200,000	0,012	-0,163
-146,804	-90,244	0,129	0,027
-145,789	-200,000	0,014	0,076
-144,775	-99,795	-0,097	0,017
-143,760	473,360	-0,066	-0,107
-142,745	-200,000	0,022	-0,117
-141,731	-18,497	0,084	-0,038
-140,716	112,841	0,103	0,089
-139,702	-52,450	-0,177	0,059
-138,687	-35,201	0,081	0,031
-137,672	-200,000	-0,011	0,130
-136,658	800,000	-0,026	-0,057
-135,643	-86,701	-0,057	-0,013
-134,629	391,329	0,020	-0,030
-133,614	249,383	-0,037	0,046
-132,599	110,626	0,091	0,078
-131,585	-117,351	-0,024	-0,003
-130,570	211,909	-0,039	0,044
-129,556	-41,616	-0,191	0,070
-128,541	-200,000	-0,036	-0,124
-127,526	43,979	0,023	0,015
-126,512	-93,696	0,080	0,016
-125,497	-37,537	-0,133	-0,051
-124,483	37,211	0,075	0,048
-123,468	622,588	-0,026	-0,046
-122,453	800,000	0,041	-0,115
-121,439	181,873	-0,108	-0,114
-120,424	-79,705	0,073	0,017
-119,410	-82,443	0,052	0,012
