DTS Sentinel unit serial number:	SN410029Multiplexer serial number:	ORYXHardware model number:	OX2-SRSoftware version number:	ORYX F/W v4,00 Oryx Data Collector v3.7.2.0data status	okinstallation	B6 Nyhavnadifferential loss correction	single-endedforward channel	channel 2reverse channel	N/Adate	2023/12/09time	04:55:08forward acquisition time	300,00reverse acquisition time	0,00gamma	499,1914k internal	0,3145k external	0,3145temperature offset calibration	1,0000default loss term (dB/km)	0,3820temperature slope calibration	1,0000multiplexer offset coefficient	1,0000multiplexer slope coefficient	1,0000fibre end	0,00T internal ref (°C)	17,45T ext. ref 1 (°C)	1,99T ext. ref 2 (°C)	2,01length (m)	temperature (°C)	Stokes	anti-Stokes-744,400	-200,000	0,016	0,092
-743,385	-137,338	-0,258	-0,021
-742,371	-8,608	0,088	-0,044
-741,356	-33,307	-0,124	0,051
-740,342	-200,000	-0,021	0,136
-739,327	-176,166	-0,505	0,010
-738,312	15,100	0,063	0,037
-737,298	-123,974	-0,201	0,023
-736,283	-147,396	0,131	0,008
-735,269	-10,394	-0,283	0,138
-734,254	-200,000	0,020	0,088
-733,239	-45,654	-0,494	-0,180
-732,225	-79,611	0,193	0,048
-731,210	-32,266	0,132	0,054
-730,196	233,455	0,066	-0,081
-729,181	800,000	-0,027	0,058
-728,167	41,679	0,095	-0,064
-727,152	800,000	-0,026	-0,081
-726,137	217,844	-0,068	-0,080
-725,123	-200,000	-0,010	0,055
-724,108	181,938	0,005	0,005
-723,094	-200,000	-0,006	-0,121
-722,079	291,673	0,032	0,044
-721,064	240,528	0,072	-0,089
-720,050	800,000	0,028	0,061
-719,035	31,296	-0,090	0,057
-718,021	-145,780	-0,067	0,004
-717,006	-200,000	0,029	-0,190
-715,991	120,186	0,117	-0,107
-714,977	-192,278	-0,108	0,001
-713,962	800,000	-0,014	0,030
-712,948	-15,228	0,059	0,028
-711,933	194,323	0,078	-0,087
-710,918	29,485	0,052	-0,033
-709,904	157,102	-0,102	-0,104
-708,889	-53,317	-0,113	-0,038
-707,875	-200,000	-0,009	-0,082
-706,860	-98,065	-0,114	-0,022
-705,845	89,648	0,030	-0,025
-704,831	-109,441	0,084	-0,013
-703,816	136,614	-0,044	-0,042
-702,802	-70,689	-0,218	0,060
-701,787	96,055	-0,104	-0,088
-700,772	-200,000	0,019	0,105
-699,758	-140,742	0,085	0,006
-698,743	-200,000	-0,018	0,242
-697,729	-200,000	-0,010	-0,062
-696,714	76,919	0,024	0,018
-695,699	22,798	-0,144	-0,087
-694,685	66,644	-0,033	0,024
-693,670	-200,000	-0,105	0,000
-692,656	8,571	0,112	-0,062
-691,641	161,808	-0,064	-0,066
-690,627	477,364	-0,051	-0,085
-689,612	800,000	-0,018	-0,047
-688,597	-118,842	-0,074	0,009
-687,583	-200,000	0,008	-0,233
-686,568	-200,000	-0,017	-0,079
-685,554	-59,176	-0,026	-0,008
-684,539	-200,000	0,008	0,058
-683,524	15,083	-0,063	0,036
-682,510	-200,000	-0,003	0,026
-681,495	60,978	0,050	0,037
-680,481	117,906	-0,088	0,080
-679,466	-200,000	0,033	0,120
-678,451	167,063	-0,050	0,052
-677,437	800,000	-0,086	-0,206
-676,422	583,071	-0,011	-0,020
-675,408	-200,000	0,001	0,104
-674,393	-108,785	-0,067	0,010
-673,378	60,147	-0,045	0,033
-672,364	114,429	-0,045	0,041
-671,349	-200,000	-0,010	-0,060
-670,335	-200,000	0,008	-0,050
-669,320	71,163	-0,072	0,055
-668,305	-200,000	-0,003	-0,063
-667,291	-95,195	-0,072	0,014
-666,276	279,531	0,040	-0,053
-665,262	194,102	-0,064	-0,072
-664,247	800,000	0,036	-0,107
-663,232	156,938	0,048	-0,049
-662,218	-53,925	-0,053	0,018
-661,203	800,000	0,048	0,131
-660,189	-78,086	-0,119	0,030
-659,174	800,000	0,033	-0,068
-658,159	669,528	0,022	-0,042
-657,145	-151,281	-0,126	-0,007
-656,130	544,790	0,079	-0,141
-655,116	10,059	-0,061	-0,034
-654,101	-71,098	0,061	0,017
-653,086	-128,701	0,122	-0,013
-652,072	-200,000	-0,015	0,051
-651,057	-44,347	-0,150	-0,055
-650,043	5,133	-0,087	0,047
-649,028	9,446	-0,038	0,021
-648,014	-200,000	0,006	0,055
-646,999	-62,153	0,086	0,026
-645,984	-15,958	-0,099	0,046
-644,970	800,000	-0,033	0,098
-643,955	800,000	0,034	0,073
-642,941	48,888	-0,110	0,076
-641,926	359,828	-0,079	-0,118
-640,911	233,221	0,088	-0,107
-639,897	800,000	0,007	-0,018
-638,882	561,551	0,034	0,060
-637,868	33,136	0,023	-0,015
-636,853	-200,000	0,022	-0,102
-635,838	17,221	-0,115	-0,067
-634,824	233,164	0,055	0,067
-633,809	-110,576	-0,028	0,004
-632,795	-200,000	-0,003	-0,019
-631,780	149,678	-0,054	0,054
-630,765	-200,000	0,022	-0,112
-629,751	-45,908	0,077	-0,028
-628,736	-150,325	-0,135	-0,008
-627,722	139,798	-0,039	0,038
-626,707	-46,469	0,113	0,041
-625,692	-200,000	-0,014	0,100
-624,678	95,813	0,044	0,037
-623,663	-200,000	-0,196	0,000
-622,649	-200,000	-0,028	-0,128
-621,634	738,649	-0,087	-0,173
-620,619	-200,000	0,017	-0,137
-619,605	-200,000	-0,003	0,018
-618,590	28,077	-0,067	-0,041
-617,576	227,370	0,028	0,033
-616,561	800,000	0,049	-0,137
-615,546	-174,966	-0,130	-0,003
-614,532	800,000	-0,045	0,111
-613,517	328,945	-0,063	0,089
-612,503	800,000	-0,060	-0,169
-611,488	527,152	0,047	-0,082
-610,474	-96,285	-0,068	-0,013
-609,459	-200,000	0,010	0,066
-608,444	18,921	0,065	-0,038
-607,430	53,254	-0,075	-0,052
-606,415	661,555	0,008	-0,014
-605,401	-200,000	-0,025	-0,111
-604,386	-165,327	0,055	-0,002
-603,371	70,840	0,133	0,101
-602,357	-200,000	0,000	-0,043
-601,342	-69,090	-0,083	0,023
-600,328	535,831	-0,039	0,069
-599,313	-69,292	0,113	-0,032
-598,298	-76,423	-0,062	-0,016
-597,284	-96,933	0,143	0,027
-596,269	-200,000	0,003	0,055
-595,255	800,000	0,011	0,030
-594,240	800,000	0,054	-0,120
-593,225	800,000	-0,026	-0,064
-592,211	-200,000	-0,016	-0,132
-591,196	-0,384	-0,045	0,023
-590,182	367,420	-0,044	0,065
-589,167	10,364	-0,040	-0,022
-588,152	6,343	-0,019	0,010
-587,138	-102,041	0,086	-0,015
-586,123	413,977	-0,085	-0,133
-585,109	-48,088	0,006	-0,002
-584,094	41,553	0,031	-0,021
-583,079	800,000	-0,017	0,040
-582,065	-29,351	-0,084	-0,035
-581,050	800,000	0,050	-0,112
-580,036	-200,000	0,007	0,197
-579,021	593,967	-0,080	0,146
-578,006	33,140	-0,136	0,087
-576,992	631,280	0,014	-0,026
-575,977	-114,350	-0,113	0,016
-574,963	-200,000	0,012	-0,050
-573,948	104,555	-0,032	-0,027
-572,934	91,058	-0,100	0,082
-571,919	-191,943	-0,093	0,001
-570,904	109,825	-0,087	-0,076
-569,890	-200,000	0,026	-0,113
-568,875	800,000	0,026	-0,054
-567,861	-86,836	0,116	0,026
-566,846	-134,948	0,036	0,003
-565,831	12,882	-0,085	-0,048
-564,817	-200,000	0,004	-0,114
-563,802	404,666	0,125	-0,195
-562,788	59,270	-0,073	0,053
-561,773	8,287	0,119	0,066
-560,758	-149,152	-0,086	-0,005
-559,744	-200,000	-0,015	0,197
-558,729	-113,535	-0,121	-0,017
-557,715	29,215	-0,151	-0,094
-556,700	-200,000	-0,000	-0,186
-555,685	569,681	-0,016	0,029
-554,671	-13,790	0,064	0,030
-553,656	-89,487	0,052	-0,011
-552,642	-13,301	0,110	-0,052
-551,627	-168,898	0,100	0,003
-550,612	-91,505	0,075	-0,016
-549,598	221,884	-0,114	0,135
-548,583	-38,180	-0,100	0,039
-547,569	800,000	0,018	-0,052
-546,554	-47,675	-0,040	-0,014
-545,539	-200,000	-0,007	0,085
-544,525	-93,064	-0,015	0,003
-543,510	42,524	-0,056	-0,038
-542,496	125,807	-0,027	-0,025
-541,481	26,355	0,049	0,030
-540,466	481,348	-0,054	-0,090
-539,452	-103,377	-0,149	-0,026
-538,437	116,347	0,161	-0,145
-537,423	800,000	-0,038	-0,124
-536,408	-2,697	-0,083	0,043
-535,393	-85,277	-0,160	-0,037
-534,379	-190,015	-0,106	0,001
-533,364	93,165	-0,029	-0,024
-532,350	-144,501	0,150	0,010
-531,335	211,763	-0,059	0,069
-530,321	282,119	-0,051	0,067
-529,306	539,742	-0,025	-0,044
-528,291	600,116	0,054	-0,100
-527,277	-185,786	-0,021	-0,000
-526,262	601,015	-0,063	-0,115
-525,248	-200,000	0,015	0,078
-524,233	288,577	0,056	-0,075
-523,218	254,469	0,053	-0,067
-522,204	96,484	-0,126	0,106
-521,189	-70,425	0,114	-0,031
-520,175	-200,000	0,013	0,042
-519,160	442,459	0,029	0,047
-518,145	550,325	0,094	0,166
-517,131	386,669	0,081	0,122
-516,116	137,395	0,073	-0,070
-515,102	-200,000	-0,033	-0,135
-514,087	-167,370	0,131	-0,004
-513,072	-22,398	0,023	-0,010
-512,058	-107,874	-0,044	-0,007
-511,043	800,000	0,036	-0,105
-510,029	-114,741	0,223	0,031
-509,014	-42,122	-0,108	0,040
-507,999	-200,000	0,021	-0,109
-506,985	196,939	-0,032	0,036
-505,970	800,000	0,037	0,077
-504,956	130,781	-0,075	-0,071
-503,941	434,448	-0,029	-0,047
-502,926	800,000	-0,067	-0,158
-501,912	-200,000	0,002	-0,027
-500,897	239,657	0,031	-0,038
-499,883	-200,000	-0,009	-0,066
-498,868	-30,253	-0,110	0,045
-497,853	253,250	0,037	0,047
-496,839	576,274	0,025	0,045
-495,824	212,049	0,042	0,048
-494,810	44,532	0,118	0,079
-493,795	201,602	0,107	-0,121
-492,781	-125,572	0,136	-0,015
-491,766	53,679	0,046	-0,032
-490,751	43,031	-0,126	-0,084
-489,737	-200,000	-0,010	-0,063
-488,722	13,584	-0,022	-0,012
-487,708	558,488	0,022	0,039
-486,693	9,094	-0,019	-0,010
-485,678	-101,851	-0,099	0,017
-484,664	657,166	0,040	-0,075
-483,649	73,144	-0,081	-0,062
-482,635	71,548	0,112	-0,085
-481,620	664,144	0,028	-0,052
-480,605	800,000	0,069	-0,160
-479,591	142,262	0,191	0,186
-478,576	-28,227	-0,069	0,029
-477,562	-200,000	-0,024	-0,118
-476,547	-115,394	0,062	0,009
-475,532	-99,357	0,052	-0,010
-474,518	456,185	-0,032	0,052
-473,503	-200,000	-0,009	0,082
-472,489	156,948	-0,079	0,081
-471,474	-34,791	0,037	-0,015
-470,459	679,416	0,026	0,050
-469,445	-200,000	-0,008	-0,028
-468,430	81,623	-0,068	-0,053
-467,416	-200,000	-0,003	-0,058
-466,401	251,402	0,074	0,093
-465,386	138,222	0,036	0,035
-464,372	-100,675	-0,101	-0,018
-463,357	800,000	-0,041	-0,118
-462,343	70,823	-0,008	0,006
-461,328	102,990	0,064	0,055
-460,313	-54,104	-0,032	-0,011
-459,299	26,009	-0,075	-0,046
-458,284	-200,000	-0,012	0,160
-457,270	800,000	-0,046	0,125
-456,255	424,247	0,010	-0,016
-455,241	-200,000	0,005	0,024
-454,226	-7,888	0,123	-0,061
-453,211	-200,000	-0,014	0,098
-452,197	63,378	-0,045	0,033
-451,182	294,623	-0,036	0,048
-450,168	-200,000	0,003	-0,125
-449,153	238,250	0,054	-0,065
-448,138	-4,242	-0,086	0,043
-447,124	309,761	0,027	-0,037
-446,109	-154,758	-0,093	-0,004
-445,095	800,000	-0,015	0,043
-444,080	-200,000	0,003	-0,101
-443,065	-200,000	-0,005	-0,177
-442,051	-10,079	0,109	-0,053
-441,036	-15,538	-0,143	-0,066
-440,022	800,000	-0,069	0,144
-439,007	-10,264	-0,064	0,031
-437,992	-71,870	0,099	-0,027
-436,978	-200,000	0,001	0,034
-435,963	-53,473	0,073	0,024
-434,949	49,303	0,089	0,061
-433,934	14,779	-0,121	0,069
-432,919	-200,000	0,005	0,022
-431,905	-200,000	0,007	-0,100
-430,890	-172,551	0,104	0,002
-429,876	-109,268	0,134	0,021
-428,861	-200,000	-0,019	0,123
-427,846	-200,000	0,032	0,135
-426,832	800,000	-0,039	-0,118
-425,817	-200,000	0,002	-0,107
-424,803	147,834	0,084	-0,083
-423,788	565,616	-0,036	0,064
-422,773	-140,384	0,152	0,011
-421,759	800,000	-0,069	0,142
-420,744	-0,771	0,270	0,139
-419,730	13,015	-0,084	-0,048
-418,715	-166,936	0,056	-0,002
-417,701	-200,000	0,011	0,106
-416,686	-112,843	-0,050	0,007
-415,671	800,000	-0,054	0,121
-414,657	-159,098	0,083	-0,003
-413,642	-60,617	0,104	-0,032
-412,628	167,050	-0,031	-0,033
-411,613	-200,000	0,042	0,148
-410,598	320,824	-0,078	-0,109
-409,584	421,285	0,053	0,084
-408,569	-14,781	0,103	0,048
-407,555	-200,000	-0,002	0,096
-406,540	-200,000	0,002	0,015
-405,525	-200,000	-0,017	-0,060
-404,511	132,449	-0,101	-0,095
-403,496	-200,000	-0,001	-0,111
-402,482	-200,000	-0,026	-0,116
-401,467	128,756	-0,013	0,012
-400,452	-200,000	0,015	0,051
-399,438	744,559	-0,015	0,029
-398,423	213,771	-0,014	0,017
-397,409	-200,000	-0,023	-0,080
-396,394	160,806	-0,032	-0,032
-395,379	133,435	0,085	0,081
-394,365	-172,276	-0,062	-0,001
-393,350	54,398	0,073	0,051
-392,336	-20,706	-0,072	-0,032
-391,321	176,383	0,033	0,035
-390,306	360,475	-0,056	-0,082
-389,292	241,578	-0,061	0,074
-388,277	-102,978	0,185	-0,032
-387,263	33,977	-0,063	0,040
-386,248	-91,173	0,017	-0,004
-385,233	331,853	0,049	0,069
-384,219	0,404	-0,056	0,029
-383,204	-115,171	0,132	0,018
-382,190	-6,008	-0,140	-0,070
-381,175	800,000	-0,021	-0,047
-380,160	6,423	0,117	-0,063
-379,146	-73,104	-0,167	0,044
-378,131	-90,586	0,080	0,017
-377,117	453,834	-0,029	-0,046
-376,102	-81,672	-0,059	0,014
-375,088	72,685	-0,063	0,048
-374,073	-200,000	-0,027	-0,136
-373,058	-41,533	0,095	0,035
-372,044	-36,507	-0,136	0,053
-371,029	18,969	0,111	0,065
-370,015	-200,000	0,021	-0,104
-369,000	357,492	0,047	-0,069
-367,985	338,496	-0,060	0,086
-366,971	800,000	-0,032	-0,072
-365,956	0,588	0,063	-0,033
-364,942	800,000	-0,060	0,147
-363,927	-200,000	-0,004	0,029
-362,912	67,206	-0,101	-0,075
-361,898	-94,915	0,064	0,013
-360,883	800,000	-0,032	-0,090
-359,869	-51,306	-0,098	0,033
-358,854	800,000	0,014	0,040
-357,839	-200,000	-0,005	0,066
-356,825	592,710	0,042	0,076
-355,810	800,000	-0,038	0,082
-354,796	-200,000	-0,050	0,196
-353,781	791,245	0,008	0,016
-352,766	-23,412	0,047	0,021
-351,752	-96,370	-0,068	0,013
-350,737	800,000	0,076	0,185
-349,723	-128,859	-0,172	0,017
-348,708	166,537	0,114	0,118
-347,693	44,661	-0,107	-0,072
-346,679	52,464	0,031	0,022
-345,664	-143,782	-0,191	-0,013
-344,650	-86,366	0,128	-0,029
-343,635	20,763	0,090	0,053
-342,620	-44,834	-0,019	-0,007
-341,606	45,992	0,143	0,097
-340,591	-200,000	-0,010	0,047
-339,577	-68,239	0,079	-0,022
-338,562	-14,892	-0,005	-0,002
-337,548	282,565	-0,061	0,080
-336,533	448,533	0,069	-0,111
-335,518	461,154	-0,033	0,053
-334,504	-200,000	0,001	0,120
-333,489	192,310	0,097	-0,107
-332,475	296,136	0,085	-0,114
-331,460	-157,437	0,105	0,005
-330,445	-200,000	-0,000	-0,069
-329,431	360,535	0,069	0,100
-328,416	-34,274	-0,017	0,007
-327,402	800,000	0,059	0,156
-326,387	16,833	0,101	0,058
-325,372	-103,685	-0,022	0,004
-324,358	-56,692	-0,057	0,018
-323,343	-176,811	0,073	-0,001
-322,329	408,090	-0,035	0,054
-321,314	192,626	-0,065	-0,072
-320,299	-200,000	0,017	0,116
-319,285	-136,914	-0,085	-0,007
-318,270	-200,000	-0,010	0,039
-317,256	-159,097	-0,082	0,003
-316,241	800,000	0,020	-0,047
-315,226	88,566	0,011	0,009
-314,212	800,000	-0,033	0,101
-313,197	249,691	0,120	0,149
-312,183	800,000	-0,054	0,120
-311,168	437,959	0,045	0,072
-310,153	-200,000	-0,029	0,112
-309,139	-200,000	0,021	0,171
-308,124	159,151	-0,091	0,092
-307,110	18,034	-0,031	0,018
-306,095	-138,307	-0,110	-0,009
-305,080	257,686	0,042	-0,052
-304,066	408,043	-0,075	0,116
-303,051	800,000	-0,050	0,116
-302,037	383,198	0,022	-0,033
-301,022	800,000	0,062	-0,134
-300,008	148,910	0,013	0,013
-298,993	-200,000	-0,019	0,158
-297,978	12,192	0,071	0,040
-296,964	-200,000	0,040	-0,184
-295,949	139,879	0,068	0,066
-294,935	-14,274	-0,108	-0,050
-293,920	3,911	0,067	0,035
-292,905	-200,000	0,000	0,080
-291,891	90,892	0,068	0,056
-290,876	291,362	0,088	0,117
-289,862	-200,000	-0,011	-0,094
-288,847	-110,939	-0,058	-0,009
-287,832	-110,225	0,084	-0,013
-286,818	27,265	-0,145	-0,088
-285,803	-78,038	-0,102	0,025
-284,789	-15,379	0,046	-0,021
-283,774	328,049	-0,066	0,093
-282,759	338,043	0,061	-0,087
-281,745	-110,247	-0,068	-0,010
-280,730	110,542	-0,028	0,024
-279,716	-72,056	0,045	-0,012
-278,701	-160,972	-0,037	0,001
-277,686	18,806	-0,060	-0,035
-276,672	-82,466	0,132	0,031
-275,657	-200,000	-0,006	-0,071
-274,643	800,000	-0,062	-0,135
-273,628	-200,000	-0,000	-0,005
-272,613	-200,000	-0,043	-0,174
-271,599	376,449	0,039	0,057
-270,584	800,000	0,055	0,116
-269,570	350,195	0,031	-0,045
-268,555	-200,000	0,033	0,112
-267,540	800,000	-0,021	0,047
-266,526	800,000	-0,031	0,078
-265,511	-61,966	-0,085	0,026
-264,497	800,000	0,028	-0,088
-263,482	-141,454	-0,009	0,001
-262,467	194,033	-0,051	0,056
-261,453	395,214	-0,106	0,162
-260,438	171,892	0,075	-0,079
-259,424	766,055	-0,023	-0,045
-258,409	-140,295	-0,091	0,007
-257,395	-47,546	0,076	0,027
-256,380	-200,000	0,006	0,033
-255,365	800,000	-0,033	0,069
-254,351	-8,782	0,041	0,020
-253,336	462,366	0,031	-0,051
-252,322	29,431	-0,071	0,044
-251,307	-119,116	-0,090	-0,011
-250,292	126,647	-0,030	0,028
-249,278	-167,726	0,165	-0,005
-248,263	-135,238	-0,076	0,007
-247,249	-37,265	0,083	0,032
-246,234	-43,355	0,111	0,041
-245,219	256,216	-0,102	-0,128
-244,205	800,000	-0,015	0,033
-243,190	151,534	-0,063	-0,062
-242,176	-58,619	0,055	0,017
-241,161	29,585	0,040	0,025
-240,146	-200,000	-0,000	-0,006
-239,132	-200,000	-0,031	-0,122
-238,117	-200,000	-0,001	0,088
-237,103	18,608	0,059	-0,034
-236,088	-71,798	-0,152	-0,041
-235,073	800,000	0,016	0,045
-234,059	800,000	-0,027	0,075
-233,044	-200,000	0,016	-0,110
-232,030	363,318	-0,060	-0,088
-231,015	303,317	0,082	-0,111
-230,000	53,603	0,032	0,022
-228,986	157,476	0,048	-0,048
-227,971	-200,000	0,035	0,131
-226,957	-94,265	0,142	0,028
-225,942	800,000	0,036	0,072
-224,927	-135,357	0,132	0,011
-223,913	-155,314	-0,021	-0,001
-222,898	0,735	0,068	-0,035
-221,884	-200,000	-0,007	-0,177
-220,869	-166,026	0,143	-0,004
-219,855	-58,309	0,059	0,019
-218,840	800,000	-0,041	0,103
-217,825	-167,917	-0,036	-0,001
-216,811	-23,382	-0,034	-0,015
-215,796	-200,000	-0,002	-0,040
-214,782	-200,000	0,034	0,111
-213,767	-67,822	-0,101	0,028
-212,752	90,687	0,115	0,094
-211,738	800,000	0,035	0,089
-210,723	138,550	-0,104	-0,099
-209,709	-85,568	0,082	-0,018
-208,694	-104,709	-0,051	-0,008
-207,679	-200,000	0,036	0,124
-206,665	-200,000	0,015	-0,192
-205,650	288,426	-0,022	0,030
-204,636	-200,000	-0,027	-0,178
-203,621	-154,548	-0,134	-0,006
-202,606	554,041	0,019	0,033
-201,592	-200,000	0,013	-0,062
-200,577	10,525	-0,098	-0,054
-199,563	208,263	-0,018	-0,020
-198,548	-75,983	-0,073	-0,019
-197,533	-96,557	0,112	-0,021
-196,519	-3,563	0,007	-0,003
-195,504	800,000	0,059	-0,153
-194,490	797,921	0,079	-0,158
-193,475	-200,000	-0,003	-0,023
-192,460	333,781	-0,023	-0,033
-191,446	78,067	0,154	-0,119
-190,431	-104,392	0,126	0,021
-189,417	54,231	-0,148	0,103
-188,402	-200,000	-0,026	-0,103
-187,387	451,612	-0,066	-0,106
-186,373	461,794	-0,056	-0,090
-185,358	370,162	-0,062	-0,091
-184,344	-200,000	-0,015	-0,070
-183,329	-21,165	-0,046	0,020
-182,315	-7,013	0,081	0,040
-181,300	91,930	-0,054	-0,044
-180,285	-200,000	-0,000	-0,106
-179,271	145,764	-0,068	0,066
-178,256	-117,064	-0,086	0,011
-177,242	800,000	0,051	0,112
-176,227	-200,000	0,004	0,040
-175,212	800,000	-0,032	0,087
-174,198	-35,091	0,085	0,033
-173,183	70,413	0,034	-0,025
-172,169	266,143	0,009	0,012
-171,154	3,122	-0,042	-0,022
-170,139	-28,456	0,046	0,019
-169,125	-160,788	0,166	0,006
-168,110	706,896	0,036	-0,069
-167,096	66,445	0,031	0,023
-166,081	-140,773	0,141	0,010
-165,066	-76,907	-0,079	0,020
-164,052	-17,197	0,090	-0,041
-163,037	-79,883	0,055	0,013
-162,023	154,590	-0,083	-0,083
-161,008	-200,000	0,056	0,211
-159,993	-133,438	-0,199	0,018
-158,979	-200,000	0,008	-0,037
-157,964	163,752	-0,106	-0,109
-156,950	-80,404	-0,109	0,026
-155,935	116,652	0,048	-0,042
-154,920	144,496	0,129	-0,125
-153,906	480,585	-0,046	0,076
-152,891	312,273	0,136	0,186
-151,877	176,028	-0,067	-0,071
-150,862	800,000	0,011	0,032
-149,847	12,390	-0,018	0,010
-148,833	201,122	-0,035	0,039
-147,818	115,681	0,052	-0,046
-146,804	121,706	0,124	-0,112
-145,789	-98,800	0,039	0,007
-144,775	15,871	-0,110	0,062
-143,760	96,350	-0,081	-0,067
-142,745	800,000	-0,051	-0,102
-141,731	202,443	-0,010	-0,011
-140,716	800,000	0,031	0,078
-139,702	432,277	0,092	0,144
-138,687	-101,374	-0,156	0,027
-137,672	-55,908	-0,061	0,020
-136,658	-191,657	-0,157	-0,001
-135,643	-200,000	0,002	-0,010
-134,629	-59,354	-0,105	-0,032
-133,614	-200,000	-0,001	0,038
-132,599	88,762	-0,096	-0,077
-131,585	549,093	0,022	0,038
-130,570	417,153	0,080	0,124
-129,556	183,412	0,067	-0,072
-128,541	13,185	-0,082	-0,046
-127,526	-132,042	-0,054	-0,005
-126,512	800,000	-0,018	0,052
-125,497	-200,000	0,013	0,111
-124,483	-200,000	-0,006	-0,080
-123,468	-197,897	0,050	0,000
-122,453	-200,000	-0,022	-0,089
-121,439	511,983	0,035	-0,060
-120,424	115,475	-0,067	-0,059
-119,410	347,621	0,049	-0,069
