DTS Sentinel unit serial number:	SN410029Multiplexer serial number:	ORYXHardware model number:	OX2-SRSoftware version number:	ORYX F/W v4,00 Oryx Data Collector v3.7.2.0data status	okinstallation	B6 Nyhavnadifferential loss correction	single-endedforward channel	channel 2reverse channel	N/Adate	2023/12/11time	01:25:08forward acquisition time	300,00reverse acquisition time	0,00gamma	499,1914k internal	0,3122k external	0,3122temperature offset calibration	1,0000default loss term (dB/km)	0,3820temperature slope calibration	1,0000multiplexer offset coefficient	1,0000multiplexer slope coefficient	1,0000fibre end	0,00T internal ref (°C)	22,12T ext. ref 1 (°C)	5,40T ext. ref 2 (°C)	5,44length (m)	temperature (°C)	Stokes	anti-Stokes-744,400	-98,719	0,215	0,041
-743,385	-65,199	-0,309	0,092
-742,371	-190,296	0,186	-0,001
-741,356	173,190	-0,157	0,169
-740,342	174,433	-0,037	-0,039
-739,327	-1,043	-0,178	0,094
-738,312	59,667	0,100	-0,074
-737,298	-139,246	-0,153	0,012
-736,283	-46,784	0,042	-0,015
-735,269	79,201	-0,263	0,210
-734,254	398,011	0,052	-0,082
-733,239	-137,218	-0,405	-0,034
-732,225	90,565	0,106	-0,089
-731,210	757,379	-0,010	0,021
-730,196	37,538	-0,062	-0,041
-729,181	-200,000	0,025	-0,154
-728,167	-81,150	0,141	-0,034
-727,152	800,000	0,043	0,091
-726,137	-200,000	-0,031	-0,165
-725,123	-96,996	-0,060	0,012
-724,108	-200,000	-0,015	-0,099
-723,094	-118,835	-0,076	0,010
-722,079	800,000	-0,046	-0,118
-721,064	744,353	0,015	0,031
-720,050	-16,756	-0,064	-0,030
-719,035	-79,555	-0,062	-0,016
-718,021	-150,339	0,057	-0,003
-717,006	11,944	-0,140	-0,080
-715,991	800,000	0,015	-0,042
-714,977	-65,052	0,043	-0,013
-713,962	694,758	-0,013	0,026
-712,948	-15,737	0,097	-0,046
-711,933	-108,760	-0,008	0,001
-710,918	800,000	-0,019	0,042
-709,904	370,055	-0,028	-0,042
-708,889	128,761	-0,109	-0,104
-707,875	-187,288	-0,179	0,002
-706,860	304,705	-0,138	-0,192
-705,845	96,829	-0,081	-0,069
-704,831	146,444	0,037	0,037
-703,816	-5,544	0,044	-0,022
-702,802	451,155	-0,130	-0,214
-701,787	27,910	-0,085	-0,053
-700,772	4,446	-0,169	0,092
-699,758	96,093	-0,024	0,020
-698,743	-200,000	-0,006	-0,076
-697,729	20,051	-0,041	0,024
-696,714	-10,474	0,029	0,014
-695,699	143,159	0,028	-0,027
-694,685	-56,778	-0,102	-0,033
-693,670	78,601	-0,114	-0,091
-692,656	124,321	-0,044	-0,041
-691,641	345,630	0,120	0,176
-690,627	-200,000	-0,018	0,078
-689,612	-48,396	-0,028	-0,010
-688,597	242,883	0,073	0,091
-687,583	800,000	0,054	-0,146
-686,568	64,911	-0,035	-0,026
-685,554	800,000	0,039	0,099
-684,539	-73,846	0,082	-0,022
-683,524	1,696	-0,064	-0,034
-682,510	-66,144	0,116	0,034
-681,495	-200,000	-0,002	-0,153
-680,481	-103,215	-0,104	0,018
-679,466	142,303	-0,010	-0,010
-678,451	529,770	0,028	-0,049
-677,437	800,000	0,016	-0,040
-676,422	-24,262	-0,129	-0,057
-675,408	62,641	-0,027	0,020
-674,393	71,831	0,128	0,099
-673,378	121,384	-0,159	-0,147
-672,364	255,641	-0,105	-0,135
-671,349	800,000	-0,049	-0,141
-670,335	-200,000	0,015	0,141
-669,320	-41,400	-0,067	-0,025
-668,305	800,000	-0,013	-0,034
-667,291	279,599	0,028	-0,037
-666,276	-152,374	-0,020	-0,001
-665,262	-84,597	-0,152	0,035
-664,247	-22,965	-0,106	0,047
-663,232	-23,795	-0,055	-0,024
-662,218	174,515	0,024	0,026
-661,203	126,375	-0,032	0,030
-660,189	138,716	-0,070	-0,068
-659,174	-29,527	0,117	-0,049
-658,159	800,000	0,005	-0,012
-657,145	57,246	0,108	-0,078
-656,130	89,795	-0,042	0,035
-655,116	-200,000	-0,087	0,000
-654,101	453,657	-0,048	-0,079
-653,086	-19,572	-0,067	0,031
-652,072	-69,282	0,196	0,056
-651,057	242,039	-0,092	-0,115
-650,043	-119,685	0,044	0,006
-649,028	800,000	-0,026	0,060
-648,014	144,358	0,054	0,053
-646,999	439,882	0,057	0,093
-645,984	405,650	-0,077	-0,121
-644,970	-200,000	-0,004	-0,038
-643,955	31,609	-0,122	0,078
-642,941	169,517	-0,073	-0,078
-641,926	135,687	0,041	-0,039
-640,911	92,797	0,102	0,085
-639,897	-200,000	0,006	-0,062
-638,882	-142,697	-0,019	-0,001
-637,868	-16,922	0,021	-0,010
-636,853	41,077	-0,068	-0,046
-635,838	-70,015	-0,109	-0,031
-634,824	387,808	-0,048	-0,073
-633,809	341,592	0,031	-0,046
-632,795	234,280	0,016	0,019
-631,780	-47,190	0,106	-0,038
-630,765	-19,722	-0,108	-0,049
-629,751	-200,000	0,006	0,059
-628,736	-114,288	-0,161	0,023
-627,722	-200,000	-0,018	-0,140
-626,707	-173,840	-0,152	0,003
-625,692	-77,312	0,082	-0,021
-624,678	186,823	-0,016	0,017
-623,663	-40,968	-0,045	-0,017
-622,649	-172,081	-0,093	0,002
-621,634	-171,164	0,126	-0,003
-620,619	800,000	-0,031	-0,073
-619,605	-51,248	0,062	-0,022
-618,590	-200,000	-0,001	0,047
-617,576	-200,000	-0,007	-0,040
-616,561	59,482	0,019	-0,014
-615,546	594,189	0,024	0,044
-614,532	800,000	-0,074	-0,153
-613,517	-0,697	-0,155	-0,081
-612,503	311,860	0,052	0,072
-611,488	249,442	-0,013	0,016
-610,474	444,171	-0,112	0,183
-609,459	800,000	0,023	-0,068
-608,444	49,845	-0,128	-0,089
-607,430	182,336	-0,022	-0,024
-606,415	741,402	0,027	-0,053
-605,401	-183,422	0,066	-0,001
-604,386	-151,589	0,069	0,004
-603,371	73,411	-0,156	0,121
-602,357	-153,432	0,080	-0,004
-601,342	-52,105	0,069	-0,024
-600,328	-92,738	0,076	-0,016
-599,313	-200,000	-0,005	0,030
-598,298	800,000	-0,038	-0,093
-597,284	275,957	-0,088	0,116
-596,269	800,000	-0,030	-0,080
-595,255	65,870	-0,057	0,043
-594,240	194,400	0,067	0,075
-593,225	-89,592	-0,096	-0,021
-592,211	-55,384	-0,104	-0,035
-591,196	-200,000	-0,005	0,133
-590,182	710,946	-0,008	-0,015
-589,167	37,363	0,123	0,080
-588,152	204,642	-0,043	-0,049
-587,138	-200,000	0,013	-0,049
-586,123	-18,134	-0,062	-0,029
-585,109	-200,000	0,066	-0,231
-584,094	195,148	-0,010	0,011
-583,079	94,358	0,053	0,045
-582,065	800,000	-0,012	0,024
-581,050	800,000	0,026	0,081
-580,036	-79,826	-0,028	0,007
-579,021	800,000	0,053	-0,109
-578,006	168,312	0,008	0,009
-576,992	-200,000	0,002	-0,083
-575,977	800,000	0,050	0,104
-574,963	291,754	-0,043	-0,058
-573,948	27,155	-0,133	0,083
-572,934	-200,000	-0,009	0,044
-571,919	-95,593	-0,053	-0,010
-570,904	62,461	-0,079	0,058
-569,890	102,787	0,133	0,116
-568,875	-78,782	0,226	-0,057
-567,861	-200,000	-0,007	-0,025
-566,846	97,637	0,176	0,149
-565,831	-200,000	-0,029	0,107
-564,817	437,128	-0,037	0,060
-563,802	318,329	0,026	-0,036
-562,788	-200,000	-0,028	0,130
-561,773	91,668	0,018	-0,015
-560,758	133,759	-0,056	0,054
-559,744	152,046	0,033	0,033
-558,729	-69,720	0,095	-0,027
-557,715	245,026	0,016	-0,020
-556,700	549,546	0,035	0,063
-555,685	800,000	-0,055	-0,113
-554,671	322,297	-0,055	-0,078
-553,656	-200,000	-0,073	0,000
-552,642	134,090	0,137	0,132
-551,627	-200,000	0,022	0,123
-550,612	-43,436	-0,117	-0,043
-549,598	90,106	-0,036	-0,030
-548,583	-99,777	0,044	-0,008
-547,569	-146,523	0,144	-0,009
-546,554	800,000	-0,093	0,213
-545,539	338,683	0,057	0,083
-544,525	2,133	-0,090	0,048
-543,510	405,974	0,039	-0,061
-542,496	800,000	0,016	-0,041
-541,481	16,636	-0,095	-0,055
-540,466	181,933	-0,032	0,034
-539,452	-129,414	0,145	0,015
-538,437	-200,000	0,040	0,171
-537,423	528,829	0,027	0,047
-536,408	-129,821	-0,081	-0,008
-535,393	-200,000	-0,091	0,000
-534,379	722,631	-0,019	-0,038
-533,364	-200,000	0,007	0,040
-532,350	-200,000	0,004	0,065
-531,335	-200,000	0,003	-0,012
-530,321	608,399	0,064	0,119
-529,306	154,873	0,067	-0,068
-528,291	-200,000	-0,010	-0,060
-527,277	-200,000	-0,008	0,127
-526,262	-200,000	-0,036	0,123
-525,248	595,515	0,060	0,111
-524,233	800,000	0,010	-0,026
-523,218	-200,000	-0,004	-0,025
-522,204	139,677	-0,081	0,079
-521,189	-200,000	-0,007	-0,024
-520,175	574,999	0,009	0,017
-519,160	60,539	-0,069	0,051
-518,145	-117,660	0,040	-0,005
-517,131	-84,724	0,073	0,017
-516,116	-138,452	0,064	-0,005
-515,102	36,959	0,112	0,073
-514,087	800,000	-0,018	-0,036
-513,072	-200,000	-0,002	0,154
-512,058	238,342	-0,037	0,045
-511,043	-200,000	-0,001	0,004
-510,029	800,000	0,071	0,229
-509,014	800,000	-0,029	0,088
-507,999	-30,800	-0,049	-0,020
-506,985	-200,000	-0,030	-0,104
-505,970	800,000	-0,053	-0,116
-504,956	483,927	-0,071	-0,119
-503,941	-74,037	-0,125	-0,033
-502,926	-176,379	0,102	-0,002
-501,912	-29,617	0,126	0,053
-500,897	276,778	-0,040	-0,052
-499,883	-200,000	0,003	-0,091
-498,868	-81,969	0,038	0,009
-497,853	518,315	0,021	-0,036
-496,839	-140,015	0,134	0,010
-495,824	273,011	-0,031	-0,040
-494,810	-200,000	0,010	-0,085
-493,795	-42,243	-0,062	-0,023
-492,781	353,698	0,041	0,060
-491,766	-133,844	-0,138	-0,012
-490,751	119,356	0,087	-0,079
-489,737	570,093	-0,046	-0,082
-488,722	33,108	0,036	0,023
-487,708	-60,194	-0,078	0,025
-486,693	800,000	0,013	-0,030
-485,678	-42,152	-0,131	0,049
-484,664	-171,009	-0,072	0,002
-483,649	142,386	-0,105	-0,103
-482,635	-92,926	0,063	0,013
-481,620	-58,322	0,066	0,021
-480,605	-92,060	0,076	0,016
-479,591	-136,313	0,161	0,014
-478,576	399,779	-0,075	0,116
-477,562	560,115	-0,044	-0,079
-476,547	156,965	-0,082	-0,084
-475,532	38,718	-0,053	0,035
-474,518	117,716	-0,057	-0,052
-473,503	-200,000	0,003	0,073
-472,489	-200,000	0,003	0,022
-471,474	-5,959	-0,107	0,054
-470,459	-91,409	-0,137	0,029
-469,445	-200,000	-0,014	-0,068
-468,430	-200,000	-0,002	0,054
-467,416	-40,534	0,173	-0,066
-466,401	-71,729	-0,045	-0,012
-465,386	-129,639	-0,076	-0,008
-464,372	177,968	0,049	-0,052
-463,357	-200,000	0,000	0,054
-462,343	242,058	0,044	0,054
-461,328	495,344	-0,058	-0,099
-460,313	-200,000	-0,010	0,044
-459,299	-54,905	-0,079	0,026
-458,284	-200,000	0,037	0,222
-457,270	210,151	-0,054	0,063
-456,255	121,247	0,020	-0,019
-455,241	-12,958	0,073	-0,035
-454,226	58,543	-0,069	0,050
-453,211	102,092	0,045	-0,039
-452,197	-78,525	0,074	0,018
-451,182	47,650	0,033	0,023
-450,168	800,000	-0,046	0,107
-449,153	748,918	-0,015	0,030
-448,138	513,813	-0,038	0,066
-447,124	-169,376	0,097	-0,003
-446,109	175,274	-0,144	-0,154
-445,095	91,405	0,038	-0,031
-444,080	383,836	0,013	-0,019
-443,065	-100,833	-0,161	-0,029
-442,051	-200,000	0,019	-0,074
-441,036	-108,619	-0,006	0,001
-440,022	-63,535	-0,135	0,041
-439,007	-200,000	-0,019	0,063
-437,992	643,924	0,003	-0,006
-436,978	-200,000	-0,024	0,182
-435,963	-200,000	-0,028	0,106
-434,949	338,656	0,117	-0,168
-433,934	-147,959	-0,110	-0,007
-432,919	292,260	-0,045	-0,061
-431,905	499,522	0,100	-0,171
-430,890	492,276	-0,023	0,039
-429,876	186,461	-0,017	-0,019
-428,861	174,712	-0,041	0,044
-427,846	19,524	0,072	-0,042
-426,832	-200,000	0,010	-0,087
-425,817	-83,722	-0,081	0,019
-424,803	-200,000	-0,003	-0,024
-423,788	-200,000	-0,021	-0,074
-422,773	85,593	0,056	-0,045
-421,759	-99,689	0,023	-0,004
-420,744	27,172	0,085	-0,053
-419,730	10,679	-0,100	-0,056
-418,715	111,684	0,094	-0,084
-417,701	159,232	-0,135	-0,139
-416,686	51,058	0,041	0,029
-415,671	5,147	0,063	-0,034
-414,657	136,352	0,038	0,036
-413,642	291,412	0,071	-0,095
-412,628	192,655	-0,014	0,015
-411,613	800,000	-0,057	0,124
-410,598	-81,762	-0,040	-0,010
-409,584	-82,985	0,120	0,028
-408,569	398,515	0,048	0,074
-407,555	1,338	0,037	0,019
-406,540	210,751	-0,076	0,088
-405,525	-117,376	-0,073	-0,010
-404,511	-200,000	-0,009	-0,107
-403,496	22,744	0,074	0,045
-402,482	143,811	0,066	-0,064
-401,467	17,884	0,030	0,018
-400,452	295,686	-0,040	0,055
-399,438	149,991	0,053	0,053
-398,423	-54,021	-0,128	-0,043
-397,409	-30,452	-0,019	-0,008
-396,394	-200,000	0,000	-0,078
-395,379	289,637	0,080	-0,108
-394,365	-74,238	-0,069	-0,018
-393,350	800,000	0,015	0,046
-392,336	-86,658	0,065	-0,015
-391,321	260,587	-0,036	-0,046
-390,306	117,526	-0,125	-0,113
-389,292	800,000	0,052	-0,135
-388,277	-200,000	-0,011	0,171
-387,263	33,774	0,158	0,101
-386,248	107,743	0,051	-0,044
-385,233	72,387	-0,047	-0,036
-384,219	-200,000	-0,017	-0,113
-383,204	380,379	0,084	-0,127
-382,190	677,336	-0,037	0,071
-381,175	-200,000	-0,032	0,139
-380,160	-200,000	0,021	-0,086
-379,146	800,000	0,060	0,152
-378,131	474,601	0,074	0,123
-377,117	800,000	0,022	-0,070
-376,102	54,316	-0,077	-0,054
-375,088	-185,190	-0,288	-0,003
-374,073	-106,868	0,013	-0,002
-373,058	-148,569	0,128	-0,008
-372,044	73,984	0,071	-0,055
-371,029	-96,010	0,099	-0,019
-370,015	-45,887	0,039	-0,014
-369,000	250,074	0,117	-0,146
-367,985	23,753	-0,017	-0,011
-366,971	-185,904	0,105	0,001
-365,956	135,232	0,020	-0,020
-364,942	46,866	0,136	0,092
-363,927	-83,688	0,105	0,024
-362,912	1,520	0,035	0,018
-361,898	82,991	0,099	-0,079
-360,883	500,531	-0,041	-0,070
-359,869	-153,757	-0,041	-0,002
-358,854	147,437	0,098	-0,097
-357,839	-200,000	-0,005	0,062
-356,825	-79,424	0,048	-0,012
-355,810	395,359	0,071	-0,108
-354,796	800,000	0,020	0,058
-353,781	-61,755	-0,054	-0,017
-352,766	657,647	0,078	0,148
-351,752	-200,000	0,007	0,129
-350,737	-200,000	0,006	-0,069
-349,723	25,041	0,075	-0,046
-348,708	-77,600	0,123	0,031
-347,693	-58,445	-0,073	0,023
-346,679	586,149	0,022	-0,040
-345,664	-200,000	-0,012	0,092
-344,650	800,000	0,011	-0,032
-343,635	-33,461	-0,088	0,036
-342,620	100,332	0,067	0,057
-341,606	-200,000	0,011	0,051
-340,591	800,000	-0,037	-0,083
-339,577	-6,621	-0,091	-0,045
-338,562	282,694	0,047	0,062
-337,548	82,826	0,148	0,118
-336,533	22,400	0,123	-0,074
-335,518	800,000	-0,043	0,111
-334,504	-200,000	0,038	-0,209
-333,489	-200,000	0,005	0,037
-332,475	-103,185	-0,047	-0,008
-331,460	319,891	0,032	0,044
-330,445	-140,016	0,039	0,003
-329,431	95,223	0,013	-0,011
-328,416	-73,785	0,024	0,006
-327,402	-200,000	0,000	-0,107
-326,387	-200,000	0,008	0,063
-325,372	800,000	-0,009	-0,022
-324,358	205,792	-0,023	0,026
-323,343	40,984	-0,016	-0,011
-322,329	543,734	-0,009	-0,016
-321,314	-86,662	0,075	-0,017
-320,299	-105,822	-0,021	0,003
-319,285	-38,737	0,109	-0,042
-318,270	-96,187	-0,185	0,036
-317,256	-111,388	0,070	-0,010
-316,241	800,000	-0,030	0,091
-315,226	800,000	0,004	0,012
-314,212	-82,231	0,052	-0,012
-313,197	-78,735	0,118	-0,029
-312,183	-200,000	0,002	0,044
-311,168	280,739	-0,038	-0,050
-310,153	-200,000	-0,005	-0,139
-309,139	115,372	-0,019	0,017
-308,124	800,000	-0,026	0,075
-307,110	-97,532	-0,035	0,007
-306,095	-104,925	0,077	-0,013
-305,080	-200,000	-0,024	0,106
-304,066	635,003	0,027	-0,051
-303,051	-70,670	-0,137	-0,038
-302,037	100,704	-0,012	-0,010
-301,022	800,000	-0,022	0,050
-300,008	-25,831	-0,074	0,032
-298,993	800,000	-0,081	0,191
-297,978	-1,392	0,086	0,044
-296,964	243,276	-0,035	0,043
-295,949	-66,219	0,062	-0,018
-294,935	10,757	-0,051	-0,029
-293,920	25,657	-0,100	0,061
-292,905	245,378	0,049	-0,060
-291,891	43,112	-0,062	0,042
-290,876	800,000	0,011	-0,031
-289,862	148,103	-0,012	-0,011
-288,847	536,664	0,028	-0,049
-287,832	-200,000	-0,001	0,025
-286,818	533,609	-0,056	-0,098
-285,803	-38,831	-0,093	-0,036
-284,789	800,000	0,051	0,114
-283,774	-46,803	-0,042	0,015
-282,759	-200,000	-0,013	-0,181
-281,745	-200,000	0,008	-0,075
-280,730	-29,414	-0,028	0,011
-279,716	-121,013	-0,074	-0,009
-278,701	78,878	0,047	0,037
-277,686	-200,000	0,022	-0,075
-276,672	-77,319	0,110	-0,028
-275,657	-37,388	-0,018	-0,007
-274,643	-200,000	-0,028	-0,147
-273,628	-113,725	0,037	-0,005
-272,613	476,377	-0,002	0,004
-271,599	140,690	0,029	0,028
-270,584	-91,001	0,114	0,024
-269,570	-200,000	-0,013	0,176
-268,555	258,062	0,043	0,055
-267,540	-200,000	0,022	-0,126
-266,526	164,518	-0,044	0,046
-265,511	-200,000	0,002	-0,012
-264,497	-200,000	-0,042	-0,137
-263,482	-36,865	0,164	0,064
-262,467	800,000	0,018	-0,054
-261,453	311,650	-0,023	0,032
-260,438	297,702	-0,078	0,105
-259,424	159,192	-0,100	-0,102
-258,409	-200,000	0,005	-0,142
-257,395	-200,000	0,001	-0,034
-256,380	789,708	-0,053	0,107
-255,365	700,922	0,034	-0,066
-254,351	693,263	0,015	0,029
-253,336	800,000	0,033	-0,081
-252,322	-200,000	-0,016	-0,068
-251,307	13,910	-0,017	0,010
-250,292	31,227	0,004	0,003
-249,278	-178,224	0,114	-0,002
-248,263	24,195	-0,110	0,067
-247,249	-44,225	-0,151	0,055
-246,234	233,423	0,039	0,047
-245,219	716,976	-0,042	0,082
-244,205	399,818	-0,034	-0,053
-243,190	-193,270	-0,151	-0,001
-242,176	-200,000	-0,011	-0,168
-241,161	-97,471	0,020	0,004
-240,146	66,060	-0,073	0,054
-239,132	-147,740	-0,148	-0,009
-238,117	81,206	-0,088	-0,069
-237,103	160,247	-0,026	-0,026
-236,088	-29,288	0,146	-0,061
-235,073	800,000	-0,010	-0,025
-234,059	91,388	0,089	0,073
-233,044	-78,415	0,115	0,029
-232,030	734,775	-0,017	0,034
-231,015	304,312	-0,078	-0,106
-230,000	29,466	-0,145	-0,090
-228,986	-200,000	-0,011	-0,152
-227,971	-200,000	0,021	0,173
-226,957	264,603	0,052	0,067
-225,942	57,643	0,014	0,010
-224,927	800,000	-0,012	0,035
-223,913	-88,633	-0,089	-0,019
-222,898	-68,305	0,081	-0,023
-221,884	126,628	-0,080	-0,074
-220,869	-76,943	0,090	0,023
-219,855	800,000	-0,028	0,069
-218,840	84,267	0,129	0,103
-217,825	-32,130	0,120	0,049
-216,811	322,607	-0,089	-0,124
-215,796	-200,000	-0,012	-0,078
-214,782	-200,000	-0,010	-0,040
-213,767	-200,000	0,009	-0,073
-212,752	127,200	0,023	-0,021
-211,738	-200,000	0,006	0,096
-210,723	278,175	0,019	0,025
-209,709	-200,000	0,018	-0,096
-208,694	-200,000	0,029	0,126
-207,679	93,973	-0,034	0,028
-206,665	210,249	0,090	-0,104
-205,650	-46,093	0,014	0,005
-204,636	-112,979	0,020	0,003
-203,621	37,601	-0,044	-0,028
-202,606	678,041	0,021	-0,041
-201,592	-57,830	-0,053	-0,017
-200,577	-200,000	-0,021	-0,110
-199,563	286,448	-0,050	0,066
-198,548	-200,000	0,004	-0,032
-197,533	-91,843	-0,100	-0,021
-196,519	800,000	0,012	0,033
-195,504	150,203	-0,115	0,114
-194,490	-56,082	0,152	-0,049
-193,475	-113,971	0,088	0,012
-192,460	-66,997	0,072	-0,021
-191,446	-45,710	0,136	0,049
-190,431	-98,764	-0,133	-0,024
-189,417	-118,274	0,092	-0,012
-188,402	800,000	-0,037	0,117
-187,387	324,742	-0,070	-0,098
-186,373	-200,000	-0,001	0,006
-185,358	-103,267	0,135	-0,023
-184,344	178,181	0,076	0,081
-183,329	-37,689	0,143	0,055
-182,315	542,765	-0,043	0,075
-181,300	124,900	0,153	0,141
-180,285	-200,000	-0,017	-0,072
-179,271	408,146	-0,090	-0,140
-178,256	-200,000	-0,029	0,146
-177,242	6,602	0,055	-0,030
-176,227	-200,000	-0,010	0,072
-175,212	373,712	-0,028	0,041
-174,198	800,000	-0,074	0,151
-173,183	-27,832	-0,096	0,041
-172,169	10,466	-0,020	0,011
-171,154	-11,495	-0,074	0,035
-170,139	604,105	-0,069	-0,126
-169,125	-9,168	0,056	-0,027
-168,110	800,000	0,010	-0,027
-167,096	800,000	-0,037	0,105
-166,081	800,000	-0,040	-0,105
-165,066	585,283	0,086	-0,155
-164,052	22,258	-0,090	0,053
-163,037	17,630	0,116	-0,067
-162,023	307,897	-0,019	0,025
-161,008	-163,388	-0,036	0,001
-159,993	701,362	-0,044	-0,084
-158,979	800,000	-0,017	-0,037
-157,964	62,842	-0,139	0,101
-156,950	234,821	0,049	-0,059
-155,935	-20,535	-0,016	0,007
-154,920	-200,000	0,001	0,024
-153,906	-107,813	0,093	0,015
-152,891	-121,395	0,110	-0,013
-151,877	191,380	-0,147	-0,161
-150,862	800,000	-0,056	0,176
-149,847	-102,136	0,048	0,008
-148,833	47,798	-0,038	0,026
-147,818	-52,395	-0,038	0,013
-146,804	61,965	0,115	0,084
-145,789	-200,000	0,030	0,152
-144,775	126,106	-0,112	-0,104
-143,760	-197,956	-0,136	0,001
-142,745	-56,845	-0,144	-0,046
-141,731	-166,199	0,103	-0,003
-140,716	-57,459	-0,035	0,011
-139,702	-4,128	0,127	0,064
-138,687	-200,000	0,000	-0,031
-137,672	72,125	-0,074	-0,056
-136,658	298,494	-0,085	-0,115
-135,643	-177,440	0,041	-0,001
-134,629	-119,361	-0,030	0,004
-133,614	-200,000	0,027	-0,097
-132,599	-140,149	0,035	0,003
-131,585	800,000	-0,035	0,093
-130,570	800,000	-0,019	0,049
-129,556	800,000	-0,034	0,080
-128,541	48,281	-0,024	0,017
-127,526	-200,000	0,005	0,049
-126,512	-200,000	-0,019	-0,112
-125,497	56,127	0,058	0,041
-124,483	-200,000	0,043	0,176
-123,468	308,160	-0,021	-0,029
-122,453	-33,216	-0,102	0,041
-121,439	-200,000	0,003	-0,014
-120,424	800,000	-0,026	-0,054
-119,410	487,678	0,042	0,071
