DTS Sentinel unit serial number:	SN410029Multiplexer serial number:	ORYXHardware model number:	OX2-SRSoftware version number:	ORYX F/W v4,00 Oryx Data Collector v3.7.2.0data status	okinstallation	B6 Nyhavnadifferential loss correction	single-endedforward channel	channel 2reverse channel	N/Adate	2023/12/10time	22:15:08forward acquisition time	300,00reverse acquisition time	0,00gamma	499,1914k internal	0,3123k external	0,3123temperature offset calibration	1,0000default loss term (dB/km)	0,3820temperature slope calibration	1,0000multiplexer offset coefficient	1,0000multiplexer slope coefficient	1,0000fibre end	0,00T internal ref (°C)	22,34T ext. ref 1 (°C)	6,13T ext. ref 2 (°C)	6,13length (m)	temperature (°C)	Stokes	anti-Stokes-744,400	-80,161	0,055	-0,014
-743,385	-33,375	-0,250	0,103
-742,371	-62,504	0,049	-0,015
-741,356	3,162	-0,283	0,153
-740,342	579,363	-0,055	-0,101
-739,327	-14,800	-0,219	0,104
-738,312	143,541	-0,119	-0,118
-737,298	-128,144	-0,248	-0,026
-736,283	-200,000	-0,010	0,035
-735,269	5,046	-0,143	0,078
-734,254	-200,000	0,016	-0,139
-733,239	38,044	-0,330	-0,218
-732,225	320,150	-0,025	0,035
-731,210	494,834	0,063	0,109
-730,196	-31,462	0,139	-0,058
-729,181	374,881	-0,138	-0,210
-728,167	-163,423	-0,174	-0,006
-727,152	-128,530	0,075	0,008
-726,137	-127,023	-0,138	0,015
-725,123	-109,932	-0,090	-0,014
-724,108	58,258	0,035	0,025
-723,094	44,431	-0,146	-0,100
-722,079	-200,000	-0,033	-0,170
-721,064	-72,139	-0,062	-0,017
-720,050	297,876	-0,054	-0,074
-719,035	584,260	-0,010	-0,018
-718,021	115,739	-0,090	-0,082
-717,006	259,274	-0,051	0,066
-715,991	-20,971	-0,077	0,035
-714,977	150,743	0,063	-0,064
-713,962	262,593	0,075	0,097
-712,948	-99,412	-0,060	0,011
-711,933	-144,479	-0,105	-0,007
-710,918	-200,000	-0,007	-0,088
-709,904	40,477	-0,156	-0,105
-708,889	-128,463	0,113	0,012
-707,875	-77,127	-0,077	0,020
-706,860	800,000	0,021	-0,060
-705,845	-200,000	-0,022	0,121
-704,831	-200,000	-0,023	-0,113
-703,816	-59,852	-0,133	0,042
-702,802	620,822	-0,013	-0,025
-701,787	72,567	-0,168	-0,130
-700,772	-41,910	-0,060	-0,023
-699,758	132,511	-0,034	-0,032
-698,743	270,991	0,070	-0,092
-697,729	-200,000	0,003	0,124
-696,714	-151,292	0,013	0,001
-695,699	-147,780	-0,064	-0,004
-694,685	-133,935	-0,079	0,007
-693,670	-71,732	0,133	-0,037
-692,656	-102,009	-0,153	0,027
-691,641	136,153	0,029	-0,029
-690,627	534,267	0,053	-0,094
-689,612	-200,000	-0,030	-0,192
-688,597	16,693	-0,149	-0,087
-687,583	-32,279	0,070	0,029
-686,568	-51,533	-0,118	-0,041
-685,554	40,358	-0,098	-0,066
-684,539	-130,690	-0,022	-0,002
-683,524	-137,229	0,191	0,016
-682,510	800,000	-0,017	0,051
-681,495	-200,000	0,004	-0,049
-680,481	36,305	-0,057	-0,037
-679,466	477,268	0,031	0,053
-678,451	-167,915	-0,081	-0,002
-677,437	626,380	-0,019	0,036
-676,422	163,735	0,067	0,071
-675,408	800,000	-0,019	0,040
-674,393	78,906	0,028	0,022
-673,378	-56,880	-0,047	-0,015
-672,364	156,982	-0,032	-0,033
-671,349	-136,347	-0,030	0,003
-670,335	52,156	-0,136	-0,096
-669,320	-200,000	0,011	-0,050
-668,305	752,592	-0,079	0,159
-667,291	382,170	-0,035	0,053
-666,276	136,561	-0,071	-0,069
-665,262	-21,224	-0,208	-0,094
-664,247	1,654	-0,100	0,053
-663,232	800,000	-0,024	-0,051
-662,218	-200,000	0,002	-0,027
-661,203	800,000	0,022	0,047
-660,189	26,876	-0,165	0,103
-659,174	-92,674	-0,176	0,036
-658,159	-16,898	-0,157	-0,073
-657,145	94,250	-0,075	-0,064
-656,130	-200,000	0,017	-0,073
-655,116	-200,000	-0,008	0,052
-654,101	228,346	0,048	-0,058
-653,086	-178,313	-0,135	-0,002
-652,072	-200,000	0,009	-0,050
-651,057	-163,802	0,066	0,002
-650,043	150,950	0,025	0,026
-649,028	-48,481	0,108	-0,038
-648,014	130,860	-0,082	-0,078
-646,999	-28,792	-0,097	0,041
-645,984	522,528	-0,066	0,116
-644,970	-31,470	-0,121	-0,050
-643,955	-200,000	-0,001	-0,050
-642,941	-4,696	-0,106	0,054
-641,926	-88,478	0,108	-0,024
-640,911	-120,084	0,060	0,008
-639,897	567,633	0,079	0,143
-638,882	-37,922	-0,110	0,043
-637,868	33,711	-0,054	-0,035
-636,853	22,933	-0,083	-0,050
-635,838	-200,000	-0,008	-0,090
-634,824	69,772	-0,014	-0,011
-633,809	371,294	-0,025	-0,038
-632,795	-200,000	-0,035	-0,172
-631,780	-126,362	-0,059	0,006
-630,765	34,962	-0,142	-0,092
-629,751	800,000	-0,068	-0,158
-628,736	-178,986	-0,107	-0,002
-627,722	800,000	-0,063	-0,151
-626,707	28,610	-0,027	-0,017
-625,692	-200,000	0,034	0,163
-624,678	-200,000	-0,045	0,149
-623,663	69,575	-0,117	0,089
-622,649	-200,000	0,030	-0,157
-621,634	-200,000	-0,026	-0,121
-620,619	-166,079	-0,045	0,001
-619,605	490,971	0,039	0,066
-618,590	-49,602	-0,066	-0,023
-617,576	-200,000	0,010	-0,052
-616,561	-200,000	-0,018	-0,069
-615,546	37,321	-0,063	-0,042
-614,532	-53,725	-0,105	0,035
-613,517	-110,007	-0,114	0,017
-612,503	-200,000	0,030	-0,166
-611,488	-9,104	-0,047	0,023
-610,474	800,000	0,022	0,051
-609,459	57,585	0,147	-0,106
-608,444	158,834	-0,094	0,097
-607,430	43,237	-0,061	0,042
-606,415	53,917	-0,069	-0,049
-605,401	-71,518	0,131	-0,036
-604,386	800,000	-0,047	0,123
-603,371	-127,478	-0,060	0,006
-602,357	-142,041	0,110	0,008
-601,342	-76,007	0,038	0,010
-600,328	-68,732	-0,012	0,003
-599,313	84,902	0,057	-0,046
-598,298	41,625	0,101	-0,068
-597,284	1,115	0,148	-0,078
-596,269	-94,152	-0,074	-0,015
-595,255	-200,000	-0,040	0,164
-594,240	119,546	0,030	0,027
-593,225	-24,414	-0,199	-0,088
-592,211	-25,390	-0,029	0,013
-591,196	-200,000	-0,012	0,103
-590,182	194,411	0,068	-0,077
-589,167	-200,000	-0,011	0,048
-588,152	-66,155	0,068	0,020
-587,138	-200,000	0,026	-0,114
-586,123	429,835	-0,028	-0,044
-585,109	246,388	0,099	-0,124
-584,094	320,930	0,007	0,010
-583,079	155,003	0,041	-0,042
-582,065	10,586	0,055	0,031
-581,050	-45,897	0,021	0,008
-580,036	-46,580	0,047	0,017
-579,021	-87,697	0,042	-0,009
-578,006	254,986	-0,066	-0,084
-576,992	800,000	0,025	0,063
-575,977	140,511	0,100	-0,098
-574,963	109,379	0,069	0,061
-573,948	-80,853	0,051	-0,012
-572,934	-115,217	0,025	-0,004
-571,919	-140,908	0,020	-0,002
-570,904	-200,000	-0,006	0,035
-569,890	-41,509	-0,160	-0,061
-568,875	-200,000	0,031	0,108
-567,861	100,086	0,098	-0,084
-566,846	-200,000	-0,008	0,107
-565,831	32,372	0,043	-0,027
-564,817	40,938	0,025	-0,017
-563,802	112,773	-0,026	0,023
-562,788	800,000	0,043	0,099
-561,773	57,753	0,164	0,119
-560,758	6,093	0,039	0,021
-559,744	66,507	0,030	-0,023
-558,729	-200,000	0,007	0,043
-557,715	800,000	0,016	0,045
-556,700	-36,227	-0,088	-0,035
-555,685	45,691	-0,105	0,072
-554,671	800,000	-0,018	-0,052
-553,656	800,000	0,038	-0,112
-552,642	800,000	0,032	-0,072
-551,627	800,000	0,015	0,041
-550,612	-84,645	-0,051	-0,012
-549,598	-80,710	0,167	-0,041
-548,583	27,075	0,132	-0,082
-547,569	-159,965	0,032	0,001
-546,554	-38,344	0,055	0,022
-545,539	800,000	-0,028	0,081
-544,525	121,878	0,039	0,036
-543,510	-140,190	0,017	0,001
-542,496	800,000	-0,051	-0,122
-541,481	20,859	-0,051	-0,031
-540,466	334,398	-0,068	-0,098
-539,452	-200,000	0,008	-0,053
-538,437	212,553	0,033	0,039
-537,423	27,484	-0,072	-0,045
-536,408	-116,246	-0,078	0,011
-535,393	680,949	-0,047	0,092
-534,379	-5,788	-0,034	-0,017
-533,364	59,160	-0,078	-0,057
-532,350	-200,000	-0,002	-0,082
-531,335	800,000	0,026	0,069
-530,321	-200,000	0,004	-0,020
-529,306	-87,380	-0,156	0,035
-528,291	-46,775	0,052	-0,019
-527,277	-200,000	-0,010	-0,062
-526,262	-200,000	-0,003	-0,047
-525,248	205,724	0,020	0,023
-524,233	-39,677	-0,094	-0,036
-523,218	-200,000	0,002	-0,067
-522,204	-57,197	-0,068	-0,022
-521,189	28,786	0,105	-0,066
-520,175	-200,000	0,017	-0,069
-519,160	800,000	-0,052	0,112
-518,145	239,344	0,054	-0,067
-517,131	-200,000	-0,009	-0,062
-516,116	-200,000	0,021	0,082
-515,102	5,717	0,045	-0,024
-514,087	-38,273	0,037	-0,014
-513,072	292,330	0,059	-0,080
-512,058	-85,984	-0,031	0,007
-511,043	479,542	0,033	0,056
-510,029	-200,000	0,004	-0,085
-509,014	49,675	0,032	0,022
-507,999	-200,000	-0,029	0,194
-506,985	424,110	0,045	-0,071
-505,970	436,707	-0,113	-0,182
-504,956	800,000	0,038	-0,120
-503,941	244,730	-0,043	-0,054
-502,926	-7,329	0,190	-0,095
-501,912	-200,000	0,004	0,045
-500,897	14,650	0,090	0,052
-499,883	-200,000	0,034	-0,143
-498,868	119,205	-0,062	0,057
-497,853	-147,366	-0,083	-0,005
-496,839	128,159	-0,033	-0,031
-495,824	-200,000	0,000	-0,048
-494,810	-83,011	0,105	0,025
-493,795	-200,000	0,009	0,059
-492,781	800,000	-0,023	-0,052
-491,766	-200,000	-0,006	-0,065
-490,751	355,663	-0,042	-0,062
-489,737	-200,000	0,043	-0,165
-488,722	7,722	0,098	0,054
-487,708	107,010	-0,049	-0,043
-486,693	-65,746	-0,063	-0,018
-485,678	648,299	-0,044	0,083
-484,664	-83,762	-0,192	0,045
-483,649	800,000	-0,028	-0,089
-482,635	-161,077	-0,106	-0,004
-481,620	17,220	-0,078	0,046
-480,605	58,437	0,034	0,024
-479,591	-1,539	-0,065	0,034
-478,576	257,151	0,029	0,037
-477,562	171,188	0,078	0,082
-476,547	-167,058	0,047	0,001
-475,532	-2,167	-0,056	-0,029
-474,518	-200,000	0,018	0,118
-473,503	287,061	0,046	0,062
-472,489	-200,000	-0,004	0,084
-471,474	-67,948	-0,076	-0,022
-470,459	631,726	0,032	-0,059
-469,445	170,525	0,086	-0,091
-468,430	41,759	-0,062	0,041
-467,416	-163,191	0,116	-0,004
-466,401	-200,000	0,015	0,065
-465,386	253,773	0,078	0,098
-464,372	25,438	-0,150	0,092
-463,357	66,265	0,149	0,111
-462,343	134,241	-0,086	0,082
-461,328	-200,000	0,004	-0,125
-460,313	800,000	-0,043	0,114
-459,299	57,258	-0,048	0,034
-458,284	-200,000	0,001	0,205
-457,270	-19,134	0,087	0,040
-456,255	800,000	-0,036	-0,110
-455,241	-200,000	-0,002	-0,058
-454,226	800,000	0,022	-0,069
-453,211	-15,708	0,025	0,012
-452,197	735,146	-0,067	-0,133
-451,182	-38,103	0,146	0,057
-450,168	-200,000	0,007	0,071
-449,153	-108,303	-0,079	-0,012
-448,138	112,442	-0,046	-0,041
-447,124	30,636	-0,120	-0,076
-446,109	287,786	0,042	-0,056
-445,095	-116,140	0,124	0,017
-444,080	-114,237	0,088	0,012
-443,065	800,000	0,016	0,046
-442,051	-99,537	-0,139	0,026
-441,036	800,000	0,024	0,067
-440,022	-200,000	-0,007	-0,114
-439,007	-200,000	-0,002	-0,046
-437,992	800,000	-0,050	0,114
-436,978	-200,000	-0,009	0,122
-435,963	-200,000	0,010	-0,079
-434,949	156,567	0,045	-0,046
-433,934	-13,641	-0,048	-0,023
-432,919	-200,000	0,007	-0,037
-431,905	449,882	-0,037	0,060
-430,890	-29,283	-0,067	0,028
-429,876	800,000	-0,022	0,066
-428,861	33,175	-0,047	0,030
-427,846	4,861	-0,028	0,015
-426,832	434,676	0,025	-0,040
-425,817	-200,000	-0,009	-0,179
-424,803	800,000	0,038	-0,094
-423,788	-76,651	-0,088	0,023
-422,773	-200,000	0,012	0,101
-421,759	17,053	-0,081	-0,047
-420,744	14,136	-0,073	0,042
-419,730	-126,364	-0,020	0,002
-418,715	-3,466	-0,061	-0,031
-417,701	-12,583	0,064	0,031
-416,686	37,136	0,054	0,035
-415,671	99,813	-0,080	0,068
-414,657	-200,000	-0,040	0,162
-413,642	362,030	-0,080	0,118
-412,628	-200,000	0,010	-0,165
-411,613	-200,000	0,002	0,041
-410,598	800,000	0,042	-0,135
-409,584	-92,988	-0,052	0,011
-408,569	-169,423	0,105	0,003
-407,555	167,610	0,105	0,110
-406,540	37,465	0,043	0,028
-405,525	41,014	-0,008	-0,005
-404,511	-134,502	-0,093	0,008
-403,496	-5,259	0,125	-0,063
-402,482	734,669	0,008	0,016
-401,467	-200,000	-0,029	-0,114
-400,452	-200,000	0,020	0,088
-399,438	16,675	0,098	0,057
-398,423	108,671	-0,080	-0,070
-397,409	488,428	-0,045	0,075
-396,394	82,199	-0,061	-0,049
-395,379	252,360	0,044	0,055
-394,365	-200,000	0,004	0,076
-393,350	-200,000	0,002	0,051
-392,336	595,121	0,020	0,037
-391,321	459,695	-0,062	-0,101
-390,306	-64,592	-0,038	-0,011
-389,292	-200,000	-0,013	-0,053
-388,277	-33,739	0,094	-0,038
-387,263	93,062	0,067	-0,056
-386,248	715,638	0,033	0,065
-385,233	70,038	0,058	-0,044
-384,219	-200,000	0,025	0,089
-383,204	57,004	-0,122	-0,087
-382,190	-152,133	0,046	0,002
-381,175	316,599	-0,048	0,067
-380,160	-200,000	0,007	0,053
-379,146	7,549	-0,025	0,013
-378,131	-60,983	-0,105	0,032
-377,117	-200,000	-0,003	0,015
-376,102	-200,000	0,032	0,136
-375,088	599,805	0,036	0,066
-374,073	-200,000	-0,001	-0,047
-373,058	-42,162	0,163	-0,061
-372,044	23,088	0,079	0,048
-371,029	-38,358	-0,046	-0,018
-370,015	-200,000	0,017	-0,090
-369,000	-97,965	-0,065	-0,012
-367,985	-99,693	-0,029	-0,005
-366,971	-200,000	0,022	-0,087
-365,956	-11,636	0,101	0,049
-364,942	-200,000	0,055	0,195
-363,927	616,757	0,057	0,105
-362,912	800,000	0,057	-0,117
-361,898	-123,907	0,055	0,006
-360,883	-95,992	0,121	0,024
-359,869	800,000	-0,032	-0,096
-358,854	423,942	-0,053	0,085
-357,839	76,417	0,045	0,035
-356,825	15,257	-0,057	-0,033
-355,810	-99,970	-0,073	-0,013
-354,796	200,078	0,053	-0,060
-353,781	-66,915	-0,065	-0,019
-352,766	389,940	0,033	-0,050
-351,752	-200,000	-0,030	-0,171
-350,737	-113,031	0,027	-0,004
-349,723	519,494	-0,040	-0,070
-348,708	133,881	0,091	0,087
-347,693	160,246	-0,100	-0,102
-346,679	800,000	0,032	-0,081
-345,664	-200,000	0,027	0,094
-344,650	-2,484	-0,116	-0,059
-343,635	585,520	0,048	0,087
-342,620	624,601	0,099	-0,183
-341,606	800,000	-0,045	-0,130
-340,591	-38,749	-0,072	0,028
-339,577	800,000	0,015	-0,031
-338,562	-200,000	0,028	-0,222
-337,548	182,010	0,031	0,034
-336,533	-200,000	0,020	0,148
-335,518	140,975	0,100	0,097
-334,504	-200,000	-0,001	-0,159
-333,489	282,933	-0,039	-0,052
-332,475	22,313	-0,032	0,019
-331,460	-30,834	0,101	0,042
-330,445	160,051	-0,040	-0,041
-329,431	-55,408	-0,118	0,038
-328,416	-13,849	0,175	0,083
-327,402	-32,324	-0,069	0,028
-326,387	-154,552	-0,114	0,005
-325,372	-200,000	0,040	-0,166
-324,358	800,000	0,009	0,028
-323,343	800,000	0,027	0,059
-322,329	287,167	0,080	0,106
-321,314	319,777	0,059	0,083
-320,299	510,537	-0,060	0,103
-319,285	327,859	0,059	0,083
-318,270	126,506	-0,174	-0,162
-317,256	-200,000	0,012	0,084
-316,241	800,000	-0,028	0,061
-315,226	-200,000	0,007	0,089
-314,212	392,800	-0,028	0,043
-313,197	-116,733	0,068	-0,009
-312,183	-200,000	-0,004	0,048
-311,168	-114,471	-0,052	0,007
-310,153	800,000	-0,023	-0,065
-309,139	-151,436	0,138	0,007
-308,124	-200,000	0,001	-0,108
-307,110	800,000	0,020	0,063
-306,095	119,949	0,033	-0,030
-305,080	178,981	0,060	-0,064
-304,066	512,993	0,036	0,062
-303,051	-200,000	0,012	0,072
-302,037	-124,576	-0,211	0,024
-301,022	227,824	-0,079	-0,095
-300,008	9,987	0,196	0,109
-298,993	470,422	0,084	0,138
-297,978	-200,000	-0,014	-0,064
-296,964	-200,000	-0,017	-0,061
-295,949	-200,000	0,001	0,029
-294,935	23,979	0,138	0,083
-293,920	325,865	0,022	0,032
-292,905	800,000	0,045	0,129
-291,891	-55,399	0,119	0,039
-290,876	-114,990	-0,036	-0,005
-289,862	-200,000	0,007	-0,026
-288,847	-29,145	-0,023	-0,010
-287,832	-200,000	-0,018	-0,134
-286,818	-200,000	-0,016	0,064
-285,803	528,270	-0,024	-0,042
-284,789	75,339	0,059	-0,046
-283,774	-200,000	-0,007	0,034
-282,759	-177,586	-0,028	-0,000
-281,745	-20,622	0,104	0,047
-280,730	-15,958	-0,060	0,028
-279,716	-166,799	0,072	0,002
-278,701	-200,000	0,008	0,059
-277,686	-153,072	-0,058	-0,003
-276,672	800,000	0,021	0,058
-275,657	154,348	-0,022	0,022
-274,643	389,714	-0,071	-0,109
-273,628	-200,000	-0,007	0,036
-272,613	389,598	-0,053	0,081
-271,599	-72,465	0,040	-0,011
-270,584	-200,000	0,003	-0,079
-269,570	800,000	0,029	-0,075
-268,555	800,000	-0,013	0,034
-267,540	8,840	0,015	-0,008
-266,526	539,664	-0,103	-0,180
-265,511	452,449	-0,024	-0,039
-264,497	-200,000	-0,004	-0,093
-263,482	-200,000	0,005	-0,029
-262,467	800,000	0,023	-0,058
-261,453	-85,776	0,061	-0,014
-260,438	-200,000	0,011	0,039
-259,424	331,438	-0,038	0,053
-258,409	800,000	-0,032	-0,076
-257,395	-200,000	-0,010	0,097
-256,380	331,833	0,051	0,072
-255,365	-200,000	-0,043	0,159
-254,351	-136,035	-0,115	0,010
-253,336	412,449	0,044	0,068
-252,322	-99,214	-0,095	0,017
-251,307	103,834	-0,149	0,128
-250,292	-200,000	-0,006	-0,037
-249,278	-135,910	0,071	-0,006
-248,263	-82,250	0,104	0,024
-247,249	499,652	0,034	0,057
-246,234	-115,066	-0,160	0,022
-245,219	47,118	-0,061	-0,041
-244,205	128,421	0,034	-0,032
-243,190	107,433	-0,008	-0,007
-242,176	344,048	-0,060	0,087
-241,161	800,000	-0,052	0,155
-240,146	800,000	0,017	0,048
-239,132	-78,849	-0,047	-0,012
-238,117	-200,000	0,052	-0,222
-237,103	800,000	0,059	-0,138
-236,088	30,883	0,039	-0,025
-235,073	-42,409	-0,037	-0,014
-234,059	-200,000	0,007	-0,099
-233,044	800,000	0,028	-0,077
-232,030	117,006	-0,053	0,048
-231,015	-71,718	-0,073	0,020
-230,000	800,000	0,053	-0,152
-228,986	332,899	0,110	0,156
-227,971	800,000	0,046	0,101
-226,957	-1,052	0,091	0,047
-225,942	81,588	0,042	-0,033
-224,927	800,000	-0,005	0,017
-223,913	-52,761	-0,055	-0,018
-222,898	-200,000	-0,050	-0,169
-221,884	-200,000	0,001	0,018
-220,869	-200,000	0,015	0,072
-219,855	79,925	0,023	-0,018
-218,840	-169,627	-0,082	0,002
-217,825	-200,000	0,002	-0,047
-216,811	120,886	-0,023	-0,021
-215,796	352,091	-0,062	-0,090
-214,782	768,733	-0,020	0,039
-213,767	800,000	0,020	-0,061
-212,752	-105,150	-0,042	-0,007
-211,738	59,810	0,093	0,067
-210,723	31,963	-0,068	0,042
-209,709	66,945	-0,053	-0,039
-208,694	-14,615	0,086	-0,040
-207,679	24,337	-0,037	-0,022
-206,665	-32,709	0,053	-0,021
-205,650	726,060	0,045	0,088
-204,636	334,694	0,019	0,027
-203,621	800,000	-0,031	-0,080
-202,606	502,937	-0,094	-0,160
-201,592	-48,644	0,062	0,022
-200,577	-200,000	0,002	-0,021
-199,563	443,631	0,061	0,097
-198,548	-200,000	0,011	0,050
-197,533	800,000	0,039	-0,120
-196,519	116,193	0,113	-0,101
-195,504	-187,065	0,139	0,001
-194,490	-37,822	0,087	0,034
-193,475	372,070	0,055	0,081
-192,460	95,620	0,082	0,068
-191,446	-106,407	-0,110	-0,018
-190,431	-200,000	0,009	0,103
-189,417	-81,366	-0,113	0,027
-188,402	19,613	-0,077	0,045
-187,387	800,000	-0,039	-0,100
-186,373	594,594	0,046	-0,084
-185,358	779,394	0,035	-0,069
-184,344	-145,528	0,114	-0,007
-183,329	800,000	-0,013	-0,030
-182,315	-83,133	0,060	0,014
-181,300	99,453	-0,166	-0,140
-180,285	506,269	0,052	-0,089
-179,271	-126,075	-0,075	-0,008
-178,256	-9,469	0,106	0,051
-177,242	11,153	-0,188	0,105
-176,227	205,012	0,093	-0,105
-175,212	116,053	0,080	0,071
-174,198	800,000	0,025	0,077
-173,183	-157,254	-0,033	-0,001
-172,169	33,900	0,008	0,005
-171,154	800,000	-0,041	0,088
-170,139	57,305	-0,004	-0,003
-169,125	442,180	0,083	0,133
-168,110	115,380	0,027	0,024
-167,096	800,000	-0,078	0,195
-166,081	800,000	-0,051	0,137
-165,066	800,000	0,003	0,005
-164,052	241,679	-0,054	-0,066
-163,037	-165,344	0,057	-0,002
-162,023	-200,000	0,001	0,175
-161,008	695,532	-0,038	0,073
-159,993	42,522	0,089	-0,059
-158,979	126,654	0,044	0,041
-157,964	-98,757	0,078	-0,014
-156,950	-200,000	-0,047	0,172
-155,935	-200,000	-0,039	0,131
-154,920	800,000	0,069	0,205
-153,906	-180,177	0,088	-0,001
-152,891	-55,781	-0,150	-0,049
-151,877	797,826	-0,056	0,114
-150,862	-28,968	-0,035	0,015
-149,847	-114,154	0,055	-0,008
-148,833	800,000	-0,029	0,088
-147,818	800,000	-0,044	0,131
-146,804	126,624	0,017	0,016
-145,789	-46,205	0,080	0,028
-144,775	45,095	-0,042	0,028
-143,760	199,144	-0,031	0,035
-142,745	800,000	-0,026	-0,071
-141,731	77,148	0,105	0,081
-140,716	-200,000	0,027	0,137
-139,702	800,000	0,018	0,045
-138,687	641,944	-0,043	0,080
-137,672	-40,771	0,072	-0,027
-136,658	-57,749	-0,144	-0,046
-135,643	-200,000	-0,022	-0,078
-134,629	800,000	0,059	-0,145
-133,614	243,068	0,074	0,090
-132,599	120,556	-0,024	0,022
-131,585	-138,107	0,107	0,009
-130,570	-116,653	0,047	-0,006
-129,556	-73,259	0,103	-0,027
-128,541	153,693	-0,120	0,119
-127,526	-200,000	0,023	-0,092
-126,512	144,760	-0,054	-0,053
-125,497	-3,713	0,075	0,038
-124,483	331,571	-0,130	0,183
-123,468	800,000	0,002	-0,005
-122,453	13,866	-0,110	-0,062
-121,439	58,942	0,064	0,046
-120,424	-14,867	-0,088	0,041
-119,410	327,753	-0,051	0,071
-118,395	641,851	0,023	0,043
