DTS Sentinel unit serial number:	SN410029Multiplexer serial number:	ORYXHardware model number:	OX2-SRSoftware version number:	ORYX F/W v4,00 Oryx Data Collector v3.7.2.0data status	okinstallation	B6 Nyhavnadifferential loss correction	single-endedforward channel	channel 2reverse channel	N/Adate	2023/12/11time	05:15:08forward acquisition time	300,00reverse acquisition time	0,00gamma	499,1914k internal	0,3126k external	0,3126temperature offset calibration	1,0000default loss term (dB/km)	0,3820temperature slope calibration	1,0000multiplexer offset coefficient	1,0000multiplexer slope coefficient	1,0000fibre end	0,00T internal ref (°C)	20,07T ext. ref 1 (°C)	3,11T ext. ref 2 (°C)	3,12length (m)	temperature (°C)	Stokes	anti-Stokes-744,400	160,622	0,036	0,038
-743,385	-108,985	-0,198	0,031
-742,371	-127,492	0,122	0,013
-741,356	-58,247	-0,301	0,097
-740,342	-157,096	0,222	-0,010
-739,327	-86,766	-0,289	-0,065
-738,312	238,160	-0,052	-0,064
-737,298	-114,843	-0,168	-0,024
-736,283	-200,000	-0,004	-0,031
-735,269	8,574	-0,151	0,084
-734,254	-200,000	-0,007	-0,070
-733,239	-99,355	-0,364	-0,068
-732,225	-7,141	0,149	0,075
-731,210	-200,000	0,004	0,047
-730,196	213,286	0,028	-0,034
-729,181	-137,979	-0,054	0,004
-728,167	237,175	-0,059	0,073
-727,152	89,950	-0,029	0,024
-726,137	-148,314	-0,050	-0,003
-725,123	424,294	-0,020	-0,031
-724,108	38,749	-0,172	-0,114
-723,094	-200,000	-0,018	-0,147
-722,079	-192,139	-0,151	-0,001
-721,064	-200,000	-0,005	0,030
-720,050	22,622	0,075	-0,045
-719,035	800,000	-0,047	0,097
-718,021	-89,364	0,016	-0,003
-717,006	-34,737	-0,173	-0,070
-715,991	800,000	-0,070	-0,175
-714,977	-200,000	0,010	0,180
-713,962	-104,943	-0,055	-0,009
-712,948	800,000	0,045	0,133
-711,933	95,351	0,091	0,077
-710,918	-43,639	-0,022	0,008
-709,904	-200,000	0,021	0,161
-708,889	-126,443	-0,171	0,019
-707,875	-58,675	-0,091	0,029
-706,860	-37,525	0,060	0,024
-705,845	-200,000	-0,014	0,118
-704,831	-169,657	-0,146	-0,004
-703,816	-80,299	0,101	0,025
-702,802	-200,000	0,004	0,080
-701,787	800,000	-0,025	-0,061
-700,772	-200,000	-0,001	-0,173
-699,758	27,041	0,047	0,029
-698,743	-200,000	-0,010	0,056
-697,729	-99,169	0,148	-0,028
-696,714	200,917	0,046	-0,053
-695,699	-87,691	-0,102	-0,023
-694,685	106,771	-0,065	-0,058
-693,670	-117,440	-0,131	0,017
-692,656	-86,444	-0,092	0,021
-691,641	-148,798	0,043	0,003
-690,627	-20,325	0,133	0,061
-689,612	-65,553	0,157	0,047
-688,597	-111,539	0,027	-0,004
-687,583	-3,387	-0,108	-0,055
-686,568	80,110	-0,148	-0,118
-685,554	-11,566	-0,080	-0,039
-684,539	93,805	0,116	-0,098
-683,524	-200,000	-0,000	-0,059
-682,510	-200,000	0,010	-0,104
-681,495	-113,971	-0,072	-0,010
-680,481	425,468	0,070	-0,113
-679,466	-139,985	-0,214	0,017
-678,451	226,371	0,097	-0,117
-677,437	-199,362	-0,105	-0,000
-676,422	72,634	0,171	0,132
-675,408	-200,000	0,019	-0,104
-674,393	-200,000	0,002	0,065
-673,378	284,967	-0,080	0,107
-672,364	69,034	0,040	-0,030
-671,349	-200,000	0,013	-0,090
-670,335	-200,000	-0,015	-0,135
-669,320	350,349	0,018	-0,026
-668,305	800,000	-0,054	0,159
-667,291	93,967	-0,135	0,114
-666,276	135,597	-0,040	-0,038
-665,262	-6,055	0,036	0,018
-664,247	-3,040	-0,071	-0,037
-663,232	-55,444	-0,169	-0,056
-662,218	800,000	-0,056	0,148
-661,203	-200,000	0,010	0,145
-660,189	-135,999	0,066	0,006
-659,174	138,160	-0,032	0,031
-658,159	-124,007	-0,172	0,020
-657,145	227,517	-0,067	-0,081
-656,130	-111,818	-0,042	-0,006
-655,116	-157,133	-0,007	-0,000
-654,101	-63,126	0,076	-0,023
-653,086	-10,129	0,075	-0,037
-652,072	-40,182	-0,010	-0,004
-651,057	471,932	-0,051	-0,086
-650,043	-200,000	0,038	-0,155
-649,028	800,000	0,038	0,100
-648,014	-13,675	-0,071	-0,034
-646,999	-65,317	-0,109	0,032
-645,984	258,054	0,054	-0,069
-644,970	-200,000	-0,013	-0,086
-643,955	335,853	-0,101	0,146
-642,941	155,100	-0,106	-0,108
-641,926	114,627	0,121	-0,109
-640,911	35,313	0,086	-0,056
-639,897	-94,834	0,022	0,004
-638,882	94,410	-0,052	-0,043
-637,868	-200,000	0,012	0,063
-636,853	437,496	-0,106	-0,171
-635,838	-114,153	-0,162	0,023
-634,824	800,000	-0,018	0,052
-633,809	-5,292	-0,072	0,037
-632,795	800,000	0,054	0,167
-631,780	23,867	-0,078	0,048
-630,765	800,000	-0,060	0,156
-629,751	-24,546	0,022	-0,010
-628,736	148,943	-0,084	-0,085
-627,722	34,748	-0,113	-0,073
-626,707	-109,538	-0,049	0,008
-625,692	356,927	-0,008	0,012
-624,678	-200,000	0,014	0,050
-623,663	0,142	-0,114	-0,060
-622,649	800,000	-0,046	-0,125
-621,634	-200,000	-0,001	-0,032
-620,619	299,176	-0,114	-0,156
-619,605	800,000	0,044	-0,098
-618,590	-200,000	0,030	0,108
-617,576	-200,000	0,003	0,033
-616,561	-41,076	-0,058	-0,022
-615,546	800,000	0,058	-0,173
-614,532	800,000	-0,085	-0,194
-613,517	43,491	-0,071	0,048
-612,503	671,937	0,044	0,086
-611,488	96,551	-0,131	0,111
-610,474	59,630	-0,105	0,076
-609,459	-18,313	-0,094	-0,043
-608,444	557,106	-0,046	-0,083
-607,430	-83,137	-0,101	-0,024
-606,415	-200,000	0,029	-0,149
-605,401	800,000	0,038	-0,107
-604,386	205,168	-0,068	0,078
-603,371	800,000	0,065	0,135
-602,357	-200,000	0,002	0,026
-601,342	220,151	0,045	0,053
-600,328	-200,000	0,005	0,024
-599,313	12,435	-0,077	0,044
-598,298	-200,000	-0,007	-0,125
-597,284	-200,000	0,017	0,178
-596,269	-3,575	0,047	-0,024
-595,255	-24,061	0,156	0,069
-594,240	-200,000	0,029	-0,156
-593,225	-200,000	0,008	-0,064
-592,211	17,749	-0,144	-0,084
-591,196	242,620	0,071	0,088
-590,182	-11,058	-0,046	0,023
-589,167	277,941	0,033	0,043
-588,152	-37,984	-0,115	0,045
-587,138	800,000	0,056	0,162
-586,123	-107,035	0,056	0,009
-585,109	-67,386	-0,185	-0,053
-584,094	-52,103	0,097	-0,033
-583,079	200,782	0,063	0,072
-582,065	184,990	0,078	0,086
-581,050	254,541	-0,058	-0,073
-580,036	27,977	-0,066	-0,041
-579,021	-200,000	0,003	-0,183
-578,006	-2,421	-0,068	-0,035
-576,992	762,842	0,005	-0,010
-575,977	160,502	-0,080	-0,082
-574,963	302,087	-0,036	0,050
-573,948	-84,917	-0,078	0,018
-572,934	-175,638	-0,060	-0,001
-571,919	486,000	0,112	-0,189
-570,904	-36,011	0,094	-0,038
-569,890	601,321	-0,036	0,066
-568,875	206,247	0,065	0,075
-567,861	-200,000	-0,013	-0,060
-566,846	-200,000	0,006	-0,080
-565,831	348,085	-0,064	0,093
-564,817	800,000	0,029	-0,091
-563,802	-79,123	-0,051	-0,013
-562,788	727,841	-0,040	-0,079
-561,773	-43,006	-0,131	-0,049
-560,758	208,504	0,047	0,054
-559,744	800,000	0,023	0,061
-558,729	-200,000	0,001	0,031
-557,715	89,342	0,054	0,044
-556,700	-23,705	-0,038	-0,017
-555,685	43,614	-0,067	-0,045
-554,671	160,248	-0,064	-0,066
-553,656	109,278	0,042	0,037
-552,642	-154,247	0,150	0,007
-551,627	424,741	-0,029	-0,046
-550,612	548,767	0,086	-0,152
-549,598	103,649	0,107	-0,093
-548,583	-60,752	0,068	0,021
-547,569	524,654	-0,044	-0,078
-546,554	-200,000	-0,036	-0,136
-545,539	-12,496	-0,061	-0,029
-544,525	800,000	-0,026	-0,065
-543,510	-193,068	-0,056	0,000
-542,496	-200,000	-0,008	-0,079
-541,481	568,149	-0,018	0,032
-540,466	450,636	-0,027	-0,045
-539,452	-200,000	-0,003	0,038
-538,437	800,000	0,049	-0,125
-537,423	261,539	-0,068	-0,087
-536,408	-144,136	-0,012	-0,001
-535,393	82,306	-0,161	-0,129
-534,379	-100,083	0,036	0,007
-533,364	-125,233	0,028	0,003
-532,350	-200,000	0,038	0,202
-531,335	800,000	-0,019	0,047
-530,321	-200,000	0,006	0,034
-529,306	467,512	-0,045	0,075
-528,291	-111,355	-0,258	0,038
-527,277	204,830	0,073	-0,084
-526,262	323,691	0,062	-0,088
-525,248	6,892	0,157	-0,086
-524,233	-200,000	-0,003	-0,111
-523,218	-200,000	-0,041	0,146
-522,204	450,189	-0,019	0,030
-521,189	405,605	-0,041	-0,065
-520,175	15,671	-0,066	0,038
-519,160	-200,000	0,005	-0,095
-518,145	129,365	-0,090	-0,084
-517,131	-110,064	0,077	-0,012
-516,116	-200,000	-0,016	-0,083
-515,102	-6,628	-0,081	-0,040
-514,087	-200,000	0,016	0,082
-513,072	-200,000	-0,029	0,116
-512,058	-200,000	-0,011	0,110
-511,043	-32,900	0,054	-0,022
-510,029	-39,888	0,057	-0,022
-509,014	574,018	0,048	0,087
-507,999	-200,000	0,014	0,117
-506,985	-166,158	-0,205	0,006
-505,970	800,000	-0,050	-0,114
-504,956	800,000	-0,029	-0,080
-503,941	800,000	-0,015	-0,034
-502,926	488,556	0,050	-0,084
-501,912	-200,000	0,002	-0,015
-500,897	279,517	-0,021	0,028
-499,883	85,457	-0,070	0,057
-498,868	800,000	0,046	-0,142
-497,853	279,077	-0,151	-0,199
-496,839	-200,000	-0,016	-0,062
-495,824	270,826	0,129	0,168
-494,810	-200,000	0,016	0,066
-493,795	-200,000	-0,031	-0,117
-492,781	128,448	-0,085	-0,080
-491,766	-200,000	-0,022	-0,081
-490,751	462,948	0,040	-0,067
-489,737	-44,375	-0,058	0,021
-488,722	-200,000	-0,015	-0,082
-487,708	-87,849	-0,073	0,016
-486,693	197,719	-0,055	-0,062
-485,678	-151,114	0,042	0,002
-484,664	800,000	-0,025	0,064
-483,649	-200,000	0,034	0,112
-482,635	-189,613	0,109	0,001
-481,620	-120,364	-0,030	0,004
-480,605	-5,248	0,119	0,060
-479,591	58,679	-0,043	-0,031
-478,576	147,109	-0,021	-0,021
-477,562	-200,000	0,010	0,058
-476,547	211,502	0,020	-0,023
-475,532	-22,371	0,040	0,018
-474,518	215,778	0,018	-0,021
-473,503	85,145	0,071	0,057
-472,489	40,420	-0,123	0,081
-471,474	-185,038	0,036	-0,000
-470,459	-200,000	-0,031	-0,113
-469,445	264,369	0,029	0,037
-468,430	-200,000	0,002	-0,040
-467,416	-7,985	-0,039	0,019
-466,401	-200,000	0,022	0,143
-465,386	-200,000	0,035	0,119
-464,372	-103,872	-0,081	-0,014
-463,357	48,928	-0,052	-0,036
-462,343	-31,538	-0,151	-0,062
-461,328	544,842	0,082	-0,146
-460,313	-70,758	-0,155	0,043
-459,299	-1,156	-0,047	0,024
-458,284	-200,000	0,004	0,060
-457,270	-73,129	-0,039	0,010
-456,255	83,819	0,008	-0,007
-455,241	-87,148	0,082	-0,018
-454,226	-165,741	0,046	0,001
-453,211	-19,006	-0,083	-0,038
-452,197	433,656	0,089	0,142
-451,182	349,928	0,117	0,171
-450,168	34,363	-0,047	-0,030
-449,153	800,000	-0,025	-0,075
-448,138	-129,539	-0,091	-0,009
-447,124	75,683	-0,077	0,060
-446,109	-200,000	0,036	0,153
-445,095	138,516	0,085	-0,082
-444,080	800,000	-0,008	0,017
-443,065	-124,600	-0,090	-0,010
-442,051	-200,000	0,017	0,080
-441,036	469,715	-0,059	-0,098
-440,022	-200,000	-0,177	-0,001
-439,007	-200,000	-0,013	-0,114
-437,992	289,897	0,045	0,060
-436,978	-167,463	0,169	0,005
-435,963	-129,862	-0,091	-0,009
-434,949	54,495	0,071	0,050
-433,934	148,126	-0,009	-0,008
-432,919	-200,000	-0,013	-0,127
-431,905	-15,985	-0,060	0,028
-430,890	265,403	0,026	-0,033
-429,876	-200,000	0,036	0,143
-428,861	-16,153	0,035	0,016
-427,846	119,870	-0,071	-0,064
-426,832	115,971	0,020	0,018
-425,817	-189,001	-0,117	0,001
-424,803	-200,000	0,005	-0,054
-423,788	-156,664	0,122	0,005
-422,773	-151,981	0,069	-0,004
-421,759	229,789	0,139	0,167
-420,744	-20,323	-0,083	-0,037
-419,730	-200,000	-0,005	0,017
-418,715	-157,519	-0,174	-0,008
-417,701	674,428	-0,043	-0,082
-416,686	105,077	-0,085	-0,074
-415,671	800,000	0,041	0,112
-414,657	-200,000	0,012	0,054
-413,642	17,370	-0,044	-0,026
-412,628	-200,000	0,040	-0,174
-411,613	-130,787	-0,061	0,006
-410,598	326,599	0,090	0,127
-409,584	293,113	-0,095	0,127
-408,569	83,126	0,090	0,072
-407,555	-13,296	-0,182	0,087
-406,540	-29,469	0,125	-0,052
-405,525	11,468	0,012	-0,007
-404,511	800,000	0,030	-0,079
-403,496	-167,497	0,138	-0,004
-402,482	433,681	0,021	-0,033
-401,467	-6,526	0,153	0,076
-400,452	-186,560	0,040	-0,000
-399,438	-125,208	-0,100	-0,011
-398,423	-200,000	0,043	0,199
-397,409	-200,000	0,031	-0,121
-396,394	-45,796	0,024	-0,009
-395,379	-168,468	0,124	-0,003
-394,365	278,165	-0,064	-0,084
-393,350	800,000	-0,020	0,044
-392,336	365,930	-0,038	0,057
-391,321	594,437	-0,052	0,094
-390,306	175,950	0,070	0,074
-389,292	-5,195	-0,100	-0,050
-388,277	-200,000	0,014	-0,059
-387,263	-200,000	0,002	-0,012
-386,248	-200,000	-0,014	-0,072
-385,233	-65,393	0,140	-0,041
-384,219	-200,000	0,046	0,186
-383,204	1,765	0,076	-0,040
-382,190	50,387	0,042	0,029
-381,175	800,000	-0,008	-0,026
-380,160	-128,483	-0,086	-0,009
-379,146	-200,000	0,029	0,098
-378,131	800,000	-0,055	-0,178
-377,117	738,468	-0,039	-0,078
-376,102	27,446	-0,084	-0,052
-375,088	800,000	-0,008	0,020
-374,073	2,042	-0,114	-0,060
-373,058	324,181	0,073	0,102
-372,044	-200,000	0,024	0,146
-371,029	22,322	0,083	0,050
-370,015	97,605	0,079	-0,067
-369,000	-127,802	-0,094	0,010
-367,985	800,000	0,060	-0,122
-366,971	17,081	0,041	-0,024
-365,956	-200,000	-0,005	-0,058
-364,942	-70,379	0,084	0,023
-363,927	-200,000	-0,040	0,133
-362,912	628,462	0,020	-0,036
-361,898	-170,854	0,080	0,002
-360,883	34,761	0,053	-0,034
-359,869	133,173	-0,053	-0,050
-358,854	241,175	-0,024	-0,029
-357,839	-5,407	0,126	-0,063
-356,825	296,529	0,095	0,129
-355,810	-200,000	0,010	-0,086
-354,796	-200,000	0,034	-0,110
-353,781	334,885	-0,082	-0,117
-352,766	375,508	0,044	-0,066
-351,752	424,553	-0,090	0,143
-350,737	800,000	-0,034	0,087
-349,723	578,925	-0,038	0,068
-348,708	243,024	0,103	0,126
-347,693	-200,000	-0,040	0,142
-346,679	98,889	-0,011	0,009
-345,664	72,077	0,116	-0,088
-344,650	94,931	0,027	0,022
-343,635	-200,000	0,037	0,144
-342,620	-193,088	0,148	-0,001
-341,606	-163,637	0,166	0,006
-340,591	546,239	-0,044	-0,077
-339,577	124,324	-0,140	-0,129
-338,562	800,000	0,039	-0,103
-337,548	35,333	0,148	0,095
-336,533	37,242	-0,051	0,033
-335,518	129,192	0,065	0,061
-334,504	111,393	0,041	-0,036
-333,489	800,000	0,017	-0,044
-332,475	-108,377	-0,102	-0,016
-331,460	-200,000	-0,010	0,074
-330,445	-50,286	0,136	0,047
-329,431	-79,678	-0,033	-0,008
-328,416	258,848	0,102	-0,129
-327,402	-200,000	0,001	0,097
-326,387	800,000	0,108	0,239
-325,372	-200,000	-0,011	-0,038
-324,358	141,024	0,103	0,100
-323,343	738,384	-0,076	0,149
-322,329	-94,557	0,038	0,007
-321,314	44,510	-0,053	0,036
-320,299	-200,000	-0,003	-0,036
-319,285	-200,000	0,029	-0,193
-318,270	-200,000	0,003	0,053
-317,256	-200,000	0,017	-0,127
-316,241	-200,000	-0,011	-0,046
-315,226	316,854	-0,084	0,117
-314,212	83,843	0,153	0,122
-313,197	339,730	0,137	0,197
-312,183	463,639	0,006	0,010
-311,168	33,099	0,087	0,055
-310,153	-51,860	-0,092	0,031
-309,139	234,434	-0,028	-0,034
-308,124	-101,865	0,082	0,014
-307,110	260,861	-0,036	0,046
-306,095	-58,389	0,143	0,045
-305,080	-107,280	0,120	0,019
-304,066	-200,000	0,016	-0,118
-303,051	-200,000	0,005	-0,062
-302,037	-48,818	0,025	0,009
-301,022	308,606	-0,029	0,040
-300,008	-30,748	0,036	0,015
-298,993	-100,287	0,195	-0,035
-297,978	-50,346	-0,064	0,022
-296,964	-200,000	-0,002	-0,067
-295,949	-125,445	-0,092	-0,010
-294,935	-51,758	0,031	0,010
-293,920	110,306	0,035	0,031
-292,905	-46,357	0,081	0,029
-291,891	-200,000	0,007	-0,059
-290,876	59,796	0,053	0,038
-289,862	-200,000	-0,002	-0,008
-288,847	362,144	-0,118	-0,173
-287,832	-200,000	0,004	0,013
-286,818	330,918	-0,057	-0,081
-285,803	6,844	0,113	0,061
-284,789	225,930	-0,046	0,055
-283,774	491,392	0,013	0,021
-282,759	-58,587	0,059	-0,019
-281,745	-146,894	-0,127	-0,008
-280,730	-200,000	-0,000	-0,017
-279,716	-57,270	0,071	0,023
-278,701	800,000	0,024	-0,060
-277,686	-200,000	-0,003	0,012
-276,672	-9,936	0,061	-0,030
-275,657	800,000	-0,037	0,081
-274,643	375,053	-0,025	-0,038
-273,628	-24,967	-0,077	0,033
-272,613	-200,000	-0,005	-0,045
-271,599	-129,378	0,070	0,007
-270,584	244,183	-0,031	-0,038
-269,570	800,000	-0,017	-0,044
-268,555	24,539	-0,030	-0,018
-267,540	-200,000	-0,013	0,145
-266,526	358,427	-0,060	-0,087
-265,511	-200,000	0,006	0,051
-264,497	800,000	0,053	-0,150
-263,482	342,175	0,071	0,101
-262,467	-200,000	0,001	-0,016
-261,453	-200,000	-0,004	0,036
-260,438	-200,000	-0,012	0,169
-259,424	800,000	-0,014	0,033
-258,409	-13,243	-0,106	-0,050
-257,395	-200,000	0,007	0,165
-256,380	-200,000	-0,006	-0,049
-255,365	-52,540	0,248	-0,083
-254,351	800,000	0,022	0,051
-253,336	-90,151	-0,047	0,010
-252,322	-200,000	-0,003	-0,076
-251,307	235,938	-0,040	-0,048
-250,292	283,495	-0,098	-0,130
-249,278	-200,000	0,009	-0,095
-248,263	-41,204	0,143	-0,054
-247,249	214,220	-0,089	-0,103
-246,234	-200,000	0,024	-0,093
-245,219	222,102	-0,107	-0,126
-244,205	-168,392	-0,105	-0,003
-243,190	638,004	-0,049	0,092
-242,176	140,184	0,097	0,094
-241,161	15,060	0,113	-0,065
-240,146	160,148	-0,175	0,178
-239,132	766,988	0,048	0,097
-238,117	800,000	0,038	-0,087
-237,103	-148,800	-0,079	-0,005
-236,088	-170,132	-0,082	0,002
-235,073	188,245	0,115	-0,126
-234,059	-69,558	0,071	-0,020
-233,044	-200,000	0,006	0,042
-232,030	443,019	-0,083	0,133
-231,015	-84,323	-0,107	-0,024
-230,000	-200,000	-0,001	-0,095
-228,986	-67,761	0,129	-0,036
-227,971	800,000	0,033	0,078
-226,957	731,139	0,039	0,076
-225,942	-102,606	-0,096	0,017
-224,927	-68,464	0,108	-0,030
-223,913	-53,839	0,124	-0,041
-222,898	33,106	0,031	-0,020
-221,884	-200,000	0,007	0,144
-220,869	155,714	0,071	-0,072
-219,855	19,479	0,154	0,090
-218,840	138,204	0,044	0,042
-217,825	-65,897	-0,118	0,034
-216,811	149,873	-0,047	-0,047
-215,796	25,862	0,180	0,109
-214,782	-2,220	-0,013	0,007
-213,767	473,559	0,017	-0,028
-212,752	102,787	0,065	-0,055
-211,738	131,525	0,067	0,063
-210,723	-200,000	0,004	-0,118
-209,709	85,860	-0,087	-0,070
-208,694	301,753	0,046	-0,062
-207,679	-71,939	-0,017	-0,005
-206,665	800,000	0,058	0,137
-205,650	-101,058	-0,034	0,006
-204,636	-187,193	0,115	0,001
-203,621	800,000	-0,030	0,089
-202,606	-200,000	-0,010	-0,043
-201,592	61,771	0,047	0,034
-200,577	800,000	-0,023	-0,047
-199,563	564,881	-0,019	-0,033
-198,548	-200,000	0,061	-0,199
-197,533	363,537	0,089	0,131
-196,519	43,036	0,080	0,053
-195,504	-100,748	0,046	0,008
-194,490	304,647	0,029	-0,040
-193,475	-200,000	0,001	0,013
-192,460	712,038	-0,049	0,096
-191,446	142,420	0,104	0,100
-190,431	-200,000	-0,007	0,117
-189,417	800,000	-0,053	0,122
-188,402	-23,148	-0,069	-0,030
-187,387	-200,000	-0,001	0,019
-186,373	116,419	-0,078	-0,070
-185,358	-200,000	-0,024	-0,098
-184,344	-200,000	-0,001	0,027
-183,329	-200,000	-0,014	0,088
-182,315	89,845	0,108	0,088
-181,300	-200,000	-0,005	-0,020
-180,285	-74,606	-0,195	0,051
-179,271	393,604	-0,062	0,094
-178,256	10,403	0,081	-0,045
-177,242	-65,263	0,095	0,028
-176,227	254,320	0,050	-0,062
-175,212	57,521	-0,074	0,053
-174,198	800,000	0,009	0,019
-173,183	-51,922	-0,035	-0,012
-172,169	-64,607	-0,069	0,020
-171,154	13,511	-0,129	-0,073
-170,139	-200,000	0,007	-0,078
-169,125	-200,000	0,005	0,043
-168,110	-168,283	0,084	0,002
-167,096	88,819	0,051	0,041
-166,081	-200,000	-0,006	0,090
-165,066	245,400	-0,040	-0,049
-164,052	-200,000	0,006	-0,064
-163,037	-48,377	0,082	-0,029
-162,023	-200,000	0,043	0,253
-161,008	-200,000	-0,014	0,121
-159,993	-200,000	-0,009	-0,060
-158,979	538,594	-0,046	0,080
-157,964	-37,510	0,071	-0,028
-156,950	800,000	-0,026	0,054
-155,935	-174,011	0,112	-0,002
-154,920	-200,000	0,005	-0,029
-153,906	57,021	-0,113	0,080
-152,891	-100,663	-0,046	-0,008
-151,877	-200,000	0,002	0,034
-150,862	690,127	-0,055	0,105
-149,847	-200,000	-0,010	-0,119
-148,833	-132,666	-0,043	0,004
-147,818	-67,126	-0,135	0,038
-146,804	-58,433	-0,081	0,026
-145,789	-200,000	0,002	0,046
-144,775	-200,000	0,002	0,055
-143,760	-200,000	-0,011	-0,121
-142,745	-54,262	-0,095	0,031
-141,731	-8,751	0,090	0,044
-140,716	-200,000	0,009	-0,056
-139,702	84,285	0,015	-0,012
-138,687	-28,267	-0,112	0,047
-137,672	-200,000	0,027	0,093
-136,658	219,074	-0,058	-0,068
-135,643	800,000	-0,007	-0,016
-134,629	-200,000	-0,008	-0,145
-133,614	69,549	0,072	0,054
-132,599	-112,266	0,106	-0,015
-131,585	-18,386	0,105	0,047
-130,570	-60,944	-0,146	0,045
-129,556	184,153	-0,075	0,081
-128,541	-99,561	0,095	0,017
-127,526	-88,928	-0,154	-0,033
-126,512	129,981	-0,088	0,082
-125,497	-200,000	-0,035	0,179
-124,483	46,974	0,087	0,059
-123,468	800,000	0,046	0,097
-122,453	-200,000	0,010	-0,101
-121,439	227,140	-0,120	-0,142
-120,424	171,383	0,108	-0,113
