DTS Sentinel unit serial number:	SN410029Multiplexer serial number:	ORYXHardware model number:	OX2-SRSoftware version number:	ORYX F/W v4,00 Oryx Data Collector v3.7.2.0data status	okinstallation	B6 Nyhavnadifferential loss correction	single-endedforward channel	channel 2reverse channel	N/Adate	2023/12/07time	19:00:08forward acquisition time	300,00reverse acquisition time	0,00gamma	499,1914k internal	0,3164k external	0,3164temperature offset calibration	1,0000default loss term (dB/km)	0,3820temperature slope calibration	1,0000multiplexer offset coefficient	1,0000multiplexer slope coefficient	1,0000fibre end	0,00T internal ref (°C)	14,13T ext. ref 1 (°C)	-2,90T ext. ref 2 (°C)	-2,88length (m)	temperature (°C)	Stokes	anti-Stokes-744,400	72,109	0,046	0,035
-743,385	-52,817	-0,322	0,109
-742,371	-94,529	0,060	-0,012
-741,356	-184,638	-0,297	0,003
-740,342	-24,627	0,182	-0,079
-739,327	-61,683	-0,340	-0,104
-738,312	19,400	0,191	0,113
-737,298	-62,771	-0,309	0,093
-736,283	800,000	0,057	0,166
-735,269	-150,816	-0,319	-0,018
-734,254	531,811	0,072	0,125
-733,239	-28,657	-0,608	-0,256
-732,225	112,290	0,130	0,116
-731,210	-200,000	0,024	0,109
-730,196	-200,000	-0,006	0,042
-729,181	346,051	-0,083	-0,120
-728,167	-150,257	0,079	-0,004
-727,152	-21,025	0,115	0,051
-726,137	187,853	-0,104	-0,115
-725,123	352,021	0,063	-0,092
-724,108	574,202	-0,047	0,085
-723,094	-200,000	-0,019	0,163
-722,079	-40,810	-0,063	-0,024
-721,064	98,646	-0,021	-0,018
-720,050	-7,747	0,126	-0,062
-719,035	-200,000	0,002	-0,074
-718,021	56,490	-0,096	0,068
-717,006	36,148	-0,151	0,098
-715,991	107,031	-0,104	-0,091
-714,977	800,000	-0,054	-0,137
-713,962	394,947	-0,165	-0,254
-712,948	163,657	-0,103	-0,107
-711,933	800,000	-0,006	0,018
-710,918	134,751	0,082	-0,078
-709,904	-200,000	0,008	-0,159
-708,889	-90,868	-0,241	-0,051
-707,875	800,000	0,069	-0,158
-706,860	235,378	0,054	-0,066
-705,845	259,782	0,038	-0,048
-704,831	-120,226	0,090	-0,011
-703,816	-98,192	-0,067	0,013
-702,802	-42,772	-0,065	-0,024
-701,787	-200,000	0,008	-0,097
-700,772	791,337	-0,039	0,080
-699,758	-200,000	0,020	-0,071
-698,743	123,204	-0,034	0,032
-697,729	659,937	-0,053	0,100
-696,714	-86,434	-0,139	0,031
-695,699	-200,000	-0,007	0,080
-694,685	155,229	0,051	-0,051
-693,670	-155,627	0,126	0,006
-692,656	18,173	-0,030	0,017
-691,641	619,796	0,061	-0,114
-690,627	-200,000	-0,008	-0,093
-689,612	-94,236	0,070	-0,014
-688,597	-97,817	0,066	-0,012
-687,583	-200,000	-0,044	-0,166
-686,568	800,000	-0,077	-0,166
-685,554	-114,714	0,114	-0,016
-684,539	-200,000	-0,006	0,108
-683,524	-35,257	0,037	0,015
-682,510	192,881	-0,126	-0,140
-681,495	745,163	0,014	-0,029
-680,481	481,263	-0,083	-0,138
-679,466	-200,000	0,007	-0,034
-678,451	-200,000	0,009	-0,217
-677,437	358,864	0,054	0,080
-676,422	428,760	0,056	0,090
-675,408	-146,471	-0,161	0,010
-674,393	-106,554	-0,113	0,018
-673,378	-87,768	-0,201	0,044
-672,364	605,668	-0,062	-0,113
-671,349	205,649	-0,068	-0,077
-670,335	-132,058	-0,137	0,013
-669,320	141,419	-0,073	0,071
-668,305	147,611	-0,056	-0,056
-667,291	-28,166	-0,071	0,030
-666,276	800,000	-0,037	-0,085
-665,262	800,000	-0,072	-0,183
-664,247	790,628	-0,056	-0,113
-663,232	91,301	-0,136	0,112
-662,218	800,000	0,027	0,059
-661,203	-18,227	-0,049	-0,022
-660,189	359,021	0,101	-0,148
-659,174	800,000	-0,051	-0,157
-658,159	29,796	-0,138	-0,086
-657,145	707,331	-0,046	-0,090
-656,130	293,431	-0,117	-0,157
-655,116	800,000	0,053	-0,124
-654,101	-53,560	0,046	0,015
-653,086	-167,752	0,053	-0,002
-652,072	-90,764	-0,148	-0,031
-651,057	-200,000	0,000	-0,088
-650,043	82,963	0,025	-0,020
-649,028	-72,137	0,056	-0,015
-648,014	-200,000	-0,018	0,111
-646,999	218,367	-0,041	0,048
-645,984	-167,299	-0,059	0,002
-644,970	-59,658	-0,019	0,006
-643,955	23,151	-0,099	-0,060
-642,941	-61,806	-0,123	0,038
-641,926	9,074	-0,040	-0,022
-640,911	-71,222	-0,007	-0,002
-639,897	-200,000	-0,028	-0,091
-638,882	0,869	-0,055	0,029
-637,868	800,000	-0,018	0,045
-636,853	-200,000	-0,008	0,075
-635,838	-61,634	-0,089	0,027
-634,824	-44,034	-0,138	0,051
-633,809	61,403	0,050	0,036
-632,795	800,000	0,036	0,081
-631,780	-12,012	-0,177	-0,085
-630,765	-98,067	-0,061	0,011
-629,751	538,284	-0,036	0,062
-628,736	-82,089	-0,071	-0,017
-627,722	-200,000	-0,027	-0,091
-626,707	-73,456	0,099	0,026
-625,692	17,560	0,147	-0,085
-624,678	335,446	-0,018	0,025
-623,663	800,000	0,060	0,139
-622,649	51,664	-0,123	-0,085
-621,634	56,194	0,055	0,039
-620,619	86,120	-0,122	0,098
-619,605	76,880	-0,042	0,033
-618,590	-137,351	0,109	-0,009
-617,576	298,349	-0,076	-0,103
-616,561	-88,776	-0,032	0,007
-615,546	184,515	-0,044	-0,048
-614,532	-200,000	-0,028	-0,103
-613,517	-25,772	-0,135	0,058
-612,503	-137,811	-0,049	-0,004
-611,488	800,000	0,029	-0,061
-610,474	134,997	0,104	-0,099
-609,459	460,010	0,112	-0,183
-608,444	73,956	-0,035	-0,027
-607,430	-153,126	0,100	0,005
-606,415	-200,000	0,001	-0,175
-605,401	-46,737	0,039	-0,014
-604,386	-200,000	-0,029	0,093
-603,371	-200,000	0,004	-0,078
-602,357	-200,000	-0,009	-0,062
-601,342	-74,629	0,109	0,028
-600,328	28,018	-0,112	-0,069
-599,313	274,907	-0,031	0,040
-598,298	-200,000	-0,006	-0,115
-597,284	-63,109	0,152	0,046
-596,269	419,685	-0,012	-0,019
-595,255	274,651	0,041	0,054
-594,240	14,174	0,040	-0,023
-593,225	-7,704	-0,143	0,070
-592,211	-111,734	0,034	-0,005
-591,196	58,403	-0,060	-0,043
-590,182	17,507	0,058	-0,033
-589,167	-200,000	-0,012	0,117
-588,152	307,614	0,071	0,097
-587,138	-200,000	0,021	-0,136
-586,123	272,830	-0,078	-0,101
-585,109	800,000	0,032	0,075
-584,094	800,000	0,030	-0,072
-583,079	57,434	0,104	-0,074
-582,065	-115,358	0,067	-0,009
-581,050	-200,000	0,031	0,113
-580,036	-200,000	0,011	-0,103
-579,021	-200,000	-0,010	-0,057
-578,006	144,931	-0,094	-0,092
-576,992	-200,000	-0,009	-0,104
-575,977	-200,000	0,006	-0,051
-574,963	-115,277	-0,072	0,010
-573,948	3,797	0,060	-0,032
-572,934	260,210	-0,037	0,047
-571,919	-65,201	-0,176	0,052
-570,904	800,000	0,034	0,092
-569,890	239,632	-0,073	0,090
-568,875	110,943	0,016	0,014
-567,861	800,000	0,041	0,087
-566,846	800,000	-0,022	0,048
-565,831	-200,000	0,004	-0,018
-564,817	-200,000	-0,001	-0,022
-563,802	-39,537	-0,147	-0,056
-562,788	-200,000	0,006	-0,040
-561,773	21,218	0,126	-0,075
-560,758	-200,000	-0,006	0,048
-559,744	194,152	0,084	-0,093
-558,729	375,776	0,077	0,115
-557,715	-200,000	-0,004	0,091
-556,700	-200,000	0,000	-0,064
-555,685	800,000	0,029	0,072
-554,671	136,982	0,016	-0,015
-553,656	67,938	0,073	-0,054
-552,642	-180,898	-0,080	0,001
-551,627	-200,000	0,031	-0,110
-550,612	76,086	0,095	-0,073
-549,598	9,408	-0,058	-0,032
-548,583	-120,706	-0,097	-0,012
-547,569	-200,000	-0,020	-0,115
-546,554	-200,000	-0,029	-0,125
-545,539	11,377	0,051	-0,028
-544,525	-48,452	0,118	0,041
-543,510	5,812	-0,041	-0,022
-542,496	-99,656	-0,072	-0,013
-541,481	800,000	-0,023	-0,059
-540,466	28,985	-0,120	0,074
-539,452	42,194	0,107	0,071
-538,437	710,015	0,013	0,026
-537,423	-200,000	-0,002	0,135
-536,408	52,306	0,036	-0,025
-535,393	-82,505	-0,095	-0,022
-534,379	153,741	0,036	-0,036
-533,364	-148,755	0,107	0,006
-532,350	107,605	-0,072	-0,063
-531,335	88,347	0,101	-0,081
-530,321	800,000	-0,046	0,113
-529,306	82,573	-0,128	-0,101
-528,291	800,000	0,030	-0,072
-527,277	236,021	-0,057	0,069
-526,262	-66,538	0,148	-0,043
-525,248	-200,000	-0,006	-0,065
-524,233	-78,723	0,211	0,052
-523,218	800,000	0,007	0,018
-522,204	-18,882	0,055	-0,025
-521,189	-200,000	-0,002	-0,086
-520,175	169,409	-0,044	-0,046
-519,160	800,000	0,032	-0,072
-518,145	47,008	-0,067	-0,046
-517,131	128,770	0,147	-0,136
-516,116	-200,000	0,034	0,195
-515,102	-200,000	0,022	0,124
-514,087	-100,282	0,065	0,012
-513,072	164,643	0,051	-0,053
-512,058	800,000	0,013	0,032
-511,043	607,025	-0,047	0,086
-510,029	-54,174	0,112	-0,037
-509,014	800,000	0,007	0,020
-507,999	-18,285	-0,088	0,040
-506,985	-97,544	-0,131	0,025
-505,970	12,151	-0,040	0,023
-504,956	285,521	-0,123	-0,161
-503,941	-21,383	0,103	0,046
-502,926	457,807	-0,034	-0,056
-501,912	-14,093	-0,107	-0,050
-500,897	-105,953	0,091	-0,015
-499,883	587,374	-0,046	-0,083
-498,868	-200,000	-0,007	0,047
-497,853	381,164	-0,063	-0,094
-496,839	-200,000	0,008	0,070
-495,824	-200,000	0,009	0,049
-494,810	-200,000	-0,006	0,056
-493,795	323,157	0,039	-0,054
-492,781	-107,420	-0,069	0,011
-491,766	-200,000	0,009	0,164
-490,751	-200,000	0,007	0,109
-489,737	-200,000	0,016	-0,082
-488,722	85,481	-0,081	0,065
-487,708	465,482	-0,067	-0,109
-486,693	367,360	-0,017	-0,026
-485,678	17,414	0,065	0,037
-484,664	-67,714	-0,129	0,037
-483,649	41,555	-0,038	0,025
-482,635	765,686	0,049	0,098
-481,620	45,854	-0,018	-0,012
-480,605	170,766	0,119	-0,124
-479,591	63,952	-0,072	-0,053
-478,576	-200,000	-0,049	0,168
-477,562	-41,286	-0,003	0,001
-476,547	603,056	0,035	-0,063
-475,532	800,000	0,027	-0,066
-474,518	36,961	0,125	0,081
-473,503	298,829	0,021	-0,028
-472,489	126,254	-0,069	0,063
-471,474	-0,745	0,070	-0,036
-470,459	299,574	-0,035	-0,048
-469,445	285,590	-0,059	-0,077
-468,430	-137,328	-0,054	0,004
-467,416	-63,994	0,046	0,013
-466,401	-162,699	0,111	-0,004
-465,386	353,914	0,041	-0,060
-464,372	-178,217	0,103	0,002
-463,357	-7,951	-0,137	-0,067
-462,343	-158,399	-0,083	0,003
-461,328	-44,638	-0,040	0,014
-460,313	-61,100	-0,074	0,023
-459,299	-141,826	0,144	0,010
-458,284	215,267	-0,026	-0,030
-457,270	-72,648	-0,086	-0,023
-456,255	296,573	0,051	-0,068
-455,241	-55,669	-0,100	-0,032
-454,226	93,313	0,035	-0,029
-453,211	800,000	0,031	-0,081
-452,197	34,454	0,019	-0,012
-451,182	57,887	0,076	-0,054
-450,168	210,373	0,040	0,045
-449,153	382,684	0,052	0,078
-448,138	67,374	0,035	0,026
-447,124	760,343	0,039	-0,077
-446,109	505,793	0,036	-0,060
-445,095	-33,959	0,129	-0,051
-444,080	309,211	0,098	0,133
-443,065	-200,000	0,003	0,032
-442,051	-140,106	0,099	-0,007
-441,036	-200,000	-0,036	-0,224
-440,022	-71,935	-0,115	-0,031
-439,007	-200,000	0,135	0,000
-437,992	8,234	0,068	-0,037
-436,978	800,000	-0,056	0,131
-435,963	-21,709	-0,065	0,029
-434,949	18,287	-0,060	-0,035
-433,934	544,702	0,025	0,044
-432,919	34,089	0,055	0,035
-431,905	-106,730	0,154	0,025
-430,890	3,244	-0,039	-0,020
-429,876	13,793	0,139	0,078
-428,861	-200,000	-0,033	0,147
-427,846	8,731	0,098	0,054
-426,832	-120,587	0,044	-0,005
-425,817	-116,078	0,051	0,007
-424,803	-109,068	0,143	-0,022
-423,788	289,648	0,067	-0,089
-422,773	-200,000	0,028	0,138
-421,759	558,244	0,049	-0,086
-420,744	-200,000	0,006	-0,074
-419,730	-103,270	-0,106	0,018
-418,715	-200,000	-0,012	-0,079
-417,701	269,668	-0,115	-0,147
-416,686	46,982	0,060	0,040
-415,671	586,066	0,044	-0,079
-414,657	800,000	-0,036	-0,075
-413,642	263,441	0,040	-0,050
-412,628	-200,000	-0,025	0,086
-411,613	-200,000	0,006	0,027
-410,598	277,417	-0,038	0,049
-409,584	-200,000	-0,008	-0,123
-408,569	-200,000	-0,004	-0,084
-407,555	800,000	0,045	-0,101
-406,540	-200,000	0,003	-0,024
-405,525	-72,470	-0,111	0,030
-404,511	-78,303	-0,059	-0,015
-403,496	-9,874	0,050	0,024
-402,482	258,894	-0,005	0,007
-401,467	275,490	0,062	0,081
-400,452	-200,000	-0,013	0,040
-399,438	-200,000	-0,006	0,060
-398,423	-49,524	-0,058	0,020
-397,409	800,000	-0,039	-0,098
-396,394	-84,792	-0,206	-0,047
-395,379	-95,982	0,068	-0,013
-394,365	426,553	-0,024	-0,037
-393,350	-105,483	0,151	-0,025
-392,336	488,287	-0,024	-0,040
-391,321	-149,967	-0,107	-0,006
-390,306	-47,069	-0,017	0,006
-389,292	362,160	-0,059	0,086
-388,277	109,218	-0,044	0,038
-387,263	6,540	-0,077	-0,042
-386,248	496,714	0,053	-0,090
-385,233	242,767	-0,032	-0,039
-384,219	-27,610	-0,066	-0,028
-383,204	17,225	-0,058	-0,033
-382,190	150,183	0,013	-0,012
-381,175	-200,000	-0,009	-0,165
-380,160	97,970	-0,036	0,030
-379,146	-120,280	0,061	0,007
-378,131	544,436	0,072	0,125
-377,117	667,717	0,009	-0,017
-376,102	488,141	-0,068	-0,113
-375,088	-166,638	-0,059	-0,002
-374,073	46,968	-0,038	0,026
-373,058	-135,152	-0,067	0,006
-372,044	-44,171	0,078	0,028
-371,029	-51,853	-0,066	-0,022
-370,015	266,191	-0,040	-0,051
-369,000	-7,039	0,068	-0,034
-367,985	120,881	-0,034	0,031
-366,971	168,935	0,034	0,035
-365,956	425,752	-0,051	-0,080
-364,942	-104,589	0,102	-0,017
-363,927	-169,871	0,062	0,002
-362,912	123,366	-0,097	0,088
-361,898	-95,255	-0,150	-0,029
-360,883	-161,835	-0,027	-0,001
-359,869	800,000	-0,030	0,075
-358,854	800,000	0,059	0,153
-357,839	-200,000	0,030	0,102
-356,825	-200,000	0,015	0,095
-355,810	-93,249	-0,074	-0,015
-354,796	-200,000	-0,024	0,091
-353,781	92,357	0,083	0,067
-352,766	-200,000	-0,001	-0,041
-351,752	-200,000	-0,006	0,086
-350,737	74,000	0,039	0,030
-349,723	44,614	-0,087	-0,058
-348,708	-3,192	-0,015	0,007
-347,693	-34,917	0,133	0,052
-346,679	701,981	0,010	0,020
-345,664	-200,000	-0,007	0,116
-344,650	-200,000	0,006	-0,043
-343,635	162,395	0,075	0,077
-342,620	-132,517	-0,134	0,012
-341,606	-31,082	0,075	0,031
-340,591	-200,000	0,002	0,021
-339,577	-67,133	0,105	-0,030
-338,562	6,085	-0,037	-0,020
-337,548	-50,350	0,046	-0,016
-336,533	-58,482	0,066	0,021
-335,518	12,044	0,106	0,059
-334,504	800,000	0,015	0,046
-333,489	-200,000	0,002	0,081
-332,475	122,727	-0,018	-0,017
-331,460	-82,750	-0,058	-0,013
-330,445	-121,858	-0,088	-0,010
-329,431	-51,667	0,076	-0,025
-328,416	388,733	-0,116	0,174
-327,402	-17,384	0,097	0,044
-326,387	-67,051	0,083	0,024
-325,372	135,354	-0,057	-0,054
-324,358	295,269	-0,042	0,056
-323,343	-145,790	-0,041	-0,003
-322,329	399,047	-0,057	0,086
-321,314	156,024	0,027	0,027
-320,299	698,245	-0,021	-0,040
-319,285	433,219	-0,032	0,051
-318,270	800,000	-0,071	-0,185
-317,256	-24,672	-0,148	0,063
-316,241	121,414	0,080	-0,072
-315,226	90,781	-0,081	0,066
-314,212	252,033	0,072	0,089
-313,197	308,488	-0,067	0,091
-312,183	-53,911	0,143	0,047
-311,168	-54,741	-0,078	-0,025
-310,153	-91,009	0,117	-0,024
-309,139	309,764	-0,042	0,057
-308,124	-106,231	0,170	-0,027
-307,110	-55,899	0,061	0,020
-306,095	-80,705	0,024	-0,006
-305,080	17,722	0,040	0,023
-304,066	19,196	-0,079	-0,046
-303,051	800,000	-0,046	-0,133
-302,037	64,674	-0,038	-0,028
-301,022	-1,204	0,083	0,042
-300,008	484,977	-0,063	-0,104
-298,993	-141,951	0,027	0,002
-297,978	460,009	-0,037	0,060
-296,964	771,131	0,030	-0,060
-295,949	-1,472	-0,130	-0,066
-294,935	-187,306	0,110	0,001
-293,920	-200,000	-0,005	0,144
-292,905	-123,158	0,040	0,005
-291,891	-200,000	-0,015	-0,067
-290,876	-126,546	-0,159	0,017
-289,862	379,063	-0,039	-0,058
-288,847	-200,000	-0,010	-0,104
-287,832	156,877	-0,012	0,012
-286,818	-24,293	0,094	0,040
-285,803	8,451	0,060	0,033
-284,789	-16,893	0,129	-0,059
-283,774	-200,000	0,003	0,026
-282,759	-200,000	-0,019	0,121
-281,745	-200,000	0,034	-0,149
-280,730	-77,627	-0,052	0,013
-279,716	676,321	0,063	0,120
-278,701	42,044	-0,151	-0,099
-277,686	-65,572	0,079	0,023
-276,672	497,505	0,014	0,024
-275,657	-200,000	-0,014	-0,091
-274,643	-200,000	0,006	0,048
-273,628	-200,000	0,020	-0,141
-272,613	449,365	-0,103	-0,164
-271,599	-58,406	0,064	-0,020
-270,584	800,000	-0,058	0,123
-269,570	-200,000	-0,025	0,092
-268,555	51,205	-0,086	0,059
-267,540	-200,000	0,039	0,203
-266,526	122,550	0,105	-0,094
-265,511	-68,265	0,070	-0,020
-264,497	29,768	-0,047	0,029
-263,482	65,617	0,068	0,050
-262,467	-200,000	-0,016	0,221
-261,453	126,625	0,062	-0,057
-260,438	-200,000	0,032	-0,103
-259,424	-200,000	-0,004	-0,157
-258,409	589,775	0,034	-0,062
-257,395	23,571	0,023	-0,014
-256,380	32,172	-0,032	0,020
-255,365	171,157	-0,086	0,089
-254,351	214,265	0,042	0,048
-253,336	23,951	0,064	0,038
-252,322	256,891	-0,045	0,056
-251,307	-48,456	-0,006	0,002
-250,292	-152,492	-0,116	0,006
-249,278	-200,000	0,033	0,176
-248,263	97,546	0,071	-0,058
-247,249	800,000	0,035	-0,106
-246,234	800,000	-0,026	-0,071
-245,219	-200,000	0,002	-0,035
-244,205	-120,115	-0,103	0,013
-243,190	-71,111	0,056	-0,015
-242,176	-200,000	0,020	0,123
-241,161	800,000	0,046	0,142
-240,146	29,802	0,096	-0,059
-239,132	-152,834	-0,112	-0,006
-238,117	155,923	0,119	0,119
-237,103	-39,004	-0,095	0,036
-236,088	800,000	0,033	-0,073
-235,073	800,000	0,056	0,138
-234,059	-33,742	0,081	0,032
-233,044	148,969	-0,041	0,040
-232,030	-200,000	-0,018	0,066
-231,015	441,865	-0,056	-0,089
-230,000	-200,000	-0,015	-0,064
-228,986	-76,079	-0,036	0,009
-227,971	-200,000	0,029	0,115
-226,957	282,106	-0,035	-0,046
-225,942	-37,051	-0,063	-0,024
-224,927	-120,111	0,109	0,013
-223,913	-122,346	-0,058	-0,007
-222,898	364,223	-0,039	0,057
-221,884	-200,000	0,021	-0,077
-220,869	-44,982	0,120	-0,043
-219,855	79,949	0,078	0,060
-218,840	86,307	0,010	-0,008
-217,825	800,000	0,020	0,050
-216,811	-101,743	-0,057	-0,010
-215,796	-200,000	-0,014	-0,172
-214,782	-200,000	0,009	-0,148
-213,767	9,853	0,120	-0,065
-212,752	-200,000	-0,007	0,111
-211,738	384,681	-0,093	-0,138
-210,723	-200,000	-0,014	-0,079
-209,709	117,824	0,049	-0,043
-208,694	-146,011	-0,132	0,008
-207,679	-6,449	0,050	0,024
-206,665	695,333	0,059	0,113
-205,650	184,776	-0,040	0,043
-204,636	-63,003	0,098	0,029
-203,621	-105,436	0,049	-0,008
-202,606	73,943	-0,081	-0,061
-201,592	800,000	-0,048	-0,096
-200,577	800,000	-0,032	0,067
-199,563	-200,000	0,018	0,154
-198,548	189,072	0,090	0,098
-197,533	393,997	-0,005	0,008
-196,519	88,443	-0,056	-0,045
-195,504	-173,956	0,108	0,002
-194,490	-77,954	-0,047	0,012
-193,475	-200,000	0,002	-0,071
-192,460	124,166	0,099	0,090
-191,446	-82,852	-0,022	-0,005
-190,431	-200,000	0,016	0,156
-189,417	800,000	-0,038	0,091
-188,402	335,109	-0,035	0,050
-187,387	-200,000	-0,001	0,093
-186,373	-200,000	-0,007	0,037
-185,358	780,336	0,045	-0,090
-184,344	800,000	0,056	0,161
-183,329	3,004	-0,057	-0,030
-182,315	-161,227	0,038	0,001
-181,300	-74,450	0,024	0,006
-180,285	-95,961	-0,185	0,035
-179,271	-200,000	0,012	0,040
-178,256	97,186	-0,067	-0,055
-177,242	189,230	0,023	-0,025
-176,227	141,618	-0,082	-0,078
-175,212	-200,000	0,015	0,084
-174,198	158,704	0,021	-0,021
-173,183	-151,508	-0,077	-0,004
-172,169	-19,378	0,046	0,020
-171,154	-158,161	-0,078	0,003
-170,139	174,557	0,052	0,054
-169,125	-200,000	0,007	0,069
-168,110	-200,000	-0,004	0,117
-167,096	800,000	0,035	0,091
-166,081	800,000	-0,058	-0,141
-165,066	-200,000	0,006	-0,106
-164,052	286,567	-0,097	-0,127
-163,037	799,234	0,050	-0,099
-162,023	53,063	-0,078	-0,053
-161,008	800,000	-0,016	-0,049
-159,993	800,000	0,059	0,134
-158,979	95,584	-0,085	0,070
-157,964	-139,467	0,058	0,004
-156,950	23,022	-0,040	0,024
-155,935	186,263	0,048	0,052
-154,920	120,627	-0,019	0,017
-153,906	173,584	-0,033	0,035
-152,891	-30,123	0,072	0,029
-151,877	85,212	-0,050	-0,039
-150,862	-37,877	0,053	-0,020
-149,847	24,813	0,177	-0,105
-148,833	-45,597	-0,039	0,014
-147,818	100,503	-0,043	0,036
-146,804	-200,000	0,005	-0,026
-145,789	-33,279	0,099	-0,039
-144,775	-66,966	-0,085	-0,024
-143,760	800,000	-0,058	-0,117
-142,745	800,000	0,027	-0,082
-141,731	578,522	-0,088	-0,156
-140,716	800,000	0,037	-0,076
-139,702	-200,000	0,025	-0,094
-138,687	-200,000	0,017	0,078
-137,672	364,940	-0,073	0,106
-136,658	-200,000	-0,018	-0,109
-135,643	-200,000	0,022	-0,095
-134,629	-200,000	0,002	0,015
-133,614	-114,925	0,168	-0,023
-132,599	-200,000	-0,011	0,073
-131,585	-185,142	0,089	0,001
-130,570	-37,171	-0,129	0,049
-129,556	-174,403	0,112	0,002
-128,541	-200,000	0,022	-0,096
-127,526	-200,000	-0,001	-0,118
-126,512	-29,200	0,023	-0,009
-125,497	-119,635	0,089	-0,011
-124,483	95,371	0,077	0,063
-123,468	213,332	0,042	0,048
-122,453	161,148	-0,031	-0,031
-121,439	800,000	-0,029	-0,091
-120,424	140,456	0,074	0,070
-119,410	-74,035	0,067	0,017
