DTS Sentinel unit serial number:	SN410029Multiplexer serial number:	ORYXHardware model number:	OX2-SRSoftware version number:	ORYX F/W v4,00 Oryx Data Collector v3.7.2.0data status	okinstallation	B6 Nyhavnadifferential loss correction	single-endedforward channel	channel 2reverse channel	N/Adate	2023/12/10time	11:25:08forward acquisition time	300,00reverse acquisition time	0,00gamma	499,1914k internal	0,3123k external	0,3123temperature offset calibration	1,0000default loss term (dB/km)	0,3820temperature slope calibration	1,0000multiplexer offset coefficient	1,0000multiplexer slope coefficient	1,0000fibre end	0,00T internal ref (°C)	22,66T ext. ref 1 (°C)	6,56T ext. ref 2 (°C)	6,56length (m)	temperature (°C)	Stokes	anti-Stokes-744,400	322,646	0,038	0,054
-743,385	92,233	-0,213	0,179
-742,371	83,051	-0,060	-0,049
-741,356	-100,234	-0,291	0,053
-740,342	291,007	-0,050	0,068
-739,327	-39,511	-0,263	0,102
-738,312	800,000	0,030	-0,063
-737,298	-72,102	-0,227	0,062
-736,283	300,538	0,104	-0,143
-735,269	236,937	-0,144	0,178
-734,254	800,000	0,042	-0,115
-733,239	-99,812	-0,484	-0,089
-732,225	21,025	0,066	0,040
-731,210	-200,000	-0,009	0,035
-730,196	134,407	-0,031	-0,030
-729,181	53,737	-0,048	-0,034
-728,167	-27,255	-0,120	0,052
-727,152	-200,000	-0,019	0,137
-726,137	112,041	0,132	-0,119
-725,123	-91,633	-0,129	-0,027
-724,108	-200,000	0,001	-0,100
-723,094	374,180	-0,115	-0,175
-722,079	-200,000	0,005	0,062
-721,064	-187,208	-0,082	0,001
-720,050	-200,000	-0,001	0,085
-719,035	-111,300	-0,140	0,021
-718,021	-86,905	-0,043	0,010
-717,006	197,942	0,008	0,010
-715,991	-200,000	-0,030	-0,116
-714,977	-75,780	-0,043	-0,011
-713,962	-109,147	-0,055	0,009
-712,948	-48,577	-0,088	0,031
-711,933	182,717	-0,092	-0,102
-710,918	272,182	-0,005	-0,006
-709,904	-78,678	-0,034	0,009
-708,889	800,000	0,051	-0,132
-707,875	-200,000	-0,003	-0,095
-706,860	-200,000	0,002	-0,114
-705,845	117,973	-0,120	0,110
-704,831	-80,637	0,022	0,005
-703,816	170,243	0,047	0,050
-702,802	-62,567	-0,232	0,071
-701,787	166,483	0,045	-0,047
-700,772	285,531	-0,060	-0,081
-699,758	140,534	0,076	-0,075
-698,743	-93,485	-0,126	0,026
-697,729	800,000	-0,015	0,036
-696,714	-200,000	0,001	-0,047
-695,699	361,859	-0,138	0,207
-694,685	-52,868	0,015	0,005
-693,670	-200,000	0,008	-0,150
-692,656	337,324	-0,072	0,104
-691,641	174,788	0,098	0,106
-690,627	106,461	0,049	-0,044
-689,612	800,000	0,028	0,067
-688,597	440,936	-0,039	-0,063
-687,583	2,404	-0,078	-0,042
-686,568	316,489	0,061	0,086
-685,554	-11,666	-0,035	0,017
-684,539	-88,511	0,087	-0,019
-683,524	-124,925	0,160	-0,018
-682,510	197,810	-0,105	0,120
-681,495	-122,649	-0,075	-0,009
-680,481	94,394	0,131	-0,111
-679,466	-200,000	-0,060	-0,252
-678,451	-200,000	0,007	-0,182
-677,437	162,421	-0,110	-0,115
-676,422	90,946	-0,084	-0,070
-675,408	800,000	0,014	-0,042
-674,393	-75,473	0,061	0,016
-673,378	-200,000	0,011	0,091
-672,364	-68,106	0,050	-0,014
-671,349	548,915	-0,012	-0,022
-670,335	454,239	-0,064	0,105
-669,320	34,145	0,146	0,094
-668,305	390,515	0,035	-0,054
-667,291	70,231	0,065	-0,050
-666,276	-149,456	0,005	0,000
-665,262	-200,000	-0,040	-0,131
-664,247	-200,000	0,020	-0,141
-663,232	309,634	0,032	-0,045
-662,218	800,000	0,008	-0,027
-661,203	-21,358	-0,040	-0,018
-660,189	-200,000	0,018	0,074
-659,174	-36,124	-0,122	0,049
-658,159	-116,883	-0,097	0,013
-657,145	-165,131	0,068	0,002
-656,130	-64,932	-0,045	0,013
-655,116	81,875	0,059	-0,048
-654,101	-105,293	0,088	0,015
-653,086	113,432	0,053	-0,047
-652,072	255,947	-0,126	0,161
-651,057	800,000	-0,038	0,092
-650,043	-200,000	0,003	-0,015
-649,028	25,482	0,032	-0,020
-648,014	-8,567	0,083	-0,041
-646,999	-152,810	0,072	-0,004
-645,984	38,112	-0,047	-0,031
-644,970	4,544	-0,073	0,040
-643,955	-55,951	-0,034	0,011
-642,941	-141,916	-0,029	-0,002
-641,926	-200,000	-0,000	0,032
-640,911	-145,670	-0,128	-0,008
-639,897	800,000	0,030	0,077
-638,882	-102,333	-0,033	0,006
-637,868	54,549	0,066	0,047
-636,853	-200,000	0,009	0,128
-635,838	800,000	-0,059	-0,141
-634,824	800,000	0,015	-0,031
-633,809	-200,000	-0,002	0,051
-632,795	143,294	-0,015	-0,015
-631,780	131,776	-0,070	-0,067
-630,765	-200,000	-0,012	0,063
-629,751	-200,000	0,023	-0,089
-628,736	20,513	-0,057	-0,034
-627,722	-22,110	-0,023	0,011
-626,707	131,781	0,075	0,072
-625,692	799,984	0,042	0,087
-624,678	136,785	-0,045	-0,043
-623,663	1,241	-0,091	0,048
-622,649	44,868	0,040	-0,027
-621,634	800,000	-0,021	0,067
-620,619	221,897	-0,074	0,089
-619,605	213,547	0,056	-0,065
-618,590	-200,000	-0,008	0,071
-617,576	-132,850	0,060	-0,006
-616,561	-51,917	0,039	0,013
-615,546	632,756	-0,083	-0,156
-614,532	-200,000	0,002	0,038
-613,517	-61,673	0,049	-0,015
-612,503	10,389	0,077	-0,043
-611,488	-135,574	0,029	0,003
-610,474	-80,672	0,149	-0,037
-609,459	-200,000	0,042	0,138
-608,444	-169,593	-0,136	0,004
-607,430	221,038	-0,139	-0,166
-606,415	-1,245	-0,100	-0,052
-605,401	-5,502	-0,113	0,057
-604,386	800,000	0,038	0,114
-603,371	-118,202	0,123	0,016
-602,357	-24,590	-0,066	-0,029
-601,342	55,126	0,021	-0,015
-600,328	-200,000	0,034	-0,138
-599,313	158,552	-0,069	0,071
-598,298	70,681	-0,038	-0,029
-597,284	-200,000	-0,012	0,118
-596,269	-200,000	0,040	0,131
-595,255	-200,000	-0,003	0,079
-594,240	61,678	-0,061	0,045
-593,225	-200,000	0,007	-0,186
-592,211	-200,000	-0,002	0,012
-591,196	46,572	0,064	-0,044
-590,182	38,226	0,089	-0,058
-589,167	-6,475	0,108	0,054
-588,152	13,550	0,045	-0,026
-587,138	-200,000	-0,002	0,053
-586,123	-200,000	0,023	-0,153
-585,109	-200,000	-0,002	0,058
-584,094	-162,180	-0,072	0,003
-583,079	-132,694	0,016	0,001
-582,065	-49,679	-0,067	-0,024
-581,050	-104,039	0,123	0,021
-580,036	13,432	-0,107	-0,062
-579,021	179,124	-0,143	-0,155
-578,006	800,000	-0,034	-0,081
-576,992	66,416	-0,055	-0,042
-575,977	-131,267	-0,041	-0,004
-574,963	-60,011	0,062	0,020
-573,948	551,266	-0,019	-0,034
-572,934	-200,000	0,010	0,032
-571,919	144,529	-0,171	-0,169
-570,904	337,809	0,019	0,027
-569,890	739,408	-0,044	0,088
-568,875	-66,902	-0,138	-0,040
-567,861	490,166	-0,018	0,030
-566,846	-200,000	0,006	-0,028
-565,831	794,332	0,028	-0,057
-564,817	-200,000	-0,021	-0,071
-563,802	132,281	-0,053	-0,051
-562,788	-200,000	0,008	-0,111
-561,773	-200,000	0,023	0,091
-560,758	-63,014	0,017	-0,005
-559,744	130,501	-0,086	-0,081
-558,729	-200,000	0,028	0,172
-557,715	-178,183	-0,078	0,001
-556,700	800,000	0,035	-0,087
-555,685	258,032	0,109	-0,140
-554,671	-200,000	-0,016	0,059
-553,656	-48,394	-0,175	-0,062
-552,642	-200,000	-0,011	-0,041
-551,627	-78,809	0,048	0,012
-550,612	-200,000	-0,015	-0,064
-549,598	-200,000	-0,014	-0,085
-548,583	160,327	0,030	-0,031
-547,569	-11,662	0,105	0,051
-546,554	-200,000	0,002	0,059
-545,539	424,480	0,097	0,155
-544,525	176,229	0,079	0,085
-543,510	267,380	-0,033	-0,043
-542,496	-27,053	-0,111	-0,048
-541,481	-95,361	-0,123	-0,024
-540,466	-133,143	-0,046	-0,004
-539,452	800,000	0,067	0,179
-538,437	-95,785	-0,164	0,032
-537,423	-200,000	0,004	-0,024
-536,408	800,000	0,053	-0,114
-535,393	-84,591	-0,031	-0,007
-534,379	800,000	0,006	-0,017
-533,364	-200,000	0,017	-0,063
-532,350	675,910	-0,063	0,121
-531,335	-200,000	0,020	0,074
-530,321	458,756	-0,041	0,067
-529,306	-184,636	-0,090	-0,001
-528,291	258,584	-0,089	-0,113
-527,277	-125,428	0,034	0,004
-526,262	288,930	0,031	-0,042
-525,248	318,954	0,034	0,048
-524,233	239,593	0,063	0,078
-523,218	-160,997	0,109	0,004
-522,204	800,000	0,019	0,044
-521,189	81,721	-0,021	0,017
-520,175	-148,194	-0,111	0,007
-519,160	-200,000	0,036	0,141
-518,145	-63,554	-0,056	-0,017
-517,131	-51,291	0,053	0,018
-516,116	37,394	0,027	0,017
-515,102	8,855	0,106	-0,059
-514,087	-200,000	-0,001	-0,127
-513,072	355,493	0,074	0,109
-512,058	800,000	0,026	0,068
-511,043	-175,749	-0,019	0,000
-510,029	-200,000	-0,016	0,129
-509,014	-200,000	0,002	0,100
-507,999	155,730	0,118	0,120
-506,985	-200,000	-0,001	-0,012
-505,970	375,618	-0,064	-0,097
-504,956	-200,000	0,010	-0,036
-503,941	-156,109	-0,030	0,001
-502,926	-155,830	0,163	-0,008
-501,912	645,128	-0,036	0,068
-500,897	573,954	0,078	0,142
-499,883	-140,410	-0,043	0,003
-498,868	20,832	-0,062	0,037
-497,853	-141,981	0,065	-0,005
-496,839	198,580	0,080	0,091
-495,824	66,449	0,135	0,101
-494,810	800,000	0,023	0,054
-493,795	-200,000	0,029	0,112
-492,781	800,000	0,034	0,100
-491,766	332,180	-0,052	0,074
-490,751	-53,683	-0,113	-0,038
-489,737	368,883	0,016	-0,025
-488,722	354,828	0,037	0,054
-487,708	-24,096	0,127	-0,056
-486,693	-25,066	0,028	-0,012
-485,678	-154,153	-0,096	0,005
-484,664	-200,000	0,043	-0,168
-483,649	507,057	0,073	-0,126
-482,635	69,068	0,031	-0,024
-481,620	-80,924	-0,128	-0,031
-480,605	202,971	0,060	-0,069
-479,591	576,406	0,036	0,064
-478,576	-200,000	0,006	0,067
-477,562	51,821	0,101	0,071
-476,547	-200,000	-0,005	-0,194
-475,532	0,334	0,088	-0,046
-474,518	52,856	0,014	0,010
-473,503	-41,884	-0,125	-0,047
-472,489	547,020	-0,023	0,041
-471,474	-200,000	-0,023	0,106
-470,459	665,139	-0,009	-0,017
-469,445	800,000	-0,053	0,113
-468,430	800,000	0,026	-0,074
-467,416	-40,177	-0,127	0,048
-466,401	-146,768	0,075	-0,005
-465,386	36,241	0,144	-0,093
-464,372	304,722	-0,092	-0,126
-463,357	4,474	-0,075	-0,041
-462,343	278,810	-0,086	-0,113
-461,328	800,000	-0,026	0,053
-460,313	-29,852	0,031	0,013
-459,299	-130,563	0,142	-0,014
-458,284	-82,088	0,092	0,022
-457,270	127,365	0,077	0,073
-456,255	-0,706	0,066	-0,035
-455,241	220,806	0,074	-0,088
-454,226	-200,000	-0,065	0,225
-453,211	-25,294	-0,064	0,028
-452,197	37,836	0,212	0,139
-451,182	103,055	0,107	0,093
-450,168	477,583	0,122	0,204
-449,153	-200,000	-0,023	-0,102
-448,138	800,000	-0,059	-0,133
-447,124	285,548	-0,006	-0,007
-446,109	-38,750	-0,124	0,048
-445,095	331,121	0,061	0,087
-444,080	-44,244	0,054	0,020
-443,065	-200,000	0,006	0,030
-442,051	-78,209	-0,094	-0,024
-441,036	36,049	0,064	-0,042
-440,022	121,807	-0,151	-0,139
-439,007	-82,673	-0,079	0,019
-437,992	-51,265	0,058	-0,020
-436,978	425,255	0,055	-0,087
-435,963	-58,261	0,075	0,024
-434,949	11,423	-0,054	-0,030
-433,934	125,040	0,043	0,040
-432,919	-200,000	0,015	-0,062
-431,905	800,000	-0,020	0,049
-430,890	630,015	0,056	-0,104
-429,876	800,000	-0,003	0,007
-428,861	210,019	0,081	0,094
-427,846	-200,000	-0,036	-0,123
-426,832	6,337	-0,128	0,070
-425,817	409,392	-0,030	-0,048
-424,803	700,708	-0,031	-0,061
-423,788	-200,000	0,007	0,076
-422,773	-22,337	-0,083	0,037
-421,759	-29,235	-0,004	-0,002
-420,744	800,000	0,023	-0,061
-419,730	309,052	-0,053	-0,073
-418,715	-15,453	-0,108	-0,051
-417,701	122,534	0,122	-0,112
-416,686	-200,000	0,044	0,161
-415,671	-65,515	0,097	0,028
-414,657	713,916	-0,057	-0,112
-413,642	800,000	0,012	-0,028
-412,628	75,812	-0,066	-0,052
-411,613	6,552	-0,092	-0,050
-410,598	-70,559	-0,061	-0,017
-409,584	-62,853	0,039	0,012
-408,569	229,597	0,032	0,039
-407,555	-200,000	-0,001	0,146
-406,540	800,000	0,053	0,113
-405,525	-66,151	0,037	-0,011
-404,511	-200,000	-0,016	0,055
-403,496	106,152	0,041	-0,036
-402,482	263,528	0,089	0,115
-401,467	-38,930	0,123	0,047
-400,452	13,208	0,092	0,052
-399,438	123,969	-0,045	0,042
-398,423	800,000	0,022	-0,048
-397,409	-200,000	0,009	0,051
-396,394	-28,893	-0,110	0,046
-395,379	172,744	0,162	0,172
-394,365	196,555	-0,145	0,162
-393,350	197,017	-0,102	-0,115
-392,336	-200,000	0,031	0,121
-391,321	219,934	0,034	-0,040
-390,306	36,649	-0,113	-0,073
-389,292	526,417	-0,044	-0,077
-388,277	800,000	0,032	-0,071
-387,263	-200,000	0,022	-0,107
-386,248	-94,867	-0,113	0,022
-385,233	800,000	0,030	-0,079
-384,219	-67,803	-0,138	-0,039
-383,204	-200,000	0,007	-0,066
-382,190	-200,000	0,002	-0,026
-381,175	800,000	-0,020	-0,062
-380,160	-200,000	-0,023	0,085
-379,146	800,000	0,009	-0,025
-378,131	73,688	-0,088	0,068
-377,117	-200,000	0,029	-0,103
-376,102	323,621	-0,060	-0,085
-375,088	225,455	-0,078	-0,093
-374,073	-200,000	-0,024	-0,124
-373,058	-200,000	-0,013	-0,098
-372,044	164,803	0,028	-0,030
-371,029	773,585	0,027	-0,055
-370,015	23,545	0,094	0,056
-369,000	-200,000	-0,002	-0,108
-367,985	-200,000	0,027	-0,169
-366,971	283,342	-0,087	-0,115
-365,956	13,827	0,101	0,057
-364,942	-21,285	0,076	0,034
-363,927	-21,991	0,066	0,030
-362,912	-200,000	0,018	0,140
-361,898	-107,407	-0,082	-0,013
-360,883	-48,789	-0,122	-0,043
-359,869	-129,574	-0,126	-0,013
-358,854	194,441	0,068	-0,076
-357,839	82,641	0,092	0,073
-356,825	176,842	-0,035	-0,037
-355,810	800,000	-0,023	-0,065
-354,796	91,621	-0,203	0,167
-353,781	-200,000	-0,006	-0,022
-352,766	273,714	0,029	0,037
-351,752	-200,000	-0,031	0,113
-350,737	213,933	0,107	-0,124
-349,723	-143,847	0,199	0,014
-348,708	-200,000	-0,012	0,223
-347,693	543,845	0,021	0,038
-346,679	-53,719	-0,069	0,023
-345,664	51,916	-0,044	-0,030
-344,650	800,000	0,018	0,049
-343,635	277,535	0,041	-0,054
-342,620	-200,000	0,018	0,067
-341,606	-200,000	-0,054	0,203
-340,591	-200,000	0,004	0,017
-339,577	-200,000	-0,004	0,027
-338,562	800,000	0,028	0,061
-337,548	-113,745	0,097	-0,014
-336,533	-0,306	0,092	-0,048
-335,518	70,329	0,079	-0,060
-334,504	-78,983	-0,077	-0,019
-333,489	-200,000	-0,004	-0,033
-332,475	54,953	0,100	0,071
-331,460	-93,751	0,004	0,001
-330,445	50,004	0,100	-0,069
-329,431	-185,037	0,111	0,001
-328,416	244,171	0,071	0,088
-327,402	233,406	0,012	-0,015
-326,387	-131,751	-0,145	0,014
-325,372	-96,609	-0,050	0,010
-324,358	-186,675	0,111	0,001
-323,343	-122,681	-0,137	-0,016
-322,329	-200,000	0,036	0,132
-321,314	222,386	-0,031	0,037
-320,299	23,386	0,062	0,037
-319,285	-82,150	0,197	0,047
-318,270	-125,187	-0,127	-0,014
-317,256	800,000	-0,021	0,053
-316,241	368,987	-0,059	-0,088
-315,226	410,324	-0,065	-0,101
-314,212	-178,892	0,064	-0,001
-313,197	-79,995	-0,012	-0,003
-312,183	641,388	-0,060	0,112
-311,168	-200,000	-0,002	-0,106
-310,153	-62,448	0,044	0,013
-309,139	-200,000	0,012	-0,045
-308,124	-200,000	-0,023	-0,108
-307,110	-200,000	-0,009	0,055
-306,095	-200,000	0,002	0,028
-305,080	221,743	-0,060	0,071
-304,066	-159,690	0,092	-0,004
-303,051	-107,308	-0,083	0,013
-302,037	300,468	0,021	-0,028
-301,022	-58,648	0,073	0,023
-300,008	600,445	0,065	0,119
-298,993	-200,000	0,014	-0,089
-297,978	-8,898	0,133	0,065
-296,964	362,194	0,062	-0,092
-295,949	800,000	-0,025	-0,063
-294,935	-70,755	-0,112	0,031
-293,920	800,000	0,015	0,031
-292,905	467,386	-0,050	-0,082
-291,891	60,213	-0,023	0,017
-290,876	96,867	0,144	0,121
-289,862	601,121	0,050	0,091
-288,847	-200,000	0,016	0,088
-287,832	452,851	0,022	-0,036
-286,818	800,000	0,015	0,047
-285,803	13,515	0,079	0,045
-284,789	325,032	0,018	0,025
-283,774	79,922	0,055	-0,043
-282,759	-200,000	0,025	0,089
-281,745	772,601	0,047	-0,095
-280,730	-200,000	0,031	-0,126
-279,716	800,000	0,050	-0,125
-278,701	-200,000	-0,003	0,012
-277,686	225,167	0,082	0,098
-276,672	-149,988	-0,053	0,003
-275,657	-42,127	-0,075	-0,028
-274,643	410,311	-0,069	-0,108
-273,628	-37,828	-0,125	-0,048
-272,613	269,423	0,042	-0,055
-271,599	136,033	-0,063	0,060
-270,584	-110,910	-0,030	-0,004
-269,570	80,560	-0,030	0,023
-268,555	196,694	0,111	0,124
-267,540	800,000	0,022	-0,061
-266,526	151,055	-0,049	0,049
-265,511	-95,062	-0,119	-0,023
-264,497	-19,398	-0,100	-0,045
-263,482	800,000	-0,029	0,093
-262,467	163,129	-0,049	-0,051
-261,453	800,000	-0,017	0,035
-260,438	673,908	0,082	-0,156
-259,424	376,223	-0,065	0,097
-258,409	-200,000	0,002	0,078
-257,395	116,962	0,076	0,068
-256,380	41,948	0,080	-0,053
-255,365	-200,000	-0,003	0,090
-254,351	800,000	-0,034	0,105
-253,336	251,036	-0,096	-0,120
-252,322	-65,565	-0,064	0,019
-251,307	-199,885	0,071	0,000
-250,292	126,595	-0,058	-0,054
-249,278	497,236	-0,028	0,048
-248,263	-119,979	0,117	0,015
-247,249	-94,799	-0,031	-0,006
-246,234	64,448	-0,021	0,016
-245,219	800,000	0,021	-0,052
-244,205	318,762	-0,072	-0,100
-243,190	-200,000	0,007	0,094
-242,176	4,259	-0,078	0,042
-241,161	35,376	-0,036	-0,023
-240,146	221,987	-0,116	-0,137
-239,132	800,000	0,027	-0,064
-238,117	-79,132	-0,024	0,006
-237,103	164,627	0,102	-0,106
-236,088	51,212	0,068	0,047
-235,073	-17,987	0,064	0,029
-234,059	-157,669	-0,052	-0,002
-233,044	-120,377	0,013	0,002
-232,030	-200,000	0,027	-0,143
-231,015	-47,048	-0,072	0,026
-230,000	84,146	0,095	-0,075
-228,986	-200,000	0,010	0,164
-227,971	24,595	-0,083	0,050
-226,957	800,000	0,027	0,084
-225,942	800,000	-0,044	0,102
-224,927	-86,887	0,046	-0,010
-223,913	-134,240	0,030	0,003
-222,898	437,882	-0,050	-0,079
-221,884	-51,110	0,075	-0,025
-220,869	-200,000	-0,016	0,155
-219,855	800,000	-0,049	-0,145
-218,840	139,490	-0,177	-0,170
-217,825	-188,176	0,173	-0,002
-216,811	-94,007	0,118	0,023
-215,796	-42,106	-0,056	0,021
-214,782	47,687	-0,041	-0,028
-213,767	-134,692	0,086	0,008
-212,752	-200,000	-0,000	0,019
-211,738	-47,383	0,101	0,036
-210,723	-125,638	-0,068	-0,007
-209,709	243,180	0,019	0,023
-208,694	800,000	-0,009	-0,018
-207,679	800,000	-0,048	-0,120
-206,665	-103,772	0,090	-0,015
-205,650	-200,000	0,035	0,149
-204,636	464,700	-0,049	0,080
-203,621	-200,000	-0,003	0,026
-202,606	-139,445	0,011	-0,001
-201,592	-154,375	-0,050	-0,002
-200,577	800,000	0,040	-0,113
-199,563	-95,756	-0,029	-0,006
-198,548	645,817	0,013	-0,025
-197,533	-150,147	-0,059	0,003
-196,519	800,000	-0,057	0,124
-195,504	-200,000	-0,021	0,162
-194,490	800,000	-0,011	0,027
-193,475	370,628	-0,040	0,059
-192,460	-200,000	-0,003	0,043
-191,446	-200,000	0,000	0,050
-190,431	-179,339	0,025	-0,000
-189,417	118,250	-0,030	-0,027
-188,402	62,025	-0,093	-0,067
-187,387	-200,000	0,012	0,214
-186,373	15,917	-0,067	-0,038
-185,358	-37,020	0,040	-0,016
-184,344	-200,000	-0,006	0,057
-183,329	-200,000	0,009	-0,039
-182,315	-200,000	-0,004	-0,059
-181,300	-200,000	0,004	-0,066
-180,285	-200,000	-0,004	0,039
-179,271	401,259	-0,101	-0,155
-178,256	-98,845	0,055	-0,010
-177,242	-22,403	-0,128	0,056
-176,227	223,231	-0,041	-0,048
-175,212	-74,945	0,073	-0,019
-174,198	800,000	-0,038	-0,088
-173,183	800,000	0,033	-0,069
-172,169	-165,741	-0,152	0,005
-171,154	-80,820	0,054	-0,013
-170,139	-154,888	-0,184	-0,009
-169,125	37,205	0,075	-0,048
-168,110	800,000	-0,050	0,154
-167,096	-200,000	-0,012	-0,076
-166,081	65,212	-0,065	0,048
-165,066	-91,474	0,080	-0,016
-164,052	800,000	-0,036	-0,081
-163,037	-200,000	0,005	-0,038
-162,023	39,735	-0,091	0,059
-161,008	-103,659	0,123	-0,021
-159,993	331,501	-0,017	0,025
-158,979	-84,667	0,039	0,009
-157,964	-200,000	0,042	-0,134
-156,950	800,000	0,070	-0,150
-155,935	38,971	0,163	-0,106
-154,920	-200,000	0,026	-0,109
-153,906	800,000	-0,037	-0,112
-152,891	-91,275	0,048	-0,010
-151,877	23,545	-0,105	0,063
-150,862	-200,000	0,034	-0,139
-149,847	-88,939	-0,090	-0,019
-148,833	437,491	0,079	-0,126
-147,818	-22,591	0,137	0,060
-146,804	-102,789	-0,053	0,009
-145,789	70,097	0,022	-0,016
-144,775	-14,547	0,078	-0,037
-143,760	-200,000	0,008	-0,153
-142,745	-200,000	0,006	-0,020
-141,731	-200,000	0,004	-0,059
-140,716	800,000	-0,024	-0,053
-139,702	-108,504	0,149	0,023
-138,687	113,008	0,079	0,070
-137,672	-18,307	-0,133	-0,060
-136,658	94,940	-0,038	0,031
-135,643	-19,927	0,124	-0,055
-134,629	-20,620	0,135	-0,060
-133,614	-150,447	0,015	-0,001
-132,599	150,653	0,114	0,113
-131,585	-98,738	0,136	-0,025
-130,570	-200,000	0,013	-0,051
-129,556	-71,474	0,072	0,020
-128,541	-200,000	0,015	-0,108
-127,526	-43,913	-0,073	-0,027
-126,512	-200,000	-0,015	-0,082
-125,497	315,226	0,017	0,024
-124,483	63,643	-0,060	-0,044
-123,468	-117,658	0,009	0,001
-122,453	-200,000	0,043	-0,180
-121,439	-200,000	0,003	-0,179
-120,424	-119,268	-0,082	0,010
-119,410	4,640	-0,143	-0,076
