DTS Sentinel unit serial number:	SN410029Multiplexer serial number:	ORYXHardware model number:	OX2-SRSoftware version number:	ORYX F/W v4,00 Oryx Data Collector v3.7.2.0data status	okinstallation	B6 Nyhavnadifferential loss correction	single-endedforward channel	channel 2reverse channel	N/Adate	2023/12/07time	20:50:08forward acquisition time	300,00reverse acquisition time	0,00gamma	499,1914k internal	0,3164k external	0,3164temperature offset calibration	1,0000default loss term (dB/km)	0,3820temperature slope calibration	1,0000multiplexer offset coefficient	1,0000multiplexer slope coefficient	1,0000fibre end	0,00T internal ref (°C)	13,76T ext. ref 1 (°C)	-3,12T ext. ref 2 (°C)	-3,14length (m)	temperature (°C)	Stokes	anti-Stokes-744,400	23,955	0,089	-0,054
-743,385	-107,956	-0,322	0,051
-742,371	-200,000	0,003	0,109
-741,356	41,440	-0,290	0,193
-740,342	0,083	0,086	0,045
-739,327	-76,569	-0,261	0,067
-738,312	132,845	0,089	-0,084
-737,298	-148,971	-0,367	0,021
-736,283	-41,095	0,134	0,051
-735,269	-49,419	-0,353	-0,123
-734,254	-200,000	-0,002	-0,093
-733,239	-19,470	-0,578	-0,262
-732,225	-60,200	0,274	0,085
-731,210	375,078	0,073	0,110
-730,196	-200,000	-0,002	0,088
-729,181	42,791	0,078	-0,052
-728,167	11,431	0,045	0,025
-727,152	-52,670	-0,097	-0,033
-726,137	-0,951	-0,091	0,047
-725,123	-200,000	0,009	-0,044
-724,108	50,005	-0,116	0,080
-723,094	-99,862	-0,042	0,008
-722,079	56,616	-0,161	-0,115
-721,064	800,000	0,018	0,041
-720,050	439,326	-0,027	0,043
-719,035	-24,496	-0,070	0,031
-718,021	-59,681	-0,137	0,043
-717,006	-128,492	-0,042	-0,004
-715,991	-200,000	-0,013	-0,098
-714,977	800,000	-0,060	-0,152
-713,962	645,442	0,054	-0,102
-712,948	419,318	-0,061	-0,096
-711,933	-200,000	0,029	-0,129
-710,918	-10,549	-0,073	0,036
-709,904	4,075	-0,037	-0,020
-708,889	128,166	-0,067	-0,062
-707,875	375,045	0,020	-0,030
-706,860	48,657	-0,072	0,050
-705,845	800,000	-0,035	-0,111
-704,831	67,794	0,064	0,048
-703,816	-71,113	-0,047	-0,013
-702,802	800,000	0,045	0,101
-701,787	152,625	0,095	-0,095
-700,772	45,716	-0,072	-0,049
-699,758	185,146	-0,041	-0,044
-698,743	463,294	0,032	0,053
-697,729	800,000	0,047	-0,105
-696,714	115,908	-0,096	-0,086
-695,699	800,000	-0,044	-0,102
-694,685	47,985	-0,044	-0,030
-693,670	-105,292	-0,062	0,010
-692,656	-149,088	0,047	0,003
-691,641	-130,800	-0,044	-0,004
-690,627	383,906	0,060	0,092
-689,612	72,325	0,078	0,060
-688,597	246,179	-0,028	-0,035
-687,583	-200,000	0,000	0,018
-686,568	785,313	-0,064	-0,129
-685,554	-148,999	-0,062	-0,004
-684,539	97,082	0,049	-0,041
-683,524	-200,000	-0,016	-0,067
-682,510	-86,109	-0,031	-0,007
-681,495	-7,619	-0,062	0,031
-680,481	800,000	-0,044	-0,121
-679,466	98,168	-0,138	0,117
-678,451	-200,000	-0,010	-0,104
-677,437	113,446	-0,099	-0,088
-676,422	57,200	-0,017	-0,012
-675,408	-200,000	-0,003	0,033
-674,393	800,000	0,027	-0,060
-673,378	-91,336	0,040	-0,008
-672,364	-57,857	-0,057	-0,018
-671,349	397,367	-0,041	-0,063
-670,335	-47,219	-0,042	-0,015
-669,320	-200,000	0,004	-0,024
-668,305	109,841	-0,009	-0,008
-667,291	-65,409	-0,123	0,036
-666,276	46,867	0,020	-0,013
-665,262	672,632	0,048	-0,092
-664,247	-7,319	0,176	-0,087
-663,232	209,778	-0,050	-0,057
-662,218	538,738	-0,050	-0,088
-661,203	800,000	-0,037	0,114
-660,189	-200,000	0,027	0,139
-659,174	-30,720	-0,139	-0,057
-658,159	800,000	-0,045	-0,096
-657,145	86,957	-0,092	0,074
-656,130	-200,000	0,004	0,075
-655,116	800,000	0,019	-0,058
-654,101	0,966	0,093	0,049
-653,086	430,967	-0,060	0,095
-652,072	-200,000	0,016	0,127
-651,057	-200,000	-0,022	-0,115
-650,043	50,760	-0,132	-0,092
-649,028	404,119	-0,092	-0,142
-648,014	227,064	0,070	0,084
-646,999	8,256	-0,037	0,020
-645,984	-200,000	-0,013	-0,118
-644,970	-200,000	-0,003	-0,107
-643,955	-200,000	-0,009	0,043
-642,941	24,714	-0,091	0,055
-641,926	-200,000	0,021	0,087
-640,911	21,778	0,139	-0,083
-639,897	-149,179	-0,104	0,006
-638,882	132,138	0,039	0,037
-637,868	-100,816	-0,115	-0,021
-636,853	198,834	0,044	-0,050
-635,838	71,891	-0,072	0,055
-634,824	-85,883	-0,116	0,026
-633,809	-24,610	0,064	0,028
-632,795	1,076	0,134	-0,070
-631,780	-200,000	0,009	-0,031
-630,765	-152,925	-0,060	-0,003
-629,751	152,229	0,022	-0,022
-628,736	75,733	-0,036	0,028
-627,722	-7,179	0,081	-0,040
-626,707	734,826	-0,022	0,044
-625,692	208,690	0,051	0,059
-624,678	-83,618	0,083	-0,019
-623,663	484,979	0,011	0,019
-622,649	783,242	-0,021	-0,041
-621,634	54,824	0,028	-0,020
-620,619	-35,064	-0,039	-0,015
-619,605	-148,156	0,077	-0,005
-618,590	-200,000	-0,000	-0,019
-617,576	800,000	-0,037	0,114
-616,561	-38,884	0,143	0,055
-615,546	800,000	-0,045	0,114
-614,532	240,091	-0,090	0,109
-613,517	-200,000	0,000	-0,076
-612,503	800,000	0,054	-0,143
-611,488	-86,036	0,077	0,017
-610,474	17,509	-0,034	0,020
-609,459	-94,335	-0,154	-0,031
-608,444	-35,126	-0,123	-0,049
-607,430	-104,270	-0,079	-0,013
-606,415	518,785	0,046	-0,079
-605,401	800,000	-0,040	0,091
-604,386	-103,952	0,115	-0,019
-603,371	-200,000	0,010	-0,071
-602,357	109,225	0,106	0,093
-601,342	-146,402	0,059	-0,004
-600,328	26,912	-0,191	-0,117
-599,313	123,145	-0,017	-0,015
-598,298	-26,856	-0,122	0,052
-597,284	-42,533	-0,012	-0,004
-596,269	136,383	-0,026	0,024
-595,255	-99,401	-0,135	-0,025
-594,240	-108,759	-0,126	0,019
-593,225	-33,119	-0,056	-0,023
-592,211	-39,196	-0,096	-0,037
-591,196	-5,896	-0,073	0,036
-590,182	-149,900	0,072	-0,004
-589,167	-69,093	0,070	0,020
-588,152	417,175	-0,038	-0,060
-587,138	-71,731	-0,117	0,032
-586,123	7,779	-0,052	0,029
-585,109	-200,000	-0,001	-0,033
-584,094	-200,000	0,010	-0,070
-583,079	800,000	-0,066	-0,135
-582,065	800,000	0,031	-0,095
-581,050	347,177	-0,082	0,119
-580,036	-117,999	-0,034	-0,004
-579,021	793,805	0,048	-0,096
-578,006	-89,008	-0,057	0,012
-576,992	800,000	-0,009	0,020
-575,977	-65,643	-0,122	0,035
-574,963	-29,410	-0,150	0,062
-573,948	-32,307	-0,091	0,037
-572,934	227,961	-0,065	-0,078
-571,919	-132,817	0,077	-0,007
-570,904	578,060	0,042	-0,076
-569,890	435,917	0,035	-0,056
-568,875	149,493	0,112	-0,111
-567,861	-50,971	-0,079	-0,027
-566,846	-200,000	0,031	0,196
-565,831	113,543	-0,147	-0,131
-564,817	-200,000	-0,021	0,070
-563,802	0,859	0,077	-0,040
-562,788	800,000	-0,021	0,055
-561,773	92,413	0,085	-0,070
-560,758	-200,000	-0,012	0,064
-559,744	282,893	-0,014	-0,019
-558,729	199,696	0,044	-0,050
-557,715	357,299	0,021	0,031
-556,700	-79,904	-0,096	0,023
-555,685	-200,000	0,005	0,089
-554,671	-149,913	-0,062	0,004
-553,656	-65,275	0,062	0,018
-552,642	83,686	-0,009	-0,007
-551,627	25,049	0,015	0,009
-550,612	-200,000	0,032	-0,150
-549,598	-19,168	0,108	0,049
-548,583	53,690	-0,111	-0,077
-547,569	-108,590	0,126	0,019
-546,554	-32,830	0,147	0,059
-545,539	307,474	-0,073	0,100
-544,525	253,851	0,116	-0,145
-543,510	-200,000	-0,004	-0,080
-542,496	800,000	0,050	-0,137
-541,481	-200,000	-0,003	0,022
-540,466	-200,000	-0,008	0,090
-539,452	-200,000	0,001	-0,012
-538,437	130,571	0,015	-0,014
-537,423	50,209	0,032	-0,022
-536,408	180,957	-0,107	-0,115
-535,393	800,000	0,054	-0,124
-534,379	58,290	-0,083	-0,059
-533,364	-146,743	-0,121	-0,008
-532,350	5,041	0,077	-0,041
-531,335	-200,000	0,005	-0,051
-530,321	74,473	0,009	0,007
-529,306	-200,000	0,028	-0,121
-528,291	-18,471	0,048	0,022
-527,277	-97,406	0,177	0,033
-526,262	-111,553	-0,048	-0,007
-525,248	97,022	0,050	0,042
-524,233	23,487	0,141	0,084
-523,218	23,780	0,040	-0,024
-522,204	-79,494	-0,128	-0,031
-521,189	-101,755	-0,010	0,002
-520,175	217,684	0,077	-0,090
-519,160	-200,000	-0,053	-0,219
-518,145	-141,164	0,135	0,010
-517,131	26,693	0,035	0,021
-516,116	165,279	-0,014	0,014
-515,102	-38,955	-0,039	0,015
-514,087	251,344	0,024	0,030
-513,072	-23,325	-0,033	-0,014
-512,058	259,954	0,015	0,019
-511,043	521,820	-0,041	0,071
-510,029	595,170	0,010	0,018
-509,014	-200,000	0,070	0,241
-507,999	340,561	0,100	0,143
-506,985	242,521	-0,050	0,061
-505,970	-200,000	0,010	-0,151
-504,956	-200,000	-0,006	0,146
-503,941	618,174	0,015	-0,027
-502,926	-183,871	-0,067	0,001
-501,912	-200,000	-0,016	0,140
-500,897	8,433	-0,083	0,045
-499,883	118,706	-0,061	-0,055
-498,868	21,090	0,096	-0,056
-497,853	139,035	-0,024	0,023
-496,839	-200,000	-0,020	-0,084
-495,824	176,119	0,057	0,060
-494,810	-45,568	0,110	0,039
-493,795	-19,053	0,008	0,004
-492,781	12,177	0,025	-0,014
-491,766	8,322	-0,054	-0,030
-490,751	-40,790	-0,093	-0,035
-489,737	-139,547	-0,102	-0,008
-488,722	-200,000	-0,008	0,064
-487,708	-200,000	0,001	0,048
-486,693	-65,687	-0,058	-0,017
-485,678	-200,000	-0,008	0,097
-484,664	-158,542	0,030	-0,001
-483,649	800,000	0,014	-0,031
-482,635	-200,000	-0,006	-0,158
-481,620	546,767	0,043	-0,075
-480,605	-102,728	-0,079	0,014
-479,591	-200,000	-0,006	-0,053
-478,576	-200,000	-0,029	-0,191
-477,562	-200,000	0,011	-0,040
-476,547	322,414	-0,021	0,029
-475,532	-81,677	-0,217	-0,051
-474,518	14,622	0,058	0,033
-473,503	800,000	-0,027	0,080
-472,489	-200,000	-0,004	-0,019
-471,474	539,127	0,046	0,079
-470,459	-90,135	-0,124	-0,026
-469,445	-200,000	0,016	-0,108
-468,430	-200,000	0,034	-0,125
-467,416	303,936	0,034	-0,046
-466,401	0,211	-0,061	-0,031
-465,386	-200,000	0,012	0,045
-464,372	-21,563	0,044	0,020
-463,357	-200,000	0,009	-0,032
-462,343	-24,253	0,053	0,023
-461,328	-200,000	0,001	-0,007
-460,313	-65,120	-0,058	0,017
-459,299	106,471	0,168	0,145
-458,284	-53,620	0,044	0,014
-457,270	800,000	-0,029	0,069
-456,255	7,140	0,123	0,067
-455,241	93,850	-0,069	-0,057
-454,226	50,528	0,127	-0,087
-453,211	-139,484	0,150	-0,012
-452,197	417,216	0,107	0,167
-451,182	668,753	0,048	0,090
-450,168	-200,000	-0,000	0,090
-449,153	539,909	-0,041	-0,071
-448,138	-60,575	-0,089	0,027
-447,124	-200,000	0,011	0,040
-446,109	-200,000	0,012	-0,039
-445,095	800,000	0,037	-0,080
-444,080	35,829	0,100	-0,064
-443,065	169,943	0,019	-0,019
-442,051	49,751	0,137	-0,094
-441,036	-200,000	0,017	-0,102
-440,022	-200,000	0,002	0,048
-439,007	-200,000	0,007	-0,045
-437,992	-200,000	0,007	-0,055
-436,978	406,206	0,072	-0,111
-435,963	194,898	0,127	0,141
-434,949	-200,000	0,021	-0,093
-433,934	185,974	0,014	0,015
-432,919	340,093	0,076	0,109
-431,905	373,827	-0,085	0,127
-430,890	-200,000	-0,003	0,011
-429,876	-82,584	-0,052	0,012
-428,861	800,000	0,038	0,091
-427,846	-71,444	-0,053	-0,014
-426,832	-115,053	-0,126	0,017
-425,817	454,109	0,072	-0,116
-424,803	-81,388	-0,153	-0,036
-423,788	-101,494	0,145	0,025
-422,773	-2,239	-0,141	0,072
-421,759	-111,205	0,127	0,019
-420,744	800,000	0,045	0,131
-419,730	15,017	-0,037	0,021
-418,715	-200,000	0,000	-0,022
-417,701	-200,000	0,014	0,090
-416,686	-200,000	-0,036	0,146
-415,671	800,000	0,056	0,123
-414,657	800,000	0,023	0,046
-413,642	424,793	0,059	0,092
-412,628	-95,885	-0,107	0,021
-411,613	-200,000	-0,045	-0,162
-410,598	278,938	0,109	-0,142
-409,584	-200,000	-0,004	0,020
-408,569	129,022	-0,075	0,070
-407,555	413,483	0,113	-0,176
-406,540	-200,000	0,022	-0,099
-405,525	135,458	-0,102	-0,096
-404,511	-42,516	-0,038	-0,014
-403,496	133,594	-0,144	-0,136
-402,482	-100,291	-0,067	-0,012
-401,467	800,000	0,038	-0,106
-400,452	-200,000	0,000	0,062
-399,438	164,961	-0,022	-0,023
-398,423	-80,993	0,063	0,015
-397,409	8,964	-0,037	0,020
-396,394	298,390	-0,084	-0,112
-395,379	800,000	0,026	-0,074
-394,365	164,983	-0,025	0,026
-393,350	800,000	0,034	0,078
-392,336	-90,467	0,048	0,010
-391,321	-200,000	0,027	0,187
-390,306	-61,952	-0,105	0,032
-389,292	275,491	-0,074	0,096
-388,277	372,010	0,062	0,092
-387,263	800,000	0,004	0,011
-386,248	149,206	0,031	0,030
-385,233	-111,815	0,092	-0,013
-384,219	77,367	0,102	-0,079
-383,204	179,337	-0,047	0,050
-382,190	800,000	0,043	-0,119
-381,175	-68,756	0,049	-0,014
-380,160	544,144	0,034	-0,060
-379,146	40,831	0,072	-0,047
-378,131	-200,000	0,011	0,158
-377,117	535,600	0,032	0,055
-376,102	-200,000	-0,029	-0,097
-375,088	-24,707	-0,070	0,030
-374,073	84,195	0,085	-0,067
-373,058	175,572	-0,076	-0,080
-372,044	114,853	0,073	-0,064
-371,029	147,757	0,011	0,011
-370,015	-91,692	-0,091	0,019
-369,000	301,841	-0,033	0,044
-367,985	54,713	0,083	0,058
-366,971	-32,044	0,063	-0,025
-365,956	800,000	-0,060	0,152
-364,942	237,282	0,050	0,060
-363,927	264,992	-0,054	0,069
-362,912	800,000	0,023	0,049
-361,898	-200,000	0,006	-0,022
-360,883	-107,823	-0,156	0,024
-359,869	762,850	0,076	-0,150
-358,854	767,517	-0,051	0,101
-357,839	142,011	0,028	-0,027
-356,825	-70,565	0,084	0,023
-355,810	-124,491	0,087	0,010
-354,796	-200,000	0,003	0,080
-353,781	800,000	0,022	-0,047
-352,766	48,175	-0,115	-0,078
-351,752	-119,124	-0,098	0,012
-350,737	800,000	-0,036	0,084
-349,723	-101,321	0,097	-0,017
-348,708	-84,173	0,067	0,015
-347,693	216,591	-0,090	-0,104
-346,679	-200,000	0,031	0,100
-345,664	31,035	-0,064	-0,040
-344,650	800,000	0,021	0,052
-343,635	73,508	0,058	-0,044
-342,620	-128,073	-0,047	0,005
-341,606	-200,000	0,002	-0,019
-340,591	-15,132	0,089	-0,041
-339,577	-61,087	-0,055	0,017
-338,562	800,000	0,014	-0,045
-337,548	51,767	0,095	-0,066
-336,533	800,000	-0,064	0,170
-335,518	202,910	0,060	0,067
-334,504	-200,000	0,023	-0,097
-333,489	-200,000	0,014	0,083
-332,475	487,046	0,018	0,029
-331,460	800,000	0,044	0,108
-330,445	-200,000	-0,001	-0,012
-329,431	220,123	0,031	-0,036
-328,416	-81,243	-0,030	-0,007
-327,402	-200,000	-0,005	0,024
-326,387	51,082	0,101	-0,069
-325,372	-120,723	-0,090	-0,011
-324,358	29,822	-0,022	-0,014
-323,343	800,000	-0,025	-0,062
-322,329	201,175	-0,013	0,015
-321,314	-200,000	-0,041	-0,138
-320,299	-33,985	-0,124	0,049
-319,285	124,107	0,023	0,021
-318,270	800,000	-0,039	-0,099
-317,256	800,000	0,010	0,031
-316,241	-200,000	-0,042	-0,144
-315,226	-137,509	0,178	0,014
-314,212	1,873	-0,098	0,051
-313,197	-200,000	-0,019	0,090
-312,183	-37,786	-0,052	-0,020
-311,168	80,480	-0,078	0,060
-310,153	115,342	-0,059	-0,052
-309,139	-200,000	0,003	-0,054
-308,124	194,885	-0,110	0,121
-307,110	-9,644	0,078	0,038
-306,095	451,716	0,045	0,072
-305,080	-200,000	-0,022	0,154
-304,066	-178,421	-0,089	0,001
-303,051	-112,289	-0,140	0,020
-302,037	275,283	0,079	-0,102
-301,022	480,117	0,043	-0,070
-300,008	-200,000	0,002	0,010
-298,993	76,100	0,031	0,023
-297,978	-200,000	0,004	0,047
-296,964	-174,960	-0,052	0,001
-295,949	115,016	-0,008	-0,007
-294,935	-96,423	-0,167	0,032
-293,920	-200,000	0,015	0,066
-292,905	-152,797	0,085	-0,004
-291,891	800,000	-0,029	0,091
-290,876	-22,363	-0,192	0,084
-289,862	800,000	0,047	0,102
-288,847	800,000	0,003	0,006
-287,832	-200,000	0,024	-0,114
-286,818	-9,449	-0,158	0,076
-285,803	336,329	0,029	-0,041
-284,789	800,000	0,041	0,101
-283,774	-200,000	-0,028	0,134
-282,759	186,397	-0,007	-0,008
-281,745	800,000	-0,009	0,021
-280,730	-163,282	0,024	-0,001
-279,716	135,856	0,054	0,051
-278,701	800,000	0,045	-0,092
-277,686	-200,000	-0,025	0,119
-276,672	336,083	0,024	-0,033
-275,657	-54,729	0,188	-0,061
-274,643	-90,051	0,101	0,021
-273,628	-200,000	0,020	-0,089
-272,613	-151,027	0,130	-0,007
-271,599	360,199	0,035	0,051
-270,584	333,933	-0,039	-0,055
-269,570	453,908	0,045	-0,072
-268,555	-35,292	-0,037	-0,015
-267,540	-40,829	0,112	0,042
-266,526	-78,949	-0,114	-0,028
-265,511	-200,000	-0,003	0,055
-264,497	-200,000	-0,001	0,186
-263,482	-200,000	-0,002	0,139
-262,467	218,617	-0,019	-0,022
-261,453	-200,000	0,001	0,230
-260,438	-129,957	-0,134	0,013
-259,424	-91,021	-0,081	-0,017
-258,409	-133,654	0,072	0,006
-257,395	-54,901	-0,010	-0,003
-256,380	647,384	-0,023	-0,042
-255,365	322,228	-0,116	-0,160
-254,351	229,763	-0,032	0,038
-253,336	-87,347	0,093	0,020
-252,322	77,936	0,021	-0,016
-251,307	-200,000	0,007	0,031
-250,292	-200,000	-0,002	0,030
-249,278	-200,000	-0,010	0,190
-248,263	145,411	0,029	-0,028
-247,249	-97,264	0,125	0,023
-246,234	-200,000	0,006	-0,033
-245,219	-200,000	-0,003	-0,043
-244,205	53,135	0,040	-0,027
-243,190	273,068	-0,040	-0,051
-242,176	14,741	-0,097	0,055
-241,161	-140,441	-0,040	0,003
-240,146	311,318	-0,058	0,078
-239,132	-200,000	0,003	0,018
-238,117	80,446	-0,051	-0,039
-237,103	-200,000	0,021	-0,164
-236,088	4,254	0,037	0,020
-235,073	800,000	0,070	0,162
-234,059	-36,557	0,115	0,044
-233,044	-52,778	0,069	0,023
-232,030	-200,000	-0,012	0,073
-231,015	566,011	0,028	-0,048
-230,000	-200,000	0,016	-0,146
-228,986	57,257	-0,150	0,106
-227,971	-30,299	0,129	-0,053
-226,957	-119,611	0,030	0,004
-225,942	509,833	-0,013	-0,022
-224,927	800,000	-0,030	0,070
-223,913	-200,000	0,017	-0,083
-222,898	212,158	-0,089	0,101
-221,884	-180,964	-0,057	-0,001
-220,869	149,546	0,015	0,015
-219,855	61,074	-0,019	0,014
-218,840	-200,000	-0,020	0,099
-217,825	800,000	0,015	-0,043
-216,811	-200,000	-0,006	-0,099
-215,796	-134,694	-0,093	-0,008
-214,782	183,456	-0,087	-0,092
-213,767	79,998	-0,038	0,030
-212,752	109,680	0,132	0,114
-211,738	-194,766	0,109	0,001
-210,723	800,000	-0,034	-0,079
-209,709	179,689	-0,090	-0,095
-208,694	-200,000	-0,027	-0,106
-207,679	-200,000	-0,025	0,099
-206,665	-200,000	0,000	-0,083
-205,650	800,000	0,041	-0,090
-204,636	-196,817	-0,129	0,001
-203,621	85,816	0,111	0,088
-202,606	-63,245	-0,129	-0,038
-201,592	800,000	-0,014	0,034
-200,577	137,208	0,064	-0,060
-199,563	-97,014	-0,051	-0,010
-198,548	800,000	-0,034	-0,083
-197,533	-61,068	0,158	0,048
-196,519	630,722	0,041	-0,075
-195,504	-200,000	-0,000	-0,081
-194,490	-130,404	-0,144	0,014
-193,475	-200,000	-0,026	-0,126
-192,460	-106,308	-0,115	-0,018
-191,446	-200,000	0,014	0,101
-190,431	125,012	0,111	0,101
-189,417	70,018	-0,013	0,010
-188,402	-61,470	-0,067	-0,020
-187,387	-166,043	0,063	0,002
-186,373	-148,787	-0,112	0,006
-185,358	-200,000	0,006	-0,048
-184,344	-200,000	0,008	0,138
-183,329	-200,000	0,003	0,117
-182,315	-91,271	0,019	0,004
-181,300	800,000	-0,028	0,078
-180,285	93,992	0,024	0,019
-179,271	-102,747	-0,089	0,015
-178,256	283,834	0,065	-0,084
-177,242	-120,672	0,148	-0,018
-176,227	-200,000	-0,001	-0,040
-175,212	-6,719	0,038	0,019
-174,198	362,536	0,040	-0,058
-173,183	-200,000	-0,015	-0,092
-172,169	-8,216	-0,048	0,023
-171,154	361,695	-0,064	-0,093
-170,139	270,685	-0,021	-0,027
-169,125	342,466	-0,037	0,053
-168,110	800,000	0,021	0,053
-167,096	800,000	-0,031	0,093
-166,081	800,000	0,050	-0,105
-165,066	40,039	0,026	0,017
-164,052	224,406	0,071	-0,082
-163,037	-31,198	-0,065	-0,026
-162,023	-130,939	0,080	-0,008
-161,008	-51,389	0,038	-0,013
-159,993	375,808	-0,054	-0,080
-158,979	128,368	0,154	-0,141
-157,964	231,061	-0,047	-0,055
-156,950	239,345	0,073	-0,088
-155,935	-95,184	0,042	0,008
-154,920	-136,316	0,058	-0,005
-153,906	256,622	0,110	0,137
-152,891	-200,000	0,032	0,114
-151,877	-200,000	-0,049	-0,165
-150,862	-26,165	-0,082	0,034
-149,847	800,000	-0,007	0,021
-148,833	195,188	0,151	0,165
-147,818	-200,000	0,008	0,145
-146,804	388,862	-0,045	0,067
-145,789	-200,000	0,015	0,054
-144,775	227,282	-0,063	-0,074
-143,760	84,099	-0,087	-0,068
-142,745	197,366	0,034	0,037
-141,731	172,167	0,040	0,041
-140,716	800,000	-0,028	0,062
-139,702	71,388	-0,049	0,036
-138,687	-200,000	-0,013	-0,069
-137,672	93,978	-0,062	0,050
-136,658	-73,647	-0,061	0,016
-135,643	3,563	0,189	0,099
-134,629	-157,418	-0,095	0,004
-133,614	-200,000	-0,012	-0,088
-132,599	97,530	0,029	0,024
-131,585	-89,512	-0,156	0,033
-130,570	-200,000	0,007	-0,040
-129,556	57,011	0,034	-0,024
-128,541	119,113	0,118	-0,105
-127,526	64,797	0,074	-0,054
-126,512	-200,000	-0,014	0,094
-125,497	-200,000	0,013	-0,059
-124,483	60,691	-0,070	0,050
-123,468	389,888	-0,023	0,034
-122,453	-200,000	-0,026	0,119
-121,439	-45,370	0,092	0,033
-120,424	800,000	0,043	0,117
-119,410	265,476	-0,059	0,073
-118,395	91,334	0,118	0,096
