DTS Sentinel unit serial number:	SN410029Multiplexer serial number:	ORYXHardware model number:	OX2-SRSoftware version number:	ORYX F/W v4,00 Oryx Data Collector v3.7.2.0data status	okinstallation	B6 Nyhavnadifferential loss correction	single-endedforward channel	channel 2reverse channel	N/Adate	2023/12/08time	05:25:08forward acquisition time	300,00reverse acquisition time	0,00gamma	499,1914k internal	0,3165k external	0,3165temperature offset calibration	1,0000default loss term (dB/km)	0,3820temperature slope calibration	1,0000multiplexer offset coefficient	1,0000multiplexer slope coefficient	1,0000fibre end	0,00T internal ref (°C)	13,03T ext. ref 1 (°C)	-3,90T ext. ref 2 (°C)	-3,91length (m)	temperature (°C)	Stokes	anti-Stokes-744,400	145,999	0,111	-0,109
-743,385	-128,048	-0,247	-0,026
-742,371	93,295	0,156	0,130
-741,356	-200,000	-0,392	-0,000
-740,342	-39,247	0,178	-0,069
-739,327	-9,647	-0,135	-0,066
-738,312	-200,000	-0,016	0,131
-737,298	-170,539	-0,438	-0,011
-736,283	-155,693	0,210	0,010
-735,269	-9,896	-0,194	0,095
-734,254	-25,744	0,253	0,109
-733,239	-1,255	-0,385	-0,199
-732,225	-114,829	0,322	0,045
-731,210	267,140	-0,034	0,044
-730,196	237,276	-0,057	0,069
-729,181	778,463	-0,045	-0,092
-728,167	800,000	-0,043	-0,091
-727,152	800,000	0,025	0,054
-726,137	158,809	-0,134	-0,137
-725,123	134,970	0,032	-0,030
-724,108	719,095	-0,088	-0,173
-723,094	-125,209	-0,090	0,010
-722,079	-200,000	0,002	0,024
-721,064	324,962	0,021	0,029
-720,050	800,000	0,033	-0,077
-719,035	78,336	0,050	0,039
-718,021	-200,000	0,028	0,124
-717,006	-200,000	-0,011	-0,047
-715,991	10,635	-0,091	-0,051
-714,977	499,037	0,058	-0,098
-713,962	800,000	-0,041	-0,115
-712,948	-200,000	0,018	-0,072
-711,933	-92,281	-0,035	-0,007
-710,918	-200,000	-0,021	-0,071
-709,904	273,146	-0,082	-0,107
-708,889	-200,000	-0,009	-0,035
-707,875	-46,575	-0,021	-0,008
-706,860	-73,871	0,037	-0,010
-705,845	22,693	-0,090	-0,054
-704,831	-185,853	0,107	-0,001
-703,816	-200,000	0,052	0,177
-702,802	800,000	-0,041	0,102
-701,787	-200,000	0,013	-0,091
-700,772	-32,735	0,056	0,023
-699,758	278,020	0,021	0,027
-698,743	-24,654	0,069	-0,030
-697,729	216,075	0,129	-0,150
-696,714	-58,011	-0,101	-0,032
-695,699	84,753	-0,060	-0,049
-694,685	-48,077	0,066	-0,023
-693,670	668,918	0,020	-0,039
-692,656	-200,000	-0,029	-0,094
-691,641	-46,534	-0,052	0,018
-690,627	125,882	0,036	-0,034
-689,612	-63,603	0,104	0,031
-688,597	322,788	0,048	0,067
-687,583	60,054	-0,079	-0,057
-686,568	-64,258	-0,178	-0,053
-685,554	-139,963	0,055	-0,004
-684,539	-200,000	-0,007	-0,079
-683,524	326,292	0,058	0,081
-682,510	636,948	0,033	-0,062
-681,495	-93,940	0,091	0,018
-680,481	105,572	0,042	0,036
-679,466	-200,000	0,001	-0,025
-678,451	366,932	-0,049	-0,073
-677,437	-200,000	-0,017	-0,093
-676,422	92,391	-0,020	0,016
-675,408	669,019	0,031	0,060
-674,393	-200,000	-0,015	0,121
-673,378	800,000	-0,026	-0,064
-672,364	-200,000	0,027	-0,187
-671,349	-180,534	-0,196	-0,003
-670,335	35,847	-0,058	0,037
-669,320	495,091	-0,086	0,146
-668,305	-200,000	-0,000	0,010
-667,291	-29,117	0,147	0,062
-666,276	-200,000	-0,008	-0,177
-665,262	-200,000	-0,023	-0,142
-664,247	-200,000	0,049	-0,178
-663,232	719,497	0,088	0,172
-662,218	184,726	0,046	0,050
-661,203	670,888	0,053	0,101
-660,189	-165,864	-0,135	-0,004
-659,174	414,503	-0,037	-0,058
-658,159	102,363	-0,143	0,122
-657,145	800,000	0,044	-0,092
-656,130	684,232	0,040	0,077
-655,116	400,342	-0,053	0,082
-654,101	16,116	0,051	-0,029
-653,086	-65,301	0,157	-0,046
-652,072	800,000	-0,043	0,110
-651,057	-21,815	-0,074	-0,033
-650,043	800,000	-0,049	-0,110
-649,028	740,763	0,031	-0,061
-648,014	12,381	0,130	-0,073
-646,999	-200,000	-0,011	-0,045
-645,984	-71,291	-0,049	0,013
-644,970	-61,738	-0,076	0,023
-643,955	-200,000	0,006	-0,188
-642,941	1,458	-0,071	0,037
-641,926	116,832	-0,047	-0,042
-640,911	-200,000	0,002	-0,062
-639,897	800,000	0,067	-0,148
-638,882	-200,000	0,002	-0,083
-637,868	235,684	-0,052	-0,063
-636,853	-156,541	-0,102	0,005
-635,838	-29,332	0,023	0,010
-634,824	-0,214	-0,092	-0,048
-633,809	82,762	-0,007	0,006
-632,795	-134,956	0,053	0,005
-631,780	-51,698	-0,079	-0,027
-630,765	-200,000	0,009	-0,060
-629,751	381,601	-0,047	-0,071
-628,736	-91,233	-0,100	-0,021
-627,722	13,861	-0,014	-0,008
-626,707	11,263	-0,078	-0,044
-625,692	8,759	0,027	-0,015
-624,678	4,103	-0,029	0,016
-623,663	800,000	-0,057	0,180
-622,649	-33,257	-0,112	0,045
-621,634	-89,609	-0,037	-0,008
-620,619	-91,333	0,026	-0,005
-619,605	1,510	-0,073	-0,038
-618,590	-200,000	-0,023	0,079
-617,576	13,747	0,168	0,095
-616,561	512,675	0,086	-0,148
-615,546	-32,929	-0,092	-0,037
-614,532	-78,692	-0,073	0,018
-613,517	-200,000	0,012	0,079
-612,503	193,864	0,062	-0,069
-611,488	45,069	-0,051	-0,035
-610,474	14,979	0,084	0,048
-609,459	-13,898	-0,047	0,022
-608,444	800,000	0,057	-0,135
-607,430	-200,000	0,004	0,035
-606,415	-89,141	-0,052	0,011
-605,401	405,795	-0,045	-0,070
-604,386	-82,135	-0,066	0,016
-603,371	173,561	-0,058	-0,061
-602,357	9,199	0,071	0,039
-601,342	718,074	0,036	-0,070
-600,328	325,997	-0,013	-0,019
-599,313	-200,000	-0,020	-0,080
-598,298	800,000	0,056	-0,115
-597,284	5,050	0,109	0,058
-596,269	800,000	0,037	0,100
-595,255	76,110	-0,161	-0,124
-594,240	213,501	-0,039	-0,045
-593,225	492,902	0,013	-0,022
-592,211	800,000	-0,039	-0,112
-591,196	-200,000	-0,005	-0,201
-590,182	-56,264	0,069	-0,022
-589,167	-18,612	0,092	0,042
-588,152	335,711	-0,073	0,103
-587,138	800,000	0,083	0,173
-586,123	75,110	-0,144	-0,111
-585,109	3,159	0,026	0,014
-584,094	325,714	-0,060	-0,084
-583,079	-64,282	0,029	0,009
-582,065	800,000	-0,029	-0,077
-581,050	50,335	-0,060	-0,041
-580,036	-200,000	0,001	0,038
-579,021	-200,000	-0,014	-0,167
-578,006	-117,478	-0,029	0,004
-576,992	-55,760	0,101	0,033
-575,977	36,106	0,036	-0,023
-574,963	800,000	0,023	0,061
-573,948	-2,897	0,063	0,032
-572,934	94,146	-0,118	0,098
-571,919	282,866	0,054	0,070
-570,904	-200,000	-0,002	0,011
-569,890	-147,576	-0,038	0,002
-568,875	-200,000	0,001	0,146
-567,861	54,934	0,088	0,062
-566,846	-200,000	-0,008	-0,072
-565,831	-200,000	0,007	0,028
-564,817	800,000	-0,034	-0,103
-563,802	95,633	0,022	-0,018
-562,788	-200,000	-0,014	0,063
-561,773	-62,469	0,106	0,032
-560,758	-124,304	-0,053	0,006
-559,744	-200,000	0,012	0,166
-558,729	553,729	-0,032	0,056
-557,715	-123,854	0,110	0,013
-556,700	64,200	-0,032	-0,023
-555,685	334,797	-0,049	0,070
-554,671	-84,132	-0,101	0,023
-553,656	52,504	0,147	0,103
-552,642	-65,182	-0,060	0,018
-551,627	-112,315	0,092	0,013
-550,612	-67,066	-0,118	0,034
-549,598	-200,000	-0,032	-0,151
-548,583	16,869	-0,055	-0,032
-547,569	218,742	0,053	-0,062
-546,554	-57,341	-0,096	-0,031
-545,539	313,619	0,046	-0,063
-544,525	800,000	-0,036	0,082
-543,510	-200,000	-0,004	-0,030
-542,496	230,721	-0,065	-0,078
-541,481	800,000	0,019	0,050
-540,466	-7,174	0,189	0,093
-539,452	800,000	-0,051	-0,126
-538,437	-200,000	-0,010	-0,079
-537,423	72,588	0,060	0,046
-536,408	-94,095	-0,011	0,002
-535,393	-9,898	-0,157	0,076
-534,379	64,994	0,104	-0,077
-533,364	-200,000	-0,014	0,067
-532,350	449,991	0,005	-0,008
-531,335	364,901	-0,034	-0,049
-530,321	800,000	-0,032	0,072
-529,306	46,377	0,034	0,023
-528,291	-200,000	-0,017	-0,105
-527,277	11,505	0,057	0,032
-526,262	195,688	-0,026	-0,029
-525,248	489,671	0,057	-0,095
-524,233	800,000	0,022	-0,050
-523,218	800,000	-0,011	-0,033
-522,204	-57,431	-0,045	0,014
-521,189	337,094	-0,090	-0,128
-520,175	152,693	0,044	-0,043
-519,160	91,467	-0,095	0,077
-518,145	266,464	0,038	-0,049
-517,131	70,774	-0,020	-0,015
-516,116	-56,904	0,103	-0,033
-515,102	-200,000	0,001	0,047
-514,087	-200,000	-0,006	0,020
-513,072	-116,158	-0,108	0,014
-512,058	34,911	0,016	-0,010
-511,043	-74,265	-0,013	-0,003
-510,029	800,000	0,018	-0,059
-509,014	-200,000	0,022	-0,084
-507,999	-123,597	0,067	0,008
-506,985	-179,008	0,149	0,002
-505,970	311,618	0,071	-0,097
-504,956	413,714	-0,060	-0,094
-503,941	194,826	0,076	-0,085
-502,926	-200,000	0,013	0,074
-501,912	445,179	0,043	0,069
-500,897	198,452	-0,024	-0,027
-499,883	149,986	-0,074	0,073
-498,868	25,302	0,153	-0,092
-497,853	-55,976	-0,085	-0,028
-496,839	242,621	0,130	-0,159
-495,824	-200,000	0,014	0,118
-494,810	158,621	0,143	0,145
-493,795	-200,000	-0,029	0,171
-492,781	159,580	-0,022	-0,023
-491,766	800,000	0,022	-0,068
-490,751	112,935	-0,071	0,063
-489,737	-58,647	0,070	0,022
-488,722	-200,000	0,010	-0,073
-487,708	-75,888	-0,048	0,012
-486,693	800,000	0,052	0,153
-485,678	-36,219	-0,134	0,053
-484,664	-200,000	-0,023	0,218
-483,649	17,610	0,116	0,067
-482,635	-78,262	0,082	-0,020
-481,620	41,233	-0,114	-0,075
-480,605	161,752	0,113	0,116
-479,591	-200,000	-0,017	0,056
-478,576	-40,202	-0,069	0,026
-477,562	-64,612	0,095	-0,028
-476,547	800,000	-0,017	-0,046
-475,532	-200,000	0,028	0,163
-474,518	282,621	0,037	0,049
-473,503	-4,252	0,141	-0,071
-472,489	-29,722	0,036	0,015
-471,474	-167,267	-0,073	0,002
-470,459	-33,083	-0,221	0,089
-469,445	-98,943	0,140	0,026
-468,430	-200,000	-0,013	0,068
-467,416	-200,000	0,019	0,105
-466,401	323,415	-0,032	-0,044
-465,386	-61,442	0,086	0,026
-464,372	-167,164	-0,119	-0,003
-463,357	103,809	0,108	-0,092
-462,343	-200,000	0,011	-0,068
-461,328	-129,497	-0,098	-0,010
-460,313	800,000	-0,030	-0,063
-459,299	-32,805	0,186	-0,075
-458,284	-87,179	0,066	-0,015
-457,270	-114,085	0,035	-0,005
-456,255	-34,569	-0,060	-0,024
-455,241	-200,000	0,010	0,045
-454,226	-2,074	-0,196	0,100
-453,211	-200,000	-0,007	0,079
-452,197	-80,919	0,032	0,008
-451,182	-41,135	0,123	0,046
-450,168	-174,729	-0,064	-0,001
-449,153	-52,709	-0,044	0,015
-448,138	60,562	-0,139	-0,100
-447,124	-96,254	-0,220	0,042
-446,109	-140,065	-0,047	-0,004
-445,095	-6,332	0,064	0,032
-444,080	162,756	0,019	-0,019
-443,065	-200,000	-0,007	0,097
-442,051	-200,000	0,023	0,095
-441,036	122,163	-0,040	0,036
-440,022	-25,245	-0,082	0,035
-439,007	613,336	-0,041	-0,074
-437,992	800,000	-0,005	-0,014
-436,978	-200,000	0,037	0,166
-435,963	29,497	-0,086	-0,053
-434,949	149,500	0,080	-0,079
-433,934	630,211	-0,029	-0,053
-432,919	82,141	-0,014	-0,011
-431,905	100,613	0,049	-0,042
-430,890	153,291	0,093	-0,093
-429,876	-109,456	0,076	-0,012
-428,861	-200,000	-0,004	0,064
-427,846	188,203	-0,008	0,008
-426,832	-124,849	-0,082	-0,009
-425,817	-100,856	0,084	-0,015
-424,803	-200,000	-0,047	-0,161
-423,788	-200,000	0,000	-0,086
-422,773	-9,725	-0,094	-0,045
-421,759	418,948	0,022	0,034
-420,744	-97,328	0,037	-0,007
-419,730	215,447	-0,134	-0,155
-418,715	273,414	0,032	0,041
-417,701	-200,000	-0,014	-0,133
-416,686	-200,000	0,026	0,085
-415,671	54,056	-0,083	0,058
-414,657	-73,401	0,208	-0,055
-413,642	147,514	0,030	0,030
-412,628	-132,706	-0,038	0,004
-411,613	579,900	-0,020	-0,036
-410,598	120,351	-0,056	0,050
-409,584	232,084	-0,067	0,080
-408,569	352,568	0,077	0,111
-407,555	28,733	0,051	0,031
-406,540	176,889	0,039	-0,042
-405,525	39,273	0,100	-0,065
-404,511	416,571	-0,008	0,013
-403,496	5,354	-0,084	0,045
-402,482	800,000	0,017	-0,039
-401,467	298,278	0,042	-0,056
-400,452	800,000	-0,094	-0,210
-399,438	476,753	0,067	-0,110
-398,423	28,510	-0,094	-0,058
-397,409	-200,000	-0,012	0,045
-396,394	-200,000	-0,005	-0,043
-395,379	-200,000	0,001	-0,014
-394,365	166,425	0,096	0,098
-393,350	-200,000	0,027	0,112
-392,336	749,019	0,016	0,031
-391,321	-74,650	0,091	0,023
-390,306	800,000	-0,033	-0,083
-389,292	-200,000	0,016	-0,082
-388,277	8,520	0,037	0,020
-387,263	-200,000	-0,017	-0,129
-386,248	125,050	0,068	0,062
-385,233	-45,932	-0,047	0,017
-384,219	78,561	-0,134	-0,103
-383,204	-21,502	-0,102	-0,045
-382,190	114,984	0,060	-0,053
-381,175	-66,600	0,026	-0,007
-380,160	-58,147	-0,065	-0,020
-379,146	65,210	0,068	0,050
-378,131	-2,696	-0,057	-0,029
-377,117	129,555	-0,069	-0,064
-376,102	800,000	-0,014	0,046
-375,088	-200,000	0,020	-0,106
-374,073	-20,934	-0,057	-0,025
-373,058	-200,000	0,050	0,169
-372,044	11,358	0,013	-0,007
-371,029	-200,000	0,025	0,095
-370,015	-48,126	-0,030	0,010
-369,000	-200,000	-0,008	-0,049
-367,985	312,312	0,049	0,067
-366,971	-1,055	0,040	0,020
-365,956	-88,477	0,156	-0,033
-364,942	-85,759	-0,068	-0,015
-363,927	147,945	-0,043	0,042
-362,912	-8,239	-0,098	-0,047
-361,898	147,965	-0,067	-0,065
-360,883	220,773	-0,039	-0,046
-359,869	-200,000	-0,003	-0,126
-358,854	-155,555	0,122	-0,006
-357,839	305,036	0,031	-0,042
-356,825	202,078	0,104	0,117
-355,810	-200,000	0,006	-0,025
-354,796	800,000	-0,022	-0,063
-353,781	45,458	-0,039	0,026
-352,766	-6,496	0,096	-0,047
-351,752	107,444	-0,138	-0,119
-350,737	-62,430	0,148	0,044
-349,723	224,362	-0,106	0,124
-348,708	81,772	0,112	0,088
-347,693	-107,883	0,018	0,003
-346,679	326,859	0,034	0,047
-345,664	-200,000	0,018	-0,076
-344,650	-200,000	-0,021	0,077
-343,635	110,562	-0,067	-0,059
-342,620	-200,000	-0,001	0,031
-341,606	61,685	-0,040	-0,029
-340,591	64,558	-0,053	0,039
-339,577	59,204	0,104	0,074
-338,562	99,897	-0,093	-0,078
-337,548	107,672	0,088	-0,076
-336,533	8,961	-0,037	0,020
-335,518	-37,526	-0,075	0,029
-334,504	328,061	-0,009	-0,012
-333,489	355,799	0,026	0,037
-332,475	-200,000	-0,011	-0,122
-331,460	-82,657	-0,076	-0,018
-330,445	91,476	-0,018	-0,015
-329,431	80,542	-0,072	0,056
-328,416	283,356	0,093	0,121
-327,402	800,000	0,023	0,068
-326,387	800,000	0,041	0,100
-325,372	-158,863	0,105	-0,004
-324,358	-200,000	-0,004	-0,193
-323,343	616,663	0,049	0,090
-322,329	686,273	-0,059	-0,113
-321,314	-23,809	0,034	-0,015
-320,299	-200,000	0,029	0,188
-319,285	-116,981	-0,134	-0,017
-318,270	800,000	-0,044	-0,101
-317,256	243,302	0,004	-0,005
-316,241	-105,104	0,046	0,007
-315,226	-20,642	0,163	-0,072
-314,212	-143,358	-0,060	0,004
-313,197	422,571	-0,049	0,077
-312,183	-66,586	0,060	-0,017
-311,168	648,831	-0,021	0,038
-310,153	17,684	-0,108	-0,062
-309,139	-115,147	0,047	-0,006
-308,124	800,000	0,050	0,100
-307,110	-1,268	0,097	-0,050
-306,095	-87,420	-0,078	-0,017
-305,080	-200,000	-0,024	0,156
-304,066	-100,238	-0,123	0,022
-303,051	800,000	0,051	-0,113
-302,037	382,349	-0,039	-0,058
-301,022	100,768	-0,059	0,050
-300,008	232,536	0,098	0,116
-298,993	-72,800	0,090	0,024
-297,978	-17,529	0,028	-0,013
-296,964	-200,000	-0,014	0,062
-295,949	490,122	-0,018	-0,030
-294,935	112,525	0,040	-0,035
-293,920	800,000	0,038	0,104
-292,905	-200,000	0,038	-0,141
-291,891	-200,000	0,017	0,084
-290,876	648,660	-0,038	0,070
-289,862	22,039	0,076	0,044
-288,847	-100,366	-0,079	0,014
-287,832	-200,000	-0,003	-0,020
-286,818	290,760	0,012	0,016
-285,803	-36,428	0,072	-0,028
-284,789	800,000	-0,051	0,120
-283,774	554,895	-0,052	0,090
-282,759	-6,273	0,092	-0,045
-281,745	-0,513	-0,067	-0,034
-280,730	-84,948	-0,074	0,017
-279,716	-73,364	0,130	0,034
-278,701	408,255	-0,033	0,051
-277,686	249,000	0,052	0,063
-276,672	-184,705	0,149	-0,002
-275,657	348,108	0,008	0,012
-274,643	-200,000	0,009	-0,147
-273,628	-200,000	-0,060	-0,228
-272,613	307,593	-0,056	0,076
-271,599	37,794	-0,049	0,032
-270,584	-105,214	-0,027	0,004
-269,570	42,198	-0,079	0,052
-268,555	-55,886	0,120	-0,038
-267,540	-200,000	0,030	-0,119
-266,526	800,000	-0,031	-0,070
-265,511	724,871	0,016	0,032
-264,497	-200,000	0,003	0,179
-263,482	168,570	0,084	0,087
-262,467	139,401	-0,062	-0,059
-261,453	-44,631	-0,051	-0,018
-260,438	-2,610	-0,136	-0,068
-259,424	-200,000	0,011	0,203
-258,409	10,484	-0,061	-0,034
-257,395	-99,430	0,180	0,032
-256,380	-70,816	0,100	0,027
-255,365	24,997	0,037	0,022
-254,351	69,893	-0,098	0,073
-253,336	-95,729	-0,047	-0,009
-252,322	321,245	-0,080	0,110
-251,307	-200,000	0,019	0,066
-250,292	800,000	-0,069	0,171
-249,278	-64,828	0,028	-0,008
-248,263	800,000	0,065	0,171
-247,249	800,000	0,041	0,107
-246,234	491,673	-0,050	-0,082
-245,219	-54,675	0,074	0,024
-244,205	800,000	0,044	-0,111
-243,190	-114,968	-0,189	-0,026
-242,176	-200,000	0,028	0,183
-241,161	800,000	0,045	0,092
-240,146	-200,000	0,010	0,080
-239,132	-84,072	0,086	-0,020
-238,117	800,000	-0,035	0,104
-237,103	179,790	0,033	-0,035
-236,088	29,454	-0,090	0,055
-235,073	29,915	0,062	-0,038
-234,059	-200,000	-0,021	0,114
-233,044	-44,882	0,035	0,012
-232,030	800,000	-0,023	0,064
-231,015	171,697	-0,072	0,075
-230,000	186,270	-0,016	0,018
-228,986	-91,417	-0,104	0,021
-227,971	766,602	-0,052	-0,103
-226,957	-175,368	-0,044	-0,001
-225,942	211,556	-0,086	0,097
-224,927	-13,477	0,100	0,046
-223,913	19,800	-0,032	-0,019
-222,898	174,773	-0,091	-0,095
-221,884	-51,020	-0,100	0,034
-220,869	737,097	0,085	0,165
-219,855	-200,000	0,004	0,053
-218,840	-32,495	0,076	-0,030
-217,825	56,231	0,102	-0,071
-216,811	4,175	-0,050	-0,026
-215,796	800,000	-0,047	0,104
-214,782	-92,933	-0,106	0,021
-213,767	-121,434	0,057	-0,007
-212,752	103,638	-0,071	0,060
-211,738	156,929	-0,051	-0,051
-210,723	40,731	0,096	-0,062
-209,709	800,000	-0,029	0,075
-208,694	-144,185	-0,113	0,007
-207,679	57,604	0,046	-0,032
-206,665	40,524	0,034	0,022
-205,650	574,339	-0,023	0,040
-204,636	-13,172	0,027	0,013
-203,621	398,873	-0,052	-0,079
-202,606	-28,658	-0,113	-0,047
-201,592	800,000	-0,049	-0,124
-200,577	150,671	-0,066	0,064
-199,563	-200,000	-0,026	0,136
-198,548	199,282	0,077	-0,085
-197,533	800,000	0,054	-0,151
-196,519	149,867	0,061	-0,060
-195,504	-200,000	-0,001	-0,014
-194,490	-200,000	-0,008	-0,037
-193,475	53,289	0,028	0,019
-192,460	-200,000	0,003	0,116
-191,446	-115,853	-0,053	0,007
-190,431	-82,952	0,194	0,045
-189,417	91,024	0,095	0,076
-188,402	135,710	-0,065	0,061
-187,387	-200,000	0,007	0,049
-186,373	-200,000	0,001	-0,036
-185,358	-200,000	0,017	0,110
-184,344	-35,567	0,064	0,025
-183,329	542,252	0,016	-0,027
-182,315	-163,759	0,023	0,001
-181,300	190,965	0,040	-0,043
-180,285	398,297	-0,052	-0,079
-179,271	-200,000	-0,024	-0,175
-178,256	800,000	-0,027	-0,061
-177,242	-200,000	-0,002	-0,031
-176,227	-200,000	-0,039	-0,136
-175,212	-45,056	0,136	-0,049
-174,198	-157,470	0,086	-0,004
-173,183	-200,000	0,033	-0,110
-172,169	-200,000	-0,159	-0,000
-171,154	173,052	0,178	0,185
-170,139	-200,000	-0,009	0,086
-169,125	-32,296	0,070	0,028
-168,110	-200,000	0,021	0,180
-167,096	56,587	-0,061	-0,042
-166,081	-133,281	-0,065	0,006
-165,066	-200,000	0,010	0,050
-164,052	250,042	0,100	-0,123
-163,037	151,740	-0,015	-0,015
-162,023	-110,494	-0,063	0,009
-161,008	-104,526	0,126	-0,021
-159,993	187,746	-0,052	0,056
-158,979	-200,000	0,024	-0,097
-157,964	-200,000	-0,039	-0,163
-156,950	-200,000	0,031	-0,150
-155,935	-200,000	-0,004	-0,098
-154,920	206,362	-0,073	-0,082
-153,906	182,858	0,145	0,154
-152,891	-200,000	-0,001	0,087
-151,877	366,281	-0,067	-0,098
-150,862	-54,191	-0,056	-0,018
-149,847	-18,199	0,132	-0,059
-148,833	-61,298	-0,087	-0,026
-147,818	168,120	0,113	-0,116
-146,804	-200,000	0,003	0,108
-145,789	800,000	0,013	-0,030
-144,775	-75,341	-0,054	0,014
-143,760	-200,000	-0,035	0,172
-142,745	-107,697	-0,352	-0,055
-141,731	-200,000	0,003	-0,013
-140,716	575,073	-0,028	0,049
-139,702	271,791	0,038	0,048
-138,687	93,765	-0,057	-0,046
-137,672	800,000	0,058	-0,176
-136,658	-200,000	0,034	-0,142
-135,643	72,267	0,042	-0,031
-134,629	166,094	-0,050	0,051
-133,614	146,904	0,090	0,087
-132,599	800,000	0,016	-0,035
-131,585	-106,417	0,012	0,002
-130,570	-147,073	-0,156	-0,009
-129,556	256,890	0,036	0,044
-128,541	-200,000	0,002	0,046
-127,526	-200,000	0,009	-0,097
-126,512	-63,483	0,077	-0,023
-125,497	-200,000	-0,035	0,152
-124,483	194,726	0,031	0,033
-123,468	-21,480	0,106	-0,046
-122,453	-99,159	-0,113	0,020
-121,439	-106,912	0,041	0,006
-120,424	-200,000	-0,006	-0,077
-119,410	24,790	0,013	-0,008
