DTS Sentinel unit serial number:	SN410029Multiplexer serial number:	ORYXHardware model number:	OX2-SRSoftware version number:	ORYX F/W v4,00 Oryx Data Collector v3.7.2.0data status	okinstallation	B6 Nyhavnadifferential loss correction	single-endedforward channel	channel 2reverse channel	N/Adate	2023/12/11time	00:00:08forward acquisition time	300,00reverse acquisition time	0,00gamma	499,1914k internal	0,3122k external	0,3122temperature offset calibration	1,0000default loss term (dB/km)	0,3820temperature slope calibration	1,0000multiplexer offset coefficient	1,0000multiplexer slope coefficient	1,0000fibre end	0,00T internal ref (°C)	22,38T ext. ref 1 (°C)	5,98T ext. ref 2 (°C)	6,01length (m)	temperature (°C)	Stokes	anti-Stokes-744,400	166,822	-0,026	0,027
-743,385	42,692	-0,253	0,171
-742,371	-4,505	0,074	0,038
-741,356	156,691	-0,229	0,236
-740,342	311,654	0,067	-0,094
-739,327	29,628	-0,212	0,134
-738,312	-200,000	-0,008	-0,131
-737,298	313,349	-0,151	0,212
-736,283	-142,768	0,067	-0,005
-735,269	-86,470	-0,167	0,038
-734,254	-62,553	0,134	0,041
-733,239	-172,092	-0,375	-0,009
-732,225	-99,822	0,149	-0,028
-731,210	-200,000	0,015	0,113
-730,196	-200,000	0,002	-0,047
-729,181	38,636	-0,035	-0,023
-728,167	-31,472	-0,064	0,027
-727,152	387,064	-0,056	-0,086
-726,137	-200,000	-0,031	-0,157
-725,123	142,776	0,060	-0,060
-724,108	388,089	0,032	-0,050
-723,094	274,424	-0,103	-0,136
-722,079	-6,095	-0,006	0,003
-721,064	-20,864	-0,070	-0,032
-720,050	800,000	0,014	-0,042
-719,035	-75,258	0,068	0,018
-718,021	-200,000	0,018	0,107
-717,006	35,708	-0,122	-0,079
-715,991	800,000	0,027	-0,084
-714,977	220,310	-0,042	-0,050
-713,962	51,420	-0,100	-0,071
-712,948	-20,751	-0,132	0,060
-711,933	-42,500	-0,087	-0,033
-710,918	800,000	-0,035	-0,092
-709,904	800,000	0,043	-0,139
-708,889	74,169	-0,106	-0,083
-707,875	264,659	-0,084	-0,109
-706,860	223,423	0,064	-0,077
-705,845	419,022	0,019	0,031
-704,831	-200,000	0,033	0,126
-703,816	494,697	-0,020	0,034
-702,802	53,909	-0,071	-0,051
-701,787	396,661	-0,058	-0,091
-700,772	74,696	0,090	-0,071
-699,758	-200,000	-0,005	-0,081
-698,743	-30,256	0,084	-0,035
-697,729	-68,391	-0,075	-0,022
-696,714	46,813	-0,037	0,026
-695,699	83,712	-0,125	-0,101
-694,685	-200,000	-0,018	-0,167
-693,670	664,240	-0,045	-0,087
-692,656	-97,282	-0,138	-0,027
-691,641	-28,517	-0,072	-0,031
-690,627	800,000	0,056	-0,123
-689,612	-88,780	-0,055	-0,012
-688,597	-33,555	-0,097	-0,040
-687,583	575,625	0,048	0,087
-686,568	742,152	-0,053	-0,106
-685,554	44,580	-0,058	0,040
-684,539	636,355	-0,014	-0,027
-683,524	49,184	0,132	-0,092
-682,510	-200,000	-0,052	-0,184
-681,495	-200,000	-0,025	-0,096
-680,481	-63,846	-0,264	-0,080
-679,466	-80,185	-0,108	0,027
-678,451	-200,000	0,026	-0,087
-677,437	188,046	-0,060	-0,067
-676,422	800,000	-0,024	0,071
-675,408	-200,000	-0,013	0,131
-674,393	-23,957	-0,061	-0,027
-673,378	442,788	-0,072	-0,118
-672,364	7,982	-0,133	-0,074
-671,349	-200,000	-0,022	-0,139
-670,335	-8,798	0,041	0,020
-669,320	-200,000	0,002	0,031
-668,305	-200,000	0,032	0,105
-667,291	-104,486	0,091	-0,016
-666,276	-45,285	-0,062	0,023
-665,262	-200,000	0,005	-0,022
-664,247	800,000	0,033	-0,078
-663,232	-46,373	-0,108	-0,039
-662,218	800,000	0,027	-0,078
-661,203	417,172	-0,074	-0,118
-660,189	-40,426	-0,112	0,043
-659,174	252,166	-0,100	-0,127
-658,159	800,000	-0,008	0,025
-657,145	-163,340	-0,156	-0,005
-656,130	-14,635	0,066	-0,031
-655,116	-77,779	0,100	0,025
-654,101	800,000	0,029	0,069
-653,086	-138,315	-0,029	0,002
-652,072	115,037	-0,105	-0,095
-651,057	-57,532	0,110	0,036
-650,043	238,649	-0,102	-0,127
-649,028	-25,554	0,049	-0,022
-648,014	-200,000	-0,037	-0,157
-646,999	547,664	-0,015	0,027
-645,984	348,760	0,076	-0,111
-644,970	6,066	-0,020	-0,011
-643,955	-157,360	-0,064	0,003
-642,941	-105,173	-0,072	-0,012
-641,926	-61,827	0,022	0,007
-640,911	255,477	-0,025	0,032
-639,897	499,806	-0,026	-0,045
-638,882	-135,103	-0,039	-0,003
-637,868	800,000	0,030	-0,081
-636,853	69,176	-0,105	0,080
-635,838	800,000	0,028	-0,078
-634,824	-200,000	-0,009	-0,097
-633,809	-127,020	0,079	0,009
-632,795	159,566	-0,045	-0,047
-631,780	404,846	0,064	0,100
-630,765	247,238	0,021	-0,026
-629,751	-200,000	-0,008	-0,066
-628,736	70,399	0,083	-0,064
-627,722	9,704	0,035	-0,020
-626,707	399,267	-0,051	0,080
-625,692	152,627	0,039	0,040
-624,678	-200,000	0,017	-0,090
-623,663	-13,470	0,030	-0,014
-622,649	178,621	-0,096	-0,105
-621,634	-93,750	-0,083	-0,017
-620,619	83,757	-0,108	-0,087
-619,605	800,000	-0,042	-0,115
-618,590	3,464	0,153	-0,083
-617,576	-24,469	-0,105	-0,046
-616,561	442,225	-0,036	-0,059
-615,546	800,000	0,045	-0,100
-614,532	490,538	0,017	-0,029
-613,517	800,000	-0,071	-0,164
-612,503	800,000	0,058	-0,125
-611,488	62,606	-0,050	-0,037
-610,474	-116,046	-0,129	-0,018
-609,459	-26,970	-0,102	-0,044
-608,444	10,791	-0,059	0,033
-607,430	-200,000	-0,014	-0,091
-606,415	297,481	-0,036	-0,049
-605,401	-200,000	-0,005	0,047
-604,386	-200,000	0,044	0,150
-603,371	29,719	0,085	0,053
-602,357	-200,000	0,034	-0,170
-601,342	133,450	-0,088	-0,085
-600,328	-200,000	-0,005	0,036
-599,313	-200,000	-0,003	0,071
-598,298	102,385	0,047	0,041
-597,284	-200,000	-0,026	-0,173
-596,269	309,197	0,064	0,089
-595,255	542,427	-0,047	-0,083
-594,240	800,000	-0,040	-0,091
-593,225	196,495	0,139	-0,157
-592,211	-5,853	-0,166	-0,084
-591,196	452,835	0,079	-0,130
-590,182	184,339	0,020	-0,022
-589,167	104,358	0,061	0,053
-588,152	264,501	-0,041	-0,053
-587,138	800,000	0,003	0,007
-586,123	800,000	-0,021	-0,057
-585,109	205,075	-0,136	0,156
-584,094	-200,000	0,028	-0,093
-583,079	-200,000	-0,013	0,088
-582,065	-78,892	0,121	0,030
-581,050	-200,000	-0,016	-0,139
-580,036	-9,183	-0,133	-0,065
-579,021	-200,000	0,016	-0,109
-578,006	105,978	0,075	-0,065
-576,992	-200,000	0,004	0,056
-575,977	341,438	0,034	0,049
-574,963	-200,000	-0,007	-0,027
-573,948	-200,000	-0,017	0,082
-572,934	257,740	0,096	0,122
-571,919	179,909	-0,058	-0,063
-570,904	-79,348	-0,167	-0,042
-569,890	91,743	-0,025	0,021
-568,875	-200,000	0,005	0,048
-567,861	-200,000	0,006	0,077
-566,846	-200,000	0,012	0,129
-565,831	-200,000	-0,003	-0,049
-564,817	534,231	0,024	-0,043
-563,802	-200,000	-0,053	-0,193
-562,788	383,663	0,044	-0,068
-561,773	173,812	0,024	0,026
-560,758	128,612	-0,067	0,063
-559,744	288,854	-0,092	-0,124
-558,729	-157,522	-0,061	-0,003
-557,715	-111,310	-0,154	0,023
-556,700	-49,419	-0,189	-0,066
-555,685	-200,000	-0,003	-0,045
-554,671	-45,348	-0,071	-0,026
-553,656	229,837	-0,016	0,019
-552,642	-149,501	0,066	0,004
-551,627	-200,000	-0,032	0,119
-550,612	531,731	-0,079	0,139
-549,598	259,166	-0,010	0,013
-548,583	-41,427	0,122	0,046
-547,569	207,643	-0,027	0,031
-546,554	39,965	0,061	-0,041
-545,539	3,888	0,096	-0,052
-544,525	-200,000	0,018	0,181
-543,510	115,242	-0,070	0,064
-542,496	105,188	-0,093	-0,081
-541,481	-20,433	-0,016	-0,007
-540,466	-200,000	-0,014	0,068
-539,452	61,851	0,051	0,037
-538,437	-7,553	0,057	0,028
-537,423	22,596	0,064	0,038
-536,408	800,000	-0,020	0,043
-535,393	-200,000	-0,012	-0,068
-534,379	565,674	-0,038	-0,068
-533,364	2,568	-0,019	0,010
-532,350	-35,504	-0,065	0,026
-531,335	6,409	-0,028	-0,015
-530,321	-4,482	-0,124	-0,063
-529,306	16,549	-0,103	-0,060
-528,291	30,649	-0,112	-0,071
-527,277	580,529	0,041	-0,075
-526,262	-200,000	0,003	-0,022
-525,248	38,095	0,124	-0,082
-524,233	800,000	-0,017	-0,036
-523,218	38,566	0,105	-0,069
-522,204	724,115	-0,048	-0,095
-521,189	-200,000	-0,019	-0,159
-520,175	-43,623	-0,160	-0,059
-519,160	-200,000	-0,003	-0,126
-518,145	-200,000	-0,013	-0,115
-517,131	496,688	-0,069	-0,118
-516,116	-80,921	-0,135	0,033
-515,102	13,738	-0,069	-0,039
-514,087	-200,000	-0,002	0,045
-513,072	-1,676	-0,065	-0,033
-512,058	-70,796	0,133	-0,037
-511,043	186,887	-0,071	0,078
-510,029	-98,986	0,022	0,004
-509,014	-200,000	-0,025	0,128
-507,999	-200,000	-0,001	0,024
-506,985	800,000	-0,028	0,073
-505,970	-200,000	0,005	-0,026
-504,956	-200,000	-0,025	-0,090
-503,941	-200,000	0,041	-0,135
-502,926	120,360	0,065	-0,060
-501,912	728,313	-0,058	0,114
-500,897	22,960	0,101	-0,061
-499,883	-107,077	-0,044	0,007
-498,868	381,909	0,020	0,030
-497,853	375,553	-0,087	-0,132
-496,839	523,595	0,066	-0,116
-495,824	12,850	0,079	-0,045
-494,810	-200,000	-0,017	-0,065
-493,795	-200,000	0,026	-0,130
-492,781	-200,000	-0,016	0,109
-491,766	800,000	0,056	-0,143
-490,751	-17,342	-0,076	0,035
-489,737	141,912	-0,046	0,045
-488,722	30,064	0,155	0,097
-487,708	200,231	-0,053	0,061
-486,693	-78,801	-0,080	0,020
-485,678	-68,568	-0,091	0,026
-484,664	492,927	-0,072	-0,123
-483,649	-71,835	0,154	0,042
-482,635	-200,000	-0,019	-0,091
-481,620	-200,000	0,002	0,072
-480,605	-200,000	-0,005	0,047
-479,591	539,153	0,055	0,097
-478,576	-200,000	0,024	0,081
-477,562	-200,000	0,030	-0,100
-476,547	120,467	-0,059	-0,054
-475,532	434,954	-0,042	0,067
-474,518	-133,779	0,056	-0,005
-473,503	0,177	0,059	-0,031
-472,489	800,000	0,028	0,083
-471,474	88,429	-0,049	0,041
-470,459	1,470	0,040	0,021
-469,445	-200,000	-0,010	0,047
-468,430	84,787	0,015	0,012
-467,416	113,996	0,032	-0,028
-466,401	-200,000	-0,003	0,012
-465,386	715,246	0,027	0,053
-464,372	800,000	-0,038	0,083
-463,357	-200,000	-0,017	0,077
-462,343	71,957	-0,057	0,044
-461,328	-200,000	0,009	-0,045
-460,313	-122,306	0,049	-0,006
-459,299	800,000	0,062	0,147
-458,284	-200,000	-0,003	0,067
-457,270	-200,000	0,005	-0,078
-456,255	39,208	-0,129	-0,085
-455,241	64,796	0,110	-0,082
-454,226	800,000	0,011	0,028
-453,211	49,990	-0,059	-0,041
-452,197	-55,499	-0,017	-0,006
-451,182	800,000	0,011	0,027
-450,168	47,436	0,108	-0,074
-449,153	-142,106	-0,137	-0,010
-448,138	98,819	0,061	-0,052
-447,124	800,000	0,017	-0,041
-446,109	-200,000	0,013	-0,079
-445,095	800,000	0,019	0,051
-444,080	664,063	0,037	0,070
-443,065	108,172	0,123	0,108
-442,051	-200,000	-0,050	-0,179
-441,036	-115,289	-0,102	-0,014
-440,022	800,000	0,039	0,099
-439,007	800,000	-0,025	-0,066
-437,992	0,279	0,151	0,079
-436,978	-14,685	0,058	-0,027
-435,963	213,479	-0,075	0,088
-434,949	89,098	-0,003	-0,002
-433,934	-200,000	0,035	-0,201
-432,919	105,079	0,094	-0,082
-431,905	800,000	0,039	0,116
-430,890	-88,929	0,143	0,031
-429,876	-200,000	0,004	0,024
-428,861	-200,000	-0,016	0,086
-427,846	-200,000	-0,020	0,146
-426,832	23,897	0,101	-0,061
-425,817	81,600	-0,096	0,077
-424,803	697,703	-0,029	0,057
-423,788	74,035	0,023	0,018
-422,773	154,604	0,047	0,048
-421,759	800,000	-0,021	0,062
-420,744	-28,906	0,139	0,059
-419,730	-128,663	0,077	0,008
-418,715	-3,579	-0,028	0,014
-417,701	139,667	0,101	-0,098
-416,686	-39,994	0,041	-0,016
-415,671	365,930	-0,056	-0,084
-414,657	149,117	0,021	0,021
-413,642	-200,000	0,000	-0,077
-412,628	800,000	0,034	-0,108
-411,613	-200,000	0,049	0,161
-410,598	308,697	0,023	-0,032
-409,584	-200,000	0,001	0,055
-408,569	-200,000	-0,026	0,251
-407,555	-200,000	0,008	-0,030
-406,540	-86,911	0,201	-0,045
-405,525	800,000	0,042	-0,091
-404,511	47,312	0,046	-0,031
-403,496	-62,097	-0,060	0,018
-402,482	60,309	0,095	0,069
-401,467	-172,652	0,115	-0,003
-400,452	211,728	0,082	0,096
-399,438	-200,000	-0,028	0,120
-398,423	15,396	0,097	0,056
-397,409	-119,924	-0,037	0,005
-396,394	-94,560	0,081	0,016
-395,379	800,000	0,032	0,088
-394,365	-89,384	0,172	0,037
-393,350	-79,698	0,100	0,025
-392,336	-155,943	0,186	0,009
-391,321	-2,865	0,067	-0,034
-390,306	-200,000	0,003	0,054
-389,292	-44,533	-0,064	0,023
-388,277	10,368	-0,113	0,063
-387,263	-200,000	0,018	0,072
-386,248	79,282	0,034	0,027
-385,233	-30,151	0,073	0,030
-384,219	47,313	-0,038	-0,026
-383,204	-200,000	-0,007	-0,089
-382,190	-200,000	0,022	-0,110
-381,175	372,501	-0,023	0,035
-380,160	-90,500	0,051	0,011
-379,146	122,031	0,039	0,035
-378,131	50,584	-0,081	0,056
-377,117	187,353	0,034	0,037
-376,102	267,762	-0,064	0,083
-375,088	-200,000	-0,005	-0,084
-374,073	-65,867	0,046	0,014
-373,058	-45,769	0,053	-0,019
-372,044	72,491	-0,062	0,047
-371,029	-200,000	-0,006	0,059
-370,015	-200,000	-0,005	-0,074
-369,000	-200,000	-0,005	0,073
-367,985	-126,947	-0,074	0,008
-366,971	-200,000	0,003	0,085
-365,956	226,952	0,036	0,043
-364,942	316,167	0,114	0,159
-363,927	-36,851	0,072	0,028
-362,912	-47,126	0,057	-0,020
-361,898	800,000	0,047	-0,105
-360,883	-200,000	-0,036	0,134
-359,869	178,359	0,108	0,115
-358,854	-12,432	0,107	0,051
-357,839	-114,106	0,077	-0,011
-356,825	-200,000	0,007	0,129
-355,810	-200,000	-0,019	0,070
-354,796	-156,449	-0,048	0,002
-353,781	380,982	0,031	0,047
-352,766	-26,525	-0,110	-0,047
-351,752	551,346	0,032	-0,057
-350,737	21,356	-0,044	-0,026
-349,723	800,000	0,008	0,026
-348,708	67,579	-0,033	0,024
-347,693	-52,637	-0,021	-0,007
-346,679	375,781	0,069	-0,103
-345,664	800,000	0,036	-0,108
-344,650	800,000	-0,031	0,098
-343,635	117,827	0,060	0,055
-342,620	800,000	-0,020	0,062
-341,606	-145,571	-0,135	0,009
-340,591	-200,000	0,029	-0,112
-339,577	-200,000	0,015	-0,125
-338,562	-200,000	-0,009	0,070
-337,548	6,691	-0,123	0,067
-336,533	104,458	0,043	-0,037
-335,518	800,000	-0,029	0,080
-334,504	311,518	0,050	0,069
-333,489	-14,642	-0,057	0,027
-332,475	302,734	-0,066	0,090
-331,460	216,462	-0,039	0,046
-330,445	569,471	-0,013	0,023
-329,431	-200,000	-0,041	0,159
-328,416	-200,000	0,017	0,068
-327,402	315,840	-0,099	-0,137
-326,387	310,370	-0,020	0,028
-325,372	-58,192	-0,210	-0,067
-324,358	151,043	-0,045	-0,045
-323,343	-143,139	-0,127	-0,009
-322,329	77,714	0,132	0,103
-321,314	-85,973	-0,148	0,033
-320,299	-99,873	-0,042	-0,008
-319,285	597,763	-0,074	0,134
-318,270	104,631	-0,048	0,042
-317,256	176,494	0,081	0,087
-316,241	10,210	0,031	0,017
-315,226	100,515	0,002	0,002
-314,212	505,584	0,079	-0,135
-313,197	-146,858	-0,049	0,003
-312,183	191,706	0,065	0,072
-311,168	-200,000	0,000	0,019
-310,153	800,000	0,029	-0,086
-309,139	-12,139	-0,137	-0,066
-308,124	800,000	0,034	-0,074
-307,110	326,544	0,099	0,140
-306,095	-200,000	0,033	0,123
-305,080	63,842	0,092	-0,068
-304,066	336,405	0,046	-0,066
-303,051	800,000	-0,043	0,125
-302,037	297,515	0,067	0,090
-301,022	-71,858	0,076	-0,021
-300,008	38,665	-0,024	-0,015
-298,993	131,276	-0,061	0,057
-297,978	69,271	-0,072	-0,055
-296,964	-101,616	0,099	0,017
-295,949	43,417	-0,057	0,038
-294,935	15,225	-0,130	-0,074
-293,920	51,656	-0,068	-0,047
-292,905	30,428	0,111	0,069
-291,891	-200,000	0,003	0,128
-290,876	-186,342	-0,040	-0,000
-289,862	-200,000	0,006	-0,039
-288,847	-144,786	0,037	-0,002
-287,832	26,628	-0,098	-0,060
-286,818	239,639	-0,058	0,071
-285,803	-50,105	-0,089	0,031
-284,789	125,332	0,063	0,059
-283,774	-25,559	0,012	-0,005
-282,759	-144,115	0,096	-0,006
-281,745	-163,961	-0,083	0,003
-280,730	-200,000	-0,009	-0,044
-279,716	-93,481	-0,071	-0,014
-278,701	-22,291	0,018	-0,008
-277,686	800,000	-0,056	-0,117
-276,672	-104,825	0,297	-0,049
-275,657	291,897	-0,052	-0,069
-274,643	18,998	0,091	0,053
-273,628	-200,000	0,013	-0,110
-272,613	-200,000	-0,005	-0,061
-271,599	-200,000	0,016	0,184
-270,584	431,118	-0,023	0,037
-269,570	-200,000	0,006	0,022
-268,555	238,172	0,012	0,015
-267,540	-123,704	-0,127	-0,014
-266,526	132,700	-0,086	0,081
-265,511	-200,000	0,014	0,075
-264,497	75,846	0,112	0,086
-263,482	25,192	0,104	0,063
-262,467	315,434	-0,068	0,094
-261,453	-50,463	0,019	-0,006
-260,438	800,000	-0,013	0,037
-259,424	221,146	-0,048	-0,057
-258,409	552,050	0,030	0,052
-257,395	-88,195	0,132	0,029
-256,380	-200,000	-0,000	0,047
-255,365	-140,546	0,151	0,011
-254,351	-200,000	0,011	0,064
-253,336	-28,186	0,112	0,047
-252,322	-200,000	-0,099	-0,000
-251,307	-148,428	0,053	-0,003
-250,292	403,549	-0,044	-0,068
-249,278	800,000	-0,039	0,113
-248,263	-121,464	-0,064	-0,008
-247,249	800,000	-0,056	0,124
-246,234	114,569	-0,071	-0,063
-245,219	209,639	0,027	0,031
-244,205	56,409	-0,103	-0,073
-243,190	279,194	0,048	0,063
-242,176	-200,000	0,006	-0,099
-241,161	226,457	0,016	-0,019
-240,146	237,906	0,034	-0,041
-239,132	-14,949	-0,123	-0,058
-238,117	329,476	0,019	-0,026
-237,103	-200,000	0,013	-0,105
-236,088	-150,753	0,105	0,006
-235,073	158,511	0,151	0,154
-234,059	-200,000	-0,006	-0,020
-233,044	-49,359	-0,013	-0,004
-232,030	102,743	-0,041	0,035
-231,015	517,882	-0,015	-0,025
-230,000	688,334	0,009	-0,018
-228,986	-200,000	-0,004	-0,067
-227,971	-14,406	0,061	-0,029
-226,957	-174,801	0,037	0,001
-225,942	800,000	0,037	-0,095
-224,927	30,940	-0,072	-0,045
-223,913	800,000	-0,019	-0,062
-222,898	26,293	-0,035	0,021
-221,884	-200,000	-0,016	0,064
-220,869	319,965	0,036	0,051
-219,855	65,469	0,016	0,012
-218,840	-112,279	-0,062	0,009
-217,825	-200,000	0,020	0,152
-216,811	38,635	0,120	0,078
-215,796	220,048	-0,055	-0,064
-214,782	-200,000	-0,001	0,099
-213,767	-200,000	0,010	0,156
-212,752	-200,000	0,028	0,193
-211,738	-64,217	0,030	-0,009
-210,723	800,000	0,027	0,068
-209,709	356,369	0,031	-0,045
-208,694	268,188	0,052	-0,066
-207,679	782,048	0,017	0,035
-206,665	2,533	-0,103	0,054
-205,650	800,000	0,043	-0,089
-204,636	136,090	0,044	0,041
-203,621	278,470	0,079	0,103
-202,606	-110,983	0,027	0,004
-201,592	-123,814	-0,089	-0,010
-200,577	-200,000	-0,015	0,069
-199,563	-200,000	-0,009	0,079
-198,548	277,063	0,090	0,117
-197,533	112,406	-0,014	-0,012
-196,519	66,624	-0,070	-0,052
-195,504	-200,000	-0,009	-0,201
-194,490	-200,000	-0,014	-0,122
-193,475	442,213	-0,017	-0,028
-192,460	50,102	-0,124	0,085
-191,446	261,127	0,066	0,083
-190,431	17,256	0,046	-0,027
-189,417	800,000	-0,020	0,059
-188,402	800,000	-0,041	0,093
-187,387	352,859	0,006	-0,008
-186,373	70,378	-0,073	0,055
-185,358	441,250	-0,017	0,026
-184,344	145,963	-0,036	0,035
-183,329	407,848	0,042	-0,065
-182,315	171,288	-0,034	0,036
-181,300	-54,074	-0,151	0,050
-180,285	-200,000	0,057	-0,206
-179,271	-200,000	0,004	-0,061
-178,256	-173,524	-0,046	-0,001
-177,242	800,000	-0,033	-0,088
-176,227	-200,000	0,000	-0,063
-175,212	72,811	0,084	-0,064
-174,198	-102,792	0,027	0,005
-173,183	-16,561	0,045	-0,021
-172,169	-200,000	0,017	-0,078
-171,154	800,000	-0,015	0,033
-170,139	223,705	0,042	-0,050
-169,125	355,552	0,030	0,044
-168,110	-16,714	0,047	0,022
-167,096	800,000	-0,046	-0,106
-166,081	-0,141	-0,105	-0,055
-165,066	800,000	-0,026	-0,055
-164,052	800,000	-0,009	0,018
-163,037	800,000	0,040	-0,120
-162,023	-162,462	-0,079	0,003
-161,008	181,732	-0,069	0,074
-159,993	-200,000	-0,030	-0,105
-158,979	-200,000	-0,021	0,094
-157,964	107,574	0,058	-0,050
-156,950	800,000	-0,022	0,059
-155,935	101,614	0,071	-0,060
-154,920	612,792	-0,101	0,184
-153,906	462,338	0,062	-0,101
-152,891	-97,205	-0,121	-0,023
-151,877	-46,749	-0,132	0,047
-150,862	-200,000	-0,022	-0,081
-149,847	31,552	0,044	-0,028
-148,833	69,343	-0,081	-0,061
-147,818	-200,000	0,022	0,074
-146,804	-29,988	0,169	-0,070
-145,789	450,442	-0,035	0,056
-144,775	-105,055	-0,142	0,023
-143,760	800,000	-0,017	-0,046
-142,745	509,493	-0,054	0,092
-141,731	150,285	0,121	-0,120
-140,716	382,135	-0,053	-0,079
-139,702	621,749	0,055	0,101
-138,687	1,834	-0,210	0,110
-137,672	619,198	0,023	-0,043
-136,658	38,111	-0,095	-0,062
-135,643	179,057	0,070	-0,075
-134,629	800,000	-0,010	-0,028
-133,614	435,914	0,058	0,092
-132,599	800,000	-0,056	0,115
-131,585	-79,177	0,061	0,015
-130,570	-29,248	-0,124	-0,052
-129,556	-124,091	-0,153	0,017
-128,541	-200,000	-0,020	0,132
-127,526	462,619	-0,053	-0,086
-126,512	-200,000	0,003	-0,046
-125,497	-200,000	0,002	0,011
-124,483	800,000	-0,046	-0,129
-123,468	225,773	-0,009	0,011
-122,453	238,608	-0,070	0,085
-121,439	-200,000	0,019	-0,151
-120,424	-15,375	0,076	-0,035
-119,410	186,405	0,090	0,098
