DTS Sentinel unit serial number:	SN410029Multiplexer serial number:	ORYXHardware model number:	OX2-SRSoftware version number:	ORYX F/W v4,00 Oryx Data Collector v3.7.2.0data status	okinstallation	B6 Nyhavnadifferential loss correction	single-endedforward channel	channel 2reverse channel	N/Adate	2023/12/09time	13:55:08forward acquisition time	300,00reverse acquisition time	0,00gamma	499,1914k internal	0,3134k external	0,3134temperature offset calibration	1,0000default loss term (dB/km)	0,3820temperature slope calibration	1,0000multiplexer offset coefficient	1,0000multiplexer slope coefficient	1,0000fibre end	0,00T internal ref (°C)	20,39T ext. ref 1 (°C)	4,40T ext. ref 2 (°C)	4,40length (m)	temperature (°C)	Stokes	anti-Stokes-744,400	74,023	-0,007	-0,005
-743,385	-40,439	-0,268	0,103
-742,371	170,431	0,033	0,035
-741,356	-29,643	-0,161	0,068
-740,342	-200,000	0,026	0,128
-739,327	24,357	-0,142	0,087
-738,312	363,449	0,023	0,035
-737,298	-67,214	-0,256	0,074
-736,283	-200,000	-0,014	-0,077
-735,269	-164,923	-0,135	0,004
-734,254	509,264	0,012	-0,021
-733,239	-57,346	-0,475	-0,154
-732,225	362,872	0,045	-0,068
-731,210	18,379	-0,039	-0,023
-730,196	-62,746	-0,043	-0,013
-729,181	-85,522	-0,172	0,039
-728,167	-200,000	0,013	0,051
-727,152	-46,882	-0,075	-0,027
-726,137	-75,746	-0,083	0,022
-725,123	38,119	0,020	-0,013
-724,108	103,220	-0,143	-0,125
-723,094	-200,000	-0,034	-0,152
-722,079	-200,000	-0,126	0,000
-721,064	-130,676	-0,192	0,019
-720,050	-200,000	0,006	0,047
-719,035	-86,464	-0,046	0,010
-718,021	-34,596	-0,115	0,047
-717,006	-14,250	0,080	0,038
-715,991	181,219	-0,108	-0,118
-714,977	76,484	0,105	-0,083
-713,962	-169,218	-0,205	0,006
-712,948	-200,000	0,009	-0,091
-711,933	-200,000	-0,005	-0,043
-710,918	-200,000	-0,059	0,264
-709,904	21,320	-0,053	0,032
-708,889	-152,183	-0,086	-0,005
-707,875	52,891	-0,104	-0,074
-706,860	107,450	0,092	0,082
-705,845	33,882	0,150	-0,097
-704,831	-98,251	-0,042	0,008
-703,816	-95,147	0,074	0,015
-702,802	681,638	-0,054	0,105
-701,787	-112,539	-0,086	0,013
-700,772	-43,696	-0,091	-0,034
-699,758	-200,000	-0,008	0,111
-698,743	101,254	-0,051	0,044
-697,729	-18,302	-0,020	0,009
-696,714	357,494	-0,007	0,011
-695,699	-200,000	-0,038	-0,145
-694,685	85,245	-0,106	-0,086
-693,670	800,000	-0,020	-0,062
-692,656	-94,117	0,075	-0,015
-691,641	-139,346	0,080	0,006
-690,627	-114,321	-0,081	0,011
-689,612	-200,000	-0,003	-0,027
-688,597	116,023	-0,068	-0,062
-687,583	-39,681	-0,124	-0,048
-686,568	-33,074	-0,220	-0,090
-685,554	-200,000	0,026	-0,117
-684,539	-163,692	-0,042	-0,001
-683,524	-112,876	-0,107	-0,016
-682,510	129,287	-0,073	-0,069
-681,495	173,634	-0,039	-0,042
-680,481	-185,826	-0,088	0,001
-679,466	800,000	0,013	-0,029
-678,451	429,453	-0,051	0,082
-677,437	-200,000	0,004	-0,050
-676,422	33,032	0,116	0,074
-675,408	-58,605	0,092	-0,029
-674,393	-200,000	-0,023	-0,157
-673,378	86,229	0,059	0,048
-672,364	567,899	-0,075	-0,135
-671,349	282,941	-0,046	0,061
-670,335	800,000	-0,025	0,073
-669,320	-155,215	0,091	-0,004
-668,305	-200,000	0,016	-0,054
-667,291	-200,000	-0,007	0,066
-666,276	137,703	-0,086	0,084
-665,262	-94,956	-0,016	-0,003
-664,247	333,272	0,020	0,029
-663,232	61,613	0,027	0,020
-662,218	-58,834	0,083	-0,026
-661,203	-115,788	-0,105	0,014
-660,189	-3,730	-0,090	0,046
-659,174	-200,000	-0,007	-0,144
-658,159	-42,666	-0,043	-0,016
-657,145	336,040	0,096	-0,138
-656,130	800,000	-0,023	-0,051
-655,116	96,332	0,083	0,070
-654,101	43,892	-0,143	-0,097
-653,086	189,829	-0,111	0,123
-652,072	631,042	-0,054	-0,101
-651,057	800,000	-0,043	-0,124
-650,043	45,574	-0,134	-0,091
-649,028	-100,357	-0,104	-0,019
-648,014	-6,227	0,093	0,047
-646,999	-146,041	-0,081	0,005
-645,984	16,218	0,028	-0,016
-644,970	53,844	-0,044	0,032
-643,955	256,611	0,073	0,093
-642,941	435,292	-0,045	0,072
-641,926	800,000	0,030	0,062
-640,911	-135,621	-0,098	-0,009
-639,897	800,000	0,064	0,150
-638,882	-77,634	0,121	-0,031
-637,868	112,287	-0,049	0,044
-636,853	-200,000	-0,060	-0,218
-635,838	198,780	-0,154	-0,175
-634,824	800,000	0,022	-0,047
-633,809	-200,000	0,031	0,133
-632,795	-200,000	0,008	-0,047
-631,780	-169,044	-0,039	0,001
-630,765	-200,000	-0,019	-0,074
-629,751	800,000	-0,039	0,097
-628,736	49,587	0,058	0,041
-627,722	-79,035	-0,133	-0,033
-626,707	22,055	-0,083	0,050
-625,692	-60,787	0,122	0,038
-624,678	800,000	-0,026	-0,069
-623,663	-200,000	-0,036	-0,144
-622,649	-200,000	-0,000	-0,188
-621,634	181,274	0,051	-0,056
-620,619	-148,160	-0,084	-0,005
-619,605	107,798	0,041	-0,036
-618,590	-10,924	0,062	-0,030
-617,576	-200,000	-0,004	0,101
-616,561	800,000	-0,003	-0,011
-615,546	30,637	-0,029	0,018
-614,532	-200,000	0,009	-0,075
-613,517	174,241	-0,050	0,054
-612,503	92,168	0,077	-0,064
-611,488	-22,952	-0,066	-0,029
-610,474	-23,818	0,196	0,086
-609,459	-200,000	0,011	0,044
-608,444	-58,005	-0,098	-0,031
-607,430	231,460	0,051	-0,061
-606,415	-15,499	-0,052	-0,024
-605,401	100,659	0,053	-0,045
-604,386	-115,763	0,093	0,013
-603,371	42,145	-0,024	0,016
-602,357	-72,581	-0,100	0,027
-601,342	-200,000	0,033	-0,122
-600,328	-200,000	0,028	-0,118
-599,313	-31,203	0,031	-0,013
-598,298	385,112	0,038	-0,057
-597,284	-200,000	-0,003	-0,078
-596,269	-26,829	0,082	0,035
-595,255	-67,560	-0,070	-0,020
-594,240	176,721	-0,106	-0,114
-593,225	-200,000	0,013	-0,193
-592,211	-144,528	0,002	0,000
-591,196	131,437	0,059	0,056
-590,182	-46,096	0,057	0,021
-589,167	75,364	-0,034	0,026
-588,152	357,717	-0,032	0,047
-587,138	-166,607	-0,105	-0,003
-586,123	-200,000	-0,001	0,029
-585,109	-44,250	-0,047	-0,017
-584,094	225,126	0,087	-0,105
-583,079	-200,000	0,037	0,126
-582,065	-5,085	0,071	-0,036
-581,050	800,000	0,038	-0,107
-580,036	38,694	-0,036	-0,024
-579,021	285,684	-0,031	-0,041
-578,006	68,671	-0,041	0,031
-576,992	607,740	0,046	-0,085
-575,977	-112,334	-0,024	0,004
-574,963	-200,000	-0,042	0,242
-573,948	-16,508	-0,111	0,052
-572,934	-185,061	-0,137	-0,002
-571,919	-45,009	-0,092	-0,034
-570,904	498,114	-0,017	0,029
-569,890	-101,337	0,058	0,010
-568,875	-200,000	0,015	0,132
-567,861	128,780	-0,032	0,030
-566,846	242,059	-0,111	0,137
-565,831	-200,000	-0,007	0,039
-564,817	-200,000	0,008	-0,154
-563,802	800,000	-0,053	0,116
-562,788	166,109	0,041	0,043
-561,773	27,938	0,144	-0,090
-560,758	-90,227	0,064	0,014
-559,744	79,708	-0,071	-0,056
-558,729	543,571	-0,042	0,075
-557,715	-200,000	0,036	-0,150
-556,700	369,024	-0,050	-0,075
-555,685	-15,381	-0,098	0,046
-554,671	268,852	-0,033	-0,043
-553,656	629,716	-0,027	-0,051
-552,642	800,000	0,046	-0,110
-551,627	9,664	0,039	0,022
-550,612	207,106	0,060	-0,069
-549,598	583,903	-0,048	0,087
-548,583	88,652	-0,097	0,079
-547,569	48,635	0,038	-0,026
-546,554	-200,000	-0,006	0,114
-545,539	277,764	-0,037	0,048
-544,525	-200,000	0,010	0,099
-543,510	94,493	-0,067	-0,056
-542,496	215,091	-0,039	-0,046
-541,481	-200,000	-0,025	-0,117
-540,466	-200,000	-0,010	0,056
-539,452	-200,000	0,035	0,183
-538,437	-200,000	-0,002	0,015
-537,423	-10,622	0,041	-0,020
-536,408	-78,041	0,094	0,024
-535,393	-200,000	-0,015	0,126
-534,379	36,519	-0,081	0,053
-533,364	250,317	-0,038	0,048
-532,350	79,216	0,127	-0,100
-531,335	7,590	-0,107	-0,059
-530,321	184,920	0,026	-0,029
-529,306	-167,828	0,140	-0,004
-528,291	-105,982	-0,116	-0,019
-527,277	800,000	0,028	-0,062
-526,262	64,220	-0,057	0,042
-525,248	-121,612	0,038	-0,005
-524,233	356,975	-0,083	-0,122
-523,218	156,890	0,014	-0,014
-522,204	-200,000	0,019	0,130
-521,189	611,111	-0,045	-0,083
-520,175	13,243	-0,090	-0,051
-519,160	729,269	-0,063	-0,125
-518,145	-200,000	-0,010	0,196
-517,131	800,000	0,034	0,093
-516,116	-200,000	-0,033	0,190
-515,102	82,360	-0,043	0,034
-514,087	800,000	-0,047	-0,098
-513,072	315,987	-0,074	-0,103
-512,058	-122,953	-0,052	0,006
-511,043	-88,858	0,055	0,012
-510,029	37,972	0,114	0,075
-509,014	-200,000	-0,006	0,101
-507,999	-104,203	-0,074	0,013
-506,985	183,096	-0,084	-0,091
-505,970	-19,044	0,112	-0,051
-504,956	47,961	0,075	0,051
-503,941	-34,315	-0,084	-0,034
-502,926	627,850	0,050	0,094
-501,912	92,108	0,146	-0,121
-500,897	257,972	0,100	-0,126
-499,883	740,269	0,044	0,088
-498,868	-82,063	-0,074	-0,018
-497,853	178,242	-0,144	-0,154
-496,839	117,394	0,172	-0,156
-495,824	514,073	0,049	0,084
-494,810	-200,000	-0,018	0,086
-493,795	15,284	0,070	-0,040
-492,781	-131,006	-0,027	-0,003
-491,766	325,361	0,065	-0,092
-490,751	615,816	0,055	0,103
-489,737	40,908	0,080	-0,053
-488,722	328,137	0,040	0,056
-487,708	69,553	0,137	0,103
-486,693	800,000	-0,023	0,065
-485,678	-50,577	-0,037	0,013
-484,664	-200,000	-0,023	0,076
-483,649	800,000	-0,040	0,093
-482,635	49,309	-0,100	-0,069
-481,620	275,654	0,036	-0,047
-480,605	-85,554	0,057	-0,013
-479,591	-200,000	-0,017	0,075
-478,576	-200,000	-0,001	-0,026
-477,562	504,786	-0,077	-0,132
-476,547	-200,000	0,017	-0,105
-475,532	547,848	0,038	-0,068
-474,518	800,000	0,058	0,151
-473,503	-20,168	0,107	-0,048
-472,489	561,738	-0,047	0,083
-471,474	-200,000	0,017	0,078
-470,459	88,825	-0,123	0,101
-469,445	-146,686	0,155	0,010
-468,430	-200,000	-0,011	-0,045
-467,416	-200,000	0,022	0,073
-466,401	211,716	0,103	0,119
-465,386	-200,000	0,032	-0,128
-464,372	800,000	0,045	0,115
-463,357	-38,690	-0,183	-0,071
-462,343	-104,538	-0,106	-0,018
-461,328	-200,000	-0,004	0,057
-460,313	800,000	-0,011	0,030
-459,299	136,819	0,019	-0,018
-458,284	297,222	0,038	0,051
-457,270	49,621	0,113	0,078
-456,255	-200,000	-0,014	-0,092
-455,241	-78,953	0,105	0,026
-454,226	328,315	-0,107	0,151
-453,211	-22,163	0,088	0,039
-452,197	-200,000	0,017	-0,117
-451,182	65,907	0,045	-0,033
-450,168	-94,682	0,173	-0,034
-449,153	-50,571	-0,050	-0,017
-448,138	-149,637	0,083	-0,005
-447,124	-150,207	0,050	0,003
-446,109	240,356	0,022	-0,027
-445,095	21,825	-0,047	0,028
-444,080	-37,035	-0,076	-0,030
-443,065	-137,804	0,157	-0,013
-442,051	-175,156	-0,054	-0,001
-441,036	-19,248	-0,222	-0,101
-440,022	-4,639	0,083	0,042
-439,007	-112,478	0,039	-0,006
-437,992	314,181	0,053	0,073
-436,978	-200,000	0,031	-0,143
-435,963	408,801	-0,112	0,175
-434,949	29,012	-0,020	0,013
-433,934	287,538	-0,062	-0,082
-432,919	6,302	0,021	0,012
-431,905	440,659	0,010	0,016
-430,890	-134,344	0,102	0,009
-429,876	800,000	-0,070	0,162
-428,861	-43,472	0,192	0,071
-427,846	177,737	-0,063	-0,068
-426,832	33,143	-0,058	0,037
-425,817	416,841	-0,070	0,110
-424,803	-92,022	-0,063	0,013
-423,788	800,000	-0,071	0,186
-422,773	76,826	0,130	0,101
-421,759	-200,000	-0,019	0,062
-420,744	62,819	-0,065	0,047
-419,730	-200,000	-0,019	-0,147
-418,715	-200,000	-0,011	-0,166
-417,701	-86,920	-0,038	-0,009
-416,686	-200,000	-0,028	0,104
-415,671	141,178	0,049	0,048
-414,657	389,018	0,042	0,064
-413,642	63,951	-0,014	-0,010
-412,628	3,123	0,105	-0,056
-411,613	77,257	0,076	-0,059
-410,598	-43,448	-0,154	-0,057
-409,584	45,731	0,050	-0,034
-408,569	278,607	0,012	-0,016
-407,555	117,014	0,007	-0,006
-406,540	-200,000	-0,008	0,130
-405,525	-200,000	-0,023	0,110
-404,511	-96,627	-0,079	-0,015
-403,496	-33,715	0,032	0,013
-402,482	-0,710	0,042	-0,022
-401,467	91,144	0,121	-0,099
-400,452	800,000	-0,035	0,108
-399,438	-116,675	0,090	-0,012
-398,423	107,965	-0,117	0,103
-397,409	800,000	0,031	-0,084
-396,394	56,724	-0,065	0,046
-395,379	98,211	-0,078	-0,066
-394,365	387,934	0,103	0,157
-393,350	470,157	0,042	0,070
-392,336	800,000	-0,037	-0,096
-391,321	-45,355	0,095	-0,034
-390,306	-26,641	0,039	0,017
-389,292	-99,746	-0,113	-0,021
-388,277	354,785	0,034	0,050
-387,263	-200,000	0,023	0,116
-386,248	430,130	0,090	0,143
-385,233	463,499	0,063	-0,104
-384,219	-165,943	0,156	-0,005
-383,204	-20,879	0,092	0,041
-382,190	800,000	-0,034	-0,080
-381,175	165,504	-0,040	-0,041
-380,160	315,393	0,043	-0,059
-379,146	-156,393	0,209	-0,009
-378,131	-64,248	-0,058	0,017
-377,117	-200,000	0,011	0,088
-376,102	-200,000	-0,005	0,063
-375,088	36,916	0,084	0,054
-374,073	155,087	0,089	0,089
-373,058	-200,000	0,019	-0,069
-372,044	466,523	0,084	0,138
-371,029	-200,000	0,036	0,167
-370,015	-81,088	0,060	0,014
-369,000	98,747	-0,122	0,103
-367,985	62,219	-0,067	-0,049
-366,971	-152,140	-0,048	0,002
-365,956	232,829	0,062	0,074
-364,942	467,138	0,027	0,045
-363,927	-200,000	0,010	0,093
-362,912	571,096	-0,039	0,069
-361,898	800,000	0,031	-0,091
-360,883	-200,000	0,003	0,029
-359,869	344,649	-0,062	-0,090
-358,854	258,328	-0,035	-0,045
-357,839	380,158	0,048	0,073
-356,825	800,000	0,031	-0,073
-355,810	14,285	-0,074	0,042
-354,796	-200,000	-0,022	0,164
-353,781	-200,000	-0,003	0,055
-352,766	800,000	-0,020	-0,058
-351,752	-200,000	0,003	0,039
-350,737	561,166	-0,032	0,056
-349,723	110,616	-0,038	0,034
-348,708	800,000	-0,045	0,117
-347,693	800,000	-0,017	-0,037
-346,679	-200,000	-0,023	-0,191
-345,664	59,445	-0,033	-0,024
-344,650	370,562	0,048	-0,072
-343,635	-200,000	-0,011	0,072
-342,620	800,000	0,036	-0,085
-341,606	800,000	-0,015	-0,035
-340,591	50,103	-0,021	0,015
-339,577	-86,729	-0,121	-0,027
-338,562	-69,256	-0,035	0,010
-337,548	361,200	0,051	-0,075
-336,533	116,933	-0,041	0,036
-335,518	129,154	-0,065	0,060
-334,504	-22,220	0,114	-0,050
-333,489	-200,000	-0,004	-0,062
-332,475	-101,329	0,083	0,015
-331,460	800,000	-0,036	-0,075
-330,445	-200,000	0,024	-0,098
-329,431	-5,879	-0,040	0,020
-328,416	200,697	0,066	-0,074
-327,402	205,517	-0,095	0,108
-326,387	126,286	-0,124	0,115
-325,372	141,463	-0,166	-0,161
-324,358	529,307	-0,083	-0,143
-323,343	294,101	0,045	-0,060
-322,329	-174,075	-0,087	-0,002
-321,314	-96,235	0,112	0,022
-320,299	616,318	0,071	0,131
-319,285	-36,851	-0,075	0,029
-318,270	2,907	0,089	-0,047
-317,256	800,000	0,057	0,123
-316,241	-200,000	0,041	-0,172
-315,226	-16,794	-0,072	-0,033
-314,212	133,490	0,050	0,047
-313,197	800,000	0,046	0,095
-312,183	-200,000	0,018	0,142
-311,168	800,000	-0,055	-0,130
-310,153	140,855	-0,068	-0,066
-309,139	-200,000	0,009	-0,136
-308,124	81,574	0,105	-0,083
-307,110	458,820	0,073	0,119
-306,095	-95,905	0,164	0,032
-305,080	173,791	0,056	-0,060
-304,066	257,377	-0,040	-0,050
-303,051	-200,000	0,045	-0,177
-302,037	800,000	0,035	-0,079
-301,022	-51,455	0,030	0,010
-300,008	800,000	-0,047	0,116
-298,993	-87,696	0,068	-0,015
-297,978	425,484	-0,043	-0,067
-296,964	408,903	-0,065	-0,101
-295,949	333,576	-0,017	0,024
-294,935	-144,714	0,097	-0,006
-293,920	800,000	-0,052	-0,109
-292,905	-92,068	0,109	0,022
-291,891	-200,000	-0,008	0,142
-290,876	800,000	0,046	0,112
-289,862	750,363	-0,070	0,138
-288,847	10,027	-0,058	-0,032
-287,832	-154,929	0,146	-0,007
-286,818	88,337	-0,078	0,063
-285,803	-105,059	0,065	0,011
-284,789	800,000	-0,031	0,087
-283,774	83,468	0,101	-0,080
-282,759	255,356	-0,094	-0,118
-281,745	622,832	-0,080	-0,148
-280,730	800,000	-0,047	-0,100
-279,716	800,000	-0,024	-0,063
-278,701	10,751	0,127	0,070
-277,686	-89,074	0,058	0,012
-276,672	726,098	-0,028	-0,055
-275,657	446,397	0,083	0,134
-274,643	-66,616	-0,048	-0,014
-273,628	-98,343	-0,079	0,015
-272,613	-117,421	0,035	0,005
-271,599	-64,564	-0,116	0,034
-270,584	-200,000	-0,004	0,095
-269,570	-152,652	0,066	0,003
-268,555	-200,000	0,106	-0,000
-267,540	800,000	-0,057	0,120
-266,526	261,723	-0,031	0,039
-265,511	-200,000	-0,001	0,009
-264,497	-24,569	0,165	-0,071
-263,482	192,330	0,041	-0,045
-262,467	38,132	0,061	0,040
-261,453	-103,049	-0,040	-0,007
-260,438	-9,275	-0,126	-0,061
-259,424	-200,000	0,002	-0,042
-258,409	233,740	0,126	-0,152
-257,395	163,927	0,074	0,076
-256,380	-25,497	0,199	0,085
-255,365	349,719	-0,078	-0,113
-254,351	415,963	-0,013	-0,021
-253,336	-54,835	-0,102	0,033
-252,322	-200,000	0,021	-0,070
-251,307	88,818	0,044	-0,035
-250,292	-62,372	-0,162	0,049
-249,278	-152,566	-0,099	0,005
-248,263	-200,000	0,014	-0,096
-247,249	281,895	0,025	-0,033
-246,234	-115,090	-0,106	0,015
-245,219	161,250	0,030	-0,031
-244,205	-200,000	0,008	-0,143
-243,190	-200,000	-0,004	-0,053
-242,176	314,384	-0,080	-0,110
-241,161	90,121	0,037	0,030
-240,146	-200,000	0,024	0,156
-239,132	-200,000	0,019	-0,154
-238,117	166,548	0,009	-0,010
-237,103	-80,952	-0,105	-0,025
-236,088	94,278	-0,146	-0,121
-235,073	-200,000	-0,004	0,056
-234,059	-200,000	-0,009	0,091
-233,044	37,136	0,071	0,045
-232,030	-59,355	-0,075	-0,023
-231,015	-200,000	-0,008	-0,049
-230,000	-200,000	-0,002	0,010
-228,986	-25,588	-0,080	-0,034
-227,971	800,000	-0,084	-0,198
-226,957	-153,859	-0,024	-0,001
-225,942	-80,839	-0,033	0,008
-224,927	54,172	-0,058	0,040
-223,913	221,227	0,059	-0,069
-222,898	666,700	-0,056	0,105
-221,884	207,460	0,023	0,026
-220,869	-200,000	0,003	0,045
-219,855	217,477	-0,031	-0,035
-218,840	-200,000	0,008	0,080
-217,825	-188,984	-0,067	-0,001
-216,811	-183,053	0,033	-0,000
-215,796	412,195	-0,090	-0,140
-214,782	-152,972	0,098	-0,005
-213,767	90,024	0,061	0,050
-212,752	800,000	0,044	0,101
-211,738	211,885	-0,090	0,103
-210,723	800,000	-0,020	0,063
-209,709	737,083	-0,089	0,175
-208,694	-200,000	-0,025	-0,107
-207,679	-200,000	-0,016	-0,122
-206,665	-200,000	0,013	0,076
-205,650	800,000	0,004	0,012
-204,636	-200,000	0,006	0,062
-203,621	484,850	0,071	0,117
-202,606	800,000	-0,034	-0,073
-201,592	-144,563	-0,067	-0,004
-200,577	-200,000	0,022	-0,079
-199,563	335,105	0,062	0,088
-198,548	-200,000	-0,019	-0,170
-197,533	97,725	-0,036	-0,030
-196,519	215,317	-0,054	0,062
-195,504	-21,815	0,015	0,007
-194,490	-200,000	0,025	0,087
-193,475	-200,000	0,008	-0,047
-192,460	50,629	0,091	0,063
-191,446	33,259	0,092	-0,058
-190,431	-200,000	-0,031	0,171
-189,417	-32,005	0,063	-0,026
-188,402	-200,000	-0,013	0,083
-187,387	325,690	0,033	-0,046
-186,373	-82,113	-0,163	-0,038
-185,358	444,323	0,067	-0,108
-184,344	-134,917	0,155	0,013
-183,329	-11,559	-0,074	0,035
-182,315	-200,000	-0,013	-0,102
-181,300	-108,211	-0,104	0,016
-180,285	-98,709	-0,035	-0,006
-179,271	221,874	0,037	-0,044
-178,256	-10,211	-0,113	-0,054
-177,242	-160,267	-0,114	0,004
-176,227	-85,288	-0,069	-0,016
-175,212	800,000	0,017	-0,042
-174,198	93,516	-0,057	0,047
-173,183	361,729	0,051	-0,075
-172,169	-200,000	0,021	-0,080
-171,154	800,000	-0,066	0,170
-170,139	316,138	0,070	-0,096
-169,125	40,505	0,086	0,056
-168,110	800,000	0,066	0,135
-167,096	800,000	-0,045	-0,142
-166,081	-47,929	-0,094	-0,033
-165,066	-200,000	0,010	0,048
-164,052	800,000	-0,026	0,066
-163,037	-200,000	-0,031	-0,145
-162,023	-42,243	0,058	-0,021
-161,008	49,071	-0,091	0,062
-159,993	588,044	0,030	-0,053
-158,979	-200,000	-0,016	-0,069
-157,964	-73,176	0,092	-0,024
-156,950	111,330	-0,027	-0,024
-155,935	207,679	0,025	-0,028
-154,920	312,880	0,023	0,031
-153,906	-8,022	-0,027	0,013
-152,891	-200,000	0,008	-0,079
-151,877	205,981	-0,133	-0,151
-150,862	800,000	0,014	-0,034
-149,847	42,586	-0,112	0,074
-148,833	-200,000	-0,011	-0,083
-147,818	-200,000	0,016	-0,092
-146,804	-67,488	0,135	-0,038
-145,789	72,913	0,048	0,037
-144,775	-125,753	-0,048	0,005
-143,760	800,000	-0,017	0,044
-142,745	25,750	0,082	0,049
-141,731	-53,779	-0,041	-0,014
-140,716	-200,000	-0,003	-0,122
-139,702	277,129	-0,016	-0,021
-138,687	791,150	-0,016	0,032
-137,672	54,654	-0,077	0,054
-136,658	105,223	0,087	0,074
-135,643	800,000	0,035	-0,080
-134,629	221,340	-0,075	-0,087
-133,614	800,000	0,008	0,017
-132,599	212,191	-0,031	-0,036
-131,585	-200,000	-0,027	0,097
-130,570	439,489	-0,022	0,035
-129,556	42,505	-0,012	0,008
-128,541	-120,594	-0,169	0,020
-127,526	526,943	-0,068	0,116
-126,512	-30,428	-0,102	0,042
-125,497	-137,248	0,137	-0,011
-124,483	-200,000	0,022	0,108
-123,468	800,000	0,046	-0,102
-122,453	-200,000	-0,009	-0,155
-121,439	310,397	-0,039	-0,053
-120,424	-200,000	0,013	0,058
