DTS Sentinel unit serial number:	SN410029Multiplexer serial number:	ORYXHardware model number:	OX2-SRSoftware version number:	ORYX F/W v4,00 Oryx Data Collector v3.7.2.0data status	okinstallation	B6 Nyhavnadifferential loss correction	single-endedforward channel	channel 2reverse channel	N/Adate	2023/12/10time	14:30:08forward acquisition time	300,00reverse acquisition time	0,00gamma	499,1914k internal	0,3123k external	0,3123temperature offset calibration	1,0000default loss term (dB/km)	0,3820temperature slope calibration	1,0000multiplexer offset coefficient	1,0000multiplexer slope coefficient	1,0000fibre end	0,00T internal ref (°C)	22,62T ext. ref 1 (°C)	6,10T ext. ref 2 (°C)	6,10length (m)	temperature (°C)	Stokes	anti-Stokes-744,400	146,710	-0,027	0,027
-743,385	-23,953	-0,133	0,059
-742,371	125,794	0,125	0,118
-741,356	434,068	-0,151	0,246
-740,342	800,000	0,024	-0,050
-739,327	19,734	-0,246	0,147
-738,312	688,348	-0,020	0,040
-737,298	-72,761	-0,357	0,097
-736,283	92,783	0,027	-0,023
-735,269	-165,235	-0,284	-0,009
-734,254	-150,966	0,082	0,005
-733,239	-135,160	-0,530	-0,047
-732,225	-38,590	0,161	0,063
-731,210	16,966	0,123	0,073
-730,196	-67,932	-0,117	-0,034
-729,181	545,852	-0,102	0,182
-728,167	-27,356	0,078	-0,034
-727,152	65,467	-0,110	-0,083
-726,137	-94,789	-0,145	0,029
-725,123	-113,151	-0,136	0,020
-724,108	800,000	-0,046	-0,114
-723,094	416,218	-0,090	-0,143
-722,079	13,079	-0,060	0,034
-721,064	-157,899	-0,177	-0,008
-720,050	45,134	-0,058	0,040
-719,035	-91,911	0,061	-0,013
-718,021	83,281	-0,071	0,057
-717,006	496,759	-0,038	0,065
-715,991	1,814	-0,195	-0,105
-714,977	175,783	-0,105	-0,113
-713,962	279,368	-0,033	-0,044
-712,948	368,048	-0,085	0,128
-711,933	65,681	-0,069	0,052
-710,918	800,000	-0,035	0,105
-709,904	800,000	0,062	-0,139
-708,889	33,029	-0,019	0,013
-707,875	-137,881	-0,237	-0,019
-706,860	182,081	-0,019	0,021
-705,845	-200,000	-0,007	-0,145
-704,831	689,128	0,031	0,061
-703,816	-200,000	0,023	0,173
-702,802	751,459	0,030	0,061
-701,787	-200,000	-0,013	-0,122
-700,772	-134,689	0,072	0,006
-699,758	655,181	0,052	0,100
-698,743	219,177	0,041	-0,049
-697,729	-200,000	-0,014	-0,069
-696,714	-200,000	-0,010	0,192
-695,699	-115,725	-0,084	-0,012
-694,685	-77,487	-0,071	-0,018
-693,670	306,592	-0,086	-0,120
-692,656	800,000	-0,028	-0,072
-691,641	-75,544	-0,034	-0,009
-690,627	-200,000	-0,000	0,121
-689,612	800,000	0,011	0,024
-688,597	-166,153	-0,041	-0,001
-687,583	41,483	0,047	0,032
-686,568	161,581	0,012	0,013
-685,554	-200,000	-0,001	-0,070
-684,539	669,608	0,013	-0,026
-683,524	-108,446	0,164	0,026
-682,510	193,258	-0,115	-0,129
-681,495	-200,000	0,009	0,092
-680,481	-89,277	0,086	-0,019
-679,466	-200,000	-0,023	-0,155
-678,451	-23,785	-0,077	-0,034
-677,437	-26,172	0,064	-0,028
-676,422	-200,000	0,003	-0,093
-675,408	-28,747	0,035	0,015
-674,393	505,165	0,057	0,099
-673,378	-200,000	-0,001	-0,022
-672,364	-181,130	-0,189	0,003
-671,349	-63,220	0,044	0,013
-670,335	800,000	-0,055	0,153
-669,320	-200,000	-0,002	-0,052
-668,305	-200,000	-0,009	-0,179
-667,291	-200,000	-0,003	0,048
-666,276	25,247	-0,116	-0,071
-665,262	84,870	-0,090	-0,073
-664,247	673,945	-0,089	0,173
-663,232	-26,298	0,093	-0,040
-662,218	-103,957	0,126	-0,022
-661,203	-39,500	-0,023	0,009
-660,189	246,024	-0,019	0,024
-659,174	-200,000	0,004	-0,059
-658,159	-200,000	0,000	-0,103
-657,145	0,607	-0,072	-0,038
-656,130	67,813	0,076	-0,057
-655,116	27,702	-0,015	-0,010
-654,101	-200,000	-0,001	-0,031
-653,086	800,000	0,025	-0,081
-652,072	800,000	-0,043	-0,122
-651,057	800,000	-0,071	-0,151
-650,043	-18,018	-0,151	-0,070
-649,028	-106,524	0,027	-0,004
-648,014	-77,916	0,060	0,015
-646,999	-69,989	-0,168	-0,047
-645,984	401,122	0,058	-0,091
-644,970	137,202	-0,047	0,046
-643,955	-200,000	0,013	0,053
-642,941	-200,000	0,008	0,034
-641,926	780,104	0,005	-0,010
-640,911	724,569	-0,018	-0,035
-639,897	775,867	-0,056	0,113
-638,882	234,667	0,045	-0,056
-637,868	-200,000	0,034	-0,145
-636,853	-42,616	-0,104	-0,039
-635,838	-200,000	-0,011	-0,070
-634,824	-61,970	-0,095	0,029
-633,809	8,683	0,076	0,042
-632,795	-200,000	-0,002	0,018
-631,780	800,000	-0,034	0,083
-630,765	-56,801	-0,124	-0,041
-629,751	748,514	-0,037	-0,074
-628,736	171,779	0,094	-0,100
-627,722	585,962	0,054	-0,100
-626,707	-200,000	0,002	0,042
-625,692	131,998	-0,040	0,038
-624,678	-200,000	-0,015	0,070
-623,663	711,970	0,032	0,062
-622,649	800,000	0,032	-0,086
-621,634	154,287	-0,115	-0,117
-620,619	800,000	0,020	-0,044
-619,605	94,603	0,032	-0,027
-618,590	-200,000	0,013	0,063
-617,576	800,000	-0,059	-0,133
-616,561	273,222	0,075	0,099
-615,546	-200,000	0,045	-0,155
-614,532	800,000	-0,056	0,168
-613,517	195,177	-0,074	-0,084
-612,503	-70,612	-0,102	-0,028
-611,488	475,302	-0,012	0,021
-610,474	177,872	0,121	0,131
-609,459	362,938	0,079	0,118
-608,444	40,001	0,052	-0,035
-607,430	800,000	-0,042	-0,137
-606,415	800,000	-0,051	-0,148
-605,401	-60,039	0,073	0,023
-604,386	-100,154	-0,054	-0,010
-603,371	309,907	-0,018	0,025
-602,357	-95,801	0,079	-0,015
-601,342	139,784	0,115	0,112
-600,328	800,000	0,042	-0,133
-599,313	800,000	-0,043	0,114
-598,298	-36,259	-0,110	0,044
-597,284	328,283	0,088	0,126
-596,269	573,748	0,015	0,027
-595,255	109,982	-0,053	-0,047
-594,240	118,550	0,050	-0,046
-593,225	668,041	-0,028	-0,054
-592,211	278,464	0,023	0,030
-591,196	-200,000	-0,012	0,090
-590,182	-200,000	-0,019	0,096
-589,167	600,877	0,049	0,090
-588,152	800,000	-0,026	-0,064
-587,138	-93,092	-0,110	-0,023
-586,123	-200,000	-0,002	-0,091
-585,109	11,343	-0,170	-0,096
-584,094	8,260	-0,099	-0,055
-583,079	-82,457	0,106	-0,025
-582,065	-70,619	0,126	-0,035
-581,050	-200,000	0,023	0,075
-580,036	-96,836	0,123	-0,024
-579,021	140,102	-0,071	-0,069
-578,006	708,812	0,083	0,162
-576,992	-189,143	0,179	0,002
-575,977	-200,000	-0,014	0,083
-574,963	18,175	-0,010	-0,006
-573,948	800,000	0,047	0,116
-572,934	499,487	-0,064	0,110
-571,919	234,939	0,083	0,102
-570,904	359,058	0,031	0,046
-569,890	40,130	-0,052	-0,034
-568,875	-200,000	0,031	-0,133
-567,861	116,923	0,081	0,074
-566,846	-200,000	-0,000	0,024
-565,831	-95,669	-0,094	0,018
-564,817	595,507	-0,016	-0,030
-563,802	-94,332	-0,102	-0,021
-562,788	-177,246	0,098	0,002
-561,773	-84,367	0,068	-0,016
-560,758	-35,387	0,041	-0,016
-559,744	-20,522	0,126	0,057
-558,729	-200,000	0,004	0,084
-557,715	-200,000	0,021	-0,088
-556,700	-109,585	-0,137	0,021
-555,685	-154,373	-0,104	0,005
-554,671	-44,280	0,061	-0,023
-553,656	-78,811	-0,121	0,030
-552,642	-11,340	-0,067	-0,033
-551,627	63,335	0,144	0,107
-550,612	-69,693	-0,048	-0,014
-549,598	-106,732	-0,091	-0,015
-548,583	-200,000	0,011	0,041
-547,569	-38,424	0,162	0,063
-546,554	-112,190	0,043	0,006
-545,539	394,625	0,040	0,062
-544,525	-200,000	-0,012	-0,125
-543,510	-200,000	-0,012	0,114
-542,496	-5,349	-0,176	-0,089
-541,481	131,893	0,131	-0,124
-540,466	261,309	-0,060	-0,077
-539,452	4,433	-0,018	0,010
-538,437	222,827	-0,007	0,008
-537,423	800,000	-0,001	-0,002
-536,408	-71,778	0,073	0,020
-535,393	800,000	0,023	-0,047
-534,379	800,000	-0,024	-0,053
-533,364	800,000	0,036	-0,095
-532,350	-200,000	-0,008	-0,106
-531,335	130,713	0,117	-0,111
-530,321	-200,000	0,005	0,040
-529,306	254,533	-0,059	-0,075
-528,291	-80,774	-0,131	0,032
-527,277	800,000	0,026	0,065
-526,262	695,609	-0,058	0,113
-525,248	-200,000	0,051	0,171
-524,233	800,000	0,050	0,140
-523,218	285,629	0,045	0,060
-522,204	24,313	-0,099	-0,060
-521,189	16,245	-0,010	-0,006
-520,175	-200,000	-0,051	-0,191
-519,160	-200,000	-0,027	-0,141
-518,145	-200,000	0,004	0,125
-517,131	-80,304	0,085	0,021
-516,116	800,000	-0,015	-0,042
-515,102	15,139	0,074	-0,043
-514,087	-70,646	-0,138	-0,038
-513,072	-87,832	-0,062	0,014
-512,058	-169,705	-0,051	0,001
-511,043	16,863	0,013	0,008
-510,029	-154,339	0,064	-0,003
-509,014	-63,715	-0,141	-0,043
-507,999	-128,349	-0,028	-0,003
-506,985	-200,000	0,002	-0,183
-505,970	-151,982	-0,071	-0,004
-504,956	-200,000	-0,020	-0,132
-503,941	-200,000	-0,007	0,052
-502,926	800,000	-0,024	-0,068
-501,912	-9,841	0,058	0,028
-500,897	-124,037	0,056	-0,006
-499,883	-200,000	-0,012	-0,050
-498,868	-200,000	0,004	-0,191
-497,853	800,000	0,018	0,044
-496,839	374,244	0,065	0,097
-495,824	3,659	0,051	-0,027
-494,810	800,000	0,033	0,077
-493,795	-200,000	-0,002	0,096
-492,781	-11,050	0,086	0,042
-491,766	149,649	0,035	-0,035
-490,751	755,251	-0,036	-0,072
-489,737	517,371	-0,042	-0,073
-488,722	-200,000	0,009	-0,117
-487,708	-200,000	-0,024	-0,159
-486,693	-200,000	0,019	-0,080
-485,678	-23,075	-0,103	-0,046
-484,664	800,000	0,019	0,048
-483,649	52,958	-0,128	-0,091
-482,635	180,549	-0,028	0,030
-481,620	-200,000	-0,001	-0,071
-480,605	-118,266	-0,077	0,010
-479,591	-200,000	0,010	0,084
-478,576	458,982	-0,066	0,108
-477,562	-51,151	-0,047	-0,016
-476,547	362,271	-0,049	-0,072
-475,532	-88,159	-0,101	0,022
-474,518	765,272	0,038	0,076
-473,503	800,000	0,061	0,181
-472,489	483,187	-0,036	0,061
-471,474	-200,000	0,011	-0,085
-470,459	344,993	0,050	-0,072
-469,445	62,726	-0,069	-0,051
-468,430	-26,876	-0,073	-0,031
-467,416	691,378	-0,023	-0,044
-466,401	800,000	-0,013	0,032
-465,386	80,756	0,056	-0,045
-464,372	-165,957	0,073	-0,002
-463,357	46,029	0,064	-0,044
-462,343	-82,233	-0,063	0,015
-461,328	245,080	0,015	-0,019
-460,313	-86,125	0,105	-0,024
-459,299	-133,956	0,061	0,006
-458,284	185,037	0,066	0,073
-457,270	436,133	0,036	-0,058
-456,255	800,000	0,031	0,063
-455,241	-200,000	0,001	0,048
-454,226	16,643	-0,073	-0,042
-453,211	-200,000	0,000	-0,004
-452,197	579,566	0,074	0,134
-451,182	139,461	0,034	0,033
-450,168	-138,758	0,075	0,006
-449,153	-200,000	0,024	-0,095
-448,138	-200,000	0,010	0,068
-447,124	-69,611	-0,138	0,039
-446,109	-200,000	-0,006	0,023
-445,095	64,339	0,107	-0,079
-444,080	-165,640	0,097	0,003
-443,065	-72,740	0,026	0,007
-442,051	-200,000	0,027	-0,098
-441,036	800,000	-0,017	0,046
-440,022	161,062	0,076	-0,078
-439,007	183,253	-0,067	0,073
-437,992	164,316	0,065	0,067
-436,978	129,525	-0,072	-0,068
-435,963	43,913	0,026	0,018
-434,949	800,000	-0,007	0,020
-433,934	-96,486	-0,134	-0,026
-432,919	-200,000	0,000	-0,097
-431,905	800,000	-0,005	0,015
-430,890	-85,940	0,056	0,013
-429,876	-19,564	0,097	0,044
-428,861	800,000	-0,028	-0,079
-427,846	-200,000	0,034	-0,111
-426,832	-200,000	0,014	-0,116
-425,817	-102,438	-0,168	-0,029
-424,803	-200,000	-0,006	0,096
-423,788	163,443	0,076	0,079
-422,773	-200,000	0,011	0,100
-421,759	429,765	-0,042	-0,067
-420,744	33,686	0,101	0,065
-419,730	240,041	0,035	-0,043
-418,715	679,270	-0,045	-0,086
-417,701	355,850	-0,058	-0,085
-416,686	-200,000	0,005	0,095
-415,671	-0,691	0,058	0,030
-414,657	747,622	-0,059	0,117
-413,642	-54,877	-0,035	0,012
-412,628	-200,000	-0,013	-0,065
-411,613	-68,797	-0,035	-0,010
-410,598	-155,401	0,152	-0,007
-409,584	-59,568	0,038	0,012
-408,569	-88,896	-0,071	0,015
-407,555	-200,000	-0,005	0,057
-406,540	-76,208	-0,033	-0,009
-405,525	-46,214	-0,115	-0,041
-404,511	-148,755	-0,071	-0,004
-403,496	800,000	-0,034	-0,074
-402,482	-50,107	0,057	-0,020
-401,467	184,267	-0,016	0,018
-400,452	-46,593	-0,054	0,019
-399,438	-200,000	-0,004	0,041
-398,423	408,660	-0,111	0,173
-397,409	-33,658	-0,145	0,058
-396,394	-135,427	0,221	0,019
-395,379	-28,155	-0,122	0,052
-394,365	171,307	-0,052	-0,055
-393,350	-10,185	-0,077	0,037
-392,336	559,359	0,092	0,164
-391,321	-111,145	0,007	-0,001
-390,306	-69,870	0,130	0,036
-389,292	-71,787	-0,057	0,016
-388,277	-82,590	0,065	0,015
-387,263	-200,000	-0,004	0,084
-386,248	4,506	0,120	-0,065
-385,233	-200,000	0,002	-0,019
-384,219	64,380	0,108	0,080
-383,204	-21,557	-0,090	0,040
-382,190	-35,809	-0,134	0,053
-381,175	800,000	-0,037	-0,108
-380,160	-19,694	0,064	0,029
-379,146	144,173	0,107	-0,105
-378,131	59,846	-0,046	0,033
-377,117	-200,000	-0,009	-0,099
-376,102	-200,000	-0,046	-0,184
-375,088	-150,242	0,145	-0,008
-374,073	-145,831	0,051	0,003
-373,058	-53,875	0,090	-0,030
-372,044	-157,210	0,072	0,003
-371,029	800,000	-0,084	0,182
-370,015	-95,026	-0,060	-0,012
-369,000	-114,386	-0,096	0,013
-367,985	-55,667	-0,144	-0,047
-366,971	800,000	0,063	-0,166
-365,956	153,229	0,042	-0,042
-364,942	-54,280	0,213	-0,071
-363,927	126,218	0,043	0,040
-362,912	-200,000	-0,011	-0,039
-361,898	169,410	0,021	0,022
-360,883	-200,000	0,006	-0,057
-359,869	383,381	0,024	-0,037
-358,854	-186,629	0,193	0,002
-357,839	800,000	0,016	0,052
-356,825	80,264	0,035	0,028
-355,810	-28,428	0,050	0,021
-354,796	318,993	-0,069	-0,097
-353,781	267,653	0,079	-0,102
-352,766	18,462	-0,036	-0,021
-351,752	493,759	-0,052	0,088
-350,737	290,866	-0,008	-0,010
-349,723	446,772	-0,065	0,106
-348,708	91,298	0,014	-0,011
-347,693	-200,000	0,021	-0,134
-346,679	270,399	-0,043	0,056
-345,664	233,045	-0,054	-0,065
-344,650	800,000	-0,030	-0,063
-343,635	118,836	0,080	0,073
-342,620	800,000	-0,095	0,240
-341,606	-200,000	-0,012	-0,075
-340,591	-200,000	-0,031	-0,160
-339,577	-61,604	-0,120	0,037
-338,562	450,949	0,047	-0,077
-337,548	-77,628	-0,054	-0,014
-336,533	289,728	0,041	-0,054
-335,518	-118,180	-0,036	-0,005
-334,504	216,685	-0,100	-0,117
-333,489	547,071	0,023	0,041
-332,475	-200,000	-0,006	-0,067
-331,460	-200,000	-0,007	0,036
-330,445	-200,000	-0,009	0,050
-329,431	705,713	0,052	0,102
-328,416	-200,000	-0,018	0,086
-327,402	300,746	-0,046	0,063
-326,387	-74,311	-0,039	0,010
-325,372	-200,000	0,016	-0,103
-324,358	-200,000	-0,025	-0,116
-323,343	355,054	0,069	0,102
-322,329	198,108	-0,033	-0,037
-321,314	166,554	-0,026	0,027
-320,299	-23,932	-0,138	0,060
-319,285	-200,000	0,013	0,089
-318,270	41,052	-0,075	0,049
-317,256	-200,000	0,005	-0,041
-316,241	137,826	-0,045	0,043
-315,226	179,814	0,036	0,038
-314,212	-200,000	-0,009	-0,038
-313,197	385,032	-0,073	-0,110
-312,183	-6,634	-0,067	0,033
-311,168	-45,867	-0,054	0,020
-310,153	-46,023	-0,085	0,031
-309,139	684,034	-0,026	0,050
-308,124	37,086	-0,078	0,051
-307,110	-200,000	-0,043	0,192
-306,095	571,481	-0,061	0,110
-305,080	486,144	-0,035	0,059
-304,066	-98,781	0,040	-0,007
-303,051	-17,807	-0,093	-0,043
-302,037	-31,075	-0,183	-0,075
-301,022	-200,000	-0,001	-0,052
-300,008	55,531	-0,079	0,056
-298,993	-145,469	-0,030	0,002
-297,978	800,000	-0,048	0,104
-296,964	3,084	0,115	0,061
-295,949	-97,223	-0,062	0,012
-294,935	-26,761	0,061	-0,026
-293,920	-61,182	0,144	-0,044
-292,905	-31,814	0,048	0,020
-291,891	46,484	0,068	0,046
-290,876	800,000	0,041	0,131
-289,862	800,000	0,032	0,091
-288,847	-165,146	0,149	-0,005
-287,832	-155,085	0,096	0,005
-286,818	-130,580	0,056	0,005
-285,803	58,247	-0,083	0,060
-284,789	48,350	-0,119	0,081
-283,774	32,934	0,122	-0,077
-282,759	800,000	-0,057	-0,139
-281,745	800,000	0,020	-0,057
-280,730	-67,769	0,045	-0,013
-279,716	282,768	-0,066	-0,087
-278,701	-117,988	-0,055	-0,007
-277,686	-200,000	0,020	0,082
-276,672	20,482	0,032	0,019
-275,657	248,891	0,064	0,080
-274,643	60,123	-0,027	0,020
-273,628	-99,130	-0,054	-0,010
-272,613	539,914	-0,027	0,047
-271,599	-200,000	0,021	0,106
-270,584	120,352	0,042	-0,038
-269,570	-26,758	0,063	0,027
-268,555	30,366	-0,129	0,080
-267,540	207,157	-0,050	0,057
-266,526	165,915	-0,054	-0,056
-265,511	-12,474	0,126	-0,060
-264,497	-200,000	0,038	0,133
-263,482	-200,000	0,005	-0,053
-262,467	-200,000	0,005	0,057
-261,453	4,584	0,048	0,026
-260,438	-57,214	0,055	-0,018
-259,424	-200,000	-0,035	0,130
-258,409	-129,911	0,129	0,013
-257,395	-11,186	0,078	0,038
-256,380	-33,086	0,084	0,034
-255,365	-103,776	-0,064	0,011
-254,351	131,637	0,039	0,036
-253,336	-112,534	-0,085	0,012
-252,322	122,271	-0,104	-0,095
-251,307	347,260	0,032	0,047
-250,292	-200,000	0,010	-0,083
-249,278	191,174	0,066	0,073
-248,263	-23,704	0,076	0,033
-247,249	-13,262	0,067	0,032
-246,234	81,619	-0,090	-0,071
-245,219	800,000	-0,025	-0,062
-244,205	-200,000	-0,018	0,075
-243,190	-55,669	0,186	0,061
-242,176	182,228	-0,072	0,078
-241,161	542,019	-0,070	0,122
-240,146	728,266	0,077	-0,151
-239,132	368,010	-0,066	-0,098
-238,117	-122,759	-0,098	-0,011
-237,103	-121,184	-0,085	-0,010
-236,088	437,926	-0,028	-0,045
-235,073	312,457	-0,081	0,112
-234,059	-200,000	0,021	-0,122
-233,044	-16,928	-0,099	0,045
-232,030	-46,779	-0,082	-0,029
-231,015	443,655	-0,038	-0,061
-230,000	-120,664	-0,170	-0,021
-228,986	-200,000	0,038	0,153
-227,971	135,355	0,043	-0,041
-226,957	-200,000	0,025	0,084
-225,942	-63,466	0,098	-0,029
-224,927	-49,727	-0,134	0,046
-223,913	-18,016	0,078	-0,036
-222,898	39,812	-0,079	0,051
-221,884	-128,960	0,094	0,010
-220,869	-103,874	0,023	-0,004
-219,855	800,000	-0,041	0,093
-218,840	-100,513	0,120	-0,021
-217,825	-200,000	0,015	0,101
-216,811	47,052	0,084	0,057
-215,796	-38,866	0,112	-0,043
-214,782	13,184	-0,036	0,020
-213,767	-27,175	0,065	0,028
-212,752	315,418	0,120	-0,165
-211,738	-60,585	0,079	0,024
-210,723	187,836	-0,107	-0,116
-209,709	-108,266	0,027	0,004
-208,694	-1,591	-0,119	-0,061
-207,679	-200,000	0,019	-0,069
-206,665	385,246	-0,050	-0,076
-205,650	124,511	0,039	0,036
-204,636	800,000	-0,007	-0,017
-203,621	800,000	0,016	-0,050
-202,606	185,872	-0,067	-0,073
-201,592	-22,573	0,046	0,020
-200,577	-73,570	0,089	-0,024
-199,563	242,160	-0,066	-0,081
-198,548	2,344	-0,065	0,034
-197,533	-179,112	-0,066	-0,001
-196,519	800,000	0,041	-0,095
-195,504	595,414	0,033	-0,060
-194,490	299,434	-0,086	0,115
-193,475	-103,018	-0,097	0,017
-192,460	-200,000	0,000	-0,003
-191,446	228,544	-0,062	-0,074
-190,431	-200,000	-0,005	0,089
-189,417	391,752	-0,036	0,055
-188,402	800,000	0,034	-0,073
-187,387	226,989	-0,085	0,100
-186,373	-118,663	-0,047	-0,006
-185,358	-200,000	-0,027	0,166
-184,344	-74,113	0,039	0,010
-183,329	-200,000	0,021	0,185
-182,315	-200,000	-0,016	0,098
-181,300	593,007	-0,065	0,118
-180,285	-115,670	0,108	0,015
-179,271	167,697	0,067	-0,069
-178,256	81,854	0,014	0,011
-177,242	-200,000	0,003	-0,158
-176,227	-51,331	0,066	0,022
-175,212	-200,000	0,003	-0,023
-174,198	75,745	0,019	-0,015
-173,183	-200,000	0,018	-0,087
-172,169	544,869	0,046	-0,081
-171,154	95,192	-0,121	-0,100
-170,139	800,000	-0,035	0,089
-169,125	40,907	0,109	0,072
-168,110	230,109	0,078	0,094
-167,096	-200,000	0,007	0,031
-166,081	-200,000	-0,008	-0,130
-165,066	189,081	0,071	0,077
-164,052	-200,000	0,006	-0,081
-163,037	-200,000	0,006	0,037
-162,023	316,205	0,031	-0,043
-161,008	30,651	-0,038	0,023
-159,993	84,906	-0,036	-0,029
-158,979	433,406	0,046	-0,073
-157,964	-200,000	-0,019	-0,178
-156,950	-61,770	0,187	-0,057
-155,935	189,585	0,105	-0,115
-154,920	-158,851	0,113	-0,005
-153,906	705,619	0,043	0,083
-152,891	-200,000	0,003	0,012
-151,877	-200,000	-0,002	-0,146
-150,862	561,905	-0,038	-0,067
-149,847	68,227	0,096	-0,072
-148,833	800,000	-0,020	-0,043
-147,818	240,018	0,070	0,085
-146,804	-10,950	-0,104	-0,050
-145,789	-130,785	-0,059	-0,006
-144,775	-112,261	0,122	-0,018
-143,760	800,000	-0,063	-0,133
-142,745	-111,917	-0,112	-0,016
-141,731	-108,300	0,111	0,017
-140,716	-200,000	0,000	0,005
-139,702	-200,000	0,008	-0,031
-138,687	62,737	0,075	0,055
-137,672	188,824	-0,081	-0,089
-136,658	178,102	-0,062	0,066
-135,643	588,688	0,010	-0,019
-134,629	186,014	0,082	-0,088
-133,614	91,190	-0,020	0,017
-132,599	58,406	-0,097	0,069
-131,585	-167,614	-0,110	-0,003
-130,570	-79,887	-0,111	0,027
-129,556	-85,786	-0,043	0,010
-128,541	-200,000	-0,013	0,108
-127,526	-200,000	0,008	-0,056
-126,512	-200,000	-0,003	-0,074
-125,497	-56,513	-0,074	-0,024
-124,483	-200,000	0,020	-0,099
-123,468	-45,006	0,103	-0,037
-122,453	-200,000	0,000	-0,125
-121,439	765,198	0,026	-0,051
-120,424	800,000	-0,024	0,065
