DTS Sentinel unit serial number:	SN410029Multiplexer serial number:	ORYXHardware model number:	OX2-SRSoftware version number:	ORYX F/W v4,00 Oryx Data Collector v3.7.2.0data status	okinstallation	B6 Nyhavnadifferential loss correction	single-endedforward channel	channel 2reverse channel	N/Adate	2023/12/08time	05:35:08forward acquisition time	300,00reverse acquisition time	0,00gamma	499,1914k internal	0,3165k external	0,3165temperature offset calibration	1,0000default loss term (dB/km)	0,3820temperature slope calibration	1,0000multiplexer offset coefficient	1,0000multiplexer slope coefficient	1,0000fibre end	0,00T internal ref (°C)	13,01T ext. ref 1 (°C)	-3,89T ext. ref 2 (°C)	-3,89length (m)	temperature (°C)	Stokes	anti-Stokes-744,400	2,756	0,129	0,069
-743,385	-134,248	-0,279	0,025
-742,371	-43,195	0,153	0,057
-741,356	-123,245	-0,180	-0,021
-740,342	85,754	0,080	0,065
-739,327	-54,194	-0,253	-0,084
-738,312	-72,890	0,049	-0,013
-737,298	-126,439	-0,350	-0,038
-736,283	-82,426	0,155	0,037
-735,269	-144,686	-0,352	0,023
-734,254	-200,000	0,032	0,158
-733,239	-34,742	-0,421	-0,168
-732,225	296,064	0,082	0,110
-731,210	7,837	0,119	0,065
-730,196	324,874	-0,074	-0,105
-729,181	-42,074	-0,135	-0,050
-728,167	107,367	0,065	0,057
-727,152	-200,000	0,051	0,000
-726,137	-200,000	0,005	0,021
-725,123	-124,530	-0,183	-0,021
-724,108	-58,304	-0,142	-0,045
-723,094	-80,768	-0,152	0,037
-722,079	800,000	0,046	-0,096
-721,064	90,840	-0,111	-0,092
-720,050	-200,000	0,002	0,087
-719,035	-34,657	-0,032	0,013
-718,021	-79,803	-0,050	-0,012
-717,006	-88,529	-0,046	0,010
-715,991	-96,599	-0,139	-0,027
-714,977	800,000	0,032	-0,092
-713,962	328,303	-0,065	-0,092
-712,948	-200,000	0,002	-0,010
-711,933	-150,541	-0,058	-0,003
-710,918	-200,000	-0,012	-0,115
-709,904	-104,535	-0,183	0,031
-708,889	74,455	0,043	-0,033
-707,875	800,000	0,016	0,038
-706,860	-6,831	0,090	-0,045
-705,845	-36,016	0,082	-0,032
-704,831	-34,690	-0,077	0,031
-703,816	410,324	-0,011	0,017
-702,802	125,349	0,074	-0,069
-701,787	225,420	-0,073	-0,087
-700,772	800,000	0,015	0,040
-699,758	183,772	-0,056	-0,061
-698,743	221,726	0,066	-0,078
-697,729	38,592	0,071	-0,046
-696,714	800,000	-0,020	0,061
-695,699	20,325	-0,077	0,046
-694,685	-200,000	0,006	-0,161
-693,670	565,639	-0,057	-0,102
-692,656	800,000	0,047	0,097
-691,641	-159,804	0,091	-0,004
-690,627	-200,000	-0,018	0,119
-689,612	83,963	-0,106	-0,085
-688,597	282,320	0,010	-0,013
-687,583	-200,000	-0,028	-0,118
-686,568	-175,306	-0,073	0,001
-685,554	800,000	0,027	-0,066
-684,539	-39,650	-0,073	0,028
-683,524	31,757	0,072	-0,045
-682,510	-200,000	-0,000	0,093
-681,495	-130,411	-0,163	0,016
-680,481	380,070	0,060	-0,090
-679,466	-200,000	0,004	-0,074
-678,451	-26,990	0,041	0,018
-677,437	-41,375	0,079	-0,030
-676,422	39,933	-0,027	-0,018
-675,408	-120,248	0,094	0,012
-674,393	298,705	-0,061	-0,083
-673,378	-100,548	-0,137	0,025
-672,364	250,076	0,112	-0,140
-671,349	-200,000	0,028	-0,169
-670,335	-21,941	-0,093	-0,041
-669,320	-144,952	0,009	-0,001
-668,305	-200,000	-0,002	0,077
-667,291	-30,342	0,027	0,011
-666,276	-200,000	-0,003	-0,019
-665,262	472,842	-0,055	-0,091
-664,247	16,186	-0,026	-0,015
-663,232	-200,000	-0,004	0,041
-662,218	159,557	0,142	0,145
-661,203	206,404	-0,040	-0,046
-660,189	-68,600	0,021	-0,006
-659,174	608,572	0,020	-0,037
-658,159	5,509	0,125	0,067
-657,145	81,247	-0,089	0,070
-656,130	800,000	-0,015	-0,037
-655,116	-200,000	0,015	0,065
-654,101	-200,000	-0,009	-0,108
-653,086	800,000	-0,003	0,008
-652,072	-200,000	0,024	-0,154
-651,057	420,877	-0,095	-0,150
-650,043	421,233	-0,045	-0,072
-649,028	800,000	-0,041	-0,085
-648,014	221,352	0,041	0,048
-646,999	10,622	0,057	0,032
-645,984	800,000	-0,030	-0,072
-644,970	233,150	-0,100	-0,121
-643,955	159,299	0,046	-0,047
-642,941	-200,000	-0,019	-0,165
-641,926	122,734	-0,029	-0,026
-640,911	170,162	0,035	0,037
-639,897	800,000	0,037	0,086
-638,882	-40,654	-0,097	-0,037
-637,868	-98,341	-0,082	0,015
-636,853	298,278	0,077	0,104
-635,838	117,310	-0,053	0,047
-634,824	800,000	-0,003	0,008
-633,809	-53,701	-0,168	0,056
-632,795	13,417	0,043	-0,024
-631,780	-60,487	0,106	-0,033
-630,765	315,025	-0,100	0,139
-629,751	360,522	-0,054	-0,080
-628,736	-52,394	-0,129	-0,044
-627,722	-55,663	-0,126	0,041
-626,707	-27,586	0,063	-0,027
-625,692	265,977	0,109	0,140
-624,678	341,798	-0,026	-0,038
-623,663	38,992	-0,079	0,052
-622,649	-118,092	-0,136	-0,018
-621,634	800,000	-0,016	-0,036
-620,619	266,480	-0,040	-0,051
-619,605	218,201	0,051	0,060
-618,590	800,000	-0,056	0,132
-617,576	136,074	-0,058	0,055
-616,561	-0,287	-0,039	0,020
-615,546	175,044	-0,042	-0,045
-614,532	729,745	-0,029	-0,056
-613,517	337,879	0,076	0,108
-612,503	800,000	-0,015	0,044
-611,488	-200,000	0,016	-0,056
-610,474	-200,000	-0,014	0,049
-609,459	-12,059	-0,042	-0,020
-608,444	719,095	-0,045	-0,088
-607,430	312,773	-0,098	-0,136
-606,415	89,806	0,132	-0,108
-605,401	0,489	0,087	-0,045
-604,386	800,000	-0,016	-0,034
-603,371	800,000	-0,020	-0,047
-602,357	150,861	0,068	-0,068
-601,342	-200,000	-0,018	0,124
-600,328	240,604	-0,066	-0,080
-599,313	108,777	0,083	-0,072
-598,298	299,052	-0,010	0,014
-597,284	594,072	-0,037	0,066
-596,269	-200,000	0,004	-0,046
-595,255	-127,611	0,019	-0,002
-594,240	-11,271	-0,042	0,020
-593,225	-94,987	0,039	0,008
-592,211	-88,027	-0,100	-0,022
-591,196	800,000	-0,029	0,082
-590,182	-38,192	0,190	-0,073
-589,167	-200,000	0,007	-0,125
-588,152	227,638	-0,036	-0,042
-587,138	-36,174	0,033	-0,013
-586,123	16,174	0,111	0,064
-585,109	22,812	-0,123	0,073
-584,094	244,074	0,084	0,103
-583,079	40,409	0,052	0,034
-582,065	15,544	0,066	-0,038
-581,050	-200,000	-0,021	0,213
-580,036	191,595	0,026	0,029
-579,021	-69,665	0,043	-0,012
-578,006	800,000	-0,042	-0,089
-576,992	-200,000	0,017	-0,060
-575,977	800,000	-0,023	-0,048
-574,963	-200,000	-0,003	-0,018
-573,948	800,000	0,059	0,170
-572,934	800,000	0,044	0,094
-571,919	-115,429	-0,044	0,006
-570,904	43,860	-0,111	-0,074
-569,890	-200,000	-0,006	-0,027
-568,875	800,000	-0,059	-0,121
-567,861	800,000	-0,013	-0,035
-566,846	-108,852	-0,030	-0,005
-565,831	88,946	-0,087	0,071
-564,817	800,000	0,005	0,011
-563,802	-200,000	-0,038	-0,136
-562,788	93,631	-0,036	0,030
-561,773	96,647	0,054	-0,045
-560,758	-200,000	0,018	-0,070
-559,744	-71,126	-0,041	0,011
-558,729	800,000	-0,028	0,057
-557,715	-38,917	0,063	0,024
-556,700	490,050	-0,022	0,037
-555,685	-200,000	-0,015	0,109
-554,671	45,757	0,068	-0,046
-553,656	433,504	0,056	0,088
-552,642	-200,000	0,011	0,083
-551,627	-200,000	0,013	0,122
-550,612	-200,000	-0,022	0,095
-549,598	-27,917	0,190	0,080
-548,583	-200,000	0,037	0,122
-547,569	-73,702	-0,087	0,023
-546,554	-82,330	-0,087	0,020
-545,539	-200,000	0,012	0,157
-544,525	544,855	-0,069	-0,121
-543,510	359,988	0,033	-0,049
-542,496	-103,795	-0,138	0,023
-541,481	-200,000	0,018	-0,065
-540,466	800,000	-0,030	0,094
-539,452	346,756	0,039	0,055
-538,437	329,055	-0,004	-0,006
-537,423	727,853	0,016	0,032
-536,408	800,000	0,014	0,034
-535,393	-200,000	-0,031	-0,118
-534,379	-200,000	-0,020	0,068
-533,364	-49,604	-0,087	0,030
-532,350	-196,471	0,143	0,001
-531,335	-70,891	-0,088	-0,024
-530,321	434,584	0,061	0,097
-529,306	-200,000	-0,024	-0,179
-528,291	41,429	-0,044	0,029
-527,277	-78,057	-0,090	-0,023
-526,262	564,939	0,040	-0,071
-525,248	-143,393	-0,064	-0,004
-524,233	-200,000	-0,017	-0,076
-523,218	221,866	-0,058	0,068
-522,204	309,742	0,071	0,097
-521,189	-121,877	-0,107	-0,013
-520,175	64,730	-0,162	0,119
-519,160	289,008	0,020	-0,026
-518,145	-200,000	-0,001	0,091
-517,131	-127,703	0,022	0,002
-516,116	-200,000	-0,002	0,060
-515,102	-71,589	-0,022	0,006
-514,087	-122,132	0,059	0,007
-513,072	446,298	0,037	-0,060
-512,058	-200,000	-0,006	-0,159
-511,043	136,306	0,042	-0,040
-510,029	800,000	-0,046	0,140
-509,014	786,116	0,005	0,010
-507,999	7,739	0,032	-0,017
-506,985	-200,000	0,016	-0,079
-505,970	47,037	-0,143	0,097
-504,956	116,930	-0,098	-0,087
-503,941	85,945	0,042	-0,033
-502,926	800,000	0,036	0,095
-501,912	-155,819	0,105	0,005
-500,897	-200,000	-0,052	0,195
-499,883	99,145	-0,072	-0,061
-498,868	74,514	-0,071	0,055
-497,853	96,749	-0,072	0,060
-496,839	800,000	-0,046	0,109
-495,824	758,819	-0,013	-0,026
-494,810	15,490	0,048	0,027
-493,795	12,595	-0,067	0,037
-492,781	288,615	-0,061	-0,081
-491,766	800,000	-0,066	-0,139
-490,751	155,400	-0,133	-0,133
-489,737	98,251	0,154	0,130
-488,722	-200,000	0,027	0,236
-487,708	-200,000	0,017	0,108
-486,693	57,222	-0,068	-0,049
-485,678	-39,214	0,030	-0,012
-484,664	47,306	-0,043	0,029
-483,649	-99,342	0,077	0,014
-482,635	-50,738	-0,034	-0,012
-481,620	101,420	0,130	0,110
-480,605	407,656	-0,018	0,028
-479,591	-62,752	-0,033	0,010
-478,576	-36,830	0,196	0,076
-477,562	219,057	0,049	-0,057
-476,547	800,000	0,027	0,074
-475,532	21,447	-0,107	-0,063
-474,518	800,000	-0,060	0,139
-473,503	683,505	0,022	0,042
-472,489	-79,707	0,043	-0,010
-471,474	-200,000	0,022	-0,084
-470,459	513,143	0,017	-0,028
-469,445	800,000	0,057	-0,123
-468,430	-200,000	0,026	-0,136
-467,416	71,257	-0,052	0,039
-466,401	607,366	0,044	0,079
-465,386	-55,878	0,077	-0,025
-464,372	350,444	0,056	0,081
-463,357	800,000	0,038	-0,097
-462,343	223,534	-0,053	-0,062
-461,328	16,699	0,123	-0,070
-460,313	800,000	0,013	0,040
-459,299	-200,000	0,022	0,160
-458,284	-105,901	0,191	0,031
-457,270	-2,426	0,054	-0,027
-456,255	87,236	0,030	0,024
-455,241	800,000	-0,061	-0,139
-454,226	168,325	0,015	-0,015
-453,211	-200,000	-0,008	-0,029
-452,197	133,655	0,076	0,071
-451,182	-18,757	0,065	-0,029
-450,168	168,065	-0,045	0,047
-449,153	-200,000	0,010	0,109
-448,138	177,827	0,042	-0,045
-447,124	800,000	-0,004	-0,007
-446,109	-200,000	0,019	0,091
-445,095	207,811	-0,086	0,097
-444,080	800,000	0,040	-0,081
-443,065	800,000	-0,043	-0,118
-442,051	48,675	-0,017	-0,012
-441,036	5,961	-0,055	-0,030
-440,022	-200,000	0,013	0,097
-439,007	-200,000	0,002	0,086
-437,992	-200,000	-0,055	-0,178
-436,978	-200,000	-0,012	-0,072
-435,963	-155,065	0,137	0,006
-434,949	28,667	-0,167	0,103
-433,934	162,626	-0,053	-0,054
-432,919	428,959	-0,014	-0,022
-431,905	-90,661	-0,032	0,007
-430,890	-59,770	0,146	0,045
-429,876	185,914	0,118	0,127
-428,861	-59,820	0,087	0,027
-427,846	616,218	0,056	0,103
-426,832	136,498	-0,064	0,061
-425,817	-120,701	-0,069	0,008
-424,803	-117,670	-0,031	0,004
-423,788	126,917	0,070	0,064
-422,773	-136,569	0,037	-0,003
-421,759	107,566	-0,049	0,042
-420,744	-181,509	-0,050	0,001
-419,730	243,996	0,056	-0,068
-418,715	-83,842	-0,101	0,023
-417,701	230,471	0,089	-0,106
-416,686	-33,390	0,049	0,019
-415,671	800,000	0,043	-0,096
-414,657	800,000	0,019	0,045
-413,642	-16,040	-0,106	-0,049
-412,628	-197,837	-0,137	0,001
-411,613	800,000	-0,025	-0,061
-410,598	-72,756	-0,031	-0,008
-409,584	800,000	0,039	-0,095
-408,569	-41,419	0,126	-0,047
-407,555	125,070	0,101	0,092
-406,540	31,037	0,121	0,075
-405,525	131,050	0,119	-0,111
-404,511	159,860	0,011	0,011
-403,496	800,000	-0,027	0,067
-402,482	-154,457	-0,108	-0,005
-401,467	-72,675	-0,023	-0,006
-400,452	-69,843	0,045	0,012
-399,438	49,539	0,045	0,031
-398,423	-200,000	0,003	0,072
-397,409	199,456	-0,064	-0,072
-396,394	-200,000	-0,009	-0,052
-395,379	-124,587	0,063	0,007
-394,365	-200,000	-0,038	0,122
-393,350	-200,000	0,015	0,058
-392,336	800,000	0,019	0,041
-391,321	800,000	0,009	-0,021
-390,306	-110,038	-0,207	-0,031
-389,292	586,893	0,063	-0,114
-388,277	557,445	0,064	-0,112
-387,263	639,745	0,008	0,015
-386,248	800,000	0,037	0,094
-385,233	97,894	0,073	0,061
-384,219	-200,000	0,014	0,113
-383,204	-200,000	-0,001	-0,112
-382,190	-74,897	0,067	-0,017
-381,175	227,974	0,030	0,035
-380,160	-28,892	0,090	0,037
-379,146	-44,834	0,093	0,033
-378,131	-70,274	-0,080	-0,022
-377,117	-200,000	-0,002	0,014
-376,102	141,320	-0,077	0,074
-375,088	35,036	-0,201	-0,128
-374,073	800,000	-0,043	-0,089
-373,058	39,719	0,063	0,041
-372,044	-49,622	0,144	0,049
-371,029	-200,000	-0,015	0,103
-370,015	800,000	0,036	-0,091
-369,000	-200,000	0,016	-0,056
-367,985	-155,428	0,037	-0,002
-366,971	-56,883	0,031	-0,010
-365,956	-200,000	-0,009	0,069
-364,942	31,504	0,165	0,103
-363,927	-53,327	0,120	0,040
-362,912	-200,000	-0,025	0,103
-361,898	-90,802	-0,079	0,016
-360,883	-69,684	0,059	0,016
-359,869	-165,021	0,081	-0,003
-358,854	-200,000	-0,009	-0,088
-357,839	-104,877	0,164	0,027
-356,825	-17,727	0,131	0,059
-355,810	218,265	0,030	0,035
-354,796	123,146	-0,056	-0,051
-353,781	-117,975	0,038	-0,005
-352,766	800,000	-0,032	-0,068
-351,752	-200,000	-0,010	0,034
-350,737	603,216	0,045	0,081
-349,723	-14,052	-0,141	-0,066
-348,708	-136,693	0,065	-0,005
-347,693	368,319	-0,040	-0,059
-346,679	111,189	0,119	-0,104
-345,664	-160,735	-0,116	0,004
-344,650	-0,116	0,056	0,029
-343,635	740,882	0,061	-0,119
-342,620	16,408	-0,045	0,026
-341,606	120,182	-0,096	0,087
-340,591	-0,575	-0,034	-0,017
-339,577	205,286	-0,051	-0,058
-338,562	-95,507	0,132	-0,025
-337,548	-200,000	0,017	-0,065
-336,533	32,632	-0,062	-0,039
-335,518	-200,000	0,024	-0,089
-334,504	745,764	-0,017	-0,032
-333,489	800,000	-0,041	0,088
-332,475	-109,378	-0,116	0,018
-331,460	-200,000	0,007	-0,042
-330,445	-94,790	0,064	0,012
-329,431	-132,389	0,104	0,010
-328,416	800,000	-0,038	0,093
-327,402	-9,216	0,072	-0,035
-326,387	-79,785	-0,080	-0,019
-325,372	445,132	-0,019	-0,030
-324,358	86,210	-0,008	0,007
-323,343	354,303	-0,025	-0,037
-322,329	-200,000	0,001	0,058
-321,314	38,288	0,114	-0,073
-320,299	-200,000	0,036	0,000
-319,285	564,385	-0,020	-0,036
-318,270	800,000	-0,003	0,010
-317,256	-70,107	0,026	-0,007
-316,241	-200,000	0,000	-0,068
-315,226	194,770	-0,018	0,020
-314,212	-200,000	0,004	0,086
-313,197	-126,538	-0,080	0,008
-312,183	800,000	-0,031	-0,092
-311,168	-128,885	-0,120	0,012
-310,153	-116,853	0,071	-0,009
-309,139	66,140	-0,073	-0,053
-308,124	332,523	-0,019	-0,026
-307,110	800,000	-0,026	-0,073
-306,095	659,975	0,025	-0,046
-305,080	-86,511	-0,086	0,019
-304,066	209,700	0,025	0,028
-303,051	-200,000	-0,017	0,114
-302,037	37,182	0,098	0,063
-301,022	-129,762	-0,039	-0,004
-300,008	510,070	-0,043	0,073
-298,993	189,883	0,048	0,052
-297,978	294,660	-0,066	0,088
-296,964	-200,000	0,013	0,135
-295,949	-24,854	0,028	-0,012
-294,935	800,000	0,054	-0,160
-293,920	311,982	0,040	0,054
-292,905	800,000	-0,011	-0,022
-291,891	181,356	-0,191	0,203
-290,876	-43,005	-0,024	-0,009
-289,862	209,215	-0,077	0,087
-288,847	34,054	-0,040	-0,025
-287,832	-200,000	-0,004	-0,024
-286,818	800,000	0,033	0,077
-285,803	20,219	0,149	0,087
-284,789	800,000	-0,026	-0,060
-283,774	-78,299	0,151	0,037
-282,759	800,000	-0,055	-0,126
-281,745	233,501	-0,074	-0,088
-280,730	-39,509	-0,160	-0,060
-279,716	412,928	0,024	-0,038
-278,701	-129,393	0,160	-0,016
-277,686	-127,414	-0,085	-0,009
-276,672	-200,000	0,018	0,095
-275,657	188,236	-0,017	-0,019
-274,643	397,067	0,087	-0,132
-273,628	472,350	-0,046	0,075
-272,613	-200,000	-0,017	-0,071
-271,599	-200,000	-0,006	-0,180
-270,584	-70,837	0,052	0,014
-269,570	352,741	0,078	0,112
-268,555	172,562	-0,109	-0,114
-267,540	41,384	-0,089	-0,058
-266,526	24,102	0,115	-0,069
-265,511	-46,883	0,065	-0,023
-264,497	52,453	0,143	0,098
-263,482	37,228	0,056	0,036
-262,467	83,487	-0,040	-0,031
-261,453	523,529	0,038	0,065
-260,438	-192,587	-0,123	0,001
-259,424	800,000	-0,014	-0,036
-258,409	343,691	0,047	0,067
-257,395	-8,068	-0,030	0,015
-256,380	-6,563	0,098	0,048
-255,365	-49,053	0,028	0,010
-254,351	135,651	-0,070	-0,066
-253,336	88,920	-0,072	-0,058
-252,322	800,000	-0,005	0,013
-251,307	-200,000	-0,010	0,066
-250,292	138,030	-0,063	-0,059
-249,278	147,249	-0,046	-0,044
-248,263	16,893	-0,066	-0,038
-247,249	800,000	0,023	0,070
-246,234	-200,000	0,006	0,073
-245,219	-70,396	0,053	0,014
-244,205	-200,000	-0,001	-0,149
-243,190	4,971	-0,145	-0,077
-242,176	43,279	0,136	-0,090
-241,161	41,809	-0,037	0,024
-240,146	206,794	-0,013	-0,014
-239,132	-83,772	0,058	-0,013
-238,117	-72,677	-0,107	-0,028
-237,103	358,319	-0,050	-0,072
-236,088	-14,174	-0,067	-0,031
-235,073	-200,000	-0,010	-0,083
-234,059	-166,780	0,021	-0,001
-233,044	-200,000	-0,010	0,103
-232,030	-90,116	-0,032	-0,007
-231,015	349,026	-0,011	0,016
-230,000	87,917	-0,028	0,022
-228,986	335,313	-0,082	0,115
-227,971	-200,000	-0,001	0,055
-226,957	800,000	0,030	0,063
-225,942	-9,826	0,060	0,029
-224,927	430,434	-0,066	-0,104
-223,913	-89,087	0,053	0,011
-222,898	-200,000	-0,031	-0,173
-221,884	-200,000	-0,008	-0,072
-220,869	-200,000	-0,009	-0,061
-219,855	-85,296	0,068	-0,015
-218,840	-200,000	0,005	-0,044
-217,825	-200,000	0,037	-0,152
-216,811	-200,000	0,014	-0,089
-215,796	379,615	-0,057	-0,085
-214,782	187,407	-0,031	-0,034
-213,767	-77,918	0,070	-0,017
-212,752	80,183	0,049	0,038
-211,738	-200,000	0,009	0,108
-210,723	800,000	-0,019	0,039
-209,709	36,536	-0,104	-0,066
-208,694	800,000	0,045	0,119
-207,679	-200,000	-0,007	-0,082
-206,665	-27,741	-0,041	-0,017
-205,650	347,881	0,102	-0,145
-204,636	-132,370	0,107	0,010
-203,621	-200,000	-0,023	0,123
-202,606	62,267	0,085	-0,061
-201,592	1,992	0,067	0,035
-200,577	77,684	0,110	-0,084
-199,563	29,461	-0,088	0,054
-198,548	-200,000	0,034	0,129
-197,533	800,000	0,034	0,086
-196,519	-51,982	0,060	-0,020
-195,504	-41,826	-0,112	0,041
-194,490	109,185	-0,142	-0,122
-193,475	407,910	0,108	-0,165
-192,460	-200,000	0,012	0,045
-191,446	126,515	0,106	0,097
-190,431	-79,499	-0,170	-0,041
-189,417	72,082	0,111	0,083
-188,402	800,000	-0,060	0,139
-187,387	181,973	-0,075	-0,080
-186,373	76,756	-0,074	-0,056
-185,358	-200,000	0,025	-0,124
-184,344	-115,618	-0,035	0,005
-183,329	83,312	0,086	0,067
-182,315	45,015	-0,105	0,069
-181,300	148,496	0,054	0,053
-180,285	-11,841	-0,134	-0,063
-179,271	-200,000	0,018	-0,063
-178,256	-200,000	-0,015	-0,096
-177,242	-200,000	0,016	-0,064
-176,227	-81,575	-0,038	-0,009
-175,212	-200,000	-0,003	-0,027
-174,198	0,403	-0,136	-0,069
-173,183	800,000	0,035	0,078
-172,169	-24,141	-0,060	0,026
-171,154	497,948	-0,086	-0,144
-170,139	-0,954	0,170	0,086
-169,125	57,361	0,047	0,033
-168,110	-67,635	0,183	-0,051
-167,096	97,991	-0,150	0,124
-166,081	-200,000	-0,012	0,079
-165,066	-185,715	0,171	-0,002
-164,052	85,317	-0,197	-0,156
-163,037	143,610	0,085	0,082
-162,023	-164,130	0,055	-0,002
-161,008	-200,000	-0,010	-0,219
-159,993	444,019	0,035	0,055
-158,979	195,976	0,100	-0,110
-157,964	-200,000	0,000	-0,147
-156,950	800,000	-0,082	0,165
-155,935	-122,033	-0,030	0,004
-154,920	800,000	0,057	-0,177
-153,906	9,284	0,016	-0,009
-152,891	147,987	-0,041	0,040
-151,877	95,247	-0,080	0,065
-150,862	800,000	-0,007	0,018
-149,847	786,146	0,065	0,130
-148,833	-136,164	0,115	0,010
-147,818	800,000	0,018	0,053
-146,804	-10,948	-0,089	0,042
-145,789	-55,302	0,101	-0,032
-144,775	-47,439	-0,178	-0,062
-143,760	-200,000	-0,007	-0,117
-142,745	-200,000	-0,011	0,137
-141,731	-88,538	0,145	-0,031
-140,716	-178,901	0,072	-0,001
-139,702	41,052	0,090	-0,058
-138,687	-200,000	0,011	-0,182
-137,672	-37,836	0,035	0,013
-136,658	-82,872	-0,079	-0,018
-135,643	144,312	0,024	0,023
-134,629	-200,000	0,011	-0,065
-133,614	800,000	0,030	-0,074
-132,599	-200,000	-0,018	0,112
-131,585	-64,448	0,081	-0,023
-130,570	30,310	-0,190	-0,116
-129,556	31,325	0,007	0,004
-128,541	-200,000	0,013	-0,098
-127,526	-200,000	0,008	-0,098
-126,512	-200,000	-0,013	0,052
-125,497	79,445	0,023	0,017
-124,483	-200,000	-0,006	0,032
-123,468	-45,946	-0,181	-0,064
-122,453	-200,000	-0,007	-0,076
-121,439	-115,814	-0,055	-0,007
-120,424	119,782	0,028	0,025
-119,410	-154,192	-0,051	0,002
