DTS Sentinel unit serial number:	SN410029Multiplexer serial number:	ORYXHardware model number:	OX2-SRSoftware version number:	ORYX F/W v4,00 Oryx Data Collector v3.7.2.0data status	okinstallation	B6 Nyhavnadifferential loss correction	single-endedforward channel	channel 2reverse channel	N/Adate	2023/12/08time	05:55:08forward acquisition time	300,00reverse acquisition time	0,00gamma	499,1914k internal	0,3165k external	0,3165temperature offset calibration	1,0000default loss term (dB/km)	0,3820temperature slope calibration	1,0000multiplexer offset coefficient	1,0000multiplexer slope coefficient	1,0000fibre end	0,00T internal ref (°C)	13,00T ext. ref 1 (°C)	-3,85T ext. ref 2 (°C)	-3,83length (m)	temperature (°C)	Stokes	anti-Stokes-744,400	-37,600	0,124	0,048
-743,385	-98,903	-0,301	0,056
-742,371	-88,231	0,068	-0,015
-741,356	-144,154	-0,350	-0,024
-740,342	-13,354	0,111	0,053
-739,327	-19,909	-0,285	-0,129
-738,312	13,818	0,112	-0,064
-737,298	-172,075	-0,373	0,009
-736,283	5,537	0,263	0,142
-735,269	-108,344	-0,352	0,055
-734,254	56,688	0,134	0,096
-733,239	-51,527	-0,476	-0,162
-732,225	-146,946	0,246	-0,015
-731,210	429,338	0,110	0,175
-730,196	-68,040	-0,147	-0,042
-729,181	149,396	0,070	0,069
-728,167	-119,051	-0,054	0,007
-727,152	212,161	0,075	-0,087
-726,137	136,300	0,034	-0,033
-725,123	800,000	0,040	-0,114
-724,108	-31,085	-0,225	-0,093
-723,094	199,259	-0,120	-0,136
-722,079	-200,000	0,017	-0,076
-721,064	-200,000	0,015	-0,060
-720,050	-103,699	-0,039	-0,007
-719,035	238,092	0,077	0,095
-718,021	-110,085	-0,126	0,019
-717,006	72,737	-0,042	0,033
-715,991	-200,000	0,006	-0,033
-714,977	-18,712	-0,077	-0,035
-713,962	521,579	-0,019	-0,033
-712,948	3,538	-0,016	-0,009
-711,933	-31,161	-0,165	-0,068
-710,918	-200,000	0,002	-0,162
-709,904	-200,000	0,015	-0,097
-708,889	0,627	0,033	0,018
-707,875	-20,442	-0,073	0,033
-706,860	-153,330	0,190	-0,010
-705,845	8,007	-0,119	-0,065
-704,831	-124,730	0,131	0,015
-703,816	-200,000	-0,015	0,083
-702,802	-50,797	-0,066	0,023
-701,787	-25,422	0,036	-0,016
-700,772	188,543	0,076	-0,083
-699,758	-200,000	-0,004	-0,080
-698,743	67,560	0,069	0,052
-697,729	-3,809	0,071	0,036
-696,714	56,277	-0,120	0,086
-695,699	-121,426	-0,088	-0,011
-694,685	21,456	0,039	0,023
-693,670	-138,143	-0,099	-0,008
-692,656	421,044	-0,060	-0,095
-691,641	800,000	-0,046	-0,134
-690,627	-112,831	-0,052	-0,008
-689,612	-90,878	0,036	-0,008
-688,597	65,984	-0,135	0,100
-687,583	800,000	0,086	-0,198
-686,568	800,000	0,056	0,132
-685,554	-79,703	-0,057	-0,014
-684,539	-83,543	0,074	0,017
-683,524	162,387	0,039	-0,041
-682,510	-69,701	0,120	-0,033
-681,495	-120,651	-0,066	0,008
-680,481	-0,013	-0,145	-0,076
-679,466	208,848	-0,061	-0,070
-678,451	209,508	-0,057	-0,066
-677,437	-3,233	0,137	-0,070
-676,422	-200,000	-0,009	0,075
-675,408	0,642	-0,083	0,043
-674,393	64,589	0,049	0,036
-673,378	-200,000	0,007	-0,056
-672,364	9,412	-0,067	-0,037
-671,349	580,724	-0,074	-0,134
-670,335	170,161	-0,028	0,030
-669,320	800,000	0,049	0,129
-668,305	108,136	-0,027	0,023
-667,291	67,364	-0,038	-0,029
-666,276	800,000	0,045	-0,102
-665,262	374,033	-0,105	-0,158
-664,247	128,379	0,102	0,095
-663,232	180,080	-0,077	0,082
-662,218	184,110	0,034	0,037
-661,203	-27,455	0,018	0,008
-660,189	-200,000	0,013	0,131
-659,174	190,404	-0,136	-0,149
-658,159	18,327	-0,174	-0,102
-657,145	-200,000	0,003	0,057
-656,130	460,481	-0,082	0,135
-655,116	195,776	-0,046	-0,051
-654,101	-79,782	0,162	-0,040
-653,086	-34,633	-0,107	0,043
-652,072	489,339	0,043	0,072
-651,057	800,000	-0,022	0,058
-650,043	-33,987	-0,037	-0,015
-649,028	41,285	-0,016	0,011
-648,014	28,155	0,063	-0,039
-646,999	76,470	-0,095	-0,074
-645,984	-10,603	0,056	-0,027
-644,970	37,673	-0,080	-0,052
-643,955	800,000	-0,017	-0,053
-642,941	56,810	-0,065	-0,046
-641,926	-39,786	0,144	-0,055
-640,911	-65,892	0,098	-0,028
-639,897	355,780	-0,110	0,160
-638,882	51,394	-0,034	-0,024
-637,868	-64,424	-0,077	-0,023
-636,853	177,318	-0,070	-0,075
-635,838	378,368	0,053	0,079
-634,824	5,918	-0,087	0,047
-633,809	-180,178	-0,127	-0,002
-632,795	267,686	-0,046	0,058
-631,780	800,000	-0,044	0,107
-630,765	-66,480	0,141	0,041
-629,751	800,000	0,010	-0,023
-628,736	628,394	-0,058	-0,107
-627,722	69,518	-0,077	-0,058
-626,707	800,000	0,063	0,167
-625,692	-200,000	-0,001	0,103
-624,678	745,086	-0,083	-0,165
-623,663	-200,000	0,002	0,109
-622,649	14,982	0,044	0,025
-621,634	-4,734	-0,102	-0,052
-620,619	506,728	-0,092	-0,157
-619,605	-110,241	0,096	-0,015
-618,590	-114,850	-0,022	0,003
-617,576	-144,660	-0,143	-0,009
-616,561	343,170	0,069	-0,099
-615,546	-200,000	0,001	0,134
-614,532	1,506	-0,062	0,033
-613,517	475,974	0,047	0,078
-612,503	-200,000	0,004	0,182
-611,488	-200,000	0,015	0,052
-610,474	-200,000	0,008	0,103
-609,459	-134,049	0,071	-0,006
-608,444	-35,881	-0,129	0,051
-607,430	124,958	-0,065	0,060
-606,415	-132,235	0,073	0,007
-605,401	-157,862	0,148	0,006
-604,386	183,298	0,047	0,051
-603,371	800,000	0,072	-0,146
-602,357	-200,000	0,006	-0,041
-601,342	115,810	-0,026	0,023
-600,328	-138,419	0,061	0,005
-599,313	-200,000	0,021	-0,070
-598,298	-200,000	0,013	-0,088
-597,284	-200,000	-0,004	-0,057
-596,269	-200,000	0,002	0,113
-595,255	344,394	0,043	0,062
-594,240	-52,359	-0,078	0,026
-593,225	291,204	-0,129	-0,172
-592,211	-200,000	0,021	-0,109
-591,196	187,728	-0,095	-0,104
-590,182	-200,000	-0,009	0,100
-589,167	-200,000	-0,017	-0,082
-588,152	-200,000	0,026	-0,095
-587,138	185,657	-0,080	0,087
-586,123	-200,000	-0,020	-0,129
-585,109	200,473	-0,128	-0,144
-584,094	39,800	0,127	-0,083
-583,079	-200,000	0,003	-0,059
-582,065	311,060	-0,003	-0,004
-581,050	222,877	-0,098	-0,116
-580,036	-88,706	0,018	0,004
-579,021	443,052	0,074	0,118
-578,006	171,036	-0,057	-0,060
-576,992	38,791	-0,026	-0,017
-575,977	-200,000	-0,027	0,124
-574,963	-156,411	-0,201	0,009
-573,948	-200,000	0,016	0,074
-572,934	800,000	0,073	0,164
-571,919	325,833	0,007	-0,010
-570,904	-200,000	0,001	-0,065
-569,890	-200,000	0,000	0,016
-568,875	-109,965	-0,027	0,004
-567,861	-128,728	0,092	0,009
-566,846	197,586	0,048	-0,054
-565,831	800,000	-0,037	0,086
-564,817	-118,464	-0,069	0,009
-563,802	800,000	-0,064	-0,164
-562,788	-200,000	0,028	-0,212
-561,773	-200,000	0,004	-0,067
-560,758	-112,499	0,072	-0,010
-559,744	-114,462	-0,056	0,008
-558,729	-200,000	-0,004	-0,016
-557,715	-120,313	-0,059	-0,007
-556,700	-39,137	-0,073	-0,028
-555,685	-117,897	0,048	0,006
-554,671	35,145	-0,113	-0,072
-553,656	800,000	-0,021	-0,055
-552,642	247,936	0,010	0,013
-551,627	46,237	-0,023	-0,015
-550,612	44,514	0,111	0,074
-549,598	-41,613	0,063	0,024
-548,583	-200,000	0,031	-0,131
-547,569	114,021	0,022	-0,020
-546,554	-200,000	0,011	-0,039
-545,539	800,000	0,005	-0,010
-544,525	-95,093	-0,113	0,022
-543,510	-81,897	0,100	0,024
-542,496	-21,235	-0,157	-0,070
-541,481	84,647	-0,104	-0,083
-540,466	94,267	0,047	-0,039
-539,452	-93,638	0,224	0,045
-538,437	41,437	0,118	0,078
-537,423	-32,942	-0,045	0,018
-536,408	800,000	0,012	-0,037
-535,393	15,532	0,018	-0,010
-534,379	800,000	-0,029	-0,078
-533,364	800,000	0,033	-0,069
-532,350	800,000	-0,010	-0,028
-531,335	800,000	0,022	-0,053
-530,321	-135,968	-0,076	0,006
-529,306	-123,669	0,022	-0,003
-528,291	304,362	0,021	0,028
-527,277	-86,316	-0,057	0,013
-526,262	4,056	0,072	0,038
-525,248	-200,000	0,002	0,022
-524,233	278,245	0,083	0,108
-523,218	322,156	-0,016	-0,023
-522,204	-24,453	0,078	0,034
-521,189	800,000	0,028	0,067
-520,175	42,034	-0,132	-0,087
-519,160	-52,775	-0,039	-0,013
-518,145	98,246	-0,046	0,038
-517,131	-200,000	-0,008	0,059
-516,116	-31,011	-0,103	0,042
-515,102	-86,944	0,062	-0,014
-514,087	-53,292	-0,037	-0,012
-513,072	338,233	0,062	-0,088
-512,058	-200,000	-0,011	0,121
-511,043	153,876	0,061	-0,061
-510,029	-163,709	0,200	0,007
-509,014	337,388	-0,030	0,042
-507,999	-200,000	0,002	-0,016
-506,985	20,519	0,074	-0,043
-505,970	79,281	-0,036	-0,028
-504,956	-30,749	-0,047	-0,019
-503,941	71,228	0,083	0,063
-502,926	-142,646	0,081	-0,006
-501,912	-200,000	0,014	0,065
-500,897	99,852	0,032	0,027
-499,883	-200,000	0,020	-0,131
-498,868	-162,137	-0,101	-0,004
-497,853	-200,000	0,016	0,052
-496,839	24,556	-0,030	-0,018
-495,824	247,043	0,056	0,068
-494,810	2,207	0,118	-0,062
-493,795	-200,000	-0,012	0,106
-492,781	-40,560	-0,121	-0,046
-491,766	-200,000	-0,010	-0,121
-490,751	13,720	-0,055	0,031
-489,737	800,000	0,074	-0,154
-488,722	-200,000	-0,007	0,027
-487,708	349,648	0,085	0,123
-486,693	800,000	0,020	0,061
-485,678	266,326	-0,096	-0,122
-484,664	11,233	-0,065	-0,036
-483,649	-87,353	-0,054	-0,012
-482,635	-200,000	-0,047	-0,211
-481,620	-200,000	-0,010	-0,059
-480,605	-94,833	0,074	-0,015
-479,591	-200,000	0,023	0,172
-478,576	519,525	0,061	0,104
-477,562	598,130	-0,033	-0,060
-476,547	162,470	0,039	-0,040
-475,532	214,356	0,038	0,044
-474,518	134,039	-0,122	0,115
-473,503	616,877	0,010	-0,018
-472,489	-200,000	0,002	-0,131
-471,474	322,295	-0,083	0,115
-470,459	178,328	0,029	-0,031
-469,445	800,000	0,055	-0,124
-468,430	-36,861	0,084	0,032
-467,416	-200,000	-0,018	0,119
-466,401	42,870	0,105	-0,070
-465,386	-109,863	-0,071	-0,011
-464,372	-12,911	0,030	0,014
-463,357	-30,994	-0,112	0,046
-462,343	-200,000	-0,008	-0,121
-461,328	83,380	0,067	0,053
-460,313	-123,588	0,120	-0,014
-459,299	800,000	0,050	0,121
-458,284	800,000	0,025	0,072
-457,270	184,968	-0,140	0,151
-456,255	-147,284	-0,168	0,010
-455,241	160,793	0,062	0,063
-454,226	-186,836	0,060	0,001
-453,211	50,262	-0,079	0,054
-452,197	467,222	-0,027	0,044
-451,182	154,573	0,108	0,108
-450,168	-200,000	-0,001	0,052
-449,153	-163,642	0,062	0,002
-448,138	446,357	-0,024	-0,038
-447,124	43,651	-0,092	0,061
-446,109	188,765	0,063	0,068
-445,095	-200,000	-0,011	0,111
-444,080	380,408	0,008	-0,012
-443,065	-110,852	0,056	0,008
-442,051	21,368	-0,164	0,096
-441,036	677,143	0,052	-0,098
-440,022	-13,094	0,114	-0,053
-439,007	-104,882	-0,032	0,005
-437,992	-48,077	0,092	-0,032
-436,978	-51,083	0,009	-0,003
-435,963	313,407	-0,063	0,087
-434,949	5,917	-0,015	-0,008
-433,934	518,151	0,066	-0,113
-432,919	800,000	-0,021	0,045
-431,905	-48,128	-0,092	0,032
-430,890	109,716	0,149	-0,130
-429,876	95,362	-0,071	-0,059
-428,861	444,401	-0,078	0,125
-427,846	551,667	0,027	0,048
-426,832	-123,241	-0,188	0,022
-425,817	800,000	-0,052	0,120
-424,803	-200,000	-0,001	0,072
-423,788	-14,530	0,076	0,035
-422,773	95,744	-0,058	-0,048
-421,759	-200,000	-0,006	0,018
-420,744	-150,786	-0,101	-0,005
-419,730	99,598	-0,068	-0,057
-418,715	754,406	0,031	-0,062
-417,701	183,493	0,025	0,026
-416,686	-200,000	-0,000	-0,083
-415,671	-200,000	0,002	0,031
-414,657	-11,829	0,026	-0,012
-413,642	96,286	-0,125	0,104
-412,628	-200,000	-0,011	-0,041
-411,613	-65,559	-0,020	0,006
-410,598	117,692	-0,032	-0,029
-409,584	-200,000	0,144	-0,000
-408,569	79,330	0,127	0,099
-407,555	-71,647	-0,023	0,006
-406,540	-200,000	0,012	0,161
-405,525	-200,000	0,057	0,187
-404,511	74,205	-0,090	0,069
-403,496	-80,653	-0,069	0,016
-402,482	-137,689	0,068	-0,005
-401,467	-200,000	0,013	-0,066
-400,452	14,972	0,169	0,096
-399,438	800,000	-0,056	0,124
-398,423	108,083	-0,042	0,037
-397,409	-29,216	-0,066	-0,027
-396,394	332,054	0,094	-0,132
-395,379	79,178	0,079	0,061
-394,365	41,071	0,049	0,032
-393,350	-60,040	0,154	-0,047
-392,336	172,111	-0,079	0,082
-391,321	563,955	-0,035	-0,061
-390,306	-109,554	0,145	-0,022
-389,292	-53,438	0,036	-0,012
-388,277	465,001	0,070	0,115
-387,263	-160,402	0,027	-0,001
-386,248	438,959	0,091	0,145
-385,233	-200,000	0,001	0,018
-384,219	405,407	0,019	0,029
-383,204	-85,994	-0,064	0,014
-382,190	-6,712	0,067	0,033
-381,175	-200,000	-0,016	-0,071
-380,160	521,177	-0,079	-0,134
-379,146	-81,754	-0,066	-0,016
-378,131	-54,487	-0,063	-0,021
-377,117	800,000	0,019	0,050
-376,102	1,623	-0,093	-0,049
-375,088	-200,000	-0,022	0,115
-374,073	800,000	-0,067	0,139
-373,058	-200,000	-0,002	-0,021
-372,044	21,317	0,108	0,063
-371,029	155,360	0,140	0,140
-370,015	-57,250	0,037	-0,012
-369,000	800,000	0,042	-0,121
-367,985	-200,000	0,005	-0,029
-366,971	137,562	-0,015	0,014
-365,956	6,907	0,159	-0,085
-364,942	245,996	0,062	0,076
-363,927	-103,909	0,199	0,033
-362,912	0,138	-0,013	0,007
-361,898	230,607	-0,004	-0,005
-360,883	-200,000	-0,000	0,084
-359,869	219,987	0,073	-0,085
-358,854	40,272	0,064	0,042
-357,839	-180,561	-0,102	-0,001
-356,825	-200,000	0,001	-0,032
-355,810	-200,000	0,015	-0,082
-354,796	-20,104	0,018	0,008
-353,781	-200,000	0,017	0,062
-352,766	40,327	-0,100	0,065
-351,752	800,000	0,042	0,094
-350,737	-94,272	0,099	0,019
-349,723	105,923	-0,026	0,022
-348,708	392,776	-0,046	0,070
-347,693	-156,173	-0,205	0,009
-346,679	-30,499	-0,036	-0,015
-345,664	-73,756	-0,063	0,016
-344,650	21,475	-0,111	0,065
-343,635	-153,273	0,145	-0,007
-342,620	-33,139	-0,012	0,005
-341,606	181,509	-0,026	0,028
-340,591	-56,320	-0,058	0,019
-339,577	-132,121	-0,088	-0,008
-338,562	-33,071	0,045	-0,018
-337,548	-101,014	-0,133	-0,023
-336,533	-52,701	-0,117	-0,039
-335,518	800,000	0,019	-0,061
-334,504	127,166	-0,101	-0,092
-333,489	54,488	-0,108	-0,075
-332,475	75,804	-0,091	-0,069
-331,460	342,384	0,062	-0,088
-330,445	68,740	-0,100	0,074
-329,431	-82,856	0,067	-0,016
-328,416	-200,000	0,038	0,185
-327,402	58,535	-0,022	0,016
-326,387	-200,000	0,015	0,059
-325,372	177,173	0,098	0,103
-324,358	4,105	-0,063	-0,033
-323,343	365,555	0,047	0,069
-322,329	-16,263	-0,040	0,018
-321,314	-108,803	0,106	0,016
-320,299	-200,000	0,004	0,042
-319,285	91,138	-0,030	-0,024
-318,270	169,165	-0,227	-0,235
-317,256	-90,703	-0,075	-0,016
-316,241	680,750	-0,011	-0,020
-315,226	-200,000	0,022	0,081
-314,212	-103,254	0,133	-0,023
-313,197	-164,953	0,096	0,003
-312,183	499,644	-0,056	0,094
-311,168	417,258	-0,047	-0,072
-310,153	-200,000	-0,019	0,000
-309,139	0,513	0,162	-0,083
-308,124	-200,000	-0,013	0,045
-307,110	21,873	0,016	-0,009
-306,095	-187,550	0,144	-0,001
-305,080	-69,896	-0,136	-0,037
-304,066	-200,000	0,001	0,035
-303,051	-200,000	0,016	0,156
-302,037	710,364	-0,016	0,030
-301,022	309,145	-0,035	-0,047
-300,008	233,803	0,132	-0,158
-298,993	-200,000	0,016	0,143
-297,978	800,000	0,021	0,048
-296,964	270,976	-0,058	-0,074
-295,949	39,592	0,097	-0,063
-294,935	-63,998	0,115	0,034
-293,920	-200,000	-0,009	-0,042
-292,905	-130,524	0,150	-0,014
-291,891	-69,439	-0,094	-0,026
-290,876	-29,001	0,035	-0,014
-289,862	209,987	-0,111	-0,126
-288,847	20,245	-0,127	-0,074
-287,832	-200,000	-0,012	-0,038
-286,818	-200,000	0,002	0,109
-285,803	199,015	0,028	0,031
-284,789	-30,259	-0,137	-0,056
-283,774	800,000	0,052	0,109
-282,759	327,924	-0,029	0,040
-281,745	330,276	-0,072	-0,101
-280,730	196,826	0,087	-0,096
-279,716	-200,000	-0,010	0,041
-278,701	29,902	0,078	-0,048
-277,686	57,403	-0,182	0,128
-276,672	18,183	0,063	0,036
-275,657	611,784	-0,034	-0,062
-274,643	-103,008	-0,070	0,012
-273,628	-7,130	-0,076	-0,037
-272,613	332,959	-0,019	-0,026
-271,599	-0,524	0,082	0,042
-270,584	800,000	0,018	-0,037
-269,570	-12,781	0,054	-0,026
-268,555	-200,000	0,008	0,095
-267,540	-40,616	0,112	0,042
-266,526	-172,360	-0,152	-0,003
-265,511	-117,709	0,089	0,011
-264,497	30,091	-0,065	0,040
-263,482	-200,000	0,018	0,061
-262,467	-108,341	-0,109	-0,017
-261,453	-18,671	0,130	0,058
-260,438	399,289	-0,124	-0,188
-259,424	800,000	-0,003	-0,007
-258,409	-200,000	-0,005	0,096
-257,395	800,000	0,026	-0,055
-256,380	800,000	0,049	-0,142
-255,365	22,532	-0,072	-0,043
-254,351	-200,000	-0,000	-0,068
-253,336	800,000	0,069	-0,173
-252,322	-200,000	0,000	0,015
-251,307	190,813	-0,029	-0,031
-250,292	-19,048	0,080	0,036
-249,278	31,491	0,097	0,060
-248,263	734,722	-0,086	-0,166
-247,249	-131,202	0,074	-0,007
-246,234	481,163	0,069	-0,114
-245,219	-88,270	-0,062	0,013
-244,205	-200,000	-0,007	-0,070
-243,190	286,518	-0,081	0,106
-242,176	-200,000	-0,013	-0,045
-241,161	552,216	-0,031	0,054
-240,146	255,664	0,071	0,088
-239,132	-35,279	-0,023	0,009
-238,117	368,681	0,060	0,087
-237,103	-200,000	-0,007	-0,128
-236,088	-200,000	0,043	0,149
-235,073	-91,912	0,139	0,028
-234,059	49,019	0,075	-0,050
-233,044	-160,847	-0,088	-0,003
-232,030	-76,030	0,019	-0,005
-231,015	44,687	-0,064	-0,042
-230,000	-76,857	-0,089	0,022
-228,986	-200,000	-0,013	-0,104
-227,971	18,602	0,078	0,045
-226,957	41,916	-0,037	0,024
-225,942	-106,194	-0,117	-0,019
-224,927	144,361	0,029	0,028
-223,913	-64,813	0,072	0,021
-222,898	426,231	-0,020	0,031
-221,884	-200,000	-0,003	0,026
-220,869	-53,230	0,079	0,026
-219,855	47,829	0,105	0,071
-218,840	-200,000	0,012	0,053
-217,825	-134,296	-0,067	0,006
-216,811	800,000	-0,033	0,069
-215,796	800,000	-0,033	-0,075
-214,782	433,661	0,006	-0,009
-213,767	-73,730	-0,113	0,029
-212,752	-200,000	0,005	-0,033
-211,738	800,000	-0,017	-0,051
-210,723	516,425	0,020	0,033
-209,709	-107,400	0,071	0,011
-208,694	-82,305	-0,194	-0,045
-207,679	251,710	0,018	-0,022
-206,665	-39,115	-0,092	-0,035
-205,650	60,789	0,137	0,098
-204,636	188,251	0,111	-0,119
-203,621	-200,000	-0,014	0,100
-202,606	-20,648	-0,043	-0,019
-201,592	-200,000	0,021	-0,241
-200,577	-200,000	0,011	0,117
-199,563	-200,000	-0,038	-0,146
-198,548	800,000	-0,016	0,037
-197,533	-157,969	0,099	0,004
-196,519	32,789	0,121	0,075
-195,504	-200,000	-0,004	-0,016
-194,490	-43,006	-0,107	-0,039
-193,475	103,622	0,087	-0,074
-192,460	-200,000	0,003	-0,145
-191,446	-14,709	0,085	-0,039
-190,431	-45,524	0,071	0,025
-189,417	-47,000	0,127	-0,044
-188,402	238,151	0,074	-0,089
-187,387	424,998	-0,048	-0,075
-186,373	-200,000	0,012	-0,061
-185,358	643,697	0,082	-0,151
-184,344	-158,379	0,080	-0,003
-183,329	-200,000	-0,006	-0,065
-182,315	-31,216	-0,088	0,036
-181,300	-117,483	-0,134	0,017
-180,285	-45,340	-0,056	-0,020
-179,271	158,857	-0,024	0,024
-178,256	-90,672	-0,062	0,013
-177,242	-159,734	-0,118	-0,005
-176,227	-200,000	-0,013	0,078
-175,212	-177,659	0,078	0,001
-174,198	306,070	-0,073	0,098
-173,183	-147,853	0,106	0,006
-172,169	111,130	-0,085	0,073
-171,154	-91,377	0,170	-0,035
-170,139	27,592	-0,027	-0,016
-169,125	373,866	-0,105	0,154
-168,110	175,663	0,051	0,054
-167,096	-56,207	-0,111	0,035
-166,081	-200,000	-0,000	0,002
-165,066	-97,175	-0,102	-0,019
-164,052	-139,968	0,107	-0,008
-163,037	800,000	-0,058	0,152
-162,023	-200,000	0,017	0,060
-161,008	78,350	-0,117	-0,089
-159,993	-200,000	0,014	0,044
-158,979	54,864	-0,048	-0,033
-157,964	-75,599	0,173	-0,044
-156,950	-200,000	-0,002	-0,100
-155,935	-35,557	0,080	-0,031
-154,920	20,844	0,117	0,068
-153,906	173,704	0,084	-0,087
-152,891	703,245	-0,058	-0,110
-151,877	358,476	-0,108	-0,156
-150,862	800,000	0,020	-0,052
-149,847	132,721	-0,051	-0,047
-148,833	93,329	0,079	-0,064
-147,818	800,000	0,049	0,108
-146,804	-173,588	0,101	-0,002
-145,789	11,322	-0,040	-0,022
-144,775	-50,421	0,193	-0,065
-143,760	472,390	-0,049	-0,080
-142,745	-171,591	-0,117	0,003
-141,731	628,143	0,076	-0,139
-140,716	403,798	0,056	0,085
-139,702	113,756	0,086	-0,075
-138,687	288,887	-0,023	0,030
-137,672	-96,425	0,070	-0,013
-136,658	133,213	-0,097	-0,090
-135,643	-200,000	0,040	-0,184
-134,629	-200,000	-0,003	-0,093
-133,614	422,937	0,038	0,058
-132,599	-118,629	0,085	0,011
-131,585	800,000	-0,041	0,108
-130,570	-145,230	-0,134	-0,009
-129,556	98,926	-0,059	-0,049
-128,541	-128,368	-0,064	-0,006
-127,526	-68,779	-0,050	-0,014
-126,512	178,531	0,019	-0,020
-125,497	53,229	0,052	-0,036
-124,483	38,677	0,023	-0,015
-123,468	-200,000	-0,012	0,068
-122,453	-80,399	-0,236	-0,056
-121,439	658,277	0,053	-0,099
-120,424	64,227	-0,144	0,104
-119,410	-133,533	0,125	-0,011
