DTS Sentinel unit serial number:	SN410029Multiplexer serial number:	ORYXHardware model number:	OX2-SRSoftware version number:	ORYX F/W v4,00 Oryx Data Collector v3.7.2.0data status	okinstallation	B6 Nyhavnadifferential loss correction	single-endedforward channel	channel 2reverse channel	N/Adate	2023/12/07time	12:50:08forward acquisition time	300,00reverse acquisition time	0,00gamma	499,1914k internal	0,3203k external	0,3203temperature offset calibration	1,0000default loss term (dB/km)	0,3820temperature slope calibration	1,0000multiplexer offset coefficient	1,0000multiplexer slope coefficient	1,0000fibre end	0,00T internal ref (°C)	10,76T ext. ref 1 (°C)	-2,84T ext. ref 2 (°C)	-2,81length (m)	temperature (°C)	Stokes	anti-Stokes-744,400	-66,101	0,097	-0,028
-743,385	-102,525	-0,221	-0,038
-742,371	-71,805	0,260	0,070
-741,356	-86,691	-0,380	0,084
-740,342	-52,805	0,189	0,063
-739,327	-131,741	-0,290	-0,027
-738,312	-8,409	0,176	0,086
-737,298	0,786	-0,387	-0,200
-736,283	-114,304	0,175	-0,024
-735,269	-42,783	-0,220	-0,081
-734,254	-133,038	0,090	0,008
-733,239	-25,546	-0,540	-0,230
-732,225	-168,554	0,172	0,005
-731,210	800,000	0,006	0,014
-730,196	-200,000	0,014	-0,107
-729,181	-43,955	0,090	0,033
-728,167	-108,273	-0,118	0,018
-727,152	-50,950	-0,101	0,034
-726,137	-79,969	0,087	0,021
-725,123	-85,394	0,057	0,013
-724,108	-117,492	-0,103	0,013
-723,094	17,100	0,062	-0,035
-722,079	187,469	-0,027	0,030
-721,064	-200,000	-0,035	0,159
-720,050	-13,273	-0,094	-0,044
-719,035	800,000	-0,016	-0,039
-718,021	-115,512	-0,074	0,010
-717,006	74,916	-0,103	-0,078
-715,991	22,036	-0,054	0,032
-714,977	71,274	0,031	-0,023
-713,962	-127,574	-0,025	0,003
-712,948	800,000	-0,041	-0,097
-711,933	-40,906	0,022	-0,008
-710,918	168,112	0,048	0,050
-709,904	633,505	0,073	-0,135
-708,889	-69,952	-0,045	-0,012
-707,875	-151,448	-0,104	-0,005
-706,860	785,191	-0,032	0,064
-705,845	-200,000	-0,010	0,069
-704,831	-7,127	0,083	0,041
-703,816	-139,718	-0,114	0,009
-702,802	-120,538	-0,182	-0,022
-701,787	-77,466	-0,106	-0,027
-700,772	-200,000	-0,025	-0,089
-699,758	-200,000	0,016	0,109
-698,743	-41,905	0,096	0,036
-697,729	122,261	0,045	0,041
-696,714	-29,470	0,061	0,025
-695,699	-115,444	-0,099	0,013
-694,685	-9,523	-0,171	-0,083
-693,670	18,653	-0,177	-0,102
-692,656	37,310	0,084	-0,054
-691,641	-138,822	-0,039	0,003
-690,627	-200,000	0,005	0,047
-689,612	800,000	-0,058	-0,144
-688,597	-200,000	0,022	-0,127
-687,583	800,000	-0,057	-0,180
-686,568	800,000	0,041	-0,096
-685,554	800,000	-0,021	-0,050
-684,539	-200,000	-0,012	-0,139
-683,524	800,000	0,032	0,083
-682,510	469,309	-0,028	0,045
-681,495	462,195	0,079	-0,128
-680,481	-200,000	-0,025	-0,135
-679,466	-200,000	0,023	-0,148
-678,451	-200,000	0,004	-0,136
-677,437	-200,000	0,003	0,101
-676,422	-10,718	-0,082	0,039
-675,408	114,587	0,028	-0,025
-674,393	-200,000	0,008	-0,048
-673,378	136,736	0,117	-0,111
-672,364	-200,000	0,009	0,030
-671,349	-200,000	0,042	-0,203
-670,335	345,327	0,051	0,072
-669,320	-118,236	0,102	-0,013
-668,305	70,030	0,067	-0,050
-667,291	-200,000	0,032	0,105
-666,276	106,123	-0,106	-0,091
-665,262	0,600	-0,121	-0,062
-664,247	-122,150	0,043	-0,005
-663,232	45,933	-0,157	0,105
-662,218	6,672	0,049	-0,026
-661,203	547,610	-0,099	-0,172
-660,189	-61,418	-0,078	0,024
-659,174	-200,000	-0,004	-0,052
-658,159	441,020	0,040	0,063
-657,145	174,315	-0,090	-0,094
-656,130	25,914	0,097	-0,058
-655,116	-60,634	0,136	0,041
-654,101	-200,000	0,014	0,095
-653,086	64,426	-0,105	0,076
-652,072	-46,190	-0,063	-0,022
-651,057	242,692	-0,070	-0,085
-650,043	-51,292	0,164	-0,055
-649,028	-200,000	0,054	-0,179
-648,014	-28,042	0,076	0,032
-646,999	-200,000	-0,030	0,099
-645,984	800,000	-0,041	0,108
-644,970	800,000	-0,084	0,184
-643,955	800,000	-0,043	-0,099
-642,941	-166,933	-0,112	0,003
-641,926	795,662	-0,031	-0,061
-640,911	-124,161	0,038	-0,004
-639,897	-83,959	-0,091	0,021
-638,882	45,204	0,011	0,007
-637,868	-68,143	-0,138	-0,039
-636,853	-200,000	-0,043	-0,163
-635,838	-74,768	0,035	0,009
-634,824	-150,349	0,111	0,006
-633,809	515,507	-0,024	0,041
-632,795	317,066	-0,060	0,083
-631,780	131,344	-0,055	0,051
-630,765	-2,693	-0,096	-0,048
-629,751	752,397	-0,015	-0,029
-628,736	-62,108	-0,099	-0,030
-627,722	800,000	0,034	-0,092
-626,707	-200,000	0,004	-0,054
-625,692	-12,502	0,147	-0,069
-624,678	281,350	-0,050	0,066
-623,663	800,000	0,011	-0,029
-622,649	800,000	-0,038	0,099
-621,634	-200,000	0,020	0,085
-620,619	800,000	-0,020	-0,061
-619,605	-143,282	0,105	0,007
-618,590	-115,315	-0,093	-0,013
-617,576	-27,065	0,100	-0,042
-616,561	800,000	0,018	-0,057
-615,546	-75,770	-0,080	-0,020
-614,532	64,064	-0,060	-0,043
-613,517	214,347	0,013	0,015
-612,503	-71,564	-0,137	0,037
-611,488	184,713	0,082	0,088
-610,474	-163,252	-0,044	-0,001
-609,459	-200,000	0,026	-0,133
-608,444	210,749	-0,154	-0,175
-607,430	-58,876	-0,141	-0,044
-606,415	800,000	-0,049	-0,119
-605,401	-200,000	0,013	-0,047
-604,386	-51,739	0,052	0,017
-603,371	800,000	0,041	-0,122
-602,357	-16,007	0,105	0,048
-601,342	186,934	-0,099	-0,107
-600,328	71,491	-0,064	-0,048
-599,313	-27,670	0,115	-0,048
-598,298	35,362	-0,058	0,037
-597,284	-200,000	-0,005	-0,088
-596,269	13,734	0,111	0,062
-595,255	-68,420	-0,128	-0,036
-594,240	-200,000	0,021	-0,081
-593,225	143,125	0,011	0,010
-592,211	280,584	-0,071	-0,092
-591,196	-139,594	0,059	0,004
-590,182	109,722	0,067	-0,058
-589,167	-200,000	0,022	0,094
-588,152	361,162	0,024	0,035
-587,138	146,398	-0,099	-0,096
-586,123	-200,000	-0,016	-0,080
-585,109	68,651	-0,061	-0,045
-584,094	471,408	0,099	-0,162
-583,079	-200,000	0,009	0,077
-582,065	-3,686	0,130	-0,065
-581,050	-91,267	-0,149	0,031
-580,036	-185,454	0,012	0,000
-579,021	-89,699	-0,062	-0,013
-578,006	287,053	-0,111	-0,145
-576,992	336,858	0,005	-0,007
-575,977	-200,000	0,009	0,096
-574,963	430,436	0,068	0,106
-573,948	800,000	0,015	0,041
-572,934	800,000	-0,036	0,099
-571,919	800,000	-0,004	-0,009
-570,904	-200,000	-0,001	-0,008
-569,890	-70,415	0,095	0,026
-568,875	-15,757	-0,038	-0,018
-567,861	20,843	0,096	0,056
-566,846	-200,000	-0,001	-0,039
-565,831	-200,000	-0,013	-0,102
-564,817	553,619	-0,060	-0,104
-563,802	271,541	-0,040	-0,051
-562,788	694,928	-0,049	-0,093
-561,773	-24,094	-0,084	0,036
-560,758	43,640	-0,049	0,032
-559,744	765,752	-0,016	-0,032
-558,729	184,879	0,028	0,030
-557,715	800,000	0,028	0,056
-556,700	9,866	-0,126	-0,069
-555,685	14,575	0,084	-0,047
-554,671	125,328	-0,119	-0,108
-553,656	148,781	0,041	0,040
-552,642	-147,089	0,113	0,007
-551,627	62,730	-0,140	0,101
-550,612	309,605	-0,011	-0,014
-549,598	800,000	-0,028	-0,068
-548,583	700,817	0,018	-0,035
-547,569	800,000	0,012	-0,025
-546,554	-49,753	0,110	0,038
-545,539	243,674	0,050	0,060
-544,525	-200,000	0,005	-0,058
-543,510	69,527	0,095	-0,071
-542,496	-200,000	0,009	-0,138
-541,481	-46,608	0,085	-0,030
-540,466	800,000	-0,037	-0,093
-539,452	-200,000	-0,010	0,055
-538,437	-4,010	-0,087	0,044
-537,423	-72,792	0,092	-0,024
-536,408	466,923	-0,004	0,006
-535,393	59,973	0,122	-0,087
-534,379	0,489	-0,145	-0,075
-533,364	-200,000	-0,003	0,039
-532,350	214,030	0,052	0,059
-531,335	98,259	0,057	0,047
-530,321	-41,693	-0,007	-0,003
-529,306	-200,000	-0,009	0,068
-528,291	-18,153	0,074	0,033
-527,277	800,000	-0,017	0,052
-526,262	-200,000	0,005	0,041
-525,248	-200,000	0,004	-0,077
-524,233	469,832	-0,040	0,066
-523,218	19,873	0,054	0,031
-522,204	-144,558	-0,070	0,005
-521,189	-147,291	0,047	0,003
-520,175	180,355	-0,029	0,031
-519,160	-200,000	-0,004	0,034
-518,145	-27,626	-0,073	-0,030
-517,131	473,668	-0,070	0,114
-516,116	-116,939	0,087	-0,011
-515,102	-9,972	0,044	-0,021
-514,087	-43,073	-0,066	-0,024
-513,072	410,938	-0,059	0,091
-512,058	57,565	-0,116	-0,082
-511,043	-30,797	-0,110	0,045
-510,029	117,506	0,160	0,142
-509,014	800,000	-0,041	0,128
-507,999	226,950	-0,087	-0,102
-506,985	800,000	0,023	-0,046
-505,970	126,591	-0,117	-0,107
-504,956	12,852	-0,038	0,021
-503,941	105,033	0,136	0,115
-502,926	594,353	-0,072	0,129
-501,912	-157,101	0,066	0,003
-500,897	13,345	0,125	-0,070
-499,883	311,710	0,038	0,051
-498,868	-57,477	0,061	0,019
-497,853	-88,988	-0,080	0,017
-496,839	243,844	-0,041	-0,049
-495,824	-148,031	0,118	0,007
-494,810	-34,191	-0,094	0,037
-493,795	408,367	0,030	-0,046
-492,781	89,686	0,060	-0,048
-491,766	-126,418	-0,032	0,003
-490,751	661,889	0,053	-0,100
-489,737	-170,230	0,180	0,004
-488,722	101,488	0,031	0,026
-487,708	-11,968	-0,125	0,059
-486,693	-107,912	0,182	0,028
-485,678	677,538	-0,038	0,071
-484,664	86,732	-0,076	0,060
-483,649	626,794	0,035	0,064
-482,635	14,488	-0,006	0,003
-481,620	-200,000	0,008	0,097
-480,605	179,077	0,090	-0,095
-479,591	-200,000	0,038	-0,134
-478,576	800,000	0,051	-0,122
-477,562	-138,441	0,030	0,002
-476,547	-200,000	-0,025	-0,098
-475,532	73,137	0,045	0,034
-474,518	23,482	-0,055	0,032
-473,503	25,990	0,123	0,073
-472,489	96,775	0,127	0,104
-471,474	-12,409	-0,066	0,031
-470,459	800,000	-0,033	-0,079
-469,445	-84,138	0,047	-0,011
-468,430	76,142	-0,035	-0,026
-467,416	-106,148	0,059	-0,009
-466,401	-140,989	0,083	-0,006
-465,386	-12,279	0,094	-0,044
-464,372	-70,627	0,210	0,057
-463,357	-200,000	-0,043	-0,158
-462,343	-66,386	-0,050	0,014
-461,328	-200,000	-0,018	-0,087
-460,313	599,817	-0,076	-0,136
-459,299	482,121	0,083	-0,136
-458,284	13,735	0,100	0,056
-457,270	-26,703	0,083	-0,035
-456,255	380,619	0,069	-0,103
-455,241	-146,306	-0,097	-0,006
-454,226	171,711	-0,089	-0,092
-453,211	-165,970	0,199	0,006
-452,197	18,605	-0,081	0,046
-451,182	-200,000	0,005	-0,032
-450,168	-200,000	0,014	0,152
-449,153	800,000	-0,057	-0,118
-448,138	-200,000	0,008	-0,081
-447,124	-200,000	0,011	0,091
-446,109	562,157	-0,066	-0,115
-445,095	-73,843	0,166	0,043
-444,080	-200,000	0,006	0,113
-443,065	354,777	-0,081	-0,117
-442,051	-200,000	0,037	-0,122
-441,036	-200,000	-0,000	-0,063
-440,022	-200,000	-0,000	-0,083
-439,007	-159,197	-0,050	0,002
-437,992	800,000	0,005	-0,015
-436,978	-100,776	-0,061	0,011
-435,963	800,000	0,060	0,165
-434,949	598,823	-0,078	-0,139
-433,934	-200,000	-0,011	-0,070
-432,919	-200,000	-0,003	-0,056
-431,905	181,876	-0,027	0,028
-430,890	-52,647	0,042	-0,014
-429,876	690,914	-0,061	-0,115
-428,861	-200,000	0,005	0,042
-427,846	800,000	0,050	0,112
-426,832	800,000	0,011	0,023
-425,817	118,565	-0,075	-0,066
-424,803	800,000	0,048	0,121
-423,788	800,000	-0,049	-0,137
-422,773	294,171	-0,055	0,073
-421,759	-152,094	0,168	-0,009
-420,744	-100,064	0,086	0,015
-419,730	142,177	0,053	-0,051
-418,715	108,058	0,098	0,084
-417,701	-79,968	-0,144	0,034
-416,686	-43,588	0,054	0,019
-415,671	-200,000	0,008	0,069
-414,657	-36,898	0,066	-0,025
-413,642	142,062	-0,013	-0,013
-412,628	598,832	0,056	0,101
-411,613	-200,000	-0,020	-0,156
-410,598	72,205	-0,030	-0,022
-409,584	-200,000	0,008	-0,051
-408,569	800,000	-0,029	0,089
-407,555	190,500	0,043	0,047
-406,540	728,058	0,033	0,063
-405,525	152,058	0,073	0,071
-404,511	800,000	-0,018	-0,056
-403,496	-121,993	-0,102	0,012
-402,482	689,695	-0,039	-0,073
-401,467	-200,000	0,003	-0,103
-400,452	333,631	0,038	0,053
-399,438	59,825	-0,050	-0,035
-398,423	-4,148	-0,049	-0,024
-397,409	-141,068	0,090	0,006
-396,394	-200,000	0,003	0,210
-395,379	378,190	0,025	0,037
-394,365	-200,000	-0,006	0,130
-393,350	194,833	0,013	0,014
-392,336	487,929	0,049	0,081
-391,321	-200,000	-0,010	0,045
-390,306	15,906	-0,054	0,030
-389,292	-200,000	0,012	-0,073
-388,277	-200,000	0,016	0,053
-387,263	-175,111	-0,077	-0,001
-386,248	-45,912	0,094	0,033
-385,233	753,921	0,004	-0,007
-384,219	-53,119	0,158	-0,052
-383,204	158,761	-0,069	0,069
-382,190	-200,000	-0,020	-0,070
-381,175	-4,584	-0,152	0,075
-380,160	-200,000	-0,009	-0,069
-379,146	-200,000	0,010	0,137
-378,131	-129,964	0,035	-0,003
-377,117	-80,935	-0,096	0,023
-376,102	55,516	0,121	-0,084
-375,088	157,126	0,069	-0,069
-374,073	-200,000	0,015	0,114
-373,058	-200,000	0,024	0,117
-372,044	-200,000	-0,004	-0,040
-371,029	43,935	-0,046	0,030
-370,015	-114,070	0,071	-0,010
-369,000	-52,403	0,027	-0,009
-367,985	-200,000	0,006	-0,052
-366,971	-32,743	-0,044	-0,017
-365,956	-114,776	0,089	-0,012
-364,942	800,000	0,011	0,027
-363,927	800,000	0,021	-0,062
-362,912	338,522	0,107	0,150
-361,898	-200,000	-0,016	-0,147
-360,883	235,357	-0,038	0,045
-359,869	-200,000	0,027	0,179
-358,854	-200,000	0,024	0,077
-357,839	-200,000	-0,009	0,130
-356,825	-76,009	-0,022	0,006
-355,810	-200,000	0,001	0,085
-354,796	-200,000	-0,023	-0,145
-353,781	-27,393	-0,064	0,027
-352,766	-148,369	-0,089	-0,005
-351,752	-200,000	-0,005	-0,033
-350,737	174,397	0,047	-0,048
-349,723	-121,334	-0,098	-0,012
-348,708	-200,000	-0,004	0,049
-347,693	99,131	-0,058	0,048
-346,679	-162,020	0,073	-0,003
-345,664	105,955	-0,123	0,104
-344,650	55,053	0,169	0,117
-343,635	800,000	0,040	0,116
-342,620	-32,813	-0,089	-0,035
-341,606	-200,000	0,002	0,092
-340,591	-65,564	-0,064	0,018
-339,577	29,891	-0,098	0,060
-338,562	304,409	-0,075	-0,100
-337,548	800,000	0,033	0,103
-336,533	-200,000	-0,025	0,122
-335,518	-200,000	-0,001	0,107
-334,504	-200,000	-0,001	0,019
-333,489	147,622	0,008	-0,008
-332,475	75,138	-0,078	-0,059
-331,460	450,034	-0,019	-0,030
-330,445	140,835	0,036	0,034
-329,431	71,515	0,070	0,052
-328,416	333,633	-0,046	0,063
-327,402	800,000	0,031	-0,073
-326,387	9,750	0,113	-0,061
-325,372	269,039	-0,076	-0,096
-324,358	331,481	-0,052	0,072
-323,343	462,829	0,101	0,161
-322,329	78,103	0,137	-0,104
-321,314	15,465	-0,094	-0,053
-320,299	148,766	0,014	0,013
-319,285	-43,792	-0,101	0,036
-318,270	34,007	-0,029	0,018
-317,256	121,086	0,122	-0,108
-316,241	364,735	-0,024	0,035
-315,226	-200,000	0,112	0,000
-314,212	590,927	-0,049	-0,086
-313,197	111,008	0,120	0,103
-312,183	-200,000	0,004	0,094
-311,168	346,333	0,103	-0,146
-310,153	-74,648	-0,078	0,020
-309,139	-200,000	0,026	-0,085
-308,124	188,989	0,014	-0,015
-307,110	800,000	0,033	0,084
-306,095	-200,000	-0,029	0,109
-305,080	-48,322	-0,143	0,049
-304,066	-200,000	-0,012	0,129
-303,051	570,916	0,108	-0,189
-302,037	585,370	0,053	0,094
-301,022	41,261	0,085	0,055
-300,008	-42,724	-0,038	0,014
-298,993	-37,306	0,033	0,012
-297,978	-200,000	0,045	0,202
-296,964	518,258	0,038	0,064
-295,949	347,041	-0,049	-0,069
-294,935	417,372	-0,058	-0,089
-293,920	54,011	0,116	-0,079
-292,905	-53,851	0,095	-0,031
-291,891	-200,000	0,038	0,136
-290,876	800,000	0,043	-0,094
-289,862	-200,000	-0,011	-0,038
-288,847	-15,779	-0,150	0,068
-287,832	-155,697	0,081	-0,004
-286,818	-0,839	0,088	0,044
-285,803	87,760	0,037	-0,029
-284,789	-49,706	-0,094	-0,032
-283,774	529,485	-0,030	0,051
-282,759	242,728	-0,094	0,113
-281,745	-200,000	-0,021	-0,129
-280,730	68,392	0,054	-0,039
-279,716	-200,000	0,013	0,059
-278,701	-100,678	-0,074	0,013
-277,686	-4,410	0,155	-0,076
-276,672	-200,000	0,014	0,188
-275,657	-200,000	0,001	0,034
-274,643	163,029	-0,096	-0,096
-273,628	-200,000	0,006	-0,112
-272,613	125,171	0,100	0,090
-271,599	378,249	-0,043	0,063
-270,584	218,128	-0,057	-0,065
-269,570	633,404	-0,017	0,031
-268,555	-200,000	-0,020	-0,079
-267,540	566,786	-0,071	-0,124
-266,526	-200,000	0,004	-0,112
-265,511	800,000	-0,054	0,114
-264,497	-200,000	-0,003	0,110
-263,482	65,289	0,029	0,021
-262,467	258,841	0,019	-0,024
-261,453	-137,702	-0,020	-0,002
-260,438	-43,467	-0,055	-0,020
-259,424	-99,404	0,088	-0,016
-258,409	334,098	-0,067	-0,092
-257,395	-106,565	-0,128	0,020
-256,380	99,250	0,065	0,053
-255,365	186,393	-0,019	-0,020
-254,351	519,370	-0,022	0,037
-253,336	-131,942	-0,196	-0,018
-252,322	225,264	0,085	-0,098
-251,307	-78,328	-0,041	0,010
-250,292	0,147	-0,100	-0,051
-249,278	-162,693	-0,075	-0,003
-248,263	382,567	-0,068	0,099
-247,249	-200,000	-0,018	0,164
-246,234	136,401	0,060	-0,056
-245,219	13,841	-0,092	-0,051
-244,205	-200,000	0,028	0,124
-243,190	675,999	0,040	0,075
-242,176	-85,504	-0,100	-0,022
-241,161	128,360	-0,069	0,063
-240,146	128,157	-0,057	0,052
-239,132	-11,842	-0,093	0,044
-238,117	800,000	-0,036	0,086
-237,103	19,948	0,159	-0,091
-236,088	637,748	0,049	-0,089
-235,073	-200,000	0,018	0,068
-234,059	-200,000	0,039	0,182
-233,044	79,362	-0,102	-0,078
-232,030	56,882	-0,088	0,061
-231,015	475,897	0,016	-0,026
-230,000	-0,627	0,147	-0,074
-228,986	800,000	-0,026	-0,060
-227,971	730,865	0,024	0,045
-226,957	-77,123	0,147	0,036
-225,942	696,426	-0,065	0,123
-224,927	-25,739	0,065	0,027
-223,913	562,226	-0,024	-0,042
-222,898	-200,000	-0,005	-0,048
-221,884	39,215	0,027	-0,017
-220,869	-200,000	0,001	-0,036
-219,855	134,739	-0,064	0,059
-218,840	120,684	-0,075	0,066
-217,825	632,722	0,037	-0,066
-216,811	-83,922	0,127	0,029
-215,796	-121,892	-0,152	0,018
-214,782	-57,812	0,081	-0,025
-213,767	406,457	-0,081	-0,122
-212,752	-19,250	0,084	0,037
-211,738	388,132	-0,039	0,058
-210,723	276,479	-0,089	-0,113
-209,709	138,544	0,175	-0,163
-208,694	-137,651	-0,126	0,010
-207,679	-100,407	0,052	0,009
-206,665	400,047	0,083	0,124
-205,650	-4,718	-0,106	0,052
-204,636	0,302	0,206	0,104
-203,621	498,353	-0,030	0,049
-202,606	-145,818	-0,017	-0,001
-201,592	-200,000	-0,001	0,026
-200,577	-87,455	0,099	-0,021
-199,563	116,556	-0,021	-0,019
-198,548	-200,000	0,005	-0,029
-197,533	-200,000	0,000	-0,137
-196,519	27,236	0,106	-0,063
-195,504	800,000	-0,042	-0,089
-194,490	800,000	-0,020	-0,056
-193,475	-106,888	-0,150	0,023
-192,460	306,852	-0,076	0,101
-191,446	-126,887	0,090	0,009
-190,431	187,349	-0,088	0,093
-189,417	-200,000	0,029	0,125
-188,402	0,626	0,092	0,047
-187,387	381,116	-0,068	-0,099
-186,373	-200,000	0,004	-0,014
-185,358	595,197	-0,007	0,012
-184,344	-128,110	-0,024	0,002
-183,329	-72,725	0,012	0,003
-182,315	220,378	0,080	-0,091
-181,300	-200,000	-0,016	0,060
-180,285	119,804	0,057	-0,050
-179,271	-75,520	-0,115	-0,029
-178,256	-13,789	-0,050	-0,023
-177,242	73,421	0,090	0,067
-176,227	454,890	0,018	-0,028
-175,212	-10,657	-0,062	0,029
-174,198	540,226	-0,015	0,025
-173,183	800,000	0,016	0,040
-172,169	-37,060	-0,177	-0,067
-171,154	-55,716	0,042	-0,013
-170,139	-200,000	-0,001	0,075
-169,125	-200,000	-0,015	0,096
-168,110	-56,457	0,097	0,030
-167,096	28,265	0,069	-0,041
-166,081	800,000	-0,063	-0,184
-165,066	73,667	-0,126	-0,093
-164,052	-67,858	-0,069	-0,019
-163,037	17,945	0,095	0,054
-162,023	106,072	-0,049	0,041
-161,008	42,727	0,060	-0,039
-159,993	800,000	-0,016	0,047
-158,979	-121,958	-0,043	-0,005
-157,964	-9,907	0,061	0,029
-156,950	2,523	-0,030	0,015
-155,935	140,013	0,022	0,021
-154,920	-77,530	0,048	-0,012
-153,906	-200,000	-0,021	-0,077
-152,891	-83,243	-0,125	-0,028
-151,877	15,762	-0,071	-0,039
-150,862	66,494	0,027	-0,020
-149,847	-200,000	-0,003	-0,017
-148,833	-200,000	-0,009	-0,145
-147,818	800,000	-0,026	0,069
-146,804	133,871	0,110	0,101
-145,789	-62,358	0,068	0,020
-144,775	-42,262	-0,043	-0,016
-143,760	-200,000	-0,018	-0,085
-142,745	800,000	0,055	0,143
-141,731	-58,024	-0,160	0,049
-140,716	-26,952	-0,093	-0,038
-139,702	-200,000	0,020	-0,078
-138,687	103,063	0,034	0,029
-137,672	-53,654	0,052	0,017
-136,658	-200,000	-0,005	-0,058
-135,643	-200,000	-0,008	0,029
-134,629	-200,000	-0,019	-0,066
-133,614	-11,038	0,042	0,020
-132,599	-200,000	0,000	0,055
-131,585	-162,491	-0,047	-0,002
-130,570	-200,000	0,002	-0,024
-129,556	-82,417	-0,039	0,009
-128,541	-200,000	0,005	-0,041
-127,526	-200,000	-0,011	0,180
-126,512	-200,000	-0,040	-0,141
-125,497	-87,253	-0,040	-0,009
-124,483	726,922	0,055	0,104
-123,468	68,777	-0,037	0,027
-122,453	-114,044	0,050	0,007
-121,439	800,000	-0,040	-0,098
-120,424	83,216	-0,039	0,030
-119,410	-200,000	0,020	0,161
