DTS Sentinel unit serial number:	SN410029Multiplexer serial number:	ORYXHardware model number:	OX2-SRSoftware version number:	ORYX F/W v4,00 Oryx Data Collector v3.7.2.0data status	okinstallation	B6 Nyhavnadifferential loss correction	single-endedforward channel	channel 2reverse channel	N/Adate	2023/12/11time	03:55:08forward acquisition time	300,00reverse acquisition time	0,00gamma	499,1914k internal	0,3125k external	0,3125temperature offset calibration	1,0000default loss term (dB/km)	0,3820temperature slope calibration	1,0000multiplexer offset coefficient	1,0000multiplexer slope coefficient	1,0000fibre end	0,00T internal ref (°C)	20,89T ext. ref 1 (°C)	3,63T ext. ref 2 (°C)	3,64length (m)	temperature (°C)	Stokes	anti-Stokes-744,400	-200,000	0,007	0,043
-743,385	-66,021	-0,176	0,052
-742,371	52,999	0,055	-0,039
-741,356	44,916	-0,322	0,220
-740,342	-8,218	0,101	-0,050
-739,327	-41,390	-0,307	0,117
-738,312	-200,000	-0,006	-0,098
-737,298	111,724	-0,133	0,120
-736,283	-200,000	-0,038	-0,140
-735,269	-105,287	-0,190	-0,032
-734,254	-44,242	0,150	0,056
-733,239	-8,503	-0,364	-0,181
-732,225	42,106	0,112	-0,076
-731,210	267,992	0,013	0,016
-730,196	670,101	0,050	-0,097
-729,181	-80,352	0,115	-0,028
-728,167	79,003	-0,035	0,028
-727,152	382,147	-0,080	-0,122
-726,137	-2,867	-0,071	-0,037
-725,123	19,743	-0,162	0,097
-724,108	6,382	-0,117	-0,064
-723,094	800,000	0,083	-0,195
-722,079	-57,878	-0,091	-0,029
-721,064	-144,983	-0,184	0,012
-720,050	-69,853	-0,073	0,021
-719,035	-44,371	-0,063	-0,023
-718,021	-14,196	0,065	-0,031
-717,006	-200,000	-0,022	-0,076
-715,991	35,020	-0,094	-0,061
-714,977	295,838	-0,028	0,038
-713,962	800,000	0,038	-0,095
-712,948	557,420	0,036	0,066
-711,933	-160,028	-0,029	0,001
-710,918	-56,064	-0,115	-0,038
-709,904	22,499	-0,150	0,091
-708,889	-83,623	-0,156	-0,037
-707,875	800,000	-0,029	-0,067
-706,860	98,069	-0,057	0,048
-705,845	118,416	-0,059	0,054
-704,831	-200,000	0,022	-0,175
-703,816	-43,236	0,114	0,043
-702,802	366,162	-0,092	-0,138
-701,787	-140,243	-0,140	-0,011
-700,772	126,533	-0,109	-0,103
-699,758	-200,000	-0,003	-0,021
-698,743	-200,000	0,010	0,097
-697,729	21,357	-0,119	-0,072
-696,714	15,712	0,080	0,046
-695,699	796,618	0,010	0,021
-694,685	195,094	-0,081	0,091
-693,670	800,000	-0,053	-0,124
-692,656	190,222	0,037	0,042
-691,641	-109,328	0,117	0,018
-690,627	-159,369	0,076	0,003
-689,612	108,158	-0,016	-0,014
-688,597	361,658	-0,023	0,035
-687,583	-198,715	0,120	-0,000
-686,568	-65,992	-0,116	-0,034
-685,554	27,506	-0,073	0,046
-684,539	800,000	-0,004	0,009
-683,524	-40,116	-0,103	0,040
-682,510	-170,317	-0,039	-0,001
-681,495	800,000	-0,072	-0,173
-680,481	344,309	0,051	0,075
-679,466	-94,602	-0,129	0,026
-678,451	617,706	0,016	0,030
-677,437	-124,578	0,077	0,009
-676,422	-62,034	-0,080	-0,025
-675,408	135,922	-0,054	0,053
-674,393	-21,896	-0,068	0,030
-673,378	-144,935	-0,101	-0,007
-672,364	-59,006	-0,038	-0,012
-671,349	800,000	0,025	-0,067
-670,335	-200,000	-0,019	-0,081
-669,320	-74,292	-0,080	0,021
-668,305	-200,000	0,005	-0,059
-667,291	308,635	-0,072	-0,100
-666,276	-200,000	0,024	-0,175
-665,262	211,301	-0,136	-0,160
-664,247	-115,669	-0,054	-0,007
-663,232	-60,207	0,048	-0,015
-662,218	800,000	-0,014	0,033
-661,203	87,135	-0,051	-0,042
-660,189	-14,108	-0,084	-0,040
-659,174	2,844	-0,014	0,007
-658,159	-37,614	0,055	-0,022
-657,145	194,461	-0,104	0,118
-656,130	69,259	-0,066	-0,051
-655,116	3,956	-0,070	0,038
-654,101	-86,013	-0,087	-0,020
-653,086	43,480	-0,115	-0,078
-652,072	113,989	-0,090	-0,081
-651,057	-200,000	0,016	-0,090
-650,043	336,091	-0,046	-0,067
-649,028	68,895	-0,068	-0,052
-648,014	-200,000	-0,001	-0,117
-646,999	-200,000	-0,018	0,144
-645,984	-30,753	0,075	0,031
-644,970	192,203	-0,109	-0,122
-643,955	-175,290	-0,090	0,002
-642,941	301,140	-0,062	0,085
-641,926	-67,443	-0,057	0,016
-640,911	773,150	-0,054	0,109
-639,897	5,921	0,043	-0,023
-638,882	-140,302	-0,152	-0,012
-637,868	55,158	-0,054	-0,039
-636,853	-200,000	-0,010	0,046
-635,838	-166,803	-0,077	-0,002
-634,824	113,670	0,055	-0,049
-633,809	-200,000	0,005	-0,078
-632,795	800,000	0,006	-0,020
-631,780	-200,000	-0,038	0,125
-630,765	173,762	-0,050	-0,053
-629,751	188,991	-0,080	-0,089
-628,736	800,000	0,011	-0,031
-627,722	800,000	-0,056	0,121
-626,707	-200,000	0,016	0,055
-625,692	233,927	-0,051	-0,063
-624,678	177,404	0,105	-0,114
-623,663	22,774	-0,072	0,044
-622,649	-14,353	-0,095	-0,045
-621,634	678,140	0,049	-0,094
-620,619	798,765	-0,028	-0,058
-619,605	136,112	0,109	-0,105
-618,590	800,000	0,011	0,027
-617,576	-31,297	0,018	-0,007
-616,561	800,000	-0,039	0,085
-615,546	-127,646	0,012	-0,001
-614,532	176,117	-0,081	-0,087
-613,517	-200,000	-0,002	-0,118
-612,503	158,013	-0,053	-0,055
-611,488	800,000	0,041	0,095
-610,474	-200,000	-0,015	-0,114
-609,459	-200,000	0,015	-0,052
-608,444	584,243	0,010	-0,018
-607,430	-36,340	-0,135	-0,053
-606,415	-200,000	0,022	-0,092
-605,401	557,145	0,073	-0,131
-604,386	-200,000	-0,015	-0,071
-603,371	-200,000	-0,001	-0,016
-602,357	53,271	-0,050	-0,035
-601,342	22,192	-0,068	0,041
-600,328	80,677	-0,017	0,013
-599,313	414,356	-0,062	-0,099
-598,298	800,000	-0,039	0,113
-597,284	-140,424	0,124	-0,009
-596,269	-200,000	0,005	-0,087
-595,255	662,744	-0,022	0,042
-594,240	286,037	-0,055	-0,074
-593,225	-200,000	-0,001	-0,084
-592,211	-200,000	-0,005	-0,039
-591,196	102,879	-0,105	-0,091
-590,182	-74,339	0,041	-0,011
-589,167	-42,741	0,065	-0,024
-588,152	-79,632	0,082	-0,020
-587,138	-86,695	-0,169	0,038
-586,123	800,000	-0,015	-0,037
-585,109	-200,000	-0,017	0,154
-584,094	-100,369	0,080	0,015
-583,079	800,000	0,036	-0,107
-582,065	-100,400	0,070	-0,013
-581,050	-95,128	-0,165	0,033
-580,036	-200,000	-0,013	0,092
-579,021	-200,000	0,009	0,045
-578,006	-200,000	0,016	-0,060
-576,992	-97,608	-0,103	-0,020
-575,977	-130,761	0,069	0,007
-574,963	800,000	0,045	0,112
-573,948	100,974	0,019	0,017
-572,934	416,761	0,064	-0,101
-571,919	45,701	0,068	-0,047
-570,904	206,722	0,020	0,023
-569,890	-200,000	0,026	-0,085
-568,875	32,630	0,130	0,083
-567,861	87,146	-0,049	0,040
-566,846	722,157	-0,048	0,095
-565,831	-200,000	-0,003	0,014
-564,817	-200,000	0,019	-0,065
-563,802	-41,036	0,040	-0,015
-562,788	-84,401	-0,087	-0,020
-561,773	599,473	0,043	0,079
-560,758	204,987	0,071	0,081
-559,744	49,006	0,065	0,045
-558,729	-200,000	-0,011	0,086
-557,715	-36,449	-0,040	-0,016
-556,700	-98,343	-0,141	-0,026
-555,685	-113,378	-0,082	-0,012
-554,671	61,296	-0,068	-0,050
-553,656	56,801	-0,049	-0,035
-552,642	-65,596	0,123	0,036
-551,627	-156,815	0,030	0,001
-550,612	-13,146	-0,067	-0,032
-549,598	44,042	-0,089	0,060
-548,583	58,986	0,020	-0,014
-547,569	-196,687	-0,146	-0,001
-546,554	-3,564	0,046	0,024
-545,539	5,036	-0,029	0,015
-544,525	-200,000	-0,003	0,108
-543,510	704,978	-0,017	0,034
-542,496	-200,000	-0,010	-0,081
-541,481	-185,341	0,103	0,001
-540,466	322,786	-0,044	-0,061
-539,452	98,769	0,026	0,022
-538,437	85,706	0,082	0,067
-537,423	5,299	0,034	0,019
-536,408	-47,391	-0,122	0,044
-535,393	0,054	0,095	-0,050
-534,379	-200,000	0,009	-0,093
-533,364	457,076	-0,046	0,075
-532,350	-60,060	-0,134	-0,042
-531,335	192,096	-0,062	0,069
-530,321	800,000	-0,028	0,090
-529,306	800,000	0,025	0,069
-528,291	407,572	0,022	-0,034
-527,277	-131,151	-0,133	0,013
-526,262	-200,000	-0,015	-0,095
-525,248	-200,000	0,015	-0,067
-524,233	305,697	0,090	0,124
-523,218	-2,882	0,033	0,017
-522,204	158,730	-0,082	-0,084
-521,189	800,000	0,030	-0,086
-520,175	800,000	0,037	-0,080
-519,160	96,666	0,062	-0,053
-518,145	228,249	0,034	0,041
-517,131	-148,780	0,041	-0,002
-516,116	800,000	-0,045	0,146
-515,102	-34,585	-0,041	-0,016
-514,087	645,609	0,024	-0,045
-513,072	213,893	-0,035	-0,041
-512,058	254,024	-0,070	0,089
-511,043	284,161	0,034	-0,046
-510,029	78,609	0,032	0,025
-509,014	-200,000	0,032	0,154
-507,999	300,536	0,089	0,121
-506,985	69,862	-0,073	-0,056
-505,970	-17,156	-0,099	-0,046
-504,956	199,173	-0,042	0,047
-503,941	125,688	-0,036	0,033
-502,926	-88,695	0,077	-0,017
-501,912	-50,073	0,038	-0,013
-500,897	800,000	-0,036	0,076
-499,883	-95,656	-0,093	-0,018
-498,868	-200,000	0,017	-0,130
-497,853	-116,859	-0,147	-0,020
-496,839	-175,556	0,108	0,002
-495,824	90,352	0,020	-0,017
-494,810	800,000	0,062	0,134
-493,795	-37,869	0,032	0,012
-492,781	-135,244	-0,034	0,003
-491,766	173,065	0,030	0,032
-490,751	-200,000	-0,009	0,118
-489,737	21,234	0,139	0,083
-488,722	199,480	-0,073	0,083
-487,708	-200,000	-0,007	0,027
-486,693	42,020	0,038	-0,025
-485,678	176,038	-0,026	0,028
-484,664	-33,032	0,088	-0,036
-483,649	-200,000	0,005	0,058
-482,635	800,000	-0,044	-0,140
-481,620	800,000	0,050	0,108
-480,605	27,330	-0,096	-0,059
-479,591	800,000	-0,079	0,208
-478,576	-200,000	-0,011	-0,082
-477,562	771,217	0,010	-0,020
-476,547	-5,628	-0,064	-0,032
-475,532	800,000	0,027	0,074
-474,518	50,510	0,046	-0,032
-473,503	355,901	-0,034	-0,051
-472,489	86,294	-0,076	-0,062
-471,474	-200,000	-0,008	-0,163
-470,459	-200,000	0,007	0,141
-469,445	105,147	-0,116	-0,101
-468,430	156,815	-0,073	0,075
-467,416	-94,993	0,157	-0,031
-466,401	-67,890	0,128	-0,037
-465,386	800,000	-0,044	0,094
-464,372	294,535	-0,045	0,061
-463,357	101,508	-0,113	-0,097
-462,343	-140,696	-0,053	0,004
-461,328	416,274	-0,034	-0,053
-460,313	-6,511	0,096	-0,048
-459,299	67,231	-0,066	0,050
-458,284	161,701	-0,064	-0,066
-457,270	327,130	0,141	0,200
-456,255	-200,000	0,008	-0,058
-455,241	89,178	0,129	-0,106
-454,226	71,834	-0,036	0,028
-453,211	67,670	0,051	0,038
-452,197	-91,200	-0,119	0,025
-451,182	44,919	0,082	0,056
-450,168	451,002	-0,073	-0,120
-449,153	16,757	-0,088	-0,051
-448,138	800,000	-0,039	-0,084
-447,124	-116,014	-0,120	-0,016
-446,109	-11,901	0,087	0,042
-445,095	-118,225	-0,042	-0,005
-444,080	149,626	0,054	0,054
-443,065	-200,000	-0,014	0,045
-442,051	351,188	-0,026	-0,038
-441,036	-119,057	0,021	0,003
-440,022	-200,000	-0,017	-0,123
-439,007	-151,196	0,129	0,007
-437,992	-77,076	-0,063	-0,016
-436,978	-200,000	0,021	-0,088
-435,963	-19,170	-0,040	0,018
-434,949	-200,000	-0,013	0,140
-433,934	-200,000	-0,015	-0,237
-432,919	-200,000	-0,015	-0,068
-431,905	-44,906	-0,071	-0,026
-430,890	-181,929	0,153	-0,002
-429,876	-89,619	-0,138	0,030
-428,861	-200,000	0,016	-0,125
-427,846	-200,000	-0,028	-0,108
-426,832	-200,000	-0,021	-0,125
-425,817	-46,274	-0,076	-0,027
-424,803	508,222	-0,111	-0,191
-423,788	108,018	0,028	-0,025
-422,773	3,460	0,057	0,031
-421,759	800,000	0,058	0,148
-420,744	231,681	0,046	0,055
-419,730	-5,739	-0,086	0,043
-418,715	-200,000	-0,006	0,025
-417,701	-14,271	0,106	0,050
-416,686	-200,000	0,000	0,024
-415,671	733,418	-0,046	0,092
-414,657	800,000	-0,068	0,179
-413,642	-200,000	-0,017	0,092
-412,628	-200,000	-0,025	-0,141
-411,613	-100,538	-0,064	0,012
-410,598	138,327	0,113	-0,109
-409,584	295,648	-0,064	-0,086
-408,569	-200,000	-0,020	0,085
-407,555	20,909	0,129	-0,077
-406,540	-47,403	0,050	-0,018
-405,525	130,726	-0,146	-0,138
-404,511	85,481	-0,037	0,030
-403,496	800,000	0,010	0,022
-402,482	9,190	0,132	0,073
-401,467	41,839	-0,020	-0,013
-400,452	-200,000	0,023	0,188
-399,438	800,000	-0,037	0,113
-398,423	-200,000	-0,016	0,062
-397,409	-20,085	0,094	0,042
-396,394	-200,000	0,020	-0,132
-395,379	800,000	0,038	-0,078
-394,365	-69,163	0,177	-0,050
-393,350	108,149	0,056	-0,049
-392,336	72,943	-0,063	0,048
-391,321	-200,000	-0,007	-0,047
-390,306	800,000	0,021	-0,065
-389,292	-200,000	-0,026	-0,171
-388,277	800,000	-0,039	0,124
-387,263	800,000	0,033	0,098
-386,248	71,106	0,051	0,039
-385,233	-200,000	0,014	0,164
-384,219	136,992	0,049	0,047
-383,204	-200,000	0,017	-0,069
-382,190	-55,180	0,071	0,023
-381,175	800,000	0,032	0,083
-380,160	191,795	0,115	-0,128
-379,146	800,000	0,048	0,098
-378,131	-200,000	-0,020	-0,071
-377,117	72,321	-0,124	-0,095
-376,102	-200,000	-0,015	-0,171
-375,088	-90,933	0,055	0,012
-374,073	-200,000	-0,029	-0,098
-373,058	8,656	0,030	0,017
-372,044	-200,000	0,011	0,062
-371,029	-200,000	0,045	0,148
-370,015	77,321	0,053	0,041
-369,000	-200,000	-0,003	-0,019
-367,985	-78,205	0,062	0,016
-366,971	-200,000	0,011	-0,133
-365,956	-135,176	0,028	0,002
-364,942	800,000	0,020	-0,061
-363,927	-14,003	-0,061	-0,029
-362,912	50,739	0,091	0,063
-361,898	47,730	-0,091	0,062
-360,883	600,389	-0,028	-0,052
-359,869	-16,996	0,052	-0,024
-358,854	241,562	-0,065	-0,080
-357,839	281,796	-0,020	-0,027
-356,825	800,000	-0,012	-0,032
-355,810	-17,705	-0,065	-0,030
-354,796	-42,549	0,058	-0,022
-353,781	-64,966	-0,087	-0,026
-352,766	-200,000	-0,036	-0,160
-351,752	-43,472	-0,101	-0,037
-350,737	225,034	0,118	0,140
-349,723	-200,000	0,001	0,017
-348,708	-53,949	-0,092	0,031
-347,693	140,273	-0,068	-0,065
-346,679	800,000	-0,039	-0,084
-345,664	276,136	-0,052	0,068
-344,650	-200,000	-0,017	0,064
-343,635	-200,000	0,042	0,161
-342,620	-19,464	-0,034	-0,015
-341,606	-69,708	0,012	0,003
-340,591	155,093	0,105	-0,106
-339,577	-99,443	-0,140	0,026
-338,562	139,836	-0,120	-0,116
-337,548	35,778	0,019	0,012
-336,533	122,195	0,099	0,090
-335,518	67,262	-0,114	0,085
-334,504	722,340	-0,045	0,089
-333,489	-200,000	-0,003	-0,081
-332,475	800,000	-0,033	-0,078
-331,460	-61,275	-0,064	0,020
-330,445	-158,053	0,019	-0,001
-329,431	-22,023	0,046	0,020
-328,416	-200,000	0,010	0,131
-327,402	11,433	0,144	0,081
-326,387	195,883	0,025	-0,028
-325,372	-200,000	-0,094	0,000
-324,358	-200,000	0,008	-0,094
-323,343	125,140	0,050	-0,047
-322,329	-126,380	-0,029	0,003
-321,314	81,748	0,038	0,030
-320,299	-200,000	0,006	0,191
-319,285	-200,000	-0,013	-0,070
-318,270	-58,938	0,058	-0,018
-317,256	800,000	0,048	-0,127
-316,241	-23,367	0,025	-0,011
-315,226	-121,127	0,120	-0,015
-314,212	-60,778	0,017	0,005
-313,197	132,502	-0,092	-0,087
-312,183	-200,000	-0,005	0,049
-311,168	142,578	-0,129	-0,126
-310,153	328,395	-0,040	-0,057
-309,139	-200,000	-0,022	0,073
-308,124	66,112	0,051	0,038
-307,110	98,049	0,074	0,062
-306,095	-200,000	-0,019	0,100
-305,080	-200,000	-0,016	0,077
-304,066	-143,805	0,085	-0,006
-303,051	416,472	-0,057	0,090
-302,037	133,371	-0,041	-0,039
-301,022	783,724	-0,002	0,005
-300,008	499,031	0,096	0,162
-298,993	-146,510	0,192	-0,012
-297,978	-17,989	0,088	0,040
-296,964	-85,067	-0,096	-0,022
-295,949	-75,829	-0,077	-0,020
-294,935	-111,159	-0,071	-0,011
-293,920	-151,125	0,075	0,004
-292,905	143,662	-0,104	0,102
-291,891	261,347	0,098	-0,124
-290,876	-144,749	0,082	-0,005
-289,862	408,125	-0,029	0,045
-288,847	-200,000	0,014	0,110
-287,832	212,485	-0,014	-0,016
-286,818	515,277	0,088	-0,151
-285,803	48,475	0,087	0,060
-284,789	318,890	0,066	0,091
-283,774	-81,104	0,122	-0,029
-282,759	174,523	0,099	-0,105
-281,745	31,009	-0,116	0,073
-280,730	49,887	-0,071	0,049
-279,716	-200,000	0,016	0,121
-278,701	800,000	0,062	0,150
-277,686	-200,000	-0,005	0,019
-276,672	-142,948	-0,072	-0,005
-275,657	22,229	-0,106	0,063
-274,643	57,962	-0,080	-0,057
-273,628	-200,000	0,036	-0,138
-272,613	800,000	0,012	-0,029
-271,599	800,000	0,043	0,136
-270,584	82,724	0,200	0,159
-269,570	-200,000	0,019	0,129
-268,555	666,314	-0,056	-0,106
-267,540	24,318	-0,098	0,059
-266,526	340,901	-0,018	0,026
-265,511	455,782	0,019	0,031
-264,497	-152,275	0,080	-0,004
-263,482	-200,000	-0,039	0,265
-262,467	-200,000	0,011	-0,045
-261,453	800,000	0,007	-0,017
-260,438	800,000	0,007	-0,016
-259,424	701,377	0,009	-0,017
-258,409	313,828	0,009	0,012
-257,395	9,213	-0,107	-0,059
-256,380	624,675	-0,016	0,029
-255,365	-111,180	0,130	0,019
-254,351	-94,424	0,111	0,022
-253,336	307,096	-0,025	-0,034
-252,322	32,791	-0,080	-0,051
-251,307	-17,721	-0,075	-0,034
-250,292	-16,637	0,141	-0,065
-249,278	-38,069	0,160	0,062
-248,263	-175,958	0,076	-0,001
-247,249	800,000	-0,002	-0,005
-246,234	-200,000	0,006	0,031
-245,219	111,057	-0,121	-0,107
-244,205	147,556	-0,077	-0,075
-243,190	287,910	0,082	0,108
-242,176	143,195	-0,043	-0,041
-241,161	-200,000	0,017	0,079
-240,146	3,601	-0,022	-0,011
-239,132	12,619	-0,125	-0,070
-238,117	-23,351	0,130	0,057
-237,103	71,301	-0,051	-0,038
-236,088	-200,000	0,003	0,161
-235,073	59,743	0,065	-0,047
-234,059	792,217	-0,079	0,160
-233,044	154,482	0,165	0,165
-232,030	-200,000	0,002	0,020
-231,015	682,389	-0,007	-0,013
-230,000	-200,000	-0,005	-0,029
-228,986	6,318	0,111	-0,060
-227,971	-91,226	0,034	0,007
-226,957	-200,000	-0,017	-0,094
-225,942	800,000	-0,033	0,077
-224,927	-200,000	-0,006	0,047
-223,913	800,000	0,047	-0,110
-222,898	800,000	0,044	0,108
-221,884	-131,788	-0,061	0,006
-220,869	-125,783	0,067	-0,007
-219,855	-116,977	0,009	-0,001
-218,840	105,818	0,111	-0,096
-217,825	-0,715	0,088	0,045
-216,811	-116,510	-0,060	0,008
-215,796	800,000	0,041	-0,100
-214,782	-120,473	0,009	-0,001
-213,767	-37,886	0,036	-0,014
-212,752	-3,686	0,046	-0,023
-211,738	238,251	0,095	0,115
-210,723	160,543	0,109	0,111
-209,709	800,000	-0,010	-0,028
-208,694	800,000	-0,031	-0,082
-207,679	613,786	0,024	-0,045
-206,665	619,881	-0,024	0,043
-205,650	-40,692	0,024	-0,009
-204,636	-21,264	0,060	0,027
-203,621	88,396	0,068	0,055
-202,606	-117,080	0,046	0,006
-201,592	-64,896	-0,197	-0,058
-200,577	-128,835	0,118	-0,012
-199,563	-197,222	0,113	0,001
-198,548	99,899	-0,024	0,021
-197,533	-115,472	0,135	-0,018
-196,519	117,956	-0,045	-0,040
-195,504	618,445	-0,034	-0,062
-194,490	-133,980	-0,152	0,014
-193,475	-98,911	-0,182	0,033
-192,460	-101,644	0,069	0,012
-191,446	-105,772	0,014	0,002
-190,431	10,968	0,158	0,088
-189,417	261,676	-0,022	0,028
-188,402	540,982	0,029	-0,050
-187,387	-93,212	0,072	-0,015
-186,373	-116,880	-0,057	-0,008
-185,358	-200,000	-0,015	0,059
-184,344	-200,000	-0,012	-0,071
-183,329	-89,639	0,124	0,026
-182,315	-109,512	0,080	-0,012
-181,300	800,000	-0,055	-0,145
-180,285	800,000	-0,059	0,125
-179,271	-200,000	-0,033	-0,190
-178,256	-200,000	0,008	-0,107
-177,242	-22,856	0,086	-0,038
-176,227	-177,994	-0,086	0,001
-175,212	-179,016	-0,083	-0,001
-174,198	-66,645	-0,058	-0,017
-173,183	-200,000	0,007	-0,087
-172,169	137,040	-0,130	0,123
-171,154	106,690	-0,092	-0,080
-170,139	24,551	-0,096	0,058
-169,125	-83,778	0,203	0,047
-168,110	93,608	0,090	0,074
-167,096	40,048	0,112	0,073
-166,081	800,000	-0,023	-0,066
-165,066	-46,364	-0,145	-0,052
-164,052	20,677	0,041	0,024
-163,037	-200,000	0,009	0,040
-162,023	221,731	0,095	0,112
-161,008	138,593	0,100	0,095
-159,993	23,909	-0,142	0,085
-158,979	800,000	-0,039	-0,113
-157,964	-200,000	0,016	-0,167
-156,950	188,237	-0,048	0,052
-155,935	-63,277	0,139	-0,042
-154,920	-23,575	-0,030	0,013
-153,906	-8,698	0,104	-0,050
-152,891	-8,927	-0,110	0,054
-151,877	95,825	-0,089	0,074
-150,862	-200,000	0,010	-0,125
-149,847	96,099	-0,117	0,097
-148,833	-39,887	0,088	-0,033
-147,818	325,014	0,031	0,043
-146,804	-200,000	-0,004	0,181
-145,789	-116,459	-0,047	-0,006
-144,775	-200,000	-0,006	-0,064
-143,760	-34,167	0,117	-0,047
-142,745	96,204	-0,147	-0,123
-141,731	-200,000	0,004	0,091
-140,716	-200,000	0,014	0,074
-139,702	29,747	0,062	-0,038
-138,687	-150,076	0,122	0,007
-137,672	-88,443	-0,089	-0,019
-136,658	-129,628	-0,076	-0,007
-135,643	-112,241	-0,146	0,021
-134,629	800,000	0,048	0,134
-133,614	77,638	0,053	-0,041
-132,599	-155,954	0,113	0,005
-131,585	800,000	0,037	0,099
-130,570	-200,000	0,003	0,028
-129,556	734,611	0,068	-0,134
-128,541	800,000	-0,022	-0,048
-127,526	800,000	0,042	0,086
-126,512	-128,530	-0,049	-0,005
-125,497	211,663	-0,040	-0,046
-124,483	-200,000	0,025	-0,133
-123,468	-200,000	0,004	-0,120
-122,453	137,598	-0,058	-0,056
-121,439	60,087	-0,094	0,068
-120,424	-181,914	-0,091	-0,001
-119,410	495,257	-0,066	0,111
