DTS Sentinel unit serial number:	SN410029Multiplexer serial number:	ORYXHardware model number:	OX2-SRSoftware version number:	ORYX F/W v4,00 Oryx Data Collector v3.7.2.0data status	okinstallation	B6 Nyhavnadifferential loss correction	single-endedforward channel	channel 2reverse channel	N/Adate	2023/12/09time	18:00:08forward acquisition time	300,00reverse acquisition time	0,00gamma	499,1914k internal	0,3130k external	0,3130temperature offset calibration	1,0000default loss term (dB/km)	0,3820temperature slope calibration	1,0000multiplexer offset coefficient	1,0000multiplexer slope coefficient	1,0000fibre end	0,00T internal ref (°C)	21,03T ext. ref 1 (°C)	4,77T ext. ref 2 (°C)	4,77length (m)	temperature (°C)	Stokes	anti-Stokes-744,400	-98,935	0,143	0,027
-743,385	1,650	-0,167	0,089
-742,371	-76,658	0,088	0,023
-741,356	-57,133	-0,166	0,054
-740,342	-60,933	0,103	-0,032
-739,327	-86,355	-0,246	0,056
-738,312	-176,675	0,125	-0,002
-737,298	-114,006	-0,164	-0,023
-736,283	44,155	0,039	0,026
-735,269	-81,050	-0,281	-0,069
-734,254	206,038	-0,039	-0,045
-733,239	-108,996	-0,378	-0,059
-732,225	18,186	0,124	0,073
-731,210	800,000	0,028	0,059
-730,196	800,000	0,022	-0,060
-729,181	800,000	0,022	-0,059
-728,167	71,485	0,031	-0,024
-727,152	147,665	0,018	-0,019
-726,137	-200,000	-0,034	-0,146
-725,123	71,011	-0,179	-0,138
-724,108	-200,000	-0,032	-0,186
-723,094	-200,000	-0,004	-0,038
-722,079	92,865	-0,089	-0,075
-721,064	360,782	-0,041	-0,061
-720,050	135,069	0,129	-0,124
-719,035	-154,096	0,117	0,006
-718,021	-109,781	0,043	0,007
-717,006	307,238	0,048	0,067
-715,991	-76,087	-0,147	-0,038
-714,977	800,000	-0,013	-0,036
-713,962	800,000	0,008	0,026
-712,948	800,000	-0,061	0,154
-711,933	-178,162	-0,041	-0,001
-710,918	77,589	-0,103	-0,081
-709,904	-200,000	0,004	-0,025
-708,889	800,000	0,096	-0,222
-707,875	116,324	-0,045	0,041
-706,860	323,432	0,039	-0,055
-705,845	-200,000	0,003	0,101
-704,831	15,801	0,053	-0,031
-703,816	-200,000	-0,003	0,011
-702,802	-152,796	-0,034	0,002
-701,787	-200,000	0,034	-0,150
-700,772	-87,525	-0,013	0,003
-699,758	-92,129	0,069	0,014
-698,743	-171,119	0,064	0,002
-697,729	19,999	0,089	0,053
-696,714	-200,000	0,015	-0,062
-695,699	-27,504	-0,079	0,034
-694,685	-200,000	-0,013	0,095
-693,670	800,000	0,052	-0,138
-692,656	-168,476	-0,029	-0,001
-691,641	800,000	-0,035	0,079
-690,627	381,617	0,059	0,090
-689,612	-200,000	0,018	0,094
-688,597	29,636	-0,093	0,059
-687,583	-114,512	-0,105	-0,015
-686,568	215,437	0,051	0,061
-685,554	-79,271	-0,058	-0,014
-684,539	6,502	-0,071	-0,039
-683,524	220,618	0,061	0,073
-682,510	800,000	0,006	0,014
-681,495	459,461	-0,026	-0,043
-680,481	-200,000	0,005	-0,094
-679,466	-45,429	-0,068	0,025
-678,451	268,026	0,100	0,130
-677,437	-200,000	0,002	-0,086
-676,422	800,000	-0,014	-0,035
-675,408	-32,027	0,130	0,054
-674,393	488,699	-0,057	-0,098
-673,378	13,879	-0,092	-0,053
-672,364	286,704	-0,052	-0,069
-671,349	-200,000	0,002	0,065
-670,335	800,000	0,031	0,071
-669,320	37,613	-0,112	-0,073
-668,305	800,000	0,020	0,051
-667,291	-200,000	0,002	0,118
-666,276	91,039	0,088	-0,073
-665,262	303,138	-0,072	-0,099
-664,247	800,000	-0,006	0,018
-663,232	-193,580	-0,113	-0,001
-662,218	-99,254	0,141	-0,026
-661,203	50,267	-0,078	-0,055
-660,189	-55,621	0,099	-0,033
-659,174	615,501	-0,059	-0,110
-658,159	-200,000	-0,024	-0,107
-657,145	68,896	-0,060	-0,046
-656,130	-200,000	-0,003	-0,073
-655,116	800,000	0,016	0,042
-654,101	-103,816	0,011	-0,002
-653,086	210,181	-0,063	-0,074
-652,072	-78,062	-0,127	-0,032
-651,057	-107,830	-0,109	-0,017
-650,043	-154,821	-0,133	0,006
-649,028	-200,000	-0,003	-0,094
-648,014	-85,756	0,176	-0,040
-646,999	168,200	0,080	-0,085
-645,984	767,937	0,043	0,088
-644,970	626,758	-0,028	-0,052
-643,955	-15,237	-0,041	0,019
-642,941	-51,413	-0,107	0,037
-641,926	272,109	0,011	0,014
-640,911	-37,814	-0,014	-0,006
-639,897	751,063	0,027	-0,054
-638,882	408,374	-0,021	-0,033
-637,868	-8,983	-0,148	0,073
-636,853	800,000	-0,023	-0,075
-635,838	525,936	-0,040	-0,071
-634,824	159,201	0,125	-0,128
-633,809	36,047	-0,007	-0,004
-632,795	58,472	0,068	-0,050
-631,780	171,510	0,007	0,008
-630,765	115,023	-0,050	0,045
-629,751	-200,000	-0,024	-0,117
-628,736	-121,039	-0,055	-0,007
-627,722	371,066	-0,014	-0,020
-626,707	21,015	-0,106	0,063
-625,692	632,637	0,032	0,061
-624,678	73,536	0,057	0,044
-623,663	706,010	-0,012	0,024
-622,649	12,098	-0,017	0,010
-621,634	-200,000	-0,014	-0,090
-620,619	-200,000	0,019	-0,079
-619,605	800,000	-0,020	0,045
-618,590	-200,000	-0,010	0,034
-617,576	-73,838	0,069	0,019
-616,561	152,188	-0,017	0,017
-615,546	-200,000	0,069	-0,241
-614,532	334,949	-0,060	-0,087
-613,517	29,068	-0,045	0,028
-612,503	-35,309	-0,029	-0,012
-611,488	-85,871	0,077	-0,018
-610,474	346,391	-0,022	0,032
-609,459	800,000	-0,092	-0,214
-608,444	673,564	-0,089	-0,171
-607,430	-0,883	-0,025	-0,013
-606,415	-200,000	-0,023	-0,109
-605,401	521,083	0,025	0,044
-604,386	599,427	0,039	0,072
-603,371	-90,128	0,031	-0,007
-602,357	800,000	0,059	-0,159
-601,342	-200,000	0,016	0,075
-600,328	405,634	0,050	-0,078
-599,313	-24,602	-0,157	-0,069
-598,298	800,000	-0,016	-0,046
-597,284	65,721	-0,074	-0,056
-596,269	199,273	0,060	-0,068
-595,255	-133,922	-0,100	-0,009
-594,240	-99,652	-0,088	-0,016
-593,225	-200,000	-0,019	-0,063
-592,211	800,000	-0,014	-0,044
-591,196	537,741	-0,063	0,111
-590,182	353,758	0,063	0,093
-589,167	-133,987	0,140	0,013
-588,152	162,920	-0,091	0,094
-587,138	-119,554	-0,112	0,014
-586,123	800,000	0,012	-0,025
-585,109	110,388	0,095	-0,084
-584,094	469,907	-0,029	-0,048
-583,079	-123,812	-0,032	0,004
-582,065	-147,577	0,078	-0,005
-581,050	-41,385	0,051	-0,019
-580,036	-200,000	-0,009	0,062
-579,021	226,547	-0,005	0,006
-578,006	-87,048	0,029	0,007
-576,992	-97,577	-0,137	0,026
-575,977	-25,097	0,072	-0,031
-574,963	-38,392	-0,080	0,031
-573,948	-200,000	-0,003	0,111
-572,934	574,885	-0,066	0,120
-571,919	-152,038	0,013	0,001
-570,904	-23,976	0,112	-0,049
-569,890	-30,197	-0,076	-0,032
-568,875	-200,000	0,003	0,096
-567,861	-21,279	-0,032	0,014
-566,846	205,426	-0,058	0,066
-565,831	800,000	-0,035	-0,104
-564,817	54,568	-0,160	0,114
-563,802	-200,000	-0,020	-0,112
-562,788	796,632	0,060	0,124
-561,773	-200,000	0,021	-0,151
-560,758	-99,119	0,069	-0,013
-559,744	271,554	-0,066	0,086
-558,729	258,512	0,057	0,073
-557,715	333,294	0,022	-0,031
-556,700	-100,443	0,044	0,008
-555,685	161,874	-0,058	0,060
-554,671	-106,332	-0,052	0,008
-553,656	127,089	0,027	0,025
-552,642	-200,000	0,003	0,039
-551,627	-12,875	0,021	-0,010
-550,612	-200,000	0,003	-0,013
-549,598	-7,776	-0,065	-0,032
-548,583	-200,000	0,011	-0,164
-547,569	139,144	-0,083	0,081
-546,554	800,000	0,065	0,169
-545,539	91,326	-0,116	0,096
-544,525	300,299	0,042	-0,057
-543,510	-97,491	0,077	0,015
-542,496	61,073	0,142	0,104
-541,481	0,348	-0,142	-0,075
-540,466	800,000	-0,025	0,068
-539,452	800,000	0,027	-0,063
-538,437	800,000	0,059	0,175
-537,423	-98,153	-0,026	0,005
-536,408	-69,143	-0,059	0,017
-535,393	25,500	-0,060	-0,037
-534,379	100,903	-0,070	-0,060
-533,364	-4,286	-0,150	0,076
-532,350	272,193	0,086	0,112
-531,335	-26,211	0,061	0,027
-530,321	58,739	-0,073	-0,053
-529,306	328,216	0,044	0,063
-528,291	-85,647	-0,093	-0,021
-527,277	800,000	0,120	0,291
-526,262	-200,000	0,014	0,099
-525,248	546,417	-0,021	-0,037
-524,233	261,456	0,020	-0,026
-523,218	-171,582	0,075	-0,002
-522,204	-133,251	-0,089	0,008
-521,189	707,475	-0,058	0,113
-520,175	-200,000	0,035	-0,123
-519,160	-6,949	-0,051	-0,026
-518,145	800,000	-0,037	0,109
-517,131	86,490	-0,086	-0,070
-516,116	600,268	-0,048	-0,088
-515,102	-200,000	0,009	-0,071
-514,087	-114,361	-0,181	0,025
-513,072	-140,751	-0,054	-0,004
-512,058	13,780	0,063	0,036
-511,043	270,733	0,035	-0,046
-510,029	-81,764	-0,047	0,011
-509,014	512,551	0,096	0,165
-507,999	800,000	0,077	-0,193
-506,985	-200,000	-0,023	-0,093
-505,970	-101,115	-0,154	-0,028
-504,956	-127,126	-0,069	0,007
-503,941	-200,000	0,019	-0,071
-502,926	-200,000	-0,008	0,039
-501,912	23,338	0,060	-0,036
-500,897	-200,000	-0,009	0,033
-499,883	800,000	-0,033	-0,081
-498,868	-200,000	-0,019	-0,168
-497,853	146,052	-0,060	-0,059
-496,839	183,556	-0,080	-0,087
-495,824	240,810	-0,120	0,148
-494,810	358,165	-0,040	-0,059
-493,795	800,000	-0,022	-0,066
-492,781	25,059	0,058	0,035
-491,766	-40,454	-0,107	0,041
-490,751	-200,000	-0,020	-0,099
-489,737	305,831	0,010	-0,014
-488,722	227,529	-0,104	-0,124
-487,708	61,212	0,041	0,030
-486,693	13,488	0,112	-0,064
-485,678	-200,000	0,021	-0,112
-484,664	-48,209	-0,050	-0,018
-483,649	-119,615	-0,152	0,019
-482,635	800,000	-0,044	0,124
-481,620	800,000	-0,024	0,049
-480,605	267,973	-0,051	-0,065
-479,591	20,013	0,074	0,044
-478,576	59,932	0,073	0,053
-477,562	-200,000	-0,001	0,004
-476,547	-200,000	-0,018	-0,133
-475,532	-200,000	0,015	-0,077
-474,518	800,000	0,028	-0,068
-473,503	-28,468	0,084	0,035
-472,489	86,587	-0,041	0,033
-471,474	201,649	0,007	-0,008
-470,459	266,016	-0,008	-0,010
-469,445	-200,000	-0,006	-0,031
-468,430	-111,164	-0,113	-0,017
-467,416	-155,410	-0,093	-0,004
-466,401	-154,967	-0,097	0,005
-465,386	-200,000	-0,000	0,011
-464,372	-86,135	0,025	-0,006
-463,357	-113,968	-0,028	-0,004
-462,343	85,453	0,064	-0,052
-461,328	-99,013	-0,025	0,005
-460,313	118,292	0,053	0,048
-459,299	53,225	-0,066	0,046
-458,284	-200,000	-0,018	0,078
-457,270	-90,960	-0,003	0,001
-456,255	-36,676	-0,046	-0,018
-455,241	75,380	-0,063	-0,049
-454,226	70,251	-0,090	-0,068
-453,211	96,206	-0,032	0,027
-452,197	800,000	0,050	0,118
-451,182	140,262	-0,045	0,044
-450,168	319,286	-0,044	0,062
-449,153	-163,356	-0,020	0,001
-448,138	600,134	-0,082	-0,151
-447,124	-200,000	0,013	-0,061
-446,109	279,946	-0,010	-0,014
-445,095	800,000	0,020	0,065
-444,080	-41,953	0,055	-0,021
-443,065	461,800	0,040	-0,065
-442,051	-121,672	0,114	0,014
-441,036	18,464	-0,136	-0,080
-440,022	-200,000	0,007	-0,064
-439,007	800,000	-0,017	-0,053
-437,992	48,712	-0,077	-0,053
-436,978	-200,000	-0,014	0,128
-435,963	-200,000	0,021	0,090
-434,949	800,000	-0,027	-0,060
-433,934	-72,283	-0,096	0,026
-432,919	-181,584	-0,097	-0,001
-431,905	-200,000	-0,012	-0,094
-430,890	-200,000	0,019	-0,100
-429,876	-200,000	-0,029	0,195
-428,861	-47,190	0,116	-0,041
-427,846	683,048	-0,032	-0,061
-426,832	800,000	0,012	-0,035
-425,817	298,843	0,023	-0,031
-424,803	800,000	-0,023	0,065
-423,788	-200,000	-0,017	0,094
-422,773	800,000	0,071	0,169
-421,759	-170,564	0,106	-0,003
-420,744	242,936	0,006	-0,007
-419,730	68,866	-0,060	0,045
-418,715	-30,355	-0,065	-0,027
-417,701	572,756	0,051	-0,092
-416,686	-200,000	0,009	0,184
-415,671	4,744	0,052	-0,028
-414,657	800,000	0,037	-0,093
-413,642	346,626	0,013	0,019
-412,628	508,054	-0,001	-0,002
-411,613	-200,000	-0,008	-0,133
-410,598	-200,000	0,015	-0,089
-409,584	-200,000	0,001	0,048
-408,569	315,654	-0,002	-0,003
-407,555	286,475	0,086	0,114
-406,540	195,350	0,034	0,038
-405,525	176,608	0,051	0,055
-404,511	311,394	-0,058	0,080
-403,496	-2,838	-0,044	0,023
-402,482	-200,000	0,020	0,142
-401,467	-43,050	0,046	-0,017
-400,452	-170,455	-0,024	0,001
-399,438	-46,740	-0,227	0,081
-398,423	-153,211	0,076	-0,004
-397,409	-127,155	-0,157	0,017
-396,394	86,438	0,029	-0,023
-395,379	-200,000	0,026	-0,098
-394,365	-65,119	-0,051	-0,015
-393,350	-162,121	-0,091	-0,003
-392,336	-200,000	0,024	-0,083
-391,321	-44,319	0,134	-0,049
-390,306	-25,061	-0,022	-0,009
-389,292	-200,000	0,011	0,089
-388,277	-31,529	0,105	0,043
-387,263	128,843	0,143	0,134
-386,248	-135,141	0,065	0,006
-385,233	-200,000	0,018	-0,085
-384,219	400,960	-0,031	-0,048
-383,204	-98,181	0,011	0,002
-382,190	-64,894	-0,062	0,018
-381,175	25,004	0,120	0,073
-380,160	382,330	0,090	0,135
-379,146	800,000	-0,031	-0,063
-378,131	171,780	0,056	0,059
-377,117	800,000	0,034	-0,071
-376,102	449,829	-0,038	0,062
-375,088	-127,476	0,066	-0,007
-374,073	-200,000	-0,066	0,000
-373,058	-200,000	-0,008	-0,061
-372,044	253,483	-0,019	-0,023
-371,029	-200,000	-0,019	0,163
-370,015	-129,103	-0,107	-0,011
-369,000	26,309	0,110	0,067
-367,985	800,000	0,050	-0,108
-366,971	-132,599	0,060	0,006
-365,956	-200,000	0,010	-0,054
-364,942	62,793	-0,019	-0,014
-363,927	-200,000	0,000	-0,038
-362,912	800,000	-0,040	-0,119
-361,898	-78,280	-0,083	0,021
-360,883	-28,694	-0,183	-0,077
-359,869	646,530	-0,041	-0,076
-358,854	387,237	0,078	-0,119
-357,839	185,799	-0,049	-0,053
-356,825	-200,000	0,021	0,134
-355,810	497,168	0,068	-0,115
-354,796	321,979	0,058	0,082
-353,781	-12,186	0,063	-0,030
-352,766	21,119	-0,028	-0,017
-351,752	695,285	0,044	0,085
-350,737	86,624	-0,041	-0,033
-349,723	-123,283	0,137	-0,016
-348,708	98,104	0,023	-0,019
-347,693	347,442	0,050	-0,072
-346,679	124,910	0,061	-0,056
-345,664	-200,000	0,013	-0,104
-344,650	-200,000	-0,012	-0,145
-343,635	85,614	0,163	-0,131
-342,620	-97,393	0,115	0,022
-341,606	-200,000	0,039	0,190
-340,591	-39,304	0,132	0,050
-339,577	-71,310	0,071	0,019
-338,562	37,235	-0,117	0,076
-337,548	-14,890	0,064	-0,030
-336,533	-200,000	0,016	0,080
-335,518	-70,703	-0,106	-0,029
-334,504	-120,704	0,119	0,015
-333,489	-200,000	0,012	-0,078
-332,475	-200,000	-0,001	-0,082
-331,460	-113,142	-0,063	0,009
-330,445	19,993	0,049	-0,029
-329,431	-138,639	0,103	-0,008
-328,416	26,624	0,023	-0,014
-327,402	800,000	0,025	0,077
-326,387	-104,361	-0,032	-0,005
-325,372	-200,000	0,006	-0,092
-324,358	286,941	-0,060	-0,079
-323,343	-200,000	-0,009	-0,120
-322,329	-200,000	0,013	0,048
-321,314	-104,210	-0,061	-0,010
-320,299	256,779	-0,058	0,073
-319,285	282,441	0,107	0,141
-318,270	-48,962	0,141	0,049
-317,256	50,236	-0,076	-0,052
-316,241	-200,000	0,005	-0,041
-315,226	154,020	0,040	-0,040
-314,212	-78,616	-0,097	0,024
-313,197	-200,000	-0,033	0,168
-312,183	-200,000	0,020	0,148
-311,168	-200,000	-0,035	-0,172
-310,153	253,346	-0,074	-0,092
-309,139	-177,109	0,039	0,001
-308,124	538,473	-0,012	-0,020
-307,110	-10,688	0,135	0,065
-306,095	610,316	0,030	-0,055
-305,080	-122,489	-0,029	0,003
-304,066	-63,448	0,095	0,028
-303,051	-192,507	-0,057	0,000
-302,037	178,146	0,052	0,055
-301,022	-135,338	0,202	0,017
-300,008	-200,000	0,004	0,118
-298,993	221,020	-0,117	0,138
-297,978	248,111	-0,055	0,068
-296,964	-200,000	0,005	0,151
-295,949	588,150	0,049	-0,089
-294,935	-200,000	-0,015	-0,128
-293,920	-114,770	0,107	0,015
-292,905	-36,171	0,136	0,053
-291,891	-122,959	-0,086	-0,010
-290,876	-152,271	0,140	-0,007
-289,862	800,000	0,041	0,097
-288,847	-200,000	0,037	-0,214
-287,832	13,832	0,050	0,028
-286,818	-200,000	0,004	-0,055
-285,803	-77,395	0,100	-0,025
-284,789	-17,218	-0,139	-0,064
-283,774	281,797	-0,043	0,057
-282,759	15,386	-0,072	-0,041
-281,745	-200,000	0,017	-0,085
-280,730	800,000	-0,014	-0,037
-279,716	800,000	0,030	-0,073
-278,701	-37,771	0,035	-0,014
-277,686	707,604	-0,016	0,031
-276,672	-103,647	-0,051	-0,009
-275,657	-200,000	-0,013	-0,132
-274,643	291,553	-0,047	-0,063
-273,628	108,264	0,121	-0,105
-272,613	393,161	-0,019	0,029
-271,599	-146,980	-0,038	0,002
-270,584	198,618	0,145	0,162
-269,570	-200,000	0,062	0,254
-268,555	800,000	0,067	0,181
-267,540	-59,660	0,106	-0,033
-266,526	-200,000	0,008	0,037
-265,511	21,513	-0,059	0,035
-264,497	36,062	-0,063	0,040
-263,482	646,231	0,035	-0,065
-262,467	363,026	0,035	-0,052
-261,453	53,233	-0,095	-0,066
-260,438	-200,000	-0,021	0,117
-259,424	-72,740	0,057	0,015
-258,409	-127,936	0,098	0,010
-257,395	202,117	0,112	-0,126
-256,380	64,445	0,069	0,050
-255,365	-193,902	-0,009	0,000
-254,351	800,000	-0,047	0,112
-253,336	177,207	-0,039	0,041
-252,322	-77,077	-0,053	0,013
-251,307	-73,802	0,067	0,018
-250,292	11,204	0,025	0,014
-249,278	65,768	0,073	0,054
-248,263	-81,914	0,114	-0,027
-247,249	20,006	0,083	0,049
-246,234	14,820	-0,092	-0,052
-245,219	371,908	-0,054	-0,080
-244,205	800,000	-0,055	0,117
-243,190	211,062	0,033	-0,038
-242,176	540,389	-0,031	-0,054
-241,161	-1,384	0,107	0,055
-240,146	-52,516	0,128	-0,043
-239,132	177,958	0,017	0,018
-238,117	800,000	0,043	-0,099
-237,103	-67,725	0,153	0,043
-236,088	-9,822	0,023	-0,011
-235,073	-83,704	0,172	0,040
-234,059	163,510	-0,056	0,058
-233,044	-200,000	0,006	0,027
-232,030	715,717	0,013	-0,025
-231,015	-3,699	0,100	-0,050
-230,000	800,000	-0,026	-0,064
-228,986	800,000	0,058	-0,139
-227,971	-200,000	0,034	0,170
-226,957	-27,915	0,181	0,076
-225,942	100,951	-0,053	0,045
-224,927	315,687	-0,085	0,117
-223,913	800,000	-0,054	-0,121
-222,898	48,641	-0,039	-0,027
-221,884	800,000	0,024	-0,075
-220,869	13,446	-0,137	0,077
-219,855	390,277	0,082	0,125
-218,840	14,323	-0,090	0,051
-217,825	33,753	0,013	-0,008
-216,811	-200,000	-0,022	0,081
-215,796	19,657	0,038	-0,022
-214,782	445,269	-0,076	-0,122
-213,767	-115,516	0,031	0,004
-212,752	76,099	0,118	0,091
-211,738	-200,000	-0,001	0,040
-210,723	800,000	-0,019	0,052
-209,709	-200,000	-0,022	0,114
-208,694	800,000	-0,046	-0,139
-207,679	626,599	0,029	-0,054
-206,665	-200,000	-0,019	0,106
-205,650	-177,345	0,071	0,001
-204,636	-107,397	0,064	-0,010
-203,621	-200,000	0,033	-0,115
-202,606	37,355	-0,170	0,109
-201,592	-82,548	0,143	-0,033
-200,577	195,592	-0,081	-0,090
-199,563	-14,293	0,073	0,034
-198,548	64,449	0,024	0,018
-197,533	48,769	-0,085	0,058
-196,519	103,786	-0,081	0,069
-195,504	-200,000	-0,014	0,107
-194,490	-200,000	-0,016	0,191
-193,475	164,402	-0,143	-0,147
-192,460	574,947	0,079	0,142
-191,446	-88,506	0,124	-0,027
-190,431	800,000	-0,039	0,124
-189,417	-200,000	0,008	0,059
-188,402	-200,000	0,023	0,192
-187,387	800,000	-0,033	0,081
-186,373	250,208	0,100	0,123
-185,358	13,820	0,060	-0,034
-184,344	17,152	0,096	-0,055
-183,329	-200,000	0,010	0,082
-182,315	63,247	0,114	0,083
-181,300	0,211	-0,147	-0,076
-180,285	800,000	0,018	0,039
-179,271	-17,990	-0,139	-0,063
-178,256	-131,356	-0,132	-0,013
-177,242	-119,703	-0,065	0,008
-176,227	-200,000	-0,002	0,069
-175,212	85,938	0,115	-0,092
-174,198	306,967	-0,063	-0,086
-173,183	-32,405	-0,015	0,006
-172,169	-57,047	-0,129	0,041
-171,154	-56,780	-0,078	0,025
-170,139	-60,250	-0,047	-0,015
-169,125	99,678	0,070	-0,059
-168,110	58,428	0,053	0,038
-167,096	429,422	-0,050	0,078
-166,081	-43,414	-0,052	-0,019
-165,066	179,180	-0,109	-0,117
-164,052	149,336	-0,131	-0,129
-163,037	271,532	-0,030	-0,039
-162,023	-96,615	-0,052	-0,010
-161,008	-10,419	0,063	-0,030
-159,993	17,639	0,015	0,008
-158,979	203,046	-0,034	0,038
-157,964	-200,000	-0,034	-0,113
-156,950	800,000	0,009	0,022
-155,935	61,933	0,050	0,036
-154,920	292,333	0,111	0,147
-153,906	-114,184	-0,074	0,010
-152,891	41,061	0,131	-0,086
-151,877	-160,677	-0,155	0,006
-150,862	634,479	-0,007	0,012
-149,847	185,737	-0,047	0,051
-148,833	-200,000	0,027	-0,150
-147,818	48,513	0,089	-0,061
-146,804	-200,000	-0,019	0,138
-145,789	290,204	0,060	0,079
-144,775	-107,956	0,023	0,004
-143,760	-81,900	0,036	0,009
-142,745	-200,000	-0,019	-0,141
-141,731	-200,000	-0,004	0,032
-140,716	-200,000	0,006	0,043
-139,702	-11,474	-0,087	0,042
-138,687	150,062	-0,079	-0,078
-137,672	800,000	-0,015	0,042
-136,658	454,779	0,046	-0,074
-135,643	-0,858	-0,022	0,011
-134,629	205,585	0,052	0,058
-133,614	-200,000	-0,015	-0,148
-132,599	207,182	0,084	-0,095
-131,585	800,000	-0,049	0,107
-130,570	-132,696	0,097	0,009
-129,556	82,077	-0,060	-0,047
-128,541	-200,000	0,005	-0,081
-127,526	-22,924	-0,137	0,060
-126,512	430,655	0,081	-0,128
-125,497	172,778	0,064	0,067
-124,483	-200,000	0,007	0,144
-123,468	800,000	0,013	0,039
-122,453	36,585	0,024	-0,015
-121,439	5,661	-0,047	0,025
-120,424	-200,000	0,001	-0,094
-119,410	100,746	-0,076	0,064
