DTS Sentinel unit serial number:	SN410029Multiplexer serial number:	ORYXHardware model number:	OX2-SRSoftware version number:	ORYX F/W v4,00 Oryx Data Collector v3.7.2.0data status	okinstallation	B6 Nyhavnadifferential loss correction	single-endedforward channel	channel 2reverse channel	N/Adate	2023/12/08time	00:00:08forward acquisition time	300,00reverse acquisition time	0,00gamma	499,1914k internal	0,3164k external	0,3164temperature offset calibration	1,0000default loss term (dB/km)	0,3820temperature slope calibration	1,0000multiplexer offset coefficient	1,0000multiplexer slope coefficient	1,0000fibre end	0,00T internal ref (°C)	13,38T ext. ref 1 (°C)	-3,55T ext. ref 2 (°C)	-3,55length (m)	temperature (°C)	Stokes	anti-Stokes-744,400	52,694	0,018	0,013
-743,385	-52,779	-0,302	0,102
-742,371	-200,000	0,013	0,072
-741,356	-144,274	-0,289	-0,020
-740,342	-10,079	0,183	0,089
-739,327	-86,658	-0,308	-0,069
-738,312	777,646	0,080	0,161
-737,298	-30,330	-0,248	0,103
-736,283	112,297	0,112	0,100
-735,269	-123,740	-0,344	-0,039
-734,254	-15,101	0,063	0,030
-733,239	-69,510	-0,364	-0,102
-732,225	-58,759	0,051	0,016
-731,210	800,000	0,022	0,062
-730,196	800,000	0,047	0,100
-729,181	-35,003	0,114	0,045
-728,167	34,148	-0,058	-0,037
-727,152	-200,000	-0,024	-0,142
-726,137	-38,800	0,056	-0,021
-725,123	517,812	-0,028	-0,049
-724,108	-200,000	0,005	-0,112
-723,094	174,797	-0,117	-0,124
-722,079	-172,530	-0,123	-0,003
-721,064	800,000	-0,065	-0,160
-720,050	30,528	-0,139	-0,087
-719,035	155,479	-0,076	0,077
-718,021	-32,643	-0,008	-0,003
-717,006	-27,784	-0,181	-0,077
-715,991	-110,500	0,014	0,002
-714,977	-200,000	-0,039	-0,160
-713,962	-200,000	0,005	-0,121
-712,948	-42,598	0,054	-0,020
-711,933	379,725	-0,092	-0,140
-710,918	-102,149	-0,061	-0,011
-709,904	-200,000	0,008	-0,142
-708,889	-82,584	-0,117	0,028
-707,875	62,454	0,043	-0,031
-706,860	238,124	0,036	-0,043
-705,845	-17,721	0,088	0,040
-704,831	-200,000	-0,006	0,134
-703,816	800,000	0,008	0,020
-702,802	-140,606	0,037	-0,003
-701,787	35,410	-0,054	-0,034
-700,772	-200,000	-0,029	-0,153
-699,758	156,446	-0,068	-0,069
-698,743	-63,073	-0,075	0,022
-697,729	-200,000	-0,007	-0,071
-696,714	800,000	-0,050	-0,115
-695,699	-137,825	0,110	-0,009
-694,685	187,134	-0,015	-0,016
-693,670	-200,000	-0,002	-0,040
-692,656	168,447	0,033	-0,034
-691,641	114,670	-0,112	-0,100
-690,627	465,975	0,012	-0,021
-689,612	-200,000	0,009	0,161
-688,597	16,852	-0,079	-0,046
-687,583	333,930	-0,068	-0,097
-686,568	321,786	-0,063	-0,088
-685,554	-62,037	-0,105	0,032
-684,539	-178,750	0,160	0,003
-683,524	800,000	0,053	0,147
-682,510	800,000	-0,032	0,075
-681,495	-121,275	-0,236	0,029
-680,481	217,046	-0,031	-0,036
-679,466	92,111	-0,046	-0,038
-678,451	-200,000	0,013	0,072
-677,437	561,994	-0,108	0,192
-676,422	286,282	0,070	0,093
-675,408	-200,000	0,003	0,024
-674,393	-66,396	0,073	-0,021
-673,378	800,000	0,037	0,112
-672,364	-200,000	0,035	-0,151
-671,349	-170,781	-0,058	0,001
-670,335	-168,891	0,053	0,001
-669,320	114,783	0,032	0,029
-668,305	109,434	-0,092	-0,081
-667,291	52,362	0,069	0,048
-666,276	-200,000	-0,057	-0,211
-665,262	-147,947	-0,145	-0,009
-664,247	-200,000	-0,009	-0,050
-663,232	800,000	-0,012	0,027
-662,218	-200,000	0,020	-0,077
-661,203	-42,948	-0,144	-0,053
-660,189	-200,000	0,009	-0,048
-659,174	277,009	0,015	0,019
-658,159	-101,080	-0,080	0,014
-657,145	70,999	-0,075	0,057
-656,130	628,880	-0,027	-0,051
-655,116	458,953	0,071	0,116
-654,101	-24,815	0,022	0,010
-653,086	26,477	0,103	-0,063
-652,072	800,000	0,017	-0,051
-651,057	-200,000	-0,015	-0,099
-650,043	-200,000	0,006	-0,043
-649,028	-200,000	-0,043	0,000
-648,014	-200,000	-0,014	0,049
-646,999	-200,000	0,012	0,093
-645,984	295,156	0,005	0,007
-644,970	53,391	-0,039	0,027
-643,955	-200,000	0,012	-0,114
-642,941	379,705	-0,006	-0,009
-641,926	-121,626	0,040	-0,005
-640,911	-53,993	0,146	0,049
-639,897	-200,000	-0,004	0,080
-638,882	800,000	-0,032	-0,099
-637,868	734,974	0,059	-0,116
-636,853	157,554	0,053	-0,054
-635,838	205,875	0,054	-0,062
-634,824	108,499	-0,175	-0,153
-633,809	-200,000	0,013	-0,065
-632,795	-200,000	0,026	0,088
-631,780	17,830	-0,047	-0,027
-630,765	121,985	0,014	0,013
-629,751	800,000	-0,073	-0,182
-628,736	158,647	0,057	-0,058
-627,722	633,548	-0,026	0,048
-626,707	222,698	0,071	0,083
-625,692	86,104	0,049	-0,040
-624,678	-200,000	-0,012	0,087
-623,663	-200,000	0,032	0,110
-622,649	800,000	-0,014	0,029
-621,634	-7,826	0,110	0,054
-620,619	-200,000	0,027	-0,092
-619,605	23,584	0,052	0,031
-618,590	-84,274	-0,143	0,033
-617,576	-200,000	0,002	-0,042
-616,561	800,000	-0,074	0,194
-615,546	-122,480	-0,059	0,007
-614,532	-53,413	-0,045	0,015
-613,517	-200,000	0,003	-0,095
-612,503	-33,481	0,076	-0,031
-611,488	-104,606	0,061	-0,010
-610,474	-50,923	0,148	-0,051
-609,459	-200,000	0,007	-0,034
-608,444	800,000	0,041	-0,116
-607,430	-159,579	0,083	-0,003
-606,415	-200,000	-0,059	-0,270
-605,401	-88,996	0,019	0,004
-604,386	67,656	0,100	-0,074
-603,371	19,097	0,049	-0,029
-602,357	-159,069	0,058	-0,002
-601,342	-200,000	-0,013	-0,127
-600,328	-200,000	-0,000	-0,001
-599,313	321,492	-0,042	-0,059
-598,298	666,343	-0,031	0,059
-597,284	482,337	0,073	0,121
-596,269	10,372	0,138	0,076
-595,255	800,000	0,026	0,080
-594,240	-200,000	0,003	0,030
-593,225	84,810	0,036	-0,029
-592,211	42,380	-0,197	-0,131
-591,196	166,224	0,034	0,036
-590,182	-200,000	0,008	0,102
-589,167	800,000	0,055	-0,120
-588,152	191,795	-0,091	0,101
-587,138	-65,002	-0,091	0,027
-586,123	800,000	0,061	-0,183
-585,109	-200,000	-0,002	-0,110
-584,094	45,652	-0,070	-0,047
-583,079	-63,197	0,095	-0,028
-582,065	-200,000	-0,002	0,037
-581,050	739,596	-0,059	0,117
-580,036	-112,017	-0,140	0,020
-579,021	163,322	-0,115	-0,118
-578,006	378,136	-0,043	-0,064
-576,992	625,927	0,024	-0,045
-575,977	-200,000	-0,030	0,152
-574,963	-200,000	0,007	0,042
-573,948	-49,501	0,042	-0,014
-572,934	514,421	-0,006	0,011
-571,919	34,956	-0,044	-0,028
-570,904	-200,000	0,006	-0,072
-569,890	-145,763	-0,083	0,005
-568,875	-200,000	0,015	0,087
-567,861	-61,649	0,087	-0,027
-566,846	320,971	-0,072	-0,100
-565,831	437,747	-0,055	-0,088
-564,817	-121,264	-0,052	0,006
-563,802	-95,447	-0,083	0,016
-562,788	-200,000	-0,028	-0,092
-561,773	-200,000	0,008	-0,145
-560,758	40,092	-0,127	0,083
-559,744	46,104	0,036	-0,024
-558,729	-200,000	-0,002	0,092
-557,715	277,683	0,095	0,123
-556,700	97,040	0,056	-0,047
-555,685	21,835	-0,177	0,105
-554,671	70,356	-0,082	0,062
-553,656	549,810	0,053	-0,093
-552,642	395,492	-0,037	-0,056
-551,627	119,448	0,081	0,073
-550,612	286,054	-0,080	0,106
-549,598	22,613	-0,107	-0,064
-548,583	-134,010	-0,103	0,009
-547,569	-96,712	-0,089	-0,017
-546,554	30,430	0,091	-0,056
-545,539	42,513	-0,065	0,043
-544,525	218,869	-0,073	0,085
-543,510	-200,000	-0,009	-0,052
-542,496	326,235	0,069	-0,096
-541,481	249,012	-0,088	-0,109
-540,466	144,355	-0,065	0,063
-539,452	-141,154	-0,071	0,005
-538,437	-200,000	0,050	0,236
-537,423	322,903	0,071	0,098
-536,408	-200,000	-0,027	-0,153
-535,393	116,819	-0,055	0,050
-534,379	-200,000	-0,000	-0,115
-533,364	-87,724	0,086	-0,019
-532,350	800,000	-0,015	-0,045
-531,335	-200,000	0,020	0,087
-530,321	800,000	0,048	0,104
-529,306	172,776	-0,066	0,069
-528,291	-105,184	0,081	0,013
-527,277	-148,333	-0,086	0,005
-526,262	800,000	0,009	0,022
-525,248	-200,000	-0,038	0,127
-524,233	-74,627	0,088	0,023
-523,218	-200,000	0,005	-0,070
-522,204	-200,000	-0,023	0,100
-521,189	-89,687	-0,091	-0,019
-520,175	-200,000	0,000	-0,033
-519,160	454,815	-0,062	-0,100
-518,145	14,539	0,080	-0,046
-517,131	-200,000	-0,040	-0,152
-516,116	28,827	0,096	0,059
-515,102	667,980	-0,018	0,035
-514,087	-113,519	0,059	0,008
-513,072	-62,926	-0,073	-0,022
-512,058	743,572	-0,031	0,061
-511,043	-200,000	0,002	-0,037
-510,029	291,263	0,065	0,087
-509,014	73,484	-0,011	0,008
-507,999	-200,000	0,028	0,095
-506,985	32,977	-0,108	0,068
-505,970	311,286	-0,026	-0,036
-504,956	-200,000	0,030	-0,096
-503,941	-200,000	-0,014	-0,071
-502,926	367,700	-0,020	0,029
-501,912	800,000	0,044	0,100
-500,897	219,927	0,048	0,056
-499,883	-11,148	0,107	0,051
-498,868	92,766	-0,017	-0,014
-497,853	-142,797	-0,231	-0,016
-496,839	-130,234	-0,073	0,007
-495,824	514,995	-0,051	0,087
-494,810	-49,171	0,091	-0,032
-493,795	800,000	-0,063	-0,157
-492,781	-200,000	0,002	-0,017
-491,766	-200,000	-0,008	-0,056
-490,751	-200,000	-0,016	-0,082
-489,737	-200,000	-0,005	0,132
-488,722	-200,000	0,032	0,111
-487,708	800,000	0,028	-0,071
-486,693	-200,000	-0,052	0,210
-485,678	800,000	0,056	0,124
-484,664	-107,640	-0,097	0,015
-483,649	220,053	0,010	-0,012
-482,635	800,000	0,024	0,067
-481,620	-200,000	0,018	0,116
-480,605	191,135	-0,052	-0,058
-479,591	800,000	0,010	-0,032
-478,576	-142,014	-0,138	0,010
-477,562	-99,167	-0,081	-0,015
-476,547	670,936	-0,037	-0,071
-475,532	153,453	0,101	0,100
-474,518	422,028	-0,055	0,086
-473,503	-200,000	0,008	-0,038
-472,489	-200,000	-0,047	0,157
-471,474	202,391	0,027	0,031
-470,459	389,068	-0,047	-0,071
-469,445	-200,000	0,009	-0,081
-468,430	-89,065	0,213	-0,045
-467,416	800,000	-0,041	0,105
-466,401	505,110	-0,037	-0,063
-465,386	800,000	-0,069	0,145
-464,372	13,588	-0,058	-0,033
-463,357	-7,631	-0,039	-0,019
-462,343	13,140	-0,100	0,056
-461,328	221,917	0,055	0,064
-460,313	-74,484	-0,086	0,022
-459,299	-33,465	0,115	-0,046
-458,284	-85,421	0,042	-0,009
-457,270	220,620	0,064	0,075
-456,255	-142,289	-0,072	0,005
-455,241	-43,352	0,069	0,025
-454,226	-200,000	0,019	0,067
-453,211	90,021	0,028	-0,023
-452,197	253,983	0,020	0,025
-451,182	-200,000	-0,004	-0,042
-450,168	129,418	-0,053	-0,049
-449,153	-85,163	-0,126	0,028
-448,138	171,168	-0,059	-0,062
-447,124	-28,174	0,097	0,041
-446,109	-74,056	0,094	0,025
-445,095	-21,147	0,068	0,030
-444,080	283,191	0,106	0,139
-443,065	198,658	-0,047	-0,053
-442,051	-200,000	-0,031	0,166
-441,036	-127,206	-0,084	0,009
-440,022	-17,674	0,120	0,054
-439,007	-174,487	0,028	0,001
-437,992	177,794	-0,047	0,050
-436,978	-200,000	-0,009	0,037
-435,963	-37,082	0,027	0,010
-434,949	-127,406	-0,030	0,003
-433,934	800,000	-0,016	-0,049
-432,919	-200,000	-0,001	-0,108
-431,905	-200,000	-0,037	0,138
-430,890	800,000	-0,014	-0,033
-429,876	1,955	0,033	0,017
-428,861	122,791	-0,056	0,051
-427,846	244,255	-0,027	0,033
-426,832	800,000	0,028	0,062
-425,817	106,738	-0,018	-0,015
-424,803	57,912	0,019	-0,013
-423,788	-200,000	0,017	0,143
-422,773	218,310	0,058	-0,067
-421,759	800,000	-0,011	-0,026
-420,744	165,241	-0,025	-0,026
-419,730	132,553	0,107	-0,101
-418,715	62,523	-0,187	-0,135
-417,701	-151,653	-0,113	0,006
-416,686	571,383	0,024	0,043
-415,671	211,582	0,050	0,058
-414,657	-10,028	-0,096	0,046
-413,642	-136,233	0,081	-0,007
-412,628	260,710	0,019	0,024
-411,613	-53,296	-0,020	-0,007
-410,598	-136,713	0,051	-0,004
-409,584	800,000	0,039	0,087
-408,569	185,454	0,077	0,083
-407,555	241,849	-0,054	0,065
-406,540	-17,704	-0,054	0,025
-405,525	7,062	0,097	-0,052
-404,511	-200,000	-0,007	-0,117
-403,496	596,845	0,111	-0,201
-402,482	-200,000	-0,007	-0,051
-401,467	-177,916	0,107	-0,002
-400,452	-200,000	-0,024	0,121
-399,438	33,274	0,076	0,048
-398,423	-112,832	0,157	-0,022
-397,409	-200,000	-0,004	-0,047
-396,394	-200,000	0,033	-0,109
-395,379	276,608	0,067	-0,087
-394,365	384,976	-0,023	0,034
-393,350	-200,000	-0,003	-0,031
-392,336	800,000	-0,052	-0,112
-391,321	3,616	-0,066	-0,035
-390,306	-114,330	-0,021	0,003
-389,292	-3,291	-0,056	-0,028
-388,277	800,000	-0,043	-0,113
-387,263	-2,175	0,058	-0,029
-386,248	-200,000	0,008	-0,046
-385,233	384,467	-0,041	0,062
-384,219	-31,961	-0,079	-0,032
-383,204	10,707	0,118	-0,065
-382,190	800,000	0,008	-0,017
-381,175	-76,958	-0,095	0,024
-380,160	207,208	-0,036	-0,041
-379,146	800,000	-0,037	0,081
-378,131	664,411	-0,019	-0,036
-377,117	-200,000	-0,009	-0,049
-376,102	800,000	-0,026	-0,079
-375,088	371,651	-0,060	0,089
-374,073	683,532	-0,023	-0,043
-373,058	25,309	0,053	-0,032
-372,044	243,638	-0,027	-0,033
-371,029	252,750	0,056	-0,070
-370,015	99,762	-0,103	0,086
-369,000	800,000	-0,042	-0,103
-367,985	-166,942	-0,027	0,001
-366,971	800,000	0,060	-0,183
-365,956	800,000	0,030	-0,069
-364,942	-23,447	-0,036	0,016
-363,927	-200,000	0,018	0,064
-362,912	-9,255	0,012	-0,006
-361,898	489,786	-0,045	-0,075
-360,883	128,751	0,099	-0,092
-359,869	143,977	-0,066	0,064
-358,854	174,485	0,115	-0,121
-357,839	111,259	-0,048	-0,042
-356,825	45,438	0,095	0,064
-355,810	-200,000	0,052	0,226
-354,796	-148,025	0,084	-0,005
-353,781	-150,428	-0,134	-0,007
-352,766	-105,863	0,105	0,017
-351,752	325,187	-0,051	-0,071
-350,737	473,843	-0,028	-0,045
-349,723	576,438	0,040	-0,071
-348,708	362,549	0,052	0,075
-347,693	-200,000	-0,022	0,075
-346,679	597,050	-0,043	-0,078
-345,664	800,000	0,032	-0,078
-344,650	-144,946	0,016	-0,001
-343,635	243,809	0,067	0,082
-342,620	-156,878	0,099	0,004
-341,606	-150,749	0,130	0,007
-340,591	19,344	-0,082	0,048
-339,577	303,058	-0,040	-0,054
-338,562	-123,068	0,116	0,013
-337,548	673,870	-0,034	0,064
-336,533	-61,886	0,074	0,022
-335,518	41,447	0,089	0,058
-334,504	409,709	-0,059	-0,091
-333,489	-14,917	-0,104	-0,048
-332,475	-54,855	-0,143	0,046
-331,460	-200,000	-0,020	0,105
-330,445	160,794	-0,088	0,089
-329,431	221,576	-0,034	-0,039
-328,416	247,004	-0,033	-0,041
-327,402	-200,000	0,023	-0,078
-326,387	-200,000	-0,021	0,070
-325,372	-200,000	0,003	0,041
-324,358	800,000	-0,041	-0,091
-323,343	-86,130	-0,135	-0,030
-322,329	800,000	0,052	-0,151
-321,314	-200,000	-0,001	0,006
-320,299	-200,000	-0,037	0,209
-319,285	-134,189	-0,041	0,004
-318,270	67,279	0,064	0,047
-317,256	-85,348	0,095	-0,021
-316,241	-57,361	0,014	0,004
-315,226	-61,844	-0,023	-0,007
-314,212	800,000	0,016	0,050
-313,197	-21,443	0,143	0,063
-312,183	-200,000	0,005	-0,037
-311,168	-122,338	-0,068	0,008
-310,153	-130,637	0,044	-0,004
-309,139	-200,000	0,026	-0,089
-308,124	-200,000	0,000	-0,131
-307,110	7,857	0,084	-0,045
-306,095	-146,768	0,219	-0,013
-305,080	-200,000	-0,007	-0,087
-304,066	-200,000	0,007	-0,027
-303,051	-55,572	-0,121	-0,039
-302,037	-21,943	-0,052	-0,023
-301,022	-200,000	0,016	-0,065
-300,008	-200,000	0,020	0,066
-298,993	378,315	0,103	0,153
-297,978	27,645	-0,045	0,027
-296,964	-57,392	0,065	0,020
-295,949	131,604	-0,069	-0,064
-294,935	-30,459	0,081	-0,033
-293,920	119,919	0,034	-0,030
-292,905	338,205	0,033	0,047
-291,891	-175,218	0,082	-0,002
-290,876	-99,288	-0,109	-0,020
-289,862	-142,459	-0,010	0,001
-288,847	-119,041	0,128	0,016
-287,832	-200,000	-0,023	0,138
-286,818	-200,000	-0,000	0,049
-285,803	351,971	0,094	-0,135
-284,789	800,000	0,019	0,051
-283,774	-95,986	0,081	-0,016
-282,759	277,138	0,069	-0,089
-281,745	-51,459	-0,104	-0,035
-280,730	24,570	-0,041	-0,025
-279,716	194,969	0,071	0,078
-278,701	-49,538	-0,099	0,034
-277,686	-27,557	0,028	-0,012
-276,672	500,929	-0,081	0,136
-275,657	40,444	-0,134	-0,087
-274,643	95,252	-0,073	0,060
-273,628	800,000	-0,023	0,054
-272,613	-200,000	0,031	-0,135
-271,599	-132,156	0,049	0,005
-270,584	183,278	0,100	-0,107
-269,570	800,000	-0,073	-0,227
-268,555	513,460	0,038	-0,065
-267,540	-32,170	0,041	0,016
-266,526	-152,975	-0,108	0,005
-265,511	76,582	-0,031	-0,024
-264,497	-200,000	0,007	0,086
-263,482	306,410	0,075	-0,101
-262,467	86,344	-0,116	-0,092
-261,453	-139,419	0,140	-0,011
-260,438	353,865	-0,103	-0,148
-259,424	9,862	-0,101	0,055
-258,409	-200,000	0,005	-0,025
-257,395	10,679	-0,054	0,029
-256,380	-47,558	0,097	0,034
-255,365	800,000	0,011	-0,032
-254,351	98,631	-0,029	-0,024
-253,336	800,000	0,068	0,176
-252,322	-91,638	-0,059	0,012
-251,307	-200,000	0,033	0,120
-250,292	-131,011	-0,146	0,014
-249,278	800,000	0,003	-0,008
-248,263	800,000	0,056	0,136
-247,249	800,000	-0,007	-0,017
-246,234	298,865	-0,090	-0,119
-245,219	-63,251	-0,151	-0,045
-244,205	-200,000	0,034	0,125
-243,190	57,672	-0,009	0,006
-242,176	-200,000	0,006	0,053
-241,161	-31,072	0,200	-0,081
-240,146	158,911	-0,100	0,100
-239,132	800,000	0,020	0,054
-238,117	-174,492	0,050	0,001
-237,103	349,210	-0,122	-0,174
-236,088	27,954	0,190	0,115
-235,073	800,000	0,012	-0,035
-234,059	-200,000	0,015	-0,056
-233,044	800,000	0,034	0,079
-232,030	-200,000	-0,010	-0,084
-231,015	800,000	-0,060	-0,183
-230,000	-200,000	0,015	-0,126
-228,986	-200,000	-0,005	-0,057
-227,971	800,000	0,012	0,032
-226,957	-118,631	0,147	0,018
-225,942	-65,821	-0,076	-0,022
-224,927	-200,000	-0,007	0,102
-223,913	-36,255	-0,113	-0,044
-222,898	800,000	-0,062	-0,129
-221,884	145,430	-0,041	0,040
-220,869	156,839	-0,048	0,048
-219,855	-29,065	0,017	0,007
-218,840	-59,871	-0,031	0,009
-217,825	800,000	-0,025	0,051
-216,811	-200,000	0,034	0,108
-215,796	-64,112	-0,096	-0,028
-214,782	382,600	-0,061	0,090
-213,767	-200,000	-0,011	0,096
-212,752	-120,767	0,163	0,020
-211,738	-200,000	-0,005	0,109
-210,723	-200,000	-0,016	0,093
-209,709	-73,445	-0,108	0,028
-208,694	-99,910	-0,078	0,014
-207,679	200,398	-0,059	0,065
-206,665	39,136	0,068	-0,044
-205,650	800,000	0,036	-0,079
-204,636	156,944	0,078	-0,078
-203,621	166,925	-0,032	0,033
-202,606	-126,642	-0,149	-0,016
-201,592	-34,740	-0,128	0,050
-200,577	800,000	0,009	0,019
-199,563	-200,000	0,016	0,068
-198,548	221,991	0,049	0,057
-197,533	-200,000	0,019	0,062
-196,519	28,767	0,098	0,060
-195,504	10,609	-0,085	-0,047
-194,490	382,739	0,046	-0,068
-193,475	35,968	-0,039	0,025
-192,460	222,373	0,020	0,023
-191,446	-200,000	0,002	0,094
-190,431	-200,000	0,035	-0,167
-189,417	-200,000	0,003	0,019
-188,402	-77,822	0,145	-0,036
-187,387	557,469	-0,055	-0,097
-186,373	800,000	-0,010	-0,032
-185,358	-45,850	0,051	-0,018
-184,344	-100,593	0,046	-0,008
-183,329	800,000	-0,046	0,112
-182,315	99,112	0,059	0,049
-181,300	-86,081	0,038	-0,008
-180,285	95,240	0,085	-0,070
-179,271	800,000	0,024	-0,064
-178,256	112,702	-0,047	0,041
-177,242	55,837	0,083	0,058
-176,227	769,770	0,071	0,139
-175,212	-19,136	0,066	-0,029
-174,198	-200,000	0,012	-0,043
-173,183	591,879	0,119	-0,212
-172,169	-153,638	-0,071	0,003
-171,154	-55,580	0,159	0,051
-170,139	800,000	0,024	-0,050
-169,125	86,960	0,044	0,035
-168,110	-200,000	-0,016	0,077
-167,096	153,680	0,101	-0,099
-166,081	-200,000	-0,004	0,050
-165,066	-200,000	-0,012	-0,098
-164,052	144,522	-0,012	0,012
-163,037	299,735	0,117	0,155
-162,023	343,158	-0,100	0,142
-161,008	92,636	0,113	0,091
-159,993	800,000	0,011	0,032
-158,979	39,286	0,046	-0,030
-157,964	-145,474	-0,123	0,008
-156,950	-6,527	-0,096	-0,047
-155,935	-81,953	-0,046	0,011
-154,920	-62,120	0,055	-0,016
-153,906	-200,000	0,031	0,171
-152,891	10,090	0,054	-0,029
-151,877	-106,614	-0,046	-0,007
-150,862	249,504	0,025	-0,031
-149,847	-24,636	0,148	-0,063
-148,833	-143,737	0,020	-0,001
-147,818	-200,000	0,019	0,142
-146,804	107,428	0,044	-0,037
-145,789	-200,000	0,010	0,057
-144,775	800,000	0,011	0,025
-143,760	22,646	-0,079	-0,046
-142,745	-142,564	-0,024	-0,002
-141,731	758,754	0,044	-0,086
-140,716	-43,749	0,206	0,074
-139,702	71,399	0,056	0,042
-138,687	396,229	0,129	0,195
-137,672	-33,055	-0,060	0,024
-136,658	29,164	-0,166	0,101
-135,643	236,265	0,014	-0,017
-134,629	112,911	-0,053	0,046
-133,614	101,733	0,089	-0,075
-132,599	-200,000	0,031	0,107
-131,585	132,920	-0,069	0,064
-130,570	-66,413	-0,133	-0,038
-129,556	74,313	-0,041	0,031
-128,541	-153,950	-0,037	0,002
-127,526	312,203	0,079	-0,106
-126,512	-54,949	0,073	-0,024
-125,497	61,394	0,055	-0,039
-124,483	138,442	-0,056	-0,053
-123,468	-68,265	0,061	-0,017
-122,453	-145,999	-0,051	0,003
-121,439	-192,581	0,147	-0,001
-120,424	182,312	0,073	-0,077
