DTS Sentinel unit serial number:	SN410029Multiplexer serial number:	ORYXHardware model number:	OX2-SRSoftware version number:	ORYX F/W v4,00 Oryx Data Collector v3.7.2.0data status	okinstallation	B6 Nyhavnadifferential loss correction	single-endedforward channel	channel 2reverse channel	N/Adate	2023/12/10time	00:50:08forward acquisition time	300,00reverse acquisition time	0,00gamma	499,1914k internal	0,3126k external	0,3126temperature offset calibration	1,0000default loss term (dB/km)	0,3820temperature slope calibration	1,0000multiplexer offset coefficient	1,0000multiplexer slope coefficient	1,0000fibre end	0,00T internal ref (°C)	21,87T ext. ref 1 (°C)	5,68T ext. ref 2 (°C)	5,68length (m)	temperature (°C)	Stokes	anti-Stokes-744,400	34,120	0,129	-0,083
-743,385	-168,835	-0,253	0,007
-742,371	800,000	0,051	0,122
-741,356	79,169	-0,191	0,152
-740,342	575,453	-0,016	-0,029
-739,327	-53,211	-0,281	0,096
-738,312	-74,329	-0,094	0,025
-737,298	-144,070	-0,133	-0,009
-736,283	-200,000	-0,006	-0,021
-735,269	111,054	-0,195	0,175
-734,254	800,000	-0,061	-0,130
-733,239	-150,445	-0,476	-0,027
-732,225	-30,841	0,144	-0,060
-731,210	-12,871	0,026	0,012
-730,196	114,781	0,044	0,040
-729,181	72,108	0,084	-0,065
-728,167	-35,935	-0,069	0,028
-727,152	-200,000	0,003	-0,051
-726,137	-97,009	0,044	-0,009
-725,123	-200,000	0,017	-0,096
-724,108	434,052	0,031	-0,050
-723,094	727,376	-0,041	-0,082
-722,079	-200,000	0,003	0,013
-721,064	-200,000	-0,024	-0,129
-720,050	-200,000	-0,007	-0,124
-719,035	800,000	-0,009	0,023
-718,021	713,098	-0,058	-0,115
-717,006	380,653	-0,024	0,036
-715,991	214,725	-0,065	-0,076
-714,977	43,709	-0,089	0,060
-713,962	800,000	0,017	0,056
-712,948	-111,366	0,026	-0,004
-711,933	-143,579	0,084	-0,006
-710,918	359,128	-0,015	0,022
-709,904	-62,987	-0,158	-0,048
-708,889	28,745	-0,064	-0,040
-707,875	210,333	0,037	-0,044
-706,860	-200,000	-0,016	-0,100
-705,845	109,934	-0,059	-0,052
-704,831	-200,000	-0,004	-0,036
-703,816	8,759	0,063	-0,035
-702,802	691,377	0,035	0,069
-701,787	84,638	-0,165	-0,134
-700,772	-200,000	0,019	-0,086
-699,758	93,620	-0,043	-0,037
-698,743	4,970	0,073	0,040
-697,729	224,614	-0,073	0,088
-696,714	-200,000	0,010	0,093
-695,699	318,787	0,021	-0,029
-694,685	-200,000	0,006	-0,094
-693,670	-200,000	0,003	0,028
-692,656	-200,000	0,017	0,064
-691,641	434,333	0,072	-0,116
-690,627	151,120	-0,027	0,027
-689,612	800,000	0,040	0,114
-688,597	149,701	-0,117	-0,118
-687,583	-200,000	-0,009	0,062
-686,568	-7,509	0,089	-0,045
-685,554	175,824	-0,169	0,182
-684,539	-81,147	0,025	-0,006
-683,524	-41,859	0,064	0,024
-682,510	-200,000	-0,012	-0,088
-681,495	-63,970	0,031	-0,009
-680,481	40,042	-0,047	-0,031
-679,466	28,084	-0,092	-0,058
-678,451	-38,828	0,015	0,006
-677,437	-30,182	-0,048	0,020
-676,422	-103,082	-0,106	0,018
-675,408	-200,000	-0,020	-0,102
-674,393	259,607	0,044	-0,056
-673,378	144,837	0,020	0,020
-672,364	800,000	0,009	-0,025
-671,349	-77,911	0,023	0,006
-670,335	-200,000	-0,047	0,159
-669,320	-14,248	-0,118	-0,056
-668,305	701,879	0,011	-0,022
-667,291	116,621	-0,029	-0,026
-666,276	-200,000	-0,020	-0,169
-665,262	484,535	0,036	-0,062
-664,247	-70,591	-0,167	-0,047
-663,232	800,000	-0,021	-0,047
-662,218	800,000	-0,012	-0,028
-661,203	-200,000	0,007	0,043
-660,189	-6,635	-0,107	0,054
-659,174	-200,000	-0,008	-0,055
-658,159	-11,337	-0,136	-0,066
-657,145	800,000	-0,043	-0,103
-656,130	-200,000	0,014	-0,135
-655,116	216,007	0,042	0,049
-654,101	-77,943	-0,146	0,037
-653,086	800,000	0,026	-0,079
-652,072	29,424	0,106	0,067
-651,057	-93,007	-0,082	-0,017
-650,043	275,683	-0,029	-0,038
-649,028	316,057	-0,033	-0,047
-648,014	240,611	0,055	0,068
-646,999	158,687	-0,008	-0,008
-645,984	800,000	0,058	0,176
-644,970	55,969	-0,033	0,024
-643,955	-121,382	0,064	0,008
-642,941	423,651	0,035	0,056
-641,926	345,193	-0,038	0,055
-640,911	-87,669	-0,060	0,013
-639,897	509,905	-0,042	-0,073
-638,882	670,958	0,050	-0,097
-637,868	186,236	0,090	-0,099
-636,853	-200,000	-0,001	-0,094
-635,838	-200,000	0,009	-0,096
-634,824	274,763	0,103	-0,136
-633,809	46,353	0,074	-0,051
-632,795	-200,000	0,008	-0,103
-631,780	-200,000	0,001	0,028
-630,765	-114,025	0,114	0,016
-629,751	-200,000	-0,025	-0,139
-628,736	46,909	-0,185	-0,127
-627,722	-32,006	-0,076	-0,031
-626,707	-60,937	-0,108	0,034
-625,692	-52,672	0,050	-0,017
-624,678	-32,231	0,073	0,030
-623,663	-200,000	0,009	0,074
-622,649	616,567	0,015	0,028
-621,634	-66,502	0,049	-0,014
-620,619	-200,000	0,019	-0,239
-619,605	-200,000	-0,021	0,083
-618,590	48,196	-0,046	0,032
-617,576	-135,059	0,065	0,006
-616,561	-200,000	0,001	0,132
-615,546	-200,000	0,000	-0,030
-614,532	-200,000	0,006	0,031
-613,517	-38,442	-0,184	-0,072
-612,503	13,723	0,053	-0,030
-611,488	800,000	-0,038	0,082
-610,474	-33,263	-0,063	0,026
-609,459	-200,000	-0,011	-0,049
-608,444	-32,201	-0,093	-0,038
-607,430	223,826	-0,077	-0,092
-606,415	-200,000	0,015	-0,164
-605,401	295,858	0,093	0,127
-604,386	-66,852	0,032	-0,009
-603,371	-200,000	-0,014	0,114
-602,357	800,000	0,077	0,160
-601,342	-53,042	0,100	-0,034
-600,328	-200,000	0,024	0,172
-599,313	451,338	-0,078	0,127
-598,298	-20,118	-0,083	-0,038
-597,284	179,565	0,069	-0,075
-596,269	18,254	-0,084	0,049
-595,255	480,827	-0,025	-0,042
-594,240	-200,000	-0,006	0,032
-593,225	800,000	-0,043	0,099
-592,211	-200,000	-0,006	-0,094
-591,196	800,000	0,070	-0,171
-590,182	106,369	0,066	0,058
-589,167	-200,000	0,045	0,165
-588,152	17,260	0,213	0,125
-587,138	82,820	-0,074	0,060
-586,123	234,987	-0,086	-0,105
-585,109	-167,382	0,032	-0,001
-584,094	-16,367	-0,093	-0,044
-583,079	-200,000	0,010	0,076
-582,065	-200,000	0,050	0,184
-581,050	-200,000	0,008	-0,030
-580,036	190,135	0,025	0,028
-579,021	-96,073	0,064	-0,012
-578,006	7,680	-0,124	0,068
-576,992	-90,821	-0,057	0,012
-575,977	494,796	0,006	0,011
-574,963	552,678	0,044	0,079
-573,948	61,683	-0,082	0,060
-572,934	203,002	0,034	-0,038
-571,919	-142,121	-0,146	-0,011
-570,904	800,000	-0,077	-0,165
-569,890	47,221	-0,111	-0,076
-568,875	-200,000	-0,003	-0,021
-567,861	7,961	0,114	0,063
-566,846	469,116	0,095	-0,158
-565,831	800,000	-0,032	-0,072
-564,817	-114,508	0,117	-0,016
-563,802	19,603	0,072	0,043
-562,788	-200,000	-0,022	-0,074
-561,773	29,904	-0,078	-0,049
-560,758	-51,273	0,108	-0,037
-559,744	54,820	0,048	0,034
-558,729	-95,729	-0,154	-0,030
-557,715	-18,636	0,103	-0,048
-556,700	-108,778	-0,009	-0,001
-555,685	198,736	-0,115	0,130
-554,671	18,697	0,089	0,053
-553,656	80,920	0,072	0,058
-552,642	-44,874	-0,024	-0,009
-551,627	-166,483	0,096	0,003
-550,612	-69,545	-0,040	0,011
-549,598	-200,000	-0,031	0,123
-548,583	-200,000	-0,011	0,056
-547,569	-130,690	0,098	-0,010
-546,554	-23,559	0,047	-0,021
-545,539	82,510	0,052	-0,042
-544,525	-200,000	0,003	0,124
-543,510	412,037	0,043	-0,068
-542,496	800,000	0,042	-0,116
-541,481	-200,000	-0,005	-0,065
-540,466	290,966	0,062	0,084
-539,452	61,673	0,095	-0,070
-538,437	-200,000	0,052	0,201
-537,423	800,000	-0,041	-0,094
-536,408	166,842	-0,054	-0,057
-535,393	735,260	0,040	-0,080
-534,379	-55,850	-0,147	-0,048
-533,364	-200,000	0,003	-0,050
-532,350	-200,000	0,008	0,039
-531,335	800,000	0,060	0,157
-530,321	-125,004	0,129	0,014
-529,306	-57,379	-0,147	0,047
-528,291	-121,764	-0,041	-0,005
-527,277	-200,000	0,003	0,043
-526,262	-200,000	-0,005	-0,016
-525,248	800,000	0,048	0,105
-524,233	-200,000	-0,030	-0,214
-523,218	-72,336	0,152	0,041
-522,204	800,000	0,021	0,062
-521,189	-200,000	-0,002	-0,021
-520,175	325,130	0,087	0,123
-519,160	126,205	-0,039	0,036
-518,145	-200,000	-0,015	0,091
-517,131	183,129	-0,071	0,078
-516,116	173,301	0,031	0,033
-515,102	-145,172	-0,131	0,009
-514,087	13,664	-0,088	-0,050
-513,072	-151,964	-0,047	-0,002
-512,058	-200,000	-0,017	0,116
-511,043	-200,000	-0,013	-0,069
-510,029	-102,600	0,162	0,028
-509,014	610,278	0,046	0,086
-507,999	126,064	-0,040	-0,037
-506,985	251,247	-0,082	-0,103
-505,970	800,000	-0,040	-0,101
-504,956	153,881	-0,038	-0,038
-503,941	142,276	-0,106	0,104
-502,926	437,361	0,039	-0,063
-501,912	-73,176	-0,095	0,026
-500,897	176,143	-0,094	-0,101
-499,883	70,020	0,018	-0,013
-498,868	230,167	0,056	-0,068
-497,853	34,565	0,044	0,028
-496,839	-200,000	0,011	-0,059
-495,824	-200,000	0,015	0,109
-494,810	698,205	-0,026	0,051
-493,795	-20,173	-0,086	0,039
-492,781	28,583	-0,095	-0,059
-491,766	224,355	-0,053	-0,063
-490,751	-131,016	-0,023	0,002
-489,737	-200,000	-0,003	-0,067
-488,722	-155,116	-0,077	-0,004
-487,708	-54,942	0,119	-0,039
-486,693	21,754	0,066	0,039
-485,678	-154,950	0,185	-0,009
-484,664	-86,606	0,134	-0,030
-483,649	-55,628	-0,150	-0,049
-482,635	-200,000	-0,005	-0,035
-481,620	-81,327	0,023	0,006
-480,605	252,384	-0,051	0,064
-479,591	-200,000	0,012	-0,058
-478,576	-200,000	-0,027	0,119
-477,562	-200,000	0,009	-0,084
-476,547	-146,340	0,168	0,011
-475,532	110,497	0,059	-0,052
-474,518	-83,647	0,119	0,028
-473,503	612,910	0,017	0,031
-472,489	144,000	0,040	0,040
-471,474	352,482	0,112	0,164
-470,459	-200,000	-0,027	-0,090
-469,445	7,559	-0,120	-0,066
-468,430	-200,000	0,008	0,215
-467,416	-200,000	-0,026	-0,083
-466,401	800,000	-0,018	-0,038
-465,386	274,109	-0,091	0,118
-464,372	800,000	-0,033	0,077
-463,357	172,278	0,007	-0,008
-462,343	-86,313	0,171	0,038
-461,328	63,432	-0,079	0,058
-460,313	408,538	-0,036	0,056
-459,299	-181,238	-0,055	0,001
-458,284	-87,520	0,090	0,020
-457,270	27,341	0,123	0,076
-456,255	22,956	-0,059	-0,035
-455,241	-200,000	-0,014	-0,053
-454,226	-54,533	-0,203	-0,067
-453,211	268,165	0,077	-0,100
-452,197	-200,000	0,027	-0,126
-451,182	-12,535	0,115	0,055
-450,168	-108,796	-0,075	0,012
-449,153	-200,000	0,031	0,112
-448,138	498,277	-0,027	-0,045
-447,124	139,065	-0,056	-0,055
-446,109	-200,000	0,011	0,122
-445,095	55,175	0,065	0,046
-444,080	-200,000	-0,001	-0,093
-443,065	-200,000	-0,030	-0,155
-442,051	-200,000	-0,006	0,050
-441,036	-200,000	0,041	-0,203
-440,022	-200,000	0,001	-0,087
-439,007	-103,098	0,072	-0,012
-437,992	800,000	0,053	0,139
-436,978	-200,000	0,022	-0,162
-435,963	-138,364	0,155	-0,012
-434,949	800,000	0,010	0,029
-433,934	-29,619	-0,036	0,015
-432,919	-36,402	-0,105	-0,041
-431,905	-57,171	0,064	-0,021
-430,890	554,194	-0,018	0,032
-429,876	-68,215	-0,201	-0,057
-428,861	744,589	0,016	-0,032
-427,846	-72,926	-0,046	-0,012
-426,832	425,413	-0,051	-0,081
-425,817	-200,000	0,022	-0,114
-424,803	150,364	-0,083	-0,083
-423,788	-122,868	0,117	0,014
-422,773	310,934	0,011	0,015
-421,759	123,577	-0,092	0,085
-420,744	-47,371	-0,062	-0,022
-419,730	436,101	0,009	-0,014
-418,715	-126,859	-0,088	0,009
-417,701	-95,120	-0,036	-0,007
-416,686	-98,327	-0,163	-0,030
-415,671	109,966	-0,053	0,047
-414,657	71,567	-0,052	-0,040
-413,642	-187,174	-0,089	-0,001
-412,628	-170,447	0,035	0,001
-411,613	-200,000	-0,010	-0,040
-410,598	267,188	-0,115	-0,148
-409,584	514,710	-0,022	-0,038
-408,569	34,368	0,118	0,075
-407,555	800,000	-0,036	0,097
-406,540	-200,000	-0,035	0,120
-405,525	-195,607	0,082	0,000
-404,511	326,332	0,084	-0,119
-403,496	659,807	-0,033	-0,063
-402,482	140,628	-0,103	-0,100
-401,467	-200,000	0,103	-0,000
-400,452	-200,000	-0,006	0,117
-399,438	472,837	0,044	0,072
-398,423	-132,830	0,058	-0,005
-397,409	707,922	0,036	-0,070
-396,394	-200,000	-0,016	-0,064
-395,379	342,208	-0,084	0,121
-394,365	-200,000	0,012	0,065
-393,350	-33,378	0,041	0,017
-392,336	17,623	-0,125	0,073
-391,321	-200,000	-0,025	-0,136
-390,306	44,015	-0,096	-0,065
-389,292	800,000	0,056	-0,154
-388,277	800,000	-0,023	0,071
-387,263	-200,000	-0,032	0,104
-386,248	-98,504	-0,141	0,026
-385,233	79,166	0,033	0,026
-384,219	165,643	0,012	0,013
-383,204	-49,756	-0,155	0,054
-382,190	800,000	-0,010	-0,025
-381,175	-117,910	0,094	0,012
-380,160	800,000	0,058	0,125
-379,146	800,000	-0,017	0,040
-378,131	-168,710	-0,086	-0,002
-377,117	397,464	-0,026	0,041
-376,102	800,000	0,051	-0,110
-375,088	-0,747	-0,154	0,080
-374,073	-87,971	-0,087	-0,019
-373,058	-200,000	-0,006	0,125
-372,044	143,964	0,054	0,053
-371,029	63,629	0,061	-0,045
-370,015	-83,894	0,115	-0,027
-369,000	800,000	0,052	-0,141
-367,985	719,224	-0,020	0,038
-366,971	-200,000	0,025	-0,136
-365,956	-200,000	-0,006	-0,088
-364,942	-200,000	-0,007	-0,125
-363,927	-170,155	0,143	-0,004
-362,912	54,636	-0,049	-0,035
-361,898	-200,000	0,008	0,032
-360,883	-200,000	0,002	0,016
-359,869	800,000	-0,026	-0,060
-358,854	-200,000	-0,003	0,028
-357,839	448,091	0,065	0,105
-356,825	-200,000	0,018	0,113
-355,810	-144,873	0,049	-0,003
-354,796	177,932	-0,058	0,062
-353,781	289,870	0,076	-0,101
-352,766	-120,491	0,098	-0,012
-351,752	-200,000	0,033	0,129
-350,737	34,653	0,062	0,040
-349,723	458,848	0,066	0,108
-348,708	-200,000	0,008	0,042
-347,693	372,114	-0,030	-0,045
-346,679	567,263	-0,022	0,039
-345,664	-200,000	0,001	-0,069
-344,650	-17,398	-0,123	-0,057
-343,635	345,680	0,051	0,073
-342,620	241,048	-0,075	0,092
-341,606	-108,424	0,153	0,024
-340,591	-200,000	0,009	0,040
-339,577	500,767	-0,042	-0,071
-338,562	273,731	-0,011	0,014
-337,548	-83,457	0,105	0,025
-336,533	-200,000	0,008	0,148
-335,518	-164,013	-0,043	0,001
-334,504	419,596	-0,058	0,092
-333,489	-200,000	-0,012	0,068
-332,475	77,252	0,059	-0,046
-331,460	-131,520	-0,144	-0,014
-330,445	375,566	0,077	-0,115
-329,431	-200,000	-0,016	-0,110
-328,416	50,036	-0,061	-0,042
-327,402	403,708	0,058	0,091
-326,387	-107,971	-0,067	0,011
-325,372	-72,214	-0,105	-0,028
-324,358	159,084	0,010	-0,010
-323,343	-18,697	-0,160	-0,073
-322,329	-55,585	0,055	-0,018
-321,314	33,900	0,025	-0,016
-320,299	64,869	-0,099	0,073
-319,285	269,009	0,052	0,066
-318,270	800,000	-0,035	0,096
-317,256	-45,014	-0,088	-0,032
-316,241	240,479	0,116	0,142
-315,226	-200,000	-0,024	0,162
-314,212	-119,144	0,038	-0,005
-313,197	-39,366	0,063	-0,024
-312,183	800,000	0,018	-0,039
-311,168	-108,934	-0,039	-0,006
-310,153	35,289	-0,052	-0,033
-309,139	-200,000	-0,007	-0,044
-308,124	281,123	-0,022	0,029
-307,110	800,000	0,029	-0,082
-306,095	-149,819	0,008	0,000
-305,080	800,000	0,040	-0,091
-304,066	61,007	0,099	-0,072
-303,051	-82,154	0,219	-0,052
-302,037	-123,140	-0,165	-0,019
-301,022	130,949	0,058	0,055
-300,008	19,151	0,170	0,100
-298,993	-139,402	0,014	0,001
-297,978	-87,730	-0,032	0,007
-296,964	563,232	-0,062	-0,110
-295,949	-200,000	0,006	-0,153
-294,935	-25,494	-0,137	-0,059
-293,920	79,412	0,086	0,068
-292,905	-200,000	0,007	0,099
-291,891	196,356	0,071	-0,079
-290,876	657,964	0,090	0,171
-289,862	-120,263	-0,155	-0,019
-288,847	-39,838	-0,036	-0,014
-287,832	-22,524	-0,023	-0,010
-286,818	-68,433	0,056	0,016
-285,803	800,000	-0,037	0,075
-284,789	-110,805	-0,045	0,007
-283,774	38,588	0,029	0,019
-282,759	-118,085	-0,018	-0,002
-281,745	210,041	-0,055	0,063
-280,730	800,000	0,027	-0,059
-279,716	134,979	0,057	0,054
-278,701	37,512	0,041	0,026
-277,686	205,848	-0,018	0,021
-276,672	-200,000	0,126	-0,000
-275,657	39,576	0,057	0,037
-274,643	355,701	-0,019	-0,028
-273,628	-48,146	0,028	0,010
-272,613	-200,000	-0,019	0,074
-271,599	-54,136	0,126	-0,042
-270,584	-200,000	-0,012	-0,050
-269,570	-200,000	-0,022	-0,101
-268,555	-84,506	0,129	0,030
-267,540	20,014	0,050	0,029
-266,526	-56,240	0,023	-0,007
-265,511	780,474	-0,061	-0,123
-264,497	441,379	0,005	-0,008
-263,482	-163,011	0,078	0,003
-262,467	-200,000	-0,006	-0,032
-261,453	-135,814	-0,093	0,008
-260,438	-91,013	0,100	-0,021
-259,424	-76,877	-0,097	0,025
-258,409	-200,000	-0,005	-0,074
-257,395	79,303	0,083	0,065
-256,380	133,220	0,057	0,054
-255,365	-32,195	-0,103	-0,042
-254,351	-85,025	-0,058	0,013
-253,336	-33,688	0,126	-0,051
-252,322	342,838	-0,081	-0,116
-251,307	-63,099	-0,079	-0,024
-250,292	-157,664	-0,153	-0,007
-249,278	800,000	0,014	-0,029
-248,263	92,646	0,040	0,033
-247,249	800,000	-0,010	-0,027
-246,234	737,609	0,073	-0,144
-245,219	294,497	-0,091	-0,121
-244,205	205,240	-0,014	-0,016
-243,190	-200,000	0,011	-0,124
-242,176	-44,631	0,075	-0,027
-241,161	18,702	0,139	-0,081
-240,146	497,323	0,052	0,088
-239,132	108,024	-0,086	0,074
-238,117	-111,262	-0,105	0,015
-237,103	93,554	-0,041	-0,034
-236,088	158,910	-0,120	0,121
-235,073	353,413	0,021	-0,031
-234,059	33,936	0,054	-0,034
-233,044	-200,000	-0,037	0,167
-232,030	-95,002	-0,037	-0,007
-231,015	65,009	-0,009	-0,006
-230,000	-200,000	0,035	-0,172
-228,986	-94,806	0,085	-0,017
-227,971	800,000	-0,018	-0,045
-226,957	206,672	-0,076	0,086
-225,942	-200,000	0,024	0,232
-224,927	-200,000	-0,009	0,075
-223,913	-5,270	0,070	0,035
-222,898	-148,790	-0,145	0,008
-221,884	-134,702	0,134	0,012
-220,869	-171,627	-0,050	0,001
-219,855	-200,000	0,008	0,150
-218,840	-119,463	-0,043	-0,005
-217,825	800,000	0,044	-0,105
-216,811	-87,532	-0,067	0,015
-215,796	401,808	-0,058	-0,090
-214,782	800,000	0,026	-0,066
-213,767	6,716	0,044	0,024
-212,752	-200,000	-0,009	0,061
-211,738	250,620	-0,093	0,116
-210,723	-25,038	0,115	-0,049
-209,709	-109,063	-0,069	0,011
-208,694	800,000	-0,024	-0,073
-207,679	14,957	-0,129	-0,073
-206,665	653,513	-0,032	-0,060
-205,650	-52,536	-0,092	0,031
-204,636	-200,000	-0,032	0,111
-203,621	-8,303	-0,024	-0,012
-202,606	-48,530	0,162	-0,057
-201,592	-11,919	-0,111	-0,053
-200,577	412,087	0,037	-0,057
-199,563	-200,000	-0,010	-0,094
-198,548	-200,000	-0,001	0,054
-197,533	124,557	0,039	0,035
-196,519	-200,000	-0,018	-0,154
-195,504	2,133	-0,119	-0,063
-194,490	-20,260	-0,092	-0,041
-193,475	289,860	-0,082	0,108
-192,460	71,350	0,087	0,066
-191,446	800,000	-0,090	0,186
-190,431	221,640	0,132	0,155
-189,417	-23,363	-0,128	-0,056
-188,402	-200,000	0,046	-0,200
-187,387	800,000	-0,015	-0,035
-186,373	-17,520	-0,048	0,022
-185,358	-170,239	0,078	0,002
-184,344	-200,000	-0,002	-0,059
-183,329	-2,078	-0,065	0,033
-182,315	95,395	-0,030	0,025
-181,300	4,992	-0,050	0,027
-180,285	-200,000	0,018	-0,065
-179,271	266,928	0,100	-0,127
-178,256	-200,000	0,015	-0,056
-177,242	-200,000	-0,003	-0,037
-176,227	10,483	-0,051	0,028
-175,212	174,495	0,069	0,072
-174,198	3,094	0,091	-0,048
-173,183	800,000	-0,049	-0,124
-172,169	332,861	0,013	0,018
-171,154	800,000	0,016	0,034
-170,139	90,614	0,047	0,038
-169,125	-67,623	0,190	0,054
-168,110	-200,000	0,005	0,043
-167,096	-93,106	-0,146	-0,029
-166,081	-33,833	0,048	0,019
-165,066	118,676	0,027	-0,024
-164,052	133,780	0,091	0,086
-163,037	445,465	-0,039	0,063
-162,023	-200,000	-0,002	0,020
-161,008	-200,000	0,000	-0,063
-159,993	800,000	-0,026	-0,081
-158,979	-200,000	-0,015	0,252
-157,964	27,330	0,051	0,031
-156,950	-200,000	0,095	0,000
-155,935	-200,000	-0,004	-0,062
-154,920	-200,000	0,002	0,140
-153,906	123,441	0,045	-0,041
-152,891	800,000	-0,041	0,107
-151,877	118,045	0,018	0,016
-150,862	-200,000	0,020	-0,114
-149,847	44,656	-0,065	0,043
-148,833	800,000	0,027	0,066
-147,818	263,535	-0,101	-0,128
-146,804	-83,850	0,025	-0,006
-145,789	-200,000	0,009	-0,068
-144,775	-133,330	-0,004	-0,000
-143,760	104,506	-0,039	-0,033
-142,745	-13,776	-0,096	-0,045
-141,731	-200,000	0,017	0,109
-140,716	-7,776	-0,113	-0,055
-139,702	-200,000	0,044	0,174
-138,687	-200,000	-0,008	-0,112
-137,672	-129,728	-0,149	-0,015
-136,658	-98,737	0,159	0,029
-135,643	-19,927	0,125	0,056
-134,629	46,370	-0,047	-0,032
-133,614	-74,042	0,032	-0,008
-132,599	-32,984	0,029	-0,012
-131,585	-100,374	0,081	0,014
-130,570	800,000	-0,050	-0,136
-129,556	79,506	-0,047	-0,037
-128,541	-159,858	-0,052	-0,002
-127,526	-200,000	-0,012	0,100
-126,512	85,607	0,139	0,111
-125,497	-200,000	-0,006	0,139
-124,483	234,370	0,031	-0,037
-123,468	-200,000	0,006	-0,036
-122,453	83,563	-0,162	-0,128
-121,439	7,134	0,075	-0,041
-120,424	89,095	0,031	-0,025
