DTS Sentinel unit serial number:	SN410029Multiplexer serial number:	ORYXHardware model number:	OX2-SRSoftware version number:	ORYX F/W v4,00 Oryx Data Collector v3.7.2.0data status	okinstallation	B6 Nyhavnadifferential loss correction	single-endedforward channel	channel 2reverse channel	N/Adate	2023/12/07time	11:05:08forward acquisition time	300,00reverse acquisition time	0,00gamma	499,1914k internal	0,3200k external	0,3200temperature offset calibration	1,0000default loss term (dB/km)	0,3820temperature slope calibration	1,0000multiplexer offset coefficient	1,0000multiplexer slope coefficient	1,0000fibre end	0,00T internal ref (°C)	7,81T ext. ref 1 (°C)	-6,26T ext. ref 2 (°C)	-6,28length (m)	temperature (°C)	Stokes	anti-Stokes-744,400	-187,614	0,197	-0,002
-743,385	31,773	-0,341	-0,213
-742,371	-189,806	0,216	-0,002
-741,356	-168,776	-0,261	-0,007
-740,342	-92,752	0,071	0,014
-739,327	-62,334	-0,203	-0,061
-738,312	416,033	0,033	0,051
-737,298	-16,878	-0,417	-0,191
-736,283	-25,236	0,193	-0,083
-735,269	-67,314	-0,417	-0,118
-734,254	-15,491	0,240	0,111
-733,239	-51,484	-0,566	-0,191
-732,225	-42,396	0,193	0,071
-731,210	55,525	0,013	0,009
-730,196	800,000	0,006	-0,015
-729,181	-1,221	-0,158	-0,081
-728,167	339,690	0,077	-0,109
-727,152	302,953	0,017	-0,023
-726,137	-200,000	-0,012	0,080
-725,123	98,937	-0,043	-0,036
-724,108	-200,000	0,006	-0,106
-723,094	607,853	-0,044	-0,079
-722,079	55,564	-0,069	-0,048
-721,064	116,137	-0,046	-0,041
-720,050	9,815	0,107	0,059
-719,035	490,957	0,016	0,026
-718,021	-42,375	-0,220	-0,081
-717,006	-83,141	0,046	-0,011
-715,991	405,781	0,042	-0,064
-714,977	99,941	-0,175	0,147
-713,962	207,289	-0,114	-0,129
-712,948	83,692	-0,171	-0,136
-711,933	-0,029	0,069	0,036
-710,918	704,670	-0,022	0,042
-709,904	169,332	0,061	-0,063
-708,889	-200,000	-0,041	-0,205
-707,875	0,777	-0,112	-0,058
-706,860	340,627	-0,030	-0,043
-705,845	-84,373	-0,039	-0,009
-704,831	800,000	-0,021	-0,046
-703,816	-18,461	-0,071	-0,032
-702,802	152,161	-0,073	-0,073
-701,787	-200,000	0,013	-0,041
-700,772	111,762	0,035	0,030
-699,758	-83,374	0,151	-0,035
-698,743	16,202	0,063	-0,036
-697,729	405,865	-0,052	0,080
-696,714	46,846	0,010	0,007
-695,699	-54,444	0,080	0,026
-694,685	-38,529	-0,225	-0,086
-693,670	-200,000	-0,004	0,047
-692,656	800,000	0,038	0,076
-691,641	800,000	0,010	0,025
-690,627	-35,002	0,014	0,006
-689,612	-200,000	-0,007	0,050
-688,597	383,512	-0,068	0,101
-687,583	311,177	-0,097	-0,132
-686,568	800,000	0,039	-0,108
-685,554	16,743	-0,061	-0,035
-684,539	-200,000	0,014	0,096
-683,524	-134,893	-0,204	-0,018
-682,510	-19,061	0,205	0,092
-681,495	-200,000	-0,130	0,000
-680,481	25,079	-0,063	0,038
-679,466	-43,782	-0,181	-0,066
-678,451	-200,000	-0,014	-0,061
-677,437	-200,000	-0,002	-0,052
-676,422	420,362	-0,051	0,080
-675,408	-200,000	0,009	-0,037
-674,393	47,514	-0,087	0,059
-673,378	-200,000	-0,016	0,084
-672,364	184,808	0,033	-0,035
-671,349	18,863	-0,044	-0,025
-670,335	56,016	0,031	0,022
-669,320	94,644	0,051	-0,042
-668,305	12,494	0,157	0,088
-667,291	416,607	-0,034	-0,053
-666,276	218,969	0,077	-0,090
-665,262	800,000	-0,024	-0,078
-664,247	-172,352	0,134	0,003
-663,232	800,000	0,058	-0,123
-662,218	-135,293	0,066	0,006
-661,203	800,000	-0,069	-0,155
-660,189	-122,943	-0,042	0,005
-659,174	-200,000	-0,023	-0,085
-658,159	-200,000	0,009	0,112
-657,145	-5,320	-0,114	-0,057
-656,130	87,384	-0,094	-0,075
-655,116	-84,076	0,041	0,009
-654,101	235,920	-0,037	0,045
-653,086	-200,000	0,055	-0,223
-652,072	-26,635	-0,028	-0,012
-651,057	163,581	-0,092	-0,094
-650,043	-200,000	-0,007	0,036
-649,028	47,845	0,071	-0,048
-648,014	-6,023	-0,014	-0,007
-646,999	203,621	-0,089	-0,100
-645,984	354,363	0,059	0,085
-644,970	-200,000	0,012	-0,071
-643,955	-147,749	-0,079	-0,005
-642,941	-200,000	-0,005	-0,078
-641,926	-200,000	0,028	0,107
-640,911	240,222	0,101	-0,122
-639,897	46,372	0,104	0,070
-638,882	-7,485	-0,151	0,074
-637,868	17,200	-0,182	0,105
-636,853	-138,237	0,067	0,005
-635,838	800,000	0,028	-0,086
-634,824	-200,000	0,040	0,134
-633,809	-200,000	-0,034	-0,114
-632,795	104,101	0,016	-0,013
-631,780	-200,000	0,014	0,060
-630,765	-47,438	-0,122	-0,043
-629,751	-33,862	-0,148	0,059
-628,736	-8,436	0,023	-0,011
-627,722	-53,436	-0,077	-0,025
-626,707	18,931	0,028	-0,016
-625,692	297,664	-0,026	0,035
-624,678	-200,000	0,008	0,163
-623,663	33,414	-0,053	0,033
-622,649	43,406	-0,070	-0,046
-621,634	-11,527	-0,022	-0,011
-620,619	48,146	0,022	0,015
-619,605	-99,169	-0,160	-0,029
-618,590	-109,294	0,156	-0,024
-617,576	-42,497	0,108	0,040
-616,561	-200,000	0,010	-0,116
-615,546	800,000	0,003	-0,007
-614,532	79,592	-0,045	0,035
-613,517	-200,000	-0,014	0,073
-612,503	-200,000	-0,022	0,120
-611,488	-115,637	-0,076	0,010
-610,474	-3,369	0,076	0,038
-609,459	-155,097	-0,091	0,004
-608,444	435,810	-0,036	-0,057
-607,430	-25,676	-0,039	-0,017
-606,415	800,000	-0,025	-0,060
-605,401	76,078	0,146	0,111
-604,386	-1,439	-0,118	0,060
-603,371	-200,000	0,011	0,041
-602,357	-59,051	0,018	0,006
-601,342	-168,157	-0,027	-0,001
-600,328	397,479	-0,051	-0,077
-599,313	-200,000	-0,028	0,109
-598,298	162,221	-0,069	-0,070
-597,284	501,352	-0,024	0,041
-596,269	-200,000	0,002	0,024
-595,255	637,641	0,064	0,118
-594,240	-200,000	-0,016	-0,123
-593,225	427,846	-0,060	-0,094
-592,211	-200,000	-0,011	-0,056
-591,196	29,604	0,025	-0,015
-590,182	-119,244	0,080	0,010
-589,167	150,937	0,098	0,097
-588,152	800,000	-0,009	0,029
-587,138	-200,000	-0,008	-0,102
-586,123	17,661	-0,077	-0,044
-585,109	800,000	0,025	0,062
-584,094	-200,000	-0,016	0,071
-583,079	-200,000	-0,001	0,038
-582,065	172,066	-0,036	0,037
-581,050	-97,172	-0,005	-0,001
-580,036	-200,000	0,000	0,047
-579,021	-200,000	-0,008	-0,027
-578,006	203,965	-0,092	0,103
-576,992	-17,886	0,170	-0,077
-575,977	27,080	-0,194	0,117
-574,963	-67,258	0,066	0,019
-573,948	-105,167	0,011	0,002
-572,934	-200,000	-0,032	-0,110
-571,919	481,707	0,012	-0,019
-570,904	-200,000	0,001	-0,091
-569,890	-66,477	-0,085	0,024
-568,875	798,261	0,043	0,087
-567,861	-92,754	0,047	0,009
-566,846	-200,000	0,005	0,048
-565,831	-200,000	-0,020	-0,073
-564,817	800,000	-0,043	-0,117
-563,802	112,707	0,026	0,022
-562,788	-147,408	-0,113	-0,007
-561,773	194,626	0,063	-0,069
-560,758	-56,324	-0,052	-0,017
-559,744	-126,186	0,134	0,014
-558,729	-200,000	0,006	0,020
-557,715	51,302	-0,130	-0,089
-556,700	303,722	0,071	0,096
-555,685	103,870	-0,047	0,040
-554,671	766,210	-0,075	-0,149
-553,656	-26,522	-0,140	0,059
-552,642	-109,932	0,098	0,015
-551,627	-200,000	-0,053	0,178
-550,612	55,222	-0,061	0,043
-549,598	405,243	-0,023	-0,035
-548,583	371,010	0,020	-0,030
-547,569	-83,169	0,031	0,007
-546,554	-200,000	0,039	0,129
-545,539	382,990	-0,054	-0,081
-544,525	0,714	0,059	0,031
-543,510	800,000	0,041	-0,113
-542,496	172,533	0,039	-0,040
-541,481	-200,000	0,020	0,074
-540,466	-200,000	0,016	0,099
-539,452	323,945	-0,026	-0,035
-538,437	127,062	-0,012	0,011
-537,423	-29,932	-0,048	0,020
-536,408	167,317	-0,031	-0,032
-535,393	406,813	0,055	-0,083
-534,379	-114,120	-0,073	-0,010
-533,364	-55,030	-0,041	0,013
-532,350	800,000	0,072	0,215
-531,335	-91,422	-0,095	-0,019
-530,321	333,911	0,093	-0,131
-529,306	-32,657	-0,048	-0,019
-528,291	-200,000	-0,011	0,081
-527,277	-83,267	-0,095	-0,022
-526,262	230,605	0,033	-0,039
-525,248	161,228	0,110	-0,111
-524,233	527,153	-0,008	-0,014
-523,218	-42,236	0,158	-0,058
-522,204	-43,527	0,033	-0,012
-521,189	169,946	-0,025	0,026
-520,175	-200,000	0,027	-0,162
-519,160	-99,138	0,126	-0,023
-518,145	176,748	-0,079	-0,083
-517,131	30,824	0,069	0,042
-516,116	800,000	0,041	0,130
-515,102	-139,173	0,017	-0,001
-514,087	-200,000	-0,022	0,087
-513,072	800,000	-0,044	0,122
-512,058	800,000	0,026	0,052
-511,043	54,659	-0,100	0,069
-510,029	43,591	0,082	0,054
-509,014	3,137	0,068	0,035
-507,999	363,724	0,046	-0,067
-506,985	-131,548	-0,099	-0,009
-505,970	-82,622	-0,078	-0,018
-504,956	465,384	-0,044	0,071
-503,941	287,033	0,126	0,164
-502,926	457,773	-0,024	-0,038
-501,912	110,809	0,087	0,076
-500,897	-61,926	-0,132	0,039
-499,883	459,954	-0,034	-0,055
-498,868	-200,000	-0,008	-0,194
-497,853	-200,000	-0,015	0,185
-496,839	-200,000	-0,033	-0,110
-495,824	800,000	0,061	0,188
-494,810	260,816	0,063	0,079
-493,795	-200,000	-0,003	-0,161
-492,781	133,815	-0,164	-0,153
-491,766	-136,504	-0,041	-0,003
-490,751	141,198	0,054	-0,052
-489,737	-200,000	0,009	0,163
-488,722	-45,778	0,123	-0,044
-487,708	-63,418	0,122	0,036
-486,693	-20,212	0,086	0,038
-485,678	-23,115	-0,074	-0,032
-484,664	-200,000	-0,006	-0,085
-483,649	208,125	0,028	0,032
-482,635	800,000	-0,021	0,054
-481,620	-165,259	0,083	-0,003
-480,605	-182,202	-0,065	0,001
-479,591	800,000	0,011	0,025
-478,576	-2,502	-0,066	0,033
-477,562	162,130	-0,038	-0,038
-476,547	-65,490	-0,082	0,024
-475,532	-42,982	0,034	-0,012
-474,518	-200,000	0,006	0,051
-473,503	-42,005	0,125	0,046
-472,489	-163,083	0,114	-0,004
-471,474	-120,833	-0,045	-0,005
-470,459	203,979	0,016	0,018
-469,445	-200,000	0,024	-0,142
-468,430	-49,201	0,081	-0,028
-467,416	-43,395	0,088	0,032
-466,401	122,402	0,075	0,067
-465,386	28,910	0,045	-0,027
-464,372	800,000	-0,039	0,124
-463,357	-200,000	-0,004	-0,030
-462,343	-28,996	-0,095	-0,039
-461,328	-200,000	0,007	0,060
-460,313	155,740	0,033	-0,033
-459,299	-98,002	-0,084	0,015
-458,284	568,724	0,060	0,105
-457,270	-33,053	0,139	0,055
-456,255	-200,000	0,007	-0,073
-455,241	324,031	-0,069	0,094
-454,226	-17,889	0,091	-0,041
-453,211	-200,000	-0,012	0,043
-452,197	32,826	0,151	0,094
-451,182	111,283	-0,023	0,020
-450,168	-200,000	0,015	0,078
-449,153	1,722	0,021	-0,011
-448,138	233,990	0,045	0,053
-447,124	96,220	-0,023	-0,019
-446,109	74,606	-0,113	0,085
-445,095	-170,162	0,065	-0,002
-444,080	-200,000	0,011	-0,045
-443,065	-78,333	0,104	-0,025
-442,051	-56,091	-0,148	-0,047
-441,036	417,551	-0,070	-0,108
-440,022	-200,000	0,003	-0,057
-439,007	-200,000	0,036	0,124
-437,992	194,407	-0,035	-0,038
-436,978	2,655	0,043	0,022
-435,963	-74,805	0,018	0,005
-434,949	-200,000	-0,018	0,062
-433,934	-17,443	0,111	-0,050
-432,919	-200,000	0,003	-0,084
-431,905	-103,607	0,138	0,023
-430,890	800,000	0,041	-0,110
-429,876	385,661	0,072	0,108
-428,861	535,497	-0,048	-0,081
-427,846	-21,798	0,040	0,017
-426,832	75,632	0,119	-0,090
-425,817	-60,812	-0,043	-0,013
-424,803	212,685	0,042	-0,047
-423,788	-0,959	-0,010	0,005
-422,773	-51,073	0,133	0,045
-421,759	-134,674	0,041	-0,004
-420,744	151,436	0,090	-0,089
-419,730	800,000	-0,048	-0,097
-418,715	-200,000	-0,028	-0,115
-417,701	48,509	-0,036	-0,024
-416,686	78,169	0,069	-0,053
-415,671	-103,315	0,032	-0,005
-414,657	-200,000	0,004	-0,017
-413,642	285,415	-0,051	0,066
-412,628	-4,894	0,060	0,029
-411,613	416,445	0,040	-0,061
-410,598	207,603	-0,051	-0,057
-409,584	-84,452	0,103	0,023
-408,569	127,268	0,021	0,019
-407,555	629,227	0,048	0,087
-406,540	-103,675	-0,139	-0,023
-405,525	-14,421	0,062	-0,029
-404,511	77,507	-0,017	-0,013
-403,496	-200,000	0,006	0,069
-402,482	-89,982	0,073	-0,015
-401,467	153,217	0,047	-0,047
-400,452	1,850	0,133	0,069
-399,438	-90,369	0,139	-0,029
-398,423	242,097	-0,062	0,075
-397,409	800,000	0,023	-0,072
-396,394	-200,000	0,000	-0,130
-395,379	68,134	0,139	-0,102
-394,365	-12,204	0,102	0,048
-393,350	-14,199	0,112	0,051
-392,336	-200,000	-0,021	0,090
-391,321	-47,330	0,090	0,031
-390,306	-75,501	-0,179	-0,045
-389,292	350,230	0,074	0,105
-388,277	-139,463	0,150	0,011
-387,263	-200,000	0,006	-0,062
-386,248	303,900	0,050	-0,066
-385,233	-3,155	-0,191	0,095
-384,219	-153,629	-0,100	0,005
-383,204	-96,026	-0,078	-0,015
-382,190	-200,000	-0,003	-0,030
-381,175	800,000	-0,023	-0,059
-380,160	-12,958	0,101	0,047
-379,146	332,703	-0,033	0,045
-378,131	-154,466	-0,057	-0,003
-377,117	420,988	0,066	-0,102
-376,102	-132,879	-0,121	-0,011
-375,088	-88,241	0,109	0,023
-374,073	-18,874	-0,041	0,018
-373,058	156,480	0,030	0,030
-372,044	108,888	0,037	0,031
-371,029	-94,713	0,145	0,028
-370,015	34,979	-0,029	-0,018
-369,000	-200,000	0,008	-0,050
-367,985	104,564	0,024	0,020
-366,971	800,000	0,041	0,087
-365,956	-31,098	-0,135	-0,054
-364,942	-200,000	0,026	0,089
-363,927	-200,000	0,017	0,148
-362,912	583,169	-0,057	-0,101
-361,898	58,602	-0,042	-0,029
-360,883	6,157	-0,093	-0,049
-359,869	-200,000	-0,041	0,175
-358,854	800,000	0,020	0,043
-357,839	98,047	0,098	0,081
-356,825	800,000	0,053	0,123
-355,810	-200,000	-0,011	0,060
-354,796	176,125	-0,118	-0,123
-353,781	-144,158	-0,111	-0,007
-352,766	800,000	-0,043	0,107
-351,752	26,109	-0,067	0,040
-350,737	-46,711	0,058	0,020
-349,723	474,288	-0,022	-0,036
-348,708	-200,000	-0,013	-0,057
-347,693	-14,969	-0,011	0,005
-346,679	212,758	0,065	-0,074
-345,664	-62,547	0,057	0,017
-344,650	-126,468	-0,070	0,007
-343,635	-113,364	0,188	-0,026
-342,620	-119,986	-0,019	-0,002
-341,606	800,000	0,053	-0,106
-340,591	354,338	-0,055	-0,079
-339,577	48,146	0,031	-0,021
-338,562	800,000	-0,024	-0,073
-337,548	800,000	-0,029	-0,090
-336,533	-51,157	0,120	0,040
-335,518	800,000	-0,004	0,011
-334,504	-104,143	-0,171	0,028
-333,489	-200,000	-0,006	-0,117
-332,475	60,668	-0,088	0,062
-331,460	-200,000	-0,005	0,047
-330,445	-200,000	-0,037	0,136
-329,431	35,967	-0,040	0,025
-328,416	-82,782	-0,017	-0,004
-327,402	608,551	0,014	0,025
-326,387	-91,674	-0,168	-0,034
-325,372	216,029	-0,034	-0,038
-324,358	36,129	-0,110	-0,069
-323,343	-200,000	0,049	-0,164
-322,329	-200,000	-0,003	0,018
-321,314	800,000	0,037	-0,081
-320,299	-200,000	-0,003	-0,014
-319,285	34,664	-0,067	-0,042
-318,270	42,275	-0,061	-0,040
-317,256	415,627	-0,036	-0,055
-316,241	121,361	-0,070	-0,062
-315,226	33,884	-0,051	0,032
-314,212	43,362	-0,053	-0,035
-313,197	-75,191	0,131	-0,033
-312,183	6,602	-0,159	0,084
-311,168	451,984	-0,117	-0,186
-310,153	-200,000	-0,003	-0,054
-309,139	-10,780	0,104	-0,049
-308,124	800,000	-0,008	0,017
-307,110	178,040	0,071	0,075
-306,095	800,000	0,037	0,089
-305,080	138,084	0,095	-0,089
-304,066	800,000	-0,015	-0,043
-303,051	330,199	-0,066	-0,091
-302,037	-170,468	-0,049	-0,001
-301,022	-46,812	-0,119	-0,041
-300,008	208,434	0,031	-0,035
-298,993	535,980	0,013	0,022
-297,978	800,000	-0,019	0,060
-296,964	-34,324	-0,113	-0,044
-295,949	-129,284	0,017	-0,002
-294,935	50,965	0,080	0,054
-293,920	49,139	0,077	0,052
-292,905	-23,921	0,083	0,036
-291,891	131,505	0,092	-0,084
-290,876	-93,064	-0,056	-0,011
-289,862	800,000	-0,044	-0,088
-288,847	-80,943	-0,058	0,014
-287,832	-41,276	0,040	-0,015
-286,818	-96,023	0,084	-0,016
-285,803	522,928	-0,090	0,151
-284,789	105,366	0,130	0,109
-283,774	-89,951	0,035	0,007
-282,759	-52,494	-0,183	-0,060
-281,745	-18,385	-0,084	-0,037
-280,730	-200,000	0,004	0,028
-279,716	-143,888	0,073	-0,005
-278,701	201,519	0,033	0,037
-277,686	94,478	0,117	0,095
-276,672	37,626	-0,096	0,061
-275,657	-9,751	0,128	0,061
-274,643	172,572	0,009	-0,009
-273,628	246,403	-0,072	-0,087
-272,613	800,000	0,020	-0,045
-271,599	800,000	-0,037	0,087
-270,584	-25,410	-0,007	-0,003
-269,570	179,272	-0,071	-0,075
-268,555	800,000	0,010	-0,022
-267,540	800,000	-0,044	-0,093
-266,526	-200,000	-0,014	-0,084
-265,511	-71,228	0,130	-0,035
-264,497	88,960	-0,098	0,078
-263,482	195,531	0,079	-0,086
-262,467	-200,000	-0,004	-0,065
-261,453	-200,000	-0,005	0,211
-260,438	18,949	-0,076	-0,043
-259,424	-56,422	-0,011	0,004
-258,409	800,000	-0,049	-0,152
-257,395	-200,000	-0,013	0,103
-256,380	280,909	-0,082	0,105
-255,365	-200,000	-0,012	-0,133
-254,351	148,381	0,038	0,037
-253,336	-67,509	-0,032	0,009
-252,322	-200,000	-0,010	-0,036
-251,307	168,763	-0,074	-0,075
-250,292	383,467	0,078	0,115
-249,278	-4,834	0,091	-0,045
-248,263	-200,000	-0,030	0,110
-247,249	-200,000	0,017	0,060
-246,234	-200,000	-0,020	-0,071
-245,219	800,000	0,040	-0,083
-244,205	-76,620	-0,065	-0,016
-243,190	136,985	0,067	0,062
-242,176	265,039	-0,082	0,103
-241,161	800,000	0,047	0,105
-240,146	313,796	0,032	0,043
-239,132	-9,117	-0,112	0,053
-238,117	259,911	-0,056	-0,069
-237,103	98,911	-0,052	-0,043
-236,088	-194,564	-0,099	0,001
-235,073	-27,098	0,126	-0,052
-234,059	217,688	-0,073	-0,083
-233,044	124,465	-0,017	0,016
-232,030	-200,000	0,011	0,048
-231,015	-148,718	-0,025	-0,001
-230,000	517,424	0,073	-0,122
-228,986	620,498	-0,002	0,004
-227,971	-92,872	-0,174	0,034
-226,957	473,946	-0,021	-0,033
-225,942	-200,000	-0,004	-0,049
-224,927	800,000	-0,027	-0,083
-223,913	800,000	0,032	0,064
-222,898	25,814	-0,033	-0,020
-221,884	133,777	-0,064	0,059
-220,869	157,696	0,060	0,059
-219,855	800,000	0,016	0,042
-218,840	-70,915	0,187	0,050
-217,825	793,382	-0,059	-0,117
-216,811	604,893	0,046	-0,081
-215,796	-60,268	-0,137	-0,041
-214,782	-30,223	0,032	0,013
-213,767	332,560	0,004	-0,006
-212,752	298,180	-0,052	-0,068
-211,738	578,761	0,022	-0,039
-210,723	-27,297	0,059	-0,024
-209,709	-17,193	-0,022	-0,010
-208,694	69,556	-0,097	0,071
-207,679	-97,124	-0,070	-0,013
-206,665	181,581	0,056	-0,059
-205,650	-118,259	0,123	-0,015
-204,636	-130,391	-0,024	0,002
-203,621	673,113	-0,076	-0,142
-202,606	12,819	-0,108	0,059
-201,592	-200,000	-0,022	-0,105
-200,577	-200,000	-0,013	0,070
-199,563	732,084	0,030	0,058
-198,548	-175,924	0,023	0,000
-197,533	36,599	0,051	0,032
-196,519	-69,777	0,169	-0,046
-195,504	388,703	-0,019	0,028
-194,490	800,000	-0,039	-0,124
-193,475	44,461	-0,058	-0,038
-192,460	32,310	0,111	-0,068
-191,446	-79,172	0,131	0,031
-190,431	68,951	0,063	0,046
-189,417	800,000	0,012	-0,032
-188,402	-66,577	-0,046	0,013
-187,387	-55,323	-0,108	-0,034
-186,373	-128,651	-0,011	-0,001
-185,358	257,326	-0,064	-0,079
-184,344	326,023	0,087	0,119
-183,329	-200,000	0,001	0,112
-182,315	800,000	0,033	0,101
-181,300	-200,000	0,019	-0,067
-180,285	-200,000	-0,019	-0,064
-179,271	-89,062	-0,137	-0,029
-178,256	-73,061	-0,059	0,015
-177,242	193,777	-0,084	0,091
-176,227	-200,000	0,013	0,135
-175,212	155,799	0,072	0,071
-174,198	-79,169	-0,187	0,045
-173,183	-149,397	-0,045	-0,002
-172,169	-200,000	0,003	0,107
-171,154	-32,400	-0,038	0,015
-170,139	-200,000	0,201	-0,000
-169,125	-38,519	0,210	0,079
-168,110	800,000	0,044	-0,095
-167,096	243,150	-0,012	-0,014
-166,081	-1,204	-0,141	-0,071
-165,066	-87,554	-0,104	0,022
-164,052	-117,668	-0,114	-0,014
-163,037	-68,287	0,030	-0,008
-162,023	-200,000	0,033	0,132
-161,008	-57,806	-0,080	-0,025
-159,993	532,630	0,052	-0,088
-158,979	338,311	0,049	-0,067
-157,964	514,207	-0,043	-0,071
-156,950	-200,000	0,014	-0,061
-155,935	800,000	0,011	0,026
-154,920	124,319	0,053	-0,047
-153,906	-200,000	0,013	0,103
-152,891	-14,484	0,164	-0,075
-151,877	-200,000	0,003	-0,040
-150,862	-4,173	-0,048	0,024
-149,847	400,935	0,107	-0,161
-148,833	-118,920	0,090	0,011
-147,818	260,496	0,082	0,101
-146,804	520,361	0,091	-0,151
-145,789	-200,000	0,000	-0,034
-144,775	81,832	0,058	-0,045
-143,760	-134,387	-0,114	-0,010
-142,745	-120,644	0,113	0,013
-141,731	97,750	0,113	-0,093
-140,716	317,156	0,047	0,064
-139,702	800,000	0,019	0,049
-138,687	-69,541	-0,201	0,054
-137,672	286,677	0,027	0,035
-136,658	118,191	-0,073	0,064
-135,643	-147,497	-0,082	-0,005
-134,629	311,286	0,050	-0,066
-133,614	-200,000	0,009	0,147
-132,599	207,539	0,065	0,072
-131,585	-68,869	0,042	0,012
-130,570	196,221	-0,045	0,049
-129,556	-73,874	0,043	-0,011
-128,541	800,000	0,044	-0,097
-127,526	-41,164	-0,115	-0,042
-126,512	374,118	0,094	0,136
-125,497	412,216	0,080	0,121
-124,483	800,000	0,045	0,095
-123,468	-200,000	0,005	0,078
-122,453	-115,334	-0,051	0,007
-121,439	-71,502	0,146	0,038
-120,424	-70,429	-0,065	0,017
-119,410	-137,909	0,036	-0,003
