DTS Sentinel unit serial number:	SN410029Multiplexer serial number:	ORYXHardware model number:	OX2-SRSoftware version number:	ORYX F/W v4,00 Oryx Data Collector v3.7.2.0data status	okinstallation	B6 Nyhavnadifferential loss correction	single-endedforward channel	channel 2reverse channel	N/Adate	2023/12/10time	06:50:08forward acquisition time	300,00reverse acquisition time	0,00gamma	499,1914k internal	0,3124k external	0,3124temperature offset calibration	1,0000default loss term (dB/km)	0,3820temperature slope calibration	1,0000multiplexer offset coefficient	1,0000multiplexer slope coefficient	1,0000fibre end	0,00T internal ref (°C)	22,62T ext. ref 1 (°C)	6,43T ext. ref 2 (°C)	6,41length (m)	temperature (°C)	Stokes	anti-Stokes-744,400	-200,000	0,002	-0,141
-743,385	205,770	-0,129	0,149
-742,371	195,668	0,050	0,056
-741,356	-81,860	-0,247	0,060
-740,342	-21,785	0,093	-0,042
-739,327	-28,259	-0,289	0,124
-738,312	86,518	0,046	-0,037
-737,298	-97,503	-0,217	0,042
-736,283	715,737	0,010	-0,019
-735,269	66,700	-0,278	0,210
-734,254	-8,176	0,083	-0,041
-733,239	-148,400	-0,331	-0,020
-732,225	-85,517	0,029	0,007
-731,210	258,006	-0,051	-0,065
-730,196	-29,358	-0,062	-0,026
-729,181	-75,279	0,113	0,030
-728,167	-10,233	-0,060	-0,030
-727,152	-31,450	0,074	-0,031
-726,137	-200,000	-0,001	-0,104
-725,123	-193,121	-0,190	0,001
-724,108	560,509	-0,047	0,084
-723,094	800,000	0,066	-0,145
-722,079	-200,000	-0,049	-0,177
-721,064	-200,000	0,044	-0,148
-720,050	8,529	0,045	0,025
-719,035	-200,000	-0,002	-0,109
-718,021	-18,770	0,064	-0,030
-717,006	-200,000	-0,027	0,123
-715,991	-29,311	-0,114	0,048
-714,977	-28,305	-0,194	-0,083
-713,962	-200,000	0,002	-0,053
-712,948	17,325	-0,046	-0,027
-711,933	388,547	0,054	-0,083
-710,918	506,497	0,017	-0,030
-709,904	-106,271	-0,119	-0,020
-708,889	800,000	0,035	-0,088
-707,875	203,563	-0,128	-0,147
-706,860	-4,865	0,031	-0,016
-705,845	800,000	0,062	-0,141
-704,831	-200,000	0,013	0,054
-703,816	-96,487	0,048	-0,009
-702,802	-44,979	-0,090	0,033
-701,787	7,770	-0,052	0,029
-700,772	-200,000	-0,032	-0,152
-699,758	724,262	-0,024	-0,048
-698,743	800,000	-0,042	-0,102
-697,729	766,395	0,059	-0,121
-696,714	26,103	0,057	0,035
-695,699	95,931	-0,021	0,018
-694,685	33,898	-0,088	-0,057
-693,670	-200,000	-0,027	-0,134
-692,656	-137,456	0,046	0,004
-691,641	-58,850	0,042	0,014
-690,627	-69,760	0,115	0,033
-689,612	149,656	-0,083	0,084
-688,597	42,113	-0,068	0,046
-687,583	800,000	-0,062	-0,133
-686,568	672,781	-0,066	-0,127
-685,554	25,627	-0,057	-0,035
-684,539	181,869	-0,047	-0,051
-683,524	-87,798	-0,092	-0,020
-682,510	-200,000	0,026	0,137
-681,495	-200,000	0,003	0,031
-680,481	44,136	-0,049	0,033
-679,466	187,156	-0,027	0,030
-678,451	-200,000	0,010	0,059
-677,437	174,722	-0,034	-0,037
-676,422	-165,752	0,112	-0,004
-675,408	-200,000	-0,009	0,051
-674,393	552,060	0,071	-0,128
-673,378	139,290	0,082	-0,080
-672,364	118,793	-0,135	-0,124
-671,349	800,000	0,082	-0,175
-670,335	-60,617	-0,077	0,024
-669,320	800,000	0,034	-0,077
-668,305	-116,126	-0,127	0,017
-667,291	-200,000	-0,006	-0,021
-666,276	-36,719	0,003	0,001
-665,262	573,935	-0,009	0,017
-664,247	800,000	-0,020	0,048
-663,232	800,000	0,040	-0,112
-662,218	2,653	0,076	0,041
-661,203	-200,000	0,002	0,070
-660,189	25,463	-0,081	-0,050
-659,174	81,535	0,020	0,016
-658,159	579,414	-0,088	-0,160
-657,145	-10,276	-0,056	-0,028
-656,130	-200,000	-0,035	-0,135
-655,116	-137,317	0,086	-0,007
-654,101	110,765	0,037	-0,033
-653,086	800,000	-0,022	-0,064
-652,072	800,000	0,032	0,066
-651,057	56,666	-0,097	-0,070
-650,043	655,844	-0,035	-0,067
-649,028	23,589	0,117	0,072
-648,014	-151,068	-0,087	0,005
-646,999	521,991	-0,061	-0,107
-645,984	-200,000	-0,016	0,122
-644,970	-22,379	-0,131	0,059
-643,955	122,453	0,011	-0,010
-642,941	145,047	-0,046	-0,045
-641,926	93,511	0,056	0,047
-640,911	800,000	-0,039	-0,090
-639,897	-101,239	0,065	0,012
-638,882	-200,000	-0,002	-0,015
-637,868	-92,296	-0,121	-0,025
-636,853	89,517	0,072	-0,059
-635,838	-106,983	-0,060	0,010
-634,824	-200,000	0,002	-0,032
-633,809	-200,000	-0,020	0,073
-632,795	312,095	0,051	-0,072
-631,780	70,426	-0,035	0,027
-630,765	81,723	0,031	0,025
-629,751	31,178	0,116	-0,074
-628,736	-170,500	-0,084	0,002
-627,722	220,824	-0,029	0,035
-626,707	-157,470	-0,082	-0,004
-625,692	800,000	-0,032	0,086
-624,678	-52,579	0,095	-0,032
-623,663	-96,435	-0,089	-0,017
-622,649	689,348	-0,047	0,091
-621,634	-200,000	0,002	-0,060
-620,619	217,353	0,074	-0,087
-619,605	753,582	0,010	0,021
-618,590	54,203	0,058	0,041
-617,576	-27,780	-0,060	0,026
-616,561	-200,000	0,017	0,069
-615,546	44,295	-0,082	-0,055
-614,532	523,590	-0,056	-0,097
-613,517	492,694	0,054	0,092
-612,503	-103,284	0,119	0,021
-611,488	-102,232	-0,094	0,017
-610,474	190,838	-0,061	-0,068
-609,459	81,692	-0,054	-0,043
-608,444	-21,987	0,062	-0,028
-607,430	800,000	0,024	-0,066
-606,415	-179,632	0,065	-0,001
-605,401	-85,655	-0,006	0,001
-604,386	307,741	0,038	0,053
-603,371	800,000	-0,012	-0,030
-602,357	-200,000	0,015	0,069
-601,342	-200,000	0,007	0,026
-600,328	-111,000	-0,076	0,011
-599,313	-91,573	0,146	-0,031
-598,298	-200,000	-0,009	-0,041
-597,284	-200,000	-0,011	0,060
-596,269	-17,010	-0,075	-0,035
-595,255	-200,000	0,014	-0,050
-594,240	433,680	-0,080	-0,130
-593,225	731,770	-0,054	0,107
-592,211	-106,393	-0,023	0,004
-591,196	-200,000	-0,022	-0,103
-590,182	-200,000	-0,028	0,132
-589,167	-92,735	0,184	0,038
-588,152	-56,880	-0,102	-0,033
-587,138	60,410	-0,054	0,040
-586,123	-200,000	-0,009	-0,122
-585,109	189,936	-0,056	-0,062
-584,094	-130,934	0,067	0,007
-583,079	-200,000	-0,026	0,169
-582,065	466,710	0,097	0,161
-581,050	400,723	-0,026	-0,041
-580,036	492,913	-0,009	-0,015
-579,021	1,553	-0,082	-0,043
-578,006	388,334	-0,031	-0,048
-576,992	-200,000	-0,009	-0,037
-575,977	115,095	-0,066	-0,060
-574,963	800,000	-0,051	-0,131
-573,948	-200,000	-0,006	0,096
-572,934	79,013	0,054	-0,043
-571,919	800,000	0,010	-0,030
-570,904	-200,000	0,015	-0,110
-569,890	66,212	-0,042	-0,031
-568,875	32,372	0,122	0,078
-567,861	85,004	0,066	0,054
-566,846	-5,316	-0,082	-0,042
-565,831	98,736	-0,130	-0,111
-564,817	271,261	0,051	0,066
-563,802	113,213	-0,117	0,105
-562,788	-77,163	-0,072	-0,018
-561,773	-200,000	0,010	0,086
-560,758	40,471	-0,047	0,031
-559,744	163,869	0,124	0,129
-558,729	348,852	-0,034	-0,050
-557,715	-61,029	-0,052	-0,016
-556,700	-39,408	0,111	-0,043
-555,685	189,539	-0,080	-0,089
-554,671	-185,648	-0,083	0,001
-553,656	-46,612	0,140	0,050
-552,642	-11,250	0,013	0,006
-551,627	-200,000	-0,005	-0,030
-550,612	104,122	-0,062	-0,054
-549,598	800,000	-0,025	-0,058
-548,583	85,319	-0,150	0,122
-547,569	-41,221	0,092	-0,035
-546,554	406,892	-0,065	0,102
-545,539	285,709	0,043	-0,057
-544,525	-13,834	0,046	0,022
-543,510	-48,181	-0,208	-0,074
-542,496	138,640	0,062	-0,060
-541,481	298,764	-0,052	0,071
-540,466	800,000	0,051	0,117
-539,452	800,000	-0,051	0,139
-538,437	14,622	-0,052	0,030
-537,423	-200,000	0,011	-0,086
-536,408	-200,000	-0,006	-0,037
-535,393	-55,340	-0,130	0,043
-534,379	44,581	0,050	0,034
-533,364	160,168	0,103	0,106
-532,350	-145,313	0,139	-0,009
-531,335	-54,394	-0,070	0,023
-530,321	-55,769	0,101	0,033
-529,306	-200,000	-0,015	-0,097
-528,291	43,201	-0,032	-0,021
-527,277	46,402	-0,049	-0,034
-526,262	-200,000	-0,009	0,040
-525,248	800,000	0,009	-0,025
-524,233	57,063	-0,026	-0,019
-523,218	-110,597	-0,093	0,014
-522,204	67,857	0,056	-0,042
-521,189	-30,897	-0,054	-0,022
-520,175	800,000	0,074	-0,165
-519,160	-200,000	0,011	0,066
-518,145	-200,000	0,009	-0,046
-517,131	800,000	-0,034	0,080
-516,116	68,771	0,099	0,075
-515,102	-200,000	-0,006	0,093
-514,087	-200,000	0,006	0,025
-513,072	-51,685	-0,168	-0,058
-512,058	33,614	-0,075	0,048
-511,043	-137,214	-0,148	-0,012
-510,029	10,379	0,113	-0,064
-509,014	800,000	0,044	-0,121
-507,999	-70,837	0,061	-0,017
-506,985	642,464	0,022	-0,041
-505,970	-200,000	-0,020	0,095
-504,956	201,286	-0,085	0,097
-503,941	-200,000	-0,028	0,190
-502,926	-200,000	0,001	0,009
-501,912	-75,237	-0,056	0,015
-500,897	138,717	0,055	0,053
-499,883	-119,222	0,074	-0,009
-498,868	-200,000	0,006	-0,150
-497,853	35,206	-0,082	-0,053
-496,839	310,873	0,024	-0,033
-495,824	-97,458	-0,146	0,028
-494,810	800,000	-0,045	0,124
-493,795	174,625	0,044	0,048
-492,781	-200,000	0,003	-0,053
-491,766	-82,061	-0,055	-0,013
-490,751	156,648	-0,077	-0,079
-489,737	-60,403	0,039	0,012
-488,722	312,228	-0,055	0,077
-487,708	228,582	-0,060	0,072
-486,693	195,851	0,052	0,059
-485,678	54,050	-0,036	0,026
-484,664	427,382	0,031	0,050
-483,649	-184,402	0,077	0,001
-482,635	99,971	0,050	0,043
-481,620	18,462	0,013	0,008
-480,605	-200,000	0,009	0,081
-479,591	-45,859	0,100	0,036
-478,576	127,842	-0,025	0,024
-477,562	-200,000	-0,009	-0,034
-476,547	-52,370	0,058	0,020
-475,532	-200,000	-0,030	-0,102
-474,518	277,203	-0,073	0,095
-473,503	-60,756	0,107	0,033
-472,489	-24,912	-0,018	0,008
-471,474	59,197	-0,015	-0,011
-470,459	800,000	-0,023	-0,048
-469,445	-15,384	-0,063	-0,030
-468,430	-200,000	-0,002	-0,128
-467,416	800,000	0,004	-0,010
-466,401	800,000	-0,069	0,172
-465,386	189,761	0,043	-0,048
-464,372	213,458	-0,038	-0,045
-463,357	23,283	-0,014	0,008
-462,343	-200,000	0,001	-0,045
-461,328	-200,000	-0,000	-0,079
-460,313	-85,113	0,074	-0,017
-459,299	22,518	0,054	0,032
-458,284	281,099	-0,054	0,072
-457,270	-200,000	-0,022	-0,123
-456,255	-200,000	-0,021	-0,068
-455,241	418,644	-0,077	-0,121
-454,226	-200,000	-0,028	-0,100
-453,211	697,202	0,068	0,133
-452,197	135,433	-0,028	0,027
-451,182	-22,064	0,088	0,039
-450,168	641,613	0,012	-0,022
-449,153	-130,872	-0,210	0,020
-448,138	149,338	-0,093	-0,093
-447,124	428,687	-0,057	-0,092
-446,109	-121,014	-0,070	0,009
-445,095	82,105	-0,079	-0,063
-444,080	758,968	0,036	-0,072
-443,065	800,000	-0,018	-0,040
-442,051	800,000	-0,025	-0,050
-441,036	294,043	-0,075	0,101
-440,022	-36,250	-0,034	0,013
-439,007	-200,000	-0,006	0,076
-437,992	-65,462	0,069	0,020
-436,978	-200,000	-0,015	0,118
-435,963	-98,102	-0,057	-0,011
-434,949	282,389	0,034	0,045
-433,934	-130,764	-0,077	-0,007
-432,919	308,024	-0,041	-0,057
-431,905	-119,250	0,083	-0,011
-430,890	-68,589	-0,079	0,022
-429,876	-200,000	0,004	0,043
-428,861	-200,000	0,007	0,174
-427,846	800,000	-0,012	0,026
-426,832	483,083	-0,036	-0,061
-425,817	-200,000	0,004	-0,034
-424,803	2,139	-0,007	0,003
-423,788	-200,000	0,000	-0,041
-422,773	-93,906	-0,060	0,012
-421,759	-151,088	0,100	0,005
-420,744	415,145	-0,052	0,082
-419,730	66,802	-0,075	-0,056
-418,715	439,728	-0,054	-0,087
-417,701	-200,000	0,006	-0,053
-416,686	116,347	0,140	-0,126
-415,671	-200,000	-0,005	-0,112
-414,657	-200,000	0,027	0,111
-413,642	184,137	0,050	0,054
-412,628	341,989	-0,014	0,021
-411,613	-134,384	0,134	0,012
-410,598	556,333	-0,078	-0,139
-409,584	-200,000	0,013	-0,045
-408,569	-60,132	0,139	0,043
-407,555	37,915	0,084	0,055
-406,540	-148,841	-0,102	0,006
-405,525	-200,000	0,009	0,104
-404,511	-200,000	-0,032	-0,155
-403,496	800,000	-0,021	-0,053
-402,482	47,929	-0,039	-0,027
-401,467	198,030	-0,023	-0,025
-400,452	269,676	0,005	-0,006
-399,438	148,242	-0,055	0,055
-398,423	-200,000	-0,021	0,087
-397,409	92,026	0,023	0,019
-396,394	43,997	-0,144	0,097
-395,379	800,000	0,092	0,243
-394,365	800,000	0,055	-0,122
-393,350	180,028	0,064	-0,069
-392,336	186,441	0,064	0,070
-391,321	-15,022	-0,117	-0,055
-390,306	-84,861	-0,120	-0,027
-389,292	66,763	-0,047	-0,035
-388,277	249,011	-0,080	-0,099
-387,263	-200,000	0,045	0,178
-386,248	-79,708	-0,074	0,018
-385,233	800,000	0,002	-0,005
-384,219	-42,180	-0,070	-0,026
-383,204	-200,000	0,027	-0,130
-382,190	-200,000	-0,001	0,092
-381,175	-129,295	0,139	-0,014
-380,160	-139,834	-0,029	0,002
-379,146	-91,951	0,163	-0,034
-378,131	-159,227	0,044	-0,002
-377,117	57,440	-0,027	-0,020
-376,102	301,111	-0,054	-0,074
-375,088	800,000	0,036	-0,097
-374,073	74,886	0,071	-0,054
-373,058	800,000	0,034	0,089
-372,044	37,901	0,096	0,062
-371,029	-11,298	0,017	0,008
-370,015	-7,266	-0,064	-0,032
-369,000	-200,000	0,076	-0,000
-367,985	115,720	0,088	-0,079
-366,971	304,187	0,027	0,037
-365,956	201,498	0,136	-0,154
-364,942	-101,610	0,191	-0,034
-363,927	-200,000	0,016	0,063
-362,912	-200,000	-0,001	0,026
-361,898	-200,000	0,015	-0,130
-360,883	-200,000	-0,002	-0,019
-359,869	-200,000	-0,021	-0,083
-358,854	-198,682	0,125	0,000
-357,839	-23,979	-0,005	-0,002
-356,825	45,304	0,124	0,084
-355,810	-200,000	0,011	0,073
-354,796	406,217	-0,038	0,060
-353,781	-200,000	-0,012	-0,082
-352,766	-200,000	0,029	-0,152
-351,752	-98,541	-0,219	0,041
-350,737	348,901	0,032	0,047
-349,723	11,417	0,128	0,072
-348,708	-163,896	0,101	-0,003
-347,693	-200,000	0,025	0,099
-346,679	-98,472	0,092	0,017
-345,664	-57,736	-0,046	-0,015
-344,650	173,130	0,034	-0,036
-343,635	-14,727	0,097	-0,045
-342,620	-96,115	0,056	0,011
-341,606	225,312	-0,072	-0,086
-340,591	638,674	-0,024	0,044
-339,577	-30,129	-0,032	-0,013
-338,562	73,075	-0,035	0,027
-337,548	175,078	0,085	-0,090
-336,533	-200,000	-0,004	-0,029
-335,518	211,740	0,067	-0,078
-334,504	78,876	0,049	0,038
-333,489	-115,209	-0,044	0,006
-332,475	78,683	-0,129	-0,101
-331,460	172,126	0,062	-0,065
-330,445	-43,553	-0,096	0,035
-329,431	-200,000	0,012	0,087
-328,416	92,286	0,065	0,054
-327,402	-200,000	0,015	0,084
-326,387	-135,138	0,006	0,000
-325,372	70,260	-0,019	-0,015
-324,358	-11,334	0,009	-0,004
-323,343	117,361	0,026	-0,023
-322,329	-80,371	-0,025	-0,006
-321,314	-18,115	0,135	0,062
-320,299	87,782	0,060	0,049
-319,285	-41,805	0,039	-0,015
-318,270	130,609	-0,044	-0,042
-317,256	-200,000	-0,016	0,107
-316,241	90,120	0,109	0,089
-315,226	19,201	0,032	0,018
-314,212	13,774	0,084	0,047
-313,197	-200,000	0,019	0,138
-312,183	-200,000	0,015	-0,080
-311,168	219,467	-0,083	0,098
-310,153	126,835	-0,028	-0,026
-309,139	110,212	-0,024	-0,021
-308,124	-31,960	0,148	-0,061
-307,110	-31,667	0,156	0,064
-306,095	236,476	0,118	-0,143
-305,080	46,942	-0,143	0,097
-304,066	-99,141	0,059	0,011
-303,051	-200,000	0,007	0,128
-302,037	-10,985	-0,074	0,036
-301,022	101,280	0,030	0,025
-300,008	-200,000	-0,006	0,074
-298,993	-200,000	-0,015	-0,067
-297,978	301,602	-0,025	-0,035
-296,964	-161,023	-0,190	0,007
-295,949	62,480	-0,075	-0,055
-294,935	-200,000	0,044	0,000
-293,920	-200,000	0,048	-0,212
-292,905	-53,824	0,163	-0,054
-291,891	427,508	-0,110	0,174
-290,876	-62,631	0,104	-0,031
-289,862	301,912	0,023	-0,031
-288,847	-200,000	-0,012	0,072
-287,832	135,804	0,033	0,032
-286,818	800,000	0,044	-0,114
-285,803	-65,175	-0,043	0,013
-284,789	800,000	-0,041	0,116
-283,774	66,356	-0,068	0,051
-282,759	-200,000	0,005	0,030
-281,745	80,953	0,095	0,075
-280,730	-70,655	-0,032	-0,009
-279,716	-61,087	0,058	-0,018
-278,701	-142,019	0,218	-0,016
-277,686	800,000	0,017	-0,052
-276,672	188,888	0,121	0,133
-275,657	-200,000	0,010	0,059
-274,643	-106,577	-0,061	0,010
-273,628	-97,177	-0,144	-0,027
-272,613	-200,000	0,018	0,109
-271,599	94,774	0,102	0,084
-270,584	133,649	0,080	-0,076
-269,570	800,000	-0,055	0,127
-268,555	86,814	-0,010	-0,008
-267,540	-200,000	0,004	-0,039
-266,526	636,287	0,025	-0,047
-265,511	-200,000	0,019	-0,082
-264,497	-151,400	-0,050	-0,003
-263,482	55,522	0,080	0,057
-262,467	-42,086	0,160	0,060
-261,453	-59,303	-0,059	0,018
-260,438	-7,625	-0,153	-0,075
-259,424	-81,334	-0,085	0,020
-258,409	-10,512	-0,029	0,014
-257,395	13,376	-0,051	-0,029
-256,380	28,822	0,093	-0,058
-255,365	800,000	-0,021	0,057
-254,351	800,000	0,044	0,097
-253,336	-200,000	-0,001	-0,029
-252,322	25,410	-0,120	0,072
-251,307	-200,000	-0,012	-0,040
-250,292	800,000	-0,040	-0,100
-249,278	692,507	0,037	0,072
-248,263	167,446	-0,053	0,055
-247,249	-71,856	0,061	-0,016
-246,234	34,898	0,160	-0,102
-245,219	204,588	-0,078	-0,088
-244,205	800,000	0,024	-0,071
-243,190	-200,000	0,022	0,108
-242,176	-139,238	-0,066	0,005
-241,161	-180,441	-0,106	0,002
-240,146	375,676	0,087	0,130
-239,132	391,390	0,040	0,062
-238,117	-200,000	-0,002	-0,031
-237,103	-70,403	0,047	0,013
-236,088	-0,951	0,085	-0,044
-235,073	367,578	-0,022	0,033
-234,059	480,830	-0,036	0,061
-233,044	-200,000	-0,006	0,080
-232,030	800,000	0,061	-0,152
-231,015	-200,000	-0,010	-0,292
-230,000	-36,828	0,049	-0,019
-228,986	-104,210	0,119	0,020
-227,971	106,107	0,034	-0,029
-226,957	-7,340	0,199	0,098
-225,942	64,263	0,045	0,033
-224,927	467,663	0,054	0,089
-223,913	-99,914	-0,059	-0,011
-222,898	-78,498	-0,054	0,013
-221,884	800,000	0,055	0,133
-220,869	-200,000	-0,037	0,119
-219,855	-200,000	0,020	0,156
-218,840	704,753	0,015	-0,030
-217,825	18,901	-0,066	0,038
-216,811	94,950	0,051	-0,042
-215,796	-200,000	0,016	-0,124
-214,782	360,099	-0,024	0,035
-213,767	-196,302	0,140	0,001
-212,752	-80,005	-0,074	0,018
-211,738	238,205	-0,031	-0,038
-210,723	-161,918	-0,055	0,002
-209,709	22,312	0,096	-0,057
-208,694	10,752	-0,173	-0,096
-207,679	-200,000	0,010	-0,061
-206,665	-200,000	0,009	0,078
-205,650	-86,778	-0,111	-0,025
-204,636	51,676	0,080	0,055
-203,621	242,989	0,060	0,073
-202,606	-200,000	0,003	-0,013
-201,592	28,857	-0,064	-0,040
-200,577	157,820	0,052	-0,052
-199,563	-41,046	-0,120	0,045
-198,548	100,710	0,121	0,103
-197,533	-200,000	0,014	-0,072
-196,519	800,000	-0,016	0,047
-195,504	85,701	-0,043	0,034
-194,490	340,556	-0,060	-0,085
-193,475	800,000	0,045	-0,097
-192,460	-115,472	0,214	0,029
-191,446	-39,821	0,172	-0,065
-190,431	800,000	-0,011	0,035
-189,417	800,000	0,008	-0,019
-188,402	800,000	0,039	-0,108
-187,387	471,817	0,051	-0,083
-186,373	76,622	-0,050	-0,039
-185,358	9,541	-0,044	-0,024
-184,344	800,000	-0,041	-0,097
-183,329	55,830	0,064	0,045
-182,315	94,958	-0,034	-0,028
-181,300	-34,762	0,015	0,006
-180,285	216,652	-0,027	0,031
-179,271	800,000	-0,069	-0,177
-178,256	-200,000	0,015	-0,098
-177,242	529,627	0,047	0,081
-176,227	149,005	-0,044	0,044
-175,212	44,076	0,076	0,051
-174,198	-78,722	0,048	0,012
-173,183	-146,915	-0,085	-0,005
-172,169	-71,873	-0,108	-0,029
-171,154	-200,000	0,026	-0,096
-170,139	22,486	-0,070	0,041
-169,125	-200,000	0,016	0,070
-168,110	-200,000	0,027	-0,116
-167,096	586,227	-0,109	0,196
-166,081	-90,234	-0,146	0,031
-165,066	800,000	-0,073	-0,224
-164,052	18,865	-0,098	-0,057
-163,037	800,000	-0,018	-0,044
-162,023	-200,000	0,001	0,095
-161,008	179,474	-0,087	-0,093
-159,993	173,723	0,098	-0,103
-158,979	-9,503	-0,146	-0,071
-157,964	384,943	-0,032	0,049
-156,950	800,000	-0,002	-0,005
-155,935	31,128	-0,130	0,081
-154,920	63,158	0,053	0,039
-153,906	-3,278	0,065	-0,033
-152,891	800,000	0,019	0,058
-151,877	236,894	-0,065	-0,079
-150,862	-200,000	-0,011	-0,086
-149,847	-85,115	0,115	-0,026
-148,833	-58,264	0,073	-0,023
-147,818	133,444	0,099	0,093
-146,804	339,592	0,109	0,156
-145,789	-200,000	-0,010	0,096
-144,775	-200,000	0,013	0,073
-143,760	238,071	-0,067	-0,081
-142,745	67,323	-0,134	-0,099
-141,731	340,416	0,029	0,041
-140,716	-70,085	0,112	0,031
-139,702	800,000	0,039	0,093
-138,687	-200,000	-0,036	0,120
-137,672	60,295	-0,109	0,079
-136,658	-47,728	-0,072	-0,025
-135,643	62,713	0,080	0,058
-134,629	-200,000	-0,006	-0,039
-133,614	300,500	-0,074	-0,099
-132,599	406,872	0,073	0,112
-131,585	110,111	-0,075	-0,065
-130,570	-200,000	0,003	-0,025
-129,556	-200,000	0,022	0,082
-128,541	83,061	0,069	0,054
-127,526	-107,508	0,118	-0,019
-126,512	800,000	0,038	-0,082
-125,497	584,763	0,146	0,263
-124,483	401,108	0,080	-0,123
-123,468	-103,922	-0,067	0,011
-122,453	-200,000	-0,014	-0,080
-121,439	392,067	-0,051	-0,077
-120,424	800,000	-0,034	-0,098
-119,410	50,297	0,033	0,023
-118,395	282,758	-0,109	0,142
