DTS Sentinel unit serial number:	SN410029Multiplexer serial number:	ORYXHardware model number:	OX2-SRSoftware version number:	ORYX F/W v4,00 Oryx Data Collector v3.7.2.0data status	okinstallation	B6 Nyhavnadifferential loss correction	single-endedforward channel	channel 2reverse channel	N/Adate	2023/12/09time	06:45:08forward acquisition time	300,00reverse acquisition time	0,00gamma	499,1914k internal	0,3140k external	0,3140temperature offset calibration	1,0000default loss term (dB/km)	0,3820temperature slope calibration	1,0000multiplexer offset coefficient	1,0000multiplexer slope coefficient	1,0000fibre end	0,00T internal ref (°C)	18,52T ext. ref 1 (°C)	2,19T ext. ref 2 (°C)	2,21length (m)	temperature (°C)	Stokes	anti-Stokes-744,400	-200,000	0,014	0,107
-743,385	-43,039	-0,419	0,157
-742,371	493,021	-0,045	-0,077
-741,356	-92,800	-0,271	0,056
-740,342	-79,700	0,053	0,013
-739,327	-138,557	-0,235	0,019
-738,312	-48,973	-0,040	-0,014
-737,298	-127,194	-0,251	-0,027
-736,283	158,666	-0,109	-0,112
-735,269	-122,304	-0,225	-0,027
-734,254	-90,520	0,075	-0,016
-733,239	-120,910	-0,491	-0,060
-732,225	-166,792	0,216	-0,006
-731,210	-18,936	0,162	0,074
-730,196	73,736	-0,032	0,025
-729,181	66,473	-0,061	0,046
-728,167	-200,000	-0,008	-0,067
-727,152	86,971	-0,098	-0,080
-726,137	800,000	-0,021	0,048
-725,123	-19,297	-0,120	-0,055
-724,108	800,000	-0,037	-0,112
-723,094	-200,000	0,045	-0,162
-722,079	198,709	-0,091	-0,103
-721,064	800,000	-0,049	0,136
-720,050	-86,456	-0,077	-0,017
-719,035	340,818	0,049	-0,071
-718,021	-200,000	-0,020	-0,102
-717,006	-200,000	-0,043	-0,151
-715,991	-157,637	-0,127	-0,005
-714,977	800,000	-0,019	0,041
-713,962	-200,000	-0,032	0,119
-712,948	-200,000	-0,002	0,134
-711,933	-154,894	-0,079	-0,004
-710,918	-114,853	0,166	-0,023
-709,904	194,709	0,118	-0,133
-708,889	450,714	-0,134	-0,219
-707,875	239,565	0,045	-0,055
-706,860	-131,124	-0,122	-0,012
-705,845	-200,000	-0,013	0,219
-704,831	26,737	0,162	-0,100
-703,816	14,819	0,107	-0,062
-702,802	-122,608	-0,084	0,010
-701,787	252,076	-0,025	-0,032
-700,772	-116,803	-0,066	-0,009
-699,758	-200,000	-0,002	-0,052
-698,743	-99,670	0,106	0,019
-697,729	444,756	0,059	-0,096
-696,714	-72,533	0,021	0,006
-695,699	-60,070	-0,077	0,024
-694,685	-1,073	0,059	-0,031
-693,670	-76,497	-0,132	0,034
-692,656	216,087	0,080	-0,094
-691,641	-200,000	0,004	-0,121
-690,627	-200,000	0,024	-0,100
-689,612	-25,845	-0,098	-0,043
-688,597	-200,000	-0,019	-0,084
-687,583	-200,000	-0,023	-0,101
-686,568	-106,341	-0,078	0,013
-685,554	-200,000	-0,050	-0,173
-684,539	-128,502	0,155	-0,016
-683,524	-200,000	0,020	0,130
-682,510	800,000	-0,050	0,144
-681,495	295,497	-0,022	0,030
-680,481	-200,000	-0,003	0,084
-679,466	51,210	-0,012	-0,009
-678,451	579,870	0,046	0,083
-677,437	157,540	0,091	0,093
-676,422	-92,237	0,093	0,019
-675,408	-25,901	0,013	-0,006
-674,393	800,000	0,032	-0,093
-673,378	-136,603	-0,081	0,007
-672,364	-0,075	0,030	-0,016
-671,349	-80,661	-0,052	0,013
-670,335	201,403	0,016	-0,018
-669,320	227,167	-0,088	0,106
-668,305	-92,253	0,040	0,008
-667,291	-28,067	0,075	-0,032
-666,276	800,000	0,032	-0,097
-665,262	-35,093	0,045	-0,018
-664,247	800,000	-0,023	0,074
-663,232	-11,263	-0,136	0,066
-662,218	-80,335	0,153	-0,038
-661,203	-200,000	-0,028	0,115
-660,189	-200,000	0,054	-0,187
-659,174	232,170	-0,073	-0,089
-658,159	354,521	-0,054	-0,079
-657,145	71,086	-0,078	-0,059
-656,130	90,790	-0,125	-0,104
-655,116	800,000	-0,004	0,010
-654,101	86,321	-0,061	0,050
-653,086	-159,604	-0,049	0,002
-652,072	-129,759	0,056	0,006
-651,057	171,812	0,067	-0,071
-650,043	800,000	-0,031	-0,085
-649,028	-25,030	-0,040	-0,017
-648,014	-114,790	0,099	0,014
-646,999	135,901	0,036	-0,035
-645,984	432,315	0,096	0,154
-644,970	-145,845	-0,140	-0,009
-643,955	31,014	-0,067	-0,043
-642,941	143,100	0,072	-0,071
-641,926	-109,286	-0,156	0,024
-640,911	-200,000	0,006	-0,060
-639,897	740,692	0,068	-0,135
-638,882	-200,000	0,014	-0,081
-637,868	161,511	0,062	0,065
-636,853	188,963	0,040	0,044
-635,838	-200,000	-0,006	-0,093
-634,824	684,469	-0,031	-0,059
-633,809	-200,000	0,002	0,099
-632,795	107,623	0,037	0,032
-631,780	-200,000	-0,013	0,089
-630,765	21,772	-0,186	-0,112
-629,751	44,765	-0,137	-0,093
-628,736	19,399	-0,166	-0,098
-627,722	50,378	0,064	-0,045
-626,707	-200,000	0,004	-0,069
-625,692	372,345	0,056	0,084
-624,678	800,000	-0,011	0,028
-623,663	-187,010	-0,044	-0,000
-622,649	800,000	-0,076	-0,163
-621,634	48,592	-0,080	-0,055
-620,619	800,000	-0,048	0,117
-619,605	-200,000	-0,002	-0,026
-618,590	40,760	-0,065	-0,044
-617,576	-122,633	-0,120	0,014
-616,561	38,171	-0,119	0,078
-615,546	-25,075	-0,108	0,047
-614,532	-76,681	-0,049	-0,013
-613,517	-160,699	0,082	-0,003
-612,503	800,000	0,047	-0,143
-611,488	-200,000	-0,005	-0,078
-610,474	-60,348	0,046	-0,014
-609,459	-179,007	-0,047	-0,001
-608,444	325,590	-0,044	-0,063
-607,430	25,687	-0,021	0,013
-606,415	77,934	-0,093	-0,073
-605,401	800,000	0,031	0,086
-604,386	-200,000	0,012	0,048
-603,371	-200,000	-0,017	0,075
-602,357	-200,000	-0,013	0,098
-601,342	139,878	0,028	-0,027
-600,328	-66,651	-0,127	-0,037
-599,313	-200,000	0,027	-0,109
-598,298	800,000	-0,010	0,025
-597,284	27,384	-0,117	0,073
-596,269	-154,320	-0,049	0,002
-595,255	-18,398	-0,089	0,041
-594,240	-200,000	0,024	-0,126
-593,225	-163,971	-0,116	-0,004
-592,211	-156,232	-0,054	-0,002
-591,196	143,199	-0,067	-0,066
-590,182	698,934	-0,054	0,104
-589,167	305,971	0,037	0,050
-588,152	800,000	0,018	0,044
-587,138	17,061	-0,085	0,050
-586,123	51,288	-0,123	-0,086
-585,109	800,000	-0,059	-0,130
-584,094	109,606	0,090	0,079
-583,079	607,651	-0,056	0,103
-582,065	-200,000	0,016	0,117
-581,050	-200,000	-0,014	0,100
-580,036	-200,000	-0,005	-0,046
-579,021	800,000	0,069	0,162
-578,006	-82,839	-0,138	-0,032
-576,992	-41,317	0,069	0,026
-575,977	256,365	-0,064	0,081
-574,963	-200,000	0,026	0,091
-573,948	68,191	0,096	0,072
-572,934	243,891	0,011	0,014
-571,919	109,546	0,086	-0,076
-570,904	-51,741	-0,134	0,046
-569,890	-48,706	-0,124	-0,044
-568,875	688,324	0,052	-0,101
-567,861	-200,000	0,006	0,041
-566,846	61,618	0,038	0,028
-565,831	685,199	0,050	-0,096
-564,817	68,970	-0,205	-0,155
-563,802	-106,099	0,148	0,024
-562,788	-93,178	-0,050	0,010
-561,773	189,154	-0,048	-0,053
-560,758	202,573	0,056	-0,064
-559,744	73,855	-0,032	0,025
-558,729	-135,120	-0,068	0,006
-557,715	668,074	-0,059	0,113
-556,700	-200,000	0,005	0,068
-555,685	800,000	-0,011	-0,024
-554,671	182,994	-0,065	0,071
-553,656	-200,000	0,009	0,051
-552,642	-200,000	-0,004	0,043
-551,627	304,042	0,078	-0,107
-550,612	-43,590	0,151	0,056
-549,598	96,032	-0,069	0,058
-548,583	86,639	-0,070	0,057
-547,569	800,000	0,028	-0,082
-546,554	800,000	0,045	0,112
-545,539	203,730	-0,061	0,070
-544,525	519,978	0,095	0,165
-543,510	186,130	-0,072	-0,078
-542,496	-200,000	0,012	-0,139
-541,481	-200,000	0,003	0,149
-540,466	549,286	-0,026	-0,046
-539,452	-200,000	-0,026	0,105
-538,437	-200,000	0,003	0,014
-537,423	-137,308	0,093	-0,008
-536,408	800,000	-0,036	-0,085
-535,393	108,973	0,031	0,027
-534,379	-200,000	0,005	-0,096
-533,364	399,596	-0,056	-0,087
-532,350	800,000	0,044	-0,125
-531,335	181,264	-0,111	0,120
-530,321	-53,426	0,086	0,029
-529,306	54,693	-0,107	0,076
-528,291	-97,723	-0,092	-0,017
-527,277	593,726	-0,047	0,086
-526,262	356,847	-0,092	0,135
-525,248	16,273	0,031	-0,018
-524,233	445,325	-0,014	0,022
-523,218	800,000	0,056	-0,140
-522,204	-30,903	-0,056	-0,023
-521,189	-200,000	-0,012	-0,127
-520,175	-200,000	0,032	-0,168
-519,160	800,000	-0,018	0,043
-518,145	-200,000	-0,012	-0,068
-517,131	-131,406	0,151	0,014
-516,116	-27,895	0,109	-0,046
-515,102	-9,784	0,053	0,026
-514,087	-200,000	-0,004	-0,163
-513,072	-104,108	-0,164	-0,028
-512,058	800,000	-0,034	-0,072
-511,043	-80,051	-0,071	0,017
-510,029	418,101	0,019	-0,031
-509,014	555,617	0,012	-0,022
-507,999	-200,000	-0,001	-0,006
-506,985	-78,262	-0,074	-0,019
-505,970	800,000	-0,052	-0,157
-504,956	-16,257	-0,071	0,033
-503,941	-96,928	0,111	-0,021
-502,926	-200,000	0,023	-0,166
-501,912	-200,000	-0,001	0,076
-500,897	409,263	-0,058	-0,091
-499,883	800,000	-0,030	-0,066
-498,868	-20,879	-0,040	-0,018
-497,853	31,694	0,027	-0,017
-496,839	-54,420	0,032	0,011
-495,824	-98,425	-0,050	0,009
-494,810	-162,374	-0,117	-0,004
-493,795	-4,988	-0,029	0,015
-492,781	375,657	-0,008	0,011
-491,766	-200,000	0,014	0,072
-490,751	4,597	0,033	-0,017
-489,737	-200,000	-0,013	-0,054
-488,722	451,646	-0,087	-0,141
-487,708	-147,547	0,131	-0,008
-486,693	-63,790	0,100	0,030
-485,678	-100,863	0,076	0,014
-484,664	-200,000	0,025	0,107
-483,649	-150,909	-0,101	0,005
-482,635	-200,000	0,028	-0,113
-481,620	-56,537	-0,056	-0,018
-480,605	45,302	0,024	-0,016
-479,591	-93,555	-0,076	0,015
-478,576	-115,233	-0,050	0,007
-477,562	-200,000	-0,016	-0,134
-476,547	19,076	0,059	0,035
-475,532	-176,136	0,018	-0,000
-474,518	28,036	0,088	-0,054
-473,503	69,803	0,040	-0,030
-472,489	-200,000	-0,023	-0,096
-471,474	-92,888	0,071	0,014
-470,459	800,000	0,014	0,037
-469,445	-200,000	-0,019	-0,107
-468,430	-200,000	-0,020	-0,150
-467,416	116,502	0,097	-0,087
-466,401	38,534	0,082	0,053
-465,386	628,989	0,030	0,055
-464,372	-200,000	0,033	0,188
-463,357	316,654	-0,060	-0,084
-462,343	158,273	0,099	-0,101
-461,328	-200,000	-0,004	-0,120
-460,313	409,275	0,061	0,096
-459,299	51,936	0,031	-0,022
-458,284	139,186	0,105	0,101
-457,270	270,475	0,036	0,047
-456,255	296,761	0,011	0,015
-455,241	17,764	-0,088	0,051
-454,226	800,000	-0,026	-0,071
-453,211	-55,113	0,104	0,034
-452,197	193,653	-0,035	0,039
-451,182	-123,677	-0,172	-0,020
-450,168	45,260	0,037	0,025
-449,153	-132,641	-0,154	-0,014
-448,138	-200,000	0,007	-0,084
-447,124	-192,545	0,048	0,000
-446,109	800,000	-0,029	-0,058
-445,095	-200,000	0,006	-0,050
-444,080	600,158	0,033	0,060
-443,065	-200,000	-0,015	0,128
-442,051	-106,063	-0,107	0,017
-441,036	-200,000	0,001	0,135
-440,022	24,279	-0,068	0,041
-439,007	-120,047	0,092	0,011
-437,992	350,741	-0,018	0,026
-436,978	157,747	0,143	0,145
-435,963	29,680	0,089	-0,055
-434,949	642,366	0,070	-0,132
-433,934	80,917	-0,084	-0,066
-432,919	-105,648	0,006	-0,001
-431,905	210,676	0,077	-0,089
-430,890	124,539	0,120	-0,111
-429,876	800,000	0,064	0,170
-428,861	-200,000	0,024	0,080
-427,846	149,668	0,113	0,112
-426,832	-200,000	0,041	0,186
-425,817	800,000	0,020	0,053
-424,803	96,311	-0,083	0,069
-423,788	-148,578	0,114	-0,007
-422,773	-63,880	0,054	-0,016
-421,759	800,000	0,022	0,069
-420,744	-200,000	-0,003	-0,074
-419,730	174,547	-0,083	-0,088
-418,715	1,407	-0,129	0,068
-417,701	282,454	-0,041	-0,055
-416,686	-155,493	-0,032	0,002
-415,671	-200,000	0,007	0,038
-414,657	-200,000	0,028	0,132
-413,642	-200,000	-0,029	0,105
-412,628	-200,000	0,006	-0,079
-411,613	-92,977	0,027	0,006
-410,598	11,368	0,093	0,052
-409,584	24,674	-0,013	-0,008
-408,569	-200,000	0,011	-0,056
-407,555	-200,000	0,013	-0,094
-406,540	664,756	0,060	-0,113
-405,525	-200,000	0,039	-0,159
-404,511	-200,000	0,003	-0,097
-403,496	343,134	-0,105	-0,151
-402,482	-200,000	0,007	0,066
-401,467	-200,000	0,016	0,150
-400,452	-200,000	0,035	0,136
-399,438	732,647	-0,036	-0,071
-398,423	800,000	0,046	-0,121
-397,409	46,552	0,065	-0,044
-396,394	-200,000	0,001	0,034
-395,379	-134,956	0,145	-0,013
-394,365	393,624	-0,052	0,080
-393,350	-200,000	-0,000	0,075
-392,336	244,631	-0,050	0,062
-391,321	800,000	0,040	0,103
-390,306	800,000	-0,031	-0,067
-389,292	-200,000	-0,004	-0,075
-388,277	800,000	-0,034	-0,077
-387,263	-200,000	0,008	-0,042
-386,248	800,000	-0,064	-0,179
-385,233	47,231	0,107	0,072
-384,219	62,556	-0,073	-0,053
-383,204	30,677	0,047	-0,029
-382,190	-200,000	-0,019	0,000
-381,175	-117,480	-0,194	-0,025
-380,160	-200,000	0,000	0,159
-379,146	800,000	0,050	0,145
-378,131	347,250	0,043	0,062
-377,117	420,182	-0,038	0,060
-376,102	-200,000	-0,016	-0,060
-375,088	-85,620	-0,088	0,020
-374,073	103,305	0,064	0,055
-373,058	203,539	0,037	0,042
-372,044	49,273	0,058	0,040
-371,029	-200,000	0,022	0,098
-370,015	62,683	0,083	0,060
-369,000	40,304	0,041	-0,027
-367,985	800,000	-0,055	-0,115
-366,971	760,341	0,051	0,102
-365,956	-63,938	0,087	-0,026
-364,942	800,000	0,035	-0,096
-363,927	78,306	0,091	0,071
-362,912	-200,000	0,011	0,084
-361,898	-13,462	0,123	-0,058
-360,883	800,000	-0,065	0,152
-359,869	-109,235	-0,007	-0,001
-358,854	295,744	0,076	-0,102
-357,839	-32,368	0,035	0,014
-356,825	501,295	0,082	0,139
-355,810	72,094	0,014	0,010
-354,796	-200,000	0,016	-0,078
-353,781	172,819	-0,029	-0,031
-352,766	-200,000	0,013	-0,102
-351,752	800,000	0,009	-0,026
-350,737	800,000	-0,029	-0,059
-349,723	-119,825	0,087	-0,011
-348,708	4,819	-0,057	-0,031
-347,693	800,000	0,065	-0,133
-346,679	-71,876	-0,179	-0,048
-345,664	4,230	0,032	0,017
-344,650	27,940	0,103	-0,063
-343,635	-67,362	0,061	-0,017
-342,620	191,597	0,099	0,109
-341,606	6,764	-0,058	-0,031
-340,591	800,000	0,064	0,134
-339,577	82,406	-0,039	0,031
-338,562	-12,469	0,076	0,036
-337,548	-200,000	0,001	-0,033
-336,533	-137,803	0,058	0,005
-335,518	800,000	-0,047	0,143
-334,504	-200,000	0,026	0,151
-333,489	17,141	-0,069	0,040
-332,475	152,218	-0,138	-0,138
-331,460	-161,461	0,099	0,004
-330,445	-200,000	-0,020	0,069
-329,431	178,229	-0,068	-0,072
-328,416	-22,004	0,132	-0,058
-327,402	-46,769	0,032	0,011
-326,387	10,838	0,073	0,040
-325,372	-113,185	0,121	-0,017
-324,358	5,612	-0,161	-0,086
-323,343	164,570	-0,096	-0,099
-322,329	-18,341	0,020	0,009
-321,314	-61,945	0,076	-0,023
-320,299	800,000	0,030	0,094
-319,285	223,775	-0,020	-0,023
-318,270	31,147	-0,070	-0,044
-317,256	-200,000	-0,014	-0,051
-316,241	-200,000	-0,021	0,092
-315,226	-113,834	0,077	0,011
-314,212	21,498	0,170	0,101
-313,197	800,000	-0,040	-0,082
-312,183	-200,000	0,034	-0,119
-311,168	67,776	-0,139	-0,103
-310,153	-63,084	-0,055	0,016
-309,139	-97,117	-0,136	-0,026
-308,124	6,087	0,135	0,073
-307,110	800,000	0,028	-0,067
-306,095	-200,000	-0,028	0,092
-305,080	262,969	0,049	0,062
-304,066	185,937	-0,121	-0,132
-303,051	75,863	-0,066	0,051
-302,037	-200,000	0,007	-0,025
-301,022	-132,719	-0,047	-0,004
-300,008	-19,746	0,166	0,074
-298,993	50,312	-0,059	0,041
-297,978	-108,824	0,049	-0,008
-296,964	38,905	0,049	0,032
-295,949	-100,783	-0,151	0,027
-294,935	347,828	0,043	0,062
-293,920	800,000	-0,022	0,060
-292,905	-200,000	0,004	0,017
-291,891	212,959	0,049	0,056
-290,876	-83,670	0,036	0,008
-289,862	-200,000	-0,018	-0,099
-288,847	309,041	-0,041	-0,056
-287,832	800,000	0,011	0,025
-286,818	-200,000	0,011	0,071
-285,803	141,379	0,107	0,103
-284,789	-200,000	-0,008	0,050
-283,774	-151,636	0,200	0,011
-282,759	-200,000	0,008	-0,063
-281,745	-172,282	-0,090	0,002
-280,730	-200,000	-0,012	-0,064
-279,716	92,016	0,097	-0,080
-278,701	800,000	-0,051	0,148
-277,686	-200,000	-0,027	0,099
-276,672	140,366	0,118	0,114
-275,657	-200,000	-0,001	-0,040
-274,643	-200,000	-0,007	-0,076
-273,628	206,480	-0,134	-0,152
-272,613	-200,000	0,089	0,000
-271,599	-119,247	0,128	-0,016
-270,584	43,703	0,081	0,054
-269,570	77,074	0,047	0,036
-268,555	-55,162	-0,039	-0,013
-267,540	-200,000	0,014	0,052
-266,526	161,629	0,065	0,066
-265,511	-200,000	-0,009	0,110
-264,497	-200,000	0,009	0,090
-263,482	434,890	0,049	0,078
-262,467	800,000	0,029	0,087
-261,453	-136,313	0,048	-0,004
-260,438	93,077	-0,127	-0,105
-259,424	-200,000	0,033	-0,158
-258,409	-52,857	-0,113	-0,038
-257,395	174,928	-0,017	0,018
-256,380	-36,814	0,138	-0,054
-255,365	-149,558	0,078	-0,004
-254,351	-95,398	0,071	0,014
-253,336	800,000	-0,050	-0,133
-252,322	800,000	0,039	-0,108
-251,307	-37,842	0,116	-0,045
-250,292	62,969	0,074	0,054
-249,278	211,952	0,028	-0,032
-248,263	-107,200	-0,094	0,015
-247,249	-200,000	-0,002	-0,016
-246,234	262,368	0,009	-0,012
-245,219	-200,000	0,003	-0,073
-244,205	-200,000	-0,051	-0,237
-243,190	307,365	-0,089	0,121
-242,176	430,457	0,053	0,083
-241,161	656,578	0,044	-0,083
-240,146	-94,802	0,097	0,019
-239,132	-51,258	0,038	-0,013
-238,117	-200,000	0,000	-0,053
-237,103	-26,942	0,051	-0,021
-236,088	800,000	-0,016	0,047
-235,073	22,937	0,135	0,080
-234,059	698,699	-0,091	0,175
-233,044	347,151	-0,031	0,045
-232,030	290,852	0,020	-0,026
-231,015	428,923	-0,016	-0,025
-230,000	-200,000	-0,009	-0,032
-228,986	-77,634	-0,134	0,033
-227,971	800,000	-0,066	0,171
-226,957	-200,000	-0,017	-0,074
-225,942	-200,000	-0,036	-0,135
-224,927	618,297	-0,073	-0,134
-223,913	73,465	-0,113	0,086
-222,898	345,484	0,064	0,091
-221,884	304,953	0,008	-0,010
-220,869	-77,804	0,152	0,038
-219,855	385,719	-0,026	0,039
-218,840	-200,000	-0,062	0,000
-217,825	149,590	-0,075	-0,074
-216,811	4,207	-0,072	-0,038
-215,796	-200,000	0,003	-0,031
-214,782	-47,655	-0,071	0,025
-213,767	-4,114	0,144	-0,072
-212,752	800,000	-0,036	0,087
-211,738	382,964	0,128	0,191
-210,723	-37,954	-0,084	-0,032
-209,709	210,921	0,092	0,105
-208,694	13,915	-0,087	0,049
-207,679	800,000	0,033	-0,106
-206,665	-109,052	0,111	0,017
-205,650	629,753	0,077	0,141
-204,636	18,330	-0,020	0,012
-203,621	531,882	-0,036	0,062
-202,606	40,231	0,021	0,013
-201,592	800,000	0,027	0,086
-200,577	9,628	0,138	0,076
-199,563	-200,000	0,010	-0,076
-198,548	800,000	0,021	0,058
-197,533	112,541	0,070	-0,062
-196,519	-200,000	-0,009	0,034
-195,504	5,369	0,064	-0,034
-194,490	-200,000	-0,008	-0,045
-193,475	311,439	0,033	0,046
-192,460	-200,000	0,018	-0,145
-191,446	-200,000	-0,016	0,066
-190,431	-200,000	0,004	0,075
-189,417	539,836	0,042	0,073
-188,402	359,410	-0,073	-0,107
-187,387	276,866	-0,073	-0,094
-186,373	108,165	0,084	-0,073
-185,358	264,904	-0,027	-0,035
-184,344	-200,000	-0,043	0,000
-183,329	40,394	0,030	-0,019
-182,315	29,961	-0,052	-0,032
-181,300	145,264	0,084	0,082
-180,285	-93,930	-0,190	-0,038
-179,271	105,697	0,039	-0,033
-178,256	536,876	-0,027	0,047
-177,242	-200,000	0,004	0,086
-176,227	477,293	-0,048	0,078
-175,212	25,359	0,059	0,035
-174,198	800,000	0,033	-0,074
-173,183	90,321	-0,113	-0,092
-172,169	-200,000	-0,056	0,000
-171,154	87,992	-0,088	-0,071
-170,139	-118,022	0,001	0,000
-169,125	800,000	-0,042	0,110
-168,110	-138,025	0,157	0,013
-167,096	132,210	-0,078	-0,073
-166,081	-200,000	-0,003	0,134
-165,066	-4,195	-0,113	-0,057
-164,052	212,459	-0,140	-0,160
-163,037	75,137	0,034	0,026
-162,023	82,884	0,038	0,030
-161,008	53,385	-0,026	0,018
-159,993	443,759	0,079	0,126
-158,979	-200,000	0,023	0,085
-157,964	800,000	-0,006	0,015
-156,950	-200,000	-0,001	-0,021
-155,935	-103,536	0,029	-0,005
-154,920	521,419	-0,094	-0,160
-153,906	294,158	0,047	0,063
-152,891	376,372	-0,053	0,078
-151,877	458,595	-0,049	-0,079
-150,862	800,000	0,012	-0,033
-149,847	-200,000	-0,015	-0,090
-148,833	43,460	0,088	0,058
-147,818	-200,000	0,029	-0,164
-146,804	800,000	-0,073	0,188
-145,789	-200,000	-0,000	-0,067
-144,775	-200,000	-0,009	0,031
-143,760	800,000	-0,036	-0,114
-142,745	-200,000	0,005	0,029
-141,731	-129,710	0,030	-0,003
-140,716	-4,419	-0,028	-0,014
-139,702	353,160	0,026	-0,037
-138,687	-200,000	-0,007	-0,122
-137,672	-3,043	0,051	-0,026
-136,658	-200,000	-0,016	-0,127
-135,643	-111,829	-0,172	0,025
-134,629	167,311	-0,056	0,058
-133,614	667,632	0,082	-0,154
-132,599	247,037	-0,073	-0,089
-131,585	325,846	0,064	0,089
-130,570	532,617	-0,031	0,053
-129,556	800,000	-0,023	0,061
-128,541	-115,073	-0,033	-0,005
-127,526	113,283	-0,116	-0,102
-126,512	-39,677	-0,099	-0,037
-125,497	9,642	0,091	0,050
-124,483	-200,000	-0,016	0,068
-123,468	-200,000	0,033	0,205
-122,453	-200,000	0,007	-0,033
-121,439	298,163	0,043	-0,057
-120,424	-37,413	0,024	0,009
-119,410	-200,000	-0,007	-0,065
