DTS Sentinel unit serial number:	SN410029Multiplexer serial number:	ORYXHardware model number:	OX2-SRSoftware version number:	ORYX F/W v4,00 Oryx Data Collector v3.7.2.0data status	okinstallation	B6 Nyhavnadifferential loss correction	single-endedforward channel	channel 2reverse channel	N/Adate	2023/12/08time	08:25:08forward acquisition time	300,00reverse acquisition time	0,00gamma	499,1914k internal	0,3174k external	0,3174temperature offset calibration	1,0000default loss term (dB/km)	0,3820temperature slope calibration	1,0000multiplexer offset coefficient	1,0000multiplexer slope coefficient	1,0000fibre end	0,00T internal ref (°C)	11,44T ext. ref 1 (°C)	-2,41T ext. ref 2 (°C)	-2,36length (m)	temperature (°C)	Stokes	anti-Stokes-744,400	302,652	0,044	0,059
-743,385	-30,232	-0,304	-0,126
-742,371	434,786	0,050	0,080
-741,356	-25,540	-0,269	-0,116
-740,342	800,000	0,101	0,210
-739,327	-169,362	-0,450	-0,012
-738,312	71,603	0,168	0,128
-737,298	-91,711	-0,372	-0,077
-736,283	39,758	0,218	0,143
-735,269	-124,165	-0,342	-0,039
-734,254	31,904	0,141	0,089
-733,239	-36,095	-0,520	-0,205
-732,225	-52,090	0,243	0,082
-731,210	800,000	0,021	-0,052
-730,196	-200,000	-0,013	0,076
-729,181	43,737	-0,054	-0,036
-728,167	-200,000	0,017	0,139
-727,152	128,809	-0,074	-0,069
-726,137	-200,000	0,030	0,000
-725,123	80,719	0,036	-0,029
-724,108	0,654	-0,106	-0,056
-723,094	-48,951	-0,149	0,052
-722,079	800,000	0,030	0,081
-721,064	-120,794	-0,183	0,022
-720,050	561,781	-0,031	-0,055
-719,035	315,023	0,044	-0,061
-718,021	-200,000	-0,006	0,076
-717,006	57,173	0,116	-0,083
-715,991	96,520	-0,193	-0,162
-714,977	9,457	0,083	-0,046
-713,962	800,000	-0,007	-0,023
-712,948	-59,232	-0,093	-0,029
-711,933	-200,000	0,002	0,044
-710,918	-118,882	-0,153	-0,019
-709,904	-14,839	-0,048	-0,023
-708,889	8,300	-0,131	-0,072
-707,875	-200,000	-0,013	-0,170
-706,860	-167,614	0,079	-0,002
-705,845	510,029	-0,011	0,019
-704,831	-49,486	0,146	0,051
-703,816	-176,268	-0,126	-0,002
-702,802	800,000	-0,051	-0,143
-701,787	-37,850	0,055	-0,021
-700,772	-200,000	-0,006	0,019
-699,758	56,771	-0,088	-0,062
-698,743	-146,843	-0,026	-0,002
-697,729	507,386	-0,015	-0,026
-696,714	-40,989	0,124	-0,047
-695,699	694,903	-0,037	-0,071
-694,685	126,495	-0,088	0,082
-693,670	-96,783	0,128	0,024
-692,656	-200,000	0,019	0,117
-691,641	176,499	0,073	0,078
-690,627	-200,000	0,014	-0,102
-689,612	-123,799	-0,084	-0,010
-688,597	800,000	-0,070	-0,181
-687,583	800,000	-0,044	0,118
-686,568	-200,000	0,028	-0,095
-685,554	249,643	-0,046	-0,057
-684,539	-200,000	-0,002	0,102
-683,524	219,595	0,054	0,063
-682,510	38,350	0,081	0,053
-681,495	-90,926	-0,101	-0,021
-680,481	149,374	-0,057	-0,056
-679,466	-5,014	-0,071	-0,036
-678,451	-104,190	0,031	0,005
-677,437	-200,000	-0,007	-0,038
-676,422	-44,879	-0,065	0,023
-675,408	-200,000	-0,016	0,058
-674,393	-5,631	0,129	0,064
-673,378	800,000	0,040	-0,120
-672,364	800,000	-0,042	-0,086
-671,349	75,695	-0,035	-0,027
-670,335	154,777	-0,029	0,029
-669,320	797,535	-0,020	0,040
-668,305	237,874	0,066	-0,081
-667,291	-110,423	-0,100	0,015
-666,276	-200,000	0,006	-0,037
-665,262	-200,000	-0,055	-0,212
-664,247	-98,603	0,143	-0,026
-663,232	800,000	0,079	0,162
-662,218	-200,000	-0,002	-0,142
-661,203	68,808	-0,077	0,058
-660,189	-58,162	0,032	-0,010
-659,174	290,965	-0,050	0,067
-658,159	127,506	-0,098	-0,091
-657,145	-35,555	-0,066	-0,026
-656,130	-200,000	-0,023	0,088
-655,116	-80,933	-0,084	0,020
-654,101	-122,595	0,085	-0,010
-653,086	-200,000	-0,023	0,083
-652,072	369,142	-0,028	-0,042
-651,057	-30,178	0,138	0,057
-650,043	-92,209	-0,155	-0,032
-649,028	98,335	0,173	-0,146
-648,014	-200,000	0,002	0,077
-646,999	-0,746	-0,188	0,097
-645,984	-91,247	0,052	0,011
-644,970	800,000	0,020	-0,056
-643,955	236,705	-0,128	-0,155
-642,941	757,375	-0,041	-0,081
-641,926	234,450	-0,073	0,088
-640,911	-5,014	0,091	0,046
-639,897	498,084	-0,083	-0,139
-638,882	-94,979	0,062	0,012
-637,868	-103,729	-0,117	0,020
-636,853	-117,788	-0,137	0,018
-635,838	358,446	-0,075	0,110
-634,824	104,595	0,120	0,103
-633,809	-200,000	0,026	0,141
-632,795	486,252	-0,048	0,080
-631,780	25,912	-0,066	-0,040
-630,765	-47,312	0,021	-0,008
-629,751	92,563	0,033	-0,027
-628,736	252,726	-0,009	0,012
-627,722	-200,000	0,027	0,094
-626,707	-19,488	-0,042	0,019
-625,692	800,000	0,042	0,104
-624,678	-130,330	0,053	0,005
-623,663	-151,803	-0,146	0,008
-622,649	288,541	-0,026	-0,035
-621,634	-200,000	0,020	-0,189
-620,619	-123,588	0,140	-0,016
-619,605	-200,000	0,004	0,055
-618,590	-103,158	-0,070	-0,012
-617,576	-62,505	-0,066	0,020
-616,561	-143,807	-0,082	-0,006
-615,546	-85,290	-0,083	-0,019
-614,532	27,056	-0,038	-0,023
-613,517	-65,127	-0,096	-0,028
-612,503	299,622	-0,076	0,102
-611,488	-92,159	-0,109	0,022
-610,474	-200,000	-0,012	0,048
-609,459	29,214	-0,057	-0,035
-608,444	-125,898	-0,076	-0,008
-607,430	255,460	-0,092	-0,115
-606,415	-3,143	0,070	-0,035
-605,401	800,000	-0,056	-0,164
-604,386	263,526	0,080	0,102
-603,371	-51,005	0,109	0,037
-602,357	-55,903	-0,167	0,054
-601,342	-200,000	0,016	-0,060
-600,328	-133,449	-0,132	0,012
-599,313	-37,193	-0,103	0,040
-598,298	227,220	0,114	-0,136
-597,284	211,855	-0,009	0,010
-596,269	61,433	0,074	0,054
-595,255	111,734	0,113	0,100
-594,240	-104,224	-0,067	-0,011
-593,225	-103,712	-0,073	-0,012
-592,211	44,063	-0,038	-0,025
-591,196	384,174	-0,030	0,045
-590,182	208,896	0,020	-0,023
-589,167	-10,730	0,183	0,088
-588,152	800,000	0,084	-0,199
-587,138	98,641	-0,091	-0,077
-586,123	-200,000	0,028	-0,160
-585,109	4,778	-0,099	-0,053
-584,094	399,537	0,014	-0,022
-583,079	257,023	0,021	-0,027
-582,065	156,613	0,073	0,073
-581,050	-200,000	-0,009	-0,081
-580,036	-102,909	0,132	0,023
-579,021	-200,000	0,024	-0,079
-578,006	304,876	0,080	-0,109
-576,992	800,000	0,053	-0,126
-575,977	224,771	-0,080	0,094
-574,963	161,048	0,082	0,084
-573,948	-107,894	-0,135	0,021
-572,934	-149,339	0,104	-0,006
-571,919	-59,680	0,042	-0,013
-570,904	-123,797	-0,146	-0,017
-569,890	-131,845	-0,085	0,008
-568,875	-200,000	0,004	-0,115
-567,861	-65,059	-0,046	0,014
-566,846	800,000	0,078	0,184
-565,831	800,000	0,013	0,034
-564,817	-200,000	0,016	-0,123
-563,802	97,200	-0,088	0,074
-562,788	328,153	-0,033	-0,047
-561,773	-110,115	0,109	-0,016
-560,758	-200,000	-0,007	0,071
-559,744	28,981	-0,116	0,072
-558,729	82,110	-0,040	0,032
-557,715	-200,000	-0,008	0,036
-556,700	111,448	-0,128	0,112
-555,685	92,523	-0,114	-0,094
-554,671	240,621	0,029	-0,035
-553,656	125,995	-0,089	0,082
-552,642	77,486	-0,027	0,021
-551,627	-56,447	-0,024	0,008
-550,612	-66,553	0,082	0,024
-549,598	-14,305	-0,099	-0,046
-548,583	307,469	0,045	-0,061
-547,569	-111,859	-0,067	-0,010
-546,554	-50,197	-0,050	0,017
-545,539	428,868	0,051	0,080
-544,525	110,824	-0,086	0,075
-543,510	-200,000	-0,005	-0,095
-542,496	-200,000	0,007	-0,025
-541,481	10,359	-0,153	-0,085
-540,466	-200,000	-0,006	-0,125
-539,452	800,000	-0,027	-0,067
-538,437	-200,000	0,008	-0,113
-537,423	-130,858	0,137	-0,013
-536,408	-200,000	0,015	-0,144
-535,393	-200,000	-0,022	-0,092
-534,379	479,592	0,079	0,131
-533,364	-14,210	0,034	0,016
-532,350	-19,623	0,104	0,047
-531,335	-200,000	0,013	0,093
-530,321	800,000	-0,056	0,117
-529,306	42,567	0,051	-0,034
-528,291	37,984	-0,079	-0,051
-527,277	43,193	-0,134	-0,089
-526,262	126,436	0,016	0,014
-525,248	-116,261	-0,054	-0,007
-524,233	-181,140	-0,114	-0,002
-523,218	-19,819	-0,160	-0,072
-522,204	228,886	0,048	0,057
-521,189	-33,390	-0,088	-0,035
-520,175	-148,218	-0,121	-0,007
-519,160	-19,845	0,068	-0,030
-518,145	-69,242	-0,094	0,026
-517,131	-54,352	-0,082	-0,027
-516,116	-169,401	0,145	0,004
-515,102	-172,908	-0,119	0,003
-514,087	-200,000	-0,001	0,073
-513,072	-32,679	0,055	0,022
-512,058	800,000	0,062	0,133
-511,043	-103,149	0,051	0,009
-510,029	337,423	-0,028	-0,040
-509,014	88,917	-0,051	-0,041
-507,999	234,337	0,104	0,125
-506,985	176,130	-0,142	-0,150
-505,970	-12,686	0,115	0,054
-504,956	179,106	0,067	-0,071
-503,941	388,601	0,027	0,041
-502,926	-200,000	0,008	0,175
-501,912	56,866	-0,063	0,044
-500,897	114,762	0,050	-0,044
-499,883	7,387	0,042	-0,023
-498,868	58,821	0,055	-0,039
-497,853	-3,666	0,074	-0,037
-496,839	-200,000	0,024	-0,131
-495,824	800,000	-0,019	0,053
-494,810	279,011	0,034	-0,044
-493,795	622,561	0,054	-0,099
-492,781	51,496	-0,087	0,060
-491,766	-200,000	0,019	-0,080
-490,751	-200,000	0,009	-0,053
-489,737	76,324	0,057	-0,044
-488,722	27,683	0,020	0,012
-487,708	-170,504	-0,083	-0,002
-486,693	88,880	0,043	0,035
-485,678	-117,123	0,110	-0,014
-484,664	55,206	0,079	0,055
-483,649	184,674	-0,069	-0,074
-482,635	30,053	-0,120	-0,074
-481,620	800,000	-0,026	0,057
-480,605	800,000	0,042	0,100
-479,591	-200,000	0,019	0,100
-478,576	-81,540	-0,098	-0,023
-477,562	1,371	-0,077	0,040
-476,547	262,726	-0,050	0,063
-475,532	243,891	0,063	0,077
-474,518	800,000	0,016	0,049
-473,503	-200,000	0,004	-0,092
-472,489	135,743	-0,093	-0,088
-471,474	382,241	-0,023	-0,034
-470,459	299,879	0,029	-0,039
-469,445	26,319	-0,052	-0,032
-468,430	-200,000	-0,007	0,071
-467,416	76,089	0,046	-0,035
-466,401	305,647	0,062	0,083
-465,386	38,216	-0,120	0,077
-464,372	800,000	-0,061	0,123
-463,357	689,647	0,051	-0,098
-462,343	-112,124	-0,011	0,002
-461,328	800,000	0,058	0,135
-460,313	291,598	-0,066	0,088
-459,299	800,000	-0,033	0,068
-458,284	32,011	0,090	0,056
-457,270	-181,318	0,069	-0,001
-456,255	407,178	-0,061	-0,093
-455,241	3,323	0,080	-0,042
-454,226	359,349	-0,052	0,076
-453,211	218,162	0,072	0,083
-452,197	-200,000	0,019	-0,110
-451,182	-200,000	-0,013	0,099
-450,168	-200,000	0,039	0,190
-449,153	540,070	0,055	0,095
-448,138	42,238	-0,033	-0,022
-447,124	363,517	0,039	-0,057
-446,109	-200,000	-0,026	0,159
-445,095	77,831	0,071	-0,055
-444,080	144,137	0,082	-0,079
-443,065	125,134	-0,095	0,087
-442,051	-114,792	0,118	-0,016
-441,036	-67,663	0,039	-0,011
-440,022	800,000	-0,094	-0,224
-439,007	353,896	0,050	0,073
-437,992	-64,462	0,115	-0,034
-436,978	-200,000	-0,052	-0,169
-435,963	793,960	0,030	-0,059
-434,949	-9,923	-0,111	-0,054
-433,934	34,359	0,037	-0,023
-432,919	21,854	0,062	0,037
-431,905	-200,000	-0,018	-0,063
-430,890	-115,179	0,119	0,016
-429,876	-97,853	0,083	0,015
-428,861	16,283	-0,044	0,025
-427,846	-190,404	-0,095	-0,001
-426,832	-200,000	-0,001	0,040
-425,817	-200,000	-0,048	-0,271
-424,803	276,253	0,063	-0,082
-423,788	13,698	0,090	0,051
-422,773	-200,000	0,009	0,129
-421,759	-120,993	-0,076	-0,009
-420,744	-42,987	-0,067	-0,025
-419,730	-200,000	-0,013	-0,128
-418,715	4,188	-0,112	0,059
-417,701	800,000	0,059	-0,163
-416,686	127,293	0,086	0,079
-415,671	-200,000	-0,029	0,176
-414,657	75,309	0,067	0,051
-413,642	106,482	0,072	0,062
-412,628	800,000	0,037	-0,094
-411,613	-200,000	0,014	-0,058
-410,598	156,679	0,056	-0,056
-409,584	117,174	-0,233	-0,208
-408,569	14,862	0,122	0,069
-407,555	-114,929	0,089	-0,012
-406,540	-200,000	0,008	0,032
-405,525	77,065	0,104	-0,080
-404,511	-200,000	-0,008	-0,130
-403,496	-200,000	-0,016	0,068
-402,482	-75,215	0,131	-0,034
-401,467	15,130	0,021	-0,012
-400,452	-200,000	-0,032	0,129
-399,438	-73,480	0,059	-0,015
-398,423	-200,000	-0,029	0,123
-397,409	-200,000	0,023	-0,078
-396,394	84,768	0,059	0,047
-395,379	-45,811	0,051	0,018
-394,365	800,000	0,027	0,066
-393,350	-200,000	0,002	-0,016
-392,336	-108,315	-0,087	0,013
-391,321	-200,000	-0,018	-0,093
-390,306	800,000	-0,052	-0,152
-389,292	-200,000	-0,008	-0,042
-388,277	87,139	0,044	0,035
-387,263	-91,313	0,023	-0,005
-386,248	103,497	-0,102	-0,087
-385,233	-179,179	0,132	0,002
-384,219	-200,000	0,014	-0,095
-383,204	800,000	0,053	-0,124
-382,190	800,000	-0,070	-0,182
-381,175	-200,000	0,013	-0,124
-380,160	-200,000	0,031	-0,122
-379,146	429,048	0,052	0,081
-378,131	8,593	-0,075	-0,041
-377,117	-200,000	-0,001	0,086
-376,102	-200,000	-0,001	0,035
-375,088	-200,000	0,022	-0,150
-374,073	329,483	-0,117	-0,164
-373,058	-156,176	0,054	0,002
-372,044	-2,845	0,116	0,058
-371,029	-21,972	-0,051	0,022
-370,015	86,928	-0,045	-0,036
-369,000	-126,027	-0,056	-0,006
-367,985	-200,000	-0,009	-0,119
-366,971	-27,725	0,084	-0,035
-365,956	535,605	-0,029	-0,050
-364,942	-200,000	-0,012	0,045
-363,927	-100,675	-0,234	-0,041
-362,912	96,623	-0,033	-0,027
-361,898	545,035	0,026	-0,045
-360,883	279,005	-0,085	-0,110
-359,869	800,000	0,012	0,033
-358,854	65,977	0,131	0,096
-357,839	-81,103	0,041	-0,010
-356,825	-200,000	0,001	0,048
-355,810	270,888	0,073	0,093
-354,796	-200,000	0,039	-0,151
-353,781	94,493	-0,025	-0,021
-352,766	-200,000	0,017	0,100
-351,752	7,852	0,070	0,038
-350,737	638,571	0,041	0,075
-349,723	26,984	0,009	0,005
-348,708	-186,941	-0,097	-0,001
-347,693	-159,766	0,114	0,004
-346,679	-63,840	-0,073	-0,021
-345,664	-80,423	-0,029	-0,007
-344,650	203,738	-0,065	-0,073
-343,635	42,433	-0,062	-0,041
-342,620	-60,847	0,081	-0,025
-341,606	-200,000	0,005	-0,052
-340,591	-200,000	0,031	0,100
-339,577	19,154	0,030	0,017
-338,562	-200,000	-0,001	0,099
-337,548	114,756	-0,046	0,041
-336,533	-200,000	-0,024	0,084
-335,518	-200,000	-0,008	0,107
-334,504	800,000	0,035	0,071
-333,489	800,000	-0,019	0,052
-332,475	-113,559	0,076	-0,011
-331,460	-139,303	0,085	-0,006
-330,445	140,801	-0,079	0,075
-329,431	78,966	-0,122	0,094
-328,416	83,838	-0,018	0,014
-327,402	-49,876	-0,021	-0,007
-326,387	-69,275	0,030	0,008
-325,372	-200,000	-0,040	-0,135
-324,358	-85,465	-0,073	-0,016
-323,343	-92,587	-0,066	-0,013
-322,329	-5,889	0,128	-0,063
-321,314	277,925	-0,070	0,090
-320,299	-200,000	-0,001	0,089
-319,285	122,439	0,040	0,036
-318,270	-125,044	0,018	-0,002
-317,256	-200,000	-0,012	0,046
-316,241	-200,000	-0,027	0,094
-315,226	41,737	0,046	-0,030
-314,212	0,449	0,127	0,065
-313,197	-55,354	0,142	0,046
-312,183	-99,352	0,028	0,005
-311,168	-200,000	0,008	0,029
-310,153	-169,527	0,156	0,004
-309,139	-35,687	-0,051	0,020
-308,124	68,472	-0,041	0,030
-307,110	314,636	0,085	0,115
-306,095	338,312	-0,056	0,079
-305,080	-45,027	0,065	0,023
-304,066	551,203	-0,070	-0,121
-303,051	-200,000	0,026	-0,210
-302,037	-12,861	0,078	-0,037
-301,022	57,766	0,071	0,050
-300,008	-163,771	0,131	0,004
-298,993	615,205	-0,077	-0,140
-297,978	130,669	0,087	0,081
-296,964	672,062	0,055	0,104
-295,949	179,713	0,091	0,096
-294,935	-113,826	-0,019	0,003
-293,920	-75,236	-0,041	0,010
-292,905	425,233	0,035	0,054
-291,891	-200,000	-0,017	-0,083
-290,876	-200,000	-0,012	0,063
-289,862	108,375	-0,080	0,069
-288,847	800,000	-0,035	0,078
-287,832	151,191	-0,046	-0,045
-286,818	-200,000	-0,013	-0,052
-285,803	-200,000	0,011	0,043
-284,789	73,264	0,043	0,032
-283,774	-185,438	0,163	0,002
-282,759	-61,205	-0,073	-0,022
-281,745	800,000	-0,009	0,027
-280,730	161,666	-0,078	0,079
-279,716	-170,042	-0,055	-0,001
-278,701	666,927	0,042	0,079
-277,686	-200,000	0,003	-0,130
-276,672	288,990	0,067	0,087
-275,657	800,000	-0,016	-0,049
-274,643	-76,147	-0,113	0,029
-273,628	36,782	-0,072	0,046
-272,613	-66,658	0,037	-0,011
-271,599	-179,580	-0,055	-0,001
-270,584	164,739	0,068	0,069
-269,570	472,572	-0,025	0,041
-268,555	-3,647	-0,103	0,052
-267,540	-160,387	0,060	0,002
-266,526	-11,342	-0,019	-0,009
-265,511	-200,000	0,020	0,143
-264,497	-147,131	-0,039	-0,002
-263,482	-200,000	0,031	0,123
-262,467	513,364	0,031	0,052
-261,453	-13,736	-0,032	-0,015
-260,438	-104,555	0,058	-0,010
-259,424	-48,297	-0,075	-0,026
-258,409	176,344	-0,050	0,052
-257,395	-62,857	0,089	-0,026
-256,380	-104,018	-0,026	-0,004
-255,365	-200,000	0,003	-0,024
-254,351	119,678	0,093	0,083
-253,336	767,144	-0,017	0,033
-252,322	-114,200	0,040	0,006
-251,307	231,706	0,024	0,029
-250,292	275,544	-0,058	-0,074
-249,278	800,000	-0,030	0,094
-248,263	-20,209	0,062	-0,028
-247,249	-15,067	0,091	0,042
-246,234	4,293	0,088	-0,046
-245,219	86,290	-0,145	-0,115
-244,205	157,064	-0,033	0,033
-243,190	-70,651	0,182	-0,049
-242,176	-200,000	-0,003	0,083
-241,161	-76,775	0,175	0,044
-240,146	-87,732	-0,055	-0,012
-239,132	65,125	-0,028	-0,021
-238,117	-113,627	-0,149	0,021
-237,103	-146,832	-0,150	-0,009
-236,088	13,551	0,053	-0,029
-235,073	19,378	0,088	0,051
-234,059	800,000	-0,030	0,072
-233,044	147,295	0,072	0,070
-232,030	800,000	0,016	-0,046
-231,015	253,641	0,033	-0,040
-230,000	334,715	-0,047	-0,065
-228,986	94,133	0,057	-0,047
-227,971	31,220	0,048	0,029
-226,957	257,891	-0,082	0,101
-225,942	-200,000	-0,020	-0,119
-224,927	-200,000	0,002	0,017
-223,913	-49,954	0,169	0,057
-222,898	-81,040	-0,067	0,016
-221,884	800,000	-0,009	-0,027
-220,869	569,358	-0,028	0,049
-219,855	42,795	0,035	0,023
-218,840	-200,000	-0,030	0,134
-217,825	800,000	0,042	-0,089
-216,811	597,901	0,028	-0,050
-215,796	180,908	-0,054	-0,057
-214,782	119,219	-0,055	0,049
-213,767	242,439	-0,078	0,094
-212,752	191,560	-0,127	0,138
-211,738	726,450	0,098	0,189
-210,723	-172,529	0,094	0,002
-209,709	534,784	-0,037	-0,063
-208,694	289,179	-0,041	-0,054
-207,679	-109,518	0,173	-0,026
-206,665	-127,350	0,101	0,010
-205,650	-200,000	0,005	0,047
-204,636	800,000	0,064	0,160
-203,621	18,164	0,079	0,045
-202,606	217,291	-0,069	0,079
-201,592	-200,000	0,015	-0,154
-200,577	-200,000	-0,002	-0,020
-199,563	800,000	-0,057	-0,166
-198,548	340,263	-0,043	0,060
-197,533	567,142	-0,028	-0,049
-196,519	496,465	0,042	-0,070
-195,504	-4,264	0,016	0,008
-194,490	711,673	-0,037	-0,070
-193,475	4,898	0,052	0,028
-192,460	-200,000	0,010	0,100
-191,446	800,000	0,030	0,069
-190,431	443,952	-0,028	0,044
-189,417	800,000	-0,008	0,020
-188,402	518,213	0,022	-0,036
-187,387	800,000	0,058	-0,142
-186,373	-200,000	0,003	-0,088
-185,358	-200,000	-0,018	-0,082
-184,344	-200,000	0,037	0,127
-183,329	-200,000	0,010	0,044
-182,315	-28,749	-0,135	0,056
-181,300	274,276	-0,020	-0,026
-180,285	-126,222	-0,145	-0,015
-179,271	139,185	-0,061	0,057
-178,256	43,221	-0,046	-0,030
-177,242	137,106	0,073	-0,068
-176,227	82,679	0,143	0,111
-175,212	-200,000	0,002	0,119
-174,198	-112,594	-0,042	0,006
-173,183	102,661	-0,078	-0,066
-172,169	-11,993	-0,041	0,019
-171,154	3,832	-0,043	0,022
-170,139	-117,820	0,114	-0,015
-169,125	378,543	0,040	-0,059
-168,110	-200,000	0,011	-0,077
-167,096	-74,390	0,073	0,019
-166,081	-114,014	-0,093	-0,013
-165,066	-200,000	0,012	-0,144
-164,052	314,565	-0,040	-0,055
-163,037	336,001	-0,106	-0,148
-162,023	800,000	0,018	0,043
-161,008	800,000	0,040	-0,092
-159,993	19,593	0,042	0,024
-158,979	112,846	-0,040	0,035
-157,964	-200,000	0,011	0,053
-156,950	-5,176	0,084	0,041
-155,935	20,845	0,082	0,048
-154,920	293,623	0,028	0,037
-153,906	800,000	0,055	-0,163
-152,891	648,980	-0,051	-0,094
-151,877	93,013	-0,087	-0,071
-150,862	800,000	0,040	-0,127
-149,847	38,834	0,131	-0,084
-148,833	-200,000	-0,024	-0,129
-147,818	-200,000	0,016	0,136
-146,804	-200,000	0,021	0,090
-145,789	188,621	0,046	-0,050
-144,775	92,972	-0,073	0,059
-143,760	-46,369	-0,073	0,026
-142,745	291,747	-0,086	-0,113
-141,731	-12,139	0,059	0,028
-140,716	575,318	-0,106	-0,186
-139,702	-200,000	-0,004	0,088
-138,687	157,503	0,065	-0,065
-137,672	-200,000	-0,031	-0,100
-136,658	-50,539	-0,117	-0,039
-135,643	800,000	0,054	-0,124
-134,629	-200,000	-0,015	-0,057
-133,614	-133,906	0,069	0,006
-132,599	-200,000	-0,005	0,056
-131,585	800,000	-0,004	0,013
-130,570	-200,000	0,020	0,098
-129,556	800,000	0,041	0,083
-128,541	49,927	-0,065	-0,044
-127,526	93,115	0,021	-0,017
-126,512	76,199	-0,048	-0,037
-125,497	-14,077	0,168	0,078
-124,483	66,825	-0,040	-0,029
-123,468	62,847	0,087	-0,062
-122,453	-85,382	-0,067	0,015
-121,439	-39,554	-0,049	-0,018
-120,424	-20,021	-0,151	-0,067
-119,410	-37,691	0,075	-0,028
-118,395	-133,476	0,060	0,005
