DTS Sentinel unit serial number:	SN410029Multiplexer serial number:	ORYXHardware model number:	OX2-SRSoftware version number:	ORYX F/W v4,00 Oryx Data Collector v3.7.2.0data status	okinstallation	B6 Nyhavnadifferential loss correction	single-endedforward channel	channel 2reverse channel	N/Adate	2023/12/10time	20:50:08forward acquisition time	300,00reverse acquisition time	0,00gamma	499,1914k internal	0,3122k external	0,3122temperature offset calibration	1,0000default loss term (dB/km)	0,3820temperature slope calibration	1,0000multiplexer offset coefficient	1,0000multiplexer slope coefficient	1,0000fibre end	0,00T internal ref (°C)	22,25T ext. ref 1 (°C)	5,85T ext. ref 2 (°C)	5,87length (m)	temperature (°C)	Stokes	anti-Stokes-744,400	423,494	-0,014	-0,023
-743,385	-174,505	-0,248	0,005
-742,371	-168,450	0,112	-0,003
-741,356	77,017	-0,163	0,129
-740,342	-200,000	-0,006	-0,156
-739,327	-18,648	-0,299	0,138
-738,312	-200,000	-0,009	-0,070
-737,298	52,219	-0,183	0,130
-736,283	536,421	0,101	-0,180
-735,269	-62,457	-0,264	-0,081
-734,254	-21,724	-0,083	0,037
-733,239	-73,945	-0,528	-0,142
-732,225	-122,292	0,122	0,015
-731,210	-126,882	0,126	-0,014
-730,196	6,328	-0,065	0,036
-729,181	0,654	-0,078	0,041
-728,167	800,000	-0,073	0,213
-727,152	800,000	0,034	-0,075
-726,137	225,232	-0,077	-0,094
-725,123	-13,480	0,058	-0,028
-724,108	168,118	-0,096	-0,101
-723,094	467,166	-0,108	-0,181
-722,079	-200,000	0,002	-0,086
-721,064	87,556	-0,133	-0,109
-720,050	800,000	-0,024	-0,078
-719,035	675,641	-0,043	-0,083
-718,021	-15,787	-0,196	-0,093
-717,006	597,142	0,044	0,081
-715,991	-54,275	-0,079	0,026
-714,977	-179,770	-0,048	0,001
-713,962	315,784	-0,036	0,050
-712,948	444,181	0,052	-0,086
-711,933	-69,267	-0,130	0,037
-710,918	-39,052	0,052	-0,020
-709,904	90,300	-0,124	-0,103
-708,889	-200,000	0,020	-0,141
-707,875	-27,787	-0,063	-0,027
-706,860	120,006	-0,048	0,044
-705,845	-97,770	0,068	-0,013
-704,831	-37,537	-0,063	0,025
-703,816	68,701	0,040	-0,030
-702,802	-106,687	-0,188	0,031
-701,787	-29,148	-0,125	-0,053
-700,772	223,748	0,064	-0,076
-699,758	-180,008	-0,070	0,001
-698,743	-72,357	0,145	-0,040
-697,729	800,000	-0,010	0,021
-696,714	70,856	0,103	-0,079
-695,699	798,280	-0,041	0,084
-694,685	-200,000	-0,006	-0,044
-693,670	800,000	-0,062	-0,138
-692,656	172,314	0,019	-0,021
-691,641	26,236	-0,037	-0,023
-690,627	45,932	-0,147	-0,101
-689,612	-133,851	0,092	0,008
-688,597	-133,643	-0,125	0,011
-687,583	-100,168	0,032	-0,006
-686,568	-170,926	-0,117	-0,003
-685,554	-109,206	-0,093	-0,015
-684,539	-110,628	-0,027	0,004
-683,524	-2,345	-0,112	-0,058
-682,510	-200,000	0,012	0,120
-681,495	372,199	-0,077	0,116
-680,481	-200,000	-0,014	0,099
-679,466	-200,000	0,016	-0,080
-678,451	568,544	-0,058	0,105
-677,437	152,080	-0,088	-0,089
-676,422	800,000	-0,054	0,126
-675,408	203,324	-0,066	-0,076
-674,393	348,635	-0,036	0,053
-673,378	25,659	0,016	-0,010
-672,364	-200,000	-0,006	0,111
-671,349	112,884	-0,163	-0,147
-670,335	77,790	0,051	-0,041
-669,320	-200,000	-0,006	-0,029
-668,305	-200,000	0,007	0,137
-667,291	-200,000	-0,007	0,139
-666,276	-60,844	-0,165	-0,051
-665,262	800,000	-0,029	0,062
-664,247	800,000	0,012	-0,034
-663,232	-15,642	0,194	0,091
-662,218	-200,000	-0,006	-0,078
-661,203	-94,092	-0,093	-0,019
-660,189	322,836	0,037	0,052
-659,174	-69,811	-0,020	-0,006
-658,159	-13,197	-0,143	-0,069
-657,145	-200,000	0,006	-0,119
-656,130	-143,636	0,068	0,005
-655,116	-96,638	0,023	0,005
-654,101	19,552	0,043	-0,026
-653,086	-200,000	-0,004	-0,050
-652,072	-33,293	0,108	0,044
-651,057	244,667	-0,062	0,077
-650,043	800,000	-0,022	-0,052
-649,028	-116,539	-0,211	-0,029
-648,014	77,319	0,055	-0,043
-646,999	69,095	0,041	-0,031
-645,984	66,233	-0,023	0,017
-644,970	681,976	0,030	-0,059
-643,955	800,000	-0,060	-0,187
-642,941	-200,000	-0,003	-0,011
-641,926	-200,000	0,002	-0,077
-640,911	800,000	-0,035	-0,101
-639,897	5,642	-0,075	0,041
-638,882	-200,000	-0,007	0,098
-637,868	163,989	-0,073	-0,076
-636,853	158,821	-0,011	-0,011
-635,838	2,498	0,094	-0,050
-634,824	800,000	0,037	0,111
-633,809	-200,000	0,003	0,148
-632,795	548,710	-0,039	0,070
-631,780	-22,067	-0,127	-0,057
-630,765	106,264	0,067	0,059
-629,751	-101,861	-0,020	0,004
-628,736	-200,000	0,024	-0,104
-627,722	800,000	0,003	0,007
-626,707	46,321	0,008	0,005
-625,692	411,018	0,045	0,071
-624,678	14,890	-0,079	0,046
-623,663	-6,661	0,122	-0,062
-622,649	106,721	-0,065	-0,057
-621,634	-200,000	0,013	0,069
-620,619	-173,842	0,201	-0,004
-619,605	-200,000	-0,002	0,112
-618,590	-200,000	0,012	0,165
-617,576	-83,086	-0,047	0,011
-616,561	101,853	-0,088	-0,076
-615,546	-113,792	0,163	0,023
-614,532	242,737	-0,012	-0,016
-613,517	-200,000	0,006	0,156
-612,503	-124,172	0,133	0,015
-611,488	78,289	-0,100	-0,079
-610,474	-200,000	-0,003	-0,095
-609,459	-200,000	-0,028	-0,125
-608,444	-200,000	0,028	-0,136
-607,430	800,000	-0,046	-0,145
-606,415	233,922	-0,061	0,075
-605,401	15,151	0,079	0,046
-604,386	43,688	-0,032	-0,022
-603,371	-200,000	-0,015	0,100
-602,357	314,355	-0,100	-0,140
-601,342	-2,194	-0,148	-0,077
-600,328	92,835	-0,030	0,025
-599,313	-2,536	-0,112	0,058
-598,298	48,056	-0,089	-0,062
-597,284	-1,330	0,077	0,040
-596,269	160,040	0,113	0,117
-595,255	458,720	-0,011	-0,019
-594,240	-60,994	0,140	-0,044
-593,225	107,734	-0,229	-0,202
-592,211	57,279	-0,043	0,031
-591,196	-175,086	-0,139	-0,003
-590,182	800,000	-0,039	-0,119
-589,167	27,216	-0,063	-0,039
-588,152	-23,731	0,100	-0,044
-587,138	-200,000	0,053	-0,229
-586,123	313,755	-0,032	0,044
-585,109	-158,451	-0,113	-0,005
-584,094	800,000	-0,046	-0,140
-583,079	-8,501	0,129	-0,064
-582,065	76,276	-0,024	-0,019
-581,050	99,708	-0,014	-0,012
-580,036	-200,000	-0,003	0,024
-579,021	-2,537	-0,016	-0,009
-578,006	183,068	0,047	-0,052
-576,992	-200,000	0,018	0,071
-575,977	-200,000	0,011	0,039
-574,963	222,464	0,041	0,049
-573,948	-133,220	0,050	0,005
-572,934	60,888	0,063	-0,046
-571,919	327,089	0,097	-0,137
-570,904	-200,000	-0,003	-0,034
-569,890	153,588	0,041	0,041
-568,875	73,784	0,087	-0,067
-567,861	-200,000	-0,003	-0,016
-566,846	800,000	0,024	0,068
-565,831	800,000	0,044	-0,139
-564,817	725,073	-0,047	0,092
-563,802	18,772	0,049	0,029
-562,788	89,712	0,105	0,087
-561,773	33,770	0,043	-0,027
-560,758	115,943	0,112	-0,101
-559,744	-136,438	0,079	0,007
-558,729	-115,525	0,076	-0,010
-557,715	-22,893	-0,085	-0,038
-556,700	-92,999	-0,115	0,023
-555,685	-200,000	0,009	0,086
-554,671	-200,000	-0,006	-0,088
-553,656	527,218	0,038	0,067
-552,642	-200,000	-0,020	0,139
-551,627	186,300	-0,081	0,090
-550,612	402,483	-0,046	0,072
-549,598	800,000	-0,031	0,096
-548,583	563,753	0,048	-0,087
-547,569	35,322	-0,151	0,098
-546,554	-94,695	0,138	0,028
-545,539	-52,663	0,058	-0,020
-544,525	414,693	-0,024	-0,038
-543,510	-73,903	-0,118	0,032
-542,496	-91,813	0,031	0,006
-541,481	-70,568	-0,075	0,021
-540,466	274,884	0,035	-0,046
-539,452	365,813	0,010	0,015
-538,437	800,000	0,045	0,127
-537,423	34,723	0,126	0,081
-536,408	800,000	0,055	0,117
-535,393	730,715	0,020	0,040
-534,379	800,000	0,036	0,110
-533,364	-171,617	0,068	-0,002
-532,350	-141,352	-0,104	-0,008
-531,335	-112,258	-0,072	0,011
-530,321	-45,001	0,040	0,015
-529,306	108,059	0,072	0,064
-528,291	-154,131	0,061	-0,003
-527,277	-115,373	-0,098	0,013
-526,262	800,000	-0,024	-0,061
-525,248	-200,000	0,006	-0,040
-524,233	800,000	0,029	0,081
-523,218	111,311	0,074	0,066
-522,204	376,179	0,046	-0,070
-521,189	170,458	-0,057	-0,060
-520,175	-64,207	-0,046	0,014
-519,160	-200,000	-0,018	-0,059
-518,145	107,286	0,062	0,054
-517,131	330,397	-0,036	0,052
-516,116	800,000	-0,018	0,042
-515,102	114,824	-0,073	-0,066
-514,087	52,452	-0,065	-0,045
-513,072	180,191	-0,044	-0,047
-512,058	-49,324	0,097	-0,034
-511,043	-200,000	0,006	-0,084
-510,029	-200,000	0,008	0,104
-509,014	800,000	-0,035	0,074
-507,999	-120,148	-0,111	-0,014
-506,985	-77,878	-0,039	-0,010
-505,970	-72,652	-0,031	0,008
-504,956	-200,000	-0,021	-0,115
-503,941	1,021	0,026	-0,014
-502,926	-200,000	-0,011	0,080
-501,912	170,548	0,040	-0,042
-500,897	114,196	-0,090	-0,081
-499,883	-53,098	0,068	-0,023
-498,868	800,000	-0,042	-0,089
-497,853	-200,000	0,016	-0,060
-496,839	-200,000	0,015	-0,075
-495,824	-200,000	-0,022	-0,186
-494,810	300,665	0,057	-0,078
-493,795	251,377	0,043	0,054
-492,781	325,659	0,088	0,125
-491,766	-47,169	-0,090	0,032
-490,751	-200,000	-0,032	-0,148
-489,737	162,815	-0,085	-0,088
-488,722	-92,798	0,088	-0,018
-487,708	67,765	0,053	0,040
-486,693	-20,076	0,041	0,019
-485,678	123,024	0,069	0,064
-484,664	800,000	0,041	-0,091
-483,649	602,183	-0,029	-0,054
-482,635	-200,000	-0,041	0,148
-481,620	169,786	0,092	0,098
-480,605	77,610	-0,074	0,058
-479,591	-200,000	0,029	0,131
-478,576	26,865	0,046	-0,028
-477,562	-200,000	0,012	0,055
-476,547	-200,000	0,003	-0,110
-475,532	800,000	0,007	0,019
-474,518	121,589	-0,036	-0,033
-473,503	-200,000	0,009	0,048
-472,489	-140,896	0,107	0,008
-471,474	-200,000	-0,038	0,143
-470,459	-200,000	-0,097	0,000
-469,445	26,281	-0,136	-0,084
-468,430	-13,204	-0,104	0,050
-467,416	75,888	0,042	-0,032
-466,401	-121,306	0,035	0,004
-465,386	800,000	0,020	-0,055
-464,372	-29,133	-0,097	0,041
-463,357	-200,000	-0,029	-0,178
-462,343	800,000	-0,028	-0,069
-461,328	415,661	-0,087	-0,137
-460,313	44,352	-0,049	0,033
-459,299	466,643	-0,036	0,060
-458,284	49,680	0,146	0,101
-457,270	282,103	-0,046	0,061
-456,255	-7,880	-0,047	-0,023
-455,241	169,983	-0,049	0,052
-454,226	-200,000	0,006	-0,101
-453,211	210,324	0,054	0,063
-452,197	459,535	0,028	0,046
-451,182	800,000	0,016	-0,036
-450,168	-130,227	0,051	0,005
-449,153	-20,985	-0,045	-0,020
-448,138	-200,000	0,007	0,058
-447,124	-21,453	0,129	0,058
-446,109	97,702	0,097	-0,082
-445,095	-200,000	0,000	0,075
-444,080	-110,675	0,097	-0,015
-443,065	-78,312	0,153	-0,038
-442,051	757,070	-0,013	0,025
-441,036	-188,657	0,061	-0,001
-440,022	-200,000	-0,017	-0,149
-439,007	511,619	0,022	0,038
-437,992	380,031	-0,025	-0,038
-436,978	-200,000	0,004	0,032
-435,963	-126,188	-0,034	0,004
-434,949	-200,000	-0,019	-0,117
-433,934	-49,625	-0,051	-0,018
-432,919	217,059	0,003	0,003
-431,905	-200,000	0,021	0,103
-430,890	800,000	-0,015	-0,034
-429,876	-200,000	-0,031	0,167
-428,861	176,029	-0,016	-0,017
-427,846	-21,920	-0,022	-0,010
-426,832	-74,393	-0,165	0,043
-425,817	800,000	-0,041	-0,091
-424,803	9,954	0,064	-0,035
-423,788	800,000	0,022	0,057
-422,773	-104,799	0,109	-0,018
-421,759	156,265	-0,086	0,087
-420,744	623,335	-0,074	-0,139
-419,730	-200,000	0,014	-0,052
-418,715	45,925	-0,117	-0,080
-417,701	800,000	0,007	0,022
-416,686	-200,000	-0,019	-0,117
-415,671	-104,250	0,175	0,030
-414,657	-120,190	0,082	0,010
-413,642	-51,185	0,100	0,034
-412,628	-77,483	-0,034	0,009
-411,613	-200,000	-0,011	-0,124
-410,598	35,697	0,089	0,057
-409,584	-94,522	0,227	-0,045
-408,569	-169,998	0,080	-0,002
-407,555	-82,270	0,066	-0,016
-406,540	-200,000	-0,048	-0,191
-405,525	149,286	-0,022	-0,022
-404,511	76,039	0,032	-0,025
-403,496	-200,000	-0,008	0,059
-402,482	800,000	0,039	-0,086
-401,467	-66,901	0,075	-0,022
-400,452	160,585	0,113	0,116
-399,438	155,745	-0,078	-0,079
-398,423	681,740	0,082	-0,158
-397,409	262,715	-0,076	0,097
-396,394	71,171	-0,112	-0,085
-395,379	-200,000	-0,004	-0,108
-394,365	156,116	-0,080	-0,082
-393,350	-200,000	0,030	0,109
-392,336	-79,199	-0,063	0,016
-391,321	190,547	-0,085	0,094
-390,306	-179,726	-0,195	-0,003
-389,292	-42,716	0,039	-0,014
-388,277	-110,612	0,098	0,015
-387,263	800,000	0,051	0,148
-386,248	-118,379	0,104	0,013
-385,233	800,000	0,043	0,128
-384,219	111,356	-0,102	0,091
-383,204	800,000	-0,029	-0,082
-382,190	200,819	-0,019	-0,021
-381,175	5,967	-0,047	0,025
-380,160	721,094	-0,032	0,063
-379,146	-200,000	-0,000	0,040
-378,131	800,000	0,030	0,066
-377,117	-73,261	-0,097	-0,026
-376,102	642,793	-0,056	-0,106
-375,088	395,666	-0,039	0,060
-374,073	-200,000	-0,010	0,039
-373,058	-200,000	0,015	-0,081
-372,044	-1,154	0,148	0,077
-371,029	112,114	0,049	0,044
-370,015	325,512	-0,041	-0,058
-369,000	34,484	-0,076	-0,048
-367,985	800,000	-0,065	-0,191
-366,971	-27,601	0,058	0,025
-365,956	110,856	0,090	0,079
-364,942	-74,082	0,146	-0,039
-363,927	800,000	0,075	0,179
-362,912	-35,446	0,150	0,060
-361,898	68,731	0,037	0,028
-360,883	159,683	0,040	0,041
-359,869	262,893	-0,041	0,052
-358,854	-78,713	-0,177	-0,044
-357,839	10,807	-0,062	-0,035
-356,825	292,966	0,053	0,072
-355,810	-142,580	-0,056	-0,004
-354,796	52,112	0,056	0,039
-353,781	-200,000	0,029	-0,121
-352,766	32,425	0,061	-0,039
-351,752	150,580	-0,041	0,041
-350,737	-46,351	0,147	-0,053
-349,723	343,080	-0,057	0,082
-348,708	-200,000	0,008	-0,074
-347,693	76,778	-0,127	-0,099
-346,679	-200,000	-0,018	-0,118
-345,664	-11,596	-0,050	-0,024
-344,650	-154,671	0,056	0,003
-343,635	800,000	-0,021	-0,045
-342,620	-200,000	0,007	0,111
-341,606	800,000	0,015	0,036
-340,591	-165,156	0,041	-0,001
-339,577	-69,396	-0,177	-0,049
-338,562	-200,000	-0,007	-0,135
-337,548	-162,950	-0,120	-0,004
-336,533	-31,662	0,088	-0,036
-335,518	-200,000	0,032	0,114
-334,504	-200,000	-0,025	0,088
-333,489	-96,811	0,060	0,012
-332,475	525,368	-0,027	-0,046
-331,460	-70,863	0,093	-0,025
-330,445	-200,000	0,014	0,082
-329,431	-200,000	0,000	-0,034
-328,416	193,988	-0,066	-0,074
-327,402	-200,000	-0,003	-0,100
-326,387	205,747	0,054	-0,061
-325,372	-122,401	-0,058	-0,007
-324,358	-200,000	-0,000	-0,044
-323,343	-67,675	-0,055	-0,016
-322,329	-200,000	-0,005	0,029
-321,314	-200,000	0,029	-0,116
-320,299	31,993	0,172	0,108
-319,285	-200,000	-0,002	0,116
-318,270	-200,000	-0,017	-0,136
-317,256	-200,000	-0,010	-0,174
-316,241	123,837	0,057	-0,053
-315,226	73,078	0,062	-0,048
-314,212	-200,000	0,008	0,139
-313,197	-200,000	0,016	0,058
-312,183	58,567	0,067	0,048
-311,168	284,889	-0,028	0,037
-310,153	-111,325	-0,053	0,008
-309,139	-200,000	0,001	-0,089
-308,124	573,550	-0,050	0,089
-307,110	-153,282	0,120	-0,006
-306,095	672,619	0,007	-0,012
-305,080	65,718	0,088	-0,065
-304,066	112,968	-0,062	0,055
-303,051	800,000	-0,018	-0,044
-302,037	-200,000	-0,015	0,135
-301,022	-109,867	0,171	0,026
-300,008	-200,000	-0,007	0,133
-298,993	-21,468	-0,036	0,016
-297,978	-200,000	0,007	-0,040
-296,964	800,000	-0,039	0,085
-295,949	137,866	-0,089	0,086
-294,935	42,949	-0,110	-0,073
-293,920	98,496	-0,060	-0,051
-292,905	800,000	0,032	-0,090
-291,891	56,055	-0,036	0,026
-290,876	546,010	-0,006	0,011
-289,862	-200,000	-0,011	0,173
-288,847	-200,000	0,010	-0,129
-287,832	-200,000	0,006	-0,062
-286,818	99,104	0,020	0,017
-285,803	396,492	-0,009	0,014
-284,789	545,725	0,125	0,219
-283,774	197,862	-0,092	0,103
-282,759	-200,000	-0,001	-0,027
-281,745	-200,000	0,028	-0,090
-280,730	285,877	0,042	-0,055
-279,716	-55,337	-0,014	-0,005
-278,701	623,178	-0,041	-0,075
-277,686	12,688	0,089	0,050
-276,672	-48,310	0,138	-0,048
-275,657	800,000	0,029	-0,080
-274,643	-200,000	-0,030	0,098
-273,628	800,000	-0,032	0,074
-272,613	-60,782	-0,041	-0,013
-271,599	-30,080	-0,106	0,044
-270,584	210,640	0,149	0,172
-269,570	57,313	0,115	-0,082
-268,555	-15,680	0,068	0,032
-267,540	-25,135	-0,054	-0,023
-266,526	108,857	-0,145	-0,126
-265,511	-200,000	0,002	0,144
-264,497	-200,000	0,081	0,286
-263,482	36,525	0,032	0,021
-262,467	-200,000	-0,007	0,072
-261,453	-200,000	0,018	-0,092
-260,438	-200,000	0,005	-0,139
-259,424	86,136	-0,086	-0,069
-258,409	110,108	0,070	0,062
-257,395	99,840	0,095	-0,080
-256,380	428,813	0,052	0,082
-255,365	-200,000	-0,021	0,178
-254,351	800,000	0,048	0,147
-253,336	-200,000	-0,003	-0,171
-252,322	24,745	-0,148	-0,090
-251,307	-71,218	-0,121	0,033
-250,292	-65,888	0,057	0,017
-249,278	727,306	-0,037	0,073
-248,263	-79,735	-0,057	-0,014
-247,249	-200,000	-0,006	0,118
-246,234	-21,234	-0,111	-0,049
-245,219	359,874	0,031	-0,045
-244,205	800,000	-0,045	-0,106
-243,190	-200,000	-0,021	-0,116
-242,176	363,308	-0,047	-0,070
-241,161	800,000	-0,012	-0,031
-240,146	-200,000	-0,027	0,095
-239,132	69,370	-0,035	-0,026
-238,117	624,873	-0,068	-0,126
-237,103	800,000	-0,108	-0,263
-236,088	-123,710	-0,065	0,007
-235,073	-161,666	0,091	0,003
-234,059	-66,177	0,044	-0,013
-233,044	178,532	-0,057	0,061
-232,030	56,381	-0,012	-0,009
-231,015	135,766	-0,051	0,049
-230,000	-200,000	0,001	0,068
-228,986	63,794	-0,067	0,049
-227,971	400,746	0,043	-0,066
-226,957	-18,506	0,182	0,083
-225,942	-200,000	-0,034	0,210
-224,927	255,831	0,056	0,070
-223,913	377,242	0,015	0,022
-222,898	24,309	0,075	0,045
-221,884	-200,000	0,019	-0,140
-220,869	800,000	0,017	-0,047
-219,855	28,956	0,156	0,096
-218,840	800,000	-0,041	0,098
-217,825	-30,189	0,125	0,052
-216,811	78,100	-0,093	-0,072
-215,796	-21,392	0,086	-0,038
-214,782	-200,000	0,014	-0,105
-213,767	487,478	0,069	0,115
-212,752	-200,000	0,021	0,078
-211,738	22,217	-0,115	0,068
-210,723	-191,650	0,123	-0,001
-209,709	125,021	-0,081	-0,074
-208,694	-200,000	0,011	-0,162
-207,679	800,000	0,038	-0,082
-206,665	-173,808	-0,036	-0,001
-205,650	327,947	0,119	0,167
-204,636	136,050	-0,131	-0,125
-203,621	-39,175	0,071	0,027
-202,606	138,458	-0,031	0,029
-201,592	-47,791	-0,077	0,027
-200,577	-32,612	0,061	-0,025
-199,563	277,977	0,057	-0,074
-198,548	54,075	0,098	-0,069
-197,533	-200,000	0,006	0,107
-196,519	-95,848	0,035	0,007
-195,504	-60,405	-0,050	0,015
-194,490	-83,787	-0,190	0,044
-193,475	759,619	0,063	-0,125
-192,460	-94,841	-0,111	-0,022
-191,446	-200,000	-0,019	-0,061
-190,431	800,000	0,065	0,192
-189,417	-200,000	0,002	-0,010
-188,402	64,806	-0,111	-0,082
-187,387	-10,194	-0,120	0,058
-186,373	1,373	-0,184	-0,096
-185,358	800,000	-0,039	0,088
-184,344	-79,587	0,163	0,040
-183,329	536,752	-0,085	0,148
-182,315	800,000	0,028	0,061
-181,300	-63,425	-0,086	0,026
-180,285	15,021	-0,037	0,021
-179,271	21,109	-0,057	-0,034
-178,256	155,451	-0,076	-0,076
-177,242	-47,163	0,074	0,026
-176,227	-200,000	-0,006	0,128
-175,212	175,961	-0,048	0,051
-174,198	164,200	-0,096	0,099
-173,183	-101,445	-0,030	0,005
-172,169	799,990	-0,023	-0,046
-171,154	153,147	0,074	-0,074
-170,139	-95,372	0,101	-0,020
-169,125	800,000	0,041	0,098
-168,110	26,952	-0,277	0,169
-167,096	66,117	0,046	0,034
-166,081	214,358	0,045	-0,052
-165,066	-33,356	-0,057	0,023
-164,052	212,022	0,044	-0,051
-163,037	-115,179	-0,039	-0,005
-162,023	49,232	0,117	-0,080
-161,008	-103,657	-0,080	0,013
-159,993	-200,000	0,006	-0,020
-158,979	-83,761	0,022	0,005
-157,964	-100,218	-0,094	-0,017
-156,950	17,467	0,036	0,021
-155,935	93,451	0,046	-0,038
-154,920	-200,000	-0,001	0,089
-153,906	-200,000	0,010	0,044
-152,891	800,000	-0,087	0,180
-151,877	-91,125	0,157	0,033
-150,862	800,000	-0,072	-0,157
-149,847	800,000	0,027	-0,075
-148,833	-84,146	0,105	-0,024
-147,818	245,250	0,040	0,049
-146,804	-200,000	-0,039	0,190
-145,789	-89,820	-0,080	-0,017
-144,775	800,000	-0,040	-0,103
-143,760	714,171	-0,067	0,130
-142,745	-200,000	-0,001	-0,025
-141,731	636,730	-0,048	-0,089
-140,716	-72,420	0,092	-0,025
-139,702	242,698	-0,093	0,114
-138,687	-89,062	-0,080	-0,017
-137,672	216,109	-0,063	-0,073
-136,658	-200,000	-0,012	-0,116
-135,643	106,632	0,081	-0,070
-134,629	183,158	-0,054	-0,058
-133,614	79,313	0,096	0,075
-132,599	-200,000	0,008	0,077
-131,585	800,000	-0,023	0,056
-130,570	-132,248	0,080	0,007
-129,556	-81,392	-0,122	-0,029
-128,541	12,040	-0,060	0,033
-127,526	-119,461	-0,031	-0,004
-126,512	419,108	0,068	0,107
-125,497	-132,451	0,076	-0,007
-124,483	116,820	-0,046	0,041
-123,468	-92,375	0,014	-0,003
-122,453	-43,154	-0,131	-0,048
-121,439	800,000	0,021	0,051
-120,424	-200,000	-0,030	-0,111
