DTS Sentinel unit serial number:	SN410029Multiplexer serial number:	ORYXHardware model number:	OX2-SRSoftware version number:	ORYX F/W v4,00 Oryx Data Collector v3.7.2.0data status	okinstallation	B6 Nyhavnadifferential loss correction	single-endedforward channel	channel 2reverse channel	N/Adate	2023/12/10time	20:20:08forward acquisition time	300,00reverse acquisition time	0,00gamma	499,1914k internal	0,3122k external	0,3122temperature offset calibration	1,0000default loss term (dB/km)	0,3820temperature slope calibration	1,0000multiplexer offset coefficient	1,0000multiplexer slope coefficient	1,0000fibre end	0,00T internal ref (°C)	22,28T ext. ref 1 (°C)	5,83T ext. ref 2 (°C)	5,87length (m)	temperature (°C)	Stokes	anti-Stokes-744,400	-200,000	0,015	-0,166
-743,385	23,138	-0,197	0,120
-742,371	-200,000	0,034	-0,165
-741,356	93,119	-0,220	0,186
-740,342	-12,246	-0,127	-0,062
-739,327	-137,096	-0,242	0,020
-738,312	12,726	0,130	-0,075
-737,298	-32,605	-0,230	0,095
-736,283	800,000	0,015	-0,033
-735,269	-76,679	-0,204	0,053
-734,254	490,500	0,105	0,179
-733,239	-119,856	-0,378	-0,048
-732,225	-66,967	0,173	0,051
-731,210	800,000	0,035	0,073
-730,196	800,000	-0,020	-0,052
-729,181	-103,492	-0,172	0,030
-728,167	221,821	-0,094	0,113
-727,152	263,902	-0,025	0,033
-726,137	800,000	-0,033	-0,097
-725,123	2,297	-0,063	-0,034
-724,108	18,696	-0,146	-0,087
-723,094	-19,250	-0,188	0,087
-722,079	800,000	-0,059	-0,168
-721,064	133,687	-0,090	-0,086
-720,050	800,000	-0,042	0,104
-719,035	173,355	0,045	0,049
-718,021	-96,782	0,087	-0,017
-717,006	87,604	-0,150	-0,123
-715,991	-200,000	-0,040	-0,133
-714,977	292,088	-0,036	-0,049
-713,962	381,690	0,056	-0,085
-712,948	-38,377	-0,022	0,009
-711,933	-200,000	0,063	-0,213
-710,918	800,000	0,031	0,087
-709,904	-120,149	-0,084	0,011
-708,889	493,686	-0,062	0,107
-707,875	425,068	-0,019	-0,031
-706,860	164,764	-0,106	-0,111
-705,845	575,377	-0,072	0,132
-704,831	-4,047	-0,066	0,034
-703,816	-200,000	0,012	-0,043
-702,802	162,403	-0,037	-0,039
-701,787	800,000	0,032	-0,096
-700,772	800,000	0,031	0,077
-699,758	-134,275	0,106	-0,010
-698,743	103,576	0,047	0,041
-697,729	304,381	0,041	-0,057
-696,714	-200,000	-0,008	0,122
-695,699	55,545	-0,019	-0,014
-694,685	81,569	-0,110	-0,088
-693,670	133,157	-0,111	-0,106
-692,656	-200,000	-0,021	-0,148
-691,641	-200,000	0,023	-0,075
-690,627	800,000	0,033	-0,086
-689,612	175,621	-0,031	-0,033
-688,597	15,897	0,072	-0,042
-687,583	-200,000	-0,009	-0,039
-686,568	-90,041	-0,185	-0,040
-685,554	195,680	0,024	-0,028
-684,539	-167,042	-0,026	0,001
-683,524	-88,130	-0,034	-0,008
-682,510	417,427	0,106	0,168
-681,495	-28,719	-0,037	0,016
-680,481	-200,000	-0,009	-0,058
-679,466	-26,429	-0,129	-0,056
-678,451	209,357	-0,077	0,090
-677,437	800,000	0,061	0,186
-676,422	-69,482	-0,091	-0,026
-675,408	-200,000	0,017	0,176
-674,393	57,739	-0,050	0,036
-673,378	157,540	0,062	0,064
-672,364	537,034	-0,021	0,038
-671,349	250,124	-0,031	-0,040
-670,335	-78,923	-0,048	-0,012
-669,320	77,157	-0,131	-0,104
-668,305	648,931	0,005	-0,009
-667,291	800,000	0,046	0,105
-666,276	49,300	-0,115	-0,080
-665,262	63,687	-0,048	-0,036
-664,247	-200,000	-0,027	-0,090
-663,232	800,000	0,039	0,084
-662,218	234,603	0,060	-0,074
-661,203	-200,000	0,023	0,087
-660,189	355,616	-0,022	-0,033
-659,174	60,377	-0,187	-0,137
-658,159	800,000	0,033	-0,092
-657,145	800,000	-0,084	-0,187
-656,130	219,484	0,021	-0,025
-655,116	-179,749	0,097	0,002
-654,101	784,817	0,045	0,091
-653,086	800,000	-0,045	0,106
-652,072	-200,000	0,002	-0,028
-651,057	209,817	-0,034	0,039
-650,043	-40,703	-0,139	-0,053
-649,028	-161,101	0,034	-0,001
-648,014	800,000	0,029	0,073
-646,999	180,594	-0,050	-0,055
-645,984	-126,680	0,037	0,004
-644,970	412,882	0,010	0,016
-643,955	-27,363	-0,071	-0,031
-642,941	800,000	-0,078	-0,217
-641,926	-28,039	0,079	0,034
-640,911	-200,000	-0,005	0,129
-639,897	193,650	-0,050	0,056
-638,882	800,000	-0,013	-0,036
-637,868	-63,802	-0,081	-0,025
-636,853	2,196	-0,047	-0,025
-635,838	-55,421	-0,076	-0,025
-634,824	-128,736	-0,141	-0,015
-633,809	638,941	-0,064	0,121
-632,795	-200,000	0,018	0,135
-631,780	-95,530	0,064	0,013
-630,765	189,646	0,101	0,113
-629,751	24,832	-0,171	-0,105
-628,736	19,409	-0,068	-0,040
-627,722	-50,667	-0,124	-0,043
-626,707	146,021	-0,085	0,084
-625,692	-29,863	-0,124	0,052
-624,678	-200,000	-0,000	0,079
-623,663	-200,000	-0,010	-0,175
-622,649	560,188	-0,014	0,025
-621,634	17,767	-0,052	-0,030
-620,619	188,318	-0,053	0,058
-619,605	-171,654	0,157	-0,004
-618,590	17,632	-0,151	0,089
-617,576	384,515	0,088	0,136
-616,561	800,000	0,035	-0,072
-615,546	573,609	0,039	-0,071
-614,532	-200,000	0,007	0,037
-613,517	6,330	-0,101	0,055
-612,503	-148,085	0,100	0,006
-611,488	-200,000	-0,019	-0,103
-610,474	169,209	-0,059	-0,063
-609,459	800,000	0,024	-0,064
-608,444	88,864	-0,032	0,026
-607,430	-200,000	-0,007	-0,027
-606,415	800,000	0,013	0,028
-605,401	-83,001	0,066	-0,016
-604,386	-196,835	-0,093	0,000
-603,371	75,621	0,052	-0,041
-602,357	-200,000	0,006	0,112
-601,342	-200,000	-0,006	0,087
-600,328	-200,000	-0,010	0,089
-599,313	713,436	0,037	-0,072
-598,298	-200,000	-0,049	-0,192
-597,284	-200,000	0,028	0,162
-596,269	-200,000	-0,006	0,042
-595,255	-23,198	0,069	-0,031
-594,240	160,708	-0,081	-0,084
-593,225	-200,000	-0,001	-0,070
-592,211	180,641	-0,048	-0,052
-591,196	-15,580	0,059	-0,028
-590,182	168,380	0,023	-0,024
-589,167	-126,655	-0,022	0,002
-588,152	-180,650	-0,072	-0,001
-587,138	-200,000	0,003	0,113
-586,123	-200,000	0,016	0,057
-585,109	-10,109	0,092	0,045
-584,094	800,000	0,040	0,107
-583,079	800,000	-0,031	0,097
-582,065	125,539	-0,130	0,122
-581,050	-200,000	-0,007	0,210
-580,036	235,192	-0,028	0,034
-579,021	-200,000	-0,014	-0,058
-578,006	703,011	-0,077	-0,150
-576,992	235,206	-0,016	-0,020
-575,977	-101,533	0,073	-0,013
-574,963	-122,621	0,045	0,005
-573,948	800,000	-0,033	-0,069
-572,934	800,000	0,010	0,028
-571,919	-184,496	-0,148	0,002
-570,904	-134,420	-0,121	-0,011
-569,890	-81,418	0,108	-0,026
-568,875	800,000	0,039	-0,088
-567,861	-200,000	-0,020	0,101
-566,846	-93,540	-0,071	0,014
-565,831	800,000	-0,031	-0,102
-564,817	-75,108	-0,113	0,030
-563,802	-79,606	0,058	0,014
-562,788	55,095	0,069	-0,049
-561,773	800,000	-0,008	0,021
-560,758	713,707	0,018	0,035
-559,744	-91,401	0,091	-0,019
-558,729	-117,023	-0,110	0,015
-557,715	577,127	0,033	0,060
-556,700	-61,901	0,084	-0,026
-555,685	800,000	0,040	-0,095
-554,671	-48,153	-0,128	-0,045
-553,656	353,593	0,030	-0,044
-552,642	320,954	-0,093	0,130
-551,627	218,228	0,046	0,054
-550,612	34,151	0,080	0,051
-549,598	409,608	-0,057	-0,089
-548,583	-29,333	0,022	-0,009
-547,569	800,000	-0,025	0,062
-546,554	-117,401	0,092	0,012
-545,539	13,560	0,072	0,041
-544,525	53,097	0,111	0,079
-543,510	-200,000	-0,009	-0,100
-542,496	283,407	-0,130	-0,173
-541,481	-200,000	0,014	-0,054
-540,466	264,237	0,103	0,132
-539,452	149,717	0,044	0,044
-538,437	106,110	-0,008	0,007
-537,423	-200,000	-0,006	-0,037
-536,408	401,221	0,055	0,086
-535,393	-90,597	-0,076	0,016
-534,379	800,000	0,032	-0,099
-533,364	414,006	-0,032	0,050
-532,350	9,377	0,115	-0,064
-531,335	-200,000	0,010	0,037
-530,321	-200,000	-0,006	0,120
-529,306	-164,270	0,130	0,004
-528,291	-128,402	-0,120	-0,012
-527,277	468,099	-0,036	-0,060
-526,262	-36,391	0,080	0,032
-525,248	4,280	0,023	0,013
-524,233	88,618	0,056	-0,046
-523,218	-12,611	-0,041	0,020
-522,204	-200,000	-0,028	-0,143
-521,189	76,228	-0,047	-0,036
-520,175	-14,270	-0,114	-0,054
-519,160	123,416	-0,005	-0,004
-518,145	109,229	0,035	-0,031
-517,131	161,214	-0,076	-0,078
-516,116	-158,348	0,043	-0,002
-515,102	-200,000	-0,011	0,062
-514,087	665,971	-0,060	0,116
-513,072	-52,397	-0,168	0,057
-512,058	105,466	0,053	-0,046
-511,043	-132,730	0,034	0,003
-510,029	800,000	0,034	0,089
-509,014	37,202	-0,107	-0,070
-507,999	140,584	0,016	-0,015
-506,985	-200,000	-0,003	-0,139
-505,970	-107,626	-0,134	-0,021
-504,956	63,318	0,029	-0,021
-503,941	517,899	0,075	-0,130
-502,926	182,929	0,089	0,097
-501,912	735,306	-0,019	0,037
-500,897	-200,000	-0,005	-0,072
-499,883	-200,000	0,032	-0,169
-498,868	421,475	-0,024	0,038
-497,853	-200,000	-0,007	-0,036
-496,839	-46,360	-0,028	0,010
-495,824	-200,000	-0,013	0,080
-494,810	559,214	0,036	0,065
-493,795	-200,000	0,002	0,080
-492,781	34,361	0,123	-0,079
-491,766	-200,000	0,015	-0,071
-490,751	-40,675	-0,164	-0,063
-489,737	-38,547	-0,220	0,085
-488,722	0,944	0,169	-0,089
-487,708	-26,073	-0,062	0,027
-486,693	644,799	0,077	0,145
-485,678	156,676	-0,093	0,095
-484,664	-200,000	0,012	0,082
-483,649	345,364	0,023	-0,033
-482,635	15,848	-0,049	0,028
-481,620	215,655	0,101	-0,119
-480,605	-84,201	-0,048	0,011
-479,591	384,355	-0,043	-0,066
-478,576	-142,342	-0,106	0,008
-477,562	265,975	0,012	-0,015
-476,547	141,852	-0,041	-0,040
-475,532	-75,781	-0,037	-0,009
-474,518	-144,016	0,082	-0,006
-473,503	-24,761	-0,165	0,072
-472,489	800,000	-0,027	0,063
-471,474	3,400	0,124	0,066
-470,459	26,753	-0,064	0,039
-469,445	60,368	-0,057	-0,041
-468,430	-8,757	0,085	-0,042
-467,416	800,000	-0,014	0,039
-466,401	-200,000	0,021	-0,082
-465,386	91,451	0,079	-0,065
-464,372	-110,303	-0,102	0,015
-463,357	800,000	0,049	0,135
-462,343	69,322	-0,131	0,099
-461,328	-200,000	0,000	-0,072
-460,313	-116,383	0,022	0,003
-459,299	747,366	-0,031	0,063
-458,284	249,202	0,020	-0,025
-457,270	316,717	0,029	0,041
-456,255	494,168	-0,041	0,070
-455,241	-130,568	0,100	0,010
-454,226	76,257	0,026	0,020
-453,211	-121,523	-0,051	-0,006
-452,197	-44,936	0,065	0,024
-451,182	174,292	0,113	0,121
-450,168	-200,000	-0,017	0,142
-449,153	-32,615	-0,085	-0,035
-448,138	-200,000	-0,010	0,053
-447,124	233,208	-0,096	0,116
-446,109	-66,128	0,020	0,006
-445,095	-161,275	0,058	0,002
-444,080	-200,000	-0,012	0,043
-443,065	317,122	0,027	-0,038
-442,051	-49,333	0,028	-0,010
-441,036	287,328	-0,029	-0,039
-440,022	-200,000	0,017	-0,125
-439,007	242,711	0,117	-0,144
-437,992	-84,315	-0,144	-0,033
-436,978	358,806	0,032	0,048
-435,963	800,000	0,013	-0,040
-434,949	-113,808	-0,175	-0,025
-433,934	-200,000	0,022	-0,111
-432,919	-200,000	-0,021	-0,166
-431,905	-200,000	-0,014	0,064
-430,890	-52,645	0,113	0,038
-429,876	800,000	-0,034	-0,074
-428,861	-200,000	0,016	0,054
-427,846	416,672	0,017	-0,027
-426,832	-75,610	-0,134	0,035
-425,817	-200,000	-0,008	0,059
-424,803	-84,451	0,087	-0,020
-423,788	25,814	0,197	-0,121
-422,773	-6,427	0,088	-0,044
-421,759	189,793	0,053	-0,059
-420,744	28,114	0,079	-0,049
-419,730	-120,791	0,051	-0,006
-418,715	361,264	0,041	-0,061
-417,701	24,583	0,038	0,023
-416,686	99,250	0,069	-0,059
-415,671	-100,864	0,041	-0,007
-414,657	-29,596	0,015	-0,006
-413,642	767,010	0,033	0,066
-412,628	-50,734	-0,017	-0,006
-411,613	629,962	0,024	-0,045
-410,598	482,102	-0,048	-0,080
-409,584	-128,553	0,114	0,012
-408,569	800,000	-0,008	-0,024
-407,555	500,937	0,070	-0,120
-406,540	800,000	0,023	0,047
-405,525	-42,570	0,150	-0,056
-404,511	800,000	-0,030	-0,063
-403,496	-42,548	0,122	-0,045
-402,482	210,730	-0,091	-0,105
-401,467	-200,000	-0,016	0,094
-400,452	-120,137	0,064	0,008
-399,438	-41,529	0,098	0,037
-398,423	800,000	-0,026	0,060
-397,409	800,000	-0,030	-0,089
-396,394	141,711	-0,076	0,074
-395,379	179,664	0,057	0,061
-394,365	466,867	0,023	0,038
-393,350	99,382	0,037	-0,032
-392,336	-38,309	0,126	0,049
-391,321	249,017	-0,063	-0,079
-390,306	198,448	0,117	0,131
-389,292	-200,000	-0,009	0,033
-388,277	159,376	-0,029	0,030
-387,263	95,358	-0,031	0,026
-386,248	132,709	-0,073	-0,070
-385,233	800,000	0,050	0,110
-384,219	231,525	-0,072	-0,087
-383,204	-32,547	-0,085	0,035
-382,190	7,088	-0,091	0,050
-381,175	-145,647	0,122	-0,008
-380,160	-104,237	0,054	0,009
-379,146	113,727	0,045	0,040
-378,131	62,880	-0,115	0,085
-377,117	-147,195	-0,084	-0,005
-376,102	-85,026	0,047	-0,011
-375,088	-200,000	0,009	-0,100
-374,073	800,000	0,033	0,105
-373,058	-103,085	0,078	-0,013
-372,044	-27,674	0,151	0,064
-371,029	195,951	0,073	0,081
-370,015	157,392	-0,021	0,022
-369,000	19,453	-0,101	0,060
-367,985	-200,000	0,012	0,132
-366,971	-73,277	0,074	0,020
-365,956	800,000	-0,015	0,043
-364,942	-200,000	-0,006	0,073
-363,927	-200,000	0,013	-0,064
-362,912	-148,318	-0,080	0,005
-361,898	1,804	0,032	-0,017
-360,883	800,000	0,043	-0,117
-359,869	-200,000	-0,003	-0,052
-358,854	-200,000	-0,021	0,085
-357,839	800,000	-0,026	0,082
-356,825	358,168	0,034	0,050
-355,810	800,000	0,026	0,071
-354,796	238,789	-0,100	-0,122
-353,781	-200,000	0,034	-0,164
-352,766	286,422	-0,060	-0,080
-351,752	121,765	0,092	0,084
-350,737	-188,299	0,023	-0,000
-349,723	-78,759	0,072	-0,018
-348,708	-52,011	-0,056	0,019
-347,693	800,000	-0,026	-0,078
-346,679	191,458	-0,091	0,101
-345,664	393,196	-0,115	-0,177
-344,650	-200,000	-0,016	-0,137
-343,635	293,338	-0,061	0,082
-342,620	254,132	0,063	-0,079
-341,606	-200,000	-0,017	0,128
-340,591	800,000	0,017	0,037
-339,577	800,000	-0,016	-0,042
-338,562	-200,000	0,024	-0,092
-337,548	-176,785	-0,071	-0,001
-336,533	97,380	0,091	0,077
-335,518	-174,369	0,057	-0,001
-334,504	178,178	0,078	-0,084
-333,489	-193,712	0,108	0,001
-332,475	800,000	-0,013	-0,040
-331,460	5,002	-0,134	-0,072
-330,445	84,999	-0,062	0,050
-329,431	33,581	0,127	0,081
-328,416	-200,000	-0,002	0,014
-327,402	-200,000	-0,025	0,113
-326,387	56,460	-0,087	-0,062
-325,372	-200,000	-0,012	-0,049
-324,358	-34,729	0,025	-0,010
-323,343	-0,132	0,041	-0,021
-322,329	30,441	-0,080	0,050
-321,314	800,000	-0,027	0,083
-320,299	-200,000	0,018	-0,076
-319,285	-0,332	-0,103	-0,054
-318,270	25,421	-0,089	-0,054
-317,256	-200,000	0,028	0,176
-316,241	-200,000	-0,030	0,141
-315,226	-200,000	-0,002	-0,054
-314,212	100,963	-0,015	-0,013
-313,197	-3,962	0,054	0,027
-312,183	-200,000	0,013	0,000
-311,168	666,950	-0,072	-0,137
-310,153	-132,800	-0,087	0,008
-309,139	-111,521	0,180	-0,027
-308,124	70,192	-0,088	-0,066
-307,110	-76,595	-0,067	-0,017
-306,095	468,188	0,020	0,033
-305,080	108,702	0,040	0,035
-304,066	-200,000	-0,017	0,120
-303,051	-200,000	-0,014	-0,067
-302,037	203,177	-0,054	-0,061
-301,022	-200,000	-0,013	-0,082
-300,008	800,000	0,034	-0,101
-298,993	21,860	0,065	0,039
-297,978	-200,000	-0,000	-0,116
-296,964	800,000	-0,044	-0,126
-295,949	-110,795	-0,111	0,017
-294,935	800,000	-0,020	-0,050
-293,920	558,468	0,037	-0,065
-292,905	800,000	0,035	0,100
-291,891	-76,484	0,212	0,054
-290,876	-200,000	0,010	-0,098
-289,862	-153,713	0,015	-0,001
-288,847	357,234	-0,034	-0,049
-287,832	22,379	-0,100	-0,060
-286,818	335,370	0,005	-0,007
-285,803	44,009	0,184	0,123
-284,789	-129,563	-0,064	-0,006
-283,774	800,000	0,023	-0,059
-282,759	4,218	-0,127	0,068
-281,745	294,614	0,084	-0,112
-280,730	70,510	-0,130	-0,098
-279,716	575,268	-0,026	0,047
-278,701	-85,362	-0,049	0,011
-277,686	269,532	-0,091	0,117
-276,672	-21,505	0,109	0,048
-275,657	-115,415	0,165	0,023
-274,643	-180,466	-0,110	0,002
-273,628	84,509	-0,047	-0,038
-272,613	33,270	-0,059	0,037
-271,599	-120,008	0,113	-0,014
-270,584	-36,759	-0,050	-0,020
-269,570	508,552	0,039	-0,066
-268,555	-200,000	0,000	-0,085
-267,540	191,586	-0,081	-0,089
-266,526	80,620	0,084	0,066
-265,511	-200,000	0,006	-0,042
-264,497	800,000	-0,028	-0,059
-263,482	-72,157	0,095	-0,026
-262,467	-200,000	0,017	0,070
-261,453	100,295	-0,109	-0,092
-260,438	5,244	-0,042	-0,023
-259,424	49,127	-0,100	-0,068
-258,409	-200,000	-0,006	0,058
-257,395	-36,078	0,091	0,036
-256,380	-200,000	0,063	0,248
-255,365	275,080	0,106	0,138
-254,351	312,130	0,047	-0,065
-253,336	-200,000	-0,039	-0,137
-252,322	-200,000	0,001	-0,093
-251,307	495,268	0,026	-0,045
-250,292	-200,000	0,001	-0,079
-249,278	509,016	0,028	-0,048
-248,263	520,364	0,030	0,051
-247,249	111,858	0,120	0,106
-246,234	21,444	0,059	0,035
-245,219	-92,446	0,100	-0,020
-244,205	-184,996	0,115	-0,001
-243,190	49,782	0,164	0,113
-242,176	576,366	-0,027	0,049
-241,161	787,055	0,050	0,102
-240,146	-61,612	0,063	0,019
-239,132	-85,985	-0,074	-0,017
-238,117	-31,619	-0,046	-0,019
-237,103	-157,908	-0,035	-0,002
-236,088	-81,668	-0,027	-0,006
-235,073	-48,456	0,029	0,010
-234,059	153,876	0,027	0,027
-233,044	-26,102	0,081	0,035
-232,030	-200,000	-0,030	0,135
-231,015	-7,564	-0,111	-0,055
-230,000	80,739	-0,086	-0,068
-228,986	800,000	-0,034	0,097
-227,971	-150,343	0,125	-0,007
-226,957	-200,000	-0,003	0,104
-225,942	-166,539	-0,026	0,001
-224,927	-157,814	-0,030	-0,001
-223,913	322,831	-0,099	-0,138
-222,898	12,957	-0,092	-0,052
-221,884	188,808	0,083	-0,090
-220,869	-135,518	-0,036	-0,003
-219,855	-28,824	0,036	0,015
-218,840	-200,000	-0,022	0,184
-217,825	299,672	0,037	-0,049
-216,811	800,000	-0,040	-0,089
-215,796	508,603	-0,091	-0,156
-214,782	53,790	0,054	-0,038
-213,767	-62,524	0,124	0,037
-212,752	-200,000	-0,012	-0,093
-211,738	-200,000	-0,018	-0,116
-210,723	800,000	0,008	0,016
-209,709	185,630	-0,063	0,069
-208,694	-200,000	-0,003	0,186
-207,679	-77,487	0,113	0,028
-206,665	1,822	-0,106	-0,056
-205,650	-200,000	0,006	0,037
-204,636	-200,000	-0,005	0,101
-203,621	800,000	-0,030	0,090
-202,606	54,216	-0,101	-0,071
-201,592	-200,000	0,025	0,121
-200,577	-200,000	-0,010	-0,083
-199,563	9,056	0,059	-0,033
-198,548	-17,800	0,044	0,020
-197,533	800,000	0,022	-0,064
-196,519	800,000	0,028	0,089
-195,504	-14,888	-0,049	0,023
-194,490	105,856	0,042	0,036
-193,475	-150,248	0,020	0,001
-192,460	327,620	-0,038	0,053
-191,446	283,816	-0,038	-0,050
-190,431	-115,713	0,124	0,017
-189,417	800,000	-0,026	0,082
-188,402	-95,661	-0,088	-0,017
-187,387	-71,944	-0,139	0,038
-186,373	-196,450	0,069	0,000
-185,358	-16,660	0,163	-0,075
-184,344	-44,570	-0,080	0,029
-183,329	-123,140	0,054	-0,006
-182,315	-200,000	-0,009	0,090
-181,300	381,373	-0,062	0,093
-180,285	-200,000	0,004	-0,132
-179,271	-200,000	0,018	-0,076
-178,256	800,000	0,045	-0,098
-177,242	36,246	0,064	0,041
-176,227	189,970	0,032	0,035
-175,212	48,147	0,081	-0,055
-174,198	-144,482	-0,060	-0,004
-173,183	160,877	-0,036	0,037
-172,169	-5,395	0,037	0,018
-171,154	800,000	0,073	-0,200
-170,139	52,709	0,113	0,079
-169,125	288,675	-0,036	-0,048
-168,110	-25,320	0,103	-0,044
-167,096	18,644	-0,123	0,072
-166,081	410,067	0,029	-0,046
-165,066	20,940	-0,189	-0,111
-164,052	-14,201	0,101	0,047
-163,037	800,000	0,029	-0,088
-162,023	-108,065	-0,082	0,013
-161,008	-102,996	0,084	-0,014
-159,993	43,566	-0,096	-0,064
-158,979	-200,000	0,020	0,118
-157,964	800,000	-0,023	0,062
-156,950	-74,600	-0,077	0,020
-155,935	-200,000	0,012	0,080
-154,920	38,214	0,095	0,061
-153,906	-6,308	-0,051	-0,025
-152,891	800,000	0,010	0,022
-151,877	54,253	-0,181	-0,126
-150,862	41,434	-0,097	-0,064
-149,847	800,000	0,062	-0,151
-148,833	-101,127	-0,050	0,009
-147,818	89,246	0,053	-0,043
-146,804	800,000	-0,018	0,050
-145,789	57,468	0,040	0,028
-144,775	-200,000	-0,001	0,071
-143,760	49,801	-0,075	0,051
-142,745	-200,000	-0,023	-0,097
-141,731	-194,492	-0,021	0,000
-140,716	684,408	0,041	0,079
-139,702	25,836	0,020	-0,012
-138,687	800,000	0,049	-0,131
-137,672	-200,000	0,013	-0,084
-136,658	-200,000	-0,011	-0,042
-135,643	-77,845	0,087	0,022
-134,629	234,981	-0,084	0,101
-133,614	53,993	0,095	-0,066
-132,599	-196,508	-0,160	0,001
-131,585	-63,456	-0,133	-0,040
-130,570	166,331	0,065	-0,068
-129,556	-19,703	-0,110	0,049
-128,541	-54,698	0,009	-0,003
-127,526	46,312	0,079	-0,053
-126,512	31,020	-0,083	0,051
-125,497	-200,000	0,005	0,048
-124,483	16,056	0,025	0,014
-123,468	230,304	-0,062	0,074
-122,453	130,053	0,062	0,058
-121,439	78,125	-0,112	-0,087
-120,424	-200,000	0,005	-0,147
-119,410	-80,244	-0,075	-0,018
