DTS Sentinel unit serial number:	SN410029Multiplexer serial number:	ORYXHardware model number:	OX2-SRSoftware version number:	ORYX F/W v4,00 Oryx Data Collector v3.7.2.0data status	okinstallation	B6 Nyhavnadifferential loss correction	single-endedforward channel	channel 2reverse channel	N/Adate	2023/12/10time	04:30:08forward acquisition time	300,00reverse acquisition time	0,00gamma	499,1914k internal	0,3125k external	0,3125temperature offset calibration	1,0000default loss term (dB/km)	0,3820temperature slope calibration	1,0000multiplexer offset coefficient	1,0000multiplexer slope coefficient	1,0000fibre end	0,00T internal ref (°C)	22,19T ext. ref 1 (°C)	6,25T ext. ref 2 (°C)	6,22length (m)	temperature (°C)	Stokes	anti-Stokes-744,400	-169,490	0,129	-0,003
-743,385	-40,592	-0,331	0,127
-742,371	255,858	0,085	-0,109
-741,356	-108,292	-0,161	0,026
-740,342	800,000	0,039	0,083
-739,327	92,512	-0,109	0,092
-738,312	131,667	-0,080	-0,077
-737,298	-141,175	-0,216	0,016
-736,283	178,392	0,102	-0,111
-735,269	320,126	-0,131	0,186
-734,254	800,000	0,029	-0,067
-733,239	-62,802	-0,444	-0,136
-732,225	-77,825	0,205	-0,052
-731,210	46,217	0,119	0,082
-730,196	171,004	-0,023	0,024
-729,181	351,435	0,057	-0,085
-728,167	-200,000	-0,000	-0,007
-727,152	389,415	-0,129	-0,199
-726,137	-103,225	0,090	-0,016
-725,123	144,005	-0,094	0,094
-724,108	800,000	-0,004	-0,012
-723,094	194,068	-0,171	-0,193
-722,079	-200,000	-0,044	-0,152
-721,064	239,889	0,047	-0,058
-720,050	-200,000	-0,018	-0,139
-719,035	-200,000	0,012	-0,111
-718,021	58,109	-0,053	0,039
-717,006	-119,277	-0,162	-0,021
-715,991	204,325	-0,139	-0,161
-714,977	-61,360	0,160	-0,050
-713,962	-60,006	0,049	-0,015
-712,948	23,607	-0,076	0,046
-711,933	109,609	0,014	0,012
-710,918	-200,000	0,007	0,028
-709,904	215,246	-0,055	-0,064
-708,889	-171,367	0,057	-0,001
-707,875	-37,953	-0,145	-0,057
-706,860	-166,217	-0,049	-0,002
-705,845	800,000	-0,043	0,091
-704,831	-200,000	-0,005	-0,101
-703,816	-200,000	-0,016	-0,081
-702,802	11,896	0,097	0,055
-701,787	229,208	-0,064	-0,078
-700,772	29,010	0,026	-0,016
-699,758	-59,053	-0,114	-0,036
-698,743	-74,642	0,065	0,017
-697,729	232,947	-0,120	0,147
-696,714	17,914	-0,081	0,048
-695,699	-57,343	0,067	0,022
-694,685	-200,000	0,011	0,117
-693,670	-143,488	-0,051	-0,004
-692,656	160,456	-0,049	0,051
-691,641	417,324	0,027	0,043
-690,627	-111,534	-0,062	-0,009
-689,612	-200,000	0,010	0,097
-688,597	237,971	-0,043	-0,053
-687,583	-200,000	-0,016	-0,197
-686,568	173,528	-0,097	-0,104
-685,554	107,789	-0,139	-0,123
-684,539	-200,000	-0,009	0,041
-683,524	349,432	-0,062	-0,091
-682,510	-41,116	0,081	0,031
-681,495	535,038	-0,041	-0,072
-680,481	216,191	0,038	-0,045
-679,466	-200,000	0,014	0,124
-678,451	800,000	0,025	-0,080
-677,437	-200,000	0,002	-0,049
-676,422	-118,454	0,090	-0,012
-675,408	395,350	0,014	-0,022
-674,393	97,008	-0,132	0,112
-673,378	-200,000	0,002	0,193
-672,364	230,133	-0,028	0,034
-671,349	492,158	0,033	-0,057
-670,335	131,191	0,064	0,062
-669,320	800,000	-0,028	0,069
-668,305	256,483	0,171	0,219
-667,291	-75,426	0,128	-0,034
-666,276	-152,358	-0,109	-0,006
-665,262	-200,000	0,004	0,064
-664,247	-73,160	-0,027	0,007
-663,232	-131,347	-0,143	0,014
-662,218	800,000	-0,043	0,118
-661,203	-17,637	0,084	0,039
-660,189	-163,277	-0,040	0,001
-659,174	-142,795	0,065	0,005
-658,159	800,000	-0,019	-0,054
-657,145	16,695	-0,085	-0,050
-656,130	161,610	-0,060	0,063
-655,116	10,326	0,068	-0,038
-654,101	-103,828	0,074	-0,013
-653,086	800,000	-0,051	-0,127
-652,072	387,376	-0,020	-0,031
-651,057	-47,443	0,079	-0,028
-650,043	-200,000	-0,025	-0,124
-649,028	237,663	-0,059	-0,072
-648,014	-107,496	-0,057	-0,009
-646,999	800,000	-0,038	0,106
-645,984	800,000	0,041	-0,098
-644,970	202,007	-0,072	-0,082
-643,955	800,000	-0,044	-0,109
-642,941	-200,000	-0,003	0,100
-641,926	486,743	0,041	-0,070
-640,911	157,449	0,101	0,104
-639,897	-88,585	-0,054	-0,012
-638,882	800,000	0,016	-0,036
-637,868	-181,718	-0,077	-0,001
-636,853	-200,000	0,004	-0,044
-635,838	-200,000	-0,026	-0,112
-634,824	64,258	0,060	0,045
-633,809	-200,000	-0,011	0,122
-632,795	49,056	0,040	-0,028
-631,780	300,006	0,041	0,057
-630,765	-86,179	-0,062	0,014
-629,751	73,822	-0,068	-0,053
-628,736	-200,000	-0,004	-0,221
-627,722	35,713	0,034	0,022
-626,707	489,038	0,029	0,049
-625,692	-200,000	0,012	0,143
-624,678	312,682	0,038	-0,053
-623,663	-33,970	-0,065	0,027
-622,649	-200,000	-0,001	-0,080
-621,634	-100,737	-0,190	-0,034
-620,619	-200,000	0,012	0,114
-619,605	800,000	0,030	-0,069
-618,590	100,670	-0,058	0,050
-617,576	184,217	0,057	-0,063
-616,561	-200,000	-0,011	-0,038
-615,546	0,277	-0,034	0,018
-614,532	120,589	-0,019	-0,018
-613,517	800,000	0,033	0,070
-612,503	-112,157	-0,079	-0,012
-611,488	-176,069	0,130	-0,002
-610,474	-90,859	-0,073	-0,015
-609,459	800,000	0,015	0,038
-608,444	-200,000	0,024	-0,087
-607,430	-18,166	-0,078	-0,036
-606,415	51,375	-0,055	0,038
-605,401	-5,395	0,142	0,072
-604,386	-106,668	-0,025	0,004
-603,371	-200,000	0,013	0,081
-602,357	800,000	-0,026	0,078
-601,342	11,348	0,113	0,064
-600,328	800,000	-0,013	-0,037
-599,313	581,778	0,032	-0,059
-598,298	95,094	0,136	0,115
-597,284	-157,205	0,047	0,002
-596,269	378,181	0,125	0,189
-595,255	-200,000	0,010	0,098
-594,240	190,386	-0,029	0,032
-593,225	-200,000	0,000	-0,029
-592,211	-200,000	-0,015	-0,162
-591,196	328,436	-0,058	-0,083
-590,182	-103,932	-0,057	-0,010
-589,167	188,729	0,022	-0,025
-588,152	-200,000	-0,012	-0,107
-587,138	-120,388	-0,120	-0,015
-586,123	-200,000	0,032	-0,149
-585,109	-127,358	-0,058	-0,006
-584,094	247,186	0,093	0,117
-583,079	800,000	0,074	-0,161
-582,065	-200,000	-0,003	0,044
-581,050	-118,615	-0,147	0,019
-580,036	-200,000	-0,068	0,224
-579,021	-200,000	-0,011	-0,089
-578,006	126,653	-0,057	0,053
-576,992	142,103	-0,035	0,034
-575,977	123,856	0,108	-0,100
-574,963	-200,000	-0,009	0,040
-573,948	239,170	0,038	-0,047
-572,934	-3,680	0,077	0,039
-571,919	145,793	-0,087	-0,087
-570,904	-7,999	-0,056	-0,028
-569,890	-71,735	0,056	-0,015
-568,875	-91,084	0,061	0,013
-567,861	17,580	-0,107	0,063
-566,846	311,261	0,033	0,046
-565,831	592,090	-0,023	0,041
-564,817	-170,005	-0,080	0,002
-563,802	82,281	-0,075	-0,060
-562,788	800,000	0,036	-0,075
-561,773	229,926	0,014	-0,017
-560,758	-200,000	0,001	0,062
-559,744	-200,000	-0,000	-0,002
-558,729	29,360	0,047	-0,029
-557,715	-117,236	-0,037	-0,005
-556,700	-68,923	0,076	0,021
-555,685	-200,000	0,007	-0,124
-554,671	-200,000	-0,004	-0,149
-553,656	-14,799	0,067	0,032
-552,642	800,000	-0,022	0,065
-551,627	-12,766	0,058	-0,028
-550,612	427,735	-0,038	-0,060
-549,598	-200,000	-0,012	-0,055
-548,583	248,770	0,046	-0,057
-547,569	342,485	0,035	0,051
-546,554	3,793	-0,072	0,039
-545,539	454,601	-0,090	0,148
-544,525	800,000	0,020	0,065
-543,510	800,000	-0,017	-0,049
-542,496	168,654	-0,038	-0,040
-541,481	-94,992	-0,064	-0,013
-540,466	653,185	-0,025	-0,048
-539,452	-200,000	-0,014	0,127
-538,437	364,824	0,019	0,028
-537,423	-185,976	0,079	-0,001
-536,408	685,388	-0,022	-0,043
-535,393	-200,000	-0,007	-0,037
-534,379	-102,395	-0,073	0,013
-533,364	-200,000	0,004	0,031
-532,350	-200,000	0,028	0,124
-531,335	-200,000	0,000	-0,046
-530,321	475,444	0,071	0,119
-529,306	-200,000	-0,012	-0,161
-528,291	96,185	-0,076	0,064
-527,277	647,766	0,042	-0,081
-526,262	-138,790	-0,062	-0,005
-525,248	234,645	-0,011	0,014
-524,233	-200,000	0,003	0,130
-523,218	800,000	-0,038	-0,103
-522,204	87,283	-0,112	-0,091
-521,189	-96,748	-0,080	-0,015
-520,175	-87,376	-0,047	-0,010
-519,160	84,354	0,041	-0,033
-518,145	259,075	-0,051	0,064
-517,131	170,308	0,013	0,014
-516,116	-129,103	0,063	0,006
-515,102	-200,000	-0,045	0,191
-514,087	-156,229	0,061	-0,003
-513,072	-3,632	-0,130	-0,067
-512,058	-30,938	0,068	0,028
-511,043	-29,870	-0,110	0,046
-510,029	800,000	0,048	0,139
-509,014	182,302	0,127	0,138
-507,999	-200,000	0,005	0,044
-506,985	484,336	-0,039	0,066
-505,970	-68,665	-0,127	0,036
-504,956	139,886	0,105	0,102
-503,941	498,140	0,037	0,064
-502,926	-200,000	-0,007	0,073
-501,912	-200,000	0,013	0,052
-500,897	144,386	-0,036	0,035
-499,883	-200,000	-0,001	0,042
-498,868	-200,000	0,008	0,053
-497,853	-9,957	-0,033	-0,016
-496,839	30,176	-0,045	-0,028
-495,824	103,538	0,222	0,192
-494,810	-172,197	0,153	-0,004
-493,795	186,369	-0,142	0,156
-492,781	140,471	0,021	0,021
-491,766	-200,000	-0,030	-0,115
-490,751	-38,813	0,122	-0,047
-489,737	208,872	-0,008	-0,009
-488,722	167,749	0,023	-0,024
-487,708	-200,000	-0,005	0,103
-486,693	800,000	-0,040	0,119
-485,678	-6,437	0,089	0,044
-484,664	669,969	-0,039	-0,076
-483,649	800,000	0,045	0,116
-482,635	-26,927	0,270	0,116
-481,620	287,873	-0,052	-0,069
-480,605	66,965	0,016	0,012
-479,591	-200,000	0,015	0,158
-478,576	-38,916	-0,057	-0,022
-477,562	167,671	0,061	0,064
-476,547	29,367	-0,039	-0,024
-475,532	-200,000	0,008	-0,119
-474,518	30,817	0,026	-0,017
-473,503	67,854	0,081	-0,061
-472,489	52,398	-0,081	-0,057
-471,474	208,178	0,040	0,046
-470,459	232,044	-0,079	0,096
-469,445	800,000	0,047	0,136
-468,430	255,872	-0,070	-0,088
-467,416	56,675	0,102	0,073
-466,401	-200,000	0,010	0,090
-465,386	12,132	0,123	0,070
-464,372	125,804	0,080	-0,075
-463,357	41,677	-0,109	-0,072
-462,343	353,856	-0,060	0,089
-461,328	-119,782	0,051	0,006
-460,313	123,395	0,072	0,067
-459,299	35,862	0,136	0,088
-458,284	593,650	0,040	0,073
-457,270	-19,043	0,098	0,044
-456,255	800,000	-0,064	0,133
-455,241	-200,000	0,019	-0,066
-454,226	-26,393	-0,073	0,031
-453,211	-101,496	0,071	-0,013
-452,197	-200,000	-0,005	0,093
-451,182	-200,000	0,027	0,171
-450,168	86,126	0,095	0,077
-449,153	63,373	-0,097	0,072
-448,138	-144,715	-0,139	0,009
-447,124	-122,045	-0,089	-0,011
-446,109	-200,000	-0,004	-0,079
-445,095	79,983	-0,028	0,022
-444,080	-123,440	0,094	0,011
-443,065	648,671	-0,016	-0,031
-442,051	-200,000	-0,005	-0,047
-441,036	800,000	-0,026	-0,058
-440,022	38,316	0,080	0,052
-439,007	800,000	-0,011	-0,023
-437,992	5,855	-0,060	-0,032
-436,978	-105,405	-0,121	-0,020
-435,963	-120,484	0,045	0,006
-434,949	214,787	-0,071	0,083
-433,934	-138,424	-0,063	-0,005
-432,919	-127,962	0,045	0,005
-431,905	77,414	-0,027	-0,021
-430,890	132,562	-0,046	0,044
-429,876	-200,000	0,013	0,107
-428,861	356,766	0,065	0,095
-427,846	306,400	-0,019	-0,026
-426,832	107,393	0,053	0,046
-425,817	119,842	-0,090	-0,082
-424,803	-200,000	-0,010	0,057
-423,788	-146,954	-0,047	0,003
-422,773	691,066	-0,031	-0,060
-421,759	-200,000	-0,016	-0,126
-420,744	-200,000	0,007	-0,097
-419,730	800,000	-0,010	-0,024
-418,715	189,204	0,005	0,006
-417,701	755,980	0,051	0,101
-416,686	-24,292	0,029	-0,013
-415,671	800,000	-0,043	0,127
-414,657	-200,000	-0,021	0,095
-413,642	24,610	0,072	-0,044
-412,628	237,374	-0,030	0,036
-411,613	-36,131	-0,052	-0,021
-410,598	-200,000	-0,020	-0,111
-409,584	66,334	0,027	0,020
-408,569	800,000	0,017	-0,037
-407,555	-48,465	0,109	-0,038
-406,540	-200,000	-0,011	0,063
-405,525	-32,347	-0,083	-0,034
-404,511	-32,366	-0,123	0,050
-403,496	177,962	0,082	0,088
-402,482	-51,692	0,256	-0,087
-401,467	-200,000	-0,027	0,140
-400,452	-154,404	-0,036	0,002
-399,438	82,885	0,080	0,064
-398,423	236,190	-0,082	0,100
-397,409	-40,314	0,114	0,043
-396,394	179,327	-0,055	-0,059
-395,379	-31,276	0,048	-0,020
-394,365	606,199	0,012	-0,022
-393,350	-147,276	0,121	-0,007
-392,336	-114,317	0,055	0,008
-391,321	-200,000	0,016	0,138
-390,306	800,000	0,019	0,052
-389,292	-37,741	-0,053	-0,021
-388,277	385,721	0,070	-0,107
-387,263	-43,092	-0,131	0,049
-386,248	198,330	0,020	-0,022
-385,233	-78,022	0,071	-0,018
-384,219	331,435	0,026	0,036
-383,204	-200,000	-0,013	-0,081
-382,190	342,985	-0,053	-0,076
-381,175	-168,570	-0,066	-0,002
-380,160	-200,000	0,004	-0,073
-379,146	17,597	-0,143	0,083
-378,131	-112,990	0,106	-0,015
-377,117	-30,390	0,078	-0,032
-376,102	482,225	-0,023	-0,039
-375,088	85,547	-0,063	0,051
-374,073	-200,000	-0,014	-0,074
-373,058	-200,000	-0,003	0,116
-372,044	49,035	0,104	-0,072
-371,029	331,434	0,038	0,054
-370,015	-200,000	-0,002	0,111
-369,000	261,855	0,076	-0,096
-367,985	-17,062	0,044	-0,020
-366,971	330,890	0,067	-0,096
-365,956	109,920	0,024	-0,021
-364,942	481,159	0,056	-0,093
-363,927	-90,368	0,164	-0,035
-362,912	109,054	-0,054	-0,047
-361,898	124,380	0,075	-0,069
-360,883	-63,603	-0,071	0,021
-359,869	-200,000	0,007	-0,061
-358,854	800,000	0,040	0,110
-357,839	206,013	0,097	-0,111
-356,825	-37,790	-0,015	0,006
-355,810	800,000	-0,012	-0,035
-354,796	-124,595	0,046	0,005
-353,781	-200,000	-0,002	0,054
-352,766	-70,280	-0,125	-0,035
-351,752	800,000	-0,018	-0,054
-350,737	-86,181	0,024	0,005
-349,723	-200,000	-0,016	0,063
-348,708	-151,894	-0,088	0,005
-347,693	89,598	-0,086	-0,070
-346,679	-159,090	-0,084	-0,003
-345,664	8,832	-0,057	-0,031
-344,650	-113,746	-0,104	-0,015
-343,635	-37,877	0,073	0,028
-342,620	201,750	0,070	0,079
-341,606	-200,000	0,001	0,080
-340,591	800,000	-0,076	0,160
-339,577	-146,872	-0,257	0,016
-338,562	-122,121	-0,140	-0,017
-337,548	-5,235	-0,074	0,037
-336,533	-200,000	-0,023	0,076
-335,518	495,353	0,108	0,183
-334,504	55,629	-0,143	-0,101
-333,489	-200,000	-0,020	0,075
-332,475	-109,824	0,074	-0,011
-331,460	-153,249	-0,161	-0,008
-330,445	-200,000	-0,024	0,117
-329,431	114,718	-0,059	0,052
-328,416	-200,000	-0,020	-0,103
-327,402	-10,525	0,021	-0,010
-326,387	328,848	0,056	0,078
-325,372	800,000	0,033	-0,100
-324,358	100,402	-0,156	-0,133
-323,343	-86,880	0,030	-0,007
-322,329	6,356	-0,053	0,029
-321,314	-119,312	0,116	-0,015
-320,299	-43,297	0,081	0,030
-319,285	466,136	0,105	-0,173
-318,270	-200,000	-0,017	-0,077
-317,256	129,149	0,020	0,019
-316,241	60,375	-0,051	-0,037
-315,226	24,997	0,061	-0,037
-314,212	-200,000	0,017	-0,120
-313,197	-200,000	-0,000	-0,066
-312,183	379,971	0,019	-0,028
-311,168	279,094	-0,037	-0,048
-310,153	-80,004	-0,056	-0,014
-309,139	129,405	0,073	-0,068
-308,124	558,990	-0,045	0,080
-307,110	105,899	0,115	-0,100
-306,095	-33,905	0,133	0,054
-305,080	-200,000	0,011	-0,064
-304,066	53,396	0,099	-0,070
-303,051	-200,000	-0,003	-0,057
-302,037	800,000	0,112	0,247
-301,022	-200,000	-0,037	-0,133
-300,008	-41,765	-0,059	0,022
-298,993	800,000	0,056	0,119
-297,978	-109,914	-0,075	-0,011
-296,964	-21,597	0,050	-0,022
-295,949	213,305	-0,042	-0,048
-294,935	800,000	-0,013	-0,031
-293,920	743,003	-0,028	-0,056
-292,905	19,896	0,130	0,076
-291,891	-200,000	0,019	-0,080
-290,876	-200,000	0,029	0,098
-289,862	-112,032	0,036	0,005
-288,847	-200,000	0,010	-0,040
-287,832	-5,701	-0,052	-0,026
-286,818	-69,885	0,093	0,026
-285,803	145,488	-0,037	0,037
-284,789	-158,699	0,034	0,001
-283,774	800,000	0,034	0,071
-282,759	-200,000	-0,028	0,143
-281,745	-200,000	0,000	-0,098
-280,730	2,567	0,043	0,023
-279,716	-28,219	-0,092	-0,039
-278,701	-3,309	-0,077	0,039
-277,686	-34,685	0,111	-0,044
-276,672	421,225	0,045	0,070
-275,657	-200,000	0,013	-0,100
-274,643	-96,718	-0,025	-0,005
-273,628	-200,000	0,024	-0,164
-272,613	0,472	0,094	-0,049
-271,599	-100,772	0,105	0,019
-270,584	109,405	-0,057	-0,050
-269,570	-200,000	0,005	0,112
-268,555	-16,867	0,052	-0,024
-267,540	-119,827	0,046	0,006
-266,526	119,755	-0,092	0,083
-265,511	-200,000	-0,011	-0,043
-264,497	800,000	0,067	-0,155
-263,482	-200,000	-0,002	-0,093
-262,467	42,064	0,021	0,014
-261,453	209,657	-0,039	-0,045
-260,438	-106,827	-0,052	-0,008
-259,424	800,000	-0,028	-0,060
-258,409	71,109	-0,173	-0,131
-257,395	133,993	-0,035	-0,033
-256,380	-200,000	-0,003	-0,041
-255,365	365,693	0,053	0,078
-254,351	62,507	-0,184	-0,134
-253,336	-200,000	0,004	-0,028
-252,322	369,014	0,073	0,108
-251,307	344,381	-0,034	-0,049
-250,292	320,692	0,105	-0,146
-249,278	-189,655	0,042	0,000
-248,263	-200,000	0,015	0,075
-247,249	123,300	0,035	0,032
-246,234	-126,920	-0,128	0,014
-245,219	-38,237	-0,167	0,064
-244,205	-200,000	0,002	-0,083
-243,190	279,178	0,030	-0,039
-242,176	-200,000	0,005	0,097
-241,161	-200,000	0,006	-0,052
-240,146	-200,000	-0,013	0,069
-239,132	-200,000	-0,019	-0,086
-238,117	-200,000	0,001	-0,077
-237,103	115,798	0,031	-0,028
-236,088	303,143	-0,067	-0,091
-235,073	436,778	0,043	-0,068
-234,059	-200,000	0,007	-0,044
-233,044	227,063	0,068	-0,081
-232,030	20,094	-0,097	-0,057
-231,015	-200,000	-0,007	-0,081
-230,000	361,111	-0,059	-0,086
-228,986	109,098	-0,055	-0,048
-227,971	116,698	-0,079	0,070
-226,957	80,695	0,036	0,029
-225,942	-36,876	-0,090	-0,035
-224,927	338,928	0,042	-0,060
-223,913	266,990	-0,086	-0,110
-222,898	143,337	-0,062	-0,061
-221,884	22,479	-0,035	0,021
-220,869	84,392	-0,012	-0,010
-219,855	-200,000	0,024	-0,089
-218,840	-70,319	-0,066	-0,018
-217,825	-200,000	-0,003	-0,041
-216,811	800,000	0,066	-0,202
-215,796	-200,000	0,015	-0,153
-214,782	-60,916	0,129	-0,040
-213,767	-35,917	-0,117	0,046
-212,752	361,455	0,083	0,121
-211,738	127,877	0,119	-0,110
-210,723	46,932	-0,064	-0,043
-209,709	800,000	-0,038	-0,094
-208,694	-83,289	-0,110	-0,025
-207,679	-148,044	-0,147	-0,009
-206,665	800,000	0,061	0,176
-205,650	-169,128	-0,008	0,000
-204,636	0,228	0,050	-0,026
-203,621	229,040	0,053	-0,063
-202,606	-14,193	0,111	0,052
-201,592	-200,000	-0,013	-0,057
-200,577	12,042	-0,078	-0,044
-199,563	186,156	0,076	0,083
-198,548	-62,029	0,151	-0,046
-197,533	-157,080	-0,106	0,005
-196,519	151,915	-0,044	-0,043
-195,504	-91,634	-0,119	-0,025
-194,490	-200,000	0,023	-0,088
-193,475	338,037	0,042	0,060
-192,460	698,100	0,028	-0,055
-191,446	-169,969	-0,089	0,002
-190,431	131,043	-0,032	0,030
-189,417	-163,995	0,042	0,001
-188,402	-99,728	0,098	0,018
-187,387	-118,388	0,117	0,015
-186,373	-200,000	-0,009	-0,036
-185,358	119,141	0,049	-0,044
-184,344	-133,739	0,072	0,006
-183,329	82,368	-0,053	0,042
-182,315	-198,795	-0,078	-0,000
-181,300	57,629	0,078	0,056
-180,285	-10,652	-0,075	-0,036
-179,271	130,189	-0,121	-0,113
-178,256	-200,000	0,000	-0,034
-177,242	-200,000	-0,002	0,038
-176,227	116,279	0,048	0,043
-175,212	-11,091	0,039	0,019
-174,198	-200,000	-0,005	-0,018
-173,183	-89,133	-0,035	-0,008
-172,169	81,746	-0,075	0,059
-171,154	-42,163	-0,072	-0,027
-170,139	800,000	-0,027	0,064
-169,125	182,035	0,053	0,057
-168,110	22,136	0,033	-0,019
-167,096	248,676	-0,099	0,122
-166,081	-200,000	0,003	0,029
-165,066	13,480	0,081	-0,046
-164,052	-200,000	0,025	0,162
-163,037	800,000	0,028	0,071
-162,023	13,310	0,120	-0,067
-161,008	-142,997	-0,124	0,009
-159,993	127,635	0,047	-0,043
-158,979	-200,000	0,009	0,041
-157,964	800,000	-0,041	-0,103
-156,950	-31,716	-0,017	-0,007
-155,935	169,594	0,094	-0,097
-154,920	-67,238	0,047	0,013
-153,906	-200,000	0,021	0,112
-152,891	-200,000	-0,006	0,024
-151,877	800,000	-0,064	-0,137
-150,862	800,000	-0,028	-0,062
-149,847	-200,000	0,015	-0,101
-148,833	-79,770	-0,090	0,022
-147,818	-45,448	0,115	0,041
-146,804	83,553	0,039	0,031
-145,789	8,307	-0,053	0,029
-144,775	800,000	0,046	-0,117
-143,760	800,000	0,037	-0,080
-142,745	-200,000	0,007	0,117
-141,731	671,749	0,079	0,150
-140,716	800,000	-0,068	0,149
-139,702	23,405	0,025	0,015
-138,687	622,366	-0,043	-0,079
-137,672	800,000	0,010	0,021
-136,658	238,053	-0,069	0,084
-135,643	-200,000	0,002	0,071
-134,629	-200,000	-0,017	0,069
-133,614	800,000	0,036	0,104
-132,599	277,710	0,053	-0,069
-131,585	227,120	-0,153	0,181
-130,570	14,988	0,071	0,040
-129,556	-200,000	0,013	0,072
-128,541	163,231	-0,132	0,136
-127,526	-127,397	-0,101	-0,011
-126,512	-53,465	-0,010	0,003
-125,497	-200,000	-0,008	-0,030
-124,483	-200,000	0,007	0,051
-123,468	-80,636	0,022	-0,005
-122,453	800,000	0,012	-0,028
-121,439	-67,197	-0,116	-0,033
-120,424	-84,544	-0,126	-0,029
