DTS Sentinel unit serial number:	SN410029Multiplexer serial number:	ORYXHardware model number:	OX2-SRSoftware version number:	ORYX F/W v4,00 Oryx Data Collector v3.7.2.0data status	okinstallation	B6 Nyhavnadifferential loss correction	single-endedforward channel	channel 2reverse channel	N/Adate	2023/12/10time	12:15:08forward acquisition time	300,00reverse acquisition time	0,00gamma	499,1914k internal	0,3123k external	0,3123temperature offset calibration	1,0000default loss term (dB/km)	0,3820temperature slope calibration	1,0000multiplexer offset coefficient	1,0000multiplexer slope coefficient	1,0000fibre end	0,00T internal ref (°C)	22,77T ext. ref 1 (°C)	6,67T ext. ref 2 (°C)	6,68length (m)	temperature (°C)	Stokes	anti-Stokes-744,400	-200,000	-0,055	-0,198
-743,385	-68,582	-0,206	0,059
-742,371	-63,854	0,098	0,030
-741,356	49,093	-0,170	0,119
-740,342	585,753	0,011	0,020
-739,327	-48,950	-0,266	0,094
-738,312	-200,000	0,004	-0,040
-737,298	-107,261	-0,184	0,030
-736,283	-0,497	0,047	-0,025
-735,269	-99,500	-0,184	0,034
-734,254	34,283	0,043	-0,028
-733,239	-54,448	-0,382	-0,128
-732,225	-200,000	-0,031	-0,130
-731,210	-200,000	-0,020	0,068
-730,196	-74,458	-0,078	-0,021
-729,181	-140,174	-0,043	0,003
-728,167	449,271	0,044	-0,073
-727,152	69,671	0,073	-0,056
-726,137	-200,000	-0,062	-0,231
-725,123	139,001	-0,105	-0,103
-724,108	629,670	-0,071	-0,134
-723,094	-200,000	-0,010	-0,121
-722,079	-200,000	0,007	-0,052
-721,064	81,820	0,053	-0,043
-720,050	27,229	-0,112	0,070
-719,035	800,000	-0,031	-0,067
-718,021	360,427	-0,080	0,119
-717,006	-200,000	-0,049	0,000
-715,991	24,824	-0,109	-0,067
-714,977	800,000	-0,049	-0,116
-713,962	32,291	-0,113	0,073
-712,948	-200,000	-0,035	0,158
-711,933	-125,004	0,062	0,007
-710,918	-200,000	0,011	0,044
-709,904	-200,000	-0,028	-0,111
-708,889	83,667	-0,060	-0,049
-707,875	800,000	-0,002	0,005
-706,860	63,992	0,043	0,032
-705,845	115,524	0,068	-0,062
-704,831	187,403	-0,088	0,098
-703,816	-200,000	-0,023	-0,114
-702,802	463,715	-0,068	-0,114
-701,787	-200,000	-0,003	0,085
-700,772	-110,197	-0,037	-0,006
-699,758	-200,000	0,010	0,047
-698,743	-200,000	-0,005	0,103
-697,729	-87,740	-0,118	-0,026
-696,714	118,217	0,051	-0,047
-695,699	545,504	-0,027	0,048
-694,685	-166,306	-0,109	0,003
-693,670	163,104	0,085	-0,089
-692,656	-200,000	0,012	-0,044
-691,641	800,000	-0,010	-0,021
-690,627	51,071	0,042	-0,029
-689,612	800,000	-0,076	0,166
-688,597	-154,450	0,132	0,006
-687,583	580,051	-0,024	0,044
-686,568	-200,000	0,012	-0,061
-685,554	800,000	0,016	-0,043
-684,539	-200,000	-0,010	0,048
-683,524	219,076	0,093	-0,111
-682,510	71,586	0,158	0,122
-681,495	198,413	-0,084	0,096
-680,481	-123,337	-0,160	-0,019
-679,466	70,672	-0,050	-0,038
-678,451	392,988	-0,038	-0,059
-677,437	-23,829	0,072	0,032
-676,422	99,214	0,071	-0,061
-675,408	-70,309	-0,144	-0,040
-674,393	-200,000	-0,006	0,040
-673,378	-132,305	-0,073	-0,007
-672,364	26,719	-0,089	-0,055
-671,349	384,487	0,035	0,054
-670,335	-200,000	-0,022	0,073
-669,320	-200,000	0,005	0,039
-668,305	167,328	-0,023	-0,025
-667,291	472,200	0,031	0,052
-666,276	55,497	-0,024	0,017
-665,262	228,470	-0,066	-0,081
-664,247	800,000	-0,047	0,123
-663,232	254,775	-0,058	0,073
-662,218	349,103	-0,042	0,062
-661,203	800,000	0,005	-0,013
-660,189	-20,121	0,068	0,031
-659,174	587,545	0,054	-0,098
-658,159	-200,000	-0,019	0,072
-657,145	-200,000	-0,031	-0,123
-656,130	-50,339	0,093	0,033
-655,116	-200,000	0,001	-0,072
-654,101	800,000	-0,031	0,086
-653,086	529,673	0,004	-0,007
-652,072	752,444	-0,029	-0,059
-651,057	-200,000	0,008	-0,070
-650,043	161,653	-0,073	-0,075
-649,028	-72,160	-0,061	-0,017
-648,014	-200,000	0,054	0,208
-646,999	-5,433	0,087	-0,044
-645,984	-200,000	-0,022	0,074
-644,970	305,195	-0,070	0,097
-643,955	-63,659	-0,078	-0,024
-642,941	-100,593	0,106	0,019
-641,926	-68,514	0,031	0,009
-640,911	-200,000	-0,011	0,182
-639,897	-200,000	-0,014	0,080
-638,882	800,000	-0,056	-0,180
-637,868	660,992	-0,036	-0,070
-636,853	-72,945	-0,149	-0,040
-635,838	594,181	0,051	-0,093
-634,824	-200,000	0,011	0,077
-633,809	-41,358	-0,033	0,013
-632,795	-152,715	0,111	0,006
-631,780	655,024	-0,059	-0,112
-630,765	800,000	0,037	-0,092
-629,751	174,573	-0,016	-0,017
-628,736	85,897	0,092	-0,075
-627,722	-69,268	-0,157	-0,044
-626,707	800,000	0,050	-0,136
-625,692	800,000	0,031	0,091
-624,678	-138,360	-0,131	0,011
-623,663	75,014	0,041	-0,032
-622,649	166,272	-0,083	-0,087
-621,634	55,419	-0,099	0,071
-620,619	-200,000	0,019	-0,073
-619,605	-200,000	0,053	-0,173
-618,590	-25,623	0,098	0,043
-617,576	21,227	0,101	0,061
-616,561	-200,000	-0,011	-0,115
-615,546	71,600	-0,056	0,043
-614,532	-85,304	-0,078	0,018
-613,517	-71,520	-0,058	-0,016
-612,503	-59,647	0,073	-0,023
-611,488	302,251	0,023	-0,031
-610,474	369,644	0,065	-0,098
-609,459	800,000	-0,044	0,134
-608,444	231,066	-0,059	-0,072
-607,430	35,451	-0,073	-0,047
-606,415	47,961	-0,077	-0,053
-605,401	11,208	-0,069	-0,039
-604,386	11,887	0,048	0,027
-603,371	-200,000	0,012	0,084
-602,357	-200,000	-0,008	-0,121
-601,342	-200,000	0,036	-0,123
-600,328	597,489	-0,080	-0,147
-599,313	-112,764	0,050	-0,007
-598,298	800,000	0,026	0,079
-597,284	-8,682	-0,049	0,024
-596,269	-200,000	-0,006	-0,037
-595,255	-80,718	0,070	0,017
-594,240	235,468	0,021	0,026
-593,225	-200,000	-0,013	-0,088
-592,211	244,167	-0,088	-0,110
-591,196	712,586	0,040	0,079
-590,182	3,552	0,031	0,017
-589,167	-200,000	0,019	0,108
-588,152	480,563	-0,047	-0,079
-587,138	-18,288	-0,061	-0,028
-586,123	800,000	0,021	-0,061
-585,109	-200,000	-0,006	-0,021
-584,094	116,736	0,057	-0,051
-583,079	-154,588	-0,105	-0,005
-582,065	-34,685	-0,108	0,043
-581,050	489,596	0,053	-0,091
-580,036	-200,000	-0,030	-0,112
-579,021	86,797	-0,052	-0,043
-578,006	111,882	0,054	-0,048
-576,992	-53,694	-0,025	0,008
-575,977	35,931	0,017	-0,011
-574,963	-200,000	-0,001	-0,036
-573,948	32,894	0,058	0,037
-572,934	190,676	-0,039	0,043
-571,919	129,611	-0,112	-0,106
-570,904	517,988	0,096	-0,168
-569,890	-200,000	-0,015	0,060
-568,875	-56,665	0,088	0,029
-567,861	-48,220	0,119	0,042
-566,846	63,855	0,093	-0,069
-565,831	373,484	0,039	0,059
-564,817	140,665	-0,069	-0,067
-563,802	-124,196	-0,086	-0,010
-562,788	49,358	0,077	-0,053
-561,773	800,000	-0,039	-0,114
-560,758	45,383	-0,079	-0,054
-559,744	82,641	-0,092	-0,074
-558,729	-200,000	-0,009	-0,036
-557,715	-185,970	-0,023	0,000
-556,700	800,000	-0,079	0,163
-555,685	28,022	0,151	-0,094
-554,671	798,542	0,063	-0,130
-553,656	800,000	0,041	0,104
-552,642	800,000	-0,024	-0,064
-551,627	800,000	-0,050	0,153
-550,612	127,216	-0,017	0,016
-549,598	-94,288	0,101	0,020
-548,583	-115,468	-0,061	0,008
-547,569	-49,159	-0,038	0,013
-546,554	-153,766	0,139	-0,007
-545,539	-154,663	-0,068	0,003
-544,525	-102,051	-0,109	-0,019
-543,510	45,821	0,092	0,063
-542,496	-200,000	0,006	-0,118
-541,481	31,411	-0,116	0,073
-540,466	148,096	0,008	-0,008
-539,452	-200,000	0,030	-0,108
-538,437	-64,367	0,158	0,047
-537,423	499,398	-0,027	-0,047
-536,408	800,000	0,022	-0,067
-535,393	-77,032	0,064	-0,016
-534,379	-24,680	0,081	-0,035
-533,364	352,635	0,088	-0,130
-532,350	-102,798	0,089	0,016
-531,335	800,000	-0,027	-0,055
-530,321	-200,000	0,005	-0,072
-529,306	-34,881	-0,078	-0,031
-528,291	800,000	-0,036	-0,079
-527,277	58,049	-0,076	-0,055
-526,262	-116,079	-0,081	0,011
-525,248	-200,000	0,013	-0,095
-524,233	-9,349	0,094	-0,046
-523,218	800,000	0,024	0,062
-522,204	276,935	0,111	0,146
-521,189	800,000	-0,024	-0,058
-520,175	-135,209	-0,062	-0,005
-519,160	155,246	-0,055	-0,056
-518,145	509,460	0,051	0,089
-517,131	-200,000	0,024	0,104
-516,116	305,893	-0,030	-0,041
-515,102	-31,834	0,132	0,054
-514,087	628,558	-0,067	0,126
-513,072	-200,000	-0,002	0,056
-512,058	-200,000	0,003	0,188
-511,043	-104,224	-0,037	-0,006
-510,029	68,361	-0,058	0,044
-509,014	199,953	0,018	0,020
-507,999	800,000	-0,051	-0,115
-506,985	182,765	0,066	0,072
-505,970	59,050	0,025	-0,018
-504,956	800,000	0,041	0,111
-503,941	327,389	-0,082	-0,116
-502,926	-53,421	-0,201	-0,068
-501,912	40,507	-0,063	0,042
-500,897	527,584	-0,079	0,138
-499,883	221,264	-0,068	0,081
-498,868	-57,814	-0,069	0,022
-497,853	800,000	-0,028	0,072
-496,839	222,940	-0,031	-0,037
-495,824	-120,935	0,053	-0,006
-494,810	374,597	0,037	0,055
-493,795	35,603	0,045	0,029
-492,781	-5,086	0,037	0,019
-491,766	-200,000	-0,025	0,161
-490,751	-170,672	0,029	-0,001
-489,737	800,000	-0,015	-0,044
-488,722	169,318	0,042	-0,045
-487,708	-200,000	0,012	0,130
-486,693	-17,292	0,026	0,012
-485,678	60,262	-0,204	-0,148
-484,664	800,000	-0,032	-0,078
-483,649	-77,541	-0,085	-0,021
-482,635	39,782	0,035	-0,023
-481,620	7,291	0,077	-0,043
-480,605	800,000	0,081	0,171
-479,591	-99,902	-0,060	0,011
-478,576	-200,000	0,009	0,060
-477,562	-200,000	-0,008	0,047
-476,547	800,000	-0,062	-0,185
-475,532	-156,834	-0,075	0,003
-474,518	800,000	-0,029	-0,078
-473,503	167,896	0,025	0,027
-472,489	153,129	-0,073	0,073
-471,474	186,675	0,087	-0,096
-470,459	-18,339	-0,130	-0,060
-469,445	-92,033	0,052	0,011
-468,430	375,992	-0,025	-0,038
-467,416	-154,735	0,058	0,003
-466,401	-47,003	0,033	-0,012
-465,386	800,000	-0,044	0,091
-464,372	-91,948	-0,066	-0,014
-463,357	59,228	-0,078	0,056
-462,343	-38,277	-0,101	-0,039
-461,328	-200,000	-0,012	-0,112
-460,313	800,000	0,055	-0,116
-459,299	473,270	0,010	-0,017
-458,284	-28,004	-0,046	-0,020
-457,270	12,661	-0,077	-0,044
-456,255	-200,000	0,032	0,119
-455,241	44,367	-0,169	-0,114
-454,226	62,181	-0,067	-0,049
-453,211	49,908	-0,028	0,019
-452,197	107,661	0,059	0,052
-451,182	476,366	0,035	0,059
-450,168	77,334	-0,042	0,033
-449,153	800,000	-0,042	-0,108
-448,138	122,731	0,049	0,045
-447,124	308,536	-0,066	0,091
-446,109	489,502	0,021	0,036
-445,095	182,618	0,026	0,028
-444,080	-123,031	0,104	-0,012
-443,065	-34,526	-0,029	0,012
-442,051	738,828	0,050	0,100
-441,036	595,661	-0,091	0,167
-440,022	800,000	0,019	0,046
-439,007	-40,984	0,138	0,052
-437,992	-123,264	0,107	-0,012
-436,978	-56,109	0,056	0,018
-435,963	40,098	-0,053	0,035
-434,949	69,539	-0,105	0,080
-433,934	-200,000	-0,014	0,061
-432,919	-118,506	-0,060	-0,008
-431,905	-42,820	0,087	0,033
-430,890	-104,552	-0,099	-0,017
-429,876	-121,861	0,066	-0,008
-428,861	-200,000	0,007	0,039
-427,846	-79,789	0,114	0,028
-426,832	-200,000	-0,017	-0,124
-425,817	29,950	-0,033	-0,021
-424,803	92,060	-0,047	-0,039
-423,788	48,726	-0,069	0,048
-422,773	277,720	0,023	-0,030
-421,759	252,372	-0,021	0,027
-420,744	329,789	0,057	0,081
-419,730	-200,000	0,008	-0,032
-418,715	163,983	0,037	-0,039
-417,701	95,527	-0,058	-0,048
-416,686	800,000	0,046	-0,132
-415,671	-114,911	0,084	0,012
-414,657	491,783	-0,040	-0,067
-413,642	-35,667	0,061	-0,024
-412,628	78,344	-0,049	-0,038
-411,613	153,505	-0,141	-0,142
-410,598	363,197	0,042	-0,062
-409,584	-8,213	0,049	0,024
-408,569	800,000	0,064	0,139
-407,555	252,775	0,021	0,026
-406,540	800,000	0,018	0,043
-405,525	768,887	-0,026	0,053
-404,511	800,000	-0,037	-0,106
-403,496	800,000	0,018	-0,051
-402,482	800,000	0,019	-0,044
-401,467	-200,000	0,009	0,054
-400,452	800,000	0,069	0,152
-399,438	-200,000	-0,008	0,129
-398,423	127,959	0,079	-0,074
-397,409	800,000	-0,043	-0,110
-396,394	334,736	-0,062	-0,089
-395,379	-56,179	-0,125	0,041
-394,365	16,577	0,037	-0,021
-393,350	96,096	-0,068	-0,057
-392,336	65,635	-0,095	-0,071
-391,321	800,000	0,032	-0,071
-390,306	-200,000	-0,006	-0,142
-389,292	14,854	-0,141	0,081
-388,277	163,756	-0,095	-0,098
-387,263	330,169	0,088	0,125
-386,248	221,435	-0,083	0,098
-385,233	-200,000	0,000	0,107
-384,219	800,000	0,008	-0,025
-383,204	-112,997	-0,093	0,013
-382,190	-200,000	0,011	-0,108
-381,175	800,000	0,047	0,126
-380,160	28,837	-0,065	0,040
-379,146	-144,830	0,040	0,003
-378,131	-143,118	-0,054	0,004
-377,117	80,693	-0,075	0,060
-376,102	-200,000	-0,031	-0,108
-375,088	164,539	0,120	-0,125
-374,073	-39,898	-0,104	0,040
-373,058	42,745	0,184	0,123
-372,044	-36,161	0,142	0,056
-371,029	190,905	0,026	0,029
-370,015	-30,787	0,033	0,013
-369,000	291,131	0,047	0,063
-367,985	800,000	0,034	-0,088
-366,971	-200,000	0,010	0,068
-365,956	187,898	0,049	0,054
-364,942	70,770	0,067	-0,051
-363,927	800,000	-0,036	0,105
-362,912	-20,350	-0,056	-0,025
-361,898	-200,000	0,024	0,097
-360,883	800,000	-0,017	-0,036
-359,869	-78,123	0,060	0,015
-358,854	412,552	0,009	0,014
-357,839	800,000	-0,034	0,104
-356,825	-200,000	0,042	0,155
-355,810	225,170	0,076	0,091
-354,796	-41,879	0,032	-0,012
-353,781	375,607	-0,041	0,061
-352,766	676,867	-0,031	0,060
-351,752	330,077	-0,060	0,084
-350,737	-200,000	-0,006	0,038
-349,723	-144,733	0,055	0,004
-348,708	636,945	-0,026	0,048
-347,693	-200,000	-0,002	0,077
-346,679	-30,465	-0,081	-0,034
-345,664	348,866	0,069	-0,100
-344,650	-17,430	-0,158	0,073
-343,635	189,323	0,052	-0,057
-342,620	119,426	0,046	-0,041
-341,606	-6,679	0,050	-0,025
-340,591	203,264	0,013	0,014
-339,577	131,914	0,065	-0,061
-338,562	800,000	0,011	0,030
-337,548	-200,000	0,003	0,035
-336,533	-200,000	-0,018	0,080
-335,518	587,172	0,067	0,121
-334,504	-2,091	-0,062	-0,032
-333,489	-143,096	-0,088	0,006
-332,475	-200,000	0,001	-0,078
-331,460	-146,302	0,063	-0,004
-330,445	-200,000	0,007	0,040
-329,431	285,711	0,083	-0,110
-328,416	238,359	-0,065	-0,079
-327,402	-109,696	0,030	-0,005
-326,387	-120,140	-0,113	0,014
-325,372	56,036	0,068	-0,049
-324,358	-79,557	-0,092	0,022
-323,343	152,416	-0,062	0,062
-322,329	161,724	0,059	0,061
-321,314	51,676	-0,096	-0,067
-320,299	75,221	0,093	-0,072
-319,285	-19,808	-0,078	0,035
-318,270	800,000	-0,058	-0,127
-317,256	503,335	0,035	-0,059
-316,241	800,000	0,035	-0,108
-315,226	-65,531	-0,090	0,026
-314,212	-200,000	-0,020	0,201
-313,197	-125,091	0,063	-0,007
-312,183	712,408	-0,054	-0,105
-311,168	-200,000	-0,019	0,134
-310,153	-200,000	-0,001	-0,012
-309,139	120,211	-0,062	-0,056
-308,124	-86,414	-0,034	0,008
-307,110	232,739	0,048	0,057
-306,095	-52,491	-0,083	0,028
-305,080	588,020	0,126	0,228
-304,066	800,000	0,022	-0,051
-303,051	-200,000	-0,024	-0,115
-302,037	228,913	-0,049	-0,058
-301,022	800,000	0,045	0,104
-300,008	-71,099	0,098	0,027
-298,993	-35,908	0,146	-0,058
-297,978	-43,722	-0,109	0,040
-296,964	-200,000	-0,001	0,023
-295,949	299,479	0,068	-0,093
-294,935	-29,026	-0,069	0,029
-293,920	-200,000	-0,007	-0,040
-292,905	464,461	-0,041	-0,068
-291,891	-98,558	0,056	-0,010
-290,876	-52,841	-0,001	0,000
-289,862	-90,909	-0,156	-0,033
-288,847	369,890	-0,078	-0,115
-287,832	800,000	-0,048	-0,133
-286,818	-27,747	0,151	0,064
-285,803	71,338	-0,073	-0,055
-284,789	146,358	0,028	0,027
-283,774	-200,000	-0,005	-0,053
-282,759	463,640	-0,040	0,065
-281,745	-200,000	0,008	0,134
-280,730	505,074	0,092	-0,156
-279,716	392,300	0,014	0,021
-278,701	-92,008	0,074	0,015
-277,686	800,000	0,046	-0,107
-276,672	84,771	0,094	-0,075
-275,657	-200,000	0,011	-0,054
-274,643	529,968	0,016	0,027
-273,628	-200,000	0,000	0,048
-272,613	-200,000	-0,002	0,010
-271,599	129,452	0,142	0,133
-270,584	165,387	0,064	-0,066
-269,570	-69,309	0,083	0,023
-268,555	-23,449	0,018	0,008
-267,540	-200,000	0,011	0,068
-266,526	-122,591	0,093	-0,011
-265,511	77,348	-0,041	-0,032
-264,497	455,220	0,068	0,110
-263,482	-79,631	0,064	0,016
-262,467	-200,000	0,010	0,053
-261,453	-81,731	0,173	-0,041
-260,438	496,436	0,015	0,025
-259,424	-155,709	-0,073	0,003
-258,409	49,949	0,064	0,044
-257,395	-200,000	0,010	0,109
-256,380	800,000	0,070	0,146
-255,365	-200,000	0,016	0,095
-254,351	800,000	0,015	-0,048
-253,336	-128,627	0,076	-0,008
-252,322	56,809	-0,067	-0,047
-251,307	800,000	-0,006	-0,018
-250,292	300,877	-0,027	-0,036
-249,278	-53,422	0,110	-0,037
-248,263	96,190	0,055	0,046
-247,249	71,278	0,049	0,038
-246,234	800,000	-0,049	0,111
-245,219	524,684	0,072	-0,125
-244,205	31,218	-0,061	-0,038
-243,190	-200,000	0,042	0,136
-242,176	-92,460	-0,025	-0,005
-241,161	252,123	0,091	0,114
-240,146	-124,999	-0,027	0,003
-239,132	52,699	-0,106	-0,074
-238,117	-110,935	0,037	-0,006
-237,103	620,525	0,054	-0,100
-236,088	-200,000	0,042	-0,138
-235,073	-200,000	-0,026	-0,139
-234,059	-173,424	-0,125	-0,003
-233,044	800,000	0,065	-0,145
-232,030	-51,258	-0,090	0,031
-231,015	800,000	-0,024	0,067
-230,000	563,483	-0,115	-0,205
-228,986	157,967	-0,096	-0,098
-227,971	399,680	0,050	-0,077
-226,957	800,000	-0,007	-0,022
-225,942	749,027	0,101	0,201
-224,927	-20,346	0,011	-0,005
-223,913	800,000	-0,040	-0,084
-222,898	-69,871	0,110	-0,030
-221,884	551,283	-0,021	-0,038
-220,869	-13,429	0,128	0,060
-219,855	9,521	0,084	0,046
-218,840	-89,880	0,073	-0,015
-217,825	7,347	-0,085	-0,046
-216,811	267,930	-0,075	-0,096
-215,796	337,001	0,037	0,052
-214,782	-199,842	-0,112	-0,000
-213,767	234,743	0,148	-0,178
-212,752	715,925	0,010	-0,019
-211,738	-200,000	-0,006	0,057
-210,723	-200,000	-0,011	0,123
-209,709	20,572	-0,107	0,063
-208,694	-153,397	-0,125	-0,006
-207,679	-56,667	0,060	-0,019
-206,665	800,000	0,016	0,051
-205,650	561,027	-0,020	-0,036
-204,636	-200,000	-0,014	0,054
-203,621	800,000	-0,033	-0,081
-202,606	-200,000	0,003	0,046
-201,592	783,257	-0,004	-0,008
-200,577	800,000	0,007	-0,021
-199,563	18,824	0,091	0,053
-198,548	-110,518	0,094	-0,014
-197,533	800,000	-0,031	0,072
-196,519	499,852	0,023	0,039
-195,504	800,000	-0,042	0,106
-194,490	-200,000	-0,060	0,214
-193,475	-200,000	0,015	-0,147
-192,460	-200,000	0,010	0,086
-191,446	-18,475	-0,065	0,030
-190,431	800,000	-0,026	0,057
-189,417	-85,633	-0,021	-0,005
-188,402	-200,000	-0,012	0,084
-187,387	-200,000	0,001	-0,088
-186,373	132,585	-0,070	0,066
-185,358	40,394	-0,050	-0,033
-184,344	199,239	-0,123	0,137
-183,329	576,041	-0,027	0,048
-182,315	-153,117	-0,089	0,004
-181,300	367,264	0,034	0,050
-180,285	-200,000	0,048	-0,174
-179,271	-18,601	-0,083	0,037
-178,256	-91,992	0,024	0,005
-177,242	418,166	-0,027	-0,042
-176,227	77,505	0,128	0,099
-175,212	-8,794	0,097	-0,047
-174,198	800,000	-0,023	0,051
-173,183	700,872	0,077	-0,149
-172,169	-74,424	-0,167	0,044
-171,154	-200,000	-0,019	-0,127
-170,139	-71,168	-0,020	0,006
-169,125	-200,000	-0,014	0,120
-168,110	-200,000	0,009	0,058
-167,096	-56,164	0,054	0,017
-166,081	800,000	0,013	0,027
-165,066	68,668	-0,043	0,032
-164,052	800,000	0,029	-0,081
-163,037	296,749	0,071	-0,096
-162,023	-175,128	0,095	0,002
-161,008	122,326	0,181	0,165
-159,993	-114,897	0,111	-0,015
-158,979	-200,000	0,032	0,108
-157,964	369,777	0,044	0,065
-156,950	116,993	-0,112	0,100
-155,935	-72,952	0,030	-0,008
-154,920	800,000	0,057	0,155
-153,906	-200,000	-0,005	-0,098
-152,891	-200,000	0,004	0,024
-151,877	-149,951	-0,063	-0,004
-150,862	-144,071	-0,152	0,010
-149,847	800,000	0,023	0,062
-148,833	-102,395	-0,041	0,007
-147,818	-128,800	0,109	0,011
-146,804	62,219	-0,051	-0,037
-145,789	-21,407	-0,116	0,051
-144,775	-74,613	0,125	-0,032
-143,760	430,565	-0,088	-0,139
-142,745	441,172	0,073	-0,117
-141,731	599,430	-0,075	0,136
-140,716	554,806	0,075	0,132
-139,702	-123,942	0,206	0,023
-138,687	173,459	0,044	-0,046
-137,672	-200,000	0,000	-0,089
-136,658	777,750	-0,071	-0,142
-135,643	800,000	-0,047	-0,116
-134,629	-200,000	-0,005	-0,091
-133,614	-143,423	-0,049	0,003
-132,599	256,366	0,028	0,035
-131,585	-200,000	-0,006	0,034
-130,570	-57,324	0,097	-0,031
-129,556	-42,164	0,023	-0,009
-128,541	-200,000	-0,043	-0,165
-127,526	-200,000	0,021	0,106
-126,512	31,816	0,082	-0,051
-125,497	-40,601	0,042	-0,016
-124,483	179,994	0,040	0,042
-123,468	-12,258	0,096	-0,045
-122,453	204,066	-0,026	0,029
-121,439	-77,522	-0,074	-0,018
-120,424	-6,195	0,036	0,018
-119,410	96,243	0,101	0,084
-118,395	267,080	0,077	0,098
