DTS Sentinel unit serial number:	SN410029Multiplexer serial number:	ORYXHardware model number:	OX2-SRSoftware version number:	ORYX F/W v4,00 Oryx Data Collector v3.7.2.0data status	okinstallation	B6 Nyhavnadifferential loss correction	single-endedforward channel	channel 2reverse channel	N/Adate	2023/12/10time	05:10:08forward acquisition time	300,00reverse acquisition time	0,00gamma	499,1914k internal	0,3125k external	0,3125temperature offset calibration	1,0000default loss term (dB/km)	0,3820temperature slope calibration	1,0000multiplexer offset coefficient	1,0000multiplexer slope coefficient	1,0000fibre end	0,00T internal ref (°C)	22,37T ext. ref 1 (°C)	6,42T ext. ref 2 (°C)	6,40length (m)	temperature (°C)	Stokes	anti-Stokes-744,400	52,232	-0,057	-0,040
-743,385	72,054	-0,137	0,106
-742,371	-32,108	0,077	0,032
-741,356	341,551	-0,067	0,098
-740,342	147,030	0,123	-0,123
-739,327	0,640	-0,181	0,096
-738,312	800,000	0,058	-0,156
-737,298	-92,655	-0,185	-0,038
-736,283	-35,070	0,055	-0,022
-735,269	-28,683	-0,120	0,051
-734,254	-200,000	-0,001	-0,099
-733,239	-82,627	-0,484	-0,116
-732,225	62,452	0,139	-0,103
-731,210	-200,000	0,011	0,044
-730,196	800,000	0,042	-0,096
-729,181	-92,625	0,079	-0,016
-728,167	168,964	0,093	-0,098
-727,152	231,426	-0,021	0,026
-726,137	-200,000	-0,013	-0,060
-725,123	-117,809	-0,070	-0,009
-724,108	204,948	-0,066	-0,076
-723,094	-200,000	-0,042	-0,149
-722,079	128,988	0,023	0,022
-721,064	800,000	-0,015	0,032
-720,050	37,940	0,205	-0,135
-719,035	187,736	-0,063	-0,071
-718,021	-54,237	-0,097	-0,033
-717,006	118,574	-0,116	-0,106
-715,991	28,777	0,041	-0,026
-714,977	800,000	-0,072	-0,167
-713,962	-37,554	-0,064	-0,025
-712,948	62,647	0,110	-0,081
-711,933	106,329	0,094	-0,083
-710,918	105,577	-0,061	0,054
-709,904	308,937	0,100	-0,140
-708,889	143,731	-0,147	-0,146
-707,875	-164,919	-0,135	-0,004
-706,860	-107,508	-0,230	-0,037
-705,845	-86,910	0,062	0,014
-704,831	800,000	0,022	0,068
-703,816	-6,441	0,048	-0,024
-702,802	227,938	0,043	0,052
-701,787	800,000	-0,026	0,071
-700,772	62,338	-0,196	-0,145
-699,758	-8,035	-0,225	-0,113
-698,743	-156,198	0,120	-0,006
-697,729	-196,994	0,111	-0,001
-696,714	638,988	-0,035	0,066
-695,699	-170,877	-0,083	0,002
-694,685	-53,211	0,117	-0,040
-693,670	800,000	0,027	-0,083
-692,656	-99,307	0,065	-0,012
-691,641	-200,000	0,028	0,174
-690,627	-200,000	-0,018	0,103
-689,612	477,051	0,073	0,123
-688,597	-51,151	-0,059	-0,020
-687,583	10,348	0,047	0,027
-686,568	-39,778	-0,140	-0,054
-685,554	102,021	0,064	-0,056
-684,539	-200,000	-0,015	0,062
-683,524	200,275	0,043	0,049
-682,510	38,948	-0,111	0,073
-681,495	179,939	0,072	-0,078
-680,481	800,000	-0,024	-0,071
-679,466	-200,000	0,021	-0,148
-678,451	800,000	-0,029	-0,093
-677,437	-10,659	-0,078	-0,038
-676,422	800,000	-0,034	-0,106
-675,408	-200,000	-0,021	0,116
-674,393	315,358	-0,018	0,026
-673,378	248,581	-0,111	-0,139
-672,364	-200,000	-0,001	-0,038
-671,349	35,208	0,020	0,013
-670,335	95,920	-0,040	0,034
-669,320	77,838	-0,110	0,087
-668,305	-59,280	0,077	0,025
-667,291	-24,618	-0,083	-0,037
-666,276	466,309	-0,049	-0,082
-665,262	-45,662	-0,014	0,005
-664,247	-200,000	0,016	-0,144
-663,232	-133,371	0,098	-0,009
-662,218	73,975	-0,046	0,036
-661,203	-200,000	-0,001	0,059
-660,189	626,642	0,068	-0,128
-659,174	7,118	-0,079	-0,044
-658,159	-200,000	-0,001	-0,043
-657,145	-200,000	-0,013	-0,095
-656,130	-200,000	0,008	-0,053
-655,116	-117,029	0,115	0,015
-654,101	312,990	-0,018	0,025
-653,086	159,039	-0,058	-0,060
-652,072	-107,106	-0,155	0,025
-651,057	1,081	0,024	0,013
-650,043	-120,829	-0,030	-0,004
-649,028	800,000	-0,014	-0,043
-648,014	-78,189	0,038	-0,010
-646,999	-200,000	-0,020	0,066
-645,984	324,275	0,060	0,086
-644,970	142,767	-0,057	0,056
-643,955	14,483	-0,019	0,011
-642,941	-200,000	-0,016	0,053
-641,926	164,823	0,070	-0,073
-640,911	446,177	-0,033	0,054
-639,897	90,757	-0,111	0,093
-638,882	-24,907	0,113	-0,049
-637,868	-155,466	0,009	0,000
-636,853	453,942	-0,016	0,027
-635,838	4,879	-0,212	-0,115
-634,824	-200,000	-0,026	-0,144
-633,809	80,633	-0,067	-0,054
-632,795	58,974	0,016	0,012
-631,780	800,000	-0,019	0,049
-630,765	257,449	-0,049	-0,063
-629,751	-200,000	-0,028	-0,136
-628,736	-200,000	0,024	-0,254
-627,722	-114,329	-0,238	0,034
-626,707	-146,646	-0,075	0,005
-625,692	-200,000	0,031	0,131
-624,678	9,989	0,051	-0,029
-623,663	397,192	0,045	0,070
-622,649	56,125	-0,019	0,014
-621,634	-200,000	-0,017	-0,159
-620,619	148,565	0,094	-0,094
-619,605	-38,640	0,025	-0,010
-618,590	32,557	0,063	0,040
-617,576	322,675	-0,096	0,135
-616,561	30,190	-0,110	0,069
-615,546	97,125	-0,184	-0,157
-614,532	-20,283	-0,115	-0,052
-613,517	-200,000	0,004	-0,041
-612,503	293,841	-0,076	-0,103
-611,488	-26,097	-0,110	-0,048
-610,474	-200,000	0,025	-0,085
-609,459	-30,514	-0,104	-0,044
-608,444	800,000	0,017	0,056
-607,430	800,000	0,033	0,075
-606,415	-200,000	-0,010	0,072
-605,401	73,740	0,113	-0,088
-604,386	-126,927	0,072	-0,008
-603,371	34,287	0,022	-0,014
-602,357	800,000	0,033	0,068
-601,342	107,598	0,047	0,041
-600,328	367,117	0,044	-0,065
-599,313	508,124	0,009	-0,016
-598,298	120,135	-0,085	-0,078
-597,284	800,000	-0,023	0,069
-596,269	-200,000	0,010	-0,039
-595,255	-106,401	0,153	0,025
-594,240	-38,142	-0,046	-0,018
-593,225	395,685	-0,099	-0,153
-592,211	-200,000	-0,036	-0,140
-591,196	-60,504	-0,079	0,025
-590,182	427,718	-0,043	-0,068
-589,167	98,886	-0,100	0,086
-588,152	-200,000	-0,004	-0,107
-587,138	-200,000	0,005	-0,020
-586,123	-58,529	-0,193	-0,062
-585,109	800,000	-0,036	-0,076
-584,094	-200,000	0,046	-0,188
-583,079	118,606	0,054	0,050
-582,065	108,448	0,079	-0,070
-581,050	620,061	0,026	-0,049
-580,036	-182,521	-0,096	-0,001
-579,021	800,000	-0,013	-0,032
-578,006	161,252	-0,053	-0,055
-576,992	-100,325	0,053	0,010
-575,977	-49,806	0,101	-0,035
-574,963	-200,000	0,008	0,094
-573,948	70,377	0,060	-0,046
-572,934	144,522	-0,117	-0,115
-571,919	-114,850	0,058	0,008
-570,904	206,851	0,035	-0,040
-569,890	-133,926	-0,178	0,016
-568,875	-200,000	-0,047	-0,155
-567,861	-3,115	0,044	-0,023
-566,846	209,195	-0,136	0,158
-565,831	226,746	-0,032	0,038
-564,817	800,000	-0,030	0,081
-563,802	-149,450	-0,026	-0,001
-562,788	-98,159	-0,041	0,008
-561,773	78,745	0,068	0,054
-560,758	-94,490	0,130	-0,026
-559,744	-163,196	0,056	0,002
-558,729	4,962	-0,057	-0,031
-557,715	41,645	-0,053	-0,036
-556,700	-200,000	0,003	-0,127
-555,685	621,765	0,061	0,114
-554,671	-88,275	0,116	0,025
-553,656	-34,402	0,082	-0,033
-552,642	-136,328	-0,137	0,012
-551,627	32,332	0,039	-0,025
-550,612	575,669	0,033	-0,060
-549,598	-200,000	-0,002	-0,049
-548,583	800,000	0,049	-0,111
-547,569	45,880	0,073	-0,050
-546,554	80,401	0,035	0,028
-545,539	800,000	0,035	0,091
-544,525	800,000	0,046	-0,111
-543,510	114,460	0,038	-0,034
-542,496	-113,764	-0,071	-0,010
-541,481	-20,638	-0,053	-0,024
-540,466	11,378	0,047	-0,027
-539,452	-200,000	-0,018	0,069
-538,437	98,523	0,057	-0,049
-537,423	105,616	-0,005	-0,004
-536,408	-154,737	-0,092	-0,004
-535,393	-11,541	-0,185	-0,089
-534,379	-132,356	-0,132	-0,012
-533,364	185,186	-0,023	-0,025
-532,350	-105,472	0,043	-0,007
-531,335	-14,773	-0,101	-0,048
-530,321	-200,000	0,005	0,092
-529,306	305,357	0,029	0,040
-528,291	-8,257	0,075	0,037
-527,277	9,029	-0,139	-0,077
-526,262	712,638	-0,025	-0,049
-525,248	13,880	0,029	0,017
-524,233	-200,000	0,010	0,138
-523,218	-153,162	0,036	0,002
-522,204	51,623	-0,135	-0,094
-521,189	-34,761	-0,072	-0,029
-520,175	105,619	0,153	-0,133
-519,160	94,134	-0,080	-0,067
-518,145	20,083	-0,097	0,058
-517,131	-56,288	0,119	0,039
-516,116	-92,337	0,072	-0,015
-515,102	118,402	0,035	-0,032
-514,087	-18,913	0,172	-0,079
-513,072	800,000	-0,036	-0,079
-512,058	-91,819	-0,016	-0,003
-511,043	8,253	0,043	-0,024
-510,029	37,149	0,011	0,007
-509,014	-200,000	0,024	-0,111
-507,999	-3,692	0,028	0,014
-506,985	-15,909	0,105	-0,049
-505,970	800,000	-0,017	-0,035
-504,956	-64,566	-0,117	-0,035
-503,941	-127,796	0,084	0,009
-502,926	-200,000	0,011	0,175
-501,912	102,224	0,062	-0,053
-500,897	-156,172	0,042	-0,002
-499,883	800,000	0,014	-0,041
-498,868	226,637	-0,073	-0,088
-497,853	-200,000	-0,023	-0,136
-496,839	95,044	-0,049	0,041
-495,824	-27,508	-0,124	-0,053
-494,810	110,225	-0,036	-0,032
-493,795	288,114	-0,024	0,032
-492,781	800,000	0,016	-0,050
-491,766	-93,011	-0,152	0,031
-490,751	-200,000	-0,027	-0,227
-489,737	-200,000	-0,004	0,029
-488,722	41,856	0,059	-0,040
-487,708	-161,626	0,064	0,002
-486,693	-200,000	0,003	0,089
-485,678	-106,870	-0,056	-0,009
-484,664	-200,000	0,025	-0,121
-483,649	-12,895	0,030	0,015
-482,635	800,000	-0,013	0,035
-481,620	211,261	0,028	0,032
-480,605	12,850	0,071	0,041
-479,591	50,768	0,105	-0,074
-478,576	-56,942	0,042	-0,014
-477,562	165,181	-0,035	0,037
-476,547	422,406	-0,015	-0,024
-475,532	-6,138	-0,006	-0,003
-474,518	-101,623	-0,117	0,021
-473,503	280,426	0,127	0,167
-472,489	-38,303	-0,070	0,027
-471,474	-85,376	0,048	-0,011
-470,459	-94,745	-0,104	0,021
-469,445	-147,720	-0,084	-0,005
-468,430	52,066	0,046	-0,032
-467,416	-56,458	-0,085	-0,028
-466,401	-200,000	0,001	-0,016
-465,386	723,568	0,046	0,092
-464,372	-200,000	0,007	-0,099
-463,357	-30,728	0,056	-0,023
-462,343	800,000	-0,020	-0,052
-461,328	-200,000	-0,007	0,133
-460,313	-200,000	0,009	0,133
-459,299	-96,384	0,059	0,011
-458,284	89,984	0,065	0,053
-457,270	-127,393	0,096	-0,010
-456,255	449,398	0,051	-0,083
-455,241	-121,356	-0,156	0,019
-454,226	-200,000	0,031	-0,102
-453,211	800,000	0,035	-0,110
-452,197	119,835	0,023	0,021
-451,182	504,763	0,029	-0,050
-450,168	309,243	-0,059	0,081
-449,153	-19,663	0,072	0,032
-448,138	148,581	0,040	0,040
-447,124	23,126	-0,022	0,013
-446,109	-34,090	-0,094	0,038
-445,095	133,114	0,056	0,053
-444,080	-101,902	0,126	-0,022
-443,065	800,000	-0,027	0,059
-442,051	6,183	-0,081	-0,044
-441,036	-86,983	0,046	-0,010
-440,022	-121,941	-0,053	-0,006
-439,007	-91,721	-0,041	0,009
-437,992	-200,000	-0,011	0,044
-436,978	134,747	0,066	0,063
-435,963	115,827	-0,095	-0,085
-434,949	652,742	0,053	0,100
-433,934	-173,877	0,052	0,001
-432,919	-179,962	0,112	0,002
-431,905	58,650	-0,053	-0,038
-430,890	800,000	-0,037	-0,081
-429,876	-142,178	0,114	-0,008
-428,861	-200,000	-0,021	0,103
-427,846	-131,284	0,099	0,010
-426,832	66,692	-0,096	-0,072
-425,817	800,000	-0,024	0,057
-424,803	-200,000	-0,023	-0,110
-423,788	800,000	0,026	-0,057
-422,773	19,841	0,074	-0,044
-421,759	280,082	-0,089	0,118
-420,744	-200,000	0,045	-0,168
-419,730	95,969	0,012	-0,010
-418,715	800,000	-0,028	-0,058
-417,701	-100,693	-0,065	0,012
-416,686	110,274	0,108	-0,096
-415,671	-200,000	-0,007	0,064
-414,657	800,000	0,034	0,077
-413,642	-200,000	-0,028	0,202
-412,628	-139,757	-0,166	-0,013
-411,613	-200,000	-0,011	-0,042
-410,598	800,000	-0,031	0,081
-409,584	639,375	-0,079	0,149
-408,569	-76,187	0,114	0,029
-407,555	-28,106	-0,097	-0,041
-406,540	129,151	-0,083	-0,078
-405,525	-24,265	-0,041	-0,018
-404,511	0,838	-0,075	0,039
-403,496	441,892	0,012	-0,019
-402,482	102,804	-0,099	-0,085
-401,467	-138,759	0,136	-0,011
-400,452	85,925	-0,063	0,051
-399,438	191,510	-0,053	0,059
-398,423	489,203	0,068	-0,114
-397,409	800,000	-0,038	-0,105
-396,394	-200,000	0,007	-0,176
-395,379	-67,661	0,083	-0,024
-394,365	-200,000	-0,011	-0,042
-393,350	81,317	0,088	-0,070
-392,336	-110,557	0,058	0,009
-391,321	-48,076	0,054	-0,019
-390,306	-148,034	0,082	0,005
-389,292	-200,000	0,030	0,112
-388,277	-153,274	0,127	-0,006
-387,263	-35,792	0,080	-0,032
-386,248	257,768	0,110	0,139
-385,233	800,000	-0,025	-0,053
-384,219	315,183	-0,112	-0,155
-383,204	96,593	-0,075	-0,063
-382,190	-200,000	0,014	-0,050
-381,175	-200,000	0,007	0,055
-380,160	-128,274	-0,097	0,010
-379,146	594,596	-0,031	0,056
-378,131	182,258	-0,023	0,025
-377,117	-15,788	-0,140	-0,065
-376,102	-200,000	0,008	0,173
-375,088	125,970	-0,073	-0,068
-374,073	-25,778	0,180	0,078
-373,058	-19,819	0,124	0,056
-372,044	800,000	0,067	0,179
-371,029	800,000	0,032	0,082
-370,015	-80,884	0,070	0,017
-369,000	-200,000	0,015	0,071
-367,985	-151,174	0,082	0,004
-366,971	800,000	-0,050	-0,118
-365,956	28,641	0,067	0,041
-364,942	-26,776	0,164	0,070
-363,927	-200,000	0,043	-0,142
-362,912	29,940	-0,097	0,061
-361,898	450,937	-0,021	0,034
-360,883	140,403	0,102	-0,099
-359,869	800,000	-0,038	-0,110
-358,854	675,294	0,086	-0,164
-357,839	277,854	-0,022	-0,029
-356,825	148,864	0,070	0,069
-355,810	-200,000	0,016	0,058
-354,796	800,000	0,018	0,038
-353,781	267,344	-0,072	0,093
-352,766	541,727	0,091	-0,160
-351,752	-69,051	-0,158	-0,044
-350,737	643,248	0,066	0,123
-349,723	800,000	-0,027	0,060
-348,708	162,379	0,007	-0,007
-347,693	-200,000	0,011	0,043
-346,679	-81,090	0,088	0,021
-345,664	-50,648	-0,132	0,045
-344,650	-200,000	-0,001	0,186
-343,635	83,089	-0,040	-0,032
-342,620	-200,000	-0,017	0,139
-341,606	800,000	0,051	0,131
-340,591	160,063	-0,047	0,048
-339,577	-86,705	-0,191	0,042
-338,562	193,573	-0,062	-0,069
-337,548	327,095	0,018	-0,026
-336,533	-200,000	-0,007	0,035
-335,518	-108,520	0,023	0,004
-334,504	387,414	-0,051	-0,077
-333,489	436,611	0,030	-0,048
-332,475	147,141	0,039	0,038
-331,460	-200,000	0,017	-0,126
-330,445	-200,000	-0,026	-0,127
-329,431	-8,922	0,052	0,025
-328,416	165,675	0,087	0,090
-327,402	-200,000	0,000	0,042
-326,387	31,078	-0,017	0,011
-325,372	-107,967	0,069	0,011
-324,358	-70,289	-0,040	-0,011
-323,343	69,861	-0,066	0,050
-322,329	92,915	0,124	-0,103
-321,314	-200,000	-0,013	0,069
-320,299	-200,000	0,018	0,085
-319,285	239,335	0,055	-0,067
-318,270	-96,520	0,103	0,020
-317,256	-76,384	-0,062	-0,016
-316,241	200,282	0,018	0,020
-315,226	155,752	-0,075	-0,076
-314,212	-171,285	0,040	-0,001
-313,197	588,300	-0,048	0,088
-312,183	-45,380	0,111	0,040
-311,168	36,710	-0,120	0,078
-310,153	136,402	-0,074	-0,071
-309,139	-200,000	-0,032	-0,219
-308,124	142,639	-0,012	0,012
-307,110	800,000	-0,040	0,110
-306,095	-85,864	0,009	0,002
-305,080	-125,242	0,044	-0,005
-304,066	-200,000	0,003	0,068
-303,051	-48,559	0,035	0,012
-302,037	759,177	0,032	-0,064
-301,022	87,625	0,070	0,056
-300,008	36,651	-0,136	0,088
-298,993	-144,430	0,136	-0,009
-297,978	-200,000	0,003	-0,072
-296,964	-200,000	-0,005	0,079
-295,949	467,613	-0,068	0,113
-294,935	-200,000	0,000	0,043
-293,920	-197,410	0,068	-0,000
-292,905	35,238	0,021	-0,014
-291,891	-162,337	-0,111	-0,004
-290,876	-200,000	-0,009	0,074
-289,862	-3,578	-0,062	0,031
-288,847	11,406	-0,037	-0,021
-287,832	-200,000	0,011	-0,158
-286,818	196,167	-0,012	0,013
-285,803	-196,460	-0,072	0,000
-284,789	800,000	0,065	0,177
-283,774	252,590	0,086	0,108
-282,759	-200,000	-0,034	-0,136
-281,745	-77,872	0,015	-0,004
-280,730	81,267	-0,065	-0,052
-279,716	137,825	0,005	-0,005
-278,701	-4,323	-0,064	-0,032
-277,686	-200,000	0,010	0,192
-276,672	-57,860	-0,090	-0,029
-275,657	800,000	-0,053	-0,157
-274,643	-162,977	0,099	0,003
-273,628	800,000	-0,030	0,066
-272,613	334,021	-0,087	0,124
-271,599	-16,295	-0,096	0,044
-270,584	-149,479	0,055	-0,003
-269,570	177,221	-0,123	0,131
-268,555	-200,000	0,054	0,191
-267,540	-200,000	-0,015	-0,134
-266,526	800,000	0,040	0,083
-265,511	-53,062	0,073	0,025
-264,497	-200,000	-0,014	0,047
-263,482	-200,000	0,003	0,101
-262,467	-97,372	-0,034	0,006
-261,453	-200,000	0,044	0,230
-260,438	387,069	-0,049	-0,075
-259,424	-80,781	0,127	-0,031
-258,409	-99,986	-0,075	0,013
-257,395	23,962	-0,053	0,032
-256,380	-200,000	0,009	0,065
-255,365	189,014	-0,082	-0,090
-254,351	-15,656	0,066	0,030
-253,336	58,453	-0,103	0,074
-252,322	-200,000	0,006	-0,023
-251,307	208,074	0,075	0,085
-250,292	-152,226	-0,083	-0,004
-249,278	73,674	0,096	0,073
-248,263	-30,654	0,121	0,050
-247,249	133,824	0,040	0,037
-246,234	-200,000	-0,114	0,000
-245,219	-10,839	-0,133	0,064
-244,205	63,799	-0,030	-0,022
-243,190	62,401	0,159	-0,116
-242,176	800,000	0,013	0,032
-241,161	-193,144	-0,065	-0,000
-240,146	76,381	0,069	0,053
-239,132	-150,017	0,142	-0,008
-238,117	-67,831	0,121	0,034
-237,103	-49,250	-0,120	-0,042
-236,088	-58,381	-0,191	0,060
-235,073	-140,772	0,086	-0,006
-234,059	39,287	0,080	-0,052
-233,044	327,642	-0,081	0,114
-232,030	-44,264	0,032	0,012
-231,015	-200,000	-0,011	-0,064
-230,000	-18,525	0,146	0,066
-228,986	340,389	0,093	0,133
-227,971	331,784	0,056	0,079
-226,957	-200,000	0,014	0,056
-225,942	215,795	0,082	0,096
-224,927	-74,116	-0,061	-0,016
-223,913	214,925	0,049	0,057
-222,898	800,000	-0,059	0,136
-221,884	-200,000	0,014	-0,053
-220,869	-26,919	0,042	0,018
-219,855	-139,545	0,074	0,006
-218,840	-87,257	-0,076	0,017
-217,825	800,000	-0,015	0,044
-216,811	113,189	-0,058	-0,051
-215,796	-84,118	-0,094	-0,022
-214,782	-11,348	-0,011	-0,005
-213,767	61,199	-0,065	-0,047
-212,752	207,501	0,067	0,077
-211,738	-200,000	0,005	0,054
-210,723	80,462	0,059	0,046
-209,709	708,585	-0,043	-0,083
-208,694	609,204	0,051	-0,093
-207,679	-103,290	-0,066	0,011
-206,665	-200,000	-0,004	-0,020
-205,650	51,432	0,032	0,022
-204,636	800,000	0,059	0,139
-203,621	-200,000	-0,018	0,132
-202,606	-200,000	0,013	0,123
-201,592	-200,000	0,005	-0,036
-200,577	1,385	-0,115	0,060
-199,563	546,405	0,077	0,135
-198,548	800,000	0,017	-0,052
-197,533	-1,324	0,073	0,037
-196,519	119,197	0,107	-0,097
-195,504	237,255	-0,028	0,034
-194,490	-200,000	0,006	-0,145
-193,475	-67,490	0,081	0,023
-192,460	-152,467	-0,071	-0,004
-191,446	272,834	-0,032	-0,042
-190,431	-158,975	-0,021	-0,001
-189,417	-200,000	0,003	-0,060
-188,402	800,000	-0,025	-0,054
-187,387	-121,027	0,063	0,008
-186,373	-53,226	0,061	0,020
-185,358	13,425	0,115	-0,065
-184,344	-200,000	0,016	0,117
-183,329	269,852	0,030	0,039
-182,315	-48,908	0,089	0,031
-181,300	753,844	-0,017	0,033
-180,285	193,729	-0,029	0,032
-179,271	-23,409	0,144	-0,063
-178,256	-152,591	-0,126	-0,006
-177,242	260,169	-0,064	0,081
-176,227	-200,000	0,036	0,134
-175,212	-200,000	-0,055	0,190
-174,198	-200,000	-0,004	0,188
-173,183	-62,614	-0,140	-0,042
-172,169	800,000	0,030	0,079
-171,154	-200,000	0,010	-0,125
-170,139	-200,000	0,015	0,141
-169,125	415,836	0,064	-0,100
-168,110	-200,000	-0,018	-0,096
-167,096	8,778	0,091	-0,050
-166,081	139,555	0,076	0,073
-165,066	177,872	0,055	-0,058
-164,052	-1,015	0,043	-0,022
-163,037	556,419	0,039	-0,068
-162,023	-44,874	0,077	-0,028
-161,008	-200,000	0,005	-0,029
-159,993	-200,000	0,024	-0,164
-158,979	26,043	-0,047	-0,029
-157,964	382,249	-0,099	0,149
-156,950	-200,000	0,031	-0,117
-155,935	119,008	0,075	0,068
-154,920	800,000	-0,042	-0,101
-153,906	-200,000	0,002	-0,126
-152,891	800,000	-0,008	0,020
-151,877	20,196	-0,152	0,089
-150,862	254,529	-0,050	-0,062
-149,847	457,240	0,021	0,034
-148,833	-51,319	0,078	-0,026
-147,818	800,000	-0,054	-0,119
-146,804	800,000	-0,031	-0,065
-145,789	800,000	-0,050	0,153
-144,775	77,166	-0,043	0,033
-143,760	723,714	0,035	-0,068
-142,745	-200,000	-0,006	0,023
-141,731	-200,000	-0,006	0,162
-140,716	80,121	-0,078	0,061
-139,702	-200,000	-0,018	-0,070
-138,687	-115,998	0,070	-0,009
-137,672	800,000	-0,062	0,174
-136,658	69,015	0,089	0,066
-135,643	-15,056	0,049	-0,023
-134,629	-200,000	0,016	-0,082
-133,614	21,532	0,122	0,072
-132,599	13,242	0,049	-0,028
-131,585	-83,744	-0,014	-0,003
-130,570	800,000	-0,081	-0,189
-129,556	-71,457	-0,119	-0,032
-128,541	-200,000	0,015	-0,128
-127,526	13,806	0,126	0,071
-126,512	-200,000	-0,025	0,086
-125,497	634,146	-0,026	0,049
-124,483	-53,233	0,058	-0,019
-123,468	334,286	0,041	0,058
-122,453	-109,849	-0,094	-0,014
-121,439	-119,545	-0,044	0,005
-120,424	-200,000	-0,002	0,142
-119,410	800,000	0,037	0,080
-118,395	461,217	-0,037	-0,060
