DTS Sentinel unit serial number:	SN410029Multiplexer serial number:	ORYXHardware model number:	OX2-SRSoftware version number:	ORYX F/W v4,00 Oryx Data Collector v3.7.2.0data status	okinstallation	B6 Nyhavnadifferential loss correction	single-endedforward channel	channel 2reverse channel	N/Adate	2023/12/11time	08:00:08forward acquisition time	300,00reverse acquisition time	0,00gamma	499,1914k internal	0,3128k external	0,3128temperature offset calibration	1,0000default loss term (dB/km)	0,3820temperature slope calibration	1,0000multiplexer offset coefficient	1,0000multiplexer slope coefficient	1,0000fibre end	0,00T internal ref (°C)	18,41T ext. ref 1 (°C)	0,70T ext. ref 2 (°C)	0,72length (m)	temperature (°C)	Stokes	anti-Stokes-744,400	-61,809	0,147	-0,046
-743,385	-8,448	-0,172	0,086
-742,371	607,640	0,073	-0,136
-741,356	-51,592	-0,186	0,064
-740,342	238,842	-0,032	0,039
-739,327	-139,458	-0,199	-0,016
-738,312	284,860	-0,028	-0,038
-737,298	-61,033	-0,194	-0,061
-736,283	-146,065	0,145	0,009
-735,269	159,099	-0,186	0,193
-734,254	510,627	0,012	-0,021
-733,239	-9,532	-0,421	-0,208
-732,225	-0,215	0,105	0,055
-731,210	-200,000	0,008	-0,033
-730,196	800,000	0,065	-0,178
-729,181	24,456	-0,056	-0,034
-728,167	558,343	0,022	0,039
-727,152	17,051	-0,071	0,042
-726,137	11,837	-0,100	0,057
-725,123	-118,687	-0,093	-0,012
-724,108	153,354	-0,013	-0,013
-723,094	-156,256	-0,121	0,006
-722,079	-56,178	0,117	0,039
-721,064	287,509	-0,025	-0,033
-720,050	115,973	-0,002	-0,002
-719,035	157,610	-0,039	0,040
-718,021	131,554	0,026	-0,025
-717,006	221,031	-0,015	-0,018
-715,991	31,341	-0,121	-0,077
-714,977	383,896	-0,071	-0,110
-713,962	69,065	0,040	-0,031
-712,948	84,096	0,083	0,067
-711,933	-200,000	0,004	-0,072
-710,918	413,753	-0,067	-0,107
-709,904	-87,736	0,089	0,020
-708,889	15,903	-0,122	0,071
-707,875	222,553	-0,056	-0,067
-706,860	266,906	0,049	-0,064
-705,845	-146,089	0,051	0,003
-704,831	6,426	0,172	0,095
-703,816	800,000	-0,033	-0,107
-702,802	-200,000	0,005	-0,064
-701,787	-200,000	0,040	-0,132
-700,772	800,000	0,032	-0,106
-699,758	1,762	-0,026	0,014
-698,743	65,861	0,018	-0,013
-697,729	-117,296	0,068	0,009
-696,714	53,675	-0,077	0,055
-695,699	728,089	-0,071	-0,141
-694,685	-200,000	0,058	-0,195
-693,670	-119,767	0,074	0,009
-692,656	-13,005	0,094	0,045
-691,641	490,947	-0,051	0,088
-690,627	-200,000	0,046	-0,182
-689,612	601,829	0,039	-0,073
-688,597	567,683	-0,029	-0,053
-687,583	84,055	0,088	-0,071
-686,568	238,618	-0,071	0,088
-685,554	-5,812	-0,117	-0,059
-684,539	792,571	-0,031	-0,064
-683,524	279,881	-0,056	0,074
-682,510	-194,456	-0,159	-0,001
-681,495	-126,005	0,016	-0,002
-680,481	-200,000	-0,004	-0,059
-679,466	-11,056	0,041	-0,020
-678,451	19,147	0,101	-0,060
-677,437	20,146	0,107	-0,064
-676,422	-57,589	-0,023	-0,007
-675,408	180,241	0,088	0,096
-674,393	800,000	0,031	0,076
-673,378	-200,000	-0,002	0,145
-672,364	-47,296	-0,291	0,104
-671,349	-200,000	0,014	-0,060
-670,335	45,744	0,027	-0,018
-669,320	11,609	0,082	0,046
-668,305	279,509	-0,040	-0,053
-667,291	110,115	0,004	-0,004
-666,276	800,000	-0,019	-0,049
-665,262	686,036	0,015	-0,029
-664,247	564,666	-0,050	-0,090
-663,232	-105,448	-0,082	0,014
-662,218	-3,750	0,066	0,034
-661,203	183,012	-0,037	-0,041
-660,189	-75,642	-0,077	-0,020
-659,174	800,000	-0,013	0,033
-658,159	168,969	-0,035	-0,037
-657,145	-200,000	-0,000	-0,002
-656,130	79,597	0,070	-0,055
-655,116	-95,899	0,149	0,029
-654,101	-200,000	-0,012	-0,047
-653,086	-137,207	0,121	-0,010
-652,072	332,757	-0,088	0,126
-651,057	-175,075	-0,132	0,003
-650,043	76,022	-0,065	0,051
-649,028	-64,776	-0,041	-0,012
-648,014	-56,800	-0,092	0,030
-646,999	175,703	0,094	-0,101
-645,984	-200,000	-0,010	-0,102
-644,970	800,000	0,051	-0,111
-643,955	800,000	-0,005	-0,014
-642,941	-0,571	-0,059	-0,031
-641,926	-200,000	0,014	-0,120
-640,911	-70,178	0,128	-0,036
-639,897	-200,000	0,008	0,113
-638,882	205,901	0,017	0,020
-637,868	-96,984	-0,101	-0,019
-636,853	-200,000	0,001	-0,038
-635,838	160,102	-0,146	-0,151
-634,824	413,039	-0,075	-0,119
-633,809	38,383	0,097	0,064
-632,795	223,642	-0,099	0,119
-631,780	800,000	0,052	0,151
-630,765	46,412	0,011	0,008
-629,751	233,491	0,071	0,087
-628,736	53,881	-0,045	0,032
-627,722	11,662	-0,079	0,045
-626,707	373,815	-0,025	0,038
-625,692	-200,000	-0,004	0,031
-624,678	103,640	0,042	0,036
-623,663	526,920	0,019	-0,032
-622,649	786,767	-0,036	-0,073
-621,634	142,510	0,034	0,033
-620,619	-42,601	-0,049	-0,018
-619,605	756,444	0,097	-0,195
-618,590	323,346	0,030	-0,043
-617,576	-200,000	0,003	0,071
-616,561	-200,000	-0,019	-0,118
-615,546	706,867	-0,024	-0,047
-614,532	167,075	0,030	0,032
-613,517	2,043	0,012	0,007
-612,503	261,214	-0,037	-0,047
-611,488	318,755	-0,021	0,029
-610,474	199,068	0,090	0,103
-609,459	800,000	0,042	0,090
-608,444	324,648	0,021	-0,030
-607,430	-83,008	-0,064	0,015
-606,415	240,425	-0,090	0,112
-605,401	-200,000	0,001	0,091
-604,386	-200,000	-0,014	0,048
-603,371	325,091	0,023	0,033
-602,357	219,092	-0,091	-0,108
-601,342	-200,000	0,013	-0,082
-600,328	68,887	0,017	-0,013
-599,313	-147,420	-0,064	-0,004
-598,298	138,705	-0,074	-0,072
-597,284	-200,000	-0,001	0,019
-596,269	595,286	0,028	0,051
-595,255	58,445	0,059	0,043
-594,240	642,706	0,019	-0,036
-593,225	-73,424	0,065	-0,018
-592,211	82,495	0,082	-0,066
-591,196	-91,196	-0,061	-0,013
-590,182	65,526	-0,046	0,034
-589,167	667,826	-0,060	-0,116
-588,152	800,000	-0,019	-0,060
-587,138	430,313	-0,026	0,042
-586,123	525,143	0,044	-0,077
-585,109	442,668	-0,086	-0,140
-584,094	800,000	-0,027	0,085
-583,079	800,000	0,039	0,114
-582,065	-200,000	0,012	0,050
-581,050	-109,987	0,152	-0,023
-580,036	-200,000	-0,012	-0,082
-579,021	-166,853	-0,183	0,005
-578,006	-117,151	0,084	-0,011
-576,992	147,585	-0,038	-0,038
-575,977	-200,000	-0,049	0,206
-574,963	187,304	-0,039	-0,043
-573,948	-200,000	0,009	-0,064
-572,934	215,767	-0,044	0,052
-571,919	-44,893	0,024	-0,009
-570,904	-200,000	0,013	-0,054
-569,890	59,330	0,054	0,039
-568,875	-172,804	0,093	0,002
-567,861	-200,000	0,024	-0,084
-566,846	800,000	0,014	0,046
-565,831	-200,000	0,019	0,072
-564,817	800,000	-0,039	-0,093
-563,802	-110,432	0,062	0,009
-562,788	-200,000	-0,000	-0,020
-561,773	-200,000	-0,026	-0,181
-560,758	-43,041	0,143	0,053
-559,744	-76,810	0,203	0,052
-558,729	189,195	-0,014	0,015
-557,715	-131,893	-0,098	0,009
-556,700	-179,694	-0,093	-0,001
-555,685	800,000	0,039	0,090
-554,671	238,668	-0,049	0,060
-553,656	2,013	0,031	0,017
-552,642	327,536	0,045	-0,063
-551,627	690,961	-0,047	0,092
-550,612	-101,792	-0,080	-0,014
-549,598	-83,065	0,145	-0,034
-548,583	34,325	0,041	-0,026
-547,569	-200,000	-0,001	0,029
-546,554	-86,056	0,147	0,033
-545,539	-37,704	-0,139	0,054
-544,525	-200,000	0,004	-0,024
-543,510	286,019	0,029	-0,038
-542,496	-73,996	0,047	0,012
-541,481	-200,000	-0,010	0,068
-540,466	-72,589	0,079	-0,021
-539,452	-88,690	0,127	-0,028
-538,437	171,652	0,021	-0,023
-537,423	524,199	-0,078	0,136
-536,408	-61,184	0,096	0,030
-535,393	257,190	-0,069	-0,088
-534,379	-200,000	-0,013	-0,147
-533,364	17,072	0,074	0,043
-532,350	-200,000	-0,009	-0,045
-531,335	-64,404	-0,076	-0,023
-530,321	-70,508	-0,080	0,022
-529,306	-99,132	-0,052	0,010
-528,291	327,493	-0,114	-0,162
-527,277	-86,856	-0,086	-0,019
-526,262	800,000	-0,021	-0,051
-525,248	-8,123	0,116	0,058
-524,233	307,606	0,091	0,126
-523,218	234,678	-0,037	0,045
-522,204	-33,283	0,064	-0,026
-521,189	-200,000	0,007	-0,189
-520,175	77,080	-0,023	0,018
-519,160	236,904	-0,047	-0,058
-518,145	205,589	0,076	0,088
-517,131	119,092	0,129	0,117
-516,116	-82,003	0,081	-0,019
-515,102	149,879	0,065	-0,065
-514,087	-41,049	0,061	-0,023
-513,072	-148,603	-0,123	-0,007
-512,058	-200,000	0,020	-0,078
-511,043	687,224	-0,030	0,058
-510,029	606,235	-0,022	0,041
-509,014	800,000	0,042	0,086
-507,999	0,449	-0,138	-0,072
-506,985	88,437	-0,088	-0,072
-505,970	-85,728	-0,074	0,017
-504,956	664,299	0,026	-0,050
-503,941	-200,000	-0,014	-0,081
-502,926	-112,825	0,009	-0,001
-501,912	-200,000	0,003	0,012
-500,897	87,194	-0,171	0,139
-499,883	-200,000	0,001	0,048
-498,868	682,669	-0,014	-0,027
-497,853	411,982	-0,022	0,034
-496,839	-5,674	-0,102	-0,051
-495,824	-200,000	0,021	0,091
-494,810	-49,265	-0,046	0,016
-493,795	-189,760	0,086	0,001
-492,781	800,000	-0,031	-0,092
-491,766	800,000	-0,039	-0,115
-490,751	-200,000	-0,003	-0,161
-489,737	800,000	-0,028	0,070
-488,722	-128,384	0,038	-0,004
-487,708	-79,084	0,148	0,037
-486,693	30,033	-0,069	-0,043
-485,678	800,000	0,035	0,073
-484,664	-200,000	-0,025	0,094
-483,649	8,873	-0,129	0,072
-482,635	485,861	0,054	-0,090
-481,620	-17,224	0,073	0,034
-480,605	800,000	0,024	0,049
-479,591	-43,219	-0,074	-0,028
-478,576	118,841	0,046	0,042
-477,562	184,922	-0,101	-0,111
-476,547	-200,000	-0,115	-0,000
-475,532	193,823	0,116	-0,129
-474,518	-200,000	0,020	0,148
-473,503	-200,000	0,015	-0,128
-472,489	107,180	0,032	0,028
-471,474	143,101	-0,093	-0,091
-470,459	-41,009	0,063	0,024
-469,445	27,480	-0,026	0,016
-468,430	57,040	0,089	-0,064
-467,416	800,000	0,019	0,043
-466,401	-48,992	-0,097	0,034
-465,386	551,813	0,037	0,065
-464,372	1,663	-0,079	0,042
-463,357	-25,302	0,101	-0,044
-462,343	112,591	-0,083	-0,074
-461,328	800,000	-0,027	-0,077
-460,313	-200,000	0,011	0,062
-459,299	-130,262	0,095	-0,009
-458,284	101,875	0,039	0,034
-457,270	-200,000	0,012	0,046
-456,255	-116,738	0,118	-0,016
-455,241	-200,000	-0,003	-0,038
-454,226	-200,000	-0,005	-0,091
-453,211	-54,520	0,035	-0,012
-452,197	234,020	0,046	0,056
-451,182	-135,985	-0,030	0,003
-450,168	800,000	-0,032	-0,087
-449,153	320,700	0,041	-0,058
-448,138	-200,000	-0,006	-0,078
-447,124	112,806	0,080	-0,072
-446,109	-200,000	0,008	-0,044
-445,095	44,649	-0,047	-0,032
-444,080	-200,000	-0,004	0,175
-443,065	800,000	0,072	0,150
-442,051	-200,000	-0,020	-0,109
-441,036	800,000	-0,024	-0,061
-440,022	-200,000	-0,046	0,164
-439,007	-12,411	0,080	0,038
-437,992	279,508	0,057	-0,075
-436,978	49,492	0,095	-0,065
-435,963	269,983	-0,071	0,092
-434,949	-126,925	-0,151	-0,016
-433,934	-103,931	-0,084	0,014
-432,919	-14,104	0,011	0,005
-431,905	-200,000	0,006	-0,041
-430,890	-97,938	-0,093	0,018
-429,876	-62,376	0,047	-0,014
-428,861	411,750	-0,053	0,083
-427,846	-56,060	0,080	0,026
-426,832	347,839	-0,041	0,060
-425,817	-129,228	-0,084	-0,008
-424,803	800,000	0,027	-0,080
-423,788	-185,529	-0,044	-0,000
-422,773	168,226	0,141	0,148
-421,759	800,000	0,011	0,035
-420,744	88,607	-0,130	0,106
-419,730	504,103	0,037	-0,063
-418,715	-200,000	0,000	-0,065
-417,701	191,219	0,092	0,102
-416,686	-104,114	-0,016	-0,003
-415,671	-165,715	0,179	0,006
-414,657	50,428	0,095	0,066
-413,642	72,053	-0,104	-0,080
-412,628	340,752	-0,077	-0,110
-411,613	-165,552	-0,036	-0,001
-410,598	17,482	0,072	-0,042
-409,584	-200,000	-0,003	-0,033
-408,569	380,401	-0,016	0,024
-407,555	400,701	-0,024	0,037
-406,540	2,630	-0,018	-0,010
-405,525	-200,000	-0,015	-0,060
-404,511	-200,000	-0,018	-0,084
-403,496	28,232	0,029	-0,018
-402,482	549,393	-0,044	0,079
-401,467	-158,117	0,093	-0,004
-400,452	-80,521	0,058	0,014
-399,438	670,454	0,028	0,053
-398,423	107,771	0,073	0,064
-397,409	800,000	-0,038	0,095
-396,394	-40,298	-0,075	-0,029
-395,379	800,000	0,010	-0,025
-394,365	-23,720	0,056	-0,025
-393,350	791,621	-0,042	-0,085
-392,336	603,167	0,007	-0,012
-391,321	-200,000	0,021	-0,088
-390,306	-200,000	0,017	-0,157
-389,292	800,000	0,051	-0,108
-388,277	131,000	0,052	0,049
-387,263	-50,599	-0,105	-0,036
-386,248	70,386	0,163	-0,123
-385,233	-20,880	-0,036	0,016
-384,219	800,000	0,013	-0,040
-383,204	-170,178	0,061	-0,002
-382,190	-15,763	0,115	-0,053
-381,175	-200,000	0,020	-0,080
-380,160	71,111	0,008	0,006
-379,146	-112,528	0,094	-0,014
-378,131	-106,830	-0,070	-0,011
-377,117	-15,307	0,063	0,029
-376,102	515,724	-0,060	0,103
-375,088	-28,496	0,185	-0,078
-374,073	25,048	-0,025	-0,015
-373,058	15,772	-0,121	0,070
-372,044	759,360	-0,027	0,054
-371,029	109,371	0,143	0,126
-370,015	-142,191	0,097	-0,007
-369,000	-78,203	0,097	-0,024
-367,985	763,991	-0,102	0,205
-366,971	76,076	-0,037	-0,029
-365,956	800,000	-0,007	0,017
-364,942	28,741	0,145	0,090
-363,927	800,000	0,011	-0,035
-362,912	800,000	0,040	-0,113
-361,898	800,000	0,069	-0,147
-360,883	218,545	-0,058	0,068
-359,869	-200,000	-0,033	0,130
-358,854	-200,000	-0,014	0,212
-357,839	142,611	-0,042	0,041
-356,825	-200,000	0,015	0,112
-355,810	36,311	-0,053	0,034
-354,796	800,000	-0,023	-0,069
-353,781	317,936	0,032	0,045
-352,766	-7,572	-0,045	0,022
-351,752	-39,593	-0,056	-0,021
-350,737	3,970	-0,113	0,061
-349,723	98,517	0,070	-0,059
-348,708	37,560	0,042	-0,027
-347,693	-96,383	-0,033	-0,006
-346,679	10,721	0,032	-0,018
-345,664	800,000	0,040	0,119
-344,650	-22,853	0,163	0,072
-343,635	-15,215	-0,177	0,083
-342,620	800,000	0,075	0,176
-341,606	482,444	-0,069	-0,116
-340,591	114,468	-0,102	-0,091
-339,577	552,706	-0,026	-0,046
-338,562	-200,000	-0,022	-0,126
-337,548	385,410	0,091	-0,138
-336,533	95,379	-0,036	0,030
-335,518	-90,723	0,030	0,006
-334,504	-200,000	-0,017	0,061
-333,489	15,644	0,038	0,022
-332,475	-56,987	-0,058	0,019
-331,460	16,682	-0,083	-0,048
-330,445	-200,000	-0,016	0,082
-329,431	104,589	0,089	0,077
-328,416	-200,000	0,004	-0,027
-327,402	-200,000	0,025	0,133
-326,387	800,000	0,030	-0,067
-325,372	331,166	0,041	-0,058
-324,358	-200,000	0,079	0,000
-323,343	-43,770	0,035	-0,013
-322,329	211,039	0,088	0,101
-321,314	454,024	-0,059	0,096
-320,299	302,622	0,101	0,137
-319,285	-42,271	0,061	-0,023
-318,270	-90,294	-0,064	-0,013
-317,256	-50,854	-0,138	-0,047
-316,241	-200,000	0,008	0,047
-315,226	-200,000	0,005	0,047
-314,212	-200,000	-0,007	0,147
-313,197	-62,268	0,105	0,032
-312,183	-200,000	-0,002	0,069
-311,168	199,727	0,024	-0,027
-310,153	-50,150	-0,100	-0,034
-309,139	618,659	0,026	-0,047
-308,124	-200,000	-0,020	0,070
-307,110	356,315	0,102	0,150
-306,095	800,000	0,088	-0,202
-305,080	-42,790	-0,101	0,037
-304,066	316,048	-0,028	-0,039
-303,051	-192,788	0,091	-0,001
-302,037	37,335	-0,115	0,075
-301,022	186,110	0,131	0,142
-300,008	-141,968	-0,053	0,004
-298,993	642,562	0,029	0,054
-297,978	172,074	0,024	0,025
-296,964	30,240	-0,139	-0,086
-295,949	-58,241	-0,172	0,054
-294,935	-146,357	-0,069	-0,004
-293,920	301,301	0,125	-0,169
-292,905	315,388	0,069	0,096
-291,891	-200,000	0,009	0,033
-290,876	-200,000	-0,008	-0,076
-289,862	800,000	0,026	0,062
-288,847	191,750	-0,068	0,075
-287,832	151,139	0,083	-0,083
-286,818	-200,000	0,029	0,096
-285,803	-200,000	0,049	0,178
-284,789	800,000	-0,049	0,140
-283,774	169,920	-0,153	0,160
-282,759	-35,984	-0,022	-0,009
-281,745	459,488	-0,035	-0,057
-280,730	-162,863	-0,128	-0,004
-279,716	-111,651	0,040	-0,006
-278,701	68,754	-0,089	0,067
-277,686	800,000	0,013	0,039
-276,672	186,167	-0,078	0,085
-275,657	69,165	-0,036	0,027
-274,643	-200,000	-0,020	-0,217
-273,628	625,053	-0,019	-0,036
-272,613	-164,889	-0,066	0,002
-271,599	-181,182	0,119	0,002
-270,584	-90,552	-0,034	0,007
-269,570	-200,000	0,008	-0,047
-268,555	800,000	0,009	-0,027
-267,540	-87,773	0,020	0,004
-266,526	800,000	-0,045	0,096
-265,511	-130,244	-0,069	0,007
-264,497	337,263	0,011	0,016
-263,482	-200,000	0,015	-0,060
-262,467	-47,946	0,121	0,043
-261,453	130,779	-0,032	-0,030
-260,438	-175,709	0,081	-0,002
-259,424	800,000	-0,029	-0,068
-258,409	30,510	0,045	-0,028
-257,395	727,460	-0,033	0,064
-256,380	800,000	0,012	-0,033
-255,365	-116,342	-0,087	0,012
-254,351	-90,811	-0,035	0,007
-253,336	800,000	-0,028	0,080
-252,322	257,600	0,040	0,050
-251,307	150,553	0,033	0,033
-250,292	74,650	-0,120	0,092
-249,278	108,871	-0,182	0,159
-248,263	283,241	-0,024	-0,032
-247,249	-200,000	-0,036	-0,135
-246,234	267,628	-0,041	0,052
-245,219	193,206	0,095	0,105
-244,205	-200,000	-0,001	-0,128
-243,190	800,000	0,071	-0,187
-242,176	156,707	-0,083	-0,084
-241,161	327,917	-0,043	0,061
-240,146	800,000	0,067	0,136
-239,132	50,847	-0,058	-0,040
-238,117	-200,000	0,002	-0,007
-237,103	-64,566	0,060	-0,018
-236,088	-99,195	-0,159	-0,029
-235,073	-138,453	0,160	-0,013
-234,059	109,923	0,099	0,087
-233,044	-200,000	-0,010	-0,048
-232,030	-42,614	0,122	-0,045
-231,015	12,446	0,091	0,051
-230,000	-200,000	-0,028	0,109
-228,986	-59,112	-0,033	-0,010
-227,971	-200,000	-0,002	-0,077
-226,957	-200,000	0,002	-0,075
-225,942	116,625	0,087	0,078
-224,927	-11,852	-0,163	-0,078
-223,913	800,000	-0,017	-0,046
-222,898	-140,770	-0,068	0,005
-221,884	178,413	0,072	0,077
-220,869	144,005	-0,058	0,057
-219,855	-90,258	0,051	-0,011
-218,840	-63,571	-0,027	0,008
-217,825	118,902	-0,039	-0,036
-216,811	646,922	-0,063	-0,118
-215,796	20,995	0,093	-0,055
-214,782	640,949	0,059	-0,109
-213,767	-200,000	-0,002	0,023
-212,752	-200,000	0,009	-0,080
-211,738	85,803	0,066	-0,053
-210,723	398,641	0,032	0,049
-209,709	-86,545	0,066	-0,015
-208,694	800,000	-0,015	-0,033
-207,679	130,165	-0,089	-0,084
-206,665	123,008	0,081	-0,074
-205,650	-13,514	0,056	-0,026
-204,636	259,708	0,027	0,034
-203,621	-35,186	0,053	-0,021
-202,606	335,005	0,056	0,080
-201,592	62,640	-0,124	-0,090
-200,577	-77,169	-0,072	0,018
-199,563	9,401	0,067	-0,037
-198,548	240,855	-0,041	-0,050
-197,533	-200,000	0,013	0,113
-196,519	-57,921	0,019	0,006
-195,504	-149,856	-0,138	0,008
-194,490	-17,752	-0,037	-0,017
-193,475	-164,088	-0,184	0,006
-192,460	-200,000	-0,009	0,126
-191,446	60,025	0,169	0,121
-190,431	-200,000	-0,015	0,069
-189,417	104,915	0,044	-0,038
-188,402	-200,000	0,028	0,110
-187,387	-200,000	0,029	-0,108
-186,373	800,000	-0,037	-0,091
-185,358	-200,000	0,007	-0,059
-184,344	206,513	-0,024	-0,027
-183,329	-200,000	-0,022	0,141
-182,315	-79,542	-0,093	-0,023
-181,300	-200,000	-0,019	-0,097
-180,285	-150,221	0,095	0,005
-179,271	-200,000	0,003	-0,072
-178,256	30,909	0,119	-0,074
-177,242	319,769	-0,013	-0,017
-176,227	-39,588	-0,064	-0,024
-175,212	-81,269	0,055	-0,013
-174,198	800,000	-0,009	-0,022
-173,183	160,590	-0,102	-0,104
-172,169	-24,573	-0,009	0,004
-171,154	131,894	-0,057	0,053
-170,139	277,702	-0,122	0,158
-169,125	109,857	0,026	-0,023
-168,110	-104,358	-0,090	0,015
-167,096	-97,585	-0,124	-0,023
-166,081	85,203	-0,037	0,030
-165,066	140,873	-0,086	-0,083
-164,052	506,485	0,097	-0,164
-163,037	-1,039	-0,043	0,022
-162,023	800,000	0,020	-0,063
-161,008	190,196	-0,072	0,079
-159,993	-50,665	-0,027	0,009
-158,979	-14,476	-0,067	-0,031
-157,964	285,252	0,069	-0,091
-156,950	84,579	0,071	0,056
-155,935	1,489	0,115	-0,060
-154,920	746,236	0,038	0,076
-153,906	30,235	-0,069	-0,043
-152,891	-174,006	-0,054	0,001
-151,877	-0,517	0,042	0,021
-150,862	-74,368	-0,032	0,008
-149,847	62,703	0,103	-0,075
-148,833	800,000	0,015	0,037
-147,818	16,820	0,073	0,042
-146,804	-67,856	0,045	0,013
-145,789	-200,000	0,002	0,024
-144,775	-107,037	-0,041	0,007
-143,760	-88,227	-0,075	-0,016
-142,745	-136,330	0,012	-0,001
-141,731	50,086	-0,144	-0,098
-140,716	-68,657	0,132	-0,037
-139,702	800,000	-0,056	0,121
-138,687	-124,683	0,084	-0,009
-137,672	-118,155	-0,092	0,012
-136,658	795,601	0,088	-0,177
-135,643	5,952	-0,028	0,015
-134,629	104,491	-0,088	-0,075
-133,614	-0,190	-0,081	0,042
-132,599	-200,000	0,008	0,080
-131,585	216,558	0,044	-0,051
-130,570	115,061	-0,036	0,032
-129,556	273,338	-0,044	0,057
-128,541	-109,108	-0,059	-0,009
-127,526	-164,991	0,029	-0,001
-126,512	-22,052	-0,047	0,021
-125,497	-61,354	0,144	0,044
-124,483	-200,000	-0,003	0,060
-123,468	-17,434	-0,010	-0,005
-122,453	800,000	-0,030	0,090
-121,439	-200,000	0,022	0,152
-120,424	635,196	-0,016	0,029
-119,410	209,538	0,071	0,081
-118,395	-76,698	-0,126	0,032
