DTS Sentinel unit serial number:	SN410029Multiplexer serial number:	ORYXHardware model number:	OX2-SRSoftware version number:	ORYX F/W v4,00 Oryx Data Collector v3.7.2.0data status	okinstallation	B6 Nyhavnadifferential loss correction	single-endedforward channel	channel 2reverse channel	N/Adate	2023/12/09time	22:20:08forward acquisition time	300,00reverse acquisition time	0,00gamma	499,1914k internal	0,3127k external	0,3127temperature offset calibration	1,0000default loss term (dB/km)	0,3820temperature slope calibration	1,0000multiplexer offset coefficient	1,0000multiplexer slope coefficient	1,0000fibre end	0,00T internal ref (°C)	21,67T ext. ref 1 (°C)	5,42T ext. ref 2 (°C)	5,41length (m)	temperature (°C)	Stokes	anti-Stokes-744,400	-200,000	0,009	-0,172
-743,385	22,226	-0,185	0,112
-742,371	-49,618	0,197	0,069
-741,356	329,512	-0,152	0,218
-740,342	145,054	0,061	0,061
-739,327	-17,790	-0,158	0,074
-738,312	12,194	-0,086	0,049
-737,298	-65,208	-0,203	0,061
-736,283	41,417	-0,119	-0,080
-735,269	338,970	-0,097	0,141
-734,254	545,344	0,025	0,044
-733,239	-108,969	-0,441	-0,069
-732,225	40,274	0,166	0,111
-731,210	74,383	0,092	0,072
-730,196	-200,000	-0,024	-0,117
-729,181	451,619	-0,076	-0,125
-728,167	800,000	0,023	0,058
-727,152	247,510	0,136	0,172
-726,137	377,017	-0,090	-0,137
-725,123	-103,911	-0,071	0,012
-724,108	-93,104	-0,075	-0,015
-723,094	-200,000	-0,010	-0,107
-722,079	65,417	-0,065	-0,049
-721,064	800,000	-0,025	0,061
-720,050	536,075	-0,045	-0,080
-719,035	205,741	0,076	-0,088
-718,021	88,373	0,043	0,036
-717,006	410,303	0,018	0,028
-715,991	-32,652	-0,095	-0,039
-714,977	640,915	-0,021	0,040
-713,962	32,014	-0,069	0,044
-712,948	-168,095	-0,164	-0,005
-711,933	57,947	0,059	-0,043
-710,918	177,120	-0,072	0,078
-709,904	253,559	-0,130	0,166
-708,889	-146,170	-0,035	-0,002
-707,875	-24,323	-0,155	0,069
-706,860	800,000	-0,032	-0,095
-705,845	-7,340	0,029	-0,015
-704,831	494,337	-0,073	-0,124
-703,816	9,956	0,051	0,029
-702,802	63,501	-0,054	-0,041
-701,787	-124,661	-0,051	0,006
-700,772	318,105	-0,065	-0,091
-699,758	-200,000	-0,001	0,056
-698,743	160,803	0,032	-0,033
-697,729	98,245	-0,059	0,050
-696,714	381,819	-0,020	-0,031
-695,699	-1,146	0,013	0,007
-694,685	297,145	-0,086	0,117
-693,670	-109,097	-0,134	0,021
-692,656	640,230	-0,027	0,051
-691,641	-200,000	0,013	-0,078
-690,627	-134,937	0,091	0,008
-689,612	800,000	0,006	-0,019
-688,597	-200,000	-0,015	-0,050
-687,583	226,801	-0,159	-0,192
-686,568	-127,577	-0,117	-0,012
-685,554	259,865	-0,046	-0,059
-684,539	133,422	-0,031	-0,030
-683,524	798,716	-0,017	0,034
-682,510	-31,182	0,044	-0,018
-681,495	437,932	-0,060	-0,098
-680,481	345,317	-0,014	0,020
-679,466	800,000	0,037	0,097
-678,451	-91,375	-0,112	-0,024
-677,437	711,242	-0,022	-0,044
-676,422	166,264	0,076	0,080
-675,408	-38,717	0,148	0,058
-674,393	430,491	0,034	-0,054
-673,378	-200,000	-0,046	-0,179
-672,364	103,019	-0,015	0,013
-671,349	-200,000	-0,011	0,047
-670,335	387,539	0,090	-0,139
-669,320	-200,000	-0,014	-0,184
-668,305	-62,294	-0,126	-0,039
-667,291	-62,893	0,102	0,031
-666,276	-86,515	0,042	0,010
-665,262	399,340	0,083	-0,130
-664,247	404,830	-0,027	0,042
-663,232	119,703	0,070	-0,065
-662,218	-109,392	-0,140	0,022
-661,203	800,000	0,067	0,138
-660,189	-200,000	-0,026	-0,124
-659,174	-200,000	0,007	0,053
-658,159	134,341	-0,079	-0,076
-657,145	-200,000	0,017	-0,147
-656,130	-100,424	-0,125	0,023
-655,116	-172,572	0,035	-0,001
-654,101	-24,570	-0,119	0,052
-653,086	61,910	-0,047	-0,035
-652,072	767,640	0,038	0,077
-651,057	33,850	-0,127	0,082
-650,043	-35,199	-0,095	-0,038
-649,028	-200,000	0,015	0,056
-648,014	212,819	-0,087	-0,102
-646,999	57,947	0,054	-0,039
-645,984	32,881	0,117	-0,075
-644,970	-43,069	-0,056	-0,021
-643,955	-9,035	0,055	-0,027
-642,941	-200,000	-0,004	-0,027
-641,926	322,963	-0,115	0,162
-640,911	-172,106	0,048	-0,001
-639,897	130,991	-0,014	-0,014
-638,882	-73,496	0,085	0,023
-637,868	-70,380	-0,126	-0,035
-636,853	108,733	-0,065	0,058
-635,838	333,249	0,031	-0,044
-634,824	800,000	-0,027	-0,080
-633,809	64,422	0,112	-0,083
-632,795	800,000	-0,028	0,069
-631,780	193,266	0,045	0,051
-630,765	-200,000	-0,006	0,039
-629,751	-69,131	0,152	-0,043
-628,736	-107,711	-0,120	0,019
-627,722	-56,712	-0,087	0,028
-626,707	288,935	-0,090	0,121
-625,692	-70,495	0,128	-0,036
-624,678	-200,000	0,003	0,052
-623,663	661,384	-0,062	0,119
-622,649	-200,000	0,004	-0,031
-621,634	-200,000	0,020	-0,110
-620,619	-200,000	-0,020	-0,096
-619,605	-200,000	0,005	0,086
-618,590	-58,127	0,128	0,041
-617,576	-200,000	-0,012	0,077
-616,561	212,594	0,051	0,059
-615,546	-200,000	0,002	0,037
-614,532	800,000	-0,014	-0,031
-613,517	-200,000	-0,003	0,093
-612,503	-200,000	0,001	0,040
-611,488	230,860	0,032	-0,039
-610,474	-93,234	-0,214	-0,044
-609,459	-200,000	0,012	0,052
-608,444	800,000	-0,051	-0,105
-607,430	18,656	-0,014	0,008
-606,415	-128,566	0,067	-0,007
-605,401	800,000	-0,020	0,056
-604,386	-200,000	-0,002	-0,037
-603,371	-4,409	0,054	0,028
-602,357	227,558	-0,095	-0,115
-601,342	-200,000	-0,004	-0,063
-600,328	-200,000	0,005	-0,186
-599,313	-152,635	-0,121	-0,006
-598,298	-200,000	0,004	-0,098
-597,284	-93,623	-0,073	-0,015
-596,269	800,000	-0,007	-0,022
-595,255	800,000	0,034	0,082
-594,240	-86,946	-0,092	-0,021
-593,225	800,000	-0,055	-0,141
-592,211	47,650	-0,105	0,072
-591,196	-101,262	-0,089	-0,016
-590,182	406,600	-0,060	-0,093
-589,167	147,546	0,063	-0,063
-588,152	197,452	-0,005	-0,006
-587,138	532,414	-0,058	0,101
-586,123	13,969	-0,084	-0,048
-585,109	379,271	-0,024	-0,036
-584,094	45,103	0,063	0,043
-583,079	-23,609	-0,019	-0,008
-582,065	-8,779	0,072	0,035
-581,050	513,713	-0,101	-0,174
-580,036	-17,877	-0,039	-0,018
-579,021	-4,730	-0,046	0,024
-578,006	-41,984	-0,023	0,009
-576,992	147,353	0,020	0,020
-575,977	800,000	0,009	0,028
-574,963	-82,222	0,102	-0,024
-573,948	-86,441	0,217	0,049
-572,934	24,517	0,111	-0,068
-571,919	-97,831	0,081	-0,015
-570,904	800,000	0,060	-0,129
-569,890	-91,835	0,092	0,019
-568,875	568,477	0,013	0,023
-567,861	-39,863	-0,085	0,033
-566,846	-200,000	0,009	-0,033
-565,831	283,960	0,034	-0,046
-564,817	-167,353	-0,103	0,003
-563,802	75,547	0,101	-0,079
-562,788	-200,000	-0,004	0,045
-561,773	-134,761	-0,097	-0,009
-560,758	-15,397	0,037	-0,018
-559,744	102,996	-0,025	-0,022
-558,729	-35,655	0,132	-0,052
-557,715	-14,529	0,025	0,012
-556,700	-200,000	-0,016	-0,123
-555,685	-200,000	-0,007	-0,042
-554,671	-64,877	0,159	0,047
-553,656	-56,347	-0,052	-0,017
-552,642	-200,000	-0,002	-0,063
-551,627	800,000	0,020	0,052
-550,612	274,022	0,052	0,069
-549,598	-32,300	-0,101	0,041
-548,583	-50,590	0,099	-0,034
-547,569	14,593	-0,061	0,035
-546,554	13,203	0,169	0,096
-545,539	-118,435	-0,111	0,014
-544,525	800,000	-0,033	-0,080
-543,510	279,791	-0,064	0,084
-542,496	92,324	0,137	0,114
-541,481	-138,279	-0,115	0,009
-540,466	193,477	-0,021	-0,023
-539,452	-71,542	-0,142	-0,039
-538,437	572,941	0,004	-0,007
-537,423	175,564	-0,140	-0,150
-536,408	37,807	-0,045	-0,029
-535,393	-200,000	-0,029	0,111
-534,379	272,001	0,092	-0,119
-533,364	-200,000	-0,001	-0,018
-532,350	-200,000	0,000	-0,061
-531,335	-200,000	0,004	0,048
-530,321	39,055	-0,094	0,062
-529,306	800,000	0,040	-0,093
-528,291	-93,143	0,048	0,010
-527,277	-200,000	-0,005	-0,030
-526,262	466,416	-0,041	-0,068
-525,248	-200,000	-0,010	-0,074
-524,233	7,328	0,077	-0,042
-523,218	-108,394	0,058	-0,009
-522,204	-200,000	0,002	-0,013
-521,189	152,141	0,083	0,084
-520,175	417,731	-0,058	-0,092
-519,160	-200,000	0,022	-0,109
-518,145	198,195	0,101	0,114
-517,131	-19,456	0,112	0,051
-516,116	-38,970	0,141	0,054
-515,102	-200,000	0,018	-0,138
-514,087	-40,237	-0,044	0,017
-513,072	-173,502	0,126	-0,003
-512,058	-106,562	0,120	0,020
-511,043	266,014	0,025	0,033
-510,029	-200,000	0,017	0,088
-509,014	-136,412	0,062	-0,005
-507,999	4,619	0,033	0,018
-506,985	-200,000	-0,155	0,000
-505,970	800,000	-0,061	0,162
-504,956	404,122	-0,091	-0,142
-503,941	645,429	0,026	-0,049
-502,926	-80,070	-0,076	-0,019
-501,912	-200,000	0,021	0,072
-500,897	800,000	-0,042	0,115
-499,883	-5,355	-0,105	0,053
-498,868	800,000	-0,039	0,093
-497,853	50,147	-0,132	0,092
-496,839	800,000	0,019	-0,057
-495,824	-141,288	-0,152	0,011
-494,810	23,140	0,191	0,115
-493,795	-200,000	0,017	-0,064
-492,781	-200,000	-0,003	0,011
-491,766	770,088	0,017	0,035
-490,751	-200,000	0,009	-0,038
-489,737	-188,420	-0,083	0,001
-488,722	-200,000	0,007	-0,079
-487,708	243,849	0,019	-0,023
-486,693	-200,000	-0,013	-0,101
-485,678	-52,897	-0,175	-0,059
-484,664	-1,000	-0,142	0,074
-483,649	-1,067	-0,005	-0,002
-482,635	90,064	-0,068	-0,056
-481,620	-200,000	0,029	-0,140
-480,605	800,000	0,077	0,174
-479,591	-111,889	0,099	-0,015
-478,576	325,278	-0,038	-0,054
-477,562	-200,000	-0,001	-0,055
-476,547	-121,749	0,048	0,006
-475,532	-47,794	-0,057	0,020
-474,518	-121,801	0,201	0,024
-473,503	112,148	0,013	0,012
-472,489	800,000	0,079	0,164
-471,474	119,947	-0,065	-0,060
-470,459	762,460	-0,048	-0,096
-469,445	15,905	0,101	0,058
-468,430	-200,000	-0,001	0,012
-467,416	-79,836	0,084	0,021
-466,401	2,804	-0,072	-0,038
-465,386	89,548	0,158	0,130
-464,372	800,000	-0,056	0,150
-463,357	170,469	0,122	0,128
-462,343	-138,882	-0,014	-0,001
-461,328	-156,862	0,056	0,002
-460,313	-82,989	0,030	0,007
-459,299	124,386	0,049	0,046
-458,284	-54,812	0,084	0,028
-457,270	131,851	-0,057	-0,054
-456,255	-200,000	-0,020	-0,076
-455,241	-200,000	-0,025	-0,083
-454,226	33,459	0,116	-0,074
-453,211	8,811	0,048	0,026
-452,197	338,069	0,017	-0,025
-451,182	780,317	0,027	-0,056
-450,168	-1,607	0,034	0,017
-449,153	692,289	0,059	-0,114
-448,138	-60,983	0,009	0,003
-447,124	482,651	0,091	-0,153
-446,109	-200,000	-0,004	-0,056
-445,095	-53,636	-0,083	0,028
-444,080	449,165	0,041	0,067
-443,065	215,657	0,139	0,162
-442,051	27,151	-0,133	0,082
-441,036	-200,000	-0,007	-0,065
-440,022	93,260	-0,020	0,016
-439,007	-146,947	-0,092	-0,006
-437,992	185,406	-0,002	0,002
-436,978	94,365	0,017	0,014
-435,963	800,000	0,010	0,031
-434,949	-200,000	0,016	-0,196
-433,934	-200,000	0,002	-0,056
-432,919	-200,000	0,002	0,025
-431,905	64,443	-0,065	-0,048
-430,890	800,000	0,072	-0,213
-429,876	-155,187	0,178	0,008
-428,861	145,023	-0,038	0,037
-427,846	800,000	0,027	-0,057
-426,832	58,495	-0,070	0,050
-425,817	800,000	-0,025	-0,068
-424,803	-17,305	-0,193	-0,089
-423,788	796,172	0,034	0,069
-422,773	118,205	0,083	0,075
-421,759	-200,000	0,003	0,024
-420,744	14,861	0,078	0,045
-419,730	800,000	0,011	0,027
-418,715	-174,883	-0,091	-0,002
-417,701	-200,000	0,039	0,135
-416,686	-1,155	0,041	-0,021
-415,671	127,102	-0,022	0,020
-414,657	13,909	-0,030	0,017
-413,642	-108,954	0,057	-0,009
-412,628	-183,526	-0,078	0,001
-411,613	86,761	0,087	-0,070
-410,598	-200,000	0,012	-0,068
-409,584	300,478	-0,061	0,083
-408,569	-200,000	0,041	0,132
-407,555	-148,756	0,056	-0,003
-406,540	-141,461	0,150	-0,011
-405,525	88,633	-0,089	0,072
-404,511	-200,000	-0,007	-0,217
-403,496	-103,384	0,085	-0,015
-402,482	11,490	0,143	-0,081
-401,467	-105,109	-0,124	0,021
-400,452	-200,000	-0,006	0,103
-399,438	800,000	0,048	0,114
-398,423	5,626	-0,031	-0,017
-397,409	105,873	-0,018	-0,016
-396,394	800,000	0,034	-0,085
-395,379	-200,000	-0,014	0,047
-394,365	44,198	-0,023	0,016
-393,350	344,759	0,067	0,097
-392,336	567,539	0,080	0,142
-391,321	800,000	0,014	-0,033
-390,306	-172,684	-0,110	0,002
-389,292	266,729	-0,079	-0,102
-388,277	169,520	-0,057	0,060
-387,263	188,252	-0,043	-0,047
-386,248	800,000	0,086	0,189
-385,233	-60,110	0,161	0,050
-384,219	-62,022	-0,137	0,042
-383,204	-63,534	-0,078	-0,023
-382,190	81,356	-0,160	-0,127
-381,175	152,139	-0,067	0,067
-380,160	-144,280	0,050	-0,003
-379,146	233,479	-0,077	0,094
-378,131	-159,620	-0,103	-0,004
-377,117	-200,000	0,032	-0,135
-376,102	-10,368	0,033	-0,016
-375,088	-200,000	0,002	-0,108
-374,073	81,308	-0,035	-0,028
-373,058	-89,295	0,148	0,032
-372,044	-200,000	-0,005	-0,020
-371,029	520,150	-0,011	-0,019
-370,015	800,000	-0,023	0,052
-369,000	-117,578	0,023	-0,003
-367,985	-200,000	0,010	0,059
-366,971	-14,676	-0,076	-0,035
-365,956	-200,000	-0,010	-0,125
-364,942	-200,000	-0,010	-0,075
-363,927	296,892	0,049	0,066
-362,912	-200,000	0,023	-0,199
-361,898	82,562	-0,050	-0,040
-360,883	800,000	-0,019	0,048
-359,869	79,628	-0,047	0,037
-358,854	269,560	0,019	0,024
-357,839	-67,818	0,028	0,008
-356,825	-200,000	-0,012	0,192
-355,810	-200,000	-0,007	0,064
-354,796	78,546	0,017	-0,013
-353,781	-9,741	0,006	-0,003
-352,766	286,918	-0,046	-0,061
-351,752	-82,091	0,124	0,029
-350,737	610,331	0,063	0,116
-349,723	18,525	0,064	-0,037
-348,708	2,757	0,117	0,062
-347,693	179,114	-0,093	0,100
-346,679	67,308	0,106	-0,079
-345,664	-200,000	0,031	0,145
-344,650	-104,951	0,061	0,010
-343,635	-151,912	0,055	0,003
-342,620	389,172	0,050	0,075
-341,606	-127,377	0,095	0,010
-340,591	-36,305	-0,041	-0,016
-339,577	-200,000	0,013	-0,126
-338,562	800,000	0,074	-0,155
-337,548	-6,020	-0,021	-0,010
-336,533	-200,000	0,017	0,076
-335,518	664,564	0,062	-0,117
-334,504	800,000	0,073	0,190
-333,489	207,054	-0,042	-0,049
-332,475	-200,000	0,007	-0,149
-331,460	-200,000	0,038	-0,142
-330,445	326,814	-0,054	0,076
-329,431	-73,687	0,064	0,017
-328,416	255,147	0,063	-0,079
-327,402	-114,981	-0,069	-0,010
-326,387	690,012	-0,019	0,036
-325,372	-36,290	0,046	-0,018
-324,358	120,734	0,058	0,053
-323,343	22,262	-0,013	-0,008
-322,329	292,351	0,068	0,091
-321,314	-23,383	0,109	-0,048
-320,299	544,857	0,048	-0,085
-319,285	15,023	-0,122	-0,070
-318,270	348,854	0,027	0,040
-317,256	-68,417	0,075	0,021
-316,241	35,593	0,121	0,078
-315,226	800,000	-0,022	0,055
-314,212	643,486	0,024	-0,045
-313,197	51,451	0,119	-0,083
-312,183	-33,732	0,149	-0,060
-311,168	69,575	-0,092	-0,069
-310,153	-56,462	-0,059	-0,019
-309,139	-54,039	-0,053	-0,017
-308,124	163,813	-0,080	-0,083
-307,110	33,269	0,154	-0,098
-306,095	74,209	0,005	0,004
-305,080	209,882	-0,137	0,158
-304,066	-200,000	0,015	-0,109
-303,051	-27,346	-0,046	-0,020
-302,037	143,415	0,043	0,042
-301,022	-26,565	0,109	-0,046
-300,008	-0,510	0,070	-0,036
-298,993	24,472	0,108	-0,065
-297,978	-154,173	-0,032	-0,002
-296,964	-200,000	0,002	0,069
-295,949	-200,000	-0,009	0,155
-294,935	-149,057	0,200	0,012
-293,920	81,736	0,014	0,011
-292,905	523,132	-0,037	0,064
-291,891	800,000	0,019	0,058
-290,876	726,643	0,050	0,097
-289,862	319,238	0,125	-0,174
-288,847	-200,000	-0,015	-0,090
-287,832	-137,254	-0,174	-0,014
-286,818	-11,872	-0,050	-0,024
-285,803	-81,710	0,138	-0,033
-284,789	-138,833	-0,134	-0,010
-283,774	-161,118	0,099	-0,004
-282,759	-200,000	-0,007	0,121
-281,745	-200,000	-0,012	-0,068
-280,730	-200,000	-0,004	0,160
-279,716	142,838	0,059	0,057
-278,701	-169,797	0,097	-0,002
-277,686	69,001	-0,037	-0,028
-276,672	542,794	0,063	0,111
-275,657	-200,000	0,003	0,067
-274,643	43,544	-0,160	0,107
-273,628	-108,279	-0,070	0,011
-272,613	303,640	-0,054	-0,074
-271,599	11,421	-0,054	0,030
-270,584	-12,128	-0,027	0,013
-269,570	-122,348	-0,045	0,005
-268,555	724,325	-0,061	-0,120
-267,540	263,951	-0,077	-0,098
-266,526	800,000	-0,042	-0,090
-265,511	-200,000	0,007	-0,046
-264,497	262,183	0,023	0,029
-263,482	-200,000	0,006	0,076
-262,467	-98,663	-0,064	0,012
-261,453	383,770	0,034	-0,052
-260,438	800,000	-0,069	-0,176
-259,424	-27,755	-0,180	-0,076
-258,409	-61,671	0,010	-0,003
-257,395	-63,739	0,082	0,024
-256,380	46,102	0,084	-0,057
-255,365	-60,860	0,151	-0,046
-254,351	-200,000	0,114	0,000
-253,336	-200,000	0,021	0,137
-252,322	0,864	-0,094	-0,049
-251,307	-66,483	0,008	-0,002
-250,292	-73,028	-0,107	-0,028
-249,278	354,315	0,036	0,052
-248,263	563,557	-0,071	-0,126
-247,249	-46,804	-0,032	0,011
-246,234	800,000	-0,052	0,107
-245,219	-92,571	-0,040	0,008
-244,205	331,357	-0,076	-0,108
-243,190	800,000	0,051	0,104
-242,176	257,771	0,041	-0,052
-241,161	41,450	-0,104	0,068
-240,146	-200,000	-0,007	-0,096
-239,132	800,000	-0,072	-0,159
-238,117	58,693	-0,047	-0,034
-237,103	800,000	-0,046	-0,103
-236,088	-200,000	-0,012	0,092
-235,073	800,000	0,063	0,183
-234,059	-200,000	-0,047	0,166
-233,044	-8,121	-0,113	0,055
-232,030	-40,860	-0,026	-0,010
-231,015	253,920	-0,105	-0,131
-230,000	38,748	-0,087	-0,056
-228,986	62,926	-0,174	-0,127
-227,971	-94,387	-0,132	0,026
-226,957	43,313	-0,044	0,030
-225,942	523,436	-0,034	0,059
-224,927	114,158	0,056	-0,050
-223,913	800,000	0,021	0,049
-222,898	-200,000	-0,002	-0,064
-221,884	-200,000	-0,004	-0,059
-220,869	-36,529	0,060	0,024
-219,855	-200,000	-0,020	0,089
-218,840	364,078	0,058	0,086
-217,825	-21,905	0,093	0,041
-216,811	-160,831	-0,070	-0,003
-215,796	-66,316	-0,128	-0,037
-214,782	29,743	-0,069	0,043
-213,767	-200,000	0,012	0,082
-212,752	105,304	-0,112	0,096
-211,738	706,853	0,058	0,113
-210,723	319,605	0,059	0,082
-209,709	800,000	0,029	-0,084
-208,694	52,303	0,080	-0,056
-207,679	-41,536	-0,027	0,010
-206,665	-196,871	-0,055	-0,000
-205,650	-200,000	-0,006	0,122
-204,636	800,000	0,010	-0,026
-203,621	-39,954	-0,062	0,024
-202,606	11,697	-0,101	-0,056
-201,592	800,000	0,021	-0,045
-200,577	168,031	-0,026	0,027
-199,563	164,346	-0,144	0,148
-198,548	122,045	-0,036	-0,033
-197,533	800,000	-0,010	0,024
-196,519	-200,000	-0,007	0,153
-195,504	-200,000	0,043	0,140
-194,490	168,449	-0,048	0,050
-193,475	450,493	-0,052	0,084
-192,460	-200,000	0,008	0,054
-191,446	-200,000	0,005	-0,038
-190,431	53,318	0,080	-0,056
-189,417	459,035	0,044	0,072
-188,402	-200,000	-0,027	0,157
-187,387	91,732	-0,066	0,054
-186,373	-200,000	0,038	0,150
-185,358	-78,676	-0,142	-0,035
-184,344	121,217	0,086	0,078
-183,329	800,000	0,017	-0,053
-182,315	747,152	0,018	0,036
-181,300	2,178	-0,139	0,073
-180,285	-2,607	-0,116	-0,059
-179,271	4,714	0,025	0,013
-178,256	800,000	0,024	-0,055
-177,242	-94,322	0,062	0,012
-176,227	633,102	0,041	-0,075
-175,212	800,000	-0,039	0,098
-174,198	-200,000	-0,033	-0,109
-173,183	-200,000	0,003	-0,117
-172,169	-48,105	-0,168	-0,059
-171,154	-58,028	-0,051	0,016
-170,139	67,679	-0,083	0,062
-169,125	225,504	0,102	0,121
-168,110	-31,470	0,086	-0,035
-167,096	3,459	-0,046	-0,025
-166,081	22,134	0,092	0,054
-165,066	140,585	-0,074	-0,071
-164,052	-200,000	-0,007	-0,028
-163,037	-200,000	-0,003	-0,134
-162,023	274,796	0,053	-0,069
-161,008	800,000	-0,006	0,014
-159,993	-52,381	-0,132	-0,044
-158,979	-200,000	0,005	0,089
-157,964	800,000	0,022	-0,045
-156,950	-121,940	-0,142	0,017
-155,935	405,436	0,068	-0,104
-154,920	-90,643	0,046	0,010
-153,906	-200,000	0,038	0,135
-152,891	800,000	0,055	0,117
-151,877	5,579	0,035	-0,019
-150,862	-41,845	-0,065	-0,024
-149,847	154,120	-0,069	-0,068
-148,833	-200,000	-0,004	0,053
-147,818	17,050	0,028	0,016
-146,804	35,440	-0,056	0,036
-145,789	-78,389	0,142	-0,035
-144,775	800,000	-0,061	-0,131
-143,760	-82,146	-0,053	-0,012
-142,745	-45,636	-0,170	0,061
-141,731	19,095	0,093	-0,054
-140,716	-200,000	0,062	0,000
-139,702	85,383	-0,060	0,048
-138,687	-88,071	-0,125	-0,027
-137,672	169,328	-0,097	-0,101
-136,658	-200,000	0,020	-0,106
-135,643	267,260	-0,086	0,109
-134,629	47,392	0,068	-0,046
-133,614	-135,947	0,048	-0,004
-132,599	244,918	0,048	-0,059
-131,585	-14,146	0,025	0,012
-130,570	-200,000	-0,006	0,089
-129,556	-200,000	0,002	-0,066
-128,541	-200,000	-0,003	0,052
-127,526	34,812	-0,099	-0,063
-126,512	107,707	-0,072	-0,063
-125,497	109,279	-0,100	0,087
-124,483	-53,741	0,039	0,013
-123,468	249,909	0,063	0,078
-122,453	18,161	-0,063	-0,037
-121,439	-200,000	-0,011	0,128
-120,424	-89,286	0,037	0,008
-119,410	-200,000	0,034	0,142
-118,395	800,000	0,007	0,019
