DTS Sentinel unit serial number:	SN410029Multiplexer serial number:	ORYXHardware model number:	OX2-SRSoftware version number:	ORYX F/W v4,00 Oryx Data Collector v3.7.2.0data status	okinstallation	B6 Nyhavnadifferential loss correction	single-endedforward channel	channel 2reverse channel	N/Adate	2023/12/08time	01:40:08forward acquisition time	300,00reverse acquisition time	0,00gamma	499,1914k internal	0,3165k external	0,3165temperature offset calibration	1,0000default loss term (dB/km)	0,3820temperature slope calibration	1,0000multiplexer offset coefficient	1,0000multiplexer slope coefficient	1,0000fibre end	0,00T internal ref (°C)	13,24T ext. ref 1 (°C)	-3,63T ext. ref 2 (°C)	-3,62length (m)	temperature (°C)	Stokes	anti-Stokes-744,400	206,670	0,068	0,078
-743,385	-144,647	-0,229	-0,015
-742,371	-15,108	0,114	0,053
-741,356	-106,314	-0,191	-0,031
-740,342	617,725	0,075	0,139
-739,327	-46,138	-0,389	0,140
-738,312	240,799	0,089	-0,109
-737,298	-74,581	-0,516	-0,135
-736,283	-80,828	0,135	0,033
-735,269	-155,278	-0,374	-0,018
-734,254	606,298	0,121	0,223
-733,239	-12,625	-0,439	-0,210
-732,225	-80,178	0,322	0,079
-731,210	114,652	-0,050	-0,045
-730,196	-200,000	0,001	-0,054
-729,181	-82,207	-0,074	-0,018
-728,167	21,317	-0,069	-0,041
-727,152	-200,000	-0,004	-0,015
-726,137	77,210	-0,104	0,081
-725,123	38,183	0,063	0,041
-724,108	-13,423	-0,050	-0,024
-723,094	32,883	-0,091	-0,058
-722,079	139,405	-0,073	-0,071
-721,064	53,835	0,091	0,064
-720,050	800,000	0,044	-0,105
-719,035	228,567	0,124	-0,149
-718,021	-176,160	-0,191	0,004
-717,006	365,851	-0,056	-0,084
-715,991	-200,000	0,004	-0,108
-714,977	-42,236	-0,063	0,024
-713,962	-139,842	-0,126	0,010
-712,948	-122,142	0,121	0,014
-711,933	100,088	0,068	0,058
-710,918	-47,456	-0,071	-0,025
-709,904	-21,734	-0,006	-0,003
-708,889	256,353	-0,076	-0,096
-707,875	134,253	0,045	-0,043
-706,860	-95,841	-0,098	-0,019
-705,845	78,352	0,120	0,094
-704,831	800,000	-0,068	0,174
-703,816	-139,761	0,113	0,009
-702,802	-200,000	-0,013	0,042
-701,787	800,000	-0,042	-0,113
-700,772	-32,309	-0,106	0,043
-699,758	74,543	0,041	0,031
-698,743	-200,000	-0,002	-0,026
-697,729	516,292	0,005	-0,008
-696,714	-200,000	0,009	0,126
-695,699	-62,067	0,149	0,045
-694,685	46,253	-0,051	-0,035
-693,670	-200,000	0,001	-0,029
-692,656	-158,629	0,066	0,003
-691,641	-77,435	0,055	0,014
-690,627	800,000	0,006	-0,018
-689,612	-200,000	0,025	-0,085
-688,597	-108,012	0,154	0,024
-687,583	-33,463	-0,104	-0,042
-686,568	28,394	0,060	-0,037
-685,554	113,944	-0,024	-0,021
-684,539	-200,000	-0,004	0,021
-683,524	-200,000	0,014	-0,083
-682,510	-200,000	-0,011	0,068
-681,495	44,498	0,099	-0,066
-680,481	-200,000	-0,008	-0,040
-679,466	-122,974	-0,088	-0,010
-678,451	-200,000	0,000	-0,030
-677,437	800,000	-0,021	-0,064
-676,422	-200,000	0,014	-0,095
-675,408	800,000	0,028	0,080
-674,393	800,000	0,016	0,043
-673,378	-200,000	-0,019	-0,088
-672,364	20,449	-0,076	-0,045
-671,349	262,098	-0,079	-0,101
-670,335	-180,159	0,020	-0,000
-669,320	-70,423	0,074	0,020
-668,305	433,161	0,051	0,081
-667,291	102,751	-0,128	-0,110
-666,276	800,000	-0,026	-0,055
-665,262	53,440	0,057	-0,040
-664,247	52,560	0,122	-0,085
-663,232	-104,015	-0,116	0,020
-662,218	179,021	-0,041	-0,043
-661,203	800,000	-0,047	0,108
-660,189	-200,000	0,015	-0,083
-659,174	-65,303	-0,051	-0,015
-658,159	-106,857	0,138	0,022
-657,145	-66,051	-0,215	0,063
-656,130	-200,000	0,024	0,079
-655,116	-29,651	0,100	-0,042
-654,101	-25,245	-0,109	0,047
-653,086	-62,533	-0,010	0,003
-652,072	124,329	0,066	0,060
-651,057	-34,083	-0,050	0,020
-650,043	74,750	-0,145	-0,112
-649,028	95,094	-0,018	-0,015
-648,014	800,000	0,041	-0,106
-646,999	114,543	0,022	0,020
-645,984	45,095	-0,038	-0,026
-644,970	109,070	0,118	-0,103
-643,955	112,774	-0,137	-0,121
-642,941	698,028	-0,057	-0,111
-641,926	800,000	-0,034	-0,097
-640,911	-89,905	0,061	0,013
-639,897	-10,463	-0,072	0,035
-638,882	-76,782	-0,046	0,012
-637,868	8,870	-0,073	0,040
-636,853	-137,746	-0,050	0,004
-635,838	-85,802	0,068	-0,015
-634,824	-175,006	-0,166	-0,003
-633,809	-161,173	-0,060	-0,002
-632,795	-107,186	0,107	-0,017
-631,780	-200,000	0,017	0,089
-630,765	97,397	-0,071	0,060
-629,751	800,000	0,044	0,127
-628,736	607,084	0,010	-0,018
-627,722	-200,000	-0,016	0,053
-626,707	234,582	0,079	0,095
-625,692	800,000	-0,054	0,128
-624,678	-200,000	0,018	0,064
-623,663	800,000	-0,032	-0,083
-622,649	-65,916	-0,108	-0,031
-621,634	800,000	-0,012	-0,034
-620,619	-54,943	0,030	-0,010
-619,605	432,971	0,034	-0,054
-618,590	800,000	-0,021	-0,068
-617,576	626,582	-0,032	0,060
-616,561	-21,957	-0,093	0,041
-615,546	-200,000	0,040	-0,135
-614,532	-200,000	-0,004	-0,050
-613,517	-131,547	0,128	-0,012
-612,503	-200,000	0,011	-0,059
-611,488	-61,649	0,084	-0,026
-610,474	-0,036	0,076	0,039
-609,459	117,078	-0,166	-0,149
-608,444	800,000	0,004	-0,012
-607,430	-101,062	-0,044	-0,008
-606,415	-200,000	-0,003	-0,040
-605,401	353,020	0,042	0,061
-604,386	800,000	0,024	0,060
-603,371	-105,638	0,045	0,007
-602,357	-30,107	0,035	-0,014
-601,342	18,459	-0,136	-0,079
-600,328	86,976	0,056	0,045
-599,313	436,188	0,043	-0,068
-598,298	-11,654	-0,062	-0,029
-597,284	767,391	-0,030	0,060
-596,269	56,862	-0,054	0,038
-595,255	-30,902	0,070	0,029
-594,240	-128,295	-0,157	-0,016
-593,225	692,583	-0,087	-0,167
-592,211	800,000	-0,015	-0,033
-591,196	-200,000	-0,010	0,058
-590,182	-80,442	0,096	0,023
-589,167	-98,499	0,062	-0,012
-588,152	759,728	-0,019	-0,038
-587,138	632,170	0,039	-0,072
-586,123	380,949	0,095	-0,144
-585,109	800,000	-0,034	-0,108
-584,094	-121,710	-0,122	0,015
-583,079	249,899	0,102	0,127
-582,065	-200,000	0,006	0,125
-581,050	57,772	0,104	0,075
-580,036	-57,451	-0,174	0,056
-579,021	114,016	0,073	-0,065
-578,006	-65,400	-0,047	0,014
-576,992	32,899	-0,046	0,029
-575,977	800,000	0,041	0,099
-574,963	506,437	-0,035	0,060
-573,948	800,000	0,029	-0,079
-572,934	-200,000	-0,013	-0,081
-571,919	502,464	-0,064	-0,108
-570,904	620,053	-0,085	-0,157
-569,890	627,346	0,030	0,056
-568,875	-200,000	-0,007	-0,068
-567,861	800,000	0,038	-0,087
-566,846	229,501	-0,019	0,023
-565,831	12,972	-0,068	0,038
-564,817	32,962	-0,023	0,015
-563,802	-200,000	-0,015	-0,201
-562,788	-200,000	0,007	-0,089
-561,773	-200,000	0,084	-0,280
-560,758	800,000	0,014	0,041
-559,744	65,819	0,068	0,050
-558,729	160,536	-0,027	0,027
-557,715	3,507	-0,093	-0,049
-556,700	-200,000	-0,027	-0,174
-555,685	321,192	-0,006	-0,008
-554,671	654,172	0,033	-0,063
-553,656	-200,000	-0,010	-0,077
-552,642	800,000	0,028	-0,077
-551,627	668,450	0,055	0,104
-550,612	37,438	-0,047	-0,031
-549,598	-1,947	0,020	0,010
-548,583	81,916	-0,050	0,040
-547,569	-200,000	-0,012	0,051
-546,554	-200,000	-0,023	0,074
-545,539	-200,000	0,011	0,143
-544,525	746,274	-0,036	0,071
-543,510	287,760	0,023	0,030
-542,496	800,000	0,035	-0,079
-541,481	800,000	-0,043	0,110
-540,466	193,618	0,070	0,077
-539,452	332,909	-0,035	0,049
-538,437	172,628	0,104	0,109
-537,423	800,000	0,024	0,064
-536,408	-100,068	0,071	-0,013
-535,393	3,633	0,099	-0,052
-534,379	5,098	0,095	-0,051
-533,364	499,403	0,060	-0,100
-532,350	-200,000	0,015	0,072
-531,335	51,702	0,038	0,026
-530,321	430,420	-0,055	-0,087
-529,306	800,000	-0,031	-0,085
-528,291	-157,856	-0,141	0,006
-527,277	-85,848	0,214	-0,048
-526,262	-83,039	-0,027	-0,006
-525,248	-104,453	-0,016	0,003
-524,233	-164,151	0,101	-0,003
-523,218	23,915	-0,039	0,023
-522,204	-200,000	-0,004	0,115
-521,189	84,746	0,009	0,007
-520,175	-200,000	0,035	0,130
-519,160	800,000	-0,030	0,090
-518,145	100,784	0,097	-0,082
-517,131	-10,342	-0,063	-0,030
-516,116	-200,000	-0,013	-0,066
-515,102	-86,329	-0,139	0,031
-514,087	-102,798	-0,084	0,014
-513,072	-200,000	0,007	-0,073
-512,058	-112,021	-0,097	0,014
-511,043	19,913	-0,133	-0,078
-510,029	232,232	0,032	0,038
-509,014	116,913	-0,089	-0,080
-507,999	800,000	-0,044	0,102
-506,985	800,000	0,074	-0,168
-505,970	-200,000	0,001	-0,035
-504,956	129,401	-0,159	0,148
-503,941	79,485	0,097	0,076
-502,926	788,265	-0,025	-0,051
-501,912	-42,730	0,065	-0,024
-500,897	75,972	-0,015	-0,011
-499,883	800,000	0,023	-0,066
-498,868	-200,000	0,000	0,004
-497,853	-200,000	-0,036	-0,123
-496,839	281,012	-0,066	-0,086
-495,824	715,706	0,064	-0,124
-494,810	-200,000	0,042	0,147
-493,795	200,627	-0,084	0,095
-492,781	-152,322	0,072	-0,004
-491,766	4,512	-0,121	0,064
-490,751	525,767	0,049	0,085
-489,737	33,426	0,069	0,043
-488,722	-200,000	0,004	0,109
-487,708	14,488	0,059	0,034
-486,693	58,966	0,077	0,055
-485,678	-66,040	-0,124	0,036
-484,664	755,397	0,031	-0,061
-483,649	-30,248	-0,084	-0,034
-482,635	8,787	-0,085	-0,047
-481,620	279,298	0,028	-0,037
-480,605	-136,240	0,046	-0,004
-479,591	-200,000	-0,042	0,155
-478,576	-200,000	-0,018	-0,114
-477,562	69,740	0,076	0,057
-476,547	69,567	-0,083	-0,062
-475,532	63,081	-0,039	-0,028
-474,518	519,516	0,030	-0,051
-473,503	158,413	0,035	0,036
-472,489	125,159	0,038	0,035
-471,474	-13,808	-0,024	-0,011
-470,459	43,637	0,064	-0,043
-469,445	-35,510	-0,059	-0,023
-468,430	-138,231	-0,124	0,010
-467,416	-200,000	0,003	0,018
-466,401	-200,000	-0,023	0,099
-465,386	-200,000	-0,020	-0,067
-464,372	-160,776	-0,236	-0,009
-463,357	99,359	-0,092	-0,077
-462,343	683,072	0,058	-0,111
-461,328	-200,000	0,017	-0,134
-460,313	260,104	-0,069	-0,088
-459,299	-55,335	0,034	0,011
-458,284	-116,816	0,080	0,011
-457,270	277,387	0,084	-0,109
-456,255	-137,518	-0,044	0,004
-455,241	-2,432	0,025	0,013
-454,226	-200,000	0,017	-0,185
-453,211	45,895	-0,080	0,054
-452,197	-44,079	0,170	0,062
-451,182	71,617	0,104	-0,078
-450,168	16,287	-0,034	0,019
-449,153	362,838	-0,034	0,050
-448,138	-145,425	0,088	-0,006
-447,124	800,000	-0,035	0,082
-446,109	-97,913	-0,132	0,025
-445,095	-200,000	-0,007	0,091
-444,080	317,080	-0,091	0,126
-443,065	15,534	0,091	0,052
-442,051	-80,455	-0,040	-0,010
-441,036	-200,000	0,002	0,009
-440,022	-16,469	0,090	0,041
-439,007	-46,662	0,064	0,023
-437,992	800,000	0,018	0,050
-436,978	-137,712	0,105	0,008
-435,963	800,000	0,035	0,096
-434,949	468,986	-0,099	0,162
-433,934	-200,000	0,005	0,034
-432,919	287,181	-0,073	0,097
-431,905	-165,453	0,082	-0,003
-430,890	-200,000	-0,015	0,073
-429,876	-200,000	0,012	0,128
-428,861	696,932	-0,029	0,056
-427,846	32,558	0,029	-0,018
-426,832	-200,000	-0,028	-0,093
-425,817	-97,803	-0,064	-0,012
-424,803	85,990	0,135	0,108
-423,788	267,125	-0,009	-0,011
-422,773	-81,228	0,056	0,013
-421,759	-200,000	0,046	-0,152
-420,744	291,597	0,035	0,047
-419,730	-44,975	-0,112	-0,040
-418,715	-200,000	0,004	-0,022
-417,701	-85,305	0,116	-0,026
-416,686	800,000	-0,038	0,108
-415,671	-200,000	0,016	-0,054
-414,657	-39,989	-0,049	0,018
-413,642	119,285	-0,087	-0,078
-412,628	-85,660	0,118	0,026
-411,613	800,000	0,043	-0,105
-410,598	-137,208	0,085	0,007
-409,584	111,319	0,109	-0,095
-408,569	-98,942	0,063	0,011
-407,555	176,248	0,105	0,111
-406,540	236,269	-0,060	-0,072
-405,525	800,000	-0,069	-0,191
-404,511	34,631	-0,050	-0,032
-403,496	-62,360	-0,122	0,037
-402,482	159,243	-0,042	0,042
-401,467	-137,171	0,037	-0,003
-400,452	125,263	0,191	-0,175
-399,438	-200,000	-0,040	0,198
-398,423	-42,754	0,150	0,055
-397,409	-200,000	-0,006	-0,140
-396,394	800,000	0,024	0,052
-395,379	800,000	0,002	0,004
-394,365	-200,000	-0,002	-0,037
-393,350	37,193	0,028	-0,018
-392,336	-200,000	-0,036	0,125
-391,321	40,591	-0,026	-0,017
-390,306	-200,000	-0,019	-0,104
-389,292	-200,000	-0,033	-0,108
-388,277	128,594	0,072	0,067
-387,263	800,000	0,023	0,048
-386,248	-58,721	-0,085	-0,027
-385,233	-153,806	0,103	-0,005
-384,219	-65,370	0,156	-0,045
-383,204	-117,397	-0,179	-0,023
-382,190	-24,896	-0,067	0,029
-381,175	-200,000	0,015	0,082
-380,160	-200,000	-0,035	0,114
-379,146	-79,097	0,083	0,020
-378,131	394,380	0,053	0,080
-377,117	800,000	-0,091	0,194
-376,102	433,502	-0,026	-0,040
-375,088	-30,248	-0,133	0,054
-374,073	-56,889	-0,114	0,036
-373,058	133,927	0,133	0,125
-372,044	373,723	-0,104	0,154
-371,029	-200,000	-0,004	0,103
-370,015	656,607	-0,058	-0,109
-369,000	-65,006	0,062	0,018
-367,985	193,416	-0,093	-0,102
-366,971	-29,121	0,126	-0,052
-365,956	43,641	0,098	-0,065
-364,942	209,554	0,075	0,086
-363,927	-19,250	0,116	0,052
-362,912	19,022	-0,039	0,023
-361,898	344,487	-0,037	0,052
-360,883	321,701	0,045	-0,063
-359,869	-169,455	-0,078	-0,002
-358,854	67,851	-0,069	-0,051
-357,839	-130,822	-0,130	0,012
-356,825	-200,000	-0,013	-0,098
-355,810	155,935	-0,016	0,016
-354,796	227,880	-0,037	-0,044
-353,781	-73,753	0,070	0,018
-352,766	800,000	-0,066	-0,136
-351,752	-141,062	0,153	0,011
-350,737	433,812	-0,019	-0,030
-349,723	51,135	0,154	-0,106
-348,708	494,074	-0,016	0,027
-347,693	335,315	-0,050	-0,070
-346,679	-78,935	-0,052	0,013
-345,664	135,298	0,044	-0,042
-344,650	18,199	0,069	0,040
-343,635	384,639	0,043	-0,065
-342,620	-22,089	-0,179	0,078
-341,606	-51,838	0,080	0,027
-340,591	33,523	-0,089	-0,056
-339,577	-99,014	-0,076	-0,014
-338,562	22,698	0,220	-0,130
-337,548	-200,000	-0,003	-0,010
-336,533	175,034	0,075	-0,079
-335,518	-65,849	0,163	-0,047
-334,504	14,486	-0,117	0,066
-333,489	800,000	-0,060	-0,125
-332,475	-155,824	0,184	0,008
-331,460	-108,987	-0,121	-0,018
-330,445	663,588	0,071	0,132
-329,431	466,214	0,114	0,186
-328,416	174,591	-0,140	-0,147
-327,402	55,985	0,057	0,040
-326,387	-46,227	-0,193	0,068
-325,372	209,073	-0,069	-0,079
-324,358	140,313	-0,039	-0,037
-323,343	134,345	0,052	-0,049
-322,329	-156,973	0,141	-0,006
-321,314	3,086	-0,054	0,028
-320,299	-50,215	0,050	-0,017
-319,285	-121,767	-0,123	0,014
-318,270	-146,968	0,067	-0,004
-317,256	457,303	-0,049	-0,079
-316,241	110,903	-0,068	-0,059
-315,226	233,591	0,061	-0,073
-314,212	71,430	0,088	0,066
-313,197	-200,000	-0,021	0,106
-312,183	0,623	-0,061	-0,031
-311,168	-186,540	0,030	-0,000
-310,153	-200,000	-0,016	0,163
-309,139	42,556	-0,099	0,065
-308,124	800,000	0,054	0,114
-307,110	-200,000	-0,001	0,236
-306,095	-200,000	-0,006	-0,042
-305,080	-89,599	-0,091	0,019
-304,066	-105,204	-0,014	-0,002
-303,051	-72,997	0,082	0,022
-302,037	-200,000	-0,002	-0,063
-301,022	-101,588	0,156	-0,027
-300,008	-25,825	0,158	0,067
-298,993	384,296	0,057	0,086
-297,978	-99,705	-0,083	0,015
-296,964	-114,896	0,131	-0,018
-295,949	179,787	-0,047	-0,050
-294,935	800,000	0,039	-0,109
-293,920	429,680	0,034	0,053
-292,905	-140,147	0,107	-0,008
-291,891	-200,000	0,014	0,079
-290,876	-65,694	0,072	0,021
-289,862	303,950	-0,012	0,016
-288,847	71,662	0,035	-0,027
-287,832	-200,000	-0,003	-0,159
-286,818	-51,892	-0,099	0,033
-285,803	101,188	-0,039	-0,032
-284,789	255,559	0,016	-0,020
-283,774	-200,000	0,019	0,089
-282,759	-93,924	-0,023	0,004
-281,745	-62,485	-0,111	0,033
-280,730	-200,000	-0,014	-0,087
-279,716	163,280	0,016	-0,016
-278,701	800,000	0,073	-0,166
-277,686	130,013	0,038	-0,035
-276,672	288,306	-0,085	0,112
-275,657	-200,000	-0,014	0,052
-274,643	-83,972	-0,114	0,026
-273,628	252,861	-0,091	0,112
-272,613	800,000	0,035	-0,087
-271,599	209,484	-0,042	0,047
-270,584	189,367	0,014	0,015
-269,570	-200,000	0,011	0,125
-268,555	800,000	-0,010	0,026
-267,540	-155,505	-0,063	-0,003
-266,526	-52,453	-0,077	-0,026
-265,511	74,518	-0,011	0,008
-264,497	218,050	-0,029	0,033
-263,482	170,518	0,041	0,042
-262,467	186,480	0,123	0,133
-261,453	676,362	-0,088	0,166
-260,438	-49,395	0,039	0,014
-259,424	-21,888	-0,189	0,082
-258,409	-100,880	0,007	0,001
-257,395	-110,606	-0,068	0,010
-256,380	-200,000	0,038	0,192
-255,365	450,763	0,056	0,090
-254,351	800,000	-0,033	-0,071
-253,336	-200,000	-0,004	-0,192
-252,322	-53,162	-0,090	-0,030
-251,307	-200,000	-0,021	-0,132
-250,292	-18,538	0,033	0,015
-249,278	-37,425	0,138	-0,053
-248,263	800,000	-0,023	-0,066
-247,249	79,287	0,013	-0,010
-246,234	476,321	-0,104	-0,170
-245,219	50,195	-0,047	-0,032
-244,205	68,513	-0,069	-0,051
-243,190	244,961	-0,060	0,072
-242,176	-67,248	0,097	-0,027
-241,161	-200,000	-0,028	0,125
-240,146	60,917	0,044	0,031
-239,132	115,230	-0,070	0,062
-238,117	-200,000	-0,018	-0,169
-237,103	-200,000	-0,027	-0,098
-236,088	800,000	-0,039	-0,099
-235,073	-99,244	0,057	0,010
-234,059	75,849	0,081	0,062
-233,044	522,044	-0,075	-0,127
-232,030	96,569	0,097	0,080
-231,015	-200,000	0,017	-0,117
-230,000	182,984	-0,052	-0,055
-228,986	405,828	-0,013	-0,020
-227,971	276,664	0,062	-0,080
-226,957	-3,514	0,149	0,075
-225,942	609,992	-0,027	-0,049
-224,927	307,476	0,075	0,101
-223,913	-181,576	-0,033	0,000
-222,898	-200,000	0,010	0,037
-221,884	-54,332	-0,095	-0,031
-220,869	78,102	-0,022	-0,017
-219,855	145,793	-0,121	-0,117
-218,840	-151,344	0,056	0,003
-217,825	-200,000	-0,003	0,147
-216,811	-200,000	-0,004	-0,045
-215,796	101,328	-0,052	0,043
-214,782	800,000	-0,027	-0,085
-213,767	73,147	0,054	-0,041
-212,752	660,571	0,052	0,096
-211,738	27,811	0,123	0,075
-210,723	-200,000	0,029	-0,103
-209,709	-200,000	0,035	-0,128
-208,694	565,260	0,080	-0,141
-207,679	3,677	-0,084	-0,044
-206,665	370,117	0,088	0,129
-205,650	-200,000	-0,006	0,040
-204,636	-200,000	-0,001	0,055
-203,621	-200,000	0,010	0,070
-202,606	-200,000	0,027	-0,257
-201,592	195,987	-0,108	0,118
-200,577	-149,751	-0,078	0,004
-199,563	10,941	0,076	0,042
-198,548	-37,189	0,128	0,049
-197,533	-122,540	-0,116	-0,013
-196,519	-106,113	0,080	0,013
-195,504	21,027	-0,039	0,023
-194,490	-20,025	-0,004	0,002
-193,475	-200,000	0,026	-0,085
-192,460	-145,472	0,128	0,008
-191,446	-40,603	0,059	0,022
-190,431	8,958	0,088	-0,048
-189,417	-51,889	0,025	-0,008
-188,402	38,407	-0,109	0,070
-187,387	-121,321	0,089	0,011
-186,373	562,631	0,062	0,109
-185,358	14,590	-0,083	-0,047
-184,344	-132,183	0,102	-0,009
-183,329	357,842	0,031	0,044
-182,315	167,735	0,081	0,083
-181,300	708,010	-0,018	-0,034
-180,285	138,671	0,014	0,013
-179,271	-63,636	0,088	0,026
-178,256	-200,000	-0,015	-0,091
-177,242	-200,000	-0,013	0,057
-176,227	-200,000	-0,013	0,044
-175,212	-114,021	0,041	-0,006
-174,198	335,570	0,031	0,044
-173,183	452,427	-0,024	0,039
-172,169	-80,002	0,039	0,009
-171,154	160,750	-0,075	-0,075
-170,139	23,140	0,117	0,069
-169,125	51,592	-0,031	-0,021
-168,110	800,000	0,008	0,021
-167,096	-200,000	-0,027	0,155
-166,081	142,996	-0,075	-0,072
-165,066	41,528	-0,075	-0,049
-164,052	34,373	-0,023	-0,015
-163,037	-135,740	-0,080	-0,007
-162,023	-200,000	-0,051	0,163
-161,008	-200,000	-0,001	0,050
-159,993	-200,000	-0,014	0,073
-158,979	440,402	-0,094	0,148
-157,964	205,317	-0,088	-0,098
-156,950	21,444	-0,067	-0,039
-155,935	61,426	0,051	0,037
-154,920	-200,000	-0,000	0,086
-153,906	85,883	0,160	0,126
-152,891	-0,746	-0,086	-0,043
-151,877	800,000	0,017	0,053
-150,862	42,224	-0,082	-0,054
-149,847	342,543	0,014	-0,020
-148,833	-168,756	-0,044	-0,001
-147,818	203,419	0,088	0,098
-146,804	406,504	0,008	-0,013
-145,789	-40,292	0,072	-0,027
-144,775	-1,498	0,007	0,004
-143,760	-56,150	0,097	0,031
-142,745	-116,514	-0,063	-0,008
-141,731	389,439	0,043	0,065
-140,716	583,486	0,091	0,161
-139,702	-76,457	0,120	0,030
-138,687	800,000	-0,039	0,081
-137,672	33,347	-0,096	-0,060
-136,658	-200,000	0,032	-0,176
-135,643	800,000	-0,022	0,067
-134,629	153,896	-0,045	0,044
-133,614	257,548	0,086	0,106
-132,599	-51,407	0,067	0,022
-131,585	336,308	0,125	0,175
-130,570	113,259	-0,044	0,038
-129,556	230,443	-0,077	0,090
-128,541	800,000	0,013	0,038
-127,526	-5,799	0,074	0,036
-126,512	-0,551	0,109	-0,055
-125,497	-94,001	0,066	-0,013
-124,483	-60,856	-0,087	0,026
-123,468	52,314	0,062	-0,042
-122,453	-200,000	-0,028	0,110
-121,439	-200,000	0,014	-0,103
-120,424	-37,097	0,061	0,023
-119,410	43,699	0,104	-0,068
-118,395	271,607	0,029	-0,036
