DTS Sentinel unit serial number:	SN410029Multiplexer serial number:	ORYXHardware model number:	OX2-SRSoftware version number:	ORYX F/W v4,00 Oryx Data Collector v3.7.2.0data status	okinstallation	B6 Nyhavnadifferential loss correction	single-endedforward channel	channel 2reverse channel	N/Adate	2023/12/11time	05:20:08forward acquisition time	300,00reverse acquisition time	0,00gamma	499,1914k internal	0,3126k external	0,3126temperature offset calibration	1,0000default loss term (dB/km)	0,3820temperature slope calibration	1,0000multiplexer offset coefficient	1,0000multiplexer slope coefficient	1,0000fibre end	0,00T internal ref (°C)	20,04T ext. ref 1 (°C)	3,10T ext. ref 2 (°C)	3,14length (m)	temperature (°C)	Stokes	anti-Stokes-744,400	-200,000	0,013	-0,107
-743,385	-141,204	-0,425	-0,032
-742,371	-51,659	0,067	-0,023
-741,356	-131,051	-0,294	0,029
-740,342	-38,963	0,027	0,011
-739,327	-42,228	-0,229	0,087
-738,312	27,869	0,011	0,007
-737,298	-117,640	-0,300	0,040
-736,283	153,104	0,084	-0,086
-735,269	-52,858	-0,231	0,079
-734,254	-139,847	0,034	0,003
-733,239	-161,948	-0,244	-0,009
-732,225	-138,366	0,188	0,015
-731,210	17,632	-0,050	-0,029
-730,196	106,286	-0,040	-0,035
-729,181	-200,000	-0,009	-0,232
-728,167	69,484	-0,100	0,076
-727,152	267,181	-0,068	-0,089
-726,137	-200,000	-0,027	0,090
-725,123	-200,000	0,024	-0,079
-724,108	543,097	-0,097	-0,173
-723,094	-200,000	0,011	-0,075
-722,079	-135,401	-0,164	-0,014
-721,064	656,429	-0,058	-0,112
-720,050	-17,777	0,049	-0,023
-719,035	800,000	-0,011	0,025
-718,021	40,781	-0,083	0,056
-717,006	-200,000	0,030	-0,161
-715,991	-79,302	-0,027	-0,007
-714,977	339,963	0,038	-0,055
-713,962	-89,831	0,004	-0,001
-712,948	-200,000	0,000	-0,034
-711,933	5,288	-0,007	0,004
-710,918	-126,905	-0,118	-0,013
-709,904	47,281	-0,096	-0,066
-708,889	800,000	-0,028	-0,062
-707,875	-143,178	-0,053	0,004
-706,860	-116,703	0,080	-0,011
-705,845	-111,884	-0,105	0,016
-704,831	-109,967	0,048	0,007
-703,816	-200,000	-0,018	-0,084
-702,802	-200,000	-0,040	-0,173
-701,787	800,000	-0,015	-0,040
-700,772	800,000	0,071	-0,193
-699,758	-176,001	0,035	-0,001
-698,743	-200,000	0,015	0,057
-697,729	248,298	-0,091	0,115
-696,714	-14,579	-0,063	0,030
-695,699	-27,101	0,049	-0,021
-694,685	-10,579	-0,042	-0,021
-693,670	122,145	0,058	0,054
-692,656	-200,000	0,004	-0,015
-691,641	435,062	-0,044	0,071
-690,627	800,000	-0,034	-0,072
-689,612	-112,545	0,104	0,015
-688,597	452,548	-0,095	-0,156
-687,583	-88,717	-0,100	-0,022
-686,568	800,000	0,038	-0,091
-685,554	-200,000	0,011	0,123
-684,539	237,285	-0,018	-0,022
-683,524	-111,361	0,020	-0,003
-682,510	-200,000	0,032	-0,119
-681,495	82,640	-0,042	-0,033
-680,481	-200,000	0,005	0,044
-679,466	800,000	-0,057	-0,136
-678,451	194,670	-0,055	0,062
-677,437	-30,112	0,054	0,023
-676,422	456,314	0,063	0,104
-675,408	-69,155	-0,145	-0,041
-674,393	800,000	0,025	-0,076
-673,378	194,789	0,047	-0,053
-672,364	-200,000	-0,014	-0,071
-671,349	-48,948	0,067	0,024
-670,335	-184,280	0,130	-0,002
-669,320	106,279	-0,093	0,082
-668,305	431,027	-0,004	-0,007
-667,291	-200,000	0,000	-0,129
-666,276	68,929	0,051	0,039
-665,262	-101,284	-0,097	0,017
-664,247	-66,826	-0,152	0,044
-663,232	-58,404	-0,077	-0,025
-662,218	21,078	-0,046	0,028
-661,203	-51,171	0,064	0,022
-660,189	-81,866	-0,087	-0,021
-659,174	348,561	-0,082	0,121
-658,159	-200,000	-0,026	-0,090
-657,145	51,226	-0,078	0,055
-656,130	800,000	-0,014	-0,034
-655,116	2,675	0,162	0,087
-654,101	-200,000	-0,026	-0,116
-653,086	500,932	-0,040	0,068
-652,072	800,000	-0,031	0,075
-651,057	-84,488	-0,151	0,035
-650,043	172,667	-0,069	-0,074
-649,028	-200,000	0,002	0,063
-648,014	800,000	-0,025	0,061
-646,999	-81,993	-0,027	0,006
-645,984	-200,000	0,012	0,106
-644,970	-64,493	0,144	-0,043
-643,955	253,249	-0,025	-0,031
-642,941	-135,368	-0,095	-0,008
-641,926	800,000	-0,023	-0,053
-640,911	-200,000	0,022	-0,122
-639,897	800,000	0,043	-0,124
-638,882	489,338	0,064	0,109
-637,868	-200,000	-0,004	-0,131
-636,853	-117,334	-0,110	-0,015
-635,838	-200,000	0,002	0,043
-634,824	205,603	0,085	-0,098
-633,809	621,639	-0,044	0,083
-632,795	664,405	0,055	0,106
-631,780	-188,216	-0,063	-0,001
-630,765	70,511	0,161	-0,123
-629,751	17,870	-0,164	-0,096
-628,736	800,000	-0,061	-0,140
-627,722	479,685	-0,103	-0,174
-626,707	296,491	0,080	-0,110
-625,692	-128,779	0,028	0,003
-624,678	-75,543	-0,078	0,020
-623,663	800,000	-0,079	-0,163
-622,649	-200,000	-0,009	-0,157
-621,634	114,106	-0,113	-0,102
-620,619	-58,868	-0,081	0,026
-619,605	-98,825	-0,108	-0,020
-618,590	326,080	-0,006	-0,009
-617,576	-200,000	-0,027	0,093
-616,561	-37,073	-0,018	0,007
-615,546	-93,716	0,033	-0,007
-614,532	526,753	-0,076	0,133
-613,517	-200,000	0,036	-0,132
-612,503	107,822	0,052	0,046
-611,488	800,000	-0,015	-0,037
-610,474	-141,780	0,208	-0,015
-609,459	282,402	0,089	0,118
-608,444	199,027	0,064	-0,073
-607,430	800,000	0,028	0,085
-606,415	517,967	-0,082	0,143
-605,401	-200,000	-0,021	0,107
-604,386	631,171	-0,008	-0,014
-603,371	-68,389	0,109	0,031
-602,357	460,917	-0,074	0,123
-601,342	-60,887	-0,057	0,018
-600,328	-145,965	-0,080	0,005
-599,313	-135,127	-0,089	-0,008
-598,298	104,935	0,089	-0,078
-597,284	-35,557	0,032	0,013
-596,269	343,983	0,086	0,125
-595,255	800,000	0,020	0,041
-594,240	203,462	-0,069	-0,079
-593,225	-200,000	-0,026	-0,087
-592,211	132,544	-0,051	-0,049
-591,196	-50,515	0,027	-0,009
-590,182	702,569	0,084	-0,164
-589,167	-200,000	0,002	-0,041
-588,152	-200,000	-0,005	-0,022
-587,138	278,103	0,066	-0,087
-586,123	-200,000	0,026	-0,119
-585,109	-98,776	-0,076	0,014
-584,094	219,576	0,025	0,030
-583,079	360,229	0,060	0,089
-582,065	178,715	-0,070	0,075
-581,050	-93,681	0,051	0,010
-580,036	-32,028	-0,019	0,008
-579,021	16,326	-0,017	-0,010
-578,006	800,000	0,011	-0,030
-576,992	-130,365	0,055	0,005
-575,977	800,000	0,028	-0,075
-574,963	-200,000	0,004	-0,113
-573,948	-133,584	0,059	0,005
-572,934	800,000	-0,034	-0,073
-571,919	220,276	-0,101	-0,119
-570,904	-15,393	-0,035	0,016
-569,890	-200,000	0,012	-0,055
-568,875	-121,124	-0,125	-0,015
-567,861	478,827	0,044	-0,074
-566,846	362,120	-0,020	0,030
-565,831	-200,000	0,013	-0,093
-564,817	-200,000	-0,009	-0,159
-563,802	-40,329	-0,178	-0,068
-562,788	93,134	0,034	-0,028
-561,773	800,000	-0,081	0,232
-560,758	212,770	0,053	-0,062
-559,744	311,550	-0,099	-0,138
-558,729	25,808	-0,041	-0,025
-557,715	-200,000	0,010	-0,057
-556,700	800,000	-0,033	-0,071
-555,685	800,000	-0,037	-0,111
-554,671	-65,146	0,028	-0,008
-553,656	800,000	0,044	-0,131
-552,642	317,846	0,050	-0,069
-551,627	-34,190	-0,159	0,064
-550,612	800,000	0,051	0,136
-549,598	-167,131	0,062	0,002
-548,583	-60,935	-0,071	0,022
-547,569	800,000	-0,035	-0,107
-546,554	96,626	0,029	-0,025
-545,539	67,871	-0,052	0,039
-544,525	600,472	-0,044	0,082
-543,510	174,142	0,020	-0,022
-542,496	110,788	-0,066	-0,059
-541,481	186,842	-0,041	0,046
-540,466	-200,000	0,011	-0,199
-539,452	-200,000	0,001	-0,023
-538,437	38,967	0,063	0,041
-537,423	-10,459	0,025	0,012
-536,408	70,462	-0,066	-0,050
-535,393	457,147	-0,079	-0,131
-534,379	498,067	-0,049	-0,083
-533,364	-200,000	-0,008	-0,137
-532,350	800,000	0,079	0,166
-531,335	-29,536	0,082	-0,034
-530,321	-200,000	0,017	0,080
-529,306	-200,000	-0,019	0,082
-528,291	800,000	-0,027	-0,079
-527,277	-200,000	0,010	0,088
-526,262	42,614	0,081	0,054
-525,248	147,374	-0,038	0,037
-524,233	-68,144	0,120	-0,034
-523,218	94,305	0,049	-0,041
-522,204	-200,000	0,006	0,098
-521,189	-76,546	0,131	-0,034
-520,175	-199,805	-0,189	-0,001
-519,160	34,142	0,034	-0,022
-518,145	-65,948	-0,102	-0,030
-517,131	457,978	0,057	0,094
-516,116	-23,763	0,099	-0,043
-515,102	536,940	0,048	0,084
-514,087	93,534	-0,037	0,031
-513,072	26,518	0,014	0,008
-512,058	24,176	0,071	0,043
-511,043	0,857	-0,080	-0,042
-510,029	15,261	0,091	0,053
-509,014	403,877	0,057	-0,088
-507,999	-63,905	-0,107	0,032
-506,985	-200,000	-0,010	-0,058
-505,970	-166,485	0,133	-0,004
-504,956	-181,719	0,092	0,001
-503,941	204,446	0,030	0,034
-502,926	315,697	-0,063	0,087
-501,912	-47,803	-0,049	0,017
-500,897	327,234	0,083	0,118
-499,883	-82,541	-0,045	-0,011
-498,868	-42,751	-0,039	-0,014
-497,853	800,000	-0,028	0,080
-496,839	242,740	0,058	0,072
-495,824	-75,395	0,067	0,017
-494,810	379,635	0,068	0,103
-493,795	-200,000	0,018	0,172
-492,781	184,308	0,074	-0,081
-491,766	110,687	0,059	-0,052
-490,751	-66,805	0,053	-0,015
-489,737	-127,254	0,067	-0,007
-488,722	556,001	-0,083	0,149
-487,708	-113,050	-0,072	0,010
-486,693	800,000	-0,036	0,106
-485,678	261,340	0,058	-0,074
-484,664	395,055	-0,066	-0,102
-483,649	800,000	0,049	-0,137
-482,635	800,000	0,020	-0,050
-481,620	-69,691	0,094	0,026
-480,605	-120,209	0,020	0,002
-479,591	488,049	-0,042	0,070
-478,576	-200,000	0,011	0,158
-477,562	-76,199	-0,130	0,033
-476,547	-200,000	0,000	-0,039
-475,532	-152,170	-0,020	0,001
-474,518	-93,835	0,012	-0,003
-473,503	543,998	0,039	0,069
-472,489	333,874	-0,034	0,049
-471,474	-75,337	0,085	0,022
-470,459	-200,000	-0,014	0,079
-469,445	-44,483	-0,111	0,041
-468,430	-100,349	-0,027	-0,005
-467,416	-16,150	0,146	-0,068
-466,401	-200,000	-0,015	0,072
-465,386	-88,419	-0,083	-0,018
-464,372	-139,826	0,129	-0,010
-463,357	-102,381	-0,114	-0,020
-462,343	-200,000	0,030	-0,128
-461,328	97,035	0,102	-0,086
-460,313	486,790	0,020	0,034
-459,299	800,000	-0,009	0,027
-458,284	-200,000	-0,016	0,103
-457,270	-187,330	0,108	0,001
-456,255	-86,485	-0,079	0,018
-455,241	-122,877	-0,152	-0,018
-454,226	38,358	0,030	-0,020
-453,211	393,421	-0,053	-0,082
-452,197	-200,000	-0,012	-0,104
-451,182	-150,433	-0,075	0,004
-450,168	-77,756	-0,121	0,031
-449,153	1,259	-0,103	-0,054
-448,138	-33,289	-0,033	-0,014
-447,124	-200,000	0,015	-0,099
-446,109	800,000	-0,023	0,073
-445,095	259,059	0,130	0,165
-444,080	-200,000	0,004	0,043
-443,065	-148,184	-0,114	-0,007
-442,051	278,846	-0,072	-0,095
-441,036	368,306	0,068	0,101
-440,022	37,464	0,113	0,074
-439,007	503,302	-0,023	0,040
-437,992	112,378	-0,100	-0,089
-436,978	-4,755	0,099	0,050
-435,963	-103,199	-0,089	-0,015
-434,949	-97,044	0,026	-0,005
-433,934	217,230	-0,044	-0,052
-432,919	31,222	0,053	0,033
-431,905	-200,000	-0,004	-0,186
-430,890	-43,988	0,030	0,011
-429,876	-163,766	0,159	0,005
-428,861	-1,896	-0,111	0,057
-427,846	-9,130	0,153	0,075
-426,832	139,490	-0,074	0,072
-425,817	532,909	-0,056	-0,098
-424,803	104,296	-0,050	0,043
-423,788	800,000	0,026	-0,079
-422,773	-2,395	-0,063	0,032
-421,759	-181,850	0,080	-0,001
-420,744	43,054	0,079	-0,053
-419,730	575,948	-0,018	-0,033
-418,715	380,699	-0,054	-0,081
-417,701	-101,125	-0,043	-0,008
-416,686	-53,110	-0,039	-0,013
-415,671	74,746	0,091	0,070
-414,657	-200,000	0,007	0,083
-413,642	358,492	0,056	-0,083
-412,628	34,455	-0,080	-0,052
-411,613	-200,000	-0,005	-0,056
-410,598	-54,710	0,078	-0,026
-409,584	-112,575	0,060	-0,009
-408,569	56,699	0,045	-0,032
-407,555	800,000	0,041	0,106
-406,540	76,086	0,142	0,111
-405,525	646,032	0,096	-0,181
-404,511	800,000	-0,052	-0,148
-403,496	-26,588	-0,034	0,015
-402,482	-200,000	-0,021	-0,075
-401,467	-15,235	0,030	0,014
-400,452	107,189	-0,017	0,015
-399,438	252,292	-0,059	0,074
-398,423	800,000	-0,057	0,119
-397,409	171,412	-0,034	-0,036
-396,394	-200,000	-0,002	0,018
-395,379	-27,269	0,088	0,037
-394,365	97,665	-0,010	-0,008
-393,350	-200,000	0,004	-0,039
-392,336	-51,926	0,047	-0,016
-391,321	215,407	0,051	-0,059
-390,306	63,709	-0,126	-0,092
-389,292	800,000	-0,048	0,148
-388,277	-200,000	0,013	0,046
-387,263	-200,000	-0,022	0,111
-386,248	551,936	0,038	-0,068
-385,233	800,000	0,031	0,064
-384,219	-200,000	0,051	0,167
-383,204	334,345	-0,029	0,042
-382,190	-20,211	-0,127	-0,057
-381,175	52,664	-0,029	-0,020
-380,160	800,000	0,046	0,133
-379,146	-115,575	0,089	-0,012
-378,131	-200,000	0,022	0,078
-377,117	19,307	0,142	0,084
-376,102	-48,210	0,096	0,034
-375,088	-75,274	0,152	-0,039
-374,073	800,000	0,023	-0,061
-373,058	-200,000	0,002	0,008
-372,044	-85,183	0,059	-0,013
-371,029	-10,015	0,062	-0,030
-370,015	-200,000	0,018	0,067
-369,000	-42,047	-0,055	0,021
-367,985	53,311	0,039	-0,027
-366,971	436,541	0,021	-0,034
-365,956	800,000	-0,073	0,179
-364,942	6,627	0,141	-0,077
-363,927	-200,000	0,002	-0,088
-362,912	47,430	0,036	0,024
-361,898	-111,106	-0,023	-0,003
-360,883	24,602	-0,019	0,011
-359,869	-200,000	-0,004	0,162
-358,854	97,117	0,146	-0,123
-357,839	-19,582	-0,046	0,021
-356,825	484,853	0,019	-0,031
-355,810	-200,000	-0,003	-0,121
-354,796	800,000	-0,023	0,057
-353,781	-77,055	-0,079	0,020
-352,766	800,000	-0,013	-0,034
-351,752	165,868	-0,066	0,068
-350,737	547,423	-0,060	-0,106
-349,723	-200,000	-0,009	0,061
-348,708	-168,494	-0,056	-0,002
-347,693	800,000	0,019	-0,043
-346,679	-200,000	0,007	0,026
-345,664	-200,000	-0,005	0,058
-344,650	-52,803	-0,135	0,045
-343,635	-2,931	0,020	-0,010
-342,620	-200,000	0,018	0,061
-341,606	800,000	0,031	-0,063
-340,591	-200,000	0,029	0,097
-339,577	-96,089	-0,024	-0,005
-338,562	632,326	-0,030	-0,055
-337,548	-34,276	-0,128	-0,051
-336,533	-103,768	0,093	0,016
-335,518	-100,964	0,060	-0,011
-334,504	-200,000	0,042	0,186
-333,489	-96,162	0,105	-0,020
-332,475	215,970	-0,016	-0,019
-331,460	519,733	0,048	0,083
-330,445	34,844	-0,085	-0,055
-329,431	594,218	0,065	0,118
-328,416	800,000	0,035	0,096
-327,402	-49,101	-0,106	0,037
-326,387	-200,000	-0,050	0,169
-325,372	67,906	0,034	-0,026
-324,358	800,000	-0,051	-0,132
-323,343	-200,000	0,040	-0,134
-322,329	-200,000	-0,031	-0,107
-321,314	-19,147	0,120	-0,054
-320,299	800,000	0,039	0,082
-319,285	-78,930	0,068	-0,017
-318,270	800,000	0,025	0,078
-317,256	-200,000	-0,007	-0,094
-316,241	-164,019	-0,152	0,005
-315,226	-6,915	0,040	-0,020
-314,212	-200,000	-0,015	0,101
-313,197	36,016	0,033	0,021
-312,183	-200,000	-0,010	0,049
-311,168	800,000	0,006	-0,016
-310,153	-200,000	-0,013	0,046
-309,139	548,360	-0,051	0,090
-308,124	-79,161	-0,098	0,024
-307,110	-151,973	0,036	-0,002
-306,095	-146,545	0,064	-0,004
-305,080	-200,000	0,003	0,092
-304,066	-195,395	-0,045	-0,000
-303,051	-200,000	-0,001	-0,117
-302,037	-71,209	0,116	0,032
-301,022	12,814	-0,079	0,045
-300,008	800,000	0,041	-0,085
-298,993	-101,094	0,060	-0,011
-297,978	-13,617	-0,070	0,033
-296,964	-200,000	-0,018	0,130
-295,949	-200,000	-0,051	-0,181
-294,935	178,009	0,047	-0,050
-293,920	-200,000	-0,035	0,134
-292,905	-51,284	-0,029	0,010
-291,891	220,033	0,058	0,068
-290,876	53,887	-0,033	0,023
-289,862	-200,000	-0,010	-0,051
-288,847	-200,000	-0,005	-0,025
-287,832	-98,499	-0,132	-0,024
-286,818	-37,868	-0,085	0,033
-285,803	152,013	0,031	0,031
-284,789	113,973	-0,071	0,063
-283,774	14,289	-0,070	-0,040
-282,759	146,300	0,051	-0,050
-281,745	-200,000	-0,001	-0,022
-280,730	523,220	0,018	0,031
-279,716	-7,092	0,056	0,028
-278,701	307,798	0,009	0,012
-277,686	800,000	-0,027	-0,060
-276,672	800,000	0,025	-0,074
-275,657	68,122	0,090	0,067
-274,643	154,182	-0,041	0,041
-273,628	10,097	-0,077	-0,042
-272,613	-200,000	0,026	-0,119
-271,599	103,005	0,151	-0,129
-270,584	-200,000	0,007	-0,036
-269,570	-81,135	-0,131	0,031
-268,555	-200,000	-0,005	0,017
-267,540	237,923	0,080	-0,097
-266,526	-112,114	-0,130	0,019
-265,511	800,000	0,005	0,013
-264,497	-200,000	-0,002	0,069
-263,482	800,000	0,034	-0,104
-262,467	-99,154	0,097	-0,018
-261,453	-32,371	-0,132	-0,054
-260,438	800,000	0,012	0,033
-259,424	142,914	-0,048	-0,047
-258,409	-200,000	-0,006	-0,094
-257,395	-108,199	0,041	0,006
-256,380	-54,066	0,108	0,036
-255,365	253,195	0,075	0,093
-254,351	-61,285	0,075	-0,023
-253,336	-200,000	-0,010	0,112
-252,322	800,000	0,052	-0,108
-251,307	-41,799	-0,015	-0,006
-250,292	-93,680	0,114	-0,023
-249,278	-33,612	0,140	0,056
-248,263	-192,550	0,104	-0,001
-247,249	-200,000	-0,015	0,050
-246,234	449,126	-0,098	0,158
-245,219	-200,000	0,000	-0,132
-244,205	80,628	0,153	-0,120
-243,190	-18,039	0,077	-0,035
-242,176	-170,131	0,163	-0,004
-241,161	-1,738	0,048	-0,025
-240,146	528,975	0,109	-0,188
-239,132	-85,467	-0,007	0,002
-238,117	-163,329	0,146	-0,005
-237,103	-46,036	-0,114	0,041
-236,088	93,954	0,021	-0,017
-235,073	800,000	-0,034	0,089
-234,059	-200,000	0,049	0,000
-233,044	530,598	0,057	-0,099
-232,030	85,036	-0,154	0,123
-231,015	-133,721	-0,166	-0,015
-230,000	733,040	-0,028	0,055
-228,986	226,647	0,013	-0,016
-227,971	-200,000	-0,027	-0,099
-226,957	45,407	-0,121	0,082
-225,942	-118,806	-0,100	0,013
-224,927	49,455	-0,067	0,046
-223,913	-109,997	-0,037	-0,006
-222,898	800,000	-0,059	-0,138
-221,884	800,000	0,023	-0,059
-220,869	800,000	0,025	0,071
-219,855	23,039	-0,039	-0,023
-218,840	800,000	0,038	0,101
-217,825	6,111	0,130	-0,070
-216,811	276,909	0,038	0,050
-215,796	800,000	0,059	0,153
-214,782	644,170	-0,028	-0,053
-213,767	-74,858	0,116	0,030
-212,752	-49,926	0,051	-0,018
-211,738	800,000	0,049	-0,103
-210,723	-63,020	-0,126	0,038
-209,709	-122,369	-0,043	-0,005
-208,694	-200,000	-0,005	-0,044
-207,679	277,452	-0,045	0,058
-206,665	-80,441	-0,115	0,028
-205,650	-147,886	0,060	-0,004
-204,636	-200,000	-0,007	0,067
-203,621	185,612	-0,101	-0,110
-202,606	322,627	-0,119	0,166
-201,592	-200,000	0,015	-0,178
-200,577	-135,427	-0,077	0,007
-199,563	16,024	-0,108	-0,062
-198,548	-78,457	-0,092	0,023
-197,533	800,000	0,024	-0,069
-196,519	-200,000	-0,010	0,142
-195,504	-200,000	0,010	0,059
-194,490	-52,463	0,124	-0,042
-193,475	-200,000	0,007	0,092
-192,460	65,951	0,035	-0,026
-191,446	66,030	0,079	0,058
-190,431	11,283	0,033	-0,018
-189,417	800,000	-0,065	0,158
-188,402	-22,947	-0,071	-0,031
-187,387	52,113	-0,113	-0,078
-186,373	90,618	-0,072	-0,059
-185,358	10,547	0,031	-0,017
-184,344	11,045	0,144	0,080
-183,329	-6,311	-0,081	0,040
-182,315	-19,695	-0,052	0,023
-181,300	-8,013	-0,107	0,052
-180,285	-124,390	-0,095	0,011
-179,271	-0,160	0,034	0,018
-178,256	775,714	-0,031	0,061
-177,242	-174,967	0,074	0,001
-176,227	-200,000	-0,030	0,106
-175,212	-144,209	-0,162	0,011
-174,198	-171,209	-0,067	0,002
-173,183	-102,527	-0,096	0,017
-172,169	800,000	0,034	0,094
-171,154	423,530	0,068	0,107
-170,139	40,772	-0,055	0,036
-169,125	-99,650	0,082	0,015
-168,110	18,834	0,061	0,036
-167,096	800,000	0,014	0,032
-166,081	-200,000	-0,010	-0,139
-165,066	352,844	-0,013	-0,018
-164,052	800,000	0,029	-0,062
-163,037	-200,000	-0,020	0,121
-162,023	800,000	0,064	0,130
-161,008	-200,000	0,008	0,031
-159,993	47,534	0,072	0,049
-158,979	-116,389	-0,068	-0,009
-157,964	800,000	-0,028	-0,077
-156,950	800,000	-0,042	-0,095
-155,935	-61,934	-0,027	-0,008
-154,920	-200,000	0,013	0,156
-153,906	-200,000	-0,026	0,118
-152,891	-200,000	-0,016	-0,070
-151,877	800,000	-0,067	-0,158
-150,862	418,649	0,089	-0,140
-149,847	-15,033	-0,067	-0,031
-148,833	125,739	0,083	-0,076
-147,818	650,462	0,038	0,072
-146,804	249,363	-0,031	0,038
-145,789	-142,057	-0,125	0,009
-144,775	209,712	0,123	-0,141
-143,760	-78,311	0,134	0,033
-142,745	36,214	-0,093	-0,059
-141,731	800,000	0,041	0,101
-140,716	46,336	0,031	0,021
-139,702	-197,701	0,071	0,000
-138,687	537,777	-0,102	-0,176
-137,672	50,821	0,061	0,042
-136,658	43,990	-0,118	-0,079
-135,643	-200,000	0,001	0,061
-134,629	175,560	0,062	-0,065
-133,614	-200,000	-0,009	0,180
-132,599	214,849	0,126	0,145
-131,585	800,000	0,047	0,099
-130,570	564,792	0,077	-0,137
-129,556	-100,393	-0,063	0,011
-128,541	-200,000	0,022	0,080
-127,526	-191,423	-0,184	-0,001
-126,512	-200,000	-0,022	-0,169
-125,497	-200,000	-0,017	0,114
-124,483	330,400	-0,073	0,102
-123,468	385,099	-0,060	0,090
-122,453	-77,880	-0,066	0,016
-121,439	101,389	-0,140	0,118
-120,424	742,237	0,032	-0,063
