DTS Sentinel unit serial number:	SN410029Multiplexer serial number:	ORYXHardware model number:	OX2-SRSoftware version number:	ORYX F/W v4,00 Oryx Data Collector v3.7.2.0data status	okinstallation	B6 Nyhavnadifferential loss correction	single-endedforward channel	channel 2reverse channel	N/Adate	2023/12/10time	09:45:08forward acquisition time	300,00reverse acquisition time	0,00gamma	499,1914k internal	0,3123k external	0,3123temperature offset calibration	1,0000default loss term (dB/km)	0,3820temperature slope calibration	1,0000multiplexer offset coefficient	1,0000multiplexer slope coefficient	1,0000fibre end	0,00T internal ref (°C)	22,55T ext. ref 1 (°C)	6,33T ext. ref 2 (°C)	6,34length (m)	temperature (°C)	Stokes	anti-Stokes-744,400	800,000	-0,026	-0,069
-743,385	800,000	-0,123	0,263
-742,371	800,000	0,052	-0,126
-741,356	-132,051	-0,196	0,019
-740,342	604,245	-0,022	-0,041
-739,327	-108,665	-0,179	0,028
-738,312	10,101	0,010	0,006
-737,298	-158,890	-0,268	0,011
-736,283	-56,264	0,091	0,030
-735,269	571,957	-0,110	0,200
-734,254	-48,923	0,089	-0,032
-733,239	-47,337	-0,394	-0,142
-732,225	382,636	0,065	0,099
-731,210	-200,000	0,027	0,153
-730,196	23,203	-0,018	-0,011
-729,181	-200,000	0,018	0,081
-728,167	29,311	-0,051	0,032
-727,152	146,806	0,034	-0,034
-726,137	-200,000	-0,031	-0,121
-725,123	-200,000	-0,030	-0,130
-724,108	115,879	0,084	-0,077
-723,094	35,893	-0,059	0,039
-722,079	800,000	0,027	0,080
-721,064	169,414	0,027	0,028
-720,050	-200,000	0,012	-0,166
-719,035	223,573	-0,045	-0,054
-718,021	-200,000	0,001	-0,255
-717,006	93,550	0,028	-0,023
-715,991	197,871	-0,084	-0,096
-714,977	-93,683	-0,044	-0,009
-713,962	-13,835	-0,054	-0,026
-712,948	-11,315	-0,085	0,042
-711,933	30,644	-0,097	-0,061
-710,918	-200,000	-0,004	0,042
-709,904	800,000	0,057	-0,168
-708,889	-200,000	0,034	-0,117
-707,875	-16,354	-0,173	-0,081
-706,860	-200,000	-0,006	-0,057
-705,845	-200,000	0,015	0,055
-704,831	800,000	0,017	-0,036
-703,816	442,154	-0,085	0,140
-702,802	-114,623	-0,148	0,021
-701,787	-200,000	0,028	-0,152
-700,772	540,501	-0,026	-0,046
-699,758	122,517	0,019	0,018
-698,743	-200,000	-0,009	-0,068
-697,729	-200,000	0,003	0,156
-696,714	475,241	-0,074	0,124
-695,699	245,733	-0,032	-0,040
-694,685	-200,000	0,000	-0,013
-693,670	-200,000	-0,014	0,090
-692,656	-200,000	0,008	-0,038
-691,641	106,853	-0,054	-0,048
-690,627	-26,068	-0,086	0,038
-689,612	717,572	0,066	0,132
-688,597	-200,000	0,007	-0,139
-687,583	-10,737	-0,140	0,069
-686,568	-66,158	-0,084	0,025
-685,554	-147,986	-0,049	0,003
-684,539	-200,000	0,008	-0,081
-683,524	800,000	-0,011	0,025
-682,510	4,042	0,086	0,047
-681,495	-45,335	-0,159	-0,058
-680,481	46,563	0,100	0,069
-679,466	-200,000	-0,011	-0,044
-678,451	307,603	0,033	-0,045
-677,437	-200,000	0,008	0,034
-676,422	302,782	0,033	-0,046
-675,408	307,170	0,029	-0,040
-674,393	-200,000	-0,018	-0,078
-673,378	74,342	-0,112	-0,087
-672,364	-200,000	-0,000	-0,071
-671,349	-117,195	0,046	0,006
-670,335	144,465	-0,027	0,027
-669,320	-121,174	0,082	-0,010
-668,305	-4,009	-0,174	0,089
-667,291	800,000	-0,009	-0,027
-666,276	55,265	-0,088	-0,063
-665,262	186,735	-0,087	-0,096
-664,247	-200,000	0,029	-0,123
-663,232	316,271	0,079	-0,111
-662,218	-200,000	0,013	0,222
-661,203	800,000	-0,021	-0,057
-660,189	-200,000	-0,013	0,052
-659,174	-62,445	-0,158	-0,049
-658,159	-3,939	-0,033	-0,017
-657,145	14,530	-0,072	-0,042
-656,130	478,369	-0,052	0,088
-655,116	484,176	0,038	-0,064
-654,101	42,693	-0,084	0,057
-653,086	-200,000	0,010	0,073
-652,072	-200,000	-0,010	0,094
-651,057	690,534	-0,090	-0,177
-650,043	56,925	0,094	-0,068
-649,028	401,770	-0,026	-0,041
-648,014	131,520	0,124	-0,118
-646,999	-35,261	-0,084	-0,034
-645,984	-200,000	-0,015	0,108
-644,970	-168,239	-0,241	0,007
-643,955	87,374	0,066	0,054
-642,941	-200,000	0,001	0,024
-641,926	800,000	-0,052	-0,163
-640,911	-200,000	0,038	0,157
-639,897	-125,230	0,094	-0,011
-638,882	-33,807	-0,029	-0,012
-637,868	111,651	-0,034	-0,031
-636,853	-39,760	-0,161	0,062
-635,838	88,834	0,079	0,065
-634,824	-200,000	0,003	0,047
-633,809	-156,031	0,043	-0,002
-632,795	-22,826	-0,105	-0,047
-631,780	92,177	-0,089	0,075
-630,765	-200,000	0,032	0,108
-629,751	545,340	-0,062	0,110
-628,736	-200,000	-0,009	-0,057
-627,722	800,000	0,037	-0,090
-626,707	-171,999	-0,031	0,001
-625,692	108,748	0,015	0,014
-624,678	-117,156	0,108	0,014
-623,663	-104,532	-0,077	-0,013
-622,649	186,291	-0,090	-0,099
-621,634	800,000	-0,064	-0,140
-620,619	120,143	0,030	-0,027
-619,605	-86,963	-0,119	0,027
-618,590	359,886	0,070	-0,104
-617,576	-82,163	-0,150	0,036
-616,561	-200,000	0,014	-0,100
-615,546	168,069	-0,063	-0,067
-614,532	188,357	-0,117	-0,130
-613,517	306,516	0,092	-0,127
-612,503	304,668	0,017	0,024
-611,488	800,000	-0,026	-0,063
-610,474	14,989	0,019	0,011
-609,459	106,486	0,129	0,113
-608,444	355,937	0,089	-0,132
-607,430	117,586	-0,106	-0,097
-606,415	-149,199	0,091	-0,005
-605,401	-5,896	0,038	-0,019
-604,386	-94,140	0,055	-0,011
-603,371	-200,000	0,008	0,061
-602,357	317,221	-0,055	0,077
-601,342	164,193	-0,062	-0,065
-600,328	800,000	-0,032	-0,079
-599,313	-200,000	0,026	0,111
-598,298	-200,000	-0,001	-0,068
-597,284	187,772	-0,143	0,159
-596,269	82,338	0,166	0,134
-595,255	-200,000	-0,006	0,031
-594,240	-150,368	-0,079	-0,004
-593,225	157,577	0,044	0,045
-592,211	350,530	0,055	-0,080
-591,196	297,010	0,050	0,069
-590,182	680,954	-0,052	0,100
-589,167	-10,375	-0,003	-0,001
-588,152	-36,680	0,067	-0,026
-587,138	-200,000	0,010	0,066
-586,123	52,061	-0,014	-0,010
-585,109	-59,169	0,085	-0,027
-584,094	120,376	-0,084	0,077
-583,079	-200,000	0,007	-0,113
-582,065	-200,000	0,006	-0,031
-581,050	800,000	0,024	0,051
-580,036	302,210	-0,048	0,065
-579,021	-196,942	-0,015	0,000
-578,006	326,679	-0,045	-0,064
-576,992	-200,000	-0,009	-0,040
-575,977	-46,232	-0,121	0,044
-574,963	-200,000	-0,011	0,042
-573,948	-200,000	-0,015	0,131
-572,934	21,335	-0,098	0,059
-571,919	359,596	-0,098	-0,146
-570,904	-19,296	-0,117	0,054
-569,890	-200,000	0,013	-0,068
-568,875	-128,666	-0,033	0,003
-567,861	-23,360	-0,015	0,007
-566,846	4,818	-0,093	-0,050
-565,831	160,283	-0,050	-0,051
-564,817	-108,353	0,060	-0,009
-563,802	207,844	-0,018	-0,021
-562,788	-200,000	-0,023	-0,117
-561,773	124,665	0,066	-0,062
-560,758	-129,207	0,073	-0,007
-559,744	208,797	-0,045	0,052
-558,729	-147,138	0,013	0,001
-557,715	800,000	0,022	-0,069
-556,700	800,000	-0,026	-0,082
-555,685	143,770	0,077	0,076
-554,671	-200,000	0,030	-0,114
-553,656	96,365	0,037	0,032
-552,642	187,510	0,052	0,058
-551,627	-200,000	-0,106	0,000
-550,612	223,677	0,053	-0,063
-549,598	301,657	-0,058	0,079
-548,583	-200,000	-0,023	-0,114
-547,569	-200,000	0,003	-0,065
-546,554	-95,874	-0,045	-0,009
-545,539	696,506	0,082	0,160
-544,525	-162,987	-0,011	0,000
-543,510	-200,000	0,011	-0,065
-542,496	400,567	-0,020	-0,031
-541,481	-67,582	-0,076	-0,022
-540,466	-26,866	0,106	-0,046
-539,452	52,353	0,121	0,086
-538,437	-200,000	-0,015	0,114
-537,423	-200,000	0,031	0,104
-536,408	-200,000	-0,003	0,059
-535,393	63,765	0,049	0,036
-534,379	-133,389	0,130	-0,012
-533,364	286,150	-0,064	-0,085
-532,350	106,104	0,070	-0,061
-531,335	28,856	0,124	-0,078
-530,321	200,077	0,105	0,119
-529,306	116,678	-0,075	-0,068
-528,291	-74,157	-0,090	-0,024
-527,277	-122,746	-0,005	-0,001
-526,262	-101,951	0,100	0,018
-525,248	-21,531	0,084	0,038
-524,233	63,744	0,063	0,047
-523,218	-200,000	0,050	0,203
-522,204	-118,179	-0,105	-0,014
-521,189	726,591	-0,065	-0,128
-520,175	-73,761	0,119	-0,032
-519,160	-29,865	-0,047	0,020
-518,145	800,000	0,027	-0,076
-517,131	-200,000	0,029	-0,125
-516,116	95,509	-0,023	-0,020
-515,102	-200,000	0,009	0,128
-514,087	453,924	0,052	0,085
-513,072	358,821	0,058	0,086
-512,058	-77,490	-0,075	0,019
-511,043	-200,000	0,009	0,033
-510,029	-200,000	0,023	0,176
-509,014	-200,000	0,033	0,109
-507,999	-79,833	0,065	0,016
-506,985	15,814	-0,044	-0,025
-505,970	-200,000	-0,025	-0,105
-504,956	800,000	-0,063	0,193
-503,941	-200,000	-0,006	0,127
-502,926	800,000	-0,008	-0,022
-501,912	-154,007	0,093	-0,005
-500,897	-24,121	0,056	0,024
-499,883	346,455	0,047	0,069
-498,868	247,874	0,053	0,067
-497,853	-11,415	-0,080	-0,039
-496,839	67,286	-0,073	-0,055
-495,824	16,611	0,086	0,050
-494,810	705,690	-0,051	0,101
-493,795	-200,000	-0,024	-0,130
-492,781	800,000	-0,023	-0,063
-491,766	32,935	-0,045	0,029
-490,751	800,000	-0,016	0,048
-489,737	598,279	-0,038	-0,070
-488,722	176,842	0,034	-0,036
-487,708	193,843	0,130	0,145
-486,693	108,318	0,042	0,037
-485,678	-9,155	-0,014	0,007
-484,664	-112,263	-0,074	0,011
-483,649	-59,700	-0,110	-0,035
-482,635	-200,000	-0,002	0,041
-481,620	62,046	0,051	0,037
-480,605	-15,935	0,063	-0,029
-479,591	-70,016	-0,155	-0,043
-478,576	-11,252	-0,098	0,048
-477,562	438,029	-0,063	-0,101
-476,547	-200,000	0,009	0,085
-475,532	20,835	-0,157	-0,093
-474,518	-23,627	-0,009	-0,004
-473,503	-53,375	0,085	-0,029
-472,489	800,000	-0,014	-0,037
-471,474	-200,000	0,005	-0,073
-470,459	800,000	-0,091	-0,217
-469,445	202,035	-0,089	-0,101
-468,430	800,000	0,022	0,065
-467,416	-200,000	-0,022	0,093
-466,401	800,000	-0,072	-0,157
-465,386	800,000	-0,041	0,092
-464,372	504,749	-0,028	0,049
-463,357	149,314	-0,088	-0,088
-462,343	81,129	0,048	0,038
-461,328	51,770	0,010	0,007
-460,313	-200,000	-0,019	-0,085
-459,299	-200,000	0,005	0,168
-458,284	20,941	0,021	-0,012
-457,270	-45,641	-0,049	-0,018
-456,255	800,000	0,056	0,131
-455,241	-101,889	-0,155	0,027
-454,226	-98,033	-0,187	-0,035
-453,211	9,233	0,060	0,033
-452,197	-10,621	0,103	0,050
-451,182	-200,000	-0,007	-0,059
-450,168	744,635	-0,048	0,095
-449,153	-200,000	-0,013	0,067
-448,138	-200,000	0,016	0,072
-447,124	800,000	0,029	0,073
-446,109	175,353	0,062	0,066
-445,095	-200,000	0,007	0,116
-444,080	-41,078	0,080	-0,030
-443,065	-79,871	-0,057	0,014
-442,051	217,152	-0,045	0,053
-441,036	575,835	-0,010	-0,017
-440,022	-25,121	0,156	-0,068
-439,007	800,000	-0,017	0,052
-437,992	-200,000	0,008	0,071
-436,978	198,713	0,137	0,155
-435,963	-119,886	0,087	-0,011
-434,949	99,565	0,076	-0,065
-433,934	-20,931	0,032	0,014
-432,919	-200,000	0,013	-0,162
-431,905	-47,025	-0,100	0,036
-430,890	-82,755	-0,092	0,022
-429,876	191,582	0,070	0,078
-428,861	88,090	0,093	-0,076
-427,846	52,007	-0,042	-0,029
-426,832	81,292	-0,028	-0,022
-425,817	46,613	-0,087	-0,059
-424,803	800,000	-0,048	-0,120
-423,788	-200,000	-0,014	-0,095
-422,773	204,975	-0,073	0,083
-421,759	800,000	0,030	0,090
-420,744	-8,749	-0,139	-0,069
-419,730	-124,843	-0,116	-0,013
-418,715	14,463	0,066	0,038
-417,701	-200,000	-0,005	0,027
-416,686	-82,978	0,175	0,041
-415,671	5,667	0,056	0,031
-414,657	-200,000	-0,020	0,090
-413,642	9,268	0,139	0,077
-412,628	515,447	-0,041	-0,071
-411,613	77,562	0,097	-0,076
-410,598	-200,000	-0,012	-0,128
-409,584	175,287	-0,073	0,078
-408,569	242,697	-0,035	0,043
-407,555	223,818	0,061	0,073
-406,540	150,571	-0,049	-0,049
-405,525	172,161	-0,114	-0,121
-404,511	190,930	-0,058	0,065
-403,496	223,441	-0,043	-0,051
-402,482	-200,000	-0,002	0,058
-401,467	91,501	0,038	0,031
-400,452	-200,000	0,011	0,062
-399,438	32,282	-0,105	0,067
-398,423	132,364	-0,088	-0,083
-397,409	-94,376	-0,076	0,015
-396,394	800,000	0,024	0,061
-395,379	-27,328	-0,104	0,044
-394,365	800,000	-0,031	0,069
-393,350	-171,596	0,062	0,001
-392,336	-200,000	0,025	-0,113
-391,321	56,735	0,047	-0,034
-390,306	-150,095	-0,115	0,006
-389,292	24,661	-0,043	-0,026
-388,277	80,589	-0,161	-0,128
-387,263	376,494	0,044	-0,067
-386,248	-71,092	0,086	0,024
-385,233	800,000	0,028	0,069
-384,219	-120,949	0,069	0,008
-383,204	-200,000	-0,013	0,130
-382,190	-125,466	0,027	-0,003
-381,175	-200,000	-0,003	-0,063
-380,160	107,450	0,054	-0,047
-379,146	-169,422	0,056	0,001
-378,131	800,000	-0,019	0,047
-377,117	567,331	0,083	-0,148
-376,102	-200,000	0,030	-0,177
-375,088	800,000	-0,015	-0,045
-374,073	-200,000	-0,005	-0,069
-373,058	34,430	-0,064	-0,041
-372,044	-200,000	0,029	0,101
-371,029	174,234	0,047	-0,050
-370,015	-62,584	0,066	-0,020
-369,000	-200,000	-0,012	0,091
-367,985	800,000	0,035	-0,090
-366,971	-136,604	0,143	-0,012
-365,956	-200,000	-0,053	0,187
-364,942	-200,000	-0,001	0,074
-363,927	-12,269	0,097	0,046
-362,912	272,449	0,094	0,123
-361,898	-200,000	0,000	-0,014
-360,883	96,460	-0,084	-0,071
-359,869	-200,000	-0,002	0,062
-358,854	-89,822	0,086	0,018
-357,839	206,355	0,107	0,122
-356,825	-200,000	-0,003	0,038
-355,810	-200,000	0,006	0,054
-354,796	800,000	-0,019	0,048
-353,781	800,000	0,036	0,074
-352,766	7,230	0,049	-0,027
-351,752	800,000	-0,017	-0,050
-350,737	-200,000	0,020	-0,071
-349,723	-200,000	-0,030	0,193
-348,708	254,699	-0,127	0,159
-347,693	-200,000	0,004	0,101
-346,679	-130,232	-0,061	0,006
-345,664	800,000	-0,019	-0,062
-344,650	169,835	0,041	-0,044
-343,635	-200,000	0,013	0,064
-342,620	-77,576	0,131	0,033
-341,606	-37,291	-0,193	0,075
-340,591	176,474	-0,048	-0,052
-339,577	-66,610	-0,051	-0,015
-338,562	62,217	-0,067	-0,049
-337,548	-200,000	0,001	-0,100
-336,533	-200,000	-0,003	0,013
-335,518	-200,000	0,040	-0,144
-334,504	262,069	-0,034	-0,044
-333,489	51,351	-0,075	-0,052
-332,475	174,922	-0,058	0,061
-331,460	520,166	0,038	0,066
-330,445	-200,000	0,010	-0,098
-329,431	540,118	0,108	-0,189
-328,416	234,496	0,036	0,044
-327,402	-101,816	0,079	0,014
-326,387	800,000	0,040	-0,098
-325,372	-21,905	-0,029	-0,013
-324,358	-4,955	-0,120	-0,060
-323,343	340,085	0,154	0,222
-322,329	-47,923	0,007	-0,003
-321,314	-200,000	-0,048	0,170
-320,299	-130,608	-0,147	0,014
-319,285	51,943	0,093	-0,065
-318,270	-49,859	0,145	-0,050
-317,256	276,046	0,061	0,080
-316,241	-44,277	0,017	-0,006
-315,226	-86,273	0,107	-0,024
-314,212	-121,995	0,049	-0,006
-313,197	800,000	0,005	-0,016
-312,183	-200,000	0,018	0,135
-311,168	239,725	-0,055	-0,067
-310,153	-200,000	0,014	-0,175
-309,139	-70,670	-0,082	-0,023
-308,124	800,000	-0,028	-0,088
-307,110	-200,000	-0,034	0,113
-306,095	28,725	0,127	0,079
-305,080	-200,000	0,011	0,072
-304,066	-29,161	-0,078	0,032
-303,051	336,797	0,065	-0,093
-302,037	-200,000	-0,045	-0,200
-301,022	-17,555	-0,116	-0,053
-300,008	800,000	0,023	-0,063
-298,993	306,968	0,071	0,097
-297,978	139,362	-0,059	0,057
-296,964	196,255	0,066	0,074
-295,949	455,068	0,014	-0,023
-294,935	336,263	0,042	0,060
-293,920	-76,403	0,020	-0,005
-292,905	-74,160	0,190	-0,050
-291,891	265,555	0,065	0,083
-290,876	-114,110	0,070	0,010
-289,862	800,000	-0,027	-0,072
-288,847	-200,000	0,050	-0,208
-287,832	-126,568	-0,171	-0,018
-286,818	-121,745	0,014	0,002
-285,803	-200,000	0,015	0,077
-284,789	-139,247	0,119	0,009
-283,774	325,560	-0,057	-0,080
-282,759	405,238	-0,059	0,091
-281,745	218,908	-0,040	-0,047
-280,730	516,113	-0,058	-0,099
-279,716	-57,730	-0,195	-0,062
-278,701	303,421	0,073	0,100
-277,686	800,000	0,030	0,088
-276,672	-200,000	0,028	-0,110
-275,657	-200,000	0,029	0,174
-274,643	158,226	-0,007	-0,007
-273,628	-200,000	-0,026	-0,118
-272,613	-122,647	0,067	0,008
-271,599	-145,856	0,115	-0,007
-270,584	-73,783	0,131	0,035
-269,570	502,535	-0,036	0,061
-268,555	456,688	-0,064	0,105
-267,540	213,975	0,044	-0,051
-266,526	-200,000	-0,019	-0,078
-265,511	-11,508	0,046	0,022
-264,497	-200,000	-0,007	-0,085
-263,482	-200,000	0,001	-0,019
-262,467	294,936	-0,081	0,109
-261,453	-53,064	0,103	-0,034
-260,438	-36,259	-0,118	-0,046
-259,424	-200,000	-0,008	0,041
-258,409	-200,000	-0,007	-0,154
-257,395	-200,000	-0,003	-0,047
-256,380	100,887	-0,032	0,027
-255,365	-84,563	0,074	0,017
-254,351	128,835	0,047	0,044
-253,336	36,142	-0,124	0,080
-252,322	-115,487	-0,140	0,019
-251,307	-200,000	-0,007	-0,063
-250,292	-154,510	0,067	0,003
-249,278	-200,000	0,001	0,106
-248,263	-200,000	0,025	0,123
-247,249	800,000	0,048	0,112
-246,234	800,000	0,008	-0,018
-245,219	800,000	-0,044	-0,096
-244,205	559,592	0,075	0,133
-243,190	148,546	0,071	-0,070
-242,176	-200,000	0,012	-0,184
-241,161	128,231	0,091	0,085
-240,146	800,000	-0,031	-0,063
-239,132	317,178	-0,081	-0,112
-238,117	-200,000	-0,038	-0,153
-237,103	167,448	0,035	0,036
-236,088	-89,932	0,069	-0,015
-235,073	800,000	-0,006	0,018
-234,059	-68,213	-0,024	0,007
-233,044	114,179	0,013	-0,012
-232,030	-8,365	0,084	-0,041
-231,015	800,000	0,052	-0,167
-230,000	550,279	0,016	-0,028
-228,986	-80,121	0,065	-0,016
-227,971	600,446	-0,040	0,073
-226,957	-200,000	-0,007	0,074
-225,942	800,000	0,028	0,074
-224,927	-41,416	-0,072	-0,027
-223,913	102,031	-0,144	-0,123
-222,898	-76,048	-0,096	-0,025
-221,884	-151,211	-0,087	-0,005
-220,869	-200,000	0,002	-0,058
-219,855	-5,135	0,110	0,055
-218,840	164,449	0,061	-0,063
-217,825	-34,751	0,108	-0,043
-216,811	479,365	-0,082	0,136
-215,796	-200,000	-0,010	-0,066
-214,782	-105,930	0,078	-0,013
-213,767	184,218	-0,049	-0,053
-212,752	112,634	0,033	-0,029
-211,738	-66,182	0,071	-0,021
-210,723	-44,320	0,133	0,048
-209,709	508,462	-0,079	-0,134
-208,694	205,527	0,030	-0,034
-207,679	800,000	-0,032	-0,072
-206,665	173,723	-0,044	-0,046
-205,650	-200,000	0,033	0,155
-204,636	-62,585	0,177	0,053
-203,621	-22,231	0,180	-0,079
-202,606	-200,000	-0,023	-0,124
-201,592	-200,000	0,037	-0,155
-200,577	-147,608	-0,072	-0,004
-199,563	10,053	-0,042	-0,023
-198,548	110,448	0,042	0,036
-197,533	-200,000	-0,015	0,076
-196,519	10,981	0,037	-0,021
-195,504	10,477	-0,066	0,036
-194,490	91,993	-0,007	0,006
-193,475	-133,663	0,086	-0,008
-192,460	-200,000	-0,012	-0,078
-191,446	205,520	0,080	-0,091
-190,431	309,299	0,072	0,099
-189,417	-177,113	-0,149	0,003
-188,402	-200,000	-0,001	0,139
-187,387	-200,000	-0,010	-0,048
-186,373	-200,000	0,002	-0,048
-185,358	-200,000	0,020	0,132
-184,344	-120,638	-0,097	0,012
-183,329	-200,000	-0,004	0,079
-182,315	321,523	0,021	-0,029
-181,300	-71,361	-0,070	-0,019
-180,285	-71,451	0,073	-0,020
-179,271	800,000	-0,060	0,162
-178,256	-60,921	0,027	-0,008
-177,242	-100,960	-0,062	-0,011
-176,227	320,013	0,014	0,019
-175,212	-51,342	0,120	-0,041
-174,198	-200,000	-0,017	0,067
-173,183	-58,751	-0,091	0,028
-172,169	-200,000	-0,010	0,103
-171,154	379,401	0,060	-0,090
-170,139	800,000	0,037	0,099
-169,125	741,244	0,033	0,064
-168,110	239,387	-0,017	-0,020
-167,096	630,389	-0,048	-0,090
-166,081	72,191	-0,060	-0,045
-165,066	800,000	-0,006	0,017
-164,052	-200,000	-0,009	-0,154
-163,037	-200,000	-0,011	0,053
-162,023	353,836	0,047	-0,068
-161,008	800,000	0,021	0,044
-159,993	473,266	0,028	-0,046
-158,979	-141,309	-0,103	0,008
-157,964	800,000	0,037	-0,119
-156,950	40,000	-0,110	0,072
-155,935	40,104	-0,008	0,005
-154,920	-117,107	-0,090	0,012
-153,906	-77,416	0,080	-0,020
-152,891	-200,000	-0,014	-0,108
-151,877	-149,720	0,063	0,004
-150,862	-200,000	0,010	0,039
-149,847	-200,000	-0,033	0,179
-148,833	-48,515	-0,144	0,050
-147,818	-105,028	0,153	-0,025
-146,804	261,584	0,055	0,069
-145,789	152,853	0,097	0,096
-144,775	273,695	-0,015	0,019
-143,760	-143,590	-0,050	-0,003
-142,745	329,065	0,032	0,045
-141,731	-86,833	-0,050	0,011
-140,716	-148,216	0,110	-0,007
-139,702	-129,760	0,061	0,006
-138,687	-109,889	0,026	-0,004
-137,672	-200,000	0,009	-0,064
-136,658	-76,306	-0,072	-0,018
-135,643	-200,000	0,018	-0,114
-134,629	-200,000	0,015	-0,074
-133,614	135,648	0,059	-0,056
-132,599	-14,890	0,078	0,036
-131,585	338,442	-0,091	-0,129
-130,570	-154,301	0,037	-0,002
-129,556	-3,473	0,026	0,013
-128,541	-200,000	0,004	-0,099
-127,526	-200,000	-0,011	-0,091
-126,512	-22,403	-0,102	0,045
-125,497	136,813	0,166	0,157
-124,483	-200,000	0,040	0,146
-123,468	159,151	-0,075	0,076
-122,453	27,280	-0,118	-0,072
-121,439	137,423	-0,056	-0,053
