DTS Sentinel unit serial number:	SN410029Multiplexer serial number:	ORYXHardware model number:	OX2-SRSoftware version number:	ORYX F/W v4,00 Oryx Data Collector v3.7.2.0data status	okinstallation	B6 Nyhavnadifferential loss correction	single-endedforward channel	channel 2reverse channel	N/Adate	2023/12/09time	12:40:08forward acquisition time	300,00reverse acquisition time	0,00gamma	499,1914k internal	0,3138k external	0,3138temperature offset calibration	1,0000default loss term (dB/km)	0,3820temperature slope calibration	1,0000multiplexer offset coefficient	1,0000multiplexer slope coefficient	1,0000fibre end	0,00T internal ref (°C)	19,49T ext. ref 1 (°C)	4,10T ext. ref 2 (°C)	4,09length (m)	temperature (°C)	Stokes	anti-Stokes-744,400	800,000	0,029	-0,093
-743,385	-120,166	-0,253	-0,032
-742,371	-19,621	0,151	0,069
-741,356	68,640	-0,149	0,113
-740,342	-200,000	0,034	0,165
-739,327	46,742	-0,140	0,096
-738,312	800,000	0,026	-0,072
-737,298	-95,109	-0,206	-0,041
-736,283	51,901	0,070	0,049
-735,269	-51,657	-0,175	0,060
-734,254	-29,069	0,066	-0,028
-733,239	-135,258	-0,478	-0,042
-732,225	-10,484	0,147	0,072
-731,210	440,289	-0,039	-0,063
-730,196	157,687	-0,043	-0,044
-729,181	25,652	0,048	0,029
-728,167	385,565	0,027	-0,042
-727,152	43,105	-0,124	-0,084
-726,137	-200,000	-0,010	0,077
-725,123	800,000	-0,045	0,114
-724,108	-170,736	-0,101	-0,003
-723,094	484,327	0,063	-0,107
-722,079	-156,824	-0,086	0,004
-721,064	-200,000	-0,003	0,047
-720,050	-180,723	-0,135	-0,002
-719,035	-97,463	0,122	0,023
-718,021	-36,729	-0,053	0,021
-717,006	-200,000	-0,038	-0,130
-715,991	92,339	-0,092	-0,077
-714,977	75,673	-0,056	-0,044
-713,962	80,441	0,058	-0,046
-712,948	-8,018	0,135	-0,067
-711,933	800,000	-0,051	0,109
-710,918	32,609	0,117	-0,075
-709,904	-4,169	-0,102	0,052
-708,889	-57,328	-0,061	-0,020
-707,875	-200,000	-0,003	-0,010
-706,860	89,842	-0,116	-0,096
-705,845	-200,000	0,027	0,092
-704,831	219,281	-0,040	-0,047
-703,816	-125,653	-0,149	0,017
-702,802	762,482	-0,027	-0,055
-701,787	-67,631	-0,101	0,029
-700,772	20,244	0,043	0,026
-699,758	800,000	-0,028	-0,060
-698,743	280,087	-0,026	-0,035
-697,729	5,961	-0,130	-0,071
-696,714	13,423	0,028	0,016
-695,699	800,000	-0,017	0,050
-694,685	625,601	-0,087	-0,164
-693,670	-51,217	0,090	0,031
-692,656	-156,492	-0,053	-0,002
-691,641	-167,740	0,149	-0,004
-690,627	800,000	-0,011	0,030
-689,612	800,000	-0,026	-0,061
-688,597	800,000	0,011	-0,025
-687,583	-200,000	-0,006	0,031
-686,568	240,508	0,078	-0,096
-685,554	800,000	-0,053	-0,127
-684,539	800,000	-0,029	0,073
-683,524	407,855	0,092	-0,145
-682,510	-80,276	-0,119	-0,029
-681,495	-85,180	-0,146	-0,034
-680,481	354,919	-0,036	0,053
-679,466	-200,000	0,004	0,055
-678,451	39,716	0,060	-0,040
-677,437	234,105	-0,058	0,070
-676,422	-200,000	-0,022	-0,189
-675,408	-101,841	0,107	-0,019
-674,393	477,744	-0,081	-0,137
-673,378	-16,168	-0,042	0,019
-672,364	94,404	-0,128	-0,107
-671,349	10,543	-0,053	-0,030
-670,335	-200,000	-0,010	0,109
-669,320	423,182	0,081	0,130
-668,305	14,406	0,069	-0,040
-667,291	-93,991	0,031	0,006
-666,276	-36,604	-0,044	0,018
-665,262	-111,893	0,138	-0,020
-664,247	-64,437	-0,140	0,042
-663,232	373,957	-0,064	0,096
-662,218	-55,159	-0,155	-0,051
-661,203	-29,148	0,058	0,024
-660,189	-200,000	0,023	0,155
-659,174	95,529	0,065	-0,055
-658,159	384,571	0,068	-0,104
-657,145	-200,000	0,012	0,043
-656,130	-200,000	-0,037	-0,166
-655,116	-200,000	0,027	-0,169
-654,101	800,000	0,017	-0,038
-653,086	207,832	-0,054	0,062
-652,072	-54,519	0,048	0,016
-651,057	-87,369	0,167	-0,037
-650,043	-188,533	0,061	-0,001
-649,028	-200,000	0,011	0,084
-648,014	-140,598	0,051	0,004
-646,999	-200,000	0,016	-0,081
-645,984	117,057	0,051	-0,046
-644,970	78,946	-0,134	-0,106
-643,955	545,293	-0,106	-0,188
-642,941	45,079	0,091	-0,062
-641,926	-200,000	-0,000	-0,042
-640,911	-49,743	0,169	0,059
-639,897	390,714	0,073	0,112
-638,882	-200,000	0,026	0,139
-637,868	-200,000	-0,012	-0,054
-636,853	579,829	0,097	-0,176
-635,838	-113,796	-0,126	-0,018
-634,824	800,000	-0,020	0,050
-633,809	-200,000	0,009	0,047
-632,795	-200,000	0,007	-0,105
-631,780	-47,059	0,090	0,032
-630,765	127,739	0,016	-0,015
-629,751	344,376	0,063	-0,091
-628,736	63,413	-0,120	-0,089
-627,722	41,604	0,063	0,042
-626,707	800,000	-0,028	-0,084
-625,692	800,000	0,018	0,055
-624,678	-200,000	-0,005	-0,039
-623,663	-87,066	0,109	-0,024
-622,649	56,162	-0,080	-0,057
-621,634	800,000	-0,056	0,132
-620,619	119,604	0,042	0,038
-619,605	-42,323	0,080	0,030
-618,590	-182,564	0,135	-0,002
-617,576	800,000	0,023	0,065
-616,561	-153,338	-0,183	0,009
-615,546	-120,461	0,167	-0,021
-614,532	7,630	0,106	-0,058
-613,517	-124,179	0,064	0,007
-612,503	10,472	-0,045	-0,025
-611,488	8,998	0,138	0,077
-610,474	800,000	-0,027	0,071
-609,459	-200,000	0,005	0,017
-608,444	12,435	-0,133	0,075
-607,430	-145,487	-0,078	0,005
-606,415	-42,586	-0,124	-0,046
-605,401	-81,616	0,028	0,007
-604,386	800,000	0,054	-0,112
-603,371	-134,665	-0,130	0,012
-602,357	-157,768	-0,054	0,002
-601,342	29,727	-0,022	-0,014
-600,328	709,116	0,045	-0,088
-599,313	85,665	-0,102	-0,083
-598,298	800,000	-0,042	-0,085
-597,284	182,913	-0,076	0,083
-596,269	-200,000	0,003	0,125
-595,255	-119,160	0,034	0,004
-594,240	-35,700	-0,056	-0,022
-593,225	800,000	0,035	-0,073
-592,211	800,000	0,086	-0,252
-591,196	-200,000	-0,021	-0,102
-590,182	-200,000	0,012	0,051
-589,167	-92,549	-0,148	0,030
-588,152	800,000	-0,056	0,152
-587,138	-200,000	0,008	-0,074
-586,123	-200,000	-0,001	-0,058
-585,109	-0,366	0,118	-0,062
-584,094	633,193	0,060	-0,113
-583,079	221,700	-0,025	-0,030
-582,065	800,000	0,011	-0,034
-581,050	774,965	-0,035	-0,070
-580,036	-138,724	-0,111	-0,009
-579,021	-134,525	0,055	-0,005
-578,006	800,000	-0,040	0,118
-576,992	365,593	-0,025	0,038
-575,977	32,489	0,096	-0,061
-574,963	285,128	-0,067	0,089
-573,948	8,345	-0,088	0,049
-572,934	-153,928	-0,151	-0,007
-571,919	-121,631	0,011	-0,001
-570,904	32,130	0,075	-0,048
-569,890	3,582	0,088	-0,047
-568,875	-95,986	-0,047	-0,009
-567,861	457,573	-0,029	0,047
-566,846	-200,000	0,003	0,111
-565,831	-114,061	-0,177	0,025
-564,817	800,000	-0,032	-0,067
-563,802	-56,383	-0,124	0,040
-562,788	-37,223	-0,037	0,014
-561,773	61,202	0,043	0,032
-560,758	47,931	-0,063	0,043
-559,744	213,402	0,044	0,052
-558,729	-100,064	0,113	0,021
-557,715	590,017	-0,040	-0,073
-556,700	-200,000	0,005	0,016
-555,685	-108,186	0,082	0,013
-554,671	-5,524	-0,085	-0,043
-553,656	-109,323	-0,049	-0,008
-552,642	-200,000	0,000	0,048
-551,627	541,830	-0,035	0,062
-550,612	578,033	0,013	-0,024
-549,598	-49,717	-0,134	-0,047
-548,583	-200,000	0,007	0,062
-547,569	-200,000	0,022	0,079
-546,554	113,768	0,057	0,051
-545,539	-32,192	0,058	-0,024
-544,525	-136,436	0,143	-0,012
-543,510	800,000	0,042	-0,096
-542,496	-200,000	0,030	-0,136
-541,481	-200,000	-0,013	-0,063
-540,466	-137,607	0,206	0,017
-539,452	-13,778	-0,102	-0,048
-538,437	-79,035	0,098	-0,024
-537,423	800,000	0,034	-0,100
-536,408	-32,375	-0,194	0,079
-535,393	-109,034	0,046	0,007
-534,379	-200,000	0,009	-0,079
-533,364	163,840	0,135	-0,140
-532,350	-143,538	0,030	-0,002
-531,335	800,000	0,028	0,066
-530,321	-200,000	0,028	-0,111
-529,306	-200,000	-0,008	0,044
-528,291	-60,928	-0,096	0,030
-527,277	-14,779	-0,096	0,045
-526,262	259,336	0,095	0,120
-525,248	-42,042	-0,111	0,042
-524,233	-200,000	0,046	-0,163
-523,218	-97,574	-0,064	-0,012
-522,204	434,803	0,061	-0,098
-521,189	18,911	0,070	0,041
-520,175	26,614	-0,053	-0,032
-519,160	-84,806	-0,121	-0,028
-518,145	-200,000	-0,013	0,110
-517,131	-200,000	-0,011	0,075
-516,116	-162,509	-0,112	0,004
-515,102	-200,000	0,001	0,063
-514,087	-200,000	-0,007	-0,029
-513,072	106,063	-0,053	-0,046
-512,058	-200,000	-0,027	0,093
-511,043	-106,039	0,040	0,007
-510,029	258,258	-0,063	0,080
-509,014	-94,624	0,024	-0,005
-507,999	-27,853	-0,113	0,048
-506,985	-200,000	-0,034	-0,121
-505,970	581,725	0,016	-0,029
-504,956	-200,000	-0,005	-0,054
-503,941	318,940	0,078	-0,109
-502,926	-99,223	0,178	-0,033
-501,912	-114,538	-0,087	0,012
-500,897	-65,280	0,132	0,039
-499,883	-111,376	-0,122	-0,018
-498,868	112,000	0,130	-0,115
-497,853	-155,287	-0,145	0,007
-496,839	111,001	-0,040	-0,036
-495,824	165,128	-0,088	0,091
-494,810	182,873	0,044	0,048
-493,795	253,289	-0,082	0,103
-492,781	-35,254	-0,076	0,030
-491,766	204,431	-0,034	0,039
-490,751	-200,000	0,017	-0,146
-489,737	-200,000	0,012	-0,051
-488,722	-182,397	0,167	0,002
-487,708	-200,000	-0,005	0,025
-486,693	22,063	0,114	0,068
-485,678	175,500	-0,064	0,069
-484,664	-98,872	-0,024	0,004
-483,649	280,229	0,063	0,083
-482,635	-134,942	-0,067	-0,006
-481,620	163,447	-0,049	0,051
-480,605	448,608	0,087	0,142
-479,591	-200,000	-0,003	0,060
-478,576	84,585	-0,039	-0,031
-477,562	-200,000	0,000	-0,087
-476,547	10,331	-0,045	-0,025
-475,532	-200,000	-0,040	-0,180
-474,518	800,000	-0,014	-0,034
-473,503	-41,749	0,102	0,038
-472,489	-32,440	-0,048	-0,020
-471,474	-110,162	-0,004	-0,001
-470,459	53,573	-0,084	-0,059
-469,445	381,948	-0,026	0,040
-468,430	487,440	-0,035	0,059
-467,416	800,000	-0,051	-0,134
-466,401	-47,574	-0,029	0,010
-465,386	-200,000	0,006	0,117
-464,372	-8,594	-0,117	0,058
-463,357	800,000	-0,047	-0,135
-462,343	428,063	-0,028	-0,045
-461,328	-200,000	-0,004	0,056
-460,313	-200,000	0,017	-0,145
-459,299	-200,000	0,000	0,048
-458,284	475,475	0,023	0,039
-457,270	800,000	-0,043	0,131
-456,255	-79,865	-0,189	-0,046
-455,241	507,121	-0,050	-0,086
-454,226	604,180	-0,012	-0,022
-453,211	78,379	-0,107	0,084
-452,197	-1,764	0,115	0,059
-451,182	87,862	0,063	-0,051
-450,168	322,103	-0,114	-0,160
-449,153	41,647	-0,103	-0,068
-448,138	-119,158	-0,080	-0,010
-447,124	-200,000	-0,039	-0,219
-446,109	-200,000	-0,002	-0,181
-445,095	60,671	0,073	-0,053
-444,080	329,630	-0,063	0,090
-443,065	203,859	0,032	0,036
-442,051	-95,861	0,081	0,016
-441,036	20,701	-0,047	0,028
-440,022	800,000	0,029	-0,061
-439,007	-72,882	-0,091	-0,024
-437,992	96,040	0,041	0,034
-436,978	33,193	0,048	0,031
-435,963	-200,000	-0,002	0,073
-434,949	-200,000	0,001	-0,083
-433,934	126,922	0,006	0,006
-432,919	-200,000	-0,004	0,106
-431,905	25,699	0,055	-0,033
-430,890	238,486	0,034	0,041
-429,876	-46,440	0,085	0,030
-428,861	800,000	0,036	-0,105
-427,846	-104,045	0,194	0,033
-426,832	-200,000	0,037	0,166
-425,817	-22,040	0,056	-0,025
-424,803	-37,951	0,015	-0,006
-423,788	24,926	0,118	-0,072
-422,773	800,000	-0,023	-0,073
-421,759	213,905	-0,074	0,086
-420,744	8,076	0,043	-0,024
-419,730	370,158	-0,059	-0,088
-418,715	800,000	-0,028	-0,069
-417,701	222,755	0,088	0,104
-416,686	-200,000	-0,014	-0,074
-415,671	-109,664	-0,065	0,010
-414,657	-200,000	0,024	-0,089
-413,642	94,289	-0,087	0,072
-412,628	100,901	-0,066	-0,057
-411,613	-30,435	-0,078	-0,032
-410,598	552,680	-0,053	0,093
-409,584	771,010	-0,038	0,076
-408,569	222,826	-0,118	0,140
-407,555	800,000	-0,011	0,029
-406,540	642,287	0,015	-0,029
-405,525	-200,000	-0,017	0,066
-404,511	-17,810	0,126	0,058
-403,496	169,004	-0,038	-0,040
-402,482	467,803	0,034	0,056
-401,467	20,788	0,108	0,064
-400,452	-200,000	-0,022	0,071
-399,438	95,787	-0,052	0,043
-398,423	267,027	-0,054	-0,069
-397,409	-156,230	-0,068	0,003
-396,394	394,597	0,056	0,086
-395,379	46,956	0,083	-0,056
-394,365	331,582	0,122	-0,172
-393,350	-200,000	0,011	-0,149
-392,336	-200,000	-0,007	-0,136
-391,321	92,455	-0,064	0,053
-390,306	268,231	0,034	0,043
-389,292	38,574	0,086	-0,056
-388,277	800,000	0,009	0,027
-387,263	-126,973	-0,051	-0,005
-386,248	-73,256	0,085	0,023
-385,233	-110,183	-0,048	0,007
-384,219	-200,000	0,013	-0,235
-383,204	-100,351	-0,063	-0,011
-382,190	-91,018	-0,097	-0,020
-381,175	471,343	-0,036	0,059
-380,160	-200,000	0,000	-0,033
-379,146	36,912	0,068	0,044
-378,131	-51,725	0,138	0,047
-377,117	-152,444	0,064	0,003
-376,102	-119,588	0,028	-0,003
-375,088	800,000	0,021	-0,056
-374,073	-106,716	-0,109	-0,018
-373,058	231,977	-0,045	0,054
-372,044	12,135	0,116	-0,065
-371,029	110,797	0,054	0,047
-370,015	20,603	0,138	0,081
-369,000	-60,766	-0,098	0,030
-367,985	800,000	-0,003	-0,008
-366,971	47,262	-0,060	0,041
-365,956	-86,218	0,048	-0,011
-364,942	39,560	-0,030	0,019
-363,927	-0,132	0,118	-0,061
-362,912	42,992	-0,041	0,027
-361,898	-124,964	-0,097	-0,011
-360,883	-200,000	-0,035	-0,154
-359,869	297,817	0,026	-0,036
-358,854	-114,457	0,070	-0,010
-357,839	-125,759	0,176	0,019
-356,825	-200,000	-0,020	0,089
-355,810	758,765	-0,070	-0,139
-354,796	386,326	-0,019	0,028
-353,781	156,028	0,019	0,019
-352,766	-4,296	-0,036	0,018
-351,752	-200,000	0,025	-0,101
-350,737	1,493	0,147	0,077
-349,723	183,610	0,047	-0,051
-348,708	-200,000	-0,019	0,112
-347,693	-16,585	0,104	0,048
-346,679	-87,951	0,209	0,046
-345,664	38,742	-0,076	0,049
-344,650	-175,811	0,065	-0,001
-343,635	-42,428	0,100	-0,037
-342,620	-78,603	0,045	-0,011
-341,606	18,271	0,162	0,094
-340,591	53,012	-0,016	0,011
-339,577	-200,000	0,033	0,112
-338,562	159,903	-0,066	0,067
-337,548	800,000	0,010	0,029
-336,533	-8,710	0,126	-0,062
-335,518	-105,042	0,107	0,018
-334,504	-73,201	0,011	0,003
-333,489	-39,508	-0,010	-0,004
-332,475	800,000	-0,040	0,102
-331,460	-200,000	0,034	-0,114
-330,445	122,002	-0,066	-0,060
-329,431	163,708	-0,056	-0,057
-328,416	293,806	-0,082	0,109
-327,402	-104,224	0,047	-0,008
-326,387	-200,000	0,005	-0,033
-325,372	498,037	-0,034	0,057
-324,358	-200,000	0,009	-0,088
-323,343	-200,000	-0,005	-0,168
-322,329	-194,606	0,087	-0,000
-321,314	-200,000	-0,011	0,044
-320,299	-47,838	0,174	0,061
-319,285	-117,609	-0,155	0,020
-318,270	-200,000	-0,018	0,096
-317,256	284,186	-0,061	-0,080
-316,241	14,985	0,025	0,014
-315,226	-200,000	0,031	0,231
-314,212	338,905	-0,074	0,106
-313,197	-97,576	-0,044	-0,008
-312,183	117,849	-0,074	0,067
-311,168	14,691	0,068	0,039
-310,153	-200,000	0,020	-0,067
-309,139	-200,000	0,003	0,013
-308,124	170,141	-0,029	-0,031
-307,110	-36,696	0,072	-0,028
-306,095	-47,749	0,073	-0,026
-305,080	732,838	-0,014	-0,027
-304,066	-41,874	0,030	-0,011
-303,051	168,360	-0,064	-0,067
-302,037	-93,938	-0,015	0,003
-301,022	704,035	-0,007	0,013
-300,008	800,000	0,014	0,032
-298,993	-68,892	0,036	-0,010
-297,978	84,934	-0,035	0,028
-296,964	10,475	0,094	-0,052
-295,949	3,532	0,098	-0,052
-294,935	-184,056	-0,083	-0,001
-293,920	-84,659	-0,150	0,034
-292,905	362,853	0,024	-0,035
-291,891	-139,881	0,165	0,013
-290,876	-200,000	0,021	0,067
-289,862	718,627	0,055	0,107
-288,847	-100,642	-0,154	0,028
-287,832	-14,442	-0,072	-0,034
-286,818	-200,000	0,032	0,158
-285,803	800,000	0,053	0,114
-284,789	-200,000	0,030	-0,115
-283,774	312,623	0,133	0,183
-282,759	4,437	-0,106	0,056
-281,745	800,000	-0,059	-0,122
-280,730	-200,000	0,006	-0,065
-279,716	-200,000	0,007	-0,198
-278,701	86,100	0,037	0,029
-277,686	-200,000	0,067	0,233
-276,672	284,623	0,061	0,080
-275,657	-200,000	-0,003	-0,067
-274,643	800,000	0,037	0,114
-273,628	-200,000	-0,003	0,010
-272,613	800,000	-0,017	-0,045
-271,599	-123,042	0,074	0,009
-270,584	293,844	-0,039	-0,052
-269,570	-13,786	0,029	-0,014
-268,555	121,585	-0,073	-0,067
-267,540	170,007	0,028	-0,029
-266,526	-200,000	-0,047	0,161
-265,511	-200,000	-0,024	-0,092
-264,497	38,189	-0,034	0,022
-263,482	-64,663	-0,076	0,022
-262,467	-52,017	0,105	-0,035
-261,453	278,334	-0,051	0,067
-260,438	-124,210	-0,211	-0,024
-259,424	-200,000	-0,016	-0,087
-258,409	800,000	-0,017	-0,045
-257,395	191,711	-0,043	-0,047
-256,380	-12,058	-0,153	0,073
-255,365	-157,794	-0,080	0,003
-254,351	-42,938	-0,047	-0,017
-253,336	-141,003	-0,186	-0,014
-252,322	-92,443	-0,097	0,020
-251,307	205,218	0,039	-0,044
-250,292	800,000	-0,024	-0,065
-249,278	108,348	0,137	0,119
-248,263	-200,000	0,011	-0,064
-247,249	167,518	0,024	-0,025
-246,234	-200,000	-0,017	-0,083
-245,219	-28,332	0,049	-0,021
-244,205	-134,444	-0,086	-0,008
-243,190	-39,418	0,128	-0,048
-242,176	-200,000	0,008	-0,133
-241,161	800,000	-0,013	0,033
-240,146	6,343	0,041	0,022
-239,132	246,661	-0,078	0,096
-238,117	-200,000	0,013	-0,089
-237,103	-200,000	0,000	0,015
-236,088	-53,858	0,056	0,019
-235,073	-8,965	0,039	-0,019
-234,059	-200,000	0,057	0,193
-233,044	40,542	-0,052	-0,034
-232,030	-26,350	-0,120	-0,051
-231,015	-200,000	-0,017	-0,066
-230,000	232,245	-0,056	-0,067
-228,986	800,000	0,044	-0,106
-227,971	800,000	0,012	0,028
-226,957	206,680	0,069	-0,078
-225,942	800,000	0,028	0,060
-224,927	-122,795	0,158	-0,018
-223,913	217,876	-0,074	0,086
-222,898	-200,000	-0,008	-0,056
-221,884	29,833	-0,113	-0,070
-220,869	800,000	0,028	-0,062
-219,855	745,693	0,112	0,221
-218,840	-2,651	-0,020	-0,010
-217,825	97,902	0,044	0,037
-216,811	-111,532	0,041	-0,006
-215,796	599,246	-0,019	-0,034
-214,782	-200,000	0,006	-0,102
-213,767	-24,577	-0,108	-0,046
-212,752	-151,954	-0,125	0,007
-211,738	156,168	-0,048	0,048
-210,723	-200,000	0,038	0,161
-209,709	201,257	-0,075	0,084
-208,694	-200,000	0,043	0,155
-207,679	-68,804	-0,039	-0,011
-206,665	230,098	-0,002	-0,003
-205,650	138,135	0,045	0,043
-204,636	-168,207	0,049	0,001
-203,621	491,097	-0,057	0,095
-202,606	91,796	0,053	0,043
-201,592	677,888	0,036	0,068
-200,577	-22,321	-0,122	0,054
-199,563	57,286	0,080	-0,056
-198,548	-200,000	0,002	0,053
-197,533	-200,000	-0,026	0,087
-196,519	519,084	0,068	-0,116
-195,504	800,000	-0,053	-0,129
-194,490	-53,495	-0,183	-0,060
-193,475	-45,835	0,083	-0,030
-192,460	-200,000	0,011	-0,095
-191,446	-46,951	0,099	0,035
-190,431	-200,000	0,022	0,151
-189,417	800,000	0,065	-0,142
-188,402	-200,000	-0,003	-0,169
-187,387	800,000	0,049	0,130
-186,373	-63,790	-0,043	0,013
-185,358	502,487	0,030	0,051
-184,344	341,310	0,073	0,104
-183,329	703,213	0,072	0,139
-182,315	-200,000	-0,007	0,088
-181,300	180,447	-0,025	-0,027
-180,285	-200,000	0,014	0,081
-179,271	-200,000	0,000	-0,113
-178,256	224,858	-0,031	-0,036
-177,242	77,761	-0,081	0,063
-176,227	511,053	-0,033	0,056
-175,212	50,238	-0,038	0,026
-174,198	-70,559	-0,069	0,019
-173,183	67,572	0,108	-0,080
-172,169	-123,295	-0,182	-0,021
-171,154	-79,936	0,080	-0,019
-170,139	-74,600	0,124	-0,032
-169,125	49,322	0,023	-0,016
-168,110	-200,000	-0,007	0,036
-167,096	-200,000	-0,003	-0,117
-166,081	335,046	-0,062	0,088
-165,066	-33,058	-0,015	-0,006
-164,052	214,256	-0,035	0,040
-163,037	-59,612	0,102	-0,031
-162,023	430,069	-0,057	0,090
-161,008	-200,000	-0,003	0,170
-159,993	52,573	0,087	0,060
-158,979	37,554	0,032	-0,020
-157,964	15,672	-0,028	0,016
-156,950	320,386	-0,076	0,104
-155,935	478,467	-0,019	-0,031
-154,920	800,000	0,030	0,094
-153,906	98,614	0,098	0,082
-152,891	42,494	0,057	0,038
-151,877	-131,174	-0,107	0,010
-150,862	800,000	-0,027	0,059
-149,847	-22,848	0,021	0,009
-148,833	-200,000	-0,035	-0,141
-147,818	-100,225	0,057	0,010
-146,804	-191,231	0,044	0,000
-145,789	800,000	0,062	0,153
-144,775	800,000	-0,056	0,141
-143,760	-100,150	-0,193	-0,034
-142,745	800,000	-0,028	-0,061
-141,731	400,463	-0,045	-0,068
-140,716	-200,000	-0,016	0,070
-139,702	800,000	-0,028	0,062
-138,687	288,597	0,065	0,086
-137,672	-127,281	-0,172	0,018
-136,658	223,668	0,005	0,006
-135,643	-106,515	-0,111	0,018
-134,629	-103,941	-0,048	-0,008
-133,614	-200,000	-0,025	-0,093
-132,599	210,778	-0,057	-0,065
-131,585	800,000	0,066	0,199
-130,570	-20,133	-0,088	0,039
-129,556	-200,000	-0,010	0,059
-128,541	-94,242	0,035	0,007
-127,526	-122,439	-0,087	-0,010
-126,512	504,856	-0,055	-0,092
-125,497	768,884	0,070	0,139
-124,483	70,356	-0,046	0,034
-123,468	346,576	0,047	-0,067
-122,453	-184,318	-0,074	0,001
-121,439	70,705	0,115	0,086
-120,424	87,400	-0,100	-0,080
-119,410	-190,151	-0,104	0,001
