DTS Sentinel unit serial number:	SN410029Multiplexer serial number:	ORYXHardware model number:	OX2-SRSoftware version number:	ORYX F/W v4,00 Oryx Data Collector v3.7.2.0data status	okinstallation	B6 Nyhavnadifferential loss correction	single-endedforward channel	channel 2reverse channel	N/Adate	2023/12/08time	15:45:08forward acquisition time	300,00reverse acquisition time	0,00gamma	499,1914k internal	0,3159k external	0,3159temperature offset calibration	1,0000default loss term (dB/km)	0,3820temperature slope calibration	1,0000multiplexer offset coefficient	1,0000multiplexer slope coefficient	1,0000fibre end	0,00T internal ref (°C)	15,09T ext. ref 1 (°C)	-1,50T ext. ref 2 (°C)	-1,51length (m)	temperature (°C)	Stokes	anti-Stokes-744,400	-152,547	0,165	0,009
-743,385	-122,387	-0,316	-0,038
-742,371	-22,164	0,215	0,096
-741,356	-106,507	-0,346	-0,056
-740,342	124,990	-0,129	0,120
-739,327	-120,320	-0,239	-0,030
-738,312	800,000	0,072	0,150
-737,298	-119,030	-0,448	-0,057
-736,283	173,425	0,076	0,080
-735,269	-173,249	-0,301	0,007
-734,254	-200,000	0,018	-0,096
-733,239	-69,082	-0,493	-0,139
-732,225	-117,480	0,274	-0,036
-731,210	-131,055	0,094	0,009
-730,196	-200,000	0,022	0,102
-729,181	410,127	0,028	-0,044
-728,167	800,000	-0,043	-0,101
-727,152	-19,944	0,007	-0,003
-726,137	800,000	-0,081	-0,180
-725,123	-132,847	-0,102	0,009
-724,108	-21,962	-0,154	-0,069
-723,094	-200,000	0,003	0,021
-722,079	213,556	-0,162	-0,189
-721,064	230,361	0,086	0,104
-720,050	-200,000	0,021	-0,114
-719,035	-84,146	-0,021	0,005
-718,021	-164,003	-0,130	0,004
-717,006	-93,415	0,025	0,005
-715,991	290,885	-0,086	-0,115
-714,977	716,583	0,061	-0,119
-713,962	800,000	0,079	-0,163
-712,948	-118,160	-0,034	0,004
-711,933	739,040	-0,018	0,036
-710,918	800,000	0,010	-0,031
-709,904	-12,718	-0,203	-0,097
-708,889	676,919	0,048	-0,092
-707,875	485,958	0,022	-0,036
-706,860	-200,000	0,009	-0,055
-705,845	496,462	0,050	0,086
-704,831	534,889	0,057	0,101
-703,816	-25,884	-0,067	0,029
-702,802	-163,949	-0,159	0,005
-701,787	286,034	-0,010	0,013
-700,772	585,464	0,043	0,078
-699,758	-200,000	-0,018	-0,101
-698,743	648,886	0,050	0,095
-697,729	-96,279	0,137	0,026
-696,714	800,000	-0,024	-0,074
-695,699	-200,000	-0,001	0,039
-694,685	-200,000	0,001	-0,049
-693,670	-112,646	0,096	0,014
-692,656	-142,110	0,155	0,011
-691,641	800,000	-0,003	0,006
-690,627	520,651	-0,073	0,126
-689,612	219,811	-0,099	0,116
-688,597	-200,000	-0,019	-0,089
-687,583	-82,223	0,109	-0,026
-686,568	-156,181	-0,132	-0,006
-685,554	94,996	-0,109	-0,091
-684,539	-200,000	0,010	-0,062
-683,524	-10,849	-0,061	-0,029
-682,510	248,504	0,099	-0,123
-681,495	-110,419	-0,123	-0,019
-680,481	231,633	-0,119	0,144
-679,466	236,266	-0,074	0,090
-678,451	800,000	-0,021	-0,056
-677,437	311,026	0,070	-0,097
-676,422	800,000	-0,004	-0,013
-675,408	-6,818	-0,082	-0,041
-674,393	-3,907	-0,098	0,050
-673,378	284,550	-0,109	-0,144
-672,364	11,099	-0,032	-0,018
-671,349	-200,000	-0,002	-0,101
-670,335	-64,640	0,153	0,045
-669,320	800,000	0,012	-0,039
-668,305	14,366	-0,178	0,102
-667,291	53,085	-0,013	0,009
-666,276	173,459	-0,040	0,042
-665,262	-149,981	-0,087	0,005
-664,247	215,911	-0,059	-0,069
-663,232	-83,439	-0,135	0,031
-662,218	-71,302	-0,082	0,022
-661,203	-200,000	-0,020	0,097
-660,189	-48,903	0,079	-0,027
-659,174	178,121	-0,074	0,079
-658,159	-121,081	-0,077	0,009
-657,145	-51,657	-0,029	-0,010
-656,130	-200,000	-0,010	-0,112
-655,116	800,000	-0,026	-0,083
-654,101	800,000	-0,021	0,047
-653,086	800,000	0,012	-0,036
-652,072	-119,229	-0,147	-0,019
-651,057	-146,658	-0,094	-0,006
-650,043	-200,000	-0,002	-0,035
-649,028	35,193	-0,078	0,050
-648,014	-48,865	0,053	-0,019
-646,999	-52,700	0,044	0,015
-645,984	43,077	-0,154	0,103
-644,970	-200,000	-0,011	-0,041
-643,955	-200,000	-0,006	0,025
-642,941	22,795	-0,137	0,082
-641,926	800,000	-0,008	0,022
-640,911	-25,797	-0,026	0,011
-639,897	800,000	-0,055	0,117
-638,882	-200,000	-0,003	-0,041
-637,868	0,286	-0,089	-0,046
-636,853	-18,845	0,069	-0,031
-635,838	-200,000	-0,003	-0,114
-634,824	-72,662	-0,066	0,018
-633,809	85,130	-0,023	0,019
-632,795	347,701	-0,087	-0,126
-631,780	-179,621	0,018	-0,000
-630,765	52,968	-0,077	-0,054
-629,751	78,167	-0,059	-0,046
-628,736	-200,000	0,001	-0,010
-627,722	4,717	0,096	0,052
-626,707	-26,677	-0,069	-0,030
-625,692	-83,991	0,021	-0,005
-624,678	144,285	-0,051	-0,050
-623,663	454,475	0,002	-0,004
-622,649	-87,517	-0,167	0,037
-621,634	338,591	-0,043	-0,062
-620,619	-107,094	0,098	0,016
-619,605	47,286	-0,147	-0,100
-618,590	436,707	0,072	0,115
-617,576	-200,000	-0,017	0,102
-616,561	24,602	0,053	0,032
-615,546	173,084	-0,050	0,053
-614,532	800,000	-0,031	-0,079
-613,517	1,382	-0,116	-0,061
-612,503	577,722	-0,063	0,114
-611,488	447,809	-0,063	-0,102
-610,474	747,947	0,066	0,131
-609,459	800,000	-0,063	0,170
-608,444	-145,877	-0,116	-0,007
-607,430	-200,000	0,001	-0,041
-606,415	800,000	0,050	-0,118
-605,401	95,116	0,075	-0,063
-604,386	237,259	-0,042	-0,051
-603,371	194,399	-0,093	-0,103
-602,357	363,631	-0,009	-0,013
-601,342	107,296	-0,052	-0,045
-600,328	800,000	0,094	-0,194
-599,313	-49,834	-0,086	0,030
-598,298	800,000	0,041	-0,091
-597,284	-200,000	0,015	-0,062
-596,269	675,468	0,076	-0,146
-595,255	1,426	-0,135	0,071
-594,240	-110,371	-0,082	0,012
-593,225	800,000	-0,011	-0,028
-592,211	-26,884	-0,090	0,038
-591,196	145,368	-0,082	-0,080
-590,182	-139,254	0,048	-0,004
-589,167	-200,000	-0,006	0,026
-588,152	678,189	0,053	0,101
-587,138	-143,455	-0,057	-0,004
-586,123	-76,229	0,082	-0,021
-585,109	1,271	-0,160	-0,084
-584,094	800,000	0,035	-0,088
-583,079	18,649	-0,075	-0,044
-582,065	-57,083	0,042	-0,013
-581,050	-137,599	0,066	-0,005
-580,036	-107,235	-0,121	0,019
-579,021	88,544	0,091	0,074
-578,006	-200,000	-0,024	-0,083
-576,992	101,819	0,067	0,057
-575,977	111,844	-0,051	0,045
-574,963	39,982	0,111	0,073
-573,948	9,744	-0,046	-0,026
-572,934	67,907	-0,064	0,048
-571,919	800,000	-0,076	-0,195
-570,904	800,000	-0,027	-0,069
-569,890	-61,401	-0,133	0,041
-568,875	98,886	-0,049	-0,041
-567,861	-10,623	-0,068	-0,033
-566,846	119,008	0,074	0,067
-565,831	-136,377	-0,079	0,007
-564,817	-200,000	-0,010	-0,046
-563,802	-200,000	-0,002	-0,101
-562,788	-200,000	0,009	-0,088
-561,773	-152,877	-0,090	0,005
-560,758	8,992	-0,066	0,036
-559,744	800,000	0,058	0,164
-558,729	285,928	0,006	0,008
-557,715	-23,615	-0,126	0,055
-556,700	800,000	-0,013	-0,042
-555,685	110,817	-0,048	-0,043
-554,671	6,855	0,019	0,011
-553,656	-34,037	0,058	0,023
-552,642	800,000	0,051	0,115
-551,627	-200,000	-0,004	-0,048
-550,612	-200,000	-0,005	0,043
-549,598	-12,613	0,049	-0,023
-548,583	800,000	0,030	-0,062
-547,569	350,228	-0,049	0,071
-546,554	-125,305	0,132	-0,015
-545,539	516,554	0,066	0,114
-544,525	-200,000	-0,013	-0,074
-543,510	123,881	0,066	-0,061
-542,496	800,000	-0,032	-0,067
-541,481	-18,547	-0,126	-0,057
-540,466	56,172	0,055	0,039
-539,452	191,482	-0,104	-0,114
-538,437	-174,790	-0,062	-0,001
-537,423	313,641	0,117	-0,162
-536,408	800,000	-0,056	-0,125
-535,393	-200,000	-0,011	-0,050
-534,379	-200,000	0,005	-0,049
-533,364	-200,000	0,031	-0,116
-532,350	-20,558	0,127	-0,057
-531,335	-167,784	0,064	-0,002
-530,321	-200,000	-0,041	-0,150
-529,306	-84,327	0,032	0,007
-528,291	-200,000	0,005	-0,109
-527,277	-50,266	-0,059	-0,020
-526,262	-102,928	-0,035	-0,006
-525,248	732,134	0,044	0,087
-524,233	800,000	-0,015	0,037
-523,218	55,504	-0,131	-0,092
-522,204	-168,485	0,128	0,003
-521,189	264,699	0,034	-0,044
-520,175	-200,000	-0,018	-0,138
-519,160	800,000	-0,045	-0,144
-518,145	-23,341	-0,126	-0,055
-517,131	800,000	-0,013	-0,033
-516,116	-200,000	0,005	-0,057
-515,102	800,000	0,046	0,108
-514,087	-90,932	0,049	-0,010
-513,072	37,914	-0,091	0,059
-512,058	-163,092	0,101	0,003
-511,043	800,000	-0,016	0,046
-510,029	557,428	-0,020	-0,035
-509,014	180,712	-0,065	-0,070
-507,999	-200,000	0,001	0,112
-506,985	-35,899	-0,115	-0,045
-505,970	500,873	-0,013	0,023
-504,956	30,989	-0,083	0,052
-503,941	33,021	0,076	0,048
-502,926	144,438	-0,036	0,035
-501,912	800,000	-0,027	0,082
-500,897	10,333	0,076	-0,042
-499,883	-200,000	-0,011	-0,057
-498,868	37,652	0,039	0,025
-497,853	352,854	-0,027	-0,039
-496,839	-200,000	0,008	0,079
-495,824	800,000	-0,070	0,156
-494,810	-200,000	-0,019	0,115
-493,795	-50,660	-0,026	-0,009
-492,781	-57,362	0,070	-0,022
-491,766	-104,790	-0,100	-0,017
-490,751	399,952	-0,056	-0,086
-489,737	447,843	0,062	0,099
-488,722	117,506	-0,055	-0,049
-487,708	280,716	0,098	0,129
-486,693	-200,000	-0,014	-0,105
-485,678	30,994	0,078	0,049
-484,664	-99,352	-0,100	0,018
-483,649	800,000	0,084	0,183
-482,635	9,302	0,043	-0,024
-481,620	261,606	-0,057	0,072
-480,605	-200,000	0,020	0,119
-479,591	79,925	-0,004	0,003
-478,576	202,531	-0,098	-0,110
-477,562	206,934	0,101	-0,115
-476,547	-183,430	-0,134	0,002
-475,532	800,000	0,022	-0,055
-474,518	253,692	0,066	0,083
-473,503	-74,121	0,138	-0,036
-472,489	-200,000	0,006	0,061
-471,474	-200,000	0,045	-0,166
-470,459	-200,000	-0,023	0,075
-469,445	128,352	-0,043	-0,039
-468,430	-3,204	0,032	0,016
-467,416	690,424	0,042	-0,080
-466,401	-33,614	0,086	0,034
-465,386	-13,710	0,143	0,067
-464,372	-200,000	-0,004	-0,041
-463,357	523,866	-0,033	-0,056
-462,343	-116,813	-0,153	-0,020
-461,328	-49,818	0,161	0,055
-460,313	81,446	0,059	0,046
-459,299	642,626	0,019	0,035
-458,284	159,965	-0,062	-0,063
-457,270	379,200	0,082	-0,122
-456,255	-200,000	0,021	-0,106
-455,241	132,638	-0,082	0,077
-454,226	-200,000	0,009	-0,156
-453,211	-200,000	0,007	-0,062
-452,197	-200,000	0,028	0,105
-451,182	301,559	-0,062	0,083
-450,168	-200,000	0,019	-0,077
-449,153	800,000	-0,007	0,016
-448,138	158,901	0,067	-0,068
-447,124	-200,000	-0,030	-0,116
-446,109	-200,000	0,020	0,088
-445,095	-200,000	-0,023	0,179
-444,080	203,597	0,110	0,125
-443,065	162,955	0,110	0,112
-442,051	222,525	0,130	-0,153
-441,036	143,163	-0,054	-0,052
-440,022	554,402	0,032	-0,056
-439,007	0,930	-0,041	-0,021
-437,992	-119,200	-0,107	0,013
-436,978	143,255	0,048	-0,047
-435,963	-200,000	0,011	-0,055
-434,949	-31,988	-0,029	-0,012
-433,934	800,000	-0,016	-0,048
-432,919	-107,242	0,115	0,018
-431,905	-46,136	0,012	-0,004
-430,890	800,000	0,047	0,130
-429,876	-69,527	-0,037	0,010
-428,861	196,254	0,019	0,021
-427,846	460,422	-0,053	0,086
-426,832	393,654	-0,058	-0,089
-425,817	800,000	0,032	0,079
-424,803	-82,734	-0,117	-0,027
-423,788	200,240	0,034	-0,038
-422,773	-45,886	0,034	-0,012
-421,759	529,267	0,014	0,024
-420,744	18,614	-0,086	0,050
-419,730	-24,211	-0,084	0,036
-418,715	379,117	0,075	-0,112
-417,701	643,856	-0,043	0,081
-416,686	-3,813	0,164	0,083
-415,671	800,000	-0,030	0,072
-414,657	-200,000	-0,004	0,042
-413,642	-143,768	0,010	0,001
-412,628	1,325	0,004	0,002
-411,613	-61,909	-0,104	0,031
-410,598	-200,000	-0,015	-0,085
-409,584	103,477	0,031	0,027
-408,569	-3,044	0,091	-0,046
-407,555	10,066	0,034	0,019
-406,540	-105,840	0,080	-0,013
-405,525	-5,339	0,083	-0,041
-404,511	-200,000	-0,029	-0,162
-403,496	-200,000	-0,010	-0,047
-402,482	544,101	-0,035	-0,062
-401,467	-200,000	0,029	0,220
-400,452	800,000	-0,009	0,019
-399,438	270,673	0,032	0,041
-398,423	-181,813	0,061	-0,001
-397,409	237,433	0,092	0,112
-396,394	-200,000	-0,052	0,194
-395,379	-64,363	-0,008	0,002
-394,365	-200,000	-0,003	0,099
-393,350	737,335	0,052	0,102
-392,336	-200,000	-0,016	0,119
-391,321	354,829	0,030	0,044
-390,306	17,349	-0,115	-0,066
-389,292	290,193	-0,051	-0,067
-388,277	-200,000	-0,002	-0,096
-387,263	-115,664	0,092	0,012
-386,248	-177,384	-0,165	-0,003
-385,233	-172,020	0,128	0,003
-384,219	678,012	0,036	-0,068
-383,204	-200,000	-0,024	-0,140
-382,190	800,000	0,030	0,080
-381,175	46,194	0,071	0,048
-380,160	-200,000	-0,017	-0,105
-379,146	-200,000	0,009	-0,061
-378,131	199,877	0,052	0,058
-377,117	-200,000	-0,004	-0,015
-376,102	82,603	-0,099	-0,078
-375,088	-200,000	-0,007	0,036
-374,073	800,000	0,034	-0,082
-373,058	-200,000	-0,047	0,206
-372,044	53,737	0,016	-0,011
-371,029	224,601	0,101	0,119
-370,015	-148,541	-0,057	-0,003
-369,000	76,487	0,058	-0,045
-367,985	-29,154	-0,101	-0,042
-366,971	472,196	-0,072	-0,118
-365,956	-12,261	0,025	0,012
-364,942	702,878	0,024	-0,047
-363,927	800,000	-0,026	-0,075
-362,912	-171,127	0,030	-0,001
-361,898	-182,619	-0,120	0,002
-360,883	800,000	-0,017	-0,041
-359,869	-200,000	0,019	-0,131
-358,854	263,421	-0,091	0,115
-357,839	498,227	0,081	0,136
-356,825	82,083	0,102	0,080
-355,810	-184,579	-0,183	0,002
-354,796	-74,314	-0,127	0,033
-353,781	-200,000	-0,003	-0,101
-352,766	-68,577	-0,119	-0,033
-351,752	88,449	0,159	0,129
-350,737	113,613	0,150	0,132
-349,723	-39,342	0,088	0,033
-348,708	100,688	0,068	-0,057
-347,693	148,597	-0,086	-0,084
-346,679	231,706	-0,086	-0,102
-345,664	-32,574	0,079	0,032
-344,650	73,378	-0,018	-0,013
-343,635	-12,795	-0,014	-0,007
-342,620	412,565	0,094	-0,145
-341,606	130,838	-0,095	0,088
-340,591	88,346	0,030	-0,024
-339,577	-200,000	0,034	-0,232
-338,562	-48,934	0,077	0,026
-337,548	-200,000	0,014	-0,082
-336,533	-50,325	0,055	-0,019
-335,518	-200,000	-0,003	-0,032
-334,504	-200,000	-0,004	-0,033
-333,489	101,500	-0,018	0,015
-332,475	500,665	-0,046	0,077
-331,460	800,000	-0,032	-0,065
-330,445	-61,505	-0,010	0,003
-329,431	-41,160	-0,042	0,016
-328,416	-80,568	0,104	-0,025
-327,402	-107,814	0,014	0,002
-326,387	-200,000	-0,014	0,052
-325,372	166,229	-0,058	-0,059
-324,358	147,489	-0,093	-0,090
-323,343	-153,103	0,119	0,006
-322,329	106,584	0,086	0,074
-321,314	-200,000	0,005	0,023
-320,299	724,223	-0,057	0,111
-319,285	446,138	-0,025	0,041
-318,270	31,787	-0,088	-0,055
-317,256	13,283	0,072	-0,040
-316,241	96,428	0,095	-0,078
-315,226	800,000	-0,030	0,072
-314,212	273,680	0,071	-0,091
-313,197	85,523	-0,045	0,036
-312,183	800,000	-0,019	-0,041
-311,168	532,561	0,017	-0,030
-310,153	7,591	0,061	0,033
-309,139	72,983	0,050	0,038
-308,124	366,214	-0,049	0,072
-307,110	-50,831	0,099	0,034
-306,095	414,368	-0,055	0,085
-305,080	800,000	0,021	0,051
-304,066	102,112	-0,022	-0,019
-303,051	800,000	0,003	0,007
-302,037	103,938	0,053	0,045
-301,022	800,000	-0,037	0,106
-300,008	1,033	0,118	0,061
-298,993	-200,000	-0,004	-0,035
-297,978	32,869	0,021	0,013
-296,964	-38,479	0,069	0,026
-295,949	-200,000	-0,002	0,176
-294,935	-150,841	-0,085	-0,005
-293,920	800,000	-0,003	0,009
-292,905	800,000	-0,016	0,034
-291,891	169,789	0,080	0,083
-290,876	263,477	0,054	0,068
-289,862	800,000	0,027	0,056
-288,847	-200,000	0,025	-0,138
-287,832	-200,000	0,006	-0,090
-286,818	-200,000	0,017	-0,066
-285,803	-76,431	0,113	-0,029
-284,789	206,485	0,115	0,130
-283,774	59,572	-0,045	-0,032
-282,759	233,876	-0,067	-0,080
-281,745	-85,601	-0,047	0,010
-280,730	370,229	-0,035	0,051
-279,716	40,945	0,050	0,033
-278,701	-97,994	0,070	-0,013
-277,686	503,765	0,042	-0,070
-276,672	93,458	0,086	0,071
-275,657	800,000	0,001	0,003
-274,643	435,983	0,036	0,057
-273,628	179,626	0,039	0,041
-272,613	-133,119	0,084	0,008
-271,599	187,772	0,095	0,103
-270,584	-200,000	-0,022	-0,132
-269,570	-200,000	-0,009	0,031
-268,555	-200,000	0,019	0,169
-267,540	-59,889	-0,136	0,042
-266,526	-134,461	-0,112	0,010
-265,511	319,382	0,074	-0,102
-264,497	-200,000	0,007	0,110
-263,482	-200,000	-0,005	-0,018
-262,467	800,000	0,058	0,142
-261,453	-98,245	0,100	0,018
-260,438	202,307	0,015	0,017
-259,424	800,000	0,042	-0,118
-258,409	67,631	0,135	-0,099
-257,395	-35,635	0,160	0,062
-256,380	-166,064	0,084	0,003
-255,365	119,030	-0,036	0,032
-254,351	187,118	0,093	0,100
-253,336	-161,634	-0,076	-0,003
-252,322	220,456	-0,046	0,053
-251,307	412,303	0,098	-0,152
-250,292	-200,000	-0,005	0,044
-249,278	-98,714	0,058	0,011
-248,263	-196,548	-0,060	-0,000
-247,249	800,000	-0,027	-0,067
-246,234	-200,000	-0,017	-0,171
-245,219	27,898	0,057	-0,035
-244,205	11,991	-0,048	0,026
-243,190	387,818	-0,065	0,098
-242,176	-200,000	0,007	-0,047
-241,161	337,528	-0,019	-0,027
-240,146	800,000	-0,031	-0,079
-239,132	125,240	-0,061	0,056
-238,117	22,344	0,014	0,008
-237,103	-92,609	-0,117	0,024
-236,088	159,705	-0,009	0,010
-235,073	-86,299	-0,125	-0,028
-234,059	-55,472	0,035	0,011
-233,044	-75,310	-0,105	0,027
-232,030	189,926	0,095	-0,104
-231,015	-200,000	-0,019	0,068
-230,000	-2,263	0,022	-0,011
-228,986	-200,000	-0,019	-0,122
-227,971	-154,774	-0,089	-0,004
-226,957	-5,478	0,180	0,089
-225,942	-200,000	0,004	0,095
-224,927	260,739	0,060	0,076
-223,913	31,887	0,057	-0,035
-222,898	-200,000	-0,017	0,182
-221,884	240,358	-0,020	-0,024
-220,869	212,285	0,021	-0,024
-219,855	300,687	0,105	0,141
-218,840	358,071	-0,052	0,076
-217,825	800,000	-0,036	-0,086
-216,811	8,823	0,087	-0,047
-215,796	-200,000	0,020	-0,136
-214,782	-100,587	-0,108	-0,019
-213,767	189,339	0,069	0,075
-212,752	121,632	0,120	0,108
-211,738	-100,354	0,091	-0,016
-210,723	248,492	0,054	-0,066
-209,709	-181,126	-0,097	-0,001
-208,694	-200,000	-0,004	-0,065
-207,679	-200,000	-0,037	-0,151
-206,665	-200,000	-0,019	0,064
-205,650	-90,880	0,045	0,009
-204,636	-102,857	0,021	-0,004
-203,621	-15,533	0,097	0,044
-202,606	235,906	0,035	0,042
-201,592	-128,904	0,071	0,007
-200,577	-124,681	0,104	0,011
-199,563	-91,694	-0,091	-0,018
-198,548	16,860	0,083	0,047
-197,533	-200,000	0,019	0,086
-196,519	-139,196	-0,208	-0,016
-195,504	292,789	-0,109	-0,143
-194,490	-10,429	0,190	-0,090
-193,475	292,441	-0,107	0,141
-192,460	125,475	0,101	-0,092
-191,446	800,000	-0,071	0,183
-190,431	-53,479	0,166	0,055
-189,417	-25,763	-0,102	0,043
-188,402	280,247	-0,018	0,023
-187,387	693,591	0,013	-0,024
-186,373	-200,000	0,007	0,072
-185,358	-200,000	0,025	0,120
-184,344	202,582	0,040	0,045
-183,329	-200,000	-0,019	0,103
-182,315	35,058	0,119	-0,075
-181,300	721,338	-0,028	-0,054
-180,285	76,762	-0,052	-0,040
-179,271	339,456	-0,034	0,048
-178,256	-96,407	-0,142	0,027
-177,242	-146,453	0,090	-0,006
-176,227	-200,000	-0,010	0,034
-175,212	-53,910	-0,089	-0,029
-174,198	352,199	0,028	-0,040
-173,183	339,317	-0,042	0,059
-172,169	137,930	-0,052	-0,049
-171,154	-10,167	-0,083	-0,039
-170,139	114,650	-0,038	0,034
-169,125	800,000	0,083	0,196
-168,110	-94,349	-0,139	-0,027
-167,096	182,063	-0,041	0,043
-166,081	729,600	-0,074	-0,142
-165,066	108,684	-0,096	-0,083
-164,052	501,071	0,024	0,040
-163,037	800,000	0,022	0,051
-162,023	-79,635	0,151	-0,036
-161,008	55,126	-0,072	-0,050
-159,993	163,272	-0,043	-0,044
-158,979	57,704	0,125	0,088
-157,964	-151,686	-0,158	0,008
-156,950	34,374	0,052	-0,032
-155,935	366,855	0,073	0,107
-154,920	-200,000	0,030	0,103
-153,906	300,325	-0,037	0,049
-152,891	800,000	0,015	-0,033
-151,877	-200,000	-0,009	0,095
-150,862	-200,000	0,010	0,056
-149,847	-7,238	0,132	-0,064
-148,833	89,952	-0,076	-0,061
-147,818	-200,000	0,018	0,059
-146,804	-35,563	0,051	-0,020
-145,789	-200,000	-0,007	0,028
-144,775	-120,705	0,069	-0,008
-143,760	352,606	-0,064	-0,091
-142,745	129,847	-0,130	0,120
-141,731	96,317	-0,065	0,054
-140,716	800,000	-0,025	0,060
-139,702	297,126	0,111	0,147
-138,687	-146,822	0,050	0,003
-137,672	800,000	-0,052	-0,105
-136,658	-92,534	-0,085	-0,017
-135,643	-44,434	0,169	0,061
-134,629	-174,009	0,038	0,001
-133,614	399,285	-0,058	0,088
-132,599	-4,840	0,062	0,031
-131,585	-5,425	-0,168	0,083
-130,570	-200,000	-0,011	0,132
-129,556	-132,191	0,029	-0,003
-128,541	-200,000	0,005	-0,078
-127,526	78,335	-0,055	0,042
-126,512	36,791	0,102	-0,064
-125,497	306,519	-0,063	0,085
-124,483	-122,347	-0,095	0,011
-123,468	3,594	0,035	-0,018
-122,453	-200,000	0,021	-0,081
-121,439	179,331	-0,042	0,044
-120,424	341,782	-0,019	-0,026
-119,410	800,000	-0,028	0,072
