DTS Sentinel unit serial number:	SN410029Multiplexer serial number:	ORYXHardware model number:	OX2-SRSoftware version number:	ORYX F/W v4,00 Oryx Data Collector v3.7.2.0data status	okinstallation	B6 Nyhavnadifferential loss correction	single-endedforward channel	channel 2reverse channel	N/Adate	2023/12/10time	15:00:08forward acquisition time	300,00reverse acquisition time	0,00gamma	499,1914k internal	0,3122k external	0,3122temperature offset calibration	1,0000default loss term (dB/km)	0,3820temperature slope calibration	1,0000multiplexer offset coefficient	1,0000multiplexer slope coefficient	1,0000fibre end	0,00T internal ref (°C)	22,51T ext. ref 1 (°C)	5,98T ext. ref 2 (°C)	5,99length (m)	temperature (°C)	Stokes	anti-Stokes-744,400	52,685	-0,140	0,099
-743,385	-200,000	-0,037	0,143
-742,371	-93,980	0,121	-0,025
-741,356	-72,779	-0,322	0,088
-740,342	-200,000	-0,034	-0,132
-739,327	-34,413	-0,309	0,126
-738,312	146,915	0,143	-0,144
-737,298	219,662	-0,145	0,173
-736,283	800,000	0,031	0,081
-735,269	-102,965	-0,269	0,047
-734,254	800,000	0,045	-0,113
-733,239	-164,789	-0,371	-0,012
-732,225	-14,070	0,130	0,062
-731,210	220,932	-0,108	0,129
-730,196	-72,922	0,082	-0,022
-729,181	-200,000	-0,004	-0,085
-728,167	44,231	0,121	0,083
-727,152	259,172	-0,004	-0,005
-726,137	-89,002	-0,116	-0,025
-725,123	21,055	-0,082	-0,049
-724,108	-200,000	-0,036	-0,147
-723,094	-120,095	-0,231	0,029
-722,079	185,962	-0,089	-0,099
-721,064	-100,906	0,105	-0,019
-720,050	72,540	-0,048	0,037
-719,035	297,872	-0,019	0,026
-718,021	366,867	-0,091	0,138
-717,006	251,425	-0,054	0,069
-715,991	800,000	-0,042	-0,102
-714,977	-200,000	-0,000	0,118
-713,962	-113,067	-0,044	-0,006
-712,948	5,374	0,037	-0,020
-711,933	244,727	0,035	0,044
-710,918	216,148	-0,032	-0,038
-709,904	15,143	-0,037	0,022
-708,889	86,786	-0,099	-0,082
-707,875	-88,626	-0,147	-0,032
-706,860	-120,804	-0,094	0,012
-705,845	-200,000	-0,041	-0,155
-704,831	146,369	0,054	-0,054
-703,816	407,226	-0,093	-0,147
-702,802	-15,209	0,073	0,035
-701,787	-32,395	-0,124	0,051
-700,772	760,846	0,017	-0,034
-699,758	366,375	-0,040	0,060
-698,743	23,794	0,012	0,007
-697,729	259,095	0,067	-0,086
-696,714	-61,491	-0,016	0,005
-695,699	162,419	0,033	0,035
-694,685	-193,542	-0,015	0,000
-693,670	37,475	-0,045	-0,030
-692,656	800,000	0,043	0,108
-691,641	108,503	0,082	-0,073
-690,627	800,000	-0,016	-0,034
-689,612	623,125	0,009	0,017
-688,597	172,569	-0,116	-0,125
-687,583	-200,000	0,034	-0,178
-686,568	-200,000	-0,012	-0,121
-685,554	-200,000	0,046	0,152
-684,539	781,515	0,050	-0,102
-683,524	-200,000	0,004	0,031
-682,510	59,549	-0,027	0,020
-681,495	800,000	-0,076	-0,160
-680,481	171,438	-0,017	-0,018
-679,466	-200,000	-0,010	0,067
-678,451	800,000	-0,041	-0,116
-677,437	45,109	-0,056	-0,038
-676,422	609,899	-0,020	0,038
-675,408	-90,525	0,019	-0,004
-674,393	-144,679	-0,047	0,003
-673,378	-152,485	-0,073	0,004
-672,364	-74,376	-0,010	-0,003
-671,349	-131,264	0,027	-0,003
-670,335	-200,000	-0,012	-0,045
-669,320	15,868	0,035	-0,020
-668,305	-200,000	0,013	0,066
-667,291	800,000	0,037	-0,116
-666,276	800,000	-0,087	-0,238
-665,262	-27,234	-0,150	0,064
-664,247	111,052	-0,042	0,038
-663,232	-78,384	-0,053	0,013
-662,218	342,596	0,076	-0,111
-661,203	-200,000	0,012	-0,199
-660,189	-200,000	-0,004	0,057
-659,174	-130,173	-0,134	-0,013
-658,159	800,000	-0,054	-0,130
-657,145	344,486	-0,087	-0,128
-656,130	-186,129	0,100	-0,001
-655,116	-200,000	0,020	0,110
-654,101	-51,591	-0,099	-0,034
-653,086	59,143	-0,012	0,009
-652,072	306,489	-0,021	0,029
-651,057	800,000	-0,045	-0,109
-650,043	179,811	0,035	0,039
-649,028	-90,312	-0,073	-0,016
-648,014	39,943	0,110	0,073
-646,999	48,153	-0,099	0,068
-645,984	800,000	-0,053	-0,131
-644,970	800,000	0,008	0,019
-643,955	-200,000	-0,011	-0,072
-642,941	-17,663	-0,087	-0,041
-641,926	162,351	0,056	-0,059
-640,911	-17,805	0,023	-0,011
-639,897	290,449	0,148	-0,201
-638,882	-65,101	-0,097	0,029
-637,868	-200,000	-0,008	-0,060
-636,853	291,990	0,030	0,041
-635,838	28,014	-0,126	-0,079
-634,824	52,857	0,080	-0,057
-633,809	-200,000	-0,007	0,065
-632,795	-68,178	0,070	0,020
-631,780	171,967	-0,122	0,130
-630,765	-19,950	-0,084	0,038
-629,751	290,514	-0,045	0,061
-628,736	-187,929	-0,042	-0,000
-627,722	573,666	-0,025	-0,046
-626,707	-11,695	0,072	-0,035
-625,692	-54,989	-0,073	-0,024
-624,678	-83,610	-0,072	0,017
-623,663	-0,771	0,042	-0,022
-622,649	363,652	-0,088	-0,131
-621,634	28,199	0,124	-0,078
-620,619	2,530	0,038	0,020
-619,605	293,980	-0,056	0,076
-618,590	315,641	0,071	-0,100
-617,576	669,102	0,052	0,101
-616,561	-83,406	0,082	-0,019
-615,546	701,791	-0,022	0,043
-614,532	-200,000	-0,027	-0,159
-613,517	-200,000	0,016	0,064
-612,503	93,181	0,074	-0,062
-611,488	-57,763	0,052	0,017
-610,474	10,283	-0,063	-0,035
-609,459	248,259	-0,019	0,024
-608,444	-151,747	-0,037	0,002
-607,430	304,251	-0,074	0,102
-606,415	-200,000	-0,016	-0,105
-605,401	800,000	-0,036	0,083
-604,386	416,961	0,049	0,078
-603,371	321,198	0,074	0,105
-602,357	668,639	0,069	0,134
-601,342	-145,850	-0,097	0,006
-600,328	-81,929	-0,140	-0,034
-599,313	-124,488	-0,069	-0,008
-598,298	104,093	0,060	-0,052
-597,284	84,688	0,047	0,038
-596,269	-57,481	-0,042	0,014
-595,255	800,000	-0,040	0,104
-594,240	-200,000	-0,025	0,104
-593,225	-200,000	0,003	-0,061
-592,211	37,528	0,060	-0,039
-591,196	800,000	0,078	0,162
-590,182	800,000	-0,016	0,043
-589,167	684,767	0,009	-0,017
-588,152	143,362	-0,065	-0,064
-587,138	-52,670	-0,082	-0,028
-586,123	10,575	-0,084	-0,047
-585,109	-200,000	-0,013	-0,094
-584,094	-200,000	0,024	0,108
-583,079	18,755	0,081	-0,048
-582,065	-140,343	-0,081	0,006
-581,050	781,832	0,024	-0,048
-580,036	800,000	0,046	-0,114
-579,021	800,000	-0,034	-0,100
-578,006	421,676	-0,071	-0,113
-576,992	-33,549	0,089	-0,036
-575,977	-177,710	0,023	-0,000
-574,963	106,124	0,115	0,101
-573,948	800,000	0,032	0,081
-572,934	-200,000	-0,018	-0,104
-571,919	-117,964	-0,126	0,017
-570,904	123,157	-0,161	-0,150
-569,890	-200,000	-0,029	-0,161
-568,875	54,367	-0,085	0,061
-567,861	-18,850	-0,034	0,016
-566,846	115,610	0,051	-0,046
-565,831	-200,000	0,000	0,020
-564,817	800,000	-0,035	-0,075
-563,802	-127,329	-0,124	0,013
-562,788	538,481	-0,075	-0,133
-561,773	-174,334	-0,040	-0,001
-560,758	800,000	-0,037	0,102
-559,744	97,222	0,026	0,022
-558,729	-200,000	-0,015	-0,057
-557,715	477,859	0,080	-0,135
-556,700	-119,733	-0,092	-0,012
-555,685	-200,000	-0,009	-0,072
-554,671	-200,000	0,006	-0,082
-553,656	-100,686	-0,034	0,006
-552,642	355,279	0,058	0,085
-551,627	-68,013	0,182	-0,052
-550,612	-135,671	0,057	-0,005
-549,598	539,680	-0,069	-0,123
-548,583	-68,742	-0,077	-0,022
-547,569	800,000	0,023	0,053
-546,554	356,566	0,056	0,083
-545,539	-154,586	0,165	0,008
-544,525	-200,000	0,008	-0,072
-543,510	54,783	-0,139	-0,099
-542,496	322,084	-0,075	-0,106
-541,481	-200,000	-0,005	-0,110
-540,466	-73,156	0,111	-0,030
-539,452	35,681	-0,030	-0,019
-538,437	-80,536	0,097	-0,024
-537,423	800,000	0,054	-0,120
-536,408	45,259	0,040	0,027
-535,393	-175,292	0,132	0,003
-534,379	-93,993	-0,073	0,015
-533,364	63,216	0,039	-0,029
-532,350	-200,000	0,010	0,140
-531,335	-42,687	-0,035	0,013
-530,321	-125,377	-0,106	-0,012
-529,306	104,792	0,091	-0,079
-528,291	616,192	0,013	0,024
-527,277	84,895	-0,066	-0,053
-526,262	-200,000	0,019	-0,079
-525,248	-140,267	0,046	-0,004
-524,233	595,573	0,041	0,076
-523,218	-51,539	0,060	-0,021
-522,204	-22,935	-0,091	0,040
-521,189	-200,000	-0,005	-0,082
-520,175	207,363	0,022	0,025
-519,160	-77,913	-0,098	-0,025
-518,145	719,291	-0,068	-0,135
-517,131	-200,000	0,009	0,064
-516,116	-200,000	-0,009	0,127
-515,102	683,141	0,044	0,085
-514,087	397,756	0,048	0,075
-513,072	188,994	-0,047	0,052
-512,058	51,328	-0,068	-0,048
-511,043	223,468	-0,092	-0,110
-510,029	285,156	0,093	0,124
-509,014	-200,000	-0,024	-0,120
-507,999	-17,777	0,075	-0,035
-506,985	140,999	0,068	0,066
-505,970	-200,000	-0,008	-0,054
-504,956	221,919	0,059	-0,070
-503,941	-200,000	0,005	0,166
-502,926	-99,047	0,101	0,019
-501,912	-25,726	-0,084	-0,037
-500,897	67,246	-0,075	0,056
-499,883	-200,000	-0,012	-0,048
-498,868	491,397	-0,033	-0,055
-497,853	40,970	0,033	0,022
-496,839	-143,612	-0,111	0,008
-495,824	-167,541	0,093	-0,003
-494,810	800,000	0,026	-0,084
-493,795	160,011	-0,065	0,067
-492,781	800,000	-0,023	0,070
-491,766	342,048	-0,062	0,090
-490,751	184,169	-0,071	-0,078
-489,737	287,576	-0,038	0,051
-488,722	800,000	-0,015	-0,036
-487,708	2,056	-0,039	-0,020
-486,693	196,731	0,036	0,041
-485,678	-200,000	-0,002	-0,023
-484,664	-9,198	0,047	-0,023
-483,649	295,751	-0,017	-0,023
-482,635	387,892	0,034	0,052
-481,620	-31,393	-0,042	0,018
-480,605	-10,446	-0,059	0,029
-479,591	-200,000	-0,004	0,037
-478,576	800,000	0,030	0,096
-477,562	-200,000	-0,013	-0,045
-476,547	-16,195	-0,114	0,053
-475,532	60,011	0,079	-0,058
-474,518	800,000	-0,042	0,095
-473,503	800,000	-0,026	-0,078
-472,489	-200,000	-0,025	0,106
-471,474	19,241	-0,086	-0,051
-470,459	800,000	-0,017	-0,050
-469,445	-200,000	-0,012	0,064
-468,430	18,115	-0,026	-0,015
-467,416	32,994	0,010	0,006
-466,401	-88,739	-0,103	-0,022
-465,386	-200,000	-0,000	-0,023
-464,372	741,424	-0,014	-0,029
-463,357	95,443	-0,019	-0,016
-462,343	226,094	0,034	-0,041
-461,328	-200,000	-0,007	0,065
-460,313	-155,362	-0,049	0,002
-459,299	201,588	0,036	0,041
-458,284	-165,001	-0,058	0,002
-457,270	-200,000	0,062	0,227
-456,255	176,202	-0,027	0,029
-455,241	-200,000	-0,025	-0,145
-454,226	800,000	-0,037	-0,084
-453,211	800,000	0,014	-0,028
-452,197	-140,830	0,142	0,011
-451,182	134,936	0,104	0,100
-450,168	-200,000	0,009	0,147
-449,153	112,137	0,009	0,008
-448,138	-5,926	-0,082	-0,041
-447,124	-34,054	0,074	-0,030
-446,109	-200,000	0,016	0,091
-445,095	-2,501	-0,091	-0,047
-444,080	-138,847	0,131	-0,010
-443,065	-79,304	-0,071	-0,017
-442,051	50,167	0,052	-0,036
-441,036	800,000	-0,049	-0,112
-440,022	101,888	-0,022	0,019
-439,007	-168,536	0,039	-0,001
-437,992	29,310	0,010	0,006
-436,978	800,000	-0,026	-0,068
-435,963	100,689	0,038	0,032
-434,949	461,544	-0,054	-0,090
-433,934	-127,054	0,095	0,010
-432,919	49,546	0,020	-0,014
-431,905	71,458	0,037	-0,028
-430,890	168,777	-0,084	0,089
-429,876	800,000	0,081	0,175
-428,861	-200,000	0,007	0,096
-427,846	-200,000	0,024	0,093
-426,832	122,306	0,020	-0,019
-425,817	-185,004	0,080	0,001
-424,803	52,245	0,047	0,033
-423,788	89,016	0,028	-0,023
-422,773	-200,000	-0,025	0,257
-421,759	32,812	0,079	0,050
-420,744	21,078	-0,059	0,035
-419,730	-14,692	0,102	-0,048
-418,715	-200,000	0,005	-0,073
-417,701	-200,000	-0,014	-0,062
-416,686	-112,933	-0,032	-0,005
-415,671	478,085	0,019	0,032
-414,657	-7,368	0,094	0,047
-413,642	-16,664	-0,090	0,042
-412,628	-162,338	0,024	0,001
-411,613	12,646	0,117	0,066
-410,598	-6,751	-0,103	0,051
-409,584	355,582	-0,038	-0,056
-408,569	-31,874	0,138	-0,056
-407,555	800,000	-0,017	0,055
-406,540	-19,026	0,083	0,038
-405,525	445,455	0,014	0,022
-404,511	-136,293	-0,160	0,014
-403,496	-61,235	0,071	-0,022
-402,482	800,000	0,060	-0,142
-401,467	30,264	-0,045	0,028
-400,452	-101,313	0,047	-0,008
-399,438	358,337	-0,063	0,092
-398,423	96,245	-0,037	0,031
-397,409	-80,308	-0,078	0,019
-396,394	-54,523	0,103	0,034
-395,379	34,260	0,146	-0,094
-394,365	-49,526	-0,055	0,019
-393,350	29,751	0,095	0,059
-392,336	-17,194	-0,033	-0,015
-391,321	245,149	0,080	-0,100
-390,306	48,499	-0,031	-0,021
-389,292	-82,710	-0,139	-0,033
-388,277	-178,945	0,112	-0,002
-387,263	17,290	0,021	-0,012
-386,248	210,348	0,111	0,129
-385,233	-31,918	0,073	0,030
-384,219	-143,690	-0,068	0,005
-383,204	179,674	0,081	0,088
-382,190	-62,671	0,009	-0,003
-381,175	-23,139	-0,072	0,032
-380,160	-112,915	0,058	0,008
-379,146	-200,000	0,000	0,134
-378,131	-29,248	-0,026	0,011
-377,117	-200,000	-0,065	0,225
-376,102	-200,000	0,022	-0,076
-375,088	800,000	-0,039	-0,123
-374,073	800,000	-0,006	-0,016
-373,058	-116,370	0,095	-0,013
-372,044	130,287	0,046	-0,043
-371,029	-146,302	-0,086	-0,005
-370,015	116,457	-0,033	-0,030
-369,000	324,620	0,016	0,022
-367,985	137,719	-0,047	0,045
-366,971	262,538	-0,021	0,026
-365,956	85,213	0,039	-0,032
-364,942	594,545	-0,036	0,066
-363,927	425,865	-0,028	0,045
-362,912	-75,139	-0,028	-0,007
-361,898	-84,599	-0,144	-0,033
-360,883	-200,000	-0,007	0,122
-359,869	-100,498	-0,087	0,016
-358,854	-200,000	0,038	-0,137
-357,839	-36,797	0,133	0,052
-356,825	81,306	-0,107	-0,085
-355,810	-200,000	-0,069	-0,000
-354,796	800,000	-0,016	0,049
-353,781	-131,728	-0,124	-0,012
-352,766	55,240	0,075	-0,053
-351,752	-200,000	0,014	0,179
-350,737	-200,000	0,018	0,079
-349,723	63,203	0,081	-0,059
-348,708	112,728	0,090	0,080
-347,693	-61,631	0,062	0,019
-346,679	599,428	-0,028	0,050
-345,664	800,000	-0,067	-0,190
-344,650	-37,824	0,128	0,050
-343,635	-149,408	0,071	-0,004
-342,620	-200,000	-0,014	0,134
-341,606	110,972	0,092	0,081
-340,591	78,671	-0,092	-0,073
-339,577	-116,076	-0,081	-0,011
-338,562	-200,000	0,004	-0,138
-337,548	-200,000	-0,004	-0,028
-336,533	-45,066	0,078	-0,028
-335,518	-200,000	0,013	-0,104
-334,504	160,949	0,042	-0,043
-333,489	659,803	-0,085	-0,161
-332,475	-190,966	0,111	-0,001
-331,460	20,524	-0,146	0,086
-330,445	235,884	0,037	-0,045
-329,431	152,522	0,083	-0,084
-328,416	49,623	0,116	0,080
-327,402	96,820	0,059	0,050
-326,387	-200,000	0,012	0,042
-325,372	226,321	-0,041	0,049
-324,358	-69,841	0,089	-0,025
-323,343	-86,862	-0,123	-0,027
-322,329	-200,000	0,017	-0,059
-321,314	206,044	-0,016	-0,019
-320,299	-200,000	-0,042	0,240
-319,285	570,125	-0,040	0,072
-318,270	235,836	0,045	0,055
-317,256	177,613	-0,119	0,127
-316,241	-111,412	-0,156	0,023
-315,226	312,397	0,079	-0,109
-314,212	-74,183	0,073	-0,019
-313,197	483,561	0,039	0,065
-312,183	-98,458	-0,121	-0,022
-311,168	277,369	-0,053	-0,070
-310,153	-86,158	-0,117	0,026
-309,139	-115,795	0,136	0,018
-308,124	503,262	0,064	0,108
-307,110	-103,140	0,110	0,019
-306,095	-200,000	-0,016	0,057
-305,080	-200,000	-0,008	-0,115
-304,066	151,384	0,068	-0,068
-303,051	-200,000	-0,015	0,104
-302,037	-200,000	-0,030	0,120
-301,022	-89,059	-0,106	0,023
-300,008	-98,973	-0,064	0,012
-298,993	199,264	-0,073	0,082
-297,978	44,844	-0,022	0,015
-296,964	-92,016	0,014	-0,003
-295,949	203,300	-0,058	0,065
-294,935	40,532	-0,124	-0,082
-293,920	792,914	-0,070	0,141
-292,905	-200,000	0,023	0,153
-291,891	800,000	0,038	0,102
-290,876	-200,000	-0,020	0,117
-289,862	-200,000	0,008	0,124
-288,847	1,034	-0,055	0,029
-287,832	82,014	0,082	-0,065
-286,818	-200,000	0,036	0,125
-285,803	-24,702	-0,063	0,027
-284,789	-200,000	-0,009	0,049
-283,774	-24,325	0,100	0,044
-282,759	-200,000	-0,014	0,086
-281,745	-127,943	-0,029	-0,003
-280,730	-60,653	0,044	0,014
-279,716	-200,000	-0,007	-0,123
-278,701	-130,804	0,154	0,015
-277,686	800,000	0,037	-0,085
-276,672	297,680	0,075	0,102
-275,657	-200,000	0,044	0,184
-274,643	-200,000	0,003	-0,049
-273,628	-200,000	-0,000	-0,046
-272,613	-29,207	-0,114	0,048
-271,599	-200,000	-0,007	0,079
-270,584	20,189	-0,047	0,028
-269,570	-107,784	-0,104	0,016
-268,555	55,121	0,148	-0,104
-267,540	-59,797	-0,050	-0,016
-266,526	-200,000	-0,048	-0,162
-265,511	408,055	0,051	0,079
-264,497	-18,899	0,044	0,020
-263,482	-200,000	-0,020	0,096
-262,467	-200,000	0,035	0,116
-261,453	-200,000	-0,002	0,082
-260,438	-200,000	0,006	-0,122
-259,424	168,197	0,064	-0,066
-258,409	-109,713	-0,113	0,017
-257,395	-200,000	0,013	0,140
-256,380	800,000	0,041	-0,121
-255,365	-200,000	0,002	0,086
-254,351	679,682	0,052	-0,099
-253,336	51,653	0,130	-0,090
-252,322	-33,774	0,109	-0,044
-251,307	450,005	-0,069	-0,111
-250,292	-200,000	-0,026	-0,116
-249,278	-199,141	0,048	-0,000
-248,263	236,579	0,081	0,099
-247,249	-92,499	-0,070	-0,014
-246,234	526,126	-0,008	0,014
-245,219	-200,000	0,008	-0,178
-244,205	-116,279	0,064	0,009
-243,190	539,572	0,072	-0,126
-242,176	249,226	0,042	0,052
-241,161	288,089	0,070	0,093
-240,146	420,291	-0,005	-0,008
-239,132	736,156	-0,057	0,112
-238,117	-45,278	0,070	-0,025
-237,103	-153,014	-0,063	-0,003
-236,088	-200,000	-0,015	-0,051
-235,073	450,928	-0,056	0,090
-234,059	-0,137	0,101	0,052
-233,044	73,074	-0,107	-0,081
-232,030	-94,695	0,121	0,024
-231,015	200,043	-0,143	-0,161
-230,000	-30,234	-0,038	-0,016
-228,986	313,586	-0,068	-0,093
-227,971	-66,976	-0,097	-0,028
-226,957	-115,947	-0,039	0,005
-225,942	-79,127	0,073	0,018
-224,927	800,000	-0,065	-0,191
-223,913	590,618	-0,057	-0,104
-222,898	800,000	0,017	-0,043
-221,884	-200,000	-0,014	0,113
-220,869	27,063	0,103	0,063
-219,855	800,000	0,020	0,044
-218,840	-105,817	-0,094	0,015
-217,825	142,903	0,114	-0,111
-216,811	800,000	0,027	0,073
-215,796	-200,000	0,028	-0,090
-214,782	239,370	0,049	0,060
-213,767	-200,000	-0,014	0,077
-212,752	-65,569	0,099	0,029
-211,738	521,222	0,016	-0,028
-210,723	362,351	0,042	-0,062
-209,709	-124,013	-0,074	-0,008
-208,694	800,000	-0,036	0,076
-207,679	731,073	0,043	0,084
-206,665	598,764	-0,035	-0,064
-205,650	90,100	0,146	0,119
-204,636	363,534	0,027	-0,040
-203,621	8,921	-0,029	0,016
-202,606	225,775	0,078	-0,092
-201,592	-200,000	-0,017	-0,067
-200,577	800,000	0,023	-0,070
-199,563	186,124	-0,111	-0,121
-198,548	22,502	0,025	0,015
-197,533	-74,003	-0,072	0,019
-196,519	-15,554	-0,063	0,029
-195,504	292,807	-0,074	0,099
-194,490	-26,012	0,082	0,035
-193,475	-33,016	-0,100	0,040
-192,460	800,000	-0,078	-0,182
-191,446	-119,848	0,127	-0,016
-190,431	69,468	0,053	-0,040
-189,417	-200,000	-0,009	0,071
-188,402	284,554	-0,044	-0,058
-187,387	800,000	-0,020	-0,043
-186,373	4,982	0,021	-0,011
-185,358	-200,000	-0,013	-0,224
-184,344	-200,000	0,006	0,062
-183,329	38,414	0,091	-0,059
-182,315	-161,078	-0,038	0,001
-181,300	374,742	0,014	-0,021
-180,285	-129,726	-0,043	0,004
-179,271	-101,514	-0,087	-0,015
-178,256	-178,934	-0,058	-0,001
-177,242	-200,000	-0,018	-0,064
-176,227	-12,107	-0,071	-0,034
-175,212	-10,198	-0,107	0,052
-174,198	-131,375	-0,098	-0,009
-173,183	800,000	-0,068	-0,148
-172,169	-39,832	0,060	0,023
-171,154	19,398	0,033	-0,019
-170,139	656,533	0,078	0,148
-169,125	49,414	0,073	-0,050
-168,110	505,283	0,059	-0,101
-167,096	192,002	0,086	0,095
-166,081	800,000	0,031	-0,088
-165,066	-200,000	-0,003	-0,075
-164,052	-200,000	-0,019	-0,080
-163,037	-200,000	0,001	-0,008
-162,023	-10,263	0,083	0,040
-161,008	-61,472	0,099	0,030
-159,993	5,541	0,078	0,042
-158,979	-200,000	-0,026	0,103
-157,964	10,101	-0,076	0,042
-156,950	35,360	0,043	-0,027
-155,935	17,824	-0,045	-0,026
-154,920	-106,695	0,057	0,009
-153,906	377,839	-0,038	-0,057
-152,891	-200,000	0,002	-0,142
-151,877	-154,703	-0,076	-0,004
-150,862	-200,000	0,023	0,102
-149,847	53,264	0,022	-0,016
-148,833	800,000	0,031	0,075
-147,818	66,262	0,044	-0,033
-146,804	403,230	-0,047	0,072
-145,789	-200,000	-0,048	0,183
-144,775	86,248	-0,052	0,042
-143,760	707,091	-0,046	0,089
-142,745	800,000	0,035	-0,071
-141,731	-200,000	-0,007	-0,118
-140,716	-200,000	0,021	-0,078
-139,702	-88,819	-0,032	-0,007
-138,687	500,355	0,040	-0,067
-137,672	-117,156	-0,132	-0,017
-136,658	710,673	-0,018	-0,035
-135,643	-200,000	-0,004	-0,078
-134,629	350,677	-0,092	0,132
-133,614	-22,204	0,050	0,022
-132,599	-110,851	-0,052	-0,008
-131,585	-55,587	-0,095	-0,031
-130,570	586,728	-0,012	0,022
-129,556	27,347	-0,048	-0,029
-128,541	231,357	0,074	-0,088
-127,526	516,539	0,044	0,076
-126,512	-37,293	-0,131	0,051
-125,497	-200,000	-0,016	0,099
-124,483	76,661	-0,048	0,037
-123,468	-200,000	-0,012	-0,039
-122,453	147,948	-0,045	-0,044
-121,439	-20,177	-0,041	-0,018
-120,424	-49,444	0,070	-0,024
