DTS Sentinel unit serial number:	SN410029Multiplexer serial number:	ORYXHardware model number:	OX2-SRSoftware version number:	ORYX F/W v4,00 Oryx Data Collector v3.7.2.0data status	okinstallation	B6 Nyhavnadifferential loss correction	single-endedforward channel	channel 2reverse channel	N/Adate	2023/12/09time	22:40:08forward acquisition time	300,00reverse acquisition time	0,00gamma	499,1914k internal	0,3127k external	0,3127temperature offset calibration	1,0000default loss term (dB/km)	0,3820temperature slope calibration	1,0000multiplexer offset coefficient	1,0000multiplexer slope coefficient	1,0000fibre end	0,00T internal ref (°C)	21,69T ext. ref 1 (°C)	5,42T ext. ref 2 (°C)	5,39length (m)	temperature (°C)	Stokes	anti-Stokes-744,400	-200,000	0,039	-0,145
-743,385	-69,803	-0,224	0,063
-742,371	-30,277	0,096	0,040
-741,356	88,497	-0,210	0,173
-740,342	800,000	0,009	-0,028
-739,327	-171,247	-0,198	0,005
-738,312	488,510	0,023	-0,039
-737,298	-89,533	-0,219	-0,047
-736,283	664,494	-0,031	-0,060
-735,269	112,942	-0,219	0,198
-734,254	800,000	0,005	-0,012
-733,239	-155,084	-0,401	0,019
-732,225	349,494	0,053	-0,079
-731,210	239,753	0,059	0,074
-730,196	-98,291	-0,036	-0,007
-729,181	61,039	-0,097	-0,072
-728,167	-101,921	-0,116	-0,021
-727,152	-200,000	0,008	0,120
-726,137	75,110	-0,107	-0,084
-725,123	-200,000	-0,019	0,081
-724,108	800,000	-0,066	-0,151
-723,094	194,942	-0,121	-0,137
-722,079	-18,505	-0,092	-0,043
-721,064	800,000	-0,007	0,016
-720,050	-7,386	0,016	-0,008
-719,035	-107,287	-0,063	0,010
-718,021	284,851	-0,026	0,036
-717,006	-27,349	-0,098	0,042
-715,991	242,674	-0,108	-0,135
-714,977	75,858	-0,077	0,060
-713,962	70,996	0,059	0,046
-712,948	554,345	0,009	-0,016
-711,933	800,000	-0,011	0,027
-710,918	-68,710	-0,139	0,040
-709,904	185,560	-0,113	-0,124
-708,889	800,000	-0,030	0,094
-707,875	-200,000	0,006	-0,041
-706,860	-200,000	-0,013	-0,127
-705,845	-31,479	0,055	0,023
-704,831	297,428	-0,043	-0,059
-703,816	-200,000	-0,010	0,151
-702,802	194,924	0,076	-0,085
-701,787	800,000	0,008	-0,023
-700,772	199,877	-0,031	-0,036
-699,758	-128,407	-0,212	0,022
-698,743	-68,460	0,214	-0,061
-697,729	68,593	0,095	-0,072
-696,714	-128,341	0,090	-0,009
-695,699	-200,000	0,017	-0,144
-694,685	14,090	-0,188	-0,109
-693,670	149,880	-0,083	-0,084
-692,656	116,938	-0,102	-0,093
-691,641	-127,040	0,131	0,014
-690,627	-200,000	-0,015	0,126
-689,612	-155,039	0,023	0,001
-688,597	-200,000	-0,002	0,095
-687,583	71,443	-0,036	-0,028
-686,568	-200,000	0,025	-0,093
-685,554	-200,000	-0,018	-0,108
-684,539	774,385	-0,020	-0,041
-683,524	101,494	0,041	0,036
-682,510	100,688	-0,020	-0,017
-681,495	277,512	0,035	0,047
-680,481	-200,000	-0,007	-0,102
-679,466	800,000	-0,033	-0,089
-678,451	75,909	-0,037	0,029
-677,437	-200,000	0,011	0,089
-676,422	95,440	0,123	0,104
-675,408	-63,442	-0,045	0,014
-674,393	800,000	0,033	-0,075
-673,378	-111,567	-0,099	0,015
-672,364	-200,000	-0,005	-0,112
-671,349	-200,000	-0,020	-0,071
-670,335	-58,298	-0,103	0,033
-669,320	88,722	0,091	-0,075
-668,305	111,647	-0,064	0,057
-667,291	155,569	0,042	-0,043
-666,276	-67,828	-0,073	0,021
-665,262	800,000	-0,027	-0,055
-664,247	-200,000	-0,001	-0,100
-663,232	-200,000	0,016	0,054
-662,218	-29,255	0,026	-0,011
-661,203	-24,528	-0,130	-0,057
-660,189	556,987	0,014	-0,024
-659,174	-200,000	-0,009	0,075
-658,159	333,805	0,023	-0,033
-657,145	26,484	-0,065	-0,040
-656,130	181,582	0,055	0,060
-655,116	139,162	-0,035	-0,034
-654,101	41,725	-0,074	0,050
-653,086	-200,000	-0,014	-0,050
-652,072	-200,000	0,015	-0,097
-651,057	800,000	0,030	-0,081
-650,043	313,107	-0,140	-0,196
-649,028	-200,000	0,017	0,085
-648,014	-79,843	0,112	0,028
-646,999	-116,764	0,094	-0,013
-645,984	192,693	0,038	0,042
-644,970	419,652	-0,094	-0,150
-643,955	-200,000	0,004	0,036
-642,941	80,380	-0,035	0,028
-641,926	-179,011	-0,094	-0,002
-640,911	-141,738	0,099	0,007
-639,897	-200,000	-0,017	0,064
-638,882	-200,000	0,024	0,183
-637,868	800,000	0,026	-0,066
-636,853	240,259	-0,176	-0,218
-635,838	94,724	0,034	-0,029
-634,824	800,000	0,034	-0,078
-633,809	-14,524	0,032	0,015
-632,795	800,000	-0,012	-0,025
-631,780	-123,177	0,049	0,006
-630,765	221,395	-0,051	-0,061
-629,751	116,520	-0,073	-0,066
-628,736	800,000	0,004	0,012
-627,722	-200,000	0,009	0,051
-626,707	-12,482	-0,061	-0,029
-625,692	537,928	-0,043	0,075
-624,678	800,000	0,058	0,140
-623,663	129,123	-0,086	0,081
-622,649	81,531	-0,164	-0,131
-621,634	800,000	-0,071	-0,155
-620,619	-113,727	-0,091	-0,013
-619,605	800,000	-0,026	-0,062
-618,590	51,467	0,064	0,045
-617,576	37,400	0,033	-0,022
-616,561	-17,603	0,099	-0,046
-615,546	107,731	-0,066	0,058
-614,532	-200,000	0,004	0,045
-613,517	800,000	-0,009	-0,027
-612,503	-200,000	0,009	-0,108
-611,488	-80,729	-0,110	0,027
-610,474	-200,000	0,001	-0,016
-609,459	86,453	0,028	0,023
-608,444	532,715	-0,067	-0,117
-607,430	309,590	-0,063	-0,087
-606,415	151,001	-0,045	-0,045
-605,401	60,048	0,121	-0,088
-604,386	-200,000	0,006	-0,022
-603,371	-157,849	-0,085	0,004
-602,357	74,239	-0,100	-0,077
-601,342	-200,000	0,015	0,050
-600,328	-154,237	-0,037	-0,002
-599,313	114,707	0,027	-0,024
-598,298	-37,961	0,054	0,021
-597,284	27,547	0,088	0,055
-596,269	251,818	0,023	-0,030
-595,255	800,000	-0,049	0,107
-594,240	58,077	-0,045	0,033
-593,225	-25,939	0,037	0,016
-592,211	318,821	-0,023	-0,032
-591,196	65,918	0,067	0,050
-590,182	197,702	0,074	0,084
-589,167	52,431	-0,035	0,024
-588,152	480,570	-0,065	-0,110
-587,138	800,000	0,043	0,137
-586,123	-200,000	-0,124	0,000
-585,109	189,987	-0,078	-0,086
-584,094	-61,995	-0,181	0,056
-583,079	9,632	0,148	0,083
-582,065	-20,417	-0,059	-0,027
-581,050	-56,166	-0,109	-0,036
-580,036	578,652	-0,030	0,054
-579,021	191,059	0,101	-0,112
-578,006	-200,000	0,003	0,116
-576,992	-113,294	0,088	0,013
-575,977	-200,000	0,001	0,058
-574,963	-200,000	0,000	-0,044
-573,948	-103,907	0,106	0,018
-572,934	800,000	0,057	0,178
-571,919	-85,660	-0,153	-0,035
-570,904	251,885	-0,040	-0,050
-569,890	48,505	-0,097	0,067
-568,875	-200,000	-0,002	0,034
-567,861	-129,510	-0,111	-0,011
-566,846	-200,000	-0,033	0,146
-565,831	324,167	0,041	-0,058
-564,817	38,727	-0,053	0,035
-563,802	366,043	-0,095	-0,142
-562,788	-75,859	-0,095	-0,025
-561,773	55,858	0,079	-0,056
-560,758	-74,176	0,073	-0,019
-559,744	-148,335	0,057	-0,003
-558,729	-93,391	0,097	0,020
-557,715	177,018	0,107	0,115
-556,700	-200,000	0,004	-0,138
-555,685	620,452	-0,050	0,094
-554,671	165,471	0,049	-0,051
-553,656	161,173	0,041	-0,043
-552,642	767,110	-0,059	0,119
-551,627	-83,561	-0,085	0,020
-550,612	265,076	0,040	-0,052
-549,598	-121,277	0,073	-0,009
-548,583	122,562	0,056	0,052
-547,569	29,767	0,037	0,023
-546,554	-22,482	-0,043	0,019
-545,539	281,569	-0,022	0,029
-544,525	-106,695	0,098	0,016
-543,510	21,925	-0,080	-0,048
-542,496	-200,000	-0,017	-0,069
-541,481	-74,524	0,070	0,019
-540,466	-107,165	0,028	-0,004
-539,452	-113,723	0,069	0,010
-538,437	79,565	0,041	0,033
-537,423	500,644	0,040	0,068
-536,408	20,386	-0,065	-0,039
-535,393	273,898	0,064	-0,084
-534,379	345,189	-0,084	0,123
-533,364	-200,000	0,000	-0,062
-532,350	365,344	-0,064	-0,095
-531,335	-159,240	0,174	-0,007
-530,321	85,168	-0,102	0,082
-529,306	435,360	0,074	0,120
-528,291	-3,834	-0,119	-0,061
-527,277	-200,000	-0,008	-0,103
-526,262	-200,000	0,005	-0,141
-525,248	800,000	0,033	0,077
-524,233	-101,835	0,153	-0,027
-523,218	800,000	0,043	-0,112
-522,204	-200,000	0,012	-0,083
-521,189	312,975	-0,054	-0,075
-520,175	153,790	-0,084	-0,085
-519,160	708,301	0,012	-0,024
-518,145	98,056	0,030	0,025
-517,131	-42,554	-0,067	0,025
-516,116	405,446	0,074	0,116
-515,102	354,180	0,055	0,081
-514,087	71,598	0,040	-0,031
-513,072	800,000	-0,022	0,047
-512,058	142,464	-0,079	-0,077
-511,043	143,617	0,059	-0,058
-510,029	363,994	0,034	0,050
-509,014	106,340	0,057	0,050
-507,999	581,408	0,096	0,174
-506,985	-110,935	-0,077	-0,012
-505,970	209,226	-0,022	-0,025
-504,956	-200,000	-0,001	-0,047
-503,941	17,640	0,093	0,054
-502,926	383,439	0,038	0,057
-501,912	522,671	-0,032	0,056
-500,897	800,000	-0,055	-0,113
-499,883	-143,485	-0,092	-0,006
-498,868	800,000	0,051	-0,133
-497,853	163,154	-0,079	0,082
-496,839	800,000	0,047	-0,130
-495,824	413,141	0,062	0,098
-494,810	133,086	0,046	-0,044
-493,795	-139,347	0,123	-0,010
-492,781	46,889	-0,111	-0,076
-491,766	-66,823	-0,129	-0,037
-490,751	-200,000	0,003	-0,061
-489,737	800,000	-0,039	-0,091
-488,722	-28,243	-0,273	-0,116
-487,708	-200,000	-0,004	0,169
-486,693	-5,023	0,076	0,038
-485,678	-143,711	-0,060	-0,004
-484,664	-153,506	-0,134	0,007
-483,649	-200,000	0,027	-0,114
-482,635	-117,643	-0,110	0,015
-481,620	800,000	0,033	0,093
-480,605	-200,000	-0,007	0,102
-479,591	-101,366	-0,114	-0,020
-478,576	63,375	0,051	-0,038
-477,562	-12,164	-0,116	0,056
-476,547	184,843	0,041	0,045
-475,532	-137,664	-0,063	0,005
-474,518	-49,957	-0,101	0,035
-473,503	29,821	0,095	-0,060
-472,489	-134,421	-0,112	-0,010
-471,474	-59,410	-0,101	-0,032
-470,459	54,394	-0,086	0,061
-469,445	125,444	-0,074	-0,069
-468,430	253,970	-0,083	-0,105
-467,416	-200,000	-0,025	0,091
-466,401	-200,000	-0,011	-0,126
-465,386	-200,000	0,010	-0,104
-464,372	800,000	-0,061	0,130
-463,357	56,350	-0,127	0,091
-462,343	-200,000	-0,015	-0,066
-461,328	-200,000	0,006	-0,102
-460,313	-200,000	0,036	0,128
-459,299	-200,000	0,003	0,046
-458,284	800,000	-0,013	0,036
-457,270	192,868	-0,046	-0,051
-456,255	410,250	-0,057	-0,089
-455,241	541,572	-0,028	0,050
-454,226	800,000	0,016	0,046
-453,211	375,587	-0,017	0,025
-452,197	-118,894	0,036	0,005
-451,182	-200,000	-0,004	-0,079
-450,168	375,350	0,040	0,060
-449,153	-91,537	-0,065	-0,014
-448,138	-146,551	-0,090	0,006
-447,124	800,000	-0,054	-0,128
-446,109	-83,785	0,021	0,005
-445,095	-200,000	0,025	-0,173
-444,080	358,684	-0,034	-0,049
-443,065	-50,495	-0,063	-0,022
-442,051	-200,000	0,017	-0,167
-441,036	12,250	-0,057	0,032
-440,022	-104,368	-0,086	0,015
-439,007	-18,653	0,072	0,033
-437,992	23,963	0,178	0,108
-436,978	-43,693	-0,035	0,013
-435,963	-76,493	-0,124	-0,032
-434,949	-144,204	-0,210	0,014
-433,934	171,353	-0,057	0,061
-432,919	52,070	-0,095	-0,066
-431,905	-200,000	-0,037	-0,129
-430,890	465,823	0,068	-0,112
-429,876	-200,000	-0,006	-0,071
-428,861	800,000	0,041	-0,121
-427,846	157,361	-0,066	-0,067
-426,832	78,053	0,134	-0,105
-425,817	-65,257	-0,063	-0,019
-424,803	264,462	-0,081	0,103
-423,788	-69,263	0,217	0,061
-422,773	15,628	0,140	0,080
-421,759	138,823	0,084	-0,081
-420,744	588,239	-0,067	0,123
-419,730	249,480	0,044	0,055
-418,715	-200,000	-0,005	-0,056
-417,701	-200,000	0,018	-0,089
-416,686	287,026	0,128	-0,170
-415,671	150,352	-0,073	0,073
-414,657	401,679	0,075	0,116
-413,642	800,000	0,067	0,161
-412,628	102,364	0,052	0,044
-411,613	255,975	-0,069	-0,087
-410,598	-200,000	0,027	0,090
-409,584	244,068	0,059	-0,073
-408,569	597,635	-0,057	0,104
-407,555	518,537	0,026	-0,045
-406,540	800,000	0,009	-0,025
-405,525	-87,832	-0,124	-0,027
-404,511	429,309	-0,046	0,073
-403,496	420,609	-0,033	0,052
-402,482	-200,000	-0,016	-0,119
-401,467	49,534	-0,162	0,112
-400,452	-200,000	0,002	0,070
-399,438	106,724	0,038	-0,033
-398,423	800,000	-0,041	0,118
-397,409	680,744	-0,038	0,072
-396,394	-200,000	0,008	-0,161
-395,379	59,714	-0,054	-0,039
-394,365	-200,000	-0,016	0,094
-393,350	-200,000	0,008	0,144
-392,336	-5,486	0,046	-0,023
-391,321	249,704	-0,102	-0,127
-390,306	800,000	0,033	-0,073
-389,292	-48,122	0,097	0,034
-388,277	-200,000	0,011	-0,067
-387,263	-16,647	0,067	0,031
-386,248	-200,000	-0,006	-0,171
-385,233	800,000	0,021	-0,058
-384,219	528,646	0,058	-0,101
-383,204	219,670	-0,090	-0,106
-382,190	79,312	-0,045	0,035
-381,175	-200,000	-0,016	-0,074
-380,160	169,538	-0,049	-0,052
-379,146	800,000	0,022	0,066
-378,131	-200,000	0,010	-0,077
-377,117	800,000	0,065	0,161
-376,102	-58,906	-0,110	-0,035
-375,088	357,745	-0,112	-0,165
-374,073	-28,971	0,080	0,034
-373,058	577,407	-0,035	0,063
-372,044	164,966	0,043	-0,045
-371,029	-149,232	-0,049	0,003
-370,015	-112,842	-0,065	-0,009
-369,000	-36,345	-0,083	0,033
-367,985	-200,000	0,009	-0,106
-366,971	419,041	0,041	-0,064
-365,956	-200,000	0,008	0,042
-364,942	287,291	0,074	0,098
-363,927	-200,000	-0,030	0,140
-362,912	-104,388	0,156	-0,026
-361,898	800,000	0,011	0,028
-360,883	113,354	-0,017	-0,016
-359,869	800,000	0,059	0,155
-358,854	137,147	0,059	0,057
-357,839	-186,929	-0,064	0,001
-356,825	52,951	0,029	-0,020
-355,810	-200,000	-0,001	-0,052
-354,796	-200,000	-0,023	0,081
-353,781	-30,024	-0,152	-0,063
-352,766	800,000	-0,021	0,054
-351,752	214,810	-0,015	0,018
-350,737	-200,000	-0,004	-0,057
-349,723	224,528	0,016	-0,019
-348,708	-49,462	0,087	-0,030
-347,693	-200,000	-0,007	-0,041
-346,679	-28,764	0,044	0,019
-345,664	-200,000	0,005	-0,041
-344,650	142,515	0,043	0,041
-343,635	766,650	0,062	-0,123
-342,620	60,637	0,109	-0,079
-341,606	135,531	0,095	0,091
-340,591	121,202	0,107	0,097
-339,577	-200,000	-0,024	0,234
-338,562	3,238	-0,096	0,051
-337,548	800,000	0,049	-0,136
-336,533	172,000	0,087	0,092
-335,518	514,475	0,036	0,061
-334,504	171,230	-0,029	0,031
-333,489	38,235	0,035	-0,023
-332,475	-200,000	0,008	-0,043
-331,460	-200,000	0,002	-0,080
-330,445	-131,347	0,062	-0,006
-329,431	104,577	0,036	-0,031
-328,416	34,875	-0,061	0,039
-327,402	332,846	0,067	0,095
-326,387	800,000	-0,084	0,194
-325,372	-143,032	0,088	-0,006
-324,358	659,683	-0,021	0,039
-323,343	-108,530	0,161	0,025
-322,329	124,541	0,127	-0,117
-321,314	-42,043	0,167	-0,062
-320,299	-58,761	0,104	0,033
-319,285	54,831	-0,040	-0,028
-318,270	-19,469	0,101	-0,046
-317,256	216,823	-0,115	-0,135
-316,241	-124,669	-0,076	0,008
-315,226	88,916	0,050	-0,041
-314,212	800,000	-0,016	0,039
-313,197	-200,000	-0,002	0,039
-312,183	385,269	0,107	0,163
-311,168	88,503	-0,175	0,142
-310,153	142,766	-0,057	0,055
-309,139	560,109	0,038	-0,068
-308,124	24,620	0,054	-0,032
-307,110	-200,000	0,027	0,092
-306,095	68,402	0,103	0,077
-305,080	-98,542	0,141	0,026
-304,066	-11,510	-0,092	-0,044
-303,051	-93,072	0,099	-0,020
-302,037	211,164	-0,038	-0,044
-301,022	-200,000	0,002	0,027
-300,008	201,979	0,053	0,060
-298,993	800,000	0,030	0,077
-297,978	46,551	-0,013	-0,009
-296,964	343,446	0,061	0,088
-295,949	-79,661	-0,139	0,034
-294,935	58,904	0,102	0,073
-293,920	-5,432	-0,042	0,021
-292,905	39,752	0,129	-0,085
-291,891	-200,000	0,021	0,198
-290,876	-12,118	0,047	-0,023
-289,862	611,673	-0,028	-0,051
-288,847	-73,435	0,144	0,038
-287,832	-39,864	0,094	-0,036
-286,818	-200,000	0,002	0,029
-285,803	800,000	0,035	0,107
-284,789	91,944	-0,036	0,029
-283,774	41,991	0,187	0,124
-282,759	366,427	0,056	0,083
-281,745	800,000	-0,037	0,086
-280,730	-70,730	0,150	-0,041
-279,716	101,575	-0,020	-0,017
-278,701	-200,000	-0,009	0,075
-277,686	615,253	0,110	0,202
-276,672	277,848	-0,031	0,041
-275,657	-200,000	-0,013	0,050
-274,643	383,015	-0,081	-0,122
-273,628	-85,986	0,051	-0,012
-272,613	-14,206	0,056	0,026
-271,599	35,907	0,092	-0,059
-270,584	441,707	0,034	0,054
-269,570	263,836	-0,012	0,016
-268,555	-200,000	0,077	0,000
-267,540	-26,189	-0,147	0,063
-266,526	-200,000	0,011	-0,067
-265,511	328,958	0,080	0,112
-264,497	198,954	0,050	0,056
-263,482	-115,391	0,115	0,016
-262,467	-53,507	-0,042	0,014
-261,453	361,406	-0,093	0,136
-260,438	-200,000	0,007	0,206
-259,424	87,371	0,071	-0,057
-258,409	800,000	-0,011	-0,027
-257,395	-151,293	-0,033	0,002
-256,380	91,663	0,145	0,119
-255,365	-192,883	-0,027	-0,000
-254,351	-64,193	0,154	0,046
-253,336	-200,000	-0,045	-0,189
-252,322	641,469	-0,052	-0,097
-251,307	-200,000	0,014	-0,123
-250,292	-51,509	-0,055	-0,019
-249,278	647,095	0,020	-0,037
-248,263	-112,740	0,133	-0,019
-247,249	248,314	-0,079	-0,097
-246,234	-86,145	-0,143	-0,032
-245,219	267,736	-0,025	0,032
-244,205	41,674	-0,112	-0,074
-243,190	28,223	-0,068	-0,042
-242,176	-183,015	0,067	0,001
-241,161	255,860	0,089	0,112
-240,146	25,375	-0,037	0,022
-239,132	-200,000	0,026	0,103
-238,117	-200,000	-0,019	-0,070
-237,103	146,649	-0,051	-0,050
-236,088	800,000	-0,012	-0,026
-235,073	-14,368	0,069	0,033
-234,059	-200,000	-0,005	0,139
-233,044	122,480	0,055	0,050
-232,030	158,664	-0,063	0,063
-231,015	-139,176	0,099	0,008
-230,000	-200,000	-0,038	-0,219
-228,986	-65,944	0,155	0,045
-227,971	800,000	-0,040	-0,086
-226,957	591,068	-0,063	0,114
-225,942	-200,000	-0,019	0,097
-224,927	573,511	0,016	-0,028
-223,913	59,759	-0,092	-0,066
-222,898	64,009	0,035	0,026
-221,884	-161,809	-0,063	-0,002
-220,869	211,601	-0,054	-0,062
-219,855	169,634	0,091	0,095
-218,840	-200,000	-0,007	0,032
-217,825	47,101	0,101	-0,069
-216,811	455,533	-0,130	-0,211
-215,796	-200,000	-0,027	0,131
-214,782	-112,630	0,039	0,006
-213,767	3,048	-0,066	-0,035
-212,752	585,857	0,062	-0,112
-211,738	-144,747	0,031	-0,002
-210,723	-106,700	0,066	-0,011
-209,709	48,031	-0,071	0,048
-208,694	203,192	0,109	0,123
-207,679	286,022	-0,029	0,038
-206,665	328,990	0,032	-0,045
-205,650	-80,595	-0,054	0,013
-204,636	-50,373	0,129	0,044
-203,621	-200,000	-0,028	0,103
-202,606	-159,613	-0,059	-0,002
-201,592	1,651	-0,131	-0,069
-200,577	-200,000	-0,015	-0,234
-199,563	510,975	0,077	0,130
-198,548	-200,000	0,001	0,118
-197,533	-69,133	-0,095	-0,027
-196,519	-5,067	-0,055	-0,027
-195,504	800,000	-0,026	-0,056
-194,490	68,462	-0,091	0,068
-193,475	800,000	-0,016	0,034
-192,460	-200,000	-0,011	-0,079
-191,446	-200,000	-0,013	0,064
-190,431	159,202	-0,047	0,047
-189,417	104,992	0,123	-0,106
-188,402	-22,397	-0,031	0,014
-187,387	-200,000	0,004	0,024
-186,373	800,000	0,009	0,018
-185,358	-200,000	-0,004	-0,054
-184,344	486,981	0,050	-0,084
-183,329	-120,051	-0,024	0,003
-182,315	49,167	-0,043	-0,030
-181,300	-1,909	-0,062	0,032
-180,285	348,034	0,048	-0,069
-179,271	-200,000	-0,010	-0,106
-178,256	199,200	-0,013	-0,015
-177,242	800,000	-0,012	0,034
-176,227	-64,121	0,111	-0,033
-175,212	-36,957	0,020	0,008
-174,198	-112,286	-0,081	-0,012
-173,183	800,000	-0,029	-0,073
-172,169	-200,000	-0,022	0,153
-171,154	-169,307	-0,091	-0,002
-170,139	-200,000	0,015	0,059
-169,125	739,662	0,011	-0,021
-168,110	113,650	0,114	-0,101
-167,096	-200,000	-0,009	-0,076
-166,081	7,037	-0,055	-0,030
-165,066	-200,000	0,010	-0,048
-164,052	-58,778	0,042	0,013
-163,037	-3,098	-0,095	-0,048
-162,023	-50,909	0,158	-0,054
-161,008	343,714	0,064	-0,092
-159,993	-61,242	0,107	0,033
-158,979	-200,000	-0,008	-0,170
-157,964	133,832	0,017	-0,016
-156,950	-200,000	0,057	0,205
-155,935	-15,001	-0,049	-0,023
-154,920	800,000	-0,029	-0,064
-153,906	-57,779	-0,039	0,012
-152,891	-36,207	-0,081	0,032
-151,877	800,000	0,019	-0,050
-150,862	-29,045	-0,069	-0,029
-149,847	-200,000	0,005	-0,109
-148,833	120,588	-0,093	-0,084
-147,818	286,023	-0,054	0,072
-146,804	-144,411	-0,040	0,003
-145,789	-200,000	0,007	0,156
-144,775	-200,000	-0,006	0,033
-143,760	-200,000	-0,017	0,083
-142,745	543,038	-0,009	-0,016
-141,731	119,895	0,019	0,017
-140,716	800,000	0,058	0,133
-139,702	-200,000	-0,010	0,073
-138,687	-57,041	-0,010	0,003
-137,672	-84,786	-0,042	-0,009
-136,658	162,202	-0,061	0,062
-135,643	-33,037	-0,062	0,025
-134,629	-108,731	0,113	0,017
-133,614	272,105	0,072	-0,092
-132,599	243,908	-0,067	0,082
-131,585	-108,572	-0,160	0,025
-130,570	-200,000	-0,026	0,084
-129,556	-173,204	-0,147	-0,003
-128,541	499,881	0,033	-0,056
-127,526	800,000	0,005	0,010
-126,512	-65,047	0,057	0,017
-125,497	105,897	-0,038	0,032
-124,483	800,000	0,020	0,049
-123,468	-7,087	0,044	0,021
-122,453	432,816	-0,056	-0,088
-121,439	-95,883	0,045	0,009
-120,424	202,633	0,030	-0,033
-119,410	233,851	-0,044	-0,053
