DTS Sentinel unit serial number:	SN410029Multiplexer serial number:	ORYXHardware model number:	OX2-SRSoftware version number:	ORYX F/W v4,00 Oryx Data Collector v3.7.2.0data status	okinstallation	B6 Nyhavnadifferential loss correction	single-endedforward channel	channel 2reverse channel	N/Adate	2023/12/07time	18:40:08forward acquisition time	300,00reverse acquisition time	0,00gamma	499,1914k internal	0,3164k external	0,3164temperature offset calibration	1,0000default loss term (dB/km)	0,3820temperature slope calibration	1,0000multiplexer offset coefficient	1,0000multiplexer slope coefficient	1,0000fibre end	0,00T internal ref (°C)	14,20T ext. ref 1 (°C)	-2,79T ext. ref 2 (°C)	-2,80length (m)	temperature (°C)	Stokes	anti-Stokes-744,400	800,000	0,049	0,144
-743,385	-82,779	-0,276	0,065
-742,371	-81,903	0,069	0,017
-741,356	-117,677	-0,167	-0,022
-740,342	-200,000	0,105	0,000
-739,327	-133,150	-0,437	-0,040
-738,312	37,987	0,097	-0,063
-737,298	-78,276	-0,281	0,070
-736,283	545,283	0,047	0,083
-735,269	-3,492	-0,261	0,133
-734,254	-114,413	0,132	-0,018
-733,239	-9,210	-0,428	-0,210
-732,225	-182,559	0,151	0,002
-731,210	-200,000	-0,014	0,103
-730,196	-50,696	0,030	-0,010
-729,181	133,620	-0,030	0,028
-728,167	476,339	-0,053	-0,088
-727,152	-155,247	-0,194	-0,009
-726,137	774,630	-0,055	-0,112
-725,123	-84,592	-0,016	0,004
-724,108	244,396	-0,169	-0,209
-723,094	295,461	0,027	0,036
-722,079	800,000	-0,006	0,019
-721,064	313,510	-0,089	0,124
-720,050	285,447	0,109	-0,144
-719,035	-30,865	-0,172	0,071
-718,021	350,780	0,017	-0,025
-717,006	82,202	-0,060	-0,048
-715,991	595,864	-0,108	-0,197
-714,977	-200,000	0,032	0,153
-713,962	308,470	-0,072	-0,099
-712,948	-55,321	-0,061	0,020
-711,933	-65,620	0,111	-0,032
-710,918	36,022	0,046	-0,029
-709,904	148,488	0,072	0,071
-708,889	800,000	-0,071	-0,154
-707,875	766,267	-0,075	0,151
-706,860	-200,000	0,008	0,075
-705,845	-151,691	-0,066	0,003
-704,831	87,173	0,045	0,036
-703,816	282,932	-0,031	0,040
-702,802	440,708	-0,067	0,109
-701,787	72,657	0,041	-0,032
-700,772	101,062	-0,086	0,073
-699,758	35,453	0,035	0,023
-698,743	-200,000	0,005	-0,068
-697,729	-60,525	-0,097	-0,030
-696,714	-6,336	0,084	0,042
-695,699	28,488	0,004	0,003
-694,685	-6,758	0,049	-0,024
-693,670	-21,795	-0,142	0,063
-692,656	800,000	-0,018	-0,044
-691,641	-200,000	-0,021	-0,179
-690,627	134,651	0,048	-0,046
-689,612	-79,948	-0,015	0,004
-688,597	-200,000	0,006	0,073
-687,583	553,934	-0,043	-0,076
-686,568	800,000	-0,012	0,039
-685,554	-122,009	-0,093	-0,011
-684,539	-69,994	-0,053	0,015
-683,524	-196,513	-0,172	-0,001
-682,510	127,338	-0,025	-0,023
-681,495	-72,664	-0,012	-0,003
-680,481	138,797	-0,104	-0,100
-679,466	138,387	-0,105	-0,101
-678,451	71,269	-0,122	-0,093
-677,437	-200,000	-0,008	-0,087
-676,422	-200,000	-0,007	-0,093
-675,408	-100,911	-0,104	0,019
-674,393	-200,000	-0,002	0,052
-673,378	-123,157	-0,148	-0,017
-672,364	203,093	0,114	-0,129
-671,349	-150,925	-0,104	0,006
-670,335	-51,778	-0,062	0,021
-669,320	-1,562	0,099	-0,051
-668,305	774,845	0,030	0,061
-667,291	800,000	-0,005	0,010
-666,276	800,000	-0,039	-0,083
-665,262	-123,101	-0,184	0,021
-664,247	-200,000	0,016	0,143
-663,232	-200,000	0,015	-0,153
-662,218	-163,551	0,059	-0,002
-661,203	-73,682	-0,152	0,040
-660,189	35,755	0,129	0,083
-659,174	-122,305	-0,103	0,012
-658,159	-200,000	0,007	-0,027
-657,145	800,000	-0,014	0,040
-656,130	106,911	-0,078	-0,068
-655,116	80,632	0,006	0,005
-654,101	5,802	-0,140	0,076
-653,086	29,029	0,072	0,045
-652,072	-119,133	-0,159	0,020
-651,057	226,433	-0,068	0,081
-650,043	-178,926	0,085	-0,001
-649,028	50,312	0,094	0,065
-648,014	-200,000	0,021	-0,090
-646,999	730,577	0,029	0,057
-645,984	800,000	0,020	0,055
-644,970	-47,585	-0,083	-0,030
-643,955	405,642	-0,035	-0,054
-642,941	-113,434	-0,114	-0,016
-641,926	-130,318	0,121	0,012
-640,911	-99,388	0,050	0,009
-639,897	800,000	-0,070	0,147
-638,882	178,030	-0,057	0,061
-637,868	-200,000	-0,000	0,033
-636,853	-29,280	0,093	-0,039
-635,838	-90,060	0,085	-0,018
-634,824	-200,000	0,014	0,138
-633,809	30,882	0,144	0,090
-632,795	-51,999	-0,179	0,061
-631,780	-76,698	0,136	0,035
-630,765	110,664	-0,143	-0,126
-629,751	-23,761	-0,091	0,040
-628,736	73,496	-0,053	-0,041
-627,722	121,992	0,056	0,051
-626,707	800,000	-0,050	-0,127
-625,692	-51,988	-0,082	-0,028
-624,678	3,465	-0,061	0,033
-623,663	-160,771	-0,128	0,005
-622,649	-200,000	-0,031	-0,103
-621,634	-150,292	0,137	-0,008
-620,619	-169,684	-0,055	0,001
-619,605	126,473	-0,066	-0,062
-618,590	800,000	0,061	-0,134
-617,576	64,735	0,043	-0,032
-616,561	751,278	-0,007	0,015
-615,546	-57,473	0,133	-0,042
-614,532	-142,931	-0,050	0,003
-613,517	128,865	-0,108	-0,100
-612,503	-57,322	0,056	0,018
-611,488	699,386	0,098	-0,189
-610,474	-136,924	-0,107	0,009
-609,459	56,998	-0,060	-0,043
-608,444	800,000	-0,042	0,127
-607,430	-200,000	-0,009	-0,082
-606,415	462,708	0,019	-0,032
-605,401	-86,515	0,088	-0,020
-604,386	585,548	0,021	0,039
-603,371	284,157	0,078	0,103
-602,357	-139,630	-0,118	0,009
-601,342	-3,879	-0,061	0,031
-600,328	111,830	-0,085	-0,075
-599,313	-200,000	0,017	-0,185
-598,298	800,000	-0,045	-0,092
-597,284	-200,000	-0,007	0,043
-596,269	-200,000	-0,018	0,183
-595,255	-200,000	-0,004	-0,082
-594,240	83,853	-0,076	-0,060
-593,225	-200,000	0,016	-0,076
-592,211	162,727	-0,069	-0,070
-591,196	226,128	0,035	-0,042
-590,182	254,875	0,058	-0,073
-589,167	800,000	0,035	0,071
-588,152	-116,916	-0,049	-0,006
-587,138	253,561	0,059	-0,074
-586,123	146,465	-0,109	-0,108
-585,109	166,802	0,071	-0,074
-584,094	590,551	-0,084	-0,152
-583,079	-65,642	0,114	0,033
-582,065	-200,000	0,015	0,075
-581,050	800,000	0,015	0,034
-580,036	-35,495	-0,160	-0,063
-579,021	525,291	-0,063	-0,109
-578,006	-200,000	0,004	-0,035
-576,992	800,000	-0,047	-0,123
-575,977	-59,844	-0,053	-0,016
-574,963	-200,000	0,014	0,186
-573,948	-27,394	0,083	-0,035
-572,934	-72,075	-0,100	0,027
-571,919	-131,019	0,082	-0,008
-570,904	-102,194	-0,031	-0,005
-569,890	-178,276	-0,062	-0,001
-568,875	369,896	0,035	-0,052
-567,861	-142,919	-0,061	-0,004
-566,846	550,230	0,052	0,092
-565,831	-200,000	0,006	-0,022
-564,817	800,000	-0,038	-0,095
-563,802	-79,635	-0,052	-0,013
-562,788	-141,760	0,127	-0,009
-561,773	-30,968	-0,086	0,035
-560,758	51,727	-0,075	0,052
-559,744	-200,000	0,025	0,212
-558,729	-200,000	-0,015	-0,070
-557,715	-39,218	-0,036	-0,014
-556,700	800,000	-0,040	0,090
-555,685	-200,000	0,027	-0,137
-554,671	-200,000	0,008	0,059
-553,656	795,323	-0,056	0,113
-552,642	68,251	0,013	-0,010
-551,627	156,775	-0,068	0,069
-550,612	520,815	-0,047	-0,081
-549,598	414,183	-0,054	-0,084
-548,583	107,684	-0,069	-0,060
-547,569	800,000	-0,059	0,136
-546,554	-151,111	-0,120	-0,006
-545,539	330,831	0,027	0,038
-544,525	800,000	0,021	-0,046
-543,510	21,188	-0,060	-0,035
-542,496	800,000	-0,015	-0,036
-541,481	115,404	0,050	0,044
-540,466	487,238	0,066	0,110
-539,452	-85,579	0,087	-0,020
-538,437	-16,134	-0,039	0,018
-537,423	-185,440	0,066	-0,001
-536,408	405,974	-0,039	-0,060
-535,393	-200,000	-0,015	0,063
-534,379	55,405	-0,072	0,051
-533,364	-200,000	-0,008	-0,149
-532,350	125,815	-0,128	0,118
-531,335	-15,555	0,128	-0,060
-530,321	-3,960	-0,073	-0,037
-529,306	800,000	0,025	0,072
-528,291	-86,580	-0,135	0,030
-527,277	553,774	0,062	-0,109
-526,262	-73,479	-0,100	-0,026
-525,248	-200,000	-0,001	0,053
-524,233	131,040	0,048	0,045
-523,218	101,015	0,045	-0,038
-522,204	-200,000	-0,013	0,126
-521,189	-97,307	0,056	0,011
-520,175	-63,641	0,015	-0,005
-519,160	-200,000	0,076	-0,304
-518,145	6,678	0,086	0,046
-517,131	-200,000	0,025	0,217
-516,116	31,674	0,090	0,056
-515,102	12,200	-0,075	-0,042
-514,087	-200,000	0,013	-0,134
-513,072	800,000	-0,036	0,104
-512,058	355,678	-0,076	-0,110
-511,043	-151,449	0,110	0,006
-510,029	60,534	0,116	0,084
-509,014	-157,998	-0,093	0,004
-507,999	139,062	-0,031	-0,030
-506,985	-106,715	-0,072	0,012
-505,970	181,352	0,088	0,095
-504,956	-46,003	0,046	0,017
-503,941	-30,380	0,106	-0,044
-502,926	-198,085	0,112	0,000
-501,912	780,086	0,099	0,198
-500,897	-55,478	-0,124	0,040
-499,883	-122,049	-0,093	0,011
-498,868	800,000	0,016	-0,033
-497,853	-35,485	0,080	0,032
-496,839	304,472	0,012	0,016
-495,824	261,287	0,059	-0,075
-494,810	783,284	-0,072	0,145
-493,795	795,102	-0,066	0,134
-492,781	800,000	-0,019	0,055
-491,766	-148,622	-0,075	-0,004
-490,751	-44,483	0,073	0,026
-489,737	-35,278	0,052	-0,020
-488,722	797,761	-0,049	-0,099
-487,708	11,487	0,095	-0,053
-486,693	-107,505	0,035	0,006
-485,678	800,000	0,003	-0,008
-484,664	26,399	0,139	0,084
-483,649	3,119	-0,112	0,059
-482,635	800,000	-0,051	-0,145
-481,620	93,634	-0,048	0,040
-480,605	-133,083	-0,073	0,007
-479,591	-200,000	-0,003	0,139
-478,576	561,848	-0,076	-0,135
-477,562	-43,368	-0,049	-0,018
-476,547	-200,000	-0,030	-0,108
-475,532	229,911	0,075	-0,089
-474,518	-200,000	0,001	0,033
-473,503	-200,000	0,004	0,107
-472,489	421,463	0,028	0,044
-471,474	-200,000	0,030	0,110
-470,459	-69,024	-0,096	0,027
-469,445	258,936	-0,102	0,128
-468,430	-200,000	-0,013	0,100
-467,416	-200,000	-0,068	0,253
-466,401	334,890	0,113	0,160
-465,386	300,734	0,089	0,119
-464,372	-83,804	0,089	0,021
-463,357	-106,212	-0,219	-0,035
-462,343	-200,000	-0,015	-0,166
-461,328	46,333	-0,073	-0,049
-460,313	-66,351	0,126	0,036
-459,299	-200,000	0,032	0,109
-458,284	740,040	0,066	0,129
-457,270	224,985	-0,051	-0,060
-456,255	-129,863	0,201	-0,020
-455,241	-93,435	-0,129	0,026
-454,226	800,000	-0,032	-0,084
-453,211	105,304	-0,024	-0,020
-452,197	209,290	0,050	0,057
-451,182	-200,000	0,032	-0,162
-450,168	116,272	0,087	-0,077
-449,153	-19,012	-0,072	-0,032
-448,138	58,965	0,039	-0,028
-447,124	800,000	-0,035	0,082
-446,109	800,000	0,038	0,112
-445,095	691,482	-0,035	0,067
-444,080	11,080	0,052	0,029
-443,065	800,000	-0,010	-0,024
-442,051	212,320	0,037	0,043
-441,036	-172,647	0,030	0,001
-440,022	-200,000	0,001	-0,116
-439,007	97,797	-0,032	0,027
-437,992	-200,000	-0,009	-0,033
-436,978	-118,319	0,106	0,014
-435,963	-113,938	-0,127	0,018
-434,949	247,271	0,036	0,044
-433,934	14,038	-0,076	0,043
-432,919	-99,028	-0,179	0,033
-431,905	133,244	0,095	-0,090
-430,890	82,875	0,013	-0,010
-429,876	190,210	-0,059	-0,064
-428,861	88,186	0,044	0,035
-427,846	-138,256	-0,125	-0,010
-426,832	128,380	0,027	-0,025
-425,817	395,044	-0,037	-0,056
-424,803	800,000	0,015	0,039
-423,788	800,000	-0,029	-0,077
-422,773	389,103	0,088	0,133
-421,759	-200,000	0,004	-0,072
-420,744	-200,000	0,011	-0,244
-419,730	-0,752	0,051	-0,026
-418,715	-200,000	0,033	-0,130
-417,701	356,552	-0,045	-0,065
-416,686	-114,036	0,071	0,010
-415,671	-44,768	0,044	0,016
-414,657	-168,400	0,141	-0,004
-413,642	-200,000	0,016	-0,098
-412,628	0,878	0,132	0,069
-411,613	-68,598	-0,015	0,004
-410,598	28,313	-0,106	0,065
-409,584	-29,708	0,070	0,029
-408,569	-61,251	0,131	-0,040
-407,555	104,578	0,028	-0,024
-406,540	197,141	-0,013	-0,014
-405,525	-200,000	0,014	-0,114
-404,511	-200,000	-0,014	-0,166
-403,496	800,000	0,021	-0,045
-402,482	-26,760	-0,114	0,048
-401,467	-200,000	-0,008	0,079
-400,452	25,630	0,121	0,073
-399,438	-200,000	-0,004	-0,173
-398,423	-44,178	-0,101	0,037
-397,409	187,819	0,126	-0,137
-396,394	-200,000	-0,025	-0,138
-395,379	56,189	0,044	0,031
-394,365	-200,000	0,015	-0,094
-393,350	-2,991	-0,101	0,051
-392,336	232,056	0,051	0,061
-391,321	-122,501	-0,065	-0,008
-390,306	444,793	-0,015	-0,023
-389,292	252,054	0,029	0,036
-388,277	515,856	-0,052	-0,089
-387,263	459,981	0,032	0,053
-386,248	-200,000	0,001	-0,008
-385,233	-78,483	-0,083	-0,020
-384,219	800,000	0,031	-0,086
-383,204	-49,976	-0,093	-0,032
-382,190	800,000	0,030	-0,075
-381,175	-200,000	-0,017	0,147
-380,160	379,920	0,050	0,074
-379,146	-56,507	-0,067	0,021
-378,131	800,000	0,020	0,044
-377,117	-200,000	0,006	0,115
-376,102	144,072	0,018	0,017
-375,088	800,000	0,004	-0,012
-374,073	176,332	-0,051	0,053
-373,058	-200,000	0,016	0,069
-372,044	699,638	0,037	0,071
-371,029	101,496	0,167	0,141
-370,015	-75,492	0,037	0,010
-369,000	-20,727	-0,153	-0,068
-367,985	433,840	-0,050	-0,079
-366,971	114,277	-0,068	-0,060
-365,956	109,266	0,034	-0,030
-364,942	16,529	0,100	0,057
-363,927	253,090	0,059	-0,073
-362,912	19,553	-0,062	-0,036
-361,898	-200,000	-0,002	-0,029
-360,883	62,572	-0,104	-0,075
-359,869	58,976	0,120	0,085
-358,854	800,000	0,033	-0,090
-357,839	21,754	0,030	-0,018
-356,825	676,858	0,026	-0,049
-355,810	164,243	0,094	-0,096
-354,796	-200,000	0,034	0,169
-353,781	22,914	-0,069	-0,041
-352,766	-200,000	0,001	-0,074
-351,752	-200,000	-0,055	-0,252
-350,737	186,244	-0,114	0,124
-349,723	23,649	-0,058	-0,034
-348,708	82,693	0,116	-0,091
-347,693	800,000	-0,030	-0,078
-346,679	659,633	-0,087	-0,162
-345,664	800,000	-0,051	-0,122
-344,650	6,699	0,041	-0,022
-343,635	-200,000	0,006	-0,094
-342,620	-101,784	0,095	-0,016
-341,606	-23,709	0,051	0,022
-340,591	67,962	0,075	0,056
-339,577	-200,000	0,000	0,001
-338,562	92,476	-0,097	0,079
-337,548	-200,000	0,003	0,047
-336,533	-65,643	0,140	-0,040
-335,518	-200,000	0,019	0,067
-334,504	800,000	0,018	-0,043
-333,489	-200,000	-0,003	-0,089
-332,475	3,863	0,059	0,031
-331,460	800,000	-0,070	0,157
-330,445	-200,000	0,021	0,161
-329,431	297,256	0,021	-0,027
-328,416	297,240	0,018	0,024
-327,402	113,688	-0,094	0,083
-326,387	274,618	0,054	0,069
-325,372	-143,992	-0,025	0,002
-324,358	-200,000	-0,009	-0,034
-323,343	9,137	-0,107	0,058
-322,329	800,000	0,034	-0,096
-321,314	350,215	0,065	0,093
-320,299	800,000	0,015	0,042
-319,285	-38,005	-0,029	0,011
-318,270	-69,377	-0,054	-0,015
-317,256	-117,875	0,092	-0,012
-316,241	243,838	-0,088	0,107
-315,226	-200,000	0,030	0,186
-314,212	-200,000	0,001	-0,016
-313,197	800,000	-0,024	0,049
-312,183	139,417	0,062	-0,059
-311,168	-138,802	-0,141	-0,011
-310,153	-80,559	0,033	-0,008
-309,139	-200,000	0,022	-0,081
-308,124	-147,206	0,091	0,006
-307,110	-174,087	0,090	0,002
-306,095	-175,305	-0,082	-0,002
-305,080	-19,604	0,085	0,038
-304,066	189,295	-0,016	-0,017
-303,051	800,000	0,055	-0,154
-302,037	800,000	-0,025	-0,063
-301,022	556,819	-0,025	-0,044
-300,008	-200,000	-0,018	0,184
-298,993	42,731	0,156	-0,102
-297,978	-106,625	0,042	0,007
-296,964	-200,000	-0,002	-0,181
-295,949	-194,119	-0,144	-0,001
-294,935	200,998	0,135	-0,150
-293,920	-200,000	-0,008	-0,033
-292,905	14,035	-0,076	0,042
-291,891	-200,000	0,038	0,132
-290,876	-200,000	0,006	-0,059
-289,862	74,939	-0,018	-0,014
-288,847	90,143	-0,069	0,056
-287,832	245,131	-0,086	-0,105
-286,818	-200,000	0,004	-0,052
-285,803	-200,000	0,023	0,082
-284,789	62,858	-0,079	-0,057
-283,774	800,000	-0,028	0,086
-282,759	122,512	-0,083	0,075
-281,745	738,001	-0,031	0,060
-280,730	65,480	-0,097	0,071
-279,716	-88,348	0,074	0,016
-278,701	-54,637	0,086	-0,028
-277,686	39,658	0,143	0,092
-276,672	-4,799	0,030	-0,015
-275,657	-200,000	-0,002	0,019
-274,643	182,933	-0,075	-0,080
-273,628	603,515	0,045	-0,082
-272,613	-116,060	0,106	-0,014
-271,599	800,000	0,030	0,080
-270,584	800,000	0,041	0,097
-269,570	-200,000	-0,009	0,056
-268,555	-25,194	-0,085	-0,036
-267,540	800,000	-0,028	-0,064
-266,526	70,009	-0,023	0,017
-265,511	-75,356	0,067	-0,017
-264,497	-54,880	0,016	-0,005
-263,482	-97,278	0,172	-0,032
-262,467	-200,000	-0,011	0,075
-261,453	4,801	0,060	-0,032
-260,438	-200,000	0,014	-0,101
-259,424	294,015	-0,037	-0,049
-258,409	0,792	-0,035	0,018
-257,395	73,117	0,091	0,068
-256,380	-6,641	0,106	0,052
-255,365	-200,000	-0,004	0,034
-254,351	372,759	-0,086	0,127
-253,336	800,000	-0,049	-0,105
-252,322	325,729	-0,042	-0,058
-251,307	105,233	-0,088	-0,075
-250,292	-200,000	-0,002	0,107
-249,278	115,828	-0,092	-0,081
-248,263	-125,441	-0,039	0,004
-247,249	800,000	-0,008	-0,020
-246,234	-157,699	-0,216	0,009
-245,219	78,789	-0,097	0,075
-244,205	-200,000	0,001	0,018
-243,190	-154,640	0,056	-0,003
-242,176	-200,000	0,001	0,040
-241,161	800,000	-0,072	0,146
-240,146	-200,000	0,019	0,128
-239,132	800,000	0,005	-0,013
-238,117	116,507	-0,126	-0,112
-237,103	-200,000	0,009	-0,067
-236,088	359,324	0,057	0,082
-235,073	-172,276	-0,061	-0,001
-234,059	4,861	-0,004	-0,002
-233,044	60,221	-0,026	-0,018
-232,030	-31,059	-0,081	0,033
-231,015	800,000	0,059	-0,140
-230,000	-200,000	0,004	-0,111
-228,986	-113,812	0,035	-0,005
-227,971	-82,918	0,037	-0,009
-226,957	-200,000	0,023	0,094
-225,942	800,000	-0,031	-0,073
-224,927	-200,000	0,004	0,084
-223,913	423,415	-0,061	-0,094
-222,898	-66,526	-0,053	0,015
-221,884	72,781	-0,058	0,044
-220,869	103,678	0,128	0,108
-219,855	45,502	0,053	0,035
-218,840	-25,894	0,185	0,078
-217,825	69,000	-0,031	-0,023
-216,811	-126,101	0,071	-0,008
-215,796	23,064	0,079	0,046
-214,782	800,000	-0,035	0,080
-213,767	171,120	-0,041	-0,043
-212,752	36,929	0,146	0,093
-211,738	256,325	0,029	-0,036
-210,723	408,218	0,018	0,028
-209,709	336,304	0,045	-0,063
-208,694	-117,865	-0,030	-0,004
-207,679	-200,000	0,026	-0,104
-206,665	258,317	-0,009	-0,011
-205,650	10,730	0,099	-0,054
-204,636	-200,000	0,034	-0,114
-203,621	-200,000	-0,006	0,099
-202,606	20,153	0,056	-0,033
-201,592	800,000	-0,057	-0,119
-200,577	7,525	0,019	0,010
-199,563	210,614	0,035	0,040
-198,548	-200,000	-0,007	0,042
-197,533	800,000	-0,046	0,113
-196,519	-124,497	-0,118	0,013
-195,504	-200,000	-0,026	-0,088
-194,490	312,371	0,072	-0,097
-193,475	-200,000	-0,004	0,130
-192,460	-200,000	0,038	-0,136
-191,446	-66,583	-0,007	-0,002
-190,431	258,239	0,086	0,107
-189,417	-131,871	-0,071	0,007
-188,402	138,326	0,088	0,083
-187,387	-13,546	0,110	0,051
-186,373	-49,001	-0,045	-0,015
-185,358	-130,658	0,080	-0,008
-184,344	545,486	0,065	0,112
-183,329	-46,707	0,110	-0,039
-182,315	84,279	0,070	0,055
-181,300	88,118	-0,122	0,097
-180,285	-200,000	0,009	-0,064
-179,271	155,724	-0,047	0,047
-178,256	10,066	-0,045	-0,025
-177,242	-9,384	-0,008	-0,004
-176,227	-54,474	-0,138	0,045
-175,212	-68,080	-0,028	-0,008
-174,198	-26,405	-0,145	-0,061
-173,183	-200,000	-0,012	-0,160
-172,169	227,035	-0,044	-0,051
-171,154	590,111	0,032	0,057
-170,139	-137,757	0,059	-0,005
-169,125	800,000	0,037	0,083
-168,110	306,163	0,093	-0,125
-167,096	-200,000	0,015	0,146
-166,081	-101,026	0,056	0,010
-165,066	563,127	-0,040	-0,069
-164,052	-142,933	0,075	-0,005
-163,037	800,000	-0,051	0,112
-162,023	800,000	-0,049	0,112
-161,008	293,902	-0,038	0,051
-159,993	181,069	0,040	0,042
-158,979	212,553	0,020	0,023
-157,964	51,205	-0,016	-0,011
-156,950	-32,349	0,026	0,010
-155,935	40,988	-0,053	0,034
-154,920	-96,110	-0,038	-0,007
-153,906	-200,000	-0,018	0,063
-152,891	-166,520	0,098	-0,003
-151,877	800,000	0,020	-0,042
-150,862	-200,000	0,003	0,102
-149,847	-111,804	-0,092	0,013
-148,833	234,823	0,107	0,127
-147,818	800,000	-0,062	-0,143
-146,804	800,000	0,061	0,139
-145,789	-117,174	-0,076	0,010
-144,775	61,896	-0,069	0,049
-143,760	-56,551	0,084	-0,027
-142,745	-81,365	-0,089	-0,021
-141,731	14,728	-0,083	-0,047
-140,716	-200,000	0,024	0,115
-139,702	94,484	0,031	0,025
-138,687	214,011	-0,063	-0,072
-137,672	144,870	-0,065	-0,063
-136,658	603,361	0,048	0,087
-135,643	-111,304	-0,050	-0,007
-134,629	-131,715	-0,082	-0,008
-133,614	-200,000	-0,007	-0,088
-132,599	-124,640	0,075	-0,008
-131,585	-104,669	-0,125	0,021
-130,570	-13,679	0,070	0,033
-129,556	800,000	-0,053	-0,119
-128,541	17,875	-0,082	-0,047
-127,526	285,800	-0,051	-0,066
-126,512	-106,465	0,075	-0,012
-125,497	-69,591	-0,152	-0,041
-124,483	50,131	-0,023	0,015
-123,468	-13,378	0,072	-0,033
-122,453	310,858	0,024	-0,033
-121,439	-200,000	-0,003	-0,053
-120,424	-200,000	0,015	0,096
-119,410	800,000	-0,015	-0,039
