DTS Sentinel unit serial number:	SN410029Multiplexer serial number:	ORYXHardware model number:	OX2-SRSoftware version number:	ORYX F/W v4,00 Oryx Data Collector v3.7.2.0data status	okinstallation	B6 Nyhavnadifferential loss correction	single-endedforward channel	channel 2reverse channel	N/Adate	2023/12/09time	02:45:08forward acquisition time	300,00reverse acquisition time	0,00gamma	499,1914k internal	0,3154k external	0,3154temperature offset calibration	1,0000default loss term (dB/km)	0,3820temperature slope calibration	1,0000multiplexer offset coefficient	1,0000multiplexer slope coefficient	1,0000fibre end	0,00T internal ref (°C)	16,07T ext. ref 1 (°C)	-0,14T ext. ref 2 (°C)	-0,15length (m)	temperature (°C)	Stokes	anti-Stokes-744,400	-200,000	0,012	0,052
-743,385	-89,351	-0,425	0,092
-742,371	-48,904	0,154	0,054
-741,356	-48,151	-0,282	0,100
-740,342	-122,835	0,133	-0,016
-739,327	-200,000	-0,229	-0,001
-738,312	-168,951	0,115	-0,003
-737,298	-7,261	-0,321	-0,160
-736,283	-159,820	0,008	-0,000
-735,269	-83,439	-0,168	-0,039
-734,254	24,708	0,064	-0,039
-733,239	26,183	-0,429	-0,264
-732,225	9,202	0,147	-0,082
-731,210	2,380	0,173	0,092
-730,196	179,485	-0,079	-0,085
-729,181	273,803	-0,075	0,098
-728,167	-200,000	-0,011	-0,095
-727,152	294,404	0,042	-0,057
-726,137	19,913	-0,132	0,078
-725,123	-200,000	0,019	-0,107
-724,108	-113,527	-0,100	-0,014
-723,094	19,251	-0,091	-0,054
-722,079	-52,374	-0,138	0,047
-721,064	-60,702	-0,042	0,013
-720,050	111,862	0,113	0,100
-719,035	-132,269	0,038	0,004
-718,021	7,454	0,033	-0,018
-717,006	186,033	0,061	-0,067
-715,991	-108,990	-0,205	-0,032
-714,977	-145,280	-0,152	-0,010
-713,962	41,614	-0,056	0,037
-712,948	-200,000	-0,030	0,151
-711,933	-200,000	0,001	0,053
-710,918	55,254	0,051	-0,037
-709,904	-128,109	0,087	-0,009
-708,889	-200,000	-0,009	-0,078
-707,875	-200,000	-0,019	-0,137
-706,860	-200,000	0,001	-0,020
-705,845	-116,258	-0,008	0,001
-704,831	-200,000	0,016	0,076
-703,816	438,683	-0,047	0,075
-702,802	-49,781	-0,109	0,038
-701,787	-200,000	-0,008	-0,158
-700,772	800,000	-0,020	0,063
-699,758	800,000	0,027	-0,073
-698,743	-200,000	-0,000	0,029
-697,729	-34,984	0,039	0,016
-696,714	422,721	0,066	0,104
-695,699	800,000	-0,026	0,064
-694,685	-149,494	-0,131	0,008
-693,670	-200,000	0,019	-0,103
-692,656	-145,205	0,084	-0,006
-691,641	777,309	-0,073	-0,148
-690,627	319,133	0,057	0,080
-689,612	-56,760	-0,060	0,019
-688,597	31,284	0,031	0,019
-687,583	-35,673	-0,088	-0,035
-686,568	-134,836	0,046	0,004
-685,554	94,979	0,057	-0,048
-684,539	39,709	0,081	0,053
-683,524	-200,000	-0,025	-0,135
-682,510	11,983	-0,122	-0,069
-681,495	73,216	0,063	-0,048
-680,481	-132,077	-0,076	0,007
-679,466	-200,000	-0,019	-0,106
-678,451	106,037	0,105	-0,091
-677,437	243,546	0,051	0,064
-676,422	29,650	-0,122	-0,076
-675,408	-30,748	-0,049	0,020
-674,393	-84,005	-0,088	-0,020
-673,378	-200,000	0,005	0,023
-672,364	112,867	-0,080	0,071
-671,349	-82,494	-0,212	-0,050
-670,335	-176,729	-0,093	0,002
-669,320	-151,173	-0,032	0,002
-668,305	-83,235	-0,095	-0,022
-667,291	800,000	0,076	-0,158
-666,276	-90,370	-0,201	0,043
-665,262	-200,000	0,017	0,086
-664,247	7,278	-0,119	-0,065
-663,232	-129,719	0,153	-0,015
-662,218	-36,613	0,118	0,047
-661,203	-200,000	0,000	-0,052
-660,189	800,000	0,030	0,066
-659,174	-200,000	0,001	-0,076
-658,159	628,712	0,011	-0,020
-657,145	800,000	-0,060	-0,138
-656,130	-139,003	0,119	0,009
-655,116	-162,565	0,051	-0,002
-654,101	-200,000	0,018	0,083
-653,086	7,793	0,157	-0,086
-652,072	-17,468	-0,045	-0,021
-651,057	-3,095	-0,139	-0,071
-650,043	-124,729	0,141	-0,016
-649,028	583,514	-0,062	0,113
-648,014	92,915	0,060	-0,050
-646,999	-139,660	0,073	-0,006
-645,984	800,000	0,024	0,063
-644,970	-134,271	0,009	-0,001
-643,955	-45,694	-0,039	-0,014
-642,941	800,000	0,014	0,029
-641,926	800,000	-0,057	-0,124
-640,911	-13,207	0,078	0,037
-639,897	11,972	-0,046	-0,026
-638,882	301,931	0,031	-0,043
-637,868	280,304	0,065	-0,086
-636,853	800,000	-0,025	-0,060
-635,838	-93,532	0,155	-0,031
-634,824	-200,000	0,009	-0,102
-633,809	-115,254	0,226	-0,031
-632,795	543,904	-0,064	0,113
-631,780	-200,000	0,015	-0,073
-630,765	13,913	0,116	-0,066
-629,751	-200,000	-0,001	-0,020
-628,736	800,000	-0,065	-0,196
-627,722	175,144	-0,060	-0,064
-626,707	800,000	-0,021	0,055
-625,692	-71,799	0,019	-0,005
-624,678	110,134	0,102	-0,090
-623,663	800,000	0,026	-0,080
-622,649	-52,335	-0,022	-0,007
-621,634	-200,000	-0,001	-0,044
-620,619	800,000	-0,027	0,065
-619,605	156,889	0,046	0,047
-618,590	178,630	-0,043	0,047
-617,576	342,069	0,043	0,062
-616,561	-200,000	0,023	-0,114
-615,546	800,000	-0,024	-0,060
-614,532	119,502	-0,113	-0,102
-613,517	800,000	0,028	0,058
-612,503	-24,965	-0,042	-0,018
-611,488	563,793	0,063	0,113
-610,474	-88,391	-0,084	0,018
-609,459	-46,141	0,067	0,024
-608,444	199,934	-0,120	0,135
-607,430	-35,587	-0,051	0,020
-606,415	-115,472	-0,143	0,020
-605,401	46,396	-0,061	0,041
-604,386	56,467	-0,077	-0,055
-603,371	41,614	0,053	0,035
-602,357	51,766	0,031	0,022
-601,342	196,228	-0,070	0,078
-600,328	5,001	-0,098	-0,053
-599,313	53,434	-0,061	-0,043
-598,298	12,936	0,134	0,076
-597,284	800,000	-0,015	-0,046
-596,269	-200,000	-0,017	-0,055
-595,255	-71,873	-0,096	-0,026
-594,240	-62,212	-0,099	-0,030
-593,225	-200,000	-0,044	-0,193
-592,211	-200,000	-0,044	-0,215
-591,196	336,337	0,051	0,073
-590,182	116,654	0,057	-0,051
-589,167	580,531	-0,049	0,088
-588,152	212,517	0,034	-0,040
-587,138	188,265	0,056	-0,062
-586,123	171,346	-0,072	0,076
-585,109	-42,875	-0,051	-0,019
-584,094	800,000	-0,025	0,067
-583,079	800,000	-0,051	0,130
-582,065	605,181	0,075	-0,138
-581,050	-200,000	0,031	0,121
-580,036	-60,435	-0,098	-0,030
-579,021	-200,000	-0,001	-0,019
-578,006	800,000	-0,042	-0,089
-576,992	81,942	0,031	0,025
-575,977	-200,000	-0,021	-0,097
-574,963	-14,424	0,071	0,033
-573,948	-200,000	0,020	-0,108
-572,934	-177,413	-0,005	0,000
-571,919	248,982	0,056	0,070
-570,904	167,752	-0,045	0,047
-569,890	-83,120	0,123	0,029
-568,875	-200,000	0,009	-0,060
-567,861	800,000	0,052	0,167
-566,846	603,752	0,049	-0,089
-565,831	-88,822	-0,072	0,016
-564,817	-200,000	0,016	0,059
-563,802	-200,000	-0,001	-0,155
-562,788	271,892	-0,096	-0,125
-561,773	117,409	0,087	-0,079
-560,758	198,986	-0,066	-0,074
-559,744	800,000	0,019	0,040
-558,729	-200,000	-0,006	-0,024
-557,715	630,434	0,035	-0,064
-556,700	746,884	-0,030	-0,059
-555,685	800,000	0,029	-0,067
-554,671	105,332	-0,117	0,101
-553,656	122,796	-0,026	0,024
-552,642	-143,556	0,110	-0,008
-551,627	46,832	-0,113	0,077
-550,612	-200,000	-0,002	0,011
-549,598	800,000	-0,022	-0,065
-548,583	33,754	-0,172	-0,109
-547,569	-200,000	-0,014	0,089
-546,554	-54,011	-0,047	-0,016
-545,539	-52,952	0,147	0,049
-544,525	230,463	0,097	0,116
-543,510	800,000	-0,019	0,057
-542,496	-72,677	-0,065	-0,018
-541,481	81,586	-0,111	-0,088
-540,466	-187,120	0,032	0,000
-539,452	-200,000	0,016	0,093
-538,437	-200,000	-0,016	-0,100
-537,423	-144,271	-0,077	-0,005
-536,408	118,994	-0,125	-0,113
-535,393	-200,000	0,008	-0,060
-534,379	-200,000	0,008	0,029
-533,364	800,000	-0,027	-0,071
-532,350	-122,443	-0,056	0,007
-531,335	800,000	-0,019	-0,051
-530,321	557,709	-0,021	0,037
-529,306	16,904	0,066	-0,038
-528,291	-200,000	0,017	-0,109
-527,277	-200,000	-0,004	-0,135
-526,262	187,027	0,004	0,005
-525,248	-93,442	0,061	-0,012
-524,233	800,000	0,036	0,105
-523,218	130,664	-0,051	0,048
-522,204	305,576	-0,020	-0,027
-521,189	-38,462	-0,086	-0,033
-520,175	142,315	0,015	-0,014
-519,160	-150,529	-0,053	0,003
-518,145	-3,224	0,074	-0,037
-517,131	12,421	-0,007	-0,004
-516,116	-200,000	-0,043	0,168
-515,102	-200,000	0,001	0,034
-514,087	10,143	0,061	0,034
-513,072	800,000	0,038	0,106
-512,058	-200,000	0,033	-0,218
-511,043	-156,962	0,094	0,004
-510,029	-4,478	0,098	0,049
-509,014	-200,000	0,017	0,080
-507,999	539,028	0,057	-0,100
-506,985	161,430	0,083	-0,085
-505,970	-32,351	-0,045	-0,018
-504,956	800,000	-0,056	0,137
-503,941	-200,000	0,021	-0,070
-502,926	-95,707	0,078	0,015
-501,912	800,000	-0,018	0,043
-500,897	11,466	0,114	0,064
-499,883	-65,070	-0,082	-0,024
-498,868	211,684	0,063	-0,073
-497,853	41,550	0,094	-0,062
-496,839	116,509	0,059	0,053
-495,824	-49,607	-0,056	0,019
-494,810	-200,000	0,026	0,167
-493,795	428,371	-0,040	0,064
-492,781	122,050	-0,046	0,042
-491,766	7,625	0,053	-0,029
-490,751	-200,000	0,036	-0,141
-489,737	296,329	-0,056	-0,075
-488,722	319,015	-0,069	-0,095
-487,708	137,459	0,045	0,043
-486,693	-200,000	-0,013	0,068
-485,678	89,884	0,114	-0,093
-484,664	-200,000	-0,033	-0,126
-483,649	-132,789	0,029	-0,003
-482,635	653,503	-0,066	-0,124
-481,620	5,555	-0,064	0,034
-480,605	800,000	0,033	0,069
-479,591	800,000	-0,026	0,059
-478,576	-111,608	0,067	0,010
-477,562	-118,252	-0,055	-0,007
-476,547	-120,375	-0,152	-0,019
-475,532	559,041	-0,035	0,062
-474,518	5,481	0,038	-0,020
-473,503	-200,000	0,025	0,087
-472,489	-130,956	0,061	0,006
-471,474	387,155	-0,031	0,047
-470,459	167,504	-0,122	-0,126
-469,445	-200,000	0,007	-0,133
-468,430	143,030	0,094	-0,091
-467,416	800,000	-0,039	-0,114
-466,401	-14,008	-0,073	0,034
-465,386	-155,470	-0,045	-0,002
-464,372	-200,000	0,002	-0,038
-463,357	-200,000	-0,011	0,118
-462,343	165,816	-0,031	0,032
-461,328	-200,000	-0,016	-0,102
-460,313	-13,719	-0,062	-0,029
-459,299	-58,800	0,118	0,037
-458,284	304,823	-0,060	0,081
-457,270	800,000	-0,069	0,210
-456,255	-165,851	-0,074	0,002
-455,241	-200,000	0,001	0,016
-454,226	800,000	-0,020	-0,053
-453,211	-73,234	0,052	-0,014
-452,197	73,264	0,027	-0,021
-451,182	-116,227	-0,107	-0,014
-450,168	419,488	0,008	-0,013
-449,153	11,316	-0,108	-0,060
-448,138	-200,000	0,033	-0,114
-447,124	-181,475	0,086	-0,001
-446,109	24,509	0,057	-0,034
-445,095	17,971	0,092	0,053
-444,080	60,800	0,058	0,042
-443,065	74,635	-0,056	0,043
-442,051	6,935	0,034	-0,018
-441,036	-200,000	0,024	-0,093
-440,022	-200,000	-0,011	0,056
-439,007	-200,000	0,002	-0,019
-437,992	92,241	0,041	0,034
-436,978	-200,000	-0,004	0,055
-435,963	-179,868	0,112	-0,002
-434,949	-126,305	0,084	0,009
-433,934	319,396	-0,034	0,047
-432,919	-200,000	0,043	-0,178
-431,905	-200,000	0,013	-0,063
-430,890	98,086	0,107	-0,090
-429,876	40,289	-0,016	-0,011
-428,861	-96,656	0,075	0,014
-427,846	33,974	-0,029	-0,018
-426,832	159,220	-0,032	-0,032
-425,817	-81,481	0,116	0,028
-424,803	800,000	-0,015	0,033
-423,788	800,000	-0,007	0,019
-422,773	-200,000	0,000	-0,080
-421,759	39,253	0,056	0,037
-420,744	-68,538	0,191	-0,054
-419,730	688,526	-0,036	0,070
-418,715	-35,663	-0,107	0,042
-417,701	87,655	0,052	0,042
-416,686	800,000	-0,045	0,111
-415,671	-138,086	0,209	-0,017
-414,657	-29,456	0,151	-0,063
-413,642	531,104	-0,037	0,064
-412,628	800,000	0,041	-0,100
-411,613	161,098	0,055	0,056
-410,598	789,356	-0,031	0,062
-409,584	800,000	0,014	0,038
-408,569	-42,188	0,057	0,021
-407,555	-110,984	0,110	-0,016
-406,540	186,712	-0,093	0,101
-405,525	65,450	-0,065	-0,048
-404,511	-200,000	0,007	0,043
-403,496	341,990	0,007	0,010
-402,482	-200,000	-0,017	-0,116
-401,467	118,160	0,183	-0,164
-400,452	65,035	-0,080	0,059
-399,438	363,637	-0,037	0,054
-398,423	800,000	-0,059	0,124
-397,409	-152,576	-0,149	-0,008
-396,394	280,692	-0,114	-0,149
-395,379	-200,000	0,014	-0,045
-394,365	-41,723	0,178	-0,066
-393,350	-24,239	-0,095	0,041
-392,336	-17,003	0,160	-0,073
-391,321	113,108	0,086	-0,076
-390,306	630,457	0,023	-0,043
-389,292	-103,953	-0,139	-0,023
-388,277	-56,320	-0,132	-0,042
-387,263	402,932	-0,080	0,123
-386,248	173,857	-0,037	0,039
-385,233	-200,000	0,005	-0,216
-384,219	800,000	-0,039	-0,090
-383,204	83,165	-0,033	0,026
-382,190	604,425	-0,001	0,002
-381,175	781,714	-0,021	0,042
-380,160	-200,000	-0,007	-0,070
-379,146	359,452	-0,077	0,112
-378,131	460,117	0,024	-0,039
-377,117	-200,000	-0,008	0,036
-376,102	12,644	-0,098	-0,055
-375,088	106,798	-0,069	0,060
-374,073	-79,130	0,091	-0,022
-373,058	130,144	-0,122	0,113
-372,044	122,752	0,080	-0,073
-371,029	76,478	-0,066	0,051
-370,015	-55,643	0,171	0,055
-369,000	800,000	0,059	-0,153
-367,985	-86,150	-0,131	0,029
-366,971	-200,000	0,007	-0,123
-365,956	-200,000	-0,005	-0,091
-364,942	241,735	0,033	0,040
-363,927	-42,646	0,050	0,018
-362,912	-200,000	0,011	0,036
-361,898	-200,000	0,013	-0,059
-360,883	800,000	0,032	-0,066
-359,869	-200,000	0,018	0,178
-358,854	-200,000	-0,011	-0,044
-357,839	-200,000	-0,001	-0,041
-356,825	520,317	-0,042	0,071
-355,810	800,000	0,028	0,068
-354,796	-200,000	0,002	0,041
-353,781	-33,457	-0,026	-0,010
-352,766	-200,000	0,001	-0,046
-351,752	238,780	0,028	-0,034
-350,737	686,744	-0,030	0,057
-349,723	-200,000	-0,002	-0,027
-348,708	62,025	0,105	0,076
-347,693	-200,000	-0,011	0,066
-346,679	398,740	-0,031	0,047
-345,664	800,000	-0,026	0,063
-344,650	143,613	0,061	-0,059
-343,635	-20,169	0,129	-0,057
-342,620	-147,806	-0,101	-0,006
-341,606	-25,648	-0,086	0,037
-340,591	82,104	-0,069	0,054
-339,577	800,000	0,015	0,044
-338,562	5,396	-0,135	0,072
-337,548	-27,447	0,098	0,041
-336,533	800,000	0,029	-0,073
-335,518	800,000	-0,046	-0,113
-334,504	169,687	-0,010	0,011
-333,489	-154,230	0,052	-0,002
-332,475	164,570	-0,092	-0,094
-331,460	-200,000	-0,020	-0,076
-330,445	-131,738	0,069	-0,006
-329,431	373,550	0,058	0,085
-328,416	-95,363	0,041	-0,008
-327,402	94,045	0,138	0,114
-326,387	246,701	-0,048	0,059
-325,372	145,917	-0,042	0,041
-324,358	-103,583	0,258	0,044
-323,343	365,474	-0,044	0,065
-322,329	-9,457	0,026	0,012
-321,314	149,889	0,037	0,037
-320,299	800,000	0,059	0,120
-319,285	800,000	-0,028	-0,060
-318,270	-24,024	0,110	-0,047
-317,256	-157,203	0,047	0,002
-316,241	-200,000	0,017	0,125
-315,226	-200,000	-0,026	0,091
-314,212	645,308	0,074	0,137
-313,197	69,144	0,079	-0,059
-312,183	-200,000	-0,011	-0,039
-311,168	-200,000	-0,028	0,127
-310,153	-78,566	-0,127	-0,031
-309,139	-200,000	-0,035	0,163
-308,124	141,211	0,085	0,082
-307,110	-200,000	-0,011	0,085
-306,095	800,000	-0,056	0,160
-305,080	-200,000	-0,008	-0,058
-304,066	-87,937	-0,059	0,013
-303,051	108,522	-0,131	-0,114
-302,037	103,039	-0,042	0,036
-301,022	32,319	-0,052	-0,033
-300,008	-80,598	-0,068	-0,016
-298,993	166,119	-0,036	-0,037
-297,978	-200,000	0,021	-0,092
-296,964	800,000	0,046	-0,140
-295,949	800,000	-0,047	-0,116
-294,935	-200,000	-0,013	-0,126
-293,920	-200,000	-0,000	-0,113
-292,905	135,239	0,045	-0,043
-291,891	92,419	-0,012	-0,009
-290,876	-200,000	0,005	0,244
-289,862	326,915	-0,055	0,077
-288,847	-33,892	-0,140	-0,056
-287,832	707,778	0,080	-0,154
-286,818	-200,000	0,011	0,051
-285,803	-90,386	0,088	-0,018
-284,789	81,596	0,095	0,074
-283,774	130,177	-0,037	0,034
-282,759	-200,000	0,007	-0,061
-281,745	77,208	-0,124	-0,095
-280,730	-161,511	-0,023	0,001
-279,716	-131,400	-0,090	0,009
-278,701	198,040	0,074	-0,082
-277,686	-93,167	-0,043	-0,009
-276,672	800,000	0,080	0,170
-275,657	53,811	-0,053	0,037
-274,643	-200,000	-0,083	-0,283
-273,628	477,092	-0,055	-0,091
-272,613	-1,237	0,123	-0,063
-271,599	107,057	0,064	-0,055
-270,584	447,183	0,083	0,132
-269,570	800,000	-0,069	0,142
-268,555	108,301	-0,014	-0,012
-267,540	278,149	0,040	-0,052
-266,526	415,027	-0,092	-0,142
-265,511	-82,955	-0,076	0,018
-264,497	582,119	0,097	0,172
-263,482	226,589	-0,048	-0,057
-262,467	-130,536	0,189	-0,018
-261,453	-200,000	-0,012	0,170
-260,438	-200,000	-0,012	-0,056
-259,424	-63,212	-0,080	0,024
-258,409	72,890	0,055	-0,041
-257,395	-129,630	0,028	-0,003
-256,380	800,000	-0,014	-0,032
-255,365	-200,000	0,017	0,121
-254,351	-32,738	-0,023	-0,009
-253,336	-177,946	-0,091	0,002
-252,322	800,000	-0,033	0,072
-251,307	-22,386	0,132	-0,058
-250,292	1,599	-0,113	0,059
-249,278	211,077	0,044	0,050
-248,263	224,056	-0,056	0,066
-247,249	397,129	-0,083	0,126
-246,234	-173,764	0,097	0,002
-245,219	800,000	0,069	-0,148
-244,205	43,948	-0,064	0,042
-243,190	403,773	0,081	0,124
-242,176	-29,110	0,117	0,048
-241,161	-200,000	-0,005	0,134
-240,146	-16,492	-0,105	0,048
-239,132	143,681	-0,050	0,048
-238,117	25,901	-0,104	-0,063
-237,103	124,911	0,124	-0,113
-236,088	-137,644	0,023	0,002
-235,073	190,607	-0,046	0,050
-234,059	728,593	-0,058	0,113
-233,044	795,795	0,050	0,101
-232,030	-200,000	0,001	-0,017
-231,015	-200,000	-0,009	-0,039
-230,000	333,769	-0,036	-0,051
-228,986	655,879	0,086	-0,160
-227,971	398,138	0,064	0,097
-226,957	12,143	0,122	0,068
-225,942	800,000	-0,043	0,088
-224,927	302,852	0,066	0,089
-223,913	-130,121	-0,104	0,010
-222,898	475,577	0,070	-0,114
-221,884	210,936	0,030	0,034
-220,869	-200,000	0,005	-0,038
-219,855	297,580	0,066	0,088
-218,840	295,380	0,074	0,098
-217,825	82,680	-0,050	-0,039
-216,811	-200,000	0,010	-0,098
-215,796	-182,700	-0,049	0,001
-214,782	139,501	0,114	-0,109
-213,767	193,186	0,016	-0,018
-212,752	-200,000	-0,022	0,091
-211,738	71,399	-0,017	0,013
-210,723	-200,000	0,003	0,055
-209,709	799,993	-0,059	-0,119
-208,694	800,000	0,022	-0,064
-207,679	-180,153	0,030	-0,000
-206,665	-60,358	-0,091	0,028
-205,650	230,018	0,041	0,049
-204,636	175,798	-0,089	0,093
-203,621	300,749	0,074	0,098
-202,606	800,000	-0,027	0,066
-201,592	262,524	-0,051	-0,064
-200,577	800,000	0,031	-0,083
-199,563	239,682	-0,034	-0,041
-198,548	-98,490	-0,032	-0,006
-197,533	-107,889	-0,108	0,017
-196,519	-26,995	0,153	0,064
-195,504	-48,676	-0,131	0,045
-194,490	800,000	-0,026	0,057
-193,475	-37,356	-0,041	0,016
-192,460	-164,284	-0,072	-0,002
-191,446	218,046	-0,103	0,119
-190,431	592,050	0,021	0,038
-189,417	-107,542	0,068	-0,011
-188,402	-200,000	-0,018	-0,103
-187,387	757,984	-0,024	-0,046
-186,373	-200,000	-0,015	-0,061
-185,358	44,888	-0,061	0,040
-184,344	166,926	0,027	-0,027
-183,329	-24,315	-0,149	0,064
-182,315	256,531	0,062	0,077
-181,300	-26,366	0,159	0,067
-180,285	-200,000	-0,033	0,147
-179,271	86,089	-0,091	0,073
-178,256	180,010	0,068	-0,072
-177,242	610,237	0,040	-0,073
-176,227	-99,293	0,058	0,010
-175,212	-200,000	0,016	0,062
-174,198	64,486	-0,086	0,062
-173,183	-9,689	-0,057	0,028
-172,169	102,359	-0,091	-0,077
-171,154	231,606	-0,065	-0,078
-170,139	62,039	0,067	-0,048
-169,125	-5,794	0,046	0,022
-168,110	216,357	-0,046	0,053
-167,096	-200,000	-0,007	0,072
-166,081	-200,000	0,001	0,005
-165,066	102,821	-0,058	0,049
-164,052	-102,146	-0,087	-0,015
-163,037	-200,000	0,000	0,127
-162,023	800,000	0,079	0,166
-161,008	800,000	-0,059	0,134
-159,993	-32,073	0,064	0,026
-158,979	-200,000	-0,001	-0,189
-157,964	-46,831	-0,031	-0,011
-156,950	91,428	0,103	0,083
-155,935	800,000	0,033	0,071
-154,920	-200,000	-0,007	-0,108
-153,906	-75,073	0,064	-0,016
-152,891	672,237	-0,057	0,106
-151,877	800,000	0,047	0,132
-150,862	-200,000	0,018	-0,158
-149,847	424,550	0,069	-0,107
-148,833	-135,628	-0,105	-0,009
-147,818	-116,264	0,074	0,010
-146,804	-31,146	-0,088	-0,036
-145,789	113,337	0,031	-0,027
-144,775	-109,123	-0,134	0,020
-143,760	800,000	0,025	0,068
-142,745	125,705	-0,059	-0,054
-141,731	105,899	0,009	-0,008
-140,716	-97,695	-0,144	-0,027
-139,702	-200,000	-0,014	0,073
-138,687	735,347	-0,025	-0,048
-137,672	-200,000	0,012	0,056
-136,658	692,356	-0,051	-0,097
-135,643	-66,798	0,023	0,006
-134,629	-157,242	0,031	-0,001
-133,614	135,650	0,058	0,055
-132,599	-200,000	-0,008	0,070
-131,585	405,125	-0,054	0,082
-130,570	68,626	0,074	0,055
-129,556	679,243	-0,066	0,125
-128,541	89,961	-0,101	-0,081
-127,526	-67,398	0,075	-0,021
-126,512	341,089	0,064	-0,090
-125,497	800,000	0,053	0,140
-124,483	-200,000	0,025	0,119
-123,468	-127,436	0,061	-0,006
-122,453	-200,000	-0,009	-0,086
-121,439	-15,067	0,069	-0,032
-120,424	197,441	-0,162	0,178
-119,410	423,021	0,047	-0,074
