DTS Sentinel unit serial number:	SN410029Multiplexer serial number:	ORYXHardware model number:	OX2-SRSoftware version number:	ORYX F/W v4,00 Oryx Data Collector v3.7.2.0data status	okinstallation	B6 Nyhavnadifferential loss correction	single-endedforward channel	channel 2reverse channel	N/Adate	2023/12/07time	14:45:08forward acquisition time	300,00reverse acquisition time	0,00gamma	499,1914k internal	0,3145k external	0,3145temperature offset calibration	1,0000default loss term (dB/km)	0,3820temperature slope calibration	1,0000multiplexer offset coefficient	1,0000multiplexer slope coefficient	1,0000fibre end	0,00T internal ref (°C)	13,96T ext. ref 1 (°C)	-1,77T ext. ref 2 (°C)	-1,76length (m)	temperature (°C)	Stokes	anti-Stokes-744,400	110,292	0,046	0,041
-743,385	-144,378	-0,367	0,025
-742,371	-131,911	0,156	-0,015
-741,356	-142,916	-0,232	0,016
-740,342	1,400	0,199	0,106
-739,327	-63,967	-0,227	-0,068
-738,312	51,103	0,131	-0,092
-737,298	-22,619	-0,245	-0,109
-736,283	-48,439	0,106	0,038
-735,269	4,255	-0,399	0,216
-734,254	800,000	0,014	0,033
-733,239	-20,907	-0,503	-0,227
-732,225	75,873	0,215	0,168
-731,210	413,021	-0,090	0,141
-730,196	800,000	-0,009	-0,021
-729,181	-200,000	0,017	-0,070
-728,167	75,920	-0,041	-0,032
-727,152	588,851	0,100	-0,183
-726,137	-76,034	-0,156	-0,041
-725,123	-200,000	0,001	-0,157
-724,108	800,000	-0,065	-0,151
-723,094	72,665	-0,110	-0,085
-722,079	-45,371	-0,066	-0,024
-721,064	-120,869	0,108	0,013
-720,050	800,000	0,025	-0,078
-719,035	78,129	-0,114	-0,090
-718,021	-79,365	-0,172	0,043
-717,006	-34,507	0,074	0,030
-715,991	79,563	-0,075	-0,060
-714,977	-200,000	0,016	-0,121
-713,962	-51,278	-0,113	-0,039
-712,948	52,961	-0,161	0,114
-711,933	-72,686	-0,147	-0,040
-710,918	800,000	0,059	0,171
-709,904	-117,756	-0,077	-0,010
-708,889	87,246	-0,049	0,040
-707,875	-148,405	0,055	0,003
-706,860	-37,233	-0,022	0,009
-705,845	-200,000	0,033	0,136
-704,831	356,290	0,036	0,053
-703,816	193,245	-0,112	-0,126
-702,802	113,231	-0,111	0,099
-701,787	241,753	-0,176	-0,218
-700,772	-200,000	0,004	-0,072
-699,758	-31,121	0,043	0,018
-698,743	18,673	0,050	-0,030
-697,729	495,411	-0,021	-0,035
-696,714	457,328	-0,033	-0,055
-695,699	171,252	-0,083	-0,088
-694,685	-200,000	0,002	-0,070
-693,670	644,979	-0,067	-0,128
-692,656	-200,000	0,005	-0,085
-691,641	-52,013	-0,058	-0,020
-690,627	85,790	0,039	0,032
-689,612	52,305	-0,033	0,023
-688,597	-200,000	-0,006	0,052
-687,583	-0,530	0,071	0,037
-686,568	-27,306	-0,094	-0,040
-685,554	286,266	-0,032	-0,042
-684,539	-91,947	0,053	0,011
-683,524	352,198	0,023	0,034
-682,510	-200,000	0,029	0,098
-681,495	220,262	-0,028	0,033
-680,481	14,373	-0,209	-0,120
-679,466	800,000	-0,019	-0,053
-678,451	397,783	-0,088	0,136
-677,437	-37,107	0,198	-0,078
-676,422	-0,227	0,020	0,011
-675,408	-27,439	-0,078	-0,033
-674,393	310,442	-0,040	0,055
-673,378	-26,481	-0,197	0,085
-672,364	-200,000	-0,001	-0,060
-671,349	-200,000	-0,007	-0,033
-670,335	800,000	-0,012	0,035
-669,320	-67,286	0,099	-0,029
-668,305	-29,575	0,039	-0,016
-667,291	-111,974	0,171	-0,025
-666,276	-200,000	-0,011	0,072
-665,262	408,618	-0,069	-0,108
-664,247	144,864	0,012	0,012
-663,232	800,000	0,092	0,224
-662,218	106,755	0,067	0,059
-661,203	800,000	-0,044	0,138
-660,189	123,490	-0,028	-0,026
-659,174	-200,000	0,014	-0,064
-658,159	-112,572	-0,177	-0,026
-657,145	-74,781	-0,170	0,045
-656,130	-82,587	0,161	0,038
-655,116	114,648	-0,100	-0,090
-654,101	49,646	0,062	0,043
-653,086	-82,590	-0,092	-0,022
-652,072	-171,658	0,094	-0,002
-651,057	120,492	-0,097	-0,089
-650,043	-26,047	-0,165	-0,071
-649,028	-200,000	-0,007	0,048
-648,014	51,121	-0,014	-0,010
-646,999	-111,736	0,097	0,014
-645,984	-49,511	0,038	-0,013
-644,970	574,116	0,082	-0,148
-643,955	154,358	0,043	-0,044
-642,941	-78,124	0,104	-0,026
-641,926	-119,454	-0,154	0,019
-640,911	1,579	0,044	0,023
-639,897	58,097	0,132	0,095
-638,882	99,520	-0,049	0,042
-637,868	252,160	-0,099	0,125
-636,853	370,086	0,022	0,032
-635,838	-123,196	-0,095	-0,011
-634,824	81,289	-0,151	-0,121
-633,809	-200,000	0,018	-0,157
-632,795	667,970	-0,008	0,015
-631,780	-134,481	0,079	-0,007
-630,765	-131,910	0,036	-0,003
-629,751	167,050	0,037	-0,039
-628,736	120,303	-0,088	-0,081
-627,722	204,749	0,050	0,057
-626,707	-132,558	-0,068	0,006
-625,692	800,000	0,023	0,068
-624,678	-27,979	0,195	0,083
-623,663	800,000	-0,019	-0,041
-622,649	-159,410	-0,095	0,004
-621,634	-119,501	0,103	-0,013
-620,619	-27,302	-0,113	0,048
-619,605	-114,251	0,055	0,008
-618,590	-20,037	-0,061	-0,028
-617,576	-71,690	-0,061	-0,017
-616,561	-131,889	-0,073	0,007
-615,546	62,364	0,037	0,027
-614,532	-200,000	-0,010	-0,137
-613,517	-86,777	0,033	-0,007
-612,503	67,077	-0,023	-0,017
-611,488	-200,000	-0,017	-0,117
-610,474	-120,849	0,153	0,019
-609,459	37,746	0,041	-0,027
-608,444	224,667	0,044	-0,053
-607,430	294,886	-0,017	0,023
-606,415	-200,000	-0,005	-0,179
-605,401	800,000	0,043	0,111
-604,386	800,000	-0,011	0,027
-603,371	299,426	-0,044	-0,059
-602,357	317,403	-0,044	0,062
-601,342	-64,121	-0,063	-0,019
-600,328	61,731	-0,040	0,029
-599,313	-74,854	0,025	0,007
-598,298	-152,965	0,187	-0,010
-597,284	-107,450	0,129	0,021
-596,269	-200,000	0,003	0,022
-595,255	-73,169	0,017	0,005
-594,240	106,024	0,036	-0,031
-593,225	800,000	-0,030	-0,078
-592,211	15,381	0,070	-0,040
-591,196	-170,642	0,070	0,002
-590,182	37,819	0,086	-0,056
-589,167	-200,000	-0,003	0,082
-588,152	80,068	0,088	-0,070
-587,138	92,087	0,096	-0,080
-586,123	-129,708	-0,098	-0,010
-585,109	242,535	-0,033	-0,041
-584,094	81,402	0,023	0,018
-583,079	-83,028	0,142	0,033
-582,065	-31,395	-0,090	0,037
-581,050	800,000	-0,065	-0,148
-580,036	524,332	0,034	-0,058
-579,021	-200,000	0,009	-0,077
-578,006	-200,000	0,010	-0,105
-576,992	251,724	0,069	0,087
-575,977	-95,613	0,045	0,009
-574,963	-26,500	-0,126	-0,054
-573,948	333,754	0,093	0,133
-572,934	-77,659	0,067	-0,017
-571,919	32,930	-0,070	0,044
-570,904	569,918	0,034	-0,061
-569,890	0,624	0,153	-0,080
-568,875	-200,000	-0,029	-0,181
-567,861	187,984	0,034	-0,037
-566,846	140,545	0,020	0,020
-565,831	195,180	0,055	0,062
-564,817	30,911	0,082	0,051
-563,802	58,816	-0,093	-0,067
-562,788	148,661	-0,075	0,075
-561,773	-200,000	-0,014	-0,062
-560,758	22,009	0,066	0,039
-559,744	372,467	0,116	-0,174
-558,729	94,966	-0,107	0,089
-557,715	14,437	-0,110	0,063
-556,700	-200,000	0,007	-0,113
-555,685	-200,000	0,026	-0,136
-554,671	-200,000	-0,017	0,113
-553,656	-200,000	0,035	0,153
-552,642	54,610	0,087	-0,061
-551,627	-200,000	-0,005	0,115
-550,612	10,702	0,033	-0,018
-549,598	9,954	0,045	-0,025
-548,583	-165,400	0,078	-0,002
-547,569	-200,000	0,007	-0,035
-546,554	-73,942	0,056	-0,015
-545,539	-100,297	-0,171	-0,031
-544,525	-49,402	0,105	0,037
-543,510	58,089	0,063	-0,045
-542,496	70,633	-0,026	-0,020
-541,481	-200,000	-0,021	-0,124
-540,466	116,786	0,027	0,024
-539,452	71,923	-0,019	0,015
-538,437	-10,431	-0,029	0,014
-537,423	-92,193	0,035	0,007
-536,408	-200,000	-0,013	-0,071
-535,393	800,000	-0,006	0,014
-534,379	-66,163	-0,111	-0,032
-533,364	550,560	-0,027	0,047
-532,350	24,903	0,071	0,043
-531,335	80,664	0,037	0,029
-530,321	128,395	-0,074	0,069
-529,306	-137,321	-0,072	0,006
-528,291	-200,000	0,000	-0,012
-527,277	800,000	0,039	-0,098
-526,262	-75,000	-0,041	-0,011
-525,248	-91,408	-0,145	-0,030
-524,233	-200,000	-0,017	0,075
-523,218	-200,000	0,006	0,095
-522,204	295,652	-0,043	0,059
-521,189	-71,218	-0,069	0,019
-520,175	352,632	0,029	-0,043
-519,160	-200,000	0,023	0,121
-518,145	-200,000	0,002	-0,014
-517,131	514,765	-0,059	0,101
-516,116	-75,054	0,079	0,021
-515,102	37,286	0,095	-0,061
-514,087	425,508	0,054	-0,085
-513,072	414,449	-0,037	-0,059
-512,058	-181,156	-0,105	-0,001
-511,043	458,923	0,086	0,141
-510,029	142,362	-0,061	-0,060
-509,014	193,116	0,110	-0,122
-507,999	32,396	0,080	0,051
-506,985	154,414	-0,024	0,024
-505,970	94,349	0,052	-0,043
-504,956	-200,000	-0,007	0,034
-503,941	-200,000	0,003	-0,141
-502,926	617,260	-0,036	-0,067
-501,912	-200,000	0,004	0,022
-500,897	800,000	0,051	-0,107
-499,883	360,017	-0,042	0,062
-498,868	78,416	-0,107	0,084
-497,853	207,472	-0,098	-0,112
-496,839	741,807	0,016	0,031
-495,824	-200,000	-0,002	0,066
-494,810	-77,617	-0,067	0,017
-493,795	-134,201	0,018	0,002
-492,781	-200,000	0,002	0,015
-491,766	26,748	-0,051	0,031
-490,751	-200,000	-0,002	0,043
-489,737	-200,000	-0,008	0,045
-488,722	-113,178	0,048	0,007
-487,708	35,819	0,072	0,046
-486,693	640,113	-0,053	0,099
-485,678	-100,967	-0,078	0,014
-484,664	800,000	0,038	0,119
-483,649	61,473	-0,198	-0,144
-482,635	-200,000	-0,008	-0,040
-481,620	-45,461	0,262	0,095
-480,605	80,847	0,063	0,049
-479,591	124,771	0,063	0,059
-478,576	-128,996	0,151	0,015
-477,562	-200,000	0,008	0,032
-476,547	243,244	0,013	0,016
-475,532	-186,977	0,068	0,001
-474,518	-111,119	0,024	0,004
-473,503	-200,000	-0,013	0,100
-472,489	17,923	0,079	0,046
-471,474	79,711	-0,064	-0,050
-470,459	130,632	-0,042	0,039
-469,445	-100,117	0,137	-0,025
-468,430	289,061	-0,095	0,127
-467,416	-86,025	-0,123	0,028
-466,401	-141,859	-0,040	-0,003
-465,386	-200,000	0,006	0,165
-464,372	3,831	-0,100	-0,053
-463,357	-200,000	-0,045	0,178
-462,343	-164,627	-0,188	-0,006
-461,328	646,484	-0,034	0,065
-460,313	800,000	-0,027	-0,073
-459,299	-152,595	0,084	0,004
-458,284	800,000	0,071	0,176
-457,270	326,015	-0,141	0,198
-456,255	-200,000	0,007	0,105
-455,241	-91,880	-0,065	0,013
-454,226	-76,294	-0,097	-0,025
-453,211	-200,000	-0,015	0,068
-452,197	664,270	0,033	0,062
-451,182	-149,181	0,037	-0,002
-450,168	467,179	0,030	0,049
-449,153	614,912	0,023	0,041
-448,138	-68,622	-0,060	-0,017
-447,124	-200,000	-0,014	-0,197
-446,109	145,158	0,062	0,061
-445,095	-200,000	0,004	0,027
-444,080	-83,262	0,106	0,025
-443,065	-140,547	0,017	-0,001
-442,051	259,451	-0,048	-0,061
-441,036	-5,414	-0,016	-0,008
-440,022	363,424	0,027	-0,039
-439,007	99,789	-0,036	-0,031
-437,992	-65,788	-0,076	-0,022
-436,978	-79,184	0,091	-0,022
-435,963	-200,000	-0,002	-0,139
-434,949	-16,185	-0,063	0,029
-433,934	-48,890	-0,079	0,027
-432,919	537,532	-0,073	-0,128
-431,905	-200,000	0,017	0,113
-430,890	340,378	0,014	0,021
-429,876	-23,680	-0,023	0,010
-428,861	286,540	-0,037	-0,049
-427,846	-200,000	0,019	0,104
-426,832	-200,000	-0,010	0,100
-425,817	-200,000	0,009	-0,150
-424,803	-12,695	-0,049	-0,023
-423,788	356,533	-0,067	0,098
-422,773	-200,000	-0,013	0,064
-421,759	697,395	0,008	0,015
-420,744	-64,311	0,104	0,031
-419,730	800,000	0,021	-0,043
-418,715	-200,000	-0,005	-0,080
-417,701	30,821	0,029	-0,018
-416,686	-99,171	0,080	-0,015
-415,671	-200,000	0,023	0,090
-414,657	26,220	0,032	-0,019
-413,642	-80,660	0,025	-0,006
-412,628	-66,248	-0,059	-0,017
-411,613	-132,690	0,047	-0,004
-410,598	273,399	-0,072	0,093
-409,584	-38,765	-0,021	-0,008
-408,569	-43,619	0,071	-0,026
-407,555	60,717	0,159	0,115
-406,540	20,199	0,044	-0,026
-405,525	227,398	-0,040	0,047
-404,511	-200,000	-0,011	-0,047
-403,496	53,179	0,033	-0,023
-402,482	96,814	-0,020	-0,016
-401,467	101,661	0,034	-0,029
-400,452	-200,000	0,003	0,031
-399,438	120,764	0,057	-0,052
-398,423	-43,740	0,098	0,036
-397,409	-105,549	-0,042	0,007
-396,394	-151,407	-0,118	0,006
-395,379	153,958	0,070	-0,070
-394,365	-21,768	0,063	0,028
-393,350	-200,000	-0,001	0,082
-392,336	600,592	-0,030	-0,055
-391,321	119,806	-0,098	0,089
-390,306	208,035	-0,107	-0,122
-389,292	-200,000	-0,030	-0,179
-388,277	-39,654	-0,133	-0,051
-387,263	-134,199	-0,040	-0,004
-386,248	53,396	-0,058	0,040
-385,233	404,952	0,022	0,035
-384,219	-200,000	0,007	-0,033
-383,204	-200,000	-0,000	-0,104
-382,190	103,213	-0,093	-0,080
-381,175	37,835	-0,070	-0,046
-380,160	-86,706	0,086	-0,019
-379,146	-200,000	-0,038	0,129
-378,131	-57,263	0,063	0,020
-377,117	800,000	0,014	-0,040
-376,102	-200,000	0,022	-0,128
-375,088	-75,178	-0,154	-0,040
-374,073	-200,000	-0,007	0,061
-373,058	-137,260	-0,147	-0,012
-372,044	113,504	0,132	0,117
-371,029	800,000	-0,080	0,184
-370,015	800,000	0,042	-0,089
-369,000	-69,990	0,037	0,010
-367,985	800,000	0,034	-0,083
-366,971	349,968	0,039	-0,057
-365,956	-118,098	0,065	0,008
-364,942	-200,000	0,010	0,050
-363,927	-200,000	0,007	-0,065
-362,912	-31,346	0,198	-0,081
-361,898	86,700	0,028	-0,023
-360,883	-200,000	-0,005	-0,051
-359,869	346,444	-0,080	-0,115
-358,854	-120,663	0,073	0,009
-357,839	-200,000	0,028	0,115
-356,825	-124,850	-0,072	0,008
-355,810	800,000	0,048	-0,141
-354,796	-34,843	-0,113	0,045
-353,781	154,305	-0,031	-0,031
-352,766	180,594	-0,027	-0,029
-351,752	45,694	-0,034	-0,023
-350,737	14,372	-0,061	0,035
-349,723	-200,000	-0,006	-0,036
-348,708	-128,533	-0,052	-0,005
-347,693	573,207	-0,051	-0,091
-346,679	36,860	-0,040	-0,026
-345,664	324,602	0,006	-0,009
-344,650	-52,419	-0,084	0,028
-343,635	74,269	0,076	0,058
-342,620	137,645	-0,041	-0,039
-341,606	-200,000	-0,005	0,035
-340,591	-49,703	0,199	-0,069
-339,577	149,197	0,064	-0,063
-338,562	379,106	-0,086	-0,128
-337,548	-200,000	-0,044	-0,174
-336,533	115,168	0,055	-0,049
-335,518	800,000	0,022	-0,059
-334,504	246,322	0,145	0,178
-333,489	-161,568	-0,123	-0,005
-332,475	103,596	0,047	-0,040
-331,460	800,000	-0,031	0,077
-330,445	323,378	-0,030	-0,042
-329,431	-131,485	0,018	-0,002
-328,416	-35,843	0,102	-0,040
-327,402	68,345	0,079	0,059
-326,387	-13,225	-0,050	-0,024
-325,372	-24,850	-0,163	-0,070
-324,358	186,750	-0,099	-0,107
-323,343	171,758	0,079	0,083
-322,329	-200,000	0,001	-0,011
-321,314	-200,000	0,010	0,066
-320,299	800,000	0,033	-0,067
-319,285	-178,040	-0,210	-0,004
-318,270	13,128	-0,058	0,033
-317,256	359,642	0,033	0,049
-316,241	198,275	-0,091	-0,101
-315,226	47,835	0,055	0,037
-314,212	165,867	-0,068	0,071
-313,197	119,991	-0,038	-0,035
-312,183	-41,673	-0,105	0,039
-311,168	148,012	-0,057	0,056
-310,153	800,000	0,020	-0,064
-309,139	-29,844	0,088	0,036
-308,124	800,000	-0,018	0,056
-307,110	-142,657	-0,067	0,005
-306,095	-200,000	0,022	0,095
-305,080	-200,000	-0,005	-0,037
-304,066	-87,459	-0,063	0,014
-303,051	800,000	-0,027	-0,069
-302,037	-200,000	0,030	-0,139
-301,022	-123,110	0,076	-0,009
-300,008	-41,341	-0,024	0,009
-298,993	800,000	0,031	-0,087
-297,978	800,000	0,042	-0,089
-296,964	800,000	-0,014	0,031
-295,949	271,166	-0,050	-0,064
-294,935	-113,491	0,086	-0,012
-293,920	525,153	-0,037	-0,064
-292,905	-200,000	-0,009	0,071
-291,891	-200,000	0,014	0,135
-290,876	10,859	-0,118	0,066
-289,862	484,345	0,065	-0,108
-288,847	-200,000	-0,018	-0,074
-287,832	-20,429	-0,021	-0,010
-286,818	301,064	-0,020	0,026
-285,803	472,925	0,064	-0,105
-284,789	-200,000	-0,029	0,156
-283,774	-164,613	-0,025	0,001
-282,759	800,000	-0,022	-0,051
-281,745	-70,758	-0,147	-0,040
-280,730	800,000	-0,018	0,049
-279,716	491,186	0,042	-0,069
-278,701	800,000	0,028	-0,082
-277,686	800,000	0,035	0,102
-276,672	-200,000	-0,051	0,230
-275,657	-40,778	-0,055	-0,021
-274,643	-51,411	-0,105	0,036
-273,628	325,003	-0,040	-0,055
-272,613	99,073	-0,032	-0,027
-271,599	123,295	-0,032	-0,029
-270,584	751,363	-0,108	0,212
-269,570	137,614	0,053	0,051
-268,555	118,578	0,009	0,008
-267,540	-200,000	0,006	-0,032
-266,526	124,627	0,081	-0,074
-265,511	24,948	0,011	0,007
-264,497	576,888	0,129	-0,230
-263,482	302,637	0,109	-0,147
-262,467	800,000	-0,035	0,087
-261,453	14,710	0,066	0,037
-260,438	800,000	-0,062	0,130
-259,424	-115,431	-0,118	-0,016
-258,409	37,926	0,121	-0,078
-257,395	-200,000	0,008	0,104
-256,380	-48,143	-0,151	-0,053
-255,365	-200,000	0,019	0,097
-254,351	-200,000	0,000	-0,009
-253,336	21,210	0,035	-0,020
-252,322	790,028	-0,072	0,144
-251,307	194,115	0,019	-0,021
-250,292	800,000	-0,024	0,066
-249,278	-200,000	-0,003	0,012
-248,263	56,441	0,026	-0,018
-247,249	18,662	0,109	-0,063
-246,234	93,121	-0,066	-0,054
-245,219	-200,000	-0,026	-0,095
-244,205	-200,000	-0,010	-0,093
-243,190	261,449	0,103	-0,130
-242,176	633,389	0,019	0,035
-241,161	800,000	0,058	0,125
-240,146	-200,000	0,005	0,018
-239,132	800,000	0,057	0,153
-238,117	2,477	-0,073	-0,038
-237,103	800,000	0,012	0,027
-236,088	-31,748	0,036	-0,015
-235,073	800,000	-0,003	0,011
-234,059	256,585	0,091	0,113
-233,044	-91,236	-0,037	0,008
-232,030	-200,000	-0,003	-0,026
-231,015	-83,677	-0,214	-0,049
-230,000	-153,958	0,096	0,005
-228,986	159,388	-0,103	-0,104
-227,971	269,027	-0,053	0,068
-226,957	-200,000	-0,002	0,120
-225,942	7,978	-0,105	0,057
-224,927	263,361	0,071	0,089
-223,913	408,586	-0,056	-0,086
-222,898	118,963	-0,130	-0,116
-221,884	403,887	-0,073	-0,111
-220,869	-200,000	0,030	-0,123
-219,855	800,000	-0,052	0,131
-218,840	-200,000	0,011	0,178
-217,825	-200,000	0,002	-0,064
-216,811	-63,522	0,134	-0,040
-215,796	-50,093	-0,010	0,003
-214,782	-200,000	0,005	-0,103
-213,767	-80,707	-0,054	0,013
-212,752	-200,000	-0,006	0,022
-211,738	192,513	0,009	-0,010
-210,723	572,965	0,045	-0,079
-209,709	-80,688	-0,038	-0,009
-208,694	800,000	0,017	0,049
-207,679	148,366	0,075	0,074
-206,665	-200,000	0,009	0,135
-205,650	-142,799	0,143	-0,010
-204,636	-79,659	0,059	0,014
-203,621	208,877	-0,093	0,105
-202,606	-23,614	-0,041	-0,018
-201,592	-20,314	-0,058	-0,026
-200,577	-200,000	0,001	-0,022
-199,563	-200,000	-0,003	0,105
-198,548	266,134	0,046	0,058
-197,533	-145,562	-0,124	0,008
-196,519	454,268	0,057	0,091
-195,504	-77,421	0,075	0,019
-194,490	-200,000	0,010	-0,058
-193,475	-38,177	0,109	0,042
-192,460	-38,382	-0,010	-0,004
-191,446	-26,054	0,062	0,026
-190,431	290,452	0,021	-0,028
-189,417	-25,674	-0,054	-0,023
-188,402	400,111	-0,044	0,067
-187,387	370,137	0,085	-0,126
-186,373	800,000	0,050	-0,151
-185,358	-178,712	-0,005	0,000
-184,344	720,758	0,068	0,133
-183,329	-45,376	-0,072	0,026
-182,315	-132,901	-0,024	-0,002
-181,300	-107,400	0,041	0,007
-180,285	-200,000	-0,014	-0,054
-179,271	-200,000	-0,004	-0,026
-178,256	136,548	-0,098	0,092
-177,242	800,000	-0,083	0,199
-176,227	-200,000	0,048	0,203
-175,212	-200,000	0,011	-0,129
-174,198	-200,000	0,001	-0,006
-173,183	-200,000	0,007	-0,074
-172,169	507,406	-0,067	0,113
-171,154	52,632	0,041	0,029
-170,139	176,766	0,079	0,083
-169,125	-200,000	-0,060	0,202
-168,110	800,000	-0,063	0,148
-167,096	-200,000	-0,003	-0,070
-166,081	-156,774	-0,162	-0,007
-165,066	-175,249	0,151	0,003
-164,052	-200,000	0,010	-0,133
-163,037	81,618	0,052	-0,041
-162,023	-124,405	-0,086	0,010
-161,008	-90,426	0,104	0,022
-159,993	459,949	0,035	-0,057
-158,979	234,159	-0,081	-0,097
-157,964	-25,286	-0,053	-0,022
-156,950	-200,000	0,026	-0,084
-155,935	247,564	0,087	0,107
-154,920	124,807	0,023	-0,021
-153,906	-160,869	0,200	0,008
-152,891	-200,000	0,012	-0,044
-151,877	-82,819	-0,183	-0,042
-150,862	616,716	0,087	-0,158
-149,847	-62,370	-0,102	-0,031
-148,833	-91,846	0,015	0,003
-147,818	-114,201	0,086	-0,012
-146,804	-40,031	0,120	0,045
-145,789	-21,688	-0,050	-0,022
-144,775	-200,000	0,005	0,048
-143,760	-42,807	-0,119	-0,044
-142,745	55,967	0,071	-0,050
-141,731	256,832	-0,104	0,130
-140,716	-18,650	0,070	-0,031
-139,702	-200,000	0,014	-0,108
-138,687	-200,000	-0,003	0,049
-137,672	-200,000	-0,001	0,019
-136,658	-200,000	0,031	-0,103
-135,643	800,000	-0,018	-0,046
-134,629	-200,000	0,019	0,138
-133,614	-36,299	0,028	-0,011
-132,599	-132,356	-0,253	-0,023
-131,585	-200,000	0,016	0,064
-130,570	7,452	-0,119	0,064
-129,556	-162,834	-0,098	0,003
-128,541	800,000	0,067	-0,157
-127,526	255,056	0,044	-0,054
-126,512	-200,000	-0,011	-0,071
-125,497	566,148	0,040	0,071
-124,483	-122,948	-0,090	-0,010
-123,468	-200,000	-0,014	0,072
-122,453	-200,000	-0,093	0,000
-121,439	-200,000	0,017	-0,100
-120,424	-181,456	-0,100	-0,001
