DTS Sentinel unit serial number:	SN410029Multiplexer serial number:	ORYXHardware model number:	OX2-SRSoftware version number:	ORYX F/W v4,00 Oryx Data Collector v3.7.2.0data status	okinstallation	B6 Nyhavnadifferential loss correction	single-endedforward channel	channel 2reverse channel	N/Adate	2023/12/08time	08:00:08forward acquisition time	300,00reverse acquisition time	0,00gamma	499,1914k internal	0,3167k external	0,3167temperature offset calibration	1,0000default loss term (dB/km)	0,3820temperature slope calibration	1,0000multiplexer offset coefficient	1,0000multiplexer slope coefficient	1,0000fibre end	0,00T internal ref (°C)	11,37T ext. ref 1 (°C)	-2,66T ext. ref 2 (°C)	-2,66length (m)	temperature (°C)	Stokes	anti-Stokes-744,400	266,314	0,094	0,122
-743,385	-57,020	-0,413	-0,133
-742,371	-8,715	0,310	0,152
-741,356	-105,791	-0,373	-0,061
-740,342	130,115	0,197	0,185
-739,327	-73,887	-0,540	-0,143
-738,312	-51,057	0,203	0,070
-737,298	40,451	-0,426	-0,282
-736,283	3,244	0,172	0,092
-735,269	-54,299	-0,424	-0,141
-734,254	-161,812	0,238	0,009
-733,239	8,901	-0,629	-0,348
-732,225	-0,501	0,324	0,168
-731,210	-200,000	-0,007	0,056
-730,196	67,775	0,047	-0,035
-729,181	-200,000	0,005	-0,144
-728,167	-117,706	-0,116	-0,015
-727,152	-21,590	-0,087	0,039
-726,137	72,372	-0,074	0,057
-725,123	-150,086	0,059	0,003
-724,108	324,439	-0,139	-0,196
-723,094	-26,232	-0,030	0,013
-722,079	28,034	-0,095	-0,059
-721,064	-25,950	-0,211	-0,091
-720,050	800,000	-0,068	-0,145
-719,035	-71,943	-0,097	-0,026
-718,021	289,058	-0,095	-0,127
-717,006	9,268	-0,058	-0,032
-715,991	105,787	-0,044	-0,038
-714,977	-200,000	0,004	-0,020
-713,962	-200,000	-0,012	0,062
-712,948	-157,743	0,164	-0,007
-711,933	-64,322	0,092	0,027
-710,918	76,451	-0,054	0,042
-709,904	-0,836	-0,192	-0,100
-708,889	-200,000	-0,005	-0,041
-707,875	-200,000	-0,002	0,030
-706,860	113,076	-0,083	-0,074
-705,845	-21,823	-0,067	-0,030
-704,831	104,765	0,047	0,040
-703,816	39,565	-0,063	-0,041
-702,802	-200,000	0,026	0,100
-701,787	-54,575	0,064	-0,021
-700,772	800,000	-0,031	-0,088
-699,758	800,000	-0,051	-0,115
-698,743	-12,924	-0,067	-0,032
-697,729	-65,045	-0,169	-0,050
-696,714	800,000	-0,039	-0,082
-695,699	800,000	0,022	-0,069
-694,685	-64,897	-0,048	-0,014
-693,670	16,671	-0,098	-0,057
-692,656	-76,463	0,129	0,033
-691,641	92,634	-0,049	-0,040
-690,627	-200,000	0,018	0,115
-689,612	-5,884	-0,057	-0,028
-688,597	542,230	-0,049	0,085
-687,583	-200,000	0,005	-0,026
-686,568	547,441	0,085	-0,149
-685,554	621,649	-0,042	-0,078
-684,539	-200,000	0,018	0,072
-683,524	415,077	0,040	0,063
-682,510	800,000	-0,058	0,124
-681,495	-157,672	-0,061	-0,003
-680,481	484,492	-0,079	-0,133
-679,466	800,000	-0,042	-0,121
-678,451	-58,625	-0,166	-0,052
-677,437	-200,000	0,007	-0,030
-676,422	800,000	0,046	-0,103
-675,408	-17,874	-0,095	0,044
-674,393	-97,125	0,064	-0,012
-673,378	103,540	0,074	-0,064
-672,364	-58,150	-0,039	-0,012
-671,349	-181,587	-0,053	0,001
-670,335	104,485	0,108	-0,093
-669,320	-58,369	0,081	0,026
-668,305	800,000	0,047	0,145
-667,291	556,701	-0,039	-0,070
-666,276	78,296	0,094	-0,073
-665,262	305,479	-0,073	-0,100
-664,247	17,398	0,065	-0,038
-663,232	800,000	0,037	0,084
-662,218	311,254	0,092	0,127
-661,203	800,000	0,017	0,040
-660,189	-133,086	-0,044	-0,004
-659,174	39,758	-0,101	-0,067
-658,159	22,742	-0,058	0,035
-657,145	206,122	-0,102	-0,117
-656,130	-165,488	-0,035	-0,001
-655,116	217,440	-0,040	0,046
-654,101	-10,416	-0,031	0,015
-653,086	15,324	-0,065	-0,037
-652,072	-200,000	0,028	-0,165
-651,057	60,714	-0,032	-0,023
-650,043	449,693	-0,061	-0,099
-649,028	-70,571	0,059	-0,016
-648,014	-161,570	0,095	-0,003
-646,999	37,863	-0,080	0,052
-645,984	20,908	0,156	0,092
-644,970	-200,000	0,019	-0,147
-643,955	800,000	-0,040	-0,108
-642,941	-133,385	-0,115	0,010
-641,926	181,078	-0,081	0,087
-640,911	800,000	-0,016	-0,051
-639,897	46,065	0,060	0,041
-638,882	-61,138	-0,021	-0,006
-637,868	-141,179	-0,080	0,006
-636,853	-103,477	-0,065	-0,011
-635,838	23,551	0,138	-0,083
-634,824	-200,000	-0,009	-0,040
-633,809	-200,000	0,007	0,127
-632,795	-114,878	0,119	0,016
-631,780	120,314	-0,065	0,059
-630,765	-92,366	0,130	-0,026
-629,751	402,066	0,040	-0,062
-628,736	341,635	-0,068	-0,098
-627,722	231,821	0,093	-0,112
-626,707	4,220	-0,086	-0,046
-625,692	-18,331	0,068	-0,031
-624,678	95,289	-0,012	-0,010
-623,663	-15,751	0,103	-0,048
-622,649	-200,000	0,013	-0,071
-621,634	-200,000	-0,004	-0,021
-620,619	-200,000	0,010	0,121
-619,605	-200,000	0,037	-0,155
-618,590	81,858	0,066	-0,052
-617,576	-200,000	-0,029	-0,110
-616,561	-200,000	0,004	-0,046
-615,546	23,984	-0,173	-0,104
-614,532	136,401	-0,068	-0,065
-613,517	66,857	-0,062	-0,046
-612,503	-126,946	-0,115	-0,012
-611,488	800,000	-0,032	0,091
-610,474	-200,000	-0,003	-0,024
-609,459	147,238	-0,078	0,077
-608,444	76,124	0,002	0,001
-607,430	328,553	-0,133	-0,187
-606,415	-200,000	-0,005	-0,043
-605,401	-200,000	-0,029	-0,168
-604,386	390,515	0,067	0,101
-603,371	458,405	0,077	0,125
-602,357	182,765	-0,039	0,042
-601,342	378,200	0,065	-0,097
-600,328	260,124	-0,075	0,095
-599,313	800,000	-0,022	-0,054
-598,298	-15,551	-0,147	-0,068
-597,284	-30,380	-0,069	0,028
-596,269	-200,000	0,022	0,076
-595,255	-92,112	0,106	0,022
-594,240	162,222	-0,056	-0,058
-593,225	207,614	-0,072	-0,083
-592,211	-200,000	0,020	-0,133
-591,196	800,000	-0,029	0,076
-590,182	-200,000	0,009	-0,034
-589,167	261,062	0,067	0,085
-588,152	-72,196	-0,091	0,025
-587,138	800,000	-0,045	0,117
-586,123	499,050	0,045	-0,076
-585,109	194,255	0,062	0,069
-584,094	800,000	-0,062	-0,138
-583,079	-200,000	-0,031	-0,114
-582,065	209,980	-0,062	-0,071
-581,050	800,000	-0,059	0,138
-580,036	800,000	0,028	-0,061
-579,021	-200,000	0,019	-0,081
-578,006	-146,859	-0,033	-0,002
-576,992	77,656	-0,015	0,011
-575,977	-200,000	-0,002	-0,041
-574,963	188,197	0,075	0,082
-573,948	-182,825	0,018	-0,000
-572,934	64,868	0,123	0,091
-571,919	298,679	-0,050	-0,068
-570,904	800,000	-0,038	0,112
-569,890	168,057	0,070	0,073
-568,875	-200,000	-0,033	-0,113
-567,861	-135,502	0,190	0,016
-566,846	-27,677	-0,067	-0,028
-565,831	-200,000	-0,027	-0,188
-564,817	-200,000	-0,008	-0,041
-563,802	1,446	-0,156	-0,082
-562,788	584,304	0,020	0,037
-561,773	-122,936	0,117	-0,014
-560,758	-129,562	0,114	0,011
-559,744	800,000	0,013	0,033
-558,729	800,000	-0,065	-0,165
-557,715	-200,000	0,003	-0,084
-556,700	-152,076	-0,113	0,006
-555,685	388,223	-0,013	-0,019
-554,671	-31,961	0,071	-0,029
-553,656	-160,902	0,060	-0,002
-552,642	389,613	-0,048	0,074
-551,627	-26,279	0,075	-0,032
-550,612	82,274	-0,057	0,045
-549,598	800,000	0,006	0,012
-548,583	-157,562	-0,157	-0,007
-547,569	-200,000	-0,006	0,173
-546,554	142,661	0,094	0,091
-545,539	469,952	-0,004	-0,006
-544,525	154,472	0,051	-0,051
-543,510	33,993	0,069	0,044
-542,496	-27,455	-0,110	-0,046
-541,481	19,622	-0,040	0,024
-540,466	-200,000	0,011	0,136
-539,452	378,730	-0,078	0,117
-538,437	-200,000	0,017	-0,080
-537,423	102,441	-0,078	0,067
-536,408	800,000	-0,046	0,106
-535,393	800,000	0,032	0,090
-534,379	-131,468	-0,102	0,010
-533,364	-112,449	0,172	-0,025
-532,350	-86,108	-0,063	0,014
-531,335	-149,435	0,036	-0,002
-530,321	800,000	-0,029	0,081
-529,306	25,652	-0,086	-0,052
-528,291	29,226	0,044	0,027
-527,277	-200,000	0,009	-0,042
-526,262	544,090	0,063	-0,110
-525,248	516,429	-0,094	0,160
-524,233	34,407	0,123	0,078
-523,218	-23,116	-0,052	0,023
-522,204	-23,153	-0,053	-0,023
-521,189	-200,000	-0,001	-0,103
-520,175	-106,043	0,089	0,014
-519,160	-200,000	-0,016	-0,062
-518,145	62,007	-0,177	0,128
-517,131	-200,000	0,001	0,019
-516,116	-4,382	0,084	-0,042
-515,102	72,937	-0,075	0,057
-514,087	-143,250	0,076	-0,005
-513,072	162,698	-0,028	0,028
-512,058	-200,000	-0,018	0,089
-511,043	-200,000	-0,018	-0,105
-510,029	131,855	0,084	0,079
-509,014	106,893	0,128	0,111
-507,999	800,000	-0,035	-0,109
-506,985	-106,617	-0,043	0,007
-505,970	-80,390	-0,129	-0,031
-504,956	216,056	-0,034	0,039
-503,941	800,000	0,068	0,171
-502,926	105,547	-0,126	-0,108
-501,912	-44,433	0,026	0,009
-500,897	656,431	-0,045	0,084
-499,883	248,832	0,047	0,058
-498,868	543,495	0,024	-0,042
-497,853	800,000	0,039	-0,095
-496,839	94,971	-0,032	-0,026
-495,824	-71,120	0,198	-0,054
-494,810	45,540	-0,070	0,047
-493,795	1,250	-0,219	-0,114
-492,781	-200,000	-0,064	-0,210
-491,766	47,392	0,046	-0,031
-490,751	800,000	-0,010	0,029
-489,737	243,201	0,038	-0,046
-488,722	-40,217	0,118	0,044
-487,708	-200,000	0,009	0,148
-486,693	-28,932	0,031	0,013
-485,678	-200,000	0,000	-0,087
-484,664	32,524	-0,138	-0,086
-483,649	369,258	-0,061	-0,090
-482,635	-192,691	0,081	0,001
-481,620	133,562	0,158	0,149
-480,605	28,325	0,104	0,064
-479,591	-87,671	-0,113	0,025
-478,576	-200,000	-0,046	0,000
-477,562	335,925	0,080	0,114
-476,547	74,770	-0,068	-0,052
-475,532	38,065	-0,164	-0,106
-474,518	-53,391	-0,098	-0,033
-473,503	-200,000	-0,012	-0,147
-472,489	54,995	-0,063	-0,044
-471,474	800,000	-0,007	-0,020
-470,459	800,000	-0,001	-0,003
-469,445	-95,601	-0,060	-0,012
-468,430	-200,000	-0,011	0,131
-467,416	172,559	0,017	0,018
-466,401	-56,226	0,041	0,013
-465,386	-200,000	-0,028	-0,111
-464,372	-200,000	-0,018	-0,084
-463,357	-200,000	0,009	-0,114
-462,343	-69,449	-0,080	-0,022
-461,328	800,000	-0,077	-0,176
-460,313	-45,602	0,175	0,063
-459,299	741,918	0,012	-0,024
-458,284	45,455	-0,064	0,043
-457,270	170,422	0,079	0,082
-456,255	-112,985	-0,042	0,006
-455,241	800,000	-0,018	-0,050
-454,226	-114,102	0,205	0,028
-453,211	216,948	-0,057	-0,066
-452,197	800,000	-0,045	-0,103
-451,182	-174,694	0,127	0,003
-450,168	-33,496	0,162	-0,065
-449,153	300,068	0,066	-0,089
-448,138	162,276	-0,079	-0,080
-447,124	-17,782	-0,173	-0,078
-446,109	-6,722	0,109	-0,054
-445,095	-173,525	-0,135	0,003
-444,080	35,256	0,075	-0,048
-443,065	-103,179	0,079	0,013
-442,051	-11,709	0,064	0,030
-441,036	-200,000	-0,009	-0,067
-440,022	-182,177	0,107	-0,001
-439,007	-10,016	-0,169	0,082
-437,992	269,809	0,089	0,114
-436,978	-200,000	-0,013	-0,042
-435,963	82,467	0,026	-0,020
-434,949	360,665	0,028	-0,041
-433,934	286,560	0,039	0,051
-432,919	-8,772	-0,152	0,074
-431,905	-0,618	0,083	0,043
-430,890	258,868	-0,018	0,023
-429,876	-106,222	0,056	-0,009
-428,861	-200,000	-0,002	0,061
-427,846	-24,185	-0,120	-0,052
-426,832	129,056	0,093	-0,086
-425,817	-117,624	0,119	-0,015
-424,803	188,340	-0,036	-0,039
-423,788	-200,000	-0,012	-0,080
-422,773	-200,000	0,008	-0,136
-421,759	11,076	-0,091	0,050
-420,744	-29,820	-0,031	0,013
-419,730	158,739	-0,014	-0,015
-418,715	-64,084	-0,017	0,005
-417,701	-200,000	-0,028	0,159
-416,686	-100,966	0,078	-0,014
-415,671	114,529	0,067	0,059
-414,657	228,168	-0,076	0,090
-413,642	800,000	0,034	-0,105
-412,628	-132,235	-0,082	0,008
-411,613	-200,000	-0,003	0,053
-410,598	-4,777	0,074	0,037
-409,584	184,651	0,064	-0,068
-408,569	165,413	0,095	-0,097
-407,555	-42,358	-0,137	-0,051
-406,540	-200,000	-0,041	0,163
-405,525	-200,000	0,021	-0,079
-404,511	325,046	-0,036	-0,050
-403,496	291,969	-0,075	-0,099
-402,482	667,952	-0,019	0,037
-401,467	79,215	-0,127	0,099
-400,452	-185,313	0,082	-0,001
-399,438	167,071	-0,035	0,036
-398,423	-12,243	-0,142	-0,067
-397,409	30,225	0,134	-0,083
-396,394	184,965	-0,040	-0,043
-395,379	-74,697	0,060	-0,015
-394,365	800,000	-0,038	0,112
-393,350	800,000	-0,062	0,131
-392,336	217,563	0,074	0,085
-391,321	-118,256	-0,079	0,010
-390,306	-111,912	-0,065	-0,009
-389,292	-45,205	0,089	0,032
-388,277	-118,806	0,124	-0,016
-387,263	40,344	0,085	0,055
-386,248	18,579	0,100	0,058
-385,233	540,497	-0,057	-0,099
-384,219	-140,076	0,099	0,007
-383,204	-104,589	-0,036	-0,006
-382,190	-72,008	0,001	-0,000
-381,175	99,384	0,090	0,075
-380,160	-200,000	-0,044	0,175
-379,146	310,388	0,043	0,059
-378,131	197,684	0,025	-0,028
-377,117	-61,890	-0,088	0,026
-376,102	-94,030	-0,100	-0,020
-375,088	-200,000	-0,002	0,083
-374,073	371,697	-0,060	0,089
-373,058	128,482	0,106	0,097
-372,044	-200,000	-0,007	-0,062
-371,029	-200,000	0,020	-0,112
-370,015	236,948	-0,021	0,025
-369,000	165,128	-0,077	-0,079
-367,985	-200,000	-0,027	-0,094
-366,971	-200,000	-0,020	0,135
-365,956	215,066	0,031	0,036
-364,942	-55,164	0,059	-0,019
-363,927	-200,000	0,044	0,178
-362,912	-169,152	-0,087	-0,002
-361,898	486,029	-0,053	0,088
-360,883	-200,000	0,014	0,086
-359,869	241,940	-0,031	0,038
-358,854	479,024	0,014	-0,023
-357,839	-31,110	0,080	-0,032
-356,825	800,000	0,035	0,072
-355,810	133,756	0,066	0,062
-354,796	494,871	0,038	0,063
-353,781	800,000	-0,044	-0,094
-352,766	17,409	0,059	0,034
-351,752	800,000	0,046	0,119
-350,737	800,000	0,019	0,057
-349,723	98,420	-0,043	0,036
-348,708	83,004	0,024	0,019
-347,693	800,000	-0,010	0,024
-346,679	653,120	-0,086	-0,160
-345,664	279,088	-0,070	-0,091
-344,650	18,753	0,043	0,025
-343,635	-200,000	-0,025	0,197
-342,620	800,000	-0,033	0,069
-341,606	-22,031	-0,038	-0,017
-340,591	39,785	-0,040	-0,026
-339,577	115,427	-0,065	-0,057
-338,562	800,000	0,023	0,060
-337,548	303,506	0,041	0,055
-336,533	-139,486	-0,055	-0,004
-335,518	242,686	-0,046	0,056
-334,504	402,190	0,075	-0,114
-333,489	-11,508	-0,110	-0,052
-332,475	385,117	0,041	-0,061
-331,460	318,459	0,089	-0,123
-330,445	-200,000	0,014	0,075
-329,431	-79,077	0,081	0,020
-328,416	-101,416	0,098	-0,017
-327,402	-200,000	-0,007	-0,085
-326,387	800,000	0,065	-0,153
-325,372	218,360	0,093	-0,108
-324,358	40,437	-0,044	0,028
-323,343	-103,229	0,068	-0,011
-322,329	258,760	0,049	-0,061
-321,314	-136,824	-0,150	0,012
-320,299	-200,000	-0,020	0,113
-319,285	800,000	-0,030	-0,082
-318,270	-9,964	0,071	-0,034
-317,256	-32,235	0,101	0,041
-316,241	255,228	-0,033	-0,041
-315,226	230,283	-0,022	0,026
-314,212	-200,000	-0,010	0,035
-313,197	-200,000	-0,008	-0,034
-312,183	-200,000	-0,015	-0,064
-311,168	-200,000	0,036	-0,135
-310,153	-70,486	-0,106	0,029
-309,139	-200,000	0,020	0,070
-308,124	-200,000	-0,016	0,055
-307,110	-50,663	0,106	0,036
-306,095	-200,000	0,007	-0,034
-305,080	800,000	0,011	-0,033
-304,066	6,694	-0,193	-0,103
-303,051	240,009	0,105	0,127
-302,037	-200,000	-0,017	0,055
-301,022	-200,000	-0,018	-0,062
-300,008	-200,000	0,031	0,136
-298,993	-187,345	0,111	0,001
-297,978	635,171	0,071	-0,130
-296,964	-102,810	-0,155	0,026
-295,949	60,652	-0,036	0,026
-294,935	-89,447	0,012	-0,003
-293,920	303,449	0,057	0,077
-292,905	-200,000	0,000	-0,109
-291,891	417,837	0,068	-0,106
-290,876	-200,000	-0,003	0,186
-289,862	800,000	0,020	-0,051
-288,847	780,995	0,024	-0,048
-287,832	800,000	-0,014	0,039
-286,818	-200,000	0,024	-0,166
-285,803	133,047	0,055	0,051
-284,789	-200,000	-0,005	0,078
-283,774	-200,000	0,000	0,047
-282,759	655,253	-0,030	0,055
-281,745	37,873	-0,088	-0,056
-280,730	-67,538	-0,077	0,022
-279,716	-90,043	-0,043	0,009
-278,701	92,990	0,031	0,025
-277,686	-200,000	0,043	0,157
-276,672	43,548	0,103	0,068
-275,657	14,379	-0,127	0,071
-274,643	508,710	-0,036	-0,060
-273,628	-200,000	0,020	-0,159
-272,613	134,712	0,044	0,041
-271,599	678,286	0,003	-0,005
-270,584	800,000	0,013	0,040
-269,570	-200,000	0,010	0,064
-268,555	669,878	-0,022	0,041
-267,540	-200,000	0,009	-0,043
-266,526	48,112	0,019	0,013
-265,511	98,494	-0,115	-0,095
-264,497	424,713	0,033	0,052
-263,482	-105,177	0,085	0,014
-262,467	116,693	-0,018	0,016
-261,453	18,097	0,012	0,007
-260,438	-200,000	0,022	-0,117
-259,424	800,000	-0,060	-0,143
-258,409	-48,210	0,049	-0,017
-257,395	800,000	0,017	-0,041
-256,380	278,123	-0,034	-0,044
-255,365	-10,944	0,096	0,045
-254,351	-73,640	0,015	-0,004
-253,336	-97,875	-0,082	0,015
-252,322	73,594	0,118	0,089
-251,307	57,221	-0,098	-0,069
-250,292	-151,999	-0,028	-0,001
-249,278	-154,907	0,194	-0,009
-248,263	14,669	0,197	-0,111
-247,249	-200,000	-0,009	0,056
-246,234	570,238	0,102	0,180
-245,219	300,055	-0,014	-0,019
-244,205	-200,000	-0,020	0,071
-243,190	800,000	0,011	-0,035
-242,176	-22,047	0,137	0,060
-241,161	-200,000	-0,015	0,119
-240,146	-200,000	0,010	-0,138
-239,132	143,141	-0,080	0,077
-238,117	-200,000	0,004	-0,080
-237,103	510,283	-0,058	-0,098
-236,088	-126,987	0,027	-0,003
-235,073	-157,060	0,092	0,004
-234,059	66,462	0,057	-0,041
-233,044	69,215	0,041	-0,030
-232,030	-200,000	-0,014	-0,121
-231,015	-185,325	-0,089	0,001
-230,000	800,000	0,023	-0,052
-228,986	388,769	0,014	-0,020
-227,971	123,937	-0,013	-0,012
-226,957	-200,000	0,021	-0,113
-225,942	-60,070	-0,053	0,016
-224,927	-15,085	0,105	0,048
-223,913	-112,065	0,072	-0,010
-222,898	-43,778	-0,091	0,033
-221,884	-31,839	-0,200	-0,080
-220,869	313,473	0,086	0,116
-219,855	800,000	-0,025	0,079
-218,840	152,886	-0,066	0,065
-217,825	-11,693	-0,152	0,072
-216,811	-200,000	0,044	-0,144
-215,796	-51,305	-0,149	-0,050
-214,782	528,246	0,048	-0,081
-213,767	-129,639	0,221	0,022
-212,752	151,918	-0,068	0,067
-211,738	-200,000	-0,007	-0,120
-210,723	74,755	0,074	0,056
-209,709	-36,150	0,051	-0,020
-208,694	229,645	0,029	0,034
-207,679	206,694	0,092	0,103
-206,665	800,000	-0,010	0,026
-205,650	-200,000	-0,006	0,080
-204,636	788,365	0,070	0,139
-203,621	87,601	0,100	0,080
-202,606	800,000	-0,007	-0,022
-201,592	-123,138	-0,190	-0,022
-200,577	66,978	0,025	-0,019
-199,563	-200,000	-0,009	0,128
-198,548	181,509	-0,052	0,055
-197,533	22,935	-0,013	0,007
-196,519	124,124	-0,028	0,026
-195,504	-200,000	-0,017	0,087
-194,490	345,317	0,058	-0,082
-193,475	385,569	0,074	0,110
-192,460	69,033	-0,048	0,035
-191,446	-200,000	-0,018	-0,138
-190,431	800,000	0,053	-0,117
-189,417	-84,987	0,072	0,016
-188,402	581,105	-0,071	0,126
-187,387	55,218	0,025	-0,017
-186,373	167,405	-0,091	-0,093
-185,358	-200,000	0,021	0,085
-184,344	110,827	-0,100	0,087
-183,329	-200,000	-0,008	0,135
-182,315	800,000	-0,027	0,067
-181,300	24,744	-0,053	-0,031
-180,285	-100,671	-0,063	-0,011
-179,271	800,000	-0,034	-0,085
-178,256	800,000	-0,016	0,046
-177,242	63,025	0,070	-0,050
-176,227	275,247	-0,088	0,113
-175,212	800,000	0,045	-0,098
-174,198	-61,230	0,182	0,055
-173,183	-117,741	-0,148	0,019
-172,169	446,753	-0,027	-0,043
-171,154	447,826	-0,050	-0,080
-170,139	-200,000	-0,006	-0,077
-169,125	-138,013	0,076	-0,006
-168,110	57,902	0,053	0,037
-167,096	79,882	-0,058	-0,045
-166,081	-6,447	0,098	0,048
-165,066	-156,794	-0,146	0,006
-164,052	-200,000	-0,004	0,085
-163,037	37,116	0,124	-0,079
-162,023	-94,381	0,056	-0,011
-161,008	292,425	-0,077	0,102
-159,993	135,890	0,063	0,059
-158,979	11,629	-0,111	-0,061
-157,964	136,474	-0,068	0,064
-156,950	70,920	-0,051	0,038
-155,935	316,676	0,054	0,074
-154,920	800,000	0,050	0,144
-153,906	-200,000	-0,034	0,173
-152,891	-155,616	0,067	-0,003
-151,877	-200,000	0,000	-0,033
-150,862	36,913	0,127	-0,081
-149,847	-43,507	0,023	-0,008
-148,833	-200,000	-0,006	0,031
-147,818	800,000	0,040	0,084
-146,804	-8,271	0,072	-0,035
-145,789	37,424	0,076	0,048
-144,775	-114,688	-0,206	-0,028
-143,760	405,236	0,060	-0,091
-142,745	320,601	0,045	0,062
-141,731	-94,548	0,065	0,013
-140,716	-11,298	-0,159	0,075
-139,702	-73,588	0,029	0,007
-138,687	800,000	-0,051	0,152
-137,672	-80,742	-0,090	-0,021
-136,658	80,151	-0,050	-0,038
-135,643	55,156	-0,035	-0,024
-134,629	-14,890	-0,027	0,012
-133,614	-164,680	-0,118	0,004
-132,599	-122,036	0,110	0,013
-131,585	-67,873	-0,025	0,007
-130,570	800,000	0,056	-0,119
-129,556	-200,000	-0,051	-0,222
-128,541	19,857	-0,102	-0,059
-127,526	-117,828	0,114	0,014
-126,512	69,128	0,055	-0,041
-125,497	93,342	-0,041	0,033
-124,483	437,235	-0,082	0,129
-123,468	-200,000	0,027	0,100
-122,453	-34,032	-0,057	-0,022
-121,439	43,739	0,090	-0,059
-120,424	112,071	-0,087	0,075
-119,410	708,156	0,027	-0,052
