DTS Sentinel unit serial number:	SN410029Multiplexer serial number:	ORYXHardware model number:	OX2-SRSoftware version number:	ORYX F/W v4,00 Oryx Data Collector v3.7.2.0data status	okinstallation	B6 Nyhavnadifferential loss correction	single-endedforward channel	channel 2reverse channel	N/Adate	2023/12/08time	02:20:08forward acquisition time	300,00reverse acquisition time	0,00gamma	499,1914k internal	0,3165k external	0,3165temperature offset calibration	1,0000default loss term (dB/km)	0,3820temperature slope calibration	1,0000multiplexer offset coefficient	1,0000multiplexer slope coefficient	1,0000fibre end	0,00T internal ref (°C)	13,18T ext. ref 1 (°C)	-3,70T ext. ref 2 (°C)	-3,71length (m)	temperature (°C)	Stokes	anti-Stokes-744,400	-13,740	0,161	-0,076
-743,385	-15,929	-0,280	-0,131
-742,371	-74,691	0,146	-0,038
-741,356	-195,950	-0,337	0,002
-740,342	-30,469	0,111	-0,046
-739,327	-98,139	-0,385	-0,072
-738,312	-69,713	0,090	-0,025
-737,298	-97,595	-0,262	-0,049
-736,283	418,918	0,041	0,065
-735,269	-86,906	-0,152	0,034
-734,254	-62,387	0,117	0,036
-733,239	-80,629	-0,565	-0,137
-732,225	-109,902	0,285	-0,043
-731,210	800,000	-0,056	-0,136
-730,196	74,159	-0,097	-0,075
-729,181	312,338	0,076	-0,106
-728,167	-31,599	-0,112	-0,046
-727,152	174,682	0,126	-0,134
-726,137	103,449	-0,143	0,123
-725,123	23,274	-0,061	0,037
-724,108	-200,000	-0,006	-0,212
-723,094	747,213	-0,091	-0,181
-722,079	800,000	-0,003	0,006
-721,064	98,772	0,053	0,045
-720,050	240,560	0,037	0,046
-719,035	7,628	0,023	0,013
-718,021	357,183	-0,077	-0,113
-717,006	800,000	-0,049	-0,108
-715,991	-200,000	-0,034	-0,156
-714,977	367,897	-0,013	0,019
-713,962	-200,000	-0,012	-0,097
-712,948	-200,000	0,016	0,056
-711,933	-74,252	-0,142	-0,037
-710,918	-61,384	-0,112	-0,034
-709,904	17,388	-0,066	-0,038
-708,889	121,208	-0,009	0,008
-707,875	-103,968	-0,155	-0,026
-706,860	-200,000	0,009	0,089
-705,845	-200,000	0,029	0,114
-704,831	-68,512	-0,082	-0,023
-703,816	68,242	-0,046	0,035
-702,802	89,530	0,134	-0,110
-701,787	480,076	0,077	-0,128
-700,772	-127,769	-0,118	0,012
-699,758	224,405	0,032	0,038
-698,743	800,000	-0,034	0,069
-697,729	584,978	-0,025	-0,045
-696,714	435,313	0,086	-0,137
-695,699	-91,929	-0,063	0,013
-694,685	-200,000	-0,009	-0,042
-693,670	-46,778	-0,048	-0,017
-692,656	800,000	0,011	0,022
-691,641	-200,000	0,019	-0,101
-690,627	530,843	-0,057	0,099
-689,612	-8,381	0,087	-0,043
-688,597	115,046	0,060	0,054
-687,583	-197,676	-0,101	0,000
-686,568	-200,000	-0,008	-0,135
-685,554	140,312	-0,156	-0,151
-684,539	-2,769	0,088	-0,045
-683,524	800,000	0,021	0,048
-682,510	236,814	-0,055	-0,067
-681,495	30,837	-0,138	-0,086
-680,481	800,000	-0,036	-0,109
-679,466	800,000	-0,013	-0,042
-678,451	26,785	-0,052	-0,032
-677,437	-16,548	0,086	0,040
-676,422	-45,224	-0,039	0,014
-675,408	800,000	-0,023	0,065
-674,393	-40,433	-0,061	-0,023
-673,378	-23,189	-0,064	-0,028
-672,364	125,405	-0,032	0,030
-671,349	-129,837	0,173	-0,017
-670,335	86,435	0,074	-0,059
-669,320	-36,680	-0,106	-0,042
-668,305	-200,000	-0,005	0,099
-667,291	199,028	-0,058	0,065
-666,276	15,876	-0,067	-0,039
-665,262	221,959	-0,090	-0,107
-664,247	-113,829	-0,118	0,017
-663,232	-122,439	-0,112	0,013
-662,218	-16,208	0,060	0,028
-661,203	-131,507	0,098	-0,009
-660,189	-200,000	-0,011	-0,103
-659,174	-83,629	-0,139	0,032
-658,159	-200,000	-0,035	-0,180
-657,145	23,645	-0,038	-0,023
-656,130	-53,497	-0,063	0,021
-655,116	800,000	0,041	-0,097
-654,101	645,079	-0,039	0,073
-653,086	-83,514	0,107	0,025
-652,072	71,412	-0,040	-0,030
-651,057	460,428	0,089	-0,145
-650,043	-148,841	0,116	0,007
-649,028	-200,000	-0,020	-0,100
-648,014	-200,000	-0,013	-0,053
-646,999	-45,701	-0,024	0,009
-645,984	-30,375	0,051	0,021
-644,970	791,729	0,035	-0,071
-643,955	17,046	-0,101	-0,058
-642,941	-192,735	-0,181	-0,001
-641,926	-81,949	-0,048	0,011
-640,911	800,000	-0,047	0,100
-639,897	-45,492	0,140	0,050
-638,882	43,918	-0,042	-0,028
-637,868	-75,587	-0,041	-0,011
-636,853	800,000	-0,062	-0,153
-635,838	-200,000	0,014	-0,134
-634,824	428,107	-0,075	-0,119
-633,809	800,000	0,075	-0,208
-632,795	800,000	0,024	-0,073
-631,780	206,516	0,007	0,008
-630,765	66,120	0,097	-0,072
-629,751	-200,000	-0,008	-0,166
-628,736	-134,358	-0,087	0,008
-627,722	-200,000	0,016	-0,151
-626,707	-0,314	0,025	-0,013
-625,692	494,523	-0,045	-0,076
-624,678	21,689	-0,026	0,016
-623,663	372,746	-0,090	-0,134
-622,649	152,280	-0,040	-0,040
-621,634	-200,000	-0,013	-0,081
-620,619	-90,318	-0,075	0,016
-619,605	-105,018	0,144	-0,024
-618,590	800,000	0,039	0,091
-617,576	800,000	0,032	-0,089
-616,561	537,722	0,043	-0,076
-615,546	-87,781	-0,065	-0,014
-614,532	-64,770	0,047	0,014
-613,517	-200,000	-0,007	0,120
-612,503	222,675	-0,062	-0,073
-611,488	45,789	-0,064	-0,043
-610,474	-200,000	0,018	-0,094
-609,459	146,992	-0,051	0,050
-608,444	-153,162	-0,086	-0,004
-607,430	-200,000	-0,012	-0,103
-606,415	800,000	-0,058	-0,181
-605,401	800,000	0,084	-0,234
-604,386	800,000	-0,040	0,126
-603,371	104,072	0,036	0,031
-602,357	650,809	-0,026	-0,048
-601,342	-200,000	0,035	-0,136
-600,328	-200,000	-0,002	0,025
-599,313	-200,000	0,031	-0,115
-598,298	-124,500	-0,069	-0,008
-597,284	68,708	-0,124	-0,093
-596,269	331,844	0,082	0,116
-595,255	-135,397	-0,077	0,007
-594,240	-200,000	0,000	0,012
-593,225	800,000	0,043	0,114
-592,211	800,000	-0,046	-0,115
-591,196	-75,607	-0,088	-0,023
-590,182	140,670	0,054	0,052
-589,167	800,000	0,028	0,058
-588,152	-131,586	-0,066	-0,006
-587,138	171,861	-0,044	0,046
-586,123	31,705	-0,037	-0,023
-585,109	110,707	-0,098	-0,086
-584,094	-200,000	-0,024	-0,091
-583,079	92,283	0,057	-0,047
-582,065	-200,000	-0,041	-0,142
-581,050	800,000	-0,013	-0,031
-580,036	-200,000	0,010	0,140
-579,021	-200,000	-0,042	-0,182
-578,006	265,595	-0,040	-0,051
-576,992	-200,000	-0,007	-0,052
-575,977	-83,547	-0,059	-0,014
-574,963	237,747	-0,048	-0,058
-573,948	-108,318	0,088	-0,014
-572,934	622,901	0,021	0,038
-571,919	800,000	-0,052	-0,121
-570,904	587,886	-0,049	-0,089
-569,890	-200,000	-0,020	-0,139
-568,875	-51,618	-0,048	0,016
-567,861	-200,000	-0,022	0,115
-566,846	-200,000	-0,003	0,046
-565,831	-74,778	-0,073	0,019
-564,817	427,050	-0,042	0,067
-563,802	-117,049	-0,185	-0,024
-562,788	641,046	0,037	-0,070
-561,773	-110,315	0,083	-0,013
-560,758	800,000	0,072	-0,179
-559,744	800,000	-0,073	-0,177
-558,729	800,000	-0,041	0,112
-557,715	128,717	-0,119	-0,111
-556,700	800,000	-0,042	0,092
-555,685	800,000	0,015	-0,030
-554,671	-151,624	0,035	-0,002
-553,656	21,831	-0,028	-0,016
-552,642	-79,480	-0,031	0,008
-551,627	43,967	-0,056	-0,037
-550,612	-142,540	0,105	0,007
-549,598	173,373	0,026	0,028
-548,583	68,323	0,055	-0,041
-547,569	54,516	-0,164	0,115
-546,554	249,458	0,091	-0,112
-545,539	109,438	-0,066	-0,058
-544,525	800,000	0,056	-0,113
-543,510	158,881	-0,146	-0,148
-542,496	309,380	-0,058	-0,080
-541,481	53,704	-0,101	-0,071
-540,466	-200,000	0,060	0,225
-539,452	402,220	-0,052	-0,080
-538,437	-200,000	0,010	0,164
-537,423	-200,000	-0,014	0,120
-536,408	800,000	-0,005	-0,016
-535,393	323,563	0,073	-0,102
-534,379	-200,000	-0,013	-0,109
-533,364	-200,000	0,005	0,090
-532,350	60,655	-0,123	0,089
-531,335	79,563	-0,065	0,051
-530,321	564,365	-0,013	-0,023
-529,306	-200,000	-0,001	0,018
-528,291	46,769	-0,043	-0,029
-527,277	-200,000	-0,022	-0,073
-526,262	800,000	0,065	-0,135
-525,248	207,157	0,084	0,096
-524,233	-101,441	-0,122	0,021
-523,218	87,654	0,041	-0,033
-522,204	701,131	0,037	-0,072
-521,189	52,784	-0,040	-0,028
-520,175	-91,300	-0,094	0,020
-519,160	636,313	0,015	-0,029
-518,145	431,283	-0,059	0,093
-517,131	162,349	-0,028	-0,028
-516,116	-9,564	0,157	0,076
-515,102	14,976	0,025	-0,014
-514,087	652,678	0,033	-0,062
-513,072	-84,817	-0,049	0,011
-512,058	-179,363	0,118	-0,002
-511,043	-44,102	-0,084	-0,031
-510,029	-200,000	-0,009	0,106
-509,014	-200,000	-0,004	0,095
-507,999	-200,000	-0,028	0,096
-506,985	28,276	-0,077	-0,047
-505,970	-200,000	0,003	0,021
-504,956	-57,046	-0,112	-0,036
-503,941	-82,508	0,152	-0,036
-502,926	476,802	0,027	0,044
-501,912	-102,553	-0,024	0,004
-500,897	-12,780	0,050	-0,024
-499,883	-136,824	-0,119	-0,010
-498,868	-12,784	-0,088	-0,042
-497,853	1,538	-0,092	0,048
-496,839	-200,000	0,038	0,197
-495,824	-200,000	-0,038	0,172
-494,810	800,000	-0,058	0,125
-493,795	-89,132	0,114	0,024
-492,781	294,459	0,075	-0,101
-491,766	-145,169	0,006	0,000
-490,751	138,163	-0,066	-0,063
-489,737	-20,356	-0,050	0,022
-488,722	-200,000	0,000	-0,017
-487,708	361,628	0,036	0,052
-486,693	18,042	0,113	-0,065
-485,678	-200,000	-0,014	0,153
-484,664	-116,700	-0,116	-0,015
-483,649	379,031	-0,065	-0,097
-482,635	-151,825	-0,117	-0,006
-481,620	800,000	0,009	-0,022
-480,605	-19,667	0,028	0,013
-479,591	252,325	0,085	0,106
-478,576	356,469	-0,038	0,055
-477,562	16,073	-0,053	0,030
-476,547	-200,000	-0,011	0,152
-475,532	-200,000	0,014	0,085
-474,518	-200,000	-0,019	0,067
-473,503	111,723	0,053	0,047
-472,489	-200,000	-0,012	0,041
-471,474	-59,887	-0,123	-0,038
-470,459	-126,722	0,077	0,008
-469,445	-7,941	-0,052	0,026
-468,430	-67,179	0,036	0,010
-467,416	-200,000	-0,009	-0,072
-466,401	110,358	0,021	0,019
-465,386	-43,614	0,123	-0,045
-464,372	-127,436	-0,125	0,013
-463,357	-21,015	-0,071	0,032
-462,343	800,000	0,049	-0,115
-461,328	-158,488	0,031	0,001
-460,313	800,000	0,035	-0,071
-459,299	-38,330	-0,099	-0,038
-458,284	383,253	-0,039	-0,059
-457,270	800,000	0,007	0,020
-456,255	12,863	0,045	-0,025
-455,241	218,805	-0,055	-0,064
-454,226	-200,000	-0,036	-0,151
-453,211	185,819	-0,020	-0,022
-452,197	-3,791	0,148	-0,074
-451,182	-162,532	-0,058	0,002
-450,168	253,088	-0,052	0,064
-449,153	302,670	-0,080	0,108
-448,138	138,743	-0,039	0,037
-447,124	166,489	-0,054	0,056
-446,109	556,857	-0,013	0,023
-445,095	51,630	-0,052	0,036
-444,080	315,025	-0,043	0,059
-443,065	-140,706	-0,061	0,005
-442,051	75,988	0,060	-0,046
-441,036	84,262	-0,062	-0,049
-440,022	-93,015	0,136	0,027
-439,007	-171,067	0,099	-0,002
-437,992	105,725	-0,067	-0,057
-436,978	-200,000	0,031	0,150
-435,963	-200,000	-0,010	0,079
-434,949	144,201	-0,073	0,071
-433,934	360,453	0,045	-0,066
-432,919	-200,000	0,010	0,045
-431,905	-200,000	0,027	0,141
-430,890	-146,476	0,071	0,004
-429,876	-200,000	-0,006	0,157
-428,861	-200,000	-0,008	0,045
-427,846	-200,000	-0,009	0,062
-426,832	328,958	-0,098	-0,137
-425,817	-200,000	-0,005	0,177
-424,803	-5,144	-0,067	0,033
-423,788	180,896	0,094	0,100
-422,773	-200,000	0,015	0,069
-421,759	-147,403	0,064	0,004
-420,744	-66,191	0,068	-0,020
-419,730	800,000	-0,038	-0,103
-418,715	-200,000	-0,013	-0,057
-417,701	278,824	-0,064	0,083
-416,686	226,601	0,063	0,075
-415,671	318,880	0,140	0,194
-414,657	-36,026	0,161	0,063
-413,642	127,497	0,111	-0,103
-412,628	800,000	0,008	-0,019
-411,613	-142,491	0,039	0,003
-410,598	-200,000	-0,004	-0,056
-409,584	800,000	0,041	0,110
-408,569	184,846	0,147	0,158
-407,555	-30,653	0,179	0,073
-406,540	-200,000	-0,012	-0,040
-405,525	800,000	0,052	0,140
-404,511	-163,172	-0,206	-0,007
-403,496	-200,000	-0,013	0,098
-402,482	-40,923	0,093	0,035
-401,467	-200,000	0,012	0,116
-400,452	-126,454	-0,131	0,014
-399,438	24,306	-0,017	-0,010
-398,423	-37,634	0,070	0,027
-397,409	-31,952	0,061	-0,025
-396,394	-85,325	0,011	-0,002
-395,379	103,541	-0,108	-0,092
-394,365	-139,810	-0,022	0,002
-393,350	-200,000	0,015	-0,107
-392,336	-200,000	0,032	-0,144
-391,321	419,368	-0,023	-0,036
-390,306	800,000	-0,031	-0,096
-389,292	-71,179	0,066	0,018
-388,277	-200,000	-0,025	-0,111
-387,263	-24,491	0,082	0,035
-386,248	-200,000	-0,008	0,029
-385,233	800,000	0,041	0,112
-384,219	620,874	0,031	0,057
-383,204	-200,000	-0,013	-0,127
-382,190	-200,000	-0,016	-0,078
-381,175	800,000	0,044	0,135
-380,160	58,443	0,039	0,028
-379,146	5,920	0,204	0,109
-378,131	-0,846	-0,039	0,020
-377,117	107,781	0,087	-0,075
-376,102	-200,000	-0,045	0,154
-375,088	-90,456	-0,163	0,034
-374,073	-95,974	0,109	-0,021
-373,058	676,474	-0,016	-0,030
-372,044	455,938	0,038	-0,061
-371,029	-16,627	0,099	0,045
-370,015	233,558	-0,040	0,048
-369,000	386,372	0,032	-0,048
-367,985	-39,688	-0,133	-0,050
-366,971	800,000	-0,029	-0,070
-365,956	-110,217	0,118	0,018
-364,942	1,621	0,024	-0,012
-363,927	800,000	-0,084	0,171
-362,912	18,484	-0,075	0,043
-361,898	800,000	0,061	-0,167
-360,883	219,761	-0,049	0,057
-359,869	-47,849	-0,031	0,011
-358,854	503,993	0,048	-0,081
-357,839	-112,208	-0,039	-0,006
-356,825	800,000	-0,063	-0,173
-355,810	-200,000	-0,034	0,141
-354,796	191,725	-0,038	0,042
-353,781	-159,120	0,049	-0,002
-352,766	82,818	-0,020	-0,016
-351,752	-155,995	-0,089	-0,004
-350,737	553,162	0,110	-0,192
-349,723	-23,802	0,011	0,005
-348,708	800,000	0,042	0,123
-347,693	-200,000	0,020	-0,107
-346,679	81,387	0,053	0,041
-345,664	191,880	-0,029	-0,032
-344,650	295,289	-0,093	-0,124
-343,635	-19,524	0,049	0,022
-342,620	107,288	0,040	0,035
-341,606	800,000	-0,056	0,118
-340,591	757,252	-0,049	0,096
-339,577	-106,379	-0,060	0,010
-338,562	-23,566	-0,091	-0,039
-337,548	-200,000	0,006	-0,115
-336,533	107,652	-0,057	0,049
-335,518	-179,226	-0,150	0,002
-334,504	-82,669	0,180	0,042
-333,489	-135,330	0,072	-0,006
-332,475	45,949	0,078	0,052
-331,460	29,634	0,086	0,053
-330,445	-200,000	-0,049	0,168
-329,431	-115,697	-0,029	-0,004
-328,416	-200,000	-0,008	-0,053
-327,402	-0,831	0,106	-0,054
-326,387	603,789	0,025	-0,045
-325,372	92,105	0,060	-0,049
-324,358	68,539	0,024	0,018
-323,343	355,402	0,067	-0,096
-322,329	-68,949	-0,053	0,015
-321,314	-149,083	0,158	0,009
-320,299	4,347	-0,112	0,059
-319,285	-200,000	-0,005	0,142
-318,270	163,450	0,023	-0,024
-317,256	-77,289	-0,088	0,022
-316,241	-200,000	0,006	-0,115
-315,226	-79,754	0,143	0,035
-314,212	-200,000	0,040	-0,129
-313,197	-4,390	-0,051	0,025
-312,183	108,435	0,117	0,101
-311,168	-149,155	-0,163	0,009
-310,153	36,854	-0,058	0,037
-309,139	-200,000	-0,013	0,040
-308,124	-200,000	-0,016	0,052
-307,110	167,589	0,069	-0,071
-306,095	-51,372	-0,129	0,043
-305,080	59,358	0,028	-0,020
-304,066	553,744	-0,049	-0,086
-303,051	-200,000	-0,003	0,080
-302,037	450,619	0,048	0,077
-301,022	197,198	-0,066	-0,073
-300,008	111,269	0,081	0,071
-298,993	-15,672	0,035	-0,016
-297,978	-55,772	0,023	0,007
-296,964	-175,984	-0,051	0,001
-295,949	-149,427	0,023	0,001
-294,935	290,866	0,047	0,062
-293,920	-14,403	0,126	-0,058
-292,905	-1,312	-0,047	0,024
-291,891	-55,931	0,135	-0,043
-290,876	800,000	-0,032	0,097
-289,862	-200,000	0,013	-0,117
-288,847	800,000	0,040	-0,083
-287,832	-64,321	-0,173	-0,050
-286,818	-82,080	0,143	0,033
-285,803	64,753	-0,154	0,112
-284,789	-53,546	0,062	-0,020
-283,774	206,602	-0,057	0,064
-282,759	-200,000	0,016	0,058
-281,745	-200,000	-0,001	0,034
-280,730	-19,456	0,134	-0,060
-279,716	158,239	-0,045	0,045
-278,701	800,000	0,045	0,100
-277,686	134,832	0,077	0,072
-276,672	-200,000	0,026	0,121
-275,657	-128,172	0,072	0,007
-274,643	51,916	0,122	0,084
-273,628	424,254	-0,046	-0,072
-272,613	183,069	-0,061	-0,065
-271,599	306,414	0,111	0,150
-270,584	435,296	0,048	0,076
-269,570	264,392	0,039	-0,049
-268,555	-114,369	-0,082	0,011
-267,540	800,000	0,057	-0,118
-266,526	800,000	-0,034	0,075
-265,511	-200,000	-0,004	0,048
-264,497	780,345	0,015	0,030
-263,482	-61,722	0,066	0,020
-262,467	-200,000	-0,022	0,099
-261,453	-200,000	-0,006	-0,073
-260,438	141,166	0,036	-0,034
-259,424	-174,089	0,121	0,002
-258,409	170,552	0,103	0,106
-257,395	329,403	0,043	0,060
-256,380	426,081	0,070	0,110
-255,365	-200,000	-0,003	-0,052
-254,351	45,914	0,109	0,073
-253,336	-134,469	-0,077	-0,007
-252,322	-200,000	-0,014	-0,079
-251,307	-36,985	-0,106	0,041
-250,292	-200,000	0,004	-0,054
-249,278	800,000	-0,029	-0,081
-248,263	-94,997	0,109	-0,021
-247,249	412,651	-0,082	0,127
-246,234	-200,000	-0,012	0,073
-245,219	-200,000	0,011	-0,098
-244,205	-91,798	-0,135	-0,027
-243,190	353,056	0,030	0,043
-242,176	-119,709	-0,027	0,003
-241,161	-200,000	0,018	0,076
-240,146	-12,817	0,014	-0,007
-239,132	-82,452	0,079	-0,018
-238,117	-143,541	0,143	0,010
-237,103	-200,000	-0,005	0,030
-236,088	800,000	-0,021	-0,056
-235,073	-200,000	0,021	-0,141
-234,059	-107,363	-0,174	-0,027
-233,044	800,000	0,010	-0,028
-232,030	-200,000	0,013	-0,093
-231,015	-200,000	0,004	0,026
-230,000	-200,000	0,042	-0,135
-228,986	-118,028	-0,075	-0,009
-227,971	-27,647	0,099	0,041
-226,957	-75,769	0,124	0,032
-225,942	-200,000	0,007	0,129
-224,927	-200,000	0,006	0,224
-223,913	29,205	0,029	0,017
-222,898	800,000	0,055	-0,117
-221,884	-127,175	-0,107	0,011
-220,869	254,046	0,071	0,087
-219,855	-138,918	0,123	-0,010
-218,840	800,000	-0,013	-0,028
-217,825	-21,840	-0,063	-0,028
-216,811	61,435	0,123	-0,088
-215,796	-142,279	-0,164	0,012
-214,782	-200,000	0,006	0,091
-213,767	161,987	0,159	0,161
-212,752	111,101	0,052	0,045
-211,738	-158,265	-0,049	0,002
-210,723	-81,429	-0,047	0,011
-209,709	51,944	-0,066	-0,045
-208,694	-200,000	0,015	-0,204
-207,679	-44,797	0,141	-0,050
-206,665	-200,000	-0,024	-0,118
-205,650	-78,592	0,067	0,016
-204,636	29,465	-0,048	0,029
-203,621	243,154	-0,030	0,036
-202,606	-86,457	-0,134	0,029
-201,592	-70,835	-0,110	-0,030
-200,577	141,376	0,046	0,044
-199,563	343,131	0,059	-0,084
-198,548	-94,712	-0,036	-0,007
-197,533	-36,943	-0,036	0,014
-196,519	-14,555	-0,052	-0,024
-195,504	-77,570	-0,137	-0,034
-194,490	800,000	0,004	-0,010
-193,475	49,990	0,111	0,075
-192,460	-72,413	0,073	-0,019
-191,446	472,235	0,057	0,093
-190,431	242,322	-0,015	-0,018
-189,417	-1,073	-0,069	-0,035
-188,402	102,464	0,026	0,022
-187,387	-86,797	-0,109	0,024
-186,373	800,000	0,013	-0,038
-185,358	496,767	0,066	0,110
-184,344	-59,871	0,175	0,054
-183,329	-143,420	0,136	-0,009
-182,315	-122,164	0,178	-0,021
-181,300	-24,888	-0,085	0,036
-180,285	-20,344	-0,036	0,016
-179,271	-79,384	0,074	0,018
-178,256	43,551	0,086	0,057
-177,242	423,311	0,034	0,053
-176,227	-200,000	0,037	0,119
-175,212	134,818	-0,109	0,102
-174,198	800,000	0,028	-0,085
-173,183	-200,000	-0,041	-0,159
-172,169	-200,000	0,005	-0,097
-171,154	-200,000	-0,002	-0,111
-170,139	-12,915	-0,017	0,008
-169,125	67,123	0,084	-0,061
-168,110	-200,000	-0,006	0,073
-167,096	360,102	-0,019	0,027
-166,081	-200,000	-0,010	-0,080
-165,066	800,000	-0,053	-0,132
-164,052	-200,000	0,010	-0,075
-163,037	-200,000	0,021	0,119
-162,023	640,790	0,043	0,079
-161,008	-200,000	0,015	-0,049
-159,993	20,801	0,090	0,052
-158,979	-200,000	0,017	0,116
-157,964	673,872	0,085	0,160
-156,950	-111,550	-0,023	-0,003
-155,935	-113,547	-0,083	0,012
-154,920	-200,000	-0,013	0,043
-153,906	800,000	0,054	0,117
-152,891	-78,224	-0,122	-0,030
-151,877	-26,074	-0,053	-0,022
-150,862	-52,997	-0,041	-0,014
-149,847	800,000	0,070	0,174
-148,833	-60,136	0,131	-0,040
-147,818	-106,834	0,055	-0,009
-146,804	347,359	-0,031	0,044
-145,789	148,566	-0,060	0,058
-144,775	331,037	0,006	0,008
-143,760	-200,000	0,012	-0,062
-142,745	249,569	-0,011	0,014
-141,731	65,572	0,102	-0,074
-140,716	278,624	0,044	-0,056
-139,702	-196,213	-0,091	0,000
-138,687	-108,038	-0,079	0,012
-137,672	-21,746	0,048	0,021
-136,658	-200,000	-0,025	-0,207
-135,643	800,000	-0,049	-0,099
-134,629	227,462	0,042	-0,049
-133,614	-194,446	0,056	-0,000
-132,599	-23,038	0,036	0,016
-131,585	43,102	-0,085	0,056
-130,570	25,504	-0,027	-0,016
-129,556	299,069	0,041	-0,054
-128,541	-75,641	-0,051	0,013
-127,526	8,968	0,113	0,061
-126,512	-200,000	-0,014	-0,132
-125,497	111,861	0,110	-0,095
-124,483	145,093	-0,067	0,064
-123,468	-200,000	-0,005	-0,107
-122,453	-118,144	0,121	0,015
-121,439	-114,944	-0,074	0,010
-120,424	59,207	-0,158	0,111
