DTS Sentinel unit serial number:	SN410029Multiplexer serial number:	ORYXHardware model number:	OX2-SRSoftware version number:	ORYX F/W v4,00 Oryx Data Collector v3.7.2.0data status	okinstallation	B6 Nyhavnadifferential loss correction	single-endedforward channel	channel 2reverse channel	N/Adate	2023/12/09time	20:20:08forward acquisition time	300,00reverse acquisition time	0,00gamma	499,1914k internal	0,3130k external	0,3130temperature offset calibration	1,0000default loss term (dB/km)	0,3820temperature slope calibration	1,0000multiplexer offset coefficient	1,0000multiplexer slope coefficient	1,0000fibre end	0,00T internal ref (°C)	21,28T ext. ref 1 (°C)	5,38T ext. ref 2 (°C)	5,34length (m)	temperature (°C)	Stokes	anti-Stokes-744,400	30,237	0,097	-0,062
-743,385	107,664	-0,183	0,162
-742,371	286,987	0,090	-0,121
-741,356	188,112	-0,186	0,206
-740,342	16,628	0,109	0,064
-739,327	82,924	-0,281	0,227
-738,312	-200,000	-0,017	-0,147
-737,298	-109,678	-0,243	-0,038
-736,283	73,686	0,068	-0,053
-735,269	-25,132	-0,155	0,068
-734,254	211,610	0,025	-0,030
-733,239	-77,978	-0,289	-0,073
-732,225	88,955	0,103	-0,085
-731,210	-86,644	-0,022	-0,005
-730,196	185,490	0,055	0,061
-729,181	-200,000	-0,045	0,158
-728,167	-91,322	-0,123	0,026
-727,152	14,643	-0,087	0,050
-726,137	800,000	-0,012	0,035
-725,123	407,516	-0,070	0,110
-724,108	800,000	-0,020	0,045
-723,094	-143,331	-0,140	-0,010
-722,079	-60,136	-0,033	-0,010
-721,064	55,169	-0,110	-0,079
-720,050	640,731	0,049	0,093
-719,035	240,807	0,021	-0,027
-718,021	15,786	0,081	-0,047
-717,006	-200,000	0,041	-0,183
-715,991	800,000	-0,085	-0,220
-714,977	49,167	-0,081	-0,056
-713,962	-9,610	-0,012	-0,006
-712,948	800,000	-0,028	0,072
-711,933	-115,045	-0,088	0,012
-710,918	-86,275	0,044	0,010
-709,904	800,000	0,059	-0,157
-708,889	-200,000	-0,009	-0,051
-707,875	209,129	0,053	-0,062
-706,860	-200,000	-0,001	-0,070
-705,845	21,594	0,102	0,061
-704,831	132,212	0,075	0,072
-703,816	-200,000	-0,007	-0,061
-702,802	800,000	0,066	-0,153
-701,787	238,491	0,093	-0,115
-700,772	126,313	0,077	-0,072
-699,758	-31,037	-0,064	-0,027
-698,743	185,288	0,051	-0,057
-697,729	-73,966	0,042	0,011
-696,714	-200,000	0,001	0,063
-695,699	-113,724	0,044	-0,006
-694,685	800,000	-0,019	-0,041
-693,670	-98,442	-0,127	-0,024
-692,656	122,834	0,053	-0,049
-691,641	36,747	-0,053	0,035
-690,627	2,948	0,051	0,027
-689,612	67,757	-0,090	-0,068
-688,597	70,256	-0,033	0,025
-687,583	-39,570	-0,070	0,027
-686,568	-8,382	0,017	-0,008
-685,554	-113,934	-0,037	0,005
-684,539	800,000	0,008	-0,025
-683,524	261,857	0,056	-0,072
-682,510	-200,000	0,002	-0,028
-681,495	800,000	-0,024	0,065
-680,481	286,629	-0,109	-0,146
-679,466	186,044	-0,082	-0,091
-678,451	800,000	-0,028	-0,062
-677,437	-170,487	-0,104	0,003
-676,422	800,000	0,049	-0,112
-675,408	293,946	0,094	-0,128
-674,393	-152,906	-0,063	-0,003
-673,378	-65,587	-0,094	0,028
-672,364	-104,551	0,192	0,032
-671,349	-162,199	0,038	-0,001
-670,335	-69,899	0,041	0,012
-669,320	-0,367	0,024	-0,013
-668,305	766,369	0,022	-0,045
-667,291	166,600	-0,045	-0,047
-666,276	81,980	-0,062	-0,050
-665,262	309,998	0,023	-0,032
-664,247	-14,402	0,086	0,041
-663,232	-61,738	-0,054	-0,017
-662,218	165,302	-0,060	-0,063
-661,203	613,035	-0,039	0,073
-660,189	60,143	-0,056	-0,041
-659,174	397,844	-0,055	-0,086
-658,159	-200,000	0,014	-0,104
-657,145	586,945	-0,048	0,088
-656,130	101,082	0,083	0,072
-655,116	-10,962	-0,163	0,079
-654,101	298,345	-0,020	-0,027
-653,086	-67,244	0,060	0,017
-652,072	-200,000	0,022	0,120
-651,057	281,449	-0,055	0,073
-650,043	-34,622	0,091	0,037
-649,028	245,659	-0,088	-0,109
-648,014	235,662	0,021	-0,026
-646,999	82,063	0,056	0,045
-645,984	-200,000	-0,008	0,146
-644,970	-200,000	-0,008	-0,074
-643,955	556,077	-0,084	-0,151
-642,941	31,609	-0,056	0,036
-641,926	156,293	-0,168	-0,172
-640,911	89,848	-0,090	-0,074
-639,897	-32,200	0,099	-0,041
-638,882	800,000	-0,029	-0,071
-637,868	367,455	-0,056	-0,084
-636,853	-1,507	-0,041	0,021
-635,838	-69,411	-0,090	0,025
-634,824	229,948	0,070	0,084
-633,809	-200,000	0,015	0,096
-632,795	-200,000	0,003	-0,116
-631,780	119,105	-0,045	-0,041
-630,765	-76,565	-0,178	0,046
-629,751	-64,751	-0,072	-0,022
-628,736	11,347	-0,093	0,053
-627,722	-200,000	-0,021	0,102
-626,707	-177,218	-0,020	0,000
-625,692	416,310	0,077	0,122
-624,678	800,000	-0,028	-0,059
-623,663	-200,000	-0,001	-0,043
-622,649	48,821	-0,066	-0,046
-621,634	-177,834	-0,180	-0,003
-620,619	800,000	-0,033	-0,076
-619,605	350,883	-0,061	-0,090
-618,590	10,159	0,108	0,061
-617,576	130,745	0,053	-0,051
-616,561	635,443	-0,026	-0,048
-615,546	-200,000	0,008	0,058
-614,532	-43,510	-0,091	0,034
-613,517	-200,000	0,021	-0,084
-612,503	787,409	-0,023	0,046
-611,488	172,648	0,028	-0,030
-610,474	-68,584	-0,072	-0,021
-609,459	9,143	-0,038	0,021
-608,444	-200,000	0,000	-0,032
-607,430	463,714	-0,077	-0,128
-606,415	-52,929	-0,098	-0,033
-605,401	780,147	0,062	0,126
-604,386	-139,633	-0,042	0,003
-603,371	-92,631	0,073	0,015
-602,357	-58,875	0,133	-0,042
-601,342	800,000	-0,029	0,084
-600,328	-200,000	0,011	-0,113
-599,313	800,000	0,034	-0,108
-598,298	-200,000	-0,028	0,095
-597,284	356,840	-0,039	-0,058
-596,269	515,807	-0,019	-0,033
-595,255	-200,000	-0,009	-0,147
-594,240	220,007	-0,065	-0,077
-593,225	435,479	0,017	-0,028
-592,211	-24,124	-0,062	0,027
-591,196	64,233	0,115	0,085
-590,182	800,000	-0,013	0,037
-589,167	13,242	-0,055	-0,032
-588,152	-200,000	-0,001	-0,040
-587,138	800,000	-0,015	-0,036
-586,123	-200,000	-0,034	-0,156
-585,109	761,925	-0,061	0,124
-584,094	-200,000	0,010	-0,042
-583,079	419,777	0,046	-0,074
-582,065	-200,000	0,002	0,069
-581,050	-200,000	0,014	-0,051
-580,036	732,878	-0,053	0,105
-579,021	-157,250	-0,091	0,004
-578,006	-200,000	-0,018	-0,075
-576,992	85,293	-0,047	0,038
-575,977	414,096	0,064	0,101
-574,963	800,000	-0,019	-0,055
-573,948	325,851	-0,009	0,013
-572,934	80,843	0,092	-0,073
-571,919	621,295	-0,075	-0,139
-570,904	115,691	-0,044	-0,040
-569,890	224,755	-0,068	-0,081
-568,875	129,199	-0,084	-0,079
-567,861	-54,398	0,133	0,044
-566,846	615,780	-0,073	0,136
-565,831	29,153	-0,080	-0,050
-564,817	44,015	0,087	-0,059
-563,802	-172,285	-0,097	-0,002
-562,788	8,896	-0,045	0,025
-561,773	-103,529	0,293	-0,050
-560,758	121,010	0,093	0,086
-559,744	23,342	-0,136	0,083
-558,729	-137,860	0,119	0,010
-557,715	-104,505	-0,078	0,013
-556,700	-42,364	0,047	-0,018
-555,685	323,485	-0,084	-0,119
-554,671	-192,851	0,033	0,000
-553,656	-22,405	0,025	-0,011
-552,642	-200,000	-0,018	0,066
-551,627	-158,442	-0,055	0,002
-550,612	79,739	-0,071	0,056
-549,598	-200,000	-0,005	-0,021
-548,583	33,415	-0,141	0,090
-547,569	800,000	0,075	-0,159
-546,554	47,632	0,049	-0,034
-545,539	90,057	0,029	0,024
-544,525	-174,047	-0,066	-0,001
-543,510	-200,000	-0,008	0,072
-542,496	291,525	-0,113	-0,152
-541,481	71,225	0,096	-0,073
-540,466	-175,678	0,061	0,001
-539,452	-136,572	-0,093	0,008
-538,437	800,000	0,040	-0,095
-537,423	-74,319	-0,060	0,016
-536,408	-200,000	0,017	0,079
-535,393	800,000	0,005	0,012
-534,379	57,297	-0,077	-0,055
-533,364	403,538	0,011	-0,017
-532,350	-149,735	0,040	0,002
-531,335	175,592	-0,020	0,022
-530,321	-200,000	-0,003	0,012
-529,306	-200,000	0,015	-0,146
-528,291	89,220	0,042	-0,035
-527,277	109,059	0,100	-0,089
-526,262	-200,000	-0,004	0,062
-525,248	800,000	-0,027	0,064
-524,233	800,000	-0,033	0,071
-523,218	162,496	-0,021	-0,022
-522,204	119,045	-0,050	0,046
-521,189	-17,173	-0,072	-0,034
-520,175	37,644	-0,084	0,055
-519,160	40,247	0,103	-0,068
-518,145	-91,323	0,093	0,019
-517,131	-200,000	-0,011	-0,084
-516,116	75,690	-0,094	0,073
-515,102	-124,868	0,061	-0,007
-514,087	96,844	0,012	0,010
-513,072	-200,000	-0,024	-0,124
-512,058	582,610	-0,121	-0,220
-511,043	4,683	-0,082	0,045
-510,029	196,637	0,025	0,028
-509,014	292,021	-0,005	0,006
-507,999	800,000	-0,032	0,081
-506,985	800,000	0,009	0,024
-505,970	-200,000	-0,011	-0,126
-504,956	12,537	0,071	0,040
-503,941	-98,381	-0,112	0,021
-502,926	-17,668	0,081	0,037
-501,912	113,597	-0,110	0,099
-500,897	800,000	0,001	-0,004
-499,883	163,662	0,087	-0,090
-498,868	168,717	-0,066	0,070
-497,853	-200,000	0,009	-0,052
-496,839	231,116	0,031	0,037
-495,824	68,127	0,028	0,021
-494,810	188,560	-0,052	0,057
-493,795	-200,000	-0,004	0,049
-492,781	-53,255	-0,114	-0,038
-491,766	-46,985	-0,140	-0,050
-490,751	755,471	-0,039	0,078
-489,737	130,570	0,110	-0,104
-488,722	190,301	-0,119	-0,132
-487,708	-200,000	0,000	0,085
-486,693	-200,000	-0,024	0,080
-485,678	193,409	0,090	-0,100
-484,664	-41,024	0,058	-0,022
-483,649	107,923	-0,135	0,118
-482,635	164,241	0,093	0,097
-481,620	-200,000	0,017	-0,091
-480,605	-42,349	0,101	-0,038
-479,591	148,156	0,124	0,123
-478,576	-200,000	0,025	0,116
-477,562	47,056	-0,077	0,053
-476,547	-200,000	0,002	0,114
-475,532	17,659	-0,090	0,052
-474,518	-200,000	-0,007	0,104
-473,503	-4,310	0,037	0,019
-472,489	-200,000	0,006	0,050
-471,474	-36,231	-0,068	-0,027
-470,459	800,000	-0,017	-0,038
-469,445	-200,000	-0,002	-0,131
-468,430	-200,000	-0,003	-0,022
-467,416	364,039	0,098	0,146
-466,401	-63,363	0,047	-0,014
-465,386	28,261	0,061	-0,038
-464,372	800,000	0,008	0,017
-463,357	-200,000	0,007	0,049
-462,343	800,000	0,034	-0,092
-461,328	800,000	0,022	0,065
-460,313	9,340	-0,066	-0,037
-459,299	57,306	0,092	0,066
-458,284	800,000	0,040	0,095
-457,270	221,310	-0,041	0,048
-456,255	800,000	-0,015	0,041
-455,241	90,789	-0,106	-0,087
-454,226	198,306	0,021	-0,024
-453,211	-9,227	-0,060	0,029
-452,197	-12,431	0,105	0,050
-451,182	800,000	0,034	-0,096
-450,168	783,427	-0,043	0,086
-449,153	-200,000	0,009	-0,141
-448,138	-98,254	0,096	0,018
-447,124	-118,805	-0,158	0,020
-446,109	47,254	-0,054	-0,037
-445,095	36,727	-0,061	0,040
-444,080	-63,839	0,017	0,005
-443,065	2,347	0,116	0,062
-442,051	194,830	0,058	0,065
-441,036	28,762	-0,075	0,046
-440,022	-200,000	-0,004	-0,146
-439,007	-200,000	-0,013	-0,127
-437,992	-122,482	-0,029	0,003
-436,978	22,605	0,085	0,051
-435,963	-67,390	0,037	0,011
-434,949	800,000	0,044	-0,111
-433,934	-200,000	-0,005	0,145
-432,919	-54,203	-0,028	-0,009
-431,905	-200,000	-0,035	-0,140
-430,890	-138,400	0,123	-0,010
-429,876	800,000	0,025	-0,064
-428,861	-153,068	0,072	-0,004
-427,846	800,000	-0,015	-0,032
-426,832	609,864	-0,068	-0,126
-425,817	-149,890	-0,083	0,005
-424,803	516,008	-0,071	-0,123
-423,788	212,482	0,097	-0,113
-422,773	-200,000	-0,002	0,073
-421,759	-200,000	-0,011	0,047
-420,744	-32,094	-0,176	0,072
-419,730	97,188	-0,126	-0,106
-418,715	128,440	0,112	-0,105
-417,701	-200,000	0,011	-0,052
-416,686	-200,000	0,013	-0,098
-415,671	800,000	0,037	0,088
-414,657	-132,754	0,075	0,007
-413,642	-65,372	0,114	0,033
-412,628	-200,000	0,002	0,129
-411,613	-125,457	0,046	-0,005
-410,598	-109,167	0,129	0,020
-409,584	312,147	0,009	0,013
-408,569	27,039	0,223	0,137
-407,555	558,133	-0,047	0,084
-406,540	691,539	-0,021	0,041
-405,525	35,357	-0,104	-0,067
-404,511	-200,000	-0,016	-0,164
-403,496	-200,000	0,015	-0,066
-402,482	-200,000	-0,006	-0,194
-401,467	214,321	0,051	-0,059
-400,452	-200,000	0,031	0,124
-399,438	400,754	0,033	0,050
-398,423	-69,550	-0,043	-0,012
-397,409	800,000	-0,012	-0,025
-396,394	-200,000	-0,004	-0,049
-395,379	-56,525	0,123	-0,040
-394,365	-119,697	0,072	-0,009
-393,350	-97,961	0,117	0,022
-392,336	-200,000	0,049	0,172
-391,321	-24,662	-0,069	0,030
-390,306	-200,000	-0,018	0,059
-389,292	-63,054	0,127	-0,038
-388,277	-53,253	-0,082	-0,027
-387,263	-200,000	-0,001	0,079
-386,248	-44,118	0,081	-0,030
-385,233	-200,000	0,012	0,124
-384,219	800,000	-0,035	-0,096
-383,204	271,352	-0,110	-0,143
-382,190	373,334	0,063	-0,094
-381,175	93,623	0,015	-0,012
-380,160	-200,000	0,011	-0,108
-379,146	-200,000	0,039	0,153
-378,131	-113,430	0,093	0,013
-377,117	-47,824	-0,117	0,041
-376,102	-200,000	-0,002	-0,056
-375,088	158,893	-0,025	0,025
-374,073	800,000	-0,029	-0,076
-373,058	-6,599	0,104	-0,052
-372,044	-19,376	-0,053	-0,024
-371,029	-181,839	0,136	0,002
-370,015	89,603	-0,009	0,007
-369,000	81,403	-0,055	0,044
-367,985	800,000	-0,047	-0,098
-366,971	364,858	0,038	0,056
-365,956	-62,360	0,152	0,046
-364,942	-200,000	0,015	0,109
-363,927	223,310	0,023	0,027
-362,912	4,596	-0,059	0,032
-361,898	637,793	-0,029	0,055
-360,883	190,449	0,014	0,015
-359,869	-97,030	-0,101	-0,019
-358,854	-74,364	0,087	-0,023
-357,839	74,937	0,125	0,096
-356,825	268,469	-0,072	0,093
-355,810	-52,673	0,053	-0,018
-354,796	-200,000	0,005	-0,037
-353,781	53,560	-0,080	-0,056
-352,766	-200,000	-0,016	-0,118
-351,752	53,898	0,033	0,023
-350,737	-61,105	-0,089	0,027
-349,723	178,772	-0,012	0,013
-348,708	395,054	0,040	0,062
-347,693	800,000	-0,017	-0,040
-346,679	651,285	0,026	-0,049
-345,664	360,063	-0,111	-0,163
-344,650	517,682	-0,021	0,037
-343,635	800,000	0,059	0,125
-342,620	-200,000	-0,008	0,045
-341,606	247,797	-0,010	-0,013
-340,591	-43,462	-0,059	-0,022
-339,577	-23,205	0,072	-0,032
-338,562	173,844	0,063	0,067
-337,548	159,778	0,017	0,017
-336,533	74,171	-0,067	-0,051
-335,518	-16,912	0,179	0,082
-334,504	163,717	-0,071	0,073
-333,489	268,280	0,130	0,167
-332,475	-74,453	-0,137	0,036
-331,460	800,000	0,055	0,148
-330,445	50,089	-0,108	-0,074
-329,431	-200,000	0,012	0,043
-328,416	44,026	0,092	-0,062
-327,402	109,013	-0,123	0,108
-326,387	-128,278	-0,097	0,010
-325,372	126,279	-0,066	0,061
-324,358	-140,092	0,082	0,006
-323,343	800,000	-0,028	-0,071
-322,329	366,772	0,039	0,058
-321,314	-176,682	0,148	0,003
-320,299	531,972	-0,066	0,114
-319,285	-200,000	-0,000	0,029
-318,270	324,413	-0,038	-0,054
-317,256	47,832	0,113	-0,077
-316,241	-200,000	-0,008	0,085
-315,226	14,706	0,054	-0,031
-314,212	-51,453	0,114	0,039
-313,197	-200,000	-0,003	-0,089
-312,183	11,456	0,076	0,043
-311,168	160,696	-0,024	0,024
-310,153	800,000	0,053	-0,170
-309,139	-108,856	-0,018	-0,003
-308,124	-163,897	-0,146	0,005
-307,110	-200,000	0,032	0,153
-306,095	18,248	-0,056	-0,032
-305,080	196,831	0,094	0,105
-304,066	426,622	-0,047	0,074
-303,051	331,322	-0,057	-0,081
-302,037	-200,000	0,007	-0,094
-301,022	-144,791	-0,124	0,008
-300,008	-200,000	0,011	-0,062
-298,993	-76,899	0,091	-0,023
-297,978	-130,188	-0,031	0,003
-296,964	75,002	0,060	0,046
-295,949	599,247	-0,093	-0,169
-294,935	800,000	-0,014	-0,039
-293,920	74,137	0,110	0,084
-292,905	-200,000	0,014	0,137
-291,891	-187,446	0,105	0,001
-290,876	-34,525	-0,042	-0,017
-289,862	42,687	0,107	-0,071
-288,847	800,000	-0,029	0,071
-287,832	-200,000	-0,018	-0,093
-286,818	65,658	0,087	-0,064
-285,803	800,000	0,076	-0,183
-284,789	-69,856	0,161	-0,045
-283,774	-61,250	0,084	-0,026
-282,759	426,400	-0,081	-0,128
-281,745	-200,000	0,008	-0,155
-280,730	800,000	-0,046	-0,110
-279,716	164,386	0,043	0,044
-278,701	-200,000	0,019	0,102
-277,686	-82,619	0,151	0,035
-276,672	309,261	0,068	-0,093
-275,657	176,533	0,099	-0,105
-274,643	-11,550	-0,113	-0,054
-273,628	57,327	-0,014	0,010
-272,613	-181,197	-0,092	-0,001
-271,599	-80,136	-0,025	0,006
-270,584	-56,860	0,042	-0,013
-269,570	72,338	0,020	-0,015
-268,555	186,929	-0,094	-0,102
-267,540	-194,535	-0,044	0,000
-266,526	308,592	0,056	-0,076
-265,511	-135,089	0,073	-0,006
-264,497	-8,609	0,032	0,016
-263,482	-62,121	-0,054	0,016
-262,467	-24,344	-0,042	0,018
-261,453	279,077	0,165	0,215
-260,438	34,384	-0,066	-0,042
-259,424	129,251	-0,050	0,047
-258,409	15,377	0,040	0,023
-257,395	-30,113	0,136	-0,056
-256,380	-200,000	-0,009	0,047
-255,365	-200,000	0,004	0,091
-254,351	174,325	0,033	-0,035
-253,336	800,000	-0,033	-0,088
-252,322	55,984	-0,086	-0,061
-251,307	-156,117	-0,161	0,007
-250,292	-200,000	-0,006	-0,035
-249,278	169,151	0,039	0,040
-248,263	209,996	0,028	-0,032
-247,249	-200,000	-0,019	-0,079
-246,234	-100,466	-0,122	0,022
-245,219	-200,000	-0,003	-0,071
-244,205	295,601	-0,090	0,121
-243,190	800,000	-0,062	0,151
-242,176	356,451	0,072	0,105
-241,161	8,848	0,072	-0,039
-240,146	-52,321	0,073	0,024
-239,132	800,000	-0,034	0,103
-238,117	-37,852	-0,079	-0,030
-237,103	-200,000	0,005	-0,141
-236,088	-200,000	0,004	-0,020
-235,073	-200,000	-0,001	0,034
-234,059	36,533	-0,159	-0,102
-233,044	800,000	0,034	0,085
-232,030	800,000	-0,040	0,108
-231,015	-120,662	-0,166	-0,020
-230,000	-39,246	-0,119	-0,045
-228,986	463,028	-0,017	-0,027
-227,971	69,768	0,020	-0,015
-226,957	424,290	-0,030	0,048
-225,942	463,190	0,038	0,062
-224,927	800,000	-0,024	0,056
-223,913	800,000	-0,040	0,082
-222,898	-62,841	0,072	0,022
-221,884	20,560	0,090	0,053
-220,869	376,626	0,036	0,053
-219,855	-200,000	0,001	0,004
-218,840	86,266	-0,029	0,023
-217,825	55,030	0,093	-0,065
-216,811	-200,000	0,001	0,003
-215,796	124,560	-0,035	-0,032
-214,782	69,950	0,019	0,014
-213,767	201,453	0,079	-0,088
-212,752	-129,424	-0,048	0,005
-211,738	-45,360	-0,033	0,012
-210,723	101,608	0,169	0,143
-209,709	-110,694	-0,025	-0,004
-208,694	-36,977	-0,032	-0,012
-207,679	-195,086	-0,020	-0,000
-206,665	-105,044	0,119	0,020
-205,650	18,296	-0,088	0,051
-204,636	-200,000	0,046	0,262
-203,621	800,000	0,054	0,133
-202,606	273,424	0,055	-0,070
-201,592	326,713	0,041	-0,058
-200,577	466,642	0,050	-0,082
-199,563	800,000	0,045	0,124
-198,548	45,323	-0,032	-0,021
-197,533	235,798	0,134	0,162
-196,519	509,171	0,025	-0,043
-195,504	-25,161	-0,045	-0,019
-194,490	-45,047	-0,031	-0,011
-193,475	698,318	0,044	0,085
-192,460	266,444	0,096	0,123
-191,446	212,045	0,062	0,072
-190,431	-200,000	-0,022	0,146
-189,417	-200,000	0,009	0,066
-188,402	-0,587	0,031	0,016
-187,387	800,000	-0,044	-0,115
-186,373	330,678	0,045	-0,064
-185,358	-143,866	0,192	-0,013
-184,344	-99,164	-0,139	0,025
-183,329	-200,000	0,003	0,139
-182,315	277,895	-0,113	0,146
-181,300	-200,000	-0,008	0,122
-180,285	387,370	0,078	-0,118
-179,271	34,575	-0,090	-0,057
-178,256	-12,266	-0,045	-0,021
-177,242	-149,208	0,092	0,005
-176,227	46,268	0,042	0,028
-175,212	-158,985	-0,083	-0,003
-174,198	-120,705	-0,064	0,008
-173,183	213,406	-0,078	0,089
-172,169	-77,760	0,065	0,016
-171,154	800,000	0,061	-0,148
-170,139	8,159	0,123	-0,067
-169,125	57,624	0,128	0,091
-168,110	800,000	0,052	0,162
-167,096	-83,185	0,172	-0,040
-166,081	-57,440	-0,020	-0,006
-165,066	-174,841	-0,140	0,003
-164,052	-200,000	0,011	0,043
-163,037	-200,000	0,012	0,130
-162,023	541,064	-0,108	0,187
-161,008	-70,859	0,102	0,028
-159,993	99,927	-0,043	0,037
-158,979	372,531	-0,052	-0,076
-157,964	800,000	-0,066	-0,146
-156,950	-23,725	-0,069	-0,030
-155,935	-200,000	0,039	-0,137
-154,920	749,442	-0,012	0,024
-153,906	209,323	0,068	0,077
-152,891	24,575	-0,071	0,042
-151,877	-200,000	-0,008	0,043
-150,862	800,000	-0,041	-0,108
-149,847	49,343	0,029	-0,020
-148,833	-115,790	0,145	0,020
-147,818	-112,187	-0,002	0,000
-146,804	-151,867	0,087	-0,005
-145,789	4,639	0,102	-0,054
-144,775	-200,000	-0,006	-0,140
-143,760	-200,000	-0,009	-0,068
-142,745	-200,000	-0,013	-0,098
-141,731	-54,376	-0,106	0,035
-140,716	-200,000	-0,009	0,138
-139,702	800,000	-0,029	0,089
-138,687	-82,570	0,038	0,009
-137,672	181,259	0,016	0,017
-136,658	9,318	-0,113	-0,062
-135,643	117,092	0,175	-0,156
-134,629	157,363	0,077	-0,078
-133,614	-40,026	-0,013	0,005
-132,599	120,091	0,042	0,038
-131,585	-200,000	0,012	0,068
-130,570	135,120	0,075	-0,071
-129,556	-200,000	0,022	-0,191
-128,541	68,618	-0,081	-0,060
-127,526	721,181	-0,058	-0,113
-126,512	-29,227	0,063	0,026
-125,497	92,962	-0,064	0,052
-124,483	-132,409	-0,027	-0,002
-123,468	-34,376	-0,121	-0,048
-122,453	800,000	-0,010	0,033
-121,439	158,580	-0,061	-0,062
-120,424	-163,816	-0,152	0,005
-119,410	-200,000	0,022	0,075
-118,395	6,588	-0,126	-0,068
