DTS Sentinel unit serial number:	SN410029Multiplexer serial number:	ORYXHardware model number:	OX2-SRSoftware version number:	ORYX F/W v4,00 Oryx Data Collector v3.7.2.0data status	okinstallation	B6 Nyhavnadifferential loss correction	single-endedforward channel	channel 2reverse channel	N/Adate	2023/12/10time	17:10:08forward acquisition time	300,00reverse acquisition time	0,00gamma	499,1914k internal	0,3123k external	0,3123temperature offset calibration	1,0000default loss term (dB/km)	0,3820temperature slope calibration	1,0000multiplexer offset coefficient	1,0000multiplexer slope coefficient	1,0000fibre end	0,00T internal ref (°C)	22,42T ext. ref 1 (°C)	6,14T ext. ref 2 (°C)	6,16length (m)	temperature (°C)	Stokes	anti-Stokes-744,400	-1,689	0,164	-0,086
-743,385	20,958	-0,178	0,107
-742,371	233,010	0,101	0,124
-741,356	-103,191	-0,200	-0,035
-740,342	113,179	0,098	-0,089
-739,327	-104,219	-0,197	0,034
-738,312	111,063	-0,119	-0,107
-737,298	-97,153	-0,213	0,041
-736,283	34,552	0,105	-0,068
-735,269	0,119	-0,258	0,137
-734,254	609,026	0,014	-0,026
-733,239	-111,263	-0,319	-0,048
-732,225	-200,000	0,018	0,200
-731,210	-28,776	0,049	0,021
-730,196	20,667	0,018	0,011
-729,181	357,244	-0,021	0,031
-728,167	-157,793	0,071	-0,003
-727,152	48,590	-0,061	-0,043
-726,137	302,985	-0,069	-0,096
-725,123	483,438	-0,088	-0,149
-724,108	-200,000	0,044	-0,182
-723,094	88,802	-0,047	-0,039
-722,079	800,000	0,031	0,069
-721,064	318,792	0,092	-0,131
-720,050	800,000	-0,037	-0,108
-719,035	553,872	-0,086	-0,155
-718,021	32,873	0,069	0,044
-717,006	800,000	-0,036	-0,113
-715,991	800,000	-0,061	-0,140
-714,977	800,000	0,022	-0,056
-713,962	437,523	-0,110	-0,180
-712,948	-79,444	-0,086	-0,022
-711,933	-40,864	0,153	0,059
-710,918	-135,605	0,033	0,003
-709,904	-46,156	-0,116	0,042
-708,889	800,000	-0,087	-0,189
-707,875	303,246	-0,082	-0,114
-706,860	15,834	0,122	-0,071
-705,845	56,133	-0,171	0,123
-704,831	-200,000	-0,009	-0,098
-703,816	-200,000	-0,012	0,041
-702,802	47,887	-0,032	0,022
-701,787	800,000	-0,057	-0,129
-700,772	101,894	0,112	0,097
-699,758	89,155	0,067	-0,056
-698,743	800,000	0,020	-0,056
-697,729	-67,005	-0,128	-0,037
-696,714	-45,484	-0,123	-0,045
-695,699	-8,402	0,184	-0,092
-694,685	800,000	0,011	-0,035
-693,670	-200,000	0,002	-0,147
-692,656	7,872	0,047	-0,026
-691,641	272,801	-0,074	-0,097
-690,627	344,049	-0,081	0,119
-689,612	-200,000	0,021	-0,096
-688,597	60,818	-0,144	-0,106
-687,583	-200,000	0,008	0,062
-686,568	-200,000	-0,015	-0,092
-685,554	758,280	0,042	-0,084
-684,539	277,916	-0,070	0,093
-683,524	800,000	-0,022	-0,065
-682,510	214,792	-0,034	-0,040
-681,495	161,316	0,038	0,039
-680,481	304,326	-0,028	0,038
-679,466	254,651	-0,091	-0,115
-678,451	800,000	-0,006	-0,017
-677,437	800,000	0,011	-0,026
-676,422	259,788	-0,021	-0,027
-675,408	127,523	-0,086	0,082
-674,393	-200,000	-0,005	-0,078
-673,378	-200,000	-0,023	-0,087
-672,364	-200,000	-0,044	-0,260
-671,349	-61,380	-0,134	0,041
-670,335	-200,000	0,016	-0,066
-669,320	-200,000	0,005	0,084
-668,305	336,849	-0,049	0,072
-667,291	-200,000	0,011	0,079
-666,276	67,770	-0,113	-0,086
-665,262	-79,710	0,084	-0,021
-664,247	-66,396	-0,228	0,067
-663,232	-200,000	-0,016	-0,055
-662,218	377,239	-0,036	0,054
-661,203	-69,261	0,056	0,016
-660,189	-58,426	-0,081	-0,026
-659,174	631,007	-0,076	-0,143
-658,159	127,811	0,017	0,016
-657,145	-3,898	-0,145	0,074
-656,130	565,531	0,045	-0,082
-655,116	45,501	0,027	-0,018
-654,101	9,396	0,099	-0,055
-653,086	362,086	-0,059	0,089
-652,072	-200,000	0,003	-0,127
-651,057	-77,207	-0,200	0,051
-650,043	800,000	-0,036	-0,085
-649,028	-73,330	0,076	-0,020
-648,014	-200,000	-0,016	0,068
-646,999	-182,008	0,105	0,001
-645,984	-166,476	-0,140	0,004
-644,970	-200,000	-0,019	-0,065
-643,955	-33,683	-0,053	-0,022
-642,941	-14,980	-0,028	-0,013
-641,926	-179,679	-0,032	-0,001
-640,911	-200,000	-0,034	-0,202
-639,897	243,775	-0,063	0,078
-638,882	800,000	0,013	0,032
-637,868	-73,508	-0,114	0,031
-636,853	463,003	-0,077	-0,129
-635,838	-18,866	0,067	-0,031
-634,824	2,199	0,155	-0,083
-633,809	1,663	0,047	-0,025
-632,795	6,019	-0,107	-0,059
-631,780	-26,344	0,092	-0,040
-630,765	-19,609	-0,111	-0,051
-629,751	6,243	-0,097	-0,053
-628,736	711,176	-0,085	-0,168
-627,722	-38,759	-0,049	-0,019
-626,707	800,000	0,053	0,144
-625,692	-190,736	0,033	0,000
-624,678	-200,000	-0,010	-0,059
-623,663	-50,705	0,229	-0,080
-622,649	74,968	-0,050	-0,039
-621,634	-11,178	-0,173	-0,084
-620,619	800,000	0,028	0,068
-619,605	8,173	0,035	-0,019
-618,590	-119,216	0,032	-0,004
-617,576	381,181	-0,038	0,058
-616,561	-34,907	-0,091	-0,037
-615,546	-200,000	0,005	-0,029
-614,532	330,599	-0,066	0,095
-613,517	64,026	-0,034	0,025
-612,503	-99,610	-0,123	-0,023
-611,488	-200,000	0,004	0,120
-610,474	-200,000	0,015	-0,079
-609,459	-70,231	-0,148	-0,042
-608,444	423,049	-0,021	-0,033
-607,430	-200,000	0,000	0,008
-606,415	258,820	0,049	-0,063
-605,401	-200,000	-0,034	-0,120
-604,386	-200,000	0,017	0,084
-603,371	-6,768	-0,089	-0,045
-602,357	-95,107	0,055	0,011
-601,342	-191,037	-0,038	-0,000
-600,328	59,355	-0,173	-0,126
-599,313	800,000	0,029	-0,067
-598,298	800,000	-0,026	-0,076
-597,284	800,000	-0,016	-0,040
-596,269	341,447	0,040	0,058
-595,255	-200,000	0,020	0,111
-594,240	-94,182	-0,133	0,027
-593,225	242,232	-0,018	-0,022
-592,211	42,496	-0,024	-0,016
-591,196	377,689	-0,042	0,064
-590,182	205,719	0,102	-0,117
-589,167	800,000	-0,039	0,088
-588,152	-200,000	0,011	-0,050
-587,138	800,000	0,034	-0,094
-586,123	800,000	-0,050	-0,161
-585,109	-200,000	0,001	-0,035
-584,094	60,024	-0,034	0,025
-583,079	-9,398	0,042	-0,020
-582,065	312,795	-0,023	0,031
-581,050	800,000	-0,037	0,080
-580,036	302,004	-0,063	0,087
-579,021	254,461	-0,031	0,039
-578,006	279,186	0,061	-0,081
-576,992	-36,819	0,080	-0,032
-575,977	78,352	0,135	-0,106
-574,963	206,982	0,049	0,057
-573,948	152,439	-0,089	-0,090
-572,934	38,827	0,042	-0,028
-571,919	-15,135	-0,077	-0,036
-570,904	-17,065	0,030	0,014
-569,890	52,857	-0,084	0,060
-568,875	800,000	-0,014	-0,041
-567,861	34,556	0,085	0,055
-566,846	-200,000	0,019	-0,099
-565,831	-119,998	-0,176	-0,022
-564,817	800,000	-0,036	-0,110
-563,802	-37,331	0,031	-0,012
-562,788	-200,000	-0,000	-0,011
-561,773	128,482	-0,084	-0,079
-560,758	-52,928	0,061	-0,021
-559,744	-43,573	0,079	0,029
-558,729	-200,000	0,008	-0,026
-557,715	-142,051	0,053	-0,004
-556,700	800,000	0,045	0,137
-555,685	-34,670	-0,163	-0,066
-554,671	618,515	-0,034	-0,063
-553,656	-16,996	0,083	0,039
-552,642	-132,625	0,031	-0,003
-551,627	-58,477	0,216	0,069
-550,612	314,874	0,061	0,086
-549,598	-200,000	0,014	-0,077
-548,583	499,263	-0,042	-0,072
-547,569	-200,000	-0,014	0,115
-546,554	290,237	-0,090	0,122
-545,539	-123,383	-0,094	0,011
-544,525	-72,000	-0,097	0,027
-543,510	73,552	0,111	-0,086
-542,496	-200,000	-0,003	-0,018
-541,481	47,241	-0,106	0,073
-540,466	502,277	-0,034	0,059
-539,452	113,480	0,150	0,135
-538,437	-200,000	0,030	0,158
-537,423	165,119	-0,082	0,086
-536,408	-10,772	-0,061	0,030
-535,393	-75,006	-0,178	-0,047
-534,379	-43,338	0,085	-0,032
-533,364	-19,380	-0,085	-0,039
-532,350	-200,000	0,027	0,117
-531,335	-18,569	0,115	0,053
-530,321	-200,000	0,005	0,066
-529,306	-124,447	-0,128	-0,015
-528,291	443,765	0,039	-0,064
-527,277	800,000	0,038	-0,084
-526,262	-200,000	-0,028	-0,125
-525,248	800,000	0,025	0,058
-524,233	51,089	-0,174	-0,122
-523,218	-52,092	0,105	-0,036
-522,204	-200,000	0,002	-0,012
-521,189	-12,194	-0,165	-0,079
-520,175	107,156	0,036	-0,032
-519,160	415,617	0,029	-0,046
-518,145	-157,468	0,135	-0,006
-517,131	800,000	-0,044	0,106
-516,116	800,000	0,015	-0,031
-515,102	9,582	0,044	0,025
-514,087	336,463	-0,067	0,097
-513,072	442,021	-0,019	-0,031
-512,058	-24,198	-0,067	-0,030
-511,043	272,840	-0,027	0,035
-510,029	-200,000	-0,007	0,086
-509,014	800,000	0,041	0,105
-507,999	247,789	0,088	0,111
-506,985	-136,784	-0,131	-0,011
-505,970	185,938	0,110	-0,120
-504,956	-84,083	0,099	0,023
-503,941	647,280	-0,068	0,130
-502,926	-42,609	-0,092	-0,034
-501,912	-123,002	0,047	-0,005
-500,897	800,000	-0,038	-0,103
-499,883	149,439	-0,035	0,035
-498,868	208,653	0,070	0,081
-497,853	40,634	-0,019	-0,013
-496,839	408,923	0,048	-0,076
-495,824	800,000	0,051	0,105
-494,810	-138,920	-0,051	-0,004
-493,795	240,028	-0,085	-0,105
-492,781	70,155	-0,073	0,056
-491,766	119,370	-0,060	0,055
-490,751	-143,048	-0,073	-0,005
-489,737	308,279	0,053	-0,073
-488,722	116,235	-0,064	0,058
-487,708	-200,000	-0,003	0,054
-486,693	108,008	0,020	-0,018
-485,678	75,424	-0,029	0,022
-484,664	-200,000	-0,013	0,055
-483,649	-62,761	-0,091	0,028
-482,635	-200,000	0,020	0,109
-481,620	-200,000	0,004	0,128
-480,605	68,020	0,064	0,048
-479,591	-3,082	-0,046	-0,024
-478,576	-50,900	-0,014	0,005
-477,562	-141,767	0,030	0,002
-476,547	800,000	-0,017	-0,036
-475,532	-200,000	-0,021	0,139
-474,518	-200,000	-0,006	0,108
-473,503	0,490	0,135	0,071
-472,489	123,202	0,092	0,085
-471,474	6,466	0,060	-0,033
-470,459	-107,985	0,022	0,003
-469,445	-200,000	-0,001	-0,062
-468,430	193,708	-0,100	-0,111
-467,416	-13,232	0,199	-0,095
-466,401	800,000	-0,042	0,097
-465,386	-110,443	-0,038	0,006
-464,372	227,268	0,025	0,030
-463,357	800,000	0,049	-0,108
-462,343	-200,000	0,006	-0,030
-461,328	4,744	0,037	0,020
-460,313	168,311	-0,080	-0,084
-459,299	-95,713	0,035	-0,007
-458,284	0,828	0,077	0,041
-457,270	-133,170	-0,146	-0,013
-456,255	800,000	0,074	-0,175
-455,241	65,774	-0,104	-0,078
-454,226	-200,000	-0,009	-0,031
-453,211	314,347	0,059	-0,082
-452,197	800,000	0,058	0,130
-451,182	-200,000	-0,009	0,213
-450,168	90,670	0,044	-0,036
-449,153	-72,797	-0,044	-0,012
-448,138	105,277	-0,133	-0,116
-447,124	742,093	-0,017	-0,035
-446,109	148,918	0,056	-0,056
-445,095	196,108	-0,064	-0,072
-444,080	126,367	0,045	0,041
-443,065	75,193	-0,059	0,046
-442,051	-118,732	-0,053	0,007
-441,036	-162,418	-0,121	0,004
-440,022	282,600	-0,086	-0,114
-439,007	-117,702	-0,065	0,009
-437,992	246,690	0,072	-0,090
-436,978	800,000	-0,025	0,066
-435,963	-200,000	0,009	0,054
-434,949	-200,000	-0,015	0,118
-433,934	416,693	-0,047	-0,074
-432,919	800,000	-0,029	-0,093
-431,905	800,000	-0,044	-0,141
-430,890	57,854	0,044	-0,032
-429,876	-200,000	0,008	0,094
-428,861	-82,629	-0,046	0,011
-427,846	-144,855	0,131	-0,009
-426,832	188,689	0,036	-0,040
-425,817	-94,362	0,088	-0,018
-424,803	-200,000	-0,012	-0,076
-423,788	-11,321	0,062	0,030
-422,773	-200,000	-0,003	-0,020
-421,759	800,000	0,038	0,095
-420,744	800,000	0,003	-0,008
-419,730	-55,434	0,093	-0,031
-418,715	-200,000	0,000	-0,108
-417,701	-200,000	-0,029	-0,102
-416,686	4,892	0,061	-0,033
-415,671	-68,834	0,076	0,022
-414,657	-200,000	0,004	0,111
-413,642	245,717	0,088	0,109
-412,628	169,797	-0,084	0,089
-411,613	-200,000	0,107	-0,000
-410,598	250,791	0,057	-0,072
-409,584	-200,000	-0,022	0,112
-408,569	-200,000	0,033	0,109
-407,555	800,000	0,010	-0,023
-406,540	-200,000	-0,007	-0,076
-405,525	-118,957	-0,144	-0,018
-404,511	-200,000	-0,018	-0,115
-403,496	-95,057	0,071	-0,014
-402,482	-55,864	0,036	-0,012
-401,467	800,000	0,031	0,095
-400,452	266,791	0,067	0,086
-399,438	-26,776	0,035	0,015
-398,423	800,000	0,025	-0,054
-397,409	-2,851	-0,042	-0,021
-396,394	-200,000	0,012	-0,074
-395,379	107,066	0,021	0,019
-394,365	-151,286	-0,035	-0,002
-393,350	-200,000	0,008	0,104
-392,336	-53,583	-0,074	-0,025
-391,321	800,000	0,029	-0,082
-390,306	-200,000	-0,030	-0,111
-389,292	-11,637	0,006	-0,003
-388,277	-200,000	-0,005	-0,064
-387,263	-200,000	0,014	-0,099
-386,248	-118,216	0,090	-0,012
-385,233	-167,870	0,112	0,003
-384,219	553,692	-0,069	0,123
-383,204	-101,150	-0,053	-0,009
-382,190	444,617	-0,037	-0,059
-381,175	-51,843	0,083	-0,028
-380,160	-12,098	0,149	-0,071
-379,146	201,520	-0,035	0,040
-378,131	23,024	0,016	0,010
-377,117	-3,518	0,037	0,019
-376,102	800,000	-0,058	-0,163
-375,088	29,426	0,097	-0,061
-374,073	305,625	-0,076	-0,104
-373,058	100,382	-0,112	0,095
-372,044	-200,000	-0,006	0,122
-371,029	688,093	0,072	0,140
-370,015	-125,259	-0,160	-0,018
-369,000	179,704	-0,064	0,069
-367,985	-200,000	-0,008	-0,113
-366,971	-63,812	0,020	-0,006
-365,956	193,067	0,118	0,132
-364,942	129,879	0,140	0,131
-363,927	-200,000	0,021	0,110
-362,912	-200,000	-0,037	0,163
-361,898	800,000	-0,020	-0,057
-360,883	800,000	0,031	-0,087
-359,869	156,983	-0,051	-0,052
-358,854	-80,290	0,096	0,023
-357,839	-200,000	0,011	0,048
-356,825	89,318	0,106	-0,087
-355,810	800,000	0,028	0,064
-354,796	371,456	0,051	-0,076
-353,781	13,032	-0,077	0,043
-352,766	86,315	-0,111	0,090
-351,752	-200,000	0,027	-0,096
-350,737	539,619	0,030	-0,053
-349,723	162,492	-0,068	0,070
-348,708	189,552	-0,094	0,103
-347,693	800,000	-0,025	-0,072
-346,679	15,667	0,064	-0,037
-345,664	-200,000	0,016	-0,156
-344,650	-105,763	0,106	-0,017
-343,635	-94,761	0,043	0,008
-342,620	-66,726	0,033	0,010
-341,606	31,294	0,150	0,094
-340,591	800,000	-0,041	-0,096
-339,577	725,645	0,006	-0,012
-338,562	-146,139	-0,043	-0,003
-337,548	92,342	-0,067	-0,055
-336,533	-152,343	0,063	0,003
-335,518	-17,083	0,141	0,065
-334,504	331,278	0,057	0,081
-333,489	494,655	-0,014	-0,023
-332,475	-86,022	-0,228	0,051
-331,460	-95,840	0,048	-0,009
-330,445	-93,343	-0,030	-0,006
-329,431	-57,101	-0,090	0,029
-328,416	-22,355	0,101	0,045
-327,402	800,000	0,038	0,094
-326,387	-107,100	-0,128	-0,021
-325,372	4,521	-0,134	-0,072
-324,358	-62,278	0,151	0,046
-323,343	45,379	-0,060	-0,040
-322,329	138,572	0,011	0,011
-321,314	-54,564	0,115	0,038
-320,299	87,569	0,025	0,020
-319,285	800,000	0,016	0,050
-318,270	351,858	-0,010	0,014
-317,256	-104,621	0,101	0,017
-316,241	-49,668	-0,046	-0,016
-315,226	800,000	0,042	-0,127
-314,212	64,029	0,076	0,056
-313,197	58,222	-0,118	-0,085
-312,183	-200,000	-0,033	-0,161
-311,168	-200,000	-0,020	-0,074
-310,153	70,496	-0,057	-0,043
-309,139	800,000	0,032	-0,084
-308,124	117,083	0,018	-0,016
-307,110	199,316	0,053	-0,060
-306,095	126,300	0,093	0,087
-305,080	698,018	0,041	0,079
-304,066	800,000	-0,049	0,116
-303,051	27,917	0,086	-0,053
-302,037	119,795	0,029	0,026
-301,022	-49,694	-0,038	-0,013
-300,008	-93,702	-0,088	-0,018
-298,993	-71,034	-0,138	0,038
-297,978	800,000	0,035	-0,073
-296,964	60,428	-0,062	-0,045
-295,949	800,000	-0,014	-0,045
-294,935	9,731	-0,054	-0,030
-293,920	-40,060	0,037	0,014
-292,905	-200,000	0,001	0,128
-291,891	362,111	0,070	0,103
-290,876	36,071	0,135	-0,087
-289,862	-50,135	-0,003	-0,001
-288,847	168,915	-0,096	0,100
-287,832	-65,235	-0,157	-0,046
-286,818	-91,936	-0,046	-0,009
-285,803	-59,560	-0,164	0,051
-284,789	618,210	-0,094	0,173
-283,774	-156,866	0,082	-0,004
-282,759	-54,553	-0,113	-0,037
-281,745	-131,358	0,024	-0,002
-280,730	81,685	-0,027	-0,021
-279,716	349,079	0,040	-0,057
-278,701	17,881	-0,105	-0,061
-277,686	441,255	-0,053	0,085
-276,672	540,837	-0,019	0,034
-275,657	-70,358	0,032	0,009
-274,643	114,571	-0,073	0,065
-273,628	-14,937	0,085	-0,040
-272,613	-23,123	0,084	-0,037
-271,599	141,528	-0,126	0,122
-270,584	311,033	-0,027	-0,037
-269,570	800,000	0,042	-0,105
-268,555	800,000	0,009	-0,029
-267,540	-102,260	-0,039	-0,007
-266,526	417,288	-0,068	-0,107
-265,511	-200,000	-0,011	0,117
-264,497	59,392	0,006	0,004
-263,482	-200,000	0,002	0,165
-262,467	125,334	-0,094	0,086
-261,453	-47,450	-0,120	-0,042
-260,438	-200,000	-0,026	0,156
-259,424	130,161	0,015	-0,014
-258,409	487,617	-0,033	0,055
-257,395	21,888	-0,068	0,041
-256,380	155,911	0,067	0,067
-255,365	604,550	0,016	-0,028
-254,351	17,008	0,054	0,031
-253,336	61,587	-0,051	0,037
-252,322	101,721	-0,036	0,030
-251,307	-200,000	0,017	-0,083
-250,292	353,845	-0,041	0,059
-249,278	257,292	-0,054	-0,067
-248,263	-101,187	0,098	0,017
-247,249	-200,000	-0,036	0,216
-246,234	-114,413	0,033	-0,005
-245,219	54,048	0,027	-0,019
-244,205	-1,142	0,107	0,055
-243,190	-200,000	-0,008	0,053
-242,176	-87,692	0,078	-0,017
-241,161	-5,694	0,097	0,049
-240,146	-101,675	0,119	-0,021
-239,132	-200,000	0,010	-0,082
-238,117	800,000	-0,016	-0,048
-237,103	-200,000	0,001	-0,143
-236,088	-7,723	0,064	-0,032
-235,073	715,992	0,014	0,028
-234,059	156,145	0,048	-0,048
-233,044	-200,000	-0,012	0,039
-232,030	126,282	0,030	-0,028
-231,015	-135,228	0,151	-0,013
-230,000	463,544	-0,076	0,124
-228,986	-122,514	-0,104	-0,012
-227,971	-67,221	0,146	0,042
-226,957	344,306	-0,063	0,091
-225,942	-115,986	0,068	-0,009
-224,927	-6,052	0,056	0,028
-223,913	-174,642	-0,078	-0,002
-222,898	800,000	0,021	0,051
-221,884	-17,823	-0,053	-0,024
-220,869	-200,000	0,159	-0,000
-219,855	800,000	0,035	0,097
-218,840	-184,675	-0,070	0,001
-217,825	800,000	0,017	0,051
-216,811	-119,654	-0,047	0,006
-215,796	-99,620	-0,073	0,013
-214,782	-200,000	0,006	-0,114
-213,767	-196,806	0,131	-0,001
-212,752	194,196	0,064	-0,070
-211,738	206,427	0,018	-0,020
-210,723	-200,000	-0,021	0,095
-209,709	800,000	-0,039	0,094
-208,694	-63,018	-0,155	-0,046
-207,679	253,906	0,080	-0,100
-206,665	-86,750	0,030	0,007
-205,650	800,000	-0,051	-0,146
-204,636	20,400	-0,061	0,036
-203,621	800,000	0,043	-0,101
-202,606	-87,882	-0,052	0,011
-201,592	18,972	0,102	0,060
-200,577	-200,000	0,002	0,061
-199,563	-200,000	0,036	0,129
-198,548	-179,218	0,140	-0,002
-197,533	194,649	0,089	-0,099
-196,519	-200,000	-0,002	-0,108
-195,504	-200,000	-0,014	0,057
-194,490	190,871	-0,086	-0,095
-193,475	149,018	0,062	-0,061
-192,460	800,000	-0,046	0,135
-191,446	-97,751	0,123	-0,023
-190,431	661,290	-0,035	0,066
-189,417	-24,608	0,062	0,027
-188,402	-95,136	0,226	-0,044
-187,387	-200,000	0,002	-0,059
-186,373	-119,887	-0,091	-0,011
-185,358	668,797	0,038	-0,073
-184,344	-200,000	0,022	0,098
-183,329	800,000	0,057	0,135
-182,315	-200,000	0,044	0,150
-181,300	-6,898	0,107	0,053
-180,285	309,994	0,063	-0,086
-179,271	49,580	-0,049	-0,034
-178,256	-193,658	-0,060	0,000
-177,242	800,000	0,040	0,122
-176,227	-200,000	0,014	0,091
-175,212	778,054	0,080	0,161
-174,198	-92,969	0,090	0,018
-173,183	-50,508	-0,104	-0,035
-172,169	-200,000	-0,027	0,156
-171,154	-200,000	-0,000	0,079
-170,139	-200,000	0,012	-0,130
-169,125	-52,125	-0,070	-0,024
-168,110	-175,700	0,065	-0,001
-167,096	-200,000	-0,002	0,122
-166,081	504,305	-0,025	-0,043
-165,066	800,000	-0,035	-0,084
-164,052	-200,000	0,017	-0,099
-163,037	-117,640	0,065	-0,008
-162,023	-111,751	-0,063	0,009
-161,008	6,181	0,054	-0,029
-159,993	161,180	0,029	0,030
-158,979	-139,680	-0,095	0,007
-157,964	154,920	-0,085	-0,085
-156,950	252,616	0,122	-0,151
-155,935	58,527	0,028	0,020
-154,920	677,137	-0,004	-0,008
-153,906	-0,463	0,066	-0,034
-152,891	-200,000	-0,002	0,021
-151,877	-46,036	-0,047	-0,017
-150,862	-29,871	-0,107	0,044
-149,847	-3,693	0,125	-0,063
-148,833	571,124	0,034	-0,061
-147,818	42,452	0,107	0,071
-146,804	-78,290	0,123	0,031
-145,789	-200,000	-0,021	-0,093
-144,775	-11,326	0,064	-0,031
-143,760	800,000	0,056	-0,121
-142,745	-200,000	-0,022	-0,156
-141,731	107,969	-0,029	0,025
-140,716	-166,797	0,100	0,003
-139,702	-200,000	0,024	0,141
-138,687	-200,000	0,015	-0,175
-137,672	73,380	-0,085	-0,064
-136,658	155,333	-0,146	-0,147
-135,643	59,343	0,141	-0,101
-134,629	800,000	0,014	-0,036
-133,614	82,636	0,039	0,031
-132,599	-116,147	-0,050	0,007
-131,585	-200,000	-0,017	0,088
-130,570	46,289	0,108	0,072
-129,556	-200,000	-0,004	-0,104
-128,541	-72,765	-0,071	-0,019
-127,526	240,027	0,076	0,092
-126,512	-15,550	0,044	0,020
-125,497	98,736	0,022	0,019
-124,483	-89,704	0,085	0,018
-123,468	800,000	-0,005	-0,009
-122,453	-190,336	-0,158	0,001
-121,439	-200,000	-0,008	-0,052
-120,424	-117,339	0,079	0,010
-119,410	-200,000	0,038	0,148
