DTS Sentinel unit serial number:	SN410029Multiplexer serial number:	ORYXHardware model number:	OX2-SRSoftware version number:	ORYX F/W v4,00 Oryx Data Collector v3.7.2.0data status	okinstallation	B6 Nyhavnadifferential loss correction	single-endedforward channel	channel 2reverse channel	N/Adate	2023/12/09time	01:10:08forward acquisition time	300,00reverse acquisition time	0,00gamma	499,1914k internal	0,3156k external	0,3156temperature offset calibration	1,0000default loss term (dB/km)	0,3820temperature slope calibration	1,0000multiplexer offset coefficient	1,0000multiplexer slope coefficient	1,0000fibre end	0,00T internal ref (°C)	15,70T ext. ref 1 (°C)	-0,61T ext. ref 2 (°C)	-0,62length (m)	temperature (°C)	Stokes	anti-Stokes-744,400	83,371	0,117	-0,094
-743,385	-94,018	-0,249	-0,050
-742,371	-200,000	0,018	0,100
-741,356	-126,408	-0,249	-0,027
-740,342	-144,344	0,189	0,013
-739,327	-72,735	-0,429	0,116
-738,312	-200,000	0,006	-0,064
-737,298	-137,714	-0,367	-0,030
-736,283	-200,000	0,018	0,135
-735,269	-168,828	-0,332	0,009
-734,254	800,000	0,060	-0,129
-733,239	3,947	-0,549	-0,295
-732,225	472,533	0,012	-0,019
-731,210	-29,857	-0,112	-0,047
-730,196	519,951	0,015	0,025
-729,181	6,012	-0,091	0,049
-728,167	-94,989	0,133	0,026
-727,152	114,370	-0,040	-0,036
-726,137	-101,074	-0,088	0,016
-725,123	28,818	0,081	-0,051
-724,108	-52,230	-0,185	-0,063
-723,094	-200,000	0,050	-0,181
-722,079	64,256	0,028	-0,021
-721,064	-92,534	-0,111	0,023
-720,050	800,000	0,041	-0,115
-719,035	358,703	0,071	0,104
-718,021	19,883	-0,108	-0,064
-717,006	800,000	-0,029	-0,065
-715,991	-72,180	-0,185	-0,050
-714,977	-200,000	-0,013	-0,092
-713,962	-156,532	-0,112	-0,005
-712,948	-29,238	-0,134	-0,056
-711,933	46,892	0,088	-0,060
-710,918	92,320	0,012	-0,010
-709,904	215,252	-0,074	-0,087
-708,889	-200,000	-0,008	-0,134
-707,875	-154,513	-0,146	0,007
-706,860	-200,000	-0,010	-0,095
-705,845	239,829	-0,024	-0,030
-704,831	-87,709	0,104	-0,023
-703,816	87,717	-0,102	0,083
-702,802	800,000	-0,005	-0,010
-701,787	-137,251	-0,058	-0,005
-700,772	800,000	0,063	-0,146
-699,758	-200,000	0,005	-0,143
-698,743	46,666	0,073	-0,050
-697,729	245,377	-0,021	0,026
-696,714	439,877	-0,026	-0,042
-695,699	137,300	-0,125	0,121
-694,685	-200,000	0,004	-0,198
-693,670	-200,000	-0,006	-0,067
-692,656	-142,580	-0,098	-0,007
-691,641	800,000	-0,034	0,088
-690,627	-72,317	-0,157	0,042
-689,612	385,938	0,045	-0,068
-688,597	580,108	0,027	-0,050
-687,583	-11,341	-0,106	-0,051
-686,568	800,000	-0,036	-0,113
-685,554	-88,281	0,140	0,031
-684,539	280,838	-0,060	0,080
-683,524	595,925	0,080	-0,146
-682,510	-169,895	0,064	-0,002
-681,495	-200,000	-0,024	-0,083
-680,481	-119,554	-0,113	-0,014
-679,466	109,815	-0,127	-0,112
-678,451	1,222	-0,101	-0,053
-677,437	-45,911	0,059	-0,021
-676,422	-58,814	0,060	-0,019
-675,408	33,904	-0,097	-0,062
-674,393	111,010	-0,074	-0,066
-673,378	-200,000	-0,030	-0,219
-672,364	800,000	-0,033	-0,096
-671,349	146,353	0,097	0,096
-670,335	800,000	0,034	0,083
-669,320	-153,773	0,036	0,002
-668,305	166,337	0,066	0,069
-667,291	-200,000	-0,026	-0,121
-666,276	215,018	0,064	-0,074
-665,262	777,954	0,035	-0,071
-664,247	-200,000	0,020	-0,086
-663,232	-200,000	0,010	-0,240
-662,218	420,282	0,039	0,061
-661,203	176,988	-0,051	0,055
-660,189	-200,000	-0,005	0,152
-659,174	70,384	-0,051	0,039
-658,159	-55,322	-0,053	-0,018
-657,145	-200,000	-0,061	-0,230
-656,130	27,872	0,049	-0,030
-655,116	21,269	0,148	0,088
-654,101	-200,000	-0,001	0,045
-653,086	-200,000	-0,013	-0,090
-652,072	-57,322	0,069	0,022
-651,057	-59,709	-0,126	-0,039
-650,043	-200,000	0,002	0,076
-649,028	-139,183	-0,038	-0,003
-648,014	-100,202	0,138	-0,025
-646,999	220,180	-0,071	0,083
-645,984	12,871	-0,157	-0,089
-644,970	800,000	0,033	-0,100
-643,955	501,093	-0,051	0,088
-642,941	148,510	-0,143	-0,142
-641,926	418,440	-0,080	-0,126
-640,911	133,174	-0,099	-0,094
-639,897	-42,346	0,102	-0,038
-638,882	800,000	-0,038	0,091
-637,868	-65,878	0,099	-0,029
-636,853	116,915	-0,109	-0,099
-635,838	-200,000	0,015	-0,070
-634,824	411,260	-0,092	0,145
-633,809	106,474	0,053	-0,046
-632,795	-200,000	-0,002	-0,065
-631,780	-200,000	-0,019	-0,132
-630,765	-116,167	-0,094	-0,013
-629,751	34,990	-0,009	0,006
-628,736	-200,000	0,027	-0,220
-627,722	138,740	-0,040	0,039
-626,707	-11,048	0,072	-0,035
-625,692	296,332	-0,020	0,027
-624,678	-200,000	0,024	0,174
-623,663	81,481	-0,060	0,048
-622,649	-60,057	-0,058	-0,018
-621,634	-75,275	-0,138	-0,036
-620,619	-106,951	-0,151	-0,024
-619,605	142,004	0,027	0,027
-618,590	300,953	0,071	0,097
-617,576	378,024	0,037	-0,056
-616,561	-192,759	-0,092	-0,001
-615,546	36,772	-0,027	0,017
-614,532	357,068	-0,021	-0,030
-613,517	-130,551	-0,162	0,016
-612,503	172,085	-0,117	-0,124
-611,488	-163,635	0,065	-0,002
-610,474	-64,027	-0,186	-0,055
-609,459	-178,751	-0,207	-0,003
-608,444	-200,000	0,028	-0,106
-607,430	106,161	0,099	-0,086
-606,415	293,555	0,015	0,020
-605,401	-130,853	0,126	0,012
-604,386	54,686	0,039	-0,028
-603,371	-115,202	0,047	0,006
-602,357	285,648	-0,050	-0,067
-601,342	-63,476	-0,059	-0,018
-600,328	-43,703	-0,224	-0,082
-599,313	515,287	0,052	-0,089
-598,298	159,613	-0,028	-0,029
-597,284	-200,000	-0,017	0,095
-596,269	-132,739	0,124	0,011
-595,255	-172,318	-0,126	0,003
-594,240	-182,064	-0,021	-0,000
-593,225	198,642	0,132	-0,148
-592,211	-200,000	-0,036	-0,137
-591,196	-200,000	-0,015	0,093
-590,182	-200,000	0,028	0,132
-589,167	800,000	0,027	0,060
-588,152	-52,088	-0,063	-0,021
-587,138	453,332	0,063	-0,103
-586,123	800,000	-0,076	0,183
-585,109	-200,000	0,012	-0,153
-584,094	22,653	-0,072	0,043
-583,079	800,000	-0,022	0,057
-582,065	63,190	0,096	-0,070
-581,050	-52,606	0,053	0,018
-580,036	-200,000	0,012	0,087
-579,021	795,981	0,023	0,047
-578,006	-200,000	0,035	-0,146
-576,992	518,940	-0,090	-0,156
-575,977	800,000	0,036	-0,108
-574,963	404,997	-0,045	-0,070
-573,948	-200,000	-0,002	-0,141
-572,934	-200,000	-0,016	-0,080
-571,919	800,000	0,043	-0,131
-570,904	800,000	0,008	-0,022
-569,890	517,848	-0,043	0,074
-568,875	-200,000	0,009	0,038
-567,861	273,210	-0,066	0,086
-566,846	800,000	0,025	-0,052
-565,831	-200,000	-0,008	-0,047
-564,817	83,696	0,012	0,009
-563,802	6,390	-0,143	-0,078
-562,788	155,681	0,015	0,016
-561,773	-200,000	0,009	0,090
-560,758	-200,000	0,013	0,088
-559,744	125,795	-0,024	0,022
-558,729	31,626	-0,062	-0,039
-557,715	147,385	-0,060	0,059
-556,700	695,988	-0,044	0,085
-555,685	729,064	0,052	0,101
-554,671	800,000	-0,038	-0,098
-553,656	727,338	-0,003	-0,007
-552,642	19,858	0,054	-0,032
-551,627	-200,000	-0,004	-0,092
-550,612	-200,000	0,033	-0,124
-549,598	105,734	-0,044	-0,038
-548,583	-53,109	-0,080	-0,027
-547,569	800,000	-0,030	-0,086
-546,554	121,012	-0,056	0,051
-545,539	-36,932	-0,061	0,024
-544,525	-17,064	0,076	0,035
-543,510	-32,821	-0,080	-0,033
-542,496	-142,340	-0,094	0,007
-541,481	-200,000	-0,012	-0,064
-540,466	339,096	0,077	-0,110
-539,452	-100,931	0,140	-0,025
-538,437	-48,146	0,101	-0,036
-537,423	320,160	-0,061	-0,085
-536,408	611,581	-0,035	-0,064
-535,393	232,642	-0,025	-0,030
-534,379	-89,870	-0,120	0,025
-533,364	209,039	0,107	-0,123
-532,350	-200,000	-0,001	0,069
-531,335	-200,000	-0,007	0,169
-530,321	9,393	0,053	-0,030
-529,306	-109,750	0,079	-0,012
-528,291	-200,000	-0,041	-0,186
-527,277	-135,095	-0,042	0,004
-526,262	-55,770	0,061	-0,020
-525,248	22,076	-0,049	-0,029
-524,233	13,813	0,030	0,017
-523,218	336,365	-0,063	-0,090
-522,204	-173,606	0,133	-0,003
-521,189	-76,634	0,042	-0,011
-520,175	-178,848	0,038	0,001
-519,160	-200,000	-0,005	-0,023
-518,145	215,852	-0,057	0,066
-517,131	257,838	0,085	0,107
-516,116	684,461	0,049	-0,095
-515,102	800,000	0,029	-0,074
-514,087	-15,932	-0,115	0,053
-513,072	-156,856	-0,072	0,003
-512,058	7,061	-0,012	-0,007
-511,043	16,360	0,028	0,016
-510,029	101,785	0,193	0,164
-509,014	-41,110	-0,033	-0,012
-507,999	-95,901	0,026	-0,005
-506,985	83,513	0,086	-0,068
-505,970	-200,000	-0,023	0,125
-504,956	649,344	0,019	-0,036
-503,941	93,645	0,010	0,009
-502,926	83,066	0,029	0,023
-501,912	-200,000	-0,040	0,129
-500,897	87,221	-0,071	-0,058
-499,883	-14,784	0,096	0,045
-498,868	-68,623	-0,074	0,021
-497,853	-140,601	0,076	-0,006
-496,839	71,063	0,071	-0,054
-495,824	-26,235	0,047	-0,020
-494,810	800,000	0,048	0,145
-493,795	3,643	-0,084	0,045
-492,781	-63,985	-0,083	-0,025
-491,766	3,410	0,091	-0,048
-490,751	-140,806	-0,126	-0,009
-489,737	491,426	0,008	-0,014
-488,722	59,380	-0,038	0,027
-487,708	-79,219	0,126	0,031
-486,693	-39,635	0,070	-0,027
-485,678	-23,298	0,014	0,006
-484,664	424,066	0,060	-0,095
-483,649	78,842	-0,071	-0,055
-482,635	-174,827	-0,057	-0,001
-481,620	-172,418	0,084	0,002
-480,605	338,043	-0,013	-0,019
-479,591	-43,938	0,018	-0,007
-478,576	387,155	0,058	0,088
-477,562	265,422	-0,083	0,106
-476,547	217,909	-0,062	-0,073
-475,532	292,619	0,095	-0,126
-474,518	69,563	0,132	-0,099
-473,503	-155,240	-0,052	0,002
-472,489	652,006	-0,016	0,031
-471,474	-105,026	0,124	0,021
-470,459	-6,509	-0,085	0,042
-469,445	198,969	0,030	-0,034
-468,430	-50,750	0,080	0,027
-467,416	-109,183	-0,138	-0,021
-466,401	697,930	0,069	0,133
-465,386	-113,683	-0,009	-0,001
-464,372	-40,795	0,145	-0,055
-463,357	-70,438	0,149	-0,041
-462,343	161,446	-0,018	0,018
-461,328	-179,788	-0,061	0,001
-460,313	-72,074	-0,085	0,023
-459,299	197,368	-0,067	-0,075
-458,284	-200,000	-0,021	0,090
-457,270	-102,095	-0,070	-0,012
-456,255	129,037	0,085	0,080
-455,241	102,966	-0,070	-0,060
-454,226	-200,000	-0,020	-0,088
-453,211	800,000	0,020	-0,043
-452,197	-116,136	-0,075	-0,010
-451,182	468,592	-0,070	0,115
-450,168	-120,508	0,145	0,018
-449,153	-93,396	-0,035	0,007
-448,138	65,810	-0,049	-0,036
-447,124	323,887	0,089	0,124
-446,109	82,856	0,048	0,038
-445,095	547,161	0,044	0,078
-444,080	143,788	-0,044	0,043
-443,065	656,325	0,039	0,073
-442,051	-200,000	0,002	-0,098
-441,036	17,824	0,059	0,034
-440,022	-60,197	-0,064	0,020
-439,007	179,370	-0,052	0,056
-437,992	7,896	0,161	0,088
-436,978	-176,066	-0,090	0,002
-435,963	154,104	0,086	0,086
-434,949	10,118	-0,078	0,043
-433,934	-200,000	-0,013	-0,087
-432,919	-78,666	-0,047	0,012
-431,905	-136,422	-0,096	0,008
-430,890	-200,000	-0,009	0,082
-429,876	-75,979	0,070	-0,018
-428,861	726,976	0,030	-0,059
-427,846	-114,096	0,113	-0,016
-426,832	-64,244	-0,086	-0,025
-425,817	-121,741	-0,113	-0,013
-424,803	800,000	0,035	0,073
-423,788	-36,358	0,137	0,053
-422,773	-99,059	0,025	0,005
-421,759	202,788	0,011	-0,012
-420,744	-108,525	-0,142	-0,022
-419,730	2,134	-0,119	0,062
-418,715	-50,975	-0,023	0,008
-417,701	217,725	-0,023	-0,027
-416,686	-200,000	0,010	-0,076
-415,671	-200,000	-0,023	0,105
-414,657	562,532	0,112	0,198
-413,642	-200,000	-0,005	0,131
-412,628	84,504	-0,151	0,120
-411,613	513,638	0,033	0,056
-410,598	782,992	-0,025	-0,050
-409,584	702,624	0,083	0,160
-408,569	-167,349	-0,080	-0,002
-407,555	83,180	-0,070	0,056
-406,540	-85,409	0,060	0,014
-405,525	692,395	0,025	-0,049
-404,511	-91,439	-0,175	-0,036
-403,496	140,374	-0,023	-0,022
-402,482	409,742	-0,073	0,114
-401,467	-27,279	0,013	0,005
-400,452	-200,000	0,020	0,069
-399,438	-62,029	-0,022	-0,007
-398,423	251,491	-0,059	-0,074
-397,409	790,525	-0,055	-0,110
-396,394	-105,293	0,192	0,031
-395,379	240,448	0,089	0,109
-394,365	-200,000	-0,032	0,115
-393,350	-200,000	-0,012	-0,060
-392,336	74,183	-0,058	0,044
-391,321	800,000	-0,025	0,056
-390,306	-147,067	0,053	-0,003
-389,292	310,502	0,060	-0,082
-388,277	-200,000	-0,027	-0,102
-387,263	156,508	0,053	-0,053
-386,248	-56,467	0,061	0,020
-385,233	59,605	0,073	-0,053
-384,219	147,870	-0,041	0,040
-383,204	-77,955	-0,053	0,013
-382,190	80,975	-0,006	-0,004
-381,175	43,908	-0,100	0,067
-380,160	215,821	-0,075	0,087
-379,146	-106,320	0,164	-0,026
-378,131	-200,000	0,026	0,093
-377,117	-95,726	0,088	-0,017
-376,102	800,000	-0,023	-0,071
-375,088	-200,000	-0,003	0,044
-374,073	-200,000	0,004	-0,034
-373,058	-140,670	0,071	0,005
-372,044	41,616	0,109	-0,072
-371,029	-138,279	0,087	-0,007
-370,015	800,000	-0,015	-0,045
-369,000	14,421	-0,028	0,016
-367,985	44,409	-0,050	-0,034
-366,971	103,592	0,078	-0,066
-365,956	12,015	-0,121	0,067
-364,942	-200,000	-0,003	0,018
-363,927	38,082	-0,073	-0,047
-362,912	-52,662	-0,098	0,033
-361,898	-70,599	0,081	0,022
-360,883	-74,643	-0,086	-0,022
-359,869	-60,147	-0,083	0,026
-358,854	-200,000	0,014	-0,105
-357,839	-139,480	0,107	0,008
-356,825	-200,000	0,011	0,212
-355,810	-87,382	0,032	-0,007
-354,796	-200,000	0,004	-0,065
-353,781	250,669	0,110	-0,137
-352,766	99,471	0,119	-0,100
-351,752	-20,211	0,046	0,020
-350,737	-200,000	0,001	0,054
-349,723	-200,000	0,007	0,061
-348,708	93,924	0,133	0,109
-347,693	194,645	-0,053	0,059
-346,679	-153,209	-0,040	0,002
-345,664	-200,000	0,004	-0,117
-344,650	-32,677	0,054	-0,022
-343,635	205,518	-0,034	0,038
-342,620	-120,457	0,064	-0,008
-341,606	-200,000	0,008	0,154
-340,591	-200,000	-0,010	0,059
-339,577	700,824	-0,085	-0,164
-338,562	800,000	0,047	0,126
-337,548	-200,000	0,003	0,091
-336,533	48,954	0,142	-0,096
-335,518	-140,273	0,060	0,004
-334,504	66,402	0,008	-0,006
-333,489	421,932	-0,024	-0,038
-332,475	-200,000	-0,004	-0,107
-331,460	60,162	0,070	0,050
-330,445	15,319	0,205	-0,117
-329,431	127,808	-0,029	0,027
-328,416	800,000	0,042	-0,111
-327,402	-24,848	0,096	-0,041
-326,387	-200,000	0,020	0,134
-325,372	343,870	-0,023	-0,033
-324,358	-24,333	0,050	0,022
-323,343	800,000	-0,054	0,110
-322,329	247,850	-0,042	0,051
-321,314	-200,000	0,012	-0,107
-320,299	102,519	0,076	0,064
-319,285	67,557	0,090	0,067
-318,270	69,649	-0,032	0,024
-317,256	-200,000	0,030	-0,149
-316,241	800,000	-0,057	0,169
-315,226	800,000	-0,038	0,097
-314,212	13,484	0,051	0,029
-313,197	360,526	0,044	-0,064
-312,183	-72,147	0,102	-0,027
-311,168	-29,603	0,053	-0,022
-310,153	83,243	0,182	-0,143
-309,139	113,654	0,032	-0,028
-308,124	-97,441	-0,048	-0,009
-307,110	-36,630	-0,050	-0,019
-306,095	92,067	0,041	0,033
-305,080	414,746	-0,016	0,026
-304,066	-200,000	-0,008	0,025
-303,051	771,676	-0,057	0,114
-302,037	-200,000	-0,024	-0,121
-301,022	104,594	-0,036	-0,031
-300,008	-200,000	-0,030	0,106
-298,993	800,000	0,045	0,123
-297,978	-125,694	-0,113	-0,012
-296,964	-200,000	0,014	-0,081
-295,949	-62,286	-0,091	0,027
-294,935	13,503	-0,125	-0,070
-293,920	-30,668	-0,065	-0,026
-292,905	-200,000	0,035	0,000
-291,891	800,000	0,060	0,127
-290,876	216,988	0,084	0,097
-289,862	-200,000	0,002	-0,028
-288,847	65,641	-0,143	-0,105
-287,832	-129,522	0,026	-0,003
-286,818	-122,742	0,159	-0,018
-285,803	800,000	0,033	0,106
-284,789	109,896	0,047	0,041
-283,774	130,667	-0,081	-0,076
-282,759	800,000	0,028	0,061
-281,745	-200,000	-0,010	-0,072
-280,730	-200,000	-0,010	0,041
-279,716	-53,019	-0,027	0,009
-278,701	-136,426	0,181	-0,015
-277,686	800,000	0,025	-0,072
-276,672	800,000	0,022	-0,060
-275,657	75,006	-0,039	-0,030
-274,643	-195,087	-0,033	0,000
-273,628	-200,000	0,017	0,065
-272,613	146,059	0,056	0,055
-271,599	520,956	-0,075	-0,128
-270,584	123,073	0,060	-0,055
-269,570	43,790	0,052	0,034
-268,555	-101,472	0,029	-0,005
-267,540	-20,387	-0,119	-0,053
-266,526	800,000	-0,052	0,114
-265,511	193,209	0,073	0,080
-264,497	-92,361	-0,053	-0,011
-263,482	-99,747	0,048	0,009
-262,467	27,465	0,038	-0,023
-261,453	-200,000	-0,021	-0,131
-260,438	800,000	-0,020	-0,043
-259,424	-127,970	-0,123	-0,013
-258,409	-84,882	0,158	0,036
-257,395	-18,587	-0,070	-0,032
-256,380	-77,657	-0,223	-0,055
-255,365	-3,573	-0,081	-0,041
-254,351	-200,000	0,011	-0,076
-253,336	800,000	0,039	-0,105
-252,322	304,550	0,074	-0,100
-251,307	-35,673	-0,029	-0,011
-250,292	60,746	0,039	0,028
-249,278	60,407	0,086	0,061
-248,263	411,324	0,055	-0,084
-247,249	612,030	-0,056	0,102
-246,234	44,298	-0,052	0,034
-245,219	10,335	-0,087	0,048
-244,205	-64,858	0,055	-0,016
-243,190	-5,627	0,152	0,075
-242,176	34,598	0,165	-0,104
-241,161	-62,622	-0,079	0,024
-240,146	22,337	-0,158	0,093
-239,132	-171,025	0,021	-0,000
-238,117	-51,318	0,100	0,034
-237,103	800,000	0,045	-0,113
-236,088	800,000	-0,018	0,054
-235,073	800,000	0,036	0,080
-234,059	-200,000	0,006	0,081
-233,044	35,441	-0,093	0,059
-232,030	800,000	-0,027	-0,062
-231,015	41,992	-0,034	-0,022
-230,000	64,400	0,035	-0,026
-228,986	28,382	0,114	0,069
-227,971	430,003	-0,070	-0,111
-226,957	800,000	-0,013	0,039
-225,942	-200,000	-0,016	0,115
-224,927	46,064	0,088	-0,059
-223,913	-200,000	0,011	-0,097
-222,898	800,000	0,019	-0,058
-221,884	37,768	-0,059	0,038
-220,869	25,589	-0,138	0,083
-219,855	800,000	0,024	-0,058
-218,840	-24,088	0,073	0,031
-217,825	-200,000	0,004	-0,025
-216,811	800,000	-0,022	-0,045
-215,796	-80,853	-0,036	-0,009
-214,782	-200,000	0,010	0,105
-213,767	169,861	0,090	-0,093
-212,752	57,248	-0,056	0,040
-211,738	-200,000	0,042	0,165
-210,723	43,218	0,109	0,072
-209,709	-124,545	0,058	-0,006
-208,694	69,935	-0,083	-0,062
-207,679	173,256	-0,108	-0,113
-206,665	-200,000	0,013	0,097
-205,650	-200,000	0,002	0,008
-204,636	45,797	-0,014	-0,010
-203,621	154,180	-0,077	0,077
-202,606	-200,000	0,006	0,045
-201,592	291,915	-0,042	-0,055
-200,577	-200,000	-0,022	0,072
-199,563	800,000	0,025	-0,075
-198,548	-91,575	-0,027	-0,006
-197,533	-56,464	-0,123	0,039
-196,519	-99,533	0,144	0,026
-195,504	-88,961	0,017	-0,004
-194,490	-200,000	-0,002	-0,048
-193,475	336,926	0,068	-0,095
-192,460	-200,000	-0,024	0,097
-191,446	-157,090	-0,111	-0,005
-190,431	-94,261	0,081	-0,016
-189,417	-125,643	-0,051	0,005
-188,402	-200,000	-0,007	0,024
-187,387	-9,025	-0,083	0,040
-186,373	733,985	0,055	-0,106
-185,358	-118,361	-0,068	0,009
-184,344	800,000	0,061	0,193
-183,329	-200,000	-0,037	0,129
-182,315	277,206	0,098	0,126
-181,300	637,873	-0,025	-0,047
-180,285	-86,276	-0,202	-0,044
-179,271	297,194	-0,032	0,042
-178,256	1,607	0,046	-0,024
-177,242	370,334	0,024	-0,036
-176,227	-200,000	0,007	0,095
-175,212	547,997	0,042	0,073
-174,198	-10,063	0,020	0,010
-173,183	-11,544	-0,137	-0,065
-172,169	102,531	0,054	0,045
-171,154	-200,000	0,005	0,026
-170,139	-11,711	0,100	0,047
-169,125	-200,000	-0,006	-0,028
-168,110	181,131	0,023	0,025
-167,096	181,418	0,177	0,188
-166,081	206,652	-0,065	-0,074
-165,066	-74,011	-0,123	0,032
-164,052	93,863	0,074	0,061
-163,037	800,000	-0,044	0,093
-162,023	-56,707	0,046	0,015
-161,008	-200,000	0,027	0,086
-159,993	-80,377	-0,172	-0,041
-158,979	721,291	0,034	-0,066
-157,964	-200,000	0,004	-0,147
-156,950	-200,000	0,008	0,034
-155,935	-200,000	-0,015	-0,054
-154,920	-141,936	0,176	-0,012
-153,906	696,005	0,020	0,037
-152,891	-200,000	0,006	0,098
-151,877	171,986	-0,031	-0,033
-150,862	-200,000	0,050	-0,185
-149,847	-200,000	-0,037	-0,215
-148,833	317,382	-0,029	0,040
-147,818	-200,000	-0,015	-0,091
-146,804	80,930	-0,017	0,014
-145,789	-200,000	0,008	0,037
-144,775	-49,623	0,107	-0,037
-143,760	-3,615	-0,048	-0,024
-142,745	137,264	-0,049	0,046
-141,731	-100,919	-0,068	0,012
-140,716	-28,981	0,028	-0,011
-139,702	-139,863	0,126	-0,009
-138,687	143,426	0,053	-0,051
-137,672	22,985	-0,044	-0,026
-136,658	34,482	0,042	-0,026
-135,643	-200,000	-0,035	-0,254
-134,629	-50,240	0,045	-0,015
-133,614	87,104	-0,064	0,051
-132,599	-16,766	0,103	0,047
-131,585	279,317	-0,070	0,090
-130,570	208,401	0,053	-0,059
-129,556	80,148	-0,094	-0,073
-128,541	-200,000	-0,022	-0,080
-127,526	800,000	-0,021	0,066
-126,512	76,085	0,055	0,042
-125,497	45,488	-0,041	0,027
-124,483	114,868	-0,135	0,118
-123,468	288,285	-0,015	0,020
-122,453	800,000	-0,043	-0,119
-121,439	-200,000	-0,009	-0,068
-120,424	119,648	0,094	-0,084
-119,410	33,053	0,167	0,104
