DTS Sentinel unit serial number:	SN410029Multiplexer serial number:	ORYXHardware model number:	OX2-SRSoftware version number:	ORYX F/W v4,00 Oryx Data Collector v3.7.2.0data status	okinstallation	B6 Nyhavnadifferential loss correction	single-endedforward channel	channel 2reverse channel	N/Adate	2023/12/11time	09:05:08forward acquisition time	300,00reverse acquisition time	0,00gamma	499,1914k internal	0,3135k external	0,3135temperature offset calibration	1,0000default loss term (dB/km)	0,3820temperature slope calibration	1,0000multiplexer offset coefficient	1,0000multiplexer slope coefficient	1,0000fibre end	0,00T internal ref (°C)	17,11T ext. ref 1 (°C)	-0,53T ext. ref 2 (°C)	-0,54length (m)	temperature (°C)	Stokes	anti-Stokes-744,400	-200,000	0,025	0,089
-743,385	-91,410	-0,308	0,065
-742,371	656,716	-0,023	-0,044
-741,356	-14,075	-0,216	0,103
-740,342	-113,505	0,261	-0,037
-739,327	-124,918	-0,220	0,025
-738,312	800,000	0,036	0,076
-737,298	-104,413	-0,258	-0,044
-736,283	-105,547	-0,061	0,010
-735,269	-83,045	-0,402	0,095
-734,254	-8,216	0,045	-0,023
-733,239	-56,965	-0,492	-0,160
-732,225	-44,000	0,199	0,074
-731,210	447,668	-0,055	0,090
-730,196	51,439	-0,079	-0,055
-729,181	-200,000	-0,000	0,010
-728,167	-200,000	-0,034	-0,158
-727,152	-16,136	-0,065	-0,030
-726,137	293,253	-0,053	-0,071
-725,123	422,562	-0,053	-0,084
-724,108	-50,218	0,032	0,011
-723,094	108,990	-0,066	-0,059
-722,079	140,594	0,048	-0,047
-721,064	-200,000	0,012	0,084
-720,050	139,366	-0,071	-0,069
-719,035	-200,000	0,002	0,038
-718,021	-200,000	-0,001	-0,028
-717,006	800,000	0,025	0,079
-715,991	589,753	0,017	-0,032
-714,977	135,631	-0,004	-0,004
-713,962	-103,115	-0,068	0,012
-712,948	-200,000	0,002	-0,138
-711,933	78,476	0,087	-0,069
-710,918	-200,000	0,036	0,151
-709,904	424,370	-0,048	-0,077
-708,889	704,943	-0,012	-0,025
-707,875	800,000	0,017	-0,047
-706,860	-200,000	0,020	-0,165
-705,845	550,780	-0,011	-0,020
-704,831	-102,428	-0,058	-0,010
-703,816	190,442	0,020	0,022
-702,802	68,823	-0,023	0,018
-701,787	800,000	-0,050	-0,134
-700,772	800,000	0,002	-0,006
-699,758	800,000	0,019	0,054
-698,743	-200,000	-0,004	-0,064
-697,729	278,701	-0,060	0,079
-696,714	800,000	-0,033	0,069
-695,699	-200,000	-0,026	0,099
-694,685	-197,085	-0,064	0,000
-693,670	-200,000	-0,024	-0,087
-692,656	62,658	-0,150	-0,111
-691,641	800,000	0,015	-0,046
-690,627	800,000	-0,075	0,201
-689,612	248,236	-0,037	0,046
-688,597	-200,000	-0,066	0,238
-687,583	-200,000	-0,016	-0,142
-686,568	-200,000	0,027	-0,111
-685,554	-97,612	-0,090	-0,017
-684,539	-200,000	0,003	0,019
-683,524	-63,408	0,166	-0,050
-682,510	800,000	0,030	0,081
-681,495	800,000	-0,074	0,155
-680,481	-59,604	-0,142	-0,045
-679,466	-16,918	-0,063	-0,029
-678,451	-200,000	-0,013	-0,087
-677,437	-200,000	0,012	0,119
-676,422	19,065	0,081	-0,048
-675,408	105,888	0,078	0,069
-674,393	-45,274	0,066	-0,024
-673,378	83,758	0,063	0,051
-672,364	166,304	0,075	-0,079
-671,349	-200,000	-0,011	-0,041
-670,335	502,468	0,019	0,033
-669,320	554,681	0,025	0,045
-668,305	218,773	-0,065	0,078
-667,291	-118,768	0,024	-0,003
-666,276	-120,852	0,105	-0,013
-665,262	42,387	0,127	-0,085
-664,247	26,139	-0,063	0,039
-663,232	-200,000	-0,019	0,206
-662,218	45,097	0,071	0,049
-661,203	437,732	-0,067	0,108
-660,189	404,897	0,039	-0,061
-659,174	128,791	-0,033	0,032
-658,159	51,868	-0,086	0,060
-657,145	135,231	-0,056	0,054
-656,130	-45,726	0,020	0,007
-655,116	-200,000	0,003	-0,041
-654,101	-14,915	-0,084	0,040
-653,086	72,521	0,125	-0,096
-652,072	800,000	0,034	-0,077
-651,057	-200,000	0,037	-0,165
-650,043	115,476	-0,048	-0,043
-649,028	109,000	-0,052	-0,046
-648,014	54,969	-0,046	-0,033
-646,999	-200,000	0,038	-0,202
-645,984	-142,309	-0,096	0,007
-644,970	-66,685	-0,091	-0,027
-643,955	-103,185	-0,212	-0,037
-642,941	-26,847	-0,007	0,003
-641,926	195,665	0,098	0,110
-640,911	63,111	0,106	-0,079
-639,897	-95,502	0,081	0,016
-638,882	107,379	-0,052	0,046
-637,868	-200,000	-0,022	-0,135
-636,853	159,257	-0,161	-0,166
-635,838	-200,000	-0,016	-0,073
-634,824	-200,000	-0,009	-0,033
-633,809	199,383	0,043	0,048
-632,795	800,000	0,035	0,079
-631,780	-200,000	0,025	0,094
-630,765	129,492	0,041	0,039
-629,751	800,000	-0,019	0,042
-628,736	-76,865	0,065	0,017
-627,722	296,608	0,026	0,035
-626,707	795,238	0,023	-0,046
-625,692	514,077	-0,062	0,108
-624,678	-57,641	0,062	-0,020
-623,663	456,719	0,037	-0,061
-622,649	800,000	-0,026	-0,061
-621,634	-200,000	-0,007	0,079
-620,619	800,000	0,045	-0,133
-619,605	800,000	0,051	-0,148
-618,590	-200,000	0,004	0,022
-617,576	-200,000	0,009	0,089
-616,561	45,562	-0,051	-0,034
-615,546	-200,000	0,001	0,012
-614,532	-200,000	-0,025	-0,126
-613,517	23,827	-0,014	0,009
-612,503	100,243	0,117	-0,101
-611,488	665,839	0,028	-0,054
-610,474	46,330	-0,125	0,085
-609,459	133,468	-0,064	-0,061
-608,444	1,854	-0,057	0,030
-607,430	-200,000	0,026	-0,115
-606,415	800,000	0,007	-0,019
-605,401	-58,503	0,106	0,034
-604,386	191,376	-0,074	0,082
-603,371	-185,225	-0,022	-0,000
-602,357	-77,086	-0,079	0,020
-601,342	-16,767	0,025	0,012
-600,328	391,285	0,042	-0,065
-599,313	173,422	-0,106	0,113
-598,298	-200,000	-0,016	-0,108
-597,284	-200,000	-0,009	-0,075
-596,269	81,366	0,088	0,071
-595,255	-81,549	-0,111	0,027
-594,240	17,625	-0,009	0,005
-593,225	800,000	-0,049	-0,131
-592,211	-33,553	-0,143	-0,058
-591,196	-200,000	0,006	-0,041
-590,182	265,252	-0,043	0,056
-589,167	301,466	-0,078	-0,106
-588,152	-200,000	0,054	0,237
-587,138	-27,419	-0,089	0,038
-586,123	800,000	-0,013	-0,033
-585,109	800,000	-0,022	-0,065
-584,094	800,000	-0,021	-0,049
-583,079	62,567	0,045	-0,033
-582,065	800,000	0,024	-0,068
-581,050	29,419	-0,047	-0,030
-580,036	3,872	0,087	0,047
-579,021	-65,697	-0,042	-0,012
-578,006	800,000	-0,048	-0,129
-576,992	-159,078	-0,089	0,004
-575,977	184,549	-0,043	0,047
-574,963	31,414	-0,125	0,079
-573,948	-87,438	0,145	-0,032
-572,934	-127,473	0,041	-0,004
-571,919	-130,458	0,134	0,013
-570,904	-200,000	-0,014	-0,076
-569,890	-32,988	-0,136	0,056
-568,875	-74,439	0,013	0,003
-567,861	37,402	0,044	-0,029
-566,846	360,782	0,038	0,056
-565,831	287,689	-0,007	0,009
-564,817	-200,000	-0,042	0,165
-563,802	163,119	0,071	-0,074
-562,788	447,279	-0,052	-0,085
-561,773	-200,000	0,007	0,106
-560,758	-60,729	-0,072	0,022
-559,744	-31,730	0,031	-0,013
-558,729	100,088	-0,048	-0,041
-557,715	800,000	-0,029	-0,077
-556,700	-159,704	-0,110	0,004
-555,685	-200,000	-0,007	0,084
-554,671	-200,000	0,038	0,169
-553,656	37,048	0,036	0,024
-552,642	168,700	-0,081	-0,085
-551,627	38,075	-0,057	-0,037
-550,612	-126,620	0,037	-0,004
-549,598	800,000	-0,034	-0,086
-548,583	13,832	0,062	-0,035
-547,569	-200,000	-0,002	0,153
-546,554	473,912	0,058	0,097
-545,539	-68,939	-0,023	-0,007
-544,525	458,373	-0,016	0,026
-543,510	114,224	-0,031	0,028
-542,496	-0,243	-0,155	-0,081
-541,481	-67,053	0,031	-0,009
-540,466	800,000	0,029	-0,090
-539,452	-98,342	0,072	0,013
-538,437	-200,000	0,026	-0,085
-537,423	-158,175	0,100	-0,004
-536,408	-3,284	-0,060	0,031
-535,393	-135,066	-0,177	-0,015
-534,379	59,607	0,070	0,051
-533,364	595,330	-0,034	0,061
-532,350	-200,000	0,003	-0,013
-531,335	176,617	0,039	0,042
-530,321	617,962	0,091	0,169
-529,306	-200,000	0,002	0,051
-528,291	-78,040	-0,069	-0,017
-527,277	-200,000	0,004	0,022
-526,262	161,811	0,055	0,057
-525,248	311,359	-0,038	0,053
-524,233	-200,000	-0,006	0,120
-523,218	-79,805	0,065	0,016
-522,204	112,143	0,065	-0,058
-521,189	800,000	-0,006	0,013
-520,175	800,000	-0,039	-0,124
-519,160	-97,747	0,089	0,017
-518,145	-200,000	-0,009	0,082
-517,131	-89,329	0,132	0,028
-516,116	41,611	0,108	0,072
-515,102	-198,633	0,056	-0,000
-514,087	-200,000	-0,000	0,053
-513,072	-126,522	-0,049	0,005
-512,058	-26,243	-0,065	0,028
-511,043	370,059	-0,034	0,051
-510,029	-65,467	-0,069	0,020
-509,014	-200,000	-0,006	0,116
-507,999	77,624	0,048	-0,038
-506,985	-194,138	-0,167	-0,001
-505,970	87,268	-0,077	-0,062
-504,956	-200,000	0,005	-0,183
-503,941	800,000	-0,027	-0,089
-502,926	535,814	-0,014	-0,025
-501,912	108,947	0,051	0,045
-500,897	-116,161	-0,157	0,021
-499,883	385,532	0,079	-0,120
-498,868	182,794	-0,083	-0,090
-497,853	-115,137	-0,135	0,019
-496,839	64,382	0,100	-0,074
-495,824	-121,847	0,117	0,014
-494,810	46,206	0,018	-0,012
-493,795	118,570	0,085	0,077
-492,781	-41,407	0,082	-0,031
-491,766	16,862	-0,076	0,044
-490,751	-200,000	0,006	-0,061
-489,737	77,193	-0,060	-0,047
-488,722	351,745	0,108	0,158
-487,708	184,105	0,067	0,073
-486,693	-62,996	-0,138	0,042
-485,678	283,115	-0,031	-0,041
-484,664	-33,399	-0,119	-0,048
-483,649	-179,300	-0,066	0,001
-482,635	44,271	0,076	0,051
-481,620	24,547	0,109	0,066
-480,605	-79,592	0,032	-0,008
-479,591	-62,782	-0,115	0,035
-478,576	-101,843	-0,144	-0,025
-477,562	800,000	0,050	0,128
-476,547	-200,000	0,013	-0,097
-475,532	56,188	0,057	0,041
-474,518	-127,864	-0,169	0,018
-473,503	800,000	0,044	-0,092
-472,489	29,881	-0,052	0,033
-471,474	-23,251	0,092	0,040
-470,459	-200,000	0,026	-0,104
-469,445	147,162	-0,054	-0,053
-468,430	-125,936	-0,095	-0,010
-467,416	216,695	0,134	-0,157
-466,401	138,769	-0,079	-0,076
-465,386	-114,162	0,048	-0,007
-464,372	-116,727	-0,076	-0,010
-463,357	-69,693	-0,206	0,057
-462,343	800,000	-0,068	-0,142
-461,328	347,787	-0,016	-0,023
-460,313	8,865	0,247	-0,136
-459,299	39,159	-0,104	-0,068
-458,284	99,331	0,068	-0,057
-457,270	800,000	-0,038	0,111
-456,255	800,000	0,007	0,022
-455,241	322,480	0,026	0,037
-454,226	-200,000	-0,030	-0,123
-453,211	-200,000	0,004	-0,101
-452,197	-29,723	0,114	-0,047
-451,182	-200,000	0,000	0,074
-450,168	-95,960	0,097	0,019
-449,153	82,325	-0,031	0,024
-448,138	-200,000	0,010	-0,093
-447,124	-200,000	-0,012	0,060
-446,109	800,000	-0,018	0,044
-445,095	-200,000	0,002	0,017
-444,080	256,774	-0,007	0,009
-443,065	-18,676	-0,114	-0,052
-442,051	-200,000	0,029	-0,130
-441,036	-200,000	-0,016	-0,065
-440,022	-200,000	-0,019	0,114
-439,007	-3,025	0,103	0,053
-437,992	800,000	0,017	0,036
-436,978	-200,000	0,032	0,153
-435,963	-50,745	0,106	-0,036
-434,949	-200,000	-0,000	0,062
-433,934	800,000	-0,039	0,097
-432,919	196,286	0,091	-0,102
-431,905	-200,000	-0,017	0,216
-430,890	-122,422	-0,019	-0,002
-429,876	-89,894	0,040	0,008
-428,861	800,000	0,009	0,024
-427,846	-200,000	-0,021	-0,118
-426,832	-200,000	-0,004	-0,068
-425,817	-102,395	-0,129	-0,022
-424,803	5,460	-0,034	0,018
-423,788	372,045	-0,017	0,025
-422,773	-200,000	0,010	0,098
-421,759	-143,587	-0,091	0,006
-420,744	23,149	-0,065	0,039
-419,730	-65,818	-0,083	-0,024
-418,715	800,000	-0,064	-0,146
-417,701	104,192	0,051	0,044
-416,686	-137,442	0,137	0,011
-415,671	280,989	-0,029	-0,039
-414,657	78,533	0,015	-0,012
-413,642	-200,000	-0,024	0,095
-412,628	72,204	0,165	0,126
-411,613	204,944	0,063	0,072
-410,598	87,237	-0,072	-0,059
-409,584	-129,825	-0,184	0,018
-408,569	265,087	-0,040	0,051
-407,555	-62,827	0,103	0,031
-406,540	800,000	0,015	-0,034
-405,525	263,314	-0,045	0,057
-404,511	-79,163	-0,083	0,020
-403,496	-200,000	-0,022	-0,161
-402,482	-200,000	0,039	0,137
-401,467	-200,000	-0,023	0,118
-400,452	233,310	0,041	-0,049
-399,438	-200,000	0,013	-0,054
-398,423	254,481	0,085	-0,107
-397,409	319,657	0,061	-0,085
-396,394	408,768	-0,048	-0,075
-395,379	-191,994	-0,046	0,000
-394,365	119,131	0,097	0,088
-393,350	-14,580	0,133	0,062
-392,336	-200,000	-0,003	0,137
-391,321	498,983	0,021	0,036
-390,306	-81,174	0,097	-0,023
-389,292	259,007	0,063	-0,079
-388,277	98,945	0,046	-0,038
-387,263	-200,000	-0,011	0,147
-386,248	-200,000	-0,016	0,165
-385,233	177,005	0,029	0,031
-384,219	-51,327	-0,114	-0,039
-383,204	-200,000	-0,008	0,031
-382,190	800,000	-0,004	0,009
-381,175	-0,822	-0,130	-0,067
-380,160	-200,000	-0,008	0,049
-379,146	513,952	-0,016	-0,027
-378,131	-200,000	-0,012	0,067
-377,117	88,076	-0,036	-0,029
-376,102	-200,000	-0,006	-0,091
-375,088	800,000	0,036	-0,093
-374,073	800,000	0,061	0,164
-373,058	-25,097	-0,017	0,007
-372,044	23,048	0,135	0,081
-371,029	-200,000	0,006	0,279
-370,015	33,699	0,048	-0,030
-369,000	800,000	0,043	0,109
-367,985	-200,000	0,014	-0,047
-366,971	-200,000	0,029	0,134
-365,956	170,734	-0,023	-0,024
-364,942	482,659	0,061	0,102
-363,927	-45,892	0,076	0,027
-362,912	356,926	0,012	-0,017
-361,898	19,104	-0,099	-0,058
-360,883	9,772	-0,053	0,029
-359,869	685,283	0,038	-0,073
-358,854	800,000	-0,014	-0,030
-357,839	-137,540	0,127	0,010
-356,825	-94,219	0,109	0,022
-355,810	-200,000	-0,007	-0,033
-354,796	164,171	-0,057	0,059
-353,781	537,576	-0,058	-0,100
-352,766	18,017	0,036	-0,021
-351,752	9,872	-0,027	-0,015
-350,737	-169,279	-0,139	-0,004
-349,723	-144,633	0,089	0,006
-348,708	-200,000	-0,014	0,050
-347,693	-200,000	0,034	-0,173
-346,679	800,000	-0,040	0,084
-345,664	59,995	-0,081	0,059
-344,650	-200,000	-0,011	0,103
-343,635	-35,490	0,029	-0,011
-342,620	223,237	0,145	0,172
-341,606	143,383	-0,016	0,016
-340,591	-200,000	0,019	0,182
-339,577	109,576	0,037	-0,032
-338,562	-200,000	-0,000	-0,049
-337,548	-200,000	0,014	-0,082
-336,533	-200,000	0,001	0,072
-335,518	800,000	0,029	-0,076
-334,504	-197,999	-0,104	-0,000
-333,489	34,520	-0,043	0,027
-332,475	-200,000	0,030	-0,120
-331,460	800,000	0,032	-0,074
-330,445	93,650	-0,020	0,017
-329,431	800,000	-0,025	-0,070
-328,416	-71,296	0,083	-0,022
-327,402	14,249	-0,052	-0,030
-326,387	81,909	0,056	-0,044
-325,372	-83,514	-0,040	0,009
-324,358	40,792	-0,047	0,031
-323,343	-109,124	0,047	-0,007
-322,329	-39,242	0,023	-0,009
-321,314	-1,087	0,131	-0,067
-320,299	187,735	0,090	-0,098
-319,285	180,109	0,072	0,078
-318,270	-200,000	-0,018	-0,076
-317,256	-2,515	-0,093	-0,047
-316,241	-64,793	-0,079	0,023
-315,226	-140,632	0,059	0,004
-314,212	-65,830	-0,014	0,004
-313,197	533,355	-0,014	-0,025
-312,183	-200,000	0,034	0,187
-311,168	-200,000	-0,038	-0,126
-310,153	-200,000	-0,047	-0,162
-309,139	-61,816	0,102	-0,031
-308,124	-200,000	0,030	0,098
-307,110	-200,000	-0,018	0,201
-306,095	-119,932	0,110	-0,014
-305,080	800,000	0,067	-0,172
-304,066	357,338	0,120	-0,175
-303,051	-200,000	-0,008	-0,178
-302,037	800,000	0,049	-0,133
-301,022	-200,000	0,047	0,162
-300,008	-138,966	0,072	-0,006
-298,993	-200,000	0,011	0,051
-297,978	-200,000	0,011	0,157
-296,964	234,805	0,125	-0,150
-295,949	479,927	-0,061	-0,101
-294,935	-95,612	-0,044	0,009
-293,920	79,218	-0,108	0,085
-292,905	104,558	0,086	0,074
-291,891	800,000	-0,004	-0,010
-290,876	800,000	-0,023	0,058
-289,862	-128,907	0,100	-0,010
-288,847	582,636	-0,029	-0,053
-287,832	495,622	-0,053	0,089
-286,818	144,799	-0,033	-0,032
-285,803	-102,648	-0,099	0,017
-284,789	-172,639	-0,095	0,002
-283,774	-200,000	0,016	0,070
-282,759	-6,929	-0,097	-0,048
-281,745	418,875	0,006	0,010
-280,730	23,472	-0,098	0,059
-279,716	755,480	0,033	0,066
-278,701	595,615	-0,046	0,084
-277,686	108,336	0,152	0,132
-276,672	800,000	-0,018	-0,046
-275,657	325,075	-0,052	-0,073
-274,643	-200,000	-0,006	0,147
-273,628	-200,000	0,003	-0,141
-272,613	-197,763	0,107	-0,000
-271,599	-12,101	0,072	-0,034
-270,584	-175,884	-0,038	0,001
-269,570	16,587	0,059	0,034
-268,555	721,642	0,027	0,054
-267,540	-134,918	-0,072	0,006
-266,526	13,342	0,140	-0,079
-265,511	-200,000	-0,008	-0,050
-264,497	-114,330	0,144	0,020
-263,482	-200,000	-0,006	0,115
-262,467	800,000	0,028	0,075
-261,453	48,682	-0,054	0,037
-260,438	-40,236	-0,063	0,024
-259,424	761,989	-0,092	-0,183
-258,409	-162,834	0,032	-0,001
-257,395	58,735	-0,099	0,071
-256,380	61,651	0,044	-0,032
-255,365	261,925	0,059	0,075
-254,351	-65,009	0,065	-0,019
-253,336	78,106	0,082	0,063
-252,322	162,761	-0,083	0,085
-251,307	257,580	0,092	-0,115
-250,292	44,398	-0,094	0,063
-249,278	-200,000	0,027	0,093
-248,263	800,000	0,006	-0,016
-247,249	561,063	-0,018	0,032
-246,234	209,653	-0,069	0,078
-245,219	9,974	0,045	0,025
-244,205	132,497	0,051	0,048
-243,190	-4,070	0,061	-0,031
-242,176	-140,875	-0,105	0,008
-241,161	-200,000	0,014	0,047
-240,146	800,000	-0,008	-0,017
-239,132	800,000	0,051	-0,131
-238,117	-4,694	-0,064	0,032
-237,103	38,176	-0,108	-0,070
-236,088	-1,150	0,075	0,039
-235,073	195,744	0,075	0,083
-234,059	124,964	0,037	-0,034
-233,044	-200,000	0,013	0,077
-232,030	385,089	0,042	-0,063
-231,015	192,519	0,068	-0,075
-230,000	505,128	0,052	-0,088
-228,986	-74,886	-0,019	0,005
-227,971	-200,000	-0,016	-0,209
-226,957	614,885	0,029	-0,053
-225,942	-79,356	-0,165	0,040
-224,927	-120,793	-0,180	-0,022
-223,913	-108,177	0,051	-0,008
-222,898	-0,690	-0,002	0,001
-221,884	225,356	-0,071	0,084
-220,869	-55,336	-0,065	0,021
-219,855	-78,671	0,035	-0,009
-218,840	57,773	0,084	-0,060
-217,825	-12,932	0,097	0,046
-216,811	70,082	0,007	-0,005
-215,796	-200,000	0,028	-0,112
-214,782	71,078	0,033	-0,025
-213,767	800,000	-0,042	0,103
-212,752	-60,525	0,115	0,035
-211,738	-90,034	0,081	0,017
-210,723	-153,528	0,015	-0,001
-209,709	-64,345	-0,046	0,014
-208,694	-150,045	-0,140	0,008
-207,679	800,000	0,079	0,206
-206,665	113,351	0,046	-0,040
-205,650	484,131	-0,058	-0,096
-204,636	-200,000	0,003	0,077
-203,621	3,887	-0,132	0,070
-202,606	800,000	-0,008	-0,021
-201,592	22,692	-0,159	-0,094
-200,577	-119,846	-0,029	-0,004
-199,563	800,000	0,018	-0,053
-198,548	632,251	0,061	-0,112
-197,533	105,687	-0,017	0,014
-196,519	126,816	-0,097	0,089
-195,504	-130,896	-0,047	0,005
-194,490	284,056	0,145	-0,189
-193,475	399,534	-0,061	-0,093
-192,460	-200,000	0,001	-0,072
-191,446	-200,000	-0,022	0,000
-190,431	116,667	0,174	0,155
-189,417	800,000	0,057	-0,157
-188,402	-200,000	0,007	-0,025
-187,387	-200,000	0,009	-0,099
-186,373	65,665	-0,042	0,031
-185,358	224,348	-0,049	0,058
-184,344	-116,317	-0,221	-0,029
-183,329	800,000	0,008	0,023
-182,315	119,249	-0,072	0,065
-181,300	778,252	0,024	0,047
-180,285	74,337	-0,082	-0,063
-179,271	447,928	-0,010	-0,016
-178,256	696,068	0,029	-0,055
-177,242	-200,000	-0,005	0,093
-176,227	304,887	0,064	0,087
-175,212	-32,261	0,109	0,044
-174,198	189,815	-0,099	-0,109
-173,183	-200,000	0,019	-0,087
-172,169	-200,000	0,000	-0,042
-171,154	189,379	-0,068	0,074
-170,139	-200,000	-0,015	-0,123
-169,125	-47,231	0,064	0,022
-168,110	-200,000	0,001	0,113
-167,096	158,763	0,120	0,121
-166,081	-200,000	-0,015	0,151
-165,066	800,000	-0,042	-0,129
-164,052	-103,926	-0,017	-0,003
-163,037	1,976	-0,014	-0,007
-162,023	-200,000	0,008	0,030
-161,008	-200,000	0,011	0,039
-159,993	112,603	0,038	-0,033
-158,979	-200,000	-0,002	0,008
-157,964	255,836	0,044	-0,055
-156,950	-200,000	-0,019	-0,134
-155,935	781,159	0,037	-0,074
-154,920	12,032	0,096	-0,053
-153,906	-200,000	0,025	0,102
-152,891	-33,806	0,122	0,049
-151,877	-200,000	-0,007	-0,059
-150,862	-200,000	0,006	-0,154
-149,847	443,980	-0,037	-0,060
-148,833	800,000	0,022	0,045
-147,818	75,599	0,184	-0,141
-146,804	-35,800	-0,026	-0,010
-145,789	-200,000	-0,025	0,090
-144,775	196,182	-0,082	-0,091
-143,760	219,105	-0,051	-0,059
-142,745	800,000	-0,023	-0,064
-141,731	-90,537	-0,043	-0,009
-140,716	292,456	0,045	0,059
-139,702	-26,911	-0,078	0,033
-138,687	800,000	0,048	0,111
-137,672	263,598	-0,047	0,059
-136,658	800,000	-0,051	-0,108
-135,643	-200,000	0,025	0,112
-134,629	82,487	0,094	0,074
-133,614	212,625	0,056	0,065
-132,599	219,048	-0,138	0,160
-131,585	70,119	-0,025	0,019
-130,570	-200,000	-0,001	-0,010
-129,556	-200,000	-0,012	0,049
-128,541	-130,598	-0,145	-0,014
-127,526	-9,378	0,058	0,028
-126,512	-104,361	-0,191	-0,032
-125,497	800,000	-0,022	-0,064
-124,483	-200,000	-0,020	-0,110
-123,468	-151,810	-0,141	-0,007
-122,453	-124,901	-0,096	0,011
-121,439	-200,000	-0,024	-0,079
-120,424	460,019	0,086	-0,140
-119,410	-96,724	-0,043	-0,008
