DTS Sentinel unit serial number:	SN410029Multiplexer serial number:	ORYXHardware model number:	OX2-SRSoftware version number:	ORYX F/W v4,00 Oryx Data Collector v3.7.2.0data status	okinstallation	B6 Nyhavnadifferential loss correction	single-endedforward channel	channel 2reverse channel	N/Adate	2023/12/09time	21:15:08forward acquisition time	300,00reverse acquisition time	0,00gamma	499,1914k internal	0,3128k external	0,3128temperature offset calibration	1,0000default loss term (dB/km)	0,3820temperature slope calibration	1,0000multiplexer offset coefficient	1,0000multiplexer slope coefficient	1,0000fibre end	0,00T internal ref (°C)	21,51T ext. ref 1 (°C)	5,39T ext. ref 2 (°C)	5,39length (m)	temperature (°C)	Stokes	anti-Stokes-744,400	29,228	0,072	0,045
-743,385	155,877	-0,143	0,147
-742,371	-65,882	0,185	-0,055
-741,356	-36,037	-0,301	0,121
-740,342	21,963	0,114	-0,069
-739,327	72,361	-0,151	-0,117
-738,312	385,291	-0,017	0,026
-737,298	-71,898	-0,283	0,078
-736,283	-99,895	-0,087	-0,016
-735,269	29,385	-0,170	0,107
-734,254	-11,777	0,068	-0,033
-733,239	-128,620	-0,350	-0,036
-732,225	-200,000	0,002	0,059
-731,210	800,000	0,034	-0,096
-730,196	-138,586	-0,019	-0,002
-729,181	255,427	0,006	-0,008
-728,167	-200,000	-0,005	-0,034
-727,152	-21,932	-0,022	-0,010
-726,137	-192,233	-0,027	0,000
-725,123	558,518	0,065	-0,117
-724,108	84,580	-0,134	-0,109
-723,094	61,494	-0,139	0,103
-722,079	84,598	-0,055	0,045
-721,064	-16,986	-0,074	0,035
-720,050	-200,000	0,020	-0,113
-719,035	-200,000	0,025	-0,122
-718,021	-200,000	0,018	-0,149
-717,006	-200,000	-0,002	-0,070
-715,991	17,926	-0,119	-0,070
-714,977	180,429	-0,078	-0,085
-713,962	-80,648	-0,175	-0,043
-712,948	743,998	-0,049	-0,099
-711,933	-200,000	-0,013	-0,108
-710,918	800,000	-0,003	0,010
-709,904	-200,000	-0,004	-0,088
-708,889	-84,359	-0,189	0,044
-707,875	175,281	-0,031	0,033
-706,860	200,495	0,087	-0,099
-705,845	800,000	0,030	-0,093
-704,831	800,000	0,043	0,116
-703,816	-200,000	-0,046	0,191
-702,802	-200,000	0,043	0,165
-701,787	-168,257	-0,137	0,004
-700,772	370,671	-0,067	-0,102
-699,758	428,005	-0,035	0,056
-698,743	115,320	0,067	0,061
-697,729	800,000	0,076	0,160
-696,714	-200,000	-0,017	0,121
-695,699	129,949	0,085	0,081
-694,685	-200,000	0,030	-0,188
-693,670	663,919	0,033	-0,064
-692,656	-88,601	0,126	-0,028
-691,641	288,901	-0,066	-0,089
-690,627	320,582	0,068	0,096
-689,612	-200,000	0,005	0,050
-688,597	-9,650	-0,082	0,040
-687,583	-112,552	-0,101	0,015
-686,568	-200,000	0,044	-0,210
-685,554	768,111	0,034	0,069
-684,539	455,692	-0,057	0,094
-683,524	-68,689	0,045	0,013
-682,510	426,453	-0,059	0,094
-681,495	-195,211	-0,065	-0,000
-680,481	168,016	-0,078	0,082
-679,466	-200,000	0,021	-0,190
-678,451	142,944	-0,076	0,075
-677,437	-200,000	-0,028	0,146
-676,422	-181,825	0,073	0,001
-675,408	-200,000	-0,004	0,084
-674,393	800,000	0,019	0,046
-673,378	-200,000	-0,004	-0,038
-672,364	800,000	0,015	-0,046
-671,349	41,702	-0,094	-0,063
-670,335	-73,473	-0,121	-0,033
-669,320	89,426	0,062	0,051
-668,305	-200,000	0,005	-0,017
-667,291	-163,182	-0,116	0,004
-666,276	-59,557	-0,164	-0,052
-665,262	221,689	-0,073	-0,087
-664,247	-46,434	-0,138	-0,050
-663,232	800,000	0,026	0,072
-662,218	-200,000	-0,022	-0,139
-661,203	800,000	0,021	0,047
-660,189	-87,347	-0,067	-0,015
-659,174	-200,000	-0,010	-0,045
-658,159	203,968	-0,066	-0,076
-657,145	-200,000	-0,005	-0,076
-656,130	320,089	0,028	-0,039
-655,116	784,714	-0,028	0,056
-654,101	289,270	-0,021	0,028
-653,086	-144,485	-0,212	0,014
-652,072	800,000	-0,046	-0,112
-651,057	-84,976	-0,164	0,038
-650,043	84,796	-0,054	0,044
-649,028	121,406	0,041	0,038
-648,014	-200,000	0,013	0,071
-646,999	-59,258	0,042	-0,013
-645,984	800,000	0,015	0,034
-644,970	-73,161	-0,050	0,013
-643,955	7,956	-0,141	0,078
-642,941	746,946	0,049	-0,099
-641,926	270,346	-0,043	-0,056
-640,911	-38,971	0,016	-0,006
-639,897	-93,580	-0,118	-0,024
-638,882	42,115	0,069	0,047
-637,868	6,696	-0,150	-0,082
-636,853	-200,000	-0,013	-0,156
-635,838	-86,526	-0,054	-0,012
-634,824	-40,453	0,049	-0,019
-633,809	-135,474	0,084	0,007
-632,795	-200,000	0,022	0,105
-631,780	-200,000	0,019	0,065
-630,765	-176,432	-0,140	-0,003
-629,751	170,919	0,085	-0,091
-628,736	202,043	-0,119	-0,136
-627,722	-200,000	0,027	-0,145
-626,707	172,242	0,043	-0,046
-625,692	16,771	0,101	-0,059
-624,678	-200,000	-0,012	-0,059
-623,663	-142,730	-0,166	0,012
-622,649	-137,959	-0,119	0,010
-621,634	145,764	-0,078	0,077
-620,619	800,000	-0,014	-0,031
-619,605	800,000	0,040	0,118
-618,590	-14,839	0,072	0,034
-617,576	-200,000	-0,007	0,031
-616,561	128,666	-0,076	-0,071
-615,546	75,159	-0,128	-0,100
-614,532	-77,357	-0,122	0,031
-613,517	54,132	-0,084	0,060
-612,503	109,869	-0,085	-0,075
-611,488	-100,905	0,045	-0,008
-610,474	800,000	0,067	0,174
-609,459	127,958	0,067	0,064
-608,444	1,552	-0,056	0,030
-607,430	-179,397	0,133	-0,002
-606,415	263,468	-0,058	0,075
-605,401	-200,000	-0,023	-0,101
-604,386	285,932	0,038	-0,051
-603,371	19,453	-0,095	-0,056
-602,357	-200,000	-0,026	0,157
-601,342	-102,973	0,054	-0,009
-600,328	351,888	-0,025	-0,036
-599,313	705,871	-0,051	-0,100
-598,298	-200,000	0,003	-0,018
-597,284	-104,403	0,065	0,011
-596,269	390,198	-0,024	0,036
-595,255	208,207	-0,034	0,039
-594,240	191,360	0,067	-0,075
-593,225	331,825	-0,085	-0,122
-592,211	-149,097	-0,122	-0,007
-591,196	-121,931	0,062	-0,007
-590,182	78,710	-0,037	-0,029
-589,167	74,391	0,058	0,045
-588,152	340,112	-0,023	-0,033
-587,138	75,213	0,019	-0,015
-586,123	738,222	0,086	-0,171
-585,109	-108,684	-0,059	-0,009
-584,094	800,000	0,008	0,018
-583,079	-200,000	0,013	0,051
-582,065	-0,367	-0,057	-0,030
-581,050	17,874	-0,108	0,063
-580,036	-96,386	-0,111	0,022
-579,021	-200,000	-0,000	-0,025
-578,006	416,493	-0,119	-0,188
-576,992	-200,000	-0,022	0,085
-575,977	800,000	-0,035	-0,111
-574,963	-200,000	-0,030	-0,097
-573,948	-200,000	0,010	0,111
-572,934	-55,066	0,038	0,013
-571,919	-88,249	-0,203	-0,045
-570,904	81,336	-0,034	0,027
-569,890	-200,000	-0,008	0,115
-568,875	-142,499	-0,064	0,005
-567,861	-67,671	-0,029	0,008
-566,846	-200,000	0,004	0,050
-565,831	-94,885	-0,050	0,010
-564,817	31,198	-0,025	-0,016
-563,802	-200,000	0,006	-0,044
-562,788	65,431	0,019	-0,014
-561,773	-176,550	0,019	-0,000
-560,758	-169,004	0,210	-0,006
-559,744	-62,089	0,138	-0,042
-558,729	-200,000	0,025	-0,123
-557,715	614,655	-0,030	0,056
-556,700	-200,000	0,025	0,086
-555,685	-97,577	-0,053	0,010
-554,671	637,195	0,038	-0,071
-553,656	87,609	-0,038	0,031
-552,642	-131,805	-0,079	-0,008
-551,627	-200,000	-0,017	0,181
-550,612	426,030	0,034	0,054
-549,598	800,000	0,032	-0,104
-548,583	-4,300	0,041	0,021
-547,569	149,079	-0,064	-0,064
-546,554	-200,000	0,045	0,157
-545,539	140,005	0,108	0,105
-544,525	170,041	-0,048	-0,051
-543,510	800,000	0,017	0,049
-542,496	443,656	0,007	-0,012
-541,481	-73,427	-0,093	0,025
-540,466	255,593	-0,036	-0,046
-539,452	15,288	-0,047	0,027
-538,437	-100,774	0,053	-0,010
-537,423	703,976	0,040	0,079
-536,408	49,845	-0,086	0,060
-535,393	40,262	-0,057	-0,038
-534,379	503,759	0,024	0,042
-533,364	444,336	0,033	-0,053
-532,350	-200,000	0,002	-0,060
-531,335	38,678	0,078	0,051
-530,321	-200,000	0,000	0,030
-529,306	631,385	-0,067	0,125
-528,291	116,593	-0,084	-0,076
-527,277	-50,911	-0,084	0,029
-526,262	170,539	-0,085	0,089
-525,248	-200,000	-0,003	0,012
-524,233	367,417	0,107	0,159
-523,218	-200,000	0,000	0,028
-522,204	31,674	0,109	0,069
-521,189	-200,000	-0,005	0,036
-520,175	53,098	-0,115	0,081
-519,160	-141,198	0,196	-0,014
-518,145	-200,000	-0,009	-0,043
-517,131	169,274	0,090	0,095
-516,116	46,864	0,138	0,095
-515,102	126,415	0,120	0,112
-514,087	-200,000	-0,005	-0,049
-513,072	-128,791	-0,160	0,016
-512,058	-61,519	-0,083	0,026
-511,043	81,506	0,114	0,091
-510,029	-200,000	0,012	-0,081
-509,014	-88,291	0,124	-0,027
-507,999	800,000	0,052	0,128
-506,985	-200,000	0,002	0,056
-505,970	-38,888	0,117	-0,045
-504,956	-200,000	-0,010	0,032
-503,941	-82,696	0,089	-0,021
-502,926	800,000	0,050	0,161
-501,912	120,426	0,161	0,147
-500,897	800,000	0,017	0,044
-499,883	-6,360	0,096	0,048
-498,868	96,525	0,105	-0,089
-497,853	-40,238	-0,092	0,035
-496,839	800,000	-0,037	0,111
-495,824	-193,517	0,077	0,000
-494,810	-200,000	0,002	-0,081
-493,795	441,885	-0,033	-0,054
-492,781	-109,835	0,141	0,022
-491,766	-72,291	0,100	0,027
-490,751	287,688	0,030	-0,040
-489,737	-200,000	0,010	-0,075
-488,722	191,866	-0,068	0,075
-487,708	-140,839	-0,185	0,014
-486,693	107,349	0,054	0,047
-485,678	389,488	0,022	-0,033
-484,664	-200,000	0,005	0,057
-483,649	-200,000	-0,009	-0,030
-482,635	297,329	0,068	0,092
-481,620	300,047	-0,038	0,051
-480,605	63,194	0,083	0,061
-479,591	-200,000	0,001	0,044
-478,576	-92,684	-0,105	0,021
-477,562	-200,000	-0,017	-0,066
-476,547	-115,684	0,075	0,010
-475,532	211,759	-0,049	0,057
-474,518	-102,338	-0,015	0,003
-473,503	-200,000	-0,001	0,011
-472,489	-123,125	0,058	0,007
-471,474	390,627	-0,079	-0,120
-470,459	357,091	-0,119	-0,176
-469,445	11,017	0,032	-0,018
-468,430	800,000	0,066	0,154
-467,416	-105,126	0,128	0,021
-466,401	-200,000	0,017	0,062
-465,386	-21,955	0,144	0,064
-464,372	279,159	0,096	-0,126
-463,357	800,000	-0,031	-0,082
-462,343	416,878	-0,056	0,088
-461,328	320,141	-0,070	0,099
-460,313	800,000	-0,030	0,088
-459,299	-200,000	-0,035	0,174
-458,284	-200,000	0,043	-0,152
-457,270	-200,000	0,024	-0,133
-456,255	-40,701	0,115	0,044
-455,241	-136,642	-0,196	0,016
-454,226	-200,000	-0,004	-0,068
-453,211	-157,610	0,171	-0,007
-452,197	461,565	0,044	-0,073
-451,182	63,786	0,096	-0,071
-450,168	184,875	0,011	0,012
-449,153	-200,000	-0,026	0,106
-448,138	800,000	-0,022	-0,052
-447,124	254,747	0,069	-0,087
-446,109	-200,000	0,000	-0,007
-445,095	-43,735	0,051	0,019
-444,080	696,648	0,064	-0,125
-443,065	-107,741	0,040	0,006
-442,051	100,266	0,114	-0,097
-441,036	241,484	0,104	0,127
-440,022	352,935	0,025	0,037
-439,007	379,150	0,032	0,049
-437,992	-75,466	-0,105	0,027
-436,978	-57,965	-0,015	0,005
-435,963	400,912	0,050	-0,077
-434,949	-40,364	-0,119	0,045
-433,934	-200,000	0,036	-0,136
-432,919	-200,000	-0,062	-0,000
-431,905	-67,591	-0,119	-0,034
-430,890	6,155	0,038	-0,020
-429,876	448,756	-0,068	0,111
-428,861	-200,000	-0,016	-0,090
-427,846	-27,796	-0,084	0,036
-426,832	333,691	-0,072	-0,102
-425,817	-18,654	-0,171	-0,078
-424,803	-200,000	0,007	-0,023
-423,788	92,581	-0,131	-0,108
-422,773	266,397	-0,025	-0,033
-421,759	-47,907	-0,092	-0,033
-420,744	800,000	-0,015	-0,033
-419,730	183,147	0,065	0,071
-418,715	371,339	-0,077	-0,115
-417,701	-200,000	-0,004	0,057
-416,686	779,995	0,054	0,108
-415,671	-139,577	0,042	-0,003
-414,657	-200,000	0,009	0,028
-413,642	-200,000	-0,009	0,063
-412,628	535,733	-0,019	-0,033
-411,613	-160,386	-0,115	-0,004
-410,598	294,483	0,084	0,113
-409,584	33,813	0,098	-0,063
-408,569	800,000	-0,007	-0,016
-407,555	484,432	0,022	0,037
-406,540	65,429	0,124	0,092
-405,525	-45,332	0,067	-0,024
-404,511	800,000	0,042	-0,102
-403,496	800,000	0,046	-0,119
-402,482	-126,684	-0,076	-0,008
-401,467	-84,119	0,124	-0,029
-400,452	-89,249	-0,024	-0,005
-399,438	-127,765	0,093	0,010
-398,423	492,494	-0,041	-0,070
-397,409	84,824	-0,088	-0,070
-396,394	-200,000	0,007	0,039
-395,379	240,314	-0,016	-0,019
-394,365	38,524	0,047	0,031
-393,350	-107,441	0,107	0,017
-392,336	-159,289	-0,114	-0,005
-391,321	-55,509	-0,178	0,058
-390,306	-200,000	0,004	-0,170
-389,292	-200,000	-0,011	-0,132
-388,277	-200,000	0,001	-0,008
-387,263	102,758	0,046	-0,040
-386,248	194,016	0,073	0,081
-385,233	-200,000	-0,035	-0,124
-384,219	382,017	-0,027	0,041
-383,204	141,101	0,011	0,010
-382,190	-78,426	0,032	-0,008
-381,175	114,805	-0,051	-0,046
-380,160	-85,313	0,161	-0,037
-379,146	728,703	-0,014	0,027
-378,131	91,384	-0,085	-0,070
-377,117	57,673	-0,102	-0,073
-376,102	-72,420	-0,083	0,022
-375,088	-200,000	0,004	-0,024
-374,073	-200,000	-0,009	0,076
-373,058	-154,433	-0,051	0,002
-372,044	-44,101	0,106	-0,039
-371,029	-116,681	-0,142	0,019
-370,015	-176,531	0,049	0,001
-369,000	-200,000	0,012	-0,156
-367,985	-7,933	-0,179	-0,088
-366,971	-200,000	0,010	-0,110
-365,956	-62,578	0,120	0,036
-364,942	-82,983	0,102	-0,024
-363,927	182,705	0,024	0,026
-362,912	-166,607	0,050	0,001
-361,898	8,410	-0,146	-0,080
-360,883	24,971	-0,082	0,050
-359,869	-24,715	0,061	0,026
-358,854	800,000	0,023	0,056
-357,839	-46,762	0,092	0,033
-356,825	-139,291	-0,125	-0,010
-355,810	-42,781	0,053	-0,020
-354,796	-200,000	-0,022	0,103
-353,781	-24,820	0,029	0,013
-352,766	225,012	-0,027	0,032
-351,752	-92,741	-0,114	0,023
-350,737	-161,082	-0,111	0,004
-349,723	800,000	-0,020	0,049
-348,708	-200,000	-0,009	0,038
-347,693	-200,000	-0,007	-0,135
-346,679	36,471	-0,042	-0,027
-345,664	800,000	-0,049	-0,101
-344,650	9,723	0,066	0,036
-343,635	389,976	0,019	0,029
-342,620	242,129	0,101	0,125
-341,606	451,042	-0,042	0,068
-340,591	-200,000	-0,026	0,092
-339,577	-135,348	-0,122	-0,011
-338,562	-77,224	0,098	0,025
-337,548	294,211	0,140	0,188
-336,533	-200,000	-0,023	-0,094
-335,518	-77,593	-0,065	0,016
-334,504	128,325	0,090	-0,084
-333,489	-26,797	-0,106	0,045
-332,475	8,171	-0,079	-0,044
-331,460	-142,715	-0,061	-0,004
-330,445	131,782	-0,091	0,086
-329,431	139,006	-0,061	0,058
-328,416	-200,000	0,007	0,141
-327,402	800,000	0,029	-0,070
-326,387	-6,522	0,155	-0,077
-325,372	-200,000	-0,005	-0,020
-324,358	116,565	-0,049	0,044
-323,343	48,952	0,084	0,057
-322,329	-200,000	0,020	0,207
-321,314	41,833	-0,045	0,030
-320,299	292,030	0,044	0,059
-319,285	31,051	-0,055	0,034
-318,270	-200,000	0,005	-0,072
-317,256	-200,000	-0,012	-0,095
-316,241	-200,000	0,010	0,104
-315,226	67,564	0,111	0,083
-314,212	116,315	0,056	-0,050
-313,197	131,605	0,023	-0,021
-312,183	26,086	0,108	0,066
-311,168	28,629	-0,020	-0,012
-310,153	353,531	-0,034	-0,050
-309,139	533,732	-0,021	0,037
-308,124	-82,769	0,178	-0,042
-307,110	-200,000	-0,030	0,100
-306,095	-106,269	0,077	-0,013
-305,080	511,554	-0,068	0,116
-304,066	-104,721	0,168	0,028
-303,051	-80,418	-0,068	0,017
-302,037	800,000	0,012	0,035
-301,022	-138,841	-0,038	0,003
-300,008	2,286	-0,036	-0,019
-298,993	-200,000	-0,023	-0,141
-297,978	123,443	0,021	-0,020
-296,964	-200,000	0,015	-0,106
-295,949	81,271	-0,063	-0,049
-294,935	-200,000	-0,028	-0,089
-293,920	28,319	0,094	-0,058
-292,905	95,462	0,042	-0,035
-291,891	-66,775	-0,111	0,032
-290,876	-200,000	-0,003	-0,102
-289,862	773,169	-0,030	0,060
-288,847	19,625	-0,017	-0,010
-287,832	800,000	-0,058	-0,132
-286,818	-158,980	-0,089	-0,004
-285,803	429,646	-0,003	-0,004
-284,789	-119,508	0,089	-0,011
-283,774	-125,927	0,060	0,007
-282,759	29,549	0,048	-0,030
-281,745	-88,857	0,030	-0,006
-280,730	800,000	-0,009	0,020
-279,716	557,318	-0,032	-0,056
-278,701	47,755	-0,102	0,069
-277,686	28,696	-0,035	0,022
-276,672	800,000	-0,051	-0,121
-275,657	-7,612	-0,183	-0,090
-274,643	800,000	-0,038	0,102
-273,628	800,000	-0,023	-0,060
-272,613	133,181	0,045	0,043
-271,599	69,367	-0,068	-0,051
-270,584	161,602	0,143	-0,146
-269,570	-200,000	0,020	-0,094
-268,555	-127,502	0,128	0,013
-267,540	-125,711	-0,044	-0,005
-266,526	-200,000	0,009	-0,038
-265,511	-51,957	0,038	0,013
-264,497	-200,000	-0,013	-0,087
-263,482	100,796	-0,036	-0,030
-262,467	572,790	0,058	0,103
-261,453	71,607	-0,067	0,051
-260,438	83,030	-0,115	-0,091
-259,424	800,000	-0,050	-0,113
-258,409	254,980	-0,048	-0,061
-257,395	-70,755	0,032	0,009
-256,380	-200,000	-0,002	0,029
-255,365	-36,828	0,122	0,047
-254,351	800,000	0,043	0,108
-253,336	97,038	0,099	0,083
-252,322	109,614	0,050	0,043
-251,307	800,000	-0,009	-0,026
-250,292	258,742	-0,073	0,092
-249,278	-21,970	0,138	0,061
-248,263	92,971	0,068	-0,056
-247,249	-200,000	-0,032	-0,109
-246,234	-200,000	-0,013	-0,124
-245,219	-200,000	-0,006	0,154
-244,205	301,202	0,030	0,041
-243,190	503,777	-0,044	-0,075
-242,176	182,415	-0,028	0,030
-241,161	648,079	-0,052	0,097
-240,146	331,738	0,072	-0,102
-239,132	296,721	0,092	0,123
-238,117	-69,875	0,056	0,015
-237,103	314,665	-0,057	-0,078
-236,088	667,854	0,060	-0,114
-235,073	-200,000	0,013	-0,093
-234,059	-57,052	-0,103	0,033
-233,044	-132,988	0,026	0,002
-232,030	66,458	-0,020	0,015
-231,015	509,631	-0,015	-0,026
-230,000	-63,649	-0,045	0,013
-228,986	177,130	0,108	0,115
-227,971	-103,258	-0,080	-0,014
-226,957	238,223	0,026	0,031
-225,942	325,892	-0,061	0,085
-224,927	115,674	-0,057	-0,051
-223,913	242,549	-0,063	0,076
-222,898	-22,369	-0,042	0,019
-221,884	43,265	-0,107	-0,071
-220,869	-17,203	0,101	-0,046
-219,855	800,000	0,064	0,167
-218,840	800,000	0,024	0,052
-217,825	-31,330	-0,113	0,046
-216,811	800,000	-0,069	0,152
-215,796	800,000	-0,044	0,103
-214,782	800,000	0,028	0,074
-213,767	800,000	-0,040	0,103
-212,752	129,400	-0,016	-0,015
-211,738	-113,883	0,128	-0,018
-210,723	94,299	0,025	-0,021
-209,709	-200,000	-0,022	-0,118
-208,694	29,977	-0,035	-0,022
-207,679	4,692	-0,080	-0,043
-206,665	72,004	-0,038	0,029
-205,650	-86,750	0,101	0,022
-204,636	76,053	0,095	0,073
-203,621	-200,000	-0,008	0,179
-202,606	-200,000	-0,015	0,145
-201,592	-171,785	-0,062	0,001
-200,577	106,076	-0,051	0,044
-199,563	800,000	-0,037	-0,079
-198,548	286,254	0,054	0,072
-197,533	364,167	-0,026	0,039
-196,519	-43,246	0,032	-0,012
-195,504	-200,000	-0,042	-0,137
-194,490	800,000	-0,029	-0,064
-193,475	800,000	0,054	-0,145
-192,460	-200,000	0,020	-0,106
-191,446	-26,004	0,152	0,065
-190,431	472,267	-0,049	0,080
-189,417	800,000	0,020	0,054
-188,402	800,000	-0,002	-0,006
-187,387	321,854	0,043	0,060
-186,373	-200,000	0,014	-0,093
-185,358	298,435	0,060	-0,081
-184,344	14,827	-0,030	-0,017
-183,329	280,803	-0,018	-0,024
-182,315	-41,867	0,084	-0,031
-181,300	-97,833	0,097	-0,018
-180,285	590,385	-0,019	-0,034
-179,271	-128,684	0,043	-0,004
-178,256	720,844	-0,108	-0,209
-177,242	695,762	-0,036	0,070
-176,227	800,000	-0,032	0,071
-175,212	-125,995	-0,052	-0,006
-174,198	-92,696	0,068	-0,014
-173,183	800,000	0,029	-0,064
-172,169	167,438	-0,055	-0,057
-171,154	800,000	0,065	-0,202
-170,139	-86,748	-0,140	0,031
-169,125	0,163	0,088	0,045
-168,110	-200,000	-0,003	-0,035
-167,096	68,663	0,077	0,057
-166,081	337,017	-0,021	0,029
-165,066	251,164	-0,044	-0,055
-164,052	97,337	0,111	0,093
-163,037	-178,111	-0,073	0,001
-162,023	-98,316	0,035	-0,006
-161,008	-172,777	0,110	-0,002
-159,993	83,538	0,155	-0,123
-158,979	-105,525	-0,043	-0,007
-157,964	-52,259	-0,105	-0,035
-156,950	-200,000	0,021	0,083
-155,935	65,373	-0,063	0,047
-154,920	-18,108	0,079	-0,036
-153,906	-159,642	0,203	-0,008
-152,891	800,000	-0,074	-0,153
-151,877	800,000	-0,050	-0,115
-150,862	-200,000	-0,002	-0,027
-149,847	247,265	0,069	-0,085
-148,833	-162,263	0,071	0,003
-147,818	-200,000	0,019	0,101
-146,804	511,012	-0,048	-0,082
-145,789	131,206	0,135	-0,126
-144,775	427,595	-0,050	-0,079
-143,760	-200,000	-0,009	0,064
-142,745	56,577	-0,122	0,086
-141,731	800,000	0,026	-0,068
-140,716	-151,694	0,034	0,002
-139,702	-76,652	-0,023	0,006
-138,687	800,000	0,045	-0,128
-137,672	56,357	-0,030	-0,021
-136,658	78,303	0,104	-0,081
-135,643	-200,000	-0,008	0,084
-134,629	-1,863	-0,088	0,045
-133,614	-200,000	0,007	-0,038
-132,599	-200,000	-0,003	-0,036
-131,585	115,000	-0,031	-0,027
-130,570	-200,000	0,001	-0,018
-129,556	450,158	0,023	-0,036
-128,541	-68,405	-0,181	0,051
-127,526	108,835	-0,070	-0,061
-126,512	44,331	-0,088	0,059
-125,497	-200,000	0,001	0,015
-124,483	-200,000	-0,012	0,046
-123,468	-4,054	-0,063	0,032
-122,453	27,226	0,145	-0,088
-121,439	-76,271	-0,091	-0,023
-120,424	-200,000	-0,001	0,057
-119,410	-200,000	0,028	0,122
