DTS Sentinel unit serial number:	SN410029Multiplexer serial number:	ORYXHardware model number:	OX2-SRSoftware version number:	ORYX F/W v4,00 Oryx Data Collector v3.7.2.0data status	okinstallation	B6 Nyhavnadifferential loss correction	single-endedforward channel	channel 2reverse channel	N/Adate	2023/12/09time	11:50:08forward acquisition time	300,00reverse acquisition time	0,00gamma	499,1914k internal	0,3140k external	0,3140temperature offset calibration	1,0000default loss term (dB/km)	0,3820temperature slope calibration	1,0000multiplexer offset coefficient	1,0000multiplexer slope coefficient	1,0000fibre end	0,00T internal ref (°C)	19,01T ext. ref 1 (°C)	3,10T ext. ref 2 (°C)	3,09length (m)	temperature (°C)	Stokes	anti-Stokes-744,400	-5,444	0,152	-0,077
-743,385	-31,730	-0,271	0,112
-742,371	24,595	0,134	-0,082
-741,356	-75,009	-0,302	0,080
-740,342	-164,894	-0,158	-0,005
-739,327	-30,535	-0,387	0,162
-738,312	3,247	0,060	0,032
-737,298	-121,293	-0,304	0,037
-736,283	800,000	0,062	-0,145
-735,269	99,741	-0,193	0,166
-734,254	-200,000	-0,035	0,128
-733,239	-89,550	-0,471	-0,102
-732,225	302,394	0,115	-0,158
-731,210	-200,000	0,003	0,082
-730,196	205,450	-0,082	-0,095
-729,181	-200,000	-0,010	-0,126
-728,167	-86,604	0,036	0,008
-727,152	-141,844	-0,113	0,008
-726,137	45,241	0,127	-0,086
-725,123	591,684	-0,047	-0,086
-724,108	139,548	-0,098	-0,095
-723,094	528,635	-0,049	-0,086
-722,079	196,429	0,031	0,034
-721,064	128,711	0,051	0,048
-720,050	800,000	0,068	-0,189
-719,035	-200,000	0,011	-0,060
-718,021	458,670	0,020	-0,034
-717,006	474,923	-0,048	-0,080
-715,991	-135,818	-0,188	-0,016
-714,977	-200,000	0,004	0,030
-713,962	-200,000	0,033	-0,161
-712,948	290,843	-0,029	-0,039
-711,933	62,087	-0,056	-0,041
-710,918	-200,000	0,011	0,070
-709,904	18,071	-0,037	0,022
-708,889	104,262	-0,076	0,066
-707,875	-200,000	-0,034	0,141
-706,860	-29,218	0,120	0,051
-705,845	619,240	0,027	0,051
-704,831	-200,000	0,007	0,052
-703,816	-34,707	-0,061	0,025
-702,802	-2,080	-0,040	0,021
-701,787	-32,278	-0,144	-0,059
-700,772	-200,000	-0,008	-0,101
-699,758	93,727	0,079	0,066
-698,743	498,112	-0,089	-0,152
-697,729	-200,000	-0,032	0,136
-696,714	13,174	0,054	-0,031
-695,699	-200,000	0,002	0,023
-694,685	-130,347	-0,045	0,005
-693,670	201,838	0,067	-0,076
-692,656	450,133	0,078	-0,127
-691,641	-123,809	-0,124	0,014
-690,627	-81,394	-0,120	0,029
-689,612	-200,000	-0,002	0,074
-688,597	-26,277	-0,115	0,050
-687,583	52,874	-0,139	-0,098
-686,568	-200,000	0,006	0,053
-685,554	800,000	-0,017	-0,052
-684,539	527,199	0,028	-0,048
-683,524	-114,848	-0,032	-0,004
-682,510	-200,000	-0,009	-0,064
-681,495	211,248	-0,043	0,050
-680,481	8,013	0,067	-0,037
-679,466	132,821	-0,117	-0,112
-678,451	-104,021	-0,123	0,021
-677,437	-42,593	0,085	-0,032
-676,422	77,993	-0,125	-0,099
-675,408	-18,255	-0,039	-0,018
-674,393	-200,000	-0,002	0,033
-673,378	-4,432	-0,082	0,042
-672,364	-47,012	0,031	0,011
-671,349	-50,187	-0,092	-0,032
-670,335	-200,000	-0,004	-0,074
-669,320	306,385	0,034	-0,047
-668,305	-200,000	-0,011	0,047
-667,291	-72,963	-0,083	0,022
-666,276	108,329	0,129	-0,114
-665,262	250,669	-0,075	-0,094
-664,247	620,339	-0,025	0,047
-663,232	-50,353	0,037	0,013
-662,218	99,690	-0,063	0,054
-661,203	53,289	0,050	0,035
-660,189	2,698	0,018	0,010
-659,174	-57,708	-0,023	-0,007
-658,159	163,708	-0,062	-0,064
-657,145	-105,747	0,120	0,020
-656,130	44,924	0,012	0,008
-655,116	800,000	-0,026	0,078
-654,101	4,371	-0,168	0,091
-653,086	551,598	-0,080	0,143
-652,072	-200,000	-0,013	0,072
-651,057	-100,916	-0,041	0,007
-650,043	-200,000	-0,008	-0,078
-649,028	128,158	0,051	-0,048
-648,014	-200,000	0,005	-0,064
-646,999	-153,629	0,078	0,004
-645,984	34,884	-0,026	0,017
-644,970	-7,199	-0,135	-0,067
-643,955	43,836	0,028	-0,019
-642,941	-200,000	-0,036	-0,159
-641,926	403,006	0,050	0,078
-640,911	793,896	-0,009	0,019
-639,897	-51,446	-0,040	-0,014
-638,882	800,000	0,062	0,147
-637,868	758,334	0,018	0,036
-636,853	-28,270	-0,026	-0,011
-635,838	-6,787	0,047	0,024
-634,824	219,348	-0,069	-0,082
-633,809	-200,000	-0,009	0,114
-632,795	-24,098	-0,037	-0,016
-631,780	800,000	0,007	0,020
-630,765	-150,150	-0,123	0,007
-629,751	160,300	-0,079	-0,082
-628,736	800,000	0,020	0,057
-627,722	-200,000	0,001	-0,170
-626,707	-200,000	-0,005	-0,105
-625,692	13,355	0,107	0,061
-624,678	181,307	-0,035	0,038
-623,663	800,000	-0,045	0,122
-622,649	-200,000	0,008	-0,034
-621,634	-15,471	0,035	-0,016
-620,619	800,000	-0,060	-0,168
-619,605	-11,625	0,075	-0,036
-618,590	555,242	0,034	-0,060
-617,576	-200,000	-0,022	0,080
-616,561	-200,000	-0,000	0,056
-615,546	-200,000	-0,029	0,120
-614,532	-200,000	0,004	0,043
-613,517	86,392	-0,063	-0,051
-612,503	774,531	0,077	-0,157
-611,488	23,465	0,096	0,058
-610,474	800,000	-0,074	0,195
-609,459	-86,606	-0,034	-0,008
-608,444	-200,000	-0,002	-0,041
-607,430	-68,846	0,050	-0,014
-606,415	35,568	-0,051	0,033
-605,401	414,392	0,024	-0,038
-604,386	-200,000	0,024	0,109
-603,371	-200,000	0,029	0,107
-602,357	800,000	-0,054	-0,162
-601,342	-64,600	-0,054	0,016
-600,328	150,992	-0,040	-0,040
-599,313	-200,000	-0,020	-0,155
-598,298	440,930	0,060	-0,098
-597,284	54,861	0,133	-0,095
-596,269	110,837	-0,056	0,050
-595,255	-90,379	-0,161	-0,034
-594,240	-23,485	0,098	0,043
-593,225	-200,000	-0,011	-0,117
-592,211	-177,553	-0,065	-0,001
-591,196	-97,989	-0,144	0,027
-590,182	45,311	0,062	0,042
-589,167	-97,479	-0,086	-0,016
-588,152	559,794	-0,047	0,085
-587,138	800,000	-0,022	0,052
-586,123	-21,841	-0,177	-0,079
-585,109	204,875	0,030	-0,034
-584,094	800,000	-0,027	-0,088
-583,079	138,812	0,056	0,054
-582,065	-200,000	0,007	0,039
-581,050	-200,000	0,040	0,145
-580,036	-200,000	-0,014	-0,059
-579,021	-20,337	-0,109	-0,049
-578,006	193,819	0,052	-0,058
-576,992	-0,313	-0,063	0,033
-575,977	-200,000	0,028	0,149
-574,963	-36,536	0,091	0,036
-573,948	78,482	0,068	-0,053
-572,934	137,125	0,110	0,106
-571,919	-200,000	-0,036	-0,169
-570,904	67,045	0,093	-0,069
-569,890	800,000	0,033	0,069
-568,875	-20,065	0,088	0,040
-567,861	-74,523	0,090	0,024
-566,846	43,406	0,064	0,043
-565,831	-116,387	-0,213	0,029
-564,817	109,101	-0,033	0,029
-563,802	-70,341	0,063	-0,017
-562,788	584,782	0,024	0,044
-561,773	296,450	-0,054	0,073
-560,758	564,498	-0,037	0,066
-559,744	10,758	-0,077	-0,043
-558,729	212,341	-0,051	-0,060
-557,715	800,000	0,014	0,031
-556,700	-191,344	0,078	-0,001
-555,685	-178,541	-0,107	0,002
-554,671	333,084	0,042	-0,059
-553,656	800,000	0,028	0,088
-552,642	-17,454	0,101	0,047
-551,627	46,595	0,182	0,124
-550,612	68,248	-0,166	-0,125
-549,598	800,000	-0,040	-0,117
-548,583	-176,565	-0,078	-0,001
-547,569	167,474	0,049	-0,051
-546,554	19,588	0,056	-0,033
-545,539	393,526	0,035	0,054
-544,525	800,000	0,042	0,108
-543,510	534,698	-0,051	0,090
-542,496	13,929	0,106	-0,061
-541,481	800,000	-0,057	-0,185
-540,466	31,753	0,170	-0,107
-539,452	384,984	0,082	-0,124
-538,437	49,770	0,018	0,013
-537,423	125,261	-0,066	0,061
-536,408	-108,305	-0,084	-0,013
-535,393	800,000	0,063	-0,146
-534,379	-200,000	-0,026	-0,113
-533,364	-93,031	-0,065	0,013
-532,350	288,555	-0,021	-0,029
-531,335	-51,646	0,104	-0,036
-530,321	493,116	-0,112	-0,189
-529,306	701,498	0,011	-0,022
-528,291	-200,000	-0,021	-0,086
-527,277	80,583	-0,107	-0,084
-526,262	800,000	-0,038	0,119
-525,248	397,777	0,028	0,043
-524,233	86,987	-0,022	0,018
-523,218	-96,882	0,151	-0,029
-522,204	321,467	-0,034	0,047
-521,189	-118,107	0,067	0,009
-520,175	-200,000	0,020	-0,254
-519,160	56,724	-0,080	-0,058
-518,145	70,946	0,043	-0,033
-517,131	387,833	0,068	-0,103
-516,116	-93,893	-0,100	0,020
-515,102	77,112	-0,107	-0,083
-514,087	-116,420	-0,077	0,010
-513,072	-200,000	-0,026	0,097
-512,058	34,121	0,040	0,026
-511,043	22,358	0,093	-0,056
-510,029	264,299	-0,028	0,035
-509,014	-200,000	0,005	0,035
-507,999	388,788	0,003	0,004
-506,985	-200,000	-0,005	-0,036
-505,970	800,000	0,024	-0,051
-504,956	800,000	-0,037	-0,102
-503,941	-91,737	0,088	0,018
-502,926	76,437	0,095	-0,074
-501,912	348,005	0,092	0,133
-500,897	-200,000	0,058	0,239
-499,883	-200,000	-0,031	-0,123
-498,868	-200,000	0,000	-0,125
-497,853	-32,097	-0,116	-0,048
-496,839	-42,176	0,169	0,063
-495,824	159,847	0,089	0,092
-494,810	-200,000	-0,002	-0,069
-493,795	-22,625	-0,081	-0,036
-492,781	-200,000	0,027	-0,151
-491,766	800,000	0,012	0,027
-490,751	29,858	-0,062	-0,039
-489,737	232,965	-0,052	-0,063
-488,722	-200,000	-0,009	0,068
-487,708	8,093	0,128	0,070
-486,693	-200,000	-0,013	0,145
-485,678	-32,328	-0,030	0,012
-484,664	-115,867	-0,141	-0,019
-483,649	-200,000	-0,004	-0,174
-482,635	550,371	0,059	-0,105
-481,620	-200,000	-0,010	0,068
-480,605	-200,000	0,003	0,165
-479,591	103,379	-0,085	0,074
-478,576	-108,146	0,040	-0,006
-477,562	31,050	-0,068	-0,043
-476,547	29,671	-0,193	-0,120
-475,532	-130,571	-0,060	0,006
-474,518	-200,000	0,001	-0,005
-473,503	-200,000	0,020	0,073
-472,489	162,108	0,070	0,072
-471,474	800,000	0,043	0,135
-470,459	577,429	-0,037	-0,067
-469,445	-22,145	-0,119	-0,053
-468,430	-180,091	0,102	0,002
-467,416	-60,879	-0,097	-0,030
-466,401	347,181	0,054	-0,078
-465,386	177,663	0,068	-0,073
-464,372	-200,000	0,005	0,022
-463,357	17,856	-0,127	0,074
-462,343	514,961	-0,025	-0,043
-461,328	-70,446	0,126	-0,035
-460,313	-7,584	0,186	0,092
-459,299	104,670	-0,063	0,054
-458,284	-121,729	0,059	-0,007
-457,270	37,495	-0,073	0,048
-456,255	-200,000	0,011	0,072
-455,241	218,720	-0,024	0,028
-454,226	676,121	-0,070	0,134
-453,211	-200,000	0,008	0,078
-452,197	-200,000	-0,009	0,042
-451,182	-200,000	0,017	0,065
-450,168	513,058	0,069	0,118
-449,153	-47,174	-0,069	0,024
-448,138	-200,000	-0,023	-0,114
-447,124	-200,000	-0,016	-0,089
-446,109	-200,000	-0,009	0,150
-445,095	-200,000	-0,028	0,142
-444,080	219,899	0,071	0,084
-443,065	-174,640	-0,092	-0,002
-442,051	-115,473	0,027	-0,004
-441,036	-176,473	0,086	0,002
-440,022	718,720	-0,018	0,035
-439,007	138,818	-0,097	0,094
-437,992	-32,419	0,131	-0,053
-436,978	-161,636	0,011	0,000
-435,963	-200,000	0,004	-0,015
-434,949	800,000	-0,078	0,175
-433,934	-170,872	-0,134	0,003
-432,919	-200,000	0,025	-0,182
-431,905	0,106	-0,160	-0,084
-430,890	32,521	-0,083	-0,053
-429,876	-67,947	0,071	-0,020
-428,861	-200,000	0,004	-0,037
-427,846	-200,000	-0,004	-0,139
-426,832	-61,301	-0,074	-0,023
-425,817	613,236	-0,025	-0,046
-424,803	30,277	0,121	-0,075
-423,788	105,010	0,078	-0,068
-422,773	-88,228	0,081	0,018
-421,759	-200,000	0,009	-0,032
-420,744	-39,524	0,080	-0,030
-419,730	444,044	-0,050	-0,081
-418,715	-49,267	-0,041	0,014
-417,701	-200,000	0,016	0,080
-416,686	115,096	0,105	0,094
-415,671	-45,149	0,096	0,035
-414,657	-100,005	-0,104	0,019
-413,642	800,000	-0,018	0,038
-412,628	800,000	0,022	-0,064
-411,613	-200,000	-0,015	-0,052
-410,598	216,046	0,153	-0,179
-409,584	800,000	0,046	0,138
-408,569	-200,000	-0,018	0,058
-407,555	56,914	-0,049	0,035
-406,540	-108,734	0,029	-0,004
-405,525	353,383	-0,057	-0,083
-404,511	8,362	-0,029	0,016
-403,496	800,000	-0,018	0,047
-402,482	800,000	0,035	-0,083
-401,467	-17,728	0,178	-0,081
-400,452	211,007	0,006	-0,007
-399,438	-200,000	-0,016	0,094
-398,423	-159,966	-0,195	0,008
-397,409	191,777	-0,041	-0,045
-396,394	-90,286	-0,096	-0,020
-395,379	-200,000	0,002	0,127
-394,365	2,084	0,078	-0,041
-393,350	-143,653	0,176	0,012
-392,336	-182,337	0,165	-0,002
-391,321	62,381	-0,071	0,052
-390,306	-61,474	-0,026	-0,008
-389,292	-183,640	-0,067	-0,001
-388,277	-72,542	-0,096	-0,026
-387,263	-70,961	0,151	0,041
-386,248	123,126	-0,045	-0,041
-385,233	8,953	0,064	-0,035
-384,219	134,896	-0,062	-0,059
-383,204	-30,289	-0,135	-0,056
-382,190	-63,493	-0,105	-0,031
-381,175	135,834	0,120	-0,115
-380,160	-92,059	0,114	-0,023
-379,146	-129,617	0,077	-0,008
-378,131	36,999	-0,088	0,057
-377,117	-86,629	0,084	0,019
-376,102	-50,297	-0,140	-0,048
-375,088	40,806	-0,044	0,029
-374,073	279,530	0,046	-0,060
-373,058	-200,000	0,024	-0,077
-372,044	38,880	-0,021	0,014
-371,029	12,224	0,093	0,052
-370,015	-200,000	0,000	0,069
-369,000	-200,000	-0,004	-0,032
-367,985	800,000	0,055	-0,122
-366,971	-5,299	0,015	0,007
-365,956	-31,667	-0,015	0,006
-364,942	609,665	0,026	0,048
-363,927	800,000	0,024	0,062
-362,912	56,323	-0,105	-0,074
-361,898	143,057	-0,045	-0,044
-360,883	27,536	0,046	-0,028
-359,869	-200,000	0,021	0,121
-358,854	-200,000	-0,012	0,041
-357,839	440,819	0,053	-0,085
-356,825	-82,849	0,102	0,024
-355,810	732,395	-0,060	-0,118
-354,796	82,623	-0,101	-0,080
-353,781	202,150	0,014	0,016
-352,766	276,678	0,057	0,074
-351,752	88,909	-0,172	0,140
-350,737	-200,000	-0,009	0,088
-349,723	-200,000	0,007	0,066
-348,708	124,155	-0,102	0,094
-347,693	-200,000	0,020	-0,089
-346,679	71,885	-0,067	-0,051
-345,664	800,000	-0,009	0,018
-344,650	-50,098	0,077	0,026
-343,635	-61,668	0,125	-0,038
-342,620	-15,971	-0,057	0,026
-341,606	53,683	-0,016	0,011
-340,591	-68,061	-0,084	0,024
-339,577	4,188	0,052	-0,028
-338,562	-98,883	-0,057	-0,011
-337,548	106,489	-0,062	0,054
-336,533	-99,167	0,161	0,029
-335,518	-200,000	-0,003	0,107
-334,504	-157,634	-0,147	0,006
-333,489	-72,287	0,112	-0,030
-332,475	-118,953	-0,158	0,020
-331,460	-96,208	0,151	0,029
-330,445	334,441	-0,015	0,021
-329,431	76,691	0,018	-0,014
-328,416	109,374	-0,068	-0,059
-327,402	-50,518	0,048	-0,016
-326,387	800,000	-0,021	0,042
-325,372	661,133	-0,025	0,047
-324,358	-148,227	-0,097	0,006
-323,343	51,603	0,127	0,088
-322,329	-200,000	0,005	-0,131
-321,314	198,007	-0,056	-0,063
-320,299	21,499	0,084	0,049
-319,285	800,000	0,025	0,055
-318,270	372,391	-0,065	-0,096
-317,256	-200,000	0,041	-0,189
-316,241	-57,171	0,068	-0,022
-315,226	2,311	0,060	0,031
-314,212	-168,218	0,068	0,002
-313,197	175,317	-0,059	0,063
-312,183	-0,679	0,060	0,031
-311,168	800,000	-0,035	-0,082
-310,153	66,196	-0,113	-0,084
-309,139	279,651	-0,111	-0,144
-308,124	-200,000	0,003	0,049
-307,110	57,817	0,101	-0,072
-306,095	-166,196	-0,056	-0,002
-305,080	289,366	-0,034	-0,045
-304,066	-200,000	0,007	0,029
-303,051	-200,000	0,001	0,019
-302,037	-26,710	-0,048	-0,020
-301,022	-200,000	0,027	-0,110
-300,008	771,771	0,023	0,046
-298,993	281,947	0,149	0,195
-297,978	800,000	-0,034	-0,084
-296,964	-200,000	0,015	0,137
-295,949	12,706	-0,159	-0,089
-294,935	458,988	-0,019	0,030
-293,920	329,598	0,034	0,047
-292,905	29,444	0,061	0,037
-291,891	800,000	-0,051	0,152
-290,876	-200,000	-0,011	0,091
-289,862	180,050	-0,086	-0,092
-288,847	451,871	0,014	-0,022
-287,832	25,974	-0,042	0,025
-286,818	-200,000	0,009	0,159
-285,803	128,183	0,069	0,064
-284,789	-66,523	0,119	0,034
-283,774	-200,000	0,000	-0,057
-282,759	241,072	0,043	-0,053
-281,745	800,000	-0,020	0,041
-280,730	800,000	-0,015	0,048
-279,716	-121,160	0,023	-0,003
-278,701	-200,000	-0,062	0,202
-277,686	412,428	0,106	0,165
-276,672	800,000	0,028	0,063
-275,657	-144,719	0,038	0,003
-274,643	-4,609	-0,091	-0,046
-273,628	-200,000	0,003	-0,073
-272,613	406,676	0,013	0,020
-271,599	800,000	-0,050	-0,105
-270,584	-200,000	0,016	0,083
-269,570	-181,299	0,103	0,001
-268,555	-120,265	-0,073	0,009
-267,540	-200,000	-0,006	0,179
-266,526	135,731	0,132	-0,125
-265,511	323,272	-0,049	-0,068
-264,497	-40,366	-0,043	-0,016
-263,482	158,506	0,049	-0,050
-262,467	621,285	0,083	-0,152
-261,453	180,436	0,023	0,025
-260,438	-154,353	-0,035	0,002
-259,424	236,770	-0,018	0,022
-258,409	747,078	0,079	0,156
-257,395	800,000	0,003	-0,007
-256,380	6,146	0,079	-0,043
-255,365	-200,000	-0,014	0,179
-254,351	-142,278	-0,102	0,007
-253,336	109,878	-0,097	0,085
-252,322	-200,000	-0,008	-0,172
-251,307	800,000	-0,037	0,110
-250,292	-73,100	0,091	-0,024
-249,278	721,413	0,035	0,067
-248,263	-42,604	0,014	-0,005
-247,249	143,486	0,095	0,092
-246,234	-200,000	-0,014	0,051
-245,219	-164,678	-0,031	0,001
-244,205	143,598	-0,016	-0,016
-243,190	-32,849	-0,124	-0,050
-242,176	255,060	0,050	-0,063
-241,161	800,000	0,052	0,115
-240,146	147,479	-0,036	-0,035
-239,132	-56,361	0,036	0,012
-238,117	-149,046	-0,108	0,006
-237,103	32,410	-0,088	-0,055
-236,088	144,357	-0,136	-0,132
-235,073	292,811	0,057	0,075
-234,059	133,244	0,162	-0,153
-233,044	800,000	-0,026	0,067
-232,030	-151,244	0,126	-0,007
-231,015	800,000	0,025	-0,077
-230,000	-95,126	-0,020	0,004
-228,986	296,030	-0,058	-0,077
-227,971	-200,000	-0,003	-0,093
-226,957	-200,000	-0,004	-0,125
-225,942	-8,849	-0,061	0,029
-224,927	344,390	-0,076	-0,109
-223,913	355,467	-0,031	0,044
-222,898	433,974	-0,100	-0,158
-221,884	-17,935	-0,030	-0,013
-220,869	-5,057	-0,084	0,042
-219,855	-167,477	-0,063	0,002
-218,840	77,404	0,082	0,063
-217,825	-23,377	0,151	0,066
-216,811	-123,696	0,179	0,020
-215,796	155,024	-0,049	0,049
-214,782	-154,767	0,058	-0,003
-213,767	-74,647	0,147	-0,038
-212,752	78,516	0,080	0,062
-211,738	-91,018	-0,222	0,046
-210,723	370,278	0,020	-0,029
-209,709	-91,482	-0,117	-0,024
-208,694	-186,611	-0,017	-0,000
-207,679	-41,523	-0,045	-0,017
-206,665	695,295	0,022	-0,043
-205,650	131,325	0,080	0,074
-204,636	-105,825	0,055	0,009
-203,621	6,157	0,112	0,060
-202,606	-53,585	-0,048	-0,016
-201,592	632,344	-0,055	-0,101
-200,577	800,000	0,056	-0,148
-199,563	142,677	-0,054	-0,052
-198,548	730,772	0,047	0,091
-197,533	-200,000	0,001	0,007
-196,519	-200,000	0,001	0,086
-195,504	-200,000	0,011	-0,128
-194,490	-78,057	-0,066	0,016
-193,475	-200,000	0,033	0,134
-192,460	-109,114	0,065	0,010
-191,446	-200,000	-0,004	-0,050
-190,431	-200,000	-0,004	0,050
-189,417	-200,000	-0,005	0,087
-188,402	13,557	-0,051	-0,028
-187,387	-93,433	0,013	0,003
-186,373	-112,051	-0,144	0,021
-185,358	-200,000	-0,008	0,071
-184,344	82,824	0,073	-0,058
-183,329	-60,906	-0,089	-0,027
-182,315	64,123	0,016	0,012
-181,300	203,679	0,078	-0,088
-180,285	-185,555	0,016	-0,000
-179,271	-40,153	0,079	-0,030
-178,256	-1,883	0,102	0,052
-177,242	800,000	0,018	0,055
-176,227	-200,000	-0,002	0,097
-175,212	-107,116	-0,175	0,028
-174,198	392,572	0,076	0,114
-173,183	-200,000	-0,005	0,112
-172,169	-23,212	-0,066	-0,029
-171,154	800,000	-0,042	-0,117
-170,139	291,837	0,027	0,035
-169,125	462,424	0,097	0,158
-168,110	705,855	0,036	-0,069
-167,096	800,000	0,021	-0,054
-166,081	-45,344	-0,160	-0,057
-165,066	455,024	-0,031	0,050
-164,052	507,884	-0,030	0,050
-163,037	161,478	0,114	0,115
-162,023	-200,000	0,031	0,109
-161,008	643,504	0,059	0,109
-159,993	-91,737	-0,070	-0,014
-158,979	-119,886	-0,122	0,015
-157,964	221,294	0,081	0,094
-156,950	-8,453	-0,035	0,017
-155,935	-200,000	-0,007	-0,066
-154,920	528,524	0,016	0,027
-153,906	-200,000	-0,004	0,084
-152,891	-200,000	0,029	-0,114
-151,877	304,084	-0,046	0,062
-150,862	-200,000	0,001	-0,052
-149,847	-200,000	-0,004	-0,077
-148,833	316,846	-0,055	-0,076
-147,818	-137,503	0,092	0,007
-146,804	7,035	0,060	-0,032
-145,789	-200,000	-0,001	0,098
-144,775	-200,000	-0,007	0,032
-143,760	-51,236	-0,164	0,055
-142,745	-200,000	-0,048	-0,160
-141,731	-135,399	-0,073	-0,006
-140,716	-200,000	-0,014	-0,111
-139,702	800,000	-0,027	0,059
-138,687	-51,623	-0,117	0,039
-137,672	-14,999	-0,050	-0,023
-136,658	800,000	-0,040	-0,089
-135,643	18,027	0,020	-0,012
-134,629	-88,214	0,116	0,025
-133,614	-200,000	0,029	-0,148
-132,599	800,000	0,053	-0,113
-131,585	242,799	0,037	-0,045
-130,570	-78,796	0,075	-0,018
-129,556	44,451	-0,099	-0,065
-128,541	198,561	0,053	-0,058
-127,526	-200,000	0,013	-0,081
-126,512	-113,549	-0,087	0,012
-125,497	14,109	-0,081	0,046
-124,483	-200,000	-0,012	-0,082
-123,468	127,443	0,037	-0,034
-122,453	537,128	-0,062	-0,106
-121,439	-200,000	-0,027	-0,124
-120,424	800,000	-0,055	-0,142
-119,410	137,699	0,059	0,056
