DTS Sentinel unit serial number:	SN410029Multiplexer serial number:	ORYXHardware model number:	OX2-SRSoftware version number:	ORYX F/W v4,00 Oryx Data Collector v3.7.2.0data status	okinstallation	B6 Nyhavnadifferential loss correction	single-endedforward channel	channel 2reverse channel	N/Adate	2023/12/10time	03:15:08forward acquisition time	300,00reverse acquisition time	0,00gamma	499,1914k internal	0,3125k external	0,3125temperature offset calibration	1,0000default loss term (dB/km)	0,3820temperature slope calibration	1,0000multiplexer offset coefficient	1,0000multiplexer slope coefficient	1,0000fibre end	0,00T internal ref (°C)	22,00T ext. ref 1 (°C)	5,86T ext. ref 2 (°C)	5,83length (m)	temperature (°C)	Stokes	anti-Stokes-744,400	322,416	-0,013	-0,019
-743,385	-25,228	-0,114	-0,050
-742,371	651,016	-0,026	-0,049
-741,356	-200,000	-0,059	0,206
-740,342	-135,434	0,092	-0,008
-739,327	-96,896	-0,318	0,062
-738,312	-200,000	-0,008	-0,100
-737,298	-60,024	-0,227	0,072
-736,283	178,242	-0,021	-0,023
-735,269	-76,042	-0,315	0,082
-734,254	102,843	0,128	-0,112
-733,239	-90,039	-0,394	-0,085
-732,225	-88,965	0,132	-0,029
-731,210	800,000	-0,083	0,182
-730,196	163,691	0,041	-0,043
-729,181	-168,716	-0,085	-0,002
-728,167	-112,333	0,146	-0,022
-727,152	-86,236	-0,136	-0,031
-726,137	-86,484	0,051	-0,012
-725,123	217,354	-0,143	-0,169
-724,108	-102,991	-0,095	0,017
-723,094	556,994	-0,055	-0,099
-722,079	-200,000	0,022	-0,090
-721,064	-60,648	-0,074	0,023
-720,050	-17,698	-0,072	0,034
-719,035	-200,000	-0,001	-0,085
-718,021	800,000	-0,003	0,008
-717,006	88,791	0,045	0,037
-715,991	-103,694	-0,046	-0,008
-714,977	23,452	-0,125	0,076
-713,962	800,000	-0,075	-0,164
-712,948	-200,000	-0,016	-0,099
-711,933	29,423	0,069	0,044
-710,918	660,774	-0,021	0,040
-709,904	-200,000	-0,004	-0,051
-708,889	194,808	0,112	-0,126
-707,875	296,047	0,054	-0,074
-706,860	800,000	0,047	-0,125
-705,845	67,077	-0,035	-0,027
-704,831	236,738	0,074	0,091
-703,816	-129,633	0,031	-0,003
-702,802	17,227	-0,101	0,059
-701,787	263,452	0,041	-0,053
-700,772	-134,122	-0,117	-0,011
-699,758	167,253	0,057	0,060
-698,743	150,575	-0,063	0,064
-697,729	65,296	0,030	-0,022
-696,714	420,514	-0,047	-0,074
-695,699	-200,000	0,008	-0,114
-694,685	224,746	0,060	-0,072
-693,670	-200,000	0,004	0,021
-692,656	159,684	0,091	0,094
-691,641	-117,816	0,227	-0,030
-690,627	-117,903	0,091	-0,012
-689,612	-200,000	-0,012	-0,099
-688,597	290,567	-0,047	-0,064
-687,583	-200,000	0,000	-0,037
-686,568	21,408	-0,124	-0,075
-685,554	-200,000	-0,015	-0,094
-684,539	-112,944	0,085	-0,012
-683,524	223,160	0,093	-0,111
-682,510	-200,000	0,001	-0,043
-681,495	-200,000	0,012	-0,049
-680,481	234,273	-0,030	-0,037
-679,466	744,949	0,016	-0,031
-678,451	14,709	0,128	-0,074
-677,437	165,336	-0,070	-0,074
-676,422	-200,000	0,024	0,095
-675,408	-178,186	-0,135	0,002
-674,393	-200,000	-0,042	-0,177
-673,378	-200,000	0,022	-0,123
-672,364	4,101	0,012	0,007
-671,349	657,394	0,076	-0,146
-670,335	326,426	-0,106	-0,152
-669,320	800,000	-0,031	0,071
-668,305	-114,837	-0,108	0,015
-667,291	424,424	-0,035	-0,055
-666,276	-119,673	0,063	0,008
-665,262	-200,000	0,009	-0,099
-664,247	-200,000	-0,022	-0,095
-663,232	-200,000	0,012	-0,072
-662,218	-200,000	0,002	0,085
-661,203	99,995	0,092	-0,079
-660,189	721,318	0,090	0,179
-659,174	-39,825	-0,138	-0,053
-658,159	402,282	-0,052	-0,081
-657,145	-51,933	-0,067	-0,023
-656,130	163,503	-0,053	-0,055
-655,116	15,683	-0,014	0,008
-654,101	21,222	-0,005	0,003
-653,086	105,560	0,090	0,079
-652,072	105,782	-0,090	0,079
-651,057	97,398	-0,070	0,060
-650,043	411,962	-0,065	-0,103
-649,028	131,528	0,120	0,115
-648,014	1,512	0,071	0,038
-646,999	729,546	-0,012	-0,024
-645,984	583,928	0,026	0,048
-644,970	60,152	-0,118	-0,086
-643,955	-200,000	0,010	-0,033
-642,941	312,949	0,047	-0,066
-641,926	-30,564	-0,055	0,023
-640,911	172,216	0,045	0,048
-639,897	-34,803	-0,097	-0,039
-638,882	50,122	-0,098	-0,068
-637,868	-200,000	-0,000	-0,022
-636,853	-87,758	-0,133	-0,029
-635,838	-133,733	-0,038	0,003
-634,824	67,048	0,050	-0,038
-633,809	-200,000	-0,037	-0,165
-632,795	-112,333	-0,241	0,035
-631,780	299,651	0,015	-0,020
-630,765	-200,000	0,001	-0,035
-629,751	800,000	0,012	-0,037
-628,736	-41,514	-0,148	0,056
-627,722	55,066	-0,095	0,068
-626,707	800,000	0,027	0,080
-625,692	360,193	-0,072	0,107
-624,678	346,716	-0,039	0,057
-623,663	128,177	-0,044	0,041
-622,649	-200,000	-0,036	0,122
-621,634	800,000	-0,073	-0,186
-620,619	199,232	-0,058	0,066
-619,605	103,155	0,036	0,031
-618,590	800,000	0,030	0,066
-617,576	23,160	0,078	0,048
-616,561	29,172	-0,110	0,069
-615,546	36,820	-0,113	-0,074
-614,532	-200,000	0,012	-0,046
-613,517	-46,073	-0,144	-0,052
-612,503	12,053	-0,115	-0,065
-611,488	232,358	-0,024	-0,029
-610,474	-200,000	0,006	0,061
-609,459	-177,291	0,059	-0,001
-608,444	800,000	-0,040	-0,101
-607,430	800,000	-0,030	-0,080
-606,415	-131,263	0,094	-0,009
-605,401	-18,652	0,115	0,053
-604,386	800,000	0,078	0,183
-603,371	360,837	-0,034	0,050
-602,357	473,258	-0,060	-0,100
-601,342	-158,838	-0,104	-0,004
-600,328	-130,499	-0,191	-0,019
-599,313	160,312	-0,030	0,031
-598,298	27,323	-0,126	0,078
-597,284	-200,000	-0,027	0,101
-596,269	337,926	-0,009	0,012
-595,255	-103,178	-0,028	0,005
-594,240	57,075	0,102	0,074
-593,225	-83,356	-0,111	0,026
-592,211	12,159	-0,067	-0,038
-591,196	644,602	-0,029	0,055
-590,182	-200,000	0,023	-0,091
-589,167	91,160	-0,059	0,049
-588,152	800,000	0,016	0,033
-587,138	-200,000	0,004	-0,057
-586,123	23,332	0,087	-0,053
-585,109	-200,000	-0,014	-0,143
-584,094	-200,000	-0,016	-0,111
-583,079	753,470	-0,015	0,031
-582,065	13,533	0,098	0,056
-581,050	-200,000	-0,026	0,154
-580,036	507,522	0,018	-0,032
-579,021	-200,000	-0,025	0,112
-578,006	-89,015	0,096	-0,021
-576,992	-200,000	-0,024	-0,102
-575,977	29,587	-0,143	-0,090
-574,963	-129,076	0,004	0,000
-573,948	609,641	0,077	-0,143
-572,934	127,484	0,112	-0,105
-571,919	6,242	-0,107	0,059
-570,904	-43,610	-0,040	-0,015
-569,890	-8,714	-0,012	0,006
-568,875	26,679	-0,089	0,055
-567,861	-200,000	0,018	-0,129
-566,846	337,263	0,049	-0,070
-565,831	21,664	-0,125	0,075
-564,817	336,537	-0,137	-0,198
-563,802	-92,728	-0,207	-0,042
-562,788	139,775	0,086	0,083
-561,773	-200,000	0,037	0,168
-560,758	-200,000	0,003	-0,037
-559,744	653,030	-0,026	-0,050
-558,729	-28,431	-0,068	0,029
-557,715	-200,000	0,031	-0,109
-556,700	-9,480	-0,112	-0,055
-555,685	-153,507	0,111	-0,006
-554,671	88,874	0,107	0,088
-553,656	-16,561	0,056	-0,026
-552,642	-27,508	0,093	-0,040
-551,627	114,574	-0,075	-0,068
-550,612	183,357	-0,030	0,033
-549,598	16,152	-0,006	-0,003
-548,583	140,254	-0,049	-0,048
-547,569	-200,000	-0,006	-0,075
-546,554	45,308	0,094	0,064
-545,539	208,969	0,104	0,121
-544,525	284,210	-0,010	-0,013
-543,510	89,829	-0,017	-0,014
-542,496	800,000	-0,031	0,097
-541,481	-200,000	-0,001	0,012
-540,466	585,802	-0,050	0,091
-539,452	23,675	-0,065	-0,039
-538,437	140,746	0,062	-0,060
-537,423	-200,000	0,010	0,117
-536,408	-26,314	0,069	0,030
-535,393	677,116	-0,024	-0,047
-534,379	460,625	-0,067	-0,111
-533,364	-200,000	0,048	0,211
-532,350	16,246	-0,025	0,014
-531,335	-200,000	0,003	0,095
-530,321	-200,000	-0,034	0,159
-529,306	82,546	-0,075	0,060
-528,291	-200,000	-0,010	-0,064
-527,277	-8,813	-0,020	-0,010
-526,262	-154,211	-0,198	-0,010
-525,248	-92,628	0,075	-0,015
-524,233	-68,205	0,096	0,027
-523,218	-120,699	0,121	-0,015
-522,204	-200,000	0,003	0,056
-521,189	800,000	0,031	-0,095
-520,175	61,132	0,022	0,016
-519,160	-161,833	-0,154	0,006
-518,145	114,320	0,056	0,051
-517,131	68,887	0,078	0,059
-516,116	595,419	0,039	0,072
-515,102	-200,000	0,008	0,027
-514,087	349,312	-0,023	0,034
-513,072	-85,631	0,139	0,032
-512,058	-177,935	-0,039	0,001
-511,043	-113,114	0,145	0,021
-510,029	-120,679	0,128	0,016
-509,014	-200,000	0,005	-0,032
-507,999	154,017	-0,045	0,045
-506,985	-14,337	0,087	0,041
-505,970	-157,561	-0,084	-0,004
-504,956	793,137	-0,045	0,091
-503,941	470,689	0,054	0,090
-502,926	245,382	0,058	0,073
-501,912	420,990	0,136	0,215
-500,897	-148,937	-0,117	-0,007
-499,883	-146,911	-0,015	-0,001
-498,868	-140,393	-0,083	0,006
-497,853	190,682	-0,020	0,022
-496,839	312,612	0,045	-0,063
-495,824	-200,000	-0,001	-0,007
-494,810	-135,765	0,018	0,002
-493,795	-200,000	0,037	0,121
-492,781	410,346	0,055	0,086
-491,766	800,000	-0,033	0,096
-490,751	-200,000	0,001	-0,112
-489,737	-200,000	-0,025	-0,083
-488,722	-24,840	0,045	-0,020
-487,708	22,131	0,032	-0,019
-486,693	-200,000	-0,022	-0,088
-485,678	39,771	0,096	0,064
-484,664	-17,838	0,056	-0,026
-483,649	-200,000	0,023	-0,078
-482,635	45,971	-0,065	0,044
-481,620	325,340	-0,072	-0,102
-480,605	-200,000	-0,011	0,065
-479,591	-82,436	0,056	-0,013
-478,576	800,000	0,049	-0,139
-477,562	-165,240	-0,047	-0,001
-476,547	-27,353	0,046	0,019
-475,532	49,864	0,155	-0,107
-474,518	286,723	-0,137	0,183
-473,503	800,000	0,020	0,049
-472,489	141,566	-0,047	-0,045
-471,474	-133,892	-0,033	-0,003
-470,459	-10,892	-0,120	-0,058
-469,445	-200,000	0,015	0,050
-468,430	-200,000	-0,018	0,238
-467,416	15,030	-0,090	0,052
-466,401	-22,198	0,056	0,025
-465,386	800,000	0,019	-0,060
-464,372	-77,222	0,107	0,027
-463,357	-52,822	-0,116	-0,039
-462,343	-62,363	0,013	-0,004
-461,328	-200,000	-0,004	0,029
-460,313	390,040	-0,022	-0,033
-459,299	-48,217	0,145	0,051
-458,284	-170,616	0,111	-0,003
-457,270	-109,948	0,148	-0,023
-456,255	43,806	0,086	-0,058
-455,241	-39,695	-0,080	0,031
-454,226	699,981	-0,010	-0,020
-453,211	54,761	0,046	0,032
-452,197	152,348	-0,088	-0,089
-451,182	-200,000	-0,028	-0,156
-450,168	310,453	0,085	-0,117
-449,153	-138,933	0,076	0,006
-448,138	-192,510	-0,070	0,000
-447,124	800,000	-0,031	-0,098
-446,109	-200,000	0,017	-0,082
-445,095	-200,000	0,010	0,083
-444,080	-82,959	0,112	0,026
-443,065	-77,812	-0,033	0,008
-442,051	42,298	-0,103	0,069
-441,036	480,427	-0,019	-0,032
-440,022	89,263	0,106	-0,087
-439,007	800,000	0,027	-0,062
-437,992	614,673	-0,051	-0,095
-436,978	91,893	0,125	0,104
-435,963	-200,000	-0,027	0,094
-434,949	22,738	-0,087	0,052
-433,934	51,959	-0,116	0,081
-432,919	-126,848	-0,043	0,005
-431,905	524,612	0,085	-0,148
-430,890	320,133	0,083	0,116
-429,876	-200,000	-0,009	-0,052
-428,861	-52,095	0,030	-0,010
-427,846	193,433	-0,085	-0,095
-426,832	570,213	-0,024	0,044
-425,817	800,000	-0,026	0,057
-424,803	-200,000	-0,001	0,024
-423,788	253,508	0,033	-0,042
-422,773	-41,426	-0,062	0,023
-421,759	800,000	0,049	-0,129
-420,744	174,132	0,059	0,063
-419,730	-200,000	-0,034	-0,177
-418,715	-51,296	-0,059	-0,020
-417,701	-178,509	0,102	-0,002
-416,686	307,386	0,011	-0,016
-415,671	-200,000	-0,042	0,141
-414,657	-200,000	0,028	0,107
-413,642	800,000	0,038	0,081
-412,628	101,233	-0,064	-0,055
-411,613	800,000	-0,030	0,072
-410,598	-75,346	-0,075	-0,019
-409,584	-63,594	0,081	0,024
-408,569	-31,615	0,102	0,042
-407,555	64,802	0,115	0,086
-406,540	-71,674	0,038	0,010
-405,525	-60,338	0,071	0,022
-404,511	-13,657	-0,094	-0,045
-403,496	-200,000	0,033	-0,217
-402,482	268,728	0,015	-0,019
-401,467	-200,000	-0,028	0,256
-400,452	-200,000	-0,005	-0,023
-399,438	-68,841	-0,063	-0,018
-398,423	105,346	0,110	-0,096
-397,409	-65,053	0,156	-0,046
-396,394	121,359	0,060	-0,055
-395,379	629,323	0,050	-0,093
-394,365	-200,000	-0,004	0,150
-393,350	-200,000	-0,012	0,071
-392,336	-58,048	-0,115	0,037
-391,321	116,127	0,088	-0,079
-390,306	-200,000	-0,018	0,120
-389,292	-200,000	0,026	-0,136
-388,277	-22,093	0,075	-0,033
-387,263	-66,088	-0,110	-0,032
-386,248	226,974	0,086	-0,103
-385,233	-25,610	-0,088	0,038
-384,219	800,000	-0,065	-0,137
-383,204	8,227	0,103	-0,056
-382,190	-58,733	-0,091	-0,029
-381,175	-117,461	-0,055	0,007
-380,160	-200,000	-0,040	-0,130
-379,146	800,000	0,014	0,035
-378,131	366,590	-0,051	0,075
-377,117	-200,000	0,013	-0,165
-376,102	-200,000	-0,003	-0,138
-375,088	169,298	0,056	-0,059
-374,073	23,616	0,013	0,008
-373,058	125,339	-0,056	0,052
-372,044	-125,485	0,058	-0,006
-371,029	120,437	0,056	0,051
-370,015	800,000	-0,035	0,096
-369,000	85,608	0,081	0,065
-367,985	203,628	0,030	0,034
-366,971	-116,176	-0,030	0,004
-365,956	1,346	-0,043	-0,023
-364,942	-117,674	0,103	0,013
-363,927	800,000	-0,047	-0,105
-362,912	207,556	0,021	0,024
-361,898	737,771	0,050	-0,098
-360,883	216,039	0,061	-0,072
-359,869	800,000	-0,029	-0,083
-358,854	550,548	0,040	-0,070
-357,839	-40,479	-0,079	0,030
-356,825	-169,752	0,049	-0,001
-355,810	-200,000	0,008	-0,114
-354,796	174,537	-0,018	0,019
-353,781	28,352	-0,040	-0,025
-352,766	78,188	-0,047	-0,037
-351,752	117,662	-0,036	0,033
-350,737	-69,959	-0,086	0,024
-349,723	195,388	0,087	-0,097
-348,708	-200,000	-0,020	0,095
-347,693	-200,000	0,002	-0,012
-346,679	800,000	-0,031	-0,071
-345,664	37,179	-0,181	0,118
-344,650	800,000	0,021	0,066
-343,635	180,494	0,126	0,136
-342,620	800,000	0,048	0,120
-341,606	-25,569	-0,084	0,036
-340,591	-200,000	0,005	-0,046
-339,577	150,016	-0,046	-0,046
-338,562	204,903	0,034	-0,038
-337,548	-200,000	-0,018	0,094
-336,533	-200,000	0,007	-0,026
-335,518	-200,000	0,016	0,072
-334,504	800,000	-0,087	0,229
-333,489	-200,000	0,005	0,104
-332,475	-58,379	-0,063	0,020
-331,460	780,841	0,053	-0,108
-330,445	-103,946	-0,083	-0,014
-329,431	-200,000	0,002	0,079
-328,416	-200,000	0,028	0,118
-327,402	-25,060	0,088	0,038
-326,387	-200,000	0,012	0,041
-325,372	-83,418	-0,052	0,012
-324,358	-200,000	0,006	-0,128
-323,343	-37,027	-0,142	-0,056
-322,329	-200,000	0,011	-0,125
-321,314	-200,000	0,029	0,111
-320,299	35,648	0,063	-0,040
-319,285	245,905	0,060	-0,074
-318,270	-14,207	0,066	-0,031
-317,256	108,748	-0,124	-0,108
-316,241	152,379	-0,134	-0,134
-315,226	-200,000	-0,025	-0,149
-314,212	800,000	-0,023	0,050
-313,197	-200,000	0,014	0,118
-312,183	68,299	0,020	0,015
-311,168	-129,249	0,073	0,007
-310,153	-77,228	0,050	-0,013
-309,139	-200,000	0,006	-0,055
-308,124	800,000	-0,027	0,071
-307,110	-145,651	0,114	0,007
-306,095	-200,000	-0,012	0,099
-305,080	-200,000	0,005	-0,081
-304,066	-200,000	-0,016	-0,086
-303,051	-151,477	-0,052	-0,003
-302,037	-146,087	-0,052	-0,003
-301,022	-126,189	-0,148	-0,016
-300,008	-200,000	0,009	-0,053
-298,993	13,841	0,020	-0,011
-297,978	-146,161	0,070	0,004
-296,964	-86,455	-0,065	0,014
-295,949	193,096	-0,050	-0,055
-294,935	348,230	0,083	-0,119
-293,920	-91,817	0,091	0,019
-292,905	90,919	-0,112	-0,092
-291,891	407,333	-0,023	0,036
-290,876	-200,000	0,025	-0,108
-289,862	-200,000	0,000	-0,011
-288,847	800,000	-0,028	0,072
-287,832	-200,000	0,026	-0,104
-286,818	-29,059	-0,077	0,032
-285,803	800,000	-0,046	0,133
-284,789	800,000	-0,047	0,112
-283,774	-200,000	0,002	0,053
-282,759	-30,639	0,110	-0,045
-281,745	-154,754	-0,080	0,004
-280,730	7,829	-0,059	-0,032
-279,716	-200,000	-0,023	0,089
-278,701	800,000	0,011	0,031
-277,686	-101,262	-0,114	0,020
-276,672	253,303	-0,040	-0,050
-275,657	110,328	-0,019	-0,016
-274,643	147,217	0,070	0,069
-273,628	-85,279	-0,128	-0,029
-272,613	160,791	-0,046	0,047
-271,599	-34,915	-0,071	-0,028
-270,584	-200,000	0,002	-0,040
-269,570	-94,576	0,083	-0,016
-268,555	-58,234	0,143	0,045
-267,540	-71,792	0,060	0,016
-266,526	75,954	0,031	-0,024
-265,511	56,523	0,030	-0,021
-264,497	107,751	0,104	-0,091
-263,482	-200,000	0,037	-0,178
-262,467	793,900	0,070	0,141
-261,453	-32,211	0,067	-0,027
-260,438	184,750	0,072	-0,078
-259,424	125,618	0,061	0,057
-258,409	800,000	0,020	-0,051
-257,395	800,000	-0,018	0,055
-256,380	-200,000	0,011	-0,036
-255,365	-200,000	0,014	0,059
-254,351	678,732	0,047	0,089
-253,336	674,355	0,067	0,128
-252,322	181,567	-0,146	-0,157
-251,307	-96,826	-0,049	0,009
-250,292	207,702	0,043	0,049
-249,278	-200,000	0,007	0,033
-248,263	-84,436	0,162	0,037
-247,249	-169,350	-0,079	0,002
-246,234	597,958	0,035	0,064
-245,219	-200,000	-0,008	-0,128
-244,205	-200,000	-0,010	-0,069
-243,190	19,688	0,102	-0,060
-242,176	-107,136	0,051	-0,008
-241,161	702,381	-0,051	0,098
-240,146	-128,148	0,179	0,018
-239,132	-200,000	-0,015	0,065
-238,117	93,132	-0,086	-0,071
-237,103	-200,000	0,016	0,084
-236,088	-200,000	-0,021	-0,088
-235,073	800,000	0,036	-0,091
-234,059	-167,243	0,085	-0,002
-233,044	72,795	0,089	-0,068
-232,030	-97,780	-0,124	-0,023
-231,015	393,134	-0,041	-0,062
-230,000	448,555	-0,029	-0,047
-228,986	13,959	-0,038	0,022
-227,971	60,485	0,109	0,079
-226,957	29,942	0,103	0,064
-225,942	9,936	-0,071	-0,039
-224,927	-76,975	-0,099	-0,025
-223,913	800,000	-0,043	-0,105
-222,898	22,349	-0,056	0,033
-221,884	800,000	0,061	-0,144
-220,869	-200,000	0,024	0,105
-219,855	-200,000	-0,019	0,092
-218,840	431,935	0,059	0,094
-217,825	659,528	-0,054	0,102
-216,811	-142,477	-0,103	0,007
-215,796	146,026	-0,050	0,049
-214,782	-200,000	-0,001	-0,039
-213,767	51,759	0,048	-0,033
-212,752	324,909	0,042	0,059
-211,738	-129,727	0,093	-0,009
-210,723	-3,689	-0,113	0,057
-209,709	60,730	-0,021	0,015
-208,694	-200,000	-0,021	0,094
-207,679	153,837	-0,069	0,069
-206,665	-125,061	0,155	-0,017
-205,650	-200,000	-0,020	-0,109
-204,636	-123,403	0,091	0,011
-203,621	-200,000	-0,021	0,197
-202,606	59,026	0,084	-0,060
-201,592	-66,815	-0,035	-0,010
-200,577	131,577	-0,033	-0,031
-199,563	-200,000	0,010	-0,073
-198,548	-200,000	-0,002	0,164
-197,533	-185,332	0,057	-0,001
-196,519	-200,000	-0,017	-0,123
-195,504	116,857	0,079	-0,070
-194,490	-200,000	0,053	-0,181
-193,475	-200,000	-0,003	-0,051
-192,460	424,670	-0,019	0,030
-191,446	-200,000	0,002	0,110
-190,431	36,855	0,054	-0,035
-189,417	-92,095	0,065	0,013
-188,402	34,099	0,042	-0,027
-187,387	-200,000	-0,008	0,158
-186,373	-88,400	0,051	-0,011
-185,358	-200,000	0,014	-0,078
-184,344	208,138	0,068	0,077
-183,329	-200,000	0,015	0,052
-182,315	-200,000	-0,008	-0,090
-181,300	204,765	0,082	-0,092
-180,285	-200,000	0,018	-0,081
-179,271	-59,193	0,046	0,014
-178,256	-1,747	-0,156	-0,080
-177,242	800,000	0,012	-0,038
-176,227	108,758	0,044	0,038
-175,212	-124,845	0,072	0,008
-174,198	42,772	-0,021	-0,014
-173,183	75,159	-0,052	-0,040
-172,169	-164,168	0,060	0,002
-171,154	69,817	0,057	0,043
-170,139	-141,787	0,107	0,008
-169,125	-12,344	0,051	-0,024
-168,110	-200,000	0,001	-0,023
-167,096	-200,000	0,007	-0,031
-166,081	-66,223	-0,094	0,027
-165,066	-115,239	0,069	-0,009
-164,052	53,535	-0,047	0,033
-163,037	-183,335	0,068	-0,001
-162,023	559,383	-0,009	-0,016
-161,008	-134,551	0,059	-0,005
-159,993	19,059	0,075	-0,044
-158,979	-67,984	-0,142	-0,040
-157,964	-49,938	-0,133	-0,046
-156,950	152,517	-0,036	0,036
-155,935	243,980	-0,130	0,160
-154,920	-200,000	0,055	0,201
-153,906	107,012	0,016	-0,014
-152,891	800,000	0,035	-0,104
-151,877	287,111	0,060	0,079
-150,862	793,052	-0,039	0,079
-149,847	800,000	-0,032	0,065
-148,833	-114,285	-0,153	0,021
-147,818	182,069	0,057	-0,061
-146,804	74,376	-0,036	-0,027
-145,789	-60,756	0,052	-0,016
-144,775	-200,000	-0,009	0,190
-143,760	-200,000	0,013	-0,115
-142,745	764,778	-0,012	0,024
-141,731	-43,591	0,120	-0,044
-140,716	-60,936	0,040	0,012
-139,702	53,439	0,036	0,025
-138,687	800,000	0,016	0,037
-137,672	0,468	-0,082	-0,043
-136,658	-95,316	-0,145	0,028
-135,643	80,033	-0,050	0,039
-134,629	-95,811	0,122	0,024
-133,614	-45,303	0,033	0,012
-132,599	-200,000	0,011	0,172
-131,585	-160,917	0,205	0,008
-130,570	204,337	-0,063	0,071
-129,556	800,000	0,023	-0,051
-128,541	578,529	0,027	0,049
-127,526	-200,000	-0,020	-0,206
-126,512	-7,653	0,013	-0,006
-125,497	26,197	-0,038	0,023
-124,483	-200,000	0,012	0,056
-123,468	-200,000	0,017	0,080
-122,453	218,062	0,050	0,058
-121,439	101,762	-0,100	0,085
-120,424	163,254	-0,073	0,075
