DTS Sentinel unit serial number:	SN410029Multiplexer serial number:	ORYXHardware model number:	OX2-SRSoftware version number:	ORYX F/W v4,00 Oryx Data Collector v3.7.2.0data status	okinstallation	B6 Nyhavnadifferential loss correction	single-endedforward channel	channel 2reverse channel	N/Adate	2023/12/07time	23:05:08forward acquisition time	300,00reverse acquisition time	0,00gamma	499,1914k internal	0,3165k external	0,3165temperature offset calibration	1,0000default loss term (dB/km)	0,3820temperature slope calibration	1,0000multiplexer offset coefficient	1,0000multiplexer slope coefficient	1,0000fibre end	0,00T internal ref (°C)	13,50T ext. ref 1 (°C)	-3,43T ext. ref 2 (°C)	-3,41length (m)	temperature (°C)	Stokes	anti-Stokes-744,400	6,132	0,132	0,072
-743,385	-133,701	-0,312	0,028
-742,371	163,456	0,063	-0,066
-741,356	-59,006	-0,283	0,089
-740,342	335,685	-0,014	-0,020
-739,327	-64,715	-0,395	-0,117
-738,312	-200,000	0,010	-0,046
-737,298	12,487	-0,265	-0,150
-736,283	154,623	0,091	0,092
-735,269	-10,323	-0,228	-0,111
-734,254	800,000	-0,018	0,045
-733,239	-50,146	-0,514	-0,178
-732,225	-118,411	0,244	0,032
-731,210	175,697	0,026	0,028
-730,196	-74,466	0,034	0,009
-729,181	160,615	-0,091	0,093
-728,167	147,108	0,077	-0,076
-727,152	-200,000	-0,023	-0,107
-726,137	-200,000	0,005	-0,127
-725,123	-68,729	-0,107	0,030
-724,108	348,791	0,060	-0,087
-723,094	800,000	-0,016	-0,045
-722,079	94,062	-0,097	-0,081
-721,064	-149,895	0,108	-0,006
-720,050	-200,000	-0,003	-0,047
-719,035	-80,910	0,052	-0,012
-718,021	-105,795	-0,099	-0,016
-717,006	66,774	-0,020	-0,015
-715,991	93,342	-0,044	0,036
-714,977	-110,175	-0,139	0,021
-713,962	-200,000	0,022	0,082
-712,948	-200,000	0,001	0,050
-711,933	47,247	0,045	-0,031
-710,918	344,055	-0,080	0,115
-709,904	193,696	-0,043	-0,048
-708,889	64,172	-0,115	0,085
-707,875	73,163	-0,101	-0,077
-706,860	225,748	0,100	-0,119
-705,845	65,727	-0,067	0,050
-704,831	575,386	0,053	0,096
-703,816	-54,279	-0,031	-0,010
-702,802	-200,000	-0,042	-0,192
-701,787	-200,000	-0,034	-0,129
-700,772	144,493	0,020	0,020
-699,758	41,724	-0,070	0,047
-698,743	24,277	-0,038	-0,023
-697,729	-200,000	-0,021	0,090
-696,714	5,530	-0,039	0,021
-695,699	421,477	0,045	-0,071
-694,685	-42,714	-0,060	0,022
-693,670	63,786	0,018	0,013
-692,656	68,307	-0,058	-0,044
-691,641	331,040	0,057	-0,080
-690,627	77,046	-0,098	0,076
-689,612	72,858	0,067	0,051
-688,597	83,642	0,131	0,105
-687,583	48,390	-0,054	0,037
-686,568	601,312	-0,053	-0,096
-685,554	695,538	-0,068	-0,132
-684,539	-7,159	-0,071	-0,035
-683,524	-68,149	0,043	-0,012
-682,510	13,679	-0,059	0,033
-681,495	-107,364	-0,085	-0,014
-680,481	800,000	-0,014	0,030
-679,466	800,000	-0,026	0,053
-678,451	697,140	0,045	0,088
-677,437	514,700	0,019	0,033
-676,422	-200,000	-0,031	-0,105
-675,408	-136,974	0,054	0,005
-674,393	-45,857	-0,121	-0,043
-673,378	-64,901	-0,179	-0,053
-672,364	33,511	-0,105	-0,067
-671,349	-200,000	-0,003	-0,116
-670,335	-200,000	0,014	-0,065
-669,320	-200,000	-0,017	-0,115
-668,305	800,000	-0,021	0,049
-667,291	-81,765	0,042	0,010
-666,276	-166,474	0,066	-0,002
-665,262	-200,000	0,001	-0,005
-664,247	800,000	0,008	-0,024
-663,232	-59,600	-0,079	0,025
-662,218	404,575	0,040	-0,062
-661,203	12,871	0,064	-0,036
-660,189	-200,000	-0,015	-0,085
-659,174	-119,490	-0,087	0,011
-658,159	123,421	-0,073	-0,067
-657,145	800,000	-0,024	-0,055
-656,130	-149,175	0,067	0,004
-655,116	-102,758	0,107	-0,018
-654,101	-104,103	0,094	0,016
-653,086	800,000	-0,055	-0,135
-652,072	-96,930	0,106	0,020
-651,057	-200,000	0,001	-0,016
-650,043	-93,113	-0,048	-0,010
-649,028	-131,765	-0,091	0,009
-648,014	-188,732	0,131	0,001
-646,999	180,302	0,050	0,054
-645,984	52,368	0,083	-0,058
-644,970	342,421	0,039	-0,057
-643,955	-200,000	-0,042	0,000
-642,941	800,000	0,014	-0,040
-641,926	800,000	0,036	-0,113
-640,911	394,183	-0,086	-0,131
-639,897	-15,132	-0,038	-0,018
-638,882	230,681	0,090	0,108
-637,868	32,311	-0,097	0,061
-636,853	-74,688	-0,091	-0,024
-635,838	800,000	0,053	-0,128
-634,824	72,463	-0,079	0,060
-633,809	-39,536	-0,113	-0,043
-632,795	318,148	0,074	0,103
-631,780	-120,381	0,151	-0,019
-630,765	59,948	0,053	0,038
-629,751	-110,216	-0,067	0,010
-628,736	490,896	0,103	-0,173
-627,722	-55,629	-0,072	0,023
-626,707	800,000	-0,039	0,114
-625,692	-200,000	-0,003	-0,043
-624,678	-200,000	-0,010	-0,045
-623,663	113,884	-0,057	0,051
-622,649	-166,835	0,010	0,000
-621,634	-200,000	0,018	0,070
-620,619	691,419	0,041	-0,079
-619,605	41,556	-0,085	0,056
-618,590	-83,328	-0,034	-0,008
-617,576	-200,000	0,010	0,106
-616,561	52,879	0,142	0,100
-615,546	-176,231	-0,142	0,003
-614,532	800,000	0,059	-0,171
-613,517	100,017	0,070	-0,060
-612,503	307,033	0,040	-0,055
-611,488	29,958	0,047	-0,029
-610,474	-9,912	0,065	0,032
-609,459	-139,717	0,041	-0,003
-608,444	8,505	-0,122	0,067
-607,430	-128,090	0,111	-0,011
-606,415	619,959	-0,103	-0,190
-605,401	216,967	0,070	0,081
-604,386	-36,690	-0,091	0,036
-603,371	339,475	-0,049	0,070
-602,357	-72,568	-0,050	-0,013
-601,342	-69,248	0,116	-0,032
-600,328	236,372	-0,061	0,074
-599,313	533,523	-0,071	-0,123
-598,298	-124,880	0,078	0,009
-597,284	-16,065	0,092	0,043
-596,269	800,000	0,026	0,068
-595,255	184,174	0,062	0,068
-594,240	-200,000	-0,011	-0,036
-593,225	-58,449	-0,093	-0,030
-592,211	-75,709	0,143	-0,037
-591,196	776,593	0,022	0,044
-590,182	-200,000	0,016	-0,180
-589,167	-200,000	0,031	0,179
-588,152	-200,000	0,011	0,166
-587,138	-200,000	0,029	-0,152
-586,123	205,915	-0,050	-0,057
-585,109	98,500	-0,055	-0,046
-584,094	-32,416	-0,080	-0,032
-583,079	-119,151	0,054	0,007
-582,065	-200,000	0,007	0,092
-581,050	27,750	0,091	-0,056
-580,036	104,253	-0,097	0,083
-579,021	800,000	0,084	-0,240
-578,006	232,876	-0,126	0,151
-576,992	-88,656	-0,090	-0,019
-575,977	610,820	0,031	0,057
-574,963	-161,001	0,139	-0,005
-573,948	-25,550	-0,092	-0,040
-572,934	6,521	0,065	0,035
-571,919	-27,853	-0,219	0,092
-570,904	31,883	0,015	0,010
-569,890	-200,000	-0,021	-0,106
-568,875	73,397	0,033	0,025
-567,861	-200,000	-0,005	0,024
-566,846	800,000	0,064	-0,156
-565,831	152,172	-0,048	-0,048
-564,817	-200,000	-0,087	0,000
-563,802	-200,000	-0,014	-0,203
-562,788	-161,856	0,236	-0,009
-561,773	-3,472	-0,116	0,059
-560,758	800,000	-0,048	0,103
-559,744	-84,839	0,196	0,045
-558,729	-122,061	-0,194	0,023
-557,715	12,998	-0,157	0,088
-556,700	212,483	-0,055	-0,063
-555,685	-99,046	0,045	0,008
-554,671	339,090	0,092	-0,131
-553,656	260,287	-0,068	0,086
-552,642	-103,524	0,105	-0,018
-551,627	164,391	0,085	-0,088
-550,612	79,175	0,135	-0,105
-549,598	-15,405	-0,115	-0,053
-548,583	-79,967	0,175	0,043
-547,569	-200,000	0,004	-0,062
-546,554	-200,000	0,020	-0,101
-545,539	-32,789	-0,131	0,053
-544,525	-31,836	0,118	-0,048
-543,510	800,000	-0,008	-0,026
-542,496	-148,660	-0,036	0,002
-541,481	-33,214	-0,132	-0,053
-540,466	161,029	0,080	-0,082
-539,452	109,470	-0,072	0,063
-538,437	-127,725	-0,013	-0,001
-537,423	126,257	0,076	0,070
-536,408	-200,000	-0,005	-0,081
-535,393	259,115	0,048	0,061
-534,379	8,376	0,072	-0,039
-533,364	-33,177	0,047	-0,019
-532,350	3,653	-0,061	0,032
-531,335	-132,737	0,123	-0,011
-530,321	43,526	-0,039	0,026
-529,306	61,246	-0,093	-0,067
-528,291	-200,000	0,012	-0,071
-527,277	800,000	-0,076	-0,231
-526,262	-135,931	0,138	-0,012
-525,248	-200,000	-0,030	0,137
-524,233	406,308	0,049	0,076
-523,218	178,027	0,041	-0,044
-522,204	92,886	0,131	0,108
-521,189	-44,989	-0,089	-0,032
-520,175	800,000	-0,023	0,062
-519,160	-111,689	0,094	0,014
-518,145	800,000	-0,030	0,092
-517,131	224,659	0,096	0,113
-516,116	256,805	-0,070	0,088
-515,102	468,287	0,044	-0,072
-514,087	800,000	-0,022	-0,052
-513,072	-1,384	-0,017	-0,009
-512,058	14,415	-0,173	-0,098
-511,043	-200,000	0,014	0,145
-510,029	800,000	0,053	0,141
-509,014	-78,863	-0,073	0,018
-507,999	177,915	-0,027	0,028
-506,985	-200,000	-0,009	0,059
-505,970	-2,020	-0,033	0,017
-504,956	800,000	-0,036	-0,106
-503,941	-200,000	0,006	0,038
-502,926	78,303	-0,091	-0,071
-501,912	-129,503	-0,059	-0,006
-500,897	256,592	-0,112	-0,141
-499,883	278,518	-0,072	0,094
-498,868	470,748	-0,015	-0,025
-497,853	-102,683	0,050	-0,009
-496,839	-200,000	-0,001	0,040
-495,824	516,379	0,031	-0,053
-494,810	-15,774	0,019	0,009
-493,795	-29,998	-0,028	0,011
-492,781	489,933	-0,034	0,057
-491,766	-112,564	-0,030	0,004
-490,751	800,000	0,023	0,064
-489,737	-200,000	-0,042	0,156
-488,722	-80,761	0,106	0,025
-487,708	37,193	0,116	-0,075
-486,693	-200,000	0,020	-0,155
-485,678	-143,367	-0,070	0,005
-484,664	162,623	-0,076	-0,077
-483,649	128,382	0,064	-0,059
-482,635	104,987	0,052	-0,045
-481,620	292,872	-0,005	-0,007
-480,605	12,805	0,063	0,035
-479,591	-200,000	-0,011	0,198
-478,576	-148,425	0,080	-0,005
-477,562	800,000	0,046	-0,136
-476,547	123,241	0,067	-0,061
-475,532	-200,000	-0,005	-0,023
-474,518	-200,000	-0,009	0,073
-473,503	-84,956	0,059	-0,013
-472,489	-186,389	0,135	0,001
-471,474	72,850	0,079	0,060
-470,459	72,813	0,116	0,088
-469,445	-200,000	0,010	-0,055
-468,430	-200,000	0,006	-0,074
-467,416	568,834	0,030	0,053
-466,401	-68,607	-0,141	-0,039
-465,386	-190,896	0,093	-0,001
-464,372	-24,738	-0,056	-0,024
-463,357	-27,633	0,083	0,035
-462,343	225,956	-0,065	-0,076
-461,328	-85,677	0,104	-0,023
-460,313	-62,295	-0,011	0,003
-459,299	-200,000	-0,002	0,125
-458,284	-200,000	0,008	0,070
-457,270	-200,000	-0,037	0,186
-456,255	138,922	-0,117	-0,112
-455,241	202,493	-0,064	-0,072
-454,226	13,009	-0,035	0,020
-453,211	287,330	0,043	-0,057
-452,197	103,282	0,107	-0,091
-451,182	-200,000	0,031	-0,164
-450,168	-119,750	0,086	-0,011
-449,153	-200,000	0,013	-0,051
-448,138	92,753	0,074	-0,060
-447,124	-200,000	-0,002	-0,090
-446,109	-200,000	0,006	-0,021
-445,095	70,615	0,115	0,087
-444,080	-200,000	-0,016	-0,055
-443,065	-93,260	-0,146	-0,029
-442,051	-26,521	0,040	0,017
-441,036	-92,685	-0,113	-0,023
-440,022	12,681	-0,035	-0,020
-439,007	-200,000	0,112	-0,000
-437,992	-64,659	0,085	0,025
-436,978	-20,760	-0,126	-0,056
-435,963	-200,000	-0,016	0,120
-434,949	107,608	-0,066	-0,057
-433,934	800,000	-0,011	-0,035
-432,919	10,005	-0,065	0,036
-431,905	653,087	-0,038	-0,072
-430,890	-200,000	-0,007	0,083
-429,876	14,427	-0,118	0,067
-428,861	101,467	0,057	-0,049
-427,846	77,956	0,066	0,051
-426,832	144,332	-0,104	-0,101
-425,817	800,000	-0,021	-0,047
-424,803	-200,000	0,012	0,097
-423,788	-115,133	0,050	0,007
-422,773	-84,727	0,086	0,019
-421,759	47,951	0,155	0,105
-420,744	-85,583	0,069	0,016
-419,730	-39,449	0,032	0,012
-418,715	155,516	-0,102	0,102
-417,701	-166,193	0,076	-0,002
-416,686	-177,813	0,112	0,002
-415,671	200,891	0,039	0,044
-414,657	98,174	-0,030	0,025
-413,642	168,739	-0,128	-0,133
-412,628	104,662	0,099	-0,085
-411,613	33,334	0,099	0,062
-410,598	-200,000	0,026	0,096
-409,584	-173,755	0,121	0,003
-408,569	-66,685	-0,069	-0,020
-407,555	800,000	0,057	0,178
-406,540	67,504	-0,141	0,104
-405,525	351,280	0,015	-0,021
-404,511	-79,216	-0,125	0,031
-403,496	-109,961	-0,088	-0,013
-402,482	-37,782	0,087	-0,034
-401,467	220,517	0,056	-0,065
-400,452	-200,000	0,023	0,095
-399,438	237,063	-0,046	-0,055
-398,423	100,167	-0,066	-0,056
-397,409	3,994	-0,054	-0,029
-396,394	85,559	-0,069	0,055
-395,379	-200,000	0,007	0,114
-394,365	782,196	-0,003	0,007
-393,350	-112,378	-0,070	-0,010
-392,336	-68,160	-0,166	-0,046
-391,321	-125,234	-0,039	0,004
-390,306	-200,000	-0,007	-0,078
-389,292	-200,000	0,009	-0,108
-388,277	592,731	0,023	-0,042
-387,263	674,883	0,043	-0,081
-386,248	366,948	0,134	0,196
-385,233	-49,685	0,073	0,025
-384,219	429,283	-0,043	0,068
-383,204	76,852	-0,064	-0,049
-382,190	-152,332	0,090	0,005
-381,175	13,466	-0,042	-0,023
-380,160	800,000	0,030	0,077
-379,146	800,000	-0,025	0,070
-378,131	224,192	0,099	0,116
-377,117	337,912	-0,120	-0,169
-376,102	206,626	-0,084	-0,095
-375,088	-200,000	-0,002	-0,049
-374,073	800,000	-0,030	-0,084
-373,058	196,932	-0,028	0,031
-372,044	22,155	0,088	0,052
-371,029	-89,747	0,035	-0,007
-370,015	213,623	-0,042	-0,048
-369,000	118,015	-0,041	0,037
-367,985	8,080	0,149	0,081
-366,971	-42,285	-0,069	0,025
-365,956	-200,000	-0,010	-0,041
-364,942	-107,693	0,049	0,008
-363,927	-200,000	-0,039	0,134
-362,912	462,069	0,053	-0,085
-361,898	-85,933	-0,109	-0,024
-360,883	35,938	-0,133	-0,085
-359,869	-79,140	-0,159	-0,039
-358,854	-66,803	0,194	-0,055
-357,839	800,000	0,023	0,048
-356,825	612,935	-0,066	0,120
-355,810	-125,781	0,142	0,015
-354,796	-76,904	0,027	0,007
-353,781	340,777	-0,064	-0,090
-352,766	-200,000	-0,017	-0,069
-351,752	565,544	0,042	-0,074
-350,737	-73,014	0,089	0,024
-349,723	-200,000	-0,013	0,077
-348,708	-25,117	-0,081	0,035
-347,693	134,851	-0,132	-0,125
-346,679	-200,000	0,008	0,047
-345,664	-200,000	-0,012	-0,072
-344,650	-200,000	-0,049	0,165
-343,635	-93,454	0,088	0,017
-342,620	-168,903	-0,080	0,002
-341,606	-62,211	0,103	-0,031
-340,591	-165,912	-0,081	0,002
-339,577	82,457	0,042	0,033
-338,562	202,004	0,098	-0,109
-337,548	800,000	0,050	0,105
-336,533	800,000	-0,026	0,055
-335,518	-118,246	-0,040	-0,005
-334,504	90,234	-0,075	0,061
-333,489	800,000	-0,032	0,099
-332,475	-200,000	-0,025	0,095
-331,460	800,000	0,012	-0,025
-330,445	-21,396	0,121	0,053
-329,431	-13,491	0,068	0,032
-328,416	-200,000	-0,001	0,170
-327,402	800,000	-0,025	0,066
-326,387	-161,591	-0,033	-0,001
-325,372	-11,266	0,043	0,020
-324,358	14,585	0,069	-0,039
-323,343	594,337	-0,036	-0,065
-322,329	214,880	0,079	-0,091
-321,314	94,045	0,092	0,075
-320,299	-200,000	0,016	0,176
-319,285	263,950	0,012	0,015
-318,270	125,292	0,046	0,042
-317,256	-37,080	-0,052	-0,020
-316,241	3,760	0,126	-0,066
-315,226	415,506	-0,042	0,065
-314,212	-98,727	0,173	0,032
-313,197	339,694	-0,047	0,066
-312,183	689,963	-0,025	0,048
-311,168	377,810	-0,027	0,040
-310,153	-31,004	-0,128	0,052
-309,139	-200,000	-0,008	-0,073
-308,124	127,453	-0,099	0,091
-307,110	-130,972	0,039	0,004
-306,095	648,943	0,053	-0,099
-305,080	30,144	0,086	0,053
-304,066	4,922	0,068	-0,036
-303,051	-200,000	-0,017	-0,064
-302,037	-132,417	-0,070	-0,006
-301,022	-136,365	-0,237	-0,020
-300,008	437,405	0,058	0,092
-298,993	55,988	0,056	0,039
-297,978	166,624	0,005	0,005
-296,964	-200,000	0,014	0,099
-295,949	781,829	-0,015	-0,029
-294,935	109,901	-0,071	-0,062
-293,920	-90,216	0,038	-0,008
-292,905	60,403	-0,079	0,057
-291,891	-132,137	0,038	0,004
-290,876	-200,000	0,007	-0,050
-289,862	800,000	-0,024	0,064
-288,847	800,000	-0,041	-0,106
-287,832	-200,000	-0,006	-0,060
-286,818	-200,000	-0,009	-0,035
-285,803	391,058	-0,038	-0,057
-284,789	46,006	0,098	0,065
-283,774	149,293	0,024	0,024
-282,759	-128,889	-0,040	-0,004
-281,745	324,076	0,032	0,044
-280,730	81,549	-0,081	-0,063
-279,716	473,376	-0,025	0,042
-278,701	-145,171	0,100	0,006
-277,686	55,682	0,046	0,032
-276,672	451,226	-0,025	0,041
-275,657	-11,025	0,155	-0,074
-274,643	800,000	0,036	-0,078
-273,628	127,819	0,080	-0,073
-272,613	-64,309	-0,106	0,031
-271,599	-200,000	0,002	0,034
-270,584	-52,781	-0,076	0,025
-269,570	800,000	0,025	0,070
-268,555	-161,193	0,221	0,008
-267,540	-60,668	-0,126	-0,038
-266,526	-112,075	-0,079	0,011
-265,511	142,376	0,069	-0,066
-264,497	800,000	-0,060	-0,177
-263,482	75,003	-0,062	0,047
-262,467	800,000	0,004	-0,010
-261,453	148,753	-0,037	-0,036
-260,438	143,728	0,039	0,037
-259,424	-200,000	-0,003	-0,068
-258,409	800,000	0,010	0,024
-257,395	-200,000	-0,000	-0,069
-256,380	190,704	-0,082	0,089
-255,365	-58,479	0,172	0,054
-254,351	-131,802	-0,107	-0,010
-253,336	6,957	0,089	-0,048
-252,322	800,000	-0,014	-0,041
-251,307	-10,680	-0,088	0,042
-250,292	-7,785	0,073	-0,035
-249,278	198,790	-0,073	-0,081
-248,263	-200,000	-0,016	-0,060
-247,249	-1,643	-0,025	0,013
-246,234	-200,000	-0,004	0,137
-245,219	-118,772	-0,091	-0,011
-244,205	790,616	-0,015	0,031
-243,190	-87,519	-0,061	-0,013
-242,176	-200,000	0,001	0,141
-241,161	-200,000	0,016	0,054
-240,146	800,000	-0,041	0,099
-239,132	-61,826	-0,061	0,018
-238,117	-102,280	-0,180	-0,031
-237,103	-168,944	-0,013	-0,000
-236,088	-2,782	0,133	0,067
-235,073	-103,322	0,111	0,019
-234,059	16,163	-0,063	-0,036
-233,044	-79,459	0,202	-0,049
-232,030	-92,609	-0,142	0,028
-231,015	57,113	0,032	-0,022
-230,000	-36,560	-0,064	-0,025
-228,986	800,000	-0,028	0,063
-227,971	-200,000	-0,000	0,048
-226,957	-16,899	0,083	0,038
-225,942	-74,962	-0,104	-0,027
-224,927	-139,486	0,037	0,003
-223,913	46,431	-0,112	-0,075
-222,898	56,095	0,082	0,057
-221,884	67,577	-0,138	-0,102
-220,869	402,060	0,036	-0,054
-219,855	800,000	0,066	-0,184
-218,840	5,963	-0,047	-0,025
-217,825	800,000	0,090	-0,216
-216,811	800,000	-0,049	-0,107
-215,796	-200,000	-0,013	-0,077
-214,782	281,564	-0,046	0,059
-213,767	800,000	0,080	0,169
-212,752	-101,426	0,025	0,004
-211,738	8,712	-0,106	0,058
-210,723	90,101	-0,075	0,060
-209,709	-154,473	-0,086	0,004
-208,694	451,170	-0,043	0,069
-207,679	-116,191	-0,092	0,012
-206,665	86,752	0,047	-0,038
-205,650	-26,649	-0,056	0,024
-204,636	-200,000	0,045	0,270
-203,621	137,127	-0,056	0,053
-202,606	-200,000	0,014	-0,043
-201,592	-200,000	0,026	-0,107
-200,577	532,660	-0,054	-0,092
-199,563	-200,000	0,008	-0,124
-198,548	24,330	0,053	-0,031
-197,533	-165,455	0,138	-0,004
-196,519	132,305	-0,068	-0,063
-195,504	-200,000	-0,024	0,000
-194,490	-152,059	0,090	0,005
-193,475	-83,420	-0,050	0,012
-192,460	158,583	-0,156	0,156
-191,446	758,023	0,008	-0,015
-190,431	-84,968	0,183	0,041
-189,417	80,671	0,064	0,050
-188,402	-200,000	-0,003	0,026
-187,387	-97,315	0,072	-0,013
-186,373	-105,511	-0,055	0,009
-185,358	441,055	0,045	0,070
-184,344	-71,525	0,035	0,009
-183,329	-144,184	0,092	-0,006
-182,315	108,306	0,004	-0,003
-181,300	-200,000	0,003	-0,048
-180,285	800,000	0,053	-0,147
-179,271	0,012	-0,216	-0,111
-178,256	-200,000	0,003	-0,050
-177,242	-22,827	0,088	0,038
-176,227	329,888	-0,062	-0,086
-175,212	-200,000	0,009	0,031
-174,198	89,441	0,091	0,073
-173,183	46,131	-0,067	0,044
-172,169	250,533	-0,110	-0,134
-171,154	800,000	0,077	0,244
-170,139	-62,617	-0,081	0,024
-169,125	-96,793	-0,088	0,016
-168,110	-41,622	0,077	0,028
-167,096	196,666	-0,033	-0,036
-166,081	16,410	-0,118	-0,067
-165,066	-177,629	-0,112	0,002
-164,052	37,655	0,036	-0,023
-163,037	-200,000	0,003	-0,054
-162,023	-200,000	0,002	0,127
-161,008	800,000	0,026	0,066
-159,993	-18,370	0,075	-0,034
-158,979	800,000	-0,022	-0,065
-157,964	-114,152	-0,103	0,014
-156,950	423,044	-0,094	-0,145
-155,935	31,229	-0,084	0,052
-154,920	136,968	0,055	-0,052
-153,906	800,000	0,038	0,105
-152,891	749,373	0,001	0,003
-151,877	-200,000	-0,007	-0,096
-150,862	115,933	-0,037	0,033
-149,847	-200,000	-0,006	0,124
-148,833	-200,000	0,003	-0,111
-147,818	-8,418	0,085	-0,041
-146,804	-200,000	0,057	0,182
-145,789	137,919	0,031	0,030
-144,775	-200,000	-0,023	0,113
-143,760	-79,647	-0,029	-0,007
-142,745	-74,908	-0,059	-0,015
-141,731	-60,171	-0,013	-0,004
-140,716	112,813	-0,104	-0,090
-139,702	800,000	0,007	-0,022
-138,687	-200,000	0,032	0,151
-137,672	-200,000	0,012	-0,124
-136,658	-200,000	-0,029	-0,132
-135,643	-200,000	-0,003	0,015
-134,629	800,000	-0,026	-0,074
-133,614	-91,328	0,113	0,023
-132,599	800,000	0,005	0,010
-131,585	763,832	-0,007	-0,013
-130,570	-40,781	-0,118	-0,044
-129,556	800,000	-0,020	-0,049
-128,541	-102,537	-0,040	-0,007
-127,526	-2,917	0,030	-0,015
-126,512	-200,000	0,021	-0,074
-125,497	-121,973	0,118	-0,014
-124,483	-162,493	-0,123	0,004
-123,468	-24,604	0,145	0,062
-122,453	56,312	0,085	-0,059
-121,439	-200,000	0,012	-0,045
-120,424	128,465	-0,103	-0,094
-119,410	-200,000	0,006	0,106
