DTS Sentinel unit serial number:	SN410029Multiplexer serial number:	ORYXHardware model number:	OX2-SRSoftware version number:	ORYX F/W v4,00 Oryx Data Collector v3.7.2.0data status	okinstallation	B6 Nyhavnadifferential loss correction	single-endedforward channel	channel 2reverse channel	N/Adate	2023/12/09time	11:00:08forward acquisition time	300,00reverse acquisition time	0,00gamma	499,1914k internal	0,3139k external	0,3139temperature offset calibration	1,0000default loss term (dB/km)	0,3820temperature slope calibration	1,0000multiplexer offset coefficient	1,0000multiplexer slope coefficient	1,0000fibre end	0,00T internal ref (°C)	18,68T ext. ref 1 (°C)	2,52T ext. ref 2 (°C)	2,51length (m)	temperature (°C)	Stokes	anti-Stokes-744,400	800,000	0,067	-0,152
-743,385	-113,098	-0,292	-0,042
-742,371	800,000	0,048	0,117
-741,356	-200,000	-0,069	0,000
-740,342	-200,000	-0,014	0,094
-739,327	-124,568	-0,300	-0,034
-738,312	-38,283	0,033	0,013
-737,298	-84,046	-0,241	-0,056
-736,283	-200,000	0,003	-0,098
-735,269	-18,190	-0,172	0,080
-734,254	-6,062	0,123	0,062
-733,239	-138,501	-0,486	-0,039
-732,225	-75,659	0,269	0,070
-731,210	-47,332	0,118	0,042
-730,196	21,933	-0,122	-0,074
-729,181	-200,000	0,044	-0,153
-728,167	-117,692	0,208	-0,027
-727,152	800,000	0,031	0,071
-726,137	-18,979	0,101	0,046
-725,123	-159,768	-0,174	-0,007
-724,108	-200,000	0,042	-0,148
-723,094	2,132	-0,075	-0,040
-722,079	-71,567	-0,060	0,016
-721,064	-49,533	-0,036	0,013
-720,050	-160,313	0,036	0,001
-719,035	800,000	0,046	-0,110
-718,021	-118,923	-0,273	-0,035
-717,006	-118,397	0,116	-0,015
-715,991	595,595	-0,060	-0,110
-714,977	-200,000	-0,005	-0,084
-713,962	-171,522	0,072	-0,002
-712,948	800,000	0,038	0,084
-711,933	503,833	-0,016	0,027
-710,918	562,905	-0,039	0,071
-709,904	-91,957	-0,056	-0,012
-708,889	793,194	0,008	-0,017
-707,875	454,687	-0,051	-0,084
-706,860	-200,000	0,015	-0,059
-705,845	-31,373	-0,080	0,033
-704,831	-108,530	0,124	-0,020
-703,816	-3,184	-0,086	0,044
-702,802	-49,538	0,032	-0,011
-701,787	213,571	-0,027	-0,031
-700,772	-200,000	0,001	-0,067
-699,758	6,474	-0,056	-0,031
-698,743	47,523	0,019	0,013
-697,729	-1,912	-0,112	0,058
-696,714	-200,000	0,021	-0,125
-695,699	79,689	0,127	0,101
-694,685	551,720	-0,034	-0,060
-693,670	232,445	-0,135	-0,165
-692,656	800,000	0,032	0,092
-691,641	800,000	-0,041	0,129
-690,627	800,000	-0,045	-0,099
-689,612	6,816	-0,030	-0,017
-688,597	-123,890	-0,100	0,011
-687,583	800,000	0,017	-0,040
-686,568	723,120	0,036	0,071
-685,554	549,187	-0,074	-0,132
-684,539	347,567	-0,095	-0,139
-683,524	-2,272	0,033	-0,017
-682,510	132,731	0,039	0,037
-681,495	-11,584	0,082	0,040
-680,481	15,867	0,044	0,025
-679,466	121,846	0,050	-0,046
-678,451	800,000	-0,046	0,106
-677,437	-69,612	-0,136	0,038
-676,422	-200,000	-0,002	0,094
-675,408	800,000	-0,019	-0,061
-674,393	70,439	-0,066	0,050
-673,378	189,255	-0,024	-0,027
-672,364	800,000	-0,042	-0,099
-671,349	-85,612	-0,054	-0,012
-670,335	800,000	0,035	0,075
-669,320	181,606	-0,094	-0,102
-668,305	-200,000	0,015	-0,094
-667,291	186,565	-0,067	-0,074
-666,276	-1,094	-0,076	-0,040
-665,262	-73,004	-0,150	-0,040
-664,247	253,438	0,020	-0,025
-663,232	-200,000	-0,013	-0,121
-662,218	-89,492	-0,135	-0,029
-661,203	243,794	-0,096	-0,120
-660,189	7,991	-0,109	0,061
-659,174	378,110	-0,086	-0,130
-658,159	-60,913	-0,112	0,035
-657,145	-200,000	-0,013	-0,099
-656,130	-89,295	0,019	0,004
-655,116	-96,887	0,118	0,023
-654,101	221,626	0,082	0,097
-653,086	-147,011	-0,146	-0,009
-652,072	334,573	-0,025	-0,036
-651,057	-50,396	0,152	-0,053
-650,043	-31,033	-0,167	-0,070
-649,028	626,861	-0,069	0,128
-648,014	-108,796	0,093	0,015
-646,999	-200,000	-0,003	0,025
-645,984	-200,000	-0,041	-0,137
-644,970	-200,000	-0,008	-0,037
-643,955	-30,030	0,107	0,045
-642,941	205,958	-0,045	-0,052
-641,926	-200,000	-0,017	-0,118
-640,911	-17,277	0,059	0,027
-639,897	-1,951	-0,102	0,053
-638,882	-9,621	0,038	0,018
-637,868	61,122	-0,101	0,074
-636,853	-35,410	-0,092	0,037
-635,838	58,128	0,013	-0,009
-634,824	779,609	-0,047	0,095
-633,809	2,923	0,093	-0,050
-632,795	-9,540	0,091	0,045
-631,780	147,857	0,090	0,090
-630,765	77,710	0,139	-0,109
-629,751	-200,000	0,000	-0,133
-628,736	168,752	0,088	-0,093
-627,722	775,444	-0,071	-0,145
-626,707	-38,678	0,182	-0,070
-625,692	490,105	0,039	0,066
-624,678	646,563	0,080	0,151
-623,663	800,000	-0,081	0,184
-622,649	62,352	-0,102	-0,075
-621,634	-56,781	0,018	0,006
-620,619	800,000	0,066	-0,158
-619,605	-156,241	0,051	0,002
-618,590	58,090	-0,049	-0,035
-617,576	150,376	0,086	-0,086
-616,561	-200,000	0,008	-0,052
-615,546	191,481	0,026	-0,029
-614,532	67,265	-0,123	-0,093
-613,517	-70,293	-0,054	-0,015
-612,503	-143,478	0,107	-0,007
-611,488	527,181	0,069	-0,121
-610,474	-143,831	0,187	0,013
-609,459	190,013	-0,024	0,026
-608,444	403,473	0,024	0,037
-607,430	323,706	0,041	-0,058
-606,415	-200,000	0,000	-0,049
-605,401	800,000	-0,004	-0,010
-604,386	-120,118	-0,054	0,007
-603,371	800,000	-0,031	0,065
-602,357	162,194	0,142	0,147
-601,342	120,513	-0,098	-0,090
-600,328	57,928	-0,044	0,031
-599,313	-46,849	-0,161	-0,058
-598,298	-200,000	0,011	-0,068
-597,284	20,214	0,022	-0,013
-596,269	-200,000	-0,006	-0,083
-595,255	-200,000	-0,011	0,058
-594,240	1,104	-0,109	-0,058
-593,225	-57,933	-0,094	-0,030
-592,211	-168,723	-0,146	-0,004
-591,196	-200,000	-0,015	0,099
-590,182	-72,111	-0,093	0,025
-589,167	298,634	0,041	0,056
-588,152	38,652	-0,110	-0,072
-587,138	800,000	-0,024	0,054
-586,123	639,795	-0,047	-0,089
-585,109	-76,002	-0,096	-0,025
-584,094	-130,290	-0,104	-0,010
-583,079	141,261	-0,088	-0,086
-582,065	484,164	-0,022	0,037
-581,050	-200,000	-0,004	0,033
-580,036	-53,349	0,083	-0,028
-579,021	-15,297	-0,039	-0,018
-578,006	52,382	-0,096	0,068
-576,992	-122,362	-0,111	-0,013
-575,977	10,154	-0,085	-0,048
-574,963	343,543	0,025	0,036
-573,948	417,516	-0,027	0,043
-572,934	800,000	0,024	-0,054
-571,919	-108,277	-0,182	-0,029
-570,904	-200,000	0,006	-0,060
-569,890	800,000	0,021	0,044
-568,875	167,328	0,091	0,095
-567,861	800,000	0,036	-0,117
-566,846	168,841	0,059	0,062
-565,831	25,501	-0,152	-0,093
-564,817	-200,000	0,003	0,131
-563,802	41,773	-0,125	-0,083
-562,788	-155,985	-0,036	0,002
-561,773	1,311	-0,089	-0,047
-560,758	-81,226	0,089	-0,022
-559,744	55,682	0,099	0,071
-558,729	-40,571	-0,160	-0,061
-557,715	-123,286	-0,054	0,006
-556,700	161,628	0,063	-0,065
-555,685	154,086	0,016	-0,016
-554,671	-102,778	-0,056	-0,010
-553,656	10,655	0,095	-0,053
-552,642	800,000	0,030	-0,081
-551,627	211,829	0,061	0,070
-550,612	405,260	0,072	0,112
-549,598	800,000	-0,039	-0,103
-548,583	368,628	-0,055	-0,083
-547,569	800,000	-0,048	-0,120
-546,554	231,094	-0,037	0,045
-545,539	-84,734	0,142	0,033
-544,525	-7,417	-0,075	0,037
-543,510	222,499	-0,052	0,061
-542,496	-21,823	-0,060	-0,027
-541,481	-102,369	-0,058	-0,010
-540,466	283,635	0,078	-0,104
-539,452	-35,694	0,061	-0,024
-538,437	-133,446	0,159	0,015
-537,423	-58,313	0,079	-0,025
-536,408	-200,000	0,048	-0,182
-535,393	139,888	-0,128	-0,124
-534,379	256,916	0,058	0,074
-533,364	-4,985	-0,137	0,069
-532,350	-200,000	0,013	-0,051
-531,335	21,624	0,094	-0,056
-530,321	800,000	-0,013	-0,031
-529,306	158,640	-0,091	-0,093
-528,291	-200,000	0,018	-0,128
-527,277	77,774	0,082	-0,064
-526,262	-137,795	-0,167	-0,014
-525,248	-200,000	-0,010	-0,071
-524,233	332,938	0,110	-0,157
-523,218	69,661	-0,044	0,033
-522,204	-200,000	-0,007	0,072
-521,189	-59,203	-0,129	-0,041
-520,175	800,000	-0,039	0,122
-519,160	24,097	-0,046	-0,028
-518,145	120,248	-0,074	-0,067
-517,131	-119,556	-0,113	0,014
-516,116	-200,000	-0,010	0,068
-515,102	-77,491	-0,032	-0,008
-514,087	-200,000	0,008	-0,038
-513,072	41,780	0,018	-0,012
-512,058	800,000	-0,041	0,102
-511,043	800,000	0,017	0,054
-510,029	-200,000	-0,020	0,152
-509,014	800,000	0,010	-0,021
-507,999	-200,000	0,015	-0,056
-506,985	800,000	0,048	-0,119
-505,970	-200,000	0,019	-0,229
-504,956	148,778	-0,079	-0,078
-503,941	113,491	-0,098	-0,087
-502,926	-116,038	-0,058	-0,008
-501,912	-143,908	0,061	0,004
-500,897	-62,872	0,192	0,058
-499,883	800,000	0,021	0,044
-498,868	28,182	-0,166	0,103
-497,853	-200,000	-0,004	-0,154
-496,839	-200,000	-0,014	-0,148
-495,824	453,309	0,011	0,018
-494,810	237,833	0,059	0,072
-493,795	503,563	0,053	0,091
-492,781	-24,038	0,011	-0,005
-491,766	-43,248	-0,093	-0,035
-490,751	41,850	-0,023	0,015
-489,737	-200,000	-0,000	0,044
-488,722	-91,653	-0,062	-0,013
-487,708	-9,987	0,091	0,044
-486,693	718,365	-0,032	-0,063
-485,678	637,699	0,084	-0,157
-484,664	-68,110	-0,103	-0,029
-483,649	764,979	-0,018	-0,035
-482,635	800,000	0,031	-0,066
-481,620	-138,528	0,084	-0,007
-480,605	800,000	0,013	-0,028
-479,591	-13,768	0,159	-0,075
-478,576	161,729	-0,044	-0,045
-477,562	-57,409	-0,041	-0,013
-476,547	-115,672	-0,098	0,013
-475,532	-180,844	-0,099	0,001
-474,518	-200,000	-0,026	0,164
-473,503	-85,286	0,127	-0,029
-472,489	229,746	0,063	-0,076
-471,474	48,015	-0,046	0,031
-470,459	800,000	0,036	-0,112
-469,445	-88,567	-0,094	0,020
-468,430	83,939	-0,062	0,050
-467,416	140,721	0,040	0,039
-466,401	52,330	-0,031	0,022
-465,386	242,814	-0,050	0,061
-464,372	800,000	0,026	0,060
-463,357	-200,000	-0,011	-0,089
-462,343	55,578	-0,125	-0,089
-461,328	800,000	0,044	-0,130
-460,313	-200,000	-0,017	-0,069
-459,299	60,114	0,048	0,035
-458,284	-105,015	-0,040	0,007
-457,270	-200,000	0,015	-0,132
-456,255	800,000	0,045	-0,108
-455,241	800,000	0,039	-0,092
-454,226	-47,398	0,012	0,004
-453,211	-200,000	-0,001	-0,029
-452,197	48,236	0,089	-0,061
-451,182	5,377	0,143	0,077
-450,168	-20,490	0,055	-0,025
-449,153	302,207	0,066	-0,089
-448,138	122,786	0,058	0,053
-447,124	-200,000	0,027	0,151
-446,109	303,307	0,026	-0,035
-445,095	800,000	-0,078	0,185
-444,080	-11,756	-0,101	0,049
-443,065	48,595	-0,064	-0,044
-442,051	-1,840	0,094	0,048
-441,036	-200,000	0,004	-0,016
-440,022	92,198	-0,097	0,080
-439,007	-200,000	-0,010	0,085
-437,992	200,031	0,094	-0,106
-436,978	462,869	-0,014	0,023
-435,963	117,928	-0,041	0,037
-434,949	-121,701	-0,027	-0,003
-433,934	290,056	0,063	-0,084
-432,919	-200,000	0,000	-0,162
-431,905	-94,111	0,155	0,031
-430,890	109,547	-0,065	0,057
-429,876	-200,000	0,010	0,041
-428,861	-200,000	0,016	0,126
-427,846	-200,000	-0,002	-0,072
-426,832	575,097	-0,040	-0,072
-425,817	-38,906	0,122	-0,047
-424,803	355,427	0,028	0,041
-423,788	279,969	-0,024	0,031
-422,773	-45,158	-0,091	0,033
-421,759	-200,000	-0,004	0,083
-420,744	800,000	0,043	0,093
-419,730	-67,777	-0,098	-0,028
-418,715	-200,000	-0,010	-0,045
-417,701	-43,472	0,082	-0,030
-416,686	-200,000	0,012	0,061
-415,671	-18,085	0,109	-0,050
-414,657	350,002	-0,039	0,057
-413,642	62,472	0,060	0,044
-412,628	315,887	0,017	0,024
-411,613	800,000	0,030	0,096
-410,598	200,745	0,107	-0,121
-409,584	-24,797	0,054	-0,024
-408,569	80,205	-0,065	0,051
-407,555	661,340	0,043	0,081
-406,540	391,002	-0,044	-0,068
-405,525	-200,000	-0,039	-0,195
-404,511	417,496	-0,071	-0,111
-403,496	229,681	-0,086	-0,102
-402,482	-93,421	0,060	-0,012
-401,467	268,501	0,100	0,129
-400,452	415,754	0,066	0,103
-399,438	81,262	0,089	0,070
-398,423	-200,000	0,009	0,051
-397,409	48,061	0,023	-0,015
-396,394	721,657	0,003	-0,007
-395,379	-200,000	0,006	-0,033
-394,365	-81,619	0,154	0,037
-393,350	-24,670	-0,115	0,050
-392,336	-157,952	0,050	-0,002
-391,321	299,227	0,026	-0,035
-390,306	60,863	-0,082	0,059
-389,292	-103,595	0,060	0,010
-388,277	-200,000	0,020	0,073
-387,263	514,552	0,048	-0,083
-386,248	800,000	0,020	-0,049
-385,233	35,618	-0,075	0,048
-384,219	2,810	-0,121	0,064
-383,204	89,750	0,042	-0,035
-382,190	-44,207	0,123	-0,045
-381,175	-123,554	0,043	0,005
-380,160	-104,213	-0,032	0,005
-379,146	369,728	0,049	0,073
-378,131	502,442	-0,013	0,022
-377,117	168,129	0,043	0,045
-376,102	29,372	-0,068	0,042
-375,088	-62,835	-0,078	0,023
-374,073	-200,000	0,014	0,072
-373,058	-200,000	0,014	0,094
-372,044	-133,397	0,169	0,015
-371,029	136,710	-0,008	-0,008
-370,015	800,000	-0,021	0,043
-369,000	201,214	-0,124	-0,140
-367,985	-25,508	-0,071	-0,031
-366,971	-25,807	0,113	-0,049
-365,956	330,887	0,050	0,071
-364,942	435,559	-0,017	0,026
-363,927	157,522	-0,060	0,061
-362,912	800,000	0,040	-0,108
-361,898	-200,000	0,019	-0,173
-360,883	-54,900	0,117	0,038
-359,869	241,990	-0,099	-0,121
-358,854	32,001	-0,101	0,063
-357,839	-122,872	0,118	-0,014
-356,825	77,414	-0,134	0,104
-355,810	800,000	0,003	0,007
-354,796	13,053	0,061	0,034
-353,781	-200,000	-0,024	-0,087
-352,766	-80,983	-0,078	0,019
-351,752	-157,707	-0,064	0,003
-350,737	-200,000	-0,018	0,116
-349,723	-110,112	0,195	0,029
-348,708	-200,000	0,003	0,056
-347,693	312,488	-0,073	0,100
-346,679	-12,274	-0,017	0,008
-345,664	9,899	-0,081	0,045
-344,650	-200,000	0,005	0,079
-343,635	-87,281	0,103	0,023
-342,620	-88,748	-0,072	-0,016
-341,606	618,185	-0,055	-0,102
-340,591	-200,000	0,003	-0,033
-339,577	161,581	-0,076	0,078
-338,562	800,000	-0,026	0,058
-337,548	52,234	-0,028	0,019
-336,533	453,617	-0,063	0,102
-335,518	-143,546	0,257	-0,018
-334,504	638,596	0,006	0,012
-333,489	272,505	0,053	-0,068
-332,475	-200,000	0,009	-0,048
-331,460	506,697	-0,092	-0,156
-330,445	625,443	0,051	0,094
-329,431	13,018	-0,152	-0,086
-328,416	-135,721	0,076	0,006
-327,402	-15,852	-0,122	0,057
-326,387	508,434	0,048	-0,082
-325,372	-82,192	0,090	-0,021
-324,358	-104,670	-0,067	0,011
-323,343	229,367	-0,083	0,099
-322,329	424,519	0,010	-0,016
-321,314	266,652	-0,089	0,114
-320,299	-56,654	0,057	0,018
-319,285	-116,725	-0,099	-0,013
-318,270	-200,000	-0,026	0,094
-317,256	-117,701	0,093	0,012
-316,241	-200,000	-0,005	0,171
-315,226	157,511	-0,043	-0,044
-314,212	-200,000	-0,025	0,185
-313,197	164,294	0,091	-0,093
-312,183	-119,193	0,115	-0,014
-311,168	-28,098	-0,101	-0,043
-310,153	464,358	-0,056	0,091
-309,139	-42,907	0,048	0,018
-308,124	-200,000	0,040	-0,135
-307,110	-200,000	0,026	0,131
-306,095	800,000	-0,047	0,150
-305,080	-162,334	0,011	-0,000
-304,066	-200,000	0,003	-0,081
-303,051	99,754	-0,033	0,028
-302,037	-70,879	-0,085	-0,023
-301,022	-200,000	-0,024	-0,090
-300,008	253,655	0,108	-0,135
-298,993	-88,666	0,110	-0,024
-297,978	-200,000	0,020	0,168
-296,964	-43,157	-0,049	-0,018
-295,949	-96,610	-0,125	0,024
-294,935	312,925	0,078	0,107
-293,920	74,969	0,055	-0,042
-292,905	800,000	0,019	0,040
-291,891	-200,000	-0,021	0,120
-290,876	277,388	-0,088	0,114
-289,862	526,166	-0,044	-0,077
-288,847	256,184	0,047	-0,059
-287,832	-45,077	0,026	0,009
-286,818	-101,076	-0,029	-0,005
-285,803	-111,655	-0,120	0,018
-284,789	-200,000	0,003	-0,084
-283,774	413,172	-0,045	-0,070
-282,759	-54,620	-0,059	0,019
-281,745	555,985	-0,057	0,100
-280,730	202,634	0,036	-0,041
-279,716	73,053	-0,031	0,024
-278,701	800,000	-0,039	0,096
-277,686	-133,972	-0,031	0,003
-276,672	631,343	-0,062	0,114
-275,657	800,000	0,007	-0,023
-274,643	390,665	-0,023	-0,036
-273,628	22,616	0,056	-0,033
-272,613	-200,000	-0,010	-0,045
-271,599	157,387	0,072	-0,073
-270,584	800,000	0,067	-0,138
-269,570	78,169	-0,161	-0,125
-268,555	741,803	-0,073	-0,144
-267,540	-1,553	0,031	-0,016
-266,526	38,715	0,054	-0,035
-265,511	296,738	-0,054	-0,073
-264,497	-200,000	0,015	-0,112
-263,482	-200,000	0,037	0,123
-262,467	-82,001	0,085	0,020
-261,453	95,964	-0,234	0,194
-260,438	5,168	0,069	0,037
-259,424	316,534	0,027	-0,037
-258,409	-200,000	0,032	0,111
-257,395	800,000	0,013	0,033
-256,380	800,000	0,064	0,131
-255,365	41,765	0,068	-0,045
-254,351	636,107	0,038	-0,070
-253,336	-72,939	-0,065	0,017
-252,322	521,341	0,059	0,101
-251,307	360,866	0,031	-0,046
-250,292	-200,000	0,030	0,099
-249,278	-150,226	0,064	0,004
-248,263	-74,932	-0,077	-0,020
-247,249	184,954	0,160	0,172
-246,234	-77,843	0,073	-0,018
-245,219	523,234	-0,026	-0,044
-244,205	92,505	0,088	0,072
-243,190	-144,779	0,100	-0,007
-242,176	-170,629	0,115	0,003
-241,161	-155,969	-0,067	0,003
-240,146	-102,816	-0,129	0,022
-239,132	610,831	0,057	0,105
-238,117	506,360	0,043	-0,072
-237,103	-80,294	0,036	0,009
-236,088	800,000	0,061	0,133
-235,073	27,675	0,126	-0,077
-234,059	170,278	0,044	0,046
-233,044	-200,000	-0,062	0,291
-232,030	800,000	0,007	0,019
-231,015	37,387	-0,146	0,094
-230,000	175,200	-0,112	-0,118
-228,986	-84,995	0,111	-0,025
-227,971	-193,511	-0,237	0,001
-226,957	224,488	0,122	0,143
-225,942	435,689	0,099	-0,157
-224,927	-7,064	0,170	-0,083
-223,913	534,053	0,012	0,020
-222,898	284,820	0,102	-0,134
-221,884	800,000	-0,036	-0,086
-220,869	96,350	0,080	0,066
-219,855	220,823	-0,084	0,098
-218,840	-140,832	0,102	0,008
-217,825	800,000	-0,012	-0,033
-216,811	-200,000	0,003	-0,029
-215,796	-200,000	0,004	0,075
-214,782	272,983	0,068	-0,088
-213,767	-200,000	0,013	0,063
-212,752	18,514	0,034	-0,020
-211,738	-200,000	0,012	0,093
-210,723	-200,000	0,020	-0,098
-209,709	182,174	0,056	-0,060
-208,694	532,250	-0,050	0,086
-207,679	-200,000	0,038	-0,131
-206,665	395,834	0,039	-0,059
-205,650	800,000	0,015	0,035
-204,636	-200,000	-0,008	0,180
-203,621	12,214	0,037	-0,021
-202,606	269,524	-0,007	-0,009
-201,592	46,836	0,031	0,021
-200,577	40,362	0,150	0,098
-199,563	244,937	-0,032	-0,039
-198,548	-200,000	-0,018	-0,095
-197,533	-200,000	-0,015	0,090
-196,519	64,344	0,083	0,061
-195,504	-200,000	-0,007	0,115
-194,490	-200,000	0,042	-0,155
-193,475	-200,000	0,007	-0,071
-192,460	446,030	0,050	0,080
-191,446	321,540	0,026	0,036
-190,431	172,397	-0,070	0,073
-189,417	800,000	-0,028	0,068
-188,402	16,547	-0,041	0,023
-187,387	142,212	-0,079	-0,076
-186,373	-17,262	-0,059	-0,027
-185,358	421,704	0,005	0,008
-184,344	-200,000	0,018	-0,063
-183,329	-114,199	0,112	0,016
-182,315	-79,646	-0,058	-0,014
-181,300	800,000	-0,007	0,020
-180,285	-113,568	-0,099	-0,014
-179,271	800,000	-0,026	0,083
-178,256	480,866	-0,046	-0,076
-177,242	116,365	0,072	-0,064
-176,227	328,134	-0,042	0,058
-175,212	-102,405	-0,057	-0,010
-174,198	800,000	-0,035	0,083
-173,183	524,003	0,076	0,131
-172,169	-200,000	0,027	-0,150
-171,154	264,738	-0,014	-0,018
-170,139	669,798	0,074	0,139
-169,125	-24,564	-0,073	0,031
-168,110	179,746	0,042	-0,044
-167,096	-200,000	0,022	0,110
-166,081	135,035	0,063	-0,059
-165,066	168,295	-0,069	-0,071
-164,052	43,460	-0,073	0,048
-163,037	67,594	-0,069	0,051
-162,023	92,201	0,020	-0,017
-161,008	1,278	0,020	0,011
-159,993	-200,000	-0,018	0,088
-158,979	-63,424	-0,138	-0,041
-157,964	-165,898	0,057	-0,002
-156,950	-200,000	0,006	0,034
-155,935	-84,985	0,014	0,003
-154,920	-200,000	-0,006	0,109
-153,906	477,181	-0,067	0,110
-152,891	-200,000	-0,029	0,117
-151,877	-48,476	0,084	-0,029
-150,862	-82,519	0,126	-0,029
-149,847	-17,133	-0,088	-0,040
-148,833	171,847	0,108	-0,113
-147,818	364,626	0,044	0,064
-146,804	-131,223	0,086	0,008
-145,789	11,459	0,083	0,046
-144,775	212,199	-0,062	0,071
-143,760	800,000	-0,037	-0,115
-142,745	116,021	-0,056	-0,050
-141,731	104,835	-0,119	-0,101
-140,716	-200,000	0,005	0,132
-139,702	537,259	0,046	0,079
-138,687	137,713	0,108	0,103
-137,672	800,000	0,005	0,010
-136,658	-39,237	-0,061	-0,023
-135,643	376,381	0,057	-0,085
-134,629	-200,000	0,006	-0,124
-133,614	668,597	-0,066	-0,124
-132,599	-200,000	-0,008	0,235
-131,585	240,124	-0,030	0,036
-130,570	218,057	-0,163	-0,188
-129,556	5,265	0,127	-0,067
-128,541	-19,092	0,074	-0,033
-127,526	125,572	0,082	-0,075
-126,512	800,000	0,048	0,109
-125,497	-200,000	0,006	-0,032
-124,483	-200,000	0,014	0,130
-123,468	157,652	0,050	0,050
-122,453	-67,019	-0,050	-0,014
-121,439	634,277	-0,040	-0,074
-120,424	333,969	-0,031	0,043
-119,410	10,938	0,066	-0,036
-118,395	-92,671	-0,087	0,017
