DTS Sentinel unit serial number:	SN410029Multiplexer serial number:	ORYXHardware model number:	OX2-SRSoftware version number:	ORYX F/W v4,00 Oryx Data Collector v3.7.2.0data status	okinstallation	B6 Nyhavnadifferential loss correction	single-endedforward channel	channel 2reverse channel	N/Adate	2023/12/08time	00:55:08forward acquisition time	300,00reverse acquisition time	0,00gamma	499,1914k internal	0,3164k external	0,3164temperature offset calibration	1,0000default loss term (dB/km)	0,3820temperature slope calibration	1,0000multiplexer offset coefficient	1,0000multiplexer slope coefficient	1,0000fibre end	0,00T internal ref (°C)	13,28T ext. ref 1 (°C)	-3,60T ext. ref 2 (°C)	-3,59length (m)	temperature (°C)	Stokes	anti-Stokes-744,400	-200,000	-0,017	0,187
-743,385	-152,990	-0,279	-0,014
-742,371	-114,114	0,154	0,022
-741,356	-181,587	-0,331	-0,005
-740,342	-91,932	0,252	-0,052
-739,327	-120,669	-0,300	0,037
-738,312	39,434	0,097	-0,064
-737,298	-44,077	-0,355	-0,130
-736,283	-1,318	0,122	0,063
-735,269	75,606	-0,356	0,277
-734,254	611,181	0,115	0,213
-733,239	-132,790	-0,539	-0,050
-732,225	-99,843	0,220	0,040
-731,210	800,000	0,057	0,125
-730,196	-105,858	0,089	0,015
-729,181	46,853	-0,054	-0,037
-728,167	-200,000	-0,010	0,100
-727,152	-200,000	-0,018	-0,095
-726,137	129,941	-0,106	-0,100
-725,123	687,847	-0,044	-0,085
-724,108	-189,052	-0,212	0,002
-723,094	38,614	0,131	-0,085
-722,079	800,000	-0,045	-0,141
-721,064	-168,546	-0,046	-0,001
-720,050	254,229	-0,074	0,093
-719,035	-45,023	0,116	-0,042
-718,021	102,936	-0,205	0,176
-717,006	800,000	-0,042	-0,099
-715,991	-148,097	-0,132	-0,008
-714,977	-25,090	-0,041	0,018
-713,962	161,525	-0,021	0,022
-712,948	-200,000	-0,005	0,095
-711,933	-160,916	-0,109	-0,004
-710,918	91,970	-0,021	-0,017
-709,904	-200,000	0,006	0,098
-708,889	-4,255	-0,017	0,009
-707,875	-79,455	-0,121	0,030
-706,860	-72,531	0,080	-0,021
-705,845	-200,000	0,034	0,120
-704,831	627,803	-0,006	-0,012
-703,816	124,864	0,101	0,094
-702,802	410,613	-0,051	-0,080
-701,787	-140,766	0,075	0,006
-700,772	6,572	-0,011	0,006
-699,758	301,727	-0,110	0,150
-698,743	196,370	0,068	0,076
-697,729	35,425	0,039	-0,025
-696,714	45,584	-0,084	-0,057
-695,699	50,425	-0,036	0,025
-694,685	361,130	-0,075	-0,111
-693,670	107,814	-0,063	-0,055
-692,656	-131,010	-0,018	0,002
-691,641	102,681	-0,063	0,054
-690,627	-161,598	0,062	0,002
-689,612	-200,000	-0,014	0,108
-688,597	-200,000	-0,024	-0,091
-687,583	-19,166	0,136	-0,062
-686,568	-200,000	0,073	-0,250
-685,554	41,670	0,079	-0,052
-684,539	-36,555	0,064	0,025
-683,524	69,787	0,081	0,061
-682,510	576,058	-0,074	0,134
-681,495	-164,490	0,082	0,003
-680,481	57,176	-0,091	-0,065
-679,466	226,733	0,025	-0,030
-678,451	-200,000	0,002	-0,123
-677,437	800,000	-0,067	0,174
-676,422	-83,418	0,058	-0,013
-675,408	129,396	0,046	-0,043
-674,393	-154,066	-0,059	-0,003
-673,378	97,240	0,016	0,014
-672,364	800,000	0,073	-0,164
-671,349	-12,293	-0,244	-0,117
-670,335	492,325	0,054	0,091
-669,320	-200,000	0,018	0,070
-668,305	-200,000	-0,021	0,104
-667,291	-200,000	0,019	-0,118
-666,276	-200,000	-0,002	-0,062
-665,262	-200,000	-0,045	-0,156
-664,247	-200,000	0,015	0,098
-663,232	470,901	0,025	0,042
-662,218	800,000	0,029	-0,063
-661,203	-200,000	-0,004	-0,081
-660,189	-200,000	-0,018	-0,071
-659,174	739,298	-0,072	-0,142
-658,159	372,455	-0,024	0,037
-657,145	-48,932	-0,100	-0,035
-656,130	-16,157	0,066	0,031
-655,116	-87,393	0,058	-0,013
-654,101	800,000	-0,047	0,133
-653,086	389,907	-0,056	0,085
-652,072	-200,000	0,005	-0,041
-651,057	-144,473	-0,150	0,010
-650,043	-200,000	0,030	0,115
-649,028	-200,000	-0,027	0,092
-648,014	-6,397	-0,028	-0,014
-646,999	122,355	0,108	-0,098
-645,984	-1,548	0,032	-0,016
-644,970	-200,000	0,004	-0,065
-643,955	35,876	-0,058	0,038
-642,941	102,519	-0,062	-0,053
-641,926	156,009	-0,107	0,108
-640,911	82,504	-0,117	0,093
-639,897	138,350	0,034	-0,032
-638,882	-21,664	-0,242	-0,107
-637,868	27,738	0,044	-0,027
-636,853	307,634	0,079	0,108
-635,838	-194,993	-0,133	-0,001
-634,824	-200,000	-0,020	0,069
-633,809	-200,000	0,015	0,091
-632,795	101,786	-0,088	0,075
-631,780	-72,178	0,092	0,025
-630,765	10,841	-0,103	-0,058
-629,751	-49,025	-0,072	-0,025
-628,736	47,574	-0,189	-0,129
-627,722	-200,000	-0,019	0,108
-626,707	-29,862	-0,043	0,018
-625,692	-22,993	0,130	0,057
-624,678	-200,000	-0,008	0,090
-623,663	17,647	-0,038	-0,022
-622,649	136,483	-0,139	-0,133
-621,634	259,414	-0,048	-0,061
-620,619	149,254	0,103	0,102
-619,605	-200,000	-0,015	0,089
-618,590	-200,000	0,002	-0,069
-617,576	67,263	0,037	0,027
-616,561	110,780	0,024	-0,021
-615,546	-56,005	-0,049	-0,016
-614,532	-58,547	0,056	-0,018
-613,517	-98,823	-0,015	-0,003
-612,503	517,931	-0,055	0,095
-611,488	-141,139	-0,071	-0,005
-610,474	-30,716	0,054	0,022
-609,459	87,154	0,036	-0,029
-608,444	-79,493	-0,056	-0,014
-607,430	-200,000	-0,006	-0,112
-606,415	-200,000	-0,030	-0,105
-605,401	-3,067	0,060	-0,030
-604,386	46,322	0,099	0,067
-603,371	37,580	-0,091	0,059
-602,357	-5,384	-0,113	0,056
-601,342	760,884	0,031	0,061
-600,328	201,179	-0,047	-0,053
-599,313	740,675	-0,061	0,119
-598,298	137,502	0,104	-0,100
-597,284	-200,000	0,017	0,057
-596,269	800,000	-0,001	-0,002
-595,255	-200,000	0,014	-0,061
-594,240	238,627	0,050	-0,061
-593,225	328,650	-0,073	-0,102
-592,211	-200,000	-0,017	-0,103
-591,196	-200,000	0,018	-0,289
-590,182	-200,000	0,010	0,071
-589,167	225,503	-0,048	0,057
-588,152	800,000	-0,024	0,064
-587,138	800,000	-0,043	-0,098
-586,123	219,332	-0,037	-0,044
-585,109	-109,283	-0,075	-0,012
-584,094	-200,000	-0,005	-0,057
-583,079	214,202	0,079	0,091
-582,065	388,667	-0,021	-0,031
-581,050	329,639	-0,044	0,062
-580,036	-60,237	-0,170	-0,053
-579,021	315,015	-0,079	-0,108
-578,006	800,000	-0,020	-0,051
-576,992	800,000	-0,046	0,137
-575,977	341,423	-0,027	0,039
-574,963	-200,000	-0,013	0,075
-573,948	148,089	0,105	0,103
-572,934	255,594	-0,011	0,014
-571,919	-78,448	-0,084	0,021
-570,904	113,666	0,042	0,037
-569,890	-200,000	0,000	-0,051
-568,875	75,076	0,140	0,108
-567,861	22,573	0,167	0,099
-566,846	800,000	0,034	0,070
-565,831	412,016	-0,037	0,058
-564,817	-200,000	0,010	-0,034
-563,802	110,419	-0,067	0,058
-562,788	-49,886	-0,064	0,022
-561,773	-15,860	0,151	-0,070
-560,758	33,865	-0,060	0,038
-559,744	-55,926	-0,060	-0,019
-558,729	0,161	0,028	0,015
-557,715	-4,753	0,064	-0,032
-556,700	-148,190	-0,122	0,007
-555,685	-127,487	-0,048	0,005
-554,671	88,531	-0,049	0,039
-553,656	46,860	-0,047	0,032
-552,642	800,000	0,052	0,113
-551,627	41,844	0,139	0,092
-550,612	405,660	0,049	0,075
-549,598	243,985	-0,039	-0,048
-548,583	169,945	-0,049	-0,051
-547,569	-66,143	-0,057	0,017
-546,554	-85,262	0,119	0,027
-545,539	144,662	-0,064	0,062
-544,525	-70,588	0,158	-0,043
-543,510	-127,297	-0,080	0,008
-542,496	131,007	-0,058	-0,054
-541,481	-200,000	0,008	0,071
-540,466	-200,000	0,003	-0,060
-539,452	-50,767	0,047	-0,016
-538,437	-197,079	0,112	-0,001
-537,423	-74,353	0,143	0,037
-536,408	-200,000	-0,031	0,174
-535,393	-30,835	-0,105	-0,043
-534,379	194,093	-0,028	-0,031
-533,364	-48,955	0,082	0,029
-532,350	13,607	-0,124	-0,070
-531,335	-84,932	0,058	0,013
-530,321	155,932	-0,065	0,066
-529,306	800,000	-0,040	-0,108
-528,291	-11,600	-0,060	0,029
-527,277	-50,442	-0,049	0,017
-526,262	-200,000	0,021	0,167
-525,248	-139,406	0,099	0,008
-524,233	-200,000	0,032	0,190
-523,218	-200,000	0,015	0,166
-522,204	557,781	0,010	0,018
-521,189	-200,000	0,004	-0,063
-520,175	538,576	0,046	-0,079
-519,160	800,000	-0,023	-0,057
-518,145	123,562	0,099	-0,090
-517,131	-13,612	0,047	-0,022
-516,116	185,802	-0,040	-0,043
-515,102	-200,000	-0,001	0,057
-514,087	109,011	-0,127	-0,111
-513,072	685,315	0,035	-0,067
-512,058	-200,000	0,011	-0,119
-511,043	-115,688	0,108	0,015
-510,029	800,000	-0,036	0,115
-509,014	26,124	0,065	0,040
-507,999	-4,511	-0,057	-0,028
-506,985	-114,253	0,057	0,008
-505,970	-60,412	-0,059	0,018
-504,956	267,298	-0,062	-0,079
-503,941	-200,000	-0,021	0,105
-502,926	-200,000	-0,018	0,087
-501,912	0,834	0,098	0,051
-500,897	-83,855	-0,054	-0,012
-499,883	-200,000	-0,030	-0,124
-498,868	-200,000	-0,023	-0,114
-497,853	-73,905	-0,006	0,002
-496,839	800,000	0,035	0,076
-495,824	-88,372	0,020	-0,004
-494,810	800,000	0,021	-0,050
-493,795	73,709	0,123	-0,094
-492,781	-54,988	-0,008	-0,003
-491,766	-93,123	0,019	0,004
-490,751	42,807	-0,050	0,033
-489,737	-45,277	0,054	-0,019
-488,722	-94,395	-0,043	0,009
-487,708	187,086	0,033	0,036
-486,693	800,000	0,027	-0,060
-485,678	-75,498	-0,068	-0,018
-484,664	-55,446	-0,160	0,052
-483,649	344,820	0,025	-0,035
-482,635	-200,000	-0,035	-0,174
-481,620	697,119	-0,044	0,084
-480,605	-79,016	0,086	0,021
-479,591	220,840	-0,093	0,109
-478,576	-10,388	0,117	0,056
-477,562	800,000	-0,039	-0,092
-476,547	214,985	-0,064	-0,074
-475,532	205,292	-0,033	0,037
-474,518	127,461	0,053	0,049
-473,503	-200,000	-0,003	0,119
-472,489	-200,000	-0,008	-0,085
-471,474	-200,000	-0,010	0,124
-470,459	758,780	-0,029	-0,058
-469,445	111,765	-0,102	-0,090
-468,430	-51,108	-0,062	-0,021
-467,416	629,180	0,054	-0,099
-466,401	-108,567	0,233	0,036
-465,386	173,178	-0,084	0,088
-464,372	-129,919	0,025	0,002
-463,357	43,998	0,042	-0,028
-462,343	800,000	-0,047	-0,138
-461,328	5,358	0,077	-0,041
-460,313	-99,064	-0,045	-0,008
-459,299	406,888	-0,038	-0,058
-458,284	-105,724	0,023	-0,004
-457,270	312,308	0,067	0,091
-456,255	-189,623	0,029	-0,000
-455,241	-200,000	-0,003	-0,081
-454,226	-57,050	-0,051	0,016
-453,211	171,768	0,051	0,053
-452,197	-53,603	0,147	-0,049
-451,182	-40,206	0,086	-0,032
-450,168	800,000	-0,011	0,031
-449,153	800,000	-0,031	-0,094
-448,138	-70,637	-0,061	-0,017
-447,124	-70,253	0,085	-0,023
-446,109	-35,106	-0,057	0,023
-445,095	800,000	0,003	-0,009
-444,080	111,136	-0,041	-0,036
-443,065	-26,722	0,078	-0,033
-442,051	-200,000	-0,014	0,134
-441,036	670,816	0,015	0,028
-440,022	-192,727	0,086	-0,001
-439,007	5,861	0,147	-0,079
-437,992	26,598	-0,106	-0,064
-436,978	-97,846	0,114	-0,021
-435,963	114,545	0,119	-0,105
-434,949	82,346	-0,031	-0,024
-433,934	-200,000	-0,031	0,162
-432,919	-200,000	0,008	-0,056
-431,905	-200,000	-0,002	-0,048
-430,890	800,000	0,051	-0,133
-429,876	88,663	0,041	-0,033
-428,861	800,000	0,028	-0,066
-427,846	57,906	0,109	-0,077
-426,832	91,760	0,035	-0,028
-425,817	-71,541	0,052	-0,014
-424,803	-109,315	0,054	0,008
-423,788	-200,000	-0,004	0,128
-422,773	-102,410	0,133	0,023
-421,759	-145,316	-0,215	0,014
-420,744	266,334	0,115	-0,147
-419,730	-59,607	0,168	0,052
-418,715	671,315	-0,046	-0,088
-417,701	128,630	-0,064	0,060
-416,686	387,672	0,119	0,179
-415,671	37,672	0,063	0,040
-414,657	-200,000	-0,005	0,038
-413,642	68,129	-0,019	0,014
-412,628	800,000	-0,049	0,103
-411,613	-24,871	-0,087	0,038
-410,598	76,816	0,084	-0,064
-409,584	-59,408	-0,113	-0,035
-408,569	186,631	-0,077	0,083
-407,555	109,234	0,048	0,042
-406,540	138,370	0,039	-0,037
-405,525	-25,704	0,059	-0,025
-404,511	13,363	-0,013	-0,007
-403,496	5,074	0,009	-0,005
-402,482	182,801	0,023	-0,024
-401,467	-200,000	0,184	0,000
-400,452	51,937	0,133	0,092
-399,438	0,031	-0,044	0,023
-398,423	273,140	-0,094	-0,120
-397,409	-107,797	-0,045	0,007
-396,394	322,519	0,017	0,023
-395,379	-200,000	-0,005	0,144
-394,365	266,882	0,091	-0,115
-393,350	-9,302	0,065	0,031
-392,336	319,511	0,029	0,040
-391,321	162,429	-0,039	0,040
-390,306	6,182	-0,114	-0,061
-389,292	340,881	-0,085	-0,120
-388,277	-11,817	-0,046	0,022
-387,263	-72,969	0,038	-0,010
-386,248	339,726	0,058	0,083
-385,233	-200,000	-0,012	0,088
-384,219	-200,000	0,042	0,145
-383,204	800,000	0,059	0,127
-382,190	-200,000	-0,019	-0,073
-381,175	-200,000	0,012	-0,059
-380,160	-200,000	-0,002	-0,060
-379,146	235,868	0,033	-0,040
-378,131	800,000	0,026	0,052
-377,117	-200,000	0,022	0,154
-376,102	800,000	0,033	-0,088
-375,088	60,072	0,028	-0,020
-374,073	397,374	0,039	0,059
-373,058	450,835	0,065	-0,104
-372,044	142,772	0,054	-0,052
-371,029	-157,101	0,074	0,003
-370,015	-43,208	-0,098	-0,036
-369,000	57,105	0,047	-0,033
-367,985	800,000	-0,027	-0,056
-366,971	-200,000	-0,019	-0,196
-365,956	615,768	0,071	-0,129
-364,942	-200,000	0,001	0,005
-363,927	360,773	0,050	-0,072
-362,912	-54,155	0,077	-0,025
-361,898	48,929	-0,077	0,052
-360,883	-138,140	-0,076	-0,006
-359,869	-75,244	0,164	0,042
-358,854	-67,601	0,049	-0,014
-357,839	-200,000	0,048	0,188
-356,825	-29,824	0,054	-0,022
-355,810	166,969	-0,066	0,068
-354,796	234,101	0,067	0,080
-353,781	32,413	-0,036	-0,023
-352,766	71,262	-0,031	0,023
-351,752	54,308	0,047	-0,033
-350,737	-75,257	-0,190	0,049
-349,723	208,159	0,008	-0,009
-348,708	800,000	-0,065	-0,206
-347,693	-31,311	-0,075	-0,031
-346,679	800,000	-0,029	-0,062
-345,664	60,384	0,036	-0,026
-344,650	73,676	-0,069	0,052
-343,635	-32,258	0,019	-0,008
-342,620	520,075	0,052	0,088
-341,606	-200,000	0,015	0,134
-340,591	800,000	0,065	-0,187
-339,577	22,563	-0,029	0,017
-338,562	-200,000	0,007	-0,048
-337,548	163,274	-0,011	0,011
-336,533	30,805	-0,124	0,077
-335,518	5,524	0,137	0,073
-334,504	-152,915	0,097	-0,005
-333,489	-200,000	-0,045	-0,206
-332,475	176,221	0,035	0,037
-331,460	-200,000	0,004	-0,051
-330,445	65,941	0,068	-0,050
-329,431	-145,312	0,083	0,005
-328,416	311,666	-0,047	-0,064
-327,402	-200,000	0,025	0,104
-326,387	-61,890	-0,075	0,023
-325,372	800,000	0,031	-0,064
-324,358	52,795	-0,118	0,081
-323,343	-42,936	-0,012	-0,004
-322,329	-200,000	0,024	0,078
-321,314	-200,000	0,015	0,089
-320,299	-130,168	0,073	-0,007
-319,285	-31,993	-0,046	-0,019
-318,270	-4,873	-0,079	0,039
-317,256	-200,000	-0,003	-0,150
-316,241	429,886	0,086	-0,136
-315,226	-87,547	0,135	0,029
-314,212	-62,431	0,156	-0,047
-313,197	-200,000	-0,024	0,110
-312,183	133,273	0,063	-0,059
-311,168	-200,000	0,030	0,144
-310,153	-95,767	-0,140	-0,027
-309,139	29,197	-0,057	0,035
-308,124	128,628	0,059	0,055
-307,110	-13,523	-0,093	-0,043
-306,095	35,080	-0,110	0,070
-305,080	-72,285	-0,087	-0,023
-304,066	346,173	-0,074	-0,105
-303,051	423,025	-0,038	0,059
-302,037	144,729	-0,030	0,029
-301,022	650,562	0,032	-0,059
-300,008	-43,525	0,196	0,071
-298,993	15,110	-0,090	-0,051
-297,978	-197,253	0,053	-0,000
-296,964	-66,592	-0,162	-0,046
-295,949	-200,000	-0,034	-0,238
-294,935	-60,338	-0,060	-0,018
-293,920	142,577	0,054	-0,052
-292,905	-200,000	0,004	-0,107
-291,891	89,782	-0,037	-0,030
-290,876	-92,124	-0,080	-0,016
-289,862	154,404	-0,150	-0,149
-288,847	309,166	0,130	-0,176
-287,832	-6,016	-0,155	-0,077
-286,818	800,000	-0,005	0,011
-285,803	-37,760	0,142	0,054
-284,789	355,162	-0,088	0,127
-283,774	-200,000	-0,020	0,146
-282,759	-75,325	-0,036	0,009
-281,745	-186,170	-0,009	0,000
-280,730	-200,000	-0,003	0,036
-279,716	639,570	0,022	0,040
-278,701	-8,126	0,047	0,023
-277,686	352,037	0,063	0,091
-276,672	-200,000	0,019	0,065
-275,657	-200,000	0,022	-0,126
-274,643	9,558	-0,145	-0,079
-273,628	800,000	0,007	-0,017
-272,613	400,681	0,052	-0,080
-271,599	102,177	-0,121	0,102
-270,584	15,115	0,216	0,122
-269,570	282,376	0,029	-0,037
-268,555	186,557	-0,041	-0,045
-267,540	-1,272	-0,068	0,035
-266,526	-49,081	0,078	0,027
-265,511	-110,068	-0,098	-0,015
-264,497	136,331	0,018	-0,017
-263,482	-200,000	0,023	0,098
-262,467	28,794	0,075	0,046
-261,453	-200,000	-0,003	-0,096
-260,438	488,914	-0,068	-0,113
-259,424	106,277	0,011	0,010
-258,409	-15,001	0,082	-0,038
-257,395	477,192	0,045	-0,073
-256,380	89,616	0,128	-0,103
-255,365	-19,708	0,086	0,038
-254,351	-98,637	-0,166	-0,030
-253,336	204,471	0,131	-0,147
-252,322	113,062	-0,025	-0,022
-251,307	-154,114	-0,081	-0,004
-250,292	-200,000	0,025	0,094
-249,278	-200,000	-0,001	0,028
-248,263	93,023	0,135	0,110
-247,249	-200,000	0,016	0,099
-246,234	367,585	-0,035	-0,051
-245,219	550,017	-0,076	-0,131
-244,205	800,000	0,018	-0,046
-243,190	-137,388	-0,122	0,010
-242,176	27,906	0,063	-0,038
-241,161	0,950	-0,072	0,037
-240,146	609,309	0,070	-0,127
-239,132	-200,000	-0,005	0,147
-238,117	800,000	0,047	-0,116
-237,103	800,000	0,042	-0,098
-236,088	562,611	0,045	0,079
-235,073	-36,419	0,057	0,022
-234,059	800,000	0,014	-0,034
-233,044	-59,867	0,100	0,031
-232,030	225,658	-0,171	-0,200
-231,015	621,846	-0,023	-0,041
-230,000	-53,388	-0,070	0,023
-228,986	489,842	-0,000	-0,001
-227,971	-200,000	-0,023	0,138
-226,957	52,361	0,158	0,109
-225,942	800,000	-0,035	-0,088
-224,927	449,795	0,097	-0,155
-223,913	172,471	-0,088	-0,092
-222,898	-23,268	-0,075	0,033
-221,884	-200,000	0,021	0,121
-220,869	204,035	-0,060	-0,067
-219,855	33,972	-0,041	0,026
-218,840	168,989	-0,036	0,037
-217,825	519,540	-0,045	0,077
-216,811	-65,164	0,074	0,021
-215,796	310,720	0,004	0,006
-214,782	-200,000	-0,018	0,176
-213,767	800,000	-0,024	0,065
-212,752	-54,787	0,180	0,058
-211,738	-200,000	0,015	0,095
-210,723	-200,000	-0,000	0,163
-209,709	128,829	-0,089	0,082
-208,694	121,238	-0,104	-0,093
-207,679	-63,324	-0,092	0,027
-206,665	380,149	-0,040	0,059
-205,650	-118,492	0,025	-0,003
-204,636	148,660	-0,021	-0,020
-203,621	585,208	-0,013	0,023
-202,606	-200,000	0,020	0,090
-201,592	-200,000	0,004	-0,049
-200,577	153,411	0,057	0,056
-199,563	204,689	-0,088	-0,098
-198,548	-77,669	0,098	0,024
-197,533	-200,000	0,040	0,140
-196,519	-50,888	-0,096	-0,032
-195,504	-94,638	-0,133	-0,026
-194,490	-200,000	0,003	0,058
-193,475	-0,372	0,125	0,064
-192,460	-64,613	-0,051	-0,015
-191,446	756,874	0,023	0,045
-190,431	-161,821	0,168	0,006
-189,417	21,995	0,084	0,049
-188,402	109,450	0,100	0,086
-187,387	160,029	0,030	-0,030
-186,373	-200,000	0,015	-0,095
-185,358	94,605	-0,050	-0,041
-184,344	-116,276	0,125	0,017
-183,329	567,724	-0,053	-0,092
-182,315	77,758	-0,032	-0,025
-181,300	7,610	-0,069	-0,037
-180,285	800,000	0,054	-0,159
-179,271	2,800	-0,050	0,026
-178,256	-200,000	0,115	0,000
-177,242	507,033	-0,028	0,047
-176,227	-200,000	-0,018	0,073
-175,212	182,048	-0,079	0,084
-174,198	-200,000	-0,014	0,053
-173,183	3,242	-0,143	0,075
-172,169	-64,883	-0,053	0,015
-171,154	-41,026	0,063	0,023
-170,139	800,000	-0,061	0,168
-169,125	-200,000	-0,027	-0,188
-168,110	-9,239	-0,067	-0,032
-167,096	366,413	0,042	-0,062
-166,081	800,000	-0,033	-0,068
-165,066	800,000	0,025	-0,074
-164,052	800,000	-0,019	0,051
-163,037	-26,927	-0,040	-0,017
-162,023	53,820	0,063	0,044
-161,008	23,882	0,076	0,045
-159,993	-86,898	-0,122	0,027
-158,979	191,601	-0,069	-0,075
-157,964	-200,000	-0,143	-0,000
-156,950	800,000	-0,028	-0,059
-155,935	-200,000	-0,030	-0,123
-154,920	-39,842	-0,015	-0,006
-153,906	-200,000	-0,003	0,143
-152,891	-200,000	-0,032	0,153
-151,877	154,037	-0,072	-0,071
-150,862	436,579	-0,012	-0,018
-149,847	-96,102	-0,157	0,030
-148,833	626,871	0,060	0,109
-147,818	-200,000	-0,016	0,060
-146,804	-121,260	0,148	-0,018
-145,789	-146,864	-0,126	-0,008
-144,775	208,542	-0,034	0,039
-143,760	-161,863	-0,049	-0,002
-142,745	800,000	-0,026	-0,071
-141,731	43,095	-0,067	-0,044
-140,716	46,414	0,137	0,091
-139,702	254,598	-0,075	0,093
-138,687	263,708	-0,104	0,130
-137,672	170,071	0,045	0,047
-136,658	-118,681	0,054	-0,007
-135,643	-116,394	-0,131	-0,017
-134,629	-65,577	0,145	0,042
-133,614	-200,000	0,002	0,093
-132,599	-59,694	-0,080	0,024
-131,585	-41,463	0,052	0,019
-130,570	-200,000	0,002	-0,029
-129,556	800,000	-0,049	-0,127
-128,541	-200,000	-0,011	-0,112
-127,526	-112,749	0,077	-0,011
-126,512	246,866	-0,041	0,050
-125,497	-200,000	0,009	0,078
-124,483	145,189	-0,017	0,016
-123,468	-115,069	-0,065	-0,009
-122,453	116,237	-0,017	-0,015
-121,439	-91,710	-0,108	0,022
-120,424	41,567	0,089	-0,058
-119,410	113,586	-0,059	-0,051
