DTS Sentinel unit serial number:	SN410029Multiplexer serial number:	ORYXHardware model number:	OX2-SRSoftware version number:	ORYX F/W v4,00 Oryx Data Collector v3.7.2.0data status	okinstallation	B6 Nyhavnadifferential loss correction	single-endedforward channel	channel 2reverse channel	N/Adate	2023/12/07time	23:30:08forward acquisition time	300,00reverse acquisition time	0,00gamma	499,1914k internal	0,3165k external	0,3165temperature offset calibration	1,0000default loss term (dB/km)	0,3820temperature slope calibration	1,0000multiplexer offset coefficient	1,0000multiplexer slope coefficient	1,0000fibre end	0,00T internal ref (°C)	13,45T ext. ref 1 (°C)	-3,50T ext. ref 2 (°C)	-3,50length (m)	temperature (°C)	Stokes	anti-Stokes-744,400	-144,183	0,309	-0,021
-743,385	-87,784	-0,276	-0,061
-742,371	-52,901	0,149	0,050
-741,356	-49,657	-0,246	0,085
-740,342	359,521	-0,063	0,094
-739,327	-127,749	-0,205	-0,022
-738,312	367,943	0,033	0,049
-737,298	-79,195	-0,387	-0,096
-736,283	-118,941	0,274	-0,035
-735,269	-1,064	-0,215	0,111
-734,254	-168,643	0,103	0,003
-733,239	72,885	-0,416	-0,319
-732,225	-149,813	0,166	0,009
-731,210	-87,088	-0,133	-0,030
-730,196	800,000	-0,017	-0,040
-729,181	29,371	-0,142	-0,088
-728,167	91,118	-0,020	0,017
-727,152	677,477	-0,023	-0,045
-726,137	800,000	-0,043	-0,091
-725,123	-200,000	-0,013	-0,051
-724,108	-85,558	-0,190	-0,043
-723,094	-11,486	0,050	0,024
-722,079	54,328	-0,105	-0,074
-721,064	371,361	-0,067	0,100
-720,050	54,059	-0,057	-0,040
-719,035	800,000	-0,036	-0,081
-718,021	108,485	-0,089	-0,078
-717,006	-47,842	-0,059	0,021
-715,991	-129,787	-0,136	-0,014
-714,977	644,622	0,042	-0,079
-713,962	108,912	0,028	0,024
-712,948	432,770	-0,012	0,020
-711,933	800,000	-0,024	-0,054
-710,918	-99,131	-0,094	-0,017
-709,904	-25,486	-0,017	-0,007
-708,889	-200,000	0,014	-0,062
-707,875	-8,132	0,091	-0,045
-706,860	-85,919	-0,114	0,026
-705,845	-200,000	0,001	0,117
-704,831	-66,768	0,060	0,017
-703,816	147,692	-0,040	0,040
-702,802	305,518	-0,025	0,034
-701,787	-83,294	-0,044	0,010
-700,772	435,461	0,057	-0,091
-699,758	112,713	0,043	-0,039
-698,743	545,366	-0,045	-0,079
-697,729	226,605	0,053	-0,063
-696,714	800,000	-0,030	0,091
-695,699	150,764	0,034	-0,034
-694,685	-35,881	-0,159	0,063
-693,670	34,864	0,106	0,068
-692,656	-19,089	0,059	-0,027
-691,641	110,568	-0,037	0,033
-690,627	-200,000	-0,003	0,016
-689,612	-19,131	0,090	0,041
-688,597	800,000	0,032	0,083
-687,583	800,000	0,028	-0,078
-686,568	-54,602	-0,074	-0,025
-685,554	4,924	0,017	0,009
-684,539	-46,116	0,153	0,055
-683,524	-200,000	-0,000	0,056
-682,510	-83,778	-0,082	-0,019
-681,495	-164,972	0,138	0,004
-680,481	325,468	-0,046	0,064
-679,466	114,969	-0,094	-0,084
-678,451	-22,488	0,137	-0,061
-677,437	800,000	0,049	-0,131
-676,422	502,012	0,062	0,105
-675,408	800,000	-0,025	0,077
-674,393	-200,000	0,003	0,051
-673,378	-200,000	-0,040	-0,138
-672,364	-71,151	-0,107	-0,029
-671,349	426,243	-0,014	0,023
-670,335	-103,574	0,097	-0,017
-669,320	211,848	0,021	0,025
-668,305	341,626	0,059	-0,085
-667,291	800,000	-0,048	-0,101
-666,276	-200,000	0,005	-0,159
-665,262	84,178	-0,127	-0,102
-664,247	666,954	0,045	0,085
-663,232	-101,485	-0,170	-0,030
-662,218	-200,000	0,019	0,102
-661,203	611,637	-0,046	-0,085
-660,189	-21,225	-0,034	0,015
-659,174	46,227	-0,128	-0,087
-658,159	-200,000	0,002	0,061
-657,145	-200,000	0,004	-0,067
-656,130	440,032	0,055	-0,088
-655,116	-200,000	-0,024	-0,117
-654,101	-19,147	-0,176	0,080
-653,086	59,561	0,094	0,068
-652,072	478,257	-0,070	0,117
-651,057	258,938	0,033	-0,041
-650,043	154,596	-0,096	-0,097
-649,028	245,463	-0,069	0,086
-648,014	529,342	0,004	-0,007
-646,999	800,000	-0,058	-0,130
-645,984	-89,801	0,133	-0,028
-644,970	33,079	-0,101	-0,064
-643,955	-200,000	-0,013	0,049
-642,941	800,000	0,086	-0,209
-641,926	-200,000	0,019	-0,290
-640,911	-200,000	0,008	-0,042
-639,897	-200,000	-0,003	0,025
-638,882	532,917	0,039	0,069
-637,868	800,000	-0,014	-0,034
-636,853	162,458	-0,101	0,103
-635,838	-140,921	-0,159	-0,012
-634,824	-50,640	-0,098	0,034
-633,809	-70,990	0,114	0,031
-632,795	-200,000	0,012	0,049
-631,780	89,724	-0,041	0,034
-630,765	-200,000	0,038	-0,181
-629,751	-87,031	-0,149	-0,033
-628,736	-200,000	-0,036	-0,168
-627,722	-194,893	-0,091	0,000
-626,707	-153,038	0,066	-0,003
-625,692	151,488	0,095	-0,095
-624,678	800,000	0,017	-0,036
-623,663	253,093	0,058	-0,073
-622,649	-19,136	-0,078	0,035
-621,634	433,534	-0,063	-0,101
-620,619	-43,618	0,111	-0,041
-619,605	-14,530	0,112	0,052
-618,590	-54,930	0,096	0,032
-617,576	189,906	0,073	0,080
-616,561	301,834	-0,035	0,047
-615,546	23,431	0,066	0,039
-614,532	-110,983	-0,147	-0,022
-613,517	605,250	-0,036	-0,067
-612,503	-200,000	-0,007	0,040
-611,488	800,000	0,030	0,073
-610,474	534,117	-0,056	0,098
-609,459	235,657	-0,071	0,086
-608,444	-10,036	-0,193	-0,093
-607,430	245,696	0,015	-0,018
-606,415	12,988	-0,097	-0,055
-605,401	-200,000	-0,029	-0,205
-604,386	73,815	0,057	-0,044
-603,371	-200,000	-0,007	-0,078
-602,357	165,375	-0,010	-0,010
-601,342	14,234	-0,105	0,060
-600,328	3,054	-0,019	0,010
-599,313	-200,000	0,001	-0,083
-598,298	-200,000	0,003	0,127
-597,284	800,000	-0,074	0,176
-596,269	174,179	-0,068	0,072
-595,255	68,756	0,067	-0,050
-594,240	103,803	-0,090	0,077
-593,225	210,296	0,034	0,039
-592,211	236,388	-0,069	0,084
-591,196	-200,000	0,016	-0,114
-590,182	134,435	-0,101	-0,096
-589,167	8,162	0,075	0,041
-588,152	-200,000	-0,007	-0,070
-587,138	-138,778	-0,074	0,006
-586,123	145,183	-0,095	0,093
-585,109	130,849	0,115	-0,108
-584,094	-200,000	0,016	-0,069
-583,079	800,000	-0,040	0,116
-582,065	-46,489	0,117	-0,042
-581,050	-41,525	-0,045	-0,017
-580,036	15,769	0,067	0,038
-579,021	-200,000	-0,000	-0,043
-578,006	91,994	-0,100	-0,082
-576,992	195,488	-0,028	0,031
-575,977	29,671	0,005	-0,003
-574,963	165,528	0,061	0,063
-573,948	-64,415	-0,015	0,005
-572,934	-64,596	0,101	-0,030
-571,919	161,990	0,042	-0,043
-570,904	666,543	-0,006	-0,012
-569,890	270,254	-0,077	-0,099
-568,875	-107,870	-0,043	0,007
-567,861	-44,599	-0,107	-0,039
-566,846	800,000	0,039	0,125
-565,831	-200,000	0,019	0,079
-564,817	98,637	-0,071	-0,060
-563,802	-200,000	-0,009	-0,113
-562,788	-200,000	-0,011	-0,115
-561,773	-139,309	-0,052	0,004
-560,758	800,000	0,024	0,059
-559,744	386,783	-0,044	0,067
-558,729	-24,248	-0,059	0,026
-557,715	-96,695	-0,210	-0,040
-556,700	176,931	-0,072	-0,077
-555,685	800,000	0,006	0,018
-554,671	-200,000	0,036	-0,171
-553,656	-118,534	0,043	-0,005
-552,642	800,000	0,016	0,041
-551,627	453,013	-0,029	-0,047
-550,612	23,641	-0,085	-0,051
-549,598	-200,000	0,036	-0,120
-548,583	53,051	-0,100	-0,070
-547,569	66,420	0,077	-0,057
-546,554	35,962	-0,047	-0,030
-545,539	107,068	-0,028	-0,024
-544,525	-200,000	0,026	0,093
-543,510	800,000	-0,049	-0,145
-542,496	-200,000	0,034	-0,121
-541,481	285,920	-0,095	-0,125
-540,466	-86,613	0,084	-0,019
-539,452	48,481	0,045	0,031
-538,437	740,058	0,017	-0,034
-537,423	188,507	-0,021	-0,023
-536,408	800,000	-0,074	-0,152
-535,393	129,518	0,041	-0,038
-534,379	300,361	-0,082	-0,110
-533,364	150,015	-0,032	-0,031
-532,350	42,701	-0,081	0,054
-531,335	800,000	-0,023	0,048
-530,321	117,909	-0,036	-0,032
-529,306	546,228	-0,027	-0,047
-528,291	2,542	-0,086	0,045
-527,277	800,000	0,009	-0,018
-526,262	-200,000	-0,023	-0,076
-525,248	800,000	-0,056	-0,116
-524,233	800,000	0,018	-0,049
-523,218	-44,594	0,078	0,028
-522,204	-200,000	0,011	-0,040
-521,189	-200,000	0,026	-0,109
-520,175	261,443	-0,041	0,051
-519,160	-51,874	-0,015	0,005
-518,145	32,894	0,063	-0,040
-517,131	-200,000	0,017	0,207
-516,116	236,651	-0,038	0,046
-515,102	-200,000	0,000	-0,032
-514,087	-200,000	0,007	-0,088
-513,072	426,314	0,120	-0,189
-512,058	387,165	0,015	-0,022
-511,043	-109,444	-0,122	-0,019
-510,029	-200,000	0,002	0,080
-509,014	81,945	-0,047	-0,037
-507,999	55,360	0,066	0,046
-506,985	-200,000	-0,008	-0,109
-505,970	160,705	-0,027	-0,028
-504,956	800,000	-0,018	0,040
-503,941	-103,516	0,140	-0,024
-502,926	-180,014	-0,079	0,001
-501,912	-200,000	-0,026	0,109
-500,897	-200,000	-0,017	-0,078
-499,883	25,901	0,164	0,099
-498,868	167,917	-0,120	0,124
-497,853	-27,217	0,211	0,089
-496,839	-16,598	-0,035	-0,016
-495,824	261,520	0,052	0,066
-494,810	-123,077	-0,101	0,012
-493,795	38,786	-0,049	0,032
-492,781	86,600	-0,048	0,039
-491,766	800,000	-0,077	0,165
-490,751	109,808	-0,078	-0,068
-489,737	12,701	-0,051	-0,028
-488,722	105,580	-0,045	0,039
-487,708	800,000	0,020	0,051
-486,693	33,291	-0,032	0,020
-485,678	-200,000	0,011	-0,146
-484,664	363,589	0,048	-0,070
-483,649	800,000	-0,028	0,075
-482,635	603,928	0,035	-0,063
-481,620	-128,707	-0,120	-0,012
-480,605	800,000	0,026	-0,053
-479,591	800,000	-0,004	0,009
-478,576	164,580	0,038	0,039
-477,562	-169,646	-0,115	0,003
-476,547	800,000	0,026	0,056
-475,532	-200,000	-0,003	-0,045
-474,518	27,528	0,049	0,030
-473,503	-200,000	-0,000	-0,018
-472,489	-28,433	-0,048	-0,020
-471,474	-200,000	0,002	-0,104
-470,459	-167,576	0,130	0,004
-469,445	38,384	-0,121	-0,079
-468,430	257,996	-0,034	-0,043
-467,416	-177,969	-0,055	0,001
-466,401	515,509	0,015	0,025
-465,386	140,767	-0,058	-0,056
-464,372	-200,000	-0,015	0,186
-463,357	-200,000	-0,006	0,043
-462,343	97,116	-0,100	-0,084
-461,328	-200,000	0,003	0,125
-460,313	202,161	-0,100	-0,113
-459,299	-97,185	0,054	0,010
-458,284	-200,000	-0,011	-0,077
-457,270	-145,203	-0,057	-0,004
-456,255	-137,263	-0,056	0,005
-455,241	563,767	0,022	-0,038
-454,226	-200,000	0,008	-0,063
-453,211	800,000	0,004	-0,010
-452,197	-200,000	0,013	0,127
-451,182	-149,977	0,198	-0,011
-450,168	-200,000	-0,007	0,037
-449,153	417,695	0,037	0,058
-448,138	-200,000	0,005	0,077
-447,124	-71,228	-0,060	0,016
-446,109	-165,599	-0,147	0,005
-445,095	5,670	0,099	0,053
-444,080	-200,000	-0,002	0,031
-443,065	131,322	-0,080	-0,074
-442,051	182,425	-0,113	-0,121
-441,036	250,999	-0,080	-0,100
-440,022	-200,000	0,018	0,078
-439,007	800,000	-0,015	-0,031
-437,992	464,070	0,062	-0,101
-436,978	87,534	0,063	0,050
-435,963	-200,000	0,029	-0,166
-434,949	480,661	-0,005	-0,009
-433,934	800,000	0,020	-0,061
-432,919	454,465	0,026	-0,042
-431,905	-103,946	0,007	0,001
-430,890	-125,436	0,118	0,013
-429,876	-200,000	0,023	0,100
-428,861	-200,000	0,005	-0,026
-427,846	-200,000	0,037	-0,126
-426,832	12,506	0,088	0,049
-425,817	310,372	0,050	-0,069
-424,803	67,777	0,147	0,109
-423,788	212,315	-0,019	0,021
-422,773	-200,000	0,002	-0,132
-421,759	-200,000	0,012	-0,089
-420,744	-138,898	0,070	-0,005
-419,730	156,798	-0,084	0,085
-418,715	-10,391	-0,124	0,060
-417,701	1,886	0,083	0,043
-416,686	-200,000	-0,006	-0,136
-415,671	800,000	-0,015	0,046
-414,657	-200,000	-0,008	-0,156
-413,642	-87,484	0,162	-0,035
-412,628	-200,000	-0,016	-0,052
-411,613	-54,947	-0,151	-0,049
-410,598	-159,912	0,123	-0,005
-409,584	566,152	0,032	0,057
-408,569	-200,000	0,016	-0,080
-407,555	-200,000	0,006	0,047
-406,540	-83,302	-0,031	0,007
-405,525	-200,000	-0,004	0,137
-404,511	-52,541	-0,007	0,002
-403,496	-135,882	-0,040	0,003
-402,482	230,158	-0,036	0,043
-401,467	-133,347	-0,015	-0,001
-400,452	-200,000	0,013	0,045
-399,438	-200,000	-0,002	0,099
-398,423	35,769	-0,091	-0,058
-397,409	26,204	-0,125	-0,075
-396,394	-114,099	-0,156	-0,022
-395,379	-110,088	0,111	0,017
-394,365	-200,000	-0,005	0,143
-393,350	-200,000	-0,018	0,076
-392,336	-172,150	0,045	0,001
-391,321	534,823	0,007	0,011
-390,306	-80,275	0,019	-0,005
-389,292	-143,013	-0,039	-0,003
-388,277	302,923	-0,059	-0,080
-387,263	-200,000	0,016	-0,061
-386,248	679,125	-0,026	-0,050
-385,233	96,112	0,086	0,071
-384,219	-24,528	-0,143	0,061
-383,204	350,964	0,069	0,099
-382,190	284,709	-0,086	0,112
-381,175	150,422	-0,043	-0,043
-380,160	185,351	-0,037	0,040
-379,146	-27,267	0,038	0,016
-378,131	3,404	0,111	-0,058
-377,117	217,101	0,027	-0,031
-376,102	268,613	-0,018	0,024
-375,088	79,462	-0,105	0,082
-374,073	158,174	0,020	-0,020
-373,058	156,629	-0,073	0,073
-372,044	202,356	0,075	0,084
-371,029	-200,000	-0,004	-0,035
-370,015	26,517	-0,003	-0,002
-369,000	83,258	0,026	0,021
-367,985	800,000	-0,023	-0,047
-366,971	-95,759	0,072	-0,014
-365,956	274,080	-0,018	-0,023
-364,942	508,831	0,017	-0,029
-363,927	-49,253	-0,082	0,028
-362,912	19,645	-0,026	-0,015
-361,898	496,602	0,051	-0,086
-360,883	800,000	0,029	0,080
-359,869	44,133	-0,088	0,058
-358,854	256,734	-0,050	0,062
-357,839	-200,000	0,005	-0,066
-356,825	-60,569	0,100	0,031
-355,810	800,000	-0,022	0,063
-354,796	-139,788	0,078	-0,006
-353,781	439,967	-0,048	-0,076
-352,766	-19,631	0,027	-0,012
-351,752	800,000	0,049	0,116
-350,737	-94,995	0,136	-0,026
-349,723	-200,000	0,008	0,068
-348,708	714,728	-0,027	0,051
-347,693	128,790	-0,112	-0,104
-346,679	800,000	0,023	-0,068
-345,664	236,387	0,094	-0,113
-344,650	-86,408	-0,084	0,019
-343,635	206,067	0,049	-0,055
-342,620	-79,847	0,081	-0,020
-341,606	-200,000	0,022	-0,088
-340,591	-200,000	0,029	0,110
-339,577	-151,984	-0,084	0,004
-338,562	141,394	0,019	0,018
-337,548	-18,552	-0,091	0,041
-336,533	-137,596	0,058	0,005
-335,518	800,000	0,015	0,039
-334,504	548,721	0,011	0,019
-333,489	-200,000	-0,007	0,054
-332,475	378,523	0,069	-0,103
-331,460	-200,000	0,016	0,108
-330,445	529,125	-0,043	0,073
-329,431	79,627	-0,084	-0,065
-328,416	58,099	-0,062	0,044
-327,402	-61,297	0,058	0,018
-326,387	-37,628	0,056	0,021
-325,372	211,786	-0,017	-0,020
-324,358	-117,055	0,070	0,009
-323,343	-164,577	-0,099	0,003
-322,329	-70,036	0,085	0,023
-321,314	163,501	0,072	0,074
-320,299	800,000	-0,057	0,115
-319,285	-200,000	0,002	0,056
-318,270	-140,746	0,028	-0,002
-317,256	-79,876	-0,107	-0,026
-316,241	-200,000	0,006	-0,152
-315,226	23,906	-0,054	-0,032
-314,212	800,000	-0,020	-0,057
-313,197	587,306	0,007	0,013
-312,183	82,458	-0,049	0,039
-311,168	-21,364	-0,040	-0,018
-310,153	493,070	0,088	-0,147
-309,139	-200,000	-0,006	0,083
-308,124	-97,034	0,064	-0,012
-307,110	-200,000	-0,010	0,063
-306,095	800,000	0,039	0,087
-305,080	-26,553	0,106	-0,045
-304,066	33,553	-0,121	0,076
-303,051	800,000	-0,046	0,112
-302,037	-158,356	-0,144	-0,006
-301,022	-200,000	0,011	-0,099
-300,008	-115,926	0,041	-0,005
-298,993	83,918	0,097	0,077
-297,978	9,618	0,047	0,026
-296,964	63,667	-0,090	-0,065
-295,949	11,460	-0,150	-0,083
-294,935	-71,157	-0,059	0,016
-293,920	-9,832	0,050	0,024
-292,905	-200,000	0,017	0,121
-291,891	89,227	-0,043	-0,034
-290,876	-200,000	0,008	0,037
-289,862	777,753	0,017	0,034
-288,847	376,341	0,029	-0,042
-287,832	114,247	-0,050	-0,044
-286,818	-157,132	0,019	0,001
-285,803	-200,000	0,007	-0,070
-284,789	-145,034	0,079	-0,005
-283,774	-15,260	0,152	0,070
-282,759	579,666	0,031	0,056
-281,745	-163,274	0,051	0,002
-280,730	211,517	-0,096	0,110
-279,716	622,617	0,041	0,075
-278,701	-151,717	0,046	-0,002
-277,686	394,450	0,099	0,150
-276,672	-200,000	0,027	0,127
-275,657	144,149	-0,068	0,066
-274,643	96,625	0,090	-0,074
-273,628	147,762	-0,137	-0,133
-272,613	630,231	-0,021	0,038
-271,599	-101,711	0,148	0,026
-270,584	-27,335	0,101	0,042
-269,570	182,225	0,115	0,123
-268,555	536,224	0,027	-0,046
-267,540	-200,000	-0,048	-0,178
-266,526	800,000	-0,012	-0,027
-265,511	-193,218	0,033	-0,000
-264,497	167,671	0,077	0,079
-263,482	-200,000	0,016	-0,114
-262,467	-2,586	-0,073	-0,037
-261,453	138,301	0,031	0,029
-260,438	41,753	-0,073	-0,047
-259,424	-92,406	-0,154	-0,031
-258,409	8,397	-0,067	0,036
-257,395	29,011	0,029	-0,018
-256,380	-146,217	0,148	0,009
-255,365	-117,331	0,176	-0,023
-254,351	58,496	0,068	0,048
-253,336	523,351	0,022	0,037
-252,322	-200,000	0,047	-0,177
-251,307	800,000	0,015	0,033
-250,292	800,000	-0,053	-0,129
-249,278	-155,889	0,062	-0,003
-248,263	-62,193	-0,054	-0,016
-247,249	19,027	0,109	0,063
-246,234	403,919	0,069	0,105
-245,219	-52,788	-0,151	0,050
-244,205	-74,121	-0,135	-0,035
-243,190	99,729	-0,038	-0,032
-242,176	800,000	-0,031	0,071
-241,161	-75,636	0,168	-0,043
-240,146	-150,336	-0,116	0,006
-239,132	146,554	0,072	-0,070
-238,117	221,962	-0,076	-0,089
-237,103	-200,000	0,011	0,143
-236,088	-76,087	0,069	-0,018
-235,073	-124,671	0,073	-0,008
-234,059	7,953	0,163	0,088
-233,044	153,695	-0,015	0,015
-232,030	-132,315	0,160	-0,015
-231,015	-200,000	-0,001	-0,008
-230,000	-129,628	0,076	-0,007
-228,986	42,660	-0,028	-0,018
-227,971	220,623	0,024	-0,028
-226,957	618,608	0,075	0,137
-225,942	632,437	-0,042	0,078
-224,927	178,196	0,050	0,053
-223,913	303,639	-0,057	0,076
-222,898	552,133	0,033	0,058
-221,884	-200,000	0,022	0,138
-220,869	435,042	0,034	0,054
-219,855	119,976	-0,032	-0,029
-218,840	64,611	-0,030	0,022
-217,825	-200,000	0,008	0,127
-216,811	-70,196	-0,047	0,013
-215,796	451,019	-0,074	-0,118
-214,782	145,130	0,114	-0,110
-213,767	800,000	0,029	0,082
-212,752	518,157	0,055	0,093
-211,738	327,031	0,048	0,066
-210,723	-200,000	0,012	-0,040
-209,709	-101,468	-0,112	-0,019
-208,694	-200,000	0,029	0,117
-207,679	800,000	0,052	-0,125
-206,665	-200,000	0,002	0,055
-205,650	800,000	-0,053	0,146
-204,636	344,288	-0,075	0,106
-203,621	-200,000	0,022	-0,206
-202,606	160,191	0,062	0,062
-201,592	234,224	-0,028	0,034
-200,577	-47,595	0,065	0,023
-199,563	-43,847	0,081	-0,029
-198,548	-200,000	0,013	0,150
-197,533	-200,000	-0,025	0,112
-196,519	-18,820	0,048	-0,021
-195,504	-72,439	-0,112	0,030
-194,490	-44,607	0,134	0,048
-193,475	701,720	0,002	0,004
-192,460	-41,323	-0,048	0,018
-191,446	-112,444	-0,114	-0,016
-190,431	324,545	0,073	0,101
-189,417	601,566	0,034	0,062
-188,402	-29,226	-0,165	-0,068
-187,387	66,299	0,028	-0,020
-186,373	-200,000	0,020	0,128
-185,358	56,739	-0,022	0,015
-184,344	-200,000	-0,003	-0,070
-183,329	301,620	0,074	0,098
-182,315	138,554	0,062	-0,059
-181,300	-39,646	0,060	-0,023
-180,285	-200,000	0,029	-0,102
-179,271	-46,004	0,086	0,030
-178,256	-200,000	-0,032	-0,117
-177,242	151,205	0,094	0,092
-176,227	-116,019	0,156	-0,021
-175,212	-200,000	-0,002	0,092
-174,198	452,924	-0,024	0,038
-173,183	190,177	0,025	-0,027
-172,169	800,000	-0,028	0,079
-171,154	-93,763	0,039	-0,008
-170,139	-71,396	0,059	-0,016
-169,125	-124,156	0,144	0,016
-168,110	800,000	-0,051	0,119
-167,096	-11,988	0,045	-0,021
-166,081	-200,000	0,008	-0,090
-165,066	88,629	-0,068	0,055
-164,052	-178,081	0,046	0,001
-163,037	-200,000	-0,028	0,102
-162,023	-9,801	0,065	-0,031
-161,008	54,371	0,032	0,022
-159,993	62,077	0,094	0,068
-158,979	-186,174	0,025	-0,000
-157,964	13,726	-0,025	-0,014
-156,950	-200,000	-0,012	-0,058
-155,935	800,000	0,016	0,052
-154,920	132,771	0,086	0,080
-153,906	-200,000	0,003	0,134
-152,891	431,382	-0,019	-0,030
-151,877	-200,000	-0,023	-0,081
-150,862	191,828	-0,020	0,022
-149,847	-107,525	-0,103	0,016
-148,833	-33,965	0,097	-0,038
-147,818	103,111	0,094	0,079
-146,804	300,572	0,024	-0,032
-145,789	-54,108	0,024	-0,008
-144,775	-127,277	-0,172	-0,018
-143,760	-200,000	0,006	-0,171
-142,745	138,045	-0,083	0,078
-141,731	-71,164	-0,078	0,021
-140,716	-32,049	0,085	-0,034
-139,702	-200,000	0,011	0,094
-138,687	273,975	-0,050	0,064
-137,672	-42,273	0,016	0,006
-136,658	-200,000	0,057	-0,193
-135,643	104,202	-0,078	0,066
-134,629	-173,286	0,064	0,001
-133,614	-200,000	0,008	-0,030
-132,599	800,000	-0,021	0,066
-131,585	-200,000	-0,003	-0,102
-130,570	280,046	0,052	-0,067
-129,556	59,927	-0,028	-0,020
-128,541	351,687	-0,042	-0,060
-127,526	-74,474	0,105	-0,027
-126,512	800,000	0,049	0,109
-125,497	-1,460	-0,028	0,014
-124,483	-127,974	-0,055	-0,006
-123,468	-121,116	-0,081	0,010
-122,453	-152,902	-0,116	-0,006
-121,439	280,988	0,115	0,148
-120,424	10,932	0,123	-0,067
-119,410	-200,000	0,031	0,116
