DTS Sentinel unit serial number:	SN410029Multiplexer serial number:	ORYXHardware model number:	OX2-SRSoftware version number:	ORYX F/W v4,00 Oryx Data Collector v3.7.2.0data status	okinstallation	B6 Nyhavnadifferential loss correction	single-endedforward channel	channel 2reverse channel	N/Adate	2023/12/10time	05:15:08forward acquisition time	300,00reverse acquisition time	0,00gamma	499,1914k internal	0,3124k external	0,3124temperature offset calibration	1,0000default loss term (dB/km)	0,3820temperature slope calibration	1,0000multiplexer offset coefficient	1,0000multiplexer slope coefficient	1,0000fibre end	0,00T internal ref (°C)	22,37T ext. ref 1 (°C)	6,43T ext. ref 2 (°C)	6,40length (m)	temperature (°C)	Stokes	anti-Stokes-744,400	535,933	-0,036	-0,064
-743,385	-41,977	-0,114	0,043
-742,371	123,872	0,088	-0,083
-741,356	-63,695	-0,248	0,075
-740,342	-97,815	0,089	-0,017
-739,327	-16,971	-0,166	0,078
-738,312	800,000	-0,068	-0,161
-737,298	-127,959	-0,112	-0,012
-736,283	104,302	-0,044	0,039
-735,269	-47,867	-0,386	0,139
-734,254	800,000	0,087	-0,200
-733,239	-157,025	-0,398	0,018
-732,225	-94,331	0,107	-0,022
-731,210	185,354	0,086	0,095
-730,196	582,754	0,055	-0,100
-729,181	-200,000	0,020	-0,143
-728,167	-190,260	0,075	0,001
-727,152	-200,000	0,007	-0,037
-726,137	-42,454	-0,083	-0,031
-725,123	119,968	0,015	0,014
-724,108	-143,289	-0,170	0,012
-723,094	31,095	-0,156	0,099
-722,079	-200,000	-0,002	-0,218
-721,064	741,233	-0,032	-0,065
-720,050	-200,000	-0,035	-0,116
-719,035	-54,334	-0,093	-0,031
-718,021	800,000	0,055	-0,156
-717,006	-200,000	-0,038	-0,180
-715,991	223,509	-0,139	-0,167
-714,977	800,000	-0,031	-0,103
-713,962	-149,638	-0,113	-0,007
-712,948	-122,310	0,103	-0,012
-711,933	-200,000	0,035	-0,143
-710,918	109,656	-0,040	-0,036
-709,904	-78,101	-0,053	0,014
-708,889	-200,000	0,012	-0,120
-707,875	-200,000	0,001	-0,077
-706,860	334,284	-0,059	0,085
-705,845	719,836	-0,003	0,007
-704,831	-200,000	-0,005	0,180
-703,816	-200,000	-0,002	0,153
-702,802	-200,000	-0,023	-0,199
-701,787	800,000	-0,073	-0,223
-700,772	304,434	-0,073	-0,101
-699,758	-200,000	0,026	-0,126
-698,743	605,359	-0,085	0,158
-697,729	7,886	0,103	-0,057
-696,714	-133,181	0,089	0,008
-695,699	84,597	0,098	-0,079
-694,685	195,389	-0,116	-0,132
-693,670	-40,685	-0,133	-0,051
-692,656	-20,082	-0,084	0,038
-691,641	58,967	-0,032	-0,023
-690,627	34,332	0,085	0,055
-689,612	-46,148	-0,024	0,009
-688,597	-200,000	-0,033	0,172
-687,583	-200,000	-0,040	0,149
-686,568	-200,000	-0,007	0,037
-685,554	19,327	-0,028	-0,017
-684,539	-200,000	0,016	-0,143
-683,524	-200,000	-0,001	-0,031
-682,510	-54,189	0,114	-0,038
-681,495	146,180	0,139	-0,138
-680,481	-60,966	-0,170	-0,053
-679,466	800,000	-0,073	-0,157
-678,451	800,000	-0,059	-0,154
-677,437	-120,433	0,157	-0,020
-676,422	367,186	0,021	-0,032
-675,408	180,254	0,073	-0,079
-674,393	630,298	0,077	-0,146
-673,378	-200,000	-0,020	-0,116
-672,364	197,217	-0,048	-0,054
-671,349	-200,000	-0,156	-0,000
-670,335	-66,283	0,077	-0,022
-669,320	10,194	0,044	0,025
-668,305	-200,000	0,027	-0,185
-667,291	319,602	-0,045	0,063
-666,276	800,000	-0,024	0,067
-665,262	-44,754	-0,123	-0,045
-664,247	4,729	-0,079	0,043
-663,232	800,000	-0,048	-0,142
-662,218	494,377	0,036	-0,062
-661,203	-200,000	0,025	-0,101
-660,189	264,779	-0,025	-0,033
-659,174	-99,455	-0,114	0,021
-658,159	-31,317	-0,086	-0,036
-657,145	800,000	0,057	-0,155
-656,130	-62,324	-0,075	-0,023
-655,116	497,312	-0,023	-0,040
-654,101	6,699	-0,105	0,058
-653,086	459,093	0,057	-0,095
-652,072	-38,371	-0,074	-0,029
-651,057	-2,610	-0,114	-0,059
-650,043	-200,000	0,025	-0,123
-649,028	-46,667	-0,177	0,064
-648,014	-22,177	0,131	-0,059
-646,999	-8,595	0,145	0,072
-645,984	-200,000	-0,007	-0,041
-644,970	-129,017	0,071	-0,007
-643,955	70,378	-0,137	-0,105
-642,941	242,533	-0,093	-0,116
-641,926	800,000	0,025	0,056
-640,911	245,496	-0,050	-0,063
-639,897	208,329	0,048	-0,056
-638,882	19,735	-0,052	-0,031
-637,868	12,288	-0,154	0,088
-636,853	-57,010	-0,114	0,037
-635,838	800,000	-0,098	-0,208
-634,824	54,836	-0,063	-0,045
-633,809	30,287	0,006	0,004
-632,795	754,241	-0,032	-0,065
-631,780	-200,000	-0,009	0,062
-630,765	81,864	-0,045	0,036
-629,751	324,776	-0,044	0,062
-628,736	-200,000	-0,017	0,082
-627,722	-90,855	0,129	-0,027
-626,707	-200,000	-0,029	0,118
-625,692	79,689	-0,043	0,035
-624,678	-200,000	-0,013	0,075
-623,663	-104,366	0,109	-0,018
-622,649	68,123	-0,025	-0,019
-621,634	-127,699	0,153	0,016
-620,619	273,434	0,046	0,061
-619,605	-111,920	0,098	-0,015
-618,590	413,914	-0,055	0,088
-617,576	800,000	0,041	0,127
-616,561	-200,000	-0,008	0,076
-615,546	800,000	-0,037	-0,085
-614,532	211,023	-0,065	-0,076
-613,517	353,846	-0,043	-0,063
-612,503	-25,394	-0,151	-0,066
-611,488	117,149	0,139	-0,127
-610,474	148,938	-0,057	0,057
-609,459	227,399	-0,047	0,057
-608,444	-8,233	-0,079	-0,039
-607,430	-18,981	-0,133	0,061
-606,415	71,573	0,046	0,035
-605,401	223,653	0,064	-0,076
-604,386	-60,679	-0,119	-0,037
-603,371	-13,310	0,004	-0,002
-602,357	-160,202	0,020	-0,001
-601,342	800,000	-0,041	0,106
-600,328	-200,000	-0,006	-0,050
-599,313	73,285	0,042	-0,032
-598,298	-69,677	0,106	-0,030
-597,284	610,027	0,065	-0,121
-596,269	511,945	0,033	0,057
-595,255	297,515	-0,054	0,074
-594,240	145,502	-0,067	-0,066
-593,225	-200,000	0,005	-0,030
-592,211	51,086	0,071	-0,050
-591,196	-39,822	-0,100	-0,039
-590,182	124,868	0,068	0,064
-589,167	286,403	-0,032	-0,043
-588,152	-200,000	0,000	0,061
-587,138	112,994	0,016	0,015
-586,123	-200,000	-0,051	-0,177
-585,109	800,000	-0,042	-0,106
-584,094	278,355	-0,098	-0,130
-583,079	-200,000	0,006	-0,046
-582,065	-57,099	0,081	0,026
-581,050	265,687	-0,019	0,025
-580,036	185,392	0,083	0,092
-579,021	180,769	-0,036	-0,039
-578,006	-21,741	0,099	0,044
-576,992	-132,796	0,085	-0,008
-575,977	-200,000	0,016	-0,122
-574,963	-154,793	0,046	0,002
-573,948	5,649	0,162	-0,088
-572,934	22,679	0,092	0,056
-571,919	-92,070	-0,116	-0,024
-570,904	95,732	-0,061	-0,051
-569,890	227,285	-0,086	-0,104
-568,875	-30,530	0,169	-0,071
-567,861	-80,175	-0,084	0,021
-566,846	-200,000	0,007	0,047
-565,831	800,000	-0,022	0,055
-564,817	170,313	0,114	-0,120
-563,802	358,331	0,069	-0,102
-562,788	357,498	0,025	-0,037
-561,773	447,790	0,128	0,209
-560,758	-200,000	-0,023	0,111
-559,744	-112,090	-0,127	0,019
-558,729	-157,964	0,087	-0,004
-557,715	800,000	0,044	-0,113
-556,700	-200,000	-0,005	-0,091
-555,685	800,000	0,048	-0,119
-554,671	-133,827	0,060	0,005
-553,656	129,163	0,102	-0,096
-552,642	247,831	0,052	-0,065
-551,627	-114,661	-0,047	-0,007
-550,612	361,150	0,020	-0,030
-549,598	-200,000	0,025	-0,134
-548,583	451,019	-0,139	-0,227
-547,569	-5,034	-0,023	0,012
-546,554	215,030	0,010	-0,012
-545,539	-200,000	0,013	-0,135
-544,525	-200,000	-0,114	-0,000
-543,510	14,103	-0,023	-0,013
-542,496	751,355	-0,024	0,049
-541,481	-69,466	-0,061	-0,017
-540,466	800,000	0,017	0,039
-539,452	-200,000	-0,003	-0,063
-538,437	-200,000	0,008	0,033
-537,423	-47,092	-0,190	0,068
-536,408	-200,000	-0,010	0,155
-535,393	-85,589	-0,181	-0,041
-534,379	-200,000	-0,032	-0,169
-533,364	-200,000	-0,015	0,059
-532,350	-200,000	0,013	-0,126
-531,335	708,684	-0,053	0,104
-530,321	-200,000	-0,035	0,133
-529,306	506,890	-0,082	-0,141
-528,291	138,955	-0,036	-0,035
-527,277	-200,000	-0,022	0,106
-526,262	110,940	-0,059	0,052
-525,248	264,174	0,042	-0,054
-524,233	13,368	-0,171	0,098
-523,218	644,125	-0,029	-0,054
-522,204	-200,000	0,022	0,109
-521,189	47,367	-0,132	0,090
-520,175	-112,683	0,063	-0,009
-519,160	800,000	-0,048	0,131
-518,145	63,999	0,038	-0,028
-517,131	-200,000	-0,007	0,075
-516,116	-200,000	-0,015	0,092
-515,102	800,000	0,025	0,083
-514,087	-97,788	-0,207	0,039
-513,072	-25,643	-0,085	-0,037
-512,058	249,996	-0,032	-0,040
-511,043	-57,302	-0,067	-0,022
-510,029	-58,223	-0,114	0,036
-509,014	153,199	0,055	0,055
-507,999	52,142	0,173	0,121
-506,985	-63,585	0,014	-0,004
-505,970	-131,363	-0,033	0,003
-504,956	20,836	0,056	-0,034
-503,941	4,210	0,073	-0,039
-502,926	173,884	0,057	0,061
-501,912	-200,000	0,036	0,137
-500,897	620,950	-0,017	-0,032
-499,883	37,890	-0,131	-0,086
-498,868	-200,000	-0,005	-0,040
-497,853	723,068	0,018	-0,035
-496,839	800,000	0,012	-0,032
-495,824	4,822	0,098	0,053
-494,810	-134,003	0,101	0,009
-493,795	-53,364	0,035	-0,012
-492,781	-200,000	-0,001	-0,093
-491,766	1,318	-0,151	-0,080
-490,751	608,430	-0,023	-0,042
-489,737	14,606	0,122	-0,070
-488,722	51,363	-0,029	0,020
-487,708	88,906	0,087	0,071
-486,693	800,000	0,026	0,085
-485,678	-200,000	-0,013	0,114
-484,664	232,012	0,072	-0,087
-483,649	800,000	-0,035	-0,097
-482,635	267,174	0,056	0,073
-481,620	20,323	0,040	0,024
-480,605	34,879	-0,072	0,046
-479,591	-200,000	-0,005	0,024
-478,576	47,185	-0,059	0,041
-477,562	534,992	-0,032	0,056
-476,547	10,797	0,065	0,037
-475,532	-200,000	0,027	-0,145
-474,518	307,911	0,061	-0,084
-473,503	570,881	-0,018	0,033
-472,489	-48,560	0,085	-0,030
-471,474	-88,089	-0,072	0,016
-470,459	-120,844	0,101	0,012
-469,445	800,000	-0,116	-0,247
-468,430	29,565	-0,115	-0,072
-467,416	63,647	-0,073	-0,054
-466,401	150,241	0,047	-0,047
-465,386	-200,000	0,007	0,073
-464,372	-200,000	0,011	-0,066
-463,357	189,509	-0,126	0,139
-462,343	-136,671	0,070	0,006
-461,328	546,600	-0,009	0,016
-460,313	209,869	0,013	0,015
-459,299	800,000	-0,019	0,053
-458,284	107,711	0,087	0,076
-457,270	-200,000	0,041	0,196
-456,255	212,595	-0,079	-0,091
-455,241	146,915	0,007	0,007
-454,226	-200,000	-0,010	0,067
-453,211	214,045	-0,058	-0,068
-452,197	187,430	-0,019	-0,021
-451,182	-200,000	0,001	0,077
-450,168	-53,816	-0,071	-0,024
-449,153	44,403	-0,082	-0,055
-448,138	-88,771	-0,134	-0,029
-447,124	-200,000	-0,021	-0,080
-446,109	800,000	0,061	-0,148
-445,095	800,000	-0,041	-0,099
-444,080	-121,013	0,084	-0,010
-443,065	-117,527	-0,113	0,015
-442,051	51,853	0,049	-0,034
-441,036	110,353	-0,086	-0,076
-440,022	109,743	-0,031	-0,027
-439,007	17,648	0,037	-0,022
-437,992	800,000	0,037	0,076
-436,978	-200,000	-0,007	0,122
-435,963	800,000	-0,117	0,245
-434,949	275,666	-0,047	0,062
-433,934	-195,080	-0,190	0,001
-432,919	-200,000	-0,000	-0,045
-431,905	-14,743	0,093	-0,044
-430,890	-200,000	0,011	0,076
-429,876	-200,000	-0,004	-0,013
-428,861	223,916	-0,038	-0,045
-427,846	800,000	0,054	-0,128
-426,832	800,000	0,014	-0,033
-425,817	651,406	0,075	-0,141
-424,803	-14,379	-0,076	0,036
-423,788	-200,000	-0,030	-0,122
-422,773	-1,135	-0,040	0,021
-421,759	-200,000	0,028	0,090
-420,744	-200,000	0,029	0,165
-419,730	143,956	-0,085	-0,084
-418,715	800,000	-0,019	-0,039
-417,701	167,486	-0,085	-0,089
-416,686	-26,849	0,117	-0,050
-415,671	-200,000	-0,003	-0,043
-414,657	-124,015	0,083	0,009
-413,642	-200,000	-0,016	-0,052
-412,628	301,898	-0,063	0,085
-411,613	-200,000	-0,022	0,098
-410,598	245,113	0,013	-0,016
-409,584	-145,090	0,175	0,012
-408,569	56,320	0,134	0,096
-407,555	379,133	-0,109	0,165
-406,540	243,355	-0,060	0,074
-405,525	84,315	-0,036	0,029
-404,511	800,000	-0,028	-0,067
-403,496	800,000	-0,029	-0,079
-402,482	-114,259	-0,018	0,003
-401,467	182,218	-0,089	0,096
-400,452	171,486	0,043	0,045
-399,438	-14,878	-0,028	0,013
-398,423	53,456	0,067	-0,047
-397,409	10,657	0,031	-0,017
-396,394	-41,293	-0,085	0,032
-395,379	55,848	-0,127	0,090
-394,365	120,737	-0,079	0,072
-393,350	-109,517	0,167	-0,026
-392,336	-200,000	-0,037	0,178
-391,321	800,000	-0,032	0,090
-390,306	-59,750	-0,057	-0,018
-389,292	-34,842	-0,028	-0,011
-388,277	-46,048	-0,104	-0,037
-387,263	228,244	-0,056	0,067
-386,248	177,480	0,095	-0,102
-385,233	800,000	0,021	0,051
-384,219	-200,000	0,011	0,060
-383,204	-200,000	-0,018	-0,093
-382,190	-95,923	-0,073	0,014
-381,175	121,910	0,097	-0,089
-380,160	367,102	-0,042	0,063
-379,146	-200,000	0,006	0,035
-378,131	195,818	-0,096	0,108
-377,117	-84,900	-0,033	-0,008
-376,102	567,230	0,065	-0,116
-375,088	-51,421	-0,069	-0,024
-374,073	-200,000	-0,010	0,130
-373,058	-200,000	-0,025	0,164
-372,044	236,910	0,009	0,011
-371,029	800,000	0,031	-0,069
-370,015	800,000	0,066	-0,140
-369,000	-90,868	-0,067	0,014
-367,985	487,148	-0,008	0,014
-366,971	-123,151	0,067	0,008
-365,956	86,788	0,142	0,115
-364,942	-111,433	0,046	-0,007
-363,927	92,236	-0,054	0,045
-362,912	139,820	0,058	0,057
-361,898	-82,519	-0,068	-0,016
-360,883	39,468	-0,027	-0,018
-359,869	-200,000	0,009	0,121
-358,854	146,996	0,076	-0,075
-357,839	-200,000	-0,008	0,050
-356,825	-27,200	0,116	0,049
-355,810	128,282	-0,057	-0,053
-354,796	-5,538	-0,035	0,018
-353,781	-200,000	0,001	0,081
-352,766	-200,000	-0,017	-0,086
-351,752	-18,874	0,063	-0,029
-350,737	-30,212	0,076	0,031
-349,723	-13,325	0,114	0,054
-348,708	-35,345	0,096	0,038
-347,693	-170,249	0,065	-0,002
-346,679	-200,000	-0,013	0,107
-345,664	-200,000	0,007	-0,073
-344,650	-200,000	0,006	0,046
-343,635	-89,536	0,100	0,021
-342,620	492,465	0,016	-0,027
-341,606	63,405	-0,104	0,077
-340,591	-69,533	-0,186	-0,052
-339,577	349,422	0,058	-0,084
-338,562	-200,000	-0,017	-0,070
-337,548	-68,582	0,030	0,008
-336,533	-16,464	0,096	0,045
-335,518	-93,446	0,156	-0,031
-334,504	447,191	0,077	-0,125
-333,489	-200,000	0,025	0,099
-332,475	558,148	0,071	-0,125
-331,460	523,198	-0,089	0,155
-330,445	85,063	-0,074	0,060
-329,431	-119,165	0,161	-0,020
-328,416	-35,540	-0,045	0,018
-327,402	-200,000	0,016	-0,105
-326,387	65,129	0,086	0,063
-325,372	-200,000	0,005	0,016
-324,358	-170,618	-0,167	-0,004
-323,343	189,176	0,024	-0,026
-322,329	-43,493	-0,113	0,042
-321,314	65,736	-0,176	0,131
-320,299	206,640	0,110	0,125
-319,285	2,722	-0,047	-0,025
-318,270	800,000	-0,025	0,052
-317,256	-200,000	-0,003	-0,142
-316,241	-126,090	-0,066	-0,007
-315,226	800,000	0,014	0,036
-314,212	77,856	0,148	0,116
-313,197	91,439	-0,037	-0,030
-312,183	-200,000	-0,020	-0,080
-311,168	-200,000	0,018	-0,097
-310,153	670,286	0,006	0,012
-309,139	82,628	-0,101	0,080
-308,124	-127,313	0,062	0,007
-307,110	-79,788	0,089	0,022
-306,095	92,262	-0,068	-0,056
-305,080	174,622	-0,074	-0,079
-304,066	800,000	0,022	0,049
-303,051	-200,000	0,004	-0,055
-302,037	-179,417	-0,024	0,000
-301,022	59,625	-0,140	-0,101
-300,008	-156,425	-0,052	0,002
-298,993	114,429	0,082	-0,073
-297,978	182,091	0,018	-0,020
-296,964	-122,352	0,088	-0,010
-295,949	-183,838	-0,041	0,000
-294,935	800,000	-0,026	0,066
-293,920	228,907	-0,063	-0,075
-292,905	308,355	0,044	0,061
-291,891	321,181	0,072	-0,100
-290,876	565,997	-0,026	0,046
-289,862	530,927	0,028	-0,049
-288,847	766,505	-0,038	-0,076
-287,832	651,591	0,053	-0,101
-286,818	-123,327	0,049	-0,006
-285,803	-109,931	-0,099	0,015
-284,789	-200,000	0,002	0,053
-283,774	800,000	0,020	0,041
-282,759	-200,000	-0,014	0,059
-281,745	-200,000	-0,013	0,083
-280,730	-200,000	-0,016	-0,080
-279,716	68,931	0,070	0,052
-278,701	-26,859	0,029	-0,012
-277,686	800,000	-0,028	0,063
-276,672	-126,633	0,166	0,018
-275,657	-200,000	-0,010	0,053
-274,643	-3,168	-0,055	0,028
-273,628	-200,000	-0,002	-0,057
-272,613	586,875	0,080	0,144
-271,599	147,124	-0,103	-0,101
-270,584	-200,000	0,026	0,097
-269,570	97,573	0,131	0,110
-268,555	33,033	0,085	0,054
-267,540	65,165	-0,051	0,037
-266,526	570,563	0,012	0,021
-265,511	-154,333	-0,128	-0,006
-264,497	-146,770	0,082	-0,005
-263,482	-200,000	0,011	0,129
-262,467	-87,999	0,056	0,012
-261,453	-175,258	0,041	-0,001
-260,438	419,788	0,074	0,116
-259,424	-87,494	-0,059	-0,013
-258,409	66,027	-0,026	-0,020
-257,395	20,788	0,024	0,014
-256,380	-46,498	0,098	-0,035
-255,365	122,704	0,102	0,093
-254,351	-64,493	-0,123	0,036
-253,336	128,205	0,139	-0,129
-252,322	-135,888	-0,180	-0,015
-251,307	-131,360	0,199	0,019
-250,292	-102,776	-0,160	-0,028
-249,278	-87,976	0,086	-0,019
-248,263	149,020	-0,054	-0,053
-247,249	-71,425	0,157	0,043
-246,234	86,965	-0,043	0,035
-245,219	-121,017	0,114	0,014
-244,205	-63,663	0,078	-0,023
-243,190	-200,000	-0,011	-0,059
-242,176	800,000	-0,040	-0,105
-241,161	250,214	0,124	0,154
-240,146	800,000	-0,021	-0,051
-239,132	-57,915	-0,026	-0,008
-238,117	-110,752	0,071	-0,011
-237,103	800,000	-0,033	0,078
-236,088	386,648	0,068	-0,102
-235,073	-36,993	0,151	0,059
-234,059	-200,000	-0,043	0,143
-233,044	-3,130	-0,099	0,050
-232,030	-112,863	0,154	0,022
-231,015	31,180	0,181	0,113
-230,000	-19,173	-0,069	-0,031
-228,986	-113,030	-0,124	0,018
-227,971	164,069	0,020	0,020
-226,957	-200,000	-0,009	0,056
-225,942	800,000	0,022	-0,062
-224,927	-43,969	0,128	0,047
-223,913	310,654	-0,094	-0,129
-222,898	391,989	-0,008	0,012
-221,884	154,692	0,090	-0,090
-220,869	-109,525	0,115	-0,018
-219,855	240,569	-0,035	0,043
-218,840	295,375	0,027	0,036
-217,825	435,902	0,039	0,062
-216,811	644,188	-0,066	-0,124
-215,796	-39,264	-0,058	0,022
-214,782	-53,492	0,095	0,032
-213,767	-124,237	0,041	-0,005
-212,752	33,793	0,047	0,030
-211,738	227,127	-0,054	0,064
-210,723	169,661	-0,138	0,144
-209,709	800,000	-0,009	-0,023
-208,694	800,000	-0,039	0,095
-207,679	90,011	0,057	0,046
-206,665	169,729	0,055	-0,058
-205,650	-200,000	0,010	-0,054
-204,636	-200,000	-0,000	0,004
-203,621	-99,042	-0,118	-0,022
-202,606	-200,000	-0,003	-0,142
-201,592	705,994	-0,053	-0,103
-200,577	380,068	-0,046	-0,069
-199,563	-200,000	-0,007	-0,069
-198,548	451,318	0,066	0,107
-197,533	-200,000	0,017	-0,125
-196,519	42,340	0,035	-0,023
-195,504	-69,906	-0,112	-0,031
-194,490	69,160	-0,021	0,016
-193,475	-141,171	0,050	0,004
-192,460	800,000	0,057	-0,116
-191,446	-81,943	0,224	0,053
-190,431	-140,410	0,129	-0,010
-189,417	-75,022	0,099	0,026
-188,402	331,115	-0,052	-0,074
-187,387	-114,896	-0,110	-0,015
-186,373	110,567	-0,071	-0,062
-185,358	211,077	0,110	0,127
-184,344	48,087	-0,085	0,058
-183,329	800,000	0,034	0,071
-182,315	232,024	0,056	-0,067
-181,300	284,101	0,033	0,044
-180,285	293,665	-0,044	0,058
-179,271	-162,270	0,050	0,002
-178,256	800,000	-0,063	-0,145
-177,242	-75,095	0,151	-0,039
-176,227	-8,609	0,044	-0,021
-175,212	94,971	0,078	-0,064
-174,198	91,522	0,062	0,050
-173,183	207,471	-0,085	-0,096
-172,169	-103,266	-0,090	0,015
-171,154	-200,000	0,001	-0,129
-170,139	230,962	0,021	-0,025
-169,125	-200,000	-0,008	0,040
-168,110	409,067	-0,050	0,078
-167,096	25,002	-0,060	0,036
-166,081	126,087	0,075	0,069
-165,066	800,000	-0,025	0,063
-164,052	-13,455	0,134	-0,063
-163,037	800,000	0,030	-0,066
-162,023	275,588	0,043	0,056
-161,008	-17,006	0,029	-0,013
-159,993	-21,519	-0,089	0,039
-158,979	-91,180	-0,009	-0,002
-157,964	-200,000	-0,030	-0,125
-156,950	-200,000	0,020	-0,075
-155,935	390,267	0,003	-0,005
-154,920	160,604	-0,098	-0,100
-153,906	-200,000	-0,013	0,050
-152,891	-200,000	-0,011	0,104
-151,877	-200,000	-0,004	-0,069
-150,862	-147,346	-0,096	-0,006
-149,847	800,000	0,070	-0,155
-148,833	466,723	0,043	-0,070
-147,818	97,541	-0,092	-0,077
-146,804	431,870	0,070	0,111
-145,789	-21,671	0,140	-0,062
-144,775	-85,158	-0,184	0,042
-143,760	-89,494	-0,114	0,024
-142,745	-200,000	0,038	-0,155
-141,731	187,728	-0,028	0,030
-140,716	-113,337	-0,109	-0,015
-139,702	119,489	0,053	0,048
-138,687	-200,000	0,011	-0,064
-137,672	348,019	-0,009	0,014
-136,658	192,350	0,044	-0,048
-135,643	-200,000	-0,014	-0,142
-134,629	43,077	-0,076	-0,050
-133,614	-200,000	0,014	0,060
-132,599	572,083	0,026	-0,046
-131,585	-56,316	-0,059	-0,019
-130,570	-200,000	0,014	0,049
-129,556	-39,245	-0,184	-0,070
-128,541	-80,065	-0,136	0,033
-127,526	-200,000	-0,014	0,084
-126,512	141,545	0,061	0,059
-125,497	-94,159	0,095	0,019
-124,483	6,077	0,100	-0,054
-123,468	151,529	-0,042	0,042
-122,453	36,063	-0,191	-0,122
-121,439	-200,000	-0,034	-0,159
-120,424	-90,399	0,113	-0,024
