DTS Sentinel unit serial number:	SN410029Multiplexer serial number:	ORYXHardware model number:	OX2-SRSoftware version number:	ORYX F/W v4,00 Oryx Data Collector v3.7.2.0data status	okinstallation	B6 Nyhavnadifferential loss correction	single-endedforward channel	channel 2reverse channel	N/Adate	2023/12/08time	17:15:08forward acquisition time	300,00reverse acquisition time	0,00gamma	499,1914k internal	0,3159k external	0,3159temperature offset calibration	1,0000default loss term (dB/km)	0,3820temperature slope calibration	1,0000multiplexer offset coefficient	1,0000multiplexer slope coefficient	1,0000fibre end	0,00T internal ref (°C)	15,15T ext. ref 1 (°C)	-1,39T ext. ref 2 (°C)	-1,39length (m)	temperature (°C)	Stokes	anti-Stokes-744,400	31,223	0,056	-0,035
-743,385	24,095	-0,297	-0,180
-742,371	-84,483	0,160	0,037
-741,356	-106,876	-0,271	-0,044
-740,342	52,537	-0,033	0,023
-739,327	-185,181	-0,305	-0,003
-738,312	-121,862	0,169	-0,020
-737,298	-133,080	-0,297	-0,027
-736,283	-200,000	0,023	-0,202
-735,269	-26,688	-0,275	-0,118
-734,254	-107,040	0,044	-0,007
-733,239	-108,589	-0,390	-0,061
-732,225	-98,833	0,106	0,020
-731,210	269,814	0,050	0,065
-730,196	60,127	-0,065	-0,048
-729,181	-11,547	0,042	0,020
-728,167	178,642	-0,032	-0,035
-727,152	800,000	0,055	0,121
-726,137	-200,000	-0,015	0,126
-725,123	-200,000	-0,017	-0,127
-724,108	86,895	-0,128	0,104
-723,094	-11,836	0,178	-0,086
-722,079	334,083	-0,029	0,042
-721,064	36,940	0,061	-0,040
-720,050	185,185	-0,045	-0,049
-719,035	-200,000	-0,017	0,085
-718,021	800,000	-0,029	-0,090
-717,006	425,973	0,025	-0,040
-715,991	-98,356	-0,075	-0,014
-714,977	-45,162	-0,077	0,028
-713,962	-200,000	0,002	-0,146
-712,948	-200,000	0,034	-0,171
-711,933	-200,000	0,019	-0,093
-710,918	-200,000	0,003	0,129
-709,904	33,644	-0,073	0,047
-708,889	52,020	-0,193	-0,135
-707,875	-140,975	-0,183	-0,014
-706,860	800,000	-0,013	0,034
-705,845	-200,000	0,030	-0,131
-704,831	519,871	0,024	-0,042
-703,816	17,700	0,135	0,079
-702,802	-21,672	0,073	0,033
-701,787	-70,454	-0,064	-0,018
-700,772	96,270	0,112	0,094
-699,758	-200,000	-0,008	0,030
-698,743	-34,481	0,065	0,026
-697,729	-125,763	-0,106	0,012
-696,714	800,000	0,023	-0,069
-695,699	-149,149	-0,140	-0,008
-694,685	63,421	0,063	0,047
-693,670	46,693	-0,107	0,073
-692,656	-200,000	-0,034	0,183
-691,641	-18,507	-0,107	-0,049
-690,627	533,479	0,081	0,141
-689,612	800,000	-0,037	-0,079
-688,597	-200,000	-0,008	-0,125
-687,583	800,000	-0,058	-0,122
-686,568	-200,000	0,004	0,196
-685,554	277,213	-0,057	-0,074
-684,539	-200,000	0,025	0,106
-683,524	776,392	0,020	0,040
-682,510	280,775	-0,017	-0,022
-681,495	-111,750	-0,098	0,014
-680,481	-200,000	0,013	-0,100
-679,466	409,161	0,082	-0,128
-678,451	800,000	-0,037	-0,116
-677,437	36,153	0,097	-0,063
-676,422	800,000	0,038	-0,093
-675,408	44,052	0,058	0,039
-674,393	566,394	-0,024	0,043
-673,378	254,164	0,038	-0,047
-672,364	-200,000	-0,029	0,105
-671,349	-107,473	0,038	0,006
-670,335	-200,000	-0,018	0,128
-669,320	-200,000	-0,002	0,017
-668,305	90,156	-0,076	0,063
-667,291	-200,000	0,004	-0,111
-666,276	16,806	0,050	0,029
-665,262	-165,505	0,085	0,003
-664,247	-71,690	-0,101	0,027
-663,232	-200,000	0,011	0,059
-662,218	736,280	0,036	-0,072
-661,203	152,499	0,012	-0,012
-660,189	198,977	0,046	0,052
-659,174	109,721	-0,103	-0,091
-658,159	-12,884	-0,107	-0,051
-657,145	617,702	-0,056	-0,103
-656,130	-42,221	0,046	0,017
-655,116	-200,000	0,006	-0,031
-654,101	724,998	-0,025	0,050
-653,086	-3,255	-0,071	0,036
-652,072	107,234	-0,062	0,054
-651,057	-3,065	-0,081	-0,042
-650,043	-93,745	-0,066	-0,013
-649,028	-56,924	0,078	-0,025
-648,014	-47,237	-0,169	0,060
-646,999	-98,057	-0,053	-0,010
-645,984	25,795	0,040	0,024
-644,970	-31,980	-0,091	-0,037
-643,955	-15,618	-0,048	-0,022
-642,941	-167,205	-0,055	0,002
-641,926	-13,354	-0,131	0,062
-640,911	-120,795	-0,166	0,020
-639,897	800,000	0,045	0,100
-638,882	-200,000	-0,003	-0,029
-637,868	-77,395	-0,004	-0,001
-636,853	-30,747	0,095	-0,039
-635,838	800,000	-0,010	-0,024
-634,824	-154,098	-0,094	0,005
-633,809	-39,428	0,121	0,046
-632,795	-40,754	-0,081	-0,030
-631,780	800,000	-0,035	0,075
-630,765	165,086	0,157	0,163
-629,751	-59,229	-0,193	-0,061
-628,736	800,000	0,011	0,026
-627,722	-161,124	0,042	-0,002
-626,707	-112,047	0,022	0,003
-625,692	268,740	0,034	-0,044
-624,678	161,660	0,062	0,064
-623,663	-200,000	0,003	0,104
-622,649	89,165	-0,090	-0,073
-621,634	-130,384	-0,098	0,010
-620,619	-200,000	0,001	0,056
-619,605	-200,000	0,005	0,232
-618,590	800,000	-0,055	0,144
-617,576	-200,000	-0,012	0,091
-616,561	35,967	0,055	0,035
-615,546	-1,177	0,080	-0,041
-614,532	279,496	-0,091	-0,119
-613,517	441,004	0,006	-0,009
-612,503	458,601	-0,094	0,153
-611,488	267,039	-0,068	0,087
-610,474	-128,595	-0,033	0,003
-609,459	-200,000	-0,002	0,039
-608,444	-78,816	-0,089	-0,022
-607,430	-34,679	-0,037	-0,015
-606,415	800,000	0,062	0,126
-605,401	-146,991	-0,046	0,003
-604,386	-151,441	0,104	0,006
-603,371	686,539	-0,017	0,032
-602,357	-200,000	-0,021	-0,085
-601,342	-200,000	0,009	-0,104
-600,328	525,459	-0,045	-0,078
-599,313	-200,000	-0,004	-0,072
-598,298	680,934	-0,048	-0,091
-597,284	281,561	-0,090	-0,118
-596,269	-200,000	0,026	0,132
-595,255	-76,212	-0,039	-0,010
-594,240	150,052	-0,029	0,029
-593,225	800,000	-0,028	-0,064
-592,211	-36,513	-0,059	0,023
-591,196	-42,248	0,028	0,010
-590,182	340,643	0,015	0,022
-589,167	720,878	0,031	-0,061
-588,152	782,030	0,030	0,060
-587,138	25,356	-0,037	-0,022
-586,123	-200,000	-0,006	-0,073
-585,109	-200,000	-0,001	0,025
-584,094	-200,000	-0,016	0,107
-583,079	800,000	0,009	0,019
-582,065	-200,000	0,005	-0,074
-581,050	-200,000	-0,007	0,067
-580,036	-200,000	0,006	-0,053
-579,021	40,633	-0,076	-0,050
-578,006	142,289	-0,055	-0,053
-576,992	800,000	-0,031	-0,066
-575,977	-42,847	0,048	-0,018
-574,963	-200,000	-0,022	-0,074
-573,948	-200,000	-0,010	0,101
-572,934	14,054	0,078	-0,044
-571,919	-34,507	0,089	0,036
-570,904	-35,782	0,049	-0,019
-569,890	-161,897	0,078	-0,003
-568,875	249,425	-0,071	0,089
-567,861	-15,840	-0,027	-0,013
-566,846	72,921	-0,008	0,006
-565,831	-57,694	0,066	-0,021
-564,817	-32,002	-0,098	0,040
-563,802	-87,211	0,039	0,009
-562,788	-200,000	-0,022	0,078
-561,773	112,969	-0,074	0,066
-560,758	800,000	0,006	-0,016
-559,744	800,000	-0,029	-0,065
-558,729	28,667	-0,125	0,077
-557,715	-164,588	-0,125	0,004
-556,700	-200,000	-0,022	-0,201
-555,685	-119,652	-0,082	0,010
-554,671	66,236	-0,044	-0,032
-553,656	-108,075	0,103	-0,016
-552,642	-200,000	-0,012	0,158
-551,627	-63,116	-0,072	-0,022
-550,612	-200,000	-0,026	-0,110
-549,598	-19,441	0,088	0,040
-548,583	399,713	0,033	-0,050
-547,569	122,826	-0,089	-0,082
-546,554	-139,889	-0,069	0,005
-545,539	-200,000	0,006	0,024
-544,525	139,019	0,051	0,049
-543,510	184,360	-0,093	-0,101
-542,496	-200,000	-0,110	-0,000
-541,481	-200,000	0,004	0,078
-540,466	42,581	-0,043	0,029
-539,452	-200,000	-0,022	0,078
-538,437	129,628	0,051	0,048
-537,423	-89,548	0,086	0,018
-536,408	-200,000	0,000	-0,020
-535,393	-200,000	0,006	-0,049
-534,379	-128,937	0,116	-0,012
-533,364	-200,000	-0,010	0,137
-532,350	176,832	0,054	-0,057
-531,335	800,000	-0,048	0,099
-530,321	510,536	-0,025	0,043
-529,306	-101,929	-0,025	0,004
-528,291	135,152	-0,081	-0,077
-527,277	293,857	-0,112	0,150
-526,262	-95,958	0,112	0,022
-525,248	-200,000	-0,223	-0,000
-524,233	-174,287	0,143	0,003
-523,218	284,215	-0,014	-0,019
-522,204	532,710	-0,043	-0,074
-521,189	-10,547	-0,092	0,045
-520,175	518,471	0,092	-0,157
-519,160	-26,219	-0,073	-0,031
-518,145	-200,000	-0,010	-0,061
-517,131	151,960	0,104	0,103
-516,116	-131,343	-0,093	-0,009
-515,102	652,135	0,019	0,035
-514,087	192,799	-0,013	0,015
-513,072	-200,000	-0,026	0,100
-512,058	-200,000	0,001	0,006
-511,043	-3,648	-0,067	0,034
-510,029	-200,000	-0,018	0,087
-509,014	-200,000	0,045	0,191
-507,999	-26,658	0,068	-0,029
-506,985	140,477	0,049	0,047
-505,970	-6,827	0,055	-0,027
-504,956	-151,234	-0,109	-0,006
-503,941	-129,936	-0,099	-0,010
-502,926	-200,000	-0,023	-0,168
-501,912	800,000	-0,049	0,131
-500,897	78,579	-0,122	-0,095
-499,883	800,000	-0,002	-0,005
-498,868	-200,000	-0,028	-0,151
-497,853	527,382	-0,085	-0,147
-496,839	-17,782	-0,044	-0,020
-495,824	-200,000	-0,000	-0,082
-494,810	-13,719	0,041	-0,019
-493,795	206,640	0,038	-0,043
-492,781	51,822	0,035	0,024
-491,766	-200,000	0,012	-0,127
-490,751	595,439	0,018	-0,032
-489,737	-49,806	-0,139	-0,048
-488,722	16,058	-0,102	0,058
-487,708	141,357	0,057	-0,055
-486,693	352,455	0,027	0,039
-485,678	-200,000	0,015	0,137
-484,664	-200,000	-0,009	0,049
-483,649	-118,862	0,138	-0,018
-482,635	234,972	-0,048	0,058
-481,620	-200,000	-0,026	-0,115
-480,605	-8,921	0,043	-0,021
-479,591	303,085	-0,029	-0,040
-478,576	-41,329	-0,162	-0,060
-477,562	254,051	-0,063	0,078
-476,547	20,073	-0,070	-0,041
-475,532	-200,000	0,007	-0,059
-474,518	-22,514	0,135	0,059
-473,503	-66,748	0,081	0,023
-472,489	-67,912	0,081	-0,023
-471,474	147,760	-0,086	0,085
-470,459	800,000	-0,023	-0,055
-469,445	800,000	-0,063	-0,187
-468,430	-200,000	0,004	-0,070
-467,416	-46,438	0,110	-0,039
-466,401	800,000	0,026	0,057
-465,386	164,717	-0,055	-0,056
-464,372	-95,253	-0,032	-0,006
-463,357	-26,687	0,137	-0,058
-462,343	93,412	-0,040	0,033
-461,328	450,235	0,039	-0,062
-460,313	-123,019	0,037	-0,004
-459,299	800,000	0,005	0,014
-458,284	-200,000	0,058	0,201
-457,270	-200,000	-0,006	-0,098
-456,255	180,885	0,127	-0,136
-455,241	109,370	0,039	0,034
-454,226	63,001	-0,106	-0,077
-453,211	800,000	-0,013	-0,031
-452,197	75,942	0,067	-0,052
-451,182	-200,000	0,023	0,080
-450,168	-200,000	0,053	-0,183
-449,153	386,887	0,031	0,047
-448,138	-200,000	0,018	-0,121
-447,124	29,530	-0,087	0,054
-446,109	182,913	0,098	-0,105
-445,095	800,000	-0,043	-0,095
-444,080	11,714	0,118	0,066
-443,065	10,496	-0,128	0,071
-442,051	97,809	0,082	-0,069
-441,036	470,023	-0,062	0,101
-440,022	-200,000	-0,022	-0,144
-439,007	212,918	-0,015	0,017
-437,992	-200,000	0,010	-0,070
-436,978	-200,000	-0,004	0,013
-435,963	357,088	-0,037	-0,054
-434,949	800,000	0,020	0,051
-433,934	-79,721	-0,112	0,027
-432,919	99,197	-0,048	-0,040
-431,905	800,000	-0,034	0,085
-430,890	-200,000	0,001	0,017
-429,876	391,507	0,071	0,108
-428,861	-172,868	-0,046	0,001
-427,846	-42,476	0,112	0,041
-426,832	800,000	-0,018	-0,044
-425,817	53,193	-0,036	-0,025
-424,803	8,390	0,136	-0,074
-423,788	276,737	-0,102	-0,132
-422,773	214,486	0,048	0,055
-421,759	1,850	0,025	0,013
-420,744	800,000	0,027	-0,074
-419,730	136,490	-0,051	0,048
-418,715	-200,000	0,003	-0,120
-417,701	800,000	0,021	0,057
-416,686	800,000	0,057	0,168
-415,671	-40,945	0,062	0,023
-414,657	-200,000	-0,007	-0,051
-413,642	159,628	0,094	0,096
-412,628	-166,449	-0,067	0,002
-411,613	-36,003	0,122	0,048
-410,598	-97,213	0,053	0,010
-409,584	-19,386	-0,053	0,024
-408,569	-200,000	0,020	-0,069
-407,555	65,307	-0,056	0,041
-406,540	798,948	-0,048	0,097
-405,525	800,000	-0,054	-0,148
-404,511	88,484	0,105	-0,085
-403,496	-132,286	-0,155	-0,014
-402,482	60,163	0,017	0,012
-401,467	-200,000	0,015	-0,111
-400,452	-200,000	-0,004	-0,107
-399,438	-200,000	0,006	-0,033
-398,423	638,634	0,086	-0,160
-397,409	153,984	0,075	-0,075
-396,394	121,747	0,049	0,044
-395,379	56,558	0,111	0,079
-394,365	-58,646	0,118	0,037
-393,350	-200,000	-0,001	0,146
-392,336	-99,751	0,115	0,021
-391,321	800,000	0,030	-0,087
-390,306	408,401	-0,076	-0,117
-389,292	-200,000	-0,017	-0,116
-388,277	109,598	0,015	-0,013
-387,263	800,000	-0,016	-0,047
-386,248	-200,000	-0,007	-0,057
-385,233	-172,139	0,091	-0,002
-384,219	-48,376	-0,039	-0,013
-383,204	57,725	-0,057	-0,040
-382,190	-73,778	-0,118	0,031
-381,175	-51,869	0,112	-0,038
-380,160	-156,312	-0,078	0,004
-379,146	-76,089	0,269	0,068
-378,131	-200,000	-0,011	0,050
-377,117	-167,684	0,129	0,004
-376,102	800,000	-0,031	-0,065
-375,088	78,688	-0,110	0,086
-374,073	-0,942	0,123	-0,063
-373,058	120,523	0,126	0,114
-372,044	800,000	-0,039	0,103
-371,029	509,912	0,064	-0,108
-370,015	336,599	-0,051	0,072
-369,000	71,566	-0,062	0,046
-367,985	409,987	0,032	-0,049
-366,971	156,071	0,048	0,049
-365,956	800,000	-0,061	0,191
-364,942	343,228	0,057	0,082
-363,927	-37,717	-0,050	-0,019
-362,912	-148,604	-0,077	0,005
-361,898	-200,000	-0,004	-0,056
-360,883	42,250	-0,067	0,044
-359,869	50,081	0,088	-0,060
-358,854	800,000	-0,052	-0,115
-357,839	800,000	-0,021	0,065
-356,825	-163,356	-0,072	0,002
-355,810	-200,000	0,001	0,047
-354,796	64,775	0,128	0,094
-353,781	-25,359	-0,059	-0,025
-352,766	-200,000	-0,039	-0,165
-351,752	141,462	0,059	0,056
-350,737	354,951	0,085	0,123
-349,723	63,130	-0,039	-0,029
-348,708	800,000	-0,058	-0,125
-347,693	753,231	0,052	-0,102
-346,679	73,133	-0,092	-0,070
-345,664	800,000	0,063	-0,136
-344,650	52,406	-0,090	-0,062
-343,635	-64,728	-0,087	0,026
-342,620	91,594	0,088	-0,072
-341,606	96,275	-0,117	0,097
-340,591	532,435	-0,043	0,074
-339,577	-200,000	-0,018	0,138
-338,562	-200,000	-0,004	0,055
-337,548	51,118	0,073	0,050
-336,533	800,000	-0,056	0,127
-335,518	717,873	-0,025	0,048
-334,504	800,000	0,033	-0,083
-333,489	332,715	-0,095	0,134
-332,475	656,934	0,070	-0,132
-331,460	646,862	-0,039	-0,073
-330,445	-200,000	0,035	-0,178
-329,431	-60,055	0,098	0,030
-328,416	58,355	-0,107	0,076
-327,402	45,818	0,112	0,075
-326,387	-200,000	-0,030	-0,141
-325,372	-200,000	0,004	-0,029
-324,358	42,681	0,105	0,069
-323,343	665,543	-0,057	-0,107
-322,329	37,282	0,062	0,040
-321,314	73,639	-0,073	0,056
-320,299	-150,079	-0,009	0,001
-319,285	712,255	0,022	0,042
-318,270	305,917	-0,060	-0,082
-317,256	-200,000	-0,016	-0,120
-316,241	26,179	0,043	0,026
-315,226	-200,000	-0,002	0,065
-314,212	89,437	0,028	0,022
-313,197	800,000	0,041	0,119
-312,183	800,000	-0,018	0,048
-311,168	-200,000	-0,020	0,111
-310,153	95,767	-0,032	0,027
-309,139	154,486	0,096	-0,096
-308,124	-88,230	-0,030	0,006
-307,110	-73,590	0,178	0,047
-306,095	-85,194	0,036	-0,008
-305,080	-200,000	-0,005	0,101
-304,066	800,000	-0,034	0,073
-303,051	122,158	-0,040	-0,036
-302,037	800,000	-0,015	-0,040
-301,022	6,134	0,089	-0,048
-300,008	800,000	-0,047	0,140
-298,993	800,000	0,037	0,076
-297,978	-106,271	-0,032	-0,005
-296,964	-56,945	-0,139	0,044
-295,949	-200,000	-0,006	-0,027
-294,935	-78,994	-0,007	-0,002
-293,920	133,861	0,061	0,057
-292,905	-200,000	0,035	0,112
-291,891	-108,883	0,209	0,032
-290,876	800,000	-0,028	-0,087
-289,862	-23,070	-0,117	0,051
-288,847	-200,000	-0,014	-0,083
-287,832	24,784	0,020	0,012
-286,818	-123,532	0,130	0,015
-285,803	372,469	0,015	0,022
-284,789	800,000	0,050	-0,102
-283,774	215,910	0,033	0,039
-282,759	800,000	0,019	0,045
-281,745	-200,000	0,004	-0,062
-280,730	-98,738	0,029	0,005
-279,716	173,055	-0,012	-0,013
-278,701	-145,963	-0,044	-0,003
-277,686	-119,120	0,144	0,018
-276,672	19,823	-0,034	-0,020
-275,657	-25,026	-0,102	-0,044
-274,643	800,000	0,010	0,025
-273,628	79,836	-0,117	0,091
-272,613	422,079	-0,041	-0,064
-271,599	-200,000	0,003	-0,045
-270,584	800,000	0,023	0,064
-269,570	7,503	0,072	-0,039
-268,555	-200,000	0,002	0,008
-267,540	-4,445	-0,022	0,011
-266,526	28,834	0,079	0,048
-265,511	301,776	-0,123	0,165
-264,497	145,335	-0,087	-0,084
-263,482	-164,799	0,114	0,004
-262,467	741,260	-0,052	0,101
-261,453	800,000	-0,049	-0,102
-260,438	-33,333	0,067	-0,027
-259,424	117,051	-0,053	-0,047
-258,409	573,113	0,034	0,059
-257,395	-1,999	0,129	0,065
-256,380	-114,634	0,098	-0,013
-255,365	703,629	-0,038	0,072
-254,351	-87,976	0,100	0,022
-253,336	34,063	0,149	-0,094
-252,322	800,000	0,018	0,055
-251,307	800,000	-0,019	-0,052
-250,292	-0,326	0,029	0,015
-249,278	-28,534	0,205	0,085
-248,263	-57,551	-0,075	-0,024
-247,249	800,000	-0,028	0,059
-246,234	82,482	0,034	-0,027
-245,219	100,225	-0,050	0,042
-244,205	91,984	-0,117	0,095
-243,190	-200,000	-0,008	-0,060
-242,176	80,677	0,055	-0,043
-241,161	227,817	-0,067	-0,079
-240,146	573,581	0,024	-0,042
-239,132	800,000	-0,051	-0,157
-238,117	-11,536	-0,149	-0,071
-237,103	378,308	-0,067	-0,099
-236,088	800,000	0,049	-0,108
-235,073	2,522	0,094	0,049
-234,059	315,454	0,077	0,105
-233,044	-151,298	0,112	0,006
-232,030	268,626	-0,070	0,089
-231,015	466,962	0,044	-0,072
-230,000	-200,000	-0,003	-0,062
-228,986	-200,000	0,011	-0,040
-227,971	800,000	0,042	0,098
-226,957	-68,160	0,094	-0,026
-225,942	334,003	-0,043	0,060
-224,927	-200,000	0,007	-0,039
-223,913	800,000	-0,033	0,069
-222,898	-23,804	-0,180	0,078
-221,884	661,843	0,056	-0,104
-220,869	43,496	-0,034	0,022
-219,855	-9,766	-0,040	-0,019
-218,840	-69,367	-0,125	0,034
-217,825	800,000	0,030	0,066
-216,811	29,939	0,098	-0,060
-215,796	-200,000	-0,015	-0,206
-214,782	283,859	-0,031	0,040
-213,767	-124,163	0,080	-0,009
-212,752	-25,518	0,061	-0,026
-211,738	-121,745	0,031	-0,004
-210,723	212,676	0,041	0,046
-209,709	-200,000	0,013	0,072
-208,694	800,000	0,016	-0,044
-207,679	-200,000	0,011	0,058
-206,665	-200,000	0,007	0,046
-205,650	172,563	0,071	0,074
-204,636	310,299	-0,085	0,115
-203,621	98,080	0,054	-0,045
-202,606	-200,000	-0,011	-0,063
-201,592	-33,365	0,017	-0,007
-200,577	463,496	0,050	-0,080
-199,563	800,000	-0,021	-0,047
-198,548	57,913	-0,047	0,033
-197,533	49,185	0,086	0,058
-196,519	143,422	0,046	-0,044
-195,504	258,171	0,030	-0,038
-194,490	-6,752	-0,014	-0,007
-193,475	435,441	-0,063	-0,099
-192,460	800,000	-0,026	-0,052
-191,446	-61,089	0,028	0,008
-190,431	800,000	-0,055	0,140
-189,417	-43,844	0,228	0,082
-188,402	115,462	-0,080	0,070
-187,387	-200,000	-0,002	0,086
-186,373	-200,000	0,125	-0,000
-185,358	-200,000	0,021	0,086
-184,344	-143,068	0,136	-0,009
-183,329	174,645	-0,036	0,038
-182,315	94,750	-0,075	0,061
-181,300	-200,000	0,029	0,168
-180,285	-200,000	0,036	-0,160
-179,271	-100,162	-0,148	-0,026
-178,256	-200,000	-0,008	0,067
-177,242	33,339	0,125	0,078
-176,227	111,993	0,062	0,054
-175,212	-104,027	-0,092	0,015
-174,198	-200,000	-0,016	-0,099
-173,183	-52,388	-0,111	-0,037
-172,169	-200,000	-0,015	-0,115
-171,154	-200,000	-0,018	-0,106
-170,139	-200,000	-0,003	0,080
-169,125	-118,381	0,064	-0,008
-168,110	411,825	0,087	-0,134
-167,096	408,463	0,043	-0,066
-166,081	-51,595	-0,116	0,039
-165,066	61,614	-0,058	0,042
-164,052	-200,000	0,034	-0,144
-163,037	800,000	-0,039	-0,090
-162,023	236,760	0,039	0,046
-161,008	-81,703	0,077	-0,018
-159,993	295,079	0,013	-0,018
-158,979	311,495	0,056	0,076
-157,964	505,519	0,028	-0,048
-156,950	1,442	-0,127	-0,065
-155,935	-27,177	0,075	0,031
-154,920	7,616	0,044	0,024
-153,906	445,263	-0,073	0,117
-152,891	-106,634	0,088	-0,014
-151,877	28,397	-0,065	-0,040
-150,862	548,291	0,004	0,007
-149,847	800,000	-0,056	-0,157
-148,833	389,333	-0,079	0,118
-147,818	-200,000	-0,032	0,107
-146,804	-86,520	-0,087	-0,019
-145,789	152,949	-0,109	-0,108
-144,775	604,559	-0,030	-0,054
-143,760	-200,000	-0,009	0,071
-142,745	-200,000	-0,021	-0,224
-141,731	528,491	0,049	-0,084
-140,716	144,378	0,056	0,054
-139,702	369,610	-0,085	0,125
-138,687	-77,684	0,051	-0,013
-137,672	800,000	0,025	0,068
-136,658	31,881	-0,085	0,053
-135,643	451,365	0,045	0,071
-134,629	-200,000	-0,004	-0,030
-133,614	186,196	0,098	0,105
-132,599	346,902	-0,071	0,100
-131,585	173,391	0,044	0,046
-130,570	123,990	-0,056	-0,051
-129,556	-53,276	0,100	0,033
-128,541	-200,000	-0,014	-0,050
-127,526	-53,056	0,051	0,017
-126,512	-200,000	0,028	0,163
-125,497	588,870	-0,036	0,064
-124,483	-200,000	-0,020	0,098
-123,468	-144,840	0,047	-0,003
-122,453	-4,759	-0,025	-0,012
-121,439	121,241	0,059	0,053
-120,424	-200,000	0,006	0,067
-119,410	-42,280	0,170	-0,062
