DTS Sentinel unit serial number:	SN410029Multiplexer serial number:	ORYXHardware model number:	OX2-SRSoftware version number:	ORYX F/W v4,00 Oryx Data Collector v3.7.2.0data status	okinstallation	B6 Nyhavnadifferential loss correction	single-endedforward channel	channel 2reverse channel	N/Adate	2023/12/10time	19:05:08forward acquisition time	300,00reverse acquisition time	0,00gamma	499,1914k internal	0,3123k external	0,3123temperature offset calibration	1,0000default loss term (dB/km)	0,3820temperature slope calibration	1,0000multiplexer offset coefficient	1,0000multiplexer slope coefficient	1,0000fibre end	0,00T internal ref (°C)	22,32T ext. ref 1 (°C)	6,00T ext. ref 2 (°C)	6,02length (m)	temperature (°C)	Stokes	anti-Stokes-744,400	-159,015	0,097	0,004
-743,385	28,881	-0,306	0,193
-742,371	503,889	-0,054	0,094
-741,356	-106,709	-0,323	0,053
-740,342	-200,000	0,001	0,009
-739,327	-41,462	-0,175	0,067
-738,312	305,375	-0,082	-0,114
-737,298	-83,896	-0,183	0,043
-736,283	-200,000	0,001	-0,024
-735,269	288,690	-0,111	0,151
-734,254	270,851	0,044	-0,058
-733,239	-145,482	-0,473	-0,031
-732,225	32,617	0,065	0,042
-731,210	-145,578	0,103	0,007
-730,196	-65,516	-0,048	-0,014
-729,181	46,693	-0,093	-0,064
-728,167	-152,254	0,143	0,008
-727,152	475,760	0,072	0,122
-726,137	206,463	0,040	0,047
-725,123	100,646	-0,062	-0,054
-724,108	-2,814	-0,031	0,016
-723,094	176,936	-0,135	-0,147
-722,079	-200,000	-0,045	-0,221
-721,064	-20,302	-0,133	0,061
-720,050	563,447	-0,038	0,069
-719,035	40,547	-0,099	-0,067
-718,021	-200,000	-0,014	0,054
-717,006	0,769	-0,208	0,110
-715,991	24,011	-0,065	-0,040
-714,977	-73,405	-0,236	-0,064
-713,962	203,131	-0,053	0,061
-712,948	-128,162	-0,091	-0,010
-711,933	38,441	-0,021	-0,014
-710,918	557,295	-0,025	0,046
-709,904	70,975	-0,093	0,072
-708,889	54,458	-0,140	-0,101
-707,875	800,000	-0,034	-0,099
-706,860	518,727	-0,057	0,100
-705,845	26,323	0,096	-0,060
-704,831	800,000	0,043	0,112
-703,816	-200,000	0,026	0,088
-702,802	89,812	0,080	0,066
-701,787	-101,842	0,050	0,009
-700,772	800,000	-0,003	-0,006
-699,758	551,795	-0,014	0,025
-698,743	329,525	0,093	0,133
-697,729	-43,392	-0,048	-0,018
-696,714	60,634	-0,040	0,029
-695,699	349,923	-0,050	-0,074
-694,685	93,985	-0,066	-0,056
-693,670	46,208	0,090	-0,062
-692,656	131,715	-0,060	-0,058
-691,641	7,880	0,188	-0,104
-690,627	-33,724	-0,099	-0,041
-689,612	-86,984	0,034	0,008
-688,597	-59,703	-0,141	0,045
-687,583	-140,108	-0,115	0,009
-686,568	-200,000	-0,041	-0,157
-685,554	437,412	0,033	-0,054
-684,539	-65,430	0,151	0,045
-683,524	-200,000	0,024	0,105
-682,510	-200,000	-0,033	0,184
-681,495	-200,000	-0,012	0,085
-680,481	-99,230	0,064	0,012
-679,466	800,000	-0,053	-0,117
-678,451	-200,000	-0,010	0,079
-677,437	180,948	0,025	0,027
-676,422	-112,121	0,054	0,008
-675,408	99,152	0,091	0,079
-674,393	-137,533	0,080	-0,007
-673,378	255,237	0,009	-0,012
-672,364	101,485	0,037	0,032
-671,349	34,609	-0,111	-0,072
-670,335	800,000	0,043	0,116
-669,320	-113,354	0,141	0,020
-668,305	-105,766	-0,198	-0,033
-667,291	800,000	0,029	0,070
-666,276	-111,412	-0,089	-0,013
-665,262	452,031	-0,088	-0,145
-664,247	-135,045	-0,115	0,010
-663,232	800,000	0,018	-0,039
-662,218	-200,000	0,007	0,103
-661,203	-200,000	-0,008	-0,079
-660,189	-113,706	0,023	0,003
-659,174	-4,289	-0,065	0,033
-658,159	-27,300	-0,086	-0,037
-657,145	112,983	-0,132	-0,119
-656,130	69,362	-0,082	-0,062
-655,116	800,000	-0,012	0,033
-654,101	800,000	0,029	-0,080
-653,086	124,756	0,067	-0,062
-652,072	587,922	-0,031	-0,056
-651,057	313,519	-0,128	-0,179
-650,043	-94,381	-0,095	0,019
-649,028	800,000	0,003	-0,007
-648,014	-75,639	-0,035	-0,009
-646,999	390,076	-0,004	-0,006
-645,984	-167,703	-0,064	0,002
-644,970	105,432	-0,093	-0,082
-643,955	-200,000	-0,011	-0,102
-642,941	-92,404	-0,228	-0,047
-641,926	128,089	0,140	0,132
-640,911	513,938	-0,019	-0,032
-639,897	-200,000	0,011	0,069
-638,882	-200,000	-0,020	0,066
-637,868	-151,774	0,139	0,007
-636,853	93,107	-0,030	0,025
-635,838	614,390	-0,096	-0,179
-634,824	97,849	0,048	0,041
-633,809	26,369	0,075	0,046
-632,795	-200,000	-0,001	0,084
-631,780	-156,174	-0,063	0,003
-630,765	-29,191	-0,082	0,035
-629,751	-200,000	0,054	-0,206
-628,736	-114,541	-0,074	-0,010
-627,722	77,605	-0,080	-0,063
-626,707	-200,000	0,031	0,163
-625,692	759,743	0,059	0,119
-624,678	-200,000	-0,021	-0,116
-623,663	-200,000	-0,007	0,027
-622,649	-94,854	-0,103	-0,020
-621,634	-200,000	0,038	-0,143
-620,619	-57,569	0,036	0,012
-619,605	232,258	0,030	0,037
-618,590	800,000	-0,046	0,108
-617,576	800,000	0,051	-0,115
-616,561	-200,000	0,010	-0,050
-615,546	-200,000	0,002	-0,095
-614,532	564,825	-0,046	0,084
-613,517	-200,000	-0,013	-0,074
-612,503	42,918	0,054	0,036
-611,488	-50,207	-0,150	-0,052
-610,474	-123,628	0,127	0,015
-609,459	-84,453	-0,085	-0,020
-608,444	-98,355	-0,071	-0,013
-607,430	800,000	-0,029	-0,086
-606,415	-200,000	0,014	-0,080
-605,401	221,460	0,032	-0,038
-604,386	27,137	-0,091	-0,057
-603,371	356,818	0,049	0,072
-602,357	-81,834	0,026	0,006
-601,342	-106,520	-0,094	0,015
-600,328	-200,000	0,019	-0,080
-599,313	555,965	-0,034	-0,060
-598,298	609,148	-0,061	0,113
-597,284	-200,000	-0,011	0,049
-596,269	-45,384	0,179	-0,065
-595,255	162,508	0,034	-0,035
-594,240	800,000	0,063	-0,164
-593,225	800,000	-0,010	0,033
-592,211	750,730	-0,015	0,031
-591,196	-200,000	-0,015	-0,073
-590,182	170,147	0,048	-0,051
-589,167	68,203	0,040	0,031
-588,152	296,066	0,050	-0,068
-587,138	140,574	-0,076	0,074
-586,123	756,783	-0,065	-0,130
-585,109	-20,996	-0,158	-0,071
-584,094	107,218	-0,122	-0,107
-583,079	70,082	0,108	0,083
-582,065	209,456	-0,118	0,137
-581,050	-103,615	-0,050	-0,009
-580,036	-200,000	0,010	-0,070
-579,021	3,846	0,031	-0,017
-578,006	84,878	-0,018	-0,015
-576,992	222,380	-0,065	0,078
-575,977	749,762	-0,077	0,155
-574,963	800,000	-0,005	-0,011
-573,948	731,797	-0,032	-0,065
-572,934	-200,000	0,003	0,115
-571,919	394,981	0,035	-0,054
-570,904	258,411	0,038	0,048
-569,890	-131,392	-0,024	0,002
-568,875	203,833	0,025	-0,029
-567,861	8,731	0,033	-0,018
-566,846	-200,000	0,016	0,125
-565,831	800,000	0,035	-0,107
-564,817	-48,570	0,046	0,016
-563,802	-96,320	-0,084	-0,016
-562,788	-58,611	0,061	-0,020
-561,773	-39,214	0,099	0,038
-560,758	-200,000	0,008	0,157
-559,744	128,728	0,112	0,106
-558,729	-200,000	-0,002	-0,090
-557,715	401,562	0,043	-0,066
-556,700	71,095	-0,078	0,060
-555,685	800,000	0,010	0,026
-554,671	-10,919	0,105	0,051
-553,656	-61,760	0,094	0,029
-552,642	-4,220	0,014	-0,007
-551,627	-107,359	-0,074	-0,012
-550,612	225,108	-0,011	0,013
-549,598	696,308	-0,034	-0,066
-548,583	87,355	-0,083	-0,068
-547,569	214,116	0,082	-0,096
-546,554	-200,000	0,030	-0,104
-545,539	-200,000	0,007	0,148
-544,525	199,283	0,070	-0,079
-543,510	-200,000	0,045	0,159
-542,496	-147,057	-0,068	-0,004
-541,481	800,000	-0,025	0,054
-540,466	-59,119	0,135	0,043
-539,452	-106,443	0,096	-0,016
-538,437	463,619	0,051	0,084
-537,423	-200,000	0,004	0,097
-536,408	800,000	-0,015	-0,033
-535,393	152,698	-0,188	-0,190
-534,379	-59,912	0,014	0,004
-533,364	-32,115	0,052	-0,021
-532,350	-166,853	0,062	0,002
-531,335	58,951	0,027	-0,019
-530,321	800,000	0,027	-0,056
-529,306	800,000	0,051	-0,115
-528,291	-200,000	-0,029	0,102
-527,277	287,455	-0,054	-0,072
-526,262	15,694	-0,056	-0,033
-525,248	-6,602	-0,039	-0,020
-524,233	28,257	0,095	0,059
-523,218	-200,000	-0,024	0,156
-522,204	-200,000	-0,002	-0,062
-521,189	37,196	-0,093	-0,061
-520,175	-200,000	-0,020	-0,107
-519,160	0,160	0,100	-0,053
-518,145	320,709	0,066	0,092
-517,131	-134,568	0,057	0,005
-516,116	800,000	0,040	0,103
-515,102	-200,000	-0,033	0,152
-514,087	800,000	-0,058	-0,141
-513,072	49,091	-0,113	0,078
-512,058	-162,534	0,163	0,006
-511,043	-161,391	-0,103	-0,004
-510,029	800,000	0,033	0,070
-509,014	-33,220	-0,090	-0,036
-507,999	-164,659	0,069	-0,002
-506,985	785,655	-0,032	0,064
-505,970	37,163	-0,118	0,077
-504,956	454,969	0,063	-0,104
-503,941	800,000	-0,031	-0,095
-502,926	226,299	-0,037	-0,045
-501,912	-200,000	0,001	0,064
-500,897	-200,000	0,013	-0,055
-499,883	-72,443	-0,128	0,035
-498,868	-63,837	0,084	0,025
-497,853	219,691	0,043	0,051
-496,839	-82,877	-0,113	0,027
-495,824	91,276	0,013	-0,011
-494,810	-128,751	0,158	0,016
-493,795	277,007	0,076	0,100
-492,781	28,992	-0,103	0,064
-491,766	168,876	0,032	-0,033
-490,751	-94,172	-0,089	-0,018
-489,737	-200,000	0,009	0,033
-488,722	800,000	-0,026	0,063
-487,708	800,000	0,028	-0,067
-486,693	301,507	-0,031	0,042
-485,678	800,000	0,042	-0,113
-484,664	800,000	0,053	-0,151
-483,649	-42,307	-0,116	-0,043
-482,635	268,604	-0,041	-0,053
-481,620	617,133	0,068	-0,126
-480,605	133,629	-0,077	0,074
-479,591	-50,547	0,090	0,031
-478,576	-141,818	0,113	0,008
-477,562	-200,000	-0,039	-0,167
-476,547	149,760	0,034	-0,034
-475,532	151,821	0,029	-0,029
-474,518	-77,276	-0,090	-0,023
-473,503	-53,134	0,088	0,030
-472,489	800,000	-0,038	0,115
-471,474	-159,595	0,137	0,006
-470,459	-200,000	-0,007	-0,058
-469,445	-36,083	-0,046	0,018
-468,430	110,176	0,045	-0,040
-467,416	115,688	-0,047	0,042
-466,401	-200,000	-0,005	-0,058
-465,386	65,798	-0,097	0,072
-464,372	800,000	0,034	0,088
-463,357	192,911	-0,064	0,071
-462,343	-200,000	0,002	-0,102
-461,328	378,924	0,046	-0,070
-460,313	-200,000	-0,008	0,036
-459,299	-197,238	0,071	-0,000
-458,284	77,066	-0,037	0,029
-457,270	-73,797	0,030	-0,008
-456,255	-38,330	0,131	-0,051
-455,241	800,000	-0,036	0,086
-454,226	22,104	-0,109	0,066
-453,211	183,780	0,093	0,101
-452,197	-62,259	0,080	0,025
-451,182	301,236	0,049	0,067
-450,168	-200,000	0,005	0,118
-449,153	75,291	0,047	-0,036
-448,138	-99,683	-0,089	0,016
-447,124	800,000	-0,024	0,066
-446,109	68,438	-0,023	-0,017
-445,095	-147,881	0,048	0,003
-444,080	-131,630	-0,178	0,017
-443,065	-200,000	0,027	-0,131
-442,051	800,000	-0,035	0,108
-441,036	78,751	-0,050	-0,039
-440,022	800,000	0,044	-0,107
-439,007	-60,706	-0,118	0,037
-437,992	-77,091	0,123	-0,031
-436,978	800,000	-0,045	-0,125
-435,963	224,321	0,090	-0,107
-434,949	207,514	-0,030	-0,035
-433,934	-57,322	-0,059	0,019
-432,919	22,069	0,137	0,082
-431,905	-85,693	0,078	0,018
-430,890	-200,000	-0,007	0,102
-429,876	107,699	-0,068	0,059
-428,861	-10,137	0,040	0,019
-427,846	-200,000	0,012	0,110
-426,832	-147,679	-0,105	0,006
-425,817	478,114	-0,026	0,044
-424,803	74,108	0,011	-0,009
-423,788	-200,000	-0,016	-0,057
-422,773	-47,539	0,178	0,063
-421,759	296,837	-0,047	0,064
-420,744	-20,990	-0,147	0,066
-419,730	412,100	-0,107	0,168
-418,715	-126,822	-0,036	-0,004
-417,701	800,000	0,019	0,042
-416,686	-85,775	-0,053	-0,012
-415,671	-200,000	0,032	0,111
-414,657	150,277	0,101	0,101
-413,642	344,426	0,066	0,095
-412,628	-200,000	-0,003	0,013
-411,613	-200,000	-0,011	-0,061
-410,598	43,828	0,109	0,073
-409,584	138,650	0,110	-0,106
-408,569	-162,123	0,235	0,009
-407,555	-200,000	-0,017	0,109
-406,540	-70,570	0,086	0,024
-405,525	205,214	0,008	0,009
-404,511	459,051	-0,048	-0,078
-403,496	-200,000	-0,013	0,084
-402,482	220,572	-0,050	0,059
-401,467	38,176	-0,141	-0,092
-400,452	-200,000	-0,013	0,050
-399,438	-78,992	-0,084	-0,021
-398,423	-200,000	-0,006	0,054
-397,409	252,942	-0,068	0,086
-396,394	397,931	-0,043	-0,067
-395,379	230,184	0,040	0,049
-394,365	248,578	0,026	-0,032
-393,350	136,076	0,005	-0,005
-392,336	-109,956	-0,089	0,014
-391,321	-64,878	0,021	0,006
-390,306	800,000	0,018	0,041
-389,292	-200,000	0,020	-0,082
-388,277	514,525	-0,042	-0,073
-387,263	72,978	0,085	0,065
-386,248	167,104	-0,056	0,059
-385,233	-56,555	0,061	0,020
-384,219	-35,167	-0,144	-0,058
-383,204	800,000	-0,057	-0,121
-382,190	-200,000	-0,013	-0,270
-381,175	229,175	0,036	-0,043
-380,160	-43,755	0,099	-0,036
-379,146	800,000	-0,011	-0,036
-378,131	-200,000	-0,005	-0,057
-377,117	-200,000	0,021	0,119
-376,102	321,625	-0,013	0,019
-375,088	-200,000	-0,006	-0,039
-374,073	-7,263	-0,040	0,020
-373,058	22,909	0,133	-0,080
-372,044	22,687	0,103	-0,062
-371,029	121,684	-0,199	0,182
-370,015	-200,000	0,010	0,060
-369,000	197,094	-0,097	-0,108
-367,985	-61,310	-0,073	-0,022
-366,971	-57,219	0,136	-0,044
-365,956	536,204	0,043	-0,075
-364,942	-200,000	-0,002	0,133
-363,927	-26,651	-0,092	-0,039
-362,912	-5,816	0,125	0,063
-361,898	266,428	0,039	0,050
-360,883	427,902	-0,027	0,044
-359,869	-56,094	0,059	0,019
-358,854	-200,000	0,026	-0,086
-357,839	800,000	0,017	-0,055
-356,825	-200,000	-0,022	-0,079
-355,810	-87,863	0,030	-0,007
-354,796	34,628	-0,081	0,052
-353,781	-6,871	-0,096	0,048
-352,766	-64,999	-0,117	0,034
-351,752	164,508	-0,105	-0,109
-350,737	-57,956	-0,017	0,005
-349,723	-200,000	-0,040	0,158
-348,708	36,268	-0,119	0,077
-347,693	156,034	-0,044	-0,045
-346,679	-23,089	-0,040	0,018
-345,664	202,461	0,053	0,061
-344,650	800,000	-0,012	-0,029
-343,635	-87,258	-0,093	0,021
-342,620	-152,075	0,174	-0,009
-341,606	-76,579	0,008	-0,002
-340,591	-200,000	-0,001	0,016
-339,577	800,000	-0,043	0,123
-338,562	455,544	0,006	-0,010
-337,548	-116,826	0,069	-0,009
-336,533	38,665	0,095	-0,062
-335,518	67,828	-0,093	0,070
-334,504	-54,836	-0,122	-0,040
-333,489	-200,000	0,010	0,137
-332,475	-200,000	-0,013	-0,116
-331,460	800,000	-0,011	-0,022
-330,445	800,000	-0,046	-0,121
-329,431	43,720	-0,046	-0,031
-328,416	-128,842	-0,095	-0,010
-327,402	-33,969	0,029	-0,012
-326,387	-175,012	-0,158	0,003
-325,372	-105,540	0,088	-0,015
-324,358	-200,000	0,013	-0,058
-323,343	353,475	0,051	-0,075
-322,329	-97,155	-0,003	0,001
-321,314	37,412	-0,096	-0,062
-320,299	-46,998	0,022	-0,008
-319,285	355,296	-0,053	0,077
-318,270	-86,339	-0,056	0,013
-317,256	800,000	0,050	-0,120
-316,241	-200,000	0,034	-0,155
-315,226	354,221	0,047	0,068
-314,212	122,577	0,082	0,076
-313,197	-200,000	0,001	-0,059
-312,183	-200,000	0,008	-0,027
-311,168	-200,000	0,017	-0,061
-310,153	800,000	0,056	-0,119
-309,139	-139,078	0,051	0,004
-308,124	-200,000	-0,001	0,107
-307,110	-200,000	-0,033	-0,156
-306,095	-104,569	0,014	0,002
-305,080	-147,801	0,041	0,002
-304,066	109,879	0,114	0,100
-303,051	-56,746	-0,086	-0,028
-302,037	-200,000	0,027	0,131
-301,022	800,000	-0,047	0,135
-300,008	-36,088	0,114	0,045
-298,993	800,000	0,071	0,171
-297,978	800,000	0,012	0,036
-296,964	-200,000	-0,022	0,073
-295,949	-22,170	-0,065	0,029
-294,935	-200,000	0,018	0,062
-293,920	43,216	0,127	0,085
-292,905	-200,000	0,017	0,075
-291,891	67,992	0,019	0,014
-290,876	725,840	-0,035	-0,069
-289,862	153,184	0,122	-0,123
-288,847	-200,000	0,008	-0,033
-287,832	-44,531	0,107	0,039
-286,818	-173,066	-0,039	0,001
-285,803	800,000	0,030	-0,081
-284,789	8,646	0,132	0,072
-283,774	80,909	0,193	0,152
-282,759	309,544	0,031	0,042
-281,745	162,163	0,017	-0,017
-280,730	800,000	-0,024	0,074
-279,716	800,000	0,022	-0,051
-278,701	-200,000	-0,013	-0,089
-277,686	131,368	0,079	0,075
-276,672	416,808	0,057	0,090
-275,657	341,227	-0,028	-0,041
-274,643	21,618	-0,061	0,036
-273,628	346,256	0,043	0,061
-272,613	800,000	-0,025	-0,053
-271,599	-92,080	-0,040	0,008
-270,584	-10,831	0,049	0,023
-269,570	88,287	-0,148	0,120
-268,555	-200,000	0,007	-0,056
-267,540	-200,000	-0,009	0,048
-266,526	-127,243	0,046	-0,005
-265,511	614,148	-0,076	-0,140
-264,497	-38,755	-0,110	0,042
-263,482	645,600	0,066	0,123
-262,467	-34,230	-0,049	-0,020
-261,453	234,570	0,062	0,075
-260,438	74,582	-0,085	0,065
-259,424	745,910	0,038	-0,076
-258,409	83,854	0,156	-0,124
-257,395	208,413	0,039	0,045
-256,380	555,168	-0,053	0,094
-255,365	800,000	0,041	0,102
-254,351	-31,225	-0,069	-0,028
-253,336	-103,534	-0,137	0,023
-252,322	241,552	-0,048	-0,059
-251,307	76,639	-0,095	0,073
-250,292	-200,000	-0,005	-0,113
-249,278	-98,804	0,108	-0,020
-248,263	-200,000	-0,019	0,121
-247,249	-200,000	-0,047	-0,162
-246,234	502,447	0,060	-0,102
-245,219	565,438	0,059	-0,105
-244,205	-128,904	-0,103	-0,010
-243,190	74,367	-0,068	-0,052
-242,176	-86,561	0,036	-0,008
-241,161	800,000	0,017	0,038
-240,146	-151,798	-0,053	0,003
-239,132	254,782	-0,101	-0,126
-238,117	-37,469	-0,039	-0,015
-237,103	653,271	0,064	-0,120
-236,088	-48,131	0,010	0,003
-235,073	246,661	0,077	0,095
-234,059	-24,136	0,099	0,043
-233,044	-154,793	-0,045	-0,002
-232,030	29,439	-0,051	-0,032
-231,015	-111,306	0,093	-0,014
-230,000	-200,000	-0,043	-0,139
-228,986	250,861	0,006	0,007
-227,971	289,084	0,052	0,069
-226,957	-200,000	-0,007	0,114
-225,942	-17,055	0,044	-0,020
-224,927	-16,854	-0,101	0,047
-223,913	-139,180	-0,208	-0,016
-222,898	-0,594	-0,049	-0,025
-221,884	174,670	0,070	-0,074
-220,869	48,028	0,193	-0,131
-219,855	-200,000	-0,002	0,021
-218,840	800,000	0,033	0,102
-217,825	-61,839	-0,048	0,015
-216,811	154,180	-0,135	-0,136
-215,796	165,775	-0,026	-0,027
-214,782	-68,176	-0,180	-0,051
-213,767	-200,000	-0,014	-0,069
-212,752	-200,000	0,035	-0,187
-211,738	-116,985	0,052	-0,007
-210,723	471,223	-0,061	0,101
-209,709	800,000	-0,021	-0,047
-208,694	-200,000	-0,005	-0,125
-207,679	-200,000	-0,008	0,037
-206,665	-51,622	0,157	0,053
-205,650	-48,788	0,093	0,032
-204,636	-34,117	-0,058	-0,023
-203,621	-12,264	0,103	0,049
-202,606	-200,000	0,006	0,073
-201,592	1,378	-0,071	-0,037
-200,577	-123,742	0,124	-0,014
-199,563	139,339	0,020	-0,019
-198,548	-82,249	0,064	0,015
-197,533	-25,215	-0,152	0,065
-196,519	-200,000	0,002	0,072
-195,504	800,000	-0,088	-0,190
-194,490	300,081	0,042	-0,057
-193,475	-38,753	-0,074	-0,028
-192,460	-200,000	-0,026	-0,108
-191,446	-23,129	0,047	0,021
-190,431	-29,839	0,032	-0,013
-189,417	229,187	-0,032	-0,038
-188,402	240,179	0,091	-0,111
-187,387	800,000	-0,039	-0,085
-186,373	-173,529	0,097	0,002
-185,358	-200,000	-0,002	0,039
-184,344	568,472	0,051	0,092
-183,329	-200,000	-0,044	0,193
-182,315	-52,855	0,052	0,017
-181,300	-200,000	0,003	0,039
-180,285	191,804	0,051	0,056
-179,271	389,089	0,018	0,027
-178,256	-200,000	-0,001	0,016
-177,242	-95,105	-0,025	0,005
-176,227	-200,000	-0,022	0,109
-175,212	401,839	-0,019	0,029
-174,198	101,506	-0,084	-0,071
-173,183	135,576	-0,052	0,050
-172,169	-200,000	0,023	-0,141
-171,154	67,522	-0,123	-0,091
-170,139	229,630	-0,045	0,054
-169,125	-200,000	0,032	0,162
-168,110	517,287	-0,014	0,024
-167,096	163,406	0,083	-0,085
-166,081	-70,745	0,058	-0,016
-165,066	800,000	0,055	-0,127
-164,052	178,804	0,065	-0,070
-163,037	591,605	0,043	0,077
-162,023	278,862	0,119	0,156
-161,008	-200,000	0,000	0,281
-159,993	497,056	-0,052	0,088
-158,979	-2,670	0,058	-0,029
-157,964	-200,000	-0,016	-0,080
-156,950	-200,000	-0,018	0,000
-155,935	800,000	-0,096	-0,220
-154,920	705,385	0,047	-0,090
-153,906	-79,131	0,044	-0,011
-152,891	-96,215	-0,058	-0,011
-151,877	-200,000	-0,035	-0,118
-150,862	-142,980	0,017	-0,001
-149,847	499,254	0,016	-0,027
-148,833	496,842	-0,053	-0,090
-147,818	649,349	0,019	0,036
-146,804	271,817	-0,071	0,091
-145,789	-27,353	0,169	0,071
-144,775	387,906	-0,024	-0,036
-143,760	-109,330	-0,155	0,024
-142,745	39,417	0,124	0,081
-141,731	-72,507	-0,083	-0,022
-140,716	558,327	-0,022	-0,038
-139,702	497,695	-0,088	0,148
-138,687	42,014	-0,033	-0,021
-137,672	349,656	-0,014	0,020
-136,658	104,976	-0,062	-0,053
-135,643	-53,184	-0,062	0,021
-134,629	-93,550	0,060	-0,012
-133,614	800,000	-0,053	-0,124
-132,599	-200,000	0,016	-0,073
-131,585	800,000	0,058	0,120
-130,570	-200,000	0,010	-0,083
-129,556	-74,709	-0,108	-0,028
-128,541	112,012	0,041	-0,036
-127,526	-64,724	0,069	-0,020
-126,512	-92,636	0,044	-0,009
-125,497	55,633	-0,085	0,060
-124,483	-200,000	0,011	0,100
-123,468	800,000	-0,024	-0,075
-122,453	800,000	-0,017	-0,036
-121,439	-200,000	0,028	0,091
-120,424	-132,301	-0,022	0,002
-119,410	442,390	0,016	0,026
