DTS Sentinel unit serial number:	SN410029Multiplexer serial number:	ORYXHardware model number:	OX2-SRSoftware version number:	ORYX F/W v4,00 Oryx Data Collector v3.7.2.0data status	okinstallation	B6 Nyhavnadifferential loss correction	single-endedforward channel	channel 2reverse channel	N/Adate	2023/12/08time	15:05:08forward acquisition time	300,00reverse acquisition time	0,00gamma	499,1914k internal	0,3159k external	0,3159temperature offset calibration	1,0000default loss term (dB/km)	0,3820temperature slope calibration	1,0000multiplexer offset coefficient	1,0000multiplexer slope coefficient	1,0000fibre end	0,00T internal ref (°C)	15,06T ext. ref 1 (°C)	-1,47T ext. ref 2 (°C)	-1,45length (m)	temperature (°C)	Stokes	anti-Stokes-744,400	-200,000	-0,033	0,139
-743,385	-144,348	-0,192	-0,013
-742,371	-112,214	0,261	0,038
-741,356	-29,481	-0,346	0,145
-740,342	-19,407	0,034	-0,015
-739,327	-135,689	-0,460	0,040
-738,312	381,597	0,023	0,035
-737,298	-105,851	-0,209	0,034
-736,283	494,938	0,034	0,058
-735,269	-11,823	-0,231	0,111
-734,254	-169,058	0,102	-0,003
-733,239	69,749	-0,536	-0,406
-732,225	-14,219	0,259	0,123
-731,210	20,032	0,073	0,043
-730,196	-200,000	-0,012	-0,127
-729,181	-195,164	-0,166	-0,001
-728,167	-47,145	-0,143	0,051
-727,152	473,221	-0,058	-0,096
-726,137	169,624	-0,036	-0,038
-725,123	-33,421	-0,147	-0,060
-724,108	119,418	-0,096	-0,087
-723,094	155,914	-0,137	-0,140
-722,079	118,899	0,008	-0,007
-721,064	-38,933	-0,050	0,019
-720,050	-127,595	-0,106	0,011
-719,035	41,749	-0,098	-0,065
-718,021	-52,314	0,041	0,014
-717,006	-28,878	0,082	-0,035
-715,991	-200,000	0,017	-0,160
-714,977	-200,000	-0,022	-0,112
-713,962	532,114	0,041	-0,072
-712,948	163,728	0,038	0,039
-711,933	-200,000	-0,008	-0,094
-710,918	33,246	-0,043	-0,028
-709,904	-200,000	-0,006	-0,034
-708,889	-200,000	0,015	0,072
-707,875	-62,015	0,093	-0,028
-706,860	-200,000	-0,033	-0,113
-705,845	751,547	0,023	-0,046
-704,831	-6,552	-0,073	-0,036
-703,816	-200,000	-0,020	0,118
-702,802	-200,000	0,003	-0,023
-701,787	102,792	0,033	-0,029
-700,772	800,000	0,021	0,051
-699,758	207,210	0,060	-0,068
-698,743	166,492	0,079	0,082
-697,729	103,851	-0,067	0,058
-696,714	206,860	0,010	-0,011
-695,699	12,308	0,075	0,043
-694,685	81,879	0,054	0,043
-693,670	-200,000	0,006	-0,065
-692,656	310,966	-0,041	-0,057
-691,641	-41,403	0,125	-0,047
-690,627	46,701	0,072	0,049
-689,612	43,223	-0,096	-0,064
-688,597	-60,303	0,087	0,027
-687,583	-200,000	0,005	-0,041
-686,568	5,791	-0,087	-0,047
-685,554	176,808	-0,155	-0,166
-684,539	-200,000	0,007	0,113
-683,524	54,417	0,072	0,051
-682,510	-200,000	0,005	0,018
-681,495	789,536	-0,047	-0,095
-680,481	285,358	-0,093	-0,123
-679,466	41,821	0,071	0,048
-678,451	-133,969	-0,058	-0,005
-677,437	265,108	0,038	0,049
-676,422	-66,492	-0,051	0,015
-675,408	-200,000	-0,008	-0,046
-674,393	-83,007	0,034	-0,008
-673,378	22,377	-0,009	-0,005
-672,364	266,673	-0,038	-0,049
-671,349	-200,000	0,014	0,057
-670,335	86,490	0,036	-0,029
-669,320	-200,000	0,011	-0,090
-668,305	42,339	0,174	0,116
-667,291	726,279	-0,036	-0,070
-666,276	-200,000	0,013	-0,065
-665,262	329,233	-0,008	-0,012
-664,247	383,234	-0,056	0,085
-663,232	-125,363	-0,077	-0,008
-662,218	-27,590	0,145	-0,062
-661,203	-200,000	0,020	0,142
-660,189	163,580	0,102	-0,106
-659,174	51,801	-0,193	-0,135
-658,159	240,098	-0,136	-0,167
-657,145	800,000	0,045	-0,111
-656,130	-200,000	-0,015	-0,129
-655,116	-143,145	0,115	0,008
-654,101	-43,091	-0,019	0,007
-653,086	-56,260	-0,121	-0,039
-652,072	249,520	-0,046	0,057
-651,057	800,000	0,114	-0,292
-650,043	-200,000	0,020	-0,149
-649,028	-54,811	-0,080	-0,026
-648,014	-100,517	0,100	0,018
-646,999	-7,065	0,033	0,016
-645,984	800,000	-0,032	0,069
-644,970	302,795	0,033	-0,045
-643,955	23,603	-0,092	-0,055
-642,941	-23,907	-0,055	-0,024
-641,926	-175,819	-0,055	0,001
-640,911	-200,000	0,008	-0,081
-639,897	39,973	-0,026	0,017
-638,882	-200,000	0,019	0,067
-637,868	-200,000	0,037	0,147
-636,853	-15,234	-0,064	-0,030
-635,838	-200,000	-0,011	-0,078
-634,824	756,214	-0,005	0,009
-633,809	-107,916	0,131	0,021
-632,795	372,129	-0,059	-0,088
-631,780	-200,000	0,001	-0,067
-630,765	800,000	0,039	-0,096
-629,751	800,000	-0,014	0,038
-628,736	122,938	0,064	0,059
-627,722	-135,631	-0,039	-0,003
-626,707	66,692	0,051	0,038
-625,692	800,000	-0,044	0,093
-624,678	348,213	-0,041	0,059
-623,663	800,000	-0,038	0,099
-622,649	-48,553	0,056	0,020
-621,634	-200,000	0,007	0,152
-620,619	48,023	-0,127	0,087
-619,605	57,737	0,111	0,080
-618,590	800,000	-0,024	-0,077
-617,576	-82,750	0,126	-0,030
-616,561	-200,000	-0,001	-0,009
-615,546	-200,000	0,004	-0,083
-614,532	-200,000	0,004	-0,068
-613,517	-200,000	0,017	-0,098
-612,503	193,204	-0,093	-0,103
-611,488	70,327	0,078	-0,059
-610,474	150,213	0,139	-0,139
-609,459	-200,000	-0,033	0,122
-608,444	-19,045	-0,113	0,051
-607,430	337,943	-0,035	0,050
-606,415	-126,928	0,040	0,004
-605,401	-200,000	-0,003	0,026
-604,386	-200,000	-0,011	0,049
-603,371	-139,860	0,135	-0,010
-602,357	-200,000	-0,040	-0,192
-601,342	200,190	-0,029	-0,033
-600,328	304,252	-0,017	-0,023
-599,313	-200,000	-0,002	-0,034
-598,298	-75,792	0,079	0,020
-597,284	357,730	0,034	0,050
-596,269	800,000	0,023	-0,064
-595,255	528,010	-0,054	-0,094
-594,240	-200,000	-0,001	0,007
-593,225	-105,273	0,086	-0,014
-592,211	2,041	0,061	-0,032
-591,196	137,439	-0,071	-0,068
-590,182	-200,000	0,026	-0,126
-589,167	92,152	0,037	-0,030
-588,152	-97,859	0,069	-0,013
-587,138	-49,647	-0,063	0,022
-586,123	-1,451	-0,086	-0,045
-585,109	-200,000	-0,022	-0,233
-584,094	-58,439	0,043	0,014
-583,079	-132,599	-0,048	-0,004
-582,065	-200,000	0,021	0,142
-581,050	-123,737	-0,105	-0,012
-580,036	185,654	0,051	0,056
-579,021	-125,754	-0,012	0,001
-578,006	-100,331	0,037	-0,007
-576,992	45,689	0,043	0,029
-575,977	-200,000	-0,003	-0,059
-574,963	108,827	0,048	0,042
-573,948	-200,000	-0,008	0,056
-572,934	800,000	-0,034	0,079
-571,919	-21,823	-0,086	0,038
-570,904	-123,783	0,130	0,015
-569,890	-76,813	0,043	-0,011
-568,875	-72,400	-0,040	0,011
-567,861	-136,663	-0,113	0,009
-566,846	-200,000	0,002	0,100
-565,831	493,718	0,055	-0,093
-564,817	800,000	-0,051	0,143
-563,802	-70,909	-0,042	-0,011
-562,788	34,664	0,086	-0,055
-561,773	119,699	-0,053	-0,048
-560,758	0,459	0,180	-0,094
-559,744	43,801	0,137	-0,091
-558,729	347,698	-0,058	-0,083
-557,715	-51,694	-0,055	0,019
-556,700	100,110	0,071	-0,061
-555,685	800,000	-0,036	-0,103
-554,671	187,105	-0,020	-0,022
-553,656	747,859	0,032	0,064
-552,642	-200,000	0,005	0,034
-551,627	-100,558	-0,088	-0,016
-550,612	109,488	-0,084	-0,074
-549,598	-16,195	-0,128	-0,059
-548,583	-74,494	-0,122	0,032
-547,569	-97,286	-0,060	-0,011
-546,554	79,063	-0,085	-0,066
-545,539	233,435	0,076	0,092
-544,525	394,675	0,056	0,085
-543,510	41,724	-0,043	0,028
-542,496	-200,000	0,025	-0,211
-541,481	-55,357	-0,084	-0,027
-540,466	502,902	0,026	0,045
-539,452	-200,000	0,025	-0,102
-538,437	116,849	0,104	-0,093
-537,423	-19,922	0,011	-0,005
-536,408	373,218	0,006	0,009
-535,393	-200,000	0,021	-0,082
-534,379	-200,000	-0,011	0,067
-533,364	-200,000	0,012	-0,052
-532,350	667,416	0,028	0,052
-531,335	-200,000	0,039	0,166
-530,321	169,498	0,052	-0,054
-529,306	-84,467	-0,109	-0,025
-528,291	501,744	-0,008	-0,013
-527,277	-200,000	0,010	-0,053
-526,262	-200,000	0,001	-0,005
-525,248	-83,885	0,108	0,025
-524,233	-200,000	0,028	-0,127
-523,218	-40,805	0,068	0,026
-522,204	-200,000	0,036	-0,125
-521,189	-106,138	0,094	-0,015
-520,175	800,000	0,019	-0,038
-519,160	550,764	0,055	0,097
-518,145	-60,845	0,052	0,016
-517,131	-124,126	0,166	0,019
-516,116	-95,120	-0,106	-0,021
-515,102	-92,096	-0,086	0,018
-514,087	-35,639	0,068	0,027
-513,072	-109,802	-0,113	0,017
-512,058	800,000	-0,039	-0,104
-511,043	-110,953	0,192	0,028
-510,029	385,886	-0,022	0,034
-509,014	27,713	0,073	-0,045
-507,999	-85,226	0,130	0,029
-506,985	-96,093	-0,072	-0,014
-505,970	627,892	-0,032	-0,058
-504,956	-45,989	-0,187	-0,067
-503,941	8,399	0,050	-0,027
-502,926	-59,969	0,120	0,037
-501,912	-200,000	-0,000	-0,001
-500,897	-200,000	0,010	0,054
-499,883	-6,896	-0,025	-0,012
-498,868	125,243	-0,104	-0,096
-497,853	-69,267	-0,139	0,039
-496,839	-76,294	-0,098	-0,025
-495,824	-97,076	-0,032	-0,006
-494,810	-130,628	0,108	-0,011
-493,795	48,039	-0,036	-0,025
-492,781	45,402	-0,061	-0,041
-491,766	800,000	0,055	0,111
-490,751	-11,020	-0,091	-0,044
-489,737	-18,047	-0,041	0,019
-488,722	276,288	0,046	0,059
-487,708	138,905	0,072	0,069
-486,693	-58,652	-0,116	-0,037
-485,678	253,373	0,092	-0,115
-484,664	50,720	-0,050	-0,034
-483,649	-5,022	-0,134	-0,067
-482,635	-200,000	-0,009	-0,038
-481,620	-123,669	0,119	-0,014
-480,605	123,885	0,042	-0,038
-479,591	73,509	-0,073	0,056
-478,576	800,000	0,010	-0,024
-477,562	-11,634	-0,059	-0,028
-476,547	-118,367	-0,078	0,010
-475,532	-169,901	-0,125	0,003
-474,518	-200,000	-0,008	0,134
-473,503	-200,000	0,007	0,042
-472,489	-200,000	0,011	0,127
-471,474	-17,527	-0,071	0,032
-470,459	800,000	-0,071	-0,217
-469,445	629,212	-0,041	-0,077
-468,430	6,120	0,114	-0,061
-467,416	-200,000	0,003	-0,054
-466,401	800,000	0,052	0,165
-465,386	366,906	0,064	0,095
-464,372	71,026	0,136	0,103
-463,357	-200,000	-0,008	-0,045
-462,343	8,882	-0,173	0,095
-461,328	141,971	0,053	0,051
-460,313	-156,606	-0,045	-0,002
-459,299	409,324	0,043	0,067
-458,284	-59,473	-0,095	0,029
-457,270	-200,000	0,017	-0,122
-456,255	82,320	0,057	-0,045
-455,241	238,555	-0,047	-0,057
-454,226	-200,000	0,012	0,098
-453,211	-16,818	0,024	0,011
-452,197	3,307	0,082	0,044
-451,182	1,501	-0,056	-0,029
-450,168	800,000	-0,020	-0,050
-449,153	95,874	0,101	-0,084
-448,138	427,658	0,041	-0,064
-447,124	83,866	0,047	0,037
-446,109	800,000	-0,040	-0,099
-445,095	42,834	0,031	0,021
-444,080	156,418	-0,100	0,100
-443,065	260,897	-0,056	0,071
-442,051	571,348	0,046	-0,081
-441,036	226,609	0,044	-0,052
-440,022	-200,000	-0,012	0,057
-439,007	-81,537	0,073	-0,017
-437,992	800,000	0,050	0,142
-436,978	218,622	0,036	-0,042
-435,963	-200,000	0,040	0,179
-434,949	395,862	0,048	0,074
-433,934	-200,000	-0,008	-0,043
-432,919	-5,359	-0,122	-0,061
-431,905	800,000	0,011	0,033
-430,890	800,000	-0,016	0,041
-429,876	70,039	0,118	-0,089
-428,861	106,623	0,081	-0,070
-427,846	131,099	-0,040	0,038
-426,832	26,445	0,062	-0,037
-425,817	-7,564	-0,143	-0,070
-424,803	123,401	0,096	-0,087
-423,788	143,953	0,036	0,035
-422,773	47,571	0,105	-0,071
-421,759	512,211	-0,063	0,107
-420,744	-200,000	-0,010	-0,044
-419,730	240,098	0,044	-0,054
-418,715	-200,000	-0,008	-0,084
-417,701	-74,784	0,095	0,025
-416,686	337,372	0,041	0,058
-415,671	-200,000	-0,008	0,027
-414,657	-200,000	0,001	-0,059
-413,642	800,000	-0,024	0,073
-412,628	-53,522	0,118	-0,039
-411,613	179,395	0,060	-0,063
-410,598	-168,328	-0,119	-0,003
-409,584	99,671	0,108	-0,091
-408,569	248,760	-0,015	-0,018
-407,555	174,962	0,066	-0,070
-406,540	-200,000	0,020	0,104
-405,525	70,564	0,049	0,037
-404,511	768,264	0,022	-0,044
-403,496	-3,796	-0,003	0,002
-402,482	209,362	0,058	0,066
-401,467	800,000	-0,015	0,045
-400,452	20,711	-0,103	0,061
-399,438	118,253	-0,031	-0,028
-398,423	-55,033	-0,042	0,014
-397,409	-47,253	-0,163	0,057
-396,394	-122,357	-0,149	0,017
-395,379	116,874	0,035	0,031
-394,365	-110,600	0,119	0,018
-393,350	800,000	-0,030	-0,084
-392,336	-200,000	-0,023	0,101
-391,321	236,430	-0,032	0,038
-390,306	-46,052	-0,079	-0,028
-389,292	-25,223	0,041	-0,018
-388,277	-200,000	-0,026	-0,104
-387,263	-200,000	-0,014	0,082
-386,248	-156,537	-0,027	-0,001
-385,233	-139,174	0,085	0,007
-384,219	552,619	-0,069	0,121
-383,204	305,609	0,046	-0,062
-382,190	139,102	-0,083	-0,079
-381,175	-103,966	-0,092	-0,015
-380,160	-62,941	0,087	0,026
-379,146	751,883	0,010	-0,021
-378,131	52,210	0,087	-0,060
-377,117	237,668	-0,078	-0,094
-376,102	800,000	-0,075	-0,170
-375,088	-89,808	-0,050	0,011
-374,073	-157,462	-0,021	-0,001
-373,058	-185,299	0,045	0,000
-372,044	21,326	0,105	0,062
-371,029	94,316	0,016	-0,013
-370,015	-23,736	-0,031	0,013
-369,000	665,380	0,039	-0,073
-367,985	108,602	0,037	0,032
-366,971	136,292	-0,075	0,071
-365,956	-6,215	-0,172	0,085
-364,942	260,009	0,096	-0,121
-363,927	98,655	-0,049	-0,041
-362,912	-200,000	0,000	0,096
-361,898	800,000	-0,008	-0,021
-360,883	-34,770	0,033	-0,013
-359,869	46,087	0,028	0,019
-358,854	-18,681	0,094	-0,043
-357,839	-62,970	-0,044	-0,013
-356,825	-172,362	0,183	-0,004
-355,810	36,955	0,062	0,040
-354,796	749,204	-0,062	0,123
-353,781	113,032	-0,098	0,087
-352,766	215,242	-0,072	-0,083
-351,752	573,045	-0,030	-0,054
-350,737	375,848	0,094	0,140
-349,723	-89,287	-0,020	-0,004
-348,708	625,653	0,038	-0,070
-347,693	203,777	0,052	-0,059
-346,679	79,223	-0,036	0,028
-345,664	-200,000	-0,015	0,063
-344,650	-200,000	0,001	0,093
-343,635	-70,507	0,153	-0,042
-342,620	183,788	-0,043	-0,046
-341,606	800,000	-0,045	0,127
-340,591	800,000	-0,023	0,054
-339,577	-41,358	0,070	0,026
-338,562	-102,065	0,130	-0,023
-337,548	-36,270	-0,078	0,031
-336,533	-159,410	-0,045	0,002
-335,518	-4,730	0,098	0,049
-334,504	800,000	-0,064	-0,154
-333,489	800,000	-0,041	-0,093
-332,475	100,107	0,091	-0,077
-331,460	800,000	0,013	-0,040
-330,445	355,481	0,018	0,026
-329,431	-115,795	0,074	-0,010
-328,416	260,508	0,064	-0,081
-327,402	69,111	0,043	0,032
-326,387	-88,051	-0,050	-0,011
-325,372	-200,000	-0,042	-0,191
-324,358	-30,873	-0,094	0,038
-323,343	800,000	-0,074	-0,168
-322,329	800,000	-0,031	0,070
-321,314	212,388	-0,020	-0,023
-320,299	244,716	-0,096	-0,117
-319,285	-200,000	-0,022	0,102
-318,270	54,714	-0,111	0,077
-317,256	800,000	-0,051	0,114
-316,241	-152,258	0,097	-0,005
-315,226	453,799	-0,023	-0,037
-314,212	-46,832	0,074	0,026
-313,197	-200,000	0,019	-0,069
-312,183	800,000	0,026	-0,078
-311,168	191,299	0,030	0,033
-310,153	185,699	-0,066	-0,071
-309,139	105,405	0,111	0,095
-308,124	800,000	-0,030	0,073
-307,110	-200,000	-0,021	0,123
-306,095	-200,000	-0,004	0,090
-305,080	-124,943	-0,075	0,008
-304,066	800,000	-0,023	-0,066
-303,051	441,715	-0,086	0,137
-302,037	164,443	-0,101	0,103
-301,022	800,000	-0,046	-0,097
-300,008	800,000	0,033	0,083
-298,993	646,606	-0,043	0,080
-297,978	61,710	0,026	0,019
-296,964	67,271	0,044	0,032
-295,949	689,196	-0,063	-0,120
-294,935	-122,825	-0,126	-0,015
-293,920	-8,667	0,127	0,062
-292,905	-40,645	0,021	-0,008
-291,891	-200,000	0,012	-0,056
-290,876	-29,873	0,076	-0,031
-289,862	-200,000	-0,041	-0,218
-288,847	139,244	0,044	0,042
-287,832	560,874	-0,062	-0,109
-286,818	-200,000	-0,008	-0,082
-285,803	-200,000	-0,007	0,058
-284,789	417,866	0,058	0,090
-283,774	800,000	-0,018	-0,049
-282,759	268,458	-0,058	-0,074
-281,745	511,646	-0,016	-0,027
-280,730	196,397	-0,055	-0,061
-279,716	171,348	-0,067	0,070
-278,701	291,544	0,063	0,083
-277,686	-200,000	0,002	-0,079
-276,672	696,966	-0,050	0,095
-275,657	-200,000	0,010	0,081
-274,643	-81,342	-0,073	-0,017
-273,628	289,465	0,079	-0,104
-272,613	-200,000	-0,003	-0,025
-271,599	184,841	-0,039	0,042
-270,584	-72,302	-0,089	-0,024
-269,570	-104,116	-0,112	-0,019
-268,555	-200,000	-0,025	0,102
-267,540	-110,720	-0,054	-0,008
-266,526	590,233	0,026	-0,046
-265,511	271,325	0,065	0,083
-264,497	65,089	-0,102	0,075
-263,482	800,000	0,018	0,039
-262,467	-58,301	-0,018	0,005
-261,453	281,380	0,051	0,066
-260,438	58,758	-0,132	0,094
-259,424	81,325	-0,106	0,083
-258,409	-200,000	0,038	-0,201
-257,395	605,439	-0,018	-0,033
-256,380	58,753	0,072	-0,051
-255,365	9,806	-0,052	-0,028
-254,351	800,000	-0,026	0,069
-253,336	-53,267	0,067	-0,022
-252,322	-200,000	0,013	-0,094
-251,307	175,095	-0,080	-0,084
-250,292	-119,194	0,117	-0,015
-249,278	800,000	0,053	0,150
-248,263	-200,000	0,004	0,162
-247,249	-140,598	0,052	-0,004
-246,234	214,293	0,064	-0,073
-245,219	257,257	-0,075	-0,094
-244,205	800,000	0,054	-0,132
-243,190	136,758	-0,105	-0,099
-242,176	10,274	0,108	0,059
-241,161	800,000	0,028	0,060
-240,146	235,064	0,031	-0,037
-239,132	-200,000	-0,040	-0,142
-238,117	-182,186	-0,043	-0,001
-237,103	-27,750	0,107	0,045
-236,088	133,981	0,127	0,119
-235,073	800,000	-0,010	0,032
-234,059	-200,000	-0,000	0,127
-233,044	800,000	0,052	0,113
-232,030	-97,142	-0,109	0,020
-231,015	384,936	0,047	-0,071
-230,000	-75,926	-0,098	0,025
-228,986	513,346	0,033	-0,055
-227,971	552,389	0,061	0,106
-226,957	14,092	-0,048	0,027
-225,942	545,350	-0,063	-0,109
-224,927	423,631	-0,049	0,076
-223,913	60,530	-0,090	-0,064
-222,898	-200,000	-0,030	-0,122
-221,884	-200,000	-0,000	-0,002
-220,869	-200,000	0,007	0,206
-219,855	-169,627	0,132	-0,003
-218,840	-135,196	0,084	0,007
-217,825	40,340	-0,014	0,009
-216,811	-200,000	-0,017	0,077
-215,796	403,909	0,069	-0,106
-214,782	75,306	0,132	0,100
-213,767	200,947	0,027	-0,030
-212,752	48,224	0,097	0,065
-211,738	-200,000	0,001	0,131
-210,723	-200,000	-0,001	0,078
-209,709	-200,000	0,006	0,156
-208,694	-200,000	-0,012	0,104
-207,679	-183,422	-0,130	0,002
-206,665	800,000	0,060	0,187
-205,650	-30,791	-0,029	0,012
-204,636	800,000	-0,023	0,065
-203,621	13,258	-0,117	0,065
-202,606	800,000	0,047	-0,100
-201,592	-200,000	-0,017	-0,111
-200,577	45,293	-0,083	-0,055
-199,563	800,000	0,074	0,165
-198,548	-200,000	-0,009	-0,046
-197,533	-128,360	0,104	-0,011
-196,519	-200,000	-0,017	-0,079
-195,504	-200,000	-0,010	-0,098
-194,490	22,267	0,047	0,028
-193,475	256,593	-0,006	0,008
-192,460	-200,000	0,041	-0,193
-191,446	-200,000	-0,017	0,092
-190,431	174,979	-0,078	0,081
-189,417	-200,000	-0,001	0,058
-188,402	800,000	-0,024	0,056
-187,387	-29,864	-0,083	-0,034
-186,373	-200,000	-0,025	0,160
-185,358	-36,487	0,068	-0,026
-184,344	-200,000	0,002	-0,079
-183,329	800,000	0,056	0,179
-182,315	266,251	-0,087	0,110
-181,300	39,602	-0,048	-0,031
-180,285	146,887	0,131	0,127
-179,271	174,313	0,085	0,089
-178,256	-52,791	0,018	0,006
-177,242	48,222	-0,100	-0,068
-176,227	-170,986	0,168	-0,004
-175,212	86,739	0,047	-0,037
-174,198	800,000	0,035	-0,098
-173,183	800,000	-0,025	-0,059
-172,169	-66,167	-0,168	-0,048
-171,154	-153,795	-0,119	0,006
-170,139	390,880	0,079	-0,119
-169,125	-132,520	0,078	0,007
-168,110	-200,000	-0,004	0,061
-167,096	392,605	0,017	0,025
-166,081	23,584	-0,033	0,020
-165,066	-116,346	-0,101	-0,013
-164,052	-75,662	-0,076	0,019
-163,037	289,450	0,103	-0,135
-162,023	85,463	0,104	0,082
-161,008	800,000	-0,021	0,060
-159,993	-189,166	-0,046	0,000
-158,979	-56,959	-0,061	-0,019
-157,964	-179,540	-0,052	-0,001
-156,950	-51,824	0,017	-0,006
-155,935	640,371	0,052	0,095
-154,920	800,000	0,041	0,110
-153,906	-200,000	0,021	0,086
-152,891	-52,046	-0,140	0,047
-151,877	-200,000	0,017	0,103
-150,862	19,621	0,059	-0,034
-149,847	-148,592	0,154	-0,009
-148,833	-132,507	-0,019	-0,002
-147,818	-29,403	0,147	0,060
-146,804	-73,850	0,014	0,004
-145,789	186,870	-0,147	0,158
-144,775	800,000	0,051	-0,154
-143,760	207,565	0,061	0,068
-142,745	800,000	-0,024	-0,063
-141,731	800,000	-0,015	0,038
-140,716	798,500	-0,013	0,025
-139,702	511,086	0,091	0,154
-138,687	56,264	0,085	0,059
-137,672	-200,000	0,010	-0,091
-136,658	-200,000	-0,002	-0,080
-135,643	446,602	0,038	-0,060
-134,629	-180,254	0,057	0,001
-133,614	800,000	0,018	0,049
-132,599	-200,000	-0,020	0,113
-131,585	-69,534	0,164	0,045
-130,570	23,030	-0,078	-0,046
-129,556	-200,000	-0,000	-0,007
-128,541	323,698	-0,106	0,146
-127,526	-200,000	-0,017	-0,060
-126,512	241,324	-0,043	0,052
-125,497	276,824	0,164	0,210
-124,483	800,000	0,091	-0,210
-123,468	-127,702	-0,089	-0,009
-122,453	443,587	0,019	-0,030
-121,439	437,069	0,039	-0,061
-120,424	169,081	0,059	0,061
-119,410	-200,000	0,013	0,050
