DTS Sentinel unit serial number:	SN410029Multiplexer serial number:	ORYXHardware model number:	OX2-SRSoftware version number:	ORYX F/W v4,00 Oryx Data Collector v3.7.2.0data status	okinstallation	B6 Nyhavnadifferential loss correction	single-endedforward channel	channel 2reverse channel	N/Adate	2023/12/09time	21:20:08forward acquisition time	300,00reverse acquisition time	0,00gamma	499,1914k internal	0,3128k external	0,3128temperature offset calibration	1,0000default loss term (dB/km)	0,3820temperature slope calibration	1,0000multiplexer offset coefficient	1,0000multiplexer slope coefficient	1,0000fibre end	0,00T internal ref (°C)	21,52T ext. ref 1 (°C)	5,41T ext. ref 2 (°C)	5,40length (m)	temperature (°C)	Stokes	anti-Stokes-744,400	209,811	0,012	-0,014
-743,385	61,146	-0,213	0,157
-742,371	-200,000	0,001	-0,083
-741,356	-58,564	-0,267	0,086
-740,342	-44,876	0,132	-0,049
-739,327	0,453	-0,260	0,138
-738,312	57,163	0,063	-0,045
-737,298	-93,179	-0,195	0,040
-736,283	-68,383	0,091	0,026
-735,269	-36,538	-0,134	0,053
-734,254	-200,000	0,024	0,171
-733,239	-96,742	-0,460	-0,089
-732,225	-195,533	0,169	-0,001
-731,210	462,357	0,105	0,175
-730,196	18,833	-0,134	0,080
-729,181	13,011	-0,021	0,012
-728,167	-156,773	-0,025	-0,001
-727,152	-200,000	-0,015	0,088
-726,137	233,985	0,082	-0,100
-725,123	31,928	-0,151	-0,096
-724,108	440,058	-0,101	-0,165
-723,094	-200,000	0,021	-0,070
-722,079	38,574	-0,123	-0,081
-721,064	800,000	0,024	0,059
-720,050	800,000	0,025	-0,070
-719,035	-200,000	-0,001	-0,130
-718,021	27,953	-0,152	-0,095
-717,006	33,628	-0,092	-0,059
-715,991	-200,000	0,029	-0,105
-714,977	-21,924	-0,059	0,027
-713,962	155,352	-0,110	0,113
-712,948	130,044	-0,040	-0,038
-711,933	-52,583	-0,119	0,041
-710,918	21,132	0,021	-0,012
-709,904	127,523	0,073	-0,068
-708,889	254,730	-0,041	0,052
-707,875	-122,493	-0,083	-0,010
-706,860	487,498	0,054	-0,092
-705,845	-134,213	-0,022	0,002
-704,831	-156,907	-0,042	-0,002
-703,816	137,412	0,010	-0,009
-702,802	800,000	-0,040	-0,097
-701,787	556,273	-0,076	-0,137
-700,772	269,994	-0,062	0,081
-699,758	-152,837	0,106	0,005
-698,743	-200,000	0,001	0,019
-697,729	-200,000	-0,012	-0,163
-696,714	-75,576	-0,096	-0,025
-695,699	-84,950	0,048	-0,011
-694,685	-200,000	-0,019	0,082
-693,670	277,792	-0,052	-0,069
-692,656	-200,000	-0,007	0,026
-691,641	265,658	-0,020	0,026
-690,627	548,828	-0,043	0,076
-689,612	11,077	-0,109	0,062
-688,597	-22,574	-0,062	-0,028
-687,583	110,755	-0,077	0,068
-686,568	-137,094	-0,062	0,005
-685,554	-129,546	-0,019	-0,002
-684,539	800,000	-0,036	-0,087
-683,524	158,414	0,026	-0,027
-682,510	-14,149	-0,068	0,032
-681,495	187,786	-0,037	-0,041
-680,481	-112,188	0,036	0,005
-679,466	271,992	0,028	0,037
-678,451	-160,704	-0,060	0,002
-677,437	31,403	0,089	0,056
-676,422	256,540	-0,055	0,070
-675,408	-91,498	-0,037	-0,008
-674,393	62,242	0,044	-0,033
-673,378	-200,000	-0,018	-0,075
-672,364	306,183	0,009	-0,012
-671,349	-200,000	-0,023	0,093
-670,335	-200,000	-0,003	0,211
-669,320	800,000	0,008	0,024
-668,305	-64,919	-0,111	-0,033
-667,291	-200,000	-0,003	-0,049
-666,276	-200,000	0,018	-0,066
-665,262	119,838	-0,076	-0,069
-664,247	651,830	-0,057	-0,109
-663,232	-200,000	-0,019	0,065
-662,218	343,264	0,038	0,055
-661,203	-200,000	0,009	-0,077
-660,189	-91,066	-0,022	0,005
-659,174	-110,104	0,034	0,005
-658,159	-22,467	-0,114	-0,051
-657,145	-200,000	0,002	0,032
-656,130	230,275	-0,075	-0,091
-655,116	-105,958	0,172	-0,028
-654,101	342,961	-0,084	0,123
-653,086	353,326	-0,064	-0,095
-652,072	-114,205	-0,017	0,002
-651,057	168,118	0,027	0,028
-650,043	266,891	-0,065	-0,084
-649,028	-90,448	-0,146	-0,031
-648,014	323,692	0,079	0,113
-646,999	-174,986	0,028	-0,001
-645,984	-200,000	-0,033	0,147
-644,970	-200,000	0,001	-0,051
-643,955	141,515	-0,039	0,038
-642,941	-172,055	-0,077	0,002
-641,926	-107,420	-0,169	-0,027
-640,911	-200,000	-0,004	0,057
-639,897	-100,876	-0,066	0,012
-638,882	800,000	-0,037	-0,106
-637,868	-30,732	-0,053	-0,022
-636,853	-108,871	0,095	-0,015
-635,838	-51,471	-0,062	-0,021
-634,824	-126,991	-0,154	0,017
-633,809	-145,049	-0,069	-0,005
-632,795	-26,843	-0,101	0,044
-631,780	-64,447	0,062	0,019
-630,765	800,000	0,044	0,120
-629,751	-200,000	-0,014	-0,086
-628,736	270,028	0,022	-0,028
-627,722	-200,000	-0,008	0,073
-626,707	-7,008	-0,128	-0,064
-625,692	-200,000	0,003	0,107
-624,678	-171,316	-0,157	-0,004
-623,663	-124,005	-0,219	-0,025
-622,649	37,226	0,085	-0,055
-621,634	221,041	0,043	0,051
-620,619	800,000	-0,038	-0,106
-619,605	526,308	0,041	-0,072
-618,590	142,976	0,067	0,066
-617,576	-200,000	-0,001	0,089
-616,561	277,375	0,068	-0,090
-615,546	27,503	-0,077	-0,048
-614,532	46,359	-0,094	-0,065
-613,517	800,000	0,020	-0,048
-612,503	800,000	0,040	0,109
-611,488	800,000	0,076	0,207
-610,474	21,189	-0,087	0,052
-609,459	32,840	-0,051	0,032
-608,444	-87,082	-0,018	0,004
-607,430	-200,000	0,015	-0,076
-606,415	151,842	-0,033	-0,033
-605,401	-200,000	0,010	-0,115
-604,386	185,781	-0,106	-0,117
-603,371	-62,274	0,123	0,038
-602,357	-162,713	0,078	0,003
-601,342	158,492	0,040	-0,041
-600,328	-105,820	-0,134	0,022
-599,313	173,736	0,133	-0,142
-598,298	-61,337	0,030	-0,009
-597,284	-65,709	-0,065	-0,019
-596,269	87,648	0,067	-0,055
-595,255	496,522	-0,028	-0,049
-594,240	-56,944	-0,127	-0,041
-593,225	-25,427	-0,100	-0,044
-592,211	-200,000	-0,013	-0,130
-591,196	234,440	0,023	0,028
-590,182	150,436	0,051	-0,052
-589,167	-200,000	0,023	0,111
-588,152	-13,674	0,069	0,033
-587,138	-83,025	-0,093	-0,022
-586,123	-200,000	-0,007	-0,108
-585,109	0,374	0,109	-0,057
-584,094	800,000	-0,056	-0,137
-583,079	-200,000	0,032	0,116
-582,065	-115,480	0,119	-0,016
-581,050	800,000	0,030	0,071
-580,036	-87,969	-0,193	-0,042
-579,021	578,019	-0,042	-0,077
-578,006	117,377	-0,033	-0,030
-576,992	77,659	0,071	-0,056
-575,977	48,809	-0,049	-0,034
-574,963	-4,605	-0,032	0,016
-573,948	35,050	-0,053	-0,034
-572,934	-51,321	0,071	0,024
-571,919	800,000	-0,021	-0,051
-570,904	-109,106	0,026	0,004
-569,890	24,212	-0,067	-0,041
-568,875	372,214	0,004	0,006
-567,861	800,000	-0,023	0,052
-566,846	-73,501	0,119	-0,032
-565,831	-200,000	0,019	0,101
-564,817	800,000	0,043	-0,099
-563,802	-78,976	-0,195	-0,049
-562,788	800,000	-0,003	-0,006
-561,773	-200,000	-0,006	0,059
-560,758	94,205	0,039	-0,033
-559,744	-36,995	0,094	0,037
-558,729	716,426	0,026	0,052
-557,715	332,567	-0,050	0,072
-556,700	132,097	-0,085	-0,081
-555,685	-150,239	-0,044	0,002
-554,671	36,465	-0,072	-0,047
-553,656	-69,143	0,104	0,029
-552,642	-92,663	0,023	-0,005
-551,627	79,593	-0,007	0,006
-550,612	-200,000	0,008	0,145
-549,598	-200,000	-0,003	0,069
-548,583	-200,000	0,003	-0,011
-547,569	470,245	-0,033	0,055
-546,554	57,242	-0,031	-0,022
-545,539	196,140	0,015	-0,017
-544,525	173,265	0,090	0,096
-543,510	-139,970	-0,080	0,006
-542,496	16,385	0,073	-0,042
-541,481	226,508	-0,090	-0,108
-540,466	201,936	0,082	-0,093
-539,452	-200,000	-0,032	0,120
-538,437	-200,000	0,013	0,054
-537,423	35,054	0,065	-0,042
-536,408	-3,044	0,063	-0,032
-535,393	82,134	-0,068	0,054
-534,379	-66,707	-0,063	-0,018
-533,364	-47,912	0,037	0,013
-532,350	361,023	0,067	0,100
-531,335	36,831	-0,141	0,092
-530,321	308,561	0,077	0,107
-529,306	-5,283	-0,109	0,055
-528,291	261,105	-0,107	-0,137
-527,277	800,000	0,029	-0,082
-526,262	-3,922	-0,077	-0,039
-525,248	-131,496	0,046	-0,004
-524,233	-6,263	-0,035	0,018
-523,218	-124,212	-0,140	-0,016
-522,204	800,000	-0,004	-0,011
-521,189	-108,151	0,167	-0,026
-520,175	-200,000	-0,012	0,097
-519,160	-200,000	0,010	0,076
-518,145	800,000	-0,010	-0,031
-517,131	23,977	-0,060	-0,036
-516,116	-41,843	0,074	0,028
-515,102	649,399	0,055	-0,105
-514,087	-36,416	-0,136	0,054
-513,072	800,000	0,085	-0,180
-512,058	-111,555	-0,067	0,010
-511,043	-200,000	0,025	0,125
-510,029	141,036	-0,033	0,032
-509,014	-200,000	-0,054	-0,222
-507,999	27,942	-0,156	-0,097
-506,985	-52,614	-0,052	-0,018
-505,970	710,519	0,037	-0,072
-504,956	108,263	-0,033	-0,029
-503,941	-196,304	-0,147	0,001
-502,926	800,000	-0,009	0,023
-501,912	-200,000	0,023	-0,111
-500,897	-200,000	-0,019	0,116
-499,883	685,753	0,040	0,077
-498,868	-200,000	0,025	-0,117
-497,853	281,036	-0,060	0,079
-496,839	-43,829	-0,103	0,038
-495,824	-96,517	-0,131	0,025
-494,810	584,479	0,042	-0,076
-493,795	213,664	-0,117	0,137
-492,781	-200,000	-0,025	0,144
-491,766	385,178	-0,045	-0,069
-490,751	800,000	-0,087	-0,182
-489,737	25,126	-0,019	0,012
-488,722	754,174	0,085	0,170
-487,708	-19,970	0,098	0,045
-486,693	-12,876	0,096	0,046
-485,678	130,702	0,020	0,019
-484,664	-200,000	0,002	-0,038
-483,649	-120,324	-0,125	-0,015
-482,635	190,266	-0,071	-0,079
-481,620	-200,000	0,012	-0,069
-480,605	-33,252	-0,075	-0,030
-479,591	800,000	0,051	0,137
-478,576	800,000	-0,013	-0,037
-477,562	2,982	-0,091	-0,049
-476,547	-77,263	-0,059	0,015
-475,532	-60,761	0,119	0,037
-474,518	800,000	0,060	0,123
-473,503	800,000	-0,009	0,029
-472,489	800,000	-0,018	-0,057
-471,474	-200,000	0,027	0,141
-470,459	626,289	0,025	-0,047
-469,445	800,000	-0,028	-0,063
-468,430	-88,635	0,162	-0,035
-467,416	-97,910	-0,103	0,019
-466,401	-200,000	-0,006	-0,026
-465,386	-200,000	0,019	0,074
-464,372	81,683	-0,032	-0,026
-463,357	-118,349	-0,067	0,009
-462,343	271,781	-0,032	0,041
-461,328	44,564	-0,123	0,083
-460,313	252,721	0,049	-0,062
-459,299	236,847	-0,006	-0,007
-458,284	667,744	0,088	0,168
-457,270	800,000	-0,009	-0,028
-456,255	-39,830	0,117	0,045
-455,241	800,000	0,022	0,051
-454,226	431,485	-0,065	0,103
-453,211	800,000	0,022	0,054
-452,197	-40,469	0,057	-0,022
-451,182	-34,959	0,029	0,012
-450,168	-200,000	0,030	0,098
-449,153	-70,216	0,027	0,008
-448,138	379,387	0,020	-0,030
-447,124	-200,000	-0,002	-0,029
-446,109	40,443	0,035	0,023
-445,095	-200,000	-0,040	-0,182
-444,080	-200,000	-0,013	0,043
-443,065	158,788	0,051	0,052
-442,051	69,855	0,127	0,096
-441,036	-48,725	0,056	-0,020
-440,022	49,716	-0,023	-0,016
-439,007	-84,466	0,031	0,007
-437,992	-200,000	0,044	0,164
-436,978	92,060	0,006	0,005
-435,963	269,256	0,051	0,067
-434,949	-29,804	-0,194	-0,081
-433,934	604,599	0,084	-0,155
-432,919	99,452	0,041	0,035
-431,905	800,000	0,025	0,063
-430,890	-200,000	-0,013	0,134
-429,876	-200,000	-0,035	0,174
-428,861	800,000	-0,067	0,178
-427,846	-200,000	0,006	-0,116
-426,832	25,141	0,103	-0,063
-425,817	-15,929	-0,056	0,026
-424,803	372,783	-0,018	-0,026
-423,788	-200,000	-0,026	0,167
-422,773	232,033	0,081	-0,098
-421,759	-77,786	0,105	0,026
-420,744	-200,000	0,007	-0,068
-419,730	-150,266	0,130	-0,007
-418,715	-96,777	-0,085	0,016
-417,701	-200,000	0,037	-0,152
-416,686	10,500	-0,090	-0,050
-415,671	-10,579	-0,077	0,037
-414,657	800,000	-0,023	-0,055
-413,642	370,055	0,075	-0,112
-412,628	222,629	0,003	-0,004
-411,613	-200,000	-0,014	-0,122
-410,598	562,303	0,063	-0,112
-409,584	2,613	0,133	-0,071
-408,569	-56,844	0,101	0,033
-407,555	-37,610	-0,085	0,033
-406,540	132,198	0,035	0,033
-405,525	411,062	-0,056	0,087
-404,511	-44,491	-0,092	0,034
-403,496	241,512	0,027	0,034
-402,482	800,000	0,012	-0,029
-401,467	-117,705	0,116	0,015
-400,452	124,718	-0,046	0,043
-399,438	-88,160	-0,115	0,025
-398,423	-117,332	-0,171	-0,022
-397,409	800,000	-0,019	-0,041
-396,394	122,930	-0,069	0,063
-395,379	-127,420	0,058	0,006
-394,365	45,131	0,045	-0,030
-393,350	800,000	0,026	0,067
-392,336	-200,000	-0,015	-0,084
-391,321	-200,000	-0,022	-0,093
-390,306	193,203	0,106	0,118
-389,292	-99,744	0,067	0,012
-388,277	166,051	0,071	-0,074
-387,263	-123,566	0,097	-0,011
-386,248	-200,000	0,006	-0,144
-385,233	-60,172	0,120	0,037
-384,219	60,591	0,048	0,035
-383,204	-200,000	0,003	0,015
-382,190	129,833	-0,042	-0,039
-381,175	84,908	0,119	-0,096
-380,160	-122,498	-0,039	-0,005
-379,146	-200,000	-0,017	0,061
-378,131	41,140	0,140	-0,093
-377,117	-4,801	-0,066	0,033
-376,102	0,805	-0,046	0,024
-375,088	84,508	-0,175	0,140
-374,073	-151,207	0,125	0,007
-373,058	-73,245	0,075	0,020
-372,044	-200,000	-0,016	-0,087
-371,029	7,569	0,050	-0,027
-370,015	74,186	0,019	-0,014
-369,000	-200,000	-0,026	-0,102
-367,985	156,431	-0,060	-0,061
-366,971	-58,842	0,055	0,017
-365,956	28,623	0,122	0,076
-364,942	-106,870	0,123	0,020
-363,927	-200,000	-0,041	-0,147
-362,912	102,479	-0,044	0,037
-361,898	639,566	0,035	0,066
-360,883	800,000	-0,033	-0,071
-359,869	28,501	-0,026	0,016
-358,854	58,864	0,154	0,111
-357,839	-200,000	-0,000	-0,037
-356,825	102,961	-0,082	0,070
-355,810	-189,337	-0,082	-0,001
-354,796	353,646	-0,022	0,032
-353,781	50,888	-0,027	-0,019
-352,766	336,145	-0,105	0,149
-351,752	-115,295	0,061	0,008
-350,737	-47,310	-0,063	0,022
-349,723	-58,727	0,085	-0,027
-348,708	-62,594	0,114	0,035
-347,693	-200,000	-0,010	0,129
-346,679	139,520	-0,068	-0,066
-345,664	800,000	0,025	0,072
-344,650	800,000	-0,021	0,043
-343,635	382,313	0,042	0,064
-342,620	-115,299	0,182	-0,025
-341,606	800,000	0,024	-0,078
-340,591	14,921	0,036	-0,021
-339,577	-103,281	-0,149	0,026
-338,562	-200,000	-0,028	-0,260
-337,548	86,940	0,064	-0,052
-336,533	457,188	0,040	-0,066
-335,518	800,000	0,048	-0,134
-334,504	370,581	0,014	0,021
-333,489	77,297	-0,086	-0,067
-332,475	-200,000	-0,006	-0,032
-331,460	-100,305	0,105	0,019
-330,445	-200,000	-0,017	-0,139
-329,431	-134,049	0,042	0,004
-328,416	-200,000	-0,016	0,120
-327,402	270,954	0,025	0,032
-326,387	800,000	-0,052	0,112
-325,372	-176,501	0,090	-0,002
-324,358	-58,148	-0,091	0,029
-323,343	-23,519	-0,062	0,027
-322,329	-200,000	-0,057	0,267
-321,314	-93,563	-0,046	0,009
-320,299	631,436	-0,033	0,061
-319,285	800,000	-0,061	0,131
-318,270	144,912	-0,029	0,028
-317,256	202,121	0,028	-0,032
-316,241	760,442	0,039	-0,078
-315,226	-200,000	-0,005	-0,138
-314,212	800,000	-0,035	-0,094
-313,197	78,087	0,111	-0,087
-312,183	-111,803	0,129	-0,019
-311,168	-200,000	-0,016	-0,119
-310,153	14,569	-0,012	0,007
-309,139	-200,000	0,001	-0,008
-308,124	800,000	-0,018	0,052
-307,110	137,834	0,114	0,109
-306,095	800,000	-0,030	-0,070
-305,080	-78,053	-0,107	-0,027
-304,066	35,935	0,091	0,059
-303,051	36,672	-0,060	0,039
-302,037	-35,885	0,061	0,024
-301,022	800,000	0,044	-0,108
-300,008	-86,930	-0,028	0,006
-298,993	-200,000	0,006	0,050
-297,978	-151,644	-0,132	0,007
-296,964	-76,347	-0,050	-0,013
-295,949	-200,000	-0,023	-0,074
-294,935	-200,000	0,007	-0,109
-293,920	316,708	0,019	-0,026
-292,905	-28,618	0,162	-0,068
-291,891	145,640	-0,036	0,035
-290,876	-25,497	-0,083	0,035
-289,862	164,193	0,026	-0,027
-288,847	800,000	-0,054	-0,122
-287,832	-12,567	0,051	0,024
-286,818	-200,000	-0,003	-0,055
-285,803	-118,419	0,093	0,012
-284,789	41,352	0,137	-0,090
-283,774	800,000	0,018	-0,050
-282,759	-37,555	0,142	0,055
-281,745	129,562	0,063	0,059
-280,730	-90,503	-0,020	0,004
-279,716	-78,911	-0,029	-0,007
-278,701	-88,779	0,083	0,018
-277,686	210,718	-0,077	0,089
-276,672	257,800	0,067	0,085
-275,657	112,711	-0,113	0,100
-274,643	784,904	0,061	-0,123
-273,628	-200,000	0,013	-0,160
-272,613	255,345	-0,113	0,142
-271,599	800,000	0,070	-0,170
-270,584	98,254	0,021	0,017
-269,570	-36,383	0,120	0,047
-268,555	21,174	-0,025	-0,015
-267,540	-200,000	-0,026	-0,103
-266,526	275,497	-0,046	0,059
-265,511	241,438	-0,089	-0,109
-264,497	-23,470	0,050	0,022
-263,482	28,019	-0,055	0,034
-262,467	-200,000	-0,001	-0,044
-261,453	117,388	0,040	0,036
-260,438	82,399	-0,116	-0,092
-259,424	-52,797	-0,147	-0,049
-258,409	-161,476	0,033	-0,001
-257,395	161,799	-0,037	-0,038
-256,380	-22,566	0,106	0,047
-255,365	-93,230	0,093	0,019
-254,351	361,133	-0,022	-0,033
-253,336	23,558	-0,054	-0,032
-252,322	18,326	0,080	0,047
-251,307	800,000	-0,054	0,129
-250,292	245,667	0,105	0,129
-249,278	127,635	0,012	0,011
-248,263	-56,601	-0,021	0,007
-247,249	-200,000	-0,018	-0,074
-246,234	490,842	0,025	0,042
-245,219	21,164	-0,042	-0,025
-244,205	-27,934	0,077	-0,033
-243,190	142,264	-0,045	-0,044
-242,176	512,604	-0,041	0,071
-241,161	-11,627	0,093	-0,044
-240,146	-200,000	0,003	-0,036
-239,132	11,206	0,062	0,035
-238,117	-200,000	-0,034	0,113
-237,103	-200,000	-0,028	-0,138
-236,088	-93,975	0,021	-0,004
-235,073	-35,230	0,040	0,016
-234,059	111,963	0,130	-0,114
-233,044	-200,000	-0,008	-0,031
-232,030	26,508	0,018	0,011
-231,015	123,525	0,032	0,029
-230,000	-20,097	0,027	-0,012
-228,986	800,000	0,059	0,140
-227,971	-200,000	-0,046	0,166
-226,957	396,063	0,075	0,114
-225,942	-60,557	-0,114	0,035
-224,927	-41,173	-0,037	-0,014
-223,913	800,000	0,027	-0,081
-222,898	82,614	-0,120	-0,095
-221,884	57,709	-0,074	-0,053
-220,869	479,608	0,060	-0,100
-219,855	-200,000	-0,005	0,054
-218,840	800,000	-0,036	0,083
-217,825	-82,796	-0,063	-0,015
-216,811	-95,196	-0,057	-0,011
-215,796	291,061	0,015	0,020
-214,782	112,622	0,056	0,050
-213,767	-200,000	-0,002	-0,027
-212,752	-2,660	0,037	-0,019
-211,738	97,967	0,118	0,099
-210,723	-47,352	0,058	0,020
-209,709	-64,647	0,078	-0,023
-208,694	76,608	0,114	-0,088
-207,679	203,343	0,132	-0,149
-206,665	-49,718	-0,075	-0,026
-205,650	-200,000	-0,027	0,141
-204,636	-200,000	0,035	0,153
-203,621	-26,470	0,050	-0,021
-202,606	800,000	0,055	-0,140
-201,592	800,000	0,026	-0,054
-200,577	800,000	-0,035	-0,094
-199,563	-200,000	0,019	0,090
-198,548	-44,175	-0,150	-0,055
-197,533	20,143	-0,033	0,020
-196,519	446,876	-0,090	-0,144
-195,504	61,542	0,073	-0,053
-194,490	-200,000	0,000	-0,080
-193,475	-200,000	0,008	-0,026
-192,460	-166,059	0,031	0,001
-191,446	-154,243	-0,066	0,003
-190,431	50,781	0,061	0,042
-189,417	568,772	-0,032	-0,058
-188,402	79,428	0,066	0,051
-187,387	-123,368	-0,095	0,011
-186,373	735,571	0,057	0,111
-185,358	132,538	0,022	0,021
-184,344	-200,000	0,042	0,193
-183,329	284,127	0,073	-0,096
-182,315	-95,384	-0,028	-0,005
-181,300	388,989	-0,043	0,066
-180,285	-176,708	-0,088	0,002
-179,271	249,352	0,059	0,073
-178,256	800,000	-0,005	0,015
-177,242	800,000	0,036	0,108
-176,227	-67,818	-0,063	0,018
-175,212	800,000	-0,028	0,085
-174,198	-61,874	-0,018	0,005
-173,183	414,435	-0,061	-0,095
-172,169	-79,368	0,135	-0,033
-171,154	-185,361	-0,056	0,001
-170,139	800,000	0,028	0,065
-169,125	1,980	0,063	0,033
-168,110	-6,280	0,078	0,039
-167,096	-200,000	0,021	0,146
-166,081	-92,252	0,093	0,019
-165,066	800,000	-0,025	-0,057
-164,052	-18,253	-0,097	0,044
-163,037	-200,000	0,001	0,009
-162,023	-200,000	0,012	0,048
-161,008	-200,000	0,017	-0,111
-159,993	-92,830	0,091	0,018
-158,979	-200,000	-0,003	0,060
-157,964	-70,062	0,065	-0,018
-156,950	-200,000	-0,025	-0,230
-155,935	800,000	-0,025	0,066
-154,920	38,570	-0,154	-0,100
-153,906	15,843	0,136	0,078
-152,891	267,330	-0,121	0,155
-151,877	-200,000	0,007	0,056
-150,862	-10,512	-0,094	0,045
-149,847	800,000	0,027	0,070
-148,833	785,074	0,056	0,111
-147,818	-1,627	0,065	-0,033
-146,804	-123,529	0,074	-0,008
-145,789	44,158	0,067	-0,044
-144,775	800,000	-0,013	-0,029
-143,760	94,100	0,066	-0,054
-142,745	800,000	0,037	-0,112
-141,731	-200,000	-0,035	-0,139
-140,716	7,751	0,135	0,073
-139,702	-200,000	0,012	0,043
-138,687	-200,000	0,007	0,027
-137,672	800,000	-0,062	-0,152
-136,658	-39,151	-0,059	-0,022
-135,643	190,977	-0,095	-0,104
-134,629	800,000	0,017	-0,046
-133,614	-10,467	0,121	-0,058
-132,599	-200,000	0,011	-0,061
-131,585	192,599	0,062	0,069
-130,570	-95,338	0,093	-0,018
-129,556	-110,803	-0,068	0,010
-128,541	-200,000	-0,009	0,076
-127,526	-200,000	0,006	-0,063
-126,512	800,000	0,061	-0,142
-125,497	800,000	0,014	-0,033
-124,483	-116,484	-0,149	0,020
-123,468	-192,532	-0,045	0,000
-122,453	800,000	0,024	-0,060
-121,439	79,097	0,110	-0,085
-120,424	13,304	-0,079	-0,044
-119,410	45,270	0,109	-0,073
-118,395	191,225	-0,040	-0,044
