DTS Sentinel unit serial number:	SN410029Multiplexer serial number:	ORYXHardware model number:	OX2-SRSoftware version number:	ORYX F/W v4,00 Oryx Data Collector v3.7.2.0data status	okinstallation	B6 Nyhavnadifferential loss correction	single-endedforward channel	channel 2reverse channel	N/Adate	2023/12/09time	14:40:08forward acquisition time	300,00reverse acquisition time	0,00gamma	499,1914k internal	0,3133k external	0,3133temperature offset calibration	1,0000default loss term (dB/km)	0,3820temperature slope calibration	1,0000multiplexer offset coefficient	1,0000multiplexer slope coefficient	1,0000fibre end	0,00T internal ref (°C)	20,54T ext. ref 1 (°C)	4,30T ext. ref 2 (°C)	4,31length (m)	temperature (°C)	Stokes	anti-Stokes-744,400	216,750	0,123	0,145
-743,385	-101,959	-0,280	0,050
-742,371	800,000	-0,043	0,096
-741,356	-116,221	-0,273	0,037
-740,342	15,832	0,133	-0,078
-739,327	31,900	-0,286	0,183
-738,312	202,728	0,016	0,019
-737,298	-20,057	-0,194	0,088
-736,283	-200,000	0,008	0,122
-735,269	-47,384	-0,281	0,101
-734,254	-13,199	0,095	-0,046
-733,239	-8,522	-0,411	-0,204
-732,225	69,690	0,180	-0,137
-731,210	316,607	-0,021	0,029
-730,196	227,208	-0,073	0,088
-729,181	97,679	-0,034	0,029
-728,167	-200,000	0,018	0,062
-727,152	-90,677	-0,164	0,035
-726,137	-200,000	-0,006	0,050
-725,123	-41,080	-0,142	-0,054
-724,108	-177,945	-0,153	-0,003
-723,094	800,000	-0,021	-0,044
-722,079	-78,145	-0,190	0,048
-721,064	148,394	-0,104	-0,104
-720,050	-200,000	0,001	0,008
-719,035	-200,000	-0,021	-0,087
-718,021	15,566	-0,056	0,032
-717,006	251,850	0,014	0,018
-715,991	608,057	-0,090	-0,168
-714,977	169,123	-0,081	-0,086
-713,962	-200,000	-0,017	0,075
-712,948	64,743	0,044	0,033
-711,933	456,453	-0,070	0,115
-710,918	302,099	-0,068	-0,094
-709,904	121,116	-0,036	-0,033
-708,889	542,516	0,082	-0,146
-707,875	800,000	-0,089	-0,206
-706,860	-200,000	0,003	-0,069
-705,845	-200,000	0,021	-0,102
-704,831	-200,000	0,023	0,119
-703,816	-200,000	-0,009	-0,111
-702,802	166,570	-0,107	-0,112
-701,787	-200,000	0,015	-0,052
-700,772	-200,000	-0,021	0,072
-699,758	280,338	-0,061	0,081
-698,743	-27,741	-0,060	-0,026
-697,729	800,000	0,063	0,150
-696,714	800,000	0,024	0,068
-695,699	24,995	-0,059	-0,036
-694,685	-200,000	0,000	-0,096
-693,670	407,016	-0,035	-0,054
-692,656	-200,000	-0,000	0,049
-691,641	-135,185	-0,100	0,009
-690,627	800,000	-0,012	-0,030
-689,612	477,454	0,044	-0,073
-688,597	131,800	-0,023	0,022
-687,583	397,507	0,071	-0,111
-686,568	612,567	-0,083	-0,155
-685,554	800,000	-0,058	-0,145
-684,539	197,076	0,105	-0,118
-683,524	430,313	0,036	0,059
-682,510	68,532	0,086	0,065
-681,495	14,471	-0,093	-0,054
-680,481	-160,206	-0,161	-0,006
-679,466	-200,000	-0,010	-0,247
-678,451	80,400	0,052	-0,042
-677,437	-70,233	0,047	-0,013
-676,422	800,000	0,032	-0,070
-675,408	385,607	0,056	-0,086
-674,393	-96,240	-0,035	-0,007
-673,378	-62,302	-0,095	-0,029
-672,364	-200,000	0,011	-0,109
-671,349	-110,451	-0,095	-0,015
-670,335	102,153	0,069	-0,060
-669,320	-200,000	-0,018	-0,098
-668,305	800,000	0,006	-0,015
-667,291	-116,378	-0,093	-0,013
-666,276	-104,458	-0,071	0,012
-665,262	-102,065	0,094	0,017
-664,247	91,815	-0,064	0,053
-663,232	-16,504	0,040	-0,019
-662,218	214,138	0,029	0,034
-661,203	19,081	-0,120	-0,071
-660,189	800,000	-0,030	-0,067
-659,174	-22,255	-0,074	-0,033
-658,159	-200,000	-0,025	-0,163
-657,145	-170,625	-0,105	-0,003
-656,130	225,231	0,099	-0,119
-655,116	159,320	-0,062	0,063
-654,101	-159,623	0,056	-0,002
-653,086	568,887	0,051	0,092
-652,072	29,229	-0,162	-0,102
-651,057	234,361	-0,041	-0,050
-650,043	-200,000	0,004	0,018
-649,028	800,000	-0,027	0,060
-648,014	-123,031	-0,112	-0,013
-646,999	-130,596	-0,028	0,003
-645,984	-23,717	0,017	-0,007
-644,970	-28,980	-0,068	0,029
-643,955	712,118	-0,038	0,075
-642,941	144,635	-0,116	-0,115
-641,926	154,643	-0,086	-0,088
-640,911	84,098	0,037	0,030
-639,897	-200,000	-0,020	-0,142
-638,882	-200,000	0,011	0,047
-637,868	-131,434	-0,143	0,014
-636,853	-44,587	-0,109	-0,040
-635,838	800,000	0,019	-0,051
-634,824	800,000	0,023	-0,055
-633,809	-164,195	0,207	0,007
-632,795	-200,000	0,010	0,033
-631,780	194,042	0,077	0,087
-630,765	-28,967	0,055	0,023
-629,751	-200,000	-0,032	-0,196
-628,736	-200,000	-0,024	-0,146
-627,722	800,000	-0,015	0,043
-626,707	267,206	0,049	0,064
-625,692	-169,612	0,053	-0,001
-624,678	89,586	-0,077	-0,063
-623,663	-70,725	-0,051	-0,014
-622,649	277,386	0,048	-0,063
-621,634	-200,000	0,003	-0,126
-620,619	152,865	0,080	0,081
-619,605	-77,721	0,138	0,035
-618,590	185,632	-0,067	0,073
-617,576	149,903	0,074	0,074
-616,561	-200,000	0,007	-0,080
-615,546	-200,000	-0,015	0,174
-614,532	50,089	-0,035	0,025
-613,517	-107,459	-0,109	-0,017
-612,503	13,541	0,089	-0,051
-611,488	701,299	-0,039	0,076
-610,474	28,487	-0,039	0,024
-609,459	316,100	0,076	0,106
-608,444	28,771	-0,130	0,081
-607,430	-200,000	0,051	-0,206
-606,415	-200,000	0,000	0,058
-605,401	-200,000	0,035	-0,175
-604,386	-146,261	0,072	0,005
-603,371	35,499	0,136	0,088
-602,357	-200,000	0,023	0,101
-601,342	-200,000	0,006	0,021
-600,328	-137,336	-0,121	-0,010
-599,313	-18,207	0,045	-0,021
-598,298	-118,273	0,054	-0,007
-597,284	11,299	-0,028	0,016
-596,269	-200,000	0,000	-0,030
-595,255	800,000	0,033	0,098
-594,240	356,837	0,072	0,106
-593,225	-44,290	-0,189	-0,070
-592,211	-200,000	-0,033	-0,141
-591,196	256,681	0,047	-0,060
-590,182	67,659	0,122	0,092
-589,167	777,127	-0,044	0,088
-588,152	155,183	-0,120	0,122
-587,138	-182,054	-0,072	0,001
-586,123	-200,000	-0,013	-0,112
-585,109	800,000	0,062	-0,140
-584,094	-200,000	-0,026	-0,157
-583,079	-90,791	0,068	0,014
-582,065	143,447	-0,062	0,061
-581,050	-181,953	0,133	-0,002
-580,036	-151,871	-0,163	-0,009
-579,021	-200,000	-0,006	-0,079
-578,006	-46,659	-0,099	-0,036
-576,992	-176,750	0,082	-0,001
-575,977	-200,000	-0,001	-0,076
-574,963	97,787	0,068	0,057
-573,948	-200,000	-0,005	0,020
-572,934	800,000	0,033	-0,103
-571,919	-200,000	-0,003	-0,110
-570,904	-30,976	-0,050	-0,021
-569,890	377,314	-0,073	-0,111
-568,875	1,641	-0,095	0,050
-567,861	800,000	-0,032	0,081
-566,846	-200,000	0,000	-0,067
-565,831	-75,306	0,098	-0,026
-564,817	301,630	0,079	-0,108
-563,802	-101,346	-0,123	-0,022
-562,788	-133,088	0,060	0,006
-561,773	-26,057	-0,106	-0,046
-560,758	-32,915	0,049	-0,020
-559,744	-200,000	-0,025	0,241
-558,729	-200,000	0,030	0,222
-557,715	-172,859	-0,055	0,001
-556,700	-117,389	-0,097	0,013
-555,685	53,377	-0,088	0,062
-554,671	-200,000	-0,034	0,127
-553,656	337,803	-0,017	-0,024
-552,642	-87,053	-0,071	0,016
-551,627	-91,834	0,062	-0,013
-550,612	197,278	-0,121	-0,136
-549,598	304,497	-0,076	-0,104
-548,583	188,700	-0,107	-0,118
-547,569	278,103	0,077	-0,102
-546,554	506,667	-0,021	-0,035
-545,539	-98,689	-0,057	-0,011
-544,525	339,500	-0,035	0,050
-543,510	-37,395	0,030	0,012
-542,496	-152,870	-0,094	-0,005
-541,481	-63,688	-0,077	-0,023
-540,466	66,925	0,101	-0,075
-539,452	800,000	0,015	-0,044
-538,437	-87,007	0,095	0,021
-537,423	-45,387	0,144	-0,053
-536,408	44,235	-0,067	-0,045
-535,393	47,570	-0,047	-0,032
-534,379	-162,680	0,097	-0,003
-533,364	-200,000	-0,039	0,132
-532,350	-32,730	0,067	0,027
-531,335	-200,000	-0,026	0,165
-530,321	-200,000	0,038	0,131
-529,306	411,402	-0,002	-0,004
-528,291	800,000	-0,054	-0,155
-527,277	541,292	-0,114	-0,201
-526,262	-77,324	-0,112	0,028
-525,248	-80,856	-0,051	-0,012
-524,233	-18,516	-0,013	-0,006
-523,218	154,322	0,078	-0,079
-522,204	-34,373	-0,090	0,036
-521,189	-112,252	-0,181	-0,026
-520,175	5,234	0,041	0,022
-519,160	800,000	-0,056	-0,117
-518,145	-200,000	0,068	-0,000
-517,131	-105,986	-0,085	0,014
-516,116	419,660	0,059	-0,093
-515,102	-46,523	-0,080	0,029
-514,087	-200,000	0,001	-0,030
-513,072	-31,224	-0,071	-0,029
-512,058	324,082	-0,042	-0,059
-511,043	439,441	0,034	0,055
-510,029	800,000	0,098	0,230
-509,014	84,267	-0,059	0,047
-507,999	97,337	0,071	-0,060
-506,985	379,815	-0,049	-0,074
-505,970	176,754	0,039	-0,042
-504,956	204,657	0,040	-0,046
-503,941	800,000	0,036	-0,093
-502,926	42,620	0,057	-0,038
-501,912	-200,000	0,006	0,138
-500,897	329,929	0,029	-0,041
-499,883	-25,760	-0,126	-0,055
-498,868	-200,000	-0,005	0,054
-497,853	-200,000	-0,006	0,019
-496,839	448,293	0,052	0,084
-495,824	293,428	-0,048	0,065
-494,810	-29,173	0,173	0,073
-493,795	193,674	0,040	0,045
-492,781	17,395	0,040	-0,023
-491,766	195,065	-0,057	0,064
-490,751	322,554	-0,049	0,069
-489,737	34,307	-0,062	0,039
-488,722	69,200	0,127	0,096
-487,708	107,661	0,098	-0,086
-486,693	415,181	-0,083	-0,131
-485,678	-25,470	-0,162	-0,070
-484,664	48,313	0,016	-0,011
-483,649	-200,000	-0,049	-0,178
-482,635	225,518	-0,099	-0,118
-481,620	37,628	-0,056	0,037
-480,605	146,022	0,161	0,159
-479,591	-200,000	-0,015	0,113
-478,576	87,352	-0,063	0,051
-477,562	-200,000	-0,003	0,121
-476,547	-25,564	0,072	-0,031
-475,532	-200,000	0,003	-0,016
-474,518	-102,547	-0,157	0,027
-473,503	121,588	-0,057	-0,052
-472,489	-29,742	-0,062	-0,026
-471,474	-200,000	0,036	0,148
-470,459	-97,484	-0,122	-0,023
-469,445	800,000	-0,025	-0,070
-468,430	-200,000	0,006	-0,034
-467,416	477,743	0,052	-0,087
-466,401	800,000	0,070	0,162
-465,386	800,000	0,052	0,148
-464,372	-200,000	0,031	-0,112
-463,357	235,470	0,040	-0,049
-462,343	391,052	-0,002	0,003
-461,328	163,326	0,060	-0,062
-460,313	-63,985	-0,064	-0,019
-459,299	800,000	0,035	0,106
-458,284	800,000	-0,016	-0,042
-457,270	-48,932	-0,102	0,036
-456,255	-80,245	-0,071	-0,017
-455,241	-200,000	-0,014	0,072
-454,226	-200,000	0,020	-0,073
-453,211	800,000	0,027	-0,073
-452,197	68,186	0,134	-0,100
-451,182	499,205	0,025	-0,043
-450,168	153,353	0,079	0,079
-449,153	-53,711	0,144	0,048
-448,138	-200,000	0,004	0,046
-447,124	77,312	-0,058	-0,045
-446,109	800,000	0,014	0,040
-445,095	-200,000	-0,011	0,037
-444,080	-200,000	-0,006	0,041
-443,065	-200,000	-0,020	0,087
-442,051	-200,000	-0,004	-0,089
-441,036	-48,967	-0,090	0,032
-440,022	213,959	0,040	-0,046
-439,007	33,328	0,122	0,078
-437,992	59,603	0,025	0,018
-436,978	-200,000	0,012	-0,121
-435,963	-176,026	0,094	-0,002
-434,949	51,372	0,087	0,061
-433,934	-200,000	-0,015	-0,052
-432,919	-39,597	-0,169	0,065
-431,905	32,403	-0,071	0,045
-430,890	24,542	0,083	0,050
-429,876	396,489	0,097	0,150
-428,861	257,299	-0,027	0,034
-427,846	8,603	-0,098	-0,054
-426,832	-59,172	-0,037	-0,012
-425,817	-200,000	0,004	-0,156
-424,803	-107,730	0,118	-0,019
-423,788	-104,546	-0,084	0,014
-422,773	185,511	-0,062	0,067
-421,759	169,575	-0,017	-0,017
-420,744	-106,972	0,013	0,002
-419,730	-200,000	-0,006	-0,103
-418,715	800,000	0,015	0,045
-417,701	800,000	0,084	0,181
-416,686	76,596	0,099	0,077
-415,671	-39,461	-0,013	0,005
-414,657	135,081	-0,051	-0,049
-413,642	-200,000	-0,011	0,059
-412,628	29,556	0,036	-0,022
-411,613	368,948	0,079	-0,117
-410,598	-164,096	-0,146	0,005
-409,584	-176,405	0,084	-0,002
-408,569	800,000	-0,026	-0,073
-407,555	-13,396	-0,091	-0,043
-406,540	800,000	0,043	-0,117
-405,525	47,454	-0,245	-0,167
-404,511	497,223	0,060	-0,102
-403,496	800,000	-0,033	0,091
-402,482	127,003	0,045	-0,042
-401,467	-161,846	-0,149	-0,005
-400,452	-200,000	-0,001	0,033
-399,438	-200,000	-0,024	0,119
-398,423	800,000	-0,043	-0,098
-397,409	127,495	-0,082	-0,077
-396,394	800,000	0,046	-0,095
-395,379	-21,665	0,095	-0,042
-394,365	-200,000	-0,029	0,148
-393,350	-200,000	0,011	-0,073
-392,336	691,545	-0,033	0,064
-391,321	-200,000	-0,004	-0,033
-390,306	-200,000	-0,018	-0,132
-389,292	800,000	-0,055	-0,125
-388,277	-70,629	-0,049	-0,013
-387,263	-103,096	0,130	0,022
-386,248	-55,737	-0,064	0,021
-385,233	100,992	-0,058	-0,049
-384,219	-164,305	-0,076	0,002
-383,204	340,664	-0,069	-0,099
-382,190	800,000	-0,012	-0,032
-381,175	-136,100	0,086	0,007
-380,160	103,831	0,095	0,082
-379,146	800,000	-0,028	0,063
-378,131	-200,000	-0,003	0,010
-377,117	259,211	0,010	0,013
-376,102	373,014	-0,074	0,110
-375,088	-112,790	-0,056	-0,008
-374,073	250,570	-0,117	0,146
-373,058	-200,000	0,013	0,051
-372,044	-196,391	0,069	0,000
-371,029	800,000	-0,022	0,050
-370,015	-200,000	0,014	0,077
-369,000	-47,451	-0,119	-0,042
-367,985	-153,274	-0,093	0,005
-366,971	-47,676	-0,111	0,039
-365,956	800,000	0,037	-0,116
-364,942	-89,467	0,047	-0,010
-363,927	800,000	-0,061	0,130
-362,912	800,000	0,046	0,109
-361,898	-23,300	-0,127	-0,056
-360,883	524,715	0,079	-0,137
-359,869	-200,000	-0,003	-0,082
-358,854	29,803	-0,032	-0,020
-357,839	-47,985	-0,037	0,013
-356,825	-21,924	0,048	-0,021
-355,810	141,442	-0,008	-0,007
-354,796	578,978	-0,037	-0,066
-353,781	139,974	-0,117	0,113
-352,766	25,630	0,074	-0,045
-351,752	-98,374	-0,020	0,004
-350,737	-79,215	0,094	-0,023
-349,723	-10,559	0,079	-0,038
-348,708	464,886	0,055	-0,090
-347,693	-200,000	0,014	-0,073
-346,679	524,430	-0,052	-0,091
-345,664	-142,216	-0,169	-0,012
-344,650	-200,000	0,003	-0,118
-343,635	-200,000	-0,012	-0,049
-342,620	365,321	0,041	0,061
-341,606	257,550	0,070	0,088
-340,591	-113,718	-0,098	-0,014
-339,577	82,372	-0,067	-0,053
-338,562	95,480	0,119	-0,099
-337,548	555,393	-0,060	-0,106
-336,533	-200,000	0,007	-0,066
-335,518	68,391	0,046	-0,034
-334,504	-95,451	0,117	-0,023
-333,489	-200,000	-0,000	0,163
-332,475	204,618	-0,071	-0,080
-331,460	335,822	0,102	-0,145
-330,445	-105,016	-0,038	0,006
-329,431	-77,658	0,175	0,044
-328,416	-200,000	-0,010	0,053
-327,402	-200,000	0,018	-0,111
-326,387	-107,154	0,149	0,024
-325,372	27,870	-0,173	-0,106
-324,358	-139,086	0,063	0,005
-323,343	-200,000	-0,002	0,042
-322,329	57,217	0,063	-0,045
-321,314	-134,258	0,058	-0,005
-320,299	-99,569	0,089	0,016
-319,285	800,000	-0,024	0,057
-318,270	-200,000	0,022	0,202
-317,256	37,850	0,111	-0,072
-316,241	610,861	0,017	0,032
-315,226	-142,624	0,119	-0,008
-314,212	-77,953	-0,054	0,014
-313,197	-200,000	-0,002	0,097
-312,183	-200,000	0,016	-0,090
-311,168	-44,865	-0,257	0,093
-310,153	-200,000	-0,027	-0,100
-309,139	800,000	0,024	-0,054
-308,124	257,498	0,087	0,110
-307,110	800,000	0,006	0,020
-306,095	138,000	0,065	0,062
-305,080	334,885	-0,048	-0,068
-304,066	-72,895	-0,091	-0,024
-303,051	-69,667	-0,046	-0,013
-302,037	19,244	0,025	0,015
-301,022	-29,168	-0,015	0,006
-300,008	800,000	0,040	0,120
-298,993	800,000	0,045	0,101
-297,978	-25,970	0,097	0,042
-296,964	40,090	-0,015	0,010
-295,949	-79,046	-0,073	-0,018
-294,935	-199,072	-0,138	-0,001
-293,920	-200,000	-0,002	-0,073
-292,905	-23,849	0,193	0,084
-291,891	48,025	-0,106	0,072
-290,876	-158,091	0,136	-0,006
-289,862	112,330	0,132	0,117
-288,847	800,000	-0,033	0,075
-287,832	-200,000	-0,002	0,140
-286,818	-128,962	0,080	-0,008
-285,803	305,847	0,041	0,056
-284,789	800,000	-0,033	0,083
-283,774	-6,362	0,082	0,041
-282,759	-86,212	0,103	-0,023
-281,745	43,360	-0,106	0,070
-280,730	21,025	-0,073	-0,043
-279,716	-10,327	0,046	-0,022
-278,701	-92,900	0,116	0,023
-277,686	101,816	0,095	-0,081
-276,672	318,875	0,090	0,124
-275,657	-200,000	0,022	-0,102
-274,643	-41,879	-0,055	-0,020
-273,628	57,212	-0,080	0,057
-272,613	-200,000	0,011	0,068
-271,599	-119,469	-0,019	0,002
-270,584	-47,378	-0,036	-0,013
-269,570	-104,309	0,094	0,016
-268,555	-97,104	-0,113	0,021
-267,540	-130,609	0,226	-0,022
-266,526	-95,110	-0,120	0,023
-265,511	800,000	0,020	-0,059
-264,497	-200,000	0,007	-0,032
-263,482	-142,531	0,128	0,009
-262,467	-200,000	0,004	0,031
-261,453	-78,371	-0,118	-0,029
-260,438	155,879	-0,055	-0,055
-259,424	42,888	-0,092	0,061
-258,409	-1,603	0,106	-0,055
-257,395	-33,066	-0,093	-0,037
-256,380	153,334	-0,011	-0,011
-255,365	135,074	0,032	-0,030
-254,351	-44,985	0,032	0,011
-253,336	-127,516	-0,055	-0,006
-252,322	-200,000	-0,002	0,028
-251,307	-87,015	-0,038	0,008
-250,292	381,135	0,040	0,060
-249,278	6,589	0,136	0,073
-248,263	800,000	0,009	-0,023
-247,249	331,432	0,096	0,136
-246,234	-65,235	0,024	-0,007
-245,219	-111,731	-0,041	-0,006
-244,205	-187,147	0,057	0,001
-243,190	-148,862	-0,072	-0,004
-242,176	21,254	-0,068	-0,040
-241,161	-63,335	0,142	0,042
-240,146	-96,811	0,020	-0,004
-239,132	103,127	-0,075	-0,064
-238,117	-200,000	-0,013	-0,104
-237,103	86,311	-0,087	-0,070
-236,088	-200,000	-0,016	-0,081
-235,073	-37,376	0,071	-0,028
-234,059	620,788	0,064	0,118
-233,044	-200,000	0,002	0,134
-232,030	66,024	-0,078	-0,058
-231,015	-200,000	-0,014	0,120
-230,000	184,170	-0,044	0,047
-228,986	-166,615	0,144	0,004
-227,971	-200,000	0,017	-0,081
-226,957	290,821	-0,051	0,067
-225,942	800,000	-0,026	0,063
-224,927	53,676	0,167	-0,117
-223,913	251,435	-0,033	0,041
-222,898	383,148	0,044	-0,065
-221,884	-74,977	0,029	-0,008
-220,869	-86,538	-0,042	-0,009
-219,855	-200,000	0,005	-0,036
-218,840	504,322	-0,044	0,074
-217,825	800,000	0,013	0,040
-216,811	-200,000	-0,004	0,151
-215,796	-200,000	0,013	-0,090
-214,782	-113,700	-0,047	-0,007
-213,767	-77,534	-0,089	0,022
-212,752	-85,271	0,057	-0,013
-211,738	108,096	0,042	-0,037
-210,723	-200,000	-0,004	0,039
-209,709	-17,930	0,134	-0,061
-208,694	-200,000	0,012	0,040
-207,679	781,038	-0,004	0,008
-206,665	306,290	-0,091	-0,123
-205,650	161,494	0,081	-0,082
-204,636	800,000	0,067	0,142
-203,621	226,364	0,129	0,153
-202,606	22,095	0,115	-0,068
-201,592	-200,000	0,000	-0,012
-200,577	96,874	-0,013	-0,011
-199,563	-110,067	-0,038	0,006
-198,548	-67,775	0,022	0,006
-197,533	279,389	0,024	-0,031
-196,519	-109,910	0,121	0,018
-195,504	264,292	0,039	0,050
-194,490	800,000	-0,040	0,100
-193,475	125,777	-0,136	-0,125
-192,460	-200,000	0,000	0,047
-191,446	49,133	0,087	0,059
-190,431	12,318	0,045	0,025
-189,417	470,749	0,060	-0,099
-188,402	51,948	0,015	-0,011
-187,387	58,002	-0,074	-0,052
-186,373	-200,000	0,006	-0,124
-185,358	353,061	-0,009	-0,014
-184,344	196,797	0,044	-0,049
-183,329	800,000	0,033	-0,074
-182,315	-102,074	0,154	0,027
-181,300	649,637	0,062	0,116
-180,285	262,431	-0,010	-0,013
-179,271	-200,000	-0,017	0,115
-178,256	19,645	-0,075	-0,043
-177,242	-200,000	-0,002	0,037
-176,227	-200,000	-0,045	0,185
-175,212	800,000	-0,035	0,083
-174,198	74,049	-0,075	0,058
-173,183	311,784	-0,034	-0,047
-172,169	439,398	-0,050	0,080
-171,154	-58,060	0,077	-0,024
-170,139	-200,000	-0,010	-0,061
-169,125	800,000	-0,016	-0,037
-168,110	-184,262	0,088	0,001
-167,096	800,000	-0,017	-0,042
-166,081	800,000	0,060	0,148
-165,066	-110,631	-0,167	0,025
-164,052	-62,424	0,157	-0,047
-163,037	-200,000	0,001	-0,045
-162,023	-70,233	0,149	0,041
-161,008	164,286	-0,085	0,087
-159,993	800,000	-0,059	-0,143
-158,979	-175,896	0,121	0,002
-157,964	161,425	-0,088	0,090
-156,950	33,037	-0,050	-0,031
-155,935	182,454	0,074	0,080
-154,920	649,309	0,040	0,075
-153,906	302,762	-0,094	0,126
-152,891	-58,372	0,109	-0,034
-151,877	-25,257	-0,147	0,063
-150,862	50,460	0,074	0,051
-149,847	-82,115	-0,003	0,001
-148,833	-57,574	0,041	-0,013
-147,818	-47,580	-0,095	0,033
-146,804	800,000	0,048	0,111
-145,789	800,000	-0,074	0,151
-144,775	-132,078	-0,088	-0,008
-143,760	144,856	0,065	-0,063
-142,745	225,916	-0,044	-0,052
-141,731	-68,151	-0,065	0,018
-140,716	-60,457	0,107	0,033
-139,702	2,354	-0,095	-0,050
-138,687	-75,283	0,090	0,023
-137,672	-8,041	-0,064	0,031
-136,658	-162,496	-0,067	-0,002
-135,643	800,000	-0,013	0,033
-134,629	-121,672	0,075	-0,009
-133,614	-18,824	0,086	0,039
-132,599	-135,997	0,123	-0,010
-131,585	412,127	-0,054	-0,084
-130,570	94,199	-0,107	0,088
-129,556	219,196	0,096	-0,112
-128,541	-200,000	-0,009	-0,043
-127,526	-200,000	0,009	0,038
-126,512	32,009	0,074	-0,046
-125,497	139,925	-0,038	-0,037
-124,483	800,000	-0,033	0,066
-123,468	105,913	-0,116	-0,100
-122,453	67,519	0,029	-0,022
-121,439	38,014	-0,090	0,058
-120,424	800,000	0,025	-0,079
