DTS Sentinel unit serial number:	SN410029Multiplexer serial number:	ORYXHardware model number:	OX2-SRSoftware version number:	ORYX F/W v4,00 Oryx Data Collector v3.7.2.0data status	okinstallation	B6 Nyhavnadifferential loss correction	single-endedforward channel	channel 2reverse channel	N/Adate	2023/12/08time	09:00:08forward acquisition time	300,00reverse acquisition time	0,00gamma	499,1914k internal	0,3168k external	0,3168temperature offset calibration	1,0000default loss term (dB/km)	0,3820temperature slope calibration	1,0000multiplexer offset coefficient	1,0000multiplexer slope coefficient	1,0000fibre end	0,00T internal ref (°C)	12,80T ext. ref 1 (°C)	-2,26T ext. ref 2 (°C)	-2,23length (m)	temperature (°C)	Stokes	anti-Stokes-744,400	12,403	-0,037	-0,021
-743,385	-59,509	-0,333	-0,104
-742,371	-160,336	0,230	0,009
-741,356	-102,112	-0,322	0,056
-740,342	33,947	0,095	0,061
-739,327	-43,265	-0,290	0,107
-738,312	173,824	0,097	0,103
-737,298	-150,164	-0,291	0,016
-736,283	260,469	0,089	0,114
-735,269	-34,228	-0,306	-0,123
-734,254	93,925	0,128	0,107
-733,239	-54,930	-0,406	-0,134
-732,225	137,933	0,077	0,074
-731,210	-30,152	0,037	0,016
-730,196	-125,242	-0,085	-0,009
-729,181	157,712	-0,106	0,108
-728,167	-72,492	-0,030	0,008
-727,152	105,784	-0,099	0,086
-726,137	-200,000	-0,002	-0,029
-725,123	14,320	-0,120	-0,068
-724,108	515,685	-0,069	-0,118
-723,094	246,981	-0,056	0,069
-722,079	380,072	-0,049	-0,074
-721,064	242,274	0,005	-0,006
-720,050	-200,000	0,027	0,135
-719,035	800,000	-0,033	0,070
-718,021	800,000	-0,021	-0,047
-717,006	144,110	-0,072	-0,071
-715,991	800,000	-0,030	0,067
-714,977	538,348	-0,100	0,175
-713,962	163,052	-0,066	0,068
-712,948	800,000	0,057	0,182
-711,933	800,000	-0,011	0,034
-710,918	-200,000	-0,001	0,013
-709,904	44,862	-0,078	-0,053
-708,889	-126,546	0,087	-0,009
-707,875	24,943	-0,051	0,031
-706,860	77,235	-0,099	-0,077
-705,845	163,724	0,061	-0,063
-704,831	338,670	-0,066	0,095
-703,816	-200,000	0,028	-0,147
-702,802	800,000	-0,044	0,130
-701,787	-79,546	-0,109	-0,027
-700,772	-10,764	-0,127	0,061
-699,758	88,710	-0,042	-0,034
-698,743	63,452	0,047	0,035
-697,729	12,566	-0,050	0,028
-696,714	641,761	0,042	0,079
-695,699	-37,861	-0,158	-0,061
-694,685	800,000	0,023	0,052
-693,670	-200,000	0,017	0,055
-692,656	-110,420	-0,072	0,011
-691,641	-142,735	0,200	-0,014
-690,627	146,724	0,088	0,087
-689,612	72,788	0,086	-0,066
-688,597	73,855	-0,039	-0,030
-687,583	137,748	-0,053	-0,051
-686,568	800,000	0,042	-0,099
-685,554	50,625	0,013	0,009
-684,539	-200,000	0,031	0,105
-683,524	-58,991	0,096	0,030
-682,510	-200,000	-0,036	0,124
-681,495	220,285	-0,061	0,072
-680,481	86,738	-0,156	-0,126
-679,466	800,000	-0,038	-0,106
-678,451	800,000	-0,017	0,044
-677,437	34,352	-0,059	-0,038
-676,422	320,974	-0,067	0,093
-675,408	-89,953	-0,144	0,031
-674,393	568,810	0,060	-0,108
-673,378	2,731	-0,123	-0,065
-672,364	800,000	-0,017	-0,041
-671,349	647,150	-0,011	-0,020
-670,335	-80,865	-0,115	-0,028
-669,320	219,438	-0,046	-0,054
-668,305	-97,570	0,126	0,024
-667,291	-71,759	-0,097	-0,026
-666,276	800,000	0,032	0,072
-665,262	-96,649	-0,066	-0,013
-664,247	-153,250	-0,069	0,003
-663,232	6,500	0,023	0,013
-662,218	-85,756	0,147	0,033
-661,203	207,727	0,139	0,159
-660,189	127,857	-0,078	-0,072
-659,174	740,078	0,044	-0,086
-658,159	-200,000	0,028	-0,096
-657,145	267,190	-0,134	-0,172
-656,130	-200,000	-0,014	0,105
-655,116	-200,000	0,025	0,124
-654,101	800,000	-0,018	-0,045
-653,086	78,249	-0,124	-0,097
-652,072	619,783	-0,029	-0,054
-651,057	-41,352	-0,047	-0,018
-650,043	512,407	-0,031	-0,053
-649,028	-200,000	-0,016	-0,067
-648,014	-53,449	0,120	0,040
-646,999	-113,070	-0,069	0,010
-645,984	60,832	0,085	0,061
-644,970	14,556	-0,088	-0,050
-643,955	-43,287	0,072	-0,027
-642,941	-88,908	0,025	-0,005
-641,926	276,330	-0,025	-0,032
-640,911	-200,000	-0,026	0,108
-639,897	572,175	-0,043	0,076
-638,882	113,534	0,080	0,071
-637,868	138,963	-0,050	0,048
-636,853	-95,481	-0,164	0,032
-635,838	98,385	0,035	-0,029
-634,824	-200,000	-0,023	-0,083
-633,809	-107,061	0,030	0,005
-632,795	-15,519	-0,068	0,032
-631,780	62,522	0,098	-0,072
-630,765	800,000	0,006	0,018
-629,751	-80,163	-0,108	0,026
-628,736	-23,772	0,074	0,032
-627,722	800,000	0,060	-0,141
-626,707	-160,812	-0,020	-0,001
-625,692	523,557	-0,071	0,122
-624,678	-153,393	-0,115	-0,006
-623,663	800,000	0,048	-0,102
-622,649	-200,000	-0,029	-0,100
-621,634	-200,000	-0,015	-0,096
-620,619	-200,000	-0,019	-0,176
-619,605	-200,000	0,001	-0,012
-618,590	-152,621	-0,067	0,003
-617,576	-200,000	0,007	-0,027
-616,561	-200,000	-0,005	0,018
-615,546	-110,816	-0,142	-0,021
-614,532	190,137	-0,072	-0,079
-613,517	-200,000	0,044	-0,175
-612,503	-200,000	0,011	0,044
-611,488	311,393	-0,051	-0,070
-610,474	277,271	0,087	0,114
-609,459	299,245	-0,113	0,153
-608,444	35,909	-0,064	-0,041
-607,430	-200,000	0,011	-0,144
-606,415	569,774	-0,023	-0,040
-605,401	-200,000	-0,002	0,014
-604,386	103,715	0,072	0,062
-603,371	-46,771	-0,144	0,051
-602,357	-169,279	0,057	0,001
-601,342	-200,000	0,019	0,204
-600,328	198,213	-0,016	-0,018
-599,313	616,792	0,060	-0,110
-598,298	261,584	-0,048	0,061
-597,284	84,751	0,106	0,085
-596,269	517,021	0,026	0,045
-595,255	127,454	-0,073	-0,067
-594,240	-25,189	-0,073	-0,032
-593,225	-32,850	0,055	0,022
-592,211	-200,000	-0,029	-0,177
-591,196	-200,000	0,005	-0,057
-590,182	361,889	0,013	-0,018
-589,167	800,000	0,002	0,006
-588,152	49,926	-0,127	0,087
-587,138	800,000	0,020	0,041
-586,123	419,127	0,026	-0,041
-585,109	-104,691	-0,081	-0,013
-584,094	9,571	0,134	0,074
-583,079	-137,865	0,063	-0,005
-582,065	-200,000	0,011	0,064
-581,050	800,000	0,048	0,112
-580,036	191,455	0,055	0,061
-579,021	329,730	-0,104	-0,147
-578,006	91,478	-0,118	-0,097
-576,992	-200,000	0,004	-0,081
-575,977	-200,000	-0,006	0,041
-574,963	54,253	-0,059	0,041
-573,948	11,246	0,093	-0,052
-572,934	-200,000	-0,001	0,044
-571,919	-159,090	0,074	0,003
-570,904	9,658	-0,082	0,045
-569,890	800,000	0,009	-0,026
-568,875	-52,698	0,115	0,039
-567,861	-115,460	0,077	0,010
-566,846	68,078	-0,024	0,018
-565,831	267,396	-0,068	-0,087
-564,817	520,702	-0,025	-0,043
-563,802	372,465	-0,038	-0,056
-562,788	-200,000	0,020	-0,157
-561,773	-200,000	0,029	-0,104
-560,758	800,000	0,069	0,153
-559,744	-200,000	0,018	0,061
-558,729	-200,000	0,000	0,098
-557,715	-188,045	-0,085	-0,001
-556,700	-33,650	0,136	-0,055
-555,685	9,907	-0,114	0,063
-554,671	800,000	-0,009	-0,023
-553,656	800,000	0,052	0,113
-552,642	276,363	0,076	-0,098
-551,627	-200,000	-0,021	0,067
-550,612	-200,000	-0,038	0,129
-549,598	-84,114	0,074	0,017
-548,583	733,750	0,039	-0,076
-547,569	177,795	-0,090	-0,096
-546,554	364,532	0,028	-0,041
-545,539	380,680	0,046	0,069
-544,525	-200,000	0,023	0,146
-543,510	-102,726	-0,079	0,014
-542,496	134,633	-0,053	-0,051
-541,481	-200,000	-0,033	-0,193
-540,466	-135,770	0,062	0,005
-539,452	3,983	0,076	0,040
-538,437	59,426	-0,087	0,063
-537,423	-92,970	0,066	0,013
-536,408	-145,268	-0,111	0,007
-535,393	68,252	-0,095	0,071
-534,379	-200,000	0,005	-0,039
-533,364	-45,982	0,194	0,069
-532,350	345,645	0,075	0,107
-531,335	-200,000	-0,003	-0,022
-530,321	-26,614	0,135	-0,057
-529,306	-105,115	-0,160	0,026
-528,291	563,983	-0,018	-0,031
-527,277	-149,271	0,149	0,009
-526,262	-45,246	0,070	0,025
-525,248	-90,366	0,047	0,010
-524,233	-200,000	0,020	0,097
-523,218	-200,000	0,006	0,036
-522,204	466,808	-0,032	0,053
-521,189	277,959	0,049	0,064
-520,175	800,000	0,015	-0,039
-519,160	3,363	-0,069	-0,037
-518,145	800,000	-0,047	0,126
-517,131	66,089	-0,027	-0,020
-516,116	-200,000	0,002	0,052
-515,102	-95,802	-0,088	-0,017
-514,087	800,000	0,016	-0,037
-513,072	-79,053	-0,155	0,038
-512,058	37,903	-0,058	-0,037
-511,043	800,000	-0,041	-0,106
-510,029	71,249	0,051	-0,038
-509,014	-175,367	0,167	-0,003
-507,999	191,907	0,077	0,085
-506,985	800,000	-0,061	-0,125
-505,970	-200,000	0,012	-0,245
-504,956	-200,000	0,016	-0,068
-503,941	800,000	-0,042	0,098
-502,926	474,460	-0,035	0,058
-501,912	800,000	-0,031	0,068
-500,897	-11,299	-0,120	0,057
-499,883	-200,000	0,013	-0,083
-498,868	-200,000	0,032	-0,117
-497,853	280,503	0,009	-0,011
-496,839	252,340	-0,026	-0,032
-495,824	154,872	0,058	-0,058
-494,810	-200,000	0,017	0,104
-493,795	75,158	-0,141	-0,108
-492,781	-200,000	0,005	0,047
-491,766	-55,716	0,209	-0,068
-490,751	27,382	0,060	-0,037
-489,737	323,725	-0,039	-0,054
-488,722	-78,192	0,150	0,037
-487,708	728,404	0,038	-0,073
-486,693	25,468	0,122	-0,074
-485,678	-40,079	0,095	-0,036
-484,664	-62,751	-0,038	-0,011
-483,649	-123,568	-0,105	-0,012
-482,635	-149,773	0,027	0,001
-481,620	-119,688	-0,043	-0,005
-480,605	-69,993	0,116	-0,032
-479,591	-122,059	-0,113	-0,013
-478,576	-61,267	-0,103	0,031
-477,562	-200,000	0,014	-0,131
-476,547	-69,468	-0,048	-0,013
-475,532	800,000	-0,031	-0,084
-474,518	43,018	0,080	0,053
-473,503	800,000	0,016	-0,037
-472,489	15,685	0,088	-0,050
-471,474	800,000	-0,062	0,133
-470,459	-61,835	-0,183	-0,055
-469,445	-133,098	0,100	0,009
-468,430	800,000	0,048	0,100
-467,416	-200,000	-0,005	-0,048
-466,401	214,823	0,041	0,047
-465,386	7,912	0,190	0,103
-464,372	-200,000	0,011	0,079
-463,357	-200,000	-0,001	0,013
-462,343	-200,000	-0,000	-0,106
-461,328	800,000	0,041	0,113
-460,313	100,650	0,096	0,081
-459,299	-81,184	-0,052	-0,012
-458,284	601,419	-0,043	0,078
-457,270	800,000	-0,025	-0,061
-456,255	425,879	-0,054	-0,085
-455,241	-134,726	-0,205	0,018
-454,226	-130,441	0,033	0,003
-453,211	12,154	-0,067	-0,037
-452,197	386,068	0,029	0,044
-451,182	-200,000	-0,010	0,141
-450,168	-47,992	-0,063	-0,022
-449,153	238,691	0,042	-0,050
-448,138	-123,062	-0,046	-0,005
-447,124	151,351	-0,026	-0,025
-446,109	800,000	0,025	0,061
-445,095	-126,309	-0,103	-0,011
-444,080	541,488	0,062	0,108
-443,065	-149,411	0,076	-0,004
-442,051	6,596	-0,028	-0,015
-441,036	-200,000	0,018	-0,099
-440,022	-132,764	-0,058	0,005
-439,007	-200,000	-0,004	-0,017
-437,992	-200,000	0,020	-0,077
-436,978	-200,000	0,001	-0,038
-435,963	274,080	0,052	-0,067
-434,949	800,000	0,069	0,208
-433,934	-141,947	0,038	-0,003
-432,919	-200,000	-0,008	0,030
-431,905	-101,575	-0,118	0,021
-430,890	153,750	0,035	-0,035
-429,876	63,399	0,143	-0,104
-428,861	89,619	-0,073	-0,059
-427,846	-167,115	0,053	-0,002
-426,832	800,000	-0,037	-0,085
-425,817	112,697	-0,031	-0,028
-424,803	63,902	0,051	-0,037
-423,788	-58,679	-0,036	0,011
-422,773	-10,595	-0,120	0,057
-421,759	119,185	-0,085	0,076
-420,744	42,160	-0,198	0,130
-419,730	-69,681	-0,107	-0,029
-418,715	-116,629	-0,094	0,012
-417,701	-111,480	-0,126	0,018
-416,686	800,000	0,008	0,021
-415,671	-139,656	0,088	-0,007
-414,657	10,183	-0,056	-0,031
-413,642	7,973	0,123	-0,067
-412,628	-200,000	0,020	-0,125
-411,613	-100,615	0,061	0,011
-410,598	167,094	-0,030	-0,031
-409,584	-109,471	0,096	-0,014
-408,569	-152,648	0,102	-0,005
-407,555	265,078	-0,049	0,062
-406,540	800,000	-0,009	-0,025
-405,525	470,608	-0,080	0,130
-404,511	228,681	-0,092	-0,109
-403,496	22,544	0,018	-0,010
-402,482	4,790	0,008	-0,004
-401,467	187,609	-0,094	0,101
-400,452	-114,653	-0,158	-0,022
-399,438	-141,409	0,151	-0,011
-398,423	10,138	0,010	0,006
-397,409	-200,000	0,028	-0,169
-396,394	-200,000	0,023	-0,105
-395,379	40,578	0,120	-0,079
-394,365	364,823	-0,041	-0,059
-393,350	-124,142	0,095	0,011
-392,336	-200,000	0,039	0,125
-391,321	-132,328	-0,197	0,018
-390,306	-200,000	-0,022	0,129
-389,292	-17,810	0,129	0,059
-388,277	19,457	0,112	0,065
-387,263	-19,410	0,088	-0,040
-386,248	-82,830	0,200	-0,046
-385,233	-200,000	-0,013	-0,100
-384,219	81,486	-0,116	-0,091
-383,204	-78,729	-0,048	0,012
-382,190	-11,844	0,081	-0,038
-381,175	800,000	0,004	-0,010
-380,160	800,000	-0,028	0,086
-379,146	25,245	-0,116	0,070
-378,131	123,406	-0,045	0,041
-377,117	800,000	0,055	0,128
-376,102	-200,000	0,005	-0,097
-375,088	-200,000	-0,005	-0,057
-374,073	800,000	-0,021	0,058
-373,058	-200,000	0,022	0,079
-372,044	119,068	0,153	0,137
-371,029	-200,000	-0,016	-0,060
-370,015	123,939	0,094	-0,085
-369,000	-200,000	-0,026	-0,100
-367,985	29,649	-0,103	0,063
-366,971	-200,000	0,030	0,150
-365,956	800,000	0,005	-0,011
-364,942	34,828	0,027	0,017
-363,927	-200,000	-0,029	0,118
-362,912	-0,444	-0,025	-0,013
-361,898	-121,959	-0,119	-0,014
-360,883	65,815	0,073	0,053
-359,869	-101,393	-0,083	-0,015
-358,854	-82,040	0,092	-0,022
-357,839	-200,000	0,010	-0,071
-356,825	-124,335	0,074	0,008
-355,810	241,591	-0,064	0,077
-354,796	800,000	0,022	-0,050
-353,781	693,326	0,024	0,046
-352,766	259,278	0,073	0,092
-351,752	-200,000	-0,013	0,086
-350,737	698,384	0,049	0,093
-349,723	446,704	0,087	0,139
-348,708	250,282	0,014	0,017
-347,693	768,677	0,020	0,039
-346,679	800,000	-0,012	0,033
-345,664	-169,768	-0,038	-0,001
-344,650	-63,544	-0,098	0,029
-343,635	173,112	-0,086	0,089
-342,620	93,266	0,122	0,100
-341,606	134,857	0,085	0,080
-340,591	7,524	-0,100	-0,054
-339,577	-200,000	0,027	-0,114
-338,562	-200,000	-0,015	0,076
-337,548	90,473	0,072	0,058
-336,533	144,884	-0,101	0,098
-335,518	-200,000	0,003	-0,041
-334,504	232,474	-0,058	0,069
-333,489	97,282	-0,159	-0,132
-332,475	28,720	0,064	-0,039
-331,460	-200,000	0,001	0,056
-330,445	-200,000	0,004	0,043
-329,431	-74,563	0,193	-0,050
-328,416	238,903	0,091	0,109
-327,402	-102,632	0,028	0,005
-326,387	66,727	-0,028	-0,021
-325,372	8,977	-0,150	0,082
-324,358	-200,000	0,017	0,077
-323,343	-200,000	0,011	-0,053
-322,329	23,145	0,113	0,067
-321,314	-200,000	0,028	0,127
-320,299	800,000	-0,037	-0,085
-319,285	158,562	-0,041	0,041
-318,270	-117,997	-0,181	-0,023
-317,256	800,000	0,007	-0,017
-316,241	800,000	-0,033	-0,091
-315,226	-200,000	-0,040	-0,152
-314,212	-58,570	0,083	-0,026
-313,197	-200,000	-0,024	-0,092
-312,183	800,000	-0,044	0,111
-311,168	-45,999	-0,045	-0,016
-310,153	-26,642	-0,109	0,046
-309,139	800,000	0,038	0,076
-308,124	800,000	0,006	-0,013
-307,110	-200,000	-0,007	-0,074
-306,095	628,797	0,043	0,079
-305,080	800,000	0,061	0,138
-304,066	800,000	0,017	-0,048
-303,051	84,818	0,081	0,064
-302,037	-200,000	0,010	-0,157
-301,022	24,502	-0,035	0,021
-300,008	-63,491	0,122	-0,036
-298,993	-31,412	0,050	0,020
-297,978	-200,000	0,008	-0,040
-296,964	163,382	-0,024	0,024
-295,949	800,000	0,017	-0,051
-294,935	563,894	-0,048	-0,084
-293,920	747,786	-0,019	-0,037
-292,905	800,000	-0,012	0,034
-291,891	183,733	0,101	0,108
-290,876	-200,000	-0,021	0,135
-289,862	-200,000	0,003	-0,055
-288,847	-34,059	-0,030	0,012
-287,832	800,000	-0,042	-0,124
-286,818	-1,151	-0,041	0,021
-285,803	328,890	0,047	0,065
-284,789	-37,544	0,101	0,039
-283,774	-43,815	-0,095	0,034
-282,759	-49,432	0,084	0,029
-281,745	490,792	-0,052	-0,086
-280,730	142,129	0,062	-0,060
-279,716	800,000	-0,010	0,022
-278,701	-78,877	-0,055	0,014
-277,686	417,282	-0,091	0,140
-276,672	-200,000	0,016	0,126
-275,657	530,732	-0,020	-0,034
-274,643	-13,498	0,031	-0,014
-273,628	-106,137	0,024	-0,004
-272,613	73,495	-0,115	-0,086
-271,599	-68,958	0,127	-0,035
-270,584	-33,520	0,051	-0,020
-269,570	210,829	-0,029	0,033
-268,555	73,959	0,044	0,033
-267,540	56,056	0,043	0,030
-266,526	92,572	-0,052	0,043
-265,511	-49,161	0,099	0,034
-264,497	-99,674	-0,058	0,010
-263,482	555,998	0,100	0,174
-262,467	-163,064	-0,107	-0,004
-261,453	-59,540	-0,004	-0,001
-260,438	800,000	0,031	-0,086
-259,424	188,838	-0,179	-0,194
-258,409	-156,416	0,144	0,006
-257,395	19,715	-0,062	-0,036
-256,380	512,612	0,065	0,110
-255,365	-15,063	-0,039	-0,018
-254,351	-200,000	-0,008	0,109
-253,336	19,987	0,065	0,038
-252,322	16,617	0,070	-0,040
-251,307	85,149	0,061	-0,049
-250,292	800,000	-0,011	-0,023
-249,278	-200,000	0,012	-0,049
-248,263	483,611	0,048	-0,079
-247,249	-58,440	0,089	0,028
-246,234	-200,000	-0,001	-0,031
-245,219	18,713	0,077	0,044
-244,205	-175,887	-0,195	-0,004
-243,190	-81,587	0,037	-0,009
-242,176	60,689	0,073	0,052
-241,161	330,381	-0,046	-0,064
-240,146	-89,569	0,137	0,029
-239,132	57,712	-0,067	-0,047
-238,117	-57,408	-0,118	-0,037
-237,103	300,741	-0,094	-0,125
-236,088	557,478	-0,059	-0,103
-235,073	-78,798	0,073	-0,018
-234,059	-200,000	0,003	0,090
-233,044	-1,670	0,075	-0,038
-232,030	193,766	-0,045	-0,049
-231,015	800,000	-0,066	-0,148
-230,000	-200,000	0,010	-0,057
-228,986	480,920	0,062	0,102
-227,971	76,124	-0,053	-0,040
-226,957	421,868	-0,083	0,128
-225,942	-200,000	-0,032	0,107
-224,927	-35,018	-0,127	-0,049
-223,913	-2,820	-0,053	0,027
-222,898	11,077	0,052	0,029
-221,884	-50,399	0,057	-0,019
-220,869	-137,368	-0,198	0,016
-219,855	-200,000	-0,037	0,123
-218,840	800,000	-0,035	-0,086
-217,825	-16,778	-0,044	-0,020
-216,811	-88,371	-0,050	0,011
-215,796	-200,000	-0,017	0,056
-214,782	-33,684	-0,091	-0,036
-213,767	800,000	-0,020	0,044
-212,752	800,000	-0,015	-0,031
-211,738	-168,004	-0,098	-0,003
-210,723	-121,360	0,107	-0,013
-209,709	800,000	-0,033	-0,094
-208,694	-200,000	-0,036	-0,126
-207,679	-40,030	0,130	-0,049
-206,665	-200,000	0,006	0,030
-205,650	248,850	-0,015	-0,019
-204,636	-16,810	0,049	0,022
-203,621	-200,000	0,024	0,128
-202,606	60,240	0,057	0,040
-201,592	108,392	0,076	0,065
-200,577	-143,222	-0,144	0,010
-199,563	-65,040	-0,099	-0,029
-198,548	16,190	0,053	-0,030
-197,533	24,827	0,167	0,100
-196,519	-200,000	0,034	-0,162
-195,504	-146,165	-0,029	-0,002
-194,490	-200,000	-0,025	-0,080
-193,475	120,627	-0,030	0,027
-192,460	65,463	0,064	-0,047
-191,446	800,000	0,052	0,111
-190,431	314,252	-0,014	0,019
-189,417	-200,000	-0,014	0,082
-188,402	-120,250	-0,090	0,011
-187,387	-200,000	0,015	-0,095
-186,373	800,000	0,040	0,110
-185,358	84,366	0,084	-0,066
-184,344	-200,000	-0,004	-0,035
-183,329	-48,052	0,078	-0,027
-182,315	-56,323	0,048	0,015
-181,300	195,223	-0,020	-0,022
-180,285	-145,472	-0,066	-0,004
-179,271	-72,631	0,069	0,018
-178,256	66,612	-0,019	-0,014
-177,242	800,000	0,081	-0,180
-176,227	-200,000	0,007	0,032
-175,212	800,000	0,036	-0,104
-174,198	-95,267	-0,040	0,008
-173,183	-200,000	0,000	-0,041
-172,169	-173,773	0,046	0,001
-171,154	-34,461	-0,008	0,003
-170,139	800,000	0,044	0,125
-169,125	305,325	0,044	0,058
-168,110	-128,348	0,067	0,007
-167,096	-200,000	0,003	0,036
-166,081	128,562	0,011	-0,010
-165,066	81,123	-0,065	-0,050
-164,052	-119,402	0,076	-0,009
-163,037	-142,034	0,014	-0,001
-162,023	68,754	0,042	-0,031
-161,008	-26,953	0,020	0,008
-159,993	800,000	-0,020	0,056
-158,979	80,960	-0,041	-0,032
-157,964	73,678	-0,032	-0,024
-156,950	382,521	-0,052	-0,077
-155,935	-200,000	0,005	-0,096
-154,920	800,000	0,038	-0,087
-153,906	224,902	-0,073	0,086
-152,891	800,000	-0,040	-0,086
-151,877	65,322	-0,070	0,051
-150,862	126,843	-0,099	0,090
-149,847	704,748	0,019	-0,035
-148,833	-200,000	-0,004	0,044
-147,818	31,915	0,129	0,079
-146,804	-59,137	0,133	0,041
-145,789	-144,973	-0,050	-0,003
-144,775	142,431	0,045	-0,043
-143,760	376,212	-0,070	-0,103
-142,745	172,975	0,082	-0,085
-141,731	342,086	0,005	0,007
-140,716	-185,943	0,157	0,002
-139,702	72,917	-0,051	0,038
-138,687	800,000	-0,051	0,138
-137,672	273,539	-0,076	0,096
-136,658	-19,830	-0,134	-0,059
-135,643	-7,253	-0,042	0,020
-134,629	32,244	0,157	0,097
-133,614	588,859	0,075	0,133
-132,599	272,413	0,101	0,128
-131,585	-200,000	-0,013	-0,044
-130,570	-34,383	0,056	-0,022
-129,556	800,000	0,029	0,089
-128,541	-200,000	0,015	-0,094
-127,526	100,492	0,102	0,085
-126,512	-44,136	-0,130	0,047
-125,497	-115,624	0,173	0,023
-124,483	289,442	0,083	0,108
-123,468	800,000	0,057	0,135
-122,453	-194,861	-0,140	-0,001
-121,439	800,000	-0,042	0,091
-120,424	-117,622	-0,073	-0,009
-119,410	89,573	-0,035	0,028
-118,395	49,636	0,085	0,058
