DTS Sentinel unit serial number:	SN410029Multiplexer serial number:	ORYXHardware model number:	OX2-SRSoftware version number:	ORYX F/W v4,00 Oryx Data Collector v3.7.2.0data status	okinstallation	B6 Nyhavnadifferential loss correction	single-endedforward channel	channel 2reverse channel	N/Adate	2023/12/07time	21:35:08forward acquisition time	300,00reverse acquisition time	0,00gamma	499,1914k internal	0,3165k external	0,3165temperature offset calibration	1,0000default loss term (dB/km)	0,3820temperature slope calibration	1,0000multiplexer offset coefficient	1,0000multiplexer slope coefficient	1,0000fibre end	0,00T internal ref (°C)	13,68T ext. ref 1 (°C)	-3,20T ext. ref 2 (°C)	-3,19length (m)	temperature (°C)	Stokes	anti-Stokes-744,400	141,644	0,088	0,086
-743,385	-160,208	-0,281	0,011
-742,371	-200,000	0,010	0,079
-741,356	-68,455	-0,315	-0,089
-740,342	26,215	0,117	0,072
-739,327	-160,761	-0,317	-0,012
-738,312	-200,000	0,017	-0,153
-737,298	-39,347	-0,266	-0,102
-736,283	-126,423	0,053	0,006
-735,269	-29,653	-0,243	0,102
-734,254	-41,448	0,153	0,058
-733,239	-67,551	-0,501	-0,144
-732,225	-102,685	0,236	0,041
-731,210	20,966	-0,039	-0,023
-730,196	-22,576	-0,087	-0,038
-729,181	-200,000	0,000	-0,059
-728,167	122,491	-0,129	-0,119
-727,152	-16,520	-0,058	-0,027
-726,137	112,205	-0,130	-0,116
-725,123	-200,000	-0,015	-0,178
-724,108	640,378	0,064	-0,120
-723,094	344,094	-0,120	-0,174
-722,079	800,000	0,024	-0,071
-721,064	724,703	-0,027	0,052
-720,050	-13,218	0,108	-0,051
-719,035	100,598	-0,151	0,129
-718,021	-67,114	-0,078	-0,022
-717,006	264,930	-0,092	-0,118
-715,991	180,529	-0,078	-0,084
-714,977	232,866	-0,084	-0,101
-713,962	-99,424	-0,082	-0,015
-712,948	98,875	0,051	0,043
-711,933	459,027	-0,072	-0,118
-710,918	-144,029	0,113	0,008
-709,904	-105,402	-0,153	0,025
-708,889	-180,772	-0,058	0,001
-707,875	244,586	-0,091	-0,112
-706,860	172,024	0,089	-0,095
-705,845	-133,097	0,090	-0,008
-704,831	351,501	0,101	0,148
-703,816	372,913	0,028	-0,042
-702,802	-200,000	-0,040	-0,130
-701,787	456,530	0,086	-0,140
-700,772	800,000	-0,013	0,034
-699,758	281,336	-0,019	-0,024
-698,743	-114,769	0,032	-0,004
-697,729	-14,929	0,015	0,007
-696,714	374,660	0,037	0,056
-695,699	800,000	0,034	-0,086
-694,685	46,283	-0,209	-0,142
-693,670	182,345	0,034	0,037
-692,656	800,000	0,012	-0,038
-691,641	-148,131	-0,009	0,001
-690,627	-200,000	-0,016	0,154
-689,612	73,969	0,130	0,100
-688,597	19,685	0,059	-0,035
-687,583	-164,499	-0,172	0,006
-686,568	-200,000	-0,019	-0,135
-685,554	800,000	0,039	0,088
-684,539	-120,214	-0,252	0,031
-683,524	-200,000	0,002	0,037
-682,510	608,762	0,043	0,079
-681,495	-200,000	0,040	-0,145
-680,481	-200,000	-0,011	0,057
-679,466	-123,957	-0,096	0,011
-678,451	255,522	0,093	-0,117
-677,437	-200,000	0,018	0,102
-676,422	-157,083	-0,106	-0,005
-675,408	50,540	-0,022	-0,015
-674,393	347,035	-0,015	0,021
-673,378	-200,000	0,008	-0,045
-672,364	-7,989	-0,096	-0,047
-671,349	-44,780	-0,079	-0,029
-670,335	-28,127	0,066	0,028
-669,320	175,462	0,038	0,040
-668,305	800,000	-0,039	0,122
-667,291	69,923	-0,110	0,083
-666,276	-118,719	-0,056	0,007
-665,262	-200,000	-0,022	-0,102
-664,247	43,253	-0,077	-0,052
-663,232	-2,689	-0,030	-0,015
-662,218	73,573	0,104	0,080
-661,203	-111,046	-0,076	0,011
-660,189	-95,792	-0,039	0,008
-659,174	101,730	-0,082	-0,070
-658,159	193,873	0,013	-0,014
-657,145	800,000	0,095	-0,214
-656,130	12,565	-0,027	-0,015
-655,116	41,604	0,072	0,047
-654,101	140,582	-0,047	-0,045
-653,086	800,000	-0,039	-0,113
-652,072	-200,000	0,002	0,020
-651,057	-200,000	-0,012	-0,221
-650,043	789,615	-0,072	-0,145
-649,028	259,808	0,031	-0,039
-648,014	191,674	0,072	0,080
-646,999	71,205	0,033	-0,025
-645,984	331,902	0,030	0,043
-644,970	800,000	-0,063	-0,172
-643,955	-200,000	-0,030	-0,144
-642,941	-200,000	0,026	0,120
-641,926	-200,000	0,002	-0,076
-640,911	166,029	-0,028	0,029
-639,897	-180,877	0,106	-0,002
-638,882	-200,000	0,031	0,137
-637,868	-50,726	-0,059	0,020
-636,853	800,000	-0,039	-0,081
-635,838	14,642	-0,147	0,084
-634,824	-138,602	-0,091	-0,007
-633,809	-152,622	0,121	0,006
-632,795	156,768	-0,032	0,033
-631,780	-52,385	0,024	-0,008
-630,765	143,936	-0,048	0,047
-629,751	-200,000	-0,024	0,080
-628,736	800,000	-0,069	-0,146
-627,722	254,013	-0,066	-0,082
-626,707	-22,744	-0,074	0,033
-625,692	-114,059	0,075	0,010
-624,678	-200,000	-0,003	-0,108
-623,663	24,073	0,105	-0,063
-622,649	800,000	-0,057	-0,127
-621,634	-60,394	-0,101	-0,031
-620,619	-200,000	-0,001	-0,033
-619,605	39,392	-0,033	-0,021
-618,590	340,480	-0,071	0,101
-617,576	140,821	-0,076	-0,074
-616,561	176,185	-0,049	0,052
-615,546	-79,152	-0,139	0,034
-614,532	-68,695	-0,127	-0,036
-613,517	800,000	-0,032	-0,084
-612,503	125,160	0,050	0,046
-611,488	338,548	-0,062	0,089
-610,474	-200,000	-0,007	0,195
-609,459	-74,249	0,142	-0,037
-608,444	-147,239	0,028	0,002
-607,430	-200,000	0,005	0,046
-606,415	234,926	-0,066	-0,080
-605,401	31,154	-0,087	0,055
-604,386	-200,000	0,055	0,214
-603,371	800,000	0,072	0,167
-602,357	-200,000	-0,198	0,001
-601,342	800,000	-0,041	-0,094
-600,328	-17,454	-0,063	-0,029
-599,313	-106,668	-0,084	0,013
-598,298	-200,000	0,007	-0,061
-597,284	454,224	-0,021	-0,034
-596,269	-200,000	0,012	0,075
-595,255	-13,456	0,062	-0,029
-594,240	-49,819	-0,161	-0,056
-593,225	-200,000	0,002	-0,066
-592,211	-200,000	0,017	-0,085
-591,196	-56,811	0,065	0,021
-590,182	79,864	-0,048	-0,038
-589,167	26,192	-0,006	-0,003
-588,152	-200,000	0,012	0,089
-587,138	104,431	-0,055	-0,047
-586,123	800,000	-0,023	-0,064
-585,109	-18,802	-0,025	0,011
-584,094	205,478	-0,107	-0,122
-583,079	800,000	0,053	0,139
-582,065	800,000	-0,087	0,208
-581,050	800,000	0,028	0,082
-580,036	73,742	-0,099	-0,076
-579,021	124,357	-0,093	-0,086
-578,006	800,000	0,044	-0,134
-576,992	800,000	-0,007	-0,019
-575,977	575,537	0,050	-0,090
-574,963	314,010	0,048	0,066
-573,948	257,501	-0,022	0,028
-572,934	-200,000	-0,011	0,038
-571,919	-200,000	-0,044	0,000
-570,904	106,913	-0,145	-0,126
-569,890	67,813	-0,031	0,023
-568,875	800,000	0,092	0,186
-567,861	800,000	-0,025	0,054
-566,846	15,176	0,046	0,026
-565,831	-43,904	0,019	-0,007
-564,817	-200,000	-0,001	-0,077
-563,802	337,431	-0,053	-0,075
-562,788	42,137	-0,048	-0,032
-561,773	800,000	-0,016	0,044
-560,758	-6,917	0,134	0,066
-559,744	-175,989	-0,201	0,004
-558,729	-200,000	-0,006	-0,073
-557,715	-200,000	-0,008	-0,131
-556,700	-100,158	-0,032	0,006
-555,685	-200,000	0,034	0,114
-554,671	-200,000	-0,001	0,034
-553,656	755,508	0,031	-0,061
-552,642	-200,000	0,003	0,057
-551,627	175,960	0,090	0,095
-550,612	800,000	0,019	0,044
-549,598	800,000	-0,015	0,036
-548,583	266,247	-0,071	-0,091
-547,569	77,930	0,097	0,076
-546,554	-71,069	0,123	-0,033
-545,539	-15,275	-0,056	0,026
-544,525	-147,659	0,068	-0,004
-543,510	385,081	0,066	-0,100
-542,496	107,073	0,065	0,057
-541,481	-200,000	-0,001	0,007
-540,466	12,798	0,131	-0,074
-539,452	79,446	0,068	-0,053
-538,437	-200,000	-0,012	0,119
-537,423	-22,745	-0,084	0,037
-536,408	33,130	-0,086	-0,054
-535,393	-200,000	-0,001	-0,169
-534,379	4,924	-0,126	0,067
-533,364	197,238	-0,119	0,133
-532,350	322,444	0,083	0,116
-531,335	-200,000	0,030	0,107
-530,321	-200,000	0,016	-0,099
-529,306	-128,119	0,042	0,004
-528,291	-137,347	0,090	-0,007
-527,277	48,368	0,043	0,029
-526,262	-200,000	-0,012	0,051
-525,248	-200,000	-0,009	0,116
-524,233	202,050	-0,074	0,084
-523,218	-200,000	-0,010	0,081
-522,204	-67,395	-0,099	-0,028
-521,189	800,000	0,039	-0,105
-520,175	26,470	-0,128	-0,078
-519,160	45,147	0,102	-0,069
-518,145	-193,756	-0,040	-0,000
-517,131	800,000	-0,013	0,040
-516,116	800,000	0,014	-0,037
-515,102	-18,686	-0,050	-0,023
-514,087	67,566	0,072	-0,053
-513,072	-200,000	-0,002	-0,091
-512,058	-200,000	0,039	0,147
-511,043	800,000	-0,027	0,058
-510,029	-131,687	0,115	-0,011
-509,014	-90,736	-0,078	-0,016
-507,999	-200,000	0,001	0,086
-506,985	-2,325	-0,108	0,055
-505,970	-200,000	0,007	-0,078
-504,956	294,334	-0,040	0,054
-503,941	-200,000	0,009	-0,101
-502,926	-52,548	0,094	0,032
-501,912	800,000	0,022	0,047
-500,897	-200,000	0,012	0,039
-499,883	28,272	0,044	0,027
-498,868	800,000	0,030	-0,086
-497,853	-200,000	-0,012	-0,071
-496,839	97,977	-0,039	0,033
-495,824	-121,426	0,039	0,005
-494,810	-20,353	0,164	0,073
-493,795	-140,624	-0,110	0,008
-492,781	-200,000	0,003	0,075
-491,766	-200,000	0,036	0,000
-490,751	800,000	-0,044	0,103
-489,737	-200,000	-0,020	-0,100
-488,722	291,946	0,037	-0,049
-487,708	-200,000	0,005	-0,088
-486,693	477,944	-0,074	-0,122
-485,678	-200,000	-0,007	-0,081
-484,664	21,203	0,035	-0,021
-483,649	103,622	-0,080	-0,068
-482,635	-22,060	0,027	0,012
-481,620	468,628	-0,045	-0,073
-480,605	501,833	0,071	-0,120
-479,591	12,427	-0,057	0,032
-478,576	-57,180	-0,012	0,004
-477,562	-200,000	0,013	-0,048
-476,547	132,463	-0,045	-0,042
-475,532	141,071	0,045	0,043
-474,518	381,278	0,030	0,046
-473,503	131,053	0,079	-0,074
-472,489	800,000	0,063	0,139
-471,474	-61,392	0,132	-0,040
-470,459	247,456	-0,017	-0,021
-469,445	-55,566	-0,098	-0,032
-468,430	291,079	-0,089	-0,119
-467,416	74,918	0,036	0,027
-466,401	-200,000	-0,027	0,102
-465,386	800,000	-0,063	0,131
-464,372	191,001	0,096	-0,105
-463,357	290,824	-0,057	0,076
-462,343	247,478	-0,059	-0,073
-461,328	204,631	0,080	-0,090
-460,313	545,128	0,051	0,089
-459,299	-109,622	0,117	0,018
-458,284	-200,000	-0,003	0,095
-457,270	-108,881	-0,121	0,019
-456,255	261,299	0,036	-0,045
-455,241	141,849	-0,078	-0,075
-454,226	-23,999	-0,150	-0,065
-453,211	800,000	0,035	0,071
-452,197	-62,772	-0,044	-0,013
-451,182	455,948	-0,023	-0,037
-450,168	-200,000	0,008	-0,047
-449,153	277,235	-0,081	-0,105
-448,138	-10,825	0,087	-0,041
-447,124	-200,000	-0,009	0,110
-446,109	108,870	0,083	0,072
-445,095	-89,972	0,147	0,031
-444,080	-21,137	0,146	-0,064
-443,065	484,028	0,029	-0,048
-442,051	544,791	-0,047	-0,082
-441,036	366,846	-0,082	-0,120
-440,022	641,341	0,010	-0,018
-439,007	-96,981	0,150	0,028
-437,992	-19,108	0,142	0,064
-436,978	-107,585	-0,019	-0,003
-435,963	-128,688	0,129	-0,013
-434,949	-200,000	-0,009	-0,071
-433,934	-200,000	0,009	0,062
-432,919	381,184	-0,017	-0,026
-431,905	-101,028	-0,100	0,018
-430,890	-139,857	0,319	0,024
-429,876	800,000	-0,009	0,023
-428,861	-109,195	-0,095	0,014
-427,846	800,000	-0,048	0,105
-426,832	-200,000	-0,040	0,150
-425,817	201,921	0,070	-0,079
-424,803	-7,057	0,067	0,033
-423,788	-200,000	-0,039	0,132
-422,773	-200,000	0,011	-0,056
-421,759	-26,911	0,058	-0,024
-420,744	800,000	0,023	0,047
-419,730	394,032	-0,090	-0,137
-418,715	800,000	-0,026	-0,054
-417,701	237,770	0,125	-0,151
-416,686	81,745	0,086	0,068
-415,671	-178,933	0,086	-0,001
-414,657	-14,424	-0,164	0,076
-413,642	250,300	-0,064	0,079
-412,628	-143,989	-0,029	-0,002
-411,613	384,220	-0,041	0,061
-410,598	800,000	0,056	0,137
-409,584	733,236	-0,037	0,073
-408,569	410,386	0,018	-0,028
-407,555	-200,000	0,002	0,116
-406,540	-200,000	-0,013	0,056
-405,525	381,375	-0,048	-0,072
-404,511	-200,000	0,007	-0,081
-403,496	800,000	-0,033	-0,067
-402,482	-200,000	-0,018	0,144
-401,467	-131,854	0,022	0,002
-400,452	-71,003	0,031	0,008
-399,438	113,378	-0,166	0,146
-398,423	272,334	-0,053	0,067
-397,409	365,864	-0,055	-0,081
-396,394	415,886	0,046	-0,072
-395,379	138,315	-0,075	0,072
-394,365	200,117	-0,064	-0,071
-393,350	37,861	0,090	0,058
-392,336	-200,000	0,022	-0,073
-391,321	-34,699	-0,074	-0,029
-390,306	61,039	-0,099	-0,071
-389,292	209,351	-0,103	-0,118
-388,277	-200,000	-0,022	0,130
-387,263	115,551	0,084	0,075
-386,248	-56,195	-0,076	0,024
-385,233	-70,284	-0,147	0,040
-384,219	-200,000	0,027	-0,086
-383,204	427,400	0,053	-0,084
-382,190	-200,000	-0,004	-0,080
-381,175	800,000	0,038	-0,088
-380,160	455,559	-0,053	0,086
-379,146	-200,000	0,007	0,127
-378,131	-200,000	0,004	-0,071
-377,117	-42,845	-0,039	0,014
-376,102	800,000	-0,026	-0,064
-375,088	395,737	0,040	0,061
-374,073	323,766	-0,027	0,038
-373,058	-190,764	0,171	-0,001
-372,044	181,278	-0,042	0,044
-371,029	185,212	0,054	0,058
-370,015	241,746	-0,081	0,099
-369,000	-200,000	-0,040	-0,189
-367,985	-18,988	0,062	0,028
-366,971	-35,165	-0,090	-0,035
-365,956	257,039	0,039	0,048
-364,942	-200,000	-0,005	-0,091
-363,927	-2,433	-0,005	-0,002
-362,912	9,635	0,124	0,068
-361,898	-200,000	-0,034	-0,170
-360,883	28,357	-0,103	0,063
-359,869	85,335	0,118	-0,094
-358,854	-2,677	-0,126	-0,063
-357,839	202,275	-0,045	-0,051
-356,825	-197,137	0,028	0,000
-355,810	-72,130	0,212	-0,057
-354,796	471,744	-0,022	-0,036
-353,781	-87,297	-0,125	0,027
-352,766	0,745	0,045	-0,023
-351,752	-29,794	-0,081	-0,033
-350,737	55,409	-0,083	0,058
-349,723	-200,000	0,002	-0,014
-348,708	341,395	0,079	0,112
-347,693	80,673	0,096	-0,075
-346,679	25,279	-0,122	-0,073
-345,664	-56,840	-0,060	-0,019
-344,650	-82,461	0,065	-0,015
-343,635	-6,673	-0,020	0,010
-342,620	-78,994	0,094	-0,023
-341,606	-1,919	-0,054	-0,027
-340,591	-3,815	0,108	-0,054
-339,577	-200,000	-0,024	-0,137
-338,562	82,152	0,058	-0,045
-337,548	83,029	0,041	0,032
-336,533	85,814	0,123	-0,098
-335,518	596,444	-0,053	0,095
-334,504	-75,422	0,026	-0,007
-333,489	336,883	-0,057	-0,081
-332,475	-200,000	-0,037	-0,155
-331,460	-200,000	0,002	0,137
-330,445	-33,602	-0,037	0,015
-329,431	399,036	0,055	0,084
-328,416	-188,058	-0,062	0,001
-327,402	134,369	0,129	-0,121
-326,387	435,616	-0,072	0,114
-325,372	122,782	0,053	0,048
-324,358	800,000	-0,014	-0,041
-323,343	-200,000	0,001	0,073
-322,329	747,487	0,021	0,042
-321,314	466,769	0,082	0,134
-320,299	800,000	0,014	0,043
-319,285	242,707	-0,047	-0,057
-318,270	142,201	-0,040	-0,038
-317,256	305,360	-0,125	-0,168
-316,241	-159,504	-0,136	-0,005
-315,226	61,788	-0,079	0,057
-314,212	-180,989	0,113	-0,002
-313,197	336,524	-0,044	-0,062
-312,183	230,849	-0,087	-0,104
-311,168	-121,032	-0,070	-0,008
-310,153	99,033	0,067	0,056
-309,139	-79,314	-0,116	0,028
-308,124	74,849	0,044	-0,033
-307,110	-189,402	0,233	0,002
-306,095	-200,000	0,033	0,112
-305,080	276,776	0,067	-0,086
-304,066	101,642	-0,086	-0,073
-303,051	119,493	-0,095	0,085
-302,037	242,870	-0,070	-0,084
-301,022	800,000	0,045	-0,091
-300,008	475,469	0,031	0,050
-298,993	-61,776	-0,078	-0,023
-297,978	34,944	-0,033	-0,021
-296,964	365,799	-0,073	0,106
-295,949	800,000	-0,009	0,019
-294,935	92,738	0,064	-0,052
-293,920	369,175	-0,043	-0,064
-292,905	43,661	0,148	-0,098
-291,891	-200,000	-0,021	0,134
-290,876	-200,000	-0,042	0,162
-289,862	3,295	0,062	-0,032
-288,847	-200,000	-0,011	-0,069
-287,832	800,000	-0,047	-0,117
-286,818	-146,469	0,062	0,004
-285,803	178,942	0,047	-0,050
-284,789	-3,979	-0,038	-0,019
-283,774	800,000	0,055	0,114
-282,759	-23,542	0,078	0,034
-281,745	-148,906	-0,094	-0,005
-280,730	-200,000	-0,005	-0,020
-279,716	521,047	0,055	-0,094
-278,701	80,372	0,067	0,052
-277,686	-24,310	0,041	0,018
-276,672	-39,760	0,143	0,054
-275,657	337,414	0,006	0,009
-274,643	-200,000	0,012	0,114
-273,628	800,000	-0,023	-0,054
-272,613	3,679	0,039	-0,020
-271,599	-32,546	0,089	-0,036
-270,584	-39,829	0,080	0,030
-269,570	-200,000	-0,021	0,084
-268,555	278,652	-0,044	0,056
-267,540	237,964	0,080	0,096
-266,526	115,664	0,049	-0,043
-265,511	1,721	0,075	0,039
-264,497	800,000	0,011	0,028
-263,482	-14,951	0,121	-0,056
-262,467	308,977	-0,053	0,072
-261,453	-200,000	-0,013	0,074
-260,438	-86,658	-0,091	0,020
-259,424	210,486	0,062	-0,071
-258,409	-146,746	0,067	-0,004
-257,395	99,466	0,062	0,052
-256,380	680,692	-0,031	0,058
-255,365	0,503	-0,077	-0,040
-254,351	-200,000	-0,027	0,117
-253,336	153,688	-0,087	-0,086
-252,322	-200,000	-0,002	-0,131
-251,307	800,000	0,005	-0,014
-250,292	-200,000	0,009	0,102
-249,278	-200,000	-0,019	0,095
-248,263	56,847	0,058	0,041
-247,249	-200,000	-0,000	-0,009
-246,234	-19,280	0,037	-0,016
-245,219	209,576	0,022	0,025
-244,205	-59,601	0,115	-0,035
-243,190	-200,000	0,019	0,061
-242,176	-200,000	-0,014	-0,116
-241,161	-133,695	0,129	-0,011
-240,146	344,411	-0,069	0,098
-239,132	-200,000	-0,003	-0,035
-238,117	314,130	-0,093	0,127
-237,103	217,424	0,043	0,050
-236,088	-19,824	-0,069	-0,030
-235,073	-200,000	-0,002	0,052
-234,059	254,940	0,016	0,020
-233,044	800,000	-0,047	-0,116
-232,030	712,291	-0,034	0,066
-231,015	-14,800	0,100	0,046
-230,000	-200,000	0,000	-0,039
-228,986	195,827	0,031	-0,034
-227,971	456,628	0,028	-0,045
-226,957	12,617	0,101	-0,056
-225,942	271,921	-0,015	0,019
-224,927	-10,547	-0,061	-0,029
-223,913	-102,672	-0,070	0,012
-222,898	748,790	0,032	0,063
-221,884	800,000	0,013	-0,035
-220,869	175,255	0,011	0,011
-219,855	-200,000	0,012	-0,112
-218,840	540,435	0,091	0,157
-217,825	233,763	0,073	0,087
-216,811	156,327	0,033	0,033
-215,796	103,149	-0,194	-0,164
-214,782	800,000	-0,043	-0,105
-213,767	28,913	-0,091	-0,055
-212,752	643,897	0,044	-0,082
-211,738	-10,933	-0,086	0,041
-210,723	24,164	0,149	0,088
-209,709	141,107	-0,110	-0,105
-208,694	-200,000	-0,045	-0,165
-207,679	800,000	0,018	-0,046
-206,665	1,873	0,033	-0,017
-205,650	52,117	0,104	0,071
-204,636	-166,678	0,025	-0,001
-203,621	-31,945	0,114	0,046
-202,606	148,465	-0,022	-0,022
-201,592	-200,000	-0,000	-0,078
-200,577	-200,000	-0,009	-0,062
-199,563	-153,232	0,042	-0,002
-198,548	-200,000	-0,001	0,066
-197,533	130,934	0,038	0,035
-196,519	-200,000	0,020	0,071
-195,504	182,598	-0,091	-0,097
-194,490	552,006	0,074	-0,128
-193,475	414,002	-0,016	0,024
-192,460	10,090	0,031	-0,017
-191,446	800,000	-0,020	0,050
-190,431	348,741	-0,028	-0,040
-189,417	-19,463	0,148	0,066
-188,402	-200,000	0,001	-0,172
-187,387	-200,000	0,008	-0,092
-186,373	800,000	0,038	-0,100
-185,358	-14,581	-0,053	-0,025
-184,344	-197,050	0,116	-0,001
-183,329	-3,500	0,085	0,042
-182,315	-116,757	-0,040	-0,005
-181,300	-200,000	-0,028	0,114
-180,285	-200,000	0,003	-0,048
-179,271	-200,000	-0,005	-0,122
-178,256	225,208	-0,066	0,077
-177,242	52,087	0,099	0,068
-176,227	74,921	-0,067	0,051
-175,212	-165,263	-0,164	-0,005
-174,198	800,000	-0,060	0,172
-173,183	773,198	-0,052	0,103
-172,169	-79,827	-0,109	0,026
-171,154	-200,000	0,008	0,154
-170,139	141,551	0,029	-0,028
-169,125	530,081	-0,048	0,081
-168,110	177,687	0,095	0,100
-167,096	800,000	-0,004	0,011
-166,081	389,350	0,047	0,071
-165,066	-134,224	0,030	-0,003
-164,052	57,434	0,100	0,070
-163,037	119,464	-0,096	-0,086
-162,023	-200,000	0,077	0,244
-161,008	71,717	0,036	-0,027
-159,993	-90,618	-0,055	0,011
-158,979	800,000	0,005	-0,013
-157,964	526,699	0,037	-0,063
-156,950	-200,000	0,004	-0,051
-155,935	-69,215	0,059	0,016
-154,920	-200,000	0,001	-0,067
-153,906	-19,087	0,072	0,032
-152,891	-68,140	0,026	-0,007
-151,877	800,000	-0,032	0,071
-150,862	480,612	-0,100	0,164
-149,847	388,371	-0,019	0,028
-148,833	587,126	0,016	0,028
-147,818	47,417	0,076	-0,051
-146,804	5,033	-0,017	-0,009
-145,789	139,557	0,020	-0,019
-144,775	-200,000	0,035	-0,171
-143,760	-127,755	0,076	0,008
-142,745	111,515	0,058	-0,050
-141,731	140,543	-0,118	-0,112
-140,716	-21,653	0,110	-0,048
-139,702	-70,290	-0,045	-0,012
-138,687	-200,000	-0,004	-0,013
-137,672	-35,060	-0,118	0,046
-136,658	201,642	0,033	-0,037
-135,643	4,652	0,088	-0,046
-134,629	-200,000	0,003	-0,046
-133,614	-20,286	0,027	-0,012
-132,599	-200,000	-0,001	0,017
-131,585	-70,658	0,033	-0,009
-130,570	800,000	-0,092	0,235
-129,556	-109,198	-0,138	-0,021
-128,541	-200,000	-0,002	-0,024
-127,526	251,231	-0,041	0,051
-126,512	-37,059	0,119	0,046
-125,497	-200,000	0,005	-0,101
-124,483	560,263	-0,036	0,062
-123,468	367,294	0,069	0,100
-122,453	6,617	0,027	-0,014
-121,439	-95,461	-0,197	0,038
-120,424	-41,610	0,037	-0,014
