DTS Sentinel unit serial number:	SN410029Multiplexer serial number:	ORYXHardware model number:	OX2-SRSoftware version number:	ORYX F/W v4,00 Oryx Data Collector v3.7.2.0data status	okinstallation	B6 Nyhavnadifferential loss correction	single-endedforward channel	channel 2reverse channel	N/Adate	2023/12/10time	00:30:08forward acquisition time	300,00reverse acquisition time	0,00gamma	499,1914k internal	0,3126k external	0,3126temperature offset calibration	1,0000default loss term (dB/km)	0,3820temperature slope calibration	1,0000multiplexer offset coefficient	1,0000multiplexer slope coefficient	1,0000fibre end	0,00T internal ref (°C)	21,82T ext. ref 1 (°C)	5,70T ext. ref 2 (°C)	5,71length (m)	temperature (°C)	Stokes	anti-Stokes-744,400	-200,000	0,059	0,000
-743,385	-135,404	-0,232	-0,020
-742,371	-124,066	0,093	-0,011
-741,356	-34,729	-0,314	0,127
-740,342	-200,000	-0,002	-0,111
-739,327	-156,076	-0,200	0,009
-738,312	-107,360	0,003	0,000
-737,298	-181,302	-0,268	0,004
-736,283	800,000	0,047	-0,142
-735,269	191,344	-0,110	0,124
-734,254	-200,000	0,036	-0,127
-733,239	-9,845	-0,325	-0,160
-732,225	-3,574	0,119	-0,061
-731,210	-5,395	0,141	0,072
-730,196	285,612	-0,086	0,115
-729,181	342,584	-0,035	0,052
-728,167	-12,531	-0,118	-0,057
-727,152	-23,676	0,055	0,024
-726,137	-67,069	-0,122	-0,036
-725,123	-200,000	0,016	0,055
-724,108	-200,000	-0,022	-0,095
-723,094	800,000	-0,062	-0,171
-722,079	-81,393	-0,062	0,015
-721,064	-46,033	0,098	0,036
-720,050	-200,000	0,027	0,123
-719,035	52,829	-0,116	0,082
-718,021	731,390	-0,026	-0,052
-717,006	239,677	-0,092	-0,114
-715,991	167,477	-0,042	-0,045
-714,977	-33,707	-0,158	-0,065
-713,962	-200,000	0,042	-0,192
-712,948	800,000	-0,009	-0,028
-711,933	-111,692	-0,055	0,008
-710,918	41,497	0,048	-0,032
-709,904	-200,000	-0,012	-0,121
-708,889	800,000	-0,083	-0,180
-707,875	800,000	-0,013	0,027
-706,860	-66,396	0,074	-0,022
-705,845	22,445	0,103	0,062
-704,831	73,166	-0,058	-0,045
-703,816	-200,000	0,014	0,158
-702,802	230,966	-0,107	0,130
-701,787	-200,000	-0,003	-0,254
-700,772	649,580	-0,054	-0,104
-699,758	-200,000	0,008	0,057
-698,743	-200,000	0,013	0,110
-697,729	511,645	0,051	0,088
-696,714	-200,000	-0,020	0,086
-695,699	-78,032	-0,088	-0,022
-694,685	94,590	-0,027	-0,022
-693,670	67,033	0,034	-0,026
-692,656	106,895	0,068	0,060
-691,641	175,587	-0,027	0,029
-690,627	41,513	-0,080	-0,054
-689,612	625,381	0,055	0,104
-688,597	-182,923	-0,088	0,001
-687,583	-78,212	-0,151	-0,038
-686,568	-43,891	-0,052	0,019
-685,554	-26,509	-0,020	-0,009
-684,539	133,546	-0,087	-0,084
-683,524	107,558	0,020	-0,018
-682,510	800,000	0,051	0,130
-681,495	568,354	-0,012	0,023
-680,481	23,498	0,048	0,029
-679,466	800,000	0,017	-0,053
-678,451	800,000	-0,016	-0,040
-677,437	255,751	0,033	0,042
-676,422	-200,000	-0,012	0,049
-675,408	-200,000	-0,004	0,020
-674,393	45,548	-0,101	-0,069
-673,378	800,000	-0,023	-0,048
-672,364	236,903	-0,076	-0,093
-671,349	-200,000	-0,016	0,065
-670,335	-0,867	0,016	-0,009
-669,320	-200,000	-0,016	-0,098
-668,305	59,921	0,055	-0,041
-667,291	12,799	0,048	0,027
-666,276	446,876	0,037	-0,060
-665,262	114,381	-0,102	-0,092
-664,247	395,109	0,025	-0,038
-663,232	-200,000	-0,003	-0,095
-662,218	800,000	-0,062	0,140
-661,203	-68,200	0,127	-0,036
-660,189	246,065	-0,031	-0,039
-659,174	-123,556	-0,137	0,016
-658,159	-200,000	-0,018	-0,134
-657,145	-200,000	-0,019	-0,123
-656,130	306,628	0,017	0,023
-655,116	-200,000	0,005	-0,093
-654,101	7,676	-0,032	-0,018
-653,086	-200,000	-0,036	0,136
-652,072	-4,187	-0,072	-0,037
-651,057	-58,898	-0,086	0,028
-650,043	-200,000	-0,020	-0,129
-649,028	800,000	-0,027	-0,078
-648,014	-200,000	-0,003	0,046
-646,999	-136,408	0,027	-0,002
-645,984	205,712	-0,063	-0,073
-644,970	268,834	0,007	-0,009
-643,955	-200,000	-0,027	-0,125
-642,941	95,243	-0,058	0,049
-641,926	-46,167	-0,039	0,014
-640,911	239,716	0,060	-0,075
-639,897	-87,971	-0,091	0,020
-638,882	-200,000	0,002	0,012
-637,868	62,001	-0,127	-0,094
-636,853	800,000	-0,021	-0,054
-635,838	597,157	-0,057	-0,105
-634,824	-18,527	0,021	-0,009
-633,809	800,000	0,009	-0,025
-632,795	400,722	0,106	0,165
-631,780	19,009	-0,039	0,023
-630,765	-111,109	-0,064	-0,010
-629,751	800,000	-0,027	-0,078
-628,736	365,725	-0,114	-0,172
-627,722	112,156	-0,059	-0,053
-626,707	138,343	-0,087	0,084
-625,692	72,311	-0,041	0,031
-624,678	800,000	-0,024	0,071
-623,663	-200,000	-0,019	-0,111
-622,649	-200,000	-0,043	-0,163
-621,634	-200,000	-0,009	-0,091
-620,619	188,260	-0,055	-0,061
-619,605	-118,468	-0,119	-0,015
-618,590	800,000	-0,025	-0,074
-617,576	-12,808	0,050	-0,024
-616,561	-78,796	-0,115	0,029
-615,546	4,076	-0,075	0,041
-614,532	156,305	-0,193	-0,197
-613,517	800,000	0,031	-0,073
-612,503	-1,210	0,052	-0,027
-611,488	-39,690	0,049	-0,019
-610,474	-155,222	-0,067	0,003
-609,459	54,236	-0,153	0,109
-608,444	-167,615	0,095	0,003
-607,430	102,818	0,067	0,058
-606,415	413,998	-0,016	0,026
-605,401	25,149	-0,100	-0,062
-604,386	28,407	0,014	0,009
-603,371	-147,678	0,114	0,007
-602,357	33,587	-0,120	0,077
-601,342	800,000	0,031	-0,095
-600,328	-200,000	-0,010	-0,097
-599,313	238,315	0,015	0,018
-598,298	8,822	0,061	-0,034
-597,284	82,102	0,022	-0,018
-596,269	123,041	-0,052	0,048
-595,255	800,000	0,039	0,113
-594,240	-12,682	-0,141	-0,068
-593,225	-67,299	0,084	0,024
-592,211	800,000	-0,032	-0,091
-591,196	188,769	-0,129	0,143
-590,182	-7,153	-0,091	0,046
-589,167	184,266	0,107	0,118
-588,152	110,458	0,137	0,122
-587,138	527,878	-0,025	0,043
-586,123	-200,000	-0,044	-0,165
-585,109	255,857	-0,018	0,023
-584,094	800,000	0,044	0,112
-583,079	-200,000	-0,011	0,045
-582,065	-8,584	-0,048	0,024
-581,050	-156,119	-0,102	-0,005
-580,036	-84,681	0,057	0,013
-579,021	366,870	-0,023	-0,034
-578,006	134,356	-0,039	-0,037
-576,992	21,726	0,181	0,109
-575,977	158,557	0,051	0,053
-574,963	316,563	-0,019	-0,026
-573,948	541,832	0,022	0,040
-572,934	55,149	-0,050	0,036
-571,919	189,472	-0,087	0,097
-570,904	-133,591	0,118	0,011
-569,890	-83,055	-0,056	0,013
-568,875	226,947	0,133	0,160
-567,861	-92,525	-0,059	-0,012
-566,846	537,027	0,040	0,070
-565,831	-200,000	0,010	-0,039
-564,817	-200,000	-0,012	-0,110
-563,802	43,037	0,006	0,004
-562,788	-53,037	-0,146	0,049
-561,773	-114,620	0,041	0,006
-560,758	-200,000	-0,057	-0,000
-559,744	800,000	-0,039	0,114
-558,729	331,784	-0,044	0,063
-557,715	113,247	0,055	-0,049
-556,700	-97,582	-0,069	-0,013
-555,685	-200,000	-0,030	0,133
-554,671	66,291	0,060	-0,045
-553,656	508,532	-0,051	0,089
-552,642	26,073	0,013	0,008
-551,627	17,887	-0,061	0,036
-550,612	16,166	0,097	0,057
-549,598	685,904	-0,040	-0,077
-548,583	-157,105	-0,133	-0,006
-547,569	-30,365	0,121	0,051
-546,554	-81,984	0,099	0,024
-545,539	-76,741	0,079	-0,020
-544,525	409,846	0,006	-0,009
-543,510	-200,000	-0,030	0,140
-542,496	-41,984	-0,046	0,017
-541,481	136,908	-0,017	-0,016
-540,466	686,565	-0,042	-0,082
-539,452	-168,841	-0,070	-0,002
-538,437	797,004	0,058	0,118
-537,423	62,695	0,033	-0,024
-536,408	532,488	-0,061	0,107
-535,393	-133,734	0,071	-0,006
-534,379	6,741	-0,143	0,078
-533,364	-200,000	-0,006	0,128
-532,350	-200,000	0,023	0,102
-531,335	-57,769	-0,048	-0,015
-530,321	-57,864	-0,036	-0,011
-529,306	110,328	0,058	0,052
-528,291	-200,000	-0,028	0,143
-527,277	-132,090	-0,108	-0,010
-526,262	-104,042	0,107	-0,018
-525,248	392,341	0,005	0,007
-524,233	-200,000	0,016	0,101
-523,218	-102,265	0,142	-0,025
-522,204	658,824	-0,040	-0,076
-521,189	-72,903	-0,045	0,012
-520,175	-200,000	-0,010	-0,092
-519,160	-132,383	-0,045	0,004
-518,145	-200,000	-0,008	0,035
-517,131	701,340	-0,040	0,079
-516,116	-135,414	0,114	-0,010
-515,102	181,711	0,049	-0,053
-514,087	-49,939	-0,039	0,014
-513,072	118,057	-0,067	0,061
-512,058	-114,812	-0,051	-0,007
-511,043	323,261	-0,065	-0,091
-510,029	85,975	0,163	0,133
-509,014	800,000	-0,026	0,063
-507,999	-71,347	-0,036	0,010
-506,985	-100,374	-0,134	-0,024
-505,970	779,826	-0,032	-0,065
-504,956	31,994	0,112	0,071
-503,941	122,751	0,119	0,110
-502,926	-57,226	0,095	0,031
-501,912	-200,000	-0,020	0,087
-500,897	-200,000	0,006	0,036
-499,883	-114,983	-0,024	0,003
-498,868	-100,456	0,098	0,018
-497,853	-47,588	0,007	0,002
-496,839	120,576	0,067	-0,061
-495,824	40,908	0,018	0,012
-494,810	-114,043	-0,033	0,005
-493,795	-85,663	-0,102	-0,023
-492,781	578,690	-0,046	0,083
-491,766	-36,485	-0,036	0,014
-490,751	462,411	0,022	0,037
-489,737	-91,834	0,053	0,011
-488,722	800,000	0,017	0,048
-487,708	21,011	-0,042	0,025
-486,693	-16,011	0,078	0,036
-485,678	-200,000	-0,016	-0,115
-484,664	252,984	-0,038	-0,047
-483,649	800,000	-0,057	-0,168
-482,635	-200,000	0,009	-0,123
-481,620	500,346	-0,071	0,121
-480,605	-200,000	-0,004	0,086
-479,591	-200,000	-0,008	0,047
-478,576	-200,000	-0,008	0,040
-477,562	102,805	-0,094	0,081
-476,547	374,645	0,019	-0,028
-475,532	32,196	-0,105	0,066
-474,518	800,000	-0,040	-0,119
-473,503	-63,758	0,122	0,036
-472,489	666,259	0,080	0,153
-471,474	-200,000	-0,000	0,072
-470,459	-200,000	-0,025	-0,149
-469,445	-125,066	0,075	-0,008
-468,430	124,043	0,059	-0,054
-467,416	-200,000	0,007	-0,056
-466,401	122,893	-0,099	-0,092
-465,386	-200,000	0,007	-0,136
-464,372	84,744	0,016	0,013
-463,357	187,702	-0,037	-0,041
-462,343	594,425	-0,047	-0,086
-461,328	30,687	-0,048	-0,030
-460,313	208,671	-0,047	0,054
-459,299	247,769	-0,014	0,018
-458,284	-81,053	0,072	-0,017
-457,270	58,937	-0,137	-0,099
-456,255	19,110	-0,052	0,031
-455,241	-200,000	0,011	-0,170
-454,226	-200,000	-0,011	-0,122
-453,211	-164,179	0,077	0,003
-452,197	-52,299	0,068	0,023
-451,182	800,000	0,027	-0,066
-450,168	2,754	0,074	-0,039
-449,153	172,838	0,028	-0,030
-448,138	-79,437	-0,069	0,017
-447,124	-43,410	0,116	-0,043
-446,109	-200,000	0,022	-0,089
-445,095	1,000	0,046	-0,024
-444,080	11,944	-0,081	-0,046
-443,065	-10,214	0,017	0,008
-442,051	-200,000	0,003	0,072
-441,036	102,788	-0,107	-0,092
-440,022	481,549	0,044	0,073
-439,007	-31,745	0,026	-0,011
-437,992	275,797	0,091	0,120
-436,978	800,000	0,079	0,172
-435,963	172,510	0,069	-0,073
-434,949	3,166	0,077	0,041
-433,934	800,000	0,077	-0,195
-432,919	29,375	0,075	-0,047
-431,905	337,796	-0,069	0,099
-430,890	-31,218	0,056	0,023
-429,876	-42,082	0,141	-0,053
-428,861	549,431	-0,043	0,075
-427,846	-129,410	-0,113	-0,011
-426,832	261,742	-0,026	-0,034
-425,817	41,187	0,047	0,031
-424,803	-108,215	0,049	-0,008
-423,788	-2,114	0,053	0,027
-422,773	508,592	-0,013	0,022
-421,759	158,737	-0,032	-0,033
-420,744	-118,603	-0,108	-0,014
-419,730	204,785	-0,092	-0,105
-418,715	-200,000	-0,005	0,138
-417,701	366,770	-0,107	0,159
-416,686	27,562	0,052	0,032
-415,671	-200,000	0,024	0,171
-414,657	-87,169	0,146	0,032
-413,642	6,656	0,058	0,032
-412,628	-45,486	-0,152	-0,055
-411,613	-58,210	-0,088	-0,028
-410,598	-6,529	-0,049	-0,024
-409,584	-84,080	-0,042	0,010
-408,569	102,356	0,096	0,083
-407,555	800,000	-0,010	0,021
-406,540	177,971	-0,041	0,044
-405,525	-200,000	0,028	-0,104
-404,511	-200,000	-0,006	0,050
-403,496	307,896	0,064	-0,089
-402,482	-52,235	0,042	0,014
-401,467	-166,811	0,092	0,003
-400,452	13,910	-0,076	-0,043
-399,438	-200,000	-0,027	0,157
-398,423	-50,550	-0,194	0,067
-397,409	-30,119	0,036	0,015
-396,394	98,056	0,097	0,082
-395,379	3,283	0,118	-0,063
-394,365	373,936	0,059	0,089
-393,350	800,000	-0,036	0,100
-392,336	730,638	-0,011	-0,021
-391,321	-29,477	-0,125	-0,052
-390,306	20,546	-0,085	-0,050
-389,292	800,000	-0,050	0,155
-388,277	153,236	-0,075	0,075
-387,263	38,247	-0,093	-0,061
-386,248	-200,000	-0,013	0,061
-385,233	227,531	0,015	0,018
-384,219	174,508	-0,029	0,031
-383,204	768,774	0,033	-0,066
-382,190	800,000	-0,026	-0,063
-381,175	-200,000	0,008	-0,067
-380,160	-25,779	-0,110	-0,047
-379,146	-140,047	0,070	-0,005
-378,131	387,008	-0,043	0,066
-377,117	53,296	0,071	-0,050
-376,102	-58,383	0,076	-0,024
-375,088	-200,000	-0,011	-0,101
-374,073	800,000	0,026	0,064
-373,058	9,195	-0,017	0,009
-372,044	-27,453	0,088	-0,037
-371,029	-114,932	-0,061	-0,008
-370,015	-120,970	0,067	-0,008
-369,000	-200,000	-0,004	0,021
-367,985	-22,657	-0,233	-0,103
-366,971	605,340	0,051	-0,094
-365,956	-200,000	0,009	0,054
-364,942	-200,000	0,000	0,094
-363,927	-200,000	0,042	0,172
-362,912	113,932	0,004	0,003
-361,898	-200,000	-0,019	-0,087
-360,883	516,344	-0,030	-0,051
-359,869	-87,612	0,097	0,021
-358,854	-200,000	-0,011	-0,055
-357,839	43,673	0,013	-0,009
-356,825	-51,520	-0,105	0,036
-355,810	-200,000	-0,040	-0,141
-354,796	19,415	0,029	-0,017
-353,781	442,739	-0,030	-0,048
-352,766	-200,000	0,012	0,053
-351,752	335,282	-0,040	0,058
-350,737	266,408	0,050	0,065
-349,723	39,355	-0,101	0,066
-348,708	-25,632	0,029	0,013
-347,693	-84,941	0,053	-0,012
-346,679	109,255	0,048	0,042
-345,664	-127,064	-0,185	0,020
-344,650	333,279	0,024	0,034
-343,635	54,206	0,186	-0,131
-342,620	-200,000	-0,005	-0,107
-341,606	-11,880	0,130	0,062
-340,591	334,495	-0,022	-0,032
-339,577	-56,797	0,034	0,011
-338,562	-7,596	-0,065	0,032
-337,548	-88,537	0,124	-0,027
-336,533	-200,000	-0,017	0,092
-335,518	-12,103	-0,064	-0,030
-334,504	-200,000	-0,014	-0,142
-333,489	-200,000	-0,032	-0,162
-332,475	-200,000	-0,015	-0,108
-331,460	112,909	-0,149	-0,132
-330,445	111,770	0,082	-0,072
-329,431	800,000	0,034	-0,095
-328,416	127,321	-0,013	0,012
-327,402	76,271	0,178	0,138
-326,387	103,254	-0,082	-0,071
-325,372	800,000	0,024	-0,055
-324,358	-7,922	0,086	-0,043
-323,343	432,917	-0,043	-0,069
-322,329	224,180	-0,058	-0,069
-321,314	-200,000	-0,001	-0,098
-320,299	-200,000	-0,009	-0,074
-319,285	-53,956	0,094	-0,031
-318,270	-75,304	0,010	-0,003
-317,256	-200,000	0,019	-0,164
-316,241	-93,146	0,031	0,006
-315,226	-200,000	0,003	0,076
-314,212	96,110	0,091	-0,076
-313,197	-104,138	0,074	0,012
-312,183	402,872	0,081	0,125
-311,168	11,127	-0,091	0,051
-310,153	800,000	0,025	-0,066
-309,139	97,163	-0,076	-0,064
-308,124	146,227	0,087	-0,085
-307,110	98,236	-0,063	0,053
-306,095	745,220	0,026	0,051
-305,080	-61,213	0,021	-0,006
-304,066	800,000	0,015	0,043
-303,051	715,617	0,047	-0,093
-302,037	-74,958	-0,147	-0,038
-301,022	800,000	0,028	-0,075
-300,008	288,621	-0,008	-0,011
-298,993	251,228	-0,088	-0,109
-297,978	-156,695	-0,060	-0,003
-296,964	-23,228	0,150	0,066
-295,949	-200,000	0,005	0,105
-294,935	-200,000	0,008	-0,028
-293,920	-146,476	0,020	-0,001
-292,905	-44,166	-0,100	0,036
-291,891	-200,000	-0,002	0,052
-290,876	-20,755	0,122	0,054
-289,862	-143,798	0,036	-0,002
-288,847	-48,928	0,082	-0,028
-287,832	800,000	0,048	-0,123
-286,818	800,000	0,063	-0,147
-285,803	800,000	0,047	0,142
-284,789	27,416	-0,105	0,064
-283,774	108,897	0,034	0,030
-282,759	568,049	-0,056	-0,101
-281,745	218,145	-0,043	-0,050
-280,730	800,000	0,018	-0,056
-279,716	-140,472	-0,070	0,005
-278,701	-200,000	0,249	0,001
-277,686	-200,000	-0,026	0,144
-276,672	119,415	-0,066	0,060
-275,657	800,000	-0,013	-0,030
-274,643	598,090	-0,058	-0,105
-273,628	-76,922	0,040	-0,010
-272,613	174,548	0,011	-0,012
-271,599	800,000	0,011	0,026
-270,584	-131,599	0,058	-0,006
-269,570	545,662	-0,022	0,039
-268,555	-149,872	-0,043	0,002
-267,540	-200,000	-0,030	-0,109
-266,526	219,930	0,065	-0,076
-265,511	-17,813	-0,021	-0,010
-264,497	-43,593	-0,040	-0,015
-263,482	800,000	-0,015	0,044
-262,467	800,000	0,035	0,082
-261,453	329,441	0,066	-0,092
-260,438	-54,441	0,041	0,014
-259,424	484,299	-0,040	-0,067
-258,409	-41,032	-0,085	0,032
-257,395	-51,537	-0,048	-0,016
-256,380	47,702	-0,018	-0,012
-255,365	59,313	0,140	0,101
-254,351	-200,000	-0,027	0,000
-253,336	430,559	-0,076	-0,121
-252,322	22,017	0,207	-0,123
-251,307	125,059	0,103	-0,095
-250,292	201,268	-0,032	-0,036
-249,278	457,208	0,094	-0,153
-248,263	-200,000	-0,005	0,023
-247,249	76,294	0,083	-0,064
-246,234	301,000	-0,081	-0,109
-245,219	51,055	-0,088	-0,061
-244,205	800,000	0,030	-0,061
-243,190	252,799	-0,052	0,064
-242,176	201,215	0,077	0,086
-241,161	-72,156	-0,125	0,034
-240,146	499,029	0,069	0,117
-239,132	-200,000	-0,002	0,134
-238,117	-200,000	0,002	-0,047
-237,103	-57,095	-0,040	0,013
-236,088	158,225	0,057	0,058
-235,073	241,174	0,059	-0,072
-234,059	-62,046	-0,099	0,030
-233,044	-75,180	0,134	-0,035
-232,030	225,608	0,028	-0,033
-231,015	116,679	-0,040	0,036
-230,000	614,372	-0,014	0,025
-228,986	629,465	-0,023	0,042
-227,971	-200,000	0,015	0,089
-226,957	-114,086	-0,102	-0,014
-225,942	-200,000	0,000	-0,042
-224,927	-88,790	0,104	-0,022
-223,913	89,610	-0,045	-0,036
-222,898	-151,015	-0,172	0,009
-221,884	-200,000	0,017	-0,072
-220,869	94,907	0,132	0,110
-219,855	62,149	0,085	-0,062
-218,840	413,708	-0,018	0,028
-217,825	79,891	0,018	-0,014
-216,811	-200,000	-0,026	-0,119
-215,796	-200,000	0,000	-0,065
-214,782	522,577	0,044	0,076
-213,767	-200,000	0,034	-0,134
-212,752	-189,530	-0,048	-0,000
-211,738	61,969	0,147	0,107
-210,723	128,023	0,076	0,071
-209,709	401,060	-0,025	0,038
-208,694	103,931	-0,055	-0,047
-207,679	218,551	0,032	-0,038
-206,665	125,050	-0,058	0,054
-205,650	-200,000	0,005	0,163
-204,636	-91,831	0,058	-0,012
-203,621	-101,761	0,115	-0,020
-202,606	-72,144	0,051	0,014
-201,592	-1,252	-0,160	0,082
-200,577	-129,261	0,049	-0,005
-199,563	-70,409	0,092	-0,025
-198,548	-200,000	-0,020	0,094
-197,533	-63,899	0,050	0,015
-196,519	-181,930	0,125	-0,002
-195,504	800,000	-0,016	0,042
-194,490	284,411	-0,012	-0,015
-193,475	-57,150	-0,068	0,022
-192,460	-26,395	-0,065	0,028
-191,446	-159,995	0,007	-0,000
-190,431	-42,430	0,104	-0,039
-189,417	-101,109	-0,050	0,009
-188,402	46,983	-0,076	0,052
-187,387	-83,075	-0,033	0,008
-186,373	172,187	-0,052	0,054
-185,358	-142,058	0,019	0,001
-184,344	108,406	0,106	-0,093
-183,329	5,685	0,063	-0,034
-182,315	70,286	0,045	-0,034
-181,300	603,677	-0,005	-0,010
-180,285	113,848	0,029	-0,025
-179,271	800,000	0,023	0,058
-178,256	-71,605	0,049	-0,013
-177,242	304,286	-0,070	-0,094
-176,227	191,780	0,032	-0,035
-175,212	-46,047	0,084	0,030
-174,198	800,000	0,029	0,076
-173,183	97,216	-0,062	-0,052
-172,169	350,309	0,037	0,053
-171,154	800,000	-0,051	-0,151
-170,139	-200,000	0,009	0,204
-169,125	-200,000	-0,034	0,142
-168,110	57,397	0,015	-0,010
-167,096	260,932	0,065	-0,081
-166,081	-200,000	0,006	0,048
-165,066	-79,859	-0,135	0,033
-164,052	586,634	-0,056	0,100
-163,037	-200,000	-0,007	0,054
-162,023	-91,862	0,067	0,014
-161,008	-174,706	0,116	0,002
-159,993	23,440	0,086	-0,051
-158,979	606,532	0,022	-0,040
-157,964	22,397	-0,064	0,038
-156,950	-200,000	-0,003	0,132
-155,935	-54,634	0,047	0,015
-154,920	-32,570	-0,109	0,044
-153,906	-133,889	-0,035	-0,003
-152,891	-59,717	0,158	0,049
-151,877	-119,772	-0,095	0,012
-150,862	-84,341	-0,086	-0,020
-149,847	-64,083	-0,121	0,036
-148,833	113,707	0,108	-0,096
-147,818	800,000	0,010	0,029
-146,804	501,275	-0,053	0,090
-145,789	328,686	0,023	-0,032
-144,775	800,000	-0,019	0,057
-143,760	-200,000	-0,027	-0,174
-142,745	-200,000	-0,004	-0,110
-141,731	79,627	-0,052	-0,041
-140,716	-200,000	-0,019	-0,093
-139,702	364,366	0,044	0,065
-138,687	-200,000	-0,007	-0,040
-137,672	800,000	0,023	-0,069
-136,658	-35,751	-0,094	0,037
-135,643	217,027	0,032	0,037
-134,629	-127,817	-0,128	-0,013
-133,614	70,229	0,089	-0,067
-132,599	-200,000	-0,001	-0,093
-131,585	661,468	0,074	-0,139
-130,570	-78,949	-0,111	-0,027
-129,556	123,445	-0,083	0,076
-128,541	-200,000	-0,041	-0,193
-127,526	-200,000	-0,001	0,116
-126,512	-200,000	-0,022	-0,084
-125,497	-200,000	0,013	0,218
-124,483	-158,729	0,112	0,005
-123,468	-73,434	-0,013	-0,003
-122,453	-7,169	-0,117	-0,057
-121,439	800,000	-0,049	0,123
-120,424	199,888	0,031	0,035
-119,410	-8,167	0,052	-0,026
