DTS Sentinel unit serial number:	SN410029Multiplexer serial number:	ORYXHardware model number:	OX2-SRSoftware version number:	ORYX F/W v4,00 Oryx Data Collector v3.7.2.0data status	okinstallation	B6 Nyhavnadifferential loss correction	single-endedforward channel	channel 2reverse channel	N/Adate	2023/12/10time	00:45:08forward acquisition time	300,00reverse acquisition time	0,00gamma	499,1914k internal	0,3126k external	0,3126temperature offset calibration	1,0000default loss term (dB/km)	0,3820temperature slope calibration	1,0000multiplexer offset coefficient	1,0000multiplexer slope coefficient	1,0000fibre end	0,00T internal ref (°C)	21,87T ext. ref 1 (°C)	5,68T ext. ref 2 (°C)	5,70length (m)	temperature (°C)	Stokes	anti-Stokes-744,400	6,280	0,052	-0,029
-743,385	283,802	-0,146	0,196
-742,371	800,000	0,050	-0,151
-741,356	-9,176	-0,360	0,179
-740,342	-154,574	0,157	-0,008
-739,327	-148,926	-0,375	-0,022
-738,312	800,000	-0,061	-0,146
-737,298	237,624	-0,140	0,173
-736,283	55,592	0,154	-0,111
-735,269	48,522	-0,315	0,219
-734,254	379,483	-0,031	-0,048
-733,239	-86,194	-0,398	-0,091
-732,225	-64,596	0,118	-0,035
-731,210	-20,741	-0,039	-0,018
-730,196	-200,000	0,013	-0,068
-729,181	-200,000	-0,003	-0,013
-728,167	-200,000	0,007	-0,047
-727,152	81,335	0,007	0,006
-726,137	-116,069	-0,162	-0,022
-725,123	126,502	-0,130	0,122
-724,108	49,615	-0,021	0,015
-723,094	-192,619	-0,093	0,001
-722,079	26,587	-0,066	-0,041
-721,064	-200,000	-0,010	-0,137
-720,050	800,000	0,046	-0,125
-719,035	-144,410	0,021	-0,001
-718,021	137,536	-0,027	0,026
-717,006	-134,307	-0,154	-0,014
-715,991	103,544	-0,034	-0,029
-714,977	800,000	0,022	-0,070
-713,962	-119,933	0,131	-0,017
-712,948	-200,000	-0,002	-0,014
-711,933	-58,087	-0,078	-0,025
-710,918	-62,409	0,064	0,020
-709,904	333,808	-0,097	-0,139
-708,889	236,408	-0,067	-0,082
-707,875	535,067	0,032	0,056
-706,860	-129,443	-0,079	-0,008
-705,845	-200,000	0,007	0,025
-704,831	771,103	0,023	0,046
-703,816	800,000	0,038	-0,089
-702,802	-139,782	-0,038	-0,003
-701,787	45,240	0,032	-0,022
-700,772	800,000	0,025	0,078
-699,758	47,911	-0,059	-0,041
-698,743	6,532	-0,027	-0,015
-697,729	-200,000	-0,018	0,074
-696,714	-93,093	0,064	0,013
-695,699	-200,000	0,029	-0,106
-694,685	194,211	0,010	-0,011
-693,670	-17,350	-0,146	-0,068
-692,656	-136,895	-0,153	-0,013
-691,641	-8,044	0,110	-0,055
-690,627	33,836	-0,014	0,009
-689,612	-101,017	-0,060	0,011
-688,597	25,693	0,050	0,031
-687,583	-156,225	-0,146	-0,007
-686,568	76,437	0,049	-0,039
-685,554	800,000	-0,034	-0,076
-684,539	38,741	-0,026	0,017
-683,524	138,518	0,020	-0,020
-682,510	-58,927	-0,121	0,039
-681,495	-200,000	-0,022	0,167
-680,481	169,662	-0,102	-0,108
-679,466	800,000	-0,042	0,108
-678,451	800,000	0,033	-0,071
-677,437	-87,648	-0,069	0,015
-676,422	800,000	-0,046	0,104
-675,408	74,202	0,058	0,045
-674,393	-162,105	-0,097	0,004
-673,378	574,268	-0,073	0,132
-672,364	-200,000	0,003	-0,097
-671,349	375,099	-0,061	-0,093
-670,335	-152,918	-0,156	0,008
-669,320	-104,604	0,067	-0,011
-668,305	-81,741	-0,033	-0,008
-667,291	-13,768	-0,053	0,025
-666,276	800,000	-0,052	-0,138
-665,262	-200,000	-0,027	-0,100
-664,247	559,719	0,040	0,072
-663,232	35,494	0,048	0,031
-662,218	402,842	0,074	-0,116
-661,203	-200,000	0,022	-0,209
-660,189	-200,000	-0,025	0,094
-659,174	-86,555	-0,167	-0,038
-658,159	24,421	-0,146	0,090
-657,145	-200,000	0,024	-0,132
-656,130	67,536	0,151	-0,114
-655,116	305,283	0,077	0,106
-654,101	-24,474	-0,037	-0,016
-653,086	-200,000	0,032	0,126
-652,072	800,000	-0,022	0,054
-651,057	-200,000	0,022	-0,230
-650,043	-200,000	-0,074	-0,275
-649,028	800,000	0,022	-0,060
-648,014	800,000	0,006	0,018
-646,999	-90,664	0,050	0,011
-645,984	-200,000	-0,005	0,060
-644,970	553,964	-0,039	-0,070
-643,955	209,923	-0,088	0,103
-642,941	382,733	-0,091	-0,139
-641,926	-200,000	-0,010	-0,045
-640,911	232,378	-0,045	0,055
-639,897	241,439	0,035	0,043
-638,882	39,997	-0,050	-0,034
-637,868	-200,000	-0,113	0,000
-636,853	11,975	-0,099	-0,057
-635,838	-200,000	0,040	-0,149
-634,824	800,000	-0,024	-0,061
-633,809	107,842	-0,066	0,058
-632,795	-200,000	-0,020	0,122
-631,780	800,000	0,010	0,025
-630,765	-200,000	-0,028	-0,157
-629,751	-3,006	-0,066	0,034
-628,736	35,726	-0,073	-0,047
-627,722	-200,000	-0,001	-0,030
-626,707	705,417	-0,040	0,079
-625,692	9,407	-0,024	-0,013
-624,678	-200,000	0,042	0,000
-623,663	650,463	-0,032	0,061
-622,649	28,059	-0,053	-0,033
-621,634	-125,956	-0,189	-0,021
-620,619	800,000	-0,017	0,046
-619,605	26,891	0,079	-0,049
-618,590	-200,000	0,005	0,119
-617,576	-18,595	-0,043	0,020
-616,561	-200,000	0,036	-0,163
-615,546	55,430	0,109	-0,078
-614,532	-199,220	-0,223	-0,001
-613,517	-200,000	0,000	0,002
-612,503	-113,896	-0,146	0,021
-611,488	-62,868	0,084	0,026
-610,474	13,392	-0,056	-0,032
-609,459	708,489	0,039	-0,077
-608,444	157,925	-0,077	0,080
-607,430	-200,000	-0,012	-0,087
-606,415	-162,515	0,072	0,003
-605,401	-153,758	-0,015	0,001
-604,386	-200,000	0,024	0,122
-603,371	-43,024	0,118	0,044
-602,357	-200,000	0,008	-0,034
-601,342	241,737	-0,032	-0,040
-600,328	353,835	0,060	0,089
-599,313	-140,188	0,102	-0,008
-598,298	428,374	-0,047	-0,075
-597,284	113,658	0,027	-0,025
-596,269	-150,153	-0,061	0,003
-595,255	-200,000	0,014	-0,129
-594,240	-5,252	0,051	0,026
-593,225	800,000	0,036	-0,092
-592,211	-200,000	0,011	-0,114
-591,196	800,000	-0,044	0,108
-590,182	-156,525	0,112	0,005
-589,167	800,000	0,073	0,200
-588,152	800,000	0,040	0,099
-587,138	49,347	-0,015	0,010
-586,123	25,434	-0,068	-0,042
-585,109	691,080	0,014	-0,028
-584,094	-200,000	-0,011	0,075
-583,079	-200,000	0,007	-0,026
-582,065	-200,000	0,007	0,098
-581,050	66,906	0,031	0,023
-580,036	-74,430	-0,166	0,044
-579,021	-85,139	0,194	-0,045
-578,006	22,784	-0,009	-0,005
-576,992	348,871	0,035	0,051
-575,977	722,870	-0,067	-0,132
-574,963	105,916	-0,042	0,037
-573,948	153,482	0,107	-0,108
-572,934	-200,000	-0,007	-0,028
-571,919	-129,336	-0,111	0,011
-570,904	38,487	0,057	-0,038
-569,890	126,480	0,046	0,044
-568,875	529,558	0,093	0,164
-567,861	201,643	0,053	0,060
-566,846	299,928	-0,118	0,162
-565,831	-157,289	0,062	0,003
-564,817	-135,181	-0,121	-0,011
-563,802	-120,791	0,160	-0,020
-562,788	0,253	-0,050	-0,026
-561,773	83,358	0,061	-0,049
-560,758	788,879	-0,061	-0,124
-559,744	541,459	-0,070	0,125
-558,729	-65,347	-0,177	-0,052
-557,715	-100,954	-0,145	-0,026
-556,700	-97,415	-0,129	-0,025
-555,685	-35,441	-0,034	0,014
-554,671	-76,445	0,031	-0,008
-553,656	-125,711	-0,087	0,010
-552,642	110,178	0,103	-0,091
-551,627	443,368	0,058	0,095
-550,612	-200,000	0,006	-0,032
-549,598	30,169	-0,083	-0,052
-548,583	-200,000	0,024	0,079
-547,569	-200,000	-0,007	-0,093
-546,554	-200,000	0,001	-0,112
-545,539	369,533	0,047	-0,070
-544,525	-22,398	-0,078	0,035
-543,510	641,992	-0,029	-0,054
-542,496	800,000	0,023	-0,067
-541,481	101,474	0,065	-0,056
-540,466	-136,379	0,149	-0,013
-539,452	-117,246	0,118	0,016
-538,437	27,618	0,099	-0,061
-537,423	753,639	0,022	0,044
-536,408	124,734	0,099	0,092
-535,393	523,460	0,032	-0,056
-534,379	-200,000	-0,030	0,117
-533,364	-97,492	-0,037	-0,007
-532,350	42,898	0,040	0,027
-531,335	211,876	0,107	-0,125
-530,321	74,975	-0,011	0,009
-529,306	-200,000	-0,037	0,181
-528,291	86,569	-0,074	-0,060
-527,277	183,280	0,071	0,078
-526,262	800,000	0,043	0,108
-525,248	302,975	0,012	-0,017
-524,233	800,000	0,040	0,094
-523,218	45,541	0,096	0,066
-522,204	185,770	-0,081	-0,089
-521,189	71,435	-0,052	0,040
-520,175	-200,000	-0,018	-0,108
-519,160	-200,000	0,008	-0,085
-518,145	131,411	-0,097	-0,092
-517,131	-48,396	0,127	-0,045
-516,116	-33,741	0,036	0,015
-515,102	-26,438	0,057	0,025
-514,087	-200,000	-0,012	0,125
-513,072	-21,033	-0,031	-0,014
-512,058	-200,000	-0,024	0,120
-511,043	45,469	0,158	-0,108
-510,029	-54,133	0,147	0,049
-509,014	177,281	-0,205	0,221
-507,999	55,362	0,038	-0,027
-506,985	-1,620	-0,090	-0,047
-505,970	-200,000	-0,021	-0,076
-504,956	-95,297	0,053	0,010
-503,941	-74,389	0,031	0,008
-502,926	-111,944	0,252	0,037
-501,912	-200,000	-0,041	0,163
-500,897	-109,341	0,039	-0,006
-499,883	590,801	0,050	0,092
-498,868	64,869	-0,107	0,080
-497,853	800,000	0,025	0,072
-496,839	-42,429	0,069	-0,026
-495,824	318,702	0,065	-0,090
-494,810	-63,468	-0,062	0,019
-493,795	-200,000	0,006	-0,038
-492,781	-40,431	0,010	0,004
-491,766	-200,000	-0,021	-0,069
-490,751	-200,000	0,006	-0,101
-489,737	252,284	0,063	0,079
-488,722	-161,844	0,071	0,003
-487,708	52,001	0,055	-0,038
-486,693	800,000	-0,017	-0,047
-485,678	-200,000	-0,019	-0,183
-484,664	24,859	-0,061	-0,037
-483,649	800,000	-0,022	-0,068
-482,635	345,468	0,070	-0,101
-481,620	-200,000	-0,038	-0,123
-480,605	-159,503	0,102	-0,004
-479,591	432,133	-0,058	0,093
-478,576	-200,000	0,001	-0,005
-477,562	-34,695	-0,071	-0,028
-476,547	-200,000	-0,020	-0,162
-475,532	-200,000	0,007	-0,107
-474,518	252,089	0,014	0,018
-473,503	481,311	-0,089	0,149
-472,489	800,000	0,058	0,159
-471,474	-70,086	-0,098	0,027
-470,459	-200,000	-0,002	-0,011
-469,445	12,072	-0,058	-0,033
-468,430	-200,000	-0,010	-0,065
-467,416	20,863	0,129	0,077
-466,401	800,000	-0,018	0,058
-465,386	180,806	0,126	0,137
-464,372	800,000	0,042	-0,104
-463,357	457,205	0,020	-0,032
-462,343	231,661	0,059	-0,072
-461,328	621,625	0,007	0,012
-460,313	-200,000	-0,002	0,064
-459,299	0,384	0,076	0,040
-458,284	-200,000	0,003	-0,108
-457,270	-64,456	0,087	-0,026
-456,255	-18,876	-0,206	0,094
-455,241	-38,993	0,155	0,060
-454,226	-70,254	-0,150	-0,042
-453,211	-13,220	0,048	-0,023
-452,197	63,494	-0,009	0,007
-451,182	237,174	0,047	0,057
-450,168	-180,308	0,087	0,001
-449,153	-25,702	0,026	0,011
-448,138	-84,146	0,018	0,004
-447,124	519,422	-0,074	-0,128
-446,109	-200,000	0,036	0,000
-445,095	-171,521	0,035	0,001
-444,080	-99,998	0,032	0,006
-443,065	281,884	-0,097	-0,128
-442,051	90,113	0,040	-0,033
-441,036	-23,563	-0,026	-0,011
-440,022	-200,000	0,008	-0,036
-439,007	7,903	-0,077	-0,042
-437,992	555,285	0,047	0,083
-436,978	-45,661	0,013	0,005
-435,963	-32,404	-0,075	0,031
-434,949	-161,101	-0,263	0,010
-433,934	121,859	0,107	0,098
-432,919	-40,677	0,040	-0,015
-431,905	-200,000	0,008	-0,069
-430,890	-200,000	-0,005	-0,022
-429,876	-200,000	0,022	-0,078
-428,861	443,540	-0,068	-0,110
-427,846	522,866	-0,041	0,071
-426,832	-56,154	-0,026	-0,008
-425,817	567,072	0,014	0,025
-424,803	-200,000	0,001	-0,094
-423,788	90,489	0,008	0,007
-422,773	-200,000	-0,011	0,092
-421,759	166,373	-0,080	0,083
-420,744	93,396	-0,023	0,020
-419,730	-200,000	0,033	0,000
-418,715	383,087	-0,042	-0,064
-417,701	-200,000	0,006	-0,037
-416,686	-200,000	-0,011	0,068
-415,671	159,658	-0,095	-0,097
-414,657	-39,235	-0,047	-0,018
-413,642	-200,000	-0,004	0,041
-412,628	235,529	0,029	-0,036
-411,613	261,200	-0,110	-0,140
-410,598	117,017	-0,067	0,061
-409,584	-27,850	-0,049	-0,021
-408,569	-43,593	0,072	0,026
-407,555	180,284	-0,113	0,122
-406,540	187,962	0,090	-0,099
-405,525	26,012	0,022	-0,014
-404,511	69,796	-0,091	0,069
-403,496	-58,690	0,094	0,030
-402,482	-140,185	-0,091	0,007
-401,467	800,000	0,033	0,084
-400,452	-84,375	0,055	-0,013
-399,438	-54,236	0,113	0,038
-398,423	-75,247	-0,106	0,028
-397,409	-111,790	-0,032	-0,005
-396,394	69,989	0,053	0,040
-395,379	-64,990	0,046	-0,014
-394,365	230,426	0,042	0,051
-393,350	800,000	-0,010	-0,030
-392,336	359,780	0,030	0,044
-391,321	-200,000	0,002	-0,074
-390,306	800,000	-0,016	0,035
-389,292	359,383	-0,029	-0,043
-388,277	-91,869	0,087	0,018
-387,263	800,000	0,040	0,103
-386,248	598,452	-0,046	-0,085
-385,233	143,299	0,080	0,078
-384,219	82,822	-0,166	0,132
-383,204	-177,882	0,051	0,001
-382,190	-200,000	-0,003	-0,118
-381,175	800,000	0,050	0,128
-380,160	79,817	-0,068	0,053
-379,146	217,296	0,028	0,033
-378,131	444,477	-0,047	0,076
-377,117	154,064	-0,067	0,067
-376,102	-66,730	-0,083	-0,024
-375,088	-33,553	-0,096	0,039
-374,073	-42,398	-0,113	-0,042
-373,058	31,608	-0,060	-0,038
-372,044	-4,998	0,147	0,074
-371,029	-0,657	0,129	0,067
-370,015	-200,000	-0,003	0,039
-369,000	800,000	-0,011	0,034
-367,985	800,000	-0,011	-0,030
-366,971	800,000	-0,055	-0,126
-365,956	-77,530	-0,116	0,029
-364,942	800,000	-0,022	-0,061
-363,927	-77,715	0,122	0,031
-362,912	-105,529	0,109	-0,018
-361,898	-200,000	-0,022	-0,159
-360,883	-200,000	0,006	-0,083
-359,869	800,000	-0,013	-0,030
-358,854	-150,122	-0,072	0,004
-357,839	800,000	-0,043	-0,115
-356,825	634,162	-0,025	0,047
-355,810	-200,000	0,031	-0,105
-354,796	-100,468	0,064	-0,012
-353,781	-20,754	0,041	0,018
-352,766	17,249	0,078	-0,045
-351,752	85,310	-0,044	-0,035
-350,737	-200,000	0,001	0,031
-349,723	-200,000	-0,011	0,166
-348,708	-156,866	-0,019	-0,001
-347,693	79,721	0,080	-0,063
-346,679	-176,980	-0,101	-0,002
-345,664	-200,000	0,003	0,148
-344,650	-200,000	0,014	0,078
-343,635	62,531	-0,092	0,068
-342,620	315,777	-0,054	-0,074
-341,606	448,720	-0,040	0,066
-340,591	-200,000	0,011	0,088
-339,577	678,027	0,043	0,081
-338,562	-19,195	0,072	-0,033
-337,548	348,432	-0,053	0,077
-336,533	-24,175	0,038	-0,017
-335,518	-123,967	0,107	-0,012
-334,504	-200,000	-0,005	0,219
-333,489	-29,149	0,085	0,035
-332,475	-200,000	-0,136	0,000
-331,460	247,324	-0,047	-0,059
-330,445	800,000	0,017	-0,047
-329,431	13,917	0,068	0,039
-328,416	-200,000	-0,012	-0,072
-327,402	-200,000	-0,023	0,107
-326,387	800,000	0,022	-0,048
-325,372	-200,000	-0,017	-0,094
-324,358	7,724	0,074	-0,040
-323,343	59,901	0,087	-0,063
-322,329	800,000	-0,081	-0,188
-321,314	15,229	-0,035	0,020
-320,299	-40,889	-0,077	0,029
-319,285	800,000	0,021	-0,048
-318,270	800,000	-0,040	-0,096
-317,256	416,656	0,063	-0,099
-316,241	-200,000	-0,002	-0,076
-315,226	-86,727	0,120	0,027
-314,212	50,129	0,048	0,033
-313,197	-200,000	0,016	-0,067
-312,183	-200,000	0,001	0,006
-311,168	248,880	0,023	-0,028
-310,153	-100,331	-0,118	0,021
-309,139	156,631	0,033	-0,033
-308,124	800,000	0,036	0,075
-307,110	-81,435	0,136	0,032
-306,095	-200,000	0,025	0,108
-305,080	-200,000	-0,011	0,102
-304,066	-200,000	-0,006	0,109
-303,051	800,000	0,039	-0,082
-302,037	233,003	-0,051	-0,061
-301,022	-147,618	-0,132	-0,008
-300,008	-59,092	0,130	-0,041
-298,993	-200,000	-0,003	-0,026
-297,978	88,035	0,048	0,039
-296,964	800,000	0,042	-0,100
-295,949	800,000	-0,028	-0,073
-294,935	-122,193	0,052	-0,006
-293,920	800,000	0,005	-0,015
-292,905	25,492	0,070	-0,042
-291,891	67,498	0,082	-0,061
-290,876	131,927	-0,098	0,092
-289,862	-200,000	-0,004	0,109
-288,847	800,000	-0,039	-0,090
-287,832	800,000	-0,026	-0,056
-286,818	-92,009	0,116	0,024
-285,803	800,000	0,008	0,018
-284,789	-200,000	0,028	0,103
-283,774	800,000	0,012	0,038
-282,759	-200,000	0,005	-0,061
-281,745	20,746	-0,145	-0,086
-280,730	338,477	-0,099	-0,142
-279,716	-154,923	-0,107	-0,005
-278,701	520,219	0,089	-0,152
-277,686	-127,849	-0,080	0,008
-276,672	44,662	0,096	0,065
-275,657	-139,132	-0,069	0,005
-274,643	-200,000	0,008	-0,187
-273,628	-200,000	-0,019	-0,153
-272,613	489,030	-0,031	0,051
-271,599	-63,615	-0,041	0,012
-270,584	-167,873	0,062	-0,002
-269,570	-200,000	-0,038	0,138
-268,555	-131,861	-0,074	-0,007
-267,540	-200,000	-0,010	0,193
-266,526	318,868	-0,037	-0,051
-265,511	-111,963	-0,051	-0,007
-264,497	-200,000	0,006	-0,052
-263,482	-200,000	0,001	-0,023
-262,467	-59,217	-0,104	0,032
-261,453	-128,750	0,016	-0,002
-260,438	238,293	0,037	0,045
-259,424	800,000	0,045	-0,110
-258,409	133,016	0,044	0,042
-257,395	-140,528	0,146	0,011
-256,380	-200,000	0,014	0,051
-255,365	175,545	0,132	0,140
-254,351	-200,000	0,002	0,087
-253,336	213,583	0,040	0,047
-252,322	-22,292	-0,058	-0,026
-251,307	7,513	-0,142	0,078
-250,292	800,000	0,039	-0,109
-249,278	-200,000	0,003	-0,045
-248,263	485,215	-0,019	0,032
-247,249	-109,474	0,114	-0,017
-246,234	45,349	-0,052	0,035
-245,219	-47,415	-0,061	0,022
-244,205	-200,000	0,007	-0,068
-243,190	-112,556	0,149	0,021
-242,176	-103,535	0,177	0,030
-241,161	-200,000	-0,018	0,191
-240,146	-169,313	0,054	-0,001
-239,132	275,455	0,024	0,031
-238,117	559,401	0,074	0,132
-237,103	-144,597	-0,024	-0,002
-236,088	599,816	0,033	0,060
-235,073	6,001	0,074	-0,040
-234,059	20,370	0,074	0,044
-233,044	-200,000	-0,021	-0,127
-232,030	-200,000	-0,037	-0,157
-231,015	334,530	-0,055	0,078
-230,000	-24,696	0,016	-0,007
-228,986	150,195	-0,041	0,040
-227,971	-200,000	0,009	0,095
-226,957	203,629	0,034	-0,039
-225,942	-200,000	-0,011	0,044
-224,927	-22,333	0,049	-0,021
-223,913	800,000	-0,033	-0,080
-222,898	-52,667	0,070	0,023
-221,884	353,148	-0,027	-0,040
-220,869	-112,618	-0,067	-0,010
-219,855	505,382	0,065	0,111
-218,840	361,192	0,039	0,057
-217,825	-23,428	-0,015	-0,007
-216,811	-7,409	-0,120	0,059
-215,796	285,798	-0,038	-0,050
-214,782	-200,000	-0,009	-0,076
-213,767	85,861	0,114	0,092
-212,752	-42,783	0,054	0,020
-211,738	234,391	0,062	-0,075
-210,723	-200,000	0,013	0,128
-209,709	800,000	-0,037	0,078
-208,694	14,171	0,111	-0,063
-207,679	-79,914	-0,041	-0,010
-206,665	-200,000	0,002	-0,066
-205,650	157,213	0,042	-0,042
-204,636	233,501	0,078	-0,093
-203,621	-200,000	-0,005	0,112
-202,606	-200,000	-0,006	-0,038
-201,592	-20,104	-0,137	-0,061
-200,577	-155,401	0,163	-0,008
-199,563	-118,998	-0,059	-0,007
-198,548	38,118	0,021	-0,014
-197,533	-200,000	0,028	0,094
-196,519	-37,123	0,014	0,005
-195,504	-62,634	-0,106	-0,032
-194,490	-200,000	-0,016	-0,077
-193,475	800,000	0,047	0,095
-192,460	-200,000	-0,006	0,071
-191,446	-35,307	0,094	-0,037
-190,431	-40,490	0,035	-0,013
-189,417	-200,000	-0,014	0,056
-188,402	-124,552	0,058	0,006
-187,387	-19,631	-0,186	-0,084
-186,373	800,000	-0,038	-0,110
-185,358	-200,000	-0,011	-0,046
-184,344	-200,000	0,004	0,026
-183,329	-137,219	0,056	-0,005
-182,315	501,110	-0,047	-0,080
-181,300	-63,748	-0,128	0,038
-180,285	800,000	0,070	0,155
-179,271	-200,000	0,006	-0,195
-178,256	-200,000	0,027	-0,100
-177,242	-200,000	0,028	0,130
-176,227	15,864	-0,106	0,061
-175,212	-134,320	0,121	-0,011
-174,198	175,347	-0,008	-0,009
-173,183	-200,000	-0,029	-0,110
-172,169	-34,812	0,192	-0,076
-171,154	-120,087	-0,056	0,007
-170,139	70,724	0,058	-0,044
-169,125	-10,324	-0,094	0,045
-168,110	-200,000	-0,004	-0,053
-167,096	32,265	-0,042	-0,026
-166,081	-151,149	-0,050	-0,003
-165,066	227,800	-0,080	-0,095
-164,052	456,945	-0,068	0,111
-163,037	193,447	-0,008	0,009
-162,023	154,711	-0,084	0,084
-161,008	-200,000	-0,079	0,255
-159,993	-200,000	0,003	0,018
-158,979	-200,000	-0,027	0,094
-157,964	-22,479	-0,138	0,061
-156,950	800,000	-0,009	-0,022
-155,935	800,000	-0,023	-0,051
-154,920	-91,986	-0,024	-0,005
-153,906	-11,091	-0,028	0,013
-152,891	283,462	0,012	-0,016
-151,877	-199,442	0,091	0,000
-150,862	591,756	-0,064	-0,116
-149,847	800,000	-0,080	-0,169
-148,833	-19,260	0,177	0,080
-147,818	118,798	-0,051	0,045
-146,804	-131,805	0,118	0,011
-145,789	-200,000	0,005	0,113
-144,775	201,758	-0,080	-0,090
-143,760	90,437	0,112	-0,091
-142,745	497,770	-0,057	-0,095
-141,731	95,037	-0,019	0,016
-140,716	800,000	-0,054	0,132
-139,702	-200,000	-0,001	-0,060
-138,687	-200,000	-0,007	0,044
-137,672	-52,810	-0,055	0,018
-136,658	256,795	0,026	-0,033
-135,643	68,662	-0,023	-0,017
-134,629	-134,633	0,089	-0,008
-133,614	-200,000	-0,008	0,043
-132,599	8,789	0,052	0,028
-131,585	-91,716	0,053	-0,011
-130,570	-97,724	-0,115	-0,022
-129,556	800,000	-0,047	-0,147
-128,541	271,577	-0,103	-0,132
-127,526	507,684	-0,063	-0,107
-126,512	-11,343	0,096	0,046
-125,497	118,062	0,045	0,040
-124,483	-28,958	0,040	0,016
-123,468	800,000	-0,037	0,108
-122,453	800,000	-0,025	0,074
-121,439	33,169	0,046	0,029
-120,424	-200,000	0,012	-0,097
