DTS Sentinel unit serial number:	SN410029Multiplexer serial number:	ORYXHardware model number:	OX2-SRSoftware version number:	ORYX F/W v4,00 Oryx Data Collector v3.7.2.0data status	okinstallation	B6 Nyhavnadifferential loss correction	single-endedforward channel	channel 2reverse channel	N/Adate	2023/12/09time	12:45:08forward acquisition time	300,00reverse acquisition time	0,00gamma	499,1914k internal	0,3138k external	0,3138temperature offset calibration	1,0000default loss term (dB/km)	0,3820temperature slope calibration	1,0000multiplexer offset coefficient	1,0000multiplexer slope coefficient	1,0000fibre end	0,00T internal ref (°C)	19,55T ext. ref 1 (°C)	4,19T ext. ref 2 (°C)	4,17length (m)	temperature (°C)	Stokes	anti-Stokes-744,400	-61,607	0,178	0,055
-743,385	74,477	-0,201	0,157
-742,371	-41,537	0,102	0,039
-741,356	-55,600	-0,201	0,066
-740,342	-200,000	0,004	0,106
-739,327	54,789	-0,209	0,149
-738,312	-10,105	0,127	0,062
-737,298	-184,612	-0,216	-0,003
-736,283	800,000	-0,011	0,027
-735,269	-69,066	-0,323	0,092
-734,254	800,000	-0,046	0,114
-733,239	-158,412	-0,354	-0,015
-732,225	-20,550	0,103	-0,047
-731,210	342,443	-0,083	-0,121
-730,196	208,114	-0,027	-0,031
-729,181	-107,009	-0,132	0,021
-728,167	23,074	0,023	0,014
-727,152	78,188	-0,082	-0,065
-726,137	117,457	-0,120	0,109
-725,123	71,558	-0,103	-0,079
-724,108	34,144	-0,059	-0,038
-723,094	462,899	-0,029	-0,049
-722,079	145,609	-0,148	-0,147
-721,064	-200,000	0,001	0,195
-720,050	274,200	-0,015	0,020
-719,035	549,548	-0,036	0,064
-718,021	-55,293	-0,024	0,008
-717,006	-200,000	0,002	-0,025
-715,991	196,929	-0,086	0,098
-714,977	205,165	0,052	-0,060
-713,962	118,445	0,025	-0,023
-712,948	-66,552	-0,138	0,040
-711,933	-123,738	-0,060	-0,007
-710,918	540,796	0,051	-0,090
-709,904	-92,948	-0,149	0,030
-708,889	-200,000	-0,007	-0,052
-707,875	110,292	0,109	-0,097
-706,860	-200,000	-0,021	-0,091
-705,845	91,641	0,019	-0,016
-704,831	477,212	0,015	0,025
-703,816	191,595	-0,068	-0,076
-702,802	26,550	-0,061	-0,038
-701,787	-173,548	0,062	-0,001
-700,772	-200,000	0,000	-0,041
-699,758	68,488	-0,062	-0,047
-698,743	-149,082	0,199	0,012
-697,729	233,930	0,024	0,029
-696,714	-21,814	0,060	-0,027
-695,699	-76,509	-0,081	0,021
-694,685	-200,000	0,010	-0,061
-693,670	-152,137	-0,107	0,006
-692,656	-200,000	0,012	-0,051
-691,641	-200,000	-0,127	0,000
-690,627	93,414	0,068	0,057
-689,612	-50,624	0,126	-0,044
-688,597	-200,000	0,011	0,088
-687,583	-28,922	0,073	0,031
-686,568	-106,284	0,095	0,016
-685,554	500,047	0,022	0,037
-684,539	621,507	-0,033	0,061
-683,524	329,828	-0,043	0,061
-682,510	414,077	0,065	0,103
-681,495	89,906	-0,140	0,116
-680,481	111,250	-0,057	-0,051
-679,466	-83,988	-0,077	-0,018
-678,451	-200,000	-0,000	-0,007
-677,437	-51,286	-0,093	-0,032
-676,422	-177,915	0,017	0,000
-675,408	304,132	0,081	0,112
-674,393	-102,057	-0,055	0,010
-673,378	-12,814	0,090	-0,043
-672,364	800,000	0,043	-0,098
-671,349	18,360	-0,171	-0,101
-670,335	-89,916	0,024	0,005
-669,320	56,591	0,153	0,110
-668,305	120,229	0,055	0,051
-667,291	800,000	0,018	0,039
-666,276	60,546	-0,085	0,062
-665,262	-34,023	-0,128	-0,052
-664,247	800,000	-0,056	-0,164
-663,232	734,235	-0,016	0,033
-662,218	-129,535	-0,068	0,007
-661,203	287,860	-0,070	-0,094
-660,189	-200,000	-0,006	-0,089
-659,174	43,534	-0,045	-0,030
-658,159	-200,000	0,010	-0,164
-657,145	-127,085	-0,035	0,004
-656,130	-200,000	-0,007	-0,035
-655,116	35,567	-0,100	0,065
-654,101	266,590	-0,022	0,029
-653,086	40,499	-0,103	0,068
-652,072	800,000	-0,027	-0,065
-651,057	187,886	0,028	-0,031
-650,043	-59,079	-0,067	-0,021
-649,028	337,504	-0,032	-0,046
-648,014	14,962	0,145	0,084
-646,999	-126,115	-0,195	0,021
-645,984	-200,000	-0,002	0,019
-644,970	712,465	-0,034	0,067
-643,955	-200,000	0,000	-0,061
-642,941	599,954	-0,040	-0,074
-641,926	-58,027	-0,071	0,023
-640,911	298,625	-0,054	0,074
-639,897	191,908	-0,046	-0,051
-638,882	-168,906	0,030	-0,001
-637,868	137,312	-0,125	-0,120
-636,853	189,824	-0,106	-0,117
-635,838	-200,000	0,011	-0,053
-634,824	84,866	-0,025	0,020
-633,809	-96,415	-0,124	0,024
-632,795	227,472	0,060	-0,073
-631,780	-107,098	-0,050	-0,008
-630,765	72,474	-0,101	0,078
-629,751	32,704	-0,098	-0,063
-628,736	800,000	0,031	0,070
-627,722	-200,000	-0,004	-0,089
-626,707	-200,000	0,009	0,035
-625,692	-200,000	0,030	0,100
-624,678	536,126	0,030	0,053
-623,663	-117,381	-0,087	0,012
-622,649	164,172	0,080	0,083
-621,634	204,144	0,052	-0,059
-620,619	48,910	-0,167	-0,115
-619,605	245,600	0,037	0,046
-618,590	-83,500	-0,096	-0,022
-617,576	25,076	-0,071	0,043
-616,561	-25,732	-0,092	0,040
-615,546	800,000	0,084	-0,249
-614,532	800,000	0,012	-0,035
-613,517	800,000	0,019	0,042
-612,503	358,020	-0,025	-0,036
-611,488	388,970	0,009	0,014
-610,474	-200,000	0,024	0,119
-609,459	-14,835	0,110	0,052
-608,444	-47,217	-0,017	-0,006
-607,430	-200,000	-0,005	0,042
-606,415	-20,817	0,053	0,024
-605,401	800,000	0,058	-0,125
-604,386	157,468	-0,070	-0,072
-603,371	206,184	0,040	-0,046
-602,357	34,176	0,167	0,107
-601,342	-116,763	-0,020	0,003
-600,328	357,536	-0,014	-0,020
-599,313	-116,930	0,022	0,003
-598,298	42,932	0,109	0,073
-597,284	-200,000	0,009	-0,079
-596,269	126,739	-0,067	0,063
-595,255	102,659	0,060	0,052
-594,240	-88,988	-0,065	-0,014
-593,225	800,000	0,034	0,093
-592,211	-81,354	-0,062	0,015
-591,196	-200,000	-0,003	0,034
-590,182	-200,000	-0,008	0,030
-589,167	-200,000	0,012	0,106
-588,152	800,000	0,015	-0,032
-587,138	77,252	-0,113	0,088
-586,123	81,832	-0,089	-0,071
-585,109	-200,000	-0,020	-0,118
-584,094	224,692	0,021	-0,025
-583,079	747,928	-0,019	-0,037
-582,065	-200,000	0,004	-0,014
-581,050	-200,000	0,020	0,077
-580,036	-200,000	0,003	-0,030
-579,021	-73,774	0,009	-0,003
-578,006	-81,915	0,100	-0,024
-576,992	484,721	-0,084	-0,142
-575,977	392,857	0,027	-0,042
-574,963	562,583	0,021	-0,037
-573,948	180,286	-0,092	-0,100
-572,934	800,000	0,029	0,059
-571,919	4,279	-0,089	0,048
-570,904	-147,480	-0,262	0,016
-569,890	-152,553	-0,153	-0,008
-568,875	13,490	0,146	-0,083
-567,861	-7,446	-0,020	0,010
-566,846	-200,000	0,047	0,172
-565,831	-86,541	0,078	-0,018
-564,817	200,946	-0,057	-0,064
-563,802	-84,325	-0,080	0,018
-562,788	10,408	-0,127	0,071
-561,773	1,825	0,075	-0,040
-560,758	-121,321	0,042	-0,005
-559,744	-200,000	-0,004	0,068
-558,729	-200,000	-0,016	-0,084
-557,715	68,291	0,022	-0,017
-556,700	-100,119	-0,144	0,026
-555,685	-200,000	-0,005	-0,096
-554,671	127,470	-0,064	-0,060
-553,656	56,654	-0,026	-0,019
-552,642	-200,000	0,003	0,106
-551,627	39,323	0,070	0,046
-550,612	271,246	-0,023	-0,030
-549,598	-144,932	-0,038	-0,003
-548,583	47,620	-0,062	0,043
-547,569	101,995	-0,033	-0,028
-546,554	557,170	0,048	0,085
-545,539	-144,481	-0,017	0,001
-544,525	141,600	0,063	-0,062
-543,510	-57,557	-0,089	0,028
-542,496	-176,834	-0,150	-0,003
-541,481	-82,212	0,155	0,037
-540,466	127,682	0,091	-0,085
-539,452	57,747	0,042	-0,030
-538,437	-133,706	-0,060	0,005
-537,423	-200,000	0,000	-0,023
-536,408	50,380	0,078	-0,054
-535,393	341,447	-0,092	-0,133
-534,379	800,000	0,054	-0,155
-533,364	-70,007	-0,129	-0,036
-532,350	-128,952	0,181	-0,018
-531,335	73,550	-0,066	-0,051
-530,321	15,951	-0,074	0,043
-529,306	-80,072	-0,074	0,018
-528,291	71,740	-0,052	-0,040
-527,277	-200,000	0,006	-0,101
-526,262	-200,000	0,017	-0,148
-525,248	22,473	0,043	0,026
-524,233	-55,497	0,108	-0,035
-523,218	800,000	-0,006	0,017
-522,204	800,000	0,028	-0,063
-521,189	9,580	-0,081	-0,045
-520,175	351,700	0,089	0,130
-519,160	5,754	0,124	0,067
-518,145	355,261	0,047	0,069
-517,131	800,000	0,039	0,114
-516,116	38,931	0,064	0,042
-515,102	-112,606	-0,025	0,004
-514,087	372,330	-0,022	-0,033
-513,072	-200,000	-0,025	-0,149
-512,058	44,011	-0,101	0,068
-511,043	-200,000	-0,013	0,110
-510,029	-18,578	0,079	0,036
-509,014	127,172	0,027	0,025
-507,999	155,176	-0,074	0,075
-506,985	-200,000	0,023	-0,119
-505,970	566,612	-0,014	0,024
-504,956	-200,000	0,003	0,085
-503,941	117,469	-0,122	0,110
-502,926	-200,000	0,007	0,044
-501,912	-200,000	-0,003	0,043
-500,897	800,000	0,042	-0,093
-499,883	235,249	0,015	-0,019
-498,868	-24,898	0,052	-0,023
-497,853	81,613	0,026	-0,021
-496,839	-91,057	0,099	0,021
-495,824	132,227	-0,195	0,185
-494,810	59,940	-0,047	-0,034
-493,795	-200,000	-0,004	0,028
-492,781	158,333	-0,136	0,139
-491,766	56,293	0,063	-0,045
-490,751	100,653	0,037	-0,032
-489,737	93,393	-0,077	0,064
-488,722	-200,000	0,018	0,081
-487,708	-200,000	0,000	-0,002
-486,693	239,775	-0,038	-0,046
-485,678	-200,000	-0,004	-0,016
-484,664	422,730	-0,071	-0,112
-483,649	800,000	-0,085	-0,222
-482,635	-200,000	-0,013	-0,117
-481,620	385,626	0,037	0,056
-480,605	423,435	0,071	0,112
-479,591	326,462	-0,120	0,169
-478,576	-9,410	-0,024	0,012
-477,562	607,146	-0,090	-0,165
-476,547	800,000	-0,039	-0,097
-475,532	-200,000	-0,023	0,083
-474,518	-70,819	0,123	0,034
-473,503	79,102	0,029	0,023
-472,489	13,630	-0,051	-0,029
-471,474	382,238	0,039	0,059
-470,459	800,000	-0,012	-0,038
-469,445	-127,715	0,021	0,002
-468,430	-41,604	0,052	-0,019
-467,416	95,979	0,081	-0,068
-466,401	-38,442	0,110	-0,042
-465,386	1,801	-0,034	-0,018
-464,372	-79,799	0,099	-0,024
-463,357	-200,000	0,009	0,061
-462,343	-200,000	0,003	-0,046
-461,328	-156,264	0,064	0,003
-460,313	-42,939	0,102	-0,038
-459,299	68,450	0,057	0,043
-458,284	-46,720	0,097	-0,035
-457,270	434,862	-0,003	-0,005
-456,255	800,000	0,056	-0,143
-455,241	-50,332	0,212	-0,073
-454,226	-200,000	0,016	0,076
-453,211	98,203	-0,120	-0,101
-452,197	246,367	-0,037	-0,046
-451,182	226,755	-0,016	-0,019
-450,168	192,943	0,033	0,037
-449,153	-23,439	-0,056	0,024
-448,138	-200,000	-0,019	0,066
-447,124	201,887	0,041	-0,047
-446,109	-200,000	0,017	-0,095
-445,095	-28,912	0,184	0,077
-444,080	-200,000	0,010	0,107
-443,065	-139,977	-0,056	-0,004
-442,051	-23,317	0,083	0,037
-441,036	212,736	-0,081	-0,094
-440,022	-78,566	0,102	0,025
-439,007	800,000	0,045	0,113
-437,992	-200,000	-0,005	-0,186
-436,978	-200,000	-0,000	-0,057
-435,963	42,646	-0,052	0,035
-434,949	-154,872	0,085	-0,004
-433,934	-186,745	0,124	0,001
-432,919	-200,000	-0,019	0,066
-431,905	-200,000	0,008	-0,186
-430,890	114,110	-0,035	-0,031
-429,876	19,888	-0,119	0,070
-428,861	106,173	0,051	0,044
-427,846	-119,216	0,097	0,012
-426,832	564,689	-0,067	-0,119
-425,817	24,390	-0,055	0,033
-424,803	26,071	0,121	0,074
-423,788	-78,784	0,068	-0,017
-422,773	800,000	0,030	0,093
-421,759	-186,630	0,059	-0,001
-420,744	-200,000	0,026	0,121
-419,730	-200,000	-0,023	-0,210
-418,715	-200,000	-0,005	-0,087
-417,701	60,370	-0,115	0,083
-416,686	-200,000	-0,010	-0,073
-415,671	-135,950	0,164	-0,014
-414,657	-30,411	0,026	0,011
-413,642	5,331	0,052	-0,028
-412,628	-102,887	-0,090	-0,015
-411,613	-200,000	-0,008	-0,035
-410,598	-1,020	0,076	-0,039
-409,584	-200,000	0,007	0,031
-408,569	135,933	0,085	0,081
-407,555	9,742	0,054	-0,030
-406,540	-68,096	-0,067	0,019
-405,525	-130,497	-0,029	0,003
-404,511	-35,723	-0,180	-0,071
-403,496	0,029	-0,041	-0,021
-402,482	-200,000	-0,008	-0,064
-401,467	-200,000	0,010	0,089
-400,452	594,916	0,045	-0,082
-399,438	319,984	-0,107	0,149
-398,423	9,713	0,089	0,049
-397,409	23,788	-0,093	0,056
-396,394	-135,151	-0,085	0,007
-395,379	20,484	-0,082	-0,048
-394,365	-196,525	0,106	0,001
-393,350	800,000	-0,040	-0,120
-392,336	146,004	0,054	0,053
-391,321	30,637	0,075	0,047
-390,306	660,410	-0,025	-0,047
-389,292	111,534	0,097	0,086
-388,277	-200,000	0,005	0,067
-387,263	-200,000	0,044	0,150
-386,248	462,951	-0,036	-0,060
-385,233	-16,735	-0,074	0,034
-384,219	14,796	0,106	0,061
-383,204	703,207	0,034	0,065
-382,190	-27,102	0,052	0,022
-381,175	-200,000	-0,024	-0,099
-380,160	-84,310	-0,064	-0,015
-379,146	38,406	0,136	-0,088
-378,131	75,119	-0,143	-0,110
-377,117	523,816	-0,072	0,124
-376,102	-200,000	-0,012	-0,075
-375,088	-4,498	-0,045	-0,023
-374,073	53,515	0,084	-0,059
-373,058	-200,000	-0,014	-0,067
-372,044	-200,000	-0,031	-0,123
-371,029	-200,000	0,006	-0,098
-370,015	-86,564	0,047	-0,011
-369,000	98,966	0,029	-0,024
-367,985	-60,375	0,099	0,031
-366,971	-31,511	0,052	-0,021
-365,956	31,000	-0,110	-0,069
-364,942	-200,000	0,009	-0,127
-363,927	234,249	-0,085	0,102
-362,912	-9,462	-0,167	0,081
-361,898	40,709	-0,093	0,061
-360,883	85,230	-0,115	0,092
-359,869	800,000	0,013	0,038
-358,854	154,643	0,011	0,011
-357,839	30,092	0,058	-0,036
-356,825	758,424	0,034	0,068
-355,810	130,024	0,129	0,120
-354,796	800,000	0,023	-0,070
-353,781	-125,876	-0,061	-0,007
-352,766	6,901	0,070	-0,038
-351,752	267,682	0,009	0,012
-350,737	128,435	0,083	0,078
-349,723	-87,285	-0,061	0,013
-348,708	800,000	0,030	0,083
-347,693	22,025	-0,102	-0,060
-346,679	-76,575	0,036	-0,009
-345,664	81,887	-0,051	0,041
-344,650	151,556	0,038	0,038
-343,635	80,017	-0,078	0,061
-342,620	-61,780	-0,085	0,026
-341,606	336,414	0,056	0,079
-340,591	373,193	0,042	0,063
-339,577	-99,500	-0,042	0,008
-338,562	255,490	-0,044	-0,056
-337,548	131,203	0,058	-0,055
-336,533	457,970	0,068	-0,111
-335,518	56,362	0,101	0,071
-334,504	131,876	-0,048	-0,045
-333,489	-200,000	-0,011	-0,058
-332,475	388,086	-0,105	-0,160
-331,460	-200,000	-0,006	-0,073
-330,445	-82,086	-0,095	-0,023
-329,431	-59,042	-0,160	0,050
-328,416	275,137	0,119	0,154
-327,402	-200,000	0,010	0,159
-326,387	-69,539	-0,037	-0,010
-325,372	-200,000	0,021	0,075
-324,358	-34,643	-0,115	0,046
-323,343	56,844	0,137	0,097
-322,329	186,493	-0,058	-0,064
-321,314	800,000	0,041	0,098
-320,299	613,627	-0,126	0,232
-319,285	800,000	0,021	0,067
-318,270	-40,613	-0,148	-0,056
-317,256	-200,000	0,002	-0,069
-316,241	-200,000	0,032	0,113
-315,226	-52,992	0,145	0,048
-314,212	800,000	0,008	0,017
-313,197	800,000	-0,011	0,025
-312,183	-10,643	0,060	-0,029
-311,168	-177,306	0,051	-0,001
-310,153	800,000	0,014	-0,035
-309,139	-7,355	-0,100	0,049
-308,124	-200,000	0,034	0,164
-307,110	-46,384	0,104	0,037
-306,095	-200,000	0,019	-0,134
-305,080	-200,000	-0,007	-0,102
-304,066	167,861	0,092	-0,095
-303,051	43,742	-0,141	-0,094
-302,037	-200,000	0,037	-0,124
-301,022	-112,964	0,181	0,026
-300,008	800,000	0,019	0,047
-298,993	-200,000	-0,026	0,173
-297,978	-37,760	0,105	-0,041
-296,964	135,839	-0,056	0,053
-295,949	388,483	-0,066	0,099
-294,935	800,000	-0,042	0,133
-293,920	-200,000	0,007	-0,052
-292,905	399,102	-0,037	0,057
-291,891	-36,063	-0,074	-0,029
-290,876	181,153	-0,024	-0,025
-289,862	800,000	0,028	0,073
-288,847	-69,895	-0,132	-0,037
-287,832	-200,000	0,005	0,023
-286,818	800,000	0,049	-0,138
-285,803	22,481	0,107	0,064
-284,789	164,015	0,092	0,094
-283,774	-30,520	-0,111	-0,046
-282,759	-98,108	-0,115	-0,021
-281,745	-51,487	0,123	0,042
-280,730	18,252	0,080	-0,046
-279,716	-15,301	-0,122	0,057
-278,701	-200,000	0,047	0,170
-277,686	-200,000	0,010	-0,054
-276,672	-200,000	0,028	-0,223
-275,657	-66,883	-0,033	-0,009
-274,643	313,751	-0,063	-0,086
-273,628	-200,000	-0,019	0,068
-272,613	356,022	0,022	0,032
-271,599	139,367	-0,078	0,075
-270,584	-200,000	0,022	-0,097
-269,570	800,000	-0,034	-0,095
-268,555	72,176	-0,063	-0,048
-267,540	-200,000	0,000	0,155
-266,526	-116,626	0,110	0,015
-265,511	371,171	-0,033	0,049
-264,497	800,000	0,085	0,201
-263,482	-47,566	0,123	-0,043
-262,467	-40,252	0,066	-0,025
-261,453	561,045	-0,056	-0,100
-260,438	-51,134	-0,123	0,042
-259,424	135,010	-0,055	0,052
-258,409	-9,323	-0,084	0,041
-257,395	-200,000	0,029	-0,121
-256,380	-200,000	0,009	0,034
-255,365	-200,000	0,006	0,023
-254,351	236,970	-0,124	-0,150
-253,336	-25,535	-0,042	-0,018
-252,322	-134,553	0,100	-0,009
-251,307	-143,175	0,070	-0,005
-250,292	-200,000	-0,010	-0,042
-249,278	-167,482	0,051	-0,001
-248,263	-200,000	-0,024	0,128
-247,249	-61,306	0,108	0,033
-246,234	-200,000	-0,010	-0,037
-245,219	220,826	-0,068	-0,080
-244,205	800,000	0,031	-0,081
-243,190	146,144	0,184	-0,180
-242,176	-12,596	-0,066	0,031
-241,161	710,980	-0,073	0,142
-240,146	443,071	0,026	-0,041
-239,132	43,709	0,043	-0,029
-238,117	-143,696	-0,115	-0,008
-237,103	-200,000	0,010	0,154
-236,088	800,000	0,037	0,114
-235,073	252,246	0,057	0,071
-234,059	703,061	0,023	-0,044
-233,044	579,392	0,070	0,125
-232,030	800,000	-0,031	0,063
-231,015	26,299	-0,049	0,030
-230,000	34,545	-0,043	0,027
-228,986	24,692	-0,095	-0,057
-227,971	-30,078	0,034	-0,014
-226,957	-41,809	0,154	-0,057
-225,942	124,978	-0,109	0,100
-224,927	94,216	-0,116	-0,095
-223,913	32,645	0,020	0,013
-222,898	17,663	-0,067	-0,039
-221,884	-59,268	-0,111	-0,034
-220,869	197,317	0,068	-0,075
-219,855	672,347	0,047	0,089
-218,840	400,197	0,022	0,034
-217,825	-200,000	-0,040	-0,137
-216,811	-65,672	0,040	-0,012
-215,796	-39,231	-0,037	-0,014
-214,782	-200,000	0,012	-0,058
-213,767	-106,149	0,152	0,024
-212,752	800,000	-0,018	0,054
-211,738	72,104	-0,044	0,033
-210,723	-200,000	0,020	0,065
-209,709	800,000	-0,017	0,049
-208,694	246,540	0,087	0,107
-207,679	292,918	-0,055	-0,073
-206,665	-200,000	0,000	-0,017
-205,650	-1,890	0,109	0,055
-204,636	800,000	0,037	-0,107
-203,621	-102,227	-0,021	-0,004
-202,606	800,000	0,025	-0,066
-201,592	-69,562	0,064	0,018
-200,577	502,129	-0,099	0,166
-199,563	4,155	0,079	-0,042
-198,548	96,577	0,123	0,102
-197,533	-58,984	0,116	0,036
-196,519	87,181	-0,049	-0,039
-195,504	800,000	-0,033	-0,094
-194,490	-135,964	-0,135	-0,011
-193,475	-200,000	0,015	-0,172
-192,460	800,000	0,021	0,065
-191,446	-200,000	0,009	-0,106
-190,431	800,000	-0,052	0,157
-189,417	-200,000	-0,011	0,148
-188,402	-78,549	0,186	-0,046
-187,387	379,491	0,049	0,073
-186,373	98,667	-0,070	-0,059
-185,358	800,000	-0,032	-0,101
-184,344	70,320	0,123	0,092
-183,329	118,330	-0,050	0,045
-182,315	502,805	0,052	0,087
-181,300	-200,000	0,049	0,000
-180,285	-200,000	-0,023	0,098
-179,271	800,000	-0,033	-0,102
-178,256	-70,758	0,044	-0,012
-177,242	48,293	0,138	0,094
-176,227	800,000	-0,061	0,158
-175,212	-145,351	0,036	-0,002
-174,198	-169,707	-0,116	-0,003
-173,183	800,000	0,004	-0,012
-172,169	194,984	-0,077	-0,085
-171,154	-35,411	-0,089	0,035
-170,139	23,199	0,056	0,033
-169,125	16,222	0,066	-0,038
-168,110	376,693	0,011	0,017
-167,096	-200,000	-0,029	-0,129
-166,081	-200,000	0,010	-0,068
-165,066	-200,000	-0,024	-0,105
-164,052	-200,000	-0,067	-0,231
-163,037	-200,000	0,051	-0,164
-162,023	70,977	0,105	0,079
-161,008	291,809	0,034	-0,045
-159,993	170,398	-0,048	0,050
-158,979	-111,095	-0,086	-0,013
-157,964	63,901	0,120	0,087
-156,950	-116,423	0,023	0,003
-155,935	-200,000	0,002	-0,148
-154,920	-120,605	0,176	0,021
-153,906	800,000	-0,008	0,027
-152,891	-200,000	-0,001	0,059
-151,877	-114,148	-0,071	-0,010
-150,862	-200,000	-0,015	-0,108
-149,847	534,427	0,021	0,036
-148,833	244,289	0,074	0,091
-147,818	-137,967	0,119	-0,009
-146,804	-102,316	-0,028	0,005
-145,789	121,239	-0,078	-0,071
-144,775	-38,563	0,141	-0,054
-143,760	0,469	-0,030	-0,015
-142,745	-184,758	0,051	-0,001
-141,731	-151,763	0,024	-0,001
-140,716	223,687	-0,066	0,078
-139,702	-56,833	-0,196	0,062
-138,687	248,540	-0,099	0,122
-137,672	800,000	-0,037	0,097
-136,658	800,000	-0,040	0,091
-135,643	-200,000	-0,066	-0,258
-134,629	329,614	0,039	0,055
-133,614	-112,544	-0,063	0,009
-132,599	498,586	-0,021	0,035
-131,585	133,381	-0,095	0,089
-130,570	-200,000	-0,025	-0,084
-129,556	55,280	-0,112	0,078
-128,541	-200,000	0,039	-0,199
-127,526	-200,000	-0,068	0,000
-126,512	197,906	0,087	0,096
-125,497	10,953	-0,082	0,045
-124,483	-200,000	-0,003	-0,026
-123,468	63,097	0,099	-0,071
-122,453	-75,402	-0,120	0,031
-121,439	278,106	0,008	-0,011
-120,424	46,913	-0,028	0,019
-119,410	-56,314	0,111	-0,035
-118,395	-148,620	-0,051	-0,003
