DTS Sentinel unit serial number:	SN410029Multiplexer serial number:	ORYXHardware model number:	OX2-SRSoftware version number:	ORYX F/W v4,00 Oryx Data Collector v3.7.2.0data status	okinstallation	B6 Nyhavnadifferential loss correction	single-endedforward channel	channel 2reverse channel	N/Adate	2023/12/10time	23:55:08forward acquisition time	300,00reverse acquisition time	0,00gamma	499,1914k internal	0,3122k external	0,3122temperature offset calibration	1,0000default loss term (dB/km)	0,3820temperature slope calibration	1,0000multiplexer offset coefficient	1,0000multiplexer slope coefficient	1,0000fibre end	0,00T internal ref (°C)	22,38T ext. ref 1 (°C)	6,01T ext. ref 2 (°C)	6,05length (m)	temperature (°C)	Stokes	anti-Stokes-744,400	708,407	-0,045	0,090
-743,385	126,168	-0,129	0,122
-742,371	-30,676	0,014	-0,006
-741,356	-35,760	-0,213	0,086
-740,342	800,000	-0,021	-0,043
-739,327	-14,478	-0,284	0,136
-738,312	242,569	0,069	0,086
-737,298	-112,592	-0,124	-0,018
-736,283	151,647	0,061	-0,062
-735,269	12,697	-0,246	0,141
-734,254	133,039	-0,045	0,043
-733,239	-119,035	-0,313	-0,040
-732,225	-150,025	0,159	-0,009
-731,210	-200,000	0,040	0,144
-730,196	241,749	0,056	0,070
-729,181	-10,817	0,105	0,052
-728,167	188,454	-0,021	0,024
-727,152	122,258	-0,121	0,112
-726,137	337,143	-0,067	-0,097
-725,123	-200,000	0,011	0,109
-724,108	-8,947	-0,218	-0,108
-723,094	339,189	0,091	-0,132
-722,079	-60,276	-0,077	0,024
-721,064	292,155	-0,047	0,064
-720,050	-200,000	-0,018	0,071
-719,035	-33,193	-0,090	0,037
-718,021	-200,000	-0,001	-0,007
-717,006	-66,066	-0,105	-0,031
-715,991	800,000	-0,052	0,115
-714,977	763,959	-0,098	0,199
-713,962	-36,748	-0,078	0,031
-712,948	-43,170	-0,145	-0,054
-711,933	-200,000	0,016	0,094
-710,918	-119,720	0,032	0,004
-709,904	176,888	-0,043	0,047
-708,889	800,000	-0,015	0,035
-707,875	671,762	-0,032	-0,062
-706,860	673,858	-0,049	-0,095
-705,845	800,000	-0,061	-0,136
-704,831	-63,109	0,103	0,031
-703,816	136,286	0,033	-0,032
-702,802	-200,000	-0,013	-0,105
-701,787	-200,000	0,013	-0,057
-700,772	-104,071	-0,067	-0,011
-699,758	0,445	-0,030	0,016
-698,743	642,994	0,047	0,090
-697,729	-54,580	0,155	-0,052
-696,714	-105,418	-0,123	0,021
-695,699	-200,000	0,015	-0,138
-694,685	800,000	-0,039	-0,088
-693,670	-186,333	-0,198	-0,002
-692,656	119,766	0,074	-0,068
-691,641	800,000	-0,039	0,103
-690,627	-51,668	0,144	0,050
-689,612	-21,483	-0,129	-0,058
-688,597	102,557	0,030	0,027
-687,583	-69,942	-0,172	0,048
-686,568	800,000	-0,007	-0,019
-685,554	-24,275	-0,088	0,039
-684,539	-200,000	-0,013	0,050
-683,524	50,121	0,108	0,076
-682,510	50,885	-0,042	0,030
-681,495	-16,055	-0,075	-0,035
-680,481	-200,000	-0,008	-0,103
-679,466	157,864	-0,106	-0,110
-678,451	647,078	-0,061	0,117
-677,437	55,522	0,140	0,101
-676,422	-200,000	0,009	-0,061
-675,408	-3,013	0,068	0,035
-674,393	-200,000	-0,001	-0,127
-673,378	-200,000	-0,018	-0,096
-672,364	-134,004	-0,074	0,007
-671,349	167,831	0,091	-0,096
-670,335	507,002	0,056	-0,098
-669,320	141,844	-0,018	0,017
-668,305	-200,000	0,003	0,011
-667,291	568,591	0,021	-0,039
-666,276	337,686	-0,076	-0,110
-665,262	800,000	-0,033	-0,102
-664,247	91,674	-0,032	-0,026
-663,232	60,890	0,012	0,009
-662,218	-68,849	-0,094	0,027
-661,203	734,964	0,066	0,132
-660,189	226,051	0,032	-0,038
-659,174	-200,000	-0,029	0,144
-658,159	800,000	0,009	0,019
-657,145	-18,867	-0,096	-0,044
-656,130	800,000	-0,059	-0,181
-655,116	205,604	0,126	-0,145
-654,101	82,644	0,055	0,044
-653,086	239,738	-0,032	0,039
-652,072	149,652	-0,024	-0,025
-651,057	-104,069	-0,113	0,019
-650,043	94,814	-0,042	-0,035
-649,028	800,000	0,050	-0,124
-648,014	-200,000	0,005	-0,022
-646,999	17,125	-0,095	0,056
-645,984	-200,000	-0,015	0,055
-644,970	-200,000	0,000	0,036
-643,955	-200,000	0,022	-0,116
-642,941	800,000	-0,033	0,082
-641,926	-26,617	0,186	0,081
-640,911	198,347	-0,047	0,053
-639,897	800,000	-0,040	0,091
-638,882	-55,560	-0,102	0,034
-637,868	-200,000	0,006	0,038
-636,853	90,653	-0,044	-0,037
-635,838	-73,579	0,119	-0,032
-634,824	85,137	0,045	0,036
-633,809	-137,784	-0,105	0,009
-632,795	800,000	-0,026	0,055
-631,780	50,684	-0,037	0,026
-630,765	390,307	-0,035	-0,054
-629,751	173,400	-0,088	-0,095
-628,736	-63,262	0,050	0,015
-627,722	-200,000	-0,017	-0,085
-626,707	29,688	-0,147	-0,093
-625,692	26,409	0,015	0,009
-624,678	-125,686	-0,095	-0,011
-623,663	-70,209	-0,125	-0,035
-622,649	201,328	-0,093	-0,106
-621,634	-14,458	0,062	-0,029
-620,619	118,687	-0,058	-0,053
-619,605	-200,000	0,021	0,111
-618,590	-32,051	0,071	0,029
-617,576	17,871	0,115	-0,068
-616,561	33,166	0,071	-0,045
-615,546	-200,000	-0,014	-0,096
-614,532	-200,000	-0,010	-0,033
-613,517	-73,406	-0,096	-0,026
-612,503	-13,845	-0,012	-0,006
-611,488	-200,000	-0,019	-0,097
-610,474	-200,000	-0,004	0,015
-609,459	-200,000	-0,000	0,163
-608,444	-124,989	-0,121	-0,014
-607,430	-109,718	-0,060	0,009
-606,415	-200,000	-0,033	-0,150
-605,401	-94,274	0,063	0,013
-604,386	-200,000	-0,027	0,170
-603,371	191,039	0,015	0,017
-602,357	78,047	-0,034	0,027
-601,342	-140,332	-0,060	-0,005
-600,328	800,000	-0,032	-0,100
-599,313	-41,595	-0,074	-0,028
-598,298	-200,000	0,004	-0,122
-597,284	-47,322	0,108	-0,039
-596,269	-200,000	-0,001	-0,021
-595,255	-200,000	0,019	0,155
-594,240	211,315	0,038	0,044
-593,225	800,000	-0,020	-0,050
-592,211	123,382	0,060	0,055
-591,196	-200,000	-0,005	0,024
-590,182	-200,000	0,024	0,119
-589,167	120,495	0,107	0,099
-588,152	-200,000	-0,021	0,078
-587,138	800,000	0,054	-0,139
-586,123	-39,304	-0,144	-0,056
-585,109	800,000	-0,041	0,100
-584,094	608,141	0,031	-0,058
-583,079	-126,410	0,138	0,015
-582,065	57,950	-0,064	-0,047
-581,050	800,000	-0,068	-0,144
-580,036	163,678	-0,089	0,093
-579,021	-200,000	-0,017	0,159
-578,006	-200,000	-0,004	-0,196
-576,992	-200,000	-0,035	0,222
-575,977	45,644	-0,016	0,011
-574,963	469,798	-0,043	0,072
-573,948	60,349	0,091	-0,066
-572,934	-200,000	-0,006	0,045
-571,919	800,000	0,037	-0,088
-570,904	78,126	-0,131	-0,103
-569,890	117,817	-0,091	-0,083
-568,875	186,021	0,092	-0,101
-567,861	-14,132	0,073	-0,035
-566,846	277,069	-0,079	0,104
-565,831	-103,571	-0,103	-0,018
-564,817	13,335	-0,057	-0,032
-563,802	-19,512	0,079	-0,036
-562,788	800,000	-0,046	-0,108
-561,773	-106,145	-0,079	-0,013
-560,758	800,000	-0,028	0,082
-559,744	-0,294	0,040	-0,021
-558,729	517,695	-0,025	-0,043
-557,715	639,656	-0,080	-0,151
-556,700	126,032	0,040	-0,038
-555,685	-7,163	-0,024	-0,012
-554,671	-85,195	-0,050	-0,012
-553,656	-165,495	-0,045	-0,001
-552,642	800,000	0,061	0,140
-551,627	-200,000	-0,014	0,125
-550,612	-200,000	-0,011	0,085
-549,598	800,000	0,051	-0,124
-548,583	351,517	-0,065	0,095
-547,569	121,342	-0,018	-0,017
-546,554	-1,057	-0,089	0,046
-545,539	157,031	-0,035	0,036
-544,525	-200,000	-0,017	-0,152
-543,510	-200,000	-0,022	0,089
-542,496	-200,000	-0,016	-0,138
-541,481	800,000	-0,015	-0,033
-540,466	26,083	-0,071	0,043
-539,452	-200,000	-0,029	0,120
-538,437	-31,364	0,031	0,013
-537,423	-60,840	-0,043	0,013
-536,408	705,479	-0,053	-0,103
-535,393	494,227	-0,022	-0,037
-534,379	-11,449	-0,131	-0,064
-533,364	-106,168	0,068	-0,011
-532,350	-119,322	0,029	0,004
-531,335	-200,000	-0,013	0,147
-530,321	800,000	-0,006	0,019
-529,306	101,813	0,026	0,022
-528,291	-2,375	-0,054	0,028
-527,277	-159,661	-0,076	-0,003
-526,262	-200,000	-0,006	0,138
-525,248	333,464	0,075	0,107
-524,233	36,742	0,082	0,054
-523,218	-200,000	-0,016	0,078
-522,204	-200,000	0,003	-0,211
-521,189	-200,000	-0,003	-0,030
-520,175	-154,411	0,018	-0,001
-519,160	-7,104	0,193	-0,097
-518,145	-62,989	0,120	-0,036
-517,131	-200,000	-0,012	0,115
-516,116	139,347	-0,013	-0,013
-515,102	346,120	0,030	0,044
-514,087	-67,102	-0,059	-0,017
-513,072	45,010	-0,116	0,079
-512,058	-93,284	0,086	-0,018
-511,043	106,415	-0,066	0,058
-510,029	373,121	0,088	0,132
-509,014	-111,753	0,075	-0,011
-507,999	-110,755	0,026	0,004
-506,985	531,610	-0,022	0,038
-505,970	-200,000	-0,009	-0,065
-504,956	587,142	-0,028	-0,051
-503,941	681,826	0,046	-0,089
-502,926	43,351	0,086	-0,058
-501,912	82,764	0,150	-0,120
-500,897	-89,363	0,041	-0,009
-499,883	-100,114	-0,125	-0,023
-498,868	57,817	-0,128	-0,093
-497,853	284,349	0,058	-0,077
-496,839	662,117	0,065	-0,124
-495,824	305,926	0,076	-0,104
-494,810	236,574	0,112	-0,137
-493,795	-6,129	-0,071	0,035
-492,781	-200,000	-0,009	0,057
-491,766	-108,832	-0,069	0,011
-490,751	-200,000	-0,009	-0,061
-489,737	-40,292	0,123	-0,047
-488,722	800,000	0,051	-0,121
-487,708	379,714	0,026	0,039
-486,693	-200,000	-0,021	0,118
-485,678	-94,484	0,021	-0,004
-484,664	687,501	-0,011	0,022
-483,649	-200,000	-0,007	-0,062
-482,635	800,000	0,057	-0,127
-481,620	-100,805	0,024	0,004
-480,605	-129,350	0,040	0,004
-479,591	179,305	-0,055	-0,060
-478,576	-120,258	-0,076	-0,009
-477,562	-70,148	-0,124	-0,035
-476,547	-82,530	0,072	-0,017
-475,532	30,155	-0,052	0,033
-474,518	-148,016	0,186	0,011
-473,503	438,231	0,083	0,134
-472,489	524,785	0,091	0,159
-471,474	50,477	0,051	0,035
-470,459	-184,933	0,122	0,001
-469,445	386,964	0,037	-0,056
-468,430	-200,000	-0,035	0,130
-467,416	-200,000	-0,017	0,062
-466,401	-200,000	0,006	-0,179
-465,386	-197,753	0,165	0,001
-464,372	800,000	-0,025	0,064
-463,357	-28,164	-0,066	-0,028
-462,343	-37,943	0,176	-0,069
-461,328	241,909	-0,100	-0,123
-460,313	-118,368	0,122	0,016
-459,299	398,422	-0,003	0,004
-458,284	-200,000	-0,009	0,044
-457,270	-145,863	0,086	-0,006
-456,255	-123,450	-0,111	-0,013
-455,241	-200,000	-0,050	-0,209
-454,226	-200,000	-0,018	-0,071
-453,211	-200,000	0,022	-0,217
-452,197	-62,612	-0,060	-0,018
-451,182	-27,794	0,085	-0,036
-450,168	65,361	-0,090	0,067
-449,153	800,000	0,032	0,097
-448,138	-200,000	-0,010	-0,154
-447,124	-200,000	-0,020	0,079
-446,109	-46,983	0,103	-0,037
-445,095	535,764	-0,061	-0,106
-444,080	273,455	-0,049	-0,065
-443,065	38,972	0,068	-0,045
-442,051	113,448	-0,075	0,067
-441,036	-200,000	-0,001	0,020
-440,022	39,941	-0,088	-0,058
-439,007	393,778	0,035	-0,055
-437,992	221,384	-0,071	0,085
-436,978	-183,818	-0,056	-0,001
-435,963	800,000	-0,062	0,165
-434,949	19,381	-0,119	0,070
-433,934	800,000	0,012	-0,029
-432,919	-54,826	0,030	-0,010
-431,905	-76,287	-0,012	0,003
-430,890	-200,000	-0,002	-0,080
-429,876	363,102	0,101	0,150
-428,861	800,000	-0,066	0,166
-427,846	800,000	-0,030	-0,074
-426,832	179,422	-0,040	-0,044
-425,817	-200,000	0,016	-0,155
-424,803	-148,620	-0,010	0,001
-423,788	-61,860	0,093	-0,029
-422,773	63,358	-0,127	0,094
-421,759	184,986	0,104	0,114
-420,744	-200,000	0,021	0,098
-419,730	-200,000	0,004	0,051
-418,715	79,747	-0,040	0,032
-417,701	-200,000	-0,033	-0,113
-416,686	-54,700	0,032	-0,011
-415,671	72,326	0,129	-0,099
-414,657	800,000	-0,018	0,042
-413,642	-200,000	-0,004	0,066
-412,628	125,696	-0,022	-0,020
-411,613	9,281	-0,061	0,034
-410,598	800,000	0,024	0,061
-409,584	-200,000	-0,007	0,116
-408,569	223,337	-0,099	0,118
-407,555	-200,000	0,049	0,185
-406,540	-200,000	-0,013	-0,097
-405,525	431,164	0,063	0,101
-404,511	510,786	0,029	-0,050
-403,496	438,361	-0,030	0,049
-402,482	68,409	-0,077	0,058
-401,467	629,556	-0,071	-0,132
-400,452	736,864	-0,041	-0,082
-399,438	63,222	0,054	-0,040
-398,423	421,477	0,068	0,107
-397,409	-200,000	-0,036	-0,174
-396,394	196,713	-0,068	-0,077
-395,379	-105,060	0,081	-0,014
-394,365	273,898	0,027	-0,036
-393,350	738,110	0,061	0,120
-392,336	-80,854	0,058	0,014
-391,321	-200,000	-0,001	0,086
-390,306	160,204	-0,060	-0,062
-389,292	-200,000	-0,011	-0,071
-388,277	-200,000	-0,027	-0,120
-387,263	196,288	0,055	0,062
-386,248	75,813	0,093	-0,072
-385,233	-200,000	-0,009	-0,040
-384,219	-115,845	-0,067	-0,009
-383,204	148,007	0,038	-0,038
-382,190	114,903	0,036	-0,032
-381,175	-125,163	-0,043	0,005
-380,160	800,000	-0,059	0,135
-379,146	-77,537	-0,103	0,026
-378,131	-27,073	0,150	0,064
-377,117	800,000	0,028	-0,057
-376,102	800,000	-0,017	0,053
-375,088	-40,410	-0,064	-0,024
-374,073	800,000	-0,059	0,130
-373,058	-31,390	-0,140	0,057
-372,044	85,357	0,175	0,141
-371,029	79,338	0,065	0,051
-370,015	239,880	-0,054	0,067
-369,000	82,054	0,040	-0,032
-367,985	-113,857	0,019	-0,003
-366,971	800,000	0,024	-0,073
-365,956	-200,000	0,011	0,120
-364,942	102,198	0,066	0,057
-363,927	-0,660	-0,116	0,060
-362,912	-90,665	-0,054	0,011
-361,898	-21,094	-0,137	-0,061
-360,883	121,250	-0,016	0,014
-359,869	-105,625	0,040	-0,007
-358,854	-200,000	0,019	0,162
-357,839	525,972	0,043	0,075
-356,825	137,399	0,069	-0,066
-355,810	491,382	0,038	-0,064
-354,796	411,649	0,019	0,029
-353,781	70,442	-0,103	-0,078
-352,766	165,370	-0,095	-0,098
-351,752	-200,000	-0,010	0,057
-350,737	-13,876	0,085	-0,040
-349,723	-200,000	0,005	-0,027
-348,708	330,778	0,061	0,086
-347,693	-200,000	0,002	-0,021
-346,679	32,145	0,032	0,020
-345,664	365,212	-0,056	0,084
-344,650	-23,517	0,070	0,031
-343,635	296,292	-0,033	0,044
-342,620	-200,000	-0,012	0,170
-341,606	-35,493	0,121	0,048
-340,591	-33,182	-0,126	0,051
-339,577	800,000	-0,051	-0,132
-338,562	143,079	-0,117	0,115
-337,548	-200,000	0,027	0,099
-336,533	800,000	-0,039	0,081
-335,518	93,969	0,095	0,079
-334,504	-4,663	0,077	0,039
-333,489	14,393	-0,039	-0,022
-332,475	20,695	-0,098	-0,058
-331,460	-6,570	-0,027	-0,013
-330,445	-30,882	0,083	-0,034
-329,431	-29,269	0,070	0,029
-328,416	0,593	0,035	0,018
-327,402	800,000	0,084	0,197
-326,387	-127,983	-0,112	0,012
-325,372	480,130	0,066	-0,110
-324,358	464,713	0,035	0,058
-323,343	15,279	-0,058	-0,033
-322,329	367,394	-0,034	-0,051
-321,314	-166,880	-0,060	-0,002
-320,299	336,915	0,100	0,143
-319,285	-200,000	0,011	-0,045
-318,270	42,667	0,095	-0,064
-317,256	-28,658	-0,141	-0,059
-316,241	-200,000	0,019	0,066
-315,226	800,000	-0,051	-0,139
-314,212	-200,000	-0,008	0,058
-313,197	-200,000	0,005	0,162
-312,183	565,373	0,064	0,115
-311,168	800,000	0,006	-0,019
-310,153	163,563	0,058	-0,060
-309,139	60,965	0,090	0,066
-308,124	800,000	0,036	0,074
-307,110	-200,000	-0,008	-0,035
-306,095	-23,829	-0,148	-0,065
-305,080	234,335	0,040	-0,048
-304,066	-200,000	0,038	0,138
-303,051	119,013	-0,032	0,029
-302,037	241,747	0,097	-0,120
-301,022	97,685	0,054	-0,045
-300,008	-200,000	0,009	0,049
-298,993	562,135	0,080	-0,143
-297,978	105,054	0,053	0,045
-296,964	758,136	-0,035	-0,071
-295,949	-63,592	0,045	0,013
-294,935	58,749	-0,106	0,077
-293,920	600,235	-0,112	-0,205
-292,905	-142,427	-0,050	0,004
-291,891	-200,000	-0,002	0,118
-290,876	335,912	-0,024	-0,034
-289,862	-133,522	0,111	0,010
-288,847	244,955	0,075	-0,093
-287,832	-200,000	-0,027	-0,122
-286,818	-103,958	-0,131	-0,022
-285,803	91,190	0,061	-0,050
-284,789	-50,593	0,006	0,002
-283,774	-44,023	-0,044	0,016
-282,759	479,728	-0,033	0,055
-281,745	-76,919	-0,117	-0,030
-280,730	-200,000	-0,009	-0,067
-279,716	44,335	0,054	-0,037
-278,701	366,394	-0,086	0,127
-277,686	79,976	0,099	0,078
-276,672	800,000	0,010	-0,022
-275,657	390,678	0,034	0,052
-274,643	119,077	-0,065	-0,059
-273,628	62,516	-0,117	0,085
-272,613	-92,624	0,061	0,012
-271,599	-200,000	-0,014	0,048
-270,584	301,883	0,035	0,047
-269,570	434,489	-0,025	-0,040
-268,555	309,263	0,045	0,062
-267,540	-18,832	0,029	0,013
-266,526	364,357	0,045	-0,067
-265,511	116,489	-0,057	0,051
-264,497	800,000	-0,017	0,040
-263,482	-144,946	0,176	-0,012
-262,467	264,317	-0,050	0,064
-261,453	22,946	-0,089	-0,053
-260,438	161,564	0,109	-0,112
-259,424	-200,000	0,021	-0,146
-258,409	136,838	0,044	-0,042
-257,395	170,068	-0,050	-0,052
-256,380	521,877	-0,015	-0,026
-255,365	-200,000	-0,042	-0,197
-254,351	75,579	0,064	0,049
-253,336	-7,972	0,107	-0,053
-252,322	800,000	0,032	-0,068
-251,307	5,746	0,058	-0,031
-250,292	-200,000	-0,001	0,050
-249,278	-200,000	-0,049	0,167
-248,263	-200,000	-0,039	0,137
-247,249	249,932	-0,063	0,078
-246,234	206,776	-0,089	0,101
-245,219	-117,402	0,075	0,010
-244,205	800,000	-0,041	0,103
-243,190	274,346	0,067	0,087
-242,176	-200,000	-0,021	-0,156
-241,161	-200,000	-0,013	-0,090
-240,146	-3,411	-0,079	0,040
-239,132	-76,662	-0,100	-0,025
-238,117	789,103	0,041	-0,083
-237,103	800,000	0,029	0,091
-236,088	800,000	0,018	-0,039
-235,073	800,000	-0,030	-0,084
-234,059	129,216	0,149	0,139
-233,044	-191,212	0,072	0,001
-232,030	55,383	0,096	0,068
-231,015	263,843	-0,044	-0,056
-230,000	-200,000	-0,020	-0,172
-228,986	303,830	-0,039	0,053
-227,971	-200,000	0,007	-0,038
-226,957	206,391	-0,022	0,025
-225,942	545,851	-0,074	0,131
-224,927	-200,000	0,028	-0,136
-223,913	-200,000	-0,008	-0,101
-222,898	-200,000	-0,007	-0,041
-221,884	464,969	-0,032	0,053
-220,869	-200,000	0,003	0,014
-219,855	39,093	0,152	-0,099
-218,840	148,661	-0,062	-0,061
-217,825	-139,400	-0,112	-0,009
-216,811	-65,292	-0,103	-0,030
-215,796	-95,620	-0,162	0,031
-214,782	-33,238	0,104	0,042
-213,767	-200,000	-0,011	-0,049
-212,752	22,300	0,024	0,014
-211,738	-200,000	-0,027	0,126
-210,723	-90,268	0,031	-0,006
-209,709	58,345	0,157	-0,113
-208,694	697,553	-0,069	-0,133
-207,679	178,699	-0,038	-0,040
-206,665	-142,315	-0,059	0,004
-205,650	-8,737	0,032	0,016
-204,636	-125,976	0,051	0,005
-203,621	-95,760	-0,066	0,013
-202,606	52,245	0,024	-0,016
-201,592	-200,000	-0,011	-0,055
-200,577	270,622	0,047	-0,061
-199,563	-83,074	0,191	-0,045
-198,548	-200,000	0,017	0,117
-197,533	-200,000	0,005	0,082
-196,519	-200,000	-0,012	0,137
-195,504	-172,785	-0,074	-0,002
-194,490	-76,493	-0,049	0,013
-193,475	306,072	0,074	-0,100
-192,460	-19,542	0,112	-0,050
-191,446	413,257	-0,036	0,056
-190,431	800,000	0,030	-0,062
-189,417	424,249	-0,041	-0,064
-188,402	-97,949	-0,160	0,030
-187,387	800,000	0,011	-0,026
-186,373	-21,501	-0,067	-0,030
-185,358	-200,000	0,000	-0,065
-184,344	-18,161	0,052	-0,024
-183,329	-200,000	0,020	0,076
-182,315	800,000	0,034	-0,082
-181,300	629,419	0,046	0,085
-180,285	436,139	0,005	0,008
-179,271	125,526	-0,048	-0,044
-178,256	341,266	-0,047	0,067
-177,242	650,452	0,060	0,112
-176,227	800,000	-0,017	-0,050
-175,212	-200,000	0,006	0,114
-174,198	-172,957	0,059	-0,001
-173,183	800,000	-0,049	-0,106
-172,169	-200,000	0,018	0,069
-171,154	800,000	0,037	0,103
-170,139	-88,744	0,060	0,013
-169,125	-200,000	0,026	0,154
-168,110	-89,400	-0,068	0,014
-167,096	-200,000	0,019	-0,099
-166,081	11,976	0,043	-0,024
-165,066	206,751	0,046	-0,053
-164,052	-154,110	-0,138	-0,007
-163,037	-106,611	0,129	-0,021
-162,023	-47,946	0,146	-0,051
-161,008	658,572	0,058	-0,109
-159,993	78,713	-0,118	0,092
-158,979	800,000	-0,009	-0,027
-157,964	8,409	0,078	0,042
-156,950	-29,534	0,033	-0,014
-155,935	202,746	-0,025	-0,028
-154,920	800,000	-0,028	0,071
-153,906	46,225	0,028	0,019
-152,891	173,242	0,120	0,126
-151,877	151,667	0,111	-0,110
-150,862	-152,728	-0,076	0,004
-149,847	294,080	-0,116	-0,154
-148,833	800,000	0,036	-0,110
-147,818	-120,475	-0,070	-0,009
-146,804	-17,223	0,095	0,043
-145,789	157,913	-0,081	0,082
-144,775	95,565	-0,073	-0,060
-143,760	-200,000	-0,027	-0,257
-142,745	-126,250	-0,103	0,011
-141,731	-29,736	0,072	0,030
-140,716	-200,000	0,034	0,120
-139,702	98,785	0,057	-0,048
-138,687	800,000	0,034	-0,080
-137,672	800,000	-0,011	0,027
-136,658	800,000	-0,024	0,064
-135,643	-200,000	0,002	-0,029
-134,629	358,157	-0,072	0,104
-133,614	-54,186	-0,118	0,039
-132,599	-200,000	0,002	0,087
-131,585	-147,494	0,048	0,003
-130,570	144,467	0,063	-0,061
-129,556	775,215	0,060	0,119
-128,541	139,039	-0,104	0,100
-127,526	49,709	0,168	-0,115
-126,512	-200,000	-0,032	-0,109
-125,497	140,194	0,068	-0,065
-124,483	800,000	-0,010	0,023
-123,468	16,915	-0,042	0,024
-122,453	102,539	-0,026	-0,022
-121,439	6,495	-0,024	-0,013
-120,424	130,693	-0,048	-0,044
