DTS Sentinel unit serial number:	SN410029Multiplexer serial number:	ORYXHardware model number:	OX2-SRSoftware version number:	ORYX F/W v4,00 Oryx Data Collector v3.7.2.0data status	okinstallation	B6 Nyhavnadifferential loss correction	single-endedforward channel	channel 2reverse channel	N/Adate	2023/12/09time	10:35:08forward acquisition time	300,00reverse acquisition time	0,00gamma	499,1914k internal	0,3139k external	0,3139temperature offset calibration	1,0000default loss term (dB/km)	0,3820temperature slope calibration	1,0000multiplexer offset coefficient	1,0000multiplexer slope coefficient	1,0000fibre end	0,00T internal ref (°C)	18,57T ext. ref 1 (°C)	2,37T ext. ref 2 (°C)	2,38length (m)	temperature (°C)	Stokes	anti-Stokes-744,400	-46,581	0,180	-0,065
-743,385	-124,151	-0,237	0,027
-742,371	-67,336	0,127	0,037
-741,356	-147,736	-0,295	0,018
-740,342	-5,865	0,155	0,078
-739,327	-82,289	-0,408	-0,098
-738,312	800,000	0,042	-0,129
-737,298	-91,468	-0,264	0,055
-736,283	39,599	0,153	-0,101
-735,269	-150,739	-0,331	0,018
-734,254	65,262	0,085	-0,064
-733,239	-114,191	-0,474	-0,067
-732,225	5,214	0,195	0,106
-731,210	-200,000	-0,037	0,129
-730,196	-84,627	-0,052	0,012
-729,181	-97,056	-0,115	0,022
-728,167	-115,198	-0,229	0,032
-727,152	-200,000	0,008	0,054
-726,137	-107,432	-0,087	0,014
-725,123	-54,689	-0,056	0,019
-724,108	202,733	-0,095	-0,109
-723,094	-41,121	-0,163	-0,062
-722,079	224,654	-0,118	-0,141
-721,064	800,000	0,038	0,087
-720,050	-197,255	-0,034	0,000
-719,035	-65,320	-0,090	0,027
-718,021	25,829	0,140	-0,086
-717,006	295,089	-0,096	-0,131
-715,991	-200,000	-0,040	-0,183
-714,977	-10,405	-0,106	-0,052
-713,962	-144,018	0,050	-0,003
-712,948	159,463	-0,058	-0,060
-711,933	-176,900	0,039	-0,001
-710,918	38,065	0,074	0,048
-709,904	-173,588	-0,122	-0,003
-708,889	74,493	-0,125	0,098
-707,875	-200,000	-0,036	0,145
-706,860	-200,000	0,017	-0,056
-705,845	800,000	-0,044	0,110
-704,831	94,263	0,006	0,005
-703,816	800,000	0,039	-0,121
-702,802	285,181	-0,040	0,054
-701,787	214,720	-0,061	-0,071
-700,772	-200,000	-0,027	-0,132
-699,758	31,503	-0,119	-0,076
-698,743	-200,000	-0,031	0,206
-697,729	-15,893	-0,086	0,040
-696,714	-67,988	0,028	0,008
-695,699	800,000	-0,075	-0,168
-694,685	289,250	0,099	-0,133
-693,670	-200,000	-0,014	-0,046
-692,656	-68,242	-0,131	0,037
-691,641	-46,827	-0,080	-0,029
-690,627	-200,000	-0,000	0,038
-689,612	-200,000	0,009	0,103
-688,597	692,436	-0,018	0,034
-687,583	-200,000	0,007	0,027
-686,568	85,866	-0,046	-0,037
-685,554	-38,598	0,068	0,026
-684,539	160,897	0,053	0,054
-683,524	142,987	0,065	-0,064
-682,510	156,796	-0,053	0,054
-681,495	-200,000	-0,036	0,123
-680,481	-200,000	0,018	-0,086
-679,466	183,629	-0,029	0,031
-678,451	-200,000	-0,017	-0,062
-677,437	52,180	-0,030	0,021
-676,422	460,837	-0,040	0,066
-675,408	9,379	0,085	0,048
-674,393	-200,000	-0,017	-0,089
-673,378	-12,829	-0,059	-0,028
-672,364	19,547	-0,155	-0,092
-671,349	-200,000	-0,033	-0,164
-670,335	-1,942	0,052	-0,027
-669,320	800,000	0,045	0,139
-668,305	27,060	0,074	-0,046
-667,291	800,000	0,026	0,068
-666,276	-200,000	-0,039	-0,139
-665,262	-9,269	0,119	-0,059
-664,247	56,911	0,056	-0,040
-663,232	-200,000	0,011	0,118
-662,218	-200,000	-0,003	-0,120
-661,203	800,000	-0,014	-0,043
-660,189	-97,405	0,092	0,018
-659,174	49,927	-0,061	0,042
-658,159	81,835	-0,093	-0,074
-657,145	436,097	-0,111	-0,179
-656,130	2,101	-0,099	-0,053
-655,116	-200,000	-0,022	0,115
-654,101	-133,390	-0,028	0,003
-653,086	466,041	-0,030	-0,050
-652,072	349,549	0,012	-0,018
-651,057	-200,000	0,012	0,099
-650,043	-55,796	-0,141	-0,046
-649,028	289,241	-0,009	-0,012
-648,014	-37,910	0,118	-0,046
-646,999	-200,000	0,011	-0,058
-645,984	566,249	-0,032	-0,058
-644,970	-200,000	-0,034	-0,156
-643,955	-70,263	-0,075	0,021
-642,941	449,396	-0,099	-0,162
-641,926	-63,797	0,137	0,041
-640,911	330,967	-0,029	0,042
-639,897	-200,000	-0,001	0,052
-638,882	792,619	-0,065	0,133
-637,868	-152,423	-0,143	0,007
-636,853	183,557	-0,032	-0,035
-635,838	-101,350	-0,163	0,029
-634,824	-90,577	-0,053	-0,011
-633,809	536,527	0,083	-0,146
-632,795	-92,890	0,058	-0,012
-631,780	379,483	-0,077	0,117
-630,765	266,544	-0,016	-0,020
-629,751	-1,860	0,018	0,009
-628,736	800,000	-0,064	0,135
-627,722	1,800	0,039	0,021
-626,707	441,236	-0,061	0,100
-625,692	405,178	-0,021	0,033
-624,678	-33,064	-0,085	0,035
-623,663	-200,000	0,014	-0,045
-622,649	-200,000	-0,034	-0,133
-621,634	-26,638	-0,183	0,079
-620,619	21,656	0,064	0,038
-619,605	118,932	-0,065	-0,059
-618,590	67,086	-0,101	0,076
-617,576	655,549	-0,088	0,167
-616,561	-200,000	0,022	0,076
-615,546	29,263	-0,146	0,091
-614,532	754,466	-0,056	-0,112
-613,517	-200,000	0,021	-0,175
-612,503	800,000	0,009	0,027
-611,488	-200,000	0,029	-0,127
-610,474	498,536	-0,021	0,036
-609,459	-180,761	-0,058	-0,001
-608,444	-70,173	-0,125	0,035
-607,430	800,000	0,045	-0,096
-606,415	-94,252	-0,021	0,004
-605,401	-51,031	0,073	0,025
-604,386	-87,014	-0,037	-0,008
-603,371	800,000	0,034	0,093
-602,357	-200,000	-0,015	0,097
-601,342	-200,000	-0,014	-0,134
-600,328	22,831	-0,077	-0,046
-599,313	69,152	-0,030	-0,023
-598,298	-200,000	-0,004	0,073
-597,284	113,096	-0,025	0,022
-596,269	-62,346	-0,116	-0,035
-595,255	-44,464	-0,021	0,008
-594,240	-200,000	0,040	-0,161
-593,225	354,650	-0,102	-0,149
-592,211	-126,536	0,085	0,009
-591,196	-47,730	0,109	-0,039
-590,182	64,690	-0,098	-0,073
-589,167	800,000	0,019	0,043
-588,152	148,749	-0,018	-0,018
-587,138	157,129	0,031	0,032
-586,123	479,029	0,044	0,074
-585,109	-133,749	0,123	-0,011
-584,094	-154,470	0,150	0,007
-583,079	32,958	0,050	0,032
-582,065	347,393	0,075	-0,110
-581,050	-200,000	0,020	-0,136
-580,036	415,642	0,024	-0,038
-579,021	-46,199	-0,097	0,035
-578,006	-33,754	-0,103	0,042
-576,992	-50,535	-0,090	0,031
-575,977	238,405	0,051	-0,063
-574,963	76,085	0,102	0,079
-573,948	800,000	0,051	0,111
-572,934	-200,000	0,018	0,105
-571,919	61,682	-0,067	0,049
-570,904	433,030	-0,039	-0,063
-569,890	291,705	-0,073	0,098
-568,875	98,797	-0,016	0,014
-567,861	800,000	-0,048	0,100
-566,846	67,880	0,038	0,029
-565,831	32,228	-0,187	-0,119
-564,817	-43,528	-0,107	-0,040
-563,802	-118,438	-0,107	0,014
-562,788	63,896	0,070	-0,052
-561,773	-12,205	-0,082	0,039
-560,758	348,644	-0,035	0,051
-559,744	-108,048	0,180	0,028
-558,729	384,313	-0,036	-0,055
-557,715	-174,386	0,154	-0,003
-556,700	-200,000	-0,016	0,092
-555,685	602,956	0,024	-0,043
-554,671	55,939	-0,028	0,020
-553,656	-64,173	-0,045	-0,014
-552,642	-64,661	-0,117	0,035
-551,627	5,321	0,059	-0,032
-550,612	-12,205	-0,039	0,019
-549,598	39,783	-0,056	-0,037
-548,583	227,827	0,049	-0,059
-547,569	38,370	0,095	-0,062
-546,554	540,733	0,102	0,179
-545,539	33,237	0,084	-0,054
-544,525	-104,824	-0,112	0,019
-543,510	-200,000	0,003	-0,027
-542,496	-5,535	0,043	-0,022
-541,481	346,042	-0,059	-0,086
-540,466	-55,801	0,033	0,011
-539,452	-200,000	-0,016	0,074
-538,437	-200,000	-0,027	0,146
-537,423	197,995	-0,089	-0,100
-536,408	-200,000	0,026	-0,104
-535,393	108,269	-0,032	-0,028
-534,379	-59,070	-0,063	0,020
-533,364	1,528	0,074	0,039
-532,350	-200,000	-0,018	-0,171
-531,335	87,579	-0,021	0,017
-530,321	-24,560	0,137	0,060
-529,306	3,660	-0,071	0,038
-528,291	-200,000	0,032	-0,156
-527,277	-200,000	-0,004	-0,036
-526,262	-200,000	-0,001	-0,014
-525,248	-200,000	0,001	0,114
-524,233	-114,222	0,044	-0,006
-523,218	65,425	-0,026	0,020
-522,204	-80,683	0,132	-0,032
-521,189	800,000	-0,037	-0,092
-520,175	9,990	0,091	-0,051
-519,160	137,459	-0,094	-0,090
-518,145	158,107	0,046	-0,047
-517,131	77,473	0,048	-0,038
-516,116	151,915	0,058	-0,058
-515,102	-96,589	-0,095	0,018
-514,087	113,726	0,039	-0,035
-513,072	-23,128	0,071	0,031
-512,058	-87,146	0,015	0,003
-511,043	349,562	0,037	0,053
-510,029	-200,000	0,010	0,090
-509,014	-200,000	0,015	0,061
-507,999	188,509	-0,081	0,089
-506,985	165,896	0,075	0,078
-505,970	93,102	-0,019	-0,016
-504,956	-50,821	-0,090	-0,031
-503,941	122,358	0,162	-0,149
-502,926	595,780	-0,014	0,026
-501,912	-200,000	-0,017	0,087
-500,897	-44,780	0,063	0,023
-499,883	373,075	-0,061	0,092
-498,868	-91,464	-0,142	-0,030
-497,853	-76,343	0,053	0,014
-496,839	-200,000	0,019	-0,097
-495,824	-200,000	0,010	-0,068
-494,810	-126,625	0,115	-0,012
-493,795	-111,913	-0,181	0,027
-492,781	295,944	0,066	0,089
-491,766	800,000	-0,041	-0,118
-490,751	-130,997	0,081	-0,008
-489,737	91,637	0,060	-0,050
-488,722	97,859	0,013	0,011
-487,708	140,552	0,040	0,039
-486,693	-24,784	-0,078	0,034
-485,678	609,872	-0,015	-0,028
-484,664	483,592	0,080	-0,134
-483,649	732,734	-0,010	0,019
-482,635	800,000	-0,040	-0,123
-481,620	-182,026	0,079	-0,001
-480,605	-200,000	-0,011	-0,041
-479,591	800,000	-0,028	0,060
-478,576	-148,265	0,081	-0,005
-477,562	-171,870	0,051	0,001
-476,547	-136,884	-0,086	-0,007
-475,532	-200,000	0,015	-0,063
-474,518	62,774	0,051	-0,037
-473,503	89,076	0,018	-0,015
-472,489	-200,000	0,024	0,140
-471,474	-200,000	-0,013	-0,151
-470,459	530,368	-0,056	0,097
-469,445	-165,225	-0,102	-0,003
-468,430	800,000	0,029	-0,073
-467,416	-111,812	-0,070	0,010
-466,401	-157,232	0,063	0,003
-465,386	89,879	-0,052	-0,042
-464,372	-200,000	-0,010	0,062
-463,357	661,035	-0,038	0,071
-462,343	-200,000	-0,016	-0,137
-461,328	91,279	0,121	-0,100
-460,313	388,238	-0,083	-0,127
-459,299	218,751	0,078	0,092
-458,284	-200,000	0,001	-0,008
-457,270	-43,996	-0,027	0,010
-456,255	95,963	-0,156	-0,130
-455,241	-200,000	0,012	-0,096
-454,226	91,837	-0,063	-0,052
-453,211	-108,072	0,155	-0,024
-452,197	-200,000	-0,001	-0,058
-451,182	146,139	0,043	0,042
-450,168	85,831	-0,075	-0,060
-449,153	-185,160	-0,038	-0,000
-448,138	-115,583	0,023	0,003
-447,124	800,000	-0,024	-0,059
-446,109	-134,078	-0,074	0,007
-445,095	-200,000	-0,016	0,097
-444,080	-200,000	-0,019	-0,077
-443,065	107,967	0,127	0,111
-442,051	-200,000	0,008	-0,057
-441,036	-1,227	-0,038	0,020
-440,022	-160,560	-0,083	-0,003
-439,007	208,880	-0,076	-0,087
-437,992	31,923	-0,082	0,052
-436,978	-59,149	-0,094	0,029
-435,963	166,506	-0,031	0,032
-434,949	-200,000	0,022	0,102
-433,934	-34,112	-0,048	0,019
-432,919	521,273	-0,081	-0,140
-431,905	-86,329	-0,097	-0,022
-430,890	353,470	0,031	0,045
-429,876	-200,000	-0,034	0,156
-428,861	800,000	-0,027	0,081
-427,846	-121,744	0,133	0,016
-426,832	-116,593	-0,007	0,001
-425,817	54,397	-0,053	0,038
-424,803	-176,453	0,122	-0,002
-423,788	800,000	0,027	-0,059
-422,773	800,000	0,016	-0,051
-421,759	-70,100	0,097	-0,027
-420,744	-22,350	0,145	-0,064
-419,730	372,564	-0,067	-0,100
-418,715	-200,000	0,035	-0,124
-417,701	-200,000	-0,002	-0,167
-416,686	47,048	0,093	0,063
-415,671	-4,663	-0,084	0,042
-414,657	-124,294	0,093	-0,010
-413,642	117,411	0,048	-0,043
-412,628	-60,022	0,065	-0,020
-411,613	201,072	-0,116	-0,131
-410,598	231,451	-0,023	0,028
-409,584	724,039	0,044	0,086
-408,569	-120,253	-0,044	0,005
-407,555	-111,764	0,173	0,025
-406,540	129,762	-0,052	-0,049
-405,525	-75,211	-0,024	0,006
-404,511	718,756	-0,041	-0,080
-403,496	181,080	0,127	-0,137
-402,482	-80,634	0,126	-0,030
-401,467	-200,000	0,001	-0,053
-400,452	-159,625	-0,065	0,003
-399,438	-97,391	0,052	-0,010
-398,423	-20,625	-0,067	-0,030
-397,409	-6,363	0,023	0,011
-396,394	164,303	-0,069	0,071
-395,379	-200,000	0,093	0,000
-394,365	154,662	0,071	0,071
-393,350	800,000	0,048	0,128
-392,336	-127,953	0,033	0,003
-391,321	-200,000	0,028	-0,148
-390,306	-113,423	0,141	-0,020
-389,292	102,080	0,037	0,031
-388,277	230,887	0,073	-0,087
-387,263	-200,000	-0,042	0,147
-386,248	251,685	-0,080	0,100
-385,233	-19,774	-0,055	-0,025
-384,219	-200,000	0,027	0,215
-383,204	800,000	-0,073	0,159
-382,190	-200,000	-0,024	0,109
-381,175	-200,000	0,031	-0,103
-380,160	-104,906	-0,010	-0,002
-379,146	403,110	0,028	-0,043
-378,131	-200,000	0,011	-0,060
-377,117	-200,000	0,002	0,070
-376,102	3,100	-0,003	0,001
-375,088	-131,064	-0,068	0,007
-374,073	386,313	0,020	0,031
-373,058	174,252	-0,074	-0,078
-372,044	118,500	0,185	0,167
-371,029	-28,948	0,095	-0,040
-370,015	-65,764	-0,107	-0,031
-369,000	562,974	0,019	0,033
-367,985	-50,916	-0,078	0,027
-366,971	66,216	0,076	-0,056
-365,956	-200,000	-0,005	0,042
-364,942	133,938	-0,056	-0,053
-363,927	-88,158	-0,113	-0,024
-362,912	125,744	0,107	0,099
-361,898	-162,285	-0,066	-0,002
-360,883	-200,000	-0,007	-0,159
-359,869	171,807	-0,056	0,059
-358,854	-200,000	0,003	0,063
-357,839	565,290	0,033	0,059
-356,825	-192,487	0,039	0,000
-355,810	70,161	0,073	-0,055
-354,796	551,653	-0,083	-0,146
-353,781	102,314	-0,078	0,066
-352,766	800,000	-0,045	0,115
-351,752	579,808	-0,053	0,095
-350,737	96,057	0,195	0,163
-349,723	-200,000	0,008	0,044
-348,708	-12,366	-0,035	-0,017
-347,693	-200,000	0,011	-0,050
-346,679	-17,539	-0,078	-0,036
-345,664	161,546	-0,120	-0,123
-344,650	-200,000	0,008	-0,034
-343,635	-200,000	-0,003	0,020
-342,620	-200,000	-0,002	0,016
-341,606	256,208	0,029	0,037
-340,591	-44,300	0,087	-0,032
-339,577	84,636	-0,041	-0,032
-338,562	800,000	0,048	0,109
-337,548	-190,652	0,084	-0,001
-336,533	-200,000	0,003	-0,023
-335,518	147,914	0,073	0,072
-334,504	-200,000	0,040	0,147
-333,489	68,398	0,022	-0,017
-332,475	742,210	0,068	-0,134
-331,460	-26,284	-0,074	0,032
-330,445	-196,792	-0,014	0,000
-329,431	62,073	0,100	0,072
-328,416	89,977	0,118	0,096
-327,402	-200,000	-0,011	0,129
-326,387	106,464	-0,073	0,063
-325,372	102,239	-0,111	-0,095
-324,358	800,000	0,041	-0,105
-323,343	254,924	0,079	-0,099
-322,329	-93,881	0,102	-0,020
-321,314	10,064	-0,062	-0,035
-320,299	-42,827	0,107	0,039
-319,285	671,395	-0,024	0,045
-318,270	-76,868	-0,120	-0,030
-317,256	-200,000	-0,017	-0,092
-316,241	557,342	0,030	0,052
-315,226	253,704	0,020	0,025
-314,212	800,000	0,037	0,082
-313,197	-200,000	-0,019	-0,091
-312,183	570,550	0,053	0,095
-311,168	424,450	0,046	0,072
-310,153	800,000	-0,020	-0,062
-309,139	84,922	0,158	-0,126
-308,124	800,000	0,039	-0,111
-307,110	-87,047	-0,002	-0,000
-306,095	117,167	0,070	-0,063
-305,080	32,110	0,066	-0,041
-304,066	-13,866	0,138	0,065
-303,051	800,000	0,028	-0,074
-302,037	-91,860	-0,132	-0,027
-301,022	800,000	0,058	-0,133
-300,008	800,000	-0,051	0,109
-298,993	162,835	0,048	0,049
-297,978	-200,000	0,004	-0,080
-296,964	-25,849	-0,147	-0,063
-295,949	-200,000	0,017	-0,078
-294,935	800,000	0,087	0,180
-293,920	-200,000	0,004	0,089
-292,905	-25,661	0,074	0,032
-291,891	-118,383	0,068	0,009
-290,876	91,346	-0,025	-0,020
-289,862	-200,000	0,017	-0,087
-288,847	-140,702	-0,100	0,007
-287,832	364,821	-0,014	0,020
-286,818	768,308	0,076	-0,152
-285,803	187,350	0,101	0,110
-284,789	800,000	0,052	0,123
-283,774	119,021	0,073	0,066
-282,759	108,798	-0,064	0,056
-281,745	-133,607	0,063	-0,006
-280,730	-116,593	-0,119	0,016
-279,716	163,038	-0,092	-0,094
-278,701	800,000	0,035	0,086
-277,686	764,963	0,040	0,080
-276,672	-200,000	-0,008	-0,030
-275,657	97,707	-0,056	-0,047
-274,643	-200,000	-0,004	-0,110
-273,628	-200,000	0,005	-0,102
-272,613	362,555	0,092	0,135
-271,599	161,727	0,024	0,025
-270,584	800,000	-0,075	-0,164
-269,570	554,926	0,073	0,128
-268,555	-200,000	0,014	0,049
-267,540	41,528	-0,086	0,057
-266,526	144,897	0,039	-0,038
-265,511	72,774	-0,038	-0,029
-264,497	-64,694	-0,032	0,009
-263,482	800,000	-0,052	0,137
-262,467	-118,637	-0,063	-0,008
-261,453	103,818	-0,064	-0,055
-260,438	800,000	-0,004	0,010
-259,424	-200,000	-0,004	0,045
-258,409	800,000	-0,020	-0,057
-257,395	72,105	-0,091	-0,069
-256,380	-200,000	0,020	0,083
-255,365	5,201	-0,059	0,031
-254,351	409,596	0,039	0,060
-253,336	-200,000	-0,033	0,132
-252,322	385,209	0,074	-0,111
-251,307	-200,000	-0,005	0,090
-250,292	680,704	-0,054	0,103
-249,278	39,861	0,080	0,052
-248,263	-200,000	-0,019	0,062
-247,249	626,229	0,042	-0,077
-246,234	-200,000	0,017	-0,087
-245,219	10,627	0,062	0,034
-244,205	-100,343	-0,097	-0,017
-243,190	18,136	0,022	-0,013
-242,176	215,845	-0,050	-0,057
-241,161	-200,000	-0,001	-0,075
-240,146	-200,000	0,003	0,026
-239,132	68,625	0,075	0,056
-238,117	297,951	0,052	0,069
-237,103	400,910	-0,016	-0,024
-236,088	800,000	0,054	0,120
-235,073	46,213	0,024	-0,016
-234,059	-61,308	-0,156	0,048
-233,044	-200,000	-0,076	0,000
-232,030	347,984	0,065	0,093
-231,015	312,951	-0,042	0,057
-230,000	-200,000	-0,029	-0,110
-228,986	-116,990	-0,057	-0,008
-227,971	800,000	0,019	-0,056
-226,957	-18,801	0,097	0,044
-225,942	292,881	-0,009	-0,012
-224,927	5,910	-0,049	-0,026
-223,913	-55,140	0,122	0,040
-222,898	-140,984	0,020	-0,001
-221,884	-200,000	0,011	0,039
-220,869	-115,120	0,040	0,005
-219,855	-108,095	0,060	0,009
-218,840	-126,323	0,103	-0,011
-217,825	-106,492	-0,184	0,029
-216,811	-200,000	0,006	0,050
-215,796	791,248	-0,038	-0,076
-214,782	-200,000	0,003	0,018
-213,767	-22,629	-0,064	0,028
-212,752	153,923	-0,054	0,054
-211,738	251,825	0,058	-0,072
-210,723	-200,000	-0,002	0,009
-209,709	14,014	-0,201	-0,113
-208,694	743,658	0,036	-0,070
-207,679	800,000	0,032	-0,074
-206,665	14,339	-0,119	-0,067
-205,650	689,563	0,052	0,099
-204,636	242,725	-0,083	0,101
-203,621	800,000	0,011	0,026
-202,606	800,000	-0,029	0,079
-201,592	-200,000	-0,011	-0,085
-200,577	246,856	-0,050	-0,061
-199,563	99,867	-0,007	-0,006
-198,548	-85,379	-0,067	-0,015
-197,533	585,923	-0,040	0,071
-196,519	41,266	0,025	-0,017
-195,504	-171,812	-0,120	-0,003
-194,490	494,917	-0,089	0,149
-193,475	146,983	-0,097	-0,095
-192,460	364,244	0,019	-0,028
-191,446	93,799	-0,033	0,027
-190,431	-64,174	0,110	0,032
-189,417	-33,445	0,103	-0,041
-188,402	223,081	0,031	0,036
-187,387	-5,412	-0,063	-0,031
-186,373	-150,712	0,091	-0,005
-185,358	667,299	-0,028	0,053
-184,344	800,000	-0,021	0,059
-183,329	800,000	0,034	0,079
-182,315	10,943	0,121	0,067
-181,300	187,455	-0,041	-0,045
-180,285	35,573	0,200	-0,127
-179,271	-200,000	0,001	-0,027
-178,256	-7,151	-0,016	-0,008
-177,242	129,323	0,114	-0,106
-176,227	-109,509	-0,077	0,012
-175,212	-148,269	-0,156	0,009
-174,198	439,509	0,055	0,088
-173,183	-133,646	0,029	-0,003
-172,169	-200,000	0,016	-0,054
-171,154	138,823	-0,036	0,034
-170,139	342,132	0,059	0,083
-169,125	-200,000	0,002	-0,037
-168,110	198,128	0,034	0,038
-167,096	-61,665	0,182	-0,055
-166,081	374,613	-0,117	-0,174
-165,066	404,973	0,047	0,073
-164,052	800,000	0,006	-0,019
-163,037	-84,053	0,068	0,015
-162,023	-84,967	0,096	0,022
-161,008	-200,000	0,025	0,136
-159,993	323,574	-0,048	0,066
-158,979	266,599	-0,054	0,068
-157,964	619,206	0,035	0,064
-156,950	66,443	-0,132	-0,097
-155,935	-7,110	-0,049	-0,024
-154,920	-200,000	-0,011	0,128
-153,906	32,677	0,170	0,106
-152,891	-96,507	0,072	-0,014
-151,877	297,439	0,025	0,033
-150,862	276,721	-0,043	0,055
-149,847	-7,004	-0,035	0,017
-148,833	-21,717	0,055	0,024
-147,818	-200,000	-0,006	0,153
-146,804	-71,285	-0,038	0,010
-145,789	-34,077	-0,019	0,007
-144,775	510,136	-0,010	-0,017
-143,760	-200,000	0,006	0,051
-142,745	637,445	0,042	-0,078
-141,731	-51,097	-0,042	0,014
-140,716	34,764	0,081	0,051
-139,702	-200,000	-0,002	-0,015
-138,687	73,946	-0,072	-0,055
-137,672	-24,712	-0,103	0,044
-136,658	-200,000	0,003	0,016
-135,643	-67,047	-0,105	-0,030
-134,629	334,157	0,086	-0,121
-133,614	-147,034	0,059	-0,004
-132,599	-69,068	-0,007	0,002
-131,585	-200,000	-0,027	0,094
-130,570	-107,577	0,016	0,002
-129,556	-40,388	-0,045	0,017
-128,541	-123,438	-0,074	-0,008
-127,526	248,998	0,085	0,104
-126,512	88,815	-0,089	0,072
-125,497	395,109	-0,015	-0,022
-124,483	70,598	-0,053	-0,039
-123,468	-32,856	-0,103	-0,041
-122,453	-59,241	0,074	0,023
-121,439	-104,649	-0,093	-0,015
-120,424	800,000	0,037	-0,092
-119,410	-127,815	-0,046	-0,005
