DTS Sentinel unit serial number:	SN410029Multiplexer serial number:	ORYXHardware model number:	OX2-SRSoftware version number:	ORYX F/W v4,00 Oryx Data Collector v3.7.2.0data status	okinstallation	B6 Nyhavnadifferential loss correction	single-endedforward channel	channel 2reverse channel	N/Adate	2023/12/11time	00:50:08forward acquisition time	300,00reverse acquisition time	0,00gamma	499,1914k internal	0,3122k external	0,3122temperature offset calibration	1,0000default loss term (dB/km)	0,3820temperature slope calibration	1,0000multiplexer offset coefficient	1,0000multiplexer slope coefficient	1,0000fibre end	0,00T internal ref (°C)	22,26T ext. ref 1 (°C)	5,66T ext. ref 2 (°C)	5,69length (m)	temperature (°C)	Stokes	anti-Stokes-744,400	-200,000	0,024	-0,203
-743,385	60,681	-0,206	0,152
-742,371	92,690	0,064	0,053
-741,356	92,155	-0,220	0,185
-740,342	590,088	0,067	-0,124
-739,327	-75,858	-0,374	0,098
-738,312	-97,375	-0,109	-0,021
-737,298	113,426	-0,150	0,136
-736,283	800,000	0,031	-0,074
-735,269	-101,679	-0,342	0,061
-734,254	-52,441	-0,150	0,051
-733,239	-117,990	-0,306	0,040
-732,225	-200,000	0,162	0,000
-731,210	-200,000	0,029	-0,106
-730,196	111,745	0,030	0,027
-729,181	-200,000	-0,005	-0,092
-728,167	69,271	0,049	0,038
-727,152	-120,134	-0,089	-0,011
-726,137	-49,545	-0,016	-0,006
-725,123	-79,543	-0,060	-0,015
-724,108	407,002	-0,108	-0,171
-723,094	-55,100	-0,030	-0,010
-722,079	46,807	-0,163	-0,112
-721,064	32,027	0,117	-0,075
-720,050	127,447	-0,095	-0,090
-719,035	800,000	-0,071	-0,180
-718,021	705,884	0,045	0,089
-717,006	-200,000	-0,032	-0,137
-715,991	190,751	-0,083	0,093
-714,977	800,000	-0,030	-0,083
-713,962	-82,977	-0,106	-0,025
-712,948	73,129	0,062	-0,048
-711,933	151,164	-0,089	-0,090
-710,918	19,550	-0,128	-0,076
-709,904	639,277	-0,057	0,108
-708,889	95,084	-0,051	-0,043
-707,875	2,548	-0,171	-0,092
-706,860	-82,243	0,160	-0,038
-705,845	156,006	-0,002	-0,002
-704,831	142,767	-0,093	-0,092
-703,816	-113,065	0,062	-0,009
-702,802	-31,015	-0,056	-0,024
-701,787	-200,000	-0,019	0,068
-700,772	-1,506	-0,085	0,044
-699,758	-200,000	-0,008	-0,080
-698,743	-128,675	0,186	-0,019
-697,729	-64,067	-0,058	0,017
-696,714	73,582	-0,025	-0,019
-695,699	-200,000	0,016	0,076
-694,685	246,536	-0,068	0,085
-693,670	-200,000	-0,010	-0,051
-692,656	23,904	-0,028	0,017
-691,641	-200,000	0,014	-0,081
-690,627	304,215	0,039	0,054
-689,612	260,252	-0,051	0,066
-688,597	183,570	0,048	-0,053
-687,583	800,000	-0,026	-0,064
-686,568	389,728	0,067	0,103
-685,554	-148,828	-0,037	0,002
-684,539	-200,000	-0,000	-0,023
-683,524	439,080	-0,040	-0,065
-682,510	-45,928	0,050	0,018
-681,495	-200,000	0,019	-0,072
-680,481	800,000	0,026	-0,084
-679,466	-200,000	0,029	-0,156
-678,451	358,110	0,023	-0,034
-677,437	-200,000	0,030	-0,166
-676,422	488,160	0,051	-0,087
-675,408	147,169	-0,087	0,087
-674,393	-200,000	0,004	-0,075
-673,378	20,777	-0,052	-0,031
-672,364	65,997	-0,073	-0,055
-671,349	-17,709	-0,088	-0,041
-670,335	-14,697	0,037	-0,017
-669,320	-32,725	-0,074	-0,031
-668,305	800,000	-0,039	0,110
-667,291	-97,318	-0,080	-0,015
-666,276	800,000	-0,057	-0,147
-665,262	-200,000	0,001	0,053
-664,247	188,956	-0,009	-0,010
-663,232	35,617	0,047	0,031
-662,218	-133,560	-0,068	0,006
-661,203	800,000	0,013	-0,029
-660,189	210,690	-0,033	-0,038
-659,174	408,759	-0,074	-0,117
-658,159	266,574	-0,019	0,025
-657,145	247,208	-0,074	-0,093
-656,130	-41,478	-0,119	-0,045
-655,116	428,679	0,059	0,095
-654,101	379,945	0,093	-0,141
-653,086	-200,000	-0,010	0,035
-652,072	422,639	-0,068	-0,109
-651,057	641,166	-0,125	-0,238
-650,043	-200,000	0,011	0,037
-649,028	268,589	-0,022	0,029
-648,014	-188,194	-0,078	0,001
-646,999	-58,017	0,068	0,022
-645,984	800,000	-0,040	-0,106
-644,970	-11,996	-0,175	-0,085
-643,955	64,498	-0,109	0,082
-642,941	-200,000	-0,007	-0,081
-641,926	-97,098	0,163	0,031
-640,911	-13,488	-0,047	-0,023
-639,897	800,000	0,015	-0,038
-638,882	-200,000	0,008	0,052
-637,868	83,120	-0,031	-0,025
-636,853	-95,399	-0,072	-0,014
-635,838	36,004	-0,055	-0,036
-634,824	800,000	-0,003	-0,007
-633,809	-200,000	0,010	0,184
-632,795	-43,973	-0,176	-0,065
-631,780	-105,454	-0,100	0,017
-630,765	35,647	-0,056	-0,036
-629,751	18,337	0,031	-0,018
-628,736	2,365	0,062	0,033
-627,722	-55,538	-0,117	0,039
-626,707	-200,000	-0,013	-0,049
-625,692	654,360	0,055	0,106
-624,678	289,402	-0,108	0,146
-623,663	-21,082	0,142	0,064
-622,649	-200,000	-0,003	-0,052
-621,634	-102,408	0,076	0,013
-620,619	-200,000	0,020	-0,152
-619,605	-200,000	0,004	0,092
-618,590	800,000	-0,041	0,116
-617,576	-137,225	-0,098	0,008
-616,561	116,092	-0,049	-0,045
-615,546	131,867	-0,076	-0,073
-614,532	-200,000	-0,007	-0,094
-613,517	-108,400	0,071	0,011
-612,503	382,064	-0,041	-0,062
-611,488	379,536	0,038	0,058
-610,474	-200,000	-0,004	-0,063
-609,459	150,285	-0,054	0,054
-608,444	311,947	-0,065	-0,091
-607,430	-108,930	-0,074	-0,012
-606,415	275,888	-0,086	-0,114
-605,401	136,075	-0,110	-0,106
-604,386	182,157	-0,017	0,019
-603,371	74,749	0,075	-0,059
-602,357	800,000	0,065	0,169
-601,342	-200,000	-0,045	0,156
-600,328	-200,000	-0,009	0,113
-599,313	179,414	0,067	-0,072
-598,298	5,945	0,043	-0,024
-597,284	14,731	0,048	0,028
-596,269	-200,000	-0,005	0,033
-595,255	-96,335	0,115	-0,022
-594,240	-200,000	0,004	0,064
-593,225	470,537	0,022	0,037
-592,211	-15,737	0,098	0,046
-591,196	378,975	-0,058	-0,088
-590,182	-200,000	-0,021	-0,086
-589,167	739,468	-0,059	-0,118
-588,152	78,909	0,064	0,051
-587,138	-200,000	-0,009	0,060
-586,123	-128,547	-0,077	-0,008
-585,109	452,248	-0,077	0,126
-584,094	800,000	0,053	0,131
-583,079	203,506	-0,101	0,116
-582,065	77,492	0,064	0,050
-581,050	-53,646	-0,178	-0,060
-580,036	-156,870	0,103	-0,005
-579,021	-200,000	-0,004	0,066
-578,006	284,688	-0,030	0,041
-576,992	767,294	-0,028	-0,057
-575,977	800,000	-0,023	0,050
-574,963	800,000	-0,020	0,062
-573,948	800,000	-0,048	0,122
-572,934	-72,426	-0,043	-0,012
-571,919	-22,458	-0,062	-0,028
-570,904	-6,935	-0,176	-0,088
-569,890	-112,704	0,210	-0,031
-568,875	675,542	0,099	0,192
-567,861	211,197	0,029	-0,034
-566,846	69,474	-0,129	0,098
-565,831	800,000	-0,060	-0,135
-564,817	741,773	-0,086	-0,171
-563,802	132,313	0,018	0,017
-562,788	517,869	0,050	-0,088
-561,773	-136,090	0,147	0,013
-560,758	129,268	0,068	0,064
-559,744	-142,103	-0,126	0,009
-558,729	800,000	-0,048	0,123
-557,715	-36,641	-0,114	0,045
-556,700	800,000	0,020	-0,044
-555,685	-146,842	-0,166	0,010
-554,671	93,331	0,081	-0,068
-553,656	242,923	-0,039	-0,048
-552,642	132,948	-0,082	0,078
-551,627	-200,000	-0,030	0,123
-550,612	-50,539	0,110	-0,038
-549,598	-57,853	-0,129	-0,041
-548,583	-200,000	-0,008	-0,052
-547,569	114,858	0,034	0,030
-546,554	58,301	0,047	-0,034
-545,539	-200,000	0,021	-0,078
-544,525	-3,513	-0,061	-0,031
-543,510	-93,234	-0,180	-0,037
-542,496	-126,348	-0,156	0,017
-541,481	442,677	-0,042	0,069
-540,466	-136,545	-0,061	0,005
-539,452	800,000	0,033	0,089
-538,437	-200,000	0,000	0,122
-537,423	800,000	0,020	0,047
-536,408	23,878	0,094	0,057
-535,393	3,433	0,172	-0,093
-534,379	729,806	0,054	0,107
-533,364	-200,000	0,008	0,075
-532,350	74,674	0,038	0,030
-531,335	232,365	-0,047	-0,057
-530,321	800,000	-0,030	0,074
-529,306	219,566	-0,022	0,026
-528,291	800,000	0,049	-0,111
-527,277	526,390	-0,071	-0,124
-526,262	-169,547	0,158	0,004
-525,248	384,406	-0,031	0,047
-524,233	148,507	0,048	0,048
-523,218	-200,000	-0,003	0,145
-522,204	294,243	-0,030	-0,040
-521,189	529,354	0,042	-0,074
-520,175	-200,000	-0,007	0,024
-519,160	-33,423	-0,006	0,003
-518,145	8,515	0,105	-0,058
-517,131	800,000	-0,046	0,137
-516,116	800,000	0,011	-0,025
-515,102	-14,991	0,078	-0,037
-514,087	-95,550	-0,027	0,005
-513,072	8,191	0,024	0,013
-512,058	621,214	-0,032	-0,060
-511,043	109,637	0,045	-0,040
-510,029	469,617	0,064	0,106
-509,014	-51,930	0,032	-0,011
-507,999	137,533	-0,110	0,107
-506,985	800,000	0,049	-0,117
-505,970	-57,009	0,165	-0,053
-504,956	173,186	-0,034	0,037
-503,941	-129,831	-0,110	0,011
-502,926	-115,618	-0,120	0,016
-501,912	-125,982	0,061	-0,007
-500,897	-200,000	0,004	0,098
-499,883	205,871	-0,076	-0,088
-498,868	-97,030	-0,143	-0,027
-497,853	-200,000	0,028	-0,096
-496,839	-200,000	0,003	0,051
-495,824	-200,000	0,009	0,146
-494,810	-5,608	0,079	0,040
-493,795	-164,798	0,087	-0,003
-492,781	96,399	0,076	-0,065
-491,766	187,068	0,087	-0,096
-490,751	61,335	-0,049	-0,036
-489,737	-200,000	-0,028	0,128
-488,722	282,651	0,054	0,071
-487,708	-200,000	0,005	-0,057
-486,693	800,000	-0,029	0,089
-485,678	-12,734	0,009	-0,004
-484,664	-125,319	0,040	-0,005
-483,649	32,738	0,114	0,073
-482,635	-51,467	0,151	0,052
-481,620	377,667	0,037	0,056
-480,605	245,522	-0,056	0,070
-479,591	-200,000	-0,006	0,066
-478,576	-69,323	0,175	0,049
-477,562	70,084	0,082	-0,062
-476,547	-45,363	-0,024	0,009
-475,532	84,980	0,047	0,038
-474,518	162,662	0,018	-0,018
-473,503	-100,891	0,123	-0,022
-472,489	-200,000	-0,046	-0,159
-471,474	-200,000	0,002	-0,020
-470,459	-200,000	-0,019	-0,144
-469,445	800,000	0,017	-0,035
-468,430	318,989	-0,023	-0,033
-467,416	800,000	0,017	-0,053
-466,401	-200,000	-0,011	-0,100
-465,386	44,162	0,140	0,094
-464,372	428,951	0,126	0,202
-463,357	336,406	0,033	0,047
-462,343	800,000	0,001	-0,002
-461,328	15,039	0,075	0,043
-460,313	80,433	0,046	0,036
-459,299	209,791	0,024	-0,028
-458,284	123,501	0,110	0,102
-457,270	82,126	0,050	0,040
-456,255	173,398	-0,111	-0,119
-455,241	800,000	0,038	-0,087
-454,226	-200,000	-0,031	-0,103
-453,211	77,506	-0,145	-0,114
-452,197	363,289	0,052	0,077
-451,182	-191,998	0,083	-0,001
-450,168	800,000	0,040	0,084
-449,153	214,439	-0,067	0,078
-448,138	135,833	0,049	-0,047
-447,124	-200,000	0,041	0,161
-446,109	-200,000	0,039	0,197
-445,095	90,334	0,081	0,066
-444,080	-200,000	0,020	0,136
-443,065	800,000	0,035	0,077
-442,051	-200,000	0,001	-0,020
-441,036	204,662	-0,045	0,052
-440,022	-37,343	-0,052	-0,020
-439,007	-200,000	0,001	0,024
-437,992	98,327	0,164	-0,139
-436,978	800,000	0,018	0,058
-435,963	-40,112	0,079	-0,030
-434,949	108,810	0,023	-0,020
-433,934	-8,348	0,019	0,010
-432,919	357,674	-0,036	-0,053
-431,905	-200,000	-0,008	-0,122
-430,890	795,853	0,038	0,077
-429,876	178,321	0,088	0,095
-428,861	162,877	0,054	0,056
-427,846	-129,537	-0,138	0,014
-426,832	-134,170	-0,130	0,012
-425,817	-200,000	0,029	0,153
-424,803	800,000	0,039	-0,091
-423,788	753,613	-0,043	0,085
-422,773	-200,000	-0,002	0,109
-421,759	254,306	-0,100	0,126
-420,744	8,632	0,056	-0,031
-419,730	800,000	-0,031	-0,075
-418,715	432,600	0,070	-0,113
-417,701	-22,374	-0,048	0,021
-416,686	748,551	0,033	-0,065
-415,671	87,285	0,059	0,048
-414,657	-14,160	-0,071	0,034
-413,642	56,994	-0,067	0,048
-412,628	-200,000	-0,037	-0,135
-411,613	-15,444	-0,044	0,021
-410,598	76,463	-0,055	0,043
-409,584	-7,921	0,097	-0,048
-408,569	800,000	-0,018	0,057
-407,555	-94,577	-0,084	0,017
-406,540	133,840	0,103	-0,098
-405,525	-200,000	0,001	-0,040
-404,511	800,000	0,041	-0,128
-403,496	9,527	-0,052	0,029
-402,482	90,241	0,098	0,081
-401,467	-83,594	-0,035	-0,008
-400,452	50,428	0,043	0,030
-399,438	-200,000	-0,013	0,138
-398,423	-12,378	0,048	0,023
-397,409	-27,088	0,058	0,025
-396,394	-200,000	-0,041	-0,167
-395,379	-100,449	-0,094	-0,017
-394,365	74,181	0,102	0,079
-393,350	800,000	0,045	0,121
-392,336	-200,000	0,001	-0,154
-391,321	-179,951	-0,087	0,001
-390,306	26,326	0,065	-0,040
-389,292	-200,000	-0,002	-0,009
-388,277	31,184	0,038	0,024
-387,263	-131,156	-0,029	0,003
-386,248	800,000	-0,033	0,099
-385,233	-55,919	0,118	-0,039
-384,219	-60,944	-0,126	0,039
-383,204	25,705	0,071	0,044
-382,190	800,000	-0,039	-0,104
-381,175	-180,391	-0,034	-0,001
-380,160	-200,000	0,007	-0,031
-379,146	-200,000	-0,019	-0,062
-378,131	800,000	-0,030	0,090
-377,117	-149,088	-0,144	0,008
-376,102	769,581	0,043	-0,086
-375,088	301,029	-0,044	-0,060
-374,073	-200,000	-0,003	-0,173
-373,058	0,953	-0,071	-0,037
-372,044	-24,875	0,067	0,029
-371,029	-122,634	0,016	0,002
-370,015	640,415	-0,040	0,076
-369,000	800,000	-0,035	-0,081
-367,985	-200,000	0,022	-0,082
-366,971	103,624	-0,026	-0,022
-365,956	-200,000	0,014	0,083
-364,942	800,000	0,073	0,150
-363,927	800,000	-0,046	0,136
-362,912	190,424	-0,136	-0,151
-361,898	-68,534	-0,097	0,027
-360,883	5,316	0,111	-0,060
-359,869	-135,088	0,106	0,009
-358,854	-200,000	0,053	0,179
-357,839	337,424	-0,051	-0,073
-356,825	-200,000	0,012	-0,068
-355,810	-100,582	-0,097	0,017
-354,796	-200,000	-0,015	-0,146
-353,781	-58,471	-0,077	0,024
-352,766	337,008	0,072	0,103
-351,752	-200,000	0,010	0,073
-350,737	-200,000	0,006	0,121
-349,723	800,000	0,042	-0,091
-348,708	33,277	-0,129	-0,082
-347,693	526,932	-0,112	-0,194
-346,679	800,000	-0,023	-0,072
-345,664	-43,335	-0,108	0,040
-344,650	-136,729	0,161	0,013
-343,635	-125,830	-0,149	0,016
-342,620	134,567	0,019	0,018
-341,606	-200,000	0,007	-0,036
-340,591	-46,796	0,044	-0,016
-339,577	-2,122	0,116	-0,060
-338,562	647,547	-0,051	-0,096
-337,548	-200,000	-0,009	0,087
-336,533	-24,870	0,143	0,062
-335,518	122,510	-0,124	0,113
-334,504	-80,639	-0,072	-0,017
-333,489	165,285	0,036	0,038
-332,475	0,539	-0,090	-0,047
-331,460	-26,796	-0,108	-0,046
-330,445	194,228	-0,071	0,079
-329,431	-200,000	-0,001	-0,081
-328,416	231,639	-0,052	0,063
-327,402	-13,261	0,067	-0,032
-326,387	-18,751	-0,083	-0,038
-325,372	800,000	0,014	-0,032
-324,358	175,626	-0,038	0,041
-323,343	138,166	-0,055	0,053
-322,329	-113,026	0,070	-0,010
-321,314	316,791	0,020	0,028
-320,299	275,355	0,063	0,082
-319,285	-76,412	-0,034	0,009
-318,270	-200,000	0,013	-0,067
-317,256	-89,982	-0,038	0,008
-316,241	-49,974	-0,022	0,008
-315,226	644,227	0,009	0,017
-314,212	46,096	0,082	-0,056
-313,197	404,452	0,077	0,120
-312,183	-200,000	0,007	0,051
-311,168	-200,000	-0,006	0,046
-310,153	53,534	-0,153	-0,108
-309,139	-163,876	0,011	-0,000
-308,124	-75,968	0,048	-0,012
-307,110	-37,454	0,157	0,061
-306,095	-129,506	0,057	0,006
-305,080	-108,264	0,127	0,020
-304,066	183,651	-0,020	-0,021
-303,051	457,392	-0,079	-0,130
-302,037	800,000	0,027	0,071
-301,022	-200,000	0,014	0,089
-300,008	-200,000	0,034	0,146
-298,993	800,000	0,015	0,039
-297,978	-80,204	-0,095	0,023
-296,964	-200,000	-0,020	0,110
-295,949	-118,462	0,018	0,002
-294,935	-200,000	-0,014	-0,184
-293,920	88,807	0,084	-0,068
-292,905	167,112	0,141	-0,146
-291,891	-200,000	0,007	-0,049
-290,876	-133,484	0,021	-0,002
-289,862	359,491	0,056	-0,082
-288,847	687,981	-0,028	-0,054
-287,832	-71,504	0,090	0,024
-286,818	2,605	-0,024	-0,012
-285,803	216,848	0,082	0,096
-284,789	263,544	-0,033	-0,042
-283,774	447,395	-0,011	-0,018
-282,759	-200,000	-0,010	-0,068
-281,745	-200,000	-0,012	-0,103
-280,730	-145,548	-0,029	-0,002
-279,716	2,025	-0,057	-0,030
-278,701	110,153	-0,019	0,017
-277,686	-200,000	-0,011	0,056
-276,672	641,056	-0,105	0,197
-275,657	82,301	0,046	-0,037
-274,643	-51,278	0,121	-0,041
-273,628	-130,498	-0,111	-0,011
-272,613	204,820	-0,031	0,035
-271,599	51,474	0,060	0,042
-270,584	-200,000	-0,003	0,089
-269,570	-200,000	0,004	0,032
-268,555	-77,269	0,085	0,022
-267,540	69,009	0,016	0,012
-266,526	-129,325	-0,109	0,011
-265,511	-200,000	-0,015	-0,155
-264,497	-200,000	0,029	-0,133
-263,482	-160,219	0,121	-0,005
-262,467	325,110	0,067	-0,094
-261,453	-29,063	0,101	0,042
-260,438	548,788	-0,042	-0,073
-259,424	-45,339	0,102	-0,037
-258,409	219,111	0,044	-0,052
-257,395	96,543	-0,049	0,041
-256,380	37,225	-0,103	-0,067
-255,365	-70,778	0,047	0,013
-254,351	-177,561	0,091	0,002
-253,336	401,741	-0,087	0,134
-252,322	800,000	0,023	-0,059
-251,307	-36,524	-0,114	-0,045
-250,292	-8,524	0,044	-0,021
-249,278	59,094	0,035	-0,025
-248,263	-108,031	0,041	-0,007
-247,249	-63,547	-0,059	0,018
-246,234	-200,000	0,017	-0,057
-245,219	244,603	-0,098	-0,120
-244,205	-200,000	-0,004	-0,035
-243,190	800,000	0,065	-0,139
-242,176	800,000	0,014	-0,039
-241,161	-37,273	-0,064	-0,025
-240,146	800,000	0,018	0,043
-239,132	800,000	0,034	-0,088
-238,117	474,174	-0,024	-0,040
-237,103	429,733	-0,044	0,070
-236,088	800,000	-0,065	0,139
-235,073	-152,639	0,130	-0,007
-234,059	800,000	-0,050	0,137
-233,044	260,014	0,083	-0,105
-232,030	378,075	-0,046	0,069
-231,015	-177,590	0,070	0,001
-230,000	-200,000	0,017	-0,073
-228,986	-22,427	-0,011	-0,005
-227,971	465,491	-0,060	-0,098
-226,957	12,299	0,140	0,078
-225,942	26,940	-0,089	-0,054
-224,927	36,810	-0,058	0,037
-223,913	797,128	0,053	0,107
-222,898	90,029	-0,056	-0,046
-221,884	800,000	-0,018	-0,042
-220,869	800,000	-0,030	-0,089
-219,855	-200,000	-0,002	-0,085
-218,840	800,000	-0,051	-0,114
-217,825	248,319	-0,028	0,035
-216,811	-200,000	-0,014	0,107
-215,796	-16,990	-0,027	0,013
-214,782	425,831	-0,087	-0,138
-213,767	-200,000	0,015	-0,077
-212,752	-106,152	0,149	0,024
-211,738	-183,704	0,184	0,002
-210,723	-200,000	-0,022	0,086
-209,709	168,514	-0,051	-0,053
-208,694	517,695	0,051	-0,088
-207,679	108,383	-0,049	0,043
-206,665	20,294	0,062	-0,037
-205,650	684,616	-0,031	-0,059
-204,636	-200,000	-0,000	-0,086
-203,621	251,049	-0,079	0,098
-202,606	-200,000	-0,020	-0,083
-201,592	-200,000	-0,015	-0,088
-200,577	800,000	-0,084	-0,175
-199,563	568,633	-0,020	-0,035
-198,548	-200,000	0,005	0,115
-197,533	-200,000	0,034	0,147
-196,519	800,000	-0,018	-0,040
-195,504	800,000	-0,034	-0,071
-194,490	800,000	0,025	0,064
-193,475	-99,041	-0,087	0,016
-192,460	66,945	0,041	-0,031
-191,446	196,163	-0,038	0,043
-190,431	-200,000	0,055	0,197
-189,417	-81,642	-0,026	-0,006
-188,402	69,737	0,037	0,028
-187,387	211,720	0,088	0,101
-186,373	-200,000	-0,015	-0,174
-185,358	-200,000	-0,026	-0,105
-184,344	-83,687	0,140	-0,032
-183,329	-200,000	-0,018	0,140
-182,315	-41,573	0,212	0,079
-181,300	185,803	0,059	0,064
-180,285	-77,608	-0,167	-0,042
-179,271	-200,000	-0,036	-0,165
-178,256	61,469	-0,048	-0,035
-177,242	-74,257	0,028	-0,007
-176,227	-103,917	0,146	-0,025
-175,212	-200,000	-0,003	-0,045
-174,198	-24,233	0,079	0,034
-173,183	-93,124	-0,086	-0,017
-172,169	1,490	-0,092	-0,048
-171,154	43,837	0,051	-0,034
-170,139	-200,000	0,007	0,070
-169,125	-25,719	-0,054	-0,023
-168,110	-43,175	0,027	0,010
-167,096	-200,000	0,002	-0,136
-166,081	165,886	-0,095	-0,098
-165,066	-200,000	0,034	-0,160
-164,052	322,888	-0,040	0,056
-163,037	-7,950	-0,039	-0,019
-162,023	-200,000	0,008	0,094
-161,008	132,453	0,100	-0,094
-159,993	208,252	-0,054	0,062
-158,979	136,432	-0,065	0,062
-157,964	29,420	-0,027	0,017
-156,950	213,122	-0,029	-0,034
-155,935	92,249	0,107	-0,088
-154,920	-200,000	-0,004	0,023
-153,906	337,889	-0,034	-0,049
-152,891	-94,049	-0,086	-0,017
-151,877	310,029	-0,036	-0,049
-150,862	-91,143	-0,053	-0,011
-149,847	82,826	0,097	-0,077
-148,833	37,374	-0,138	-0,089
-147,818	-200,000	0,044	0,170
-146,804	18,298	0,057	-0,033
-145,789	-84,665	0,078	-0,018
-144,775	279,751	-0,040	0,052
-143,760	800,000	-0,025	0,052
-142,745	266,555	0,053	-0,068
-141,731	288,330	0,051	0,067
-140,716	-132,213	0,211	0,020
-139,702	-200,000	0,009	-0,071
-138,687	800,000	-0,061	0,137
-137,672	-200,000	-0,005	0,149
-136,658	-31,154	-0,051	0,021
-135,643	800,000	0,039	0,082
-134,629	800,000	-0,039	0,102
-133,614	90,217	0,101	0,082
-132,599	-155,288	-0,019	-0,001
-131,585	512,259	-0,019	-0,033
-130,570	32,539	0,081	-0,051
-129,556	-200,000	0,014	0,136
-128,541	-200,000	0,022	0,152
-127,526	-137,378	-0,180	0,015
-126,512	-3,689	0,035	-0,018
-125,497	800,000	0,092	0,260
-124,483	124,252	0,128	-0,117
-123,468	-200,000	-0,018	0,062
-122,453	-58,729	-0,095	-0,030
-121,439	137,325	-0,026	-0,025
-120,424	-125,126	0,055	0,006
-119,410	-146,683	-0,053	-0,003
