DTS Sentinel unit serial number:	SN410029Multiplexer serial number:	ORYXHardware model number:	OX2-SRSoftware version number:	ORYX F/W v4,00 Oryx Data Collector v3.7.2.0data status	okinstallation	B6 Nyhavnadifferential loss correction	single-endedforward channel	channel 2reverse channel	N/Adate	2023/12/07time	16:15:08forward acquisition time	300,00reverse acquisition time	0,00gamma	499,1914k internal	0,3164k external	0,3164temperature offset calibration	1,0000default loss term (dB/km)	0,3820temperature slope calibration	1,0000multiplexer offset coefficient	1,0000multiplexer slope coefficient	1,0000fibre end	0,00T internal ref (°C)	14,51T ext. ref 1 (°C)	-2,12T ext. ref 2 (°C)	-2,13length (m)	temperature (°C)	Stokes	anti-Stokes-744,400	-200,000	0,021	0,085
-743,385	-108,054	-0,217	-0,034
-742,371	130,378	0,134	0,126
-741,356	-65,810	-0,283	0,083
-740,342	81,705	0,122	-0,097
-739,327	-158,410	-0,509	-0,021
-738,312	382,795	0,059	0,090
-737,298	-109,793	-0,216	0,033
-736,283	66,851	0,114	0,085
-735,269	-111,201	-0,368	0,055
-734,254	-135,926	0,182	-0,016
-733,239	20,875	-0,543	-0,323
-732,225	-137,225	0,147	-0,012
-731,210	-200,000	-0,017	0,132
-730,196	119,951	-0,047	-0,043
-729,181	109,153	0,100	0,088
-728,167	-53,380	-0,054	0,018
-727,152	-58,409	0,089	0,028
-726,137	-200,000	0,002	-0,065
-725,123	193,453	-0,074	0,082
-724,108	-200,000	0,033	-0,124
-723,094	29,306	-0,017	-0,011
-722,079	245,680	-0,031	0,039
-721,064	-25,788	0,026	-0,011
-720,050	-147,475	0,073	-0,004
-719,035	124,220	0,071	-0,066
-718,021	-2,804	-0,005	-0,002
-717,006	103,979	-0,052	-0,045
-715,991	122,100	-0,070	-0,064
-714,977	659,587	0,032	-0,060
-713,962	-136,416	-0,137	0,012
-712,948	-200,000	0,006	-0,031
-711,933	109,227	-0,039	0,034
-710,918	-200,000	0,004	0,101
-709,904	-95,829	-0,072	0,014
-708,889	247,731	0,015	-0,019
-707,875	-163,160	0,075	-0,003
-706,860	-200,000	0,002	-0,075
-705,845	-33,498	-0,119	-0,048
-704,831	301,902	-0,072	0,098
-703,816	256,296	-0,064	-0,080
-702,802	74,077	-0,069	-0,053
-701,787	-11,553	-0,077	-0,037
-700,772	464,309	-0,023	-0,037
-699,758	58,319	0,082	-0,059
-698,743	-200,000	-0,018	-0,071
-697,729	-200,000	-0,007	0,110
-696,714	337,913	0,067	0,097
-695,699	311,771	0,108	-0,150
-694,685	471,656	-0,035	-0,058
-693,670	127,068	0,065	0,060
-692,656	-200,000	-0,043	-0,154
-691,641	-38,198	0,106	0,041
-690,627	-143,848	-0,021	0,001
-689,612	-154,547	-0,175	0,008
-688,597	-200,000	-0,005	-0,032
-687,583	64,007	-0,125	-0,092
-686,568	800,000	-0,053	-0,149
-685,554	-200,000	0,028	-0,158
-684,539	-81,737	0,129	0,031
-683,524	-94,701	-0,134	0,026
-682,510	-58,567	-0,016	-0,005
-681,495	800,000	-0,049	-0,116
-680,481	43,970	-0,099	-0,067
-679,466	800,000	0,014	-0,042
-678,451	61,851	0,048	-0,035
-677,437	-200,000	-0,000	0,049
-676,422	-160,112	0,164	0,006
-675,408	-95,711	0,083	0,016
-674,393	-200,000	-0,001	-0,023
-673,378	185,674	0,060	0,066
-672,364	-182,095	0,053	0,001
-671,349	213,435	-0,011	-0,013
-670,335	494,357	-0,062	0,104
-669,320	198,900	0,064	0,072
-668,305	198,698	-0,025	0,028
-667,291	64,135	-0,098	-0,072
-666,276	230,446	-0,099	0,120
-665,262	-143,457	-0,241	-0,017
-664,247	-200,000	-0,016	0,119
-663,232	800,000	0,039	0,093
-662,218	381,676	0,057	-0,087
-661,203	139,330	0,124	-0,120
-660,189	-200,000	0,015	0,069
-659,174	-78,228	-0,136	-0,034
-658,159	297,761	-0,027	-0,037
-657,145	3,870	-0,078	0,042
-656,130	-200,000	0,016	-0,097
-655,116	414,062	0,047	0,074
-654,101	634,140	0,048	-0,089
-653,086	-3,568	-0,074	-0,037
-652,072	275,153	-0,070	0,091
-651,057	322,603	-0,028	-0,040
-650,043	-180,228	0,097	-0,001
-649,028	73,563	-0,144	-0,111
-648,014	-22,613	0,134	0,059
-646,999	-0,687	0,161	0,083
-645,984	476,607	0,004	0,007
-644,970	-29,303	-0,061	-0,026
-643,955	-200,000	-0,004	0,067
-642,941	251,424	-0,067	-0,084
-641,926	-200,000	-0,012	-0,160
-640,911	-30,544	0,076	-0,031
-639,897	80,229	-0,112	0,088
-638,882	-200,000	-0,017	0,081
-637,868	-91,690	0,078	-0,016
-636,853	-200,000	-0,027	-0,148
-635,838	-59,011	-0,139	0,044
-634,824	-115,660	-0,041	-0,006
-633,809	800,000	0,033	-0,090
-632,795	-43,587	-0,102	0,038
-631,780	12,102	0,046	0,026
-630,765	800,000	-0,051	-0,141
-629,751	32,462	-0,071	0,045
-628,736	248,624	-0,080	0,099
-627,722	121,405	-0,137	-0,125
-626,707	181,114	-0,026	-0,028
-625,692	-200,000	-0,000	0,038
-624,678	567,445	-0,028	-0,051
-623,663	-200,000	-0,030	-0,150
-622,649	307,897	0,010	0,014
-621,634	-197,162	-0,082	-0,000
-620,619	-200,000	-0,005	-0,096
-619,605	-200,000	0,013	-0,098
-618,590	800,000	-0,013	0,029
-617,576	-200,000	0,009	-0,146
-616,561	113,820	-0,110	-0,098
-615,546	-12,236	0,034	-0,016
-614,532	-9,542	0,139	-0,067
-613,517	439,169	-0,023	0,037
-612,503	294,529	-0,110	0,148
-611,488	-200,000	0,003	0,056
-610,474	-200,000	-0,001	-0,012
-609,459	352,219	-0,106	-0,154
-608,444	-54,670	0,094	-0,031
-607,430	-19,676	0,030	-0,014
-606,415	23,339	0,100	-0,060
-605,401	87,661	-0,065	0,053
-604,386	-200,000	-0,033	0,119
-603,371	800,000	-0,023	-0,068
-602,357	-200,000	0,004	-0,105
-601,342	329,591	-0,022	0,031
-600,328	-200,000	-0,035	-0,156
-599,313	-109,650	0,159	0,024
-598,298	133,960	-0,095	-0,090
-597,284	-20,324	-0,079	-0,036
-596,269	-200,000	0,022	0,184
-595,255	149,954	0,044	-0,043
-594,240	321,839	-0,126	0,176
-593,225	11,401	-0,081	-0,045
-592,211	-40,246	-0,078	0,030
-591,196	-75,122	-0,075	0,019
-590,182	217,343	0,056	0,065
-589,167	800,000	0,079	0,172
-588,152	-0,392	0,007	-0,004
-587,138	221,383	-0,021	-0,024
-586,123	43,917	-0,120	-0,080
-585,109	-200,000	0,008	0,047
-584,094	-10,066	-0,064	-0,031
-583,079	-146,066	0,081	0,005
-582,065	402,537	0,040	0,062
-581,050	596,143	-0,027	-0,048
-580,036	-200,000	-0,010	-0,093
-579,021	-5,229	0,029	-0,015
-578,006	-61,013	-0,030	-0,009
-576,992	29,185	-0,151	-0,094
-575,977	679,135	0,082	0,157
-574,963	-200,000	-0,004	0,023
-573,948	-60,622	-0,104	0,032
-572,934	-91,976	0,103	-0,021
-571,919	-61,504	-0,182	0,055
-570,904	-116,988	-0,058	0,008
-569,890	97,088	-0,086	-0,072
-568,875	-200,000	-0,004	-0,082
-567,861	322,849	-0,044	-0,061
-566,846	166,322	-0,015	0,015
-565,831	-135,097	-0,127	-0,011
-564,817	-102,837	0,079	0,014
-563,802	800,000	0,037	-0,103
-562,788	800,000	-0,027	-0,064
-561,773	-200,000	0,019	-0,066
-560,758	-200,000	-0,014	0,063
-559,744	-60,042	0,059	0,018
-558,729	193,444	0,065	-0,072
-557,715	800,000	0,012	-0,030
-556,700	800,000	0,017	-0,052
-555,685	558,977	0,025	-0,045
-554,671	-161,981	-0,118	0,004
-553,656	164,546	0,033	-0,034
-552,642	800,000	-0,073	0,149
-551,627	-132,282	0,042	0,004
-550,612	-16,255	-0,031	-0,014
-549,598	-200,000	-0,041	-0,137
-548,583	-200,000	-0,027	-0,127
-547,569	382,662	0,052	-0,079
-546,554	370,020	-0,038	0,057
-545,539	-200,000	0,020	-0,069
-544,525	179,579	0,085	0,091
-543,510	-10,270	-0,168	-0,081
-542,496	800,000	0,053	-0,137
-541,481	800,000	0,010	-0,031
-540,466	-200,000	0,013	0,094
-539,452	-200,000	0,016	0,120
-538,437	-200,000	0,014	0,138
-537,423	-51,465	-0,115	-0,039
-536,408	367,231	-0,039	-0,057
-535,393	800,000	-0,025	-0,072
-534,379	583,397	-0,050	-0,090
-533,364	47,036	0,052	0,035
-532,350	-106,601	0,102	0,016
-531,335	-200,000	0,055	0,000
-530,321	800,000	0,023	-0,067
-529,306	37,629	-0,159	0,103
-528,291	-0,660	0,036	-0,019
-527,277	-66,897	0,081	0,023
-526,262	664,001	0,017	0,032
-525,248	800,000	0,049	-0,132
-524,233	-200,000	0,038	0,163
-523,218	-6,515	0,070	0,035
-522,204	66,913	-0,095	-0,071
-521,189	-200,000	-0,010	-0,133
-520,175	25,873	-0,090	-0,054
-519,160	-200,000	0,003	0,109
-518,145	162,563	-0,022	0,023
-517,131	800,000	0,024	-0,075
-516,116	33,462	-0,149	0,094
-515,102	134,757	-0,039	-0,037
-514,087	-25,836	-0,056	0,024
-513,072	443,281	0,091	0,146
-512,058	360,574	0,031	-0,045
-511,043	-200,000	0,027	0,182
-510,029	72,038	-0,018	0,014
-509,014	180,230	0,147	0,158
-507,999	800,000	-0,022	-0,065
-506,985	116,159	0,040	-0,036
-505,970	-200,000	0,013	-0,117
-504,956	-200,000	-0,000	-0,129
-503,941	-189,248	0,160	-0,001
-502,926	-110,810	0,041	0,006
-501,912	185,947	0,042	0,046
-500,897	-200,000	0,000	-0,019
-499,883	-200,000	-0,002	0,006
-498,868	-57,039	0,177	0,056
-497,853	-105,051	-0,144	0,024
-496,839	325,032	0,086	-0,120
-495,824	740,700	0,049	0,097
-494,810	-31,527	0,087	0,036
-493,795	-200,000	0,042	-0,136
-492,781	152,992	-0,038	-0,038
-491,766	-21,805	0,063	0,028
-490,751	35,089	-0,078	0,050
-489,737	93,968	-0,006	0,005
-488,722	538,564	0,124	0,215
-487,708	-200,000	0,031	0,101
-486,693	800,000	0,014	-0,034
-485,678	232,297	0,023	-0,027
-484,664	418,224	0,042	-0,066
-483,649	-130,097	0,190	0,019
-482,635	-200,000	-0,010	0,086
-481,620	483,373	0,038	-0,064
-480,605	78,682	-0,056	0,043
-479,591	-200,000	-0,015	-0,095
-478,576	-200,000	0,006	0,037
-477,562	-83,963	0,118	-0,027
-476,547	-200,000	0,031	-0,127
-475,532	800,000	0,024	-0,063
-474,518	28,205	0,093	0,057
-473,503	-200,000	-0,007	0,053
-472,489	514,749	0,041	-0,069
-471,474	-54,430	0,120	0,039
-470,459	50,345	-0,032	-0,022
-469,445	149,631	0,049	-0,049
-468,430	-200,000	0,007	0,151
-467,416	-45,507	0,096	0,034
-466,401	-87,983	0,091	-0,020
-465,386	-21,225	0,082	0,036
-464,372	106,789	-0,071	0,061
-463,357	-137,255	-0,079	-0,006
-462,343	-116,153	-0,056	-0,007
-461,328	800,000	-0,034	-0,103
-460,313	324,548	-0,051	0,071
-459,299	49,706	-0,106	0,072
-458,284	-200,000	-0,031	0,110
-457,270	71,139	0,071	-0,054
-456,255	72,548	-0,070	0,053
-455,241	-18,047	-0,095	-0,043
-454,226	800,000	0,063	-0,145
-453,211	236,347	0,068	0,082
-452,197	68,699	0,063	0,047
-451,182	-15,310	-0,153	0,071
-450,168	-58,544	0,105	0,033
-449,153	107,188	-0,073	0,063
-448,138	-132,766	-0,153	0,014
-447,124	-200,000	0,017	-0,103
-446,109	-18,438	0,122	-0,055
-445,095	-147,587	0,062	0,004
-444,080	-109,619	0,065	-0,010
-443,065	96,581	0,039	-0,033
-442,051	248,648	-0,028	-0,035
-441,036	340,965	-0,073	0,104
-440,022	800,000	-0,082	-0,185
-439,007	-200,000	0,001	-0,064
-437,992	550,996	0,073	0,127
-436,978	-73,804	0,042	-0,011
-435,963	-138,099	0,099	0,008
-434,949	-104,410	-0,069	0,012
-433,934	-200,000	-0,002	-0,187
-432,919	800,000	-0,025	-0,056
-431,905	306,268	0,033	-0,045
-430,890	-200,000	-0,014	-0,059
-429,876	-200,000	-0,001	-0,075
-428,861	-200,000	0,007	0,028
-427,846	-200,000	0,008	-0,068
-426,832	228,719	0,033	-0,039
-425,817	257,126	-0,044	-0,055
-424,803	-34,340	-0,138	-0,055
-423,788	364,744	0,018	0,026
-422,773	800,000	-0,061	0,153
-421,759	-184,657	0,037	0,000
-420,744	-45,337	0,038	-0,014
-419,730	303,222	-0,106	-0,143
-418,715	-200,000	-0,016	-0,056
-417,701	321,677	0,085	0,117
-416,686	219,807	0,088	0,103
-415,671	48,449	-0,049	-0,033
-414,657	-43,757	0,014	0,005
-413,642	-200,000	0,018	0,061
-412,628	258,340	-0,021	-0,026
-411,613	800,000	-0,023	-0,049
-410,598	76,638	-0,098	0,076
-409,584	-200,000	0,018	0,100
-408,569	282,046	0,048	0,062
-407,555	355,315	0,063	-0,091
-406,540	791,778	-0,039	-0,077
-405,525	0,676	-0,076	-0,039
-404,511	-70,467	-0,062	0,017
-403,496	724,522	0,046	0,089
-402,482	32,821	0,135	-0,085
-401,467	159,992	-0,095	-0,096
-400,452	-44,543	0,134	0,048
-399,438	61,978	-0,055	0,040
-398,423	800,000	-0,035	0,080
-397,409	-200,000	-0,016	-0,078
-396,394	-9,472	0,054	-0,026
-395,379	73,959	0,048	0,036
-394,365	-83,239	-0,060	-0,014
-393,350	383,371	0,050	0,075
-392,336	95,455	-0,089	0,074
-391,321	-200,000	0,009	-0,060
-390,306	-4,473	-0,139	0,070
-389,292	-68,307	0,052	-0,014
-388,277	-62,018	0,237	0,071
-387,263	131,590	-0,068	-0,064
-386,248	-200,000	0,008	0,116
-385,233	-87,600	0,119	0,026
-384,219	137,930	-0,038	-0,036
-383,204	-78,061	-0,034	-0,009
-382,190	800,000	0,037	-0,098
-381,175	-200,000	-0,023	0,176
-380,160	-92,838	-0,134	0,027
-379,146	440,731	0,070	0,112
-378,131	344,774	-0,019	0,027
-377,117	-200,000	-0,001	0,043
-376,102	19,684	-0,066	-0,039
-375,088	-56,403	0,047	-0,015
-374,073	-29,840	-0,099	-0,041
-373,058	329,932	0,052	0,073
-372,044	-122,886	-0,026	-0,003
-371,029	343,277	-0,018	0,025
-370,015	-10,810	-0,152	0,073
-369,000	-13,679	-0,006	-0,003
-367,985	118,487	-0,093	-0,083
-366,971	800,000	-0,042	-0,131
-365,956	-36,059	-0,068	-0,027
-364,942	800,000	0,061	0,151
-363,927	411,163	0,055	0,084
-362,912	777,419	0,039	-0,077
-361,898	245,582	-0,075	-0,092
-360,883	-200,000	-0,006	-0,091
-359,869	-5,496	0,044	-0,022
-358,854	133,654	-0,027	0,025
-357,839	-30,577	0,020	0,008
-356,825	195,606	-0,074	0,082
-355,810	249,197	0,106	0,131
-354,796	800,000	-0,013	-0,037
-353,781	-158,769	-0,070	-0,003
-352,766	-118,374	-0,180	-0,023
-351,752	179,858	-0,055	-0,058
-350,737	0,403	0,153	0,079
-349,723	449,376	-0,056	0,089
-348,708	589,824	0,028	-0,049
-347,693	-14,233	0,058	0,027
-346,679	800,000	0,027	0,064
-345,664	141,493	-0,107	0,103
-344,650	73,919	0,068	-0,052
-343,635	6,810	0,110	-0,059
-342,620	800,000	-0,061	0,127
-341,606	-68,952	0,112	-0,031
-340,591	-67,747	-0,142	0,040
-339,577	312,186	-0,023	0,032
-338,562	-153,408	-0,127	-0,006
-337,548	7,291	0,103	0,055
-336,533	-130,057	0,061	0,006
-335,518	174,230	-0,043	0,045
-334,504	145,009	0,031	0,030
-333,489	800,000	-0,076	-0,214
-332,475	144,349	0,061	-0,059
-331,460	-200,000	0,001	-0,050
-330,445	-54,503	-0,100	0,033
-329,431	800,000	0,044	-0,108
-328,416	-200,000	-0,001	-0,010
-327,402	-200,000	0,011	0,074
-326,387	78,205	0,103	0,080
-325,372	-50,635	-0,205	-0,069
-324,358	-130,545	-0,027	-0,003
-323,343	-33,100	-0,015	0,006
-322,329	-48,237	0,128	-0,045
-321,314	55,115	0,077	0,054
-320,299	431,693	-0,074	0,117
-319,285	800,000	-0,041	0,083
-318,270	564,540	0,047	-0,083
-317,256	226,810	0,048	-0,056
-316,241	14,790	0,083	-0,047
-315,226	-115,253	0,079	-0,011
-314,212	254,609	0,054	-0,066
-313,197	221,582	0,032	0,037
-312,183	-200,000	0,009	0,106
-311,168	-200,000	0,036	0,158
-310,153	800,000	-0,054	-0,108
-309,139	62,303	-0,103	-0,074
-308,124	800,000	0,047	0,096
-307,110	-132,747	0,108	0,010
-306,095	-200,000	0,010	0,113
-305,080	709,156	0,057	0,109
-304,066	622,447	-0,031	0,056
-303,051	14,743	0,046	-0,026
-302,037	-200,000	-0,005	-0,038
-301,022	-200,000	0,021	-0,091
-300,008	800,000	-0,012	-0,026
-298,993	-200,000	-0,031	0,101
-297,978	330,886	-0,073	0,102
-296,964	-58,332	0,117	0,037
-295,949	220,619	0,037	0,044
-294,935	11,070	0,055	-0,031
-293,920	-200,000	-0,041	-0,165
-292,905	237,245	0,158	0,190
-291,891	61,376	0,097	-0,070
-290,876	-146,283	-0,181	0,011
-289,862	228,403	-0,090	-0,106
-288,847	171,187	0,026	0,027
-287,832	57,683	-0,047	-0,033
-286,818	-198,689	-0,095	-0,000
-285,803	-199,794	0,157	-0,001
-284,789	-86,730	0,113	-0,025
-283,774	4,235	-0,038	0,020
-282,759	-106,406	0,108	0,017
-281,745	-162,616	-0,114	0,004
-280,730	-200,000	-0,002	-0,033
-279,716	800,000	0,036	0,103
-278,701	97,970	0,091	-0,076
-277,686	92,880	0,039	-0,032
-276,672	-200,000	-0,027	0,102
-275,657	800,000	-0,041	-0,084
-274,643	-173,931	0,070	-0,001
-273,628	800,000	0,075	-0,167
-272,613	-200,000	-0,005	0,067
-271,599	-200,000	-0,023	-0,078
-270,584	253,425	0,044	-0,055
-269,570	-200,000	0,021	0,113
-268,555	-200,000	0,002	0,058
-267,540	350,127	0,025	0,036
-266,526	139,587	-0,082	-0,078
-265,511	-100,571	0,117	0,021
-264,497	-53,353	0,090	0,030
-263,482	-200,000	0,015	0,223
-262,467	488,164	-0,071	0,118
-261,453	56,450	-0,031	-0,022
-260,438	607,527	-0,047	0,084
-259,424	-200,000	-0,002	-0,171
-258,409	800,000	0,025	0,077
-257,395	800,000	-0,046	0,135
-256,380	-66,014	0,089	-0,025
-255,365	-200,000	0,004	0,143
-254,351	70,452	-0,054	-0,040
-253,336	186,738	-0,073	-0,079
-252,322	-200,000	-0,032	-0,123
-251,307	-200,000	-0,002	0,096
-250,292	-98,988	-0,087	0,016
-249,278	-48,625	0,086	-0,029
-248,263	-95,401	-0,038	0,007
-247,249	60,930	0,097	0,070
-246,234	-21,763	0,045	-0,020
-245,219	-200,000	-0,012	0,043
-244,205	230,203	-0,102	-0,121
-243,190	-51,549	-0,191	-0,064
-242,176	-67,586	0,038	0,011
-241,161	76,727	0,073	0,056
-240,146	509,381	0,025	-0,042
-239,132	-200,000	-0,009	0,100
-238,117	-15,274	0,069	-0,032
-237,103	800,000	-0,017	-0,047
-236,088	514,773	0,045	-0,076
-235,073	96,782	0,128	-0,106
-234,059	-101,530	-0,176	0,031
-233,044	-46,533	-0,114	0,040
-232,030	-169,463	0,173	-0,004
-231,015	82,104	-0,134	-0,105
-230,000	800,000	0,034	-0,078
-228,986	-111,057	0,040	0,006
-227,971	800,000	0,043	0,096
-226,957	33,436	0,026	0,016
-225,942	-91,920	0,119	0,024
-224,927	-175,602	0,040	-0,001
-223,913	-171,186	0,061	0,001
-222,898	4,275	-0,139	-0,073
-221,884	600,786	-0,032	-0,058
-220,869	-99,010	0,229	0,041
-219,855	141,456	-0,027	-0,025
-218,840	315,351	-0,043	0,058
-217,825	-200,000	0,022	0,076
-216,811	-83,091	0,069	-0,016
-215,796	800,000	0,035	-0,100
-214,782	49,785	0,081	0,055
-213,767	19,515	0,061	0,035
-212,752	800,000	-0,015	0,033
-211,738	-200,000	0,000	0,001
-210,723	-107,393	-0,061	0,009
-209,709	800,000	-0,075	-0,163
-208,694	800,000	-0,068	-0,140
-207,679	441,515	0,048	0,076
-206,665	379,953	-0,048	0,072
-205,650	-147,575	0,191	0,011
-204,636	-103,843	0,085	0,014
-203,621	800,000	-0,010	-0,031
-202,606	-22,632	-0,044	-0,019
-201,592	-155,369	-0,084	0,004
-200,577	-200,000	0,001	-0,044
-199,563	87,086	0,041	-0,032
-198,548	448,187	0,045	-0,072
-197,533	767,728	-0,085	0,167
-196,519	310,730	-0,051	0,069
-195,504	-21,500	0,157	-0,069
-194,490	-200,000	-0,003	-0,036
-193,475	624,950	0,071	-0,130
-192,460	476,487	0,041	-0,067
-191,446	-100,359	-0,092	-0,016
-190,431	-18,095	0,145	-0,065
-189,417	-64,649	-0,063	-0,018
-188,402	489,022	0,048	0,080
-187,387	130,591	-0,011	0,010
-186,373	601,708	0,099	-0,178
-185,358	370,122	-0,122	-0,178
-184,344	411,054	0,094	0,144
-183,329	364,540	-0,013	0,019
-182,315	-16,628	-0,074	0,034
-181,300	41,606	0,075	0,049
-180,285	-188,497	-0,097	0,001
-179,271	-200,000	0,042	0,197
-178,256	800,000	0,048	0,104
-177,242	-200,000	-0,011	0,082
-176,227	422,719	0,051	0,080
-175,212	-57,498	0,112	0,035
-174,198	-15,087	0,065	0,030
-173,183	-200,000	0,001	0,050
-172,169	-72,096	0,038	-0,010
-171,154	7,571	-0,027	0,015
-170,139	-57,552	0,078	-0,024
-169,125	122,930	0,027	0,024
-168,110	59,527	-0,031	-0,022
-167,096	800,000	0,047	0,110
-166,081	-36,064	-0,185	0,071
-165,066	445,123	-0,047	-0,075
-164,052	69,444	-0,100	0,074
-163,037	168,845	-0,134	0,138
-162,023	-128,232	0,079	0,008
-161,008	-106,593	-0,058	-0,009
-159,993	-86,638	-0,121	0,026
-158,979	-73,357	-0,161	0,042
-157,964	-93,127	-0,171	0,034
-156,950	180,899	-0,034	0,036
-155,935	800,000	-0,051	-0,114
-154,920	-200,000	0,043	-0,189
-153,906	800,000	-0,054	0,119
-152,891	220,450	0,026	-0,030
-151,877	415,519	0,020	-0,030
-150,862	543,657	-0,066	-0,113
-149,847	30,123	-0,045	0,027
-148,833	-133,685	-0,214	-0,019
-147,818	6,772	0,190	0,102
-146,804	-47,048	-0,090	0,031
-145,789	-200,000	0,011	-0,049
-144,775	17,482	0,142	-0,081
-143,760	90,534	0,067	-0,054
-142,745	-200,000	-0,011	-0,114
-141,731	286,605	-0,032	-0,042
-140,716	-100,312	0,108	0,019
-139,702	-200,000	0,005	0,122
-138,687	274,435	-0,067	-0,085
-137,672	-200,000	0,005	-0,186
-136,658	800,000	0,062	-0,134
-135,643	-200,000	-0,013	-0,086
-134,629	92,436	-0,036	0,029
-133,614	-72,986	0,089	0,023
-132,599	99,328	0,085	0,070
-131,585	-23,029	0,084	0,036
-130,570	-200,000	-0,024	-0,086
-129,556	-200,000	-0,002	-0,080
-128,541	-200,000	-0,020	-0,077
-127,526	50,651	0,033	0,022
-126,512	-162,159	-0,087	0,003
-125,497	-61,358	0,095	-0,029
-124,483	-152,271	-0,071	-0,004
-123,468	-122,459	-0,139	0,016
-122,453	-35,814	-0,095	0,037
-121,439	125,278	-0,060	-0,054
-120,424	54,168	-0,083	0,057
-119,410	533,901	0,025	-0,042
