DTS Sentinel unit serial number:	SN410029Multiplexer serial number:	ORYXHardware model number:	OX2-SRSoftware version number:	ORYX F/W v4,00 Oryx Data Collector v3.7.2.0data status	okinstallation	B6 Nyhavnadifferential loss correction	single-endedforward channel	channel 2reverse channel	N/Adate	2023/12/09time	19:15:08forward acquisition time	300,00reverse acquisition time	0,00gamma	499,1914k internal	0,3130k external	0,3130temperature offset calibration	1,0000default loss term (dB/km)	0,3820temperature slope calibration	1,0000multiplexer offset coefficient	1,0000multiplexer slope coefficient	1,0000fibre end	0,00T internal ref (°C)	21,07T ext. ref 1 (°C)	4,88T ext. ref 2 (°C)	4,86length (m)	temperature (°C)	Stokes	anti-Stokes-744,400	800,000	0,028	-0,069
-743,385	-92,326	-0,156	0,032
-742,371	80,796	0,082	0,066
-741,356	-107,552	-0,216	0,035
-740,342	-44,773	0,093	-0,034
-739,327	-151,411	-0,186	0,010
-738,312	51,550	0,146	-0,103
-737,298	-42,606	-0,247	0,093
-736,283	-200,000	0,009	0,052
-735,269	-12,826	-0,345	0,166
-734,254	78,675	0,010	-0,008
-733,239	-124,845	-0,342	-0,039
-732,225	24,238	0,018	0,011
-731,210	-35,915	0,110	0,044
-730,196	-200,000	-0,014	-0,081
-729,181	-101,181	0,104	-0,019
-728,167	-100,203	-0,098	0,018
-727,152	-7,167	-0,070	0,035
-726,137	80,832	-0,074	0,059
-725,123	257,314	-0,069	0,089
-724,108	69,817	-0,098	-0,075
-723,094	-200,000	-0,006	-0,055
-722,079	800,000	0,008	-0,022
-721,064	13,489	-0,085	-0,049
-720,050	505,133	-0,068	-0,118
-719,035	-82,276	-0,017	0,004
-718,021	800,000	-0,016	0,035
-717,006	150,678	-0,069	-0,070
-715,991	512,443	-0,023	-0,040
-714,977	115,951	-0,031	-0,029
-713,962	22,783	0,169	-0,102
-712,948	61,293	0,059	0,044
-711,933	151,186	-0,094	-0,095
-710,918	-64,432	0,115	0,035
-709,904	187,329	-0,116	0,129
-708,889	-200,000	-0,013	-0,071
-707,875	800,000	0,045	-0,114
-706,860	110,275	0,026	-0,023
-705,845	-200,000	-0,012	-0,126
-704,831	139,803	0,048	-0,047
-703,816	218,292	-0,060	-0,071
-702,802	-68,530	0,177	0,051
-701,787	-48,583	0,107	0,038
-700,772	401,431	-0,056	0,088
-699,758	48,987	0,024	-0,016
-698,743	-200,000	0,011	0,160
-697,729	32,312	0,087	0,056
-696,714	0,883	-0,033	-0,018
-695,699	377,863	-0,023	0,035
-694,685	800,000	0,036	-0,111
-693,670	166,508	-0,071	-0,075
-692,656	-47,583	0,057	0,021
-691,641	146,930	0,088	0,088
-690,627	-104,066	-0,138	-0,024
-689,612	-200,000	-0,007	0,113
-688,597	800,000	-0,057	0,177
-687,583	386,415	0,070	-0,107
-686,568	107,593	-0,032	-0,028
-685,554	252,978	-0,026	0,032
-684,539	-95,905	-0,145	-0,028
-683,524	-200,000	0,035	-0,141
-682,510	-200,000	-0,008	0,085
-681,495	-200,000	-0,019	0,077
-680,481	800,000	0,030	-0,069
-679,466	277,132	0,040	-0,053
-678,451	160,355	-0,065	0,067
-677,437	224,438	0,035	-0,042
-676,422	-166,658	-0,040	-0,001
-675,408	800,000	-0,072	0,164
-674,393	-200,000	-0,013	0,136
-673,378	-145,046	-0,066	0,004
-672,364	-39,773	-0,048	0,019
-671,349	462,653	0,041	0,068
-670,335	-29,270	-0,064	0,027
-669,320	627,837	-0,083	-0,156
-668,305	-86,377	0,158	0,036
-667,291	723,773	0,016	-0,031
-666,276	510,310	-0,043	0,074
-665,262	800,000	-0,020	-0,063
-664,247	341,816	0,035	-0,051
-663,232	-200,000	-0,013	0,170
-662,218	256,712	0,065	0,084
-661,203	411,346	0,044	0,070
-660,189	-200,000	0,025	0,106
-659,174	-163,892	-0,168	0,006
-658,159	800,000	0,020	-0,062
-657,145	33,055	-0,036	0,023
-656,130	-1,724	-0,075	0,039
-655,116	-200,000	0,023	-0,092
-654,101	800,000	-0,025	-0,052
-653,086	-93,735	0,090	-0,018
-652,072	7,225	-0,037	0,020
-651,057	-88,575	-0,069	0,015
-650,043	642,525	0,042	0,080
-649,028	-22,620	0,046	-0,021
-648,014	-39,032	0,107	0,041
-646,999	800,000	0,008	0,017
-645,984	-200,000	0,000	-0,090
-644,970	257,631	0,020	0,025
-643,955	260,787	-0,057	-0,073
-642,941	-200,000	-0,021	-0,101
-641,926	-54,203	-0,057	0,019
-640,911	-111,818	-0,042	-0,006
-639,897	-87,219	-0,015	-0,003
-638,882	800,000	-0,006	-0,019
-637,868	-200,000	0,011	-0,067
-636,853	367,360	0,072	0,108
-635,838	9,543	0,016	-0,009
-634,824	-169,839	-0,109	-0,003
-633,809	-170,861	0,092	-0,002
-632,795	-121,847	0,086	-0,010
-631,780	-100,222	-0,068	-0,012
-630,765	85,520	0,041	0,033
-629,751	-30,330	-0,093	0,039
-628,736	270,396	0,056	-0,073
-627,722	-200,000	0,026	-0,129
-626,707	-23,224	-0,118	-0,053
-625,692	137,616	0,091	0,088
-624,678	-144,707	-0,179	-0,012
-623,663	-70,608	0,131	0,036
-622,649	-200,000	0,020	-0,137
-621,634	67,461	-0,134	-0,101
-620,619	52,430	-0,063	0,044
-619,605	800,000	-0,016	0,043
-618,590	674,922	-0,039	-0,075
-617,576	478,786	0,121	0,204
-616,561	263,240	0,079	-0,102
-615,546	-200,000	-0,014	-0,152
-614,532	202,357	-0,060	-0,069
-613,517	-200,000	-0,033	-0,261
-612,503	252,067	0,027	0,034
-611,488	1,684	-0,112	0,060
-610,474	-200,000	-0,005	0,064
-609,459	-200,000	0,037	0,130
-608,444	-154,086	-0,121	-0,006
-607,430	81,123	0,019	0,015
-606,415	-57,185	-0,080	-0,026
-605,401	36,779	0,029	-0,019
-604,386	-83,523	0,137	0,032
-603,371	17,100	0,069	0,040
-602,357	800,000	-0,059	0,187
-601,342	800,000	0,028	-0,067
-600,328	-200,000	0,002	0,089
-599,313	800,000	-0,022	-0,071
-598,298	-51,590	-0,158	0,054
-597,284	-200,000	-0,016	0,162
-596,269	305,931	0,050	0,069
-595,255	624,083	0,054	0,101
-594,240	-200,000	-0,006	-0,113
-593,225	-6,012	-0,024	-0,012
-592,211	800,000	0,047	-0,140
-591,196	267,228	0,110	-0,143
-590,182	73,793	0,048	0,037
-589,167	357,492	0,056	0,083
-588,152	151,022	0,122	0,123
-587,138	-159,499	0,066	0,003
-586,123	229,345	-0,087	-0,106
-585,109	202,067	0,055	-0,062
-584,094	339,757	0,059	-0,085
-583,079	-200,000	0,019	-0,064
-582,065	-150,218	-0,085	-0,005
-581,050	-119,971	0,090	-0,011
-580,036	647,976	0,039	-0,075
-579,021	-152,003	-0,053	-0,003
-578,006	392,519	-0,034	-0,052
-576,992	117,875	-0,121	-0,110
-575,977	-7,344	-0,031	-0,015
-574,963	374,727	0,101	0,153
-573,948	-154,691	-0,190	0,009
-572,934	-200,000	-0,024	0,109
-571,919	800,000	-0,029	-0,090
-570,904	-14,795	-0,010	-0,005
-569,890	-200,000	-0,007	-0,036
-568,875	144,049	-0,059	0,058
-567,861	-61,714	-0,079	-0,024
-566,846	670,264	0,043	0,082
-565,831	12,185	-0,119	0,067
-564,817	-200,000	0,001	-0,092
-563,802	321,416	-0,051	-0,072
-562,788	-69,935	-0,068	0,019
-561,773	-122,831	0,012	-0,001
-560,758	-144,420	-0,046	0,003
-559,744	151,100	0,020	0,020
-558,729	800,000	-0,011	0,035
-557,715	-200,000	0,013	-0,044
-556,700	399,778	0,069	-0,107
-555,685	-132,816	-0,094	-0,009
-554,671	-130,954	0,079	-0,008
-553,656	-67,537	0,078	0,022
-552,642	-200,000	-0,008	0,104
-551,627	-39,194	-0,090	0,035
-550,612	57,450	-0,094	0,068
-549,598	-190,736	-0,089	-0,001
-548,583	249,240	-0,070	-0,087
-547,569	97,531	0,066	0,056
-546,554	227,770	0,055	0,066
-545,539	505,925	-0,035	-0,060
-544,525	800,000	0,036	0,111
-543,510	-200,000	-0,002	0,061
-542,496	-200,000	-0,012	-0,055
-541,481	-200,000	0,023	0,111
-540,466	800,000	-0,054	0,122
-539,452	800,000	-0,032	0,098
-538,437	127,423	0,050	-0,047
-537,423	148,312	0,079	-0,078
-536,408	4,166	0,034	-0,018
-535,393	800,000	-0,071	-0,164
-534,379	-21,166	0,044	-0,020
-533,364	-200,000	-0,011	-0,051
-532,350	69,201	0,138	0,105
-531,335	800,000	-0,022	0,053
-530,321	-200,000	-0,014	-0,126
-529,306	88,827	-0,114	0,093
-528,291	-200,000	0,008	-0,041
-527,277	-200,000	-0,025	-0,106
-526,262	800,000	-0,029	-0,074
-525,248	585,408	0,025	-0,045
-524,233	206,072	0,085	0,098
-523,218	-117,557	-0,154	0,020
-522,204	152,395	-0,023	-0,023
-521,189	185,865	-0,042	0,046
-520,175	-24,230	-0,007	0,003
-519,160	168,691	0,047	-0,049
-518,145	23,322	0,071	-0,043
-517,131	-200,000	0,015	-0,067
-516,116	-200,000	0,026	0,087
-515,102	215,618	-0,036	-0,043
-514,087	160,733	-0,069	0,071
-513,072	-56,906	-0,167	-0,054
-512,058	141,362	-0,060	-0,059
-511,043	734,251	0,086	0,171
-510,029	-107,424	0,115	0,018
-509,014	-200,000	-0,010	0,104
-507,999	797,345	-0,050	-0,102
-506,985	-200,000	-0,022	-0,087
-505,970	81,230	-0,078	-0,062
-504,956	-27,455	0,110	-0,047
-503,941	113,896	-0,066	-0,059
-502,926	-83,828	0,129	-0,030
-501,912	800,000	0,019	0,051
-500,897	23,889	-0,039	-0,024
-499,883	-200,000	0,020	-0,111
-498,868	662,387	0,028	-0,054
-497,853	288,755	-0,129	-0,172
-496,839	800,000	-0,010	0,025
-495,824	-21,678	0,154	0,069
-494,810	470,248	-0,051	0,085
-493,795	395,566	-0,018	-0,027
-492,781	-82,402	0,103	0,024
-491,766	-105,401	-0,055	0,009
-490,751	279,033	-0,033	-0,043
-489,737	800,000	0,025	0,081
-488,722	800,000	-0,023	0,070
-487,708	678,157	0,045	0,087
-486,693	-66,509	-0,035	0,010
-485,678	81,885	0,080	0,063
-484,664	274,358	0,038	-0,049
-483,649	-77,534	-0,112	0,028
-482,635	121,234	0,017	0,016
-481,620	-77,472	0,192	-0,049
-480,605	20,820	-0,064	0,038
-479,591	800,000	0,050	0,149
-478,576	-42,694	-0,074	-0,028
-477,562	-200,000	-0,016	-0,079
-476,547	180,284	0,065	0,071
-475,532	-200,000	0,016	-0,102
-474,518	800,000	-0,037	0,085
-473,503	800,000	-0,050	-0,123
-472,489	566,545	0,077	0,137
-471,474	-200,000	0,025	0,094
-470,459	-200,000	0,017	-0,149
-469,445	137,222	-0,117	-0,112
-468,430	-200,000	0,015	-0,089
-467,416	47,307	0,071	-0,049
-466,401	-131,100	-0,026	0,003
-465,386	-200,000	-0,012	0,059
-464,372	800,000	0,009	0,023
-463,357	-94,853	-0,096	-0,019
-462,343	-200,000	0,003	0,032
-461,328	198,261	0,075	-0,084
-460,313	800,000	-0,046	-0,101
-459,299	243,316	0,129	0,159
-458,284	-191,782	0,149	0,001
-457,270	93,312	-0,054	-0,045
-456,255	-200,000	0,004	0,020
-455,241	66,964	-0,179	-0,134
-454,226	106,475	-0,061	-0,053
-453,211	345,272	0,017	-0,024
-452,197	3,273	0,109	-0,058
-451,182	-200,000	-0,029	0,138
-450,168	381,861	0,033	0,050
-449,153	138,874	-0,064	0,062
-448,138	5,562	0,050	0,027
-447,124	-200,000	0,004	0,077
-446,109	95,518	0,073	0,062
-445,095	309,666	0,057	0,078
-444,080	43,870	0,107	-0,072
-443,065	800,000	-0,024	-0,052
-442,051	-200,000	0,019	0,108
-441,036	322,926	-0,048	0,068
-440,022	233,113	-0,091	0,111
-439,007	-79,377	0,127	-0,031
-437,992	-36,006	0,141	-0,056
-436,978	625,349	0,045	-0,084
-435,963	0,843	0,093	0,049
-434,949	143,875	-0,073	-0,072
-433,934	800,000	-0,038	-0,078
-432,919	-200,000	-0,015	-0,135
-431,905	258,496	-0,051	-0,064
-430,890	-162,260	0,142	-0,005
-429,876	-120,265	-0,128	0,016
-428,861	800,000	0,019	0,047
-427,846	203,278	0,065	0,074
-426,832	105,377	-0,065	-0,056
-425,817	207,587	-0,009	-0,010
-424,803	21,664	0,112	0,067
-423,788	-138,485	0,064	-0,005
-422,773	-40,820	0,053	-0,020
-421,759	-21,950	0,068	-0,030
-420,744	104,937	-0,060	0,052
-419,730	47,061	0,075	-0,051
-418,715	668,134	0,083	-0,158
-417,701	-200,000	-0,011	0,067
-416,686	800,000	-0,034	0,074
-415,671	-200,000	-0,013	-0,096
-414,657	-200,000	0,011	0,150
-413,642	95,801	0,033	0,028
-412,628	-144,710	-0,079	0,005
-411,613	800,000	0,019	-0,056
-410,598	392,622	-0,048	0,074
-409,584	102,185	0,048	0,041
-408,569	-11,213	-0,028	-0,013
-407,555	-200,000	-0,009	0,055
-406,540	678,291	0,024	0,045
-405,525	490,728	0,054	-0,091
-404,511	800,000	0,023	-0,065
-403,496	-73,551	0,136	0,036
-402,482	-107,922	0,158	-0,025
-401,467	-107,485	-0,016	-0,003
-400,452	316,631	-0,042	0,059
-399,438	-200,000	0,014	0,071
-398,423	-108,802	0,049	-0,008
-397,409	800,000	0,034	0,084
-396,394	340,176	-0,045	-0,064
-395,379	47,565	-0,047	-0,032
-394,365	-200,000	0,006	0,052
-393,350	-200,000	-0,009	-0,072
-392,336	87,704	0,065	0,053
-391,321	371,262	-0,046	-0,069
-390,306	113,569	-0,048	-0,043
-389,292	800,000	-0,021	0,044
-388,277	0,460	-0,122	-0,064
-387,263	-33,955	0,037	0,015
-386,248	1,206	0,111	0,058
-385,233	-200,000	-0,006	-0,065
-384,219	138,650	-0,049	0,048
-383,204	174,491	0,059	-0,062
-382,190	-74,723	-0,051	0,013
-381,175	470,899	-0,052	-0,086
-380,160	-176,380	0,152	-0,003
-379,146	-200,000	0,009	0,064
-378,131	-200,000	-0,019	0,154
-377,117	501,274	0,062	0,106
-376,102	-200,000	-0,006	0,019
-375,088	280,141	0,025	-0,033
-374,073	-200,000	0,003	0,016
-373,058	279,200	0,044	-0,058
-372,044	800,000	-0,036	-0,104
-371,029	-41,162	0,117	0,044
-370,015	-17,566	0,071	-0,033
-369,000	-200,000	0,024	0,081
-367,985	126,484	-0,109	-0,101
-366,971	-27,911	0,050	-0,021
-365,956	388,395	-0,097	-0,147
-364,942	109,537	0,098	0,086
-363,927	-98,015	0,152	-0,028
-362,912	-69,787	-0,094	-0,026
-361,898	-200,000	0,002	0,021
-360,883	-200,000	-0,048	-0,171
-359,869	-200,000	0,020	0,100
-358,854	-200,000	-0,034	0,121
-357,839	-200,000	-0,012	0,064
-356,825	-200,000	0,022	0,095
-355,810	129,507	0,056	-0,053
-354,796	-12,227	0,005	-0,003
-353,781	237,565	-0,109	0,133
-352,766	486,861	0,056	-0,094
-351,752	7,917	-0,165	-0,091
-350,737	650,910	0,073	0,137
-349,723	800,000	0,019	-0,053
-348,708	469,199	0,061	-0,100
-347,693	-110,800	-0,086	-0,013
-346,679	800,000	-0,027	-0,060
-345,664	-200,000	-0,021	-0,125
-344,650	800,000	-0,038	-0,077
-343,635	800,000	0,020	0,045
-342,620	-35,589	-0,126	-0,050
-341,606	800,000	0,073	0,215
-340,591	-200,000	-0,007	0,090
-339,577	240,252	-0,147	-0,179
-338,562	-200,000	0,002	-0,014
-337,548	85,014	0,104	-0,084
-336,533	287,669	-0,063	0,083
-335,518	207,118	0,041	-0,047
-334,504	156,920	-0,048	0,048
-333,489	74,401	-0,020	-0,016
-332,475	127,724	-0,122	0,113
-331,460	129,940	-0,094	-0,088
-330,445	-103,871	0,102	-0,017
-329,431	-51,472	0,121	0,041
-328,416	148,218	0,101	0,100
-327,402	614,020	0,089	0,165
-326,387	15,533	-0,094	-0,054
-325,372	-124,971	-0,174	-0,019
-324,358	-54,960	-0,079	0,026
-323,343	744,665	0,045	0,088
-322,329	118,105	0,036	0,033
-321,314	196,139	-0,005	-0,006
-320,299	660,984	0,037	0,070
-319,285	462,572	-0,034	-0,056
-318,270	663,529	-0,037	0,070
-317,256	-200,000	-0,015	0,122
-316,241	800,000	0,039	-0,096
-315,226	208,466	0,050	-0,058
-314,212	-200,000	0,016	0,000
-313,197	-4,924	-0,154	0,077
-312,183	705,335	-0,089	0,173
-311,168	265,982	0,061	-0,079
-310,153	91,597	-0,014	0,011
-309,139	-78,035	0,035	0,009
-308,124	-144,974	-0,135	-0,009
-307,110	-103,118	-0,098	0,017
-306,095	17,703	-0,148	0,086
-305,080	17,419	0,143	-0,083
-304,066	89,697	-0,153	-0,125
-303,051	545,149	-0,081	0,142
-302,037	525,012	-0,046	-0,080
-301,022	290,355	0,050	-0,066
-300,008	258,689	0,044	-0,055
-298,993	-200,000	0,004	-0,018
-297,978	-200,000	0,007	0,033
-296,964	-158,461	-0,076	-0,003
-295,949	-197,001	-0,030	-0,000
-294,935	216,175	0,044	0,051
-293,920	741,985	-0,080	0,158
-292,905	-0,557	-0,002	-0,001
-291,891	64,214	0,046	-0,034
-290,876	798,005	0,058	-0,118
-289,862	-200,000	0,038	0,165
-288,847	-70,721	-0,061	0,017
-287,832	-200,000	0,001	0,115
-286,818	-200,000	0,008	-0,031
-285,803	800,000	0,031	0,086
-284,789	-170,172	0,116	-0,003
-283,774	-49,453	0,134	-0,046
-282,759	-93,552	0,091	0,018
-281,745	14,248	-0,051	0,029
-280,730	-8,278	-0,039	-0,019
-279,716	-200,000	-0,037	-0,200
-278,701	690,237	-0,015	-0,029
-277,686	-116,017	0,083	-0,011
-276,672	-84,572	-0,085	0,020
-275,657	-23,414	0,128	0,056
-274,643	800,000	-0,018	0,039
-273,628	362,521	-0,049	-0,072
-272,613	-200,000	0,002	-0,014
-271,599	47,061	0,085	-0,058
-270,584	212,530	0,030	0,034
-269,570	-200,000	0,027	0,142
-268,555	491,556	0,060	-0,101
-267,540	-27,364	0,140	-0,059
-266,526	800,000	0,022	-0,069
-265,511	69,308	-0,111	0,083
-264,497	-44,257	0,127	-0,046
-263,482	312,926	-0,077	-0,105
-262,467	181,734	0,073	0,079
-261,453	501,548	0,048	0,081
-260,438	800,000	-0,032	-0,095
-259,424	-112,258	0,162	0,024
-258,409	-200,000	0,052	0,178
-257,395	33,349	0,166	0,105
-256,380	800,000	-0,016	-0,038
-255,365	-75,181	0,071	-0,018
-254,351	143,060	-0,091	-0,088
-253,336	-200,000	-0,004	0,022
-252,322	-49,712	-0,092	-0,032
-251,307	-200,000	-0,017	-0,137
-250,292	-200,000	0,028	-0,109
-249,278	138,808	-0,059	0,057
-248,263	-121,545	0,143	0,017
-247,249	-59,967	0,089	0,028
-246,234	192,525	-0,056	0,062
-245,219	-24,488	-0,062	-0,027
-244,205	135,188	0,072	0,069
-243,190	196,138	-0,055	0,061
-242,176	55,608	0,107	0,075
-241,161	-27,283	-0,095	0,040
-240,146	-88,227	0,078	0,017
-239,132	-66,023	-0,078	0,023
-238,117	-50,816	-0,108	-0,037
-237,103	307,421	-0,044	-0,060
-236,088	800,000	-0,039	-0,116
-235,073	-149,154	0,121	-0,007
-234,059	-200,000	0,022	-0,093
-233,044	-200,000	-0,010	0,040
-232,030	-2,006	0,077	0,039
-231,015	-50,699	-0,116	-0,040
-230,000	-200,000	-0,023	0,086
-228,986	-200,000	-0,005	0,098
-227,971	406,872	-0,079	0,121
-226,957	-135,028	0,056	0,005
-225,942	-141,338	-0,146	0,011
-224,927	-200,000	-0,003	-0,100
-223,913	-200,000	0,000	0,055
-222,898	-81,226	-0,113	-0,027
-221,884	-200,000	0,010	-0,036
-220,869	527,739	0,058	-0,100
-219,855	-70,665	-0,024	0,007
-218,840	-200,000	0,011	0,092
-217,825	-48,270	-0,062	-0,022
-216,811	620,009	-0,043	-0,080
-215,796	-47,603	-0,053	0,019
-214,782	199,300	-0,044	-0,049
-213,767	151,985	0,122	0,121
-212,752	127,400	-0,063	0,058
-211,738	-193,388	-0,015	0,000
-210,723	-97,021	0,091	-0,017
-209,709	165,427	-0,069	-0,072
-208,694	800,000	-0,011	-0,024
-207,679	217,657	-0,099	-0,115
-206,665	-200,000	-0,001	0,014
-205,650	185,823	-0,115	0,125
-204,636	-18,394	0,170	0,077
-203,621	9,533	-0,092	0,051
-202,606	-22,319	-0,090	-0,039
-201,592	-101,898	-0,154	-0,027
-200,577	-200,000	0,000	-0,126
-199,563	-128,359	-0,052	0,005
-198,548	-6,478	0,051	-0,025
-197,533	-200,000	0,011	0,181
-196,519	100,025	-0,047	0,040
-195,504	365,935	-0,062	-0,091
-194,490	800,000	-0,044	0,116
-193,475	-72,527	-0,087	0,023
-192,460	800,000	-0,031	0,084
-191,446	155,873	-0,071	-0,071
-190,431	-69,155	0,103	0,029
-189,417	-200,000	0,005	0,046
-188,402	41,490	0,074	-0,049
-187,387	-3,114	-0,056	0,028
-186,373	-118,207	-0,126	0,016
-185,358	224,167	-0,030	0,035
-184,344	-81,477	0,132	-0,031
-183,329	-5,257	-0,065	0,032
-182,315	-19,583	0,131	-0,059
-181,300	-200,000	0,002	-0,019
-180,285	4,637	0,110	0,059
-179,271	-200,000	0,005	-0,113
-178,256	-126,556	0,049	-0,005
-177,242	315,254	0,047	-0,065
-176,227	-151,036	-0,133	-0,007
-175,212	-61,554	0,053	0,016
-174,198	490,097	-0,056	0,093
-173,183	800,000	-0,078	0,162
-172,169	9,255	0,091	-0,050
-171,154	-53,176	-0,027	0,009
-170,139	800,000	0,048	0,104
-169,125	800,000	0,047	0,131
-168,110	-200,000	0,008	0,051
-167,096	98,998	0,029	0,024
-166,081	199,914	-0,083	-0,092
-165,066	800,000	-0,015	-0,047
-164,052	800,000	0,014	-0,033
-163,037	321,501	0,095	0,132
-162,023	469,217	0,040	-0,065
-161,008	223,282	0,070	-0,082
-159,993	800,000	-0,048	-0,101
-158,979	800,000	-0,064	-0,149
-157,964	800,000	0,048	-0,106
-156,950	206,166	-0,042	-0,048
-155,935	800,000	-0,048	-0,135
-154,920	-200,000	0,007	0,093
-153,906	-200,000	-0,004	0,065
-152,891	330,200	0,027	-0,037
-151,877	-200,000	0,031	-0,119
-150,862	800,000	-0,052	0,151
-149,847	-200,000	0,020	-0,136
-148,833	-121,414	-0,098	0,012
-147,818	23,576	0,155	0,093
-146,804	8,981	-0,131	-0,072
-145,789	-177,677	-0,083	-0,001
-144,775	38,356	-0,106	-0,068
-143,760	800,000	-0,034	-0,068
-142,745	751,690	0,043	-0,086
-141,731	-200,000	0,014	-0,070
-140,716	65,359	0,086	-0,063
-139,702	6,530	0,080	0,043
-138,687	800,000	0,043	0,130
-137,672	-200,000	0,013	-0,113
-136,658	620,345	-0,093	-0,171
-135,643	-200,000	-0,014	-0,139
-134,629	800,000	0,049	0,143
-133,614	-163,805	0,171	0,006
-132,599	-73,577	0,038	0,010
-131,585	-39,454	0,040	-0,015
-130,570	135,975	0,091	-0,086
-129,556	-200,000	0,008	-0,147
-128,541	-200,000	-0,011	-0,096
-127,526	355,385	-0,094	0,136
-126,512	52,245	0,083	-0,057
-125,497	-1,011	0,152	-0,078
-124,483	-87,158	0,026	0,006
-123,468	91,731	-0,138	-0,113
-122,453	346,054	0,043	0,061
-121,439	-200,000	-0,013	-0,056
-120,424	13,535	-0,034	0,019
-119,410	800,000	0,002	-0,004
