DTS Sentinel unit serial number:	SN410029Multiplexer serial number:	ORYXHardware model number:	OX2-SRSoftware version number:	ORYX F/W v4,00 Oryx Data Collector v3.7.2.0data status	okinstallation	B6 Nyhavnadifferential loss correction	single-endedforward channel	channel 2reverse channel	N/Adate	2023/12/11time	07:35:08forward acquisition time	300,00reverse acquisition time	0,00gamma	499,1914k internal	0,3127k external	0,3127temperature offset calibration	1,0000default loss term (dB/km)	0,3820temperature slope calibration	1,0000multiplexer offset coefficient	1,0000multiplexer slope coefficient	1,0000fibre end	0,00T internal ref (°C)	18,90T ext. ref 1 (°C)	1,34T ext. ref 2 (°C)	1,37length (m)	temperature (°C)	Stokes	anti-Stokes-744,400	68,582	0,141	-0,108
-743,385	-163,897	-0,209	-0,007
-742,371	-200,000	0,002	-0,059
-741,356	-41,861	-0,313	0,119
-740,342	-145,063	0,179	0,012
-739,327	-11,885	-0,274	0,133
-738,312	314,229	0,111	-0,156
-737,298	-117,862	-0,228	-0,030
-736,283	-112,750	-0,045	-0,007
-735,269	-200,000	-0,230	-0,000
-734,254	-200,000	0,048	-0,170
-733,239	-41,195	-0,523	-0,200
-732,225	-7,910	0,100	0,050
-731,210	-200,000	0,013	0,219
-730,196	-200,000	-0,029	-0,127
-729,181	-53,045	-0,165	-0,056
-728,167	63,866	-0,024	0,018
-727,152	264,125	0,077	-0,100
-726,137	-113,386	-0,192	-0,028
-725,123	165,028	-0,038	-0,040
-724,108	38,164	-0,065	-0,043
-723,094	800,000	-0,029	-0,072
-722,079	38,336	-0,032	0,021
-721,064	-19,804	-0,109	-0,050
-720,050	-70,342	-0,033	0,009
-719,035	800,000	-0,020	-0,045
-718,021	-37,511	-0,122	-0,048
-717,006	55,836	0,011	-0,008
-715,991	800,000	-0,020	-0,053
-714,977	-200,000	0,022	-0,152
-713,962	-200,000	-0,010	-0,081
-712,948	-0,859	0,098	0,051
-711,933	255,424	-0,111	0,142
-710,918	-2,286	0,130	-0,067
-709,904	15,888	0,033	-0,019
-708,889	-72,708	0,026	-0,007
-707,875	800,000	-0,015	0,047
-706,860	61,384	-0,102	0,075
-705,845	360,880	0,077	-0,115
-704,831	49,727	-0,118	-0,083
-703,816	131,612	0,019	0,019
-702,802	800,000	0,032	0,092
-701,787	-139,011	-0,123	0,010
-700,772	146,994	-0,110	-0,110
-699,758	1,539	0,110	-0,059
-698,743	-92,384	-0,052	-0,011
-697,729	372,700	0,072	0,110
-696,714	-47,269	-0,030	-0,011
-695,699	100,106	0,190	-0,164
-694,685	-68,726	-0,107	-0,031
-693,670	-62,221	-0,118	0,036
-692,656	-200,000	0,006	0,120
-691,641	258,805	0,074	-0,095
-690,627	-173,537	0,055	0,001
-689,612	-200,000	0,026	0,211
-688,597	61,818	-0,051	0,038
-687,583	800,000	-0,036	-0,087
-686,568	70,979	-0,047	0,037
-685,554	-200,000	-0,007	-0,065
-684,539	-92,832	0,212	-0,044
-683,524	-200,000	-0,001	-0,019
-682,510	148,788	0,040	-0,040
-681,495	-97,126	0,150	0,029
-680,481	-14,767	-0,107	0,051
-679,466	471,182	-0,103	-0,173
-678,451	-200,000	0,023	0,137
-677,437	-22,686	0,061	-0,027
-676,422	800,000	-0,040	-0,103
-675,408	800,000	-0,008	-0,018
-674,393	153,923	-0,024	-0,025
-673,378	-200,000	0,003	-0,100
-672,364	800,000	-0,013	0,042
-671,349	-126,839	0,103	0,011
-670,335	800,000	0,054	0,132
-669,320	-200,000	-0,029	0,156
-668,305	-200,000	-0,011	0,067
-667,291	-62,018	-0,134	-0,041
-666,276	-12,765	-0,085	0,041
-665,262	-123,773	-0,177	-0,021
-664,247	-174,828	-0,101	0,002
-663,232	-51,718	0,045	0,015
-662,218	800,000	-0,066	-0,161
-661,203	-175,569	0,200	-0,004
-660,189	-200,000	0,042	-0,233
-659,174	35,319	-0,043	-0,028
-658,159	-200,000	-0,013	-0,156
-657,145	160,070	0,087	-0,090
-656,130	-2,752	0,071	-0,037
-655,116	15,050	0,074	-0,043
-654,101	36,284	-0,046	-0,030
-653,086	91,164	0,074	0,062
-652,072	800,000	-0,072	0,203
-651,057	-200,000	-0,007	0,037
-650,043	-165,222	-0,067	-0,002
-649,028	-200,000	-0,004	0,137
-648,014	15,079	0,088	0,051
-646,999	-159,217	0,086	0,004
-645,984	264,044	-0,066	0,086
-644,970	-200,000	-0,003	-0,173
-643,955	-139,579	-0,122	0,010
-642,941	364,140	-0,127	-0,190
-641,926	-200,000	-0,002	0,073
-640,911	-67,343	-0,087	-0,025
-639,897	172,529	0,057	0,061
-638,882	729,906	-0,018	-0,036
-637,868	37,663	-0,166	0,109
-636,853	62,881	0,073	-0,054
-635,838	117,019	-0,050	0,046
-634,824	800,000	0,015	0,034
-633,809	503,959	-0,060	0,103
-632,795	-200,000	0,000	0,042
-631,780	-193,146	0,069	0,000
-630,765	132,492	0,019	-0,019
-629,751	-200,000	-0,090	-0,000
-628,736	554,473	-0,058	-0,105
-627,722	800,000	0,024	0,079
-626,707	-200,000	-0,006	0,088
-625,692	194,133	0,037	0,042
-624,678	-200,000	-0,012	0,079
-623,663	-200,000	0,006	-0,030
-622,649	100,954	0,040	-0,034
-621,634	180,792	-0,095	0,103
-620,619	16,442	-0,173	-0,101
-619,605	207,513	0,104	-0,121
-618,590	-200,000	0,001	0,022
-617,576	745,589	-0,017	0,034
-616,561	74,955	0,106	0,082
-615,546	6,462	0,011	-0,006
-614,532	-200,000	-0,004	-0,039
-613,517	197,055	-0,080	-0,090
-612,503	-200,000	-0,010	-0,058
-611,488	-200,000	0,004	0,023
-610,474	-200,000	-0,014	0,157
-609,459	800,000	-0,061	-0,152
-608,444	515,002	-0,078	-0,136
-607,430	29,588	0,106	-0,066
-606,415	-83,274	-0,123	-0,029
-605,401	313,448	-0,084	-0,117
-604,386	110,279	0,045	-0,040
-603,371	330,250	-0,103	-0,147
-602,357	53,472	0,054	0,038
-601,342	151,348	-0,017	0,017
-600,328	40,470	0,094	-0,063
-599,313	-200,000	-0,021	-0,186
-598,298	-33,618	0,112	-0,046
-597,284	800,000	0,025	0,066
-596,269	-6,964	0,032	-0,016
-595,255	91,268	0,102	-0,084
-594,240	-200,000	-0,025	-0,132
-593,225	-200,000	0,031	0,195
-592,211	118,908	-0,072	-0,066
-591,196	93,553	0,057	-0,048
-590,182	-47,382	0,217	-0,078
-589,167	-200,000	-0,027	-0,106
-588,152	2,454	0,057	0,030
-587,138	-29,331	-0,159	-0,067
-586,123	-91,929	-0,027	-0,006
-585,109	-200,000	-0,018	-0,092
-584,094	-200,000	-0,000	0,047
-583,079	800,000	0,051	0,138
-582,065	-200,000	-0,010	0,054
-581,050	-141,354	0,095	-0,007
-580,036	-37,337	-0,025	0,010
-579,021	800,000	-0,031	-0,084
-578,006	-200,000	-0,002	-0,135
-576,992	4,370	-0,050	0,027
-575,977	16,214	0,100	-0,058
-574,963	-96,495	0,056	-0,011
-573,948	123,511	0,051	0,047
-572,934	246,397	0,081	-0,101
-571,919	-178,552	-0,139	-0,002
-570,904	91,160	-0,106	0,088
-569,890	-200,000	-0,002	-0,185
-568,875	-120,515	0,046	0,006
-567,861	-200,000	0,011	0,052
-566,846	39,535	-0,049	0,032
-565,831	443,452	0,063	-0,103
-564,817	-30,137	0,056	0,024
-563,802	-200,000	0,031	-0,143
-562,788	35,219	-0,072	0,047
-561,773	-200,000	-0,018	0,119
-560,758	-125,339	-0,123	0,014
-559,744	11,585	0,066	0,037
-558,729	-200,000	0,003	0,041
-557,715	-60,336	-0,165	-0,051
-556,700	-18,279	0,070	-0,032
-555,685	-163,445	-0,067	0,002
-554,671	-109,317	-0,130	0,020
-553,656	800,000	0,051	0,117
-552,642	143,939	-0,081	0,079
-551,627	6,525	-0,044	0,024
-550,612	800,000	0,014	-0,044
-549,598	-151,112	-0,064	-0,004
-548,583	800,000	-0,061	-0,172
-547,569	-46,284	-0,129	0,046
-546,554	800,000	0,065	0,147
-545,539	-200,000	-0,019	0,079
-544,525	-200,000	-0,037	0,162
-543,510	78,828	0,032	0,025
-542,496	216,943	-0,021	-0,025
-541,481	-15,836	-0,049	0,023
-540,466	-200,000	-0,014	0,079
-539,452	800,000	-0,043	0,102
-538,437	800,000	0,009	0,020
-537,423	32,926	-0,024	-0,015
-536,408	-200,000	0,004	0,157
-535,393	-200,000	-0,125	-0,000
-534,379	-39,169	-0,037	0,014
-533,364	161,300	0,004	0,004
-532,350	-200,000	0,013	0,043
-531,335	774,337	0,070	0,143
-530,321	177,933	0,037	0,040
-529,306	792,575	0,063	0,129
-528,291	297,110	-0,030	-0,041
-527,277	-32,398	-0,104	-0,043
-526,262	800,000	-0,048	0,114
-525,248	-200,000	-0,023	0,156
-524,233	15,605	0,063	0,037
-523,218	610,854	-0,035	0,065
-522,204	800,000	-0,028	0,070
-521,189	143,068	-0,097	0,095
-520,175	172,996	-0,160	-0,170
-519,160	254,299	-0,046	-0,059
-518,145	358,242	0,110	0,163
-517,131	96,817	-0,111	0,094
-516,116	800,000	0,022	0,065
-515,102	-200,000	0,015	-0,081
-514,087	-200,000	-0,050	-0,185
-513,072	-113,813	-0,072	-0,010
-512,058	-100,454	0,116	-0,021
-511,043	-19,938	0,117	-0,053
-510,029	567,289	-0,030	0,053
-509,014	-51,293	0,120	0,041
-507,999	100,173	0,084	0,072
-506,985	-200,000	0,019	-0,097
-505,970	800,000	-0,038	0,117
-504,956	800,000	0,027	0,069
-503,941	-200,000	0,016	0,072
-502,926	383,356	-0,020	0,031
-501,912	-8,062	0,154	-0,076
-500,897	756,068	0,063	-0,127
-499,883	285,846	0,025	-0,033
-498,868	335,730	-0,103	-0,148
-497,853	-200,000	-0,015	-0,083
-496,839	-140,911	0,137	0,010
-495,824	-94,824	-0,025	0,005
-494,810	800,000	-0,086	0,203
-493,795	286,375	0,062	-0,083
-492,781	-147,943	0,024	0,001
-491,766	-200,000	0,010	-0,053
-490,751	-88,744	0,058	-0,013
-489,737	56,623	-0,035	-0,025
-488,722	-37,072	0,058	-0,023
-487,708	-120,194	0,061	0,008
-486,693	800,000	0,031	-0,088
-485,678	-165,640	0,007	0,000
-484,664	61,962	-0,149	-0,109
-483,649	-77,065	-0,083	-0,021
-482,635	-64,639	-0,031	0,009
-481,620	800,000	-0,018	-0,055
-480,605	10,837	0,133	-0,074
-479,591	-156,956	-0,173	0,008
-478,576	128,974	-0,033	-0,031
-477,562	-74,846	-0,030	0,008
-476,547	-200,000	0,006	-0,077
-475,532	-200,000	-0,013	-0,163
-474,518	800,000	0,037	-0,089
-473,503	25,321	0,114	-0,070
-472,489	-77,695	0,144	-0,036
-471,474	-200,000	0,004	0,048
-470,459	-59,246	-0,062	0,019
-469,445	-127,187	0,074	-0,008
-468,430	-108,789	-0,040	0,006
-467,416	73,712	0,094	-0,072
-466,401	-131,583	0,182	0,017
-465,386	-111,695	-0,133	-0,020
-464,372	73,501	0,034	0,026
-463,357	-76,233	0,064	-0,017
-462,343	-88,400	0,119	-0,026
-461,328	84,044	-0,032	-0,026
-460,313	247,957	0,039	-0,049
-459,299	200,449	0,010	-0,012
-458,284	37,724	-0,108	-0,071
-457,270	800,000	0,014	-0,040
-456,255	334,101	-0,121	-0,173
-455,241	245,802	-0,055	-0,068
-454,226	35,657	-0,045	-0,029
-453,211	190,072	-0,109	0,121
-452,197	-200,000	0,002	0,192
-451,182	-200,000	0,019	0,118
-450,168	76,060	0,082	0,064
-449,153	-82,159	-0,122	-0,029
-448,138	162,374	-0,072	0,075
-447,124	-200,000	-0,014	-0,087
-446,109	474,910	-0,079	-0,132
-445,095	493,000	-0,015	-0,025
-444,080	-73,903	0,045	-0,012
-443,065	-110,900	-0,063	-0,009
-442,051	800,000	-0,024	-0,063
-441,036	-91,357	-0,073	-0,015
-440,022	45,694	-0,088	-0,060
-439,007	8,993	-0,043	0,024
-437,992	-94,580	0,106	-0,021
-436,978	200,188	0,036	0,041
-435,963	496,465	0,057	0,097
-434,949	-200,000	0,011	0,064
-433,934	318,598	-0,018	-0,025
-432,919	-155,088	0,064	-0,003
-431,905	82,058	-0,114	-0,091
-430,890	-2,134	0,004	0,002
-429,876	-1,454	0,081	-0,042
-428,861	-39,290	0,118	0,045
-427,846	-73,706	-0,119	-0,032
-426,832	800,000	-0,021	-0,061
-425,817	800,000	-0,019	0,039
-424,803	-140,185	-0,058	0,004
-423,788	-94,178	0,182	0,036
-422,773	44,955	0,078	0,053
-421,759	337,439	-0,099	0,142
-420,744	130,949	-0,051	-0,049
-419,730	-200,000	-0,039	-0,146
-418,715	677,437	0,029	-0,056
-417,701	379,742	0,034	0,051
-416,686	800,000	0,035	-0,093
-415,671	633,320	-0,052	-0,096
-414,657	228,683	0,061	-0,073
-413,642	800,000	0,034	0,072
-412,628	-74,530	0,136	-0,036
-411,613	34,529	-0,034	0,022
-410,598	256,647	-0,070	-0,089
-409,584	405,512	0,051	0,079
-408,569	-112,684	-0,027	0,004
-407,555	1,714	-0,007	0,004
-406,540	159,945	-0,036	-0,037
-405,525	-200,000	0,006	0,134
-404,511	800,000	0,009	-0,022
-403,496	116,581	0,065	0,059
-402,482	47,431	0,032	0,022
-401,467	32,851	0,074	0,047
-400,452	800,000	-0,075	0,174
-399,438	-200,000	0,001	0,032
-398,423	800,000	0,044	0,126
-397,409	-200,000	-0,002	0,031
-396,394	766,801	-0,027	0,053
-395,379	800,000	0,045	0,095
-394,365	-200,000	0,007	0,103
-393,350	-107,275	0,044	-0,007
-392,336	-102,475	0,114	0,020
-391,321	-39,816	0,044	0,017
-390,306	-200,000	-0,038	-0,178
-389,292	565,193	0,056	0,100
-388,277	-64,158	-0,031	0,009
-387,263	112,449	0,082	0,073
-386,248	230,330	0,068	0,081
-385,233	30,268	-0,004	-0,003
-384,219	220,320	-0,044	0,052
-383,204	800,000	-0,041	0,130
-382,190	37,600	0,096	0,062
-381,175	80,749	-0,053	-0,042
-380,160	-103,478	0,056	0,010
-379,146	601,328	-0,094	-0,172
-378,131	800,000	-0,010	-0,028
-377,117	-200,000	-0,021	0,099
-376,102	800,000	-0,048	-0,122
-375,088	40,790	0,091	-0,060
-374,073	-45,873	0,157	0,056
-373,058	-3,263	-0,031	-0,016
-372,044	156,852	0,071	-0,072
-371,029	-49,238	-0,040	-0,014
-370,015	22,082	0,024	0,015
-369,000	-24,163	-0,100	-0,044
-367,985	-200,000	0,012	-0,064
-366,971	-101,709	0,087	-0,015
-365,956	-140,029	0,062	-0,005
-364,942	103,616	0,058	-0,050
-363,927	82,821	0,076	-0,060
-362,912	-121,620	-0,107	-0,013
-361,898	-17,022	0,136	0,063
-360,883	-154,652	-0,028	0,001
-359,869	-200,000	-0,021	0,177
-358,854	-200,000	-0,013	0,057
-357,839	-200,000	-0,000	-0,049
-356,825	121,184	0,175	0,160
-355,810	7,250	-0,075	0,041
-354,796	800,000	-0,051	-0,156
-353,781	-56,087	-0,133	-0,043
-352,766	-200,000	0,002	-0,147
-351,752	-146,646	0,100	-0,006
-350,737	-46,088	0,135	0,049
-349,723	116,762	0,066	0,059
-348,708	215,263	-0,090	0,105
-347,693	-90,080	-0,097	0,021
-346,679	371,696	-0,082	-0,122
-345,664	-31,452	-0,082	0,034
-344,650	-200,000	0,016	0,059
-343,635	63,711	0,050	0,037
-342,620	-200,000	-0,034	0,136
-341,606	281,407	-0,101	0,133
-340,591	360,275	-0,151	-0,223
-339,577	-60,927	-0,072	-0,022
-338,562	63,144	0,012	0,009
-337,548	10,741	-0,063	0,035
-336,533	-200,000	-0,013	0,047
-335,518	-142,884	0,078	-0,005
-334,504	-76,516	0,033	-0,008
-333,489	-65,688	-0,093	-0,027
-332,475	-57,965	0,051	-0,016
-331,460	-133,308	0,085	-0,008
-330,445	-200,000	-0,034	-0,173
-329,431	127,067	0,022	0,020
-328,416	-14,883	0,040	-0,019
-327,402	-125,004	0,150	-0,017
-326,387	800,000	0,018	0,050
-325,372	-200,000	-0,031	0,130
-324,358	800,000	-0,050	0,127
-323,343	27,387	-0,066	0,041
-322,329	-172,210	-0,124	0,003
-321,314	-200,000	0,001	-0,048
-320,299	77,381	0,066	0,051
-319,285	219,093	-0,039	-0,046
-318,270	-24,485	-0,021	0,009
-317,256	-22,938	0,035	0,015
-316,241	2,061	-0,155	0,082
-315,226	-67,031	0,096	0,028
-314,212	-80,526	-0,183	-0,044
-313,197	-200,000	0,011	0,087
-312,183	-200,000	0,004	-0,054
-311,168	15,807	-0,028	-0,016
-310,153	-200,000	0,006	-0,088
-309,139	-200,000	-0,003	-0,059
-308,124	373,623	-0,047	-0,071
-307,110	-12,675	-0,097	-0,046
-306,095	135,648	-0,073	0,070
-305,080	-200,000	-0,011	0,047
-304,066	-74,582	0,030	-0,008
-303,051	628,801	-0,054	-0,099
-302,037	178,317	0,103	-0,110
-301,022	225,814	-0,050	-0,059
-300,008	220,492	0,036	0,043
-298,993	-171,696	0,179	0,004
-297,978	1,788	0,191	0,100
-296,964	475,227	-0,017	-0,028
-295,949	-200,000	0,016	-0,172
-294,935	467,662	-0,044	-0,073
-293,920	159,388	0,024	0,024
-292,905	-200,000	-0,012	0,070
-291,891	72,144	0,117	-0,089
-290,876	-44,482	-0,163	-0,059
-289,862	-106,373	-0,171	0,028
-288,847	-200,000	0,014	0,100
-287,832	327,996	0,034	0,048
-286,818	-29,440	0,098	-0,041
-285,803	-200,000	0,011	-0,086
-284,789	-200,000	-0,028	-0,180
-283,774	102,666	0,091	0,078
-282,759	-200,000	-0,014	0,056
-281,745	76,562	0,016	0,013
-280,730	502,595	0,067	-0,113
-279,716	-200,000	0,019	0,192
-278,701	-192,442	0,161	-0,001
-277,686	179,925	-0,094	0,101
-276,672	247,282	-0,025	0,031
-275,657	57,340	-0,041	0,029
-274,643	-200,000	-0,009	0,044
-273,628	535,417	0,071	0,123
-272,613	390,929	0,048	-0,072
-271,599	-200,000	0,017	-0,074
-270,584	20,808	-0,059	0,035
-269,570	-68,708	0,010	-0,003
-268,555	-49,691	-0,047	-0,016
-267,540	163,749	-0,052	-0,053
-266,526	-142,611	-0,176	-0,012
-265,511	-12,257	0,073	-0,035
-264,497	36,450	0,043	0,028
-263,482	800,000	0,046	0,111
-262,467	31,677	0,066	0,041
-261,453	186,797	-0,047	0,051
-260,438	-106,366	0,123	-0,020
-259,424	68,375	-0,094	0,070
-258,409	143,787	-0,074	-0,072
-257,395	-200,000	-0,015	-0,071
-256,380	-200,000	0,034	-0,114
-255,365	-48,389	-0,056	0,020
-254,351	-200,000	0,026	0,128
-253,336	106,193	-0,096	-0,083
-252,322	90,110	0,078	-0,064
-251,307	151,573	-0,118	0,118
-250,292	-72,155	0,118	0,032
-249,278	-200,000	-0,018	-0,060
-248,263	-8,203	-0,053	-0,026
-247,249	-59,984	-0,096	-0,030
-246,234	-200,000	-0,000	-0,074
-245,219	-200,000	-0,019	-0,132
-244,205	-200,000	-0,008	-0,127
-243,190	85,191	0,049	0,039
-242,176	-119,552	0,042	-0,005
-241,161	488,810	-0,013	0,021
-240,146	-63,175	0,076	0,023
-239,132	-200,000	0,003	0,045
-238,117	273,051	0,037	-0,048
-237,103	87,595	-0,026	0,021
-236,088	257,627	0,081	-0,102
-235,073	-31,451	-0,092	0,038
-234,059	-200,000	-0,003	0,166
-233,044	-124,693	-0,089	0,010
-232,030	110,078	-0,099	0,087
-231,015	-112,373	-0,077	0,011
-230,000	302,934	-0,066	-0,090
-228,986	800,000	0,046	0,108
-227,971	-160,937	-0,166	-0,006
-226,957	-200,000	0,027	0,113
-225,942	233,232	0,013	0,015
-224,927	413,161	-0,023	-0,036
-223,913	-108,514	-0,120	0,019
-222,898	-75,893	-0,048	0,012
-221,884	800,000	0,054	-0,170
-220,869	192,287	0,133	0,146
-219,855	49,355	0,069	0,047
-218,840	-200,000	-0,008	0,134
-217,825	800,000	-0,059	0,131
-216,811	757,414	0,055	-0,109
-215,796	-170,081	-0,072	-0,002
-214,782	-200,000	-0,036	-0,252
-213,767	-112,121	0,050	-0,007
-212,752	-200,000	-0,001	0,006
-211,738	-90,133	0,085	0,018
-210,723	-190,677	-0,093	-0,001
-209,709	-200,000	0,002	-0,146
-208,694	501,526	0,066	0,111
-207,679	171,038	-0,080	0,084
-206,665	800,000	0,096	-0,206
-205,650	-24,168	0,124	0,054
-204,636	-200,000	-0,029	0,146
-203,621	800,000	0,041	0,094
-202,606	784,056	0,042	-0,084
-201,592	49,045	-0,051	0,035
-200,577	90,977	-0,105	-0,086
-199,563	-200,000	-0,012	-0,078
-198,548	-200,000	-0,004	0,126
-197,533	800,000	-0,072	-0,150
-196,519	-47,828	-0,112	-0,039
-195,504	14,201	0,024	0,014
-194,490	45,785	0,152	0,102
-193,475	83,475	-0,098	-0,078
-192,460	800,000	-0,036	-0,102
-191,446	-179,488	0,063	0,001
-190,431	35,402	-0,022	-0,014
-189,417	-200,000	-0,024	0,178
-188,402	-131,744	0,119	-0,011
-187,387	800,000	-0,088	-0,216
-186,373	214,933	0,102	-0,118
-185,358	800,000	-0,030	0,065
-184,344	-200,000	0,019	0,150
-183,329	-91,779	-0,088	-0,018
-182,315	-161,782	0,183	0,007
-181,300	71,435	-0,052	0,040
-180,285	-139,747	-0,132	0,010
-179,271	85,050	-0,047	0,037
-178,256	77,136	0,105	-0,081
-177,242	45,274	0,057	0,038
-176,227	142,178	-0,068	0,065
-175,212	75,185	0,011	0,008
-174,198	-136,234	0,158	-0,013
-173,183	75,862	-0,009	0,007
-172,169	-121,952	0,007	-0,001
-171,154	-200,000	0,015	-0,098
-170,139	-114,079	0,181	0,025
-169,125	193,298	0,108	0,119
-168,110	800,000	0,021	-0,054
-167,096	787,276	0,022	-0,044
-166,081	-134,931	-0,043	-0,004
-165,066	-70,354	0,146	0,040
-164,052	212,034	0,064	0,074
-163,037	431,807	0,050	-0,080
-162,023	-3,157	0,109	-0,055
-161,008	800,000	0,012	-0,028
-159,993	324,540	-0,046	0,064
-158,979	89,209	0,153	0,124
-157,964	180,440	-0,111	-0,119
-156,950	144,189	-0,033	-0,032
-155,935	526,673	0,018	0,030
-154,920	-115,676	0,109	-0,015
-153,906	221,687	0,197	0,231
-152,891	348,631	-0,031	0,045
-151,877	800,000	0,014	-0,035
-150,862	-13,923	-0,194	0,091
-149,847	199,373	0,091	-0,101
-148,833	95,697	0,068	-0,056
-147,818	30,318	0,073	0,045
-146,804	228,863	-0,013	-0,015
-145,789	800,000	-0,021	-0,060
-144,775	-119,668	0,073	0,009
-143,760	-30,620	-0,033	0,014
-142,745	-53,036	0,097	-0,032
-141,731	-59,090	0,072	0,022
-140,716	532,397	0,084	0,145
-139,702	800,000	0,027	0,080
-138,687	800,000	0,032	0,083
-137,672	6,414	-0,030	0,016
-136,658	-200,000	-0,001	-0,025
-135,643	542,164	-0,027	0,047
-134,629	800,000	-0,026	0,065
-133,614	-200,000	-0,024	0,083
-132,599	117,829	-0,013	-0,012
-131,585	-200,000	-0,023	0,148
-130,570	32,646	0,096	0,060
-129,556	-99,830	-0,010	0,002
-128,541	160,524	0,106	-0,108
-127,526	-200,000	0,031	-0,135
-126,512	-200,000	0,002	0,049
-125,497	-200,000	0,015	-0,091
-124,483	-127,788	-0,081	-0,008
-123,468	112,635	-0,070	0,062
-122,453	-54,525	-0,123	0,040
-121,439	-200,000	-0,010	-0,123
-120,424	203,707	-0,055	-0,062
-119,410	71,970	0,046	0,035
