DTS Sentinel unit serial number:	SN410029Multiplexer serial number:	ORYXHardware model number:	OX2-SRSoftware version number:	ORYX F/W v4,00 Oryx Data Collector v3.7.2.0data status	okinstallation	B6 Nyhavnadifferential loss correction	single-endedforward channel	channel 2reverse channel	N/Adate	2023/12/08time	02:45:08forward acquisition time	300,00reverse acquisition time	0,00gamma	499,1914k internal	0,3165k external	0,3165temperature offset calibration	1,0000default loss term (dB/km)	0,3820temperature slope calibration	1,0000multiplexer offset coefficient	1,0000multiplexer slope coefficient	1,0000fibre end	0,00T internal ref (°C)	13,16T ext. ref 1 (°C)	-3,68T ext. ref 2 (°C)	-3,68length (m)	temperature (°C)	Stokes	anti-Stokes-744,400	-78,918	0,107	-0,027
-743,385	-136,241	-0,430	0,036
-742,371	51,739	0,133	-0,093
-741,356	-142,622	-0,235	-0,017
-740,342	-200,000	0,004	0,045
-739,327	-200,000	-0,427	0,001
-738,312	17,954	-0,117	0,068
-737,298	-88,046	-0,284	-0,062
-736,283	-128,161	0,094	0,010
-735,269	-142,250	-0,272	0,019
-734,254	800,000	0,030	0,072
-733,239	37,475	-0,504	-0,328
-732,225	-46,178	0,161	0,058
-731,210	-98,586	0,029	0,005
-730,196	30,246	-0,052	-0,032
-729,181	-90,580	-0,136	-0,029
-728,167	233,840	0,027	0,032
-727,152	332,108	0,062	-0,088
-726,137	-5,831	0,096	-0,048
-725,123	800,000	0,042	-0,131
-724,108	131,578	-0,073	0,069
-723,094	-200,000	-0,014	-0,199
-722,079	14,896	-0,082	-0,047
-721,064	-200,000	-0,017	-0,089
-720,050	-200,000	-0,004	-0,120
-719,035	-42,609	-0,039	0,014
-718,021	563,679	-0,064	-0,113
-717,006	15,452	-0,182	-0,104
-715,991	-200,000	0,005	-0,038
-714,977	-200,000	-0,041	-0,215
-713,962	-110,463	0,067	-0,010
-712,948	176,139	0,089	-0,095
-711,933	-93,517	0,076	-0,015
-710,918	-53,404	-0,029	-0,010
-709,904	365,272	-0,087	-0,128
-708,889	-0,658	-0,069	-0,036
-707,875	800,000	-0,060	-0,192
-706,860	253,453	-0,076	-0,095
-705,845	-124,085	0,214	0,024
-704,831	-150,146	0,039	0,002
-703,816	52,801	0,044	0,031
-702,802	211,045	0,094	0,109
-701,787	-80,313	-0,110	0,027
-700,772	-15,609	-0,082	-0,038
-699,758	800,000	-0,034	0,083
-698,743	-78,499	0,069	-0,017
-697,729	-103,016	0,081	-0,014
-696,714	-200,000	0,039	-0,217
-695,699	-38,647	0,097	0,037
-694,685	211,588	-0,097	0,112
-693,670	-37,386	0,094	0,037
-692,656	391,795	-0,128	-0,196
-691,641	1,436	-0,090	-0,047
-690,627	800,000	-0,051	0,109
-689,612	800,000	-0,046	0,145
-688,597	-43,314	-0,127	-0,047
-687,583	-46,669	-0,233	-0,083
-686,568	32,906	-0,076	-0,048
-685,554	78,166	0,064	0,050
-684,539	-18,320	0,080	0,036
-683,524	505,886	0,043	0,073
-682,510	268,547	0,034	0,043
-681,495	61,084	-0,035	-0,025
-680,481	-200,000	-0,010	-0,086
-679,466	115,866	-0,084	-0,075
-678,451	553,300	-0,066	-0,117
-677,437	466,998	0,016	-0,026
-676,422	-200,000	-0,027	0,095
-675,408	800,000	-0,033	0,107
-674,393	800,000	0,018	0,054
-673,378	61,379	-0,057	-0,042
-672,364	67,234	0,060	-0,045
-671,349	-84,508	-0,241	0,055
-670,335	800,000	0,032	-0,077
-669,320	5,219	0,019	-0,010
-668,305	11,346	0,060	-0,034
-667,291	145,053	0,176	-0,173
-666,276	59,054	-0,095	-0,069
-665,262	313,877	0,034	-0,047
-664,247	-200,000	0,037	-0,155
-663,232	145,856	-0,127	-0,125
-662,218	55,964	0,135	-0,096
-661,203	-30,938	-0,030	-0,012
-660,189	-30,124	-0,046	0,019
-659,174	-73,694	-0,134	-0,035
-658,159	100,884	0,052	-0,044
-657,145	550,464	0,022	-0,039
-656,130	-200,000	-0,017	-0,072
-655,116	137,741	0,040	0,039
-654,101	-55,315	0,011	-0,004
-653,086	-200,000	-0,001	0,046
-652,072	216,246	-0,046	0,054
-651,057	-71,540	-0,157	-0,043
-650,043	248,925	0,100	0,125
-649,028	-190,738	0,031	0,000
-648,014	289,345	0,061	-0,081
-646,999	-200,000	0,016	0,082
-645,984	23,642	0,061	0,037
-644,970	55,724	-0,023	-0,016
-643,955	98,058	-0,091	-0,077
-642,941	43,145	-0,097	-0,065
-641,926	95,405	0,071	-0,059
-640,911	311,114	-0,067	-0,092
-639,897	800,000	-0,030	0,086
-638,882	800,000	-0,021	-0,057
-637,868	-13,736	0,032	0,015
-636,853	341,315	-0,024	0,035
-635,838	-200,000	-0,021	-0,097
-634,824	16,106	0,017	0,010
-633,809	-122,335	0,059	-0,007
-632,795	-24,779	0,074	-0,032
-631,780	-200,000	0,015	0,115
-630,765	552,159	0,071	-0,125
-629,751	784,612	0,049	-0,099
-628,736	-31,095	-0,073	0,030
-627,722	-200,000	-0,047	0,000
-626,707	238,956	-0,089	-0,109
-625,692	87,410	0,007	-0,005
-624,678	-47,953	-0,130	-0,046
-623,663	742,326	-0,036	-0,072
-622,649	90,610	-0,071	0,058
-621,634	800,000	-0,046	-0,117
-620,619	-200,000	-0,019	-0,078
-619,605	-200,000	0,003	-0,024
-618,590	3,902	0,035	-0,019
-617,576	-200,000	-0,003	0,113
-616,561	519,795	-0,045	0,078
-615,546	112,325	-0,067	-0,059
-614,532	58,835	-0,068	-0,049
-613,517	-123,339	0,181	0,021
-612,503	-81,021	-0,017	-0,004
-611,488	-32,724	-0,065	-0,026
-610,474	9,755	0,103	0,057
-609,459	303,202	-0,127	0,173
-608,444	-200,000	0,005	-0,086
-607,430	-120,985	-0,122	0,015
-606,415	-182,645	-0,115	-0,001
-605,401	286,806	0,058	0,077
-604,386	-200,000	-0,037	0,215
-603,371	0,874	0,081	-0,042
-602,357	108,673	-0,109	0,096
-601,342	-200,000	-0,024	0,111
-600,328	391,399	0,079	-0,121
-599,313	-200,000	0,003	0,027
-598,298	800,000	0,013	0,040
-597,284	34,143	-0,060	0,038
-596,269	-200,000	-0,001	-0,021
-595,255	-200,000	0,014	-0,100
-594,240	-200,000	-0,002	-0,108
-593,225	-200,000	0,011	0,207
-592,211	100,351	-0,063	-0,053
-591,196	-200,000	-0,010	-0,046
-590,182	-124,418	-0,106	0,012
-589,167	-200,000	0,006	0,034
-588,152	47,955	0,119	0,081
-587,138	-200,000	0,008	-0,026
-586,123	-97,049	-0,096	-0,018
-585,109	800,000	-0,031	-0,085
-584,094	-123,668	-0,120	-0,014
-583,079	-62,402	0,087	-0,026
-582,065	-200,000	-0,022	0,092
-581,050	-200,000	-0,005	-0,030
-580,036	-200,000	0,010	0,068
-579,021	-83,719	-0,041	-0,010
-578,006	-30,651	0,129	-0,053
-576,992	800,000	0,048	0,114
-575,977	129,565	-0,044	0,041
-574,963	800,000	-0,013	0,035
-573,948	-3,975	-0,133	0,067
-572,934	-200,000	0,016	-0,058
-571,919	800,000	-0,045	-0,127
-570,904	800,000	-0,014	-0,043
-569,890	-44,425	-0,241	-0,088
-568,875	-200,000	0,009	-0,108
-567,861	230,363	0,031	0,037
-566,846	550,278	-0,032	0,056
-565,831	-159,144	-0,029	-0,001
-564,817	-200,000	-0,053	-0,277
-563,802	-200,000	-0,009	-0,118
-562,788	308,935	-0,029	-0,040
-561,773	282,801	0,028	-0,037
-560,758	200,388	-0,023	-0,025
-559,744	112,912	0,079	-0,070
-558,729	-35,819	-0,152	-0,060
-557,715	-198,332	-0,058	0,000
-556,700	-200,000	-0,027	-0,092
-555,685	-90,841	-0,078	-0,016
-554,671	-200,000	-0,013	-0,053
-553,656	-50,468	0,083	-0,029
-552,642	98,672	0,180	0,151
-551,627	160,241	-0,035	0,036
-550,612	-65,418	-0,110	-0,032
-549,598	92,744	-0,141	0,116
-548,583	-117,545	-0,113	-0,015
-547,569	-178,056	-0,103	0,002
-546,554	-200,000	-0,031	-0,136
-545,539	-72,302	0,039	-0,010
-544,525	168,523	-0,047	0,049
-543,510	-34,279	-0,115	0,046
-542,496	-200,000	0,000	0,089
-541,481	-98,201	-0,141	-0,026
-540,466	-200,000	-0,010	-0,061
-539,452	-75,310	0,038	0,010
-538,437	800,000	-0,048	0,133
-537,423	-146,135	-0,076	-0,005
-536,408	-22,941	0,061	0,027
-535,393	-161,582	0,033	0,001
-534,379	800,000	0,052	-0,124
-533,364	410,712	0,040	-0,062
-532,350	-200,000	0,003	-0,091
-531,335	-149,681	0,092	0,005
-530,321	-200,000	-0,003	0,050
-529,306	455,654	0,034	-0,055
-528,291	761,903	-0,052	-0,104
-527,277	-200,000	0,016	-0,076
-526,262	66,504	-0,005	0,004
-525,248	800,000	-0,042	-0,101
-524,233	-200,000	0,007	-0,069
-523,218	193,737	0,103	0,114
-522,204	204,877	-0,050	0,057
-521,189	20,726	0,039	-0,023
-520,175	-168,776	-0,130	0,004
-519,160	402,605	0,068	-0,105
-518,145	-200,000	-0,022	0,189
-517,131	-94,088	0,128	0,025
-516,116	165,247	0,039	-0,040
-515,102	-68,537	-0,017	-0,005
-514,087	-99,896	-0,130	0,023
-513,072	800,000	0,037	-0,103
-512,058	800,000	-0,004	-0,010
-511,043	254,097	0,098	0,122
-510,029	-200,000	-0,004	-0,056
-509,014	314,778	0,064	-0,089
-507,999	150,091	0,029	-0,029
-506,985	741,151	0,033	-0,065
-505,970	-81,577	-0,075	-0,018
-504,956	-200,000	0,018	0,105
-503,941	-200,000	0,009	0,075
-502,926	35,013	-0,062	0,040
-501,912	80,928	-0,057	0,045
-500,897	26,322	-0,115	0,070
-499,883	5,406	0,100	0,054
-498,868	-106,231	-0,025	0,004
-497,853	-105,181	-0,105	-0,017
-496,839	-114,610	0,043	0,006
-495,824	-10,462	0,043	-0,021
-494,810	-154,343	0,128	0,006
-493,795	-200,000	0,014	-0,076
-492,781	-93,432	-0,153	-0,031
-491,766	800,000	0,019	0,051
-490,751	31,376	0,040	-0,025
-489,737	-103,003	0,039	0,007
-488,722	274,695	-0,017	0,022
-487,708	-200,000	0,015	-0,130
-486,693	-168,378	-0,043	-0,001
-485,678	58,918	-0,047	0,034
-484,664	-94,738	-0,058	-0,011
-483,649	-146,118	0,102	0,006
-482,635	800,000	-0,009	-0,021
-481,620	-157,533	0,110	0,005
-480,605	65,944	-0,046	0,034
-479,591	392,035	0,076	0,115
-478,576	-40,969	-0,061	0,023
-477,562	800,000	0,045	-0,137
-476,547	779,085	0,047	-0,094
-475,532	181,426	0,033	0,036
-474,518	171,154	0,119	0,124
-473,503	800,000	0,047	0,125
-472,489	800,000	-0,007	-0,017
-471,474	284,343	-0,013	-0,018
-470,459	-200,000	0,000	-0,191
-469,445	114,614	-0,151	-0,134
-468,430	671,556	-0,070	-0,132
-467,416	800,000	-0,033	-0,095
-466,401	800,000	0,023	0,068
-465,386	-200,000	0,032	0,123
-464,372	53,627	0,057	0,040
-463,357	800,000	0,041	-0,112
-462,343	-200,000	-0,004	-0,155
-461,328	468,636	-0,077	-0,126
-460,313	18,751	-0,091	-0,053
-459,299	-54,495	0,118	0,039
-458,284	-113,558	-0,082	-0,012
-457,270	-9,238	0,050	-0,024
-456,255	800,000	-0,025	0,058
-455,241	402,233	-0,047	-0,072
-454,226	-200,000	-0,016	0,070
-453,211	523,079	0,047	0,080
-452,197	-200,000	0,001	-0,025
-451,182	46,592	0,053	0,036
-450,168	676,245	-0,013	0,024
-449,153	-26,467	0,135	0,057
-448,138	800,000	0,017	-0,044
-447,124	-3,469	0,097	-0,049
-446,109	800,000	0,046	-0,126
-445,095	-200,000	0,001	0,106
-444,080	-200,000	0,018	0,138
-443,065	-200,000	-0,056	0,194
-442,051	-52,788	-0,098	0,033
-441,036	-26,043	0,123	0,052
-440,022	-150,442	0,051	-0,003
-439,007	55,189	-0,059	-0,041
-437,992	-153,014	-0,080	0,004
-436,978	66,588	-0,029	-0,022
-435,963	-200,000	-0,017	0,126
-434,949	-1,501	-0,057	-0,029
-433,934	161,210	-0,114	-0,116
-432,919	-143,480	0,056	0,004
-431,905	460,006	0,059	0,096
-430,890	-200,000	0,022	0,168
-429,876	800,000	0,031	-0,069
-428,861	-3,182	0,094	0,048
-427,846	-130,283	-0,165	-0,016
-426,832	-15,601	-0,043	-0,020
-425,817	230,372	0,036	0,043
-424,803	-36,050	-0,018	0,007
-423,788	609,057	0,078	0,143
-422,773	-200,000	-0,006	-0,035
-421,759	421,659	0,029	0,045
-420,744	800,000	0,011	0,026
-419,730	-182,699	-0,057	-0,001
-418,715	-83,971	-0,110	0,025
-417,701	-200,000	-0,008	0,030
-416,686	-200,000	-0,001	-0,147
-415,671	178,470	-0,012	-0,013
-414,657	-3,552	-0,056	-0,028
-413,642	97,813	0,083	0,069
-412,628	800,000	0,042	0,115
-411,613	-48,112	0,020	0,007
-410,598	174,993	-0,039	-0,041
-409,584	-175,114	-0,021	-0,000
-408,569	800,000	0,027	-0,067
-407,555	-63,457	-0,078	0,023
-406,540	-129,510	-0,149	0,015
-405,525	1,811	-0,079	-0,041
-404,511	402,386	0,103	-0,158
-403,496	800,000	-0,014	0,042
-402,482	-200,000	-0,006	0,177
-401,467	0,087	0,136	0,070
-400,452	645,136	0,040	0,074
-399,438	-68,297	0,065	-0,018
-398,423	-200,000	0,015	0,104
-397,409	-119,536	-0,159	0,020
-396,394	777,776	-0,025	0,049
-395,379	-200,000	-0,028	-0,097
-394,365	800,000	0,024	-0,056
-393,350	112,134	0,066	0,057
-392,336	-200,000	0,013	-0,112
-391,321	371,719	0,076	0,113
-390,306	591,311	-0,030	-0,054
-389,292	800,000	0,040	-0,102
-388,277	-200,000	-0,024	0,236
-387,263	800,000	0,013	0,034
-386,248	-97,304	0,070	0,013
-385,233	577,384	0,021	0,037
-384,219	800,000	0,013	-0,035
-383,204	800,000	0,030	0,071
-382,190	-108,924	0,049	0,008
-381,175	800,000	0,031	0,093
-380,160	246,307	-0,064	0,079
-379,146	-73,759	-0,070	0,018
-378,131	-200,000	-0,003	0,058
-377,117	-10,649	0,035	-0,017
-376,102	-97,847	-0,272	-0,050
-375,088	540,262	0,059	-0,102
-374,073	324,719	0,030	-0,041
-373,058	-100,448	0,184	-0,033
-372,044	29,788	-0,025	-0,016
-371,029	-200,000	0,012	0,131
-370,015	198,734	-0,117	0,130
-369,000	144,494	-0,032	-0,031
-367,985	-200,000	-0,007	-0,056
-366,971	-171,733	0,024	0,001
-365,956	261,397	0,024	0,030
-364,942	-130,735	0,167	-0,016
-363,927	-200,000	0,023	0,127
-362,912	98,291	-0,100	0,083
-361,898	800,000	-0,029	-0,077
-360,883	-107,059	-0,088	-0,014
-359,869	-200,000	-0,027	0,119
-358,854	45,926	-0,059	-0,039
-357,839	-200,000	-0,010	0,044
-356,825	78,897	0,033	-0,026
-355,810	-173,111	0,132	-0,003
-354,796	80,090	0,066	-0,051
-353,781	117,748	0,080	-0,071
-352,766	-89,432	-0,044	-0,009
-351,752	-32,004	0,070	0,028
-350,737	-200,000	-0,007	-0,055
-349,723	748,451	0,063	0,124
-348,708	475,465	0,085	0,139
-347,693	-200,000	0,017	-0,086
-346,679	-26,216	-0,156	0,066
-345,664	-200,000	-0,013	-0,073
-344,650	129,265	0,152	-0,141
-343,635	-142,191	0,094	-0,007
-342,620	-200,000	-0,006	-0,026
-341,606	-142,234	0,192	0,014
-340,591	617,107	-0,029	0,053
-339,577	122,910	0,062	0,056
-338,562	3,072	-0,032	-0,017
-337,548	15,339	-0,041	0,023
-336,533	584,267	-0,053	-0,094
-335,518	-200,000	-0,015	0,111
-334,504	-200,000	-0,023	0,175
-333,489	-53,802	-0,094	0,031
-332,475	800,000	0,030	-0,067
-331,460	29,888	0,136	-0,084
-330,445	8,993	0,062	-0,034
-329,431	189,917	-0,047	0,051
-328,416	-82,988	0,106	0,025
-327,402	225,659	0,007	0,008
-326,387	28,091	-0,067	-0,041
-325,372	-44,454	0,055	0,020
-324,358	54,281	0,013	-0,009
-323,343	-72,518	0,110	0,029
-322,329	800,000	0,020	-0,044
-321,314	496,666	0,074	0,123
-320,299	41,825	0,073	0,048
-319,285	-157,826	0,112	-0,005
-318,270	201,375	-0,019	0,021
-317,256	-200,000	-0,022	-0,089
-316,241	710,181	-0,071	0,136
-315,226	-108,782	0,049	0,008
-314,212	-23,603	-0,076	0,033
-313,197	-110,052	0,070	0,011
-312,183	5,018	0,026	-0,014
-311,168	-104,872	0,113	-0,019
-310,153	-200,000	-0,009	0,063
-309,139	-200,000	-0,026	0,137
-308,124	42,747	0,017	-0,011
-307,110	201,499	0,082	0,092
-306,095	236,756	0,021	0,025
-305,080	-200,000	-0,027	0,226
-304,066	234,264	-0,062	-0,074
-303,051	246,042	0,012	-0,014
-302,037	111,885	-0,035	-0,031
-301,022	16,961	-0,107	-0,061
-300,008	124,568	0,027	0,025
-298,993	-200,000	0,003	-0,067
-297,978	-96,775	0,103	-0,019
-296,964	-45,913	-0,154	-0,055
-295,949	800,000	0,014	-0,040
-294,935	45,751	-0,142	-0,095
-293,920	77,501	-0,090	0,069
-292,905	6,709	0,105	0,057
-291,891	-152,468	-0,081	0,004
-290,876	800,000	-0,033	-0,071
-289,862	218,697	0,081	-0,094
-288,847	-70,660	0,025	0,007
-287,832	-45,609	-0,017	-0,006
-286,818	800,000	0,025	-0,052
-285,803	800,000	0,041	0,119
-284,789	-83,590	0,072	0,016
-283,774	-200,000	-0,000	0,107
-282,759	-200,000	0,010	0,181
-281,745	75,964	0,022	0,017
-280,730	61,959	0,057	-0,041
-279,716	539,917	-0,064	-0,110
-278,701	-18,005	0,073	0,033
-277,686	800,000	0,029	0,091
-276,672	-135,339	0,035	0,003
-275,657	-200,000	0,010	0,041
-274,643	-200,000	-0,035	-0,149
-273,628	-14,008	-0,122	-0,057
-272,613	117,634	0,076	-0,067
-271,599	-42,570	-0,068	-0,025
-270,584	145,478	0,033	-0,032
-269,570	654,614	0,038	-0,071
-268,555	800,000	-0,069	0,174
-267,540	15,950	0,088	-0,050
-266,526	-54,258	-0,174	-0,057
-265,511	-200,000	-0,005	-0,026
-264,497	-150,347	0,119	0,007
-263,482	-9,135	0,038	-0,018
-262,467	287,275	-0,092	0,120
-261,453	4,758	-0,042	-0,022
-260,438	68,758	-0,163	-0,121
-259,424	-200,000	-0,036	0,118
-258,409	584,269	-0,053	-0,095
-257,395	-200,000	0,015	0,112
-256,380	-200,000	-0,003	-0,025
-255,365	-93,121	0,260	-0,052
-254,351	800,000	0,053	0,121
-253,336	96,938	-0,045	0,038
-252,322	-100,617	-0,157	-0,028
-251,307	41,631	-0,052	-0,034
-250,292	256,226	0,040	-0,050
-249,278	104,203	0,064	-0,055
-248,263	462,655	0,041	0,067
-247,249	-169,874	0,072	-0,002
-246,234	-35,084	0,070	-0,027
-245,219	-200,000	0,005	0,060
-244,205	146,420	-0,081	-0,078
-243,190	91,719	0,091	-0,074
-242,176	196,686	0,058	0,064
-241,161	-13,286	0,102	0,048
-240,146	384,260	-0,093	0,139
-239,132	-200,000	0,015	0,223
-238,117	-156,962	-0,059	-0,003
-237,103	348,034	0,050	0,071
-236,088	93,109	0,077	-0,063
-235,073	84,621	-0,057	0,045
-234,059	260,962	0,007	-0,009
-233,044	-200,000	-0,038	0,188
-232,030	800,000	0,008	0,023
-231,015	-188,520	-0,109	-0,001
-230,000	178,434	0,074	-0,078
-228,986	-51,441	0,037	0,012
-227,971	-20,166	-0,115	0,051
-226,957	-200,000	-0,004	0,058
-225,942	113,049	0,065	-0,057
-224,927	81,970	0,060	-0,047
-223,913	-200,000	0,006	-0,110
-222,898	214,797	-0,089	0,102
-221,884	5,749	0,060	-0,032
-220,869	335,655	0,093	0,130
-219,855	-200,000	0,003	0,105
-218,840	55,033	-0,035	0,024
-217,825	127,501	-0,040	-0,036
-216,811	582,652	0,010	0,018
-215,796	-107,352	0,024	0,004
-214,782	798,219	0,090	-0,181
-213,767	4,458	0,072	0,038
-212,752	800,000	-0,041	0,115
-211,738	238,020	0,019	-0,022
-210,723	-47,345	0,050	-0,018
-209,709	-200,000	-0,009	-0,087
-208,694	800,000	-0,033	-0,075
-207,679	-175,814	-0,043	0,001
-206,665	-200,000	0,030	-0,164
-205,650	800,000	0,081	0,169
-204,636	-137,277	0,113	-0,009
-203,621	800,000	-0,018	-0,053
-202,606	-200,000	0,000	-0,002
-201,592	268,003	-0,064	-0,081
-200,577	-63,574	-0,057	-0,017
-199,563	-151,400	-0,044	-0,002
-198,548	-54,898	0,025	0,008
-197,533	-66,577	-0,072	-0,020
-196,519	800,000	-0,052	0,118
-195,504	-34,768	0,093	-0,036
-194,490	800,000	0,052	-0,130
-193,475	-45,063	0,063	0,022
-192,460	-15,533	0,082	-0,038
-191,446	-46,103	-0,145	0,051
-190,431	243,291	0,059	-0,072
-189,417	-53,706	0,136	-0,044
-188,402	-54,785	-0,002	0,001
-187,387	7,878	-0,015	0,008
-186,373	-200,000	-0,006	-0,102
-185,358	-65,120	-0,206	-0,059
-184,344	800,000	-0,032	0,095
-183,329	9,940	0,109	0,059
-182,315	-200,000	-0,035	0,122
-181,300	99,681	-0,096	-0,080
-180,285	-200,000	0,040	-0,128
-179,271	118,110	-0,093	-0,082
-178,256	235,760	0,082	0,098
-177,242	800,000	-0,072	0,148
-176,227	-200,000	0,002	0,041
-175,212	-11,706	-0,117	-0,055
-174,198	0,383	-0,122	0,063
-173,183	-117,490	-0,126	0,016
-172,169	-200,000	-0,011	-0,184
-171,154	-77,101	0,130	-0,032
-170,139	800,000	0,066	0,153
-169,125	800,000	-0,024	-0,050
-168,110	-139,009	-0,069	-0,005
-167,096	-61,191	0,119	-0,036
-166,081	146,909	-0,104	-0,101
-165,066	547,948	-0,079	-0,136
-164,052	-200,000	0,030	-0,107
-163,037	129,058	0,080	0,073
-162,023	461,502	0,105	-0,169
-161,008	56,611	-0,023	-0,016
-159,993	-72,541	0,131	-0,035
-158,979	717,028	0,053	-0,101
-157,964	-200,000	0,004	-0,065
-156,950	766,446	-0,050	0,098
-155,935	-155,562	0,258	-0,012
-154,920	150,234	-0,037	-0,036
-153,906	74,027	0,122	0,092
-152,891	-200,000	0,039	-0,131
-151,877	800,000	0,032	-0,067
-150,862	-87,372	-0,091	0,020
-149,847	-16,606	-0,100	0,045
-148,833	-200,000	-0,002	0,063
-147,818	-131,538	-0,120	0,011
-146,804	349,919	0,059	0,084
-145,789	-40,983	0,028	0,010
-144,775	-200,000	0,002	-0,110
-143,760	75,438	-0,025	-0,019
-142,745	363,200	-0,049	0,072
-141,731	264,196	-0,046	-0,057
-140,716	-200,000	0,003	0,089
-139,702	259,292	0,030	0,037
-138,687	-200,000	-0,027	-0,188
-137,672	-200,000	-0,014	-0,121
-136,658	32,439	-0,040	0,025
-135,643	-56,499	0,081	0,026
-134,629	-75,194	-0,076	0,019
-133,614	-200,000	-0,007	0,129
-132,599	-200,000	0,002	0,018
-131,585	-107,610	0,176	0,027
-130,570	136,976	-0,057	0,053
-129,556	-55,293	-0,143	0,046
-128,541	-200,000	-0,012	0,162
-127,526	72,489	0,132	0,099
-126,512	329,901	-0,023	0,033
-125,497	-200,000	-0,009	0,089
-124,483	800,000	-0,048	0,120
-123,468	-200,000	-0,000	0,107
-122,453	800,000	0,053	-0,107
-121,439	306,352	-0,060	-0,080
-120,424	-78,113	-0,120	-0,029
-119,410	321,799	-0,093	0,127
