DTS Sentinel unit serial number:	SN410029Multiplexer serial number:	ORYXHardware model number:	OX2-SRSoftware version number:	ORYX F/W v4,00 Oryx Data Collector v3.7.2.0data status	okinstallation	B6 Nyhavnadifferential loss correction	single-endedforward channel	channel 2reverse channel	N/Adate	2023/12/07time	14:50:08forward acquisition time	300,00reverse acquisition time	0,00gamma	499,1914k internal	0,3144k external	0,3144temperature offset calibration	1,0000default loss term (dB/km)	0,3820temperature slope calibration	1,0000multiplexer offset coefficient	1,0000multiplexer slope coefficient	1,0000fibre end	0,00T internal ref (°C)	14,03T ext. ref 1 (°C)	-1,80T ext. ref 2 (°C)	-1,78length (m)	temperature (°C)	Stokes	anti-Stokes-744,400	-41,969	0,115	0,043
-743,385	-100,908	-0,181	0,033
-742,371	-85,224	0,221	0,051
-741,356	-69,239	-0,260	0,074
-740,342	263,098	0,071	0,091
-739,327	-121,363	-0,323	-0,039
-738,312	-200,000	-0,051	-0,172
-737,298	-12,416	-0,322	-0,155
-736,283	-14,115	-0,017	-0,008
-735,269	-64,536	-0,287	0,086
-734,254	-85,831	0,106	-0,024
-733,239	-26,185	-0,492	-0,213
-732,225	674,033	0,030	0,058
-731,210	198,235	0,082	0,093
-730,196	-200,000	-0,009	0,146
-729,181	442,781	-0,092	-0,149
-728,167	409,320	-0,109	-0,172
-727,152	-26,174	-0,070	-0,030
-726,137	322,002	-0,041	-0,058
-725,123	-116,783	-0,100	0,013
-724,108	-53,940	-0,093	-0,031
-723,094	800,000	0,013	-0,030
-722,079	-59,401	-0,143	-0,045
-721,064	-48,008	0,065	0,023
-720,050	-161,819	-0,100	0,004
-719,035	-73,860	-0,099	0,026
-718,021	-80,168	-0,056	0,014
-717,006	-200,000	0,016	-0,110
-715,991	66,502	0,020	-0,015
-714,977	142,661	-0,083	0,082
-713,962	800,000	-0,076	-0,198
-712,948	85,979	-0,113	0,092
-711,933	81,832	0,048	-0,038
-710,918	141,408	0,048	0,047
-709,904	-200,000	-0,012	0,074
-708,889	-200,000	-0,029	-0,166
-707,875	-200,000	-0,001	0,120
-706,860	-39,304	0,075	-0,029
-705,845	226,114	-0,049	0,059
-704,831	-8,780	0,106	-0,052
-703,816	800,000	-0,020	-0,055
-702,802	36,566	-0,036	-0,023
-701,787	-113,488	-0,109	0,016
-700,772	81,430	0,018	0,014
-699,758	74,383	-0,082	-0,064
-698,743	-76,472	-0,054	-0,014
-697,729	517,627	-0,050	-0,086
-696,714	-200,000	-0,002	-0,052
-695,699	85,891	-0,076	-0,062
-694,685	-200,000	-0,006	-0,109
-693,670	-200,000	0,000	-0,056
-692,656	40,448	0,081	-0,054
-691,641	-200,000	0,001	0,154
-690,627	-69,346	-0,060	-0,017
-689,612	-193,086	0,119	-0,001
-688,597	800,000	-0,050	-0,117
-687,583	-156,985	-0,134	-0,006
-686,568	-26,054	0,076	-0,033
-685,554	-29,294	-0,174	-0,073
-684,539	-4,989	0,102	-0,052
-683,524	14,458	-0,116	0,067
-682,510	55,080	0,084	0,060
-681,495	134,082	0,039	-0,037
-680,481	-200,000	-0,026	-0,138
-679,466	-168,014	-0,031	-0,001
-678,451	-77,499	0,067	-0,017
-677,437	205,209	-0,061	0,071
-676,422	27,773	0,199	0,124
-675,408	64,010	-0,042	-0,031
-674,393	-200,000	-0,017	-0,062
-673,378	92,695	-0,119	0,099
-672,364	41,243	-0,127	-0,084
-671,349	112,176	-0,019	-0,017
-670,335	275,854	0,198	-0,260
-669,320	7,449	-0,063	-0,035
-668,305	207,915	0,137	-0,159
-667,291	800,000	-0,061	0,136
-666,276	-200,000	0,027	-0,123
-665,262	-123,042	-0,053	-0,006
-664,247	41,377	-0,086	0,057
-663,232	-147,003	-0,095	0,006
-662,218	800,000	0,079	0,179
-661,203	525,623	-0,038	-0,066
-660,189	800,000	-0,062	-0,166
-659,174	-22,740	-0,071	0,031
-658,159	7,670	-0,098	-0,054
-657,145	123,719	-0,112	-0,104
-656,130	800,000	0,058	-0,150
-655,116	-118,387	-0,002	-0,000
-654,101	431,669	0,058	-0,094
-653,086	137,961	-0,055	0,053
-652,072	-138,049	-0,098	-0,008
-651,057	-200,000	0,004	-0,161
-650,043	337,712	-0,034	-0,049
-649,028	234,015	-0,080	-0,097
-648,014	6,852	-0,133	0,073
-646,999	397,920	0,028	-0,043
-645,984	800,000	-0,032	0,091
-644,970	365,564	-0,050	-0,074
-643,955	502,114	-0,031	-0,053
-642,941	-200,000	-0,005	-0,059
-641,926	-82,382	-0,021	0,005
-640,911	-200,000	-0,007	0,029
-639,897	-27,051	0,083	0,036
-638,882	-200,000	-0,030	-0,108
-637,868	-15,091	-0,070	0,033
-636,853	-200,000	0,034	0,241
-635,838	-91,896	0,006	0,001
-634,824	31,495	-0,134	-0,085
-633,809	519,163	0,004	0,007
-632,795	-17,215	-0,047	-0,022
-631,780	-81,812	0,051	0,012
-630,765	222,683	0,049	-0,059
-629,751	406,561	-0,044	-0,068
-628,736	151,509	-0,081	-0,082
-627,722	800,000	-0,086	-0,241
-626,707	-200,000	0,003	-0,127
-625,692	365,244	0,109	0,163
-624,678	-10,666	0,062	-0,030
-623,663	106,476	-0,076	0,067
-622,649	800,000	-0,032	0,089
-621,634	548,728	-0,044	-0,077
-620,619	-200,000	-0,009	-0,067
-619,605	55,949	0,041	-0,030
-618,590	-200,000	-0,010	-0,112
-617,576	-71,471	-0,136	-0,037
-616,561	-200,000	0,014	-0,061
-615,546	800,000	-0,054	-0,130
-614,532	-200,000	0,006	-0,081
-613,517	89,368	-0,077	0,063
-612,503	218,767	0,132	-0,156
-611,488	800,000	0,084	0,204
-610,474	-167,283	0,078	-0,002
-609,459	-183,259	0,044	-0,001
-608,444	800,000	-0,022	0,068
-607,430	74,325	0,041	0,032
-606,415	95,424	0,051	0,043
-605,401	768,126	-0,090	0,181
-604,386	-200,000	0,028	-0,105
-603,371	800,000	-0,029	0,065
-602,357	572,347	-0,042	-0,076
-601,342	-1,110	-0,107	-0,055
-600,328	56,145	-0,032	-0,023
-599,313	101,396	0,042	-0,036
-598,298	211,170	0,057	-0,066
-597,284	22,739	0,013	0,008
-596,269	73,956	0,081	0,063
-595,255	184,373	0,082	0,090
-594,240	87,369	-0,053	-0,043
-593,225	123,508	-0,093	-0,085
-592,211	-200,000	0,002	-0,193
-591,196	-200,000	0,002	0,012
-590,182	-200,000	0,005	-0,048
-589,167	25,561	-0,120	-0,073
-588,152	800,000	-0,022	0,046
-587,138	-129,047	-0,161	0,016
-586,123	72,556	0,145	-0,111
-585,109	29,139	-0,059	-0,037
-584,094	182,362	-0,072	-0,078
-583,079	-36,906	0,080	0,031
-582,065	26,427	0,103	0,063
-581,050	7,252	0,091	0,050
-580,036	384,456	0,044	-0,067
-579,021	-123,061	-0,151	0,018
-578,006	-56,319	0,074	-0,024
-576,992	-55,973	-0,092	-0,030
-575,977	-83,482	0,120	0,028
-574,963	800,000	0,077	0,168
-573,948	687,951	0,090	0,174
-572,934	800,000	0,014	0,030
-571,919	800,000	-0,048	-0,105
-570,904	-41,464	0,072	-0,027
-569,890	388,118	-0,007	0,010
-568,875	-200,000	0,040	-0,154
-567,861	49,315	0,005	0,003
-566,846	-200,000	0,080	0,293
-565,831	204,052	0,076	-0,086
-564,817	-200,000	-0,002	-0,213
-563,802	-134,138	-0,142	-0,013
-562,788	648,722	0,030	0,058
-561,773	578,250	0,066	-0,118
-560,758	243,307	0,065	-0,080
-559,744	-200,000	0,024	0,118
-558,729	513,903	-0,090	0,155
-557,715	217,332	-0,055	-0,064
-556,700	107,425	-0,103	-0,090
-555,685	780,617	0,053	-0,107
-554,671	-51,832	-0,162	-0,055
-553,656	273,526	0,080	-0,105
-552,642	-200,000	0,010	-0,034
-551,627	-23,080	0,134	-0,059
-550,612	-165,662	-0,020	0,001
-549,598	175,969	-0,073	-0,077
-548,583	-10,564	0,059	-0,029
-547,569	583,872	-0,056	-0,101
-546,554	-3,660	0,149	0,076
-545,539	-200,000	-0,092	-0,000
-544,525	5,020	0,039	0,021
-543,510	-81,859	-0,134	0,032
-542,496	800,000	-0,039	-0,096
-541,481	193,092	-0,054	0,061
-540,466	-200,000	-0,015	-0,054
-539,452	27,801	-0,077	0,048
-538,437	85,347	0,069	-0,056
-537,423	-93,095	-0,060	-0,012
-536,408	-69,831	-0,025	-0,007
-535,393	33,021	0,036	-0,023
-534,379	-36,634	-0,091	-0,036
-533,364	-150,447	0,144	-0,008
-532,350	572,958	0,064	-0,116
-531,335	133,899	0,056	0,053
-530,321	-200,000	0,061	0,198
-529,306	-27,838	0,027	0,011
-528,291	-124,140	-0,099	-0,011
-527,277	434,380	0,116	-0,186
-526,262	-161,544	0,068	-0,003
-525,248	-200,000	0,008	0,038
-524,233	245,010	0,058	0,071
-523,218	-200,000	-0,008	0,104
-522,204	9,769	0,113	0,063
-521,189	-149,591	-0,176	0,010
-520,175	-22,641	-0,046	-0,020
-519,160	56,960	-0,109	-0,078
-518,145	107,802	0,032	-0,028
-517,131	-98,975	0,074	0,014
-516,116	473,617	-0,072	0,119
-515,102	-109,494	-0,122	0,019
-514,087	435,271	0,061	-0,097
-513,072	-89,748	-0,098	0,021
-512,058	113,835	-0,058	-0,051
-511,043	596,138	-0,044	-0,081
-510,029	423,264	-0,020	0,032
-509,014	272,094	0,111	0,144
-507,999	-143,886	0,106	0,007
-506,985	312,724	-0,062	0,086
-505,970	365,924	-0,008	-0,011
-504,956	255,554	0,043	-0,055
-503,941	800,000	0,026	-0,053
-502,926	-47,072	0,107	0,038
-501,912	-200,000	0,012	0,057
-500,897	-200,000	-0,015	0,085
-499,883	-112,803	-0,082	0,012
-498,868	800,000	0,059	-0,122
-497,853	-30,987	-0,062	-0,026
-496,839	231,233	-0,035	-0,042
-495,824	61,324	0,039	0,028
-494,810	800,000	0,034	0,095
-493,795	-12,108	0,021	0,010
-492,781	143,245	0,047	0,046
-491,766	-200,000	-0,005	-0,064
-490,751	238,664	0,042	0,052
-489,737	-200,000	0,001	-0,071
-488,722	-108,536	-0,058	-0,009
-487,708	-122,275	-0,109	-0,013
-486,693	-200,000	0,018	0,166
-485,678	478,752	-0,084	0,141
-484,664	-25,300	-0,024	0,010
-483,649	93,108	-0,089	0,073
-482,635	-70,316	0,147	0,041
-481,620	-200,000	0,006	-0,057
-480,605	-200,000	0,021	0,179
-479,591	214,648	0,036	-0,042
-478,576	-200,000	-0,004	-0,063
-477,562	131,034	-0,040	-0,037
-476,547	-39,115	-0,043	-0,016
-475,532	-131,433	0,078	-0,007
-474,518	-72,184	0,080	0,021
-473,503	-200,000	-0,022	-0,086
-472,489	-200,000	0,009	0,127
-471,474	-200,000	0,031	0,105
-470,459	4,200	0,082	-0,044
-469,445	-200,000	0,012	-0,077
-468,430	125,873	-0,012	0,012
-467,416	-200,000	-0,007	0,053
-466,401	-200,000	-0,008	-0,038
-465,386	-126,623	-0,047	0,005
-464,372	-140,198	-0,127	0,010
-463,357	-200,000	-0,005	-0,032
-462,343	800,000	0,022	-0,071
-461,328	385,735	0,036	0,054
-460,313	-200,000	0,024	0,099
-459,299	455,190	0,059	-0,097
-458,284	-56,807	-0,080	0,026
-457,270	-151,775	0,045	-0,002
-456,255	49,331	0,021	0,014
-455,241	241,794	-0,115	-0,141
-454,226	138,274	0,040	0,038
-453,211	-187,522	0,104	-0,001
-452,197	800,000	0,060	-0,156
-451,182	76,987	0,038	-0,029
-450,168	688,588	0,028	-0,054
-449,153	-120,708	-0,156	-0,019
-448,138	-162,134	-0,123	-0,004
-447,124	68,341	-0,064	-0,048
-446,109	-64,396	-0,211	0,062
-445,095	96,151	-0,077	0,065
-444,080	-200,000	0,001	0,133
-443,065	482,691	-0,042	0,070
-442,051	224,705	-0,040	-0,048
-441,036	268,944	-0,044	-0,056
-440,022	-37,651	-0,038	0,015
-439,007	23,654	-0,025	-0,015
-437,992	379,108	-0,026	-0,039
-436,978	-189,394	-0,063	0,001
-435,963	237,456	0,054	-0,065
-434,949	332,982	-0,048	0,068
-433,934	328,649	-0,093	0,130
-432,919	253,555	-0,118	-0,147
-431,905	273,131	-0,112	-0,145
-430,890	800,000	0,035	0,071
-429,876	800,000	-0,015	0,046
-428,861	-48,640	0,065	0,023
-427,846	-107,137	0,101	0,016
-426,832	356,631	0,028	0,040
-425,817	800,000	0,035	-0,108
-424,803	-195,220	0,017	0,000
-423,788	-63,655	0,113	0,034
-422,773	-200,000	0,011	0,118
-421,759	162,092	0,015	0,016
-420,744	231,606	-0,107	0,128
-419,730	322,025	-0,079	-0,110
-418,715	-38,360	-0,057	0,022
-417,701	800,000	0,016	0,044
-416,686	-88,546	0,059	0,013
-415,671	31,266	0,203	0,127
-414,657	-200,000	-0,042	0,135
-413,642	-200,000	0,014	-0,058
-412,628	-200,000	0,035	-0,172
-411,613	5,571	0,067	-0,036
-410,598	-200,000	0,002	-0,245
-409,584	-200,000	-0,038	0,253
-408,569	-200,000	0,033	0,138
-407,555	-157,717	-0,099	0,004
-406,540	-200,000	0,031	-0,120
-405,525	800,000	-0,042	-0,100
-404,511	138,443	-0,098	-0,094
-403,496	-200,000	-0,011	0,039
-402,482	-200,000	0,005	-0,137
-401,467	800,000	0,042	0,090
-400,452	120,040	0,034	-0,031
-399,438	-118,509	0,155	-0,020
-398,423	800,000	-0,011	0,029
-397,409	60,793	-0,022	0,016
-396,394	-200,000	0,022	-0,083
-395,379	-89,463	-0,038	-0,008
-394,365	-80,251	0,092	0,022
-393,350	-12,055	0,142	0,068
-392,336	-105,917	0,078	-0,013
-391,321	-159,955	-0,091	0,004
-390,306	-200,000	-0,012	-0,148
-389,292	-200,000	0,005	-0,087
-388,277	-85,422	0,070	0,016
-387,263	161,779	0,073	-0,075
-386,248	-134,728	-0,041	-0,004
-385,233	-200,000	0,005	-0,033
-384,219	349,195	-0,072	0,104
-383,204	56,731	-0,095	-0,067
-382,190	45,102	0,112	-0,076
-381,175	623,940	-0,022	0,041
-380,160	94,030	0,068	-0,056
-379,146	299,936	0,059	0,079
-378,131	-41,822	0,119	0,044
-377,117	-93,497	0,053	0,011
-376,102	27,207	0,045	0,027
-375,088	-90,377	-0,116	0,024
-374,073	-200,000	-0,014	-0,069
-373,058	-151,439	-0,067	0,004
-372,044	32,138	0,066	-0,041
-371,029	-22,088	-0,035	0,015
-370,015	-63,423	0,136	-0,040
-369,000	-200,000	0,013	-0,109
-367,985	112,839	0,027	-0,024
-366,971	-200,000	-0,011	-0,051
-365,956	800,000	0,067	-0,159
-364,942	-117,142	0,123	0,016
-363,927	800,000	-0,065	0,170
-362,912	800,000	-0,021	0,065
-361,898	-200,000	-0,003	0,085
-360,883	800,000	-0,044	-0,119
-359,869	-200,000	-0,005	-0,127
-358,854	13,329	0,010	0,006
-357,839	-155,860	0,054	0,002
-356,825	-200,000	-0,008	0,074
-355,810	15,723	0,082	-0,047
-354,796	739,289	-0,013	0,026
-353,781	416,529	0,047	-0,073
-352,766	550,585	-0,038	0,066
-351,752	-200,000	-0,017	-0,138
-350,737	-200,000	-0,026	0,110
-349,723	-122,419	0,084	0,010
-348,708	-200,000	0,004	-0,024
-347,693	800,000	-0,038	0,092
-346,679	393,362	-0,108	-0,165
-345,664	-200,000	0,015	0,088
-344,650	506,317	0,025	0,043
-343,635	97,114	0,040	0,033
-342,620	-21,353	0,137	0,061
-341,606	-131,922	-0,073	-0,007
-340,591	100,582	0,078	0,066
-339,577	77,651	-0,041	-0,032
-338,562	-200,000	0,005	0,033
-337,548	-200,000	-0,069	0,000
-336,533	128,933	0,134	-0,125
-335,518	800,000	-0,011	-0,024
-334,504	724,996	0,028	0,056
-333,489	15,401	0,104	-0,059
-332,475	125,720	-0,059	-0,054
-331,460	41,117	0,029	0,019
-330,445	-84,753	-0,121	0,028
-329,431	800,000	-0,036	0,084
-328,416	-14,194	0,100	0,047
-327,402	178,357	0,079	-0,084
-326,387	800,000	0,027	0,082
-325,372	-75,714	0,145	-0,037
-324,358	-96,730	0,028	-0,005
-323,343	-89,354	-0,104	-0,022
-322,329	-200,000	0,022	0,078
-321,314	46,417	0,058	-0,039
-320,299	800,000	0,021	0,043
-319,285	-200,000	0,027	0,121
-318,270	84,927	0,059	-0,047
-317,256	-16,479	-0,016	-0,007
-316,241	-59,352	-0,037	-0,011
-315,226	-53,150	-0,017	-0,006
-314,212	800,000	0,021	0,063
-313,197	69,851	0,086	0,064
-312,183	16,889	-0,064	0,037
-311,168	-101,798	0,011	-0,002
-310,153	-200,000	-0,037	-0,142
-309,139	42,262	-0,013	0,009
-308,124	-200,000	-0,011	-0,045
-307,110	-200,000	0,022	-0,123
-306,095	-110,985	0,044	0,006
-305,080	-200,000	0,038	0,212
-304,066	800,000	-0,042	0,101
-303,051	317,233	0,008	0,011
-302,037	-133,675	0,072	-0,006
-301,022	-21,199	0,007	-0,003
-300,008	34,315	-0,113	0,072
-298,993	42,963	0,130	0,086
-297,978	3,982	-0,207	0,110
-296,964	-200,000	-0,045	-0,147
-295,949	-112,497	0,165	-0,024
-294,935	434,214	-0,041	-0,065
-293,920	202,425	0,017	-0,019
-292,905	-200,000	-0,025	-0,093
-291,891	-200,000	0,022	0,078
-290,876	-200,000	-0,002	0,054
-289,862	-200,000	-0,059	-0,303
-288,847	107,265	-0,050	0,044
-287,832	-200,000	-0,002	-0,069
-286,818	-196,462	0,019	0,000
-285,803	519,188	0,053	-0,090
-284,789	105,326	0,053	0,045
-283,774	-4,325	-0,093	0,047
-282,759	-200,000	0,011	-0,065
-281,745	543,376	-0,089	-0,156
-280,730	-200,000	0,027	-0,185
-279,716	35,619	0,036	0,023
-278,701	-163,731	-0,122	0,004
-277,686	71,251	0,077	-0,058
-276,672	-10,312	-0,158	0,076
-275,657	149,854	0,027	-0,026
-274,643	17,962	-0,062	-0,036
-273,628	-108,393	-0,107	-0,017
-272,613	-200,000	-0,014	0,061
-271,599	-61,385	-0,035	-0,011
-270,584	177,335	0,073	-0,077
-269,570	13,732	0,054	0,031
-268,555	800,000	0,014	-0,039
-267,540	800,000	-0,020	-0,056
-266,526	-67,107	-0,039	0,011
-265,511	-120,291	0,114	-0,014
-264,497	29,954	-0,045	0,028
-263,482	213,792	0,083	0,095
-262,467	7,749	-0,040	-0,022
-261,453	755,593	0,076	0,151
-260,438	35,532	-0,050	-0,032
-259,424	-22,515	-0,126	0,055
-258,409	-200,000	0,013	-0,066
-257,395	51,163	0,046	-0,031
-256,380	-200,000	-0,008	0,081
-255,365	415,079	-0,059	0,092
-254,351	-200,000	-0,009	-0,061
-253,336	135,526	0,086	-0,081
-252,322	572,072	0,020	-0,036
-251,307	-200,000	-0,009	-0,047
-250,292	-200,000	-0,011	0,159
-249,278	-200,000	-0,017	0,080
-248,263	313,557	0,046	0,063
-247,249	-26,325	-0,144	0,061
-246,234	409,819	0,048	-0,075
-245,219	-116,036	-0,112	0,015
-244,205	-76,064	-0,155	-0,040
-243,190	-139,217	-0,048	0,004
-242,176	800,000	-0,048	0,100
-241,161	466,644	0,058	0,095
-240,146	74,116	0,086	0,065
-239,132	476,668	-0,090	0,149
-238,117	-200,000	-0,035	-0,115
-237,103	105,507	-0,085	-0,073
-236,088	-110,119	-0,109	-0,016
-235,073	800,000	0,031	0,072
-234,059	800,000	0,104	0,228
-233,044	-109,844	0,154	-0,023
-232,030	-200,000	0,005	0,050
-231,015	800,000	0,040	0,117
-230,000	800,000	0,012	-0,033
-228,986	689,637	-0,068	0,130
-227,971	-200,000	0,010	-0,105
-226,957	74,736	-0,053	0,040
-225,942	-131,913	-0,172	-0,016
-224,927	742,221	-0,019	-0,037
-223,913	441,078	-0,021	-0,034
-222,898	150,689	0,051	0,051
-221,884	470,125	0,068	0,111
-220,869	-47,822	-0,108	0,038
-219,855	230,396	0,046	-0,055
-218,840	309,698	0,060	0,081
-217,825	-200,000	0,007	0,073
-216,811	800,000	0,025	0,052
-215,796	132,588	-0,141	-0,132
-214,782	-119,362	-0,029	0,004
-213,767	147,871	0,061	0,060
-212,752	-94,793	0,045	0,009
-211,738	-105,365	-0,066	0,011
-210,723	261,283	0,040	-0,050
-209,709	-200,000	0,001	-0,052
-208,694	559,596	-0,058	-0,101
-207,679	-200,000	-0,023	0,087
-206,665	-58,357	0,120	0,037
-205,650	-200,000	0,001	-0,030
-204,636	-200,000	0,007	-0,076
-203,621	-11,247	-0,026	-0,012
-202,606	-130,812	-0,123	0,012
-201,592	310,286	-0,041	-0,056
-200,577	62,818	0,055	0,040
-199,563	571,191	-0,094	0,166
-198,548	-92,806	0,107	-0,022
-197,533	594,933	0,082	0,148
-196,519	531,162	0,048	0,083
-195,504	70,880	-0,064	0,048
-194,490	800,000	0,031	0,097
-193,475	232,382	-0,038	0,046
-192,460	785,037	-0,090	0,179
-191,446	-200,000	-0,002	0,108
-190,431	740,268	0,047	-0,093
-189,417	800,000	0,021	0,060
-188,402	800,000	-0,033	0,088
-187,387	30,428	0,028	0,017
-186,373	-99,724	-0,129	-0,023
-185,358	-153,510	0,050	0,002
-184,344	343,318	-0,080	0,114
-183,329	800,000	-0,009	-0,028
-182,315	265,682	0,056	0,071
-181,300	-200,000	0,043	-0,159
-180,285	452,647	-0,041	-0,066
-179,271	-21,330	0,063	-0,028
-178,256	800,000	0,027	0,059
-177,242	-50,941	0,136	-0,046
-176,227	3,899	-0,034	-0,018
-175,212	-200,000	-0,004	0,154
-174,198	148,447	0,062	0,061
-173,183	41,945	0,104	-0,068
-172,169	800,000	0,016	-0,037
-171,154	359,330	-0,081	-0,118
-170,139	241,522	-0,096	-0,116
-169,125	-118,213	0,079	0,010
-168,110	-101,865	-0,034	-0,006
-167,096	-200,000	-0,007	0,046
-166,081	800,000	-0,029	-0,083
-165,066	24,367	0,057	0,034
-164,052	265,998	-0,066	-0,083
-163,037	426,764	0,029	-0,045
-162,023	495,782	-0,074	0,124
-161,008	-200,000	0,043	0,169
-159,993	-200,000	0,012	-0,050
-158,979	-106,810	0,105	-0,017
-157,964	-71,100	-0,196	-0,053
-156,950	-12,380	0,065	-0,031
-155,935	-181,562	0,157	0,002
-154,920	406,968	-0,079	0,121
-153,906	800,000	0,068	0,148
-152,891	-57,330	0,215	0,068
-151,877	800,000	0,013	-0,037
-150,862	244,262	0,073	-0,089
-149,847	327,006	-0,072	0,100
-148,833	-108,553	0,127	0,020
-147,818	678,109	-0,054	0,102
-146,804	2,990	0,068	-0,036
-145,789	-200,000	0,000	0,047
-144,775	-10,817	-0,095	-0,045
-143,760	-200,000	-0,016	0,067
-142,745	800,000	-0,052	-0,123
-141,731	-134,064	0,187	0,017
-140,716	-5,523	0,046	-0,023
-139,702	-76,668	-0,104	0,026
-138,687	800,000	0,049	0,101
-137,672	764,773	0,020	-0,039
-136,658	800,000	0,013	-0,030
-135,643	-94,332	-0,120	-0,023
-134,629	115,511	-0,041	0,036
-133,614	-200,000	0,000	0,177
-132,599	-76,131	0,029	-0,007
-131,585	-11,008	-0,063	0,030
-130,570	337,528	-0,041	0,058
-129,556	34,060	0,099	0,062
-128,541	581,800	-0,049	-0,087
-127,526	800,000	0,045	0,095
-126,512	-172,982	0,169	-0,004
-125,497	484,269	0,080	0,132
-124,483	-200,000	-0,016	0,059
-123,468	620,809	-0,056	0,103
-122,453	800,000	-0,043	0,103
-121,439	-200,000	-0,006	-0,087
-120,424	-143,962	-0,171	0,011
-119,410	-200,000	0,011	0,115
