DTS Sentinel unit serial number:	SN410029Multiplexer serial number:	ORYXHardware model number:	OX2-SRSoftware version number:	ORYX F/W v4,00 Oryx Data Collector v3.7.2.0data status	okinstallation	B6 Nyhavnadifferential loss correction	single-endedforward channel	channel 2reverse channel	N/Adate	2023/12/10time	12:20:08forward acquisition time	300,00reverse acquisition time	0,00gamma	499,1914k internal	0,3122k external	0,3122temperature offset calibration	1,0000default loss term (dB/km)	0,3820temperature slope calibration	1,0000multiplexer offset coefficient	1,0000multiplexer slope coefficient	1,0000fibre end	0,00T internal ref (°C)	22,76T ext. ref 1 (°C)	6,66T ext. ref 2 (°C)	6,67length (m)	temperature (°C)	Stokes	anti-Stokes-744,400	-200,000	0,002	-0,026
-743,385	72,279	-0,283	0,220
-742,371	194,329	0,024	0,027
-741,356	66,684	-0,262	0,199
-740,342	-50,731	0,054	-0,019
-739,327	181,599	-0,055	-0,060
-738,312	-200,000	-0,018	-0,086
-737,298	33,117	-0,235	0,151
-736,283	122,501	0,099	-0,092
-735,269	-50,320	-0,166	0,058
-734,254	800,000	0,042	0,096
-733,239	-181,476	-0,469	-0,007
-732,225	-47,933	0,197	-0,071
-731,210	-200,000	-0,010	0,045
-730,196	406,859	0,036	0,058
-729,181	-105,805	-0,120	-0,020
-728,167	800,000	0,020	-0,045
-727,152	-84,868	0,077	0,018
-726,137	106,210	-0,032	-0,028
-725,123	-54,340	-0,093	0,031
-724,108	121,441	0,040	0,037
-723,094	131,556	-0,018	-0,017
-722,079	-16,646	0,039	0,018
-721,064	-145,427	-0,056	0,004
-720,050	489,588	0,044	0,076
-719,035	-49,893	-0,012	0,004
-718,021	-200,000	-0,001	-0,012
-717,006	800,000	-0,039	0,102
-715,991	-165,174	-0,124	-0,004
-714,977	-115,884	-0,096	0,013
-713,962	99,574	-0,089	-0,077
-712,948	800,000	-0,011	-0,035
-711,933	258,938	-0,045	-0,058
-710,918	-200,000	-0,003	0,067
-709,904	164,068	-0,114	-0,120
-708,889	-200,000	0,000	-0,112
-707,875	293,305	-0,044	0,060
-706,860	676,563	-0,047	0,090
-705,845	-42,358	0,094	-0,035
-704,831	800,000	-0,015	-0,049
-703,816	158,205	-0,018	-0,019
-702,802	-52,540	-0,155	-0,053
-701,787	-47,750	-0,016	0,006
-700,772	-128,841	-0,172	0,018
-699,758	-200,000	0,029	-0,200
-698,743	322,254	0,023	0,032
-697,729	42,067	0,124	0,083
-696,714	-65,873	0,094	0,028
-695,699	782,611	0,030	-0,062
-694,685	-73,824	-0,096	-0,026
-693,670	-30,661	-0,094	0,040
-692,656	231,428	0,037	0,045
-691,641	-200,000	0,010	-0,046
-690,627	427,848	0,065	-0,104
-689,612	-200,000	-0,023	0,080
-688,597	-200,000	-0,046	-0,161
-687,583	789,513	-0,075	-0,153
-686,568	-200,000	-0,004	-0,068
-685,554	-200,000	0,036	0,128
-684,539	20,918	0,039	0,023
-683,524	151,368	0,027	0,028
-682,510	-200,000	0,002	0,080
-681,495	-104,033	-0,083	-0,014
-680,481	-71,628	0,056	-0,016
-679,466	354,010	-0,080	-0,118
-678,451	506,394	0,065	-0,113
-677,437	237,320	-0,022	-0,027
-676,422	-142,065	0,169	0,012
-675,408	800,000	0,027	0,069
-674,393	723,683	0,081	-0,161
-673,378	494,228	-0,047	-0,081
-672,364	297,878	-0,058	-0,079
-671,349	-200,000	0,014	0,096
-670,335	88,653	0,073	-0,060
-669,320	-139,292	-0,098	0,008
-668,305	-141,249	-0,058	0,004
-667,291	-100,841	0,075	0,014
-666,276	-94,207	0,144	0,029
-665,262	800,000	-0,041	-0,101
-664,247	59,274	0,041	-0,030
-663,232	-200,000	0,010	-0,161
-662,218	489,614	0,003	0,004
-661,203	-132,570	0,106	-0,010
-660,189	800,000	-0,060	-0,132
-659,174	-200,000	0,010	0,079
-658,159	-200,000	0,012	-0,109
-657,145	133,548	-0,096	-0,093
-656,130	308,392	-0,055	-0,076
-655,116	-26,021	-0,011	-0,005
-654,101	800,000	0,065	-0,171
-653,086	423,159	-0,027	-0,044
-652,072	-48,032	-0,094	-0,034
-651,057	160,898	0,047	-0,049
-650,043	647,725	-0,029	-0,055
-649,028	750,611	0,026	-0,053
-648,014	-117,803	0,074	0,010
-646,999	-200,000	-0,001	0,107
-645,984	-34,804	0,067	0,027
-644,970	-200,000	-0,007	0,037
-643,955	96,670	-0,064	-0,055
-642,941	9,738	0,076	-0,043
-641,926	800,000	-0,004	0,010
-640,911	91,847	0,065	-0,054
-639,897	122,640	0,164	0,152
-638,882	-200,000	0,005	0,116
-637,868	49,276	-0,089	-0,062
-636,853	-126,960	0,070	-0,008
-635,838	-200,000	0,001	0,026
-634,824	89,250	-0,109	-0,090
-633,809	-106,809	0,068	0,011
-632,795	618,836	-0,098	-0,183
-631,780	67,581	0,090	-0,068
-630,765	57,029	-0,166	0,120
-629,751	-25,583	0,037	-0,016
-628,736	247,386	0,041	0,051
-627,722	-200,000	0,010	-0,104
-626,707	7,705	0,039	-0,022
-625,692	800,000	0,042	0,093
-624,678	-200,000	-0,021	0,110
-623,663	-200,000	0,003	-0,169
-622,649	800,000	0,016	-0,035
-621,634	800,000	-0,028	0,069
-620,619	80,449	-0,105	-0,084
-619,605	403,937	-0,022	-0,034
-618,590	-200,000	-0,039	0,153
-617,576	-153,682	0,161	-0,008
-616,561	-10,738	0,125	-0,061
-615,546	24,269	-0,095	-0,058
-614,532	46,479	-0,082	-0,056
-613,517	224,723	0,069	-0,083
-612,503	-200,000	-0,010	-0,085
-611,488	-88,868	-0,096	0,021
-610,474	29,855	0,034	-0,021
-609,459	313,441	-0,094	0,132
-608,444	78,534	0,061	0,048
-607,430	-117,805	0,064	0,008
-606,415	-200,000	-0,021	-0,100
-605,401	-16,035	-0,015	-0,007
-604,386	-172,742	-0,044	-0,001
-603,371	-200,000	-0,019	0,125
-602,357	-1,516	-0,161	0,084
-601,342	800,000	-0,052	-0,111
-600,328	-200,000	-0,010	-0,080
-599,313	-200,000	-0,017	-0,136
-598,298	-13,554	0,138	0,066
-597,284	-200,000	0,004	0,017
-596,269	-159,950	0,201	-0,008
-595,255	73,717	0,029	0,023
-594,240	209,544	-0,045	0,052
-593,225	-200,000	0,004	0,049
-592,211	800,000	-0,023	-0,071
-591,196	-200,000	-0,008	0,093
-590,182	-74,034	-0,110	-0,029
-589,167	-200,000	0,020	0,103
-588,152	61,363	-0,073	0,054
-587,138	-69,849	-0,088	0,025
-586,123	310,510	-0,045	0,062
-585,109	6,800	-0,018	-0,010
-584,094	-164,826	-0,032	0,001
-583,079	113,060	0,130	0,117
-582,065	98,238	-0,046	-0,039
-581,050	31,334	0,021	-0,013
-580,036	393,858	-0,036	0,056
-579,021	693,470	-0,069	-0,134
-578,006	-11,184	-0,065	-0,031
-576,992	-51,566	0,133	0,046
-575,977	4,145	0,075	-0,040
-574,963	115,648	-0,144	0,130
-573,948	-200,000	-0,020	0,201
-572,934	-165,494	-0,118	-0,004
-571,919	-60,333	-0,052	-0,016
-570,904	-200,000	-0,005	-0,157
-569,890	-200,000	0,015	-0,110
-568,875	-118,730	0,138	-0,018
-567,861	337,044	0,099	0,142
-566,846	117,317	0,081	0,073
-565,831	-115,367	-0,090	0,012
-564,817	800,000	-0,026	0,066
-563,802	-134,640	-0,122	-0,011
-562,788	-27,762	-0,101	-0,043
-561,773	110,855	0,042	0,038
-560,758	-200,000	0,008	-0,081
-559,744	-200,000	-0,001	-0,010
-558,729	-200,000	0,005	0,075
-557,715	800,000	-0,009	0,022
-556,700	800,000	-0,016	-0,054
-555,685	-68,687	0,097	-0,028
-554,671	-200,000	0,033	-0,125
-553,656	-44,907	-0,116	0,043
-552,642	-60,649	-0,068	-0,021
-551,627	213,631	-0,050	0,059
-550,612	-11,720	0,084	0,041
-549,598	278,580	-0,069	-0,092
-548,583	434,931	-0,021	0,034
-547,569	-200,000	-0,015	0,090
-546,554	65,522	0,110	-0,082
-545,539	218,631	0,089	-0,106
-544,525	146,046	0,167	0,166
-543,510	163,152	-0,135	-0,141
-542,496	-156,065	0,080	0,004
-541,481	-200,000	0,003	-0,075
-540,466	-146,813	0,129	0,008
-539,452	6,160	0,120	0,066
-538,437	-200,000	0,008	-0,048
-537,423	800,000	-0,042	-0,097
-536,408	192,525	-0,090	-0,100
-535,393	-200,000	0,008	-0,031
-534,379	49,890	-0,138	-0,096
-533,364	194,818	0,094	-0,106
-532,350	-200,000	-0,004	-0,068
-531,335	-78,363	-0,071	0,018
-530,321	-90,565	0,098	-0,021
-529,306	800,000	-0,072	0,192
-528,291	640,853	-0,067	-0,127
-527,277	759,084	0,038	-0,077
-526,262	322,196	-0,109	-0,154
-525,248	204,780	-0,036	0,042
-524,233	-134,577	0,025	-0,002
-523,218	-200,000	0,028	0,099
-522,204	80,872	-0,086	0,069
-521,189	147,011	-0,090	-0,090
-520,175	-84,464	0,049	0,011
-519,160	-37,796	0,059	-0,023
-518,145	69,759	0,038	-0,029
-517,131	-200,000	0,012	-0,052
-516,116	-75,468	-0,085	-0,022
-515,102	-200,000	0,009	0,033
-514,087	257,102	0,060	-0,076
-513,072	-200,000	-0,015	-0,115
-512,058	-80,765	0,060	-0,015
-511,043	63,655	0,033	0,025
-510,029	681,253	-0,010	0,020
-509,014	800,000	0,029	0,082
-507,999	-200,000	0,009	0,096
-506,985	-200,000	-0,005	0,047
-505,970	-200,000	-0,019	-0,081
-504,956	-200,000	0,002	0,011
-503,941	800,000	0,006	0,013
-502,926	-79,783	0,035	0,009
-501,912	117,440	0,058	-0,053
-500,897	337,995	-0,093	-0,133
-499,883	148,672	-0,042	0,042
-498,868	800,000	0,043	-0,112
-497,853	-200,000	0,013	-0,130
-496,839	800,000	-0,050	0,132
-495,824	-200,000	0,016	-0,076
-494,810	-112,680	0,065	-0,009
-493,795	-200,000	0,006	-0,053
-492,781	-41,882	-0,074	0,028
-491,766	-115,977	-0,053	0,007
-490,751	105,025	-0,030	-0,026
-489,737	49,266	0,089	0,062
-488,722	88,197	0,149	0,122
-487,708	-200,000	0,016	0,091
-486,693	-131,488	0,068	0,007
-485,678	800,000	-0,030	0,064
-484,664	37,988	-0,144	-0,095
-483,649	-200,000	-0,022	-0,083
-482,635	-200,000	-0,069	-0,227
-481,620	-200,000	-0,024	0,117
-480,605	800,000	-0,035	-0,106
-479,591	-200,000	-0,030	-0,122
-478,576	157,283	0,089	-0,091
-477,562	743,916	-0,092	-0,184
-476,547	10,141	-0,019	-0,011
-475,532	-87,797	0,071	-0,016
-474,518	-28,268	0,095	0,040
-473,503	-131,628	-0,061	0,006
-472,489	-174,005	-0,052	-0,001
-471,474	330,818	0,124	-0,176
-470,459	-200,000	0,003	-0,098
-469,445	7,177	-0,110	0,060
-468,430	-53,919	0,060	-0,020
-467,416	-200,000	0,001	0,098
-466,401	102,130	0,039	0,034
-465,386	-36,876	0,072	0,029
-464,372	469,786	-0,095	-0,157
-463,357	441,433	0,032	-0,051
-462,343	-200,000	-0,012	-0,148
-461,328	-104,242	0,079	0,013
-460,313	285,777	-0,084	0,112
-459,299	-29,916	-0,042	0,018
-458,284	-200,000	-0,005	0,041
-457,270	-200,000	-0,032	0,153
-456,255	-200,000	0,004	-0,018
-455,241	-17,986	-0,124	-0,057
-454,226	452,572	0,052	-0,085
-453,211	-8,535	0,113	0,056
-452,197	14,507	0,056	-0,032
-451,182	385,766	0,113	0,173
-450,168	651,381	0,027	0,051
-449,153	-200,000	0,009	-0,065
-448,138	-6,678	-0,037	0,018
-447,124	-93,808	-0,181	-0,036
-446,109	374,433	0,055	0,082
-445,095	-127,163	0,118	-0,013
-444,080	-200,000	0,048	0,202
-443,065	800,000	-0,082	0,216
-442,051	-7,081	-0,035	0,018
-441,036	6,292	-0,128	0,070
-440,022	-200,000	0,004	-0,014
-439,007	-3,990	-0,128	0,065
-437,992	-81,636	0,152	0,037
-436,978	-77,780	0,129	0,033
-435,963	-158,165	-0,039	-0,002
-434,949	800,000	0,034	-0,085
-433,934	-200,000	0,008	-0,056
-432,919	-200,000	0,003	-0,024
-431,905	-200,000	-0,008	0,068
-430,890	-62,451	0,109	0,033
-429,876	-127,651	-0,089	0,009
-428,861	800,000	-0,068	0,143
-427,846	-200,000	-0,000	0,028
-426,832	64,790	-0,075	0,056
-425,817	-200,000	0,010	0,097
-424,803	-200,000	0,017	-0,086
-423,788	257,795	0,055	-0,070
-422,773	59,203	0,104	-0,075
-421,759	-170,440	0,063	0,002
-420,744	195,843	0,053	0,060
-419,730	-85,721	0,118	0,027
-418,715	-200,000	-0,007	0,028
-417,701	298,481	-0,075	-0,102
-416,686	800,000	0,021	0,057
-415,671	-137,502	0,073	0,006
-414,657	152,312	0,042	0,042
-413,642	260,209	-0,035	-0,044
-412,628	44,208	-0,020	0,014
-411,613	95,737	-0,162	-0,136
-410,598	114,197	-0,026	0,024
-409,584	-200,000	0,022	0,155
-408,569	34,519	-0,079	-0,051
-407,555	800,000	0,010	-0,021
-406,540	195,662	0,041	0,046
-405,525	52,596	-0,045	0,032
-404,511	88,748	-0,119	0,097
-403,496	252,304	0,073	-0,091
-402,482	284,781	0,067	-0,089
-401,467	-200,000	0,007	0,092
-400,452	24,462	-0,095	0,058
-399,438	-11,159	-0,142	0,068
-398,423	275,100	-0,070	0,091
-397,409	568,309	-0,049	-0,088
-396,394	-200,000	0,004	-0,144
-395,379	800,000	-0,031	-0,085
-394,365	-200,000	0,015	0,073
-393,350	800,000	-0,041	0,116
-392,336	272,207	0,014	0,018
-391,321	207,872	0,047	-0,054
-390,306	-200,000	-0,003	-0,035
-389,292	-120,315	-0,093	-0,011
-388,277	525,882	0,019	0,033
-387,263	800,000	0,054	0,121
-386,248	294,023	-0,048	0,065
-385,233	-33,705	0,025	0,010
-384,219	-56,778	0,037	0,012
-383,204	-200,000	0,010	-0,101
-382,190	800,000	-0,072	-0,166
-381,175	-152,337	0,139	-0,007
-380,160	274,646	0,052	-0,068
-379,146	156,636	-0,089	0,091
-378,131	-200,000	0,043	0,150
-377,117	47,932	0,036	-0,025
-376,102	-200,000	0,007	-0,119
-375,088	-32,740	-0,071	0,029
-374,073	-118,934	0,059	-0,008
-373,058	-91,326	0,084	0,017
-372,044	-200,000	-0,019	-0,061
-371,029	303,126	0,011	0,016
-370,015	-200,000	0,006	-0,062
-369,000	90,796	-0,073	0,060
-367,985	-200,000	0,023	-0,138
-366,971	551,822	0,035	-0,061
-365,956	-132,632	-0,098	-0,009
-364,942	76,957	-0,082	0,064
-363,927	-115,132	0,096	-0,013
-362,912	36,105	0,026	0,017
-361,898	-200,000	0,016	-0,096
-360,883	-121,228	-0,091	-0,011
-359,869	-200,000	-0,003	-0,051
-358,854	-112,153	0,114	-0,017
-357,839	-200,000	0,004	0,013
-356,825	108,347	0,013	-0,012
-355,810	266,383	-0,031	0,040
-354,796	800,000	-0,028	-0,081
-353,781	308,085	0,047	0,065
-352,766	-67,291	0,118	-0,034
-351,752	-18,382	0,042	-0,019
-350,737	800,000	0,029	0,065
-349,723	-200,000	0,000	0,076
-348,708	800,000	0,015	0,036
-347,693	-200,000	-0,010	0,034
-346,679	43,248	0,086	-0,058
-345,664	-51,002	-0,023	0,008
-344,650	215,309	0,069	0,081
-343,635	423,504	0,088	0,139
-342,620	710,195	0,079	0,154
-341,606	70,906	0,027	0,020
-340,591	-200,000	-0,002	-0,014
-339,577	800,000	-0,103	-0,271
-338,562	298,276	0,062	-0,084
-337,548	88,643	-0,094	-0,076
-336,533	-27,612	-0,090	-0,038
-335,518	-200,000	0,012	0,048
-334,504	-54,533	0,059	0,020
-333,489	478,571	-0,007	-0,011
-332,475	11,487	-0,045	0,025
-331,460	-62,479	0,105	-0,032
-330,445	-200,000	-0,009	0,074
-329,431	-200,000	-0,020	0,162
-328,416	215,474	0,008	-0,009
-327,402	-142,404	0,047	0,003
-326,387	-152,822	0,178	-0,009
-325,372	285,120	-0,061	-0,080
-324,358	-200,000	-0,032	-0,225
-323,343	800,000	-0,042	0,109
-322,329	-177,850	0,127	-0,002
-321,314	-200,000	0,000	0,025
-320,299	-152,798	0,038	0,002
-319,285	800,000	0,027	-0,062
-318,270	-44,201	-0,066	0,024
-317,256	60,473	-0,098	0,071
-316,241	800,000	-0,068	0,174
-315,226	-108,179	-0,072	0,011
-314,212	-30,318	0,040	-0,016
-313,197	211,464	-0,049	0,057
-312,183	800,000	-0,010	-0,029
-311,168	-40,121	-0,037	-0,014
-310,153	-200,000	-0,026	-0,130
-309,139	-200,000	-0,014	-0,205
-308,124	-200,000	0,027	0,120
-307,110	-155,059	0,073	-0,003
-306,095	-200,000	0,006	0,072
-305,080	-147,591	0,035	-0,002
-304,066	800,000	0,031	-0,098
-303,051	251,459	0,049	-0,061
-302,037	276,951	0,049	0,063
-301,022	433,122	0,022	0,035
-300,008	67,404	0,037	0,027
-298,993	500,101	0,032	0,055
-297,978	544,104	0,031	-0,054
-296,964	158,360	-0,068	-0,069
-295,949	800,000	0,066	0,173
-294,935	-200,000	-0,029	0,095
-293,920	-200,000	0,005	0,016
-292,905	800,000	0,071	0,173
-291,891	27,178	-0,125	0,077
-290,876	-200,000	0,045	0,146
-289,862	220,269	0,019	-0,022
-288,847	-200,000	-0,018	-0,076
-287,832	240,517	0,066	-0,080
-286,818	800,000	-0,015	-0,034
-285,803	426,640	0,044	-0,070
-284,789	-200,000	0,014	-0,140
-283,774	800,000	0,030	-0,062
-282,759	197,246	-0,038	0,042
-281,745	-200,000	-0,004	0,045
-280,730	11,139	-0,056	-0,031
-279,716	-99,114	0,070	-0,013
-278,701	-83,968	0,080	-0,018
-277,686	-200,000	0,018	0,124
-276,672	1,417	0,081	-0,043
-275,657	-32,521	-0,052	0,021
-274,643	-16,900	0,130	-0,060
-273,628	7,889	-0,070	0,038
-272,613	-49,104	-0,145	0,051
-271,599	48,983	-0,085	0,058
-270,584	-200,000	0,008	0,139
-269,570	-102,593	-0,039	0,007
-268,555	135,706	0,070	-0,067
-267,540	281,312	-0,035	0,045
-266,526	711,687	0,050	-0,097
-265,511	-71,698	-0,045	0,012
-264,497	-200,000	-0,018	-0,115
-263,482	-200,000	0,017	0,209
-262,467	800,000	-0,020	0,055
-261,453	-124,673	0,118	0,013
-260,438	-200,000	0,005	-0,091
-259,424	13,228	0,092	0,052
-258,409	506,723	0,047	-0,080
-257,395	248,957	0,076	0,095
-256,380	40,975	-0,026	-0,017
-255,365	-200,000	-0,004	0,031
-254,351	-53,649	-0,069	0,023
-253,336	-57,688	0,035	-0,011
-252,322	-98,812	-0,126	0,023
-251,307	-60,546	-0,161	-0,050
-250,292	342,791	-0,031	0,045
-249,278	552,236	0,102	-0,179
-248,263	204,758	0,076	-0,086
-247,249	-88,750	-0,154	-0,033
-246,234	-200,000	0,013	-0,045
-245,219	217,495	-0,035	-0,041
-244,205	-32,600	0,086	0,035
-243,190	776,415	-0,017	-0,033
-242,176	402,754	0,081	0,126
-241,161	800,000	-0,017	-0,050
-240,146	161,820	-0,051	0,052
-239,132	800,000	0,014	-0,030
-238,117	800,000	0,020	0,053
-237,103	-200,000	-0,019	-0,154
-236,088	70,598	-0,013	-0,010
-235,073	-200,000	-0,008	0,045
-234,059	774,185	0,056	0,113
-233,044	61,616	0,074	0,054
-232,030	-200,000	0,013	0,070
-231,015	800,000	-0,010	-0,027
-230,000	-137,234	-0,131	0,011
-228,986	-200,000	-0,012	-0,071
-227,971	-150,475	-0,048	-0,003
-226,957	-45,776	-0,169	0,061
-225,942	64,292	0,065	0,048
-224,927	359,871	0,065	-0,095
-223,913	-114,137	-0,138	0,019
-222,898	663,611	-0,083	-0,157
-221,884	800,000	-0,040	0,114
-220,869	23,929	0,087	0,052
-219,855	-200,000	-0,015	0,143
-218,840	-41,468	0,063	0,024
-217,825	-200,000	0,006	0,051
-216,811	17,185	-0,044	-0,025
-215,796	-39,150	-0,042	-0,016
-214,782	175,373	0,123	-0,130
-213,767	574,532	-0,038	-0,068
-212,752	35,789	0,035	0,023
-211,738	303,044	0,027	0,037
-210,723	-158,926	0,202	-0,008
-209,709	800,000	-0,033	-0,091
-208,694	800,000	-0,038	-0,082
-207,679	-200,000	0,014	0,046
-206,665	392,992	0,081	-0,123
-205,650	22,946	-0,048	0,029
-204,636	-37,050	-0,076	-0,029
-203,621	-200,000	0,028	0,142
-202,606	421,883	-0,041	0,065
-201,592	97,908	0,067	0,056
-200,577	3,161	-0,055	-0,029
-199,563	-200,000	-0,008	0,058
-198,548	800,000	0,048	-0,099
-197,533	-130,966	-0,056	-0,005
-196,519	153,563	-0,064	0,064
-195,504	523,341	0,003	0,005
-194,490	-103,524	-0,089	-0,015
-193,475	-200,000	0,006	0,045
-192,460	-5,035	0,015	0,007
-191,446	800,000	-0,012	0,031
-190,431	119,013	0,111	0,100
-189,417	800,000	-0,017	0,044
-188,402	-200,000	0,013	-0,085
-187,387	760,681	-0,042	-0,084
-186,373	-200,000	0,005	0,030
-185,358	533,979	-0,099	-0,171
-184,344	25,539	0,093	0,056
-183,329	167,252	0,077	0,079
-182,315	536,328	-0,099	0,172
-181,300	1,235	-0,097	-0,051
-180,285	-200,000	0,011	-0,060
-179,271	506,298	-0,044	-0,074
-178,256	-0,841	-0,039	-0,020
-177,242	-200,000	-0,001	0,005
-176,227	-28,285	0,170	0,071
-175,212	-200,000	-0,019	-0,075
-174,198	267,803	-0,099	0,127
-173,183	218,329	-0,051	0,060
-172,169	17,106	-0,060	0,035
-171,154	-74,191	-0,114	-0,030
-170,139	276,076	-0,028	0,036
-169,125	-200,000	0,037	0,134
-168,110	-175,103	-0,190	0,004
-167,096	-129,783	-0,066	0,007
-166,081	93,755	-0,065	-0,053
-165,066	-200,000	0,033	-0,117
-164,052	-125,009	-0,076	-0,008
-163,037	-200,000	-0,007	-0,100
-162,023	150,579	0,123	0,122
-161,008	800,000	0,042	0,109
-159,993	242,477	0,084	-0,103
-158,979	-15,619	-0,036	-0,016
-157,964	-200,000	-0,021	0,076
-156,950	210,677	0,121	0,139
-155,935	104,912	-0,077	0,066
-154,920	95,908	0,160	-0,133
-153,906	-200,000	0,002	0,049
-152,891	163,263	-0,113	-0,116
-151,877	97,257	-0,074	-0,062
-150,862	385,684	-0,098	-0,147
-149,847	-200,000	0,001	-0,072
-148,833	-43,827	0,063	0,023
-147,818	174,044	0,050	-0,053
-146,804	483,084	-0,002	0,004
-145,789	305,265	-0,013	-0,017
-144,775	149,951	-0,005	0,005
-143,760	-92,268	-0,070	-0,014
-142,745	-200,000	-0,003	0,083
-141,731	-34,292	-0,099	0,039
-140,716	119,978	0,017	0,015
-139,702	800,000	0,042	0,127
-138,687	119,939	-0,037	0,034
-137,672	-165,114	0,119	0,004
-136,658	-112,829	-0,181	0,026
-135,643	656,012	-0,069	0,129
-134,629	191,654	-0,118	0,130
-133,614	112,303	0,125	0,110
-132,599	-132,287	-0,153	0,014
-131,585	-157,310	-0,084	0,004
-130,570	114,281	-0,039	0,035
-129,556	50,533	-0,041	-0,028
-128,541	324,189	-0,150	-0,210
-127,526	607,340	0,052	-0,094
-126,512	800,000	-0,021	0,061
-125,497	36,339	0,080	-0,051
-124,483	182,203	0,002	-0,002
-123,468	512,434	-0,082	0,139
-122,453	214,088	0,025	0,029
-121,439	-82,171	-0,075	0,018
-120,424	52,595	0,078	0,054
-119,410	652,208	-0,033	-0,062
