DTS Sentinel unit serial number:	SN410029Multiplexer serial number:	ORYXHardware model number:	OX2-SRSoftware version number:	ORYX F/W v4,00 Oryx Data Collector v3.7.2.0data status	okinstallation	B6 Nyhavnadifferential loss correction	single-endedforward channel	channel 2reverse channel	N/Adate	2023/12/08time	14:20:08forward acquisition time	300,00reverse acquisition time	0,00gamma	499,1914k internal	0,3159k external	0,3159temperature offset calibration	1,0000default loss term (dB/km)	0,3820temperature slope calibration	1,0000multiplexer offset coefficient	1,0000multiplexer slope coefficient	1,0000fibre end	0,00T internal ref (°C)	15,05T ext. ref 1 (°C)	-1,52T ext. ref 2 (°C)	-1,51length (m)	temperature (°C)	Stokes	anti-Stokes-744,400	-69,030	0,178	-0,050
-743,385	-88,663	-0,243	0,053
-742,371	-156,062	0,127	-0,006
-741,356	-19,266	-0,199	0,091
-740,342	-200,000	-0,002	0,222
-739,327	-170,462	-0,393	-0,010
-738,312	-113,118	0,111	-0,016
-737,298	-191,535	-0,306	0,002
-736,283	-200,000	-0,019	0,086
-735,269	-186,848	-0,263	0,003
-734,254	-148,779	0,073	-0,004
-733,239	-56,665	-0,522	-0,169
-732,225	12,804	0,207	0,118
-731,210	800,000	0,043	0,092
-730,196	23,602	-0,037	-0,022
-729,181	287,681	-0,056	-0,074
-728,167	0,731	-0,072	0,038
-727,152	-38,690	0,142	0,055
-726,137	-128,298	-0,128	-0,013
-725,123	438,795	-0,041	-0,067
-724,108	240,262	-0,087	-0,107
-723,094	8,081	0,055	0,030
-722,079	-70,095	-0,037	-0,010
-721,064	-200,000	0,004	-0,023
-720,050	-26,032	-0,032	0,014
-719,035	800,000	-0,034	-0,076
-718,021	800,000	-0,047	-0,105
-717,006	-77,689	-0,042	0,011
-715,991	-12,766	-0,101	-0,048
-714,977	235,458	-0,059	-0,072
-713,962	-70,556	-0,109	-0,030
-712,948	-200,000	0,002	0,064
-711,933	113,915	0,075	-0,067
-710,918	-49,874	-0,136	0,047
-709,904	350,408	-0,080	-0,117
-708,889	-200,000	0,021	-0,075
-707,875	13,528	-0,124	-0,071
-706,860	800,000	0,010	-0,028
-705,845	251,385	0,013	-0,017
-704,831	595,884	-0,047	0,086
-703,816	-200,000	0,016	0,122
-702,802	-200,000	-0,007	-0,098
-701,787	474,585	-0,063	-0,104
-700,772	78,426	-0,156	-0,123
-699,758	-83,046	0,042	-0,010
-698,743	472,415	0,027	-0,045
-697,729	-200,000	-0,006	-0,034
-696,714	-45,142	-0,036	-0,013
-695,699	51,193	-0,023	0,016
-694,685	-200,000	-0,035	-0,116
-693,670	97,055	0,059	0,050
-692,656	160,446	-0,046	0,047
-691,641	261,147	0,110	-0,140
-690,627	-76,551	0,062	0,016
-689,612	800,000	0,024	0,070
-688,597	-200,000	-0,017	-0,102
-687,583	-162,638	-0,137	-0,005
-686,568	800,000	-0,054	-0,113
-685,554	-200,000	-0,049	-0,207
-684,539	-61,594	-0,019	-0,006
-683,524	211,376	-0,041	-0,047
-682,510	-200,000	0,015	0,087
-681,495	-128,255	-0,125	0,013
-680,481	265,234	0,091	-0,116
-679,466	-200,000	-0,016	-0,140
-678,451	182,828	-0,037	-0,040
-677,437	800,000	-0,021	-0,056
-676,422	273,470	-0,040	-0,052
-675,408	-200,000	-0,001	-0,009
-674,393	256,765	-0,052	-0,065
-673,378	-19,452	-0,185	-0,084
-672,364	613,482	0,058	-0,107
-671,349	85,677	-0,073	0,059
-670,335	393,537	-0,047	0,071
-669,320	800,000	-0,010	-0,025
-668,305	-32,059	-0,067	-0,027
-667,291	-10,358	-0,107	0,052
-666,276	94,410	-0,114	-0,095
-665,262	-100,478	-0,059	-0,011
-664,247	-131,836	0,134	-0,013
-663,232	-120,385	-0,056	-0,007
-662,218	565,698	-0,058	0,104
-661,203	393,395	-0,087	0,133
-660,189	328,938	-0,044	-0,062
-659,174	-200,000	-0,011	-0,096
-658,159	-200,000	-0,024	-0,118
-657,145	86,475	-0,146	-0,118
-656,130	79,256	0,044	-0,035
-655,116	-200,000	0,023	0,095
-654,101	800,000	-0,033	0,075
-653,086	44,749	-0,092	-0,062
-652,072	561,760	-0,030	0,053
-651,057	-30,192	0,070	-0,029
-650,043	229,847	-0,070	-0,084
-649,028	13,309	-0,096	0,055
-648,014	-160,426	0,155	-0,006
-646,999	-63,027	0,071	0,022
-645,984	-130,514	-0,163	0,016
-644,970	-103,397	-0,068	-0,012
-643,955	-32,381	0,147	0,060
-642,941	15,826	0,112	0,064
-641,926	224,159	-0,091	-0,108
-640,911	29,449	0,097	0,060
-639,897	-200,000	-0,008	0,105
-638,882	296,804	-0,053	0,071
-637,868	-13,298	-0,050	-0,024
-636,853	72,598	-0,129	-0,098
-635,838	800,000	-0,043	-0,117
-634,824	73,837	-0,147	-0,113
-633,809	220,525	0,020	-0,023
-632,795	34,254	-0,026	-0,017
-631,780	-200,000	0,023	0,162
-630,765	222,097	-0,060	-0,071
-629,751	-128,537	-0,072	-0,007
-628,736	800,000	-0,031	-0,084
-627,722	-114,401	0,092	0,013
-626,707	40,356	0,066	-0,043
-625,692	39,319	-0,052	-0,034
-624,678	-40,894	0,110	0,041
-623,663	-107,070	-0,105	-0,017
-622,649	143,545	0,057	-0,056
-621,634	800,000	0,025	0,073
-620,619	65,917	-0,059	-0,044
-619,605	-33,517	0,089	-0,036
-618,590	-15,352	0,170	-0,079
-617,576	-102,780	-0,017	-0,003
-616,561	126,788	-0,138	-0,128
-615,546	-200,000	-0,011	-0,208
-614,532	265,394	-0,101	-0,130
-613,517	-29,238	0,056	0,023
-612,503	43,986	0,041	0,027
-611,488	488,215	-0,053	0,089
-610,474	4,767	0,087	-0,047
-609,459	148,426	-0,072	-0,071
-608,444	-200,000	0,014	-0,049
-607,430	328,616	0,050	-0,071
-606,415	-7,394	0,091	-0,045
-605,401	-153,109	-0,076	-0,004
-604,386	800,000	0,050	0,102
-603,371	-102,027	-0,071	0,012
-602,357	-64,111	-0,016	-0,005
-601,342	-78,039	-0,089	-0,022
-600,328	-101,803	-0,199	-0,035
-599,313	622,528	0,063	-0,117
-598,298	41,345	-0,083	0,055
-597,284	-200,000	0,051	0,184
-596,269	-200,000	-0,005	0,040
-595,255	-200,000	0,009	0,107
-594,240	-24,079	-0,109	-0,048
-593,225	404,678	-0,065	0,101
-592,211	0,326	-0,037	-0,019
-591,196	-200,000	-0,000	0,010
-590,182	209,646	-0,035	-0,040
-589,167	108,697	0,054	0,047
-588,152	1,581	-0,153	0,080
-587,138	800,000	-0,060	-0,150
-586,123	-85,068	0,059	0,014
-585,109	319,430	-0,027	0,038
-584,094	800,000	-0,039	0,107
-583,079	-200,000	-0,008	0,032
-582,065	-141,785	-0,090	0,006
-581,050	-126,653	-0,036	-0,004
-580,036	-141,210	-0,031	-0,002
-579,021	-173,322	-0,116	0,003
-578,006	357,410	0,015	-0,022
-576,992	415,049	-0,047	-0,073
-575,977	698,468	0,017	0,034
-574,963	-143,805	-0,123	0,008
-573,948	218,045	0,018	-0,021
-572,934	-200,000	-0,004	-0,093
-571,919	800,000	0,050	-0,151
-570,904	800,000	-0,063	-0,137
-569,890	779,341	0,060	-0,120
-568,875	43,941	-0,066	0,044
-567,861	24,483	-0,094	-0,057
-566,846	167,262	-0,058	-0,061
-565,831	-53,343	-0,164	-0,055
-564,817	26,665	-0,031	-0,019
-563,802	-97,195	-0,070	-0,013
-562,788	24,967	0,082	0,050
-561,773	94,784	0,058	0,049
-560,758	-72,913	0,198	-0,053
-559,744	-62,730	-0,084	0,025
-558,729	230,133	-0,041	-0,049
-557,715	-87,472	-0,051	-0,011
-556,700	1,214	-0,085	-0,045
-555,685	-167,462	-0,049	-0,001
-554,671	-80,189	-0,045	0,011
-553,656	372,072	-0,056	-0,083
-552,642	800,000	0,057	0,144
-551,627	-200,000	-0,002	0,012
-550,612	-200,000	-0,005	0,137
-549,598	-200,000	0,010	-0,034
-548,583	-200,000	-0,004	-0,025
-547,569	361,605	0,093	-0,137
-546,554	513,200	0,069	0,118
-545,539	-165,202	-0,052	0,002
-544,525	-137,793	0,141	0,011
-543,510	158,693	0,015	0,015
-542,496	57,664	-0,050	-0,036
-541,481	320,734	-0,064	-0,089
-540,466	-95,554	-0,058	-0,011
-539,452	147,709	0,059	0,058
-538,437	-126,700	0,180	0,019
-537,423	-93,679	0,111	0,022
-536,408	-103,938	0,025	0,004
-535,393	117,899	0,086	0,078
-534,379	-200,000	-0,010	0,096
-533,364	-126,642	-0,075	-0,008
-532,350	-200,000	0,013	0,075
-531,335	208,605	0,032	-0,037
-530,321	-56,632	-0,062	0,020
-529,306	-200,000	-0,013	0,172
-528,291	-200,000	-0,017	0,100
-527,277	-200,000	-0,014	0,054
-526,262	207,417	-0,045	-0,052
-525,248	316,340	-0,085	0,118
-524,233	410,469	0,130	0,202
-523,218	60,280	0,022	-0,016
-522,204	800,000	-0,023	-0,065
-521,189	83,349	-0,102	0,081
-520,175	-79,513	-0,109	0,027
-519,160	-200,000	-0,000	-0,059
-518,145	301,543	0,071	-0,097
-517,131	-112,949	0,184	-0,026
-516,116	-200,000	-0,017	-0,140
-515,102	-45,024	-0,148	-0,053
-514,087	-200,000	0,019	-0,106
-513,072	184,461	-0,055	0,059
-512,058	-136,557	0,008	0,001
-511,043	-200,000	0,000	0,026
-510,029	-165,518	0,077	0,002
-509,014	-200,000	-0,021	-0,079
-507,999	71,599	0,057	0,043
-506,985	139,503	-0,056	0,054
-505,970	800,000	0,029	0,083
-504,956	-200,000	0,025	-0,104
-503,941	69,189	0,099	-0,074
-502,926	-150,319	0,094	0,005
-501,912	-142,863	0,041	0,003
-500,897	800,000	-0,037	-0,086
-499,883	-73,213	-0,034	0,009
-498,868	-135,185	-0,140	-0,012
-497,853	71,507	-0,081	0,061
-496,839	-154,990	0,028	0,001
-495,824	-200,000	0,036	0,208
-494,810	-154,584	0,136	0,006
-493,795	14,038	0,125	0,071
-492,781	11,166	-0,136	0,076
-491,766	-67,125	-0,071	-0,020
-490,751	-63,653	0,035	0,010
-489,737	-38,731	0,060	0,023
-488,722	-55,515	0,118	-0,038
-487,708	160,494	-0,054	0,055
-486,693	-200,000	-0,015	0,054
-485,678	199,600	-0,096	0,108
-484,664	-36,691	-0,017	0,006
-483,649	257,566	-0,061	-0,077
-482,635	9,539	-0,075	-0,041
-481,620	103,792	0,063	-0,054
-480,605	46,871	-0,032	0,022
-479,591	414,942	-0,068	-0,106
-478,576	800,000	-0,052	-0,106
-477,562	539,543	0,021	-0,037
-476,547	-101,338	-0,263	-0,046
-475,532	1,856	0,089	0,046
-474,518	800,000	-0,035	-0,079
-473,503	-200,000	-0,012	0,107
-472,489	-153,356	0,104	-0,005
-471,474	800,000	0,030	0,084
-470,459	83,567	0,110	-0,087
-469,445	-200,000	0,036	-0,171
-468,430	800,000	-0,012	0,036
-467,416	-200,000	0,005	-0,044
-466,401	135,322	0,068	0,065
-465,386	-3,582	-0,070	0,035
-464,372	-1,975	0,085	-0,044
-463,357	397,067	-0,014	-0,021
-462,343	-131,235	-0,134	-0,013
-461,328	167,311	-0,028	0,029
-460,313	-134,477	0,199	-0,017
-459,299	48,923	0,122	0,083
-458,284	254,841	0,045	0,057
-457,270	99,576	0,047	0,039
-456,255	-143,300	0,082	0,006
-455,241	459,581	-0,104	-0,169
-454,226	-28,680	0,097	0,041
-453,211	-107,410	-0,101	-0,016
-452,197	34,146	-0,081	0,051
-451,182	-200,000	0,017	0,074
-450,168	-200,000	0,086	0,000
-449,153	250,214	0,041	0,051
-448,138	800,000	0,053	-0,122
-447,124	71,209	-0,073	-0,055
-446,109	181,084	0,009	0,010
-445,095	-139,475	-0,033	-0,003
-444,080	371,829	0,059	0,087
-443,065	-24,965	0,015	-0,007
-442,051	-18,379	-0,145	-0,066
-441,036	-200,000	-0,006	0,019
-440,022	-200,000	-0,039	0,145
-439,007	800,000	-0,032	-0,069
-437,992	800,000	-0,023	0,050
-436,978	-146,871	0,107	0,007
-435,963	800,000	0,029	0,076
-434,949	-78,260	0,097	0,024
-433,934	-83,765	-0,094	0,022
-432,919	-200,000	0,017	-0,077
-431,905	800,000	0,033	0,085
-430,890	261,420	0,037	0,047
-429,876	800,000	0,048	0,134
-428,861	132,966	0,046	-0,043
-427,846	800,000	0,023	0,059
-426,832	484,155	-0,075	-0,124
-425,817	-200,000	0,004	-0,047
-424,803	11,527	0,044	0,024
-423,788	-0,872	0,088	0,045
-422,773	-200,000	-0,004	-0,087
-421,759	-112,792	-0,144	-0,021
-420,744	-21,160	-0,120	-0,053
-419,730	249,146	0,081	0,100
-418,715	543,798	-0,028	-0,048
-417,701	-173,781	0,102	-0,002
-416,686	139,423	0,032	-0,030
-415,671	-180,622	0,081	-0,001
-414,657	36,904	0,159	0,102
-413,642	-200,000	0,032	0,114
-412,628	49,821	0,046	-0,031
-411,613	-108,708	0,071	-0,011
-410,598	45,347	0,078	0,052
-409,584	-10,834	0,114	0,055
-408,569	216,789	0,012	-0,014
-407,555	-200,000	-0,003	0,064
-406,540	24,706	0,083	-0,050
-405,525	-144,787	-0,125	0,008
-404,511	9,726	0,096	-0,053
-403,496	248,650	-0,062	0,076
-402,482	502,953	0,024	0,041
-401,467	-118,886	0,046	-0,006
-400,452	-200,000	-0,031	0,106
-399,438	800,000	-0,043	0,100
-398,423	-157,289	-0,163	0,007
-397,409	9,442	-0,046	-0,025
-396,394	800,000	-0,074	-0,159
-395,379	176,166	0,065	-0,068
-394,365	-54,771	0,108	0,035
-393,350	2,043	0,110	0,058
-392,336	175,421	0,080	0,084
-391,321	437,830	0,059	-0,093
-390,306	-200,000	0,019	-0,179
-389,292	-13,170	0,090	-0,042
-388,277	-78,580	0,110	0,027
-387,263	-200,000	0,004	0,029
-386,248	-200,000	0,002	0,029
-385,233	-0,825	0,005	0,003
-384,219	-52,445	0,043	-0,014
-383,204	187,345	0,022	-0,023
-382,190	800,000	-0,045	-0,119
-381,175	5,554	0,023	-0,012
-380,160	206,638	-0,118	-0,134
-379,146	800,000	-0,041	0,120
-378,131	-200,000	0,014	0,054
-377,117	26,007	-0,048	-0,029
-376,102	495,515	-0,067	0,112
-375,088	-87,240	0,096	-0,021
-374,073	-200,000	0,002	-0,022
-373,058	-200,000	0,024	0,106
-372,044	-66,204	0,190	0,054
-371,029	-200,000	0,001	0,191
-370,015	509,420	0,025	-0,042
-369,000	-200,000	-0,016	-0,220
-367,985	109,849	-0,045	-0,039
-366,971	82,290	-0,069	-0,054
-365,956	338,139	0,033	0,047
-364,942	-148,214	0,083	0,005
-363,927	-43,181	-0,008	0,003
-362,912	-200,000	0,011	0,097
-361,898	-200,000	0,005	0,027
-360,883	800,000	-0,060	-0,164
-359,869	-200,000	0,025	-0,095
-358,854	-200,000	0,008	-0,122
-357,839	195,356	0,052	0,058
-356,825	788,564	-0,078	0,157
-355,810	26,967	-0,109	0,066
-354,796	-200,000	-0,004	0,013
-353,781	225,334	-0,024	0,028
-352,766	-200,000	0,040	-0,152
-351,752	-138,375	-0,085	0,007
-350,737	-200,000	0,027	0,158
-349,723	86,566	0,028	0,022
-348,708	-200,000	0,007	0,101
-347,693	49,382	-0,027	0,018
-346,679	-200,000	0,005	-0,108
-345,664	12,635	0,075	0,042
-344,650	-200,000	0,002	-0,031
-343,635	-108,540	0,104	0,016
-342,620	-31,724	0,092	-0,037
-341,606	800,000	0,013	-0,038
-340,591	167,680	-0,047	0,049
-339,577	46,444	-0,079	-0,053
-338,562	443,478	-0,092	0,148
-337,548	-91,966	-0,067	-0,014
-336,533	-200,000	0,023	0,081
-335,518	800,000	-0,052	0,117
-334,504	185,876	-0,108	0,116
-333,489	-134,134	0,035	0,003
-332,475	-50,473	0,093	-0,032
-331,460	744,109	0,052	-0,102
-330,445	-90,540	0,152	-0,032
-329,431	-75,258	0,092	-0,024
-328,416	800,000	0,037	0,076
-327,402	71,138	0,070	0,053
-326,387	32,718	0,042	-0,026
-325,372	217,622	0,016	-0,018
-324,358	-200,000	0,006	-0,184
-323,343	244,539	0,054	-0,066
-322,329	-69,342	0,095	-0,026
-321,314	192,713	0,079	-0,087
-320,299	-200,000	-0,026	0,103
-319,285	29,798	0,069	0,042
-318,270	320,840	0,123	-0,170
-317,256	-200,000	0,000	-0,094
-316,241	800,000	-0,031	-0,098
-315,226	-43,291	0,148	0,054
-314,212	-118,167	-0,113	0,014
-313,197	-67,401	-0,048	-0,014
-312,183	-91,904	-0,127	0,026
-311,168	-93,736	0,068	0,013
-310,153	144,203	-0,077	-0,074
-309,139	-103,527	-0,120	-0,020
-308,124	95,708	-0,058	-0,048
-307,110	-200,000	-0,017	0,129
-306,095	800,000	-0,015	0,034
-305,080	-135,841	0,098	-0,008
-304,066	-85,155	0,134	0,030
-303,051	-150,038	-0,064	-0,004
-302,037	-200,000	0,030	-0,157
-301,022	290,528	0,050	-0,066
-300,008	446,766	0,061	0,098
-298,993	-148,749	-0,119	-0,007
-297,978	-109,144	-0,027	0,004
-296,964	-28,052	0,044	0,018
-295,949	87,280	-0,076	0,061
-294,935	-96,768	-0,170	0,032
-293,920	-4,873	0,142	-0,071
-292,905	-155,967	0,168	0,008
-291,891	-50,320	-0,064	0,022
-290,876	15,103	0,076	-0,043
-289,862	110,931	0,012	0,011
-288,847	177,824	-0,081	0,085
-287,832	33,682	-0,096	0,060
-286,818	-200,000	0,010	0,053
-285,803	-42,526	-0,017	0,006
-284,789	-200,000	0,002	0,019
-283,774	178,311	0,087	0,092
-282,759	-18,003	-0,015	0,007
-281,745	-32,771	-0,094	-0,037
-280,730	-200,000	0,010	0,087
-279,716	303,456	-0,017	-0,023
-278,701	62,502	0,128	0,092
-277,686	800,000	-0,055	0,138
-276,672	-200,000	-0,014	-0,106
-275,657	-200,000	0,020	0,080
-274,643	285,957	0,013	0,017
-273,628	-200,000	0,015	-0,092
-272,613	800,000	0,041	-0,119
-271,599	20,028	0,134	0,078
-270,584	141,368	-0,086	-0,082
-269,570	343,549	-0,115	0,164
-268,555	-103,346	-0,106	-0,018
-267,540	51,276	-0,080	0,055
-266,526	-109,129	-0,059	-0,009
-265,511	-62,459	0,089	0,027
-264,497	157,995	0,046	0,046
-263,482	800,000	0,046	0,102
-262,467	-62,948	0,071	0,021
-261,453	800,000	0,038	-0,097
-260,438	-200,000	-0,006	-0,054
-259,424	-90,844	-0,134	-0,028
-258,409	-200,000	-0,007	0,078
-257,395	-190,987	0,043	-0,000
-256,380	800,000	0,037	0,099
-255,365	-200,000	0,028	-0,143
-254,351	-51,778	-0,076	-0,025
-253,336	-200,000	0,023	0,074
-252,322	112,933	0,095	0,084
-251,307	800,000	0,008	-0,018
-250,292	552,202	0,032	-0,056
-249,278	154,115	0,120	0,119
-248,263	-65,702	0,061	-0,017
-247,249	195,686	-0,102	0,113
-246,234	76,968	0,046	-0,035
-245,219	456,133	-0,039	0,063
-244,205	50,066	-0,068	0,046
-243,190	-133,857	-0,021	0,002
-242,176	384,415	0,043	0,064
-241,161	149,843	-0,044	0,043
-240,146	237,330	-0,044	0,053
-239,132	-200,000	-0,004	0,067
-238,117	152,613	-0,073	-0,072
-237,103	173,997	0,005	0,006
-236,088	-200,000	0,001	-0,029
-235,073	388,854	-0,049	-0,073
-234,059	-11,851	-0,073	-0,034
-233,044	800,000	-0,030	0,089
-232,030	-79,274	-0,059	-0,014
-231,015	96,594	-0,056	0,046
-230,000	-66,390	0,093	-0,027
-228,986	-200,000	-0,009	-0,150
-227,971	396,104	-0,016	0,024
-226,957	699,381	0,053	-0,101
-225,942	42,137	0,163	0,107
-224,927	-76,609	-0,153	0,038
-223,913	-124,525	-0,107	-0,012
-222,898	323,691	-0,088	0,121
-221,884	98,424	0,035	0,029
-220,869	-139,623	0,132	-0,010
-219,855	-200,000	0,024	0,165
-218,840	89,101	0,081	0,065
-217,825	-200,000	0,033	0,148
-216,811	800,000	-0,065	-0,132
-215,796	216,040	-0,106	-0,122
-214,782	154,682	-0,143	-0,142
-213,767	143,416	0,021	-0,020
-212,752	107,611	0,047	0,040
-211,738	-200,000	-0,002	0,058
-210,723	-104,431	-0,114	0,019
-209,709	800,000	-0,005	-0,015
-208,694	-17,148	-0,055	-0,025
-207,679	-20,821	-0,126	0,055
-206,665	-137,786	-0,049	-0,004
-205,650	-1,283	-0,066	0,034
-204,636	-200,000	-0,040	-0,184
-203,621	800,000	0,092	-0,221
-202,606	-200,000	-0,023	0,076
-201,592	173,847	-0,093	-0,097
-200,577	58,196	0,156	-0,110
-199,563	-33,329	-0,062	-0,025
-198,548	-50,007	0,144	-0,049
-197,533	53,399	-0,148	0,102
-196,519	76,556	0,134	0,102
-195,504	332,643	0,072	0,100
-194,490	317,850	-0,088	-0,120
-193,475	590,127	-0,039	0,070
-192,460	-200,000	-0,002	-0,096
-191,446	-24,861	-0,031	-0,013
-190,431	-200,000	-0,017	-0,229
-189,417	47,785	-0,053	-0,035
-188,402	-200,000	0,018	-0,067
-187,387	-104,014	-0,068	-0,011
-186,373	-6,598	-0,102	-0,050
-185,358	-112,944	0,084	-0,012
-184,344	75,450	0,042	-0,032
-183,329	221,672	0,057	-0,066
-182,315	-88,807	0,120	0,025
-181,300	-59,793	-0,135	-0,041
-180,285	105,945	0,009	0,008
-179,271	800,000	-0,057	-0,126
-178,256	-21,632	-0,077	0,033
-177,242	-200,000	-0,014	-0,070
-176,227	491,822	-0,040	-0,067
-175,212	-87,597	-0,078	0,017
-174,198	-200,000	0,000	0,134
-173,183	45,514	-0,120	-0,080
-172,169	100,908	0,062	-0,052
-171,154	800,000	-0,015	0,031
-170,139	727,501	0,075	0,146
-169,125	21,023	0,140	-0,082
-168,110	800,000	-0,014	0,028
-167,096	59,896	-0,089	-0,063
-166,081	12,941	-0,128	0,071
-165,066	118,654	-0,082	0,073
-164,052	-200,000	-0,020	0,066
-163,037	196,453	0,088	0,097
-162,023	-70,042	0,253	0,069
-161,008	800,000	0,044	-0,118
-159,993	-141,206	0,098	-0,007
-158,979	-121,211	-0,050	0,006
-157,964	-200,000	0,004	-0,225
-156,950	-132,737	-0,067	0,006
-155,935	172,011	0,067	0,069
-154,920	-120,182	0,067	-0,008
-153,906	-78,374	0,155	-0,038
-152,891	36,529	-0,071	0,045
-151,877	45,101	0,076	-0,050
-150,862	63,389	-0,045	-0,033
-149,847	-62,207	-0,032	0,009
-148,833	413,099	0,117	-0,179
-147,818	-200,000	0,002	-0,066
-146,804	-133,838	-0,139	-0,012
-145,789	-200,000	0,030	-0,096
-144,775	-8,743	0,022	-0,011
-143,760	800,000	-0,030	0,067
-142,745	-200,000	-0,003	-0,198
-141,731	23,385	-0,110	-0,065
-140,716	-99,102	0,208	-0,038
-139,702	-168,797	-0,183	0,005
-138,687	-43,044	-0,122	-0,044
-137,672	-200,000	0,013	-0,076
-136,658	-200,000	-0,013	0,127
-135,643	800,000	-0,026	-0,056
-134,629	142,855	0,053	-0,051
-133,614	800,000	0,061	0,126
-132,599	159,275	-0,048	-0,049
-131,585	286,655	0,085	0,110
-130,570	200,011	0,068	-0,075
-129,556	-159,856	-0,123	0,005
-128,541	-116,957	-0,114	-0,015
-127,526	315,432	-0,086	0,117
-126,512	-164,493	0,152	0,005
-125,497	-117,903	-0,082	-0,010
-124,483	-20,061	-0,037	0,016
-123,468	-200,000	0,014	0,094
-122,453	514,809	0,070	-0,118
-121,439	-200,000	0,010	-0,047
-120,424	220,756	-0,075	-0,087
