DTS Sentinel unit serial number:	SN410029Multiplexer serial number:	ORYXHardware model number:	OX2-SRSoftware version number:	ORYX F/W v4,00 Oryx Data Collector v3.7.2.0data status	okinstallation	B6 Nyhavnadifferential loss correction	single-endedforward channel	channel 2reverse channel	N/Adate	2023/12/07time	13:30:08forward acquisition time	300,00reverse acquisition time	0,00gamma	499,1914k internal	0,3202k external	0,3202temperature offset calibration	1,0000default loss term (dB/km)	0,3820temperature slope calibration	1,0000multiplexer offset coefficient	1,0000multiplexer slope coefficient	1,0000fibre end	0,00T internal ref (°C)	12,13T ext. ref 1 (°C)	-1,63T ext. ref 2 (°C)	-1,62length (m)	temperature (°C)	Stokes	anti-Stokes-744,400	231,063	0,150	0,179
-743,385	-158,098	-0,291	-0,012
-742,371	-8,303	0,119	0,058
-741,356	-124,931	-0,319	-0,035
-740,342	112,443	0,103	0,091
-739,327	-193,777	-0,343	0,002
-738,312	9,408	0,126	0,069
-737,298	-140,260	-0,439	0,033
-736,283	-106,008	0,135	0,022
-735,269	-155,615	-0,304	-0,014
-734,254	-173,936	0,241	0,005
-733,239	13,473	-0,491	-0,276
-732,225	-4,845	0,267	0,134
-731,210	800,000	-0,043	0,090
-730,196	558,973	-0,038	-0,066
-729,181	-81,766	-0,109	0,026
-728,167	-4,317	-0,086	-0,043
-727,152	443,302	-0,032	-0,051
-726,137	376,052	-0,078	-0,117
-725,123	242,810	-0,087	-0,106
-724,108	235,115	-0,025	0,030
-723,094	-19,683	-0,112	0,050
-722,079	11,590	0,138	0,077
-721,064	-133,595	0,041	0,004
-720,050	-28,222	0,130	-0,054
-719,035	108,816	-0,024	-0,021
-718,021	-57,039	-0,145	-0,046
-717,006	38,893	0,080	-0,052
-715,991	78,372	-0,114	-0,088
-714,977	-200,000	0,025	-0,124
-713,962	210,764	0,032	-0,036
-712,948	-200,000	-0,011	-0,069
-711,933	127,208	0,116	-0,107
-710,918	133,594	-0,139	-0,131
-709,904	800,000	-0,035	0,082
-708,889	-200,000	0,002	0,023
-707,875	-200,000	0,014	-0,144
-706,860	-129,051	-0,067	-0,007
-705,845	800,000	-0,035	-0,083
-704,831	-200,000	0,004	0,111
-703,816	800,000	-0,035	-0,074
-702,802	218,278	-0,026	-0,030
-701,787	-173,507	-0,034	0,001
-700,772	124,474	-0,122	-0,111
-699,758	-200,000	-0,006	0,030
-698,743	-176,207	0,139	0,003
-697,729	-200,000	-0,025	0,081
-696,714	-106,275	-0,151	-0,024
-695,699	97,425	-0,156	0,130
-694,685	-49,144	-0,117	0,040
-693,670	0,714	0,071	0,037
-692,656	53,087	-0,076	0,053
-691,641	-80,729	-0,064	0,015
-690,627	-18,395	0,036	0,016
-689,612	-200,000	-0,012	0,094
-688,597	-119,967	0,028	0,003
-687,583	175,327	-0,095	0,100
-686,568	383,877	0,022	-0,033
-685,554	-81,926	-0,059	-0,014
-684,539	-200,000	-0,015	0,145
-683,524	-200,000	-0,034	0,156
-682,510	2,709	-0,083	-0,044
-681,495	25,481	0,104	-0,063
-680,481	800,000	-0,046	-0,118
-679,466	800,000	0,063	-0,134
-678,451	-69,118	-0,095	-0,026
-677,437	800,000	-0,005	-0,011
-676,422	38,232	0,151	-0,097
-675,408	-13,517	0,071	0,033
-674,393	173,763	-0,070	0,074
-673,378	474,186	-0,046	-0,076
-672,364	210,597	-0,125	-0,142
-671,349	-200,000	-0,002	-0,117
-670,335	-97,878	-0,112	-0,021
-669,320	-170,600	-0,078	0,002
-668,305	166,707	0,062	0,064
-667,291	-200,000	0,042	-0,161
-666,276	491,578	-0,035	-0,058
-665,262	-106,402	-0,227	-0,036
-664,247	527,130	-0,123	-0,211
-663,232	-200,000	-0,002	-0,133
-662,218	41,041	-0,011	-0,007
-661,203	-33,390	-0,091	0,036
-660,189	285,613	0,041	-0,053
-659,174	92,417	-0,146	0,119
-658,159	346,546	-0,057	-0,081
-657,145	35,789	-0,058	-0,037
-656,130	152,089	0,071	-0,071
-655,116	800,000	-0,019	0,048
-654,101	11,010	0,070	-0,039
-653,086	-118,259	-0,076	-0,010
-652,072	-200,000	0,025	-0,107
-651,057	-25,871	-0,087	-0,037
-650,043	492,758	-0,107	-0,178
-649,028	-63,437	0,127	-0,037
-648,014	-200,000	0,015	-0,075
-646,999	87,204	0,054	-0,043
-645,984	36,644	-0,101	-0,064
-644,970	17,625	-0,097	-0,056
-643,955	-88,212	0,042	-0,009
-642,941	69,664	-0,105	-0,078
-641,926	137,899	0,043	-0,041
-640,911	15,193	-0,086	0,048
-639,897	647,053	-0,052	0,097
-638,882	31,512	-0,095	-0,059
-637,868	-200,000	-0,007	-0,048
-636,853	-200,000	-0,020	-0,154
-635,838	369,254	0,057	-0,083
-634,824	-200,000	0,026	-0,093
-633,809	164,858	0,108	0,110
-632,795	-200,000	-0,005	-0,110
-631,780	-129,580	0,109	-0,011
-630,765	-35,217	-0,139	-0,055
-629,751	-200,000	-0,018	0,073
-628,736	-3,986	-0,159	-0,079
-627,722	800,000	0,026	-0,066
-626,707	800,000	-0,040	0,105
-625,692	-50,133	-0,068	0,023
-624,678	-37,406	-0,084	0,032
-623,663	-20,071	0,123	-0,055
-622,649	800,000	-0,046	-0,125
-621,634	-3,515	-0,109	-0,055
-620,619	-200,000	0,009	0,057
-619,605	345,919	0,073	0,105
-618,590	800,000	0,025	-0,065
-617,576	-161,953	0,121	-0,004
-616,561	329,181	-0,046	-0,064
-615,546	32,690	-0,052	-0,033
-614,532	800,000	-0,028	-0,071
-613,517	800,000	-0,009	0,021
-612,503	782,261	0,019	0,037
-611,488	-200,000	0,019	-0,129
-610,474	-200,000	-0,003	-0,079
-609,459	800,000	-0,035	0,077
-608,444	-26,150	-0,073	0,031
-607,430	109,926	-0,119	-0,103
-606,415	-200,000	0,007	-0,051
-605,401	-200,000	-0,016	-0,169
-604,386	800,000	0,023	-0,055
-603,371	282,757	-0,073	0,095
-602,357	-67,350	0,091	-0,026
-601,342	-151,623	0,080	-0,004
-600,328	800,000	-0,023	-0,053
-599,313	-181,248	-0,055	-0,001
-598,298	356,916	0,090	-0,131
-597,284	466,094	0,011	0,018
-596,269	800,000	0,025	-0,052
-595,255	-81,950	0,076	0,018
-594,240	800,000	0,039	0,095
-593,225	687,401	-0,097	-0,184
-592,211	469,905	-0,010	0,017
-591,196	-9,837	-0,055	0,026
-590,182	169,485	0,042	-0,044
-589,167	800,000	0,025	-0,061
-588,152	-146,761	0,086	-0,005
-587,138	-200,000	-0,005	-0,117
-586,123	-200,000	0,018	0,062
-585,109	-200,000	-0,009	-0,059
-584,094	39,463	0,075	-0,049
-583,079	-200,000	0,014	0,059
-582,065	327,169	-0,049	0,068
-581,050	-200,000	-0,021	-0,091
-580,036	-4,595	0,093	-0,046
-579,021	800,000	0,013	-0,039
-578,006	-74,425	-0,146	-0,038
-576,992	619,065	0,018	-0,033
-575,977	374,103	0,065	0,095
-574,963	-200,000	-0,033	0,158
-573,948	800,000	0,031	-0,062
-572,934	-128,844	0,105	0,011
-571,919	18,518	0,060	-0,034
-570,904	-39,318	0,087	0,033
-569,890	-131,554	-0,047	-0,004
-568,875	470,430	-0,065	0,105
-567,861	-200,000	-0,032	-0,105
-566,846	-158,068	0,070	0,003
-565,831	183,577	-0,067	-0,071
-564,817	-200,000	0,003	-0,107
-563,802	279,990	-0,027	-0,035
-562,788	-132,589	-0,083	0,008
-561,773	119,399	-0,114	0,102
-560,758	800,000	0,051	-0,123
-559,744	-13,891	0,101	-0,047
-558,729	-200,000	0,014	-0,057
-557,715	-200,000	-0,005	0,016
-556,700	-200,000	0,028	0,102
-555,685	158,060	0,074	-0,074
-554,671	-27,236	0,099	0,041
-553,656	714,167	0,043	-0,083
-552,642	14,381	0,075	0,042
-551,627	800,000	-0,061	0,170
-550,612	-200,000	-0,015	0,071
-549,598	800,000	0,069	-0,187
-548,583	113,522	-0,079	-0,069
-547,569	493,693	-0,044	0,073
-546,554	-107,290	0,078	-0,012
-545,539	-200,000	-0,011	0,121
-544,525	-200,000	-0,003	0,085
-543,510	110,829	0,010	0,009
-542,496	14,596	-0,128	-0,072
-541,481	-51,428	0,063	-0,021
-540,466	4,002	-0,059	0,031
-539,452	70,232	-0,035	-0,026
-538,437	-117,716	0,164	-0,021
-537,423	273,245	-0,082	0,105
-536,408	-166,911	-0,101	-0,003
-535,393	314,454	0,053	-0,072
-534,379	-200,000	-0,025	0,093
-533,364	288,092	-0,085	0,112
-532,350	-200,000	-0,018	0,079
-531,335	-74,036	-0,047	0,012
-530,321	103,851	0,061	-0,052
-529,306	800,000	-0,070	0,165
-528,291	-200,000	0,019	-0,063
-527,277	-200,000	0,011	-0,036
-526,262	-46,184	0,061	-0,021
-525,248	-136,951	0,075	0,006
-524,233	-42,126	0,053	0,020
-523,218	-200,000	-0,014	0,130
-522,204	-22,101	-0,111	-0,048
-521,189	-200,000	0,001	0,070
-520,175	800,000	-0,028	-0,078
-519,160	-15,592	-0,061	0,028
-518,145	-200,000	-0,003	0,030
-517,131	-36,429	-0,060	0,023
-516,116	-200,000	0,007	0,040
-515,102	342,122	-0,043	0,061
-514,087	-200,000	-0,007	0,113
-513,072	-200,000	0,017	-0,055
-512,058	-143,132	-0,066	0,005
-511,043	800,000	0,053	-0,148
-510,029	138,418	-0,017	-0,016
-509,014	-200,000	-0,010	-0,111
-507,999	33,488	0,075	-0,047
-506,985	-200,000	-0,012	-0,147
-505,970	-15,135	-0,130	0,060
-504,956	-32,422	0,066	0,026
-503,941	-200,000	-0,005	0,083
-502,926	34,256	-0,054	-0,034
-501,912	214,734	0,018	0,020
-500,897	-76,056	0,046	-0,012
-499,883	-121,955	-0,112	0,013
-498,868	177,634	-0,041	-0,044
-497,853	800,000	-0,011	-0,033
-496,839	800,000	0,024	0,051
-495,824	-167,826	0,167	0,005
-494,810	546,914	-0,082	0,142
-493,795	60,883	-0,066	0,047
-492,781	299,895	-0,041	-0,055
-491,766	-31,202	0,066	-0,027
-490,751	-148,809	0,028	0,002
-489,737	36,133	-0,096	0,061
-488,722	-200,000	0,057	0,233
-487,708	-156,850	0,015	0,001
-486,693	55,607	-0,074	0,052
-485,678	800,000	0,060	0,142
-484,664	-33,365	-0,149	-0,059
-483,649	800,000	0,037	-0,073
-482,635	127,948	-0,038	0,035
-481,620	-200,000	-0,008	0,034
-480,605	-125,964	-0,064	0,007
-479,591	-200,000	0,010	0,114
-478,576	568,940	0,075	0,132
-477,562	-200,000	0,001	-0,021
-476,547	111,016	-0,073	0,063
-475,532	800,000	-0,023	0,053
-474,518	63,817	-0,021	-0,015
-473,503	29,497	0,064	0,039
-472,489	-70,463	0,050	0,013
-471,474	-173,120	-0,110	-0,002
-470,459	-44,561	-0,127	-0,045
-469,445	42,016	-0,059	0,039
-468,430	161,791	0,067	-0,068
-467,416	-64,245	0,040	0,012
-466,401	174,391	0,041	0,043
-465,386	-200,000	0,006	0,034
-464,372	-61,676	-0,045	-0,014
-463,357	-88,670	-0,091	0,019
-462,343	-72,555	0,050	-0,013
-461,328	-200,000	-0,002	-0,062
-460,313	217,773	-0,141	-0,162
-459,299	164,042	-0,043	-0,043
-458,284	336,830	-0,080	0,111
-457,270	-200,000	-0,001	-0,029
-456,255	23,653	0,077	-0,045
-455,241	-60,628	-0,027	-0,008
-454,226	99,309	0,024	-0,020
-453,211	-200,000	0,009	-0,056
-452,197	-31,563	0,091	-0,037
-451,182	-156,128	0,163	-0,007
-450,168	482,835	0,081	0,134
-449,153	-83,064	-0,140	-0,032
-448,138	-72,240	0,043	0,011
-447,124	800,000	0,003	0,006
-446,109	137,250	0,082	0,077
-445,095	271,110	0,075	0,095
-444,080	800,000	0,029	0,065
-443,065	-200,000	0,009	-0,049
-442,051	-128,913	-0,075	0,007
-441,036	-127,520	0,067	-0,007
-440,022	10,365	-0,086	-0,047
-439,007	98,168	-0,060	-0,050
-437,992	69,148	-0,059	-0,044
-436,978	-125,513	0,076	-0,008
-435,963	-169,852	-0,170	0,004
-434,949	800,000	-0,025	-0,067
-433,934	0,999	0,102	0,052
-432,919	138,329	-0,137	0,129
-431,905	-116,760	0,039	0,005
-430,890	-38,476	0,168	0,064
-429,876	-72,177	0,038	-0,010
-428,861	-125,633	-0,087	-0,009
-427,846	-200,000	0,009	0,077
-426,832	701,048	-0,031	0,058
-425,817	800,000	-0,063	-0,174
-424,803	551,773	-0,067	-0,116
-423,788	-36,611	-0,091	-0,035
-422,773	-44,232	0,099	-0,035
-421,759	-200,000	0,018	0,138
-420,744	-200,000	-0,020	0,116
-419,730	-200,000	0,006	0,079
-418,715	800,000	-0,050	-0,100
-417,701	151,124	-0,071	0,069
-416,686	40,698	-0,026	0,017
-415,671	51,229	-0,016	0,011
-414,657	800,000	-0,064	0,129
-413,642	-114,302	0,078	0,011
-412,628	241,774	0,052	-0,062
-411,613	-200,000	-0,023	-0,094
-410,598	341,546	-0,082	-0,115
-409,584	-27,599	0,028	0,012
-408,569	-200,000	-0,007	0,086
-407,555	342,176	-0,064	0,090
-406,540	800,000	0,038	-0,116
-405,525	-33,072	0,157	-0,062
-404,511	-46,513	0,126	-0,044
-403,496	-21,017	0,095	-0,041
-402,482	-50,184	-0,026	0,009
-401,467	22,308	0,054	-0,031
-400,452	-73,896	-0,133	-0,034
-399,438	-200,000	-0,019	-0,083
-398,423	-170,135	-0,070	-0,002
-397,409	-114,872	-0,055	-0,007
-396,394	266,045	0,011	-0,014
-395,379	-37,661	-0,149	0,057
-394,365	85,514	0,076	0,060
-393,350	8,295	0,119	0,064
-392,336	203,262	0,028	0,031
-391,321	135,454	-0,076	0,071
-390,306	-82,762	-0,095	-0,022
-389,292	800,000	0,063	0,142
-388,277	146,660	-0,038	-0,037
-387,263	584,435	0,049	0,087
-386,248	-100,500	-0,045	0,008
-385,233	-32,815	0,093	0,037
-384,219	250,900	0,088	-0,107
-383,204	732,244	-0,061	-0,117
-382,190	33,143	-0,017	-0,011
-381,175	800,000	-0,024	0,049
-380,160	195,127	-0,050	-0,054
-379,146	-200,000	0,044	0,158
-378,131	145,098	0,054	-0,052
-377,117	-75,339	0,138	0,035
-376,102	-101,048	-0,097	0,017
-375,088	32,782	-0,038	-0,024
-374,073	421,973	0,057	-0,088
-373,058	142,100	0,055	-0,052
-372,044	35,790	-0,089	-0,056
-371,029	557,124	0,034	-0,059
-370,015	-133,992	0,080	-0,007
-369,000	-84,128	-0,108	0,024
-367,985	-46,321	-0,071	-0,025
-366,971	-200,000	-0,023	-0,100
-365,956	-200,000	0,002	0,079
-364,942	-47,390	0,071	-0,025
-363,927	368,954	0,047	0,068
-362,912	141,142	0,049	0,046
-361,898	-200,000	0,006	-0,056
-360,883	74,600	0,080	-0,060
-359,869	-99,868	0,101	-0,018
-358,854	-27,771	0,132	-0,054
-357,839	615,699	0,051	-0,092
-356,825	171,326	0,123	0,127
-355,810	27,779	-0,039	0,023
-354,796	-200,000	-0,009	-0,079
-353,781	9,686	0,039	0,021
-352,766	96,116	-0,081	-0,066
-351,752	172,956	0,019	-0,020
-350,737	-200,000	0,012	0,105
-349,723	58,969	-0,064	0,045
-348,708	42,804	0,116	-0,075
-347,693	-44,997	-0,112	0,040
-346,679	607,777	0,058	-0,103
-345,664	450,534	-0,070	-0,111
-344,650	-181,378	-0,041	-0,001
-343,635	50,047	0,079	0,054
-342,620	148,311	0,030	-0,029
-341,606	-200,000	0,016	-0,070
-340,591	797,331	-0,014	-0,028
-339,577	-69,573	0,206	-0,056
-338,562	-200,000	0,018	-0,069
-337,548	800,000	0,027	0,080
-336,533	-23,705	0,067	-0,029
-335,518	-18,881	0,025	0,011
-334,504	104,041	0,150	0,127
-333,489	-200,000	-0,022	-0,150
-332,475	-165,800	0,074	0,002
-331,460	319,299	-0,081	-0,110
-330,445	-153,112	0,125	-0,006
-329,431	-200,000	-0,014	0,125
-328,416	-200,000	-0,024	0,149
-327,402	77,238	-0,026	0,020
-326,387	-200,000	-0,014	0,074
-325,372	202,004	-0,036	0,040
-324,358	62,094	0,033	-0,024
-323,343	647,374	-0,049	-0,090
-322,329	-159,037	0,106	-0,004
-321,314	432,985	0,099	-0,155
-320,299	599,914	0,009	-0,016
-319,285	800,000	-0,024	-0,063
-318,270	-200,000	0,005	-0,191
-317,256	-200,000	-0,020	-0,083
-316,241	207,177	-0,069	0,077
-315,226	104,624	0,019	0,016
-314,212	629,575	0,013	-0,024
-313,197	-200,000	-0,001	0,008
-312,183	-119,931	0,033	-0,004
-311,168	508,152	-0,029	-0,048
-310,153	126,785	-0,042	-0,038
-309,139	163,672	0,046	-0,046
-308,124	-13,394	-0,118	-0,055
-307,110	531,115	-0,051	0,086
-306,095	-78,333	-0,051	0,012
-305,080	459,067	0,061	0,098
-304,066	-127,511	-0,121	0,012
-303,051	-200,000	-0,023	0,098
-302,037	197,634	-0,104	0,113
-301,022	-200,000	-0,014	0,106
-300,008	246,087	0,117	-0,141
-298,993	61,159	0,131	0,093
-297,978	293,123	-0,037	0,048
-296,964	-5,181	-0,047	0,023
-295,949	119,295	-0,017	0,015
-294,935	800,000	0,032	-0,083
-293,920	444,712	-0,057	-0,089
-292,905	800,000	0,036	0,097
-291,891	800,000	-0,014	-0,029
-290,876	-36,219	-0,068	0,026
-289,862	-19,893	-0,091	0,040
-288,847	-1,625	-0,014	-0,007
-287,832	98,780	0,068	-0,056
-286,818	38,880	-0,025	0,016
-285,803	298,016	0,024	-0,031
-284,789	-200,000	0,053	0,188
-283,774	800,000	0,050	0,131
-282,759	-81,565	-0,019	0,004
-281,745	-26,292	-0,115	-0,048
-280,730	339,069	0,091	0,128
-279,716	-110,082	0,108	0,016
-278,701	-60,398	0,164	0,049
-277,686	3,137	0,023	0,012
-276,672	60,777	0,153	0,108
-275,657	13,025	0,035	0,020
-274,643	69,454	0,045	-0,033
-273,628	-200,000	0,012	-0,118
-272,613	-107,576	-0,173	0,027
-271,599	76,072	0,134	-0,101
-270,584	34,604	0,128	-0,080
-269,570	-200,000	-0,019	0,097
-268,555	-200,000	-0,028	0,118
-267,540	-200,000	0,012	0,120
-266,526	-63,793	0,026	0,008
-265,511	131,612	0,107	0,098
-264,497	-82,347	0,075	-0,017
-263,482	-115,782	0,046	0,006
-262,467	800,000	0,025	0,055
-261,453	479,046	-0,031	0,050
-260,438	-200,000	-0,007	-0,055
-259,424	145,867	-0,044	-0,042
-258,409	74,126	0,023	-0,017
-257,395	-38,636	-0,057	0,021
-256,380	-200,000	0,014	0,056
-255,365	-139,308	0,160	0,012
-254,351	800,000	-0,006	0,016
-253,336	800,000	0,021	0,047
-252,322	-36,322	-0,078	0,030
-251,307	-200,000	0,045	-0,152
-250,292	194,973	-0,083	-0,090
-249,278	310,382	0,100	0,134
-248,263	179,860	0,051	-0,053
-247,249	640,909	0,081	0,148
-246,234	-200,000	-0,007	-0,132
-245,219	-40,620	0,025	0,009
-244,205	20,968	-0,037	0,021
-243,190	-200,000	-0,006	0,098
-242,176	-200,000	0,014	0,087
-241,161	-69,849	0,129	-0,035
-240,146	-200,000	-0,035	-0,138
-239,132	162,375	-0,017	0,017
-238,117	58,047	0,055	-0,038
-237,103	13,051	-0,058	0,032
-236,088	40,694	-0,110	-0,071
-235,073	114,023	-0,154	0,134
-234,059	800,000	0,044	0,119
-233,044	-200,000	-0,043	0,254
-232,030	800,000	-0,009	0,018
-231,015	253,491	-0,090	-0,110
-230,000	527,310	-0,038	0,065
-228,986	334,658	-0,084	0,116
-227,971	-200,000	0,006	0,021
-226,957	45,023	0,116	-0,076
-225,942	408,606	0,048	-0,073
-224,927	29,816	-0,077	-0,046
-223,913	-200,000	0,002	-0,095
-222,898	-200,000	0,000	-0,064
-221,884	800,000	-0,012	-0,032
-220,869	-139,569	0,062	-0,005
-219,855	220,917	-0,026	-0,029
-218,840	230,569	-0,085	0,099
-217,825	465,186	0,034	-0,055
-216,811	-200,000	-0,007	-0,083
-215,796	-132,314	-0,107	-0,010
-214,782	-200,000	0,050	-0,174
-213,767	-200,000	0,009	0,100
-212,752	800,000	0,061	0,156
-211,738	800,000	0,045	0,101
-210,723	-150,066	-0,033	0,002
-209,709	800,000	-0,025	-0,063
-208,694	-200,000	0,012	0,147
-207,679	210,403	-0,076	-0,085
-206,665	-200,000	-0,009	-0,073
-205,650	-31,860	-0,059	0,023
-204,636	-114,935	0,035	-0,005
-203,621	249,622	-0,101	-0,122
-202,606	9,364	0,012	0,007
-201,592	125,579	-0,073	-0,066
-200,577	-1,748	-0,039	-0,020
-199,563	-200,000	-0,032	0,160
-198,548	160,953	-0,035	-0,034
-197,533	-115,447	0,116	0,015
-196,519	-188,181	0,083	0,001
-195,504	-200,000	-0,031	-0,117
-194,490	-200,000	-0,000	-0,087
-193,475	-200,000	0,000	0,169
-192,460	173,387	-0,024	0,025
-191,446	-200,000	0,026	0,114
-190,431	800,000	-0,034	-0,101
-189,417	-64,882	-0,094	0,027
-188,402	216,191	0,020	0,023
-187,387	30,428	0,054	-0,033
-186,373	68,872	-0,058	-0,042
-185,358	-73,715	0,005	0,001
-184,344	-147,837	0,081	0,005
-183,329	-84,025	0,165	0,037
-182,315	28,597	-0,068	-0,041
-181,300	800,000	0,005	-0,012
-180,285	-136,695	-0,022	0,002
-179,271	210,592	0,097	-0,109
-178,256	98,840	-0,054	0,044
-177,242	145,985	-0,065	-0,062
-176,227	-200,000	0,006	0,083
-175,212	97,670	-0,098	0,080
-174,198	-200,000	-0,017	-0,109
-173,183	366,246	-0,068	0,098
-172,169	94,513	-0,060	-0,048
-171,154	155,473	0,054	-0,053
-170,139	-89,290	-0,078	0,016
-169,125	-97,881	0,142	-0,026
-168,110	800,000	0,024	-0,058
-167,096	-115,509	-0,107	0,014
-166,081	339,083	-0,087	0,120
-165,066	-200,000	0,041	-0,136
-164,052	-31,183	-0,115	-0,046
-163,037	240,051	0,091	0,108
-162,023	85,103	0,080	-0,062
-161,008	100,302	-0,026	0,022
-159,993	800,000	0,034	0,100
-158,979	-17,067	-0,187	0,084
-157,964	-47,692	-0,098	-0,034
-156,950	-200,000	0,015	0,100
-155,935	-200,000	0,025	0,156
-154,920	-200,000	-0,029	0,101
-153,906	50,389	0,074	-0,050
-152,891	277,497	-0,019	0,024
-151,877	23,032	0,029	0,017
-150,862	-60,873	-0,068	-0,020
-149,847	177,014	-0,059	0,061
-148,833	-32,894	0,107	-0,042
-147,818	800,000	0,031	0,062
-146,804	-200,000	-0,004	-0,027
-145,789	-200,000	0,002	-0,044
-144,775	-126,081	0,035	0,004
-143,760	75,283	-0,034	0,025
-142,745	219,657	-0,068	-0,077
-141,731	800,000	0,035	0,081
-140,716	-90,541	-0,040	0,008
-139,702	-121,438	0,104	0,012
-138,687	-200,000	0,005	0,048
-137,672	89,169	0,066	-0,052
-136,658	-82,055	-0,013	-0,003
-135,643	-24,720	0,019	0,008
-134,629	267,251	0,078	0,097
-133,614	-200,000	0,047	0,151
-132,599	-200,000	-0,042	0,178
-131,585	-200,000	-0,000	0,042
-130,570	-103,488	0,143	0,024
-129,556	800,000	0,022	-0,066
-128,541	145,863	-0,080	-0,077
-127,526	774,681	0,037	-0,072
-126,512	132,175	-0,034	-0,031
-125,497	-200,000	-0,009	0,129
-124,483	800,000	-0,012	-0,030
-123,468	27,817	-0,021	-0,013
-122,453	215,060	-0,039	0,044
-121,439	154,517	0,130	-0,127
-120,424	-185,710	-0,094	-0,001
