DTS Sentinel unit serial number:	SN410029Multiplexer serial number:	ORYXHardware model number:	OX2-SRSoftware version number:	ORYX F/W v4,00 Oryx Data Collector v3.7.2.0data status	okinstallation	B6 Nyhavnadifferential loss correction	single-endedforward channel	channel 2reverse channel	N/Adate	2023/12/08time	02:55:08forward acquisition time	300,00reverse acquisition time	0,00gamma	499,1914k internal	0,3165k external	0,3165temperature offset calibration	1,0000default loss term (dB/km)	0,3820temperature slope calibration	1,0000multiplexer offset coefficient	1,0000multiplexer slope coefficient	1,0000fibre end	0,00T internal ref (°C)	13,14T ext. ref 1 (°C)	-3,70T ext. ref 2 (°C)	-3,71length (m)	temperature (°C)	Stokes	anti-Stokes-744,400	-1,442	0,081	-0,042
-743,385	-63,057	-0,285	-0,086
-742,371	39,368	0,146	0,096
-741,356	-137,770	-0,389	-0,032
-740,342	-35,122	0,106	0,042
-739,327	-167,481	-0,218	0,006
-738,312	-3,107	0,084	0,043
-737,298	-51,279	-0,230	-0,079
-736,283	-45,668	0,231	-0,083
-735,269	-77,871	-0,391	-0,099
-734,254	295,959	0,074	0,100
-733,239	-93,572	-0,562	-0,113
-732,225	-49,416	0,141	-0,049
-731,210	108,507	0,077	0,068
-730,196	-46,467	-0,068	-0,025
-729,181	-128,580	-0,040	-0,004
-728,167	12,592	0,053	-0,030
-727,152	201,183	-0,103	0,116
-726,137	-121,524	-0,117	0,014
-725,123	490,044	-0,100	0,170
-724,108	-120,538	-0,060	-0,007
-723,094	800,000	0,054	-0,155
-722,079	-110,218	-0,076	-0,011
-721,064	74,786	-0,099	0,077
-720,050	129,881	0,098	-0,093
-719,035	-200,000	0,012	0,147
-718,021	-200,000	0,017	-0,089
-717,006	38,097	0,078	-0,051
-715,991	-52,018	-0,040	0,014
-714,977	330,265	-0,087	-0,124
-713,962	-200,000	0,020	-0,140
-712,948	327,256	-0,113	-0,160
-711,933	-61,698	0,039	-0,012
-710,918	70,692	0,073	-0,056
-709,904	52,850	-0,123	-0,087
-708,889	800,000	0,016	-0,033
-707,875	-35,653	-0,109	-0,043
-706,860	94,227	0,062	0,052
-705,845	548,351	-0,051	-0,091
-704,831	78,784	-0,057	0,045
-703,816	800,000	0,038	0,110
-702,802	353,491	0,020	0,030
-701,787	298,818	-0,144	-0,195
-700,772	800,000	-0,058	-0,140
-699,758	-200,000	-0,007	0,116
-698,743	284,450	0,018	-0,024
-697,729	-73,874	0,051	0,014
-696,714	741,943	0,032	-0,063
-695,699	46,370	-0,095	-0,065
-694,685	135,719	-0,068	-0,065
-693,670	800,000	0,021	-0,046
-692,656	-102,658	-0,071	-0,012
-691,641	56,824	0,134	-0,096
-690,627	41,271	-0,014	0,009
-689,612	-200,000	-0,013	-0,057
-688,597	-200,000	-0,017	-0,075
-687,583	-200,000	-0,021	-0,087
-686,568	-200,000	0,013	-0,063
-685,554	-67,171	-0,056	0,016
-684,539	489,943	-0,028	0,047
-683,524	-200,000	-0,007	0,102
-682,510	-56,752	0,010	0,003
-681,495	-200,000	-0,033	-0,113
-680,481	93,769	0,077	-0,064
-679,466	-23,124	-0,109	-0,048
-678,451	131,364	-0,026	-0,024
-677,437	-102,397	-0,133	0,023
-676,422	-160,902	-0,088	-0,003
-675,408	711,642	-0,076	-0,148
-674,393	211,647	0,092	0,106
-673,378	-174,013	-0,193	0,004
-672,364	537,755	-0,023	-0,039
-671,349	-200,000	-0,013	-0,063
-670,335	247,130	-0,070	-0,086
-669,320	-200,000	-0,007	-0,026
-668,305	-107,728	0,091	0,014
-667,291	486,047	-0,095	-0,159
-666,276	-200,000	0,016	0,064
-665,262	-39,414	0,059	0,023
-664,247	-75,192	-0,105	0,027
-663,232	108,017	-0,132	0,116
-662,218	48,595	0,115	0,079
-661,203	126,182	-0,038	0,035
-660,189	-200,000	0,049	-0,165
-659,174	120,525	-0,019	0,017
-658,159	-33,769	-0,147	-0,059
-657,145	-172,507	-0,160	0,004
-656,130	-30,692	0,143	-0,059
-655,116	-200,000	0,033	0,190
-654,101	609,157	-0,066	0,121
-653,086	410,924	-0,075	-0,117
-652,072	-200,000	-0,014	0,055
-651,057	123,214	-0,115	-0,106
-650,043	8,715	-0,058	-0,032
-649,028	-143,371	0,041	-0,003
-648,014	145,912	-0,017	-0,017
-646,999	53,986	-0,077	0,054
-645,984	-200,000	0,001	-0,039
-644,970	38,756	-0,078	-0,051
-643,955	-75,220	-0,022	-0,006
-642,941	456,978	-0,049	0,079
-641,926	-200,000	0,007	-0,046
-640,911	-113,941	-0,099	-0,014
-639,897	-200,000	-0,001	-0,014
-638,882	-81,371	-0,096	-0,023
-637,868	119,042	0,061	0,055
-636,853	-200,000	0,011	-0,042
-635,838	-184,370	-0,029	0,000
-634,824	-75,876	-0,107	-0,028
-633,809	582,340	0,035	0,064
-632,795	39,604	0,055	0,036
-631,780	-200,000	0,010	-0,032
-630,765	-147,297	-0,110	-0,007
-629,751	-200,000	-0,021	-0,093
-628,736	679,979	-0,032	-0,062
-627,722	800,000	0,053	-0,143
-626,707	150,093	-0,072	-0,072
-625,692	680,983	-0,045	0,086
-624,678	-55,717	-0,125	0,041
-623,663	800,000	0,034	0,077
-622,649	555,390	-0,034	-0,061
-621,634	-200,000	0,009	-0,031
-620,619	-200,000	0,007	0,033
-619,605	69,757	0,057	0,043
-618,590	800,000	-0,038	-0,083
-617,576	301,386	0,023	0,032
-616,561	-75,458	-0,054	0,014
-615,546	-200,000	-0,039	-0,142
-614,532	-174,904	-0,109	-0,002
-613,517	322,163	0,066	0,092
-612,503	-142,469	0,149	0,011
-611,488	361,505	-0,017	-0,024
-610,474	-200,000	-0,005	0,044
-609,459	66,714	-0,052	0,038
-608,444	55,450	0,036	0,026
-607,430	330,424	-0,017	-0,023
-606,415	165,774	0,056	-0,058
-605,401	-200,000	0,011	-0,086
-604,386	-200,000	-0,001	0,013
-603,371	113,960	-0,058	0,052
-602,357	301,495	-0,031	-0,042
-601,342	-52,672	-0,017	-0,006
-600,328	-57,799	0,079	0,025
-599,313	7,481	-0,027	-0,014
-598,298	-200,000	-0,030	0,195
-597,284	-136,865	-0,137	-0,011
-596,269	585,314	-0,063	-0,115
-595,255	73,946	0,076	0,058
-594,240	283,805	-0,024	-0,031
-593,225	158,404	-0,046	0,047
-592,211	622,332	-0,040	-0,073
-591,196	-14,476	0,103	-0,048
-590,182	800,000	0,017	0,043
-589,167	800,000	-0,009	0,019
-588,152	418,262	-0,056	0,087
-587,138	160,516	-0,008	0,009
-586,123	-200,000	-0,024	-0,098
-585,109	800,000	0,033	-0,072
-584,094	-111,556	0,038	0,006
-583,079	-162,135	0,024	-0,001
-582,065	-53,622	0,023	-0,008
-581,050	460,387	0,052	-0,085
-580,036	146,550	-0,065	0,064
-579,021	94,866	-0,096	-0,080
-578,006	-200,000	0,002	-0,168
-576,992	210,839	0,051	-0,059
-575,977	-73,238	-0,026	-0,007
-574,963	369,725	-0,092	-0,136
-573,948	-200,000	-0,070	0,000
-572,934	800,000	0,016	0,048
-571,919	-200,000	0,008	0,039
-570,904	-67,986	0,059	-0,017
-569,890	25,963	-0,040	0,024
-568,875	151,260	0,073	0,072
-567,861	514,048	0,083	0,142
-566,846	-168,853	0,068	-0,002
-565,831	267,419	-0,135	-0,173
-564,817	-200,000	-0,047	-0,152
-563,802	77,538	-0,085	-0,066
-562,788	-200,000	0,025	-0,133
-561,773	-13,095	-0,022	0,010
-560,758	-200,000	0,020	0,096
-559,744	-200,000	-0,007	0,051
-558,729	-200,000	-0,014	0,095
-557,715	416,492	-0,051	0,080
-556,700	-15,970	-0,074	0,034
-555,685	676,023	-0,057	0,109
-554,671	800,000	0,007	0,017
-553,656	-133,169	-0,095	-0,009
-552,642	101,012	0,120	0,102
-551,627	207,943	-0,055	0,063
-550,612	178,303	0,035	0,037
-549,598	81,399	-0,062	-0,049
-548,583	-17,742	-0,188	-0,086
-547,569	77,307	-0,034	0,026
-546,554	-77,026	0,086	0,022
-545,539	372,572	0,019	-0,029
-544,525	207,130	-0,030	-0,034
-543,510	800,000	-0,027	-0,080
-542,496	91,278	0,046	-0,037
-541,481	-74,827	-0,044	0,012
-540,466	-166,384	-0,083	0,002
-539,452	13,465	0,164	0,093
-538,437	-125,845	0,052	0,006
-537,423	440,743	-0,079	-0,126
-536,408	496,084	-0,013	-0,022
-535,393	-200,000	0,007	-0,032
-534,379	-200,000	-0,032	-0,133
-533,364	123,937	-0,052	-0,047
-532,350	345,468	-0,090	0,129
-531,335	-200,000	0,005	-0,079
-530,321	-200,000	-0,013	0,140
-529,306	92,937	-0,072	-0,060
-528,291	179,673	0,050	-0,054
-527,277	-200,000	-0,007	-0,060
-526,262	49,687	0,064	0,044
-525,248	-53,664	0,134	-0,044
-524,233	-105,306	0,064	0,011
-523,218	107,379	0,070	0,061
-522,204	-200,000	0,001	-0,004
-521,189	-200,000	-0,002	-0,099
-520,175	-45,815	-0,139	-0,050
-519,160	321,749	0,074	-0,102
-518,145	-69,110	-0,144	-0,040
-517,131	800,000	0,032	-0,074
-516,116	211,045	-0,111	0,128
-515,102	166,624	-0,042	0,043
-514,087	-88,816	0,114	0,025
-513,072	-200,000	-0,024	-0,137
-512,058	-200,000	-0,021	-0,069
-511,043	190,296	0,079	-0,087
-510,029	-200,000	-0,006	-0,033
-509,014	-166,098	0,115	-0,003
-507,999	3,880	-0,018	-0,009
-506,985	800,000	0,013	0,032
-505,970	-109,522	-0,022	0,003
-504,956	800,000	0,050	-0,128
-503,941	505,385	-0,066	0,111
-502,926	-21,374	-0,056	-0,025
-501,912	18,500	0,081	-0,047
-500,897	748,168	-0,065	0,128
-499,883	18,806	0,111	0,065
-498,868	800,000	-0,054	-0,166
-497,853	-1,561	0,026	0,013
-496,839	265,684	0,071	0,090
-495,824	-24,503	0,110	0,047
-494,810	72,506	-0,060	0,046
-493,795	10,643	-0,067	0,037
-492,781	-200,000	0,031	0,138
-491,766	800,000	0,030	-0,078
-490,751	-40,892	0,062	-0,023
-489,737	-140,208	0,053	0,004
-488,722	-15,193	0,047	-0,022
-487,708	-174,366	0,078	-0,002
-486,693	-200,000	-0,002	-0,071
-485,678	-121,145	-0,227	-0,027
-484,664	-133,149	-0,043	-0,004
-483,649	-200,000	-0,007	-0,085
-482,635	134,624	0,114	0,108
-481,620	-74,854	0,147	-0,038
-480,605	-132,843	0,051	-0,005
-479,591	7,086	-0,138	0,075
-478,576	-25,365	0,120	-0,052
-477,562	101,998	-0,061	-0,052
-476,547	-200,000	-0,005	0,066
-475,532	25,346	0,166	-0,100
-474,518	-200,000	-0,001	0,075
-473,503	155,660	0,053	0,053
-472,489	256,087	0,038	-0,047
-471,474	-200,000	-0,020	0,078
-470,459	-200,000	0,050	-0,166
-469,445	-200,000	0,013	-0,050
-468,430	363,997	-0,042	-0,062
-467,416	-200,000	0,009	-0,071
-466,401	-30,729	0,192	-0,079
-465,386	800,000	-0,034	0,068
-464,372	-200,000	0,004	0,041
-463,357	506,422	-0,076	-0,128
-462,343	-105,611	0,120	-0,020
-461,328	-140,402	-0,010	0,001
-460,313	-15,817	-0,152	-0,070
-459,299	800,000	0,063	-0,140
-458,284	-180,094	0,103	-0,002
-457,270	247,993	0,087	0,107
-456,255	-200,000	0,001	-0,047
-455,241	-65,808	-0,158	-0,046
-454,226	-42,544	0,100	0,037
-453,211	205,989	0,082	-0,093
-452,197	-137,511	0,089	0,007
-451,182	-34,833	0,181	0,072
-450,168	47,222	-0,083	0,056
-449,153	235,782	-0,035	-0,042
-448,138	578,391	-0,079	-0,140
-447,124	168,345	-0,153	-0,158
-446,109	-22,536	0,109	0,048
-445,095	800,000	0,016	0,035
-444,080	-200,000	-0,065	0,215
-443,065	-200,000	0,009	0,133
-442,051	-152,122	-0,087	0,005
-441,036	-6,245	0,047	-0,023
-440,022	-200,000	-0,008	-0,031
-439,007	423,183	-0,083	0,130
-437,992	146,105	-0,029	0,029
-436,978	243,434	0,038	-0,047
-435,963	50,764	-0,076	-0,052
-434,949	-200,000	-0,010	0,093
-433,934	106,215	-0,117	-0,101
-432,919	-200,000	-0,009	0,084
-431,905	-187,392	0,076	0,001
-430,890	800,000	-0,007	0,015
-429,876	800,000	0,019	-0,049
-428,861	-101,939	0,067	0,012
-427,846	800,000	0,043	-0,094
-426,832	198,307	-0,105	-0,117
-425,817	-200,000	-0,007	-0,031
-424,803	63,433	-0,040	0,029
-423,788	-87,674	0,097	-0,021
-422,773	-200,000	0,012	-0,059
-421,759	186,860	0,032	-0,034
-420,744	43,959	0,026	0,017
-419,730	800,000	0,082	-0,188
-418,715	-200,000	-0,025	-0,096
-417,701	-79,162	-0,038	0,009
-416,686	-200,000	-0,001	-0,054
-415,671	-126,860	-0,033	0,004
-414,657	800,000	0,056	0,128
-413,642	29,018	0,042	0,026
-412,628	44,556	-0,030	-0,020
-411,613	116,593	0,094	0,084
-410,598	-162,399	-0,079	-0,003
-409,584	117,111	0,044	0,039
-408,569	277,569	0,047	0,061
-407,555	-33,147	0,049	0,020
-406,540	734,144	0,027	0,053
-405,525	-67,560	-0,127	0,036
-404,511	-200,000	0,010	0,064
-403,496	358,097	-0,020	0,030
-402,482	-22,702	0,111	0,049
-401,467	800,000	0,061	0,166
-400,452	289,838	0,032	0,043
-399,438	-66,894	-0,046	-0,013
-398,423	306,956	-0,086	-0,117
-397,409	118,087	0,022	-0,020
-396,394	563,184	-0,033	-0,058
-395,379	-76,370	0,109	0,028
-394,365	390,522	-0,023	-0,034
-393,350	-128,137	0,088	0,009
-392,336	206,066	-0,099	0,112
-391,321	77,497	-0,047	-0,036
-390,306	-199,424	0,092	0,000
-389,292	38,438	-0,021	0,014
-388,277	-200,000	0,012	0,040
-387,263	12,490	0,127	0,071
-386,248	800,000	-0,009	-0,024
-385,233	-200,000	-0,008	-0,054
-384,219	-1,636	-0,151	-0,077
-383,204	48,058	0,055	0,037
-382,190	112,507	0,023	0,020
-381,175	358,941	-0,048	0,070
-380,160	800,000	0,027	0,069
-379,146	19,373	0,043	0,025
-378,131	-200,000	0,005	0,185
-377,117	1,719	0,108	0,056
-376,102	475,265	0,032	-0,053
-375,088	-200,000	0,010	-0,139
-374,073	800,000	0,043	0,107
-373,058	-200,000	-0,004	0,021
-372,044	676,093	0,078	0,147
-371,029	-26,756	-0,098	0,041
-370,015	800,000	0,005	0,012
-369,000	-200,000	-0,002	0,042
-367,985	191,358	-0,114	0,124
-366,971	-200,000	-0,003	0,118
-365,956	800,000	0,050	0,148
-364,942	-133,754	0,165	-0,015
-363,927	-23,140	-0,134	0,058
-362,912	387,919	0,105	0,157
-361,898	67,200	0,023	-0,017
-360,883	-79,591	-0,142	0,035
-359,869	-200,000	-0,009	-0,074
-358,854	213,396	0,120	-0,138
-357,839	-163,988	0,143	-0,005
-356,825	-76,152	0,050	0,013
-355,810	-26,447	0,029	-0,012
-354,796	717,545	-0,064	0,124
-353,781	-200,000	-0,015	0,086
-352,766	116,670	0,045	0,040
-351,752	151,712	-0,074	0,073
-350,737	-55,484	0,060	0,019
-349,723	737,789	-0,056	0,109
-348,708	14,838	0,089	0,051
-347,693	-200,000	-0,012	0,081
-346,679	251,144	-0,074	0,092
-345,664	-168,365	0,130	-0,004
-344,650	106,212	0,020	0,017
-343,635	163,467	-0,047	-0,048
-342,620	-200,000	0,034	0,142
-341,606	800,000	0,022	-0,071
-340,591	-126,324	0,084	-0,009
-339,577	-200,000	0,017	0,103
-338,562	147,129	-0,184	-0,179
-337,548	800,000	-0,019	-0,054
-336,533	63,849	0,051	0,037
-335,518	-15,518	0,007	-0,003
-334,504	216,638	-0,042	-0,048
-333,489	145,500	0,020	-0,020
-332,475	-87,484	-0,052	0,011
-331,460	265,373	-0,086	0,109
-330,445	-200,000	-0,007	0,088
-329,431	403,126	0,074	0,113
-328,416	800,000	0,051	0,109
-327,402	236,475	-0,035	0,042
-326,387	-174,050	0,074	-0,002
-325,372	31,357	-0,060	0,037
-324,358	182,851	-0,073	-0,078
-323,343	-92,992	0,128	0,026
-322,329	-182,299	-0,072	0,001
-321,314	128,502	0,102	-0,094
-320,299	-22,273	0,090	0,039
-319,285	33,557	-0,133	0,084
-318,270	-200,000	0,004	0,026
-317,256	285,159	0,063	-0,083
-316,241	-200,000	0,002	0,043
-315,226	48,564	0,073	0,049
-314,212	167,099	0,090	0,092
-313,197	200,219	-0,098	0,109
-312,183	446,239	-0,034	0,055
-311,168	-200,000	-0,001	-0,017
-310,153	-131,334	-0,093	0,009
-309,139	70,219	-0,064	-0,048
-308,124	-98,496	0,157	-0,029
-307,110	-200,000	0,022	0,134
-306,095	-163,939	0,097	0,003
-305,080	721,256	-0,057	0,111
-304,066	28,448	0,079	-0,048
-303,051	249,828	-0,076	-0,094
-302,037	-200,000	-0,001	0,045
-301,022	-116,883	-0,008	0,001
-300,008	-133,313	-0,084	0,008
-298,993	-200,000	-0,006	0,083
-297,978	-113,654	-0,024	-0,003
-296,964	-87,528	-0,069	-0,015
-295,949	-90,893	0,144	-0,030
-294,935	800,000	0,061	-0,144
-293,920	-28,453	0,094	0,039
-292,905	74,613	0,065	-0,049
-291,891	-71,703	-0,029	-0,008
-290,876	34,363	-0,088	0,056
-289,862	-137,475	-0,073	-0,006
-288,847	150,527	-0,057	0,056
-287,832	800,000	0,010	0,030
-286,818	163,534	0,109	-0,111
-285,803	82,406	0,037	-0,029
-284,789	445,309	0,047	0,074
-283,774	800,000	-0,058	0,164
-282,759	-147,183	0,066	0,004
-281,745	-200,000	0,027	0,088
-280,730	213,482	0,072	-0,082
-279,716	-102,540	0,093	0,016
-278,701	-108,392	-0,147	0,023
-277,686	-118,713	-0,035	0,004
-276,672	318,831	-0,027	-0,038
-275,657	-0,134	-0,032	-0,016
-274,643	-87,011	-0,118	-0,026
-273,628	-88,112	-0,179	-0,038
-272,613	40,835	0,076	-0,049
-271,599	-102,858	0,046	0,008
-270,584	-83,651	0,127	0,029
-269,570	-13,806	-0,138	0,064
-268,555	-200,000	0,002	-0,185
-267,540	-200,000	0,014	-0,080
-266,526	415,292	-0,005	0,007
-265,511	57,328	-0,132	-0,093
-264,497	-130,873	0,076	0,007
-263,482	-126,770	0,160	0,017
-262,467	800,000	-0,015	0,032
-261,453	48,444	0,089	-0,060
-260,438	-94,734	-0,135	-0,026
-259,424	800,000	0,039	-0,118
-258,409	525,024	-0,030	0,051
-257,395	149,863	0,069	-0,068
-256,380	-78,452	-0,070	0,017
-255,365	800,000	0,026	0,060
-254,351	248,201	0,023	0,028
-253,336	63,198	-0,038	-0,027
-252,322	-200,000	0,023	-0,117
-251,307	-200,000	0,022	-0,078
-250,292	431,805	0,116	-0,183
-249,278	-200,000	-0,045	-0,234
-248,263	-44,745	0,084	-0,030
-247,249	-200,000	-0,010	0,212
-246,234	27,653	0,072	-0,044
-245,219	-114,791	-0,086	-0,012
-244,205	-200,000	-0,047	0,181
-243,190	-200,000	-0,040	0,134
-242,176	-84,763	0,217	0,049
-241,161	-200,000	0,011	0,093
-240,146	16,001	0,048	-0,027
-239,132	-138,485	-0,110	-0,009
-238,117	-37,682	0,077	-0,030
-237,103	-65,238	-0,077	0,022
-236,088	330,302	-0,095	-0,132
-235,073	21,661	0,112	-0,065
-234,059	-11,017	-0,080	0,038
-233,044	27,705	0,069	-0,042
-232,030	800,000	-0,027	-0,083
-231,015	-89,005	0,079	0,017
-230,000	73,153	-0,052	-0,039
-228,986	-72,997	0,140	-0,037
-227,971	-88,768	0,101	-0,021
-226,957	-98,950	0,013	0,002
-225,942	-95,415	0,058	0,011
-224,927	-125,445	-0,045	0,005
-223,913	50,600	-0,130	-0,088
-222,898	-200,000	-0,037	-0,209
-221,884	18,159	-0,060	0,034
-220,869	-200,000	0,000	0,065
-219,855	-75,640	0,065	-0,017
-218,840	147,432	-0,095	0,093
-217,825	9,309	0,046	-0,025
-216,811	-200,000	-0,011	-0,090
-215,796	-200,000	0,025	0,133
-214,782	-200,000	0,026	0,140
-213,767	147,642	-0,089	-0,087
-212,752	-47,073	0,030	0,010
-211,738	114,334	0,046	-0,041
-210,723	-144,631	-0,062	-0,004
-209,709	-51,474	-0,082	0,028
-208,694	-200,000	0,001	-0,075
-207,679	130,800	-0,085	-0,079
-206,665	-46,946	-0,191	-0,067
-205,650	166,510	0,068	0,069
-204,636	-200,000	-0,004	0,018
-203,621	58,842	0,024	0,017
-202,606	726,562	0,029	0,056
-201,592	-200,000	0,028	-0,158
-200,577	467,549	0,063	0,102
-199,563	104,127	0,087	-0,074
-198,548	800,000	-0,054	-0,169
-197,533	800,000	0,066	0,200
-196,519	800,000	-0,037	0,107
-195,504	-56,261	-0,100	0,032
-194,490	-149,977	-0,144	0,008
-193,475	-80,795	0,076	0,018
-192,460	608,966	0,023	0,042
-191,446	34,961	0,036	-0,022
-190,431	-54,748	0,167	-0,054
-189,417	-24,494	-0,059	-0,025
-188,402	-42,616	-0,119	-0,044
-187,387	322,494	0,060	-0,082
-186,373	296,826	0,047	0,062
-185,358	-200,000	-0,038	0,145
-184,344	-76,967	-0,056	-0,014
-183,329	-111,491	-0,050	-0,007
-182,315	800,000	0,031	-0,096
-181,300	562,529	0,018	-0,032
-180,285	82,563	-0,079	0,061
-179,271	285,265	-0,016	-0,021
-178,256	800,000	0,032	-0,076
-177,242	278,564	0,027	0,035
-176,227	575,753	0,077	0,136
-175,212	139,119	-0,110	-0,104
-174,198	800,000	-0,059	0,172
-173,183	-200,000	-0,049	-0,191
-172,169	-86,022	-0,156	-0,034
-171,154	40,969	0,129	-0,084
-170,139	40,344	0,036	-0,023
-169,125	669,988	-0,032	-0,059
-168,110	-78,159	0,053	0,013
-167,096	230,495	-0,066	0,077
-166,081	592,716	-0,040	-0,071
-165,066	365,951	0,077	-0,112
-164,052	-200,000	-0,027	-0,094
-163,037	321,660	-0,055	-0,075
-162,023	-151,013	0,064	0,003
-161,008	-200,000	0,010	0,065
-159,993	-67,576	-0,093	0,026
-158,979	-160,619	-0,163	-0,006
-157,964	778,718	-0,051	0,101
-156,950	239,894	0,091	0,109
-155,935	57,263	0,040	-0,028
-154,920	-200,000	-0,025	0,113
-153,906	420,992	0,068	0,105
-152,891	-130,171	-0,104	0,010
-151,877	-200,000	0,021	-0,151
-150,862	-200,000	-0,015	-0,098
-149,847	63,318	-0,086	-0,062
-148,833	78,802	0,025	-0,019
-147,818	170,720	0,105	-0,108
-146,804	800,000	-0,069	0,160
-145,789	253,182	0,083	0,102
-144,775	800,000	0,031	-0,068
-143,760	-200,000	0,033	-0,108
-142,745	427,337	0,031	0,048
-141,731	-200,000	-0,031	-0,115
-140,716	13,950	0,020	-0,011
-139,702	203,305	0,095	0,106
-138,687	-155,426	-0,033	0,002
-137,672	57,375	0,072	0,051
-136,658	800,000	-0,052	-0,119
-135,643	28,613	-0,072	-0,043
-134,629	-4,709	0,096	-0,047
-133,614	800,000	-0,015	-0,036
-132,599	-200,000	-0,010	0,089
-131,585	755,301	-0,045	-0,089
-130,570	42,887	0,053	-0,035
-129,556	-200,000	0,015	-0,116
-128,541	81,032	-0,015	0,012
-127,526	-200,000	0,026	-0,087
-126,512	228,232	-0,048	-0,056
-125,497	319,562	-0,034	0,047
-124,483	-48,158	0,053	0,018
-123,468	312,049	0,044	-0,059
-122,453	191,989	-0,037	-0,040
-121,439	-200,000	-0,003	-0,057
-120,424	301,621	-0,016	0,022
