DTS Sentinel unit serial number:	SN410029Multiplexer serial number:	ORYXHardware model number:	OX2-SRSoftware version number:	ORYX F/W v4,00 Oryx Data Collector v3.7.2.0data status	okinstallation	B6 Nyhavnadifferential loss correction	single-endedforward channel	channel 2reverse channel	N/Adate	2023/12/10time	19:35:09forward acquisition time	300,00reverse acquisition time	0,00gamma	499,1914k internal	0,3122k external	0,3122temperature offset calibration	1,0000default loss term (dB/km)	0,3820temperature slope calibration	1,0000multiplexer offset coefficient	1,0000multiplexer slope coefficient	1,0000fibre end	0,00T internal ref (°C)	22,31T ext. ref 1 (°C)	6,01T ext. ref 2 (°C)	6,01length (m)	temperature (°C)	Stokes	anti-Stokes-744,400	11,649	0,095	-0,054
-743,385	-35,417	-0,182	0,073
-742,371	335,431	-0,062	0,089
-741,356	20,965	-0,349	0,211
-740,342	-147,050	0,103	-0,006
-739,327	-64,254	-0,422	0,127
-738,312	515,137	0,052	-0,091
-737,298	-77,331	-0,313	-0,080
-736,283	538,201	-0,060	-0,107
-735,269	800,000	-0,122	0,269
-734,254	-100,843	0,131	-0,024
-733,239	-66,715	-0,367	-0,108
-732,225	-74,088	0,206	-0,055
-731,210	-84,133	0,078	-0,018
-730,196	-87,208	-0,168	0,038
-729,181	51,380	-0,075	-0,053
-728,167	-23,169	0,093	-0,042
-727,152	-200,000	0,004	-0,028
-726,137	-82,135	-0,115	-0,028
-725,123	-44,379	-0,108	0,040
-724,108	800,000	0,048	-0,137
-723,094	-155,937	-0,096	-0,004
-722,079	626,911	-0,009	-0,016
-721,064	146,842	0,122	0,122
-720,050	87,450	-0,109	-0,090
-719,035	-200,000	0,010	-0,078
-718,021	-152,609	0,137	0,007
-717,006	-200,000	0,026	0,123
-715,991	-200,000	-0,016	0,072
-714,977	800,000	0,016	0,037
-713,962	-70,037	-0,118	-0,033
-712,948	-84,043	0,063	-0,015
-711,933	-117,023	0,074	0,010
-710,918	155,424	-0,061	-0,063
-709,904	-73,532	-0,111	-0,030
-708,889	-9,366	-0,177	0,088
-707,875	-200,000	-0,000	-0,046
-706,860	125,759	0,107	0,100
-705,845	119,031	0,042	-0,039
-704,831	6,287	0,037	-0,020
-703,816	69,224	-0,053	-0,041
-702,802	-50,554	-0,179	-0,063
-701,787	800,000	0,037	-0,103
-700,772	507,384	-0,080	0,139
-699,758	800,000	-0,034	0,080
-698,743	-28,238	0,065	-0,028
-697,729	-9,853	0,091	-0,045
-696,714	-80,773	-0,051	-0,012
-695,699	-200,000	-0,022	-0,072
-694,685	800,000	-0,016	-0,039
-693,670	800,000	0,071	-0,162
-692,656	800,000	-0,056	-0,155
-691,641	-56,959	0,037	-0,012
-690,627	608,064	0,038	-0,071
-689,612	188,068	-0,031	0,035
-688,597	-9,513	0,001	-0,001
-687,583	-29,470	-0,258	-0,109
-686,568	60,009	0,068	-0,050
-685,554	709,022	0,078	-0,154
-684,539	-47,312	-0,122	0,044
-683,524	800,000	0,023	-0,059
-682,510	-63,178	0,147	0,045
-681,495	704,701	-0,017	0,033
-680,481	-91,228	-0,138	-0,029
-679,466	-127,707	0,049	0,005
-678,451	-77,347	0,045	0,011
-677,437	800,000	0,025	-0,073
-676,422	-200,000	-0,005	0,020
-675,408	424,571	-0,058	-0,093
-674,393	370,979	-0,029	-0,044
-673,378	-33,978	-0,118	-0,048
-672,364	-115,506	0,075	0,010
-671,349	-188,011	-0,160	-0,001
-670,335	39,808	-0,140	-0,093
-669,320	800,000	0,040	0,108
-668,305	15,557	0,105	-0,061
-667,291	800,000	-0,029	-0,078
-666,276	38,879	0,014	0,009
-665,262	9,606	-0,027	0,015
-664,247	-81,444	-0,130	-0,032
-663,232	614,888	-0,067	-0,126
-662,218	-138,914	0,053	0,004
-661,203	127,570	-0,024	0,022
-660,189	-200,000	0,007	-0,053
-659,174	800,000	-0,058	-0,168
-658,159	-115,917	-0,128	-0,018
-657,145	-11,364	0,068	-0,033
-656,130	-125,536	-0,094	-0,010
-655,116	51,702	-0,103	0,073
-654,101	-98,357	-0,056	0,011
-653,086	-200,000	-0,002	0,043
-652,072	-169,653	-0,118	0,003
-651,057	256,853	0,077	-0,099
-650,043	-200,000	0,031	-0,121
-649,028	-74,434	-0,091	-0,024
-648,014	800,000	0,037	0,103
-646,999	800,000	-0,069	0,169
-645,984	-200,000	0,002	-0,134
-644,970	-119,740	-0,143	-0,018
-643,955	-200,000	-0,087	0,000
-642,941	-200,000	-0,038	-0,185
-641,926	-200,000	-0,011	-0,078
-640,911	-165,759	-0,138	0,004
-639,897	785,587	0,002	0,004
-638,882	-12,359	0,116	0,056
-637,868	-200,000	0,015	0,074
-636,853	193,094	-0,153	-0,172
-635,838	37,578	0,077	-0,050
-634,824	215,213	-0,096	0,113
-633,809	-156,604	-0,141	-0,006
-632,795	-200,000	-0,022	-0,207
-631,780	-10,798	0,077	0,038
-630,765	8,561	0,067	0,037
-629,751	800,000	0,044	-0,091
-628,736	218,956	-0,081	0,096
-627,722	-118,296	-0,032	0,004
-626,707	-35,263	-0,119	-0,048
-625,692	37,101	0,090	-0,059
-624,678	6,506	-0,046	-0,025
-623,663	-118,225	0,077	0,010
-622,649	-200,000	-0,023	0,091
-621,634	368,811	-0,067	-0,100
-620,619	-200,000	0,001	-0,036
-619,605	-83,512	0,069	-0,016
-618,590	354,075	0,057	-0,085
-617,576	800,000	-0,012	-0,027
-616,561	323,226	0,028	0,040
-615,546	-200,000	-0,025	-0,129
-614,532	-200,000	0,054	-0,193
-613,517	-200,000	-0,008	0,031
-612,503	800,000	0,037	-0,080
-611,488	66,958	0,076	-0,057
-610,474	159,367	0,126	-0,130
-609,459	-136,820	0,105	0,009
-608,444	800,000	0,083	-0,187
-607,430	-64,450	-0,132	0,039
-606,415	82,627	0,059	-0,048
-605,401	85,022	-0,088	0,071
-604,386	299,838	0,039	0,053
-603,371	-32,404	-0,127	-0,052
-602,357	-143,934	-0,136	-0,009
-601,342	800,000	0,045	-0,128
-600,328	800,000	0,036	-0,108
-599,313	-200,000	-0,022	-0,124
-598,298	800,000	0,028	-0,068
-597,284	-200,000	-0,013	0,051
-596,269	-83,811	0,171	0,040
-595,255	98,896	-0,071	0,061
-594,240	800,000	0,029	-0,073
-593,225	80,512	-0,071	-0,057
-592,211	-200,000	-0,009	0,033
-591,196	-200,000	-0,001	0,025
-590,182	607,850	-0,017	-0,032
-589,167	37,967	0,054	-0,035
-588,152	-44,840	-0,072	0,026
-587,138	575,326	0,046	0,084
-586,123	800,000	-0,048	0,111
-585,109	-200,000	0,023	-0,082
-584,094	274,562	0,038	0,050
-583,079	-200,000	-0,041	0,168
-582,065	158,735	-0,137	0,141
-581,050	28,531	-0,041	-0,026
-580,036	-55,051	0,048	0,016
-579,021	624,518	0,024	-0,045
-578,006	-152,268	-0,051	-0,003
-576,992	623,084	0,045	-0,085
-575,977	-0,446	0,080	-0,042
-574,963	-35,023	0,033	-0,013
-573,948	-200,000	0,018	0,115
-572,934	10,774	0,070	0,039
-571,919	119,918	0,010	-0,009
-570,904	23,246	-0,080	-0,048
-569,890	398,576	0,079	-0,123
-568,875	-175,145	-0,112	0,002
-567,861	-200,000	-0,004	0,044
-566,846	800,000	0,034	0,094
-565,831	-200,000	0,045	0,155
-564,817	-109,174	-0,042	-0,006
-563,802	-200,000	0,000	0,029
-562,788	-157,757	-0,165	-0,007
-561,773	396,922	-0,056	0,086
-560,758	-200,000	0,003	-0,106
-559,744	-200,000	-0,007	0,052
-558,729	720,108	-0,015	0,030
-557,715	-136,249	0,134	-0,011
-556,700	-8,555	-0,072	-0,036
-555,685	258,742	-0,061	-0,079
-554,671	-200,000	-0,006	-0,069
-553,656	-200,000	-0,008	-0,063
-552,642	-200,000	0,017	-0,059
-551,627	5,310	0,067	0,036
-550,612	-200,000	-0,002	-0,050
-549,598	-150,947	0,033	-0,002
-548,583	-56,148	-0,128	0,042
-547,569	800,000	-0,008	0,021
-546,554	-63,598	-0,085	-0,026
-545,539	-200,000	0,009	-0,067
-544,525	800,000	-0,066	0,197
-543,510	219,594	-0,098	-0,117
-542,496	800,000	0,017	-0,048
-541,481	-200,000	0,004	-0,197
-540,466	-145,767	0,055	-0,004
-539,452	-89,216	-0,158	-0,034
-538,437	800,000	-0,032	0,076
-537,423	-200,000	-0,007	0,035
-536,408	181,104	0,081	0,088
-535,393	800,000	-0,019	-0,048
-534,379	548,380	-0,022	0,038
-533,364	4,294	-0,069	-0,037
-532,350	-119,799	0,043	-0,005
-531,335	800,000	-0,045	0,141
-530,321	-6,647	0,106	0,053
-529,306	-24,531	0,115	0,050
-528,291	800,000	-0,065	-0,142
-527,277	-35,267	-0,101	-0,040
-526,262	18,130	0,052	-0,031
-525,248	800,000	-0,055	-0,148
-524,233	800,000	0,046	-0,146
-523,218	0,930	0,135	-0,071
-522,204	800,000	0,025	0,063
-521,189	719,783	-0,032	-0,064
-520,175	731,795	-0,078	0,155
-519,160	252,755	-0,035	-0,044
-518,145	31,448	0,098	-0,062
-517,131	14,356	-0,026	-0,015
-516,116	-200,000	0,037	0,170
-515,102	-118,391	0,010	0,001
-514,087	-125,515	-0,157	0,017
-513,072	800,000	0,019	-0,058
-512,058	563,420	-0,040	-0,071
-511,043	159,013	0,032	-0,033
-510,029	-88,642	-0,091	0,020
-509,014	400,035	-0,037	-0,057
-507,999	-200,000	-0,001	0,056
-506,985	-126,626	-0,052	0,006
-505,970	-200,000	-0,004	0,023
-504,956	4,323	-0,092	-0,050
-503,941	-126,839	-0,033	-0,004
-502,926	-200,000	-0,003	-0,029
-501,912	-145,053	0,106	-0,007
-500,897	-42,195	0,097	-0,036
-499,883	159,948	-0,057	-0,058
-498,868	800,000	-0,029	-0,074
-497,853	800,000	-0,031	0,075
-496,839	-140,126	0,071	0,005
-495,824	172,782	0,039	0,042
-494,810	-200,000	-0,003	0,075
-493,795	-200,000	-0,015	-0,083
-492,781	-109,860	-0,042	0,006
-491,766	133,760	-0,078	0,074
-490,751	800,000	0,010	-0,024
-489,737	14,188	0,068	0,039
-488,722	234,895	-0,040	-0,049
-487,708	-200,000	0,003	0,083
-486,693	162,155	0,090	0,093
-485,678	6,660	0,133	-0,073
-484,664	382,152	0,073	-0,110
-483,649	-200,000	0,002	-0,083
-482,635	160,111	0,015	-0,016
-481,620	-32,951	0,119	0,049
-480,605	498,781	-0,071	0,121
-479,591	800,000	0,043	0,119
-478,576	800,000	0,071	0,147
-477,562	172,385	-0,032	0,034
-476,547	609,709	0,041	-0,076
-475,532	328,075	-0,045	-0,064
-474,518	51,878	0,184	0,129
-473,503	-200,000	-0,001	0,104
-472,489	-142,589	-0,135	-0,010
-471,474	800,000	-0,014	-0,035
-470,459	-148,551	-0,144	-0,009
-469,445	2,290	0,037	-0,020
-468,430	401,251	0,043	0,066
-467,416	-200,000	0,004	0,046
-466,401	-200,000	-0,004	0,093
-465,386	393,382	-0,079	0,121
-464,372	-200,000	0,002	0,126
-463,357	26,832	-0,037	0,023
-462,343	-100,116	0,039	0,007
-461,328	800,000	0,039	0,112
-460,313	-200,000	0,015	0,171
-459,299	-2,196	0,127	0,065
-458,284	109,089	0,103	-0,091
-457,270	-200,000	0,014	-0,131
-456,255	-178,110	-0,145	-0,002
-455,241	-200,000	-0,012	0,160
-454,226	800,000	0,050	0,154
-453,211	214,010	-0,065	-0,075
-452,197	-200,000	0,024	0,102
-451,182	-200,000	-0,008	0,108
-450,168	800,000	0,024	0,054
-449,153	-200,000	-0,003	0,026
-448,138	-200,000	-0,006	0,070
-447,124	117,857	0,036	0,033
-446,109	260,410	0,062	-0,079
-445,095	-44,097	-0,140	-0,052
-444,080	35,464	-0,041	-0,026
-443,065	22,872	-0,123	0,074
-442,051	530,681	-0,015	-0,026
-441,036	800,000	0,028	-0,075
-440,022	130,546	0,080	-0,075
-439,007	-12,368	-0,109	0,052
-437,992	-53,011	0,130	0,044
-436,978	686,361	0,065	0,126
-435,963	-70,558	0,077	0,021
-434,949	-11,197	-0,080	-0,039
-433,934	666,157	-0,052	-0,100
-432,919	-107,044	0,140	-0,022
-431,905	-35,729	-0,109	0,043
-430,890	-200,000	0,003	0,061
-429,876	97,770	0,099	-0,084
-428,861	-200,000	0,015	0,091
-427,846	-18,744	-0,059	0,027
-426,832	-104,258	-0,080	0,014
-425,817	-34,714	0,121	-0,048
-424,803	-87,524	-0,021	-0,005
-423,788	22,066	0,107	0,064
-422,773	98,741	-0,142	0,121
-421,759	-200,000	0,003	-0,049
-420,744	38,385	0,059	0,039
-419,730	-141,127	-0,146	0,011
-418,715	-200,000	0,023	0,079
-417,701	-200,000	-0,015	0,055
-416,686	-200,000	0,016	0,148
-415,671	-38,593	0,031	0,012
-414,657	-5,574	0,137	-0,069
-413,642	-200,000	0,002	0,098
-412,628	-200,000	-0,013	-0,042
-411,613	-200,000	-0,001	-0,022
-410,598	800,000	0,017	-0,052
-409,584	307,802	-0,047	0,065
-408,569	800,000	0,007	0,019
-407,555	-200,000	-0,012	-0,062
-406,540	-45,062	0,143	0,052
-405,525	-134,245	-0,117	-0,010
-404,511	14,454	-0,077	-0,044
-403,496	584,820	-0,048	0,088
-402,482	-69,631	0,083	0,023
-401,467	12,067	0,078	0,044
-400,452	-20,582	0,031	-0,014
-399,438	75,484	0,089	0,069
-398,423	-130,639	-0,082	-0,008
-397,409	-38,857	0,057	0,022
-396,394	-63,623	-0,108	-0,033
-395,379	800,000	0,032	-0,067
-394,365	127,836	0,084	-0,078
-393,350	561,140	0,021	-0,038
-392,336	15,658	0,106	-0,061
-391,321	-134,437	0,095	0,008
-390,306	352,872	0,009	-0,013
-389,292	800,000	-0,063	-0,196
-388,277	-171,090	-0,058	-0,001
-387,263	-33,836	0,027	-0,011
-386,248	-200,000	0,008	-0,068
-385,233	-200,000	-0,011	-0,039
-384,219	281,730	-0,059	0,078
-383,204	227,203	-0,016	0,019
-382,190	-40,118	-0,171	-0,065
-381,175	-149,078	0,161	-0,009
-380,160	-70,640	0,051	-0,014
-379,146	-54,561	0,073	0,024
-378,131	-200,000	0,021	0,190
-377,117	-200,000	0,001	0,092
-376,102	-200,000	-0,020	-0,088
-375,088	-163,873	0,081	0,003
-374,073	800,000	-0,008	0,020
-373,058	248,200	0,046	0,058
-372,044	-200,000	0,033	0,120
-371,029	800,000	-0,065	0,134
-370,015	159,381	0,027	-0,027
-369,000	800,000	0,031	0,092
-367,985	800,000	0,049	-0,100
-366,971	800,000	0,022	-0,059
-365,956	-200,000	-0,042	-0,245
-364,942	800,000	-0,015	-0,041
-363,927	136,397	0,177	0,169
-362,912	-70,753	-0,111	-0,031
-361,898	-132,721	-0,084	-0,008
-360,883	-51,398	-0,080	0,027
-359,869	150,087	-0,026	0,026
-358,854	522,952	0,021	0,037
-357,839	-200,000	-0,016	0,190
-356,825	-200,000	-0,035	0,132
-355,810	50,975	0,128	-0,089
-354,796	44,087	0,079	0,053
-353,781	738,607	-0,070	0,138
-352,766	482,900	-0,046	-0,077
-351,752	-7,575	0,082	0,041
-350,737	206,421	0,037	0,042
-349,723	-138,334	0,022	-0,002
-348,708	800,000	0,002	0,006
-347,693	236,984	-0,087	0,106
-346,679	168,648	-0,091	0,095
-345,664	-200,000	-0,001	-0,073
-344,650	800,000	0,060	-0,130
-343,635	448,525	0,017	-0,028
-342,620	-36,127	0,026	0,010
-341,606	-4,125	-0,033	0,017
-340,591	-105,117	-0,138	-0,023
-339,577	21,804	-0,217	0,129
-338,562	-200,000	-0,041	-0,143
-337,548	-200,000	0,000	0,007
-336,533	-46,969	-0,055	0,019
-335,518	-200,000	-0,016	-0,113
-334,504	-30,533	-0,071	-0,029
-333,489	138,482	0,046	0,045
-332,475	-38,771	-0,029	-0,011
-331,460	-200,000	0,015	-0,077
-330,445	286,072	-0,059	0,078
-329,431	-152,535	0,063	-0,003
-328,416	-114,086	0,138	0,019
-327,402	800,000	-0,046	0,146
-326,387	-83,801	0,062	0,014
-325,372	180,008	0,048	-0,051
-324,358	-200,000	-0,001	-0,114
-323,343	74,990	0,111	-0,086
-322,329	-49,401	-0,018	-0,006
-321,314	312,184	0,061	-0,085
-320,299	-200,000	0,031	-0,103
-319,285	-130,042	0,034	0,003
-318,270	61,092	-0,093	-0,067
-317,256	-33,513	-0,061	0,024
-316,241	800,000	-0,010	0,027
-315,226	-81,149	0,081	-0,020
-314,212	800,000	-0,051	-0,122
-313,197	471,690	0,040	-0,067
-312,183	-198,867	0,032	0,000
-311,168	124,648	-0,101	-0,093
-310,153	88,552	0,018	0,015
-309,139	-122,542	0,140	-0,016
-308,124	26,200	0,090	0,055
-307,110	688,199	0,009	0,017
-306,095	315,473	-0,099	0,137
-305,080	-96,357	-0,068	-0,013
-304,066	425,231	0,028	0,044
-303,051	-107,385	-0,087	0,014
-302,037	541,401	0,067	-0,118
-301,022	-200,000	0,001	-0,163
-300,008	-146,393	0,033	0,002
-298,993	800,000	-0,025	0,072
-297,978	-98,614	0,143	0,027
-296,964	-200,000	0,004	0,070
-295,949	-67,634	0,008	-0,002
-294,935	800,000	0,029	-0,063
-293,920	283,491	-0,028	0,037
-292,905	143,281	0,029	0,029
-291,891	800,000	0,052	0,140
-290,876	-200,000	0,006	0,066
-289,862	451,164	-0,039	-0,064
-288,847	147,837	-0,030	-0,030
-287,832	800,000	-0,051	-0,121
-286,818	-103,529	0,155	-0,026
-285,803	-100,547	0,075	-0,013
-284,789	49,471	-0,085	-0,058
-283,774	-158,796	0,255	0,010
-282,759	-200,000	-0,019	-0,122
-281,745	-51,157	-0,051	0,017
-280,730	-92,719	-0,043	0,009
-279,716	-200,000	0,010	0,086
-278,701	800,000	-0,031	0,070
-277,686	83,197	-0,114	0,091
-276,672	800,000	-0,063	0,150
-275,657	516,045	0,075	-0,129
-274,643	-0,982	0,103	0,053
-273,628	269,229	-0,100	-0,129
-272,613	-83,911	0,045	-0,010
-271,599	-200,000	-0,002	-0,121
-270,584	15,173	-0,090	-0,052
-269,570	49,186	-0,023	0,016
-268,555	-63,198	-0,116	0,035
-267,540	-183,231	0,122	0,002
-266,526	320,076	0,083	0,115
-265,511	3,421	-0,063	0,034
-264,497	-200,000	0,017	0,086
-263,482	-200,000	0,003	-0,014
-262,467	-200,000	0,005	-0,045
-261,453	315,618	-0,027	-0,037
-260,438	-200,000	0,008	-0,065
-259,424	-200,000	-0,010	-0,098
-258,409	140,681	0,082	-0,080
-257,395	-166,684	0,055	0,002
-256,380	48,761	0,103	-0,071
-255,365	-200,000	-0,004	0,033
-254,351	-200,000	-0,012	-0,090
-253,336	-200,000	0,047	0,173
-252,322	52,223	0,083	0,058
-251,307	-200,000	-0,040	0,162
-250,292	73,719	0,091	0,069
-249,278	-200,000	0,021	0,078
-248,263	-84,234	0,154	0,036
-247,249	-200,000	-0,041	0,158
-246,234	344,296	-0,028	-0,041
-245,219	-129,437	-0,111	0,011
-244,205	598,742	-0,026	-0,047
-243,190	-200,000	0,001	-0,008
-242,176	164,906	0,011	0,011
-241,161	-11,428	0,092	0,044
-240,146	253,494	-0,100	0,124
-239,132	-44,762	-0,136	0,049
-238,117	-115,867	-0,062	-0,008
-237,103	-200,000	-0,010	-0,044
-236,088	-200,000	-0,011	-0,060
-235,073	-156,703	0,148	-0,007
-234,059	-81,220	0,085	0,020
-233,044	-91,814	0,063	-0,013
-232,030	11,350	0,098	-0,055
-231,015	188,947	-0,076	-0,084
-230,000	396,046	-0,034	-0,051
-228,986	205,891	-0,105	0,119
-227,971	142,056	0,091	0,088
-226,957	201,760	-0,016	0,018
-225,942	-42,753	0,065	-0,024
-224,927	-198,700	-0,105	-0,000
-223,913	800,000	-0,050	-0,120
-222,898	-37,596	0,095	-0,037
-221,884	485,059	0,035	0,058
-220,869	98,737	0,069	0,058
-219,855	38,578	-0,076	-0,049
-218,840	315,031	-0,049	-0,068
-217,825	800,000	0,021	-0,058
-216,811	-99,184	-0,172	-0,032
-215,796	-200,000	0,002	-0,051
-214,782	-4,609	-0,029	-0,015
-213,767	639,461	0,003	0,005
-212,752	-200,000	0,005	0,070
-211,738	147,942	0,079	0,077
-210,723	593,671	-0,039	0,071
-209,709	-109,315	-0,198	0,030
-208,694	-200,000	0,036	-0,129
-207,679	800,000	-0,035	-0,094
-206,665	3,198	-0,053	0,028
-205,650	637,039	0,035	0,065
-204,636	-99,352	0,097	0,018
-203,621	17,918	0,043	0,025
-202,606	-141,130	-0,150	-0,011
-201,592	160,589	-0,075	-0,077
-200,577	259,330	-0,057	-0,073
-199,563	800,000	-0,023	-0,056
-198,548	-200,000	-0,028	0,166
-197,533	-200,000	-0,037	0,210
-196,519	29,772	0,053	0,033
-195,504	-200,000	-0,017	0,061
-194,490	-120,919	-0,050	-0,006
-193,475	-53,481	0,029	0,010
-192,460	-146,086	-0,134	-0,009
-191,446	-25,320	0,083	-0,036
-190,431	-21,275	0,048	-0,021
-189,417	-6,314	0,085	-0,042
-188,402	-12,918	-0,170	-0,080
-187,387	-200,000	-0,049	-0,181
-186,373	-46,963	0,049	0,017
-185,358	-200,000	-0,007	-0,084
-184,344	286,592	0,028	0,037
-183,329	-87,350	0,136	0,030
-182,315	-144,871	0,161	0,011
-181,300	9,401	-0,042	0,023
-180,285	197,769	-0,130	0,145
-179,271	214,537	-0,025	-0,029
-178,256	-26,383	0,012	-0,005
-177,242	-54,229	0,036	0,012
-176,227	14,835	0,040	0,023
-175,212	173,434	0,026	-0,027
-174,198	800,000	0,026	-0,080
-173,183	68,713	0,062	-0,046
-172,169	800,000	0,018	-0,043
-171,154	-200,000	0,029	-0,192
-170,139	324,689	0,009	-0,013
-169,125	184,953	0,048	-0,052
-168,110	-200,000	-0,000	0,058
-167,096	-200,000	-0,051	-0,239
-166,081	-200,000	0,007	0,062
-165,066	-96,368	-0,079	-0,015
-164,052	15,601	0,053	-0,030
-163,037	-200,000	0,005	0,054
-162,023	22,267	0,083	0,049
-161,008	-15,174	-0,048	-0,022
-159,993	29,763	0,068	0,042
-158,979	299,233	-0,120	0,161
-157,964	800,000	-0,080	-0,173
-156,950	-66,045	0,077	0,022
-155,935	800,000	-0,026	0,061
-154,920	561,884	-0,065	0,115
-153,906	-45,075	0,126	-0,045
-152,891	-200,000	-0,022	-0,129
-151,877	-200,000	0,006	0,043
-150,862	800,000	-0,093	-0,256
-149,847	704,240	0,073	-0,141
-148,833	-200,000	0,012	-0,250
-147,818	-200,000	-0,006	0,037
-146,804	-145,824	0,167	0,011
-145,789	430,428	0,027	-0,043
-144,775	204,864	-0,042	-0,047
-143,760	-200,000	0,010	-0,042
-142,745	800,000	-0,027	0,079
-141,731	136,842	0,096	-0,091
-140,716	-200,000	0,004	0,013
-139,702	224,941	0,031	0,036
-138,687	-200,000	0,024	0,096
-137,672	-172,881	0,220	0,005
-136,658	800,000	-0,020	-0,042
-135,643	0,524	0,046	-0,024
-134,629	109,836	0,062	-0,054
-133,614	-74,179	0,084	-0,022
-132,599	800,000	0,018	0,042
-131,585	-51,242	-0,162	0,055
-130,570	126,621	0,035	-0,032
-129,556	-200,000	0,005	0,038
-128,541	-200,000	-0,043	-0,145
-127,526	-50,084	0,015	-0,005
-126,512	143,594	-0,060	0,058
-125,497	-36,613	0,076	-0,029
-124,483	7,904	0,059	-0,032
-123,468	57,607	0,060	0,043
-122,453	14,388	-0,037	-0,021
-121,439	228,159	-0,019	-0,023
-120,424	-200,000	0,002	-0,080
-119,410	-1,246	0,070	-0,036
