DTS Sentinel unit serial number:	SN410029Multiplexer serial number:	ORYXHardware model number:	OX2-SRSoftware version number:	ORYX F/W v4,00 Oryx Data Collector v3.7.2.0data status	okinstallation	B6 Nyhavnadifferential loss correction	single-endedforward channel	channel 2reverse channel	N/Adate	2023/12/08time	08:35:08forward acquisition time	300,00reverse acquisition time	0,00gamma	499,1914k internal	0,3170k external	0,3170temperature offset calibration	1,0000default loss term (dB/km)	0,3820temperature slope calibration	1,0000multiplexer offset coefficient	1,0000multiplexer slope coefficient	1,0000fibre end	0,00T internal ref (°C)	11,89T ext. ref 1 (°C)	-2,32T ext. ref 2 (°C)	-2,26length (m)	temperature (°C)	Stokes	anti-Stokes-744,400	-42,712	0,106	0,039
-743,385	-17,144	-0,260	-0,120
-742,371	-90,128	0,196	-0,042
-741,356	-80,018	-0,231	0,057
-740,342	-154,503	0,079	0,004
-739,327	-73,459	-0,424	-0,113
-738,312	-73,710	0,165	0,044
-737,298	-95,810	-0,375	-0,073
-736,283	69,494	0,056	-0,043
-735,269	-147,163	-0,431	-0,027
-734,254	-15,974	0,142	0,066
-733,239	66,606	-0,514	-0,383
-732,225	-133,542	0,242	0,022
-731,210	63,468	0,031	0,023
-730,196	22,504	0,029	0,017
-729,181	-200,000	-0,014	0,084
-728,167	3,578	-0,063	0,034
-727,152	-94,334	0,035	-0,007
-726,137	4,285	-0,098	0,053
-725,123	299,123	-0,043	-0,058
-724,108	91,210	-0,022	-0,018
-723,094	284,105	0,078	-0,103
-722,079	-200,000	-0,018	0,182
-721,064	800,000	-0,018	0,058
-720,050	-126,102	0,009	0,001
-719,035	415,280	0,032	0,051
-718,021	226,111	-0,094	-0,112
-717,006	-200,000	-0,088	0,000
-715,991	-200,000	-0,004	0,055
-714,977	-153,986	-0,165	0,008
-713,962	52,424	0,073	-0,051
-712,948	-200,000	-0,003	0,051
-711,933	357,992	0,030	0,044
-710,918	-199,256	-0,110	-0,000
-709,904	81,741	-0,144	-0,114
-708,889	121,286	-0,055	0,051
-707,875	781,447	-0,019	-0,039
-706,860	-15,239	-0,154	-0,072
-705,845	17,687	-0,085	-0,050
-704,831	800,000	-0,052	-0,113
-703,816	-200,000	0,010	-0,131
-702,802	-29,615	-0,095	-0,040
-701,787	-98,324	-0,146	0,027
-700,772	462,453	0,045	0,073
-699,758	-200,000	0,031	-0,156
-698,743	52,029	-0,060	-0,042
-697,729	-200,000	-0,015	0,103
-696,714	800,000	-0,036	-0,103
-695,699	130,418	0,018	-0,017
-694,685	259,144	-0,052	0,065
-693,670	-30,495	-0,222	-0,092
-692,656	-200,000	-0,018	-0,149
-691,641	267,142	0,073	0,094
-690,627	216,958	-0,062	0,073
-689,612	679,180	-0,034	0,065
-688,597	687,832	0,013	-0,024
-687,583	318,551	-0,031	-0,043
-686,568	393,539	-0,062	0,094
-685,554	97,889	0,058	-0,049
-684,539	-25,969	-0,043	0,018
-683,524	43,822	-0,135	-0,090
-682,510	27,051	-0,104	0,064
-681,495	375,251	0,084	0,126
-680,481	-68,403	-0,224	-0,063
-679,466	15,329	-0,067	-0,039
-678,451	42,494	-0,044	0,029
-677,437	-200,000	0,040	0,150
-676,422	15,450	0,004	-0,002
-675,408	27,815	0,042	-0,026
-674,393	-200,000	-0,004	0,048
-673,378	-37,214	0,027	0,011
-672,364	-172,770	-0,110	-0,002
-671,349	653,466	-0,041	0,078
-670,335	-31,638	0,082	0,034
-669,320	187,533	-0,046	0,050
-668,305	-96,152	-0,110	-0,021
-667,291	115,938	-0,054	-0,048
-666,276	-110,784	-0,107	-0,016
-665,262	171,168	-0,049	0,051
-664,247	182,523	-0,098	-0,106
-663,232	243,564	0,069	0,085
-662,218	-122,259	0,098	0,012
-661,203	-200,000	-0,005	0,016
-660,189	-200,000	0,046	0,191
-659,174	-94,085	0,025	-0,005
-658,159	154,595	-0,058	-0,058
-657,145	800,000	-0,026	0,079
-656,130	-62,984	-0,122	0,037
-655,116	-200,000	0,003	-0,065
-654,101	-3,019	0,077	0,039
-653,086	-200,000	0,035	0,115
-652,072	97,347	0,068	0,057
-651,057	-200,000	0,001	-0,157
-650,043	-27,900	-0,199	-0,084
-649,028	74,935	-0,118	-0,091
-648,014	-133,230	-0,080	0,007
-646,999	23,991	-0,047	-0,028
-645,984	85,841	-0,038	0,030
-644,970	154,731	0,038	-0,038
-643,955	69,991	-0,178	-0,134
-642,941	-200,000	0,003	0,040
-641,926	-200,000	-0,006	-0,119
-640,911	-200,000	0,018	-0,149
-639,897	90,960	-0,048	0,040
-638,882	-79,492	0,014	0,003
-637,868	48,108	-0,119	-0,082
-636,853	20,370	-0,065	-0,038
-635,838	-200,000	0,003	-0,110
-634,824	490,127	-0,052	-0,087
-633,809	310,642	0,072	-0,099
-632,795	800,000	-0,045	0,129
-631,780	-13,527	-0,110	-0,052
-630,765	-200,000	-0,019	0,096
-629,751	-200,000	-0,002	0,060
-628,736	-200,000	0,001	0,063
-627,722	800,000	-0,034	-0,072
-626,707	-92,018	0,067	-0,014
-625,692	-200,000	0,037	0,178
-624,678	-90,966	0,098	0,020
-623,663	-66,467	-0,063	0,018
-622,649	-200,000	0,042	0,236
-621,634	-58,966	-0,146	-0,046
-620,619	-200,000	-0,013	0,045
-619,605	100,519	0,049	-0,042
-618,590	-200,000	-0,004	0,057
-617,576	-66,511	0,123	-0,036
-616,561	-34,523	-0,065	0,026
-615,546	165,296	0,016	0,016
-614,532	-112,070	-0,127	-0,018
-613,517	-200,000	-0,009	-0,033
-612,503	-39,573	-0,095	-0,036
-611,488	20,595	0,027	-0,016
-610,474	-113,311	0,051	-0,007
-609,459	-200,000	-0,009	-0,053
-608,444	-200,000	-0,019	-0,069
-607,430	609,564	0,013	0,024
-606,415	461,922	0,025	0,040
-605,401	201,195	0,058	-0,065
-604,386	-200,000	0,016	0,129
-603,371	791,174	-0,061	0,123
-602,357	-200,000	-0,022	-0,146
-601,342	548,501	-0,046	-0,081
-600,328	21,885	-0,099	-0,059
-599,313	-54,342	-0,029	0,009
-598,298	19,578	0,025	0,015
-597,284	566,549	0,044	0,078
-596,269	800,000	-0,039	-0,080
-595,255	7,067	0,058	0,031
-594,240	130,290	-0,047	0,044
-593,225	800,000	-0,043	-0,102
-592,211	161,266	0,053	0,055
-591,196	-78,148	0,098	-0,024
-590,182	800,000	-0,050	-0,136
-589,167	-200,000	0,034	0,128
-588,152	20,340	-0,063	0,037
-587,138	56,845	0,053	-0,038
-586,123	-98,198	0,075	-0,014
-585,109	67,834	-0,068	-0,051
-584,094	-200,000	-0,040	0,153
-583,079	209,999	0,132	0,151
-582,065	197,679	0,110	0,123
-581,050	348,202	-0,058	0,084
-580,036	677,219	-0,054	0,103
-579,021	-200,000	-0,001	-0,004
-578,006	214,335	-0,053	-0,061
-576,992	247,259	-0,059	-0,072
-575,977	214,052	0,081	0,093
-574,963	243,057	0,129	0,158
-573,948	-147,858	-0,080	0,005
-572,934	800,000	-0,048	0,131
-571,919	-4,398	-0,021	-0,011
-570,904	-12,040	-0,137	-0,065
-569,890	112,556	-0,058	-0,051
-568,875	-159,796	0,142	-0,006
-567,861	600,802	-0,035	0,063
-566,846	-200,000	0,001	-0,003
-565,831	800,000	0,032	-0,069
-564,817	91,787	0,075	-0,061
-563,802	-68,766	-0,101	-0,028
-562,788	103,029	-0,069	0,059
-561,773	800,000	0,004	0,008
-560,758	38,291	0,059	0,038
-559,744	129,178	-0,071	-0,066
-558,729	22,537	0,038	-0,023
-557,715	-200,000	0,003	-0,018
-556,700	-200,000	-0,025	-0,124
-555,685	21,728	0,123	-0,073
-554,671	-200,000	0,011	0,067
-553,656	-200,000	0,010	-0,078
-552,642	113,013	0,023	-0,020
-551,627	397,752	-0,077	0,118
-550,612	14,390	-0,105	-0,059
-549,598	800,000	0,003	0,009
-548,583	-79,078	-0,192	-0,047
-547,569	800,000	0,038	0,120
-546,554	16,838	0,042	0,024
-545,539	-50,951	0,162	0,055
-544,525	-27,062	-0,080	0,034
-543,510	-44,594	-0,067	0,024
-542,496	188,930	-0,103	0,112
-541,481	72,663	0,075	0,057
-540,466	47,090	-0,051	-0,034
-539,452	-164,193	0,045	-0,001
-538,437	-102,483	-0,022	0,004
-537,423	-68,873	-0,035	0,010
-536,408	-200,000	-0,025	-0,157
-535,393	44,824	-0,049	-0,033
-534,379	108,468	-0,101	-0,088
-533,364	800,000	-0,032	-0,070
-532,350	-200,000	0,034	-0,115
-531,335	-200,000	-0,007	-0,036
-530,321	-200,000	0,029	-0,099
-529,306	-126,805	0,071	-0,008
-528,291	800,000	-0,054	-0,119
-527,277	783,531	-0,015	0,030
-526,262	321,058	-0,008	0,012
-525,248	-52,374	-0,032	0,011
-524,233	800,000	0,036	0,083
-523,218	257,382	0,068	-0,085
-522,204	28,686	0,114	-0,070
-521,189	-141,987	0,093	0,007
-520,175	92,759	-0,038	0,032
-519,160	-148,288	-0,112	0,007
-518,145	-67,075	0,092	0,026
-517,131	-200,000	0,012	0,081
-516,116	410,428	0,117	0,180
-515,102	-200,000	0,008	0,066
-514,087	-52,563	-0,179	-0,060
-513,072	-121,851	-0,105	0,012
-512,058	-200,000	0,014	0,078
-511,043	800,000	-0,016	-0,043
-510,029	37,154	0,122	0,079
-509,014	332,017	0,045	0,063
-507,999	800,000	-0,045	-0,096
-506,985	32,149	0,024	0,015
-505,970	153,061	-0,013	0,013
-504,956	91,877	-0,064	-0,052
-503,941	77,310	-0,071	0,055
-502,926	80,541	0,047	0,037
-501,912	116,189	-0,072	-0,064
-500,897	446,472	0,010	0,015
-499,883	800,000	-0,055	-0,146
-498,868	-26,090	-0,023	-0,010
-497,853	290,243	-0,039	0,052
-496,839	167,349	0,053	0,055
-495,824	800,000	0,039	-0,103
-494,810	-200,000	0,020	-0,158
-493,795	137,797	-0,100	0,095
-492,781	800,000	0,051	-0,106
-491,766	165,510	-0,158	-0,162
-490,751	-200,000	-0,017	-0,055
-489,737	-200,000	0,020	0,066
-488,722	-36,087	0,066	-0,026
-487,708	-200,000	-0,008	0,042
-486,693	-99,740	-0,142	-0,026
-485,678	-114,176	-0,015	-0,002
-484,664	6,333	0,062	0,034
-483,649	-200,000	0,039	-0,210
-482,635	219,248	-0,145	-0,168
-481,620	800,000	0,104	0,223
-480,605	763,595	0,032	0,063
-479,591	18,925	-0,005	-0,003
-478,576	107,985	0,039	-0,034
-477,562	-200,000	0,034	-0,152
-476,547	197,758	-0,116	-0,129
-475,532	-200,000	0,003	-0,015
-474,518	-114,438	-0,082	0,011
-473,503	211,406	-0,086	0,098
-472,489	-200,000	0,023	-0,129
-471,474	-200,000	-0,002	0,049
-470,459	-200,000	0,020	-0,073
-469,445	439,580	-0,051	-0,081
-468,430	-39,690	0,130	-0,049
-467,416	-200,000	0,030	0,159
-466,401	800,000	-0,016	0,034
-465,386	6,139	0,088	0,047
-464,372	175,180	-0,026	0,028
-463,357	27,618	-0,109	-0,066
-462,343	-51,218	-0,027	-0,009
-461,328	-200,000	-0,003	0,028
-460,313	-92,782	0,119	-0,024
-459,299	119,304	0,073	0,065
-458,284	10,075	0,073	-0,040
-457,270	596,298	-0,018	0,033
-456,255	-38,548	0,076	-0,029
-455,241	421,678	0,053	0,082
-454,226	-200,000	-0,007	-0,067
-453,211	-200,000	-0,012	-0,094
-452,197	-41,047	0,083	0,031
-451,182	800,000	0,075	0,173
-450,168	787,320	-0,036	0,072
-449,153	-200,000	0,002	0,018
-448,138	800,000	0,078	-0,193
-447,124	-2,630	-0,069	-0,035
-446,109	800,000	-0,024	0,059
-445,095	215,843	-0,034	0,039
-444,080	-200,000	-0,008	0,061
-443,065	-80,259	0,100	0,024
-442,051	800,000	-0,036	-0,098
-441,036	796,529	-0,006	-0,013
-440,022	399,495	-0,067	0,102
-439,007	-200,000	-0,007	0,040
-437,992	67,647	0,016	0,012
-436,978	122,518	0,076	-0,069
-435,963	-124,729	-0,066	-0,007
-434,949	570,643	-0,067	0,119
-433,934	-200,000	0,005	-0,044
-432,919	-86,086	0,051	0,011
-431,905	20,688	-0,142	0,083
-430,890	34,467	0,029	0,019
-429,876	800,000	0,050	0,125
-428,861	-28,663	-0,060	0,025
-427,846	-200,000	-0,005	0,038
-426,832	-53,444	0,033	0,011
-425,817	-32,298	-0,034	-0,014
-424,803	-200,000	0,011	-0,071
-423,788	101,021	0,094	-0,080
-422,773	318,927	0,044	-0,061
-421,759	-54,399	-0,046	-0,015
-420,744	-200,000	-0,028	0,207
-419,730	-43,432	0,108	0,039
-418,715	800,000	-0,021	-0,045
-417,701	59,613	0,033	0,024
-416,686	800,000	-0,022	0,064
-415,671	-200,000	-0,018	0,072
-414,657	800,000	0,006	0,018
-413,642	-200,000	-0,010	0,081
-412,628	-200,000	-0,004	-0,059
-411,613	-200,000	-0,011	-0,038
-410,598	-200,000	-0,009	-0,046
-409,584	800,000	0,056	-0,115
-408,569	63,723	-0,041	0,029
-407,555	-200,000	0,025	0,110
-406,540	-200,000	0,019	0,066
-405,525	-128,920	0,034	0,003
-404,511	-200,000	-0,001	-0,096
-403,496	42,244	0,066	0,044
-402,482	777,186	0,018	-0,037
-401,467	-200,000	0,041	0,176
-400,452	-200,000	-0,015	0,165
-399,438	378,785	-0,054	0,080
-398,423	148,123	-0,106	0,104
-397,409	89,540	-0,059	-0,048
-396,394	-87,656	-0,145	-0,032
-395,379	800,000	0,002	-0,006
-394,365	166,418	0,034	-0,034
-393,350	-200,000	-0,000	-0,071
-392,336	12,791	-0,071	0,040
-391,321	-194,773	-0,164	0,001
-390,306	800,000	0,034	0,074
-389,292	8,876	-0,106	-0,058
-388,277	-134,483	0,110	0,010
-387,263	-200,000	0,023	-0,098
-386,248	63,122	0,035	-0,025
-385,233	-200,000	0,003	0,012
-384,219	800,000	0,056	-0,133
-383,204	-94,439	-0,025	-0,005
-382,190	264,975	-0,031	0,039
-381,175	-22,842	-0,066	-0,029
-380,160	800,000	0,025	0,060
-379,146	-200,000	-0,003	0,098
-378,131	162,082	0,089	-0,090
-377,117	314,220	-0,053	0,072
-376,102	25,699	-0,034	-0,020
-375,088	337,553	0,074	0,105
-374,073	-49,794	0,080	-0,027
-373,058	-200,000	0,028	-0,114
-372,044	-92,208	0,108	0,022
-371,029	138,006	-0,116	0,110
-370,015	-142,359	-0,101	-0,007
-369,000	230,347	0,089	-0,106
-367,985	-200,000	-0,007	-0,093
-366,971	-200,000	-0,001	0,080
-365,956	-23,735	-0,121	-0,052
-364,942	31,845	-0,017	0,011
-363,927	-153,255	0,160	-0,008
-362,912	-126,983	-0,168	0,018
-361,898	-77,564	-0,048	0,012
-360,883	800,000	0,058	-0,146
-359,869	-200,000	0,021	-0,100
-358,854	-200,000	0,008	-0,124
-357,839	493,107	-0,036	0,061
-356,825	402,257	-0,018	0,028
-355,810	-139,729	0,101	0,008
-354,796	41,478	-0,078	0,051
-353,781	108,089	-0,099	-0,085
-352,766	-148,693	0,042	0,002
-351,752	299,968	-0,057	0,076
-350,737	16,487	0,090	-0,051
-349,723	46,076	0,058	-0,039
-348,708	-57,217	0,052	-0,016
-347,693	-132,367	0,153	0,014
-346,679	-35,402	-0,182	-0,071
-345,664	-200,000	-0,007	0,062
-344,650	-84,290	0,079	-0,018
-343,635	800,000	-0,019	-0,058
-342,620	545,995	-0,027	-0,047
-341,606	-34,431	0,109	-0,043
-340,591	56,763	-0,073	-0,051
-339,577	-100,807	-0,146	-0,026
-338,562	245,714	-0,034	0,041
-337,548	800,000	-0,023	0,053
-336,533	800,000	0,081	0,204
-335,518	292,987	0,065	0,087
-334,504	800,000	0,024	-0,056
-333,489	800,000	-0,030	0,085
-332,475	-96,905	-0,078	0,015
-331,460	23,222	0,073	-0,043
-330,445	-200,000	-0,005	0,051
-329,431	-200,000	0,051	0,166
-328,416	-126,286	-0,045	-0,005
-327,402	152,665	-0,051	-0,051
-326,387	233,080	0,087	0,103
-325,372	121,898	0,088	0,079
-324,358	-66,734	0,138	-0,039
-323,343	13,455	-0,088	0,049
-322,329	3,791	0,075	0,039
-321,314	68,885	0,028	0,021
-320,299	0,033	0,090	-0,046
-319,285	-200,000	0,033	-0,130
-318,270	-200,000	0,013	-0,052
-317,256	105,719	0,105	-0,090
-316,241	800,000	-0,039	-0,080
-315,226	71,415	0,010	0,007
-314,212	-133,118	0,132	-0,012
-313,197	-41,943	-0,038	0,014
-312,183	-200,000	-0,003	-0,015
-311,168	-64,669	0,025	0,007
-310,153	-12,418	-0,009	-0,004
-309,139	44,320	-0,119	-0,079
-308,124	-200,000	-0,008	0,053
-307,110	610,498	0,015	-0,027
-306,095	49,786	-0,089	0,060
-305,080	31,371	0,050	0,031
-304,066	66,605	0,041	-0,030
-303,051	102,192	-0,088	-0,074
-302,037	-36,815	0,025	0,010
-301,022	-58,396	0,076	-0,024
-300,008	-79,817	0,163	0,039
-298,993	58,411	-0,064	0,045
-297,978	-123,037	-0,138	-0,016
-296,964	800,000	0,013	0,027
-295,949	-200,000	0,010	-0,099
-294,935	-166,772	0,110	-0,003
-293,920	-151,868	-0,078	-0,004
-292,905	-117,780	-0,055	-0,007
-291,891	140,709	-0,060	-0,057
-290,876	613,825	0,039	-0,071
-289,862	38,409	-0,050	0,032
-288,847	248,401	-0,073	-0,089
-287,832	363,381	0,046	-0,067
-286,818	800,000	0,017	0,044
-285,803	-200,000	-0,010	-0,047
-284,789	161,837	-0,052	-0,052
-283,774	162,177	-0,092	0,093
-282,759	71,292	0,037	0,028
-281,745	-132,601	-0,075	0,007
-280,730	-200,000	0,013	0,054
-279,716	-200,000	0,010	-0,051
-278,701	108,430	0,101	-0,087
-277,686	-200,000	0,006	0,120
-276,672	9,866	-0,089	0,049
-275,657	197,954	0,085	-0,093
-274,643	366,182	-0,052	0,076
-273,628	-80,696	0,128	0,030
-272,613	232,169	0,031	0,037
-271,599	-200,000	0,009	-0,104
-270,584	165,751	-0,069	-0,070
-269,570	792,903	0,039	-0,078
-268,555	-137,555	0,033	0,003
-267,540	-61,721	0,121	0,036
-266,526	-69,831	-0,090	-0,025
-265,511	-75,352	-0,098	-0,025
-264,497	-200,000	0,030	0,115
-263,482	-54,420	-0,051	-0,017
-262,467	-106,546	0,081	0,013
-261,453	800,000	-0,028	-0,083
-260,438	800,000	-0,028	0,060
-259,424	73,794	0,013	0,010
-258,409	-1,183	0,028	0,014
-257,395	800,000	-0,062	0,126
-256,380	239,774	-0,035	-0,042
-255,365	-200,000	-0,012	0,118
-254,351	-95,511	0,109	-0,021
-253,336	-107,004	-0,117	0,018
-252,322	800,000	0,058	-0,178
-251,307	258,766	0,005	0,006
-250,292	186,949	-0,031	-0,033
-249,278	30,670	0,032	-0,020
-248,263	-200,000	0,009	-0,030
-247,249	-138,377	0,097	-0,008
-246,234	-200,000	-0,015	-0,060
-245,219	167,143	0,045	0,046
-244,205	-46,076	0,061	0,022
-243,190	-180,998	-0,074	-0,001
-242,176	-106,883	0,176	0,028
-241,161	-200,000	0,014	0,179
-240,146	612,646	0,049	0,089
-239,132	108,557	0,158	-0,136
-238,117	314,649	-0,097	-0,131
-237,103	155,460	-0,053	0,053
-236,088	-200,000	-0,017	0,097
-235,073	443,289	0,077	-0,122
-234,059	14,920	0,123	0,069
-233,044	147,029	-0,042	0,040
-232,030	706,457	-0,033	-0,062
-231,015	15,526	-0,121	-0,068
-230,000	-98,527	-0,117	-0,021
-228,986	205,831	-0,125	0,140
-227,971	-200,000	0,012	0,071
-226,957	800,000	-0,029	0,080
-225,942	800,000	0,050	0,152
-224,927	230,966	0,061	0,072
-223,913	16,289	0,058	-0,033
-222,898	-77,994	0,076	-0,019
-221,884	-47,624	-0,033	0,011
-220,869	120,146	0,101	-0,090
-219,855	-120,984	0,122	0,015
-218,840	-200,000	-0,014	0,102
-217,825	800,000	0,035	-0,086
-216,811	339,840	0,085	0,119
-215,796	-118,556	0,087	0,011
-214,782	800,000	-0,040	-0,085
-213,767	24,483	-0,061	0,036
-212,752	-182,508	0,090	-0,001
-211,738	105,335	0,057	-0,048
-210,723	324,514	-0,071	0,097
-209,709	684,279	-0,083	-0,157
-208,694	-72,070	-0,155	-0,041
-207,679	800,000	0,012	0,029
-206,665	-200,000	0,020	0,078
-205,650	46,715	-0,085	0,057
-204,636	-155,650	0,175	-0,008
-203,621	96,122	-0,083	0,068
-202,606	-75,909	0,107	0,027
-201,592	-200,000	0,005	0,081
-200,577	800,000	0,027	0,077
-199,563	-200,000	-0,008	0,025
-198,548	590,404	0,028	-0,050
-197,533	-200,000	0,022	0,191
-196,519	-101,964	0,081	0,014
-195,504	-83,376	-0,055	-0,013
-194,490	-200,000	-0,022	-0,109
-193,475	-2,028	0,095	0,048
-192,460	699,845	0,029	-0,054
-191,446	2,516	0,084	-0,044
-190,431	297,194	0,031	-0,042
-189,417	706,282	-0,048	-0,091
-188,402	349,932	-0,065	-0,093
-187,387	-200,000	-0,000	-0,051
-186,373	677,797	0,049	-0,092
-185,358	-18,170	0,070	0,032
-184,344	-108,415	-0,049	0,007
-183,329	420,366	0,072	0,111
-182,315	-200,000	0,002	0,071
-181,300	328,562	0,077	-0,106
-180,285	95,966	-0,214	-0,176
-179,271	29,552	-0,130	-0,080
-178,256	-100,388	0,199	0,035
-177,242	-200,000	-0,001	0,037
-176,227	800,000	0,044	0,117
-175,212	228,153	-0,105	0,124
-174,198	362,696	0,031	-0,044
-173,183	401,300	0,067	-0,101
-172,169	182,729	-0,071	0,075
-171,154	-200,000	-0,015	-0,053
-170,139	800,000	0,027	-0,080
-169,125	-44,970	0,081	-0,029
-168,110	-200,000	0,016	0,071
-167,096	249,950	-0,072	0,087
-166,081	-200,000	-0,030	-0,105
-165,066	-164,870	0,124	0,004
-164,052	-88,631	0,047	0,010
-163,037	-45,522	0,064	-0,023
-162,023	-112,952	0,029	0,004
-161,008	102,944	0,068	0,058
-159,993	-124,971	0,081	-0,009
-158,979	-137,275	-0,169	0,014
-157,964	-152,589	-0,106	-0,005
-156,950	63,122	-0,111	-0,080
-155,935	178,655	0,041	0,043
-154,920	-109,880	0,189	0,028
-153,906	-111,357	0,058	0,008
-152,891	-192,707	-0,082	-0,001
-151,877	-113,460	-0,124	-0,017
-150,862	163,042	-0,080	0,081
-149,847	437,934	-0,074	-0,115
-148,833	22,179	-0,172	-0,101
-147,818	-200,000	-0,005	-0,105
-146,804	-200,000	0,024	0,076
-145,789	175,881	0,063	0,066
-144,775	-70,653	-0,076	0,020
-143,760	-10,582	0,022	0,011
-142,745	-12,305	-0,181	-0,085
-141,731	-107,678	-0,106	-0,016
-140,716	-141,033	-0,012	0,001
-139,702	107,639	0,061	0,052
-138,687	-200,000	0,044	0,162
-137,672	-92,272	-0,151	-0,030
-136,658	162,763	0,055	0,056
-135,643	800,000	-0,037	-0,088
-134,629	36,986	0,155	-0,098
-133,614	70,802	0,067	0,050
-132,599	-200,000	-0,006	-0,031
-131,585	-200,000	0,003	0,107
-130,570	-177,232	-0,030	-0,001
-129,556	-200,000	-0,015	-0,106
-128,541	3,077	-0,078	-0,040
-127,526	800,000	0,036	0,076
-126,512	-150,129	-0,075	-0,004
-125,497	330,643	-0,007	-0,009
-124,483	-200,000	-0,044	-0,158
-123,468	-200,000	0,025	-0,146
-122,453	-200,000	0,003	-0,094
-121,439	-192,149	0,108	-0,001
-120,424	263,431	-0,055	-0,069
-119,410	135,952	0,084	0,078
