DTS Sentinel unit serial number:	SN410029Multiplexer serial number:	ORYXHardware model number:	OX2-SRSoftware version number:	ORYX F/W v4,00 Oryx Data Collector v3.7.2.0data status	okinstallation	B6 Nyhavnadifferential loss correction	single-endedforward channel	channel 2reverse channel	N/Adate	2023/12/10time	02:55:08forward acquisition time	300,00reverse acquisition time	0,00gamma	499,1914k internal	0,3125k external	0,3125temperature offset calibration	1,0000default loss term (dB/km)	0,3820temperature slope calibration	1,0000multiplexer offset coefficient	1,0000multiplexer slope coefficient	1,0000fibre end	0,00T internal ref (°C)	21,97T ext. ref 1 (°C)	5,80T ext. ref 2 (°C)	5,78length (m)	temperature (°C)	Stokes	anti-Stokes-744,400	-115,746	-0,144	-0,020
-743,385	8,966	-0,206	0,116
-742,371	106,520	0,140	0,123
-741,356	-200,000	-0,020	0,192
-740,342	572,027	-0,030	0,055
-739,327	-23,600	-0,270	0,120
-738,312	109,819	0,135	0,121
-737,298	-80,350	-0,174	0,043
-736,283	182,909	0,115	0,126
-735,269	-90,372	-0,230	0,049
-734,254	450,469	-0,010	-0,016
-733,239	-73,526	-0,371	-0,100
-732,225	-73,750	0,103	-0,028
-731,210	-160,385	0,101	-0,004
-730,196	-147,767	-0,087	0,005
-729,181	-100,868	-0,075	-0,014
-728,167	-38,832	-0,103	-0,040
-727,152	800,000	-0,011	0,028
-726,137	800,000	-0,067	-0,158
-725,123	65,699	-0,125	-0,094
-724,108	-200,000	-0,013	-0,110
-723,094	-163,613	-0,092	0,003
-722,079	63,043	-0,056	0,042
-721,064	77,948	0,073	-0,058
-720,050	186,003	0,030	-0,033
-719,035	-134,718	-0,096	-0,009
-718,021	800,000	0,028	-0,089
-717,006	-114,248	-0,089	-0,013
-715,991	12,416	-0,047	-0,027
-714,977	800,000	0,003	0,007
-713,962	800,000	-0,020	0,061
-712,948	-200,000	-0,006	-0,109
-711,933	129,130	0,032	0,031
-710,918	-119,930	-0,123	0,016
-709,904	-200,000	-0,018	-0,106
-708,889	-200,000	0,009	-0,043
-707,875	48,425	-0,083	0,058
-706,860	589,099	-0,036	-0,066
-705,845	403,874	-0,079	-0,125
-704,831	696,501	0,017	0,033
-703,816	46,340	-0,057	0,039
-702,802	250,921	-0,055	0,070
-701,787	-200,000	-0,015	-0,166
-700,772	339,152	0,016	0,023
-699,758	-130,776	-0,053	-0,005
-698,743	-119,038	-0,155	0,020
-697,729	-200,000	0,019	-0,110
-696,714	60,735	0,016	-0,012
-695,699	-185,954	-0,076	-0,001
-694,685	-200,000	-0,013	0,044
-693,670	-112,333	-0,097	0,014
-692,656	-200,000	0,029	-0,177
-691,641	-133,106	-0,038	0,004
-690,627	462,749	-0,043	-0,071
-689,612	101,991	0,085	0,074
-688,597	-5,557	-0,148	0,075
-687,583	-200,000	0,004	0,036
-686,568	87,624	0,050	-0,042
-685,554	-200,000	-0,017	0,060
-684,539	-67,378	0,132	0,038
-683,524	93,753	0,016	-0,013
-682,510	-200,000	-0,014	-0,049
-681,495	-77,763	-0,057	0,015
-680,481	-82,579	-0,036	-0,009
-679,466	-136,104	-0,050	0,004
-678,451	252,146	-0,043	-0,055
-677,437	644,870	0,058	0,111
-676,422	-200,000	0,005	0,027
-675,408	88,825	0,076	-0,063
-674,393	192,367	-0,027	0,031
-673,378	116,338	0,018	0,017
-672,364	-200,000	0,013	-0,086
-671,349	-200,000	0,049	-0,168
-670,335	-99,562	0,146	-0,027
-669,320	-200,000	-0,012	-0,061
-668,305	-200,000	-0,027	0,114
-667,291	75,349	-0,094	0,074
-666,276	-56,124	-0,120	0,039
-665,262	800,000	-0,067	-0,138
-664,247	-84,653	0,011	-0,002
-663,232	-200,000	-0,006	0,024
-662,218	-5,906	-0,100	-0,051
-661,203	467,261	-0,021	-0,036
-660,189	-200,000	0,021	0,096
-659,174	110,242	-0,012	0,011
-658,159	-200,000	0,028	0,111
-657,145	52,916	-0,027	0,019
-656,130	148,809	-0,083	-0,083
-655,116	-14,565	0,021	0,010
-654,101	800,000	0,006	0,013
-653,086	484,745	-0,100	-0,170
-652,072	800,000	0,037	-0,118
-651,057	-28,093	-0,053	0,023
-650,043	-13,277	-0,137	0,066
-649,028	-135,720	-0,035	0,003
-648,014	-112,727	0,060	-0,009
-646,999	-200,000	-0,014	0,054
-645,984	800,000	-0,048	0,126
-644,970	-25,178	-0,055	-0,024
-643,955	-46,664	-0,078	-0,028
-642,941	-197,050	-0,105	-0,000
-641,926	183,986	-0,064	-0,071
-640,911	-1,559	0,141	-0,073
-639,897	-100,394	0,023	0,004
-638,882	-200,000	-0,016	0,122
-637,868	74,938	-0,053	-0,041
-636,853	-132,358	-0,097	-0,009
-635,838	98,924	0,084	-0,072
-634,824	800,000	0,041	-0,095
-633,809	800,000	-0,019	0,047
-632,795	-200,000	-0,021	-0,086
-631,780	2,729	0,099	-0,053
-630,765	-85,291	0,052	-0,012
-629,751	-200,000	-0,033	-0,127
-628,736	194,393	-0,040	-0,045
-627,722	-200,000	-0,020	-0,109
-626,707	-47,098	-0,086	0,031
-625,692	-118,849	0,135	-0,017
-624,678	264,547	-0,017	-0,021
-623,663	-134,288	0,133	-0,012
-622,649	-18,100	-0,088	-0,041
-621,634	-200,000	-0,009	-0,095
-620,619	-200,000	0,018	0,118
-619,605	28,213	-0,065	-0,041
-618,590	335,466	0,036	-0,053
-617,576	-200,000	0,002	-0,062
-616,561	800,000	0,025	0,060
-615,546	150,456	0,076	-0,076
-614,532	-50,293	-0,077	-0,027
-613,517	-34,403	-0,156	0,063
-612,503	-200,000	0,033	-0,141
-611,488	96,885	-0,031	0,026
-610,474	15,423	0,087	-0,051
-609,459	-75,070	0,031	-0,008
-608,444	-200,000	0,000	-0,084
-607,430	-104,171	0,099	-0,017
-606,415	-50,481	-0,063	-0,022
-605,401	123,966	-0,164	0,152
-604,386	8,416	0,135	0,075
-603,371	800,000	-0,070	0,161
-602,357	90,093	-0,052	0,043
-601,342	-200,000	0,028	-0,112
-600,328	731,807	0,018	0,037
-599,313	423,654	-0,059	-0,094
-598,298	800,000	-0,006	-0,013
-597,284	153,815	-0,097	-0,098
-596,269	-140,383	0,047	0,004
-595,255	-200,000	-0,008	-0,027
-594,240	88,493	-0,118	-0,097
-593,225	-200,000	0,033	-0,244
-592,211	-200,000	0,019	-0,085
-591,196	-200,000	0,025	-0,144
-590,182	205,458	0,077	-0,088
-589,167	57,178	0,086	0,062
-588,152	27,607	0,083	0,052
-587,138	621,605	0,027	-0,051
-586,123	-200,000	-0,036	-0,194
-585,109	168,300	-0,035	0,037
-584,094	26,962	0,049	0,030
-583,079	-200,000	-0,014	0,055
-582,065	65,447	0,009	-0,007
-581,050	-200,000	-0,014	-0,075
-580,036	-24,800	-0,094	0,041
-579,021	17,297	0,002	-0,001
-578,006	282,132	0,072	-0,096
-576,992	-61,047	-0,081	0,025
-575,977	-31,969	-0,046	-0,019
-574,963	-198,484	-0,123	-0,001
-573,948	420,330	0,098	0,156
-572,934	33,615	0,099	-0,064
-571,919	-148,371	-0,055	-0,003
-570,904	13,587	0,044	0,025
-569,890	-136,995	-0,145	0,012
-568,875	-200,000	-0,011	-0,047
-567,861	281,140	-0,026	0,035
-566,846	128,563	-0,057	0,053
-565,831	-137,136	-0,053	0,004
-564,817	-12,572	-0,013	0,006
-563,802	665,615	-0,097	-0,185
-562,788	102,144	-0,109	0,094
-561,773	312,900	-0,022	0,031
-560,758	144,524	0,077	0,076
-559,744	-200,000	-0,026	0,090
-558,729	309,575	0,044	-0,062
-557,715	-61,508	-0,145	-0,045
-556,700	-200,000	-0,034	-0,126
-555,685	-143,790	0,087	0,006
-554,671	-87,322	-0,019	0,004
-553,656	-34,785	-0,036	0,014
-552,642	-73,958	-0,079	0,021
-551,627	8,503	-0,029	0,016
-550,612	100,019	-0,079	0,068
-549,598	-103,477	-0,082	0,014
-548,583	-200,000	-0,011	-0,076
-547,569	-31,079	0,055	-0,023
-546,554	800,000	0,050	-0,131
-545,539	99,203	-0,032	0,027
-544,525	591,949	0,039	0,072
-543,510	428,308	0,071	-0,114
-542,496	-200,000	0,005	-0,088
-541,481	-74,982	0,180	-0,047
-540,466	-200,000	0,002	0,081
-539,452	-115,956	0,073	-0,010
-538,437	800,000	0,016	0,034
-537,423	110,001	0,072	0,063
-536,408	23,060	0,051	-0,031
-535,393	753,002	0,025	0,051
-534,379	-147,963	-0,097	0,006
-533,364	67,683	0,029	-0,022
-532,350	-171,625	-0,057	-0,001
-531,335	800,000	-0,064	-0,156
-530,321	-14,391	0,088	0,042
-529,306	-26,302	0,079	-0,034
-528,291	-200,000	0,022	-0,077
-527,277	800,000	0,016	-0,034
-526,262	252,313	-0,044	0,055
-525,248	392,910	0,093	0,144
-524,233	42,646	0,086	0,058
-523,218	-21,125	-0,032	0,014
-522,204	800,000	0,004	-0,010
-521,189	800,000	0,018	0,055
-520,175	636,175	-0,037	0,070
-519,160	-45,660	-0,184	-0,067
-518,145	531,139	0,025	-0,044
-517,131	-116,538	0,074	-0,010
-516,116	-200,000	-0,027	0,098
-515,102	800,000	0,056	0,138
-514,087	-20,399	-0,173	0,078
-513,072	103,682	-0,066	-0,057
-512,058	-148,581	0,092	-0,005
-511,043	-55,386	0,037	0,012
-510,029	-31,918	0,059	0,024
-509,014	532,942	-0,042	-0,074
-507,999	100,207	0,037	-0,031
-506,985	499,224	-0,027	-0,046
-505,970	794,117	-0,062	-0,127
-504,956	261,634	-0,071	-0,091
-503,941	-171,928	-0,063	-0,001
-502,926	-174,284	0,039	0,001
-501,912	25,314	0,035	0,021
-500,897	11,445	0,089	-0,050
-499,883	346,570	0,020	0,029
-498,868	-200,000	0,000	-0,071
-497,853	395,694	-0,070	-0,109
-496,839	68,516	-0,083	0,062
-495,824	-200,000	0,007	0,061
-494,810	-147,089	-0,034	-0,002
-493,795	3,084	-0,025	-0,013
-492,781	-200,000	-0,016	-0,110
-491,766	198,350	0,056	-0,063
-490,751	-200,000	-0,005	-0,058
-489,737	-200,000	-0,011	-0,210
-488,722	436,670	-0,098	0,158
-487,708	-126,701	0,065	0,007
-486,693	357,500	-0,038	-0,056
-485,678	736,025	-0,026	0,052
-484,664	14,361	-0,034	-0,020
-483,649	-200,000	0,014	-0,049
-482,635	-54,684	0,109	-0,036
-481,620	-124,706	0,103	-0,012
-480,605	-24,178	0,081	0,036
-479,591	800,000	0,050	0,162
-478,576	-142,723	0,094	0,007
-477,562	-200,000	-0,003	-0,169
-476,547	322,426	-0,065	-0,092
-475,532	159,110	0,047	-0,048
-474,518	424,081	0,044	0,070
-473,503	-69,694	0,089	-0,025
-472,489	-66,866	0,059	0,017
-471,474	5,247	-0,051	0,028
-470,459	-73,271	0,099	-0,027
-469,445	-200,000	-0,016	-0,076
-468,430	-180,261	0,104	0,002
-467,416	-81,126	-0,013	0,003
-466,401	-86,131	-0,074	0,017
-465,386	-134,198	0,230	-0,021
-464,372	-200,000	-0,009	0,145
-463,357	-200,000	0,018	0,145
-462,343	800,000	0,040	0,103
-461,328	54,359	0,044	-0,031
-460,313	48,657	-0,067	0,046
-459,299	-200,000	0,011	0,087
-458,284	-170,772	-0,020	-0,000
-457,270	-45,202	-0,156	-0,057
-456,255	-24,727	-0,021	-0,009
-455,241	168,073	-0,159	-0,166
-454,226	350,736	-0,086	-0,126
-453,211	-27,324	0,029	0,012
-452,197	-186,558	0,164	-0,002
-451,182	109,876	0,108	0,096
-450,168	10,968	0,106	-0,059
-449,153	-163,641	0,147	0,005
-448,138	800,000	-0,006	-0,013
-447,124	257,484	-0,019	0,024
-446,109	800,000	-0,050	-0,128
-445,095	800,000	-0,066	0,151
-444,080	612,439	-0,011	-0,020
-443,065	-200,000	0,023	0,166
-442,051	-200,000	0,006	-0,108
-441,036	-7,691	-0,141	-0,070
-440,022	-41,882	-0,029	-0,011
-439,007	-200,000	-0,002	0,064
-437,992	800,000	-0,059	0,140
-436,978	145,048	0,067	0,066
-435,963	384,655	0,121	0,184
-434,949	-200,000	-0,020	0,122
-433,934	91,828	-0,017	0,014
-432,919	86,216	-0,048	-0,039
-431,905	74,921	-0,015	-0,012
-430,890	-35,991	-0,059	0,023
-429,876	503,403	-0,034	0,058
-428,861	291,106	0,021	0,029
-427,846	175,773	-0,022	-0,024
-426,832	-89,343	-0,085	0,018
-425,817	-9,786	0,048	-0,023
-424,803	-200,000	-0,007	0,037
-423,788	-200,000	-0,027	-0,167
-422,773	800,000	-0,009	0,020
-421,759	800,000	0,028	-0,064
-420,744	-200,000	0,031	0,129
-419,730	-200,000	-0,010	-0,040
-418,715	144,782	-0,065	-0,063
-417,701	-0,265	-0,154	-0,080
-416,686	72,849	0,014	0,010
-415,671	-0,593	0,130	0,068
-414,657	800,000	0,057	-0,176
-413,642	-41,232	-0,061	0,023
-412,628	-200,000	0,022	-0,097
-411,613	350,279	-0,041	-0,060
-410,598	-113,927	-0,055	0,008
-409,584	-64,330	0,054	-0,016
-408,569	-24,967	-0,139	0,060
-407,555	-20,572	0,049	0,022
-406,540	-69,155	0,060	-0,017
-405,525	-200,000	0,020	0,144
-404,511	-200,000	0,014	-0,066
-403,496	477,296	-0,053	0,088
-402,482	-106,920	-0,020	0,003
-401,467	-200,000	-0,012	0,098
-400,452	423,559	0,054	0,085
-399,438	-36,949	0,012	-0,005
-398,423	-145,500	0,035	0,002
-397,409	601,547	0,063	0,116
-396,394	-34,112	-0,042	0,017
-395,379	467,114	0,014	-0,023
-394,365	-68,975	-0,012	0,003
-393,350	-200,000	-0,013	-0,141
-392,336	-74,230	-0,051	0,013
-391,321	800,000	-0,048	-0,098
-390,306	-82,240	0,092	-0,022
-389,292	-200,000	-0,014	0,081
-388,277	61,925	0,095	0,070
-387,263	1,551	-0,053	-0,028
-386,248	388,008	0,055	0,084
-385,233	800,000	0,037	0,102
-384,219	-19,048	-0,127	-0,058
-383,204	-200,000	-0,048	0,192
-382,190	-101,825	-0,086	0,015
-381,175	-200,000	0,004	-0,153
-380,160	800,000	0,040	0,103
-379,146	-11,413	0,092	0,044
-378,131	97,841	-0,019	-0,016
-377,117	255,807	-0,011	-0,014
-376,102	419,327	-0,060	0,095
-375,088	93,464	0,033	-0,027
-374,073	80,703	-0,058	-0,046
-373,058	190,681	0,081	-0,090
-372,044	-200,000	0,011	-0,045
-371,029	218,409	0,118	0,138
-370,015	550,574	-0,011	-0,020
-369,000	-44,202	-0,087	0,032
-367,985	800,000	0,033	0,078
-366,971	-200,000	-0,018	0,067
-365,956	-200,000	0,027	-0,173
-364,942	280,732	-0,032	0,042
-363,927	-200,000	0,013	0,090
-362,912	119,040	-0,022	-0,020
-361,898	51,499	0,096	0,067
-360,883	176,680	-0,057	-0,061
-359,869	-118,236	-0,096	0,012
-358,854	-185,837	0,259	-0,003
-357,839	800,000	0,011	-0,028
-356,825	234,092	-0,041	0,050
-355,810	-200,000	-0,040	0,140
-354,796	218,139	-0,076	0,089
-353,781	-121,385	-0,104	0,013
-352,766	-103,178	-0,061	0,011
-351,752	81,469	-0,139	-0,111
-350,737	87,794	0,069	-0,056
-349,723	-143,614	-0,032	0,002
-348,708	800,000	0,029	-0,061
-347,693	-43,049	-0,081	-0,030
-346,679	309,788	0,063	-0,086
-345,664	800,000	0,016	0,034
-344,650	-70,115	0,099	0,027
-343,635	30,699	0,102	0,064
-342,620	-200,000	0,055	0,203
-341,606	479,090	0,052	0,087
-340,591	450,147	-0,052	0,084
-339,577	-113,709	0,087	0,012
-338,562	-199,007	-0,099	-0,000
-337,548	132,409	0,046	0,043
-336,533	-200,000	0,004	-0,023
-335,518	-13,287	-0,039	0,019
-334,504	-200,000	0,065	0,284
-333,489	156,933	-0,061	0,062
-332,475	-200,000	-0,014	-0,052
-331,460	-200,000	-0,003	-0,103
-330,445	265,564	0,086	0,110
-329,431	-200,000	-0,002	0,015
-328,416	-118,057	0,032	-0,004
-327,402	-13,617	-0,107	-0,051
-326,387	-85,849	0,090	0,020
-325,372	-57,955	0,063	0,020
-324,358	-6,548	-0,094	-0,047
-323,343	-185,028	0,109	0,001
-322,329	-168,258	-0,037	-0,001
-321,314	-9,065	0,054	-0,026
-320,299	75,109	-0,073	0,057
-319,285	16,229	0,060	-0,035
-318,270	222,725	0,081	-0,095
-317,256	4,393	-0,062	-0,033
-316,241	269,705	-0,062	-0,080
-315,226	604,830	0,027	0,049
-314,212	163,506	0,121	0,125
-313,197	-163,229	0,108	0,004
-312,183	800,000	0,032	-0,086
-311,168	433,008	-0,077	-0,123
-310,153	-123,351	-0,046	0,005
-309,139	-200,000	0,021	-0,167
-308,124	-200,000	-0,007	0,075
-307,110	-43,853	0,056	-0,020
-306,095	-42,471	-0,111	0,041
-305,080	-200,000	0,003	0,158
-304,066	-63,880	0,104	0,031
-303,051	784,042	-0,052	-0,105
-302,037	-129,800	-0,258	-0,026
-301,022	800,000	0,053	-0,129
-300,008	-200,000	-0,004	-0,014
-298,993	108,961	-0,050	-0,044
-297,978	800,000	0,056	0,161
-296,964	681,935	0,058	0,111
-295,949	800,000	0,041	0,110
-294,935	-175,945	0,030	0,001
-293,920	-49,386	-0,117	-0,041
-292,905	81,161	0,103	0,082
-291,891	800,000	0,057	0,175
-290,876	272,414	0,064	0,083
-289,862	-75,041	-0,117	-0,031
-288,847	549,796	-0,045	0,079
-287,832	248,565	0,023	-0,029
-286,818	68,352	0,120	0,090
-285,803	800,000	0,041	0,108
-284,789	800,000	0,043	0,126
-283,774	800,000	-0,037	0,096
-282,759	-200,000	0,021	0,098
-281,745	-200,000	-0,007	-0,037
-280,730	800,000	-0,056	-0,139
-279,716	-121,349	-0,049	-0,006
-278,701	-3,356	-0,055	-0,028
-277,686	-121,463	0,071	-0,009
-276,672	-0,035	-0,049	0,025
-275,657	480,485	0,055	-0,092
-274,643	-200,000	-0,006	0,058
-273,628	184,590	0,177	0,193
-272,613	121,757	0,075	0,069
-271,599	793,205	-0,043	-0,086
-270,584	685,531	0,047	-0,090
-269,570	-200,000	0,002	0,008
-268,555	-141,914	0,109	-0,008
-267,540	43,497	0,071	0,047
-266,526	374,576	0,090	-0,135
-265,511	357,576	-0,049	-0,071
-264,497	-63,475	-0,065	-0,019
-263,482	246,428	-0,053	0,065
-262,467	-103,257	0,081	-0,014
-261,453	-35,738	-0,118	0,046
-260,438	325,281	-0,046	-0,065
-259,424	401,456	0,113	-0,174
-258,409	800,000	-0,067	0,160
-257,395	-200,000	0,008	-0,084
-256,380	2,384	-0,022	0,012
-255,365	144,106	0,035	-0,035
-254,351	97,568	-0,124	0,104
-253,336	140,277	0,049	-0,047
-252,322	-105,964	-0,191	-0,031
-251,307	-3,986	0,037	0,019
-250,292	91,212	-0,068	0,056
-249,278	665,483	0,030	-0,056
-248,263	6,451	-0,107	-0,058
-247,249	179,657	-0,043	-0,046
-246,234	-42,427	0,087	0,032
-245,219	800,000	0,017	-0,047
-244,205	453,506	0,039	-0,062
-243,190	144,179	-0,061	-0,059
-242,176	-116,927	0,077	-0,010
-241,161	-62,739	0,095	-0,029
-240,146	800,000	0,042	0,099
-239,132	140,716	0,031	-0,030
-238,117	-12,722	-0,023	-0,011
-237,103	-200,000	0,017	0,070
-236,088	-200,000	0,005	-0,037
-235,073	28,316	0,086	-0,053
-234,059	-200,000	0,055	-0,000
-233,044	68,937	0,150	0,113
-232,030	84,642	0,029	0,023
-231,015	635,265	0,082	0,153
-230,000	-89,755	-0,070	-0,015
-228,986	309,471	-0,049	-0,067
-227,971	73,527	0,183	0,140
-226,957	-55,992	-0,073	-0,024
-225,942	63,747	0,116	0,085
-224,927	194,189	-0,043	-0,048
-223,913	-26,183	-0,056	-0,024
-222,898	-200,000	-0,012	0,206
-221,884	481,664	0,054	0,090
-220,869	-19,578	0,100	-0,045
-219,855	800,000	0,031	0,072
-218,840	800,000	-0,023	0,072
-217,825	-63,627	-0,157	-0,047
-216,811	28,701	-0,025	-0,016
-215,796	-42,677	-0,091	-0,034
-214,782	405,744	-0,102	-0,157
-213,767	-4,570	-0,046	-0,023
-212,752	88,475	-0,078	0,063
-211,738	-166,375	0,023	0,001
-210,723	-200,000	0,031	-0,143
-209,709	-49,673	0,059	-0,020
-208,694	-41,089	-0,069	-0,026
-207,679	201,321	0,060	-0,067
-206,665	233,677	-0,045	-0,054
-205,650	-98,171	0,079	-0,015
-204,636	506,827	0,025	-0,042
-203,621	-200,000	-0,007	-0,151
-202,606	-111,006	-0,206	-0,031
-201,592	190,846	0,051	-0,056
-200,577	-65,469	-0,108	0,031
-199,563	-200,000	0,028	0,101
-198,548	-200,000	0,046	0,155
-197,533	-89,853	0,087	-0,018
-196,519	-116,865	-0,124	0,016
-195,504	-88,206	0,049	0,011
-194,490	-200,000	-0,005	0,068
-193,475	-106,394	-0,159	0,026
-192,460	-200,000	-0,002	0,036
-191,446	611,792	-0,119	0,218
-190,431	259,907	0,060	0,075
-189,417	-52,647	0,069	-0,023
-188,402	-21,670	-0,102	0,045
-187,387	115,661	0,027	0,024
-186,373	78,919	-0,167	-0,130
-185,358	79,108	0,091	-0,071
-184,344	-89,673	-0,106	0,022
-183,329	442,172	0,034	0,054
-182,315	-88,773	0,058	-0,012
-181,300	-22,700	-0,176	-0,077
-180,285	218,538	-0,094	-0,109
-179,271	-200,000	-0,030	-0,104
-178,256	237,768	0,069	-0,084
-177,242	231,560	0,023	0,027
-176,227	-105,188	0,254	0,042
-175,212	154,503	-0,022	-0,022
-174,198	155,888	0,066	-0,066
-173,183	29,111	-0,170	-0,105
-172,169	117,974	0,031	-0,027
-171,154	-67,643	-0,137	-0,039
-170,139	138,429	0,032	0,031
-169,125	-200,000	-0,022	0,156
-168,110	92,836	-0,111	-0,091
-167,096	-200,000	0,040	0,171
-166,081	-200,000	0,020	0,074
-165,066	86,115	-0,050	0,040
-164,052	14,171	-0,076	0,043
-163,037	269,191	0,046	-0,059
-162,023	-200,000	0,017	-0,056
-161,008	-39,644	0,106	0,040
-159,993	-79,284	0,081	-0,020
-158,979	-200,000	-0,024	-0,096
-157,964	294,608	-0,027	-0,036
-156,950	34,585	0,087	-0,055
-155,935	-200,000	0,015	0,093
-154,920	800,000	-0,018	0,050
-153,906	-113,036	-0,054	0,008
-152,891	30,467	0,065	-0,040
-151,877	88,955	-0,102	0,082
-150,862	-200,000	-0,005	0,087
-149,847	-200,000	-0,002	0,146
-148,833	112,514	-0,064	-0,056
-147,818	-58,416	0,171	0,054
-146,804	-200,000	0,021	-0,081
-145,789	-200,000	0,018	0,069
-144,775	-171,264	-0,134	-0,003
-143,760	40,948	0,146	0,096
-142,745	-200,000	-0,031	-0,114
-141,731	-9,587	0,035	0,017
-140,716	96,415	0,137	0,114
-139,702	185,057	-0,022	-0,023
-138,687	-56,826	-0,148	-0,047
-137,672	572,117	0,060	-0,106
-136,658	-94,988	-0,108	-0,021
-135,643	-43,653	-0,049	-0,018
-134,629	120,418	-0,090	-0,082
-133,614	308,023	0,092	-0,125
-132,599	800,000	-0,014	-0,040
-131,585	-55,514	0,047	0,015
-130,570	-15,214	-0,155	-0,072
-129,556	800,000	-0,018	0,043
-128,541	-200,000	0,010	-0,041
-127,526	-57,130	-0,029	-0,009
-126,512	-111,695	0,041	-0,006
-125,497	-200,000	0,028	0,092
-124,483	800,000	0,026	0,072
-123,468	-200,000	-0,004	0,027
-122,453	-186,974	0,062	-0,001
-121,439	-25,642	0,059	0,025
-120,424	68,546	-0,060	-0,045
