DTS Sentinel unit serial number:	SN410029Multiplexer serial number:	ORYXHardware model number:	OX2-SRSoftware version number:	ORYX F/W v4,00 Oryx Data Collector v3.7.2.0data status	okinstallation	B6 Nyhavnadifferential loss correction	single-endedforward channel	channel 2reverse channel	N/Adate	2023/12/10time	02:50:08forward acquisition time	300,00reverse acquisition time	0,00gamma	499,1914k internal	0,3125k external	0,3125temperature offset calibration	1,0000default loss term (dB/km)	0,3820temperature slope calibration	1,0000multiplexer offset coefficient	1,0000multiplexer slope coefficient	1,0000fibre end	0,00T internal ref (°C)	21,97T ext. ref 1 (°C)	5,81T ext. ref 2 (°C)	5,79length (m)	temperature (°C)	Stokes	anti-Stokes-744,400	800,000	0,038	-0,088
-743,385	732,949	-0,092	0,185
-742,371	36,278	0,066	-0,043
-741,356	-200,000	-0,022	0,118
-740,342	-119,698	-0,140	-0,018
-739,327	70,536	-0,255	0,196
-738,312	19,658	0,057	-0,034
-737,298	-42,097	-0,224	0,085
-736,283	423,773	0,008	-0,013
-735,269	17,438	-0,152	0,090
-734,254	247,287	-0,114	-0,144
-733,239	-99,995	-0,524	-0,096
-732,225	-200,000	0,040	0,133
-731,210	-200,000	-0,032	0,155
-730,196	34,894	0,094	-0,061
-729,181	331,841	-0,060	-0,086
-728,167	-200,000	-0,019	0,143
-727,152	800,000	0,044	0,093
-726,137	47,551	-0,041	0,028
-725,123	-41,065	-0,211	-0,081
-724,108	-66,992	0,138	-0,040
-723,094	800,000	0,033	-0,069
-722,079	-200,000	-0,019	-0,101
-721,064	4,628	0,089	-0,048
-720,050	-72,893	-0,074	-0,020
-719,035	-152,568	0,022	-0,001
-718,021	-200,000	-0,000	-0,052
-717,006	141,561	-0,093	-0,091
-715,991	800,000	-0,046	-0,109
-714,977	168,809	-0,078	-0,083
-713,962	800,000	-0,047	-0,133
-712,948	496,633	0,059	-0,102
-711,933	11,463	-0,168	0,096
-710,918	-200,000	0,008	-0,074
-709,904	-200,000	-0,017	-0,087
-708,889	-200,000	-0,012	0,056
-707,875	-200,000	-0,005	-0,078
-706,860	-148,620	-0,062	0,004
-705,845	208,550	-0,051	-0,059
-704,831	380,663	0,020	-0,031
-703,816	358,904	-0,046	-0,069
-702,802	-200,000	0,019	0,130
-701,787	266,874	-0,102	-0,133
-700,772	-200,000	-0,058	-0,204
-699,758	183,147	0,057	-0,062
-698,743	-162,772	-0,137	0,005
-697,729	299,016	0,051	0,070
-696,714	-54,890	0,086	0,029
-695,699	-200,000	-0,019	-0,063
-694,685	682,835	-0,043	-0,084
-693,670	-92,820	0,113	-0,023
-692,656	244,398	0,045	-0,057
-691,641	660,062	0,056	0,109
-690,627	786,468	0,020	0,040
-689,612	-200,000	-0,009	-0,037
-688,597	211,281	-0,071	-0,083
-687,583	-147,117	-0,026	0,002
-686,568	-53,993	-0,121	0,041
-685,554	323,628	0,009	0,013
-684,539	109,662	0,008	0,007
-683,524	283,275	-0,064	0,085
-682,510	176,492	-0,044	0,048
-681,495	-108,660	-0,064	-0,010
-680,481	-7,179	-0,045	-0,023
-679,466	197,270	-0,061	-0,069
-678,451	-36,949	0,076	0,030
-677,437	-72,982	-0,049	0,013
-676,422	-200,000	-0,010	0,043
-675,408	60,024	0,104	-0,076
-674,393	-104,439	0,063	-0,011
-673,378	-200,000	-0,011	-0,130
-672,364	-200,000	0,013	-0,211
-671,349	-115,190	-0,176	0,025
-670,335	-200,000	-0,006	0,175
-669,320	-200,000	0,025	0,083
-668,305	-151,200	0,079	-0,004
-667,291	-9,874	0,021	-0,010
-666,276	578,726	-0,056	-0,102
-665,262	391,454	-0,060	-0,092
-664,247	92,002	-0,132	0,110
-663,232	-200,000	-0,001	-0,090
-662,218	198,652	-0,051	0,058
-661,203	800,000	0,030	0,094
-660,189	800,000	-0,013	-0,037
-659,174	-53,418	0,072	0,024
-658,159	-127,560	-0,100	0,011
-657,145	-20,782	-0,105	-0,048
-656,130	-147,224	0,033	0,002
-655,116	800,000	-0,011	0,032
-654,101	-125,666	0,032	0,004
-653,086	-67,869	-0,007	0,002
-652,072	-200,000	-0,014	-0,078
-651,057	-121,358	-0,190	0,023
-650,043	105,371	-0,131	-0,115
-649,028	532,270	-0,018	0,031
-648,014	74,424	0,087	0,067
-646,999	-33,360	-0,055	-0,023
-645,984	-142,411	-0,078	-0,006
-644,970	227,020	-0,047	0,057
-643,955	-200,000	-0,030	-0,137
-642,941	-200,000	-0,027	-0,119
-641,926	-134,328	-0,030	-0,003
-640,911	697,714	-0,107	-0,210
-639,897	-84,514	0,169	0,039
-638,882	-200,000	-0,002	0,102
-637,868	-16,979	0,027	0,013
-636,853	800,000	-0,085	-0,181
-635,838	-188,074	-0,106	0,001
-634,824	-200,000	-0,022	-0,122
-633,809	-150,414	0,123	-0,007
-632,795	-200,000	0,002	0,089
-631,780	-200,000	-0,004	0,190
-630,765	145,647	-0,006	-0,006
-629,751	17,996	0,076	0,045
-628,736	-200,000	0,021	-0,173
-627,722	101,540	0,035	-0,030
-626,707	-85,163	-0,055	0,013
-625,692	-200,000	-0,015	0,079
-624,678	-49,806	0,109	0,038
-623,663	-160,196	-0,191	-0,008
-622,649	-200,000	0,010	-0,071
-621,634	-200,000	0,015	-0,094
-620,619	-200,000	-0,014	-0,093
-619,605	-200,000	-0,001	-0,111
-618,590	124,378	0,137	0,128
-617,576	18,299	-0,114	0,067
-616,561	-64,546	-0,031	0,009
-615,546	-200,000	0,032	-0,122
-614,532	-200,000	0,008	-0,055
-613,517	189,117	-0,161	-0,179
-612,503	-200,000	-0,006	0,053
-611,488	636,285	-0,091	0,172
-610,474	-200,000	0,005	0,133
-609,459	-18,368	0,056	0,026
-608,444	429,349	0,058	-0,093
-607,430	200,827	0,082	-0,094
-606,415	25,892	-0,091	0,056
-605,401	71,431	-0,047	0,036
-604,386	-8,901	0,026	0,013
-603,371	-200,000	0,012	0,172
-602,357	-126,565	0,095	0,010
-601,342	-30,613	0,026	0,011
-600,328	80,947	0,007	-0,006
-599,313	746,201	0,023	0,046
-598,298	800,000	-0,018	0,038
-597,284	-200,000	-0,007	-0,124
-596,269	2,677	0,083	-0,044
-595,255	-200,000	0,002	-0,054
-594,240	39,406	-0,069	-0,046
-593,225	-5,466	0,079	-0,040
-592,211	-54,852	-0,175	-0,058
-591,196	153,178	-0,048	0,049
-590,182	-96,832	0,197	0,038
-589,167	-200,000	0,013	-0,103
-588,152	-25,527	-0,046	-0,020
-587,138	78,883	-0,095	-0,075
-586,123	-23,176	-0,135	-0,060
-585,109	-135,463	-0,028	-0,002
-584,094	-200,000	-0,023	-0,114
-583,079	105,099	0,013	-0,011
-582,065	-172,603	-0,010	0,000
-581,050	-200,000	-0,012	0,066
-580,036	-200,000	0,004	-0,042
-579,021	-200,000	0,025	-0,156
-578,006	-200,000	0,008	-0,071
-576,992	-94,320	0,123	0,025
-575,977	-200,000	-0,036	-0,171
-574,963	-173,105	-0,005	0,000
-573,948	581,021	0,030	0,054
-572,934	26,704	0,051	-0,032
-571,919	-200,000	0,038	0,149
-570,904	572,244	-0,039	0,071
-569,890	596,943	-0,061	-0,112
-568,875	-48,867	-0,023	0,008
-567,861	-200,000	0,015	0,091
-566,846	-59,388	-0,072	0,023
-565,831	699,611	0,016	0,030
-564,817	21,842	0,018	-0,011
-563,802	-200,000	0,001	-0,019
-562,788	55,433	-0,122	-0,087
-561,773	-27,311	0,040	0,017
-560,758	3,907	0,095	0,051
-559,744	208,200	-0,068	0,079
-558,729	-200,000	0,007	0,100
-557,715	478,999	-0,047	-0,080
-556,700	800,000	-0,022	-0,061
-555,685	105,852	-0,112	0,098
-554,671	-141,699	-0,093	-0,007
-553,656	688,366	0,054	0,104
-552,642	201,298	0,049	0,055
-551,627	-133,687	0,022	-0,002
-550,612	-77,121	-0,021	0,005
-549,598	3,318	-0,105	0,056
-548,583	-44,701	0,076	0,028
-547,569	38,048	0,036	0,023
-546,554	238,442	-0,074	-0,091
-545,539	800,000	-0,035	-0,074
-544,525	-39,531	0,067	0,026
-543,510	-200,000	0,016	-0,116
-542,496	-100,335	0,072	-0,013
-541,481	-33,497	-0,150	-0,061
-540,466	-200,000	0,017	-0,145
-539,452	21,885	-0,040	0,024
-538,437	-71,630	0,071	-0,020
-537,423	-200,000	0,002	0,116
-536,408	-200,000	0,019	0,085
-535,393	-110,966	0,087	-0,013
-534,379	800,000	0,019	-0,050
-533,364	239,412	-0,009	0,011
-532,350	205,526	-0,158	0,182
-531,335	-200,000	0,002	-0,031
-530,321	-174,885	0,123	0,002
-529,306	759,148	0,043	-0,086
-528,291	800,000	0,041	-0,098
-527,277	-1,155	-0,028	-0,015
-526,262	-200,000	-0,024	0,086
-525,248	800,000	-0,036	0,088
-524,233	473,381	0,018	-0,031
-523,218	-173,329	-0,044	-0,001
-522,204	-89,655	0,059	0,013
-521,189	-133,779	-0,135	0,012
-520,175	206,557	-0,093	0,107
-519,160	672,140	-0,039	-0,074
-518,145	53,689	0,165	0,117
-517,131	-138,439	0,042	-0,003
-516,116	175,312	0,038	0,041
-515,102	-200,000	-0,004	-0,039
-514,087	-200,000	0,023	-0,097
-513,072	-200,000	-0,018	-0,063
-512,058	-137,386	-0,183	0,015
-511,043	45,204	0,022	0,015
-510,029	-200,000	-0,014	0,068
-509,014	-200,000	-0,029	0,120
-507,999	298,185	-0,069	0,094
-506,985	-200,000	0,003	0,021
-505,970	800,000	-0,034	0,087
-504,956	378,907	0,023	-0,035
-503,941	-22,745	-0,033	0,015
-502,926	-200,000	0,012	-0,097
-501,912	400,326	0,035	0,054
-500,897	211,346	-0,076	0,088
-499,883	220,396	0,109	-0,129
-498,868	243,693	0,018	0,022
-497,853	-78,962	-0,174	-0,043
-496,839	-50,429	-0,086	0,030
-495,824	-57,737	0,040	0,013
-494,810	169,349	0,044	0,047
-493,795	-111,670	-0,076	-0,011
-492,781	800,000	0,022	-0,059
-491,766	-34,337	-0,069	0,028
-490,751	-200,000	-0,018	-0,058
-489,737	-76,540	-0,082	-0,021
-488,722	-5,585	-0,087	-0,044
-487,708	108,338	0,067	-0,059
-486,693	223,937	0,107	0,127
-485,678	6,302	-0,064	-0,035
-484,664	-200,000	0,019	-0,075
-483,649	-200,000	0,017	0,064
-482,635	-125,678	0,066	-0,007
-481,620	11,423	0,090	0,050
-480,605	800,000	-0,024	0,071
-479,591	800,000	0,052	0,131
-478,576	319,233	0,018	-0,025
-477,562	263,721	-0,046	0,059
-476,547	400,167	-0,098	-0,152
-475,532	207,231	-0,045	-0,052
-474,518	-107,456	0,111	-0,018
-473,503	297,714	-0,049	-0,067
-472,489	-200,000	-0,007	0,067
-471,474	-200,000	-0,040	-0,143
-470,459	11,962	-0,122	-0,069
-469,445	-61,148	-0,109	-0,034
-468,430	75,262	-0,024	-0,019
-467,416	1,375	-0,081	-0,043
-466,401	-72,057	-0,083	-0,023
-465,386	-200,000	0,004	0,158
-464,372	-200,000	0,009	0,058
-463,357	-109,663	0,018	-0,003
-462,343	-43,141	-0,064	-0,024
-461,328	624,352	-0,073	-0,136
-460,313	-83,172	-0,080	-0,019
-459,299	67,170	0,109	0,081
-458,284	-32,953	0,125	-0,051
-457,270	-200,000	-0,009	-0,062
-456,255	-85,646	0,128	-0,029
-455,241	-34,911	-0,105	-0,042
-454,226	46,449	-0,020	0,014
-453,211	-108,272	-0,040	-0,006
-452,197	-17,932	0,039	0,018
-451,182	-200,000	0,018	0,084
-450,168	-200,000	0,010	0,119
-449,153	285,165	-0,081	-0,108
-448,138	-101,418	-0,072	-0,013
-447,124	-200,000	0,006	-0,064
-446,109	214,178	0,006	0,007
-445,095	92,016	0,120	0,100
-444,080	-200,000	0,017	0,082
-443,065	85,250	-0,087	0,071
-442,051	122,111	-0,045	-0,041
-441,036	800,000	-0,022	-0,058
-440,022	-200,000	-0,006	-0,027
-439,007	-200,000	-0,004	0,031
-437,992	341,242	-0,073	0,106
-436,978	150,384	0,066	0,066
-435,963	-104,412	0,096	0,016
-434,949	126,841	-0,095	-0,089
-433,934	108,256	-0,055	-0,048
-432,919	-71,855	-0,101	-0,027
-431,905	-130,615	0,149	0,015
-430,890	-80,512	-0,014	0,003
-429,876	800,000	0,039	0,110
-428,861	-28,003	-0,036	-0,015
-427,846	517,747	-0,024	-0,041
-426,832	66,554	-0,093	-0,070
-425,817	47,496	0,035	0,024
-424,803	-200,000	-0,006	-0,046
-423,788	-200,000	0,032	0,258
-422,773	-200,000	-0,009	0,080
-421,759	338,957	0,051	0,074
-420,744	-82,062	-0,109	0,026
-419,730	800,000	-0,016	-0,050
-418,715	124,437	0,042	-0,039
-417,701	-57,050	-0,139	-0,045
-416,686	-149,154	0,140	-0,008
-415,671	708,510	0,075	-0,146
-414,657	190,529	0,060	-0,066
-413,642	-35,922	0,038	0,015
-412,628	-115,077	-0,044	-0,006
-411,613	-200,000	0,004	0,040
-410,598	64,766	0,036	0,027
-409,584	-90,289	-0,081	0,017
-408,569	-40,674	0,202	0,077
-407,555	134,291	-0,028	0,027
-406,540	114,731	-0,024	-0,021
-405,525	142,469	0,068	0,066
-404,511	800,000	-0,067	-0,186
-403,496	-200,000	-0,015	-0,060
-402,482	-48,328	0,086	0,030
-401,467	260,720	0,091	-0,116
-400,452	-200,000	-0,010	-0,078
-399,438	-200,000	-0,013	0,051
-398,423	382,976	-0,079	-0,120
-397,409	-200,000	0,012	-0,079
-396,394	-73,304	-0,143	0,038
-395,379	800,000	-0,020	0,045
-394,365	290,484	-0,045	-0,060
-393,350	-200,000	0,002	0,041
-392,336	-100,175	-0,089	-0,016
-391,321	-200,000	-0,007	0,081
-390,306	137,059	-0,107	-0,103
-389,292	-200,000	-0,006	-0,040
-388,277	35,165	0,080	-0,051
-387,263	-128,955	-0,117	-0,012
-386,248	-200,000	0,012	0,094
-385,233	102,922	0,147	-0,127
-384,219	-60,358	-0,048	0,015
-383,204	-200,000	-0,005	0,060
-382,190	-200,000	0,007	-0,087
-381,175	102,468	0,065	-0,056
-380,160	751,935	0,045	0,090
-379,146	596,197	0,067	0,122
-378,131	120,498	0,036	-0,033
-377,117	-200,000	0,014	-0,045
-376,102	800,000	0,049	-0,116
-375,088	800,000	0,063	-0,201
-374,073	800,000	-0,011	-0,032
-373,058	541,291	0,021	0,038
-372,044	125,101	0,117	0,109
-371,029	-200,000	-0,023	0,079
-370,015	80,191	-0,076	-0,060
-369,000	72,294	-0,057	-0,044
-367,985	-200,000	-0,004	-0,048
-366,971	126,253	-0,122	-0,113
-365,956	-84,900	0,034	0,008
-364,942	81,578	0,048	0,038
-363,927	52,983	-0,065	0,046
-362,912	-7,683	0,093	-0,046
-361,898	-53,315	0,047	-0,016
-360,883	800,000	0,035	-0,109
-359,869	240,252	0,041	-0,050
-358,854	-193,860	0,056	0,000
-357,839	-200,000	0,026	0,136
-356,825	-200,000	0,016	0,073
-355,810	242,479	-0,047	-0,058
-354,796	125,063	0,037	-0,034
-353,781	800,000	0,067	-0,204
-352,766	-189,116	-0,102	0,001
-351,752	800,000	0,001	-0,002
-350,737	157,799	0,071	-0,072
-349,723	41,195	-0,082	-0,055
-348,708	-200,000	0,004	0,133
-347,693	-200,000	0,002	0,015
-346,679	258,742	-0,082	-0,104
-345,664	11,031	-0,098	-0,055
-344,650	-23,072	0,029	-0,013
-343,635	-53,640	0,093	-0,031
-342,620	97,140	0,056	-0,047
-341,606	800,000	-0,034	0,083
-340,591	-17,349	-0,108	0,050
-339,577	-200,000	-0,027	0,103
-338,562	-9,992	0,010	0,005
-337,548	-200,000	-0,014	-0,050
-336,533	55,301	0,116	0,082
-335,518	-90,118	0,189	-0,040
-334,504	144,120	0,094	0,092
-333,489	-200,000	0,021	0,083
-332,475	-180,674	0,060	0,001
-331,460	-200,000	-0,028	0,118
-330,445	16,628	0,065	0,037
-329,431	261,327	0,057	0,072
-328,416	800,000	-0,038	0,101
-327,402	76,765	0,145	0,113
-326,387	217,452	0,013	-0,015
-325,372	-161,005	-0,012	0,000
-324,358	-91,168	-0,026	0,006
-323,343	47,615	-0,045	-0,031
-322,329	800,000	-0,040	0,122
-321,314	226,731	-0,101	-0,120
-320,299	528,320	0,057	0,099
-319,285	-200,000	-0,001	-0,104
-318,270	-200,000	0,016	-0,113
-317,256	42,862	-0,118	0,079
-316,241	800,000	-0,015	-0,050
-315,226	447,827	0,044	-0,071
-314,212	-56,088	0,082	0,027
-313,197	162,495	-0,050	0,052
-312,183	-79,508	0,013	-0,003
-311,168	-200,000	-0,007	-0,070
-310,153	-100,225	-0,095	0,017
-309,139	-96,989	-0,117	-0,022
-308,124	117,615	0,072	0,065
-307,110	523,264	-0,063	-0,108
-306,095	-147,593	0,089	-0,005
-305,080	-200,000	0,028	0,106
-304,066	75,803	0,034	0,026
-303,051	-92,074	-0,027	-0,005
-302,037	126,020	-0,098	-0,091
-301,022	-79,830	0,094	-0,023
-300,008	-93,066	0,047	0,009
-298,993	800,000	0,018	-0,040
-297,978	-200,000	-0,017	0,102
-296,964	-200,000	0,002	0,069
-295,949	25,153	-0,077	0,047
-294,935	769,962	-0,012	0,023
-293,920	-200,000	-0,009	0,100
-292,905	-84,400	0,100	0,023
-291,891	-109,658	-0,042	-0,006
-290,876	-81,598	0,042	0,010
-289,862	268,256	-0,021	-0,027
-288,847	-200,000	0,029	-0,098
-287,832	-200,000	-0,030	0,097
-286,818	154,507	-0,058	-0,059
-285,803	800,000	-0,026	-0,068
-284,789	0,356	0,124	-0,065
-283,774	475,827	-0,021	-0,034
-282,759	-200,000	0,006	-0,083
-281,745	-88,967	0,113	-0,024
-280,730	742,161	-0,040	-0,078
-279,716	-200,000	0,018	0,073
-278,701	-200,000	-0,028	-0,109
-277,686	-200,000	-0,015	0,076
-276,672	114,287	0,143	-0,127
-275,657	-200,000	0,014	-0,107
-274,643	-105,845	-0,129	0,021
-273,628	-176,440	-0,151	-0,003
-272,613	401,697	0,018	-0,027
-271,599	-7,704	0,085	-0,042
-270,584	126,927	0,122	-0,113
-269,570	-104,634	0,050	0,008
-268,555	-200,000	-0,009	-0,030
-267,540	-200,000	0,002	-0,099
-266,526	-12,074	0,114	-0,054
-265,511	117,187	0,097	-0,087
-264,497	291,155	0,073	0,097
-263,482	-200,000	0,033	0,230
-262,467	109,886	0,118	0,104
-261,453	97,263	-0,034	0,029
-260,438	370,317	-0,051	0,076
-259,424	-12,727	-0,060	0,028
-258,409	-200,000	-0,016	0,134
-257,395	-200,000	0,023	0,098
-256,380	373,568	0,063	0,094
-255,365	442,243	0,034	0,054
-254,351	-160,578	-0,091	0,003
-253,336	-200,000	0,011	0,111
-252,322	800,000	-0,066	0,190
-251,307	-200,000	-0,012	0,139
-250,292	290,754	0,087	0,115
-249,278	320,373	-0,023	0,032
-248,263	-59,863	-0,023	-0,007
-247,249	5,942	0,054	0,029
-246,234	130,759	0,071	0,066
-245,219	-118,670	0,070	-0,009
-244,205	353,689	0,034	-0,049
-243,190	524,394	-0,015	0,027
-242,176	-32,623	-0,070	-0,028
-241,161	-111,084	-0,061	-0,009
-240,146	440,535	0,051	-0,082
-239,132	-200,000	-0,007	0,080
-238,117	-62,997	0,096	-0,029
-237,103	591,022	0,062	-0,112
-236,088	41,016	0,049	-0,032
-235,073	756,432	-0,019	-0,038
-234,059	-85,217	0,149	-0,034
-233,044	191,529	0,026	-0,028
-232,030	530,990	-0,065	0,113
-231,015	81,473	0,019	0,015
-230,000	-181,959	-0,057	0,001
-228,986	-200,000	0,037	-0,149
-227,971	-200,000	0,025	0,183
-226,957	-40,448	0,050	0,019
-225,942	-191,619	0,048	0,000
-224,927	-200,000	-0,016	-0,101
-223,913	-200,000	-0,004	-0,032
-222,898	800,000	0,010	0,025
-221,884	194,691	-0,087	0,096
-220,869	-56,701	-0,065	0,021
-219,855	5,594	0,132	0,071
-218,840	37,263	0,057	-0,037
-217,825	48,566	-0,035	-0,024
-216,811	-119,593	0,087	0,011
-215,796	-200,000	-0,010	-0,111
-214,782	-184,032	0,137	0,002
-213,767	182,683	-0,021	-0,022
-212,752	122,667	-0,149	-0,136
-211,738	-200,000	-0,034	0,131
-210,723	-58,369	0,021	0,007
-209,709	418,514	0,019	-0,030
-208,694	53,945	-0,064	0,045
-207,679	448,587	0,058	-0,094
-206,665	481,004	-0,080	-0,133
-205,650	-200,000	0,019	0,155
-204,636	800,000	0,006	0,013
-203,621	-200,000	0,014	0,049
-202,606	306,811	0,048	0,066
-201,592	-200,000	-0,042	0,000
-200,577	29,168	0,062	-0,038
-199,563	800,000	0,048	0,124
-198,548	79,101	-0,106	0,083
-197,533	92,418	0,068	0,056
-196,519	46,243	0,081	0,055
-195,504	-200,000	0,011	0,042
-194,490	-200,000	0,010	-0,165
-193,475	-66,391	-0,117	-0,034
-192,460	102,328	-0,075	-0,064
-191,446	7,571	0,120	0,065
-190,431	9,151	-0,061	0,034
-189,417	-105,632	-0,115	0,019
-188,402	-116,560	0,017	0,002
-187,387	260,599	-0,035	-0,044
-186,373	800,000	0,035	-0,099
-185,358	201,068	-0,039	0,044
-184,344	-200,000	0,005	0,065
-183,329	-200,000	0,002	-0,084
-182,315	-29,293	0,088	0,037
-181,300	-91,777	-0,068	-0,014
-180,285	684,794	-0,082	-0,156
-179,271	104,366	-0,034	-0,029
-178,256	130,619	0,069	0,064
-177,242	-200,000	0,007	0,094
-176,227	12,152	-0,035	0,019
-175,212	-200,000	0,020	0,077
-174,198	800,000	0,013	0,029
-173,183	-108,843	-0,103	-0,016
-172,169	-7,426	0,105	0,052
-171,154	61,840	-0,064	-0,047
-170,139	-200,000	0,024	0,113
-169,125	-200,000	0,030	0,108
-168,110	85,483	0,067	0,054
-167,096	800,000	-0,038	0,099
-166,081	-97,505	-0,101	-0,019
-165,066	800,000	-0,051	-0,134
-164,052	-67,719	-0,059	-0,017
-163,037	-87,552	0,149	0,033
-162,023	-121,248	-0,042	-0,005
-161,008	-106,903	0,055	0,009
-159,993	522,489	-0,030	0,051
-158,979	-105,068	-0,048	-0,008
-157,964	389,495	-0,053	-0,079
-156,950	-11,435	0,238	-0,114
-155,935	-146,786	0,054	-0,003
-154,920	800,000	0,013	-0,039
-153,906	298,880	-0,068	0,091
-152,891	-200,000	0,016	0,158
-151,877	-42,603	0,043	-0,016
-150,862	-110,537	-0,200	-0,030
-149,847	-3,767	-0,071	0,036
-148,833	-12,934	0,079	-0,037
-147,818	800,000	0,014	0,035
-146,804	-200,000	0,021	0,098
-145,789	-200,000	0,035	0,126
-144,775	-200,000	0,019	-0,175
-143,760	127,120	0,104	0,096
-142,745	-107,237	-0,114	0,018
-141,731	800,000	-0,009	0,021
-140,716	-59,828	-0,114	0,035
-139,702	247,173	0,040	0,049
-138,687	-56,421	0,071	-0,023
-137,672	-200,000	0,002	-0,062
-136,658	-200,000	0,034	-0,143
-135,643	583,849	0,030	0,053
-134,629	-200,000	0,000	-0,102
-133,614	-22,447	0,047	0,021
-132,599	-200,000	-0,005	-0,045
-131,585	-200,000	0,000	0,011
-130,570	-45,300	0,064	-0,023
-129,556	800,000	-0,051	-0,109
-128,541	-200,000	-0,019	-0,081
-127,526	800,000	-0,042	-0,110
-126,512	87,831	0,096	0,077
-125,497	-200,000	-0,001	0,095
-124,483	111,347	-0,051	0,045
-123,468	-52,521	0,089	-0,030
-122,453	212,419	0,099	0,114
-121,439	-200,000	-0,033	-0,137
-120,424	800,000	0,042	-0,117
