DTS Sentinel unit serial number:	SN410029Multiplexer serial number:	ORYXHardware model number:	OX2-SRSoftware version number:	ORYX F/W v4,00 Oryx Data Collector v3.7.2.0data status	okinstallation	B6 Nyhavnadifferential loss correction	single-endedforward channel	channel 2reverse channel	N/Adate	2023/12/09time	01:55:08forward acquisition time	300,00reverse acquisition time	0,00gamma	499,1914k internal	0,3156k external	0,3156temperature offset calibration	1,0000default loss term (dB/km)	0,3820temperature slope calibration	1,0000multiplexer offset coefficient	1,0000multiplexer slope coefficient	1,0000fibre end	0,00T internal ref (°C)	15,87T ext. ref 1 (°C)	-0,43T ext. ref 2 (°C)	-0,44length (m)	temperature (°C)	Stokes	anti-Stokes-744,400	-200,000	-0,001	0,023
-743,385	100,971	-0,219	-0,188
-742,371	-107,850	0,385	-0,061
-741,356	-108,844	-0,288	0,045
-740,342	-179,730	0,182	0,003
-739,327	-176,069	-0,270	0,005
-738,312	-200,000	0,014	-0,081
-737,298	-128,963	-0,277	0,028
-736,283	80,476	0,117	0,093
-735,269	-150,090	-0,355	0,020
-734,254	116,985	0,043	-0,039
-733,239	0,889	-0,403	-0,212
-732,225	-135,662	0,197	0,017
-731,210	-2,007	-0,138	0,071
-730,196	-125,596	-0,145	-0,016
-729,181	16,114	-0,044	0,026
-728,167	-200,000	-0,008	0,080
-727,152	800,000	-0,024	0,054
-726,137	20,956	-0,090	-0,054
-725,123	-16,456	-0,177	-0,082
-724,108	-71,351	-0,128	-0,035
-723,094	-3,710	-0,058	-0,030
-722,079	241,344	0,038	-0,047
-721,064	184,592	-0,083	-0,090
-720,050	-15,699	-0,067	0,031
-719,035	-114,664	-0,128	0,018
-718,021	301,859	-0,043	-0,058
-717,006	120,876	-0,092	0,085
-715,991	98,109	-0,049	0,041
-714,977	215,918	-0,076	-0,089
-713,962	800,000	-0,070	-0,145
-712,948	76,783	0,011	-0,008
-711,933	-57,707	-0,007	0,002
-710,918	-151,796	-0,092	-0,005
-709,904	-69,554	-0,103	0,029
-708,889	-200,000	-0,023	0,077
-707,875	646,399	-0,037	-0,071
-706,860	-99,205	0,126	0,023
-705,845	-78,743	0,085	-0,021
-704,831	-200,000	0,004	-0,019
-703,816	10,040	0,028	-0,015
-702,802	6,196	-0,057	0,031
-701,787	48,369	-0,185	-0,127
-700,772	-28,021	0,111	0,047
-699,758	-128,766	0,178	0,018
-698,743	121,848	-0,153	0,141
-697,729	-200,000	0,025	0,176
-696,714	-200,000	0,014	0,085
-695,699	70,543	-0,046	-0,035
-694,685	-46,655	-0,120	-0,043
-693,670	49,388	-0,054	0,037
-692,656	-17,236	-0,063	0,029
-691,641	270,447	0,077	0,100
-690,627	42,424	-0,089	0,059
-689,612	273,611	-0,018	-0,024
-688,597	565,654	-0,028	0,050
-687,583	-200,000	-0,021	-0,129
-686,568	-90,750	-0,137	0,029
-685,554	42,648	-0,041	-0,027
-684,539	-200,000	0,001	0,052
-683,524	-22,053	-0,087	0,039
-682,510	800,000	0,048	-0,129
-681,495	-69,788	0,033	-0,009
-680,481	410,150	-0,064	-0,099
-679,466	661,774	0,059	-0,113
-678,451	-127,956	-0,105	0,011
-677,437	630,477	0,032	-0,059
-676,422	-27,167	-0,035	0,015
-675,408	70,098	-0,054	-0,041
-674,393	-200,000	-0,022	0,108
-673,378	20,538	-0,187	-0,111
-672,364	800,000	0,016	0,033
-671,349	-38,400	-0,189	-0,073
-670,335	-18,977	0,109	-0,050
-669,320	57,627	0,102	-0,073
-668,305	527,393	0,012	-0,022
-667,291	48,740	-0,082	0,057
-666,276	-200,000	0,014	-0,111
-665,262	217,351	-0,026	-0,031
-664,247	-29,780	-0,120	-0,050
-663,232	79,968	0,086	-0,068
-662,218	192,971	0,058	0,064
-661,203	-172,929	-0,052	-0,001
-660,189	-39,360	-0,154	-0,059
-659,174	276,696	-0,045	-0,058
-658,159	18,593	-0,127	-0,074
-657,145	800,000	-0,065	-0,174
-656,130	7,123	-0,072	0,039
-655,116	-61,047	0,075	-0,023
-654,101	83,957	0,031	0,025
-653,086	25,807	0,072	0,044
-652,072	-145,419	-0,124	0,008
-651,057	-105,645	-0,048	-0,008
-650,043	317,949	0,036	-0,050
-649,028	-66,890	-0,078	0,023
-648,014	261,219	0,086	0,109
-646,999	20,475	-0,050	-0,030
-645,984	78,320	-0,101	0,079
-644,970	800,000	0,016	0,047
-643,955	-184,738	-0,043	0,000
-642,941	176,419	-0,161	-0,173
-641,926	-57,916	-0,074	0,023
-640,911	354,759	0,039	-0,057
-639,897	-86,908	0,157	0,035
-638,882	17,355	-0,024	0,014
-637,868	800,000	-0,063	0,156
-636,853	800,000	-0,037	-0,102
-635,838	-200,000	-0,036	-0,125
-634,824	-200,000	0,044	0,000
-633,809	-86,221	-0,032	0,007
-632,795	-106,008	-0,030	0,005
-631,780	-33,805	0,041	0,016
-630,765	148,942	-0,154	0,153
-629,751	182,257	-0,063	0,068
-628,736	800,000	-0,018	0,040
-627,722	261,124	0,025	0,032
-626,707	800,000	0,032	0,091
-625,692	-77,392	0,155	0,039
-624,678	15,026	-0,150	-0,086
-623,663	-100,250	0,114	-0,021
-622,649	-29,490	-0,091	-0,038
-621,634	800,000	-0,034	0,078
-620,619	254,830	-0,031	0,039
-619,605	37,006	0,121	0,078
-618,590	800,000	0,049	0,121
-617,576	-36,753	0,161	0,063
-616,561	-2,791	0,115	0,059
-615,546	-200,000	0,012	-0,052
-614,532	169,821	-0,105	-0,111
-613,517	-29,289	-0,028	-0,012
-612,503	800,000	-0,035	-0,095
-611,488	57,150	0,039	-0,028
-610,474	1,138	0,096	-0,051
-609,459	-70,508	0,089	-0,025
-608,444	364,122	-0,045	-0,066
-607,430	-31,481	-0,066	-0,027
-606,415	-135,196	-0,093	0,008
-605,401	141,080	-0,082	0,080
-604,386	-200,000	-0,000	0,051
-603,371	542,245	0,082	-0,144
-602,357	-194,915	-0,023	0,000
-601,342	-200,000	0,006	0,073
-600,328	-200,000	-0,025	-0,162
-599,313	-23,507	-0,059	0,026
-598,298	-11,009	0,083	-0,040
-597,284	395,408	-0,069	-0,106
-596,269	-67,546	0,081	-0,023
-595,255	39,822	0,093	-0,061
-594,240	-200,000	-0,000	-0,019
-593,225	258,136	0,033	-0,042
-592,211	800,000	0,040	-0,082
-591,196	800,000	-0,047	-0,114
-590,182	213,217	0,016	0,019
-589,167	-183,744	0,226	-0,003
-588,152	-103,151	-0,134	-0,023
-587,138	284,502	0,007	-0,010
-586,123	-200,000	-0,003	0,025
-585,109	-200,000	-0,008	0,054
-584,094	800,000	0,059	-0,171
-583,079	-32,696	0,132	0,053
-582,065	-167,966	0,195	-0,005
-581,050	-50,409	-0,022	-0,008
-580,036	-50,167	0,079	-0,027
-579,021	216,749	0,093	-0,108
-578,006	248,439	-0,084	-0,104
-576,992	800,000	0,044	0,104
-575,977	396,858	0,083	-0,128
-574,963	-200,000	0,004	0,137
-573,948	-200,000	-0,017	0,130
-572,934	678,262	-0,024	-0,046
-571,919	20,655	-0,146	-0,086
-570,904	4,922	-0,074	0,040
-569,890	26,762	0,038	0,023
-568,875	759,395	0,038	-0,077
-567,861	13,262	0,046	0,026
-566,846	76,944	0,055	0,043
-565,831	-34,495	0,006	0,003
-564,817	523,251	0,033	0,058
-563,802	-200,000	-0,007	-0,058
-562,788	-11,044	-0,195	0,094
-561,773	-200,000	0,026	0,086
-560,758	564,353	-0,013	0,023
-559,744	800,000	-0,044	0,138
-558,729	-63,314	-0,101	-0,030
-557,715	-200,000	0,002	-0,052
-556,700	800,000	-0,073	-0,154
-555,685	-140,143	-0,082	-0,006
-554,671	-56,541	0,079	0,026
-553,656	800,000	0,022	-0,048
-552,642	538,811	0,029	0,051
-551,627	-149,167	0,156	0,009
-550,612	-200,000	-0,020	-0,133
-549,598	119,560	-0,160	0,145
-548,583	58,495	0,050	-0,036
-547,569	-10,586	0,014	-0,007
-546,554	47,044	-0,070	-0,048
-545,539	-200,000	-0,022	0,173
-544,525	-200,000	0,014	0,051
-543,510	-73,389	-0,062	0,016
-542,496	239,852	0,057	-0,070
-541,481	-1,971	-0,158	0,081
-540,466	-200,000	0,006	-0,067
-539,452	800,000	0,044	-0,101
-538,437	7,862	-0,063	0,034
-537,423	472,616	0,025	-0,041
-536,408	84,970	-0,041	-0,033
-535,393	800,000	-0,024	-0,073
-534,379	-80,517	-0,144	0,035
-533,364	-200,000	0,001	0,069
-532,350	-131,971	0,128	0,012
-531,335	259,663	-0,042	0,054
-530,321	-200,000	0,018	0,093
-529,306	31,157	0,046	0,029
-528,291	-93,556	-0,023	-0,005
-527,277	800,000	0,017	-0,039
-526,262	800,000	-0,055	-0,156
-525,248	-200,000	0,034	0,141
-524,233	413,101	-0,034	-0,054
-523,218	-200,000	0,001	-0,108
-522,204	-33,724	-0,046	0,018
-521,189	-200,000	0,008	0,064
-520,175	-81,112	0,046	0,011
-519,160	-36,921	-0,092	-0,036
-518,145	486,580	0,071	-0,119
-517,131	-14,851	0,098	-0,046
-516,116	128,256	0,127	0,119
-515,102	-45,163	0,054	0,020
-514,087	-37,680	-0,078	-0,030
-513,072	-200,000	-0,002	-0,134
-512,058	800,000	0,046	-0,130
-511,043	51,094	0,139	-0,096
-510,029	-85,085	-0,050	0,011
-509,014	312,053	0,128	0,177
-507,999	87,763	0,199	0,161
-506,985	236,878	0,011	-0,013
-505,970	-6,857	-0,054	-0,027
-504,956	-200,000	0,006	0,074
-503,941	190,795	0,089	0,098
-502,926	146,937	0,115	0,113
-501,912	-200,000	0,033	0,167
-500,897	-200,000	0,017	-0,104
-499,883	393,005	-0,090	0,137
-498,868	-46,691	-0,221	-0,079
-497,853	-65,149	0,152	0,044
-496,839	-137,113	0,049	0,004
-495,824	-95,403	0,031	-0,006
-494,810	-200,000	0,008	0,051
-493,795	45,949	-0,074	-0,050
-492,781	47,435	-0,101	0,068
-491,766	99,250	-0,082	0,069
-490,751	-200,000	0,004	-0,167
-489,737	305,279	-0,024	-0,032
-488,722	-20,487	-0,109	-0,049
-487,708	-200,000	0,006	0,098
-486,693	-69,991	0,052	0,014
-485,678	-200,000	0,022	0,139
-484,664	-200,000	-0,003	0,019
-483,649	-200,000	-0,009	-0,088
-482,635	-64,039	0,097	-0,029
-481,620	-152,711	-0,084	0,004
-480,605	120,151	-0,035	-0,031
-479,591	38,403	0,100	-0,065
-478,576	-200,000	-0,014	-0,126
-477,562	437,736	-0,041	-0,065
-476,547	-151,086	-0,148	0,008
-475,532	-181,453	0,012	0,000
-474,518	18,043	0,062	0,036
-473,503	-97,998	-0,050	0,009
-472,489	-103,724	0,075	0,013
-471,474	336,814	-0,015	0,021
-470,459	-164,147	-0,117	-0,004
-469,445	-56,073	0,034	0,011
-468,430	-33,958	0,100	0,040
-467,416	653,643	0,015	0,028
-466,401	735,074	-0,036	-0,071
-465,386	-69,217	-0,086	-0,024
-464,372	800,000	-0,042	-0,098
-463,357	28,479	-0,045	-0,028
-462,343	35,125	0,036	0,023
-461,328	61,266	0,091	-0,066
-460,313	-200,000	0,000	-0,088
-459,299	1,371	0,102	0,053
-458,284	23,231	0,093	-0,056
-457,270	-200,000	0,003	0,026
-456,255	-125,822	-0,063	-0,007
-455,241	218,330	-0,058	-0,068
-454,226	441,467	0,012	0,019
-453,211	-116,886	-0,073	-0,010
-452,197	-200,000	-0,001	0,065
-451,182	-90,346	0,057	-0,012
-450,168	109,138	0,070	-0,061
-449,153	800,000	-0,069	0,154
-448,138	-200,000	-0,016	-0,116
-447,124	173,055	-0,120	-0,126
-446,109	-30,816	0,068	0,028
-445,095	504,806	-0,034	-0,057
-444,080	253,436	-0,036	0,045
-443,065	162,474	0,075	0,077
-442,051	800,000	0,029	0,075
-441,036	-114,847	-0,166	0,023
-440,022	142,808	-0,050	-0,048
-439,007	419,193	-0,132	-0,207
-437,992	-51,686	0,076	0,026
-436,978	63,514	0,153	0,112
-435,963	240,369	0,041	0,050
-434,949	-200,000	-0,010	-0,061
-433,934	22,168	0,103	-0,061
-432,919	800,000	0,021	-0,050
-431,905	-200,000	0,009	-0,098
-430,890	800,000	0,033	-0,083
-429,876	-200,000	0,033	-0,110
-428,861	-113,743	-0,042	-0,006
-427,846	-98,583	0,190	-0,035
-426,832	-200,000	-0,052	0,000
-425,817	762,214	0,064	-0,127
-424,803	98,855	-0,107	-0,090
-423,788	137,837	0,062	0,059
-422,773	659,858	-0,057	0,107
-421,759	132,634	0,052	0,049
-420,744	160,048	0,076	-0,078
-419,730	336,100	-0,088	-0,125
-418,715	-200,000	0,022	-0,115
-417,701	300,334	-0,042	0,056
-416,686	608,902	-0,021	-0,038
-415,671	773,366	-0,046	0,093
-414,657	800,000	0,032	0,072
-413,642	-200,000	0,018	0,064
-412,628	-200,000	0,013	0,058
-411,613	-15,794	0,106	-0,049
-410,598	25,487	-0,050	-0,030
-409,584	-200,000	-0,028	0,122
-408,569	-50,126	0,093	0,032
-407,555	800,000	-0,040	-0,123
-406,540	800,000	0,024	0,052
-405,525	147,910	0,011	0,011
-404,511	54,678	-0,025	0,018
-403,496	-200,000	-0,028	0,095
-402,482	-46,028	0,144	0,052
-401,467	46,984	0,105	-0,071
-400,452	327,131	0,065	-0,091
-399,438	-200,000	0,007	0,115
-398,423	-43,350	0,034	-0,013
-397,409	-101,271	-0,071	-0,013
-396,394	-5,626	0,138	0,069
-395,379	752,790	0,017	0,033
-394,365	-51,715	-0,073	0,025
-393,350	-200,000	-0,037	0,160
-392,336	-200,000	0,012	0,066
-391,321	-200,000	0,002	0,051
-390,306	-200,000	0,005	-0,034
-389,292	-111,956	-0,021	0,003
-388,277	-200,000	-0,027	0,097
-387,263	-36,694	0,069	0,027
-386,248	-83,501	-0,088	0,020
-385,233	42,991	0,060	-0,040
-384,219	-169,022	0,026	-0,001
-383,204	102,367	0,044	0,038
-382,190	480,657	-0,033	0,054
-381,175	721,233	-0,056	-0,109
-380,160	-200,000	0,040	-0,211
-379,146	-200,000	-0,000	0,024
-378,131	222,033	0,076	0,089
-377,117	70,297	0,034	0,026
-376,102	-200,000	-0,010	-0,080
-375,088	-53,152	-0,040	-0,013
-374,073	-200,000	-0,016	0,052
-373,058	-200,000	0,025	0,106
-372,044	118,095	0,108	0,097
-371,029	-65,754	0,128	-0,037
-370,015	-140,760	-0,134	0,010
-369,000	-16,883	-0,031	0,014
-367,985	98,990	-0,051	-0,042
-366,971	120,976	-0,024	0,021
-365,956	174,068	0,068	-0,072
-364,942	667,299	-0,030	0,056
-363,927	34,495	0,046	-0,029
-362,912	-200,000	0,023	-0,076
-361,898	147,912	-0,113	-0,111
-360,883	224,061	0,090	-0,105
-359,869	-200,000	-0,013	-0,131
-358,854	800,000	0,049	0,105
-357,839	-200,000	0,007	-0,085
-356,825	144,511	-0,051	0,050
-355,810	-47,360	0,095	0,034
-354,796	146,505	-0,056	-0,054
-353,781	26,169	-0,055	0,033
-352,766	-18,706	-0,093	-0,042
-351,752	800,000	0,008	0,017
-350,737	800,000	0,047	0,123
-349,723	-200,000	-0,025	-0,084
-348,708	-95,911	0,082	-0,016
-347,693	-200,000	-0,001	-0,013
-346,679	-31,220	-0,115	-0,047
-345,664	-6,677	-0,094	-0,046
-344,650	-186,964	-0,098	-0,001
-343,635	800,000	0,019	0,045
-342,620	60,785	0,063	-0,046
-341,606	-33,836	0,067	0,027
-340,591	-52,306	0,049	0,016
-339,577	-200,000	0,003	-0,117
-338,562	-200,000	-0,008	-0,228
-337,548	-200,000	-0,021	-0,171
-336,533	168,652	0,063	-0,065
-335,518	26,047	0,090	0,054
-334,504	158,360	-0,083	0,084
-333,489	73,624	0,123	0,094
-332,475	800,000	-0,038	0,096
-331,460	-114,340	-0,036	-0,005
-330,445	187,957	0,062	-0,067
-329,431	27,119	-0,071	-0,043
-328,416	584,299	-0,044	-0,079
-327,402	-69,785	0,088	-0,024
-326,387	-200,000	0,012	0,076
-325,372	289,608	-0,116	0,153
-324,358	119,992	-0,098	-0,089
-323,343	505,378	0,058	-0,098
-322,329	82,744	-0,156	-0,123
-321,314	355,089	0,032	0,047
-320,299	130,350	0,057	0,053
-319,285	186,702	0,101	-0,109
-318,270	-200,000	-0,008	-0,152
-317,256	-200,000	0,005	-0,029
-316,241	144,762	-0,054	0,052
-315,226	-79,125	0,141	0,035
-314,212	0,479	-0,117	0,061
-313,197	800,000	0,046	0,119
-312,183	753,652	0,006	0,013
-311,168	-88,989	0,155	-0,033
-310,153	-50,954	0,064	0,022
-309,139	800,000	-0,029	-0,092
-308,124	-93,648	-0,025	-0,005
-307,110	617,517	0,057	0,104
-306,095	56,135	0,153	0,107
-305,080	-20,819	-0,089	-0,039
-304,066	800,000	0,026	-0,067
-303,051	-19,104	-0,047	-0,021
-302,037	-124,585	-0,083	-0,009
-301,022	-200,000	-0,012	-0,054
-300,008	-0,519	0,032	-0,016
-298,993	-44,936	-0,047	-0,017
-297,978	-200,000	-0,004	0,024
-296,964	-83,878	0,040	0,009
-295,949	-200,000	-0,010	-0,035
-294,935	64,673	-0,047	0,034
-293,920	-111,287	-0,254	-0,037
-292,905	25,675	-0,094	0,056
-291,891	-26,034	0,125	-0,053
-290,876	13,824	0,070	-0,040
-289,862	-50,030	-0,046	0,016
-288,847	-125,549	-0,040	0,004
-287,832	231,798	0,063	-0,075
-286,818	-133,224	-0,032	0,003
-285,803	-200,000	-0,001	0,170
-284,789	415,246	0,048	0,074
-283,774	29,798	-0,192	0,118
-282,759	129,618	-0,055	-0,051
-281,745	388,273	-0,046	0,070
-280,730	0,683	-0,129	-0,067
-279,716	-200,000	0,048	0,199
-278,701	17,161	-0,053	0,030
-277,686	156,829	0,056	-0,056
-276,672	-200,000	0,028	-0,153
-275,657	-91,069	0,050	-0,010
-274,643	-62,661	-0,062	-0,019
-273,628	800,000	-0,042	-0,093
-272,613	-48,731	-0,114	-0,040
-271,599	408,244	0,052	0,079
-270,584	-66,520	-0,167	-0,048
-269,570	10,669	-0,078	0,043
-268,555	195,932	0,084	0,093
-267,540	266,540	-0,063	-0,080
-266,526	-52,636	-0,081	0,027
-265,511	518,472	-0,058	-0,099
-264,497	800,000	-0,040	0,110
-263,482	-200,000	-0,036	0,125
-262,467	227,632	0,081	0,095
-261,453	26,802	-0,139	-0,084
-260,438	-20,198	-0,097	-0,043
-259,424	-39,178	0,202	-0,077
-258,409	141,150	-0,080	0,077
-257,395	160,205	0,031	-0,031
-256,380	-200,000	0,014	0,044
-255,365	149,559	-0,113	0,110
-254,351	-200,000	0,014	-0,101
-253,336	480,226	-0,008	-0,014
-252,322	-115,571	0,054	0,007
-251,307	153,191	-0,072	-0,071
-250,292	669,737	0,080	0,151
-249,278	121,652	0,067	0,061
-248,263	-200,000	-0,005	-0,076
-247,249	800,000	-0,048	0,101
-246,234	-200,000	0,031	0,171
-245,219	534,422	-0,034	0,059
-244,205	147,022	-0,096	-0,093
-243,190	-25,820	0,075	-0,032
-242,176	-200,000	0,018	-0,092
-241,161	-167,937	0,112	-0,003
-240,146	-17,909	-0,042	-0,019
-239,132	-88,806	0,162	0,034
-238,117	-17,313	-0,141	-0,064
-237,103	336,201	0,047	-0,066
-236,088	-49,686	-0,111	0,038
-235,073	-144,379	0,121	-0,008
-234,059	-200,000	0,018	0,071
-233,044	800,000	0,031	0,091
-232,030	-200,000	-0,002	0,008
-231,015	389,580	-0,023	0,034
-230,000	-172,436	-0,050	-0,001
-228,986	-68,207	-0,051	0,014
-227,971	-200,000	-0,009	-0,110
-226,957	350,129	0,057	-0,081
-225,942	229,874	0,037	-0,043
-224,927	-0,503	0,067	0,034
-223,913	279,401	-0,067	0,087
-222,898	626,741	0,024	0,044
-221,884	35,609	-0,071	0,045
-220,869	-24,125	0,037	0,016
-219,855	800,000	0,040	0,128
-218,840	-200,000	0,026	-0,157
-217,825	186,583	0,044	-0,047
-216,811	382,811	-0,033	0,049
-215,796	26,391	-0,231	-0,139
-214,782	35,209	-0,032	-0,020
-213,767	-8,866	-0,095	-0,046
-212,752	17,924	0,059	0,034
-211,738	284,275	0,052	0,068
-210,723	-200,000	-0,003	0,095
-209,709	0,383	0,113	0,058
-208,694	-200,000	-0,024	-0,083
-207,679	800,000	-0,013	-0,035
-206,665	450,798	-0,007	-0,012
-205,650	224,986	-0,036	0,043
-204,636	-200,000	0,013	0,064
-203,621	87,942	-0,066	-0,053
-202,606	-200,000	-0,021	0,109
-201,592	-94,692	-0,126	-0,025
-200,577	800,000	0,048	-0,132
-199,563	419,916	-0,036	0,056
-198,548	-200,000	0,010	0,047
-197,533	800,000	-0,050	0,113
-196,519	96,272	0,137	0,113
-195,504	-200,000	-0,020	0,103
-194,490	36,105	-0,132	0,084
-193,475	-7,344	0,026	0,013
-192,460	-200,000	0,018	0,107
-191,446	-33,523	0,117	0,047
-190,431	9,204	-0,019	-0,010
-189,417	132,305	0,122	-0,114
-188,402	-200,000	0,046	-0,180
-187,387	-9,420	0,068	-0,033
-186,373	685,607	-0,039	-0,073
-185,358	-200,000	0,004	-0,047
-184,344	800,000	0,052	-0,109
-183,329	-200,000	0,001	0,034
-182,315	212,975	0,060	0,068
-181,300	800,000	0,016	-0,040
-180,285	72,271	-0,018	0,013
-179,271	800,000	0,020	-0,051
-178,256	78,934	-0,146	0,113
-177,242	800,000	-0,033	0,069
-176,227	98,811	0,079	0,065
-175,212	60,619	0,060	-0,042
-174,198	-200,000	0,015	0,095
-173,183	308,196	0,009	0,012
-172,169	800,000	-0,058	0,159
-171,154	-200,000	-0,005	-0,105
-170,139	-200,000	-0,002	0,061
-169,125	-66,609	0,047	-0,013
-168,110	-200,000	-0,026	0,092
-167,096	-200,000	0,026	0,112
-166,081	90,540	0,135	-0,109
-165,066	62,380	-0,053	-0,038
-164,052	156,477	-0,053	0,053
-163,037	-82,298	-0,062	0,015
-162,023	800,000	0,029	0,071
-161,008	-81,005	-0,033	-0,008
-159,993	-133,743	-0,040	0,004
-158,979	171,555	-0,029	-0,030
-157,964	-77,302	-0,124	0,031
-156,950	-38,759	0,037	-0,014
-155,935	139,877	-0,096	-0,092
-154,920	606,472	0,078	0,140
-153,906	-200,000	0,005	0,054
-152,891	-200,000	0,008	-0,045
-151,877	577,642	0,014	0,026
-150,862	289,780	-0,087	0,114
-149,847	-200,000	0,000	-0,129
-148,833	-27,214	-0,049	-0,020
-147,818	800,000	0,034	-0,106
-146,804	255,641	-0,072	-0,090
-145,789	800,000	0,063	0,186
-144,775	744,016	-0,058	0,113
-143,760	367,819	-0,024	0,035
-142,745	-2,580	-0,102	0,051
-141,731	-36,921	0,049	0,019
-140,716	435,186	0,038	0,059
-139,702	183,511	-0,080	0,086
-138,687	-200,000	-0,017	-0,075
-137,672	-60,886	0,036	-0,011
-136,658	-200,000	-0,014	0,091
-135,643	800,000	0,039	0,094
-134,629	79,822	-0,060	0,046
-133,614	392,187	-0,049	-0,074
-132,599	-137,588	0,067	-0,005
-131,585	-200,000	-0,018	-0,057
-130,570	5,406	0,070	-0,037
-129,556	-138,548	-0,050	0,004
-128,541	800,000	-0,054	0,119
-127,526	-107,534	0,100	-0,016
-126,512	390,465	-0,052	0,077
-125,497	107,942	0,083	0,072
-124,483	760,579	0,016	0,032
-123,468	-59,539	-0,189	0,058
-122,453	152,580	-0,050	-0,049
-121,439	-39,729	0,048	0,018
-120,424	800,000	0,009	0,024
-119,410	800,000	-0,066	0,137
-118,395	-118,804	-0,061	-0,008
