DTS Sentinel unit serial number:	SN410029Multiplexer serial number:	ORYXHardware model number:	OX2-SRSoftware version number:	ORYX F/W v4,00 Oryx Data Collector v3.7.2.0data status	okinstallation	B6 Nyhavnadifferential loss correction	single-endedforward channel	channel 2reverse channel	N/Adate	2023/12/07time	20:05:08forward acquisition time	300,00reverse acquisition time	0,00gamma	499,1914k internal	0,3164k external	0,3164temperature offset calibration	1,0000default loss term (dB/km)	0,3820temperature slope calibration	1,0000multiplexer offset coefficient	1,0000multiplexer slope coefficient	1,0000fibre end	0,00T internal ref (°C)	13,88T ext. ref 1 (°C)	-3,10T ext. ref 2 (°C)	-3,11length (m)	temperature (°C)	Stokes	anti-Stokes-744,400	57,978	0,066	0,047
-743,385	-40,305	-0,251	-0,096
-742,371	-60,267	0,148	0,046
-741,356	-134,721	-0,226	-0,020
-740,342	40,630	0,131	0,086
-739,327	190,475	-0,084	-0,093
-738,312	-66,756	0,096	-0,028
-737,298	-98,496	-0,280	-0,052
-736,283	678,261	0,103	0,198
-735,269	-196,040	-0,259	-0,001
-734,254	683,057	0,078	0,149
-733,239	-28,344	-0,506	-0,214
-732,225	-103,940	0,273	0,046
-731,210	310,186	0,088	0,122
-730,196	-200,000	0,005	0,018
-729,181	120,360	-0,060	0,055
-728,167	-4,052	0,063	-0,032
-727,152	-200,000	0,014	-0,081
-726,137	109,905	-0,107	-0,095
-725,123	-200,000	-0,014	0,047
-724,108	421,517	0,032	0,051
-723,094	26,530	-0,032	-0,020
-722,079	-200,000	-0,003	0,018
-721,064	90,434	-0,114	0,094
-720,050	-55,762	-0,047	0,015
-719,035	256,535	0,122	-0,154
-718,021	-200,000	0,006	-0,042
-717,006	-200,000	-0,029	-0,094
-715,991	312,432	0,049	-0,067
-714,977	-115,556	-0,148	0,020
-713,962	-25,136	0,035	-0,015
-712,948	-136,387	-0,037	-0,003
-711,933	-44,034	0,038	0,014
-710,918	-200,000	0,007	-0,071
-709,904	260,055	-0,049	-0,062
-708,889	121,893	0,073	-0,067
-707,875	-200,000	0,006	-0,147
-706,860	701,673	0,038	-0,073
-705,845	462,274	-0,045	-0,073
-704,831	-27,488	-0,114	0,049
-703,816	-65,186	0,060	-0,018
-702,802	-200,000	0,011	-0,092
-701,787	121,936	-0,066	0,061
-700,772	-200,000	-0,010	-0,135
-699,758	-200,000	-0,061	0,000
-698,743	26,490	0,066	-0,040
-697,729	289,632	0,060	-0,080
-696,714	-200,000	-0,044	-0,174
-695,699	-123,249	0,033	0,004
-694,685	520,006	-0,014	0,025
-693,670	-200,000	0,032	-0,146
-692,656	-200,000	-0,029	-0,141
-691,641	-22,840	-0,049	0,022
-690,627	-96,501	0,092	-0,018
-689,612	573,053	-0,043	-0,077
-688,597	28,525	-0,053	-0,033
-687,583	-200,000	0,009	-0,094
-686,568	-200,000	0,020	-0,132
-685,554	-88,925	0,054	-0,012
-684,539	-20,862	-0,028	0,013
-683,524	-57,596	-0,082	0,026
-682,510	438,302	-0,019	0,030
-681,495	-200,000	0,002	0,133
-680,481	-200,000	0,001	0,027
-679,466	-126,435	-0,167	-0,018
-678,451	800,000	-0,032	-0,069
-677,437	-25,693	0,040	-0,017
-676,422	-200,000	0,014	0,177
-675,408	139,110	-0,003	-0,003
-674,393	-200,000	-0,028	-0,092
-673,378	192,857	-0,045	-0,050
-672,364	14,068	-0,030	0,017
-671,349	-200,000	-0,000	-0,024
-670,335	133,378	0,175	-0,166
-669,320	222,218	-0,030	-0,035
-668,305	-200,000	0,009	-0,045
-667,291	101,030	-0,039	0,033
-666,276	150,581	-0,050	0,049
-665,262	4,166	-0,072	-0,039
-664,247	-39,111	0,044	-0,017
-663,232	-200,000	-0,004	0,062
-662,218	107,022	-0,044	-0,038
-661,203	-189,792	-0,061	0,000
-660,189	461,726	-0,066	0,108
-659,174	81,424	-0,112	-0,089
-658,159	722,570	0,038	-0,074
-657,145	193,036	-0,009	-0,010
-656,130	800,000	-0,035	0,082
-655,116	-200,000	0,013	0,087
-654,101	39,719	0,174	0,114
-653,086	689,940	-0,056	0,108
-652,072	443,291	-0,040	0,065
-651,057	60,774	-0,072	-0,052
-650,043	800,000	-0,048	-0,103
-649,028	-200,000	0,020	-0,102
-648,014	-200,000	-0,057	-0,000
-646,999	407,009	0,047	0,073
-645,984	12,980	0,110	0,062
-644,970	-200,000	0,010	0,072
-643,955	567,408	-0,039	0,069
-642,941	387,250	-0,046	0,069
-641,926	307,104	-0,046	-0,062
-640,911	171,383	-0,074	0,078
-639,897	328,688	-0,029	-0,040
-638,882	-200,000	0,036	0,158
-637,868	-49,708	0,085	0,029
-636,853	63,649	0,031	0,023
-635,838	-40,038	-0,127	0,048
-634,824	-200,000	-0,021	-0,109
-633,809	-200,000	-0,001	-0,024
-632,795	319,611	-0,038	-0,053
-631,780	-116,517	0,112	-0,015
-630,765	443,480	-0,048	-0,077
-629,751	-200,000	0,015	-0,072
-628,736	-200,000	-0,012	-0,208
-627,722	117,268	-0,095	0,085
-626,707	800,000	0,046	-0,125
-625,692	203,778	0,021	-0,024
-624,678	417,497	-0,030	0,047
-623,663	41,667	-0,030	0,020
-622,649	-200,000	0,016	-0,117
-621,634	-200,000	-0,022	-0,076
-620,619	800,000	0,019	-0,045
-619,605	-200,000	0,012	0,126
-618,590	151,288	0,039	0,039
-617,576	-93,846	0,148	-0,030
-616,561	105,114	0,050	0,043
-615,546	800,000	-0,041	-0,110
-614,532	31,756	-0,099	0,062
-613,517	42,364	0,086	-0,057
-612,503	160,791	0,047	0,048
-611,488	367,372	0,063	-0,094
-610,474	-120,784	0,083	0,010
-609,459	-39,591	-0,039	0,015
-608,444	-88,807	-0,062	0,013
-607,430	-200,000	0,023	-0,079
-606,415	-28,723	-0,100	-0,042
-605,401	800,000	0,033	0,070
-604,386	47,822	-0,056	-0,038
-603,371	-106,199	-0,134	-0,022
-602,357	197,858	0,180	-0,201
-601,342	-88,245	-0,148	0,032
-600,328	288,742	-0,030	-0,039
-599,313	510,021	-0,033	-0,056
-598,298	21,325	-0,017	0,010
-597,284	589,084	-0,044	0,080
-596,269	-200,000	-0,011	0,082
-595,255	-200,000	-0,040	0,131
-594,240	-200,000	0,006	0,049
-593,225	58,539	0,087	0,062
-592,211	-200,000	0,005	-0,073
-591,196	-69,716	0,200	0,056
-590,182	52,630	0,130	-0,091
-589,167	800,000	-0,043	-0,105
-588,152	95,718	-0,084	0,070
-587,138	676,392	-0,056	0,107
-586,123	800,000	0,034	-0,075
-585,109	800,000	-0,045	0,097
-584,094	-200,000	-0,015	-0,119
-583,079	22,951	-0,047	0,028
-582,065	-50,982	-0,069	0,023
-581,050	-200,000	-0,001	0,035
-580,036	-120,793	-0,061	-0,007
-579,021	64,210	0,099	0,072
-578,006	337,460	-0,088	-0,125
-576,992	-131,537	0,056	-0,005
-575,977	42,074	-0,105	0,069
-574,963	-107,441	-0,103	0,016
-573,948	-97,322	-0,175	-0,033
-572,934	-60,248	-0,037	0,011
-571,919	-93,469	-0,062	-0,012
-570,904	8,530	-0,072	0,040
-569,890	-200,000	-0,010	0,034
-568,875	26,983	-0,025	0,015
-567,861	-5,751	-0,080	-0,040
-566,846	-50,890	0,089	0,030
-565,831	-200,000	0,013	-0,044
-564,817	-200,000	0,026	0,150
-563,802	104,304	-0,043	-0,037
-562,788	800,000	0,047	-0,151
-561,773	-143,202	0,058	-0,004
-560,758	490,323	0,066	-0,112
-559,744	-200,000	-0,023	0,138
-558,729	2,501	-0,039	-0,021
-557,715	-200,000	-0,026	0,086
-556,700	105,024	-0,103	-0,089
-555,685	-156,961	-0,019	0,001
-554,671	800,000	0,051	-0,120
-553,656	-200,000	-0,001	0,165
-552,642	21,870	0,096	0,057
-551,627	202,056	-0,066	0,074
-550,612	-43,976	0,042	0,015
-549,598	-80,209	0,043	-0,010
-548,583	14,309	-0,077	-0,044
-547,569	92,170	0,117	-0,096
-546,554	283,225	0,052	0,068
-545,539	228,413	-0,031	0,037
-544,525	800,000	0,028	-0,076
-543,510	-71,533	0,066	0,018
-542,496	717,425	-0,048	-0,094
-541,481	-200,000	0,016	-0,174
-540,466	486,589	-0,066	0,110
-539,452	-87,781	-0,061	0,013
-538,437	36,895	0,168	0,108
-537,423	-153,926	-0,151	-0,007
-536,408	7,848	0,054	-0,029
-535,393	-200,000	-0,017	-0,064
-534,379	-200,000	-0,004	-0,128
-533,364	800,000	0,040	0,113
-532,350	232,930	-0,023	-0,028
-531,335	-185,406	-0,103	-0,001
-530,321	-200,000	-0,031	0,116
-529,306	-41,058	-0,075	-0,028
-528,291	-64,620	-0,263	0,077
-527,277	-71,576	-0,015	0,004
-526,262	-200,000	0,010	0,090
-525,248	800,000	0,028	0,060
-524,233	800,000	-0,040	0,097
-523,218	95,168	0,087	0,073
-522,204	-162,407	0,091	-0,003
-521,189	800,000	-0,028	-0,065
-520,175	-159,297	-0,081	0,003
-519,160	-81,147	0,156	0,037
-518,145	-12,796	-0,053	0,025
-517,131	-94,262	0,210	-0,042
-516,116	800,000	0,034	-0,086
-515,102	-200,000	0,009	-0,094
-514,087	457,781	0,064	-0,105
-513,072	-200,000	-0,022	-0,096
-512,058	143,985	0,063	0,061
-511,043	128,417	-0,023	-0,021
-510,029	-200,000	0,008	0,062
-509,014	-107,420	0,041	0,007
-507,999	800,000	-0,022	0,049
-506,985	800,000	-0,067	-0,139
-505,970	800,000	-0,055	0,111
-504,956	-77,819	0,082	0,020
-503,941	-44,116	0,111	-0,040
-502,926	-157,814	-0,047	0,002
-501,912	94,788	0,042	-0,035
-500,897	-83,201	-0,040	0,009
-499,883	-200,000	-0,009	0,054
-498,868	117,817	-0,109	-0,098
-497,853	655,139	-0,028	0,053
-496,839	-200,000	0,002	0,071
-495,824	-200,000	0,020	0,089
-494,810	46,601	0,065	0,044
-493,795	61,229	-0,026	0,019
-492,781	-123,131	-0,107	0,012
-491,766	-200,000	-0,016	0,056
-490,751	-120,362	0,124	0,015
-489,737	-168,400	-0,043	0,001
-488,722	800,000	-0,048	0,139
-487,708	800,000	0,015	0,031
-486,693	36,813	-0,080	0,051
-485,678	800,000	0,006	0,013
-484,664	800,000	-0,046	0,117
-483,649	598,541	-0,073	-0,132
-482,635	-144,742	0,155	-0,010
-481,620	-200,000	0,012	-0,070
-480,605	0,357	0,101	-0,052
-479,591	-200,000	-0,004	-0,170
-478,576	-131,250	0,068	-0,007
-477,562	-145,782	-0,142	-0,009
-476,547	77,090	0,061	-0,047
-475,532	309,643	0,067	0,092
-474,518	-200,000	0,007	-0,077
-473,503	-50,402	-0,083	0,028
-472,489	-200,000	-0,007	-0,111
-471,474	800,000	-0,045	-0,118
-470,459	225,070	-0,060	-0,071
-469,445	-91,642	-0,141	0,029
-468,430	-200,000	0,042	-0,165
-467,416	292,661	-0,045	0,060
-466,401	19,456	0,069	0,041
-465,386	-200,000	0,005	-0,065
-464,372	64,472	-0,089	0,065
-463,357	-200,000	0,002	0,066
-462,343	2,925	-0,200	-0,105
-461,328	116,872	-0,094	-0,084
-460,313	800,000	-0,025	0,078
-459,299	-20,692	-0,076	-0,034
-458,284	370,737	-0,057	0,084
-457,270	-153,831	-0,150	-0,007
-456,255	523,855	-0,016	-0,028
-455,241	-200,000	0,013	-0,151
-454,226	-10,148	-0,047	0,023
-453,211	60,695	-0,109	0,079
-452,197	187,926	0,133	0,144
-451,182	371,506	0,085	0,126
-450,168	-200,000	0,000	-0,061
-449,153	100,622	0,084	-0,071
-448,138	63,771	-0,113	0,083
-447,124	-6,679	0,104	0,051
-446,109	240,780	-0,055	-0,067
-445,095	-141,509	-0,042	0,003
-444,080	303,900	0,012	-0,016
-443,065	-200,000	0,001	0,063
-442,051	272,143	-0,016	0,020
-441,036	-45,628	-0,096	0,034
-440,022	303,874	-0,087	-0,117
-439,007	-66,942	-0,056	0,016
-437,992	-5,860	0,059	0,029
-436,978	157,070	0,110	0,111
-435,963	252,529	0,033	-0,042
-434,949	800,000	-0,035	0,085
-433,934	-200,000	0,019	-0,068
-432,919	199,410	-0,049	0,055
-431,905	5,471	0,152	-0,081
-430,890	351,956	-0,082	-0,118
-429,876	416,898	0,069	-0,107
-428,861	342,496	0,088	0,126
-427,846	327,871	-0,078	-0,109
-426,832	170,317	-0,089	0,092
-425,817	-200,000	-0,014	0,068
-424,803	130,765	0,103	-0,096
-423,788	88,110	0,063	0,051
-422,773	800,000	0,061	0,128
-421,759	800,000	0,020	0,045
-420,744	18,367	0,079	-0,046
-419,730	412,814	0,021	-0,033
-418,715	237,861	-0,038	-0,046
-417,701	800,000	-0,025	0,060
-416,686	-20,920	0,149	0,066
-415,671	800,000	-0,031	0,096
-414,657	-200,000	0,026	0,102
-413,642	800,000	-0,071	0,155
-412,628	-190,171	0,138	0,001
-411,613	-4,244	0,067	-0,033
-410,598	800,000	-0,043	-0,136
-409,584	177,112	-0,083	-0,088
-408,569	-200,000	0,013	-0,063
-407,555	-46,200	0,031	-0,011
-406,540	9,853	0,108	-0,059
-405,525	-200,000	-0,008	0,223
-404,511	-41,603	-0,121	-0,045
-403,496	-159,911	0,032	0,001
-402,482	-200,000	0,006	-0,035
-401,467	800,000	0,068	-0,167
-400,452	-200,000	0,011	0,114
-399,438	800,000	-0,034	0,076
-398,423	-200,000	-0,010	-0,063
-397,409	684,203	0,031	-0,058
-396,394	283,545	0,121	0,158
-395,379	-51,332	-0,094	0,032
-394,365	-104,944	0,144	0,024
-393,350	-123,768	-0,044	-0,005
-392,336	128,202	0,074	0,068
-391,321	-200,000	0,005	0,030
-390,306	-200,000	0,019	-0,120
-389,292	3,651	-0,082	-0,043
-388,277	-40,913	-0,034	0,013
-387,263	108,251	0,077	0,067
-386,248	157,521	0,167	0,168
-385,233	-86,137	0,054	0,012
-384,219	800,000	-0,035	0,100
-383,204	-72,670	0,153	0,041
-382,190	-200,000	0,002	-0,072
-381,175	242,126	-0,096	-0,117
-380,160	787,632	0,055	0,110
-379,146	28,852	0,023	0,014
-378,131	-200,000	0,001	0,066
-377,117	-129,504	-0,149	0,015
-376,102	-188,306	-0,084	0,001
-375,088	67,924	-0,058	0,043
-374,073	331,072	-0,052	0,073
-373,058	341,837	-0,091	-0,129
-372,044	-90,747	0,023	0,005
-371,029	800,000	0,046	-0,095
-370,015	-121,744	0,079	-0,009
-369,000	-18,833	-0,143	-0,065
-367,985	-47,876	-0,145	-0,051
-366,971	-113,051	0,045	0,006
-365,956	800,000	0,029	0,084
-364,942	-136,886	0,018	-0,001
-363,927	800,000	0,048	-0,108
-362,912	-5,868	-0,046	-0,023
-361,898	-200,000	0,004	0,090
-360,883	260,168	-0,037	-0,047
-359,869	-84,419	0,116	-0,026
-358,854	110,131	0,056	0,048
-357,839	83,687	0,069	-0,055
-356,825	800,000	-0,044	-0,102
-355,810	-200,000	-0,001	-0,016
-354,796	-114,378	0,071	-0,010
-353,781	239,567	0,064	-0,077
-352,766	44,560	0,128	0,085
-351,752	-45,918	-0,122	-0,044
-350,737	-200,000	-0,002	0,128
-349,723	536,580	0,076	0,132
-348,708	-200,000	-0,008	-0,042
-347,693	-149,771	0,098	0,006
-346,679	-72,737	-0,063	-0,017
-345,664	138,145	-0,140	-0,133
-344,650	-62,844	0,101	-0,030
-343,635	-200,000	0,013	-0,058
-342,620	-26,070	0,075	0,032
-341,606	-80,714	0,058	-0,014
-340,591	-176,750	-0,182	-0,003
-339,577	207,397	0,085	-0,096
-338,562	800,000	0,025	0,055
-337,548	-37,742	0,173	0,066
-336,533	102,446	0,086	0,073
-335,518	184,497	0,038	0,041
-334,504	800,000	0,037	0,087
-333,489	-200,000	-0,000	0,050
-332,475	-200,000	-0,010	-0,032
-331,460	-28,953	0,145	-0,060
-330,445	-137,494	-0,096	0,008
-329,431	72,759	-0,124	0,094
-328,416	225,673	-0,032	0,038
-327,402	491,192	-0,061	0,102
-326,387	-200,000	0,005	0,165
-325,372	-200,000	-0,001	-0,045
-324,358	-143,830	-0,121	0,008
-323,343	-200,000	-0,034	-0,150
-322,329	800,000	0,076	-0,159
-321,314	273,571	0,081	0,105
-320,299	-200,000	-0,022	0,083
-319,285	-13,903	-0,010	0,005
-318,270	81,920	0,094	0,073
-317,256	-200,000	-0,005	-0,091
-316,241	49,058	-0,082	-0,056
-315,226	-80,304	0,121	-0,029
-314,212	800,000	-0,043	0,099
-313,197	-200,000	0,005	-0,071
-312,183	-200,000	-0,019	0,070
-311,168	-142,001	-0,275	0,020
-310,153	154,365	-0,050	0,050
-309,139	134,318	-0,083	-0,077
-308,124	474,254	0,031	0,051
-307,110	800,000	-0,036	0,089
-306,095	800,000	-0,046	0,100
-305,080	73,804	0,056	-0,042
-304,066	-29,183	-0,122	0,050
-303,051	113,867	-0,012	-0,010
-302,037	32,835	-0,051	0,032
-301,022	-191,795	0,172	-0,001
-300,008	383,703	0,014	-0,021
-298,993	-200,000	0,023	0,161
-297,978	800,000	-0,043	-0,091
-296,964	-200,000	0,008	-0,126
-295,949	120,396	0,086	0,077
-294,935	88,041	0,087	-0,070
-293,920	800,000	0,066	-0,184
-292,905	-14,350	0,160	0,074
-291,891	-99,334	0,070	-0,013
-290,876	-200,000	-0,005	0,020
-289,862	495,892	-0,043	0,071
-288,847	-200,000	0,000	-0,207
-287,832	-200,000	0,013	-0,055
-286,818	-200,000	-0,026	-0,085
-285,803	-117,600	0,083	0,011
-284,789	148,792	-0,054	0,053
-283,774	285,873	0,047	-0,061
-282,759	800,000	0,032	0,090
-281,745	-37,369	0,111	-0,043
-280,730	-53,295	-0,077	0,025
-279,716	92,770	0,018	-0,015
-278,701	-200,000	0,001	0,022
-277,686	-156,950	0,091	0,004
-276,672	61,137	0,013	0,009
-275,657	-137,658	-0,016	0,001
-274,643	-78,157	0,053	-0,013
-273,628	743,646	0,044	0,086
-272,613	-200,000	0,001	-0,043
-271,599	254,796	0,050	0,062
-270,584	-141,903	0,053	0,004
-269,570	363,261	-0,043	0,062
-268,555	196,213	-0,095	-0,105
-267,540	-200,000	-0,010	0,097
-266,526	-40,326	0,092	-0,034
-265,511	239,167	0,067	-0,080
-264,497	800,000	-0,010	-0,032
-263,482	49,715	0,132	0,090
-262,467	59,921	0,068	-0,049
-261,453	800,000	-0,042	0,093
-260,438	-200,000	-0,038	-0,128
-259,424	800,000	-0,041	-0,124
-258,409	17,582	0,084	-0,048
-257,395	-158,997	0,084	-0,003
-256,380	800,000	0,038	-0,100
-255,365	22,206	0,195	0,115
-254,351	198,764	-0,018	0,020
-253,336	-29,558	0,087	0,036
-252,322	-200,000	-0,015	-0,053
-251,307	-145,952	-0,140	-0,009
-250,292	280,208	0,109	-0,141
-249,278	487,038	0,032	-0,052
-248,263	800,000	0,028	0,068
-247,249	-90,517	-0,074	0,015
-246,234	109,056	-0,095	-0,082
-245,219	-27,137	-0,023	0,010
-244,205	-9,193	-0,124	-0,060
-243,190	735,201	0,034	0,067
-242,176	146,667	0,017	-0,017
-241,161	800,000	0,037	0,081
-240,146	232,425	-0,089	-0,105
-239,132	-54,261	0,076	-0,025
-238,117	-200,000	0,013	-0,053
-237,103	800,000	0,018	-0,044
-236,088	205,154	-0,060	-0,067
-235,073	-12,029	0,027	-0,013
-234,059	-152,150	0,078	-0,004
-233,044	-5,342	-0,107	0,053
-232,030	274,429	0,023	-0,029
-231,015	-200,000	-0,006	-0,045
-230,000	551,880	0,042	0,074
-228,986	14,310	0,063	0,035
-227,971	-22,593	0,070	-0,031
-226,957	-200,000	-0,010	0,055
-225,942	-42,460	-0,124	0,045
-224,927	45,325	-0,017	0,011
-223,913	306,781	-0,062	-0,084
-222,898	729,630	0,033	-0,063
-221,884	712,310	0,032	-0,062
-220,869	-163,607	0,011	-0,000
-219,855	800,000	-0,004	0,010
-218,840	40,188	0,045	0,029
-217,825	681,245	-0,038	-0,073
-216,811	419,674	0,009	-0,014
-215,796	119,560	-0,021	0,019
-214,782	5,576	-0,053	-0,028
-213,767	542,264	0,043	-0,074
-212,752	82,382	0,151	0,118
-211,738	-200,000	-0,035	0,134
-210,723	800,000	0,006	-0,014
-209,709	346,485	0,024	-0,034
-208,694	-103,980	-0,127	-0,021
-207,679	-200,000	0,015	-0,087
-206,665	-131,972	0,028	-0,003
-205,650	-200,000	0,002	-0,073
-204,636	120,142	-0,084	-0,075
-203,621	-200,000	-0,021	0,099
-202,606	483,197	-0,043	-0,071
-201,592	-59,085	0,086	-0,027
-200,577	-200,000	0,008	-0,036
-199,563	800,000	-0,051	0,112
-198,548	215,593	0,062	0,072
-197,533	-200,000	0,011	0,126
-196,519	-200,000	0,015	0,104
-195,504	-200,000	-0,010	-0,067
-194,490	-4,751	-0,095	-0,047
-193,475	63,441	-0,095	-0,068
-192,460	-126,399	0,167	-0,018
-191,446	-101,882	-0,066	-0,011
-190,431	62,325	0,060	-0,043
-189,417	62,263	-0,220	0,158
-188,402	-200,000	0,002	0,191
-187,387	318,210	-0,087	-0,119
-186,373	-200,000	-0,017	-0,178
-185,358	97,076	-0,071	-0,058
-184,344	800,000	-0,053	0,114
-183,329	-52,214	0,165	-0,055
-182,315	67,271	0,037	-0,027
-181,300	-105,060	-0,083	0,013
-180,285	800,000	-0,067	-0,181
-179,271	758,666	-0,049	-0,095
-178,256	398,362	0,046	0,070
-177,242	184,239	-0,048	0,051
-176,227	155,784	0,013	0,013
-175,212	212,700	0,069	-0,079
-174,198	-47,192	-0,106	-0,037
-173,183	14,153	-0,033	0,018
-172,169	94,971	-0,039	0,032
-171,154	156,563	-0,099	0,099
-170,139	-200,000	0,044	0,160
-169,125	-46,441	0,044	0,016
-168,110	800,000	0,036	-0,094
-167,096	33,877	0,038	0,024
-166,081	522,164	-0,098	-0,166
-165,066	-171,024	0,032	-0,001
-164,052	-62,533	0,141	0,042
-163,037	-58,825	-0,050	-0,015
-162,023	68,058	0,082	0,060
-161,008	616,962	0,091	0,165
-159,993	286,208	0,068	0,089
-158,979	800,000	0,007	0,018
-157,964	195,778	-0,080	-0,088
-156,950	616,525	-0,038	0,069
-155,935	205,801	-0,017	0,019
-154,920	800,000	0,027	0,063
-153,906	-200,000	-0,005	-0,018
-152,891	-105,379	-0,247	-0,040
-151,877	-79,165	-0,073	0,018
-150,862	295,270	0,041	0,054
-149,847	800,000	0,035	-0,106
-148,833	800,000	0,037	-0,103
-147,818	-161,463	0,064	0,002
-146,804	383,026	-0,031	-0,046
-145,789	-92,017	0,131	0,027
-144,775	800,000	-0,044	0,093
-143,760	-45,545	-0,133	0,047
-142,745	67,021	0,028	-0,021
-141,731	-200,000	-0,018	-0,063
-140,716	402,295	0,023	0,035
-139,702	301,061	0,080	-0,107
-138,687	-200,000	0,012	0,066
-137,672	-39,127	0,091	0,034
-136,658	-200,000	0,010	-0,051
-135,643	-120,564	-0,100	-0,012
-134,629	32,982	-0,037	0,023
-133,614	53,398	-0,070	-0,048
-132,599	68,885	-0,048	0,035
-131,585	-44,898	0,063	-0,022
-130,570	800,000	0,037	-0,097
-129,556	-52,546	0,025	-0,008
-128,541	677,656	-0,053	-0,099
-127,526	-36,444	0,022	0,008
-126,512	-200,000	-0,010	0,086
-125,497	-91,278	0,025	0,005
-124,483	199,766	-0,022	0,024
-123,468	-59,504	0,061	0,019
-122,453	-200,000	0,022	0,090
-121,439	-17,508	0,015	-0,007
-120,424	107,530	-0,057	-0,049
-119,410	-200,000	-0,009	0,095
