DTS Sentinel unit serial number:	SN410029Multiplexer serial number:	ORYXHardware model number:	OX2-SRSoftware version number:	ORYX F/W v4,00 Oryx Data Collector v3.7.2.0data status	okinstallation	B6 Nyhavnadifferential loss correction	single-endedforward channel	channel 2reverse channel	N/Adate	2023/12/08time	21:10:08forward acquisition time	300,00reverse acquisition time	0,00gamma	499,1914k internal	0,3158k external	0,3158temperature offset calibration	1,0000default loss term (dB/km)	0,3820temperature slope calibration	1,0000multiplexer offset coefficient	1,0000multiplexer slope coefficient	1,0000fibre end	0,00T internal ref (°C)	15,22T ext. ref 1 (°C)	-1,35T ext. ref 2 (°C)	-1,35length (m)	temperature (°C)	Stokes	anti-Stokes-744,400	16,240	0,071	-0,041
-743,385	-143,597	-0,291	-0,020
-742,371	-200,000	-0,039	0,143
-741,356	-42,243	-0,178	0,067
-740,342	-166,077	0,199	-0,006
-739,327	-95,177	-0,306	-0,060
-738,312	-200,000	0,015	-0,145
-737,298	-117,136	-0,324	0,043
-736,283	-34,097	0,134	0,054
-735,269	-6,972	-0,179	0,089
-734,254	108,855	0,082	-0,073
-733,239	-96,534	-0,515	-0,099
-732,225	128,462	0,187	0,176
-731,210	-91,332	-0,092	0,019
-730,196	70,624	0,058	0,045
-729,181	-200,000	0,025	-0,082
-728,167	19,587	-0,059	0,035
-727,152	-91,113	-0,049	-0,010
-726,137	-48,499	-0,048	0,017
-725,123	-139,764	-0,139	-0,011
-724,108	16,960	-0,159	-0,092
-723,094	-200,000	-0,014	-0,086
-722,079	106,538	0,137	-0,120
-721,064	-200,000	-0,011	-0,083
-720,050	217,875	0,043	0,050
-719,035	115,321	0,114	-0,103
-718,021	644,658	-0,113	0,213
-717,006	199,514	0,062	-0,070
-715,991	225,030	-0,067	-0,080
-714,977	-200,000	-0,000	-0,026
-713,962	150,770	-0,012	-0,012
-712,948	-106,221	-0,084	-0,014
-711,933	-179,715	-0,058	0,001
-710,918	488,184	-0,023	0,039
-709,904	-200,000	-0,031	-0,109
-708,889	528,638	-0,098	-0,171
-707,875	507,521	0,019	-0,033
-706,860	-112,597	0,040	0,006
-705,845	-200,000	0,001	-0,006
-704,831	800,000	-0,065	0,200
-703,816	-145,289	-0,085	0,006
-702,802	-25,998	-0,074	0,032
-701,787	-200,000	0,040	-0,142
-700,772	53,125	-0,048	0,034
-699,758	165,856	0,067	-0,069
-698,743	-5,622	0,116	-0,059
-697,729	-200,000	0,013	-0,165
-696,714	20,022	-0,064	-0,038
-695,699	-107,235	0,179	-0,029
-694,685	619,333	0,029	0,054
-693,670	-125,031	-0,229	-0,026
-692,656	-117,714	0,109	0,014
-691,641	109,509	0,061	0,054
-690,627	-200,000	-0,001	-0,092
-689,612	800,000	-0,007	-0,015
-688,597	140,266	-0,145	-0,141
-687,583	-151,053	-0,132	-0,007
-686,568	-90,463	-0,066	-0,014
-685,554	89,284	-0,046	-0,038
-684,539	82,368	-0,098	-0,078
-683,524	-152,642	0,028	0,001
-682,510	166,176	-0,067	0,070
-681,495	800,000	0,006	-0,014
-680,481	800,000	-0,044	-0,114
-679,466	53,548	-0,114	-0,081
-678,451	-78,021	-0,138	0,035
-677,437	-141,336	0,076	-0,006
-676,422	-200,000	-0,004	0,072
-675,408	-200,000	-0,018	-0,130
-674,393	-200,000	0,005	-0,049
-673,378	-1,056	-0,115	-0,059
-672,364	800,000	-0,017	0,047
-671,349	2,689	-0,051	-0,027
-670,335	-107,884	0,027	-0,004
-669,320	-108,640	0,033	0,005
-668,305	150,010	-0,073	0,073
-667,291	170,001	0,013	-0,013
-666,276	-25,224	-0,166	-0,072
-665,262	644,060	-0,047	0,088
-664,247	-116,333	-0,074	0,010
-663,232	-200,000	-0,006	0,057
-662,218	-200,000	0,013	0,064
-661,203	-87,077	0,110	0,024
-660,189	-87,160	-0,060	-0,013
-659,174	-48,069	-0,106	-0,038
-658,159	800,000	0,042	-0,088
-657,145	-200,000	-0,005	-0,067
-656,130	-76,012	-0,045	-0,012
-655,116	689,832	0,031	-0,059
-654,101	-52,388	0,141	-0,048
-653,086	-55,612	-0,097	0,032
-652,072	50,748	0,096	-0,066
-651,057	115,600	-0,092	-0,083
-650,043	179,552	-0,087	-0,094
-649,028	84,375	-0,034	-0,028
-648,014	800,000	0,022	-0,058
-646,999	206,691	-0,022	0,025
-645,984	56,641	-0,029	0,020
-644,970	342,469	0,049	-0,071
-643,955	258,644	-0,042	0,053
-642,941	-200,000	0,009	-0,035
-641,926	113,243	0,119	-0,106
-640,911	-200,000	-0,004	0,092
-639,897	199,083	0,038	0,043
-638,882	800,000	0,032	0,099
-637,868	312,441	-0,041	-0,057
-636,853	65,635	-0,036	-0,027
-635,838	-34,519	-0,035	-0,014
-634,824	800,000	-0,037	0,105
-633,809	-168,071	0,179	-0,005
-632,795	-36,156	0,057	-0,023
-631,780	-200,000	0,001	-0,065
-630,765	-80,480	-0,102	0,025
-629,751	105,476	-0,101	0,088
-628,736	32,187	-0,129	-0,081
-627,722	800,000	-0,075	-0,161
-626,707	-92,243	-0,023	0,005
-625,692	46,380	-0,013	-0,009
-624,678	-106,249	-0,144	0,023
-623,663	143,823	0,077	-0,075
-622,649	-112,200	-0,199	-0,029
-621,634	424,598	-0,048	-0,076
-620,619	-200,000	0,001	0,088
-619,605	-200,000	-0,003	0,103
-618,590	722,710	-0,101	0,198
-617,576	400,204	-0,010	0,016
-616,561	800,000	0,035	-0,095
-615,546	31,992	-0,041	0,026
-614,532	-200,000	0,005	-0,070
-613,517	-101,700	-0,087	-0,015
-612,503	103,891	-0,128	0,110
-611,488	-22,791	-0,131	0,058
-610,474	49,700	0,040	0,028
-609,459	-113,874	0,051	0,007
-608,444	-64,082	-0,095	-0,028
-607,430	-186,205	-0,121	0,001
-606,415	-90,661	-0,150	-0,032
-605,401	800,000	-0,034	-0,089
-604,386	88,416	0,067	-0,054
-603,371	304,142	0,042	-0,058
-602,357	104,194	-0,084	-0,073
-601,342	-4,657	-0,043	-0,022
-600,328	451,366	-0,018	-0,029
-599,313	464,546	0,039	-0,064
-598,298	621,495	-0,059	0,109
-597,284	459,293	-0,066	-0,108
-596,269	-98,576	-0,021	-0,004
-595,255	68,256	0,130	0,098
-594,240	-156,772	-0,118	0,005
-593,225	38,028	-0,035	0,023
-592,211	657,540	0,055	0,104
-591,196	-155,965	0,048	-0,002
-590,182	-82,759	-0,074	-0,017
-589,167	562,297	-0,015	0,026
-588,152	-193,897	0,061	0,000
-587,138	46,387	0,136	-0,092
-586,123	53,300	-0,143	-0,100
-585,109	-72,058	-0,063	0,017
-584,094	-98,377	0,162	0,030
-583,079	800,000	-0,027	-0,065
-582,065	209,106	-0,091	0,105
-581,050	-200,000	0,020	0,140
-580,036	800,000	-0,010	0,024
-579,021	-116,557	-0,062	-0,008
-578,006	147,435	0,164	-0,162
-576,992	446,668	-0,095	-0,153
-575,977	-200,000	0,008	-0,036
-574,963	0,436	0,049	0,026
-573,948	-200,000	0,011	0,120
-572,934	577,595	0,026	-0,046
-571,919	-81,397	-0,139	-0,033
-570,904	800,000	-0,048	-0,118
-569,890	131,931	0,088	-0,083
-568,875	-142,248	0,081	0,006
-567,861	-121,763	0,058	-0,007
-566,846	-36,523	0,110	-0,043
-565,831	-200,000	-0,007	-0,134
-564,817	-200,000	0,013	-0,144
-563,802	83,117	0,094	-0,075
-562,788	800,000	0,041	-0,102
-561,773	-200,000	-0,005	0,080
-560,758	-4,791	-0,071	0,036
-559,744	-195,868	0,098	-0,000
-558,729	722,756	-0,041	0,080
-557,715	78,923	-0,093	-0,073
-556,700	-200,000	0,005	-0,069
-555,685	108,993	0,024	-0,021
-554,671	800,000	0,043	-0,129
-553,656	667,590	0,063	0,119
-552,642	197,817	0,055	0,062
-551,627	-44,697	0,092	0,033
-550,612	504,458	0,024	-0,042
-549,598	268,035	-0,034	0,044
-548,583	-124,243	-0,045	0,005
-547,569	800,000	-0,023	0,056
-546,554	51,543	-0,050	0,035
-545,539	-62,244	0,081	-0,025
-544,525	-122,387	-0,087	0,010
-543,510	800,000	-0,039	-0,112
-542,496	108,734	-0,091	0,080
-541,481	-200,000	-0,030	-0,171
-540,466	800,000	-0,084	-0,195
-539,452	14,045	0,067	-0,038
-538,437	-104,537	-0,081	0,014
-537,423	800,000	0,010	-0,031
-536,408	-122,751	0,082	0,010
-535,393	-200,000	0,010	-0,133
-534,379	246,017	-0,096	-0,118
-533,364	-49,994	-0,072	0,025
-532,350	-153,601	0,153	-0,008
-531,335	800,000	0,028	0,064
-530,321	-200,000	-0,022	0,132
-529,306	-200,000	0,004	0,085
-528,291	103,329	-0,072	-0,061
-527,277	432,140	0,036	-0,058
-526,262	-190,647	0,023	0,000
-525,248	285,288	-0,027	-0,036
-524,233	-200,000	-0,009	0,130
-523,218	-51,094	0,134	0,046
-522,204	48,971	-0,065	0,045
-521,189	-17,264	-0,023	-0,010
-520,175	-200,000	0,026	-0,103
-519,160	-200,000	0,001	0,026
-518,145	-2,917	-0,081	0,041
-517,131	-174,548	-0,145	0,003
-516,116	53,928	0,068	0,048
-515,102	13,652	-0,043	-0,024
-514,087	-35,081	0,059	0,023
-513,072	-31,728	-0,128	0,052
-512,058	105,467	-0,095	-0,082
-511,043	-200,000	0,009	-0,048
-510,029	800,000	0,025	0,081
-509,014	-47,371	0,091	0,032
-507,999	-94,085	0,100	-0,020
-506,985	-200,000	0,036	0,000
-505,970	65,480	-0,099	-0,073
-504,956	-10,732	-0,061	-0,029
-503,941	-200,000	-0,002	0,139
-502,926	-4,412	-0,030	-0,015
-501,912	49,129	0,095	0,065
-500,897	800,000	0,041	0,099
-499,883	447,873	-0,064	0,104
-498,868	800,000	0,029	-0,067
-497,853	796,221	-0,055	-0,110
-496,839	91,464	0,115	-0,094
-495,824	98,932	0,070	0,059
-494,810	123,374	0,107	0,098
-493,795	-60,525	-0,042	0,013
-492,781	-200,000	-0,011	-0,160
-491,766	84,393	0,035	0,028
-490,751	-86,477	-0,179	0,040
-489,737	-94,537	-0,066	0,013
-488,722	185,781	-0,019	-0,021
-487,708	42,860	0,073	0,048
-486,693	242,058	0,067	-0,082
-485,678	5,085	0,104	-0,056
-484,664	51,912	-0,064	-0,044
-483,649	800,000	0,021	-0,067
-482,635	19,949	-0,041	0,024
-481,620	800,000	0,019	0,051
-480,605	188,999	0,121	-0,132
-479,591	-200,000	0,025	-0,115
-478,576	51,472	0,045	-0,031
-477,562	2,670	0,100	0,053
-476,547	233,486	-0,107	0,128
-475,532	800,000	0,026	-0,056
-474,518	232,985	0,013	-0,016
-473,503	323,864	-0,041	0,057
-472,489	-64,907	0,046	0,013
-471,474	-16,820	0,050	-0,023
-470,459	-35,194	0,109	0,043
-469,445	231,363	-0,084	-0,101
-468,430	190,238	-0,039	-0,043
-467,416	61,223	-0,025	-0,018
-466,401	-79,904	0,076	-0,018
-465,386	-200,000	0,028	0,091
-464,372	149,998	-0,021	0,021
-463,357	-77,928	-0,054	0,013
-462,343	539,911	0,026	-0,045
-461,328	72,407	0,036	-0,028
-460,313	495,313	0,006	0,010
-459,299	-200,000	0,005	0,077
-458,284	-200,000	0,006	0,193
-457,270	7,132	0,019	0,010
-456,255	800,000	0,057	0,160
-455,241	124,785	0,097	0,089
-454,226	-37,686	-0,019	-0,007
-453,211	-200,000	-0,017	0,086
-452,197	-200,000	0,015	0,139
-451,182	162,449	0,144	-0,148
-450,168	-143,462	-0,061	-0,004
-449,153	686,923	0,054	0,104
-448,138	-200,000	-0,010	-0,063
-447,124	-113,565	0,097	-0,014
-446,109	81,402	-0,152	0,119
-445,095	27,449	-0,040	-0,024
-444,080	-200,000	-0,012	0,071
-443,065	-200,000	-0,004	0,072
-442,051	800,000	-0,052	-0,163
-441,036	51,203	0,024	0,016
-440,022	-88,246	-0,149	-0,032
-439,007	310,953	-0,074	0,101
-437,992	167,497	0,063	0,065
-436,978	-200,000	0,002	0,080
-435,963	66,142	-0,040	-0,029
-434,949	-92,597	0,055	0,011
-433,934	410,318	-0,118	-0,182
-432,919	-200,000	0,004	-0,102
-431,905	-200,000	0,010	-0,095
-430,890	139,515	0,098	0,094
-429,876	374,170	0,070	0,103
-428,861	-200,000	0,006	0,057
-427,846	-153,014	-0,121	0,006
-426,832	-200,000	0,003	-0,068
-425,817	190,544	0,038	0,042
-424,803	800,000	-0,019	-0,058
-423,788	-200,000	-0,007	-0,037
-422,773	800,000	-0,012	0,025
-421,759	51,917	0,028	0,020
-420,744	-178,394	-0,159	-0,003
-419,730	-200,000	0,013	0,059
-418,715	759,469	0,053	-0,106
-417,701	-200,000	0,014	-0,102
-416,686	-200,000	0,001	0,037
-415,671	-50,654	-0,180	0,061
-414,657	-200,000	0,007	0,031
-413,642	178,605	0,035	0,037
-412,628	-200,000	0,014	-0,142
-411,613	-200,000	0,002	-0,130
-410,598	637,472	-0,047	0,087
-409,584	-35,530	0,147	0,058
-408,569	13,464	0,084	0,047
-407,555	181,923	0,070	0,075
-406,540	19,653	0,112	0,065
-405,525	46,976	-0,009	0,006
-404,511	800,000	0,031	-0,069
-403,496	-200,000	-0,003	-0,010
-402,482	90,798	0,064	-0,052
-401,467	158,615	0,041	-0,042
-400,452	-49,437	-0,077	0,027
-399,438	487,020	0,024	-0,039
-398,423	473,689	-0,084	-0,138
-397,409	114,470	0,070	-0,062
-396,394	367,444	0,059	-0,086
-395,379	-200,000	-0,033	-0,121
-394,365	-200,000	-0,005	0,139
-393,350	-200,000	0,000	0,025
-392,336	-84,505	0,161	0,037
-391,321	462,109	-0,027	0,044
-390,306	170,258	-0,042	-0,044
-389,292	323,435	-0,020	-0,028
-388,277	-200,000	-0,023	0,147
-387,263	-12,451	0,048	0,023
-386,248	218,073	0,043	-0,049
-385,233	77,712	-0,005	0,004
-384,219	456,134	0,025	0,041
-383,204	800,000	-0,044	-0,125
-382,190	-200,000	-0,080	0,000
-381,175	-102,417	-0,025	0,004
-380,160	-56,132	-0,081	-0,026
-379,146	123,157	0,108	0,098
-378,131	-192,081	-0,026	0,000
-377,117	381,737	-0,048	0,072
-376,102	-200,000	0,007	0,052
-375,088	29,064	0,108	-0,067
-374,073	-200,000	0,000	0,056
-373,058	-14,502	0,160	0,074
-372,044	-200,000	-0,003	-0,022
-371,029	800,000	0,031	-0,074
-370,015	-124,645	-0,032	0,004
-369,000	-109,373	-0,071	-0,011
-367,985	-72,717	-0,095	0,025
-366,971	608,684	0,112	-0,204
-365,956	740,402	0,040	0,078
-364,942	800,000	0,089	0,214
-363,927	701,423	0,007	-0,013
-362,912	-200,000	0,005	0,222
-361,898	360,124	0,024	0,035
-360,883	-148,177	-0,135	-0,008
-359,869	-200,000	0,014	-0,144
-358,854	-103,066	-0,043	0,007
-357,839	-200,000	0,034	0,228
-356,825	-200,000	-0,045	0,147
-355,810	185,217	0,063	0,068
-354,796	800,000	0,038	0,097
-353,781	-107,570	-0,061	-0,010
-352,766	703,026	0,026	0,050
-351,752	225,800	-0,055	0,065
-350,737	-61,090	0,185	0,056
-349,723	-83,342	0,105	0,024
-348,708	-200,000	0,019	0,079
-347,693	281,477	0,036	-0,047
-346,679	283,831	-0,021	-0,028
-345,664	-145,182	-0,069	-0,004
-344,650	800,000	0,024	-0,071
-343,635	-200,000	-0,008	0,168
-342,620	-200,000	0,156	0,000
-341,606	-200,000	-0,013	0,052
-340,591	6,370	-0,176	-0,094
-339,577	177,990	-0,078	-0,083
-338,562	522,605	-0,049	-0,085
-337,548	118,979	-0,162	-0,146
-336,533	-2,975	-0,042	-0,021
-335,518	800,000	0,025	0,062
-334,504	-3,748	0,056	0,028
-333,489	-200,000	-0,004	-0,063
-332,475	39,597	0,066	0,043
-331,460	-142,007	-0,133	-0,009
-330,445	-104,502	0,151	-0,025
-329,431	524,948	-0,037	-0,063
-328,416	279,606	0,053	-0,069
-327,402	-177,809	0,135	-0,002
-326,387	41,744	-0,043	0,028
-325,372	-200,000	-0,001	-0,082
-324,358	-200,000	-0,015	-0,151
-323,343	-116,224	-0,025	0,003
-322,329	79,019	0,076	0,059
-321,314	-200,000	0,037	0,192
-320,299	324,234	0,052	-0,073
-319,285	243,784	-0,042	-0,052
-318,270	247,683	0,073	-0,089
-317,256	256,080	0,066	0,082
-316,241	388,296	0,046	0,069
-315,226	-200,000	0,012	0,142
-314,212	800,000	0,010	0,022
-313,197	-200,000	0,022	0,071
-312,183	-200,000	-0,022	0,110
-311,168	502,809	-0,065	-0,110
-310,153	-126,867	-0,102	-0,011
-309,139	-23,649	-0,110	-0,047
-308,124	-200,000	0,031	0,161
-307,110	-101,790	-0,085	0,015
-306,095	-200,000	-0,005	0,084
-305,080	-93,283	0,068	-0,014
-304,066	-46,902	-0,273	-0,096
-303,051	202,323	-0,118	-0,132
-302,037	88,466	0,052	0,042
-301,022	-23,068	-0,101	0,044
-300,008	800,000	-0,085	0,182
-298,993	362,168	0,056	-0,081
-297,978	-44,242	0,141	-0,051
-296,964	-200,000	-0,013	-0,125
-295,949	157,083	-0,089	0,090
-294,935	598,439	0,103	-0,186
-293,920	292,958	-0,038	0,050
-292,905	620,243	-0,054	-0,100
-291,891	-200,000	-0,019	0,067
-290,876	36,701	-0,045	-0,029
-289,862	-200,000	0,009	0,064
-288,847	-200,000	-0,016	0,122
-287,832	-200,000	0,005	-0,056
-286,818	180,754	0,117	0,125
-285,803	203,189	-0,051	0,057
-284,789	-200,000	-0,001	0,055
-283,774	800,000	0,038	0,103
-282,759	800,000	0,019	0,057
-281,745	126,243	-0,094	-0,086
-280,730	-200,000	0,001	-0,061
-279,716	-200,000	-0,000	0,054
-278,701	-200,000	0,011	0,057
-277,686	87,637	-0,024	-0,019
-276,672	108,068	-0,092	0,079
-275,657	-200,000	0,009	-0,112
-274,643	-98,544	0,075	0,014
-273,628	-200,000	-0,006	-0,145
-272,613	-140,433	-0,061	0,004
-271,599	119,939	-0,051	0,045
-270,584	-200,000	-0,021	0,093
-269,570	-200,000	0,021	0,110
-268,555	29,010	-0,021	-0,013
-267,540	219,698	0,057	-0,066
-266,526	93,357	-0,022	-0,018
-265,511	-157,595	0,012	-0,000
-264,497	99,035	-0,046	0,038
-263,482	112,846	-0,028	0,025
-262,467	-200,000	-0,006	0,047
-261,453	-200,000	0,013	0,064
-260,438	-200,000	-0,017	0,105
-259,424	127,599	-0,064	0,059
-258,409	-200,000	0,024	-0,083
-257,395	68,190	0,112	-0,083
-256,380	-200,000	0,014	0,136
-255,365	98,166	0,086	-0,071
-254,351	223,111	0,033	0,038
-253,336	-23,587	0,084	-0,036
-252,322	-200,000	0,075	0,000
-251,307	484,337	-0,037	-0,062
-250,292	800,000	-0,019	-0,046
-249,278	286,805	0,022	0,029
-248,263	28,578	0,042	0,026
-247,249	341,000	0,058	0,082
-246,234	3,748	0,035	-0,019
-245,219	800,000	0,029	-0,081
-244,205	-76,422	-0,071	0,018
-243,190	-156,479	0,114	-0,005
-242,176	800,000	-0,048	0,102
-241,161	33,570	0,199	0,125
-240,146	176,413	-0,062	0,065
-239,132	800,000	-0,016	0,037
-238,117	-38,023	-0,132	-0,050
-237,103	-200,000	0,037	-0,231
-236,088	83,758	0,037	-0,029
-235,073	-102,640	0,117	0,020
-234,059	196,939	0,058	0,065
-233,044	271,026	-0,042	0,053
-232,030	800,000	0,024	-0,062
-231,015	-18,665	-0,164	-0,074
-230,000	-10,901	-0,049	0,023
-228,986	-200,000	-0,015	0,121
-227,971	153,837	0,039	-0,039
-226,957	-200,000	-0,002	-0,030
-225,942	-159,201	-0,112	-0,004
-224,927	258,765	-0,010	-0,012
-223,913	81,377	0,025	0,019
-222,898	-200,000	0,003	-0,128
-221,884	205,914	-0,144	-0,161
-220,869	-200,000	-0,016	0,092
-219,855	123,646	0,048	0,044
-218,840	217,982	-0,096	-0,110
-217,825	530,148	-0,023	-0,039
-216,811	30,996	-0,099	-0,061
-215,796	-200,000	-0,022	-0,072
-214,782	52,021	0,069	-0,048
-213,767	22,024	0,214	-0,126
-212,752	-200,000	0,015	-0,074
-211,738	-200,000	-0,006	0,047
-210,723	-159,414	-0,107	0,004
-209,709	-79,380	0,083	-0,020
-208,694	112,673	-0,102	-0,089
-207,679	59,990	0,061	-0,043
-206,665	109,408	0,067	0,058
-205,650	-200,000	0,073	-0,000
-204,636	198,557	-0,090	-0,099
-203,621	800,000	-0,006	0,012
-202,606	38,405	-0,095	-0,061
-201,592	-20,197	-0,072	0,032
-200,577	-53,172	-0,172	-0,057
-199,563	-200,000	-0,001	-0,006
-198,548	203,973	-0,034	0,038
-197,533	-55,993	0,114	0,036
-196,519	800,000	-0,020	0,042
-195,504	5,762	0,038	0,020
-194,490	-200,000	0,008	-0,039
-193,475	-200,000	-0,002	-0,044
-192,460	-155,534	0,140	0,006
-191,446	170,927	0,068	0,070
-190,431	0,226	-0,076	0,039
-189,417	242,502	0,026	-0,032
-188,402	-64,506	0,032	-0,009
-187,387	2,061	-0,021	-0,011
-186,373	-9,942	-0,078	0,037
-185,358	-44,116	-0,152	0,055
-184,344	98,408	-0,048	-0,040
-183,329	425,635	0,089	0,138
-182,315	-52,350	0,064	0,021
-181,300	0,145	-0,062	-0,032
-180,285	-200,000	0,028	-0,125
-179,271	-200,000	-0,030	-0,123
-178,256	-200,000	-0,002	0,033
-177,242	88,855	-0,099	0,079
-176,227	800,000	0,011	0,030
-175,212	-38,547	0,154	0,058
-174,198	-200,000	-0,050	0,185
-173,183	-15,371	0,105	0,048
-172,169	-121,373	0,081	-0,010
-171,154	38,948	-0,039	-0,025
-170,139	-94,898	0,107	-0,021
-169,125	268,119	0,032	0,040
-168,110	-28,538	0,102	0,042
-167,096	-90,845	-0,057	-0,012
-166,081	263,408	0,041	-0,052
-165,066	-7,636	0,108	-0,052
-164,052	-33,355	0,034	-0,014
-163,037	-111,111	-0,072	-0,011
-162,023	-19,438	0,117	0,052
-161,008	-111,385	0,153	0,022
-159,993	-110,115	-0,090	0,013
-158,979	-129,199	0,032	0,003
-157,964	26,152	0,076	-0,046
-156,950	-200,000	-0,025	-0,103
-155,935	8,932	0,074	0,040
-154,920	253,499	-0,058	-0,072
-153,906	-48,272	0,101	-0,035
-152,891	461,416	-0,045	0,072
-151,877	-200,000	0,007	-0,074
-150,862	-200,000	-0,030	0,127
-149,847	-15,800	0,034	-0,016
-148,833	32,737	-0,113	0,070
-147,818	79,813	-0,067	-0,052
-146,804	80,343	0,032	-0,025
-145,789	-148,006	-0,102	-0,006
-144,775	800,000	-0,035	-0,091
-143,760	194,889	0,102	-0,112
-142,745	148,968	0,060	-0,059
-141,731	21,065	0,077	-0,045
-140,716	171,890	0,070	0,072
-139,702	-200,000	-0,007	0,079
-138,687	19,125	-0,031	-0,018
-137,672	183,767	-0,036	0,038
-136,658	221,666	-0,089	-0,103
-135,643	-142,908	-0,167	-0,012
-134,629	478,405	-0,073	-0,119
-133,614	71,721	0,166	-0,124
-132,599	587,889	0,075	-0,134
-131,585	-200,000	0,039	0,141
-130,570	314,948	-0,017	0,023
-129,556	98,412	-0,058	-0,048
-128,541	-168,429	-0,094	0,003
-127,526	-200,000	-0,009	-0,112
-126,512	-38,816	0,141	-0,053
-125,497	-55,100	0,084	-0,027
-124,483	-71,622	-0,096	-0,026
-123,468	656,114	-0,026	0,048
-122,453	250,900	-0,124	-0,152
-121,439	387,496	-0,021	-0,032
-120,424	296,662	0,033	-0,043
-119,410	-48,812	0,101	0,035
