DTS Sentinel unit serial number:	SN410029Multiplexer serial number:	ORYXHardware model number:	OX2-SRSoftware version number:	ORYX F/W v4,00 Oryx Data Collector v3.7.2.0data status	okinstallation	B6 Nyhavnadifferential loss correction	single-endedforward channel	channel 2reverse channel	N/Adate	2023/12/10time	18:00:08forward acquisition time	300,00reverse acquisition time	0,00gamma	499,1914k internal	0,3122k external	0,3122temperature offset calibration	1,0000default loss term (dB/km)	0,3820temperature slope calibration	1,0000multiplexer offset coefficient	1,0000multiplexer slope coefficient	1,0000fibre end	0,00T internal ref (°C)	22,38T ext. ref 1 (°C)	5,99T ext. ref 2 (°C)	6,01length (m)	temperature (°C)	Stokes	anti-Stokes-744,400	174,366	0,021	0,023
-743,385	-102,669	-0,292	0,051
-742,371	0,299	-0,113	0,060
-741,356	177,924	-0,136	0,148
-740,342	-200,000	-0,014	-0,071
-739,327	-7,182	-0,239	0,120
-738,312	800,000	-0,020	-0,047
-737,298	-41,383	-0,332	0,127
-736,283	800,000	-0,035	-0,093
-735,269	61,625	-0,215	0,160
-734,254	449,876	0,062	-0,103
-733,239	-80,182	-0,435	-0,108
-732,225	-27,087	0,190	0,082
-731,210	-104,113	0,070	0,012
-730,196	-200,000	0,017	-0,107
-729,181	15,723	-0,033	-0,019
-728,167	2,051	0,156	-0,084
-727,152	137,772	0,024	-0,023
-726,137	-200,000	0,009	-0,124
-725,123	-200,000	0,007	-0,050
-724,108	800,000	-0,055	-0,118
-723,094	800,000	-0,053	-0,136
-722,079	19,541	-0,037	-0,022
-721,064	-200,000	0,014	0,052
-720,050	-200,000	-0,022	-0,098
-719,035	102,059	-0,023	-0,020
-718,021	20,582	-0,056	-0,033
-717,006	271,252	-0,040	-0,053
-715,991	60,049	-0,138	-0,101
-714,977	-200,000	-0,059	-0,196
-713,962	-103,810	-0,157	-0,027
-712,948	-200,000	0,007	0,038
-711,933	415,200	0,029	-0,046
-710,918	-200,000	-0,008	0,093
-709,904	-200,000	0,016	-0,056
-708,889	26,920	-0,022	-0,014
-707,875	174,887	0,027	0,029
-706,860	-130,177	-0,052	0,005
-705,845	13,727	-0,062	-0,036
-704,831	-200,000	-0,012	0,068
-703,816	-16,814	-0,033	-0,015
-702,802	-13,517	0,044	0,021
-701,787	154,673	-0,038	0,039
-700,772	2,520	0,061	0,033
-699,758	-200,000	0,013	-0,051
-698,743	295,292	-0,040	0,055
-697,729	800,000	-0,052	-0,111
-696,714	192,160	0,047	0,053
-695,699	68,765	-0,083	-0,063
-694,685	560,559	0,027	-0,049
-693,670	260,174	-0,139	-0,179
-692,656	-200,000	-0,003	0,049
-691,641	513,300	0,094	0,163
-690,627	538,910	-0,057	0,101
-689,612	-144,090	0,095	-0,007
-688,597	522,311	-0,073	-0,128
-687,583	-75,593	-0,145	0,038
-686,568	383,066	0,033	0,050
-685,554	-81,062	-0,116	0,028
-684,539	86,818	0,034	-0,028
-683,524	218,146	-0,026	-0,031
-682,510	-52,482	0,133	0,046
-681,495	-85,091	0,066	0,015
-680,481	-34,513	-0,130	0,053
-679,466	278,143	-0,087	0,115
-678,451	284,169	0,037	-0,050
-677,437	51,710	-0,021	0,015
-676,422	-138,847	0,132	0,011
-675,408	642,090	0,036	-0,068
-674,393	-200,000	-0,013	-0,158
-673,378	800,000	0,023	-0,071
-672,364	19,936	-0,028	-0,017
-671,349	-200,000	0,032	0,109
-670,335	-92,209	0,050	0,010
-669,320	161,353	-0,062	0,064
-668,305	-200,000	0,011	0,075
-667,291	-118,978	-0,183	0,024
-666,276	-200,000	-0,013	0,060
-665,262	17,464	-0,212	-0,125
-664,247	294,418	0,063	-0,085
-663,232	-200,000	-0,008	-0,150
-662,218	65,591	0,119	0,089
-661,203	-200,000	-0,005	-0,068
-660,189	-140,473	0,151	0,012
-659,174	652,703	0,035	-0,068
-658,159	294,795	-0,030	-0,041
-657,145	-78,090	-0,129	-0,033
-656,130	56,070	-0,033	0,024
-655,116	800,000	-0,043	-0,094
-654,101	-48,988	0,086	-0,030
-653,086	415,243	-0,085	0,135
-652,072	-109,472	0,111	-0,017
-651,057	-121,972	-0,092	0,011
-650,043	-200,000	0,011	-0,078
-649,028	-171,920	-0,085	-0,002
-648,014	-200,000	-0,009	0,140
-646,999	-200,000	0,029	-0,101
-645,984	800,000	-0,030	-0,076
-644,970	5,059	-0,053	0,029
-643,955	160,255	-0,058	-0,060
-642,941	-51,665	-0,104	-0,036
-641,926	-105,627	0,074	-0,012
-640,911	800,000	-0,023	-0,069
-639,897	-61,492	0,062	-0,019
-638,882	-200,000	0,037	-0,124
-637,868	256,445	-0,044	0,056
-636,853	-42,642	-0,161	0,061
-635,838	648,248	-0,105	-0,199
-634,824	-200,000	0,001	-0,039
-633,809	-200,000	-0,003	-0,056
-632,795	600,060	0,043	-0,079
-631,780	764,868	-0,033	-0,066
-630,765	3,585	0,030	-0,016
-629,751	157,820	-0,086	0,088
-628,736	800,000	0,027	-0,061
-627,722	-200,000	-0,003	0,118
-626,707	136,594	0,027	0,026
-625,692	147,985	0,158	0,159
-624,678	723,137	0,047	-0,093
-623,663	-200,000	-0,011	-0,120
-622,649	800,000	0,030	0,071
-621,634	165,555	-0,057	-0,060
-620,619	-200,000	0,003	-0,064
-619,605	-179,944	0,071	-0,001
-618,590	-53,950	0,110	0,037
-617,576	325,727	-0,016	-0,023
-616,561	800,000	0,013	0,038
-615,546	800,000	-0,034	-0,095
-614,532	-200,000	0,025	-0,098
-613,517	725,213	-0,040	-0,080
-612,503	-181,821	-0,104	0,001
-611,488	-172,115	-0,084	-0,002
-610,474	4,647	-0,054	-0,029
-609,459	97,357	0,014	-0,012
-608,444	-36,846	-0,104	-0,041
-607,430	133,724	-0,113	0,109
-606,415	33,171	0,028	-0,018
-605,401	-18,645	-0,062	-0,029
-604,386	-136,516	-0,069	0,006
-603,371	414,616	-0,015	0,023
-602,357	-17,957	-0,080	-0,037
-601,342	33,049	-0,078	0,050
-600,328	119,887	0,045	-0,041
-599,313	280,860	0,012	0,016
-598,298	256,986	0,051	-0,066
-597,284	-103,901	0,002	0,000
-596,269	56,562	0,143	0,103
-595,255	-51,538	-0,133	-0,046
-594,240	-28,497	-0,185	-0,079
-593,225	-66,881	-0,092	0,027
-592,211	40,238	-0,123	0,082
-591,196	-54,953	-0,095	0,032
-590,182	20,420	0,123	-0,073
-589,167	40,026	0,062	0,041
-588,152	702,068	-0,010	-0,019
-587,138	-200,000	0,002	0,038
-586,123	-149,533	-0,063	-0,004
-585,109	531,408	-0,048	-0,085
-584,094	-200,000	0,004	-0,114
-583,079	800,000	-0,016	-0,041
-582,065	-107,575	0,064	-0,010
-581,050	-42,157	-0,121	-0,045
-580,036	-200,000	0,006	-0,072
-579,021	-36,941	-0,078	0,031
-578,006	48,767	-0,082	-0,057
-576,992	237,477	0,056	-0,069
-575,977	-85,635	0,049	-0,011
-574,963	-92,237	0,026	-0,005
-573,948	-0,050	-0,077	0,040
-572,934	476,087	-0,024	-0,040
-571,919	800,000	0,062	0,129
-570,904	-200,000	-0,035	0,119
-569,890	-25,433	0,069	-0,030
-568,875	128,845	0,073	0,069
-567,861	-200,000	-0,014	0,049
-566,846	-200,000	-0,007	0,066
-565,831	-200,000	-0,002	-0,046
-564,817	-114,320	-0,064	-0,009
-563,802	667,049	0,073	-0,140
-562,788	75,045	-0,033	-0,026
-561,773	32,855	-0,038	-0,024
-560,758	800,000	-0,039	-0,089
-559,744	-171,178	-0,078	-0,002
-558,729	800,000	-0,054	-0,116
-557,715	-200,000	-0,010	0,041
-556,700	-200,000	0,006	-0,020
-555,685	-56,635	0,029	-0,009
-554,671	-117,425	0,076	-0,010
-553,656	103,330	0,065	0,056
-552,642	800,000	0,039	0,111
-551,627	-67,182	-0,099	0,029
-550,612	800,000	0,007	-0,016
-549,598	55,975	-0,094	0,067
-548,583	-200,000	0,007	0,071
-547,569	-200,000	0,014	-0,077
-546,554	-200,000	-0,012	-0,114
-545,539	143,413	-0,050	0,049
-544,525	800,000	-0,016	-0,045
-543,510	-75,908	0,161	-0,042
-542,496	243,088	-0,092	-0,114
-541,481	-200,000	0,000	0,007
-540,466	-90,745	0,063	0,013
-539,452	97,112	-0,047	-0,039
-538,437	-85,011	0,070	0,016
-537,423	800,000	-0,027	-0,072
-536,408	-200,000	-0,027	-0,146
-535,393	800,000	0,049	-0,131
-534,379	-63,569	-0,137	-0,041
-533,364	-150,369	0,140	-0,008
-532,350	-200,000	-0,014	-0,050
-531,335	800,000	0,033	0,088
-530,321	87,095	-0,102	-0,083
-529,306	800,000	0,072	-0,185
-528,291	111,367	-0,105	-0,093
-527,277	24,611	-0,125	-0,076
-526,262	-200,000	-0,010	-0,044
-525,248	800,000	0,102	0,283
-524,233	237,419	0,044	0,054
-523,218	-200,000	0,006	0,041
-522,204	119,566	0,057	0,052
-521,189	800,000	-0,050	0,118
-520,175	-178,033	-0,152	-0,003
-519,160	311,512	-0,044	-0,061
-518,145	-200,000	-0,026	0,161
-517,131	-200,000	-0,001	0,030
-516,116	157,530	0,092	0,094
-515,102	800,000	-0,017	0,054
-514,087	-200,000	0,001	0,149
-513,072	162,434	-0,030	0,031
-512,058	800,000	0,016	0,038
-511,043	-200,000	-0,017	-0,085
-510,029	-200,000	-0,007	-0,046
-509,014	-28,957	0,083	-0,035
-507,999	77,982	-0,023	-0,018
-506,985	193,616	-0,053	0,059
-505,970	-200,000	0,003	-0,072
-504,956	608,498	-0,043	-0,079
-503,941	800,000	0,042	0,133
-502,926	525,627	0,039	-0,068
-501,912	45,126	0,077	-0,052
-500,897	800,000	-0,037	0,107
-499,883	-200,000	-0,001	0,068
-498,868	-98,646	-0,049	0,009
-497,853	153,580	0,015	-0,016
-496,839	-87,902	-0,059	-0,013
-495,824	-200,000	0,044	0,225
-494,810	57,922	-0,033	0,024
-493,795	8,570	0,072	0,040
-492,781	-200,000	0,006	0,042
-491,766	727,989	-0,023	0,046
-490,751	110,434	-0,076	-0,067
-489,737	650,487	0,071	-0,135
-488,722	800,000	0,044	0,137
-487,708	-73,175	0,118	-0,032
-486,693	98,931	-0,106	-0,090
-485,678	800,000	0,015	0,045
-484,664	196,780	-0,064	-0,073
-483,649	287,876	-0,070	-0,094
-482,635	-167,021	0,067	0,002
-481,620	800,000	-0,028	0,079
-480,605	-99,411	0,038	0,007
-479,591	117,713	0,042	-0,038
-478,576	-200,000	-0,003	0,089
-477,562	20,264	-0,115	0,068
-476,547	-92,890	-0,034	0,007
-475,532	272,750	0,035	-0,046
-474,518	200,931	0,042	0,048
-473,503	800,000	0,055	0,135
-472,489	69,135	0,034	0,026
-471,474	147,850	-0,085	0,084
-470,459	57,804	0,061	-0,044
-469,445	186,725	0,022	-0,025
-468,430	-200,000	-0,000	-0,086
-467,416	-200,000	0,002	0,020
-466,401	432,120	-0,043	0,069
-465,386	438,165	0,034	0,055
-464,372	110,328	0,012	-0,010
-463,357	-200,000	0,001	-0,047
-462,343	-200,000	-0,018	-0,144
-461,328	432,943	-0,103	-0,166
-460,313	-71,163	-0,136	0,038
-459,299	-1,262	0,108	0,056
-458,284	543,945	0,026	0,046
-457,270	639,412	-0,007	-0,014
-456,255	800,000	0,041	-0,109
-455,241	800,000	-0,047	-0,115
-454,226	362,343	0,032	-0,048
-453,211	-156,587	0,043	0,002
-452,197	-12,805	0,059	-0,028
-451,182	-24,749	0,072	-0,031
-450,168	-200,000	0,018	0,114
-449,153	213,245	-0,082	0,096
-448,138	110,455	0,082	0,072
-447,124	800,000	-0,048	-0,128
-446,109	220,512	-0,026	0,031
-445,095	-61,787	-0,081	0,025
-444,080	150,996	0,025	-0,025
-443,065	136,543	0,047	0,046
-442,051	-200,000	-0,005	-0,022
-441,036	421,901	0,142	-0,225
-440,022	-200,000	0,005	-0,059
-439,007	-67,273	0,055	0,016
-437,992	-200,000	0,000	0,060
-436,978	-100,723	0,080	-0,014
-435,963	356,533	-0,053	0,079
-434,949	-49,059	-0,115	-0,040
-433,934	45,218	0,063	-0,043
-432,919	53,267	-0,079	-0,056
-431,905	-200,000	-0,023	-0,128
-430,890	-138,774	0,091	0,007
-429,876	-78,111	0,079	0,020
-428,861	-200,000	0,004	0,018
-427,846	-95,111	0,041	-0,008
-426,832	175,590	-0,049	0,052
-425,817	76,232	-0,063	0,049
-424,803	514,871	-0,030	-0,052
-423,788	156,089	0,056	0,057
-422,773	14,592	0,064	0,037
-421,759	46,993	0,034	0,023
-420,744	-200,000	-0,010	-0,087
-419,730	-28,757	0,116	-0,049
-418,715	-55,181	-0,094	-0,031
-417,701	800,000	-0,045	0,122
-416,686	-200,000	-0,007	0,076
-415,671	800,000	-0,014	-0,034
-414,657	417,757	0,041	-0,064
-413,642	34,207	-0,082	-0,052
-412,628	-63,380	-0,113	-0,034
-411,613	800,000	-0,043	-0,123
-410,598	527,021	-0,048	-0,084
-409,584	551,351	0,016	-0,028
-408,569	24,285	-0,096	0,058
-407,555	-62,690	0,017	0,005
-406,540	-200,000	0,023	-0,150
-405,525	96,116	0,120	-0,100
-404,511	800,000	-0,050	-0,105
-403,496	156,745	0,053	0,054
-402,482	496,054	-0,046	-0,078
-401,467	51,396	0,023	0,016
-400,452	59,822	-0,060	-0,044
-399,438	800,000	-0,042	-0,094
-398,423	-200,000	-0,007	-0,055
-397,409	134,045	0,029	0,028
-396,394	59,901	0,070	-0,051
-395,379	-78,305	0,168	0,042
-394,365	800,000	0,058	0,123
-393,350	-172,324	0,125	-0,003
-392,336	22,239	-0,079	-0,047
-391,321	-200,000	-0,005	-0,029
-390,306	534,288	-0,042	-0,074
-389,292	73,966	-0,067	0,051
-388,277	-144,919	-0,103	-0,007
-387,263	-16,294	0,076	0,035
-386,248	220,911	-0,028	0,033
-385,233	-141,816	0,076	0,006
-384,219	-200,000	0,032	-0,121
-383,204	-84,598	-0,097	-0,022
-382,190	-200,000	0,001	0,097
-381,175	800,000	0,015	0,037
-380,160	-200,000	-0,013	0,076
-379,146	800,000	-0,028	-0,084
-378,131	-150,574	0,039	0,002
-377,117	-95,618	-0,160	-0,031
-376,102	-140,947	0,042	-0,003
-375,088	45,159	-0,036	-0,025
-374,073	122,369	0,054	0,049
-373,058	5,100	-0,032	0,017
-372,044	85,486	0,154	0,124
-371,029	-135,185	0,028	0,002
-370,015	795,888	-0,056	0,114
-369,000	-161,950	-0,167	0,006
-367,985	-0,885	-0,125	0,065
-366,971	-200,000	0,021	0,099
-365,956	70,145	0,110	0,084
-364,942	-200,000	0,015	0,067
-363,927	-200,000	0,016	0,055
-362,912	800,000	0,018	-0,055
-361,898	-64,144	-0,074	-0,022
-360,883	205,657	-0,026	-0,030
-359,869	-200,000	-0,025	0,117
-358,854	183,237	0,068	0,074
-357,839	-108,690	-0,192	0,030
-356,825	-89,798	0,226	0,048
-355,810	-40,516	0,038	0,015
-354,796	571,814	0,018	-0,033
-353,781	333,713	0,019	-0,026
-352,766	480,075	0,081	-0,135
-351,752	-200,000	-0,008	0,069
-350,737	265,231	0,124	0,159
-349,723	800,000	0,020	0,049
-348,708	800,000	0,027	0,072
-347,693	-129,363	-0,082	-0,008
-346,679	23,625	-0,052	-0,031
-345,664	-136,161	-0,071	0,006
-344,650	155,196	0,025	0,025
-343,635	800,000	0,033	0,071
-342,620	607,727	0,027	-0,050
-341,606	-143,224	0,092	-0,006
-340,591	368,153	0,041	0,061
-339,577	89,466	0,054	0,044
-338,562	-131,854	-0,078	0,007
-337,548	-113,610	0,194	-0,028
-336,533	33,718	0,023	-0,015
-335,518	-86,291	-0,132	0,030
-334,504	-53,237	0,055	0,018
-333,489	-113,853	-0,047	-0,007
-332,475	-108,102	-0,160	-0,025
-331,460	-200,000	-0,029	-0,105
-330,445	-51,170	-0,064	0,022
-329,431	-200,000	0,025	-0,127
-328,416	-200,000	0,035	0,150
-327,402	747,032	0,073	-0,145
-326,387	-200,000	0,008	0,066
-325,372	-154,815	-0,107	-0,005
-324,358	113,431	-0,031	0,028
-323,343	212,041	0,045	-0,052
-322,329	-156,072	0,089	-0,004
-321,314	148,394	-0,016	-0,016
-320,299	145,450	-0,059	-0,058
-319,285	77,653	0,059	-0,046
-318,270	-200,000	0,003	0,093
-317,256	5,448	-0,026	0,014
-316,241	552,650	0,038	-0,068
-315,226	298,394	0,076	0,102
-314,212	-200,000	-0,021	0,126
-313,197	-73,117	-0,055	0,015
-312,183	157,812	-0,054	0,055
-311,168	681,819	0,070	0,134
-310,153	-200,000	-0,051	0,190
-309,139	-174,588	0,101	-0,002
-308,124	618,886	0,064	0,119
-307,110	-84,284	0,090	0,021
-306,095	411,207	-0,029	-0,045
-305,080	-200,000	-0,002	0,080
-304,066	737,669	0,092	-0,181
-303,051	-60,928	-0,115	0,035
-302,037	18,029	-0,043	0,025
-301,022	800,000	0,040	-0,127
-300,008	-200,000	0,007	-0,056
-298,993	-89,671	0,094	0,020
-297,978	98,953	0,119	-0,101
-296,964	155,606	-0,035	0,036
-295,949	-34,081	-0,040	0,016
-294,935	224,693	-0,106	-0,126
-293,920	-5,014	-0,053	0,027
-292,905	637,265	-0,012	-0,023
-291,891	-119,711	0,179	0,022
-290,876	-145,555	0,055	0,004
-289,862	-114,147	-0,069	0,010
-288,847	-108,405	0,089	0,014
-287,832	-40,952	-0,037	-0,014
-286,818	-200,000	-0,014	0,120
-285,803	-200,000	0,007	0,117
-284,789	-200,000	-0,008	-0,043
-283,774	-200,000	0,019	0,072
-282,759	114,774	-0,072	-0,064
-281,745	800,000	-0,093	-0,252
-280,730	800,000	0,018	0,056
-279,716	-92,474	-0,070	-0,014
-278,701	-103,267	-0,074	-0,013
-277,686	32,785	-0,040	0,025
-276,672	258,658	-0,043	-0,054
-275,657	-30,767	-0,070	0,029
-274,643	800,000	-0,009	-0,027
-273,628	-200,000	-0,025	0,149
-272,613	85,467	0,059	0,047
-271,599	631,644	0,022	0,041
-270,584	-200,000	0,017	0,058
-269,570	800,000	0,008	0,020
-268,555	124,940	0,017	-0,016
-267,540	-81,172	-0,149	-0,036
-266,526	6,889	-0,048	-0,026
-265,511	-200,000	-0,005	-0,123
-264,497	90,649	0,028	-0,023
-263,482	-19,593	-0,056	0,025
-262,467	-131,431	-0,053	-0,005
-261,453	97,508	0,059	0,049
-260,438	177,604	-0,096	-0,102
-259,424	647,476	-0,045	-0,084
-258,409	50,611	-0,014	-0,010
-257,395	-200,000	-0,013	0,080
-256,380	-200,000	-0,003	0,030
-255,365	594,795	0,117	0,212
-254,351	-200,000	0,003	0,039
-253,336	170,051	0,065	0,068
-252,322	-23,961	-0,040	-0,018
-251,307	800,000	0,028	0,065
-250,292	-200,000	0,019	-0,076
-249,278	-200,000	-0,003	0,071
-248,263	298,635	0,039	0,053
-247,249	203,204	0,064	0,072
-246,234	-64,647	0,109	0,032
-245,219	800,000	-0,076	-0,168
-244,205	800,000	0,009	-0,018
-243,190	72,385	0,030	0,023
-242,176	-200,000	-0,002	0,067
-241,161	-126,421	0,137	-0,015
-240,146	599,445	-0,043	0,078
-239,132	-200,000	0,010	0,082
-238,117	-96,201	0,012	-0,002
-237,103	19,865	0,062	0,037
-236,088	800,000	0,014	-0,030
-235,073	66,725	0,148	-0,110
-234,059	800,000	0,033	0,088
-233,044	195,985	0,056	-0,062
-232,030	-40,429	0,025	-0,010
-231,015	-103,527	-0,204	-0,035
-230,000	-68,495	0,019	0,005
-228,986	800,000	0,020	-0,046
-227,971	239,161	-0,086	0,105
-226,957	134,153	0,071	0,067
-225,942	69,225	0,053	-0,040
-224,927	93,948	-0,155	-0,128
-223,913	476,265	0,109	-0,180
-222,898	515,591	-0,028	0,048
-221,884	522,536	0,027	0,047
-220,869	288,657	-0,033	0,043
-219,855	800,000	-0,014	-0,043
-218,840	-200,000	-0,011	0,069
-217,825	339,494	0,112	-0,160
-216,811	-200,000	-0,023	-0,165
-215,796	-200,000	-0,006	-0,064
-214,782	49,817	0,042	-0,029
-213,767	-200,000	0,015	-0,058
-212,752	326,683	-0,090	0,127
-211,738	-200,000	0,023	0,108
-210,723	-200,000	0,005	-0,070
-209,709	800,000	-0,046	-0,124
-208,694	136,848	-0,084	0,080
-207,679	-200,000	0,022	-0,112
-206,665	-200,000	-0,003	0,029
-205,650	800,000	0,019	0,050
-204,636	-200,000	-0,006	0,024
-203,621	800,000	0,062	0,131
-202,606	-107,285	-0,053	0,008
-201,592	-7,319	-0,083	0,041
-200,577	587,823	0,010	0,019
-199,563	62,279	0,116	0,084
-198,548	-53,504	-0,111	0,037
-197,533	-200,000	-0,004	-0,046
-196,519	-200,000	-0,032	0,139
-195,504	-16,756	0,109	0,050
-194,490	28,996	-0,040	0,025
-193,475	-138,598	0,047	-0,004
-192,460	800,000	0,044	-0,105
-191,446	-168,612	0,091	0,002
-190,431	-200,000	-0,011	0,194
-189,417	-76,953	-0,201	-0,051
-188,402	399,742	0,032	-0,050
-187,387	-36,192	0,188	-0,074
-186,373	-200,000	-0,012	-0,069
-185,358	227,613	0,066	0,078
-184,344	-29,527	0,074	0,031
-183,329	187,083	0,019	0,020
-182,315	-120,588	0,104	-0,013
-181,300	-163,928	0,019	0,001
-180,285	580,657	0,034	-0,062
-179,271	348,919	-0,069	-0,100
-178,256	-200,000	-0,052	-0,172
-177,242	52,150	0,142	0,099
-176,227	85,847	-0,080	-0,064
-175,212	800,000	0,018	0,038
-174,198	-4,180	-0,119	-0,060
-173,183	110,556	0,072	0,063
-172,169	110,144	-0,148	-0,130
-171,154	-200,000	0,024	0,093
-170,139	-154,276	0,100	-0,005
-169,125	129,729	0,058	-0,054
-168,110	135,770	0,051	0,048
-167,096	192,021	-0,083	0,091
-166,081	201,202	0,077	-0,086
-165,066	-89,200	0,024	0,005
-164,052	800,000	0,043	0,117
-163,037	-23,543	0,269	0,117
-162,023	-12,767	0,125	0,059
-161,008	-53,230	0,086	0,029
-159,993	488,293	-0,015	-0,025
-158,979	102,801	0,065	0,055
-157,964	-122,788	-0,040	-0,005
-156,950	-200,000	-0,024	0,103
-155,935	-200,000	0,047	0,173
-154,920	500,759	0,051	0,086
-153,906	245,756	-0,048	0,059
-152,891	436,864	-0,031	-0,050
-151,877	-200,000	0,005	0,136
-150,862	331,622	-0,038	0,054
-149,847	43,540	0,066	-0,044
-148,833	-75,871	0,123	0,031
-147,818	134,730	0,059	-0,055
-146,804	55,481	-0,084	0,059
-145,789	-200,000	-0,022	0,104
-144,775	800,000	-0,030	-0,074
-143,760	38,762	-0,049	-0,032
-142,745	-144,322	-0,188	-0,013
-141,731	58,241	-0,172	0,122
-140,716	688,430	-0,032	-0,062
-139,702	-128,927	0,039	-0,004
-138,687	-58,815	0,084	0,026
-137,672	267,729	-0,078	-0,099
-136,658	800,000	-0,068	-0,154
-135,643	154,727	-0,055	-0,055
-134,629	336,821	-0,069	-0,098
-133,614	241,361	0,021	-0,025
-132,599	80,060	-0,013	-0,010
-131,585	-33,278	-0,052	0,021
-130,570	71,770	0,109	-0,083
-129,556	-36,944	0,011	0,004
-128,541	758,190	0,071	-0,141
-127,526	39,296	0,030	0,020
-126,512	-0,572	0,172	0,089
-125,497	-110,270	-0,110	0,016
-124,483	12,758	0,054	0,031
-123,468	93,474	-0,102	0,084
-122,453	-179,432	0,054	0,001
-121,439	219,450	-0,114	0,133
-120,424	-200,000	0,008	0,058
-119,410	481,334	-0,038	-0,064
