DTS Sentinel unit serial number:	SN410029Multiplexer serial number:	ORYXHardware model number:	OX2-SRSoftware version number:	ORYX F/W v4,00 Oryx Data Collector v3.7.2.0data status	okinstallation	B6 Nyhavnadifferential loss correction	single-endedforward channel	channel 2reverse channel	N/Adate	2023/12/09time	23:15:08forward acquisition time	300,00reverse acquisition time	0,00gamma	499,1914k internal	0,3126k external	0,3126temperature offset calibration	1,0000default loss term (dB/km)	0,3820temperature slope calibration	1,0000multiplexer offset coefficient	1,0000multiplexer slope coefficient	1,0000fibre end	0,00T internal ref (°C)	21,69T ext. ref 1 (°C)	5,49T ext. ref 2 (°C)	5,47length (m)	temperature (°C)	Stokes	anti-Stokes-744,400	-200,000	0,004	-0,192
-743,385	-170,464	-0,189	0,005
-742,371	-171,974	0,027	0,001
-741,356	162,397	-0,110	0,115
-740,342	-30,934	0,142	-0,060
-739,327	-131,382	-0,297	-0,029
-738,312	197,445	0,095	-0,108
-737,298	-48,127	-0,256	0,092
-736,283	545,341	0,032	-0,057
-735,269	-105,278	-0,354	-0,059
-734,254	182,959	-0,045	-0,049
-733,239	-168,987	-0,370	0,010
-732,225	165,101	0,170	0,179
-731,210	-200,000	0,027	0,137
-730,196	-126,333	0,057	-0,006
-729,181	300,279	0,029	-0,039
-728,167	-38,324	-0,072	-0,028
-727,152	497,599	0,042	-0,072
-726,137	616,853	-0,036	-0,068
-725,123	216,398	0,022	-0,026
-724,108	71,276	-0,107	-0,083
-723,094	-91,370	-0,078	0,016
-722,079	40,082	-0,195	-0,130
-721,064	101,321	-0,031	0,027
-720,050	-34,248	0,032	-0,013
-719,035	-200,000	0,025	-0,097
-718,021	-200,000	-0,032	-0,160
-717,006	-37,254	-0,145	-0,057
-715,991	674,503	-0,045	0,087
-714,977	771,359	-0,038	-0,077
-713,962	450,093	-0,084	-0,138
-712,948	351,426	0,037	-0,054
-711,933	277,988	-0,027	0,036
-710,918	140,443	-0,115	0,113
-709,904	800,000	-0,010	-0,031
-708,889	-200,000	-0,005	-0,043
-707,875	800,000	0,008	-0,019
-706,860	244,810	0,043	-0,054
-705,845	-86,685	0,097	-0,022
-704,831	142,395	0,158	0,156
-703,816	113,292	-0,025	-0,022
-702,802	-200,000	-0,000	0,030
-701,787	-1,467	-0,057	-0,030
-700,772	223,581	0,037	-0,044
-699,758	-200,000	0,003	0,098
-698,743	300,957	0,082	-0,113
-697,729	-90,428	0,113	0,024
-696,714	800,000	-0,027	0,069
-695,699	-200,000	0,011	0,063
-694,685	252,829	-0,062	-0,079
-693,670	34,802	-0,110	-0,071
-692,656	-126,145	0,213	-0,023
-691,641	179,210	0,048	0,052
-690,627	116,620	-0,070	0,063
-689,612	12,228	0,018	-0,010
-688,597	800,000	-0,026	-0,081
-687,583	-162,757	-0,013	-0,000
-686,568	-200,000	-0,012	-0,105
-685,554	800,000	0,010	0,026
-684,539	175,302	0,101	0,109
-683,524	-74,628	-0,062	-0,016
-682,510	-117,348	0,149	0,020
-681,495	118,843	-0,116	-0,107
-680,481	426,778	-0,105	-0,169
-679,466	-121,686	-0,111	-0,014
-678,451	215,766	-0,098	-0,115
-677,437	185,277	0,055	-0,060
-676,422	-139,314	0,067	-0,005
-675,408	-16,240	0,036	-0,017
-674,393	180,609	-0,023	-0,025
-673,378	-200,000	0,016	-0,065
-672,364	-15,225	-0,045	0,022
-671,349	-155,229	-0,132	-0,006
-670,335	-19,056	0,115	-0,053
-669,320	168,245	0,021	0,022
-668,305	-143,430	0,056	-0,004
-667,291	-61,996	-0,122	-0,038
-666,276	88,491	-0,073	0,060
-665,262	-11,721	-0,125	-0,061
-664,247	597,405	0,085	-0,158
-663,232	-200,000	0,008	0,036
-662,218	83,278	0,129	0,104
-661,203	-150,210	0,168	-0,010
-660,189	-148,413	-0,086	0,005
-659,174	210,162	0,072	-0,084
-658,159	-162,880	-0,072	0,003
-657,145	-64,241	-0,090	-0,027
-656,130	800,000	0,037	-0,092
-655,116	366,253	-0,166	0,250
-654,101	608,566	-0,017	0,032
-653,086	-200,000	0,019	-0,092
-652,072	-191,021	0,065	-0,000
-651,057	-173,943	-0,072	-0,002
-650,043	-56,875	-0,080	-0,026
-649,028	-140,659	0,054	0,004
-648,014	-200,000	0,020	0,102
-646,999	69,209	0,049	-0,037
-645,984	-200,000	-0,004	0,106
-644,970	-84,362	0,074	0,017
-643,955	235,048	0,086	-0,106
-642,941	120,903	-0,044	0,041
-641,926	-122,980	-0,054	0,006
-640,911	128,069	-0,056	-0,053
-639,897	-26,544	0,009	0,004
-638,882	-101,779	-0,072	-0,013
-637,868	83,075	-0,037	-0,030
-636,853	-200,000	0,029	0,109
-635,838	455,118	-0,033	-0,054
-634,824	62,317	-0,061	0,045
-633,809	-200,000	0,014	-0,088
-632,795	438,584	0,104	0,169
-631,780	800,000	-0,049	0,118
-630,765	-57,222	0,020	-0,006
-629,751	-200,000	-0,018	0,063
-628,736	-200,000	-0,011	-0,107
-627,722	224,221	-0,070	-0,084
-626,707	94,592	-0,056	-0,047
-625,692	18,944	0,083	0,049
-624,678	4,478	-0,086	0,047
-623,663	800,000	0,008	0,016
-622,649	9,458	0,159	-0,089
-621,634	-200,000	-0,026	-0,103
-620,619	-156,776	-0,089	0,004
-619,605	-85,868	0,045	-0,010
-618,590	447,261	-0,013	-0,021
-617,576	800,000	0,027	-0,064
-616,561	197,770	-0,045	-0,051
-615,546	70,625	-0,034	0,026
-614,532	-200,000	0,019	0,101
-613,517	-141,782	0,070	0,005
-612,503	36,485	0,080	0,052
-611,488	-200,000	0,036	0,185
-610,474	-200,000	-0,009	0,149
-609,459	52,228	0,099	-0,070
-608,444	-200,000	0,005	-0,096
-607,430	62,897	-0,082	-0,061
-606,415	79,819	0,094	-0,075
-605,401	0,059	0,071	0,037
-604,386	63,615	0,083	0,062
-603,371	-41,144	-0,073	0,028
-602,357	-130,142	-0,144	0,014
-601,342	132,571	0,041	-0,040
-600,328	149,465	-0,072	0,072
-599,313	-35,230	-0,201	0,080
-598,298	-11,862	0,031	-0,015
-597,284	137,040	-0,044	0,042
-596,269	-200,000	0,019	0,112
-595,255	200,472	0,049	0,055
-594,240	-129,431	-0,115	0,012
-593,225	800,000	-0,027	-0,078
-592,211	-145,693	-0,224	0,015
-591,196	-98,055	-0,070	0,013
-590,182	416,654	-0,041	0,066
-589,167	800,000	0,088	0,187
-588,152	548,330	0,013	0,023
-587,138	297,025	0,043	-0,059
-586,123	-101,459	0,182	-0,033
-585,109	-5,357	-0,119	-0,060
-584,094	-200,000	0,010	0,060
-583,079	-10,654	-0,055	-0,027
-582,065	-76,446	0,097	0,025
-581,050	8,044	-0,094	-0,052
-580,036	95,911	-0,051	0,043
-579,021	800,000	0,048	0,104
-578,006	72,149	0,038	0,029
-576,992	322,802	-0,073	-0,103
-575,977	-139,016	0,157	0,012
-574,963	-136,023	0,173	0,015
-573,948	800,000	-0,026	-0,080
-572,934	424,318	-0,070	0,112
-571,919	183,306	-0,035	-0,039
-570,904	800,000	0,031	-0,092
-569,890	52,469	0,034	-0,024
-568,875	-98,903	0,145	-0,027
-567,861	187,292	-0,059	-0,065
-566,846	-200,000	-0,004	0,095
-565,831	800,000	-0,009	-0,026
-564,817	33,505	-0,071	0,046
-563,802	363,941	0,091	-0,135
-562,788	-101,522	0,012	-0,002
-561,773	800,000	-0,029	-0,085
-560,758	-200,000	0,010	0,061
-559,744	-58,885	0,081	-0,026
-558,729	-200,000	0,020	-0,097
-557,715	-82,512	0,043	0,010
-556,700	66,163	-0,097	0,072
-555,685	-75,784	-0,130	-0,034
-554,671	-0,386	-0,093	-0,049
-553,656	261,324	0,017	0,022
-552,642	800,000	0,016	-0,034
-551,627	-23,187	-0,091	-0,040
-550,612	215,138	-0,091	-0,107
-549,598	-77,443	-0,080	0,020
-548,583	-200,000	-0,069	-0,281
-547,569	-200,000	-0,037	0,125
-546,554	279,525	0,108	0,143
-545,539	642,146	-0,042	-0,080
-544,525	530,239	0,073	0,128
-543,510	-118,263	-0,149	0,019
-542,496	-200,000	-0,014	0,099
-541,481	630,634	-0,071	-0,134
-540,466	800,000	0,081	-0,175
-539,452	800,000	-0,025	0,062
-538,437	227,268	-0,074	0,089
-537,423	800,000	-0,033	0,097
-536,408	99,647	0,069	-0,059
-535,393	171,879	-0,077	-0,082
-534,379	-200,000	0,031	-0,112
-533,364	325,471	-0,098	-0,138
-532,350	-78,849	0,101	0,025
-531,335	-200,000	0,027	-0,114
-530,321	-103,535	-0,051	-0,009
-529,306	-20,366	0,043	-0,020
-528,291	-169,453	0,026	0,001
-527,277	800,000	0,046	-0,131
-526,262	-105,074	0,067	0,011
-525,248	350,816	-0,043	0,062
-524,233	128,782	-0,048	-0,045
-523,218	7,129	-0,080	-0,044
-522,204	800,000	-0,028	0,067
-521,189	-96,344	-0,042	-0,008
-520,175	-200,000	-0,031	-0,111
-519,160	-200,000	-0,022	-0,121
-518,145	-152,928	-0,039	-0,002
-517,131	-7,718	-0,091	-0,045
-516,116	30,636	0,054	0,034
-515,102	800,000	0,026	-0,075
-514,087	-108,911	-0,137	-0,021
-513,072	196,031	-0,043	0,048
-512,058	-200,000	-0,019	0,099
-511,043	387,432	0,040	-0,062
-510,029	-200,000	0,004	0,029
-509,014	-75,420	0,081	0,021
-507,999	-200,000	-0,044	0,154
-506,985	-96,662	-0,129	-0,025
-505,970	420,811	0,110	-0,175
-504,956	35,436	0,117	-0,076
-503,941	800,000	0,017	-0,044
-502,926	18,275	0,122	-0,071
-501,912	-75,687	-0,086	-0,022
-500,897	-200,000	-0,017	-0,069
-499,883	-12,983	-0,250	-0,119
-498,868	800,000	0,029	-0,084
-497,853	362,870	0,086	-0,128
-496,839	-200,000	0,011	0,237
-495,824	-99,413	0,139	-0,026
-494,810	0,653	0,122	-0,064
-493,795	204,126	0,064	0,073
-492,781	-200,000	0,014	-0,115
-491,766	88,132	0,127	-0,104
-490,751	195,965	-0,054	-0,061
-489,737	129,389	-0,065	0,061
-488,722	30,316	-0,093	0,058
-487,708	-118,608	-0,028	-0,004
-486,693	302,048	0,068	-0,093
-485,678	-119,977	-0,129	-0,016
-484,664	-200,000	-0,006	-0,022
-483,649	-200,000	-0,004	0,067
-482,635	800,000	-0,037	0,102
-481,620	-200,000	0,030	0,125
-480,605	-192,830	-0,146	0,001
-479,591	25,874	-0,109	-0,067
-478,576	117,267	0,044	-0,040
-477,562	369,387	0,132	0,198
-476,547	64,938	-0,059	-0,044
-475,532	-40,108	-0,094	-0,036
-474,518	232,806	0,032	-0,039
-473,503	15,375	0,069	0,040
-472,489	-200,000	0,009	0,033
-471,474	800,000	0,034	-0,094
-470,459	-89,243	-0,057	0,012
-469,445	-143,292	-0,103	-0,007
-468,430	-200,000	0,025	-0,089
-467,416	129,083	-0,116	-0,109
-466,401	78,578	0,073	-0,057
-465,386	611,801	0,036	0,066
-464,372	-200,000	-0,016	0,099
-463,357	335,392	-0,045	-0,064
-462,343	440,985	-0,049	-0,079
-461,328	657,402	-0,060	0,114
-460,313	22,449	0,113	-0,068
-459,299	388,267	0,025	-0,038
-458,284	392,868	0,023	-0,035
-457,270	56,106	-0,068	0,048
-456,255	26,831	-0,023	-0,014
-455,241	-96,630	-0,053	0,010
-454,226	230,341	-0,083	-0,100
-453,211	800,000	0,064	-0,132
-452,197	755,642	0,006	-0,013
-451,182	-200,000	0,001	-0,056
-450,168	-80,115	0,111	0,027
-449,153	-157,663	0,086	-0,004
-448,138	17,394	-0,084	-0,049
-447,124	-200,000	0,002	0,017
-446,109	-16,911	0,063	0,029
-445,095	84,141	0,040	0,032
-444,080	46,327	-0,086	0,058
-443,065	800,000	0,058	0,126
-442,051	187,354	0,051	0,057
-441,036	112,362	-0,102	-0,091
-440,022	-200,000	0,006	-0,028
-439,007	-49,059	0,053	-0,019
-437,992	-200,000	-0,014	-0,076
-436,978	431,661	0,057	0,091
-435,963	97,441	-0,050	-0,042
-434,949	-131,344	-0,070	-0,007
-433,934	800,000	0,030	-0,069
-432,919	-200,000	0,067	-0,238
-431,905	-106,833	-0,051	0,008
-430,890	16,420	0,119	-0,069
-429,876	-130,968	0,245	-0,024
-428,861	64,204	-0,083	-0,061
-427,846	-0,219	0,065	0,034
-426,832	590,453	-0,015	0,027
-425,817	156,868	0,054	-0,055
-424,803	-150,840	-0,082	0,004
-423,788	800,000	0,014	0,033
-422,773	-117,863	0,018	0,002
-421,759	-33,870	0,158	0,064
-420,744	800,000	-0,021	-0,067
-419,730	-61,309	-0,081	-0,025
-418,715	188,981	-0,035	0,038
-417,701	673,555	-0,040	0,077
-416,686	487,106	0,058	-0,098
-415,671	800,000	-0,029	0,079
-414,657	800,000	0,016	0,043
-413,642	311,341	-0,081	-0,112
-412,628	70,346	-0,057	0,043
-411,613	-200,000	-0,036	-0,117
-410,598	-107,451	0,075	0,012
-409,584	143,567	0,102	-0,100
-408,569	260,870	0,113	-0,144
-407,555	579,474	0,058	0,104
-406,540	119,834	-0,051	0,046
-405,525	800,000	-0,059	-0,135
-404,511	800,000	0,002	0,006
-403,496	-177,021	0,214	0,004
-402,482	-107,859	0,028	0,004
-401,467	619,680	0,102	0,190
-400,452	800,000	-0,084	0,207
-399,438	-200,000	-0,031	0,110
-398,423	-200,000	0,005	0,104
-397,409	16,653	-0,115	-0,067
-396,394	189,443	-0,076	-0,084
-395,379	296,371	-0,049	0,066
-394,365	400,521	0,062	0,096
-393,350	800,000	-0,018	-0,040
-392,336	75,146	0,069	-0,053
-391,321	167,489	0,127	-0,133
-390,306	-200,000	0,016	-0,069
-389,292	-122,185	0,096	0,011
-388,277	18,601	-0,131	-0,077
-387,263	425,426	-0,046	0,072
-386,248	722,473	-0,046	0,090
-385,233	-177,294	0,181	0,003
-384,219	-83,307	0,136	-0,032
-383,204	-200,000	-0,001	-0,067
-382,190	-200,000	0,026	0,085
-381,175	48,742	-0,025	0,017
-380,160	5,119	0,133	0,072
-379,146	76,119	-0,032	0,025
-378,131	800,000	-0,026	0,075
-377,117	265,271	-0,051	0,065
-376,102	106,809	-0,032	0,028
-375,088	800,000	-0,051	-0,117
-374,073	73,033	-0,153	-0,118
-373,058	34,348	0,111	0,071
-372,044	114,314	0,080	0,072
-371,029	-200,000	-0,018	0,092
-370,015	346,795	0,055	-0,080
-369,000	-200,000	0,016	-0,151
-367,985	124,768	0,056	-0,051
-366,971	-200,000	0,041	0,185
-365,956	-98,877	0,118	0,022
-364,942	36,236	0,119	-0,077
-363,927	112,913	0,095	-0,084
-362,912	94,469	-0,013	-0,011
-361,898	749,910	-0,022	0,043
-360,883	-200,000	-0,022	-0,079
-359,869	-200,000	-0,009	-0,037
-358,854	261,608	0,037	0,047
-357,839	7,238	0,078	0,042
-356,825	202,219	0,035	0,040
-355,810	67,919	-0,059	0,045
-354,796	-38,118	-0,059	0,023
-353,781	-200,000	0,002	-0,033
-352,766	-183,876	-0,198	-0,002
-351,752	-123,904	0,082	-0,009
-350,737	800,000	0,030	0,075
-349,723	-73,915	0,102	0,027
-348,708	743,565	-0,053	0,106
-347,693	-5,613	-0,029	0,015
-346,679	-111,943	0,162	-0,024
-345,664	38,252	-0,094	0,061
-344,650	129,972	-0,092	0,087
-343,635	1,702	0,153	0,081
-342,620	155,424	0,090	0,091
-341,606	-120,264	0,083	-0,010
-340,591	244,715	-0,111	0,137
-339,577	-45,381	0,085	0,031
-338,562	800,000	-0,037	0,093
-337,548	715,906	-0,047	0,092
-336,533	-200,000	-0,015	0,089
-335,518	-39,682	0,123	0,047
-334,504	-167,540	0,110	-0,003
-333,489	65,491	0,128	0,095
-332,475	666,984	-0,050	-0,094
-331,460	-73,143	-0,100	-0,027
-330,445	-85,668	-0,099	-0,022
-329,431	-200,000	0,003	-0,049
-328,416	135,798	-0,042	0,040
-327,402	-200,000	-0,024	0,106
-326,387	800,000	0,019	-0,056
-325,372	250,616	0,048	-0,060
-324,358	165,793	-0,079	0,082
-323,343	238,489	-0,044	0,053
-322,329	-67,625	-0,038	-0,011
-321,314	800,000	0,004	0,011
-320,299	-110,463	0,066	0,010
-319,285	-177,905	-0,060	-0,001
-318,270	183,487	0,052	-0,057
-317,256	800,000	-0,037	0,108
-316,241	-113,907	-0,070	0,010
-315,226	800,000	-0,011	-0,022
-314,212	-68,021	0,021	-0,006
-313,197	-200,000	0,008	-0,066
-312,183	538,377	-0,059	0,103
-311,168	-36,763	-0,060	-0,023
-310,153	82,913	-0,088	0,070
-309,139	800,000	0,078	-0,191
-308,124	800,000	0,012	-0,032
-307,110	-13,834	0,047	-0,022
-306,095	170,547	-0,049	0,051
-305,080	-141,040	0,100	-0,007
-304,066	644,748	0,042	0,079
-303,051	59,664	-0,051	-0,037
-302,037	-15,397	-0,148	-0,069
-301,022	145,984	-0,126	-0,124
-300,008	350,668	0,099	0,143
-298,993	-200,000	0,054	0,203
-297,978	706,422	-0,048	0,093
-296,964	52,986	-0,113	0,079
-295,949	190,540	-0,082	-0,090
-294,935	120,323	0,027	-0,025
-293,920	800,000	-0,014	-0,032
-292,905	-78,386	0,121	-0,030
-291,891	-64,404	0,078	-0,023
-290,876	800,000	0,042	-0,094
-289,862	-200,000	0,019	0,069
-288,847	448,825	-0,053	-0,085
-287,832	800,000	0,042	-0,117
-286,818	-200,000	0,001	0,046
-285,803	223,887	0,124	0,147
-284,789	-128,993	0,019	0,002
-283,774	800,000	0,075	0,154
-282,759	800,000	-0,037	0,076
-281,745	800,000	-0,043	-0,122
-280,730	1,280	-0,143	-0,075
-279,716	-118,611	-0,055	-0,007
-278,701	277,784	0,052	-0,067
-277,686	-200,000	-0,004	0,090
-276,672	-66,421	-0,074	-0,021
-275,657	189,235	0,039	-0,042
-274,643	-200,000	-0,008	0,049
-273,628	800,000	0,021	0,047
-272,613	-75,542	-0,148	-0,038
-271,599	438,593	0,042	0,067
-270,584	125,438	-0,024	0,022
-269,570	462,414	0,052	0,085
-268,555	15,797	0,092	0,053
-267,540	395,053	-0,030	0,046
-266,526	-43,947	0,037	-0,013
-265,511	-16,279	0,124	0,057
-264,497	-5,832	0,023	-0,012
-263,482	65,025	0,045	-0,033
-262,467	67,852	-0,102	0,076
-261,453	-60,137	0,041	-0,013
-260,438	176,079	0,048	0,051
-259,424	-110,773	0,116	0,017
-258,409	433,778	-0,024	0,039
-257,395	363,482	-0,027	0,040
-256,380	-200,000	-0,004	-0,039
-255,365	-200,000	-0,020	0,098
-254,351	200,232	-0,024	-0,027
-253,336	-200,000	-0,023	-0,126
-252,322	-200,000	-0,006	0,082
-251,307	-119,020	-0,083	0,010
-250,292	-200,000	-0,019	-0,063
-249,278	517,417	0,031	0,053
-248,263	5,133	0,049	0,027
-247,249	33,605	0,028	0,018
-246,234	101,830	0,041	-0,035
-245,219	-200,000	-0,003	0,064
-244,205	-34,443	-0,067	-0,027
-243,190	-200,000	0,001	0,052
-242,176	-6,074	-0,071	0,035
-241,161	-34,288	0,038	0,015
-240,146	-35,011	-0,031	0,012
-239,132	-180,227	-0,100	0,001
-238,117	-200,000	0,014	-0,088
-237,103	-200,000	-0,048	-0,202
-236,088	377,162	0,067	-0,100
-235,073	273,731	0,059	-0,076
-234,059	259,215	0,056	0,070
-233,044	-98,035	0,141	0,026
-232,030	33,282	0,060	0,038
-231,015	-110,881	-0,086	0,013
-230,000	32,542	-0,125	-0,079
-228,986	-111,944	-0,127	0,019
-227,971	-200,000	-0,000	-0,006
-226,957	-12,663	-0,107	-0,051
-225,942	-73,542	-0,046	0,012
-224,927	226,316	-0,057	0,067
-223,913	-64,102	-0,114	-0,034
-222,898	-35,992	-0,131	0,051
-221,884	-53,094	-0,071	0,024
-220,869	800,000	0,016	-0,041
-219,855	155,426	0,081	0,082
-218,840	-200,000	0,002	-0,043
-217,825	-63,733	-0,018	-0,005
-216,811	-200,000	-0,038	-0,152
-215,796	800,000	-0,025	-0,063
-214,782	-159,432	-0,157	-0,006
-213,767	450,017	0,048	-0,078
-212,752	22,229	0,145	0,086
-211,738	-2,866	-0,119	0,061
-210,723	306,708	0,077	0,105
-209,709	-23,348	-0,162	-0,071
-208,694	800,000	-0,051	-0,124
-207,679	-200,000	-0,004	-0,051
-206,665	-200,000	-0,056	-0,230
-205,650	-104,372	0,145	-0,024
-204,636	6,100	0,082	0,044
-203,621	800,000	0,011	0,023
-202,606	-200,000	-0,030	-0,100
-201,592	-33,533	0,085	-0,034
-200,577	-200,000	0,028	-0,158
-199,563	0,088	-0,080	0,041
-198,548	142,706	-0,114	0,111
-197,533	-64,903	-0,133	0,039
-196,519	-33,283	0,065	0,026
-195,504	340,904	-0,022	0,031
-194,490	251,846	-0,078	-0,097
-193,475	167,586	-0,082	0,085
-192,460	292,649	-0,028	-0,037
-191,446	-200,000	0,000	0,043
-190,431	-200,000	0,007	0,100
-189,417	296,012	0,076	-0,102
-188,402	-200,000	0,018	0,059
-187,387	800,000	0,017	-0,050
-186,373	-17,623	-0,043	-0,020
-185,358	-187,443	0,051	0,000
-184,344	-2,733	-0,022	0,011
-183,329	328,258	-0,062	0,087
-182,315	-200,000	0,016	0,126
-181,300	27,763	-0,074	0,046
-180,285	800,000	-0,053	-0,111
-179,271	111,381	0,067	-0,059
-178,256	166,923	0,060	0,062
-177,242	-80,530	0,070	-0,017
-176,227	-21,192	-0,063	-0,028
-175,212	104,318	0,089	-0,076
-174,198	-89,202	0,084	0,018
-173,183	107,905	0,045	0,039
-172,169	-36,276	0,163	-0,064
-171,154	800,000	-0,048	-0,100
-170,139	210,966	0,072	0,082
-169,125	-125,442	0,048	0,005
-168,110	-200,000	0,019	-0,075
-167,096	800,000	-0,041	0,114
-166,081	362,082	0,079	-0,116
-165,066	68,469	-0,019	-0,014
-164,052	-200,000	0,003	0,042
-163,037	-200,000	-0,010	0,034
-162,023	235,522	0,081	0,098
-161,008	448,621	0,085	0,137
-159,993	277,359	-0,105	0,136
-158,979	-8,078	-0,021	-0,010
-157,964	800,000	-0,013	-0,030
-156,950	-53,035	0,070	0,023
-155,935	173,833	0,070	-0,074
-154,920	800,000	0,032	-0,088
-153,906	-200,000	-0,025	0,220
-152,891	-200,000	0,028	0,117
-151,877	-119,520	-0,078	-0,010
-150,862	-200,000	-0,016	-0,061
-149,847	73,546	0,050	-0,038
-148,833	-200,000	0,078	0,000
-147,818	-200,000	0,041	0,239
-146,804	-200,000	0,019	0,075
-145,789	597,174	0,060	0,108
-144,775	-200,000	-0,020	0,102
-143,760	302,369	0,055	-0,075
-142,745	-200,000	-0,009	0,035
-141,731	800,000	-0,019	0,040
-140,716	-137,621	-0,014	-0,001
-139,702	537,046	-0,029	0,050
-138,687	-200,000	-0,003	-0,040
-137,672	640,500	0,081	-0,151
-136,658	196,918	-0,076	-0,084
-135,643	237,609	0,077	-0,093
-134,629	13,139	-0,039	0,022
-133,614	-131,719	0,074	0,007
-132,599	800,000	-0,071	0,180
-131,585	-71,829	-0,092	0,025
-130,570	574,362	-0,038	0,068
-129,556	61,479	-0,030	0,022
-128,541	644,036	-0,061	-0,113
-127,526	17,540	-0,064	-0,037
-126,512	211,171	0,126	0,144
-125,497	-200,000	0,009	0,058
-124,483	-53,471	-0,096	-0,032
-123,468	203,437	0,020	-0,023
-122,453	-107,112	0,101	-0,016
-121,439	-121,336	0,026	0,003
-120,424	-200,000	-0,002	0,064
-119,410	-155,437	0,081	0,004
