DTS Sentinel unit serial number:	SN410029Multiplexer serial number:	ORYXHardware model number:	OX2-SRSoftware version number:	ORYX F/W v4,00 Oryx Data Collector v3.7.2.0data status	okinstallation	B6 Nyhavnadifferential loss correction	single-endedforward channel	channel 2reverse channel	N/Adate	2023/12/09time	19:25:08forward acquisition time	300,00reverse acquisition time	0,00gamma	499,1914k internal	0,3130k external	0,3130temperature offset calibration	1,0000default loss term (dB/km)	0,3820temperature slope calibration	1,0000multiplexer offset coefficient	1,0000multiplexer slope coefficient	1,0000fibre end	0,00T internal ref (°C)	21,09T ext. ref 1 (°C)	4,97T ext. ref 2 (°C)	4,93length (m)	temperature (°C)	Stokes	anti-Stokes-744,400	800,000	0,073	-0,159
-743,385	-119,306	-0,165	-0,021
-742,371	-200,000	0,002	0,078
-741,356	-14,744	-0,164	0,078
-740,342	671,457	-0,055	0,107
-739,327	-19,948	-0,281	0,128
-738,312	-200,000	0,005	-0,078
-737,298	-115,066	-0,215	0,030
-736,283	-80,678	0,050	-0,012
-735,269	-149,241	-0,346	0,020
-734,254	-107,244	0,147	-0,024
-733,239	-80,823	-0,416	-0,102
-732,225	325,660	0,009	-0,013
-731,210	800,000	0,025	0,074
-730,196	47,470	-0,085	-0,059
-729,181	226,281	0,039	-0,047
-728,167	-200,000	0,018	-0,151
-727,152	-132,284	0,029	0,003
-726,137	-200,000	0,001	0,021
-725,123	-101,405	-0,141	0,025
-724,108	-200,000	-0,007	-0,063
-723,094	219,531	-0,181	-0,215
-722,079	-200,000	-0,000	-0,131
-721,064	800,000	-0,042	-0,102
-720,050	378,250	0,056	-0,086
-719,035	41,343	0,020	0,014
-718,021	23,137	-0,126	0,077
-717,006	-200,000	-0,013	0,149
-715,991	-72,915	-0,141	0,038
-714,977	156,811	-0,047	0,049
-713,962	-200,000	0,013	0,121
-712,948	-200,000	-0,001	-0,055
-711,933	-200,000	-0,013	-0,081
-710,918	800,000	0,018	0,040
-709,904	-200,000	0,014	-0,082
-708,889	156,513	-0,115	-0,118
-707,875	201,044	-0,076	-0,087
-706,860	305,425	0,023	0,032
-705,845	170,677	-0,034	-0,036
-704,831	663,901	0,038	0,073
-703,816	-69,004	-0,127	-0,036
-702,802	48,860	0,108	-0,075
-701,787	-113,827	-0,152	-0,022
-700,772	45,718	-0,086	0,059
-699,758	158,905	-0,063	0,065
-698,743	-53,120	-0,093	0,031
-697,729	-200,000	0,033	-0,116
-696,714	227,481	-0,022	0,026
-695,699	-200,000	0,041	-0,161
-694,685	800,000	0,038	-0,101
-693,670	162,597	0,089	-0,093
-692,656	78,717	0,072	-0,057
-691,641	-200,000	0,004	0,050
-690,627	-41,597	0,109	-0,041
-689,612	448,921	-0,090	0,148
-688,597	-40,463	0,026	0,010
-687,583	-53,845	-0,135	-0,045
-686,568	800,000	-0,072	-0,149
-685,554	-16,629	-0,019	0,009
-684,539	-200,000	0,014	0,095
-683,524	-200,000	0,006	-0,104
-682,510	-177,881	-0,059	-0,001
-681,495	800,000	-0,047	0,120
-680,481	-66,116	-0,043	-0,013
-679,466	62,108	-0,144	0,106
-678,451	317,321	-0,044	-0,061
-677,437	-200,000	-0,019	-0,170
-676,422	17,217	-0,041	-0,024
-675,408	479,875	-0,049	0,083
-674,393	251,827	0,037	0,047
-673,378	-164,828	-0,119	0,004
-672,364	-200,000	-0,001	0,073
-671,349	-72,179	0,115	-0,031
-670,335	52,598	-0,082	-0,058
-669,320	308,553	0,081	0,112
-668,305	47,521	-0,154	0,106
-667,291	-200,000	-0,011	-0,060
-666,276	-200,000	0,010	-0,056
-665,262	-200,000	-0,001	-0,046
-664,247	-151,955	-0,070	0,004
-663,232	453,999	-0,028	0,046
-662,218	217,876	0,020	0,024
-661,203	-73,276	-0,090	-0,024
-660,189	25,122	-0,100	0,061
-659,174	672,296	0,067	-0,129
-658,159	-181,940	0,035	0,000
-657,145	800,000	0,033	-0,095
-656,130	-200,000	0,015	-0,074
-655,116	-39,818	0,152	-0,059
-654,101	-116,899	-0,084	-0,011
-653,086	-74,708	0,027	-0,007
-652,072	160,549	-0,022	-0,022
-651,057	800,000	-0,021	-0,056
-650,043	-65,096	-0,147	-0,044
-649,028	-59,642	0,046	0,015
-648,014	-200,000	-0,007	0,074
-646,999	-104,896	0,177	-0,030
-645,984	-69,109	0,073	-0,021
-644,970	395,181	-0,018	0,029
-643,955	-90,802	0,037	-0,008
-642,941	392,962	-0,032	-0,050
-641,926	800,000	0,021	-0,048
-640,911	373,695	0,081	-0,123
-639,897	176,350	-0,046	0,050
-638,882	-200,000	0,020	0,077
-637,868	7,964	0,028	-0,015
-636,853	-200,000	0,017	-0,062
-635,838	-200,000	0,027	-0,114
-634,824	-39,928	-0,078	-0,030
-633,809	627,475	-0,015	-0,027
-632,795	-22,971	0,062	-0,028
-631,780	269,364	-0,060	-0,078
-630,765	0,155	-0,108	-0,057
-629,751	265,256	-0,052	0,068
-628,736	-200,000	0,005	-0,062
-627,722	800,000	-0,074	-0,168
-626,707	142,458	0,079	-0,077
-625,692	-70,468	-0,044	0,012
-624,678	-192,059	0,080	-0,001
-623,663	-102,940	-0,170	-0,030
-622,649	-53,746	-0,023	0,008
-621,634	-20,594	-0,105	0,047
-620,619	-200,000	-0,026	-0,108
-619,605	800,000	0,029	0,073
-618,590	34,445	0,091	-0,058
-617,576	-200,000	-0,001	-0,072
-616,561	93,471	-0,048	0,040
-615,546	317,209	0,030	-0,042
-614,532	-200,000	-0,024	-0,135
-613,517	171,329	0,120	-0,128
-612,503	800,000	0,017	0,047
-611,488	800,000	0,019	0,040
-610,474	571,409	-0,074	-0,134
-609,459	190,075	-0,062	-0,069
-608,444	-117,171	-0,076	-0,010
-607,430	-117,075	-0,026	0,004
-606,415	27,384	-0,131	-0,081
-605,401	-65,751	-0,024	0,007
-604,386	430,491	0,012	-0,019
-603,371	-2,147	0,136	0,070
-602,357	143,579	0,053	-0,052
-601,342	299,960	-0,061	0,083
-600,328	5,089	-0,026	-0,014
-599,313	800,000	-0,051	-0,123
-598,298	800,000	-0,052	-0,128
-597,284	399,467	0,075	0,116
-596,269	154,899	-0,137	0,140
-595,255	-129,175	0,104	0,011
-594,240	328,346	-0,014	-0,020
-593,225	-200,000	-0,006	0,062
-592,211	800,000	0,061	-0,159
-591,196	-83,297	0,034	-0,008
-590,182	-149,531	0,077	-0,004
-589,167	800,000	-0,024	0,075
-588,152	-1,991	0,116	0,060
-587,138	-200,000	0,027	0,097
-586,123	-39,590	-0,126	0,049
-585,109	188,790	-0,070	-0,078
-584,094	83,217	-0,095	-0,076
-583,079	-90,282	0,166	0,035
-582,065	-175,176	0,037	0,001
-581,050	-200,000	0,005	-0,057
-580,036	8,081	-0,042	-0,023
-579,021	195,762	-0,072	-0,080
-578,006	-87,217	-0,109	0,024
-576,992	-125,536	0,127	0,014
-575,977	55,637	0,121	0,087
-574,963	-200,000	-0,019	-0,086
-573,948	-84,132	-0,030	-0,007
-572,934	-27,942	0,061	0,026
-571,919	216,430	-0,037	-0,044
-570,904	800,000	0,089	-0,239
-569,890	264,361	-0,065	-0,084
-568,875	800,000	0,057	0,158
-567,861	-80,984	-0,106	-0,026
-566,846	20,575	0,122	-0,073
-565,831	800,000	-0,041	-0,085
-564,817	-200,000	-0,018	-0,119
-563,802	26,387	-0,120	-0,074
-562,788	644,884	0,028	-0,053
-561,773	150,759	-0,056	-0,057
-560,758	436,152	0,088	-0,142
-559,744	800,000	-0,028	0,061
-558,729	-117,112	0,048	-0,006
-557,715	442,174	-0,064	-0,104
-556,700	-200,000	0,010	-0,036
-555,685	-200,000	0,002	-0,022
-554,671	-151,456	0,161	-0,009
-553,656	800,000	-0,034	0,104
-552,642	-65,944	0,049	0,014
-551,627	176,499	0,046	0,050
-550,612	-54,505	-0,076	0,025
-549,598	125,732	-0,036	-0,034
-548,583	-200,000	-0,018	-0,068
-547,569	517,996	0,008	0,014
-546,554	-200,000	0,011	0,094
-545,539	203,781	0,055	0,063
-544,525	94,428	0,101	0,085
-543,510	319,431	0,063	-0,088
-542,496	496,085	0,025	-0,042
-541,481	200,145	-0,111	0,126
-540,466	-200,000	0,015	-0,062
-539,452	-22,122	0,132	0,059
-538,437	19,851	0,089	-0,053
-537,423	470,789	0,088	-0,147
-536,408	-66,865	0,080	-0,023
-535,393	490,853	0,039	-0,067
-534,379	-144,389	-0,121	0,008
-533,364	334,833	-0,012	-0,018
-532,350	83,880	0,017	-0,013
-531,335	-53,774	-0,046	0,015
-530,321	-200,000	0,001	-0,153
-529,306	800,000	0,025	-0,051
-528,291	-136,377	-0,076	0,006
-527,277	457,683	0,092	-0,152
-526,262	152,639	0,092	-0,093
-525,248	800,000	0,016	-0,051
-524,233	800,000	-0,010	-0,032
-523,218	-76,514	-0,055	0,014
-522,204	198,894	0,107	0,121
-521,189	533,392	-0,014	-0,024
-520,175	-114,002	-0,033	0,005
-519,160	800,000	0,011	-0,035
-518,145	-105,854	0,126	0,021
-517,131	800,000	0,031	0,101
-516,116	-14,956	-0,097	0,046
-515,102	437,536	0,049	0,078
-514,087	800,000	-0,069	-0,206
-513,072	800,000	-0,080	-0,167
-512,058	171,345	-0,101	-0,107
-511,043	427,795	-0,097	0,155
-510,029	-18,816	-0,090	0,041
-509,014	-109,037	0,117	0,018
-507,999	-82,390	0,040	-0,010
-506,985	-200,000	0,008	-0,126
-505,970	-46,787	0,046	-0,016
-504,956	-22,631	-0,042	-0,018
-503,941	-21,417	0,113	0,051
-502,926	429,985	-0,082	0,131
-501,912	302,549	0,042	-0,058
-500,897	-200,000	-0,031	-0,120
-499,883	-200,000	-0,014	-0,088
-498,868	73,035	0,068	0,052
-497,853	705,464	-0,070	0,137
-496,839	221,996	0,083	0,099
-495,824	800,000	-0,054	0,129
-494,810	-200,000	0,018	0,062
-493,795	385,423	-0,067	-0,101
-492,781	-200,000	0,000	0,018
-491,766	-84,811	-0,068	0,016
-490,751	800,000	0,040	0,117
-489,737	-200,000	0,003	0,059
-488,722	-133,402	0,046	0,004
-487,708	100,230	-0,064	-0,055
-486,693	-100,713	0,093	0,017
-485,678	464,557	-0,043	-0,071
-484,664	-200,000	0,000	-0,028
-483,649	413,561	0,016	-0,026
-482,635	764,341	0,034	-0,068
-481,620	-109,882	-0,062	0,009
-480,605	88,405	-0,070	-0,057
-479,591	243,854	0,100	-0,123
-478,576	-200,000	0,033	0,153
-477,562	-96,487	-0,208	-0,040
-476,547	59,451	0,088	-0,064
-475,532	800,000	-0,017	-0,046
-474,518	178,710	0,110	-0,118
-473,503	-34,486	-0,095	-0,038
-472,489	-94,902	0,124	-0,024
-471,474	14,551	-0,058	0,033
-470,459	311,264	-0,038	0,052
-469,445	-200,000	-0,022	0,139
-468,430	318,566	-0,024	0,034
-467,416	60,992	0,066	-0,048
-466,401	-12,361	0,148	0,071
-465,386	19,926	0,095	0,056
-464,372	-200,000	-0,006	-0,072
-463,357	-133,603	0,066	-0,006
-462,343	58,777	-0,109	-0,078
-461,328	-200,000	0,035	-0,118
-460,313	89,293	0,077	0,063
-459,299	-72,202	-0,074	0,020
-458,284	-10,219	0,121	0,059
-457,270	800,000	-0,045	0,144
-456,255	-77,799	0,088	0,022
-455,241	-200,000	-0,003	-0,182
-454,226	258,437	-0,073	-0,093
-453,211	64,485	0,104	0,077
-452,197	-17,773	0,136	0,063
-451,182	375,849	-0,031	-0,046
-450,168	-86,274	-0,123	0,028
-449,153	-101,667	-0,049	0,009
-448,138	-45,094	0,073	0,026
-447,124	-24,728	-0,115	-0,050
-446,109	-200,000	0,085	0,000
-445,095	124,181	-0,117	0,108
-444,080	-143,083	0,025	-0,002
-443,065	123,276	-0,052	0,048
-442,051	800,000	-0,096	-0,198
-441,036	4,069	0,031	-0,016
-440,022	675,939	-0,023	-0,044
-439,007	-36,403	0,082	0,032
-437,992	66,204	0,087	-0,064
-436,978	301,536	0,036	0,050
-435,963	79,300	0,055	-0,044
-434,949	81,823	-0,081	-0,065
-433,934	393,257	0,131	-0,202
-432,919	-5,267	0,186	0,093
-431,905	-40,386	-0,054	-0,020
-430,890	-64,622	0,138	0,041
-429,876	-0,746	0,009	-0,005
-428,861	800,000	0,077	0,201
-427,846	-200,000	0,015	0,077
-426,832	75,961	0,090	-0,070
-425,817	-4,155	-0,136	0,069
-424,803	199,296	0,041	-0,046
-423,788	800,000	0,007	0,018
-422,773	85,939	0,071	0,058
-421,759	253,418	0,051	0,064
-420,744	-56,898	0,053	0,017
-419,730	-90,406	-0,051	0,011
-418,715	800,000	-0,072	-0,155
-417,701	-116,850	-0,066	0,009
-416,686	672,388	0,041	-0,079
-415,671	183,310	0,074	0,080
-414,657	126,560	0,051	0,047
-413,642	-51,608	0,056	-0,019
-412,628	-9,711	-0,096	-0,047
-411,613	-138,620	-0,165	-0,013
-410,598	800,000	0,027	-0,058
-409,584	-91,852	0,128	-0,026
-408,569	330,806	0,049	0,070
-407,555	-200,000	0,007	-0,079
-406,540	-60,308	-0,103	0,032
-405,525	-200,000	0,018	-0,104
-404,511	358,333	-0,066	0,097
-403,496	-200,000	-0,017	0,082
-402,482	36,294	0,105	-0,068
-401,467	-176,757	-0,159	0,003
-400,452	-200,000	0,010	-0,041
-399,438	-200,000	-0,014	0,110
-398,423	-131,014	0,028	0,003
-397,409	124,650	-0,096	0,089
-396,394	369,602	-0,069	0,102
-395,379	800,000	-0,074	0,217
-394,365	-47,456	0,070	0,025
-393,350	-200,000	0,008	0,131
-392,336	614,878	0,031	0,057
-391,321	-145,081	0,087	0,006
-390,306	-161,187	-0,088	0,003
-389,292	30,756	-0,049	-0,031
-388,277	-143,506	-0,034	-0,002
-387,263	-84,006	-0,055	-0,013
-386,248	56,402	-0,019	-0,013
-385,233	800,000	0,048	-0,121
-384,219	-53,827	-0,041	-0,014
-383,204	-72,932	-0,084	-0,022
-382,190	800,000	-0,037	-0,107
-381,175	800,000	0,048	0,144
-380,160	-200,000	-0,008	0,153
-379,146	-27,566	0,129	0,055
-378,131	800,000	-0,032	0,089
-377,117	-200,000	-0,010	0,091
-376,102	-200,000	0,005	-0,056
-375,088	506,195	-0,049	-0,083
-374,073	144,183	0,056	-0,055
-373,058	137,936	-0,108	0,104
-372,044	800,000	-0,049	0,127
-371,029	-200,000	-0,016	0,101
-370,015	129,774	-0,021	0,019
-369,000	-200,000	0,001	-0,086
-367,985	800,000	0,019	-0,053
-366,971	-200,000	0,017	-0,057
-365,956	53,248	0,083	-0,058
-364,942	56,796	0,048	0,034
-363,927	85,033	0,089	0,072
-362,912	800,000	0,061	0,149
-361,898	-152,976	-0,067	0,003
-360,883	-200,000	-0,093	0,000
-359,869	-200,000	-0,011	0,058
-358,854	-200,000	0,010	-0,131
-357,839	94,569	0,049	0,041
-356,825	-50,535	0,075	-0,026
-355,810	-200,000	0,006	0,037
-354,796	800,000	-0,025	0,051
-353,781	-200,000	0,009	-0,057
-352,766	-59,357	0,083	-0,026
-351,752	301,483	0,038	0,051
-350,737	385,259	0,083	0,125
-349,723	-200,000	-0,013	-0,045
-348,708	231,394	-0,118	-0,141
-347,693	362,618	0,027	-0,039
-346,679	-85,616	-0,074	-0,017
-345,664	225,789	0,081	0,096
-344,650	34,536	-0,092	0,059
-343,635	175,693	0,065	-0,069
-342,620	330,632	0,024	0,035
-341,606	-200,000	0,033	0,114
-340,591	766,675	-0,064	0,128
-339,577	-154,345	0,104	-0,005
-338,562	7,910	0,054	-0,029
-337,548	-3,389	0,078	-0,040
-336,533	-200,000	-0,022	0,150
-335,518	261,997	-0,079	0,101
-334,504	102,254	-0,052	0,045
-333,489	155,018	-0,016	-0,016
-332,475	-44,253	-0,085	0,031
-331,460	-73,639	0,096	-0,026
-330,445	5,948	0,068	0,037
-329,431	548,795	-0,056	-0,099
-328,416	761,511	0,048	0,096
-327,402	-200,000	0,006	0,118
-326,387	54,642	0,095	-0,067
-325,372	-178,636	0,075	0,001
-324,358	221,058	-0,036	-0,043
-323,343	800,000	0,025	-0,070
-322,329	-145,916	-0,096	0,006
-321,314	-97,904	0,149	-0,028
-320,299	-171,971	0,064	0,001
-319,285	-200,000	-0,000	0,014
-318,270	262,064	-0,089	-0,114
-317,256	-200,000	0,010	-0,067
-316,241	-200,000	-0,002	-0,079
-315,226	800,000	0,027	0,064
-314,212	-55,114	0,074	-0,024
-313,197	-3,685	0,071	-0,036
-312,183	-200,000	-0,014	-0,132
-311,168	-200,000	0,024	0,121
-310,153	800,000	0,028	0,080
-309,139	470,569	0,044	-0,072
-308,124	-55,912	0,059	-0,019
-307,110	565,724	0,068	0,121
-306,095	-200,000	-0,015	0,072
-305,080	800,000	0,040	0,117
-304,066	-200,000	-0,002	0,089
-303,051	-200,000	-0,018	-0,135
-302,037	-63,915	0,028	-0,008
-301,022	-200,000	-0,018	-0,073
-300,008	131,495	0,064	0,060
-298,993	155,858	-0,173	-0,174
-297,978	202,415	-0,026	0,029
-296,964	-23,025	-0,098	0,043
-295,949	-47,988	-0,124	-0,044
-294,935	-103,968	-0,071	0,012
-293,920	89,885	-0,031	0,025
-292,905	283,116	-0,049	-0,064
-291,891	-26,777	0,076	0,032
-290,876	800,000	0,042	0,106
-289,862	-119,650	-0,049	-0,006
-288,847	301,684	-0,036	-0,049
-287,832	339,219	-0,008	-0,011
-286,818	-64,386	-0,077	0,023
-285,803	-121,325	0,006	-0,001
-284,789	53,454	-0,017	0,012
-283,774	800,000	0,056	0,118
-282,759	-26,759	-0,076	0,032
-281,745	354,256	-0,045	0,065
-280,730	570,897	-0,064	-0,114
-279,716	-200,000	0,018	-0,095
-278,701	800,000	0,039	0,086
-277,686	-35,569	0,041	-0,016
-276,672	-200,000	0,011	0,104
-275,657	-200,000	0,015	0,064
-274,643	800,000	-0,059	0,124
-273,628	-24,312	0,104	-0,045
-272,613	800,000	0,011	0,029
-271,599	-200,000	-0,001	0,111
-270,584	-59,287	0,101	0,032
-269,570	91,478	0,140	-0,115
-268,555	59,540	0,033	-0,024
-267,540	-16,921	-0,056	0,026
-266,526	263,027	-0,095	0,121
-265,511	-200,000	-0,011	-0,052
-264,497	-200,000	0,005	0,116
-263,482	32,047	-0,083	-0,052
-262,467	237,823	-0,084	-0,102
-261,453	135,995	-0,038	0,036
-260,438	-200,000	-0,019	-0,116
-259,424	57,772	0,161	0,115
-258,409	-200,000	0,011	-0,043
-257,395	1,202	0,071	-0,037
-256,380	-200,000	0,010	0,062
-255,365	-200,000	0,010	0,039
-254,351	800,000	-0,041	-0,124
-253,336	-58,793	-0,027	-0,008
-252,322	58,065	-0,074	-0,053
-251,307	800,000	0,026	0,084
-250,292	64,214	0,196	0,144
-249,278	510,912	-0,054	0,092
-248,263	6,418	-0,089	-0,048
-247,249	800,000	0,019	0,052
-246,234	800,000	0,019	-0,058
-245,219	-187,369	-0,089	0,001
-244,205	484,736	-0,045	-0,075
-243,190	132,921	-0,071	0,067
-242,176	-200,000	0,034	0,140
-241,161	-10,580	0,110	0,053
-240,146	74,188	0,024	0,018
-239,132	-200,000	-0,010	0,146
-238,117	-100,588	-0,034	0,006
-237,103	302,652	-0,099	-0,134
-236,088	-91,264	-0,130	0,027
-235,073	32,043	0,091	0,057
-234,059	16,346	0,062	0,036
-233,044	470,618	-0,060	-0,099
-232,030	800,000	0,013	-0,027
-231,015	-200,000	0,003	-0,018
-230,000	248,276	-0,088	-0,108
-228,986	103,068	-0,006	0,005
-227,971	-144,480	-0,147	-0,010
-226,957	174,973	-0,090	-0,096
-225,942	-1,293	0,014	0,007
-224,927	774,990	-0,049	-0,098
-223,913	-105,746	-0,119	-0,019
-222,898	116,577	0,010	0,009
-221,884	477,006	0,060	0,100
-220,869	360,986	0,047	-0,069
-219,855	-7,509	0,128	0,063
-218,840	800,000	-0,027	0,081
-217,825	-127,552	-0,149	-0,015
-216,811	-138,729	-0,120	-0,009
-215,796	-200,000	0,003	0,081
-214,782	-29,642	-0,047	0,019
-213,767	-73,539	0,046	-0,012
-212,752	174,854	0,082	-0,086
-211,738	800,000	-0,052	-0,128
-210,723	187,582	0,042	0,046
-209,709	-200,000	-0,025	0,090
-208,694	271,657	0,012	0,015
-207,679	-105,064	0,029	0,005
-206,665	0,019	-0,017	-0,009
-205,650	800,000	-0,047	0,119
-204,636	-87,981	0,144	-0,031
-203,621	285,756	0,105	0,138
-202,606	98,092	0,109	0,091
-201,592	198,136	-0,168	-0,188
-200,577	-122,919	0,051	0,006
-199,563	239,155	-0,039	0,048
-198,548	-200,000	-0,015	0,102
-197,533	396,371	-0,016	0,024
-196,519	-200,000	0,010	-0,053
-195,504	33,369	-0,051	0,032
-194,490	-80,389	-0,035	0,009
-193,475	62,067	-0,104	-0,075
-192,460	-59,936	0,111	0,034
-191,446	618,343	0,057	0,105
-190,431	-150,930	-0,089	0,005
-189,417	-200,000	0,002	-0,092
-188,402	-36,162	0,031	0,012
-187,387	180,185	-0,092	0,098
-186,373	-14,003	-0,032	0,015
-185,358	-13,135	-0,081	-0,038
-184,344	-200,000	0,004	0,061
-183,329	600,392	0,054	0,098
-182,315	-200,000	0,012	0,097
-181,300	361,297	-0,014	0,020
-180,285	193,713	-0,138	-0,152
-179,271	-200,000	-0,007	0,081
-178,256	293,656	0,078	0,104
-177,242	593,307	0,011	0,020
-176,227	-122,237	-0,193	-0,023
-175,212	245,429	-0,070	-0,085
-174,198	-94,275	-0,128	-0,025
-173,183	161,442	-0,095	-0,096
-172,169	-63,856	-0,028	0,008
-171,154	-200,000	0,006	0,019
-170,139	21,225	0,148	0,087
-169,125	-200,000	-0,008	0,035
-168,110	311,955	0,083	-0,113
-167,096	-136,667	-0,085	0,007
-166,081	383,806	-0,023	-0,035
-165,066	800,000	0,057	0,119
-164,052	170,544	-0,095	-0,099
-163,037	800,000	0,065	0,149
-162,023	123,099	-0,097	0,088
-161,008	14,597	-0,060	0,034
-159,993	-200,000	-0,000	-0,047
-158,979	-200,000	0,000	-0,008
-157,964	-67,362	-0,110	0,031
-156,950	-200,000	-0,006	-0,068
-155,935	-200,000	-0,028	0,104
-154,920	-78,323	-0,084	0,021
-153,906	517,902	0,033	0,057
-152,891	188,719	0,051	-0,056
-151,877	-200,000	-0,046	0,166
-150,862	360,249	-0,027	0,039
-149,847	-200,000	-0,004	-0,024
-148,833	-155,944	-0,044	-0,002
-147,818	130,286	0,061	0,057
-146,804	101,975	-0,141	0,120
-145,789	88,136	0,066	0,053
-144,775	800,000	0,036	-0,073
-143,760	-104,518	0,083	-0,014
-142,745	-200,000	0,022	0,089
-141,731	-200,000	-0,009	0,032
-140,716	167,169	-0,047	-0,048
-139,702	480,935	0,018	-0,031
-138,687	-200,000	-0,002	0,066
-137,672	7,237	0,076	-0,041
-136,658	-200,000	-0,009	-0,038
-135,643	255,989	-0,081	-0,101
-134,629	-37,263	0,036	0,014
-133,614	84,431	0,127	-0,101
-132,599	-200,000	0,059	0,192
-131,585	482,091	0,092	0,152
-130,570	-101,838	0,060	0,010
-129,556	-200,000	0,005	0,026
-128,541	-200,000	-0,026	0,107
-127,526	186,496	0,046	-0,050
-126,512	-34,665	-0,152	-0,060
-125,497	25,517	0,081	0,049
-124,483	33,152	0,060	0,037
-123,468	-200,000	-0,092	-0,000
-122,453	148,317	0,123	0,120
-121,439	-105,284	-0,081	0,013
-120,424	93,444	-0,100	0,082
-119,410	-200,000	0,016	0,116
