DTS Sentinel unit serial number:	SN410029Multiplexer serial number:	ORYXHardware model number:	OX2-SRSoftware version number:	ORYX F/W v4,00 Oryx Data Collector v3.7.2.0data status	okinstallation	B6 Nyhavnadifferential loss correction	single-endedforward channel	channel 2reverse channel	N/Adate	2023/12/09time	16:45:08forward acquisition time	300,00reverse acquisition time	0,00gamma	499,1914k internal	0,3131k external	0,3131temperature offset calibration	1,0000default loss term (dB/km)	0,3820temperature slope calibration	1,0000multiplexer offset coefficient	1,0000multiplexer slope coefficient	1,0000fibre end	0,00T internal ref (°C)	20,90T ext. ref 1 (°C)	4,70T ext. ref 2 (°C)	4,70length (m)	temperature (°C)	Stokes	anti-Stokes-744,400	800,000	0,029	0,094
-743,385	-25,081	-0,307	0,135
-742,371	-0,275	0,094	0,050
-741,356	345,648	-0,144	0,211
-740,342	25,015	0,157	0,097
-739,327	-163,601	-0,339	-0,012
-738,312	19,930	0,133	0,080
-737,298	-148,132	-0,250	0,015
-736,283	223,298	0,074	-0,089
-735,269	-107,419	-0,213	0,034
-734,254	35,977	-0,043	-0,028
-733,239	-129,714	-0,330	0,033
-732,225	-111,110	0,160	-0,024
-731,210	-25,731	0,089	0,039
-730,196	-200,000	0,014	0,056
-729,181	-101,853	-0,100	-0,018
-728,167	-44,141	0,138	-0,051
-727,152	800,000	-0,009	0,021
-726,137	-123,224	-0,026	-0,003
-725,123	-54,476	-0,041	-0,014
-724,108	-140,935	-0,236	-0,018
-723,094	800,000	-0,046	-0,100
-722,079	169,370	-0,037	-0,040
-721,064	195,378	-0,140	-0,159
-720,050	-170,688	-0,106	-0,003
-719,035	-49,247	-0,086	-0,030
-718,021	-57,649	-0,059	-0,019
-717,006	543,565	-0,022	0,040
-715,991	-8,365	-0,046	-0,023
-714,977	221,855	-0,091	-0,109
-713,962	7,052	0,044	0,025
-712,948	-160,532	-0,081	-0,003
-711,933	-35,917	-0,125	-0,050
-710,918	381,742	0,036	0,056
-709,904	-200,000	-0,013	-0,115
-708,889	11,054	0,078	0,044
-707,875	142,912	-0,122	0,120
-706,860	96,056	0,068	0,057
-705,845	-200,000	0,006	0,088
-704,831	-200,000	0,011	0,072
-703,816	800,000	0,010	-0,029
-702,802	155,962	0,075	-0,077
-701,787	-31,905	-0,068	-0,028
-700,772	-200,000	-0,017	-0,169
-699,758	61,255	0,083	-0,061
-698,743	800,000	0,009	-0,030
-697,729	-200,000	0,021	-0,071
-696,714	-200,000	-0,033	-0,167
-695,699	72,834	-0,061	0,047
-694,685	-200,000	0,014	-0,065
-693,670	-200,000	-0,001	0,058
-692,656	462,097	-0,063	0,104
-691,641	654,828	0,021	0,041
-690,627	-200,000	-0,024	0,134
-689,612	378,143	-0,065	-0,098
-688,597	-200,000	0,014	-0,112
-687,583	-200,000	-0,005	-0,103
-686,568	-200,000	0,033	-0,113
-685,554	-200,000	0,000	-0,142
-684,539	412,659	-0,032	0,051
-683,524	-200,000	-0,007	-0,063
-682,510	96,907	-0,038	0,032
-681,495	165,774	0,012	0,013
-680,481	-64,118	0,167	0,050
-679,466	66,399	-0,096	-0,072
-678,451	-126,414	-0,025	-0,003
-677,437	-131,922	0,081	-0,008
-676,422	-200,000	0,012	-0,072
-675,408	-200,000	-0,042	0,162
-674,393	-200,000	-0,004	-0,078
-673,378	596,831	0,022	-0,041
-672,364	-79,576	-0,287	-0,071
-671,349	-22,897	-0,125	0,056
-670,335	70,158	-0,111	0,085
-669,320	-124,487	0,055	0,006
-668,305	-156,681	-0,134	-0,006
-667,291	-200,000	0,009	0,128
-666,276	-200,000	0,061	0,206
-665,262	386,334	-0,101	0,155
-664,247	-122,101	-0,111	-0,013
-663,232	582,059	-0,051	-0,092
-662,218	-83,342	0,088	-0,021
-661,203	35,480	0,007	0,005
-660,189	-51,849	0,056	-0,019
-659,174	29,463	-0,153	-0,096
-658,159	800,000	-0,058	0,161
-657,145	-50,300	-0,066	0,023
-656,130	-72,291	0,104	-0,028
-655,116	-159,227	0,047	-0,002
-654,101	134,763	0,035	-0,033
-653,086	-200,000	0,009	-0,063
-652,072	121,525	0,033	0,030
-651,057	800,000	-0,032	-0,074
-650,043	27,051	0,055	0,034
-649,028	47,156	-0,081	-0,055
-648,014	-200,000	-0,023	-0,078
-646,999	-200,000	-0,000	0,080
-645,984	800,000	0,031	-0,068
-644,970	17,022	-0,033	0,019
-643,955	800,000	-0,005	-0,016
-642,941	596,885	-0,026	-0,048
-641,926	-17,020	0,203	-0,095
-640,911	695,211	-0,064	0,126
-639,897	39,240	-0,046	0,030
-638,882	412,982	-0,021	0,033
-637,868	-200,000	0,028	0,105
-636,853	69,293	-0,069	-0,052
-635,838	-200,000	-0,035	-0,142
-634,824	245,113	-0,065	-0,081
-633,809	-5,546	-0,074	-0,037
-632,795	16,060	0,059	0,034
-631,780	101,387	0,048	0,041
-630,765	-200,000	0,003	-0,096
-629,751	46,387	-0,019	-0,013
-628,736	-81,646	0,079	-0,019
-627,722	-200,000	-0,017	-0,089
-626,707	256,548	0,064	0,082
-625,692	-200,000	-0,006	0,028
-624,678	15,609	-0,037	-0,022
-623,663	177,693	-0,031	0,034
-622,649	-54,607	-0,081	-0,027
-621,634	-40,370	-0,129	-0,049
-620,619	-62,470	-0,103	-0,031
-619,605	-200,000	0,017	-0,186
-618,590	258,759	0,060	0,077
-617,576	-200,000	-0,028	0,148
-616,561	-151,484	0,081	0,004
-615,546	800,000	-0,026	-0,058
-614,532	532,513	-0,121	-0,212
-613,517	-200,000	0,010	-0,065
-612,503	243,467	-0,125	-0,155
-611,488	-62,724	0,087	-0,026
-610,474	281,439	-0,045	-0,059
-609,459	-128,666	-0,112	0,012
-608,444	800,000	-0,032	-0,067
-607,430	134,561	-0,058	-0,056
-606,415	800,000	0,033	-0,087
-605,401	-19,749	0,074	0,034
-604,386	-200,000	0,019	-0,128
-603,371	-200,000	-0,015	0,090
-602,357	800,000	-0,016	0,040
-601,342	800,000	0,042	-0,115
-600,328	557,834	0,033	-0,059
-599,313	-47,356	-0,142	-0,051
-598,298	-200,000	-0,029	0,143
-597,284	440,975	0,052	0,084
-596,269	-75,355	-0,051	0,013
-595,255	722,551	-0,045	0,088
-594,240	332,500	-0,049	-0,070
-593,225	206,191	0,104	0,119
-592,211	40,685	0,102	0,068
-591,196	800,000	-0,010	-0,020
-590,182	322,378	-0,051	-0,072
-589,167	26,846	0,038	-0,023
-588,152	800,000	-0,023	0,048
-587,138	120,131	-0,052	-0,047
-586,123	-200,000	0,014	-0,145
-585,109	800,000	0,060	-0,126
-584,094	-200,000	-0,029	0,115
-583,079	-40,202	0,091	0,035
-582,065	-5,585	0,010	0,005
-581,050	-200,000	-0,039	0,156
-580,036	-109,028	-0,121	0,019
-579,021	74,727	0,124	-0,096
-578,006	133,301	-0,138	-0,132
-576,992	199,838	-0,107	-0,122
-575,977	10,760	-0,055	-0,031
-574,963	536,359	-0,036	0,063
-573,948	0,347	-0,076	0,040
-572,934	135,298	0,138	0,133
-571,919	207,280	-0,058	-0,067
-570,904	131,136	-0,065	0,061
-569,890	84,296	-0,096	-0,077
-568,875	223,551	0,036	0,042
-567,861	-89,131	0,061	0,013
-566,846	-24,137	0,103	0,045
-565,831	91,231	0,013	0,011
-564,817	-200,000	-0,010	-0,106
-563,802	147,336	-0,071	-0,070
-562,788	-200,000	-0,007	0,064
-561,773	108,323	0,072	-0,064
-560,758	33,973	-0,057	0,036
-559,744	-200,000	-0,036	0,119
-558,729	237,821	-0,034	0,042
-557,715	-3,450	-0,077	-0,039
-556,700	800,000	-0,040	0,096
-555,685	390,534	0,060	-0,093
-554,671	396,252	-0,068	0,105
-553,656	171,736	0,040	0,042
-552,642	-83,380	0,068	0,016
-551,627	800,000	0,023	0,058
-550,612	-200,000	0,003	-0,042
-549,598	-97,753	0,110	0,021
-548,583	-200,000	-0,014	-0,110
-547,569	2,109	-0,128	-0,068
-546,554	-79,374	0,049	-0,012
-545,539	-153,415	0,046	-0,002
-544,525	-200,000	0,002	0,022
-543,510	-108,814	-0,055	-0,009
-542,496	-170,148	-0,156	0,004
-541,481	-200,000	-0,002	0,067
-540,466	277,179	0,040	-0,053
-539,452	-200,000	0,008	-0,077
-538,437	-36,966	-0,122	-0,048
-537,423	800,000	0,047	0,147
-536,408	-200,000	0,001	-0,073
-535,393	-200,000	-0,019	-0,107
-534,379	221,381	0,021	-0,025
-533,364	124,548	0,043	-0,040
-532,350	-130,660	0,014	-0,001
-531,335	-104,660	0,047	0,008
-530,321	593,335	-0,080	0,147
-529,306	-7,697	-0,045	-0,022
-528,291	800,000	-0,050	-0,161
-527,277	-200,000	-0,015	-0,085
-526,262	122,889	0,069	0,064
-525,248	-200,000	0,023	0,097
-524,233	-200,000	0,005	0,123
-523,218	-200,000	-0,027	0,192
-522,204	324,953	0,047	-0,067
-521,189	113,347	0,028	-0,025
-520,175	10,888	-0,125	0,070
-519,160	-26,983	-0,056	-0,024
-518,145	-200,000	-0,033	0,108
-517,131	24,428	-0,075	-0,046
-516,116	-29,046	0,189	-0,080
-515,102	800,000	-0,071	0,198
-514,087	800,000	-0,006	0,018
-513,072	19,554	-0,064	-0,038
-512,058	120,759	-0,045	0,041
-511,043	565,023	0,044	0,079
-510,029	-200,000	0,004	0,110
-509,014	-200,000	-0,015	-0,063
-507,999	-200,000	0,008	-0,057
-506,985	-200,000	-0,018	-0,081
-505,970	-200,000	-0,031	0,123
-504,956	-159,147	0,043	0,002
-503,941	278,681	-0,069	0,091
-502,926	800,000	0,018	-0,041
-501,912	-17,605	0,085	-0,039
-500,897	59,122	-0,054	-0,039
-499,883	-43,142	-0,104	-0,039
-498,868	-83,599	-0,088	-0,020
-497,853	170,715	-0,060	0,064
-496,839	758,498	0,089	-0,178
-495,824	288,388	-0,048	-0,064
-494,810	-6,397	-0,044	0,022
-493,795	11,629	0,112	0,063
-492,781	-200,000	-0,013	-0,115
-491,766	77,271	-0,102	-0,080
-490,751	159,210	0,048	-0,050
-489,737	-200,000	0,005	-0,059
-488,722	77,717	-0,052	0,041
-487,708	-200,000	0,012	0,052
-486,693	41,817	0,033	0,022
-485,678	-200,000	0,011	-0,052
-484,664	800,000	-0,055	-0,114
-483,649	-27,973	-0,034	0,014
-482,635	197,633	0,010	-0,012
-481,620	-143,606	-0,072	0,005
-480,605	-80,064	0,100	-0,024
-479,591	-73,185	-0,079	-0,021
-478,576	800,000	0,043	0,120
-477,562	98,443	-0,053	-0,045
-476,547	800,000	-0,097	-0,218
-475,532	126,521	-0,071	-0,066
-474,518	800,000	-0,018	-0,039
-473,503	-200,000	0,004	0,021
-472,489	-200,000	-0,024	0,158
-471,474	686,795	0,043	0,083
-470,459	164,170	-0,017	0,018
-469,445	-1,823	0,056	0,029
-468,430	219,501	0,023	0,027
-467,416	-53,541	0,113	0,038
-466,401	52,775	-0,068	0,048
-465,386	87,953	0,101	0,082
-464,372	48,087	0,045	0,031
-463,357	-200,000	0,028	-0,094
-462,343	-200,000	-0,001	-0,056
-461,328	124,321	-0,096	-0,088
-460,313	96,500	-0,014	0,012
-459,299	-55,625	-0,099	0,032
-458,284	281,656	0,136	0,180
-457,270	-200,000	0,009	-0,033
-456,255	330,709	0,033	0,047
-455,241	-179,025	-0,081	-0,001
-454,226	-114,898	-0,061	-0,008
-453,211	-39,648	0,071	-0,027
-452,197	-200,000	-0,013	-0,064
-451,182	20,036	0,077	0,046
-450,168	-20,718	0,048	0,022
-449,153	-65,895	-0,130	-0,038
-448,138	402,702	0,019	0,029
-447,124	-28,058	0,068	0,029
-446,109	136,537	-0,043	0,041
-445,095	-200,000	0,022	0,081
-444,080	800,000	0,005	0,016
-443,065	800,000	0,011	0,030
-442,051	-200,000	-0,005	0,165
-441,036	800,000	-0,030	0,086
-440,022	800,000	-0,018	0,042
-439,007	-200,000	-0,002	0,064
-437,992	315,375	0,028	-0,039
-436,978	108,228	-0,016	0,014
-435,963	343,652	-0,055	-0,080
-434,949	800,000	-0,017	-0,049
-433,934	243,991	-0,082	-0,101
-432,919	9,680	-0,104	-0,058
-431,905	-200,000	0,016	-0,065
-430,890	-200,000	-0,030	0,133
-429,876	800,000	0,040	0,099
-428,861	-61,327	-0,121	-0,037
-427,846	448,610	-0,045	-0,073
-426,832	800,000	0,002	0,005
-425,817	-178,461	-0,099	0,002
-424,803	127,411	0,058	-0,054
-423,788	-20,843	0,102	-0,046
-422,773	-157,270	0,126	0,005
-421,759	-30,033	-0,039	-0,016
-420,744	168,318	0,071	0,075
-419,730	791,624	-0,054	-0,109
-418,715	104,965	-0,079	-0,069
-417,701	73,824	0,105	-0,081
-416,686	-130,736	-0,128	-0,012
-415,671	1,040	0,113	0,059
-414,657	-94,734	-0,103	0,020
-413,642	555,063	-0,047	0,083
-412,628	107,555	-0,093	-0,081
-411,613	64,531	-0,102	-0,076
-410,598	-200,000	-0,011	-0,050
-409,584	-72,794	-0,084	0,023
-408,569	800,000	0,050	0,162
-407,555	319,087	0,018	0,025
-406,540	52,169	0,070	0,049
-405,525	190,059	-0,094	-0,104
-404,511	407,344	-0,033	-0,051
-403,496	1,225	0,119	-0,063
-402,482	800,000	-0,076	0,218
-401,467	51,761	0,119	-0,083
-400,452	800,000	-0,064	-0,135
-399,438	-37,962	0,111	0,043
-398,423	-200,000	0,019	0,083
-397,409	-91,028	0,021	0,004
-396,394	-200,000	-0,019	-0,166
-395,379	-20,931	0,099	0,044
-394,365	79,822	0,129	0,102
-393,350	132,245	0,046	0,044
-392,336	4,155	-0,060	0,032
-391,321	494,163	0,057	-0,096
-390,306	-200,000	0,018	-0,104
-389,292	187,257	-0,080	0,087
-388,277	-200,000	-0,010	-0,085
-387,263	-200,000	0,009	-0,104
-386,248	-200,000	-0,014	-0,092
-385,233	800,000	-0,077	0,197
-384,219	12,350	-0,224	-0,126
-383,204	-200,000	0,064	0,000
-382,190	-200,000	0,014	0,066
-381,175	800,000	0,026	-0,084
-380,160	-106,691	0,170	0,027
-379,146	177,949	-0,038	0,041
-378,131	-200,000	-0,003	-0,033
-377,117	800,000	-0,025	0,063
-376,102	800,000	0,043	0,125
-375,088	96,053	-0,021	0,017
-374,073	124,353	-0,048	-0,044
-373,058	-200,000	0,002	0,027
-372,044	2,807	0,057	-0,030
-371,029	227,318	0,037	0,044
-370,015	-6,338	0,062	-0,031
-369,000	800,000	-0,048	0,121
-367,985	-129,129	0,003	-0,000
-366,971	-96,212	0,038	0,007
-365,956	800,000	-0,046	0,112
-364,942	18,380	0,069	-0,041
-363,927	585,879	-0,043	-0,077
-362,912	-12,977	-0,181	0,086
-361,898	-173,021	0,078	-0,002
-360,883	36,661	-0,018	0,012
-359,869	-200,000	0,019	0,067
-358,854	80,145	0,169	0,133
-357,839	35,833	-0,037	0,024
-356,825	-200,000	0,002	-0,015
-355,810	295,186	0,087	-0,116
-354,796	103,341	-0,045	0,039
-353,781	24,979	-0,080	-0,049
-352,766	800,000	-0,026	-0,085
-351,752	800,000	-0,010	0,025
-350,737	-127,670	0,069	0,007
-349,723	305,478	0,064	0,087
-348,708	800,000	0,034	-0,088
-347,693	113,131	0,087	-0,077
-346,679	459,163	-0,031	0,051
-345,664	-4,690	0,061	-0,031
-344,650	-200,000	-0,020	0,115
-343,635	88,356	0,052	0,042
-342,620	1,385	0,035	0,018
-341,606	-200,000	0,010	-0,100
-340,591	73,838	0,025	-0,020
-339,577	800,000	0,029	-0,072
-338,562	6,425	0,034	-0,019
-337,548	-200,000	-0,009	-0,061
-336,533	212,081	-0,109	0,126
-335,518	-149,503	0,082	-0,005
-334,504	-179,426	0,133	0,002
-333,489	209,027	0,075	-0,086
-332,475	212,837	-0,085	-0,098
-331,460	177,570	-0,102	0,108
-330,445	-200,000	0,021	-0,077
-329,431	287,932	0,029	0,038
-328,416	-173,601	0,047	0,001
-327,402	224,660	0,056	-0,066
-326,387	268,770	0,044	-0,057
-325,372	-200,000	0,026	0,090
-324,358	312,201	0,074	0,102
-323,343	123,287	-0,079	-0,072
-322,329	328,676	0,068	0,095
-321,314	158,356	0,117	0,119
-320,299	-145,698	-0,032	0,002
-319,285	-110,426	0,082	-0,012
-318,270	129,809	-0,018	0,017
-317,256	-130,528	-0,044	0,004
-316,241	-12,935	0,030	-0,014
-315,226	-200,000	-0,008	-0,037
-314,212	-85,299	0,106	-0,024
-313,197	800,000	0,044	0,098
-312,183	-15,478	-0,007	0,003
-311,168	9,246	0,119	0,066
-310,153	-200,000	-0,024	-0,080
-309,139	-122,809	-0,104	-0,012
-308,124	-164,397	0,136	0,004
-307,110	477,434	0,022	0,037
-306,095	136,539	0,045	-0,043
-305,080	800,000	0,045	0,109
-304,066	-79,473	-0,080	-0,020
-303,051	-200,000	0,005	-0,036
-302,037	567,923	-0,047	-0,083
-301,022	-11,926	-0,068	-0,033
-300,008	-200,000	0,022	-0,111
-298,993	38,230	-0,068	0,044
-297,978	-41,642	-0,073	0,027
-296,964	-200,000	-0,026	-0,102
-295,949	800,000	-0,004	-0,009
-294,935	38,852	-0,108	-0,071
-293,920	-200,000	0,036	-0,118
-292,905	-153,283	0,077	0,004
-291,891	225,899	-0,013	-0,015
-290,876	-200,000	-0,022	0,071
-289,862	800,000	0,042	0,099
-288,847	800,000	-0,055	-0,114
-287,832	-44,789	0,180	0,065
-286,818	800,000	0,020	0,051
-285,803	-200,000	0,002	-0,046
-284,789	800,000	0,052	0,123
-283,774	-200,000	0,021	0,156
-282,759	-200,000	0,007	-0,038
-281,745	-27,029	0,123	-0,052
-280,730	-170,207	-0,115	0,003
-279,716	44,061	0,035	0,024
-278,701	-100,113	-0,033	-0,006
-277,686	541,259	0,045	-0,078
-276,672	800,000	0,027	0,055
-275,657	365,002	0,018	-0,027
-274,643	-49,524	0,055	-0,019
-273,628	-82,673	-0,133	-0,031
-272,613	-81,456	0,131	0,031
-271,599	-127,735	0,120	-0,012
-270,584	-132,194	-0,027	0,002
-269,570	-200,000	-0,042	0,170
-268,555	367,128	-0,046	-0,068
-267,540	-64,468	-0,146	0,043
-266,526	-200,000	-0,001	0,043
-265,511	-155,611	0,099	0,005
-264,497	800,000	0,053	0,119
-263,482	111,838	-0,062	-0,055
-262,467	456,185	0,064	0,104
-261,453	-135,205	0,053	0,005
-260,438	-13,329	-0,119	-0,056
-259,424	726,913	0,026	-0,051
-258,409	-118,321	-0,101	-0,013
-257,395	-53,390	0,159	0,053
-256,380	-106,720	0,054	0,009
-255,365	-200,000	0,007	0,030
-254,351	737,769	-0,030	0,059
-253,336	-111,790	0,022	0,003
-252,322	-200,000	0,005	-0,070
-251,307	71,858	0,016	-0,012
-250,292	284,981	-0,098	-0,129
-249,278	-6,484	0,081	0,040
-248,263	-200,000	-0,009	0,133
-247,249	225,769	-0,034	-0,040
-246,234	284,473	-0,048	0,063
-245,219	-128,249	-0,059	-0,006
-244,205	121,255	0,105	-0,095
-243,190	10,845	0,020	0,011
-242,176	171,655	0,101	-0,106
-241,161	800,000	-0,015	0,041
-240,146	106,789	0,035	-0,030
-239,132	800,000	-0,095	0,240
-238,117	-38,878	0,152	0,058
-237,103	-71,440	-0,246	-0,067
-236,088	232,098	0,039	-0,046
-235,073	-80,769	0,233	-0,056
-234,059	-200,000	0,019	-0,092
-233,044	126,490	-0,043	0,040
-232,030	217,255	-0,086	-0,100
-231,015	-200,000	-0,028	-0,154
-230,000	-103,761	-0,109	-0,018
-228,986	66,603	-0,045	-0,033
-227,971	-200,000	-0,017	0,096
-226,957	27,853	0,077	-0,047
-225,942	-61,108	0,047	-0,014
-224,927	-200,000	-0,011	0,144
-223,913	132,576	-0,048	0,045
-222,898	117,126	-0,077	0,069
-221,884	800,000	0,012	0,028
-220,869	-200,000	-0,027	0,149
-219,855	391,040	0,094	0,142
-218,840	381,662	0,054	0,080
-217,825	7,887	0,082	0,045
-216,811	-200,000	-0,009	0,111
-215,796	-40,922	0,161	0,060
-214,782	-83,983	0,032	-0,007
-213,767	269,537	-0,015	0,020
-212,752	146,751	-0,005	0,005
-211,738	-113,701	0,049	0,007
-210,723	23,540	-0,022	0,013
-209,709	-63,920	0,037	-0,011
-208,694	86,233	-0,004	0,003
-207,679	-200,000	0,001	-0,033
-206,665	800,000	-0,026	-0,060
-205,650	800,000	0,030	0,083
-204,636	-143,907	0,087	-0,006
-203,621	-56,520	0,059	0,019
-202,606	800,000	-0,045	-0,098
-201,592	92,169	-0,099	-0,081
-200,577	3,462	0,091	-0,048
-199,563	-200,000	-0,010	-0,063
-198,548	-110,544	0,093	-0,014
-197,533	-129,830	-0,043	-0,004
-196,519	-113,145	0,123	0,018
-195,504	583,399	-0,066	-0,119
-194,490	-90,582	0,067	0,014
-193,475	800,000	-0,013	0,040
-192,460	-22,625	-0,026	-0,011
-191,446	-69,353	0,065	0,018
-190,431	-200,000	-0,019	0,066
-189,417	-200,000	0,044	0,245
-188,402	-128,673	0,040	0,004
-187,387	299,513	-0,043	-0,058
-186,373	-93,157	0,067	0,013
-185,358	800,000	0,012	0,035
-184,344	800,000	0,038	0,091
-183,329	-200,000	-0,034	0,135
-182,315	-92,426	0,037	0,007
-181,300	800,000	0,013	-0,030
-180,285	-125,781	-0,135	-0,015
-179,271	-200,000	-0,057	-0,228
-178,256	-200,000	0,018	-0,113
-177,242	69,752	0,022	0,017
-176,227	-167,256	-0,085	-0,002
-175,212	92,993	-0,037	0,031
-174,198	95,705	-0,087	0,072
-173,183	176,462	0,043	-0,045
-172,169	170,260	0,017	0,018
-171,154	44,632	-0,102	-0,068
-170,139	-200,000	0,009	-0,043
-169,125	256,176	0,092	-0,115
-168,110	-200,000	-0,026	0,097
-167,096	-41,192	-0,047	0,018
-166,081	-200,000	-0,010	-0,068
-165,066	-200,000	0,004	-0,085
-164,052	-141,181	-0,204	0,015
-163,037	800,000	-0,011	0,027
-162,023	-200,000	0,025	0,112
-161,008	517,212	0,049	0,083
-159,993	14,106	0,090	0,051
-158,979	-200,000	-0,011	0,045
-157,964	-43,338	0,049	0,018
-156,950	800,000	-0,052	-0,162
-155,935	-69,313	0,073	-0,020
-154,920	-52,314	0,130	0,043
-153,906	800,000	0,048	0,122
-152,891	800,000	0,054	-0,140
-151,877	-107,460	0,108	0,017
-150,862	800,000	0,034	0,071
-149,847	-200,000	0,020	-0,196
-148,833	132,849	0,002	-0,002
-147,818	-200,000	-0,033	0,119
-146,804	-200,000	0,016	-0,098
-145,789	773,975	0,020	-0,040
-144,775	495,798	0,041	-0,068
-143,760	116,255	0,060	-0,053
-142,745	210,068	0,052	0,059
-141,731	725,228	0,023	-0,044
-140,716	-96,815	0,054	0,010
-139,702	-172,535	0,093	0,002
-138,687	-136,966	0,055	0,005
-137,672	-200,000	0,007	0,024
-136,658	-200,000	-0,011	-0,185
-135,643	549,213	0,041	0,072
-134,629	800,000	-0,015	0,032
-133,614	382,831	0,055	0,082
-132,599	-82,240	0,114	-0,027
-131,585	74,499	0,126	0,096
-130,570	-200,000	0,049	0,163
-129,556	-200,000	0,000	-0,019
-128,541	765,827	-0,039	0,078
-127,526	-81,929	0,087	-0,021
-126,512	-50,940	-0,022	-0,007
-125,497	70,684	0,073	-0,055
-124,483	432,514	0,029	0,045
-123,468	-200,000	-0,028	0,127
-122,453	-200,000	0,013	-0,061
-121,439	800,000	-0,034	-0,078
-120,424	183,196	-0,054	-0,058
-119,410	328,105	-0,023	0,032
