DTS Sentinel unit serial number:	SN410029Multiplexer serial number:	ORYXHardware model number:	OX2-SRSoftware version number:	ORYX F/W v4,00 Oryx Data Collector v3.7.2.0data status	okinstallation	B6 Nyhavnadifferential loss correction	single-endedforward channel	channel 2reverse channel	N/Adate	2023/12/10time	11:50:08forward acquisition time	300,00reverse acquisition time	0,00gamma	499,1914k internal	0,3122k external	0,3122temperature offset calibration	1,0000default loss term (dB/km)	0,3820temperature slope calibration	1,0000multiplexer offset coefficient	1,0000multiplexer slope coefficient	1,0000fibre end	0,00T internal ref (°C)	22,70T ext. ref 1 (°C)	6,62T ext. ref 2 (°C)	6,60length (m)	temperature (°C)	Stokes	anti-Stokes-744,400	-37,182	0,067	-0,026
-743,385	-44,593	-0,160	0,059
-742,371	800,000	0,039	0,089
-741,356	-86,747	-0,223	0,051
-740,342	-200,000	0,022	0,095
-739,327	-20,496	-0,218	0,099
-738,312	365,111	0,085	-0,128
-737,298	-109,838	-0,260	0,040
-736,283	-200,000	0,011	-0,056
-735,269	-200,000	-0,034	0,152
-734,254	-121,880	0,042	0,005
-733,239	-171,009	-0,410	-0,010
-732,225	316,849	0,136	0,192
-731,210	52,400	0,106	-0,076
-730,196	188,055	0,097	-0,108
-729,181	-36,974	-0,109	0,043
-728,167	47,865	0,029	0,020
-727,152	-200,000	0,003	-0,128
-726,137	28,019	-0,084	-0,052
-725,123	-200,000	0,014	-0,059
-724,108	-200,000	-0,034	-0,220
-723,094	800,000	-0,046	-0,100
-722,079	533,607	-0,069	-0,122
-721,064	244,543	-0,083	0,105
-720,050	-15,056	0,077	-0,037
-719,035	118,751	-0,065	-0,060
-718,021	-200,000	0,000	0,124
-717,006	-161,460	-0,127	-0,005
-715,991	147,769	-0,037	-0,037
-714,977	418,625	-0,088	-0,141
-713,962	-200,000	-0,007	-0,063
-712,948	310,023	-0,038	0,053
-711,933	-200,000	0,000	-0,080
-710,918	-200,000	0,022	0,087
-709,904	-8,573	-0,024	0,012
-708,889	210,673	0,078	-0,091
-707,875	-28,390	0,081	-0,035
-706,860	-200,000	0,004	0,062
-705,845	103,292	0,055	0,048
-704,831	-15,902	0,060	-0,029
-703,816	-200,000	0,011	-0,146
-702,802	800,000	-0,042	-0,095
-701,787	-89,774	-0,141	0,031
-700,772	-82,406	-0,066	0,016
-699,758	-200,000	-0,016	0,086
-698,743	-200,000	0,057	0,188
-697,729	11,182	0,058	0,033
-696,714	800,000	-0,080	0,173
-695,699	112,811	0,051	-0,046
-694,685	150,129	-0,042	-0,042
-693,670	28,704	-0,148	-0,093
-692,656	-200,000	-0,013	-0,095
-691,641	-9,285	-0,004	-0,002
-690,627	800,000	0,041	-0,124
-689,612	-32,241	-0,029	-0,012
-688,597	-22,950	-0,170	0,076
-687,583	192,368	-0,035	-0,040
-686,568	-114,746	-0,117	-0,016
-685,554	260,661	-0,016	-0,020
-684,539	-200,000	-0,003	0,124
-683,524	10,726	0,021	0,012
-682,510	539,583	0,033	0,058
-681,495	800,000	-0,037	-0,092
-680,481	172,073	-0,071	-0,076
-679,466	-200,000	-0,028	-0,098
-678,451	218,834	-0,016	-0,020
-677,437	686,567	-0,009	0,018
-676,422	245,215	-0,059	0,074
-675,408	-20,876	0,034	0,015
-674,393	-6,136	-0,097	0,049
-673,378	168,725	-0,127	-0,135
-672,364	-12,126	-0,017	-0,008
-671,349	-200,000	-0,005	0,022
-670,335	-63,760	-0,029	-0,009
-669,320	-200,000	-0,002	0,125
-668,305	307,100	0,080	0,112
-667,291	-14,967	-0,085	0,040
-666,276	-72,206	0,099	0,027
-665,262	259,935	-0,059	-0,076
-664,247	-200,000	0,006	-0,033
-663,232	-200,000	0,002	0,014
-662,218	-48,125	0,125	0,045
-661,203	12,094	-0,033	-0,019
-660,189	-89,003	-0,071	0,015
-659,174	-190,111	-0,187	0,002
-658,159	-200,000	-0,029	0,144
-657,145	508,056	0,032	0,055
-656,130	-55,784	-0,089	0,029
-655,116	41,347	0,084	0,057
-654,101	800,000	0,028	0,080
-653,086	258,997	0,011	-0,014
-652,072	-200,000	-0,006	-0,040
-651,057	-18,595	0,036	0,017
-650,043	14,774	0,028	0,016
-649,028	462,348	0,057	0,095
-648,014	-29,476	0,097	-0,041
-646,999	-12,431	0,106	0,051
-645,984	-37,844	-0,078	0,031
-644,970	68,854	-0,108	-0,082
-643,955	-85,534	-0,130	0,030
-642,941	-200,000	0,044	-0,182
-641,926	-200,000	0,000	0,077
-640,911	-200,000	0,026	0,085
-639,897	-200,000	0,025	0,088
-638,882	110,483	0,042	-0,037
-637,868	107,052	-0,029	0,025
-636,853	800,000	-0,060	-0,170
-635,838	192,875	-0,075	-0,085
-634,824	355,171	0,012	-0,018
-633,809	-57,802	0,058	-0,019
-632,795	-104,027	0,082	0,014
-631,780	507,489	0,011	0,018
-630,765	-200,000	0,042	-0,182
-629,751	18,013	0,061	-0,036
-628,736	-200,000	0,001	-0,091
-627,722	124,290	0,054	-0,051
-626,707	35,561	0,074	0,048
-625,692	-170,381	0,128	-0,003
-624,678	72,170	-0,148	0,114
-623,663	417,491	-0,018	-0,028
-622,649	-91,003	-0,072	-0,015
-621,634	800,000	0,018	-0,050
-620,619	-1,945	-0,093	-0,049
-619,605	800,000	-0,044	-0,092
-618,590	29,992	0,050	0,032
-617,576	10,376	-0,136	-0,077
-616,561	800,000	-0,036	-0,084
-615,546	-200,000	-0,029	-0,107
-614,532	137,999	-0,101	-0,098
-613,517	-200,000	0,030	0,112
-612,503	-200,000	0,018	0,097
-611,488	-200,000	0,003	0,057
-610,474	-156,339	0,045	-0,002
-609,459	425,783	0,045	0,071
-608,444	-200,000	0,007	-0,101
-607,430	10,087	-0,110	-0,062
-606,415	776,426	0,016	-0,033
-605,401	-176,263	0,093	-0,002
-604,386	-84,141	-0,052	-0,012
-603,371	653,566	0,094	0,179
-602,357	431,272	-0,053	0,086
-601,342	-137,458	-0,061	0,005
-600,328	206,712	-0,115	-0,133
-599,313	-146,164	-0,090	-0,006
-598,298	47,313	0,107	-0,073
-597,284	278,706	0,100	0,132
-596,269	186,077	0,058	0,064
-595,255	480,444	0,059	0,100
-594,240	735,971	-0,056	0,112
-593,225	188,485	0,058	0,064
-592,211	-73,587	-0,070	0,019
-591,196	800,000	-0,026	0,067
-590,182	532,363	-0,019	-0,033
-589,167	160,188	0,073	0,075
-588,152	47,648	-0,112	0,077
-587,138	-200,000	-0,007	0,085
-586,123	-2,816	0,132	-0,068
-585,109	-151,463	0,032	-0,002
-584,094	106,054	0,036	-0,032
-583,079	102,531	-0,069	-0,060
-582,065	221,649	-0,111	-0,133
-581,050	27,619	0,071	0,044
-580,036	800,000	-0,022	-0,072
-579,021	-200,000	0,014	-0,188
-578,006	-200,000	-0,013	-0,075
-576,992	-173,069	-0,137	-0,003
-575,977	-120,929	0,060	0,007
-574,963	62,267	0,037	-0,028
-573,948	-143,905	-0,104	-0,007
-572,934	-104,159	0,065	-0,011
-571,919	-113,839	-0,076	-0,011
-570,904	800,000	0,068	0,152
-569,890	109,980	-0,086	-0,076
-568,875	74,417	-0,096	-0,075
-567,861	-9,286	-0,153	0,075
-566,846	-200,000	0,010	0,047
-565,831	-115,294	0,145	0,020
-564,817	-102,938	-0,086	-0,015
-563,802	493,100	-0,030	-0,052
-562,788	35,486	-0,072	0,047
-561,773	191,391	-0,050	0,055
-560,758	-27,787	0,080	-0,034
-559,744	-200,000	-0,040	-0,154
-558,729	-91,496	0,092	0,019
-557,715	-200,000	0,007	-0,042
-556,700	445,902	-0,038	-0,062
-555,685	-59,117	0,057	0,018
-554,671	398,039	-0,082	0,127
-553,656	-200,000	0,034	0,112
-552,642	-200,000	-0,005	0,027
-551,627	-40,563	-0,126	0,048
-550,612	609,409	-0,054	0,100
-549,598	-200,000	-0,008	0,091
-548,583	204,262	-0,025	-0,028
-547,569	122,271	0,058	0,054
-546,554	-200,000	0,020	0,082
-545,539	112,814	0,045	0,041
-544,525	800,000	0,026	0,079
-543,510	-66,834	-0,169	-0,049
-542,496	-200,000	-0,006	-0,035
-541,481	624,846	-0,046	-0,086
-540,466	-10,316	0,016	0,008
-539,452	51,638	0,061	-0,043
-538,437	-200,000	-0,034	0,152
-537,423	-200,000	-0,021	0,074
-536,408	162,240	-0,095	-0,098
-535,393	23,413	-0,035	-0,021
-534,379	-102,205	-0,038	0,007
-533,364	-49,317	-0,079	-0,028
-532,350	-200,000	0,002	-0,029
-531,335	-161,971	0,079	0,003
-530,321	-112,513	-0,018	-0,003
-529,306	-200,000	-0,013	0,055
-528,291	575,206	-0,080	-0,144
-527,277	18,132	-0,134	-0,079
-526,262	-200,000	-0,001	0,064
-525,248	126,005	-0,049	-0,045
-524,233	-200,000	0,038	0,125
-523,218	-32,676	0,098	0,040
-522,204	-26,962	0,028	0,012
-521,189	550,709	-0,023	0,040
-520,175	75,960	-0,006	0,005
-519,160	36,295	0,130	0,084
-518,145	-147,172	0,106	0,007
-517,131	800,000	-0,029	-0,063
-516,116	29,014	-0,142	-0,089
-515,102	61,274	-0,083	0,061
-514,087	396,077	-0,041	-0,063
-513,072	-200,000	0,017	-0,110
-512,058	375,977	0,020	-0,030
-511,043	-25,996	0,138	-0,060
-510,029	800,000	-0,013	0,035
-509,014	-115,077	-0,030	0,004
-507,999	444,028	-0,051	-0,083
-506,985	27,618	-0,066	0,041
-505,970	-127,517	-0,080	-0,008
-504,956	-134,602	-0,027	0,002
-503,941	-100,244	0,141	0,026
-502,926	-200,000	0,006	0,022
-501,912	21,637	0,039	0,023
-500,897	200,178	-0,048	-0,055
-499,883	290,550	-0,028	0,038
-498,868	136,782	0,072	0,070
-497,853	800,000	-0,100	-0,209
-496,839	401,504	-0,065	-0,102
-495,824	-200,000	-0,004	0,015
-494,810	800,000	-0,036	0,107
-493,795	-10,144	0,053	-0,026
-492,781	405,230	-0,035	0,055
-491,766	-145,329	-0,079	0,005
-490,751	42,471	-0,100	-0,067
-489,737	196,343	0,070	0,079
-488,722	-38,120	-0,033	0,013
-487,708	-200,000	0,011	0,184
-486,693	318,326	-0,099	0,139
-485,678	337,336	0,083	0,120
-484,664	-62,816	-0,007	0,002
-483,649	84,166	-0,082	0,066
-482,635	800,000	-0,063	0,178
-481,620	-42,543	0,145	0,054
-480,605	-181,903	-0,070	0,001
-479,591	-54,270	-0,137	0,046
-478,576	54,549	-0,160	-0,114
-477,562	800,000	-0,024	0,069
-476,547	155,934	-0,032	0,033
-475,532	401,750	-0,023	-0,036
-474,518	300,665	-0,069	0,094
-473,503	338,879	0,011	-0,015
-472,489	-61,863	0,156	-0,048
-471,474	2,945	0,085	0,045
-470,459	576,393	-0,060	0,109
-469,445	402,877	-0,053	0,083
-468,430	640,153	0,038	-0,071
-467,416	-200,000	0,002	0,010
-466,401	-200,000	-0,019	0,116
-465,386	-145,253	-0,055	-0,004
-464,372	574,561	-0,020	0,036
-463,357	-108,964	-0,072	-0,011
-462,343	162,729	-0,050	-0,052
-461,328	55,795	0,028	-0,020
-460,313	302,795	-0,019	-0,027
-459,299	-7,850	0,043	-0,021
-458,284	-200,000	0,018	0,068
-457,270	121,887	0,138	0,127
-456,255	-200,000	-0,020	0,134
-455,241	289,982	0,057	-0,076
-454,226	800,000	0,014	-0,037
-453,211	38,368	-0,116	-0,076
-452,197	8,767	0,093	0,052
-451,182	-87,792	0,085	-0,019
-450,168	142,512	-0,019	0,019
-449,153	-200,000	-0,004	-0,019
-448,138	-200,000	-0,032	-0,120
-447,124	-200,000	-0,008	-0,094
-446,109	800,000	-0,024	-0,056
-445,095	166,960	0,061	-0,064
-444,080	-200,000	-0,002	0,020
-443,065	76,116	0,097	0,075
-442,051	-3,075	0,090	-0,046
-441,036	-139,003	-0,015	0,001
-440,022	763,694	-0,042	-0,085
-439,007	-200,000	0,027	0,090
-437,992	3,228	-0,040	-0,021
-436,978	330,012	0,064	0,091
-435,963	368,964	0,059	0,088
-434,949	-200,000	0,014	-0,065
-433,934	-200,000	0,000	-0,187
-432,919	599,932	-0,071	-0,130
-431,905	282,428	-0,083	-0,110
-430,890	614,134	-0,055	-0,102
-429,876	628,611	0,076	-0,142
-428,861	221,885	-0,109	-0,129
-427,846	-68,926	0,068	0,019
-426,832	-200,000	-0,014	-0,145
-425,817	266,449	0,044	-0,056
-424,803	-200,000	-0,052	-0,193
-423,788	-200,000	0,023	-0,099
-422,773	-56,550	0,152	0,049
-421,759	800,000	0,035	0,106
-420,744	2,493	0,077	0,041
-419,730	800,000	0,015	0,044
-418,715	20,389	0,108	-0,064
-417,701	63,971	-0,013	-0,010
-416,686	-200,000	-0,004	0,172
-415,671	27,445	0,016	0,010
-414,657	-200,000	-0,013	0,066
-413,642	93,310	-0,092	0,076
-412,628	800,000	0,027	-0,070
-411,613	318,161	-0,075	-0,105
-410,598	71,047	0,051	-0,039
-409,584	138,625	0,056	-0,054
-408,569	-200,000	0,016	0,177
-407,555	763,924	-0,025	0,050
-406,540	23,725	0,142	0,086
-405,525	-39,410	-0,053	-0,020
-404,511	551,611	0,032	0,056
-403,496	8,422	0,029	0,016
-402,482	462,601	0,059	0,098
-401,467	134,290	0,041	-0,039
-400,452	800,000	-0,015	0,048
-399,438	14,058	0,074	-0,042
-398,423	-200,000	-0,007	-0,101
-397,409	131,589	-0,097	-0,092
-396,394	80,076	-0,053	-0,042
-395,379	219,594	0,062	0,074
-394,365	-200,000	0,068	-0,232
-393,350	70,677	0,134	0,102
-392,336	172,226	-0,041	0,044
-391,321	278,896	-0,055	-0,073
-390,306	-200,000	-0,007	-0,101
-389,292	-114,394	-0,116	0,016
-388,277	84,390	0,096	-0,078
-387,263	-21,271	0,077	-0,035
-386,248	-41,051	0,041	0,015
-385,233	218,854	0,025	-0,030
-384,219	800,000	0,052	0,159
-383,204	-14,234	0,021	0,010
-382,190	-200,000	-0,004	0,074
-381,175	-19,288	0,120	0,055
-380,160	-156,428	0,140	-0,006
-379,146	-103,544	0,037	0,006
-378,131	-200,000	-0,013	-0,100
-377,117	800,000	-0,020	-0,050
-376,102	-200,000	-0,014	-0,051
-375,088	130,121	-0,074	-0,070
-374,073	5,852	-0,068	-0,037
-373,058	-0,538	0,047	0,024
-372,044	95,696	-0,030	-0,025
-371,029	-200,000	0,022	-0,108
-370,015	-200,000	0,023	-0,133
-369,000	-25,263	-0,088	0,038
-367,985	586,548	0,034	0,062
-366,971	-200,000	0,011	0,100
-365,956	-89,026	-0,134	0,029
-364,942	-200,000	-0,001	0,074
-363,927	-200,000	0,001	-0,059
-362,912	541,405	0,061	0,107
-361,898	-109,359	-0,079	-0,012
-360,883	347,559	-0,048	0,070
-359,869	168,019	0,027	-0,028
-358,854	-200,000	0,000	0,026
-357,839	-200,000	0,020	0,098
-356,825	800,000	0,062	0,128
-355,810	441,592	0,018	0,030
-354,796	800,000	0,041	0,088
-353,781	-146,456	-0,136	-0,009
-352,766	56,681	0,071	-0,051
-351,752	-50,124	-0,014	0,005
-350,737	-200,000	-0,012	0,125
-349,723	-200,000	0,008	-0,080
-348,708	800,000	-0,021	-0,053
-347,693	800,000	-0,031	-0,088
-346,679	-200,000	-0,019	0,113
-345,664	-59,772	-0,100	0,031
-344,650	800,000	-0,056	0,131
-343,635	800,000	0,002	-0,006
-342,620	-19,111	0,127	0,058
-341,606	-170,524	0,010	-0,000
-340,591	800,000	-0,031	-0,080
-339,577	612,417	0,021	-0,039
-338,562	-42,346	-0,154	-0,057
-337,548	-61,126	-0,131	-0,040
-336,533	800,000	0,043	0,097
-335,518	-42,450	0,054	-0,020
-334,504	77,860	0,115	0,090
-333,489	800,000	0,045	-0,126
-332,475	237,038	0,047	0,058
-331,460	503,896	0,049	-0,084
-330,445	800,000	-0,061	-0,129
-329,431	71,472	-0,069	0,053
-328,416	53,121	0,062	-0,043
-327,402	119,217	0,040	-0,037
-326,387	-41,946	-0,076	0,028
-325,372	738,514	0,044	-0,086
-324,358	345,214	-0,130	0,187
-323,343	660,156	0,065	0,123
-322,329	-200,000	0,009	0,030
-321,314	-32,164	0,057	0,023
-320,299	800,000	0,054	0,139
-319,285	73,841	0,071	-0,055
-318,270	-199,116	0,031	-0,000
-317,256	281,347	0,054	-0,071
-316,241	520,738	-0,006	-0,011
-315,226	-77,091	-0,085	-0,022
-314,212	-200,000	0,017	0,077
-313,197	71,922	0,022	-0,017
-312,183	-98,948	-0,035	-0,006
-311,168	-200,000	-0,017	0,097
-310,153	491,178	-0,062	-0,104
-309,139	-183,653	-0,051	0,001
-308,124	-172,943	-0,083	-0,002
-307,110	-99,425	-0,041	-0,008
-306,095	-92,662	-0,041	0,008
-305,080	293,164	0,141	0,189
-304,066	176,555	0,066	0,070
-303,051	-200,000	-0,023	-0,097
-302,037	-200,000	0,011	-0,056
-301,022	-79,847	-0,176	0,043
-300,008	-200,000	0,023	0,142
-298,993	79,982	0,089	0,070
-297,978	-72,060	-0,119	0,032
-296,964	182,584	-0,041	0,045
-295,949	-67,795	-0,125	-0,036
-294,935	-200,000	0,011	-0,182
-293,920	-200,000	-0,006	0,059
-292,905	9,967	0,129	0,072
-291,891	387,304	0,013	0,019
-290,876	-93,735	-0,045	0,009
-289,862	800,000	0,022	-0,058
-288,847	-200,000	0,041	-0,152
-287,832	236,835	-0,056	0,068
-286,818	89,884	0,109	-0,089
-285,803	49,178	0,107	0,073
-284,789	-200,000	-0,007	0,139
-283,774	233,434	0,117	0,141
-282,759	-58,826	-0,047	0,015
-281,745	43,629	0,067	0,045
-280,730	800,000	-0,032	0,080
-279,716	197,782	-0,066	-0,074
-278,701	-200,000	0,042	-0,187
-277,686	-200,000	-0,005	-0,027
-276,672	397,238	0,088	0,135
-275,657	-66,332	0,016	-0,005
-274,643	-93,477	-0,128	-0,026
-273,628	128,433	0,065	-0,060
-272,613	-200,000	-0,014	0,074
-271,599	-200,000	0,014	0,086
-270,584	-200,000	-0,008	-0,056
-269,570	800,000	0,013	0,039
-268,555	496,864	0,053	-0,090
-267,540	140,884	-0,038	-0,037
-266,526	14,134	-0,096	-0,054
-265,511	13,392	0,090	-0,051
-264,497	-200,000	-0,021	0,094
-263,482	95,192	0,093	0,077
-262,467	-111,989	0,112	-0,016
-261,453	178,826	-0,079	0,084
-260,438	800,000	-0,021	0,043
-259,424	234,983	-0,092	-0,111
-258,409	-128,384	-0,200	-0,021
-257,395	-5,216	0,074	-0,037
-256,380	147,899	0,045	-0,045
-255,365	288,353	0,070	0,093
-254,351	389,798	0,073	0,110
-253,336	388,540	0,047	0,072
-252,322	17,042	-0,064	-0,037
-251,307	36,159	0,078	-0,050
-250,292	-102,326	0,055	-0,010
-249,278	236,067	0,144	0,175
-248,263	198,033	0,106	0,119
-247,249	206,082	0,035	-0,039
-246,234	-200,000	-0,006	0,103
-245,219	31,672	0,030	0,019
-244,205	-200,000	0,000	0,028
-243,190	93,994	-0,050	0,041
-242,176	-90,927	0,058	0,012
-241,161	800,000	0,003	-0,009
-240,146	316,996	-0,030	-0,042
-239,132	-119,593	-0,056	-0,007
-238,117	259,975	-0,052	-0,066
-237,103	783,852	-0,051	-0,103
-236,088	800,000	0,025	-0,073
-235,073	268,585	0,069	0,089
-234,059	-30,095	0,080	0,033
-233,044	-11,825	0,088	-0,042
-232,030	249,643	-0,038	0,047
-231,015	74,447	-0,049	-0,038
-230,000	-200,000	-0,018	-0,078
-228,986	137,342	0,072	-0,069
-227,971	-81,939	0,037	0,009
-226,957	240,360	-0,073	0,089
-225,942	-40,832	0,021	-0,008
-224,927	-200,000	-0,009	-0,094
-223,913	-195,311	-0,169	-0,001
-222,898	57,692	0,103	0,074
-221,884	269,687	-0,088	-0,113
-220,869	49,990	-0,096	0,066
-219,855	493,870	0,016	-0,028
-218,840	-41,416	0,063	0,024
-217,825	585,281	-0,065	-0,117
-216,811	262,921	-0,068	0,087
-215,796	79,852	-0,053	-0,041
-214,782	215,625	-0,065	-0,075
-213,767	-200,000	-0,006	-0,046
-212,752	-200,000	0,020	0,111
-211,738	-200,000	0,004	0,156
-210,723	800,000	-0,041	-0,114
-209,709	-200,000	0,025	0,108
-208,694	-6,048	-0,029	-0,014
-207,679	290,679	-0,107	0,143
-206,665	-96,519	-0,081	-0,016
-205,650	-52,288	0,066	0,022
-204,636	-27,806	0,126	-0,053
-203,621	337,579	0,028	-0,040
-202,606	7,325	0,009	0,005
-201,592	-46,630	0,056	-0,020
-200,577	35,569	0,023	0,015
-199,563	-167,565	-0,033	0,001
-198,548	307,945	-0,041	-0,056
-197,533	62,993	-0,060	0,044
-196,519	116,514	-0,017	0,015
-195,504	618,830	-0,056	0,102
-194,490	-200,000	-0,045	-0,211
-193,475	602,403	0,020	0,036
-192,460	-11,721	0,029	-0,014
-191,446	-200,000	0,031	-0,116
-190,431	-121,045	0,100	-0,012
-189,417	70,343	-0,095	-0,072
-188,402	111,057	0,094	-0,082
-187,387	71,798	0,153	-0,116
-186,373	419,114	-0,045	-0,071
-185,358	275,120	-0,070	-0,091
-184,344	-200,000	0,032	-0,131
-183,329	158,023	0,041	-0,042
-182,315	-1,263	0,039	-0,020
-181,300	188,285	-0,127	-0,139
-180,285	-81,867	0,052	-0,012
-179,271	-200,000	0,014	0,097
-178,256	-200,000	-0,044	0,177
-177,242	800,000	-0,017	-0,046
-176,227	-159,334	0,043	-0,002
-175,212	-200,000	0,006	0,243
-174,198	-200,000	0,029	-0,095
-173,183	-84,009	-0,091	0,021
-172,169	-21,135	0,035	-0,016
-171,154	-150,102	0,128	-0,007
-170,139	-144,811	0,140	-0,009
-169,125	162,746	0,067	0,069
-168,110	-46,721	0,088	0,031
-167,096	800,000	-0,041	0,119
-166,081	-44,569	0,128	0,046
-165,066	324,379	0,055	-0,077
-164,052	-17,002	0,083	-0,038
-163,037	-200,000	-0,011	-0,056
-162,023	85,187	-0,063	0,050
-161,008	-20,374	-0,075	-0,033
-159,993	-60,275	0,092	0,028
-158,979	800,000	-0,046	0,116
-157,964	800,000	0,068	-0,160
-156,950	-200,000	0,012	-0,085
-155,935	800,000	0,042	-0,098
-154,920	800,000	-0,049	-0,105
-153,906	93,666	-0,043	-0,036
-152,891	344,586	-0,069	-0,099
-151,877	-53,338	0,058	-0,019
-150,862	-109,054	-0,085	0,013
-149,847	-30,154	-0,090	0,037
-148,833	430,976	-0,071	-0,112
-147,818	-170,020	0,127	0,003
-146,804	709,343	0,061	0,118
-145,789	182,315	-0,024	0,025
-144,775	800,000	-0,075	-0,179
-143,760	800,000	0,033	0,085
-142,745	627,514	0,034	0,062
-141,731	505,642	-0,038	-0,064
-140,716	-32,267	-0,099	-0,040
-139,702	-200,000	-0,009	0,125
-138,687	-200,000	0,017	0,058
-137,672	-146,119	-0,039	-0,002
-136,658	800,000	-0,074	-0,186
-135,643	-200,000	-0,006	-0,047
-134,629	-6,952	-0,096	-0,047
-133,614	40,932	-0,080	-0,052
-132,599	223,444	-0,033	-0,039
-131,585	-166,010	0,099	0,003
-130,570	-200,000	-0,006	-0,087
-129,556	800,000	-0,018	-0,036
-128,541	-71,565	-0,094	-0,025
-127,526	198,846	0,035	-0,039
-126,512	-169,057	0,017	-0,000
-125,497	800,000	-0,025	0,068
-124,483	-200,000	0,015	-0,104
-123,468	84,045	-0,075	0,059
-122,453	-97,367	0,039	0,007
-121,439	-162,979	0,103	-0,004
-120,424	-200,000	-0,023	-0,090
-119,410	800,000	0,004	0,011
