DTS Sentinel unit serial number:	SN410029Multiplexer serial number:	ORYXHardware model number:	OX2-SRSoftware version number:	ORYX F/W v4,00 Oryx Data Collector v3.7.2.0data status	okinstallation	B6 Nyhavnadifferential loss correction	single-endedforward channel	channel 2reverse channel	N/Adate	2023/12/07time	19:30:08forward acquisition time	300,00reverse acquisition time	0,00gamma	499,1914k internal	0,3164k external	0,3164temperature offset calibration	1,0000default loss term (dB/km)	0,3820temperature slope calibration	1,0000multiplexer offset coefficient	1,0000multiplexer slope coefficient	1,0000fibre end	0,00T internal ref (°C)	14,00T ext. ref 1 (°C)	-2,99T ext. ref 2 (°C)	-3,01length (m)	temperature (°C)	Stokes	anti-Stokes-744,400	598,567	0,051	0,094
-743,385	-72,157	-0,207	0,056
-742,371	15,288	-0,104	0,060
-741,356	-98,138	-0,328	0,062
-740,342	-35,296	0,087	0,035
-739,327	-125,682	-0,263	-0,029
-738,312	800,000	0,069	0,208
-737,298	-140,753	-0,482	0,036
-736,283	-12,934	0,271	0,129
-735,269	-98,672	-0,311	0,058
-734,254	-37,593	0,197	0,077
-733,239	-33,080	-0,586	-0,238
-732,225	-38,755	0,129	-0,050
-731,210	-200,000	0,006	0,108
-730,196	98,320	-0,082	-0,070
-729,181	172,917	-0,040	-0,042
-728,167	239,474	-0,187	-0,230
-727,152	16,370	0,056	-0,032
-726,137	-92,859	0,106	-0,022
-725,123	35,048	-0,144	-0,093
-724,108	800,000	-0,034	-0,075
-723,094	-200,000	-0,034	-0,122
-722,079	800,000	-0,037	-0,087
-721,064	195,461	-0,014	-0,016
-720,050	94,509	-0,072	-0,060
-719,035	667,504	-0,071	-0,135
-718,021	-29,469	-0,171	0,072
-717,006	-47,470	0,044	-0,015
-715,991	-63,597	-0,223	-0,067
-714,977	102,935	0,045	0,039
-713,962	-111,451	0,055	-0,008
-712,948	-200,000	0,012	-0,234
-711,933	800,000	0,013	-0,031
-710,918	294,497	-0,039	-0,052
-709,904	800,000	-0,063	-0,192
-708,889	-118,664	-0,068	0,009
-707,875	800,000	-0,011	-0,025
-706,860	-112,597	-0,173	-0,025
-705,845	-200,000	0,023	-0,158
-704,831	-200,000	0,003	-0,094
-703,816	609,803	-0,065	0,119
-702,802	-200,000	0,006	-0,066
-701,787	800,000	0,035	-0,080
-700,772	-62,837	-0,087	-0,026
-699,758	-38,015	0,182	0,071
-698,743	315,236	-0,033	-0,046
-697,729	100,818	0,036	0,031
-696,714	274,972	0,129	0,168
-695,699	-86,644	-0,176	0,039
-694,685	-123,807	-0,068	0,008
-693,670	-200,000	-0,003	-0,096
-692,656	423,714	-0,059	-0,094
-691,641	549,841	-0,007	0,012
-690,627	-87,970	-0,061	-0,013
-689,612	-42,774	-0,046	0,017
-688,597	-15,466	-0,111	0,052
-687,583	800,000	-0,057	-0,177
-686,568	138,833	0,031	-0,030
-685,554	155,708	-0,093	-0,094
-684,539	-137,766	0,204	-0,017
-683,524	-200,000	0,024	-0,100
-682,510	-58,367	0,060	0,019
-681,495	-113,602	-0,077	-0,011
-680,481	424,733	-0,038	-0,060
-679,466	502,226	-0,029	-0,050
-678,451	38,665	-0,069	-0,045
-677,437	152,548	0,052	0,052
-676,422	133,266	0,048	-0,046
-675,408	-73,963	-0,119	-0,031
-674,393	-200,000	-0,004	-0,034
-673,378	271,394	-0,140	-0,182
-672,364	-6,224	-0,175	-0,087
-671,349	28,186	-0,031	-0,019
-670,335	50,081	-0,084	-0,058
-669,320	77,186	0,107	0,084
-668,305	499,180	0,061	-0,104
-667,291	-200,000	-0,007	0,084
-666,276	800,000	-0,059	-0,150
-665,262	336,668	-0,044	-0,064
-664,247	65,547	-0,051	-0,038
-663,232	-61,702	0,067	0,021
-662,218	409,539	-0,014	0,021
-661,203	31,237	-0,055	0,034
-660,189	-70,006	-0,091	-0,025
-659,174	800,000	-0,112	-0,248
-658,159	131,960	-0,014	0,013
-657,145	214,695	-0,101	-0,117
-656,130	-200,000	-0,036	-0,217
-655,116	-200,000	0,003	0,020
-654,101	-200,000	-0,009	-0,057
-653,086	52,826	-0,028	-0,020
-652,072	296,254	-0,080	0,107
-651,057	27,617	-0,084	-0,052
-650,043	199,008	-0,052	-0,059
-649,028	-200,000	0,008	-0,170
-648,014	-200,000	0,003	0,089
-646,999	-50,798	-0,127	0,043
-645,984	-155,976	0,061	0,003
-644,970	-200,000	-0,002	-0,066
-643,955	314,328	-0,068	-0,094
-642,941	800,000	-0,030	-0,083
-641,926	-106,188	-0,130	-0,021
-640,911	404,799	0,085	-0,131
-639,897	-94,753	0,036	-0,007
-638,882	75,680	-0,071	-0,055
-637,868	-37,520	-0,143	0,055
-636,853	131,355	-0,076	0,072
-635,838	-198,428	-0,099	0,000
-634,824	-156,066	-0,033	0,001
-633,809	535,335	0,098	-0,171
-632,795	-200,000	-0,030	-0,207
-631,780	371,716	0,045	-0,067
-630,765	126,132	-0,049	0,045
-629,751	-38,894	-0,093	0,036
-628,736	315,610	-0,068	-0,095
-627,722	-200,000	0,003	-0,108
-626,707	-200,000	-0,009	0,089
-625,692	380,572	-0,031	-0,046
-624,678	84,452	-0,096	-0,077
-623,663	-52,572	-0,133	0,045
-622,649	106,402	0,049	-0,043
-621,634	-104,686	-0,138	-0,023
-620,619	800,000	-0,031	-0,075
-619,605	54,108	0,110	0,077
-618,590	800,000	0,038	-0,077
-617,576	-92,963	0,027	-0,006
-616,561	560,884	-0,067	-0,119
-615,546	20,392	-0,067	-0,039
-614,532	12,370	-0,085	-0,048
-613,517	-55,722	-0,087	-0,028
-612,503	-200,000	-0,001	-0,096
-611,488	-32,040	-0,091	-0,037
-610,474	-99,350	0,089	-0,016
-609,459	-200,000	0,002	0,078
-608,444	-89,866	-0,053	-0,011
-607,430	-161,397	-0,074	-0,003
-606,415	16,221	-0,174	-0,100
-605,401	166,594	-0,015	-0,016
-604,386	-80,324	0,134	0,033
-603,371	-200,000	-0,001	-0,120
-602,357	489,047	0,066	-0,111
-601,342	35,102	-0,152	-0,098
-600,328	673,301	-0,033	-0,062
-599,313	52,460	0,068	-0,048
-598,298	-103,584	-0,046	-0,008
-597,284	-28,335	0,050	0,021
-596,269	101,282	-0,030	-0,026
-595,255	524,744	0,017	0,030
-594,240	800,000	0,034	-0,097
-593,225	432,359	-0,068	-0,108
-592,211	-74,628	-0,137	-0,036
-591,196	591,660	0,010	0,018
-590,182	-123,347	-0,039	-0,004
-589,167	-200,000	-0,013	0,130
-588,152	52,779	-0,016	-0,011
-587,138	55,067	-0,063	-0,044
-586,123	104,891	-0,068	-0,058
-585,109	800,000	-0,087	-0,184
-584,094	-200,000	-0,011	-0,160
-583,079	800,000	0,010	-0,031
-582,065	262,886	0,041	0,052
-581,050	-200,000	-0,004	0,221
-580,036	270,122	-0,046	-0,060
-579,021	-87,672	-0,067	0,015
-578,006	-125,821	-0,093	-0,010
-576,992	108,125	-0,047	-0,041
-575,977	-200,000	0,001	0,062
-574,963	-108,875	-0,087	-0,013
-573,948	-111,637	-0,049	0,007
-572,934	203,194	-0,015	0,017
-571,919	-200,000	-0,005	0,047
-570,904	128,349	0,105	0,098
-569,890	23,641	-0,085	-0,051
-568,875	92,954	-0,060	-0,049
-567,861	275,450	-0,017	0,022
-566,846	45,031	0,080	0,054
-565,831	-13,977	-0,053	0,025
-564,817	71,684	0,045	0,034
-563,802	4,458	-0,083	-0,044
-562,788	278,052	0,032	-0,042
-561,773	-144,944	0,101	-0,007
-560,758	800,000	0,016	-0,036
-559,744	17,944	0,134	0,078
-558,729	800,000	-0,039	0,082
-557,715	800,000	-0,064	-0,154
-556,700	-200,000	-0,002	0,020
-555,685	710,905	0,053	-0,102
-554,671	-97,345	0,008	0,002
-553,656	133,084	0,099	0,093
-552,642	-189,940	-0,131	0,001
-551,627	-200,000	-0,004	0,064
-550,612	154,476	0,049	0,050
-549,598	-113,797	-0,143	-0,020
-548,583	-200,000	0,015	-0,078
-547,569	23,558	-0,024	0,015
-546,554	800,000	0,028	-0,074
-545,539	292,463	-0,053	-0,070
-544,525	199,142	0,027	0,031
-543,510	-62,025	0,052	0,016
-542,496	326,596	-0,044	0,061
-541,481	-104,746	0,088	-0,015
-540,466	800,000	-0,031	0,069
-539,452	-82,231	0,110	0,026
-538,437	-200,000	0,001	-0,032
-537,423	800,000	-0,038	-0,113
-536,408	761,374	-0,029	0,059
-535,393	-200,000	-0,052	-0,173
-534,379	-31,801	0,068	-0,028
-533,364	95,443	-0,063	0,052
-532,350	-200,000	0,047	-0,157
-531,335	800,000	0,059	0,132
-530,321	12,077	0,019	0,011
-529,306	412,542	0,088	0,137
-528,291	-113,523	-0,191	-0,027
-527,277	463,090	0,019	0,032
-526,262	729,265	0,059	-0,116
-525,248	-200,000	0,005	-0,034
-524,233	-200,000	0,007	-0,124
-523,218	800,000	0,029	0,087
-522,204	-200,000	-0,016	0,140
-521,189	-9,750	-0,147	0,071
-520,175	365,535	-0,021	-0,031
-519,160	800,000	0,037	-0,083
-518,145	-120,218	0,059	0,007
-517,131	-46,079	0,036	0,013
-516,116	-200,000	-0,012	0,059
-515,102	-48,877	0,108	0,037
-514,087	-200,000	0,006	0,056
-513,072	-123,083	-0,029	0,003
-512,058	-49,866	-0,082	-0,028
-511,043	89,655	-0,086	-0,070
-510,029	567,533	-0,098	-0,174
-509,014	-41,970	-0,036	-0,013
-507,999	621,527	0,040	0,074
-506,985	800,000	0,057	-0,163
-505,970	-200,000	0,026	-0,142
-504,956	800,000	0,003	0,007
-503,941	144,091	-0,116	0,113
-502,926	-115,390	0,105	0,014
-501,912	86,352	0,086	0,069
-500,897	-103,453	-0,100	0,017
-499,883	250,925	0,066	0,082
-498,868	-62,228	-0,066	0,020
-497,853	-133,780	-0,057	-0,005
-496,839	-200,000	-0,014	0,068
-495,824	560,475	-0,113	0,199
-494,810	289,344	0,069	0,092
-493,795	-200,000	-0,002	0,025
-492,781	-200,000	-0,029	-0,108
-491,766	-165,281	-0,061	0,002
-490,751	567,448	0,012	-0,021
-489,737	380,138	0,060	-0,090
-488,722	-178,735	0,098	0,002
-487,708	-103,377	0,132	-0,022
-486,693	322,487	0,062	0,086
-485,678	-200,000	0,015	-0,144
-484,664	60,288	-0,054	-0,039
-483,649	-76,358	-0,091	-0,023
-482,635	-200,000	0,003	0,077
-481,620	-185,223	0,046	0,001
-480,605	-171,037	0,030	0,001
-479,591	-43,566	0,134	-0,049
-478,576	10,007	0,081	-0,045
-477,562	800,000	-0,061	-0,135
-476,547	-200,000	0,011	-0,047
-475,532	-200,000	-0,034	0,112
-474,518	-38,195	-0,038	0,015
-473,503	800,000	0,030	0,077
-472,489	-200,000	0,006	0,074
-471,474	-200,000	0,017	0,070
-470,459	-38,295	-0,133	-0,051
-469,445	-200,000	0,001	-0,044
-468,430	198,619	-0,020	-0,022
-467,416	-200,000	0,017	0,217
-466,401	800,000	0,036	-0,106
-465,386	60,969	-0,113	0,081
-464,372	-72,946	-0,077	0,020
-463,357	229,293	0,029	-0,035
-462,343	800,000	-0,025	-0,058
-461,328	308,298	-0,093	-0,127
-460,313	-200,000	-0,020	-0,202
-459,299	-102,949	-0,105	0,018
-458,284	16,465	-0,040	-0,023
-457,270	641,397	0,047	-0,087
-456,255	800,000	0,082	-0,168
-455,241	-110,033	-0,067	0,010
-454,226	-58,676	0,070	0,022
-453,211	34,724	-0,082	-0,052
-452,197	23,335	0,051	-0,030
-451,182	-42,820	0,085	0,031
-450,168	38,973	0,093	-0,060
-449,153	-35,109	0,014	0,006
-448,138	364,713	0,033	0,048
-447,124	-200,000	-0,015	-0,073
-446,109	800,000	0,020	-0,049
-445,095	-200,000	0,021	0,085
-444,080	-200,000	0,000	0,032
-443,065	-200,000	-0,012	0,067
-442,051	-26,131	0,111	0,047
-441,036	-139,615	0,091	-0,007
-440,022	34,401	-0,058	-0,037
-439,007	-174,278	0,067	0,001
-437,992	460,019	-0,024	-0,039
-436,978	-11,649	-0,048	-0,023
-435,963	451,658	0,037	0,060
-434,949	-200,000	-0,022	0,162
-433,934	-125,530	0,022	0,002
-432,919	367,882	0,004	-0,006
-431,905	61,819	0,156	-0,113
-430,890	-74,004	-0,044	0,012
-429,876	653,850	0,053	0,098
-428,861	639,473	0,069	0,129
-427,846	-200,000	-0,006	-0,048
-426,832	-92,550	-0,122	0,025
-425,817	800,000	0,031	-0,092
-424,803	-80,355	-0,041	-0,010
-423,788	51,512	0,032	-0,022
-422,773	58,891	0,056	-0,040
-421,759	-74,634	0,093	-0,024
-420,744	-69,485	-0,101	-0,028
-419,730	39,575	-0,132	-0,086
-418,715	800,000	-0,079	-0,164
-417,701	-200,000	-0,014	-0,054
-416,686	800,000	-0,054	-0,141
-415,671	50,130	-0,019	0,013
-414,657	555,347	0,022	0,039
-413,642	-200,000	-0,001	-0,004
-412,628	-19,016	-0,074	-0,033
-411,613	-200,000	0,008	-0,104
-410,598	763,849	0,021	0,042
-409,584	15,356	0,140	0,080
-408,569	800,000	0,085	-0,174
-407,555	369,733	-0,095	0,140
-406,540	-200,000	0,026	-0,178
-405,525	166,339	0,062	-0,064
-404,511	349,361	-0,047	-0,068
-403,496	293,625	0,057	-0,076
-402,482	-9,320	0,151	-0,073
-401,467	-93,798	0,067	0,013
-400,452	486,369	0,031	0,052
-399,438	-200,000	-0,001	-0,019
-398,423	-200,000	-0,018	-0,070
-397,409	800,000	-0,052	-0,127
-396,394	-200,000	0,004	-0,025
-395,379	-200,000	0,006	0,067
-394,365	277,813	0,060	0,078
-393,350	-200,000	-0,038	0,137
-392,336	-98,529	0,064	0,012
-391,321	800,000	-0,036	0,075
-390,306	-38,363	0,125	0,048
-389,292	800,000	0,052	-0,139
-388,277	376,833	-0,048	0,072
-387,263	-5,770	0,100	-0,050
-386,248	44,683	0,036	-0,024
-385,233	800,000	-0,031	0,089
-384,219	-128,542	0,076	-0,008
-383,204	-200,000	-0,008	-0,069
-382,190	800,000	-0,050	-0,106
-381,175	432,485	-0,018	0,028
-380,160	93,505	-0,081	0,066
-379,146	-200,000	-0,001	0,053
-378,131	-200,000	0,001	0,214
-377,117	198,170	0,059	0,066
-376,102	-109,770	-0,089	0,013
-375,088	-184,006	0,025	0,000
-374,073	90,663	-0,011	-0,009
-373,058	643,622	-0,049	-0,091
-372,044	243,977	-0,085	0,103
-371,029	9,392	-0,055	0,030
-370,015	415,379	0,036	0,056
-369,000	-69,455	-0,069	-0,019
-367,985	311,965	-0,087	-0,119
-366,971	-76,534	0,037	-0,009
-365,956	-200,000	0,003	-0,155
-364,942	642,255	0,028	0,052
-363,927	-200,000	-0,005	0,033
-362,912	-127,977	-0,027	-0,003
-361,898	250,417	0,049	0,061
-360,883	-105,867	0,203	-0,033
-359,869	-200,000	-0,001	-0,034
-358,854	441,781	-0,085	-0,135
-357,839	-50,737	0,133	-0,045
-356,825	-15,287	-0,060	-0,028
-355,810	-87,712	0,093	-0,020
-354,796	702,202	-0,076	0,146
-353,781	-200,000	-0,008	-0,056
-352,766	284,828	-0,053	-0,069
-351,752	76,677	0,014	-0,011
-350,737	11,876	0,122	0,067
-349,723	394,157	0,027	-0,041
-348,708	-93,769	0,057	0,011
-347,693	-200,000	-0,030	-0,108
-346,679	-0,406	-0,073	0,038
-345,664	754,178	-0,035	-0,069
-344,650	265,446	0,027	0,034
-343,635	25,655	0,097	-0,059
-342,620	-200,000	-0,001	-0,024
-341,606	-35,382	0,074	-0,029
-340,591	-200,000	-0,020	-0,085
-339,577	55,023	-0,010	-0,007
-338,562	-200,000	0,019	-0,065
-337,548	-200,000	0,000	0,055
-336,533	-69,852	0,043	0,012
-335,518	800,000	-0,037	0,079
-334,504	800,000	-0,014	0,034
-333,489	290,288	-0,016	-0,021
-332,475	-85,586	-0,097	-0,022
-331,460	53,955	-0,151	-0,105
-330,445	-200,000	-0,020	-0,098
-329,431	209,940	-0,051	-0,058
-328,416	501,871	0,069	0,116
-327,402	-200,000	0,010	0,178
-326,387	-64,988	0,053	-0,015
-325,372	-12,489	0,087	-0,041
-324,358	-32,825	-0,106	0,043
-323,343	800,000	-0,011	0,035
-322,329	38,531	0,078	-0,050
-321,314	569,821	0,032	-0,057
-320,299	42,292	0,061	0,040
-319,285	70,302	0,139	0,104
-318,270	395,750	-0,022	-0,034
-317,256	417,408	-0,094	0,147
-316,241	-200,000	-0,036	0,117
-315,226	467,028	0,030	-0,050
-314,212	-200,000	0,017	0,125
-313,197	-200,000	0,001	0,082
-312,183	277,599	0,108	0,140
-311,168	-57,782	0,072	-0,023
-310,153	-57,623	-0,179	0,056
-309,139	298,115	0,136	-0,181
-308,124	-157,213	-0,046	-0,002
-307,110	17,949	0,078	0,045
-306,095	-100,991	-0,047	-0,008
-305,080	-64,287	-0,050	0,015
-304,066	479,441	-0,061	0,101
-303,051	-82,633	-0,089	0,021
-302,037	-200,000	-0,006	0,036
-301,022	211,209	0,023	-0,027
-300,008	270,552	0,030	-0,039
-298,993	-200,000	0,020	0,123
-297,978	15,219	0,022	0,013
-296,964	26,858	-0,047	0,028
-295,949	-200,000	-0,023	0,085
-294,935	-200,000	0,009	-0,032
-293,920	36,086	0,078	-0,049
-292,905	-15,653	0,086	-0,039
-291,891	-200,000	0,021	0,156
-290,876	24,722	-0,059	-0,035
-289,862	82,579	0,027	0,021
-288,847	-200,000	0,011	-0,216
-287,832	-200,000	0,010	-0,103
-286,818	-200,000	-0,014	-0,118
-285,803	-55,959	0,171	0,055
-284,789	101,020	0,092	0,077
-283,774	800,000	-0,055	0,137
-282,759	-51,150	-0,041	-0,014
-281,745	800,000	-0,017	-0,038
-280,730	800,000	0,017	0,048
-279,716	301,307	-0,059	-0,078
-278,701	741,002	0,042	0,083
-277,686	9,995	-0,031	0,017
-276,672	-59,173	0,129	-0,040
-275,657	-200,000	0,010	0,172
-274,643	0,785	-0,123	-0,063
-273,628	122,115	0,077	0,069
-272,613	321,494	0,035	0,049
-271,599	-41,602	0,088	0,032
-270,584	-85,474	-0,049	-0,011
-269,570	4,091	0,087	0,046
-268,555	4,900	0,115	0,061
-267,540	99,099	0,048	0,040
-266,526	80,574	-0,019	0,015
-265,511	800,000	0,017	-0,044
-264,497	-25,953	0,059	0,025
-263,482	13,099	0,059	0,033
-262,467	-114,138	0,069	-0,010
-261,453	800,000	0,045	0,103
-260,438	800,000	0,057	0,131
-259,424	37,855	-0,091	-0,059
-258,409	141,953	0,065	0,062
-257,395	268,315	-0,098	0,124
-256,380	-33,227	0,135	0,054
-255,365	-200,000	0,009	0,037
-254,351	389,134	0,080	0,119
-253,336	-80,479	0,015	0,004
-252,322	-18,574	0,078	-0,035
-251,307	-58,983	-0,103	0,032
-250,292	-60,113	0,133	0,041
-249,278	-200,000	0,038	0,139
-248,263	-200,000	-0,009	0,076
-247,249	217,000	0,068	0,079
-246,234	21,472	0,029	0,017
-245,219	20,613	-0,120	-0,070
-244,205	524,621	-0,011	-0,019
-243,190	269,443	-0,054	0,068
-242,176	154,480	-0,032	-0,032
-241,161	-200,000	-0,008	0,255
-240,146	279,032	0,053	0,069
-239,132	800,000	0,081	0,180
-238,117	-200,000	0,027	0,093
-237,103	167,325	-0,082	-0,084
-236,088	-90,305	-0,047	0,010
-235,073	45,791	0,098	0,065
-234,059	62,701	0,069	0,050
-233,044	683,893	-0,069	0,130
-232,030	-14,265	-0,074	0,034
-231,015	-60,578	-0,080	-0,024
-230,000	23,609	-0,050	0,029
-228,986	-200,000	0,009	0,091
-227,971	24,016	-0,148	-0,088
-226,957	-157,861	0,155	-0,007
-225,942	-87,856	0,074	-0,016
-224,927	800,000	-0,017	0,052
-223,913	-200,000	0,007	0,028
-222,898	-200,000	-0,012	-0,091
-221,884	-18,764	-0,092	0,041
-220,869	-200,000	-0,001	-0,014
-219,855	70,145	0,091	0,067
-218,840	-58,352	0,107	-0,033
-217,825	-200,000	0,026	-0,098
-216,811	91,431	-0,024	-0,019
-215,796	12,224	-0,062	-0,034
-214,782	-80,195	0,093	0,022
-213,767	-200,000	0,004	0,070
-212,752	-23,406	-0,050	-0,022
-211,738	-19,619	0,112	0,050
-210,723	266,254	-0,114	0,143
-209,709	-200,000	-0,009	-0,098
-208,694	-151,084	-0,141	0,008
-207,679	105,476	0,076	-0,065
-206,665	739,445	0,037	-0,071
-205,650	44,261	-0,038	-0,025
-204,636	800,000	0,034	0,081
-203,621	114,969	-0,040	0,035
-202,606	-200,000	-0,003	-0,025
-201,592	800,000	-0,036	-0,074
-200,577	-200,000	0,031	-0,101
-199,563	-41,334	0,034	0,013
-198,548	-200,000	-0,012	0,059
-197,533	330,417	0,084	0,116
-196,519	-18,899	-0,009	0,004
-195,504	272,546	0,086	-0,110
-194,490	800,000	-0,039	-0,089
-193,475	356,740	-0,026	-0,037
-192,460	72,853	0,028	-0,021
-191,446	800,000	-0,041	0,096
-190,431	453,056	0,061	0,098
-189,417	109,812	-0,047	0,040
-188,402	-200,000	0,007	-0,061
-187,387	560,797	-0,018	-0,031
-186,373	727,434	0,048	-0,093
-185,358	-80,510	0,064	-0,015
-184,344	288,185	0,083	0,109
-183,329	318,107	-0,074	0,101
-182,315	-200,000	-0,024	-0,089
-181,300	800,000	-0,012	0,038
-180,285	800,000	-0,026	-0,068
-179,271	-125,086	0,070	0,008
-178,256	-200,000	0,020	0,208
-177,242	169,740	0,138	0,142
-176,227	-200,000	-0,021	0,109
-175,212	-200,000	-0,001	-0,069
-174,198	-200,000	-0,023	0,260
-173,183	-200,000	-0,003	-0,016
-172,169	-95,215	0,036	-0,007
-171,154	710,514	0,030	-0,057
-170,139	800,000	0,089	0,185
-169,125	-200,000	-0,004	0,067
-168,110	-150,407	-0,055	0,003
-167,096	-200,000	0,002	0,147
-166,081	663,588	-0,013	0,025
-165,066	-100,930	-0,096	-0,017
-164,052	-14,795	-0,092	0,042
-163,037	-200,000	0,004	0,084
-162,023	-200,000	-0,036	0,198
-161,008	800,000	-0,017	-0,043
-159,993	-200,000	0,008	-0,100
-158,979	-12,026	-0,073	-0,034
-157,964	-200,000	-0,002	-0,057
-156,950	316,418	0,017	-0,023
-155,935	-200,000	0,004	-0,149
-154,920	210,325	-0,023	-0,026
-153,906	-81,237	0,042	0,010
-152,891	55,438	0,137	0,096
-151,877	-147,477	-0,064	-0,004
-150,862	66,834	-0,064	0,047
-149,847	253,096	-0,047	0,058
-148,833	142,494	-0,018	-0,017
-147,818	21,240	-0,031	-0,018
-146,804	800,000	-0,026	-0,073
-145,789	-200,000	0,056	0,190
-144,775	-200,000	0,007	-0,042
-143,760	3,129	-0,074	-0,038
-142,745	800,000	0,037	-0,114
-141,731	150,637	-0,066	0,065
-140,716	126,958	-0,029	-0,026
-139,702	133,665	0,079	-0,073
-138,687	739,607	-0,079	0,152
-137,672	8,741	0,131	0,071
-136,658	135,049	-0,058	-0,054
-135,643	10,885	-0,029	-0,016
-134,629	-200,000	0,010	-0,052
-133,614	111,615	-0,090	0,078
-132,599	41,634	-0,018	0,012
-131,585	-154,353	-0,113	0,005
-130,570	-200,000	-0,010	-0,046
-129,556	251,996	-0,111	-0,136
-128,541	348,214	-0,039	-0,055
-127,526	120,641	0,072	-0,065
-126,512	-59,743	0,069	0,021
-125,497	-25,860	-0,102	0,043
-124,483	-200,000	-0,013	0,059
-123,468	473,292	-0,096	0,156
-122,453	800,000	-0,060	-0,142
-121,439	-12,620	-0,091	-0,043
-120,424	-36,286	0,063	0,024
