DTS Sentinel unit serial number:	SN410029Multiplexer serial number:	ORYXHardware model number:	OX2-SRSoftware version number:	ORYX F/W v4,00 Oryx Data Collector v3.7.2.0data status	okinstallation	B6 Nyhavnadifferential loss correction	single-endedforward channel	channel 2reverse channel	N/Adate	2023/12/09time	15:00:08forward acquisition time	300,00reverse acquisition time	0,00gamma	499,1914k internal	0,3133k external	0,3133temperature offset calibration	1,0000default loss term (dB/km)	0,3820temperature slope calibration	1,0000multiplexer offset coefficient	1,0000multiplexer slope coefficient	1,0000fibre end	0,00T internal ref (°C)	20,57T ext. ref 1 (°C)	4,33T ext. ref 2 (°C)	4,33length (m)	temperature (°C)	Stokes	anti-Stokes-744,400	308,542	-0,021	-0,030
-743,385	93,462	-0,171	0,143
-742,371	99,650	0,054	0,046
-741,356	102,055	-0,188	0,163
-740,342	-87,946	0,065	-0,014
-739,327	112,329	-0,201	0,180
-738,312	-10,321	0,049	-0,024
-737,298	266,968	-0,104	0,135
-736,283	-200,000	-0,009	-0,043
-735,269	-31,205	-0,226	0,094
-734,254	800,000	0,021	-0,045
-733,239	-166,767	-0,399	-0,012
-732,225	483,196	0,061	-0,103
-731,210	307,631	-0,022	0,031
-730,196	405,240	-0,051	0,080
-729,181	5,344	0,117	-0,064
-728,167	-200,000	-0,022	-0,121
-727,152	-113,785	-0,118	0,017
-726,137	800,000	0,030	-0,071
-725,123	-42,583	-0,145	-0,055
-724,108	800,000	-0,051	-0,153
-723,094	165,188	-0,142	-0,149
-722,079	-200,000	-0,015	-0,152
-721,064	800,000	0,026	-0,079
-720,050	-200,000	0,002	0,057
-719,035	800,000	0,029	0,070
-718,021	-142,599	-0,086	0,006
-717,006	-23,987	0,051	-0,022
-715,991	-200,000	0,007	-0,121
-714,977	73,337	-0,042	-0,032
-713,962	-89,627	-0,126	0,027
-712,948	13,417	0,087	0,050
-711,933	-200,000	-0,001	0,139
-710,918	-125,656	0,038	0,004
-709,904	13,173	-0,182	-0,104
-708,889	-200,000	0,021	-0,101
-707,875	-200,000	0,005	0,016
-706,860	-38,048	0,051	-0,020
-705,845	211,265	-0,052	-0,061
-704,831	762,133	0,013	0,026
-703,816	-110,886	-0,072	-0,011
-702,802	-130,060	0,168	-0,017
-701,787	219,473	-0,094	-0,111
-700,772	800,000	-0,072	-0,155
-699,758	-200,000	0,014	-0,152
-698,743	-200,000	0,046	0,180
-697,729	-200,000	0,011	-0,054
-696,714	62,958	0,137	0,102
-695,699	-170,516	-0,158	0,004
-694,685	-200,000	-0,003	-0,101
-693,670	88,172	-0,075	-0,062
-692,656	114,918	-0,096	0,087
-691,641	311,005	-0,048	0,067
-690,627	-80,698	0,096	0,024
-689,612	-22,863	-0,039	-0,017
-688,597	118,860	0,070	-0,065
-687,583	-81,840	0,062	0,015
-686,568	201,709	-0,039	0,045
-685,554	800,000	0,024	0,065
-684,539	800,000	0,036	0,104
-683,524	-3,732	-0,046	0,023
-682,510	38,229	0,143	-0,094
-681,495	74,551	-0,118	-0,092
-680,481	35,085	-0,067	-0,043
-679,466	800,000	-0,003	0,007
-678,451	800,000	0,027	-0,072
-677,437	-142,638	0,086	0,006
-676,422	110,032	-0,094	0,084
-675,408	5,416	0,080	-0,043
-674,393	517,194	0,041	-0,072
-673,378	800,000	-0,096	-0,212
-672,364	-87,931	-0,137	0,030
-671,349	-200,000	-0,006	-0,120
-670,335	-147,319	-0,136	-0,008
-669,320	-200,000	0,019	0,111
-668,305	245,788	-0,035	-0,044
-667,291	229,155	0,020	-0,024
-666,276	-44,260	-0,068	-0,025
-665,262	800,000	-0,027	-0,080
-664,247	-40,202	-0,147	0,057
-663,232	-200,000	-0,008	0,034
-662,218	-200,000	0,007	0,041
-661,203	43,900	-0,085	0,058
-660,189	-50,361	0,078	-0,027
-659,174	-89,641	0,103	-0,022
-658,159	437,307	-0,091	-0,147
-657,145	229,721	-0,082	-0,099
-656,130	364,906	0,057	-0,086
-655,116	-200,000	0,029	-0,110
-654,101	258,544	-0,053	0,067
-653,086	-122,853	-0,063	-0,007
-652,072	78,699	-0,099	0,078
-651,057	552,464	-0,078	-0,140
-650,043	-79,891	-0,127	-0,031
-649,028	-116,956	-0,065	0,009
-648,014	408,657	0,014	-0,021
-646,999	-200,000	-0,003	0,035
-645,984	-200,000	0,017	0,074
-644,970	-200,000	0,027	0,143
-643,955	159,036	0,038	-0,039
-642,941	-90,523	-0,095	-0,020
-641,926	-92,043	-0,110	-0,023
-640,911	-96,673	-0,134	0,026
-639,897	318,985	0,077	0,108
-638,882	-114,186	-0,174	-0,025
-637,868	-56,063	-0,027	-0,009
-636,853	212,955	-0,129	-0,151
-635,838	618,305	0,027	-0,050
-634,824	104,696	-0,093	-0,082
-633,809	253,734	0,064	0,081
-632,795	-62,944	0,121	0,037
-631,780	-4,663	-0,118	0,060
-630,765	46,274	-0,028	-0,019
-629,751	-200,000	0,033	-0,153
-628,736	-200,000	-0,019	-0,073
-627,722	-87,069	-0,144	-0,032
-626,707	-200,000	-0,016	-0,059
-625,692	-200,000	-0,000	0,132
-624,678	-6,696	0,133	0,067
-623,663	-70,770	-0,060	-0,017
-622,649	508,944	-0,022	-0,039
-621,634	-163,015	-0,206	0,007
-620,619	-200,000	-0,007	-0,096
-619,605	265,279	-0,063	0,082
-618,590	242,933	-0,019	0,024
-617,576	800,000	0,039	-0,112
-616,561	800,000	0,038	0,103
-615,546	113,561	-0,121	-0,109
-614,532	-200,000	0,004	-0,117
-613,517	374,835	0,050	-0,076
-612,503	800,000	-0,017	0,047
-611,488	-200,000	0,005	0,098
-610,474	800,000	-0,008	0,026
-609,459	49,100	0,110	-0,076
-608,444	407,718	0,060	-0,094
-607,430	150,026	-0,088	-0,088
-606,415	34,730	0,127	-0,082
-605,401	800,000	-0,048	-0,111
-604,386	157,825	-0,040	0,041
-603,371	-200,000	0,005	-0,042
-602,357	-130,074	-0,036	0,004
-601,342	-42,436	-0,143	-0,054
-600,328	493,855	0,058	-0,099
-599,313	-84,656	-0,011	0,002
-598,298	80,285	0,031	-0,025
-597,284	-70,572	0,034	-0,009
-596,269	230,725	-0,074	0,089
-595,255	-200,000	0,002	0,021
-594,240	800,000	-0,011	0,028
-593,225	713,750	-0,022	-0,043
-592,211	27,340	-0,127	-0,078
-591,196	800,000	-0,022	0,053
-590,182	199,643	-0,043	0,049
-589,167	-200,000	-0,001	0,058
-588,152	-47,052	-0,046	0,017
-587,138	543,468	-0,066	-0,118
-586,123	5,299	-0,124	-0,067
-585,109	-200,000	-0,017	-0,137
-584,094	-115,937	0,034	-0,005
-583,079	97,169	-0,098	0,083
-582,065	-39,784	0,098	0,038
-581,050	-19,557	0,051	-0,023
-580,036	343,813	0,054	0,078
-579,021	-66,401	-0,068	-0,020
-578,006	255,937	-0,068	-0,087
-576,992	152,674	-0,110	-0,111
-575,977	800,000	0,012	-0,038
-574,963	-47,306	0,130	-0,047
-573,948	-118,324	-0,045	0,006
-572,934	169,663	-0,092	0,097
-571,919	-200,000	-0,019	-0,083
-570,904	-107,212	-0,034	0,005
-569,890	-110,747	-0,125	0,019
-568,875	-103,857	-0,022	-0,004
-567,861	214,224	-0,017	-0,019
-566,846	113,785	-0,017	0,015
-565,831	800,000	-0,015	0,050
-564,817	-143,689	-0,122	-0,008
-563,802	-200,000	0,010	-0,109
-562,788	355,021	0,044	0,065
-561,773	19,673	-0,063	-0,037
-560,758	800,000	-0,023	0,049
-559,744	-24,791	0,026	-0,011
-558,729	800,000	-0,038	0,099
-557,715	84,951	-0,034	0,027
-556,700	326,140	0,109	-0,155
-555,685	-102,759	-0,063	0,011
-554,671	-23,804	0,032	-0,014
-553,656	-25,106	0,060	0,026
-552,642	-200,000	-0,002	0,015
-551,627	411,661	0,021	-0,033
-550,612	-135,192	0,111	0,010
-549,598	-200,000	-0,027	-0,189
-548,583	800,000	-0,036	-0,087
-547,569	-36,026	-0,042	0,017
-546,554	-200,000	0,015	0,108
-545,539	50,125	0,060	0,041
-544,525	149,210	0,042	-0,042
-543,510	-166,538	-0,032	0,001
-542,496	36,291	-0,125	-0,081
-541,481	248,399	-0,056	-0,070
-540,466	-90,798	-0,073	0,015
-539,452	167,392	0,069	0,073
-538,437	-45,497	0,026	-0,009
-537,423	-189,780	-0,014	0,000
-536,408	-3,346	0,103	0,053
-535,393	800,000	-0,049	-0,105
-534,379	583,067	-0,055	0,099
-533,364	800,000	-0,027	-0,084
-532,350	82,480	-0,037	0,029
-531,335	-33,203	0,085	0,035
-530,321	-200,000	-0,181	0,000
-529,306	800,000	-0,004	-0,010
-528,291	59,334	0,019	-0,014
-527,277	172,992	-0,034	-0,037
-526,262	800,000	-0,037	-0,085
-525,248	800,000	0,050	0,132
-524,233	-96,886	0,066	0,013
-523,218	800,000	-0,015	0,045
-522,204	800,000	0,065	0,158
-521,189	167,098	-0,060	0,063
-520,175	303,427	-0,087	-0,119
-519,160	800,000	0,037	-0,083
-518,145	94,731	-0,087	-0,073
-517,131	-200,000	0,009	0,064
-516,116	-179,533	0,158	-0,002
-515,102	113,934	-0,047	0,042
-514,087	-200,000	-0,001	-0,130
-513,072	37,505	-0,071	-0,047
-512,058	-15,152	-0,042	0,020
-511,043	-12,127	0,063	0,030
-510,029	156,494	0,096	-0,098
-509,014	174,414	0,060	-0,064
-507,999	-200,000	0,003	-0,035
-506,985	-200,000	-0,018	-0,159
-505,970	123,608	-0,124	-0,114
-504,956	-200,000	0,011	-0,202
-503,941	800,000	0,088	0,182
-502,926	-200,000	0,014	0,095
-501,912	-189,097	0,089	-0,001
-500,897	-86,394	0,019	0,004
-499,883	-200,000	0,007	0,071
-498,868	-200,000	0,014	-0,160
-497,853	44,128	-0,050	0,034
-496,839	75,332	0,042	0,033
-495,824	-145,701	0,169	0,011
-494,810	-38,124	0,112	0,044
-493,795	-90,993	0,102	0,021
-492,781	800,000	0,041	-0,130
-491,766	-200,000	0,008	0,060
-490,751	363,131	-0,083	-0,124
-489,737	-31,870	-0,153	-0,063
-488,722	800,000	0,039	0,113
-487,708	-200,000	0,017	-0,082
-486,693	-200,000	-0,004	0,056
-485,678	-200,000	0,003	-0,087
-484,664	800,000	0,027	0,085
-483,649	-64,286	0,029	-0,009
-482,635	-200,000	0,016	-0,116
-481,620	800,000	0,023	-0,071
-480,605	49,423	0,109	0,076
-479,591	-2,163	0,075	-0,039
-478,576	-200,000	-0,001	0,060
-477,562	-100,107	0,139	-0,025
-476,547	-114,433	0,013	-0,002
-475,532	274,607	-0,028	0,036
-474,518	-200,000	0,043	0,166
-473,503	800,000	-0,055	0,121
-472,489	-107,490	0,057	0,009
-471,474	191,375	-0,055	-0,061
-470,459	-109,486	0,077	-0,012
-469,445	43,066	0,011	-0,008
-468,430	-183,937	0,152	-0,002
-467,416	-200,000	-0,013	-0,093
-466,401	-181,152	-0,031	0,000
-465,386	103,434	0,106	0,091
-464,372	21,541	0,111	0,066
-463,357	-54,044	0,035	0,012
-462,343	71,993	-0,047	0,036
-461,328	263,959	0,055	-0,071
-460,313	70,048	0,092	-0,070
-459,299	-200,000	0,014	0,112
-458,284	464,022	0,024	0,040
-457,270	303,592	-0,036	0,049
-456,255	-146,797	0,111	-0,007
-455,241	-80,147	0,129	-0,032
-454,226	800,000	-0,015	0,036
-453,211	-98,832	-0,071	0,013
-452,197	-200,000	0,001	-0,040
-451,182	51,748	0,051	0,036
-450,168	-200,000	0,022	0,181
-449,153	800,000	-0,014	0,036
-448,138	-200,000	0,022	0,103
-447,124	-200,000	-0,012	-0,057
-446,109	-200,000	-0,012	-0,084
-445,095	-200,000	-0,001	-0,078
-444,080	-38,848	0,082	-0,032
-443,065	-200,000	0,005	0,036
-442,051	371,709	-0,045	-0,067
-441,036	-200,000	-0,010	0,053
-440,022	64,216	-0,136	0,100
-439,007	-99,949	0,033	-0,006
-437,992	-200,000	0,022	-0,120
-436,978	-200,000	-0,026	0,086
-435,963	266,018	-0,022	0,028
-434,949	-120,734	0,011	0,001
-433,934	-200,000	-0,045	-0,195
-432,919	-40,333	0,055	0,021
-431,905	-146,961	-0,045	-0,003
-430,890	55,686	0,038	-0,027
-429,876	38,717	-0,041	0,027
-428,861	123,241	0,099	0,091
-427,846	384,428	-0,038	-0,058
-426,832	800,000	0,039	0,093
-425,817	-56,053	-0,143	0,047
-424,803	607,039	0,021	-0,039
-423,788	441,997	-0,025	-0,040
-422,773	-200,000	-0,004	-0,035
-421,759	-95,724	0,064	0,013
-420,744	73,732	-0,092	0,071
-419,730	389,881	-0,100	-0,152
-418,715	-49,990	-0,116	-0,040
-417,701	719,735	0,049	-0,095
-416,686	263,762	0,101	-0,130
-415,671	261,550	0,101	0,128
-414,657	800,000	-0,064	0,142
-413,642	194,790	-0,107	0,119
-412,628	197,469	-0,015	-0,017
-411,613	345,174	0,064	0,092
-410,598	-200,000	0,006	-0,040
-409,584	38,367	-0,030	-0,020
-408,569	-200,000	-0,003	0,087
-407,555	118,389	-0,078	-0,071
-406,540	-82,851	0,102	-0,024
-405,525	-200,000	0,008	0,056
-404,511	-65,231	0,002	-0,001
-403,496	57,653	-0,008	0,006
-402,482	-70,966	0,046	-0,013
-401,467	800,000	0,028	0,070
-400,452	800,000	0,004	-0,012
-399,438	57,513	0,055	0,040
-398,423	800,000	-0,062	0,156
-397,409	-53,481	0,016	0,005
-396,394	261,589	0,041	-0,052
-395,379	6,828	0,100	-0,054
-394,365	471,879	-0,047	-0,078
-393,350	-10,242	0,148	0,072
-392,336	-200,000	0,000	0,022
-391,321	-0,539	0,061	0,032
-390,306	-53,199	-0,118	-0,039
-389,292	800,000	-0,009	0,020
-388,277	19,719	0,064	0,038
-387,263	617,301	-0,032	-0,059
-386,248	57,148	0,098	-0,070
-385,233	800,000	0,013	0,041
-384,219	122,272	-0,030	0,027
-383,204	123,862	-0,054	0,050
-382,190	-39,015	0,157	0,060
-381,175	416,978	0,042	-0,067
-380,160	352,000	-0,111	0,162
-379,146	-200,000	0,002	0,134
-378,131	-38,238	0,190	0,074
-377,117	-46,938	-0,138	-0,049
-376,102	46,232	-0,069	0,047
-375,088	-19,439	0,107	-0,049
-374,073	-200,000	-0,002	-0,046
-373,058	135,762	-0,136	0,130
-372,044	-87,913	0,190	-0,042
-371,029	-41,200	-0,059	0,022
-370,015	33,289	-0,096	0,061
-369,000	517,302	0,028	0,048
-367,985	-200,000	0,026	-0,150
-366,971	485,463	-0,035	0,059
-365,956	-142,647	-0,040	-0,003
-364,942	70,129	-0,057	-0,043
-363,927	5,053	-0,027	0,014
-362,912	-200,000	-0,001	0,110
-361,898	610,946	-0,010	0,018
-360,883	78,227	0,121	-0,095
-359,869	8,018	-0,097	-0,053
-358,854	226,067	-0,122	0,145
-357,839	343,051	-0,091	0,131
-356,825	85,261	0,132	0,106
-355,810	14,494	0,057	0,033
-354,796	-200,000	-0,017	-0,062
-353,781	-200,000	-0,007	-0,095
-352,766	-200,000	0,019	-0,087
-351,752	-200,000	0,030	-0,169
-350,737	-143,674	0,020	-0,001
-349,723	-90,382	0,131	-0,028
-348,708	62,808	-0,128	-0,093
-347,693	90,818	-0,071	-0,058
-346,679	246,175	-0,080	-0,099
-345,664	-186,851	0,120	-0,001
-344,650	780,650	0,027	0,054
-343,635	123,433	0,051	0,046
-342,620	-200,000	-0,004	0,030
-341,606	417,273	0,065	-0,102
-340,591	800,000	-0,016	-0,048
-339,577	-25,470	-0,086	-0,037
-338,562	10,376	-0,134	0,074
-337,548	76,419	-0,079	-0,061
-336,533	324,648	0,054	0,075
-335,518	-200,000	0,002	-0,061
-334,504	-200,000	-0,003	0,039
-333,489	800,000	0,027	-0,073
-332,475	-200,000	-0,012	-0,042
-331,460	-200,000	-0,056	-0,220
-330,445	-107,734	0,137	-0,022
-329,431	55,460	0,091	0,064
-328,416	-200,000	-0,016	0,071
-327,402	168,064	0,069	-0,072
-326,387	-200,000	0,021	-0,069
-325,372	558,377	0,100	-0,177
-324,358	-35,178	-0,052	-0,021
-323,343	-158,587	-0,211	0,009
-322,329	65,743	-0,068	0,050
-321,314	-46,604	0,069	0,025
-320,299	-24,987	-0,110	0,047
-319,285	145,401	0,019	-0,018
-318,270	-119,367	-0,101	0,013
-317,256	366,984	0,090	0,133
-316,241	-125,057	-0,134	-0,015
-315,226	-148,098	-0,014	0,001
-314,212	-55,736	0,042	0,014
-313,197	-200,000	0,003	-0,080
-312,183	800,000	-0,045	0,094
-311,168	638,252	-0,061	-0,113
-310,153	-200,000	0,007	-0,093
-309,139	800,000	-0,008	0,020
-308,124	126,290	0,100	0,093
-307,110	27,871	0,087	0,053
-306,095	288,405	0,065	0,086
-305,080	-14,169	0,040	0,019
-304,066	-200,000	0,013	0,128
-303,051	-200,000	-0,006	-0,134
-302,037	-200,000	-0,002	-0,035
-301,022	183,584	-0,014	0,015
-300,008	234,744	0,179	0,216
-298,993	800,000	0,025	-0,080
-297,978	787,739	-0,025	0,049
-296,964	-200,000	0,004	0,068
-295,949	-200,000	-0,003	0,070
-294,935	-65,908	-0,053	-0,015
-293,920	97,817	0,056	0,047
-292,905	800,000	-0,016	0,042
-291,891	800,000	0,018	0,043
-290,876	-67,914	0,100	0,028
-289,862	-200,000	0,010	0,037
-288,847	-1,212	0,032	-0,017
-287,832	-47,192	0,098	-0,035
-286,818	-88,591	0,124	-0,027
-285,803	-52,128	-0,030	-0,010
-284,789	800,000	0,020	-0,046
-283,774	360,141	-0,065	-0,095
-282,759	189,986	-0,085	0,094
-281,745	293,205	-0,054	-0,071
-280,730	-200,000	-0,001	-0,043
-279,716	-200,000	0,007	0,068
-278,701	-26,446	0,132	0,056
-277,686	100,849	-0,075	0,064
-276,672	-89,223	-0,009	0,002
-275,657	135,960	-0,084	-0,080
-274,643	112,869	0,014	-0,012
-273,628	-200,000	0,002	-0,195
-272,613	-94,664	-0,041	0,008
-271,599	217,027	0,107	0,125
-270,584	-163,464	-0,038	0,001
-269,570	-116,227	0,091	0,012
-268,555	-200,000	0,024	0,095
-267,540	-200,000	0,000	-0,080
-266,526	400,624	0,043	-0,066
-265,511	581,460	0,036	-0,065
-264,497	458,979	-0,053	0,086
-263,482	148,198	0,178	0,175
-262,467	-101,843	0,116	-0,020
-261,453	71,477	-0,094	0,071
-260,438	-136,877	-0,106	-0,009
-259,424	-63,408	-0,054	0,016
-258,409	-109,746	-0,084	0,013
-257,395	58,953	0,068	0,048
-256,380	-200,000	0,021	-0,070
-255,365	-91,512	0,083	-0,017
-254,351	128,823	-0,116	-0,108
-253,336	57,904	-0,083	-0,059
-252,322	-200,000	-0,038	-0,134
-251,307	-26,136	-0,142	-0,061
-250,292	-200,000	-0,001	-0,121
-249,278	164,174	0,128	0,132
-248,263	501,954	-0,073	0,124
-247,249	-18,818	0,028	-0,013
-246,234	550,345	-0,022	0,038
-245,219	-17,004	-0,071	-0,033
-244,205	-200,000	0,009	0,059
-243,190	39,164	-0,058	0,038
-242,176	488,199	-0,050	0,084
-241,161	128,295	0,094	-0,088
-240,146	218,911	0,104	0,121
-239,132	-200,000	0,025	-0,130
-238,117	-200,000	0,006	0,021
-237,103	575,694	0,015	0,027
-236,088	196,377	0,052	-0,058
-235,073	-200,000	0,030	-0,111
-234,059	426,751	0,008	-0,013
-233,044	-146,189	0,036	0,002
-232,030	69,386	-0,059	0,044
-231,015	-43,314	-0,169	0,062
-230,000	-200,000	-0,001	0,066
-228,986	127,120	0,152	-0,141
-227,971	-88,606	0,040	-0,009
-226,957	800,000	0,020	0,058
-225,942	-200,000	-0,023	-0,139
-224,927	92,501	0,058	-0,048
-223,913	48,597	-0,069	0,047
-222,898	224,220	0,058	-0,068
-221,884	800,000	0,034	0,071
-220,869	174,600	-0,054	0,057
-219,855	565,821	-0,007	-0,012
-218,840	-200,000	-0,031	0,116
-217,825	90,475	-0,064	0,052
-216,811	-94,461	-0,054	-0,011
-215,796	-93,200	-0,032	-0,006
-214,782	-194,946	-0,021	0,000
-213,767	800,000	-0,041	0,091
-212,752	36,059	0,068	0,043
-211,738	-117,544	0,141	-0,018
-210,723	173,186	0,017	0,018
-209,709	209,593	0,033	-0,038
-208,694	316,957	-0,085	-0,117
-207,679	-200,000	0,017	0,139
-206,665	55,027	0,050	0,035
-205,650	32,927	0,153	0,096
-204,636	800,000	0,062	-0,133
-203,621	391,794	0,072	0,109
-202,606	244,585	-0,024	-0,029
-201,592	-66,398	-0,198	-0,057
-200,577	10,175	0,110	-0,060
-199,563	800,000	-0,048	0,097
-198,548	13,272	0,096	0,054
-197,533	207,278	0,113	-0,128
-196,519	436,483	0,018	-0,029
-195,504	87,960	0,063	-0,051
-194,490	-135,989	-0,026	0,002
-193,475	768,227	-0,036	0,071
-192,460	-56,684	0,073	0,023
-191,446	268,019	0,012	0,015
-190,431	679,271	0,047	0,090
-189,417	141,326	0,072	0,069
-188,402	49,055	-0,062	0,042
-187,387	-200,000	0,014	0,059
-186,373	-6,220	-0,186	-0,092
-185,358	31,758	-0,067	-0,042
-184,344	800,000	0,050	-0,122
-183,329	800,000	0,059	0,181
-182,315	364,150	-0,050	0,073
-181,300	50,548	0,030	0,021
-180,285	79,929	-0,079	-0,062
-179,271	-33,506	-0,181	0,072
-178,256	-200,000	-0,002	0,133
-177,242	511,685	0,043	-0,074
-176,227	171,951	-0,033	-0,035
-175,212	-151,386	-0,116	-0,006
-174,198	120,773	-0,057	0,052
-173,183	-200,000	0,018	-0,061
-172,169	-95,749	0,048	0,009
-171,154	566,672	0,063	0,111
-170,139	-200,000	0,018	0,080
-169,125	-97,777	0,016	-0,003
-168,110	353,459	0,084	0,121
-167,096	-39,121	-0,126	0,048
-166,081	511,486	-0,028	-0,047
-165,066	78,104	0,090	0,070
-164,052	-123,978	0,133	-0,015
-163,037	-200,000	0,023	0,110
-162,023	66,326	-0,070	0,052
-161,008	-200,000	-0,006	0,054
-159,993	157,146	-0,064	0,065
-158,979	-19,828	-0,146	0,065
-157,964	-200,000	0,002	-0,129
-156,950	263,226	0,077	-0,097
-155,935	-200,000	0,009	-0,124
-154,920	170,027	-0,103	0,107
-153,906	-41,820	0,094	-0,035
-152,891	800,000	-0,017	0,052
-151,877	88,581	-0,114	-0,092
-150,862	-70,260	-0,178	-0,049
-149,847	-200,000	0,014	0,120
-148,833	-200,000	-0,026	0,108
-147,818	-200,000	0,028	0,098
-146,804	-3,692	0,029	-0,015
-145,789	134,714	0,032	-0,030
-144,775	508,173	-0,066	-0,111
-143,760	0,415	0,118	-0,061
-142,745	578,289	-0,021	-0,037
-141,731	-54,755	-0,057	0,019
-140,716	-200,000	0,003	0,283
-139,702	188,059	0,029	0,031
-138,687	-200,000	0,013	0,103
-137,672	-200,000	-0,015	-0,059
-136,658	-139,716	0,068	0,005
-135,643	633,565	0,029	-0,053
-134,629	559,653	-0,056	-0,098
-133,614	800,000	0,010	0,023
-132,599	148,802	-0,049	0,048
-131,585	49,746	-0,104	0,071
-130,570	156,305	0,019	0,019
-129,556	-200,000	0,007	0,050
-128,541	-200,000	-0,001	0,008
-127,526	756,592	-0,051	-0,100
-126,512	71,072	0,099	-0,075
-125,497	-200,000	0,007	0,037
-124,483	-24,770	0,059	-0,025
-123,468	314,953	-0,040	0,055
-122,453	-91,807	0,060	-0,012
-121,439	-200,000	0,002	0,047
-120,424	124,710	-0,089	-0,081
-119,410	31,799	0,117	-0,073
-118,395	-200,000	-0,024	0,090
