DTS Sentinel unit serial number:	SN410029Multiplexer serial number:	ORYXHardware model number:	OX2-SRSoftware version number:	ORYX F/W v4,00 Oryx Data Collector v3.7.2.0data status	okinstallation	B6 Nyhavnadifferential loss correction	single-endedforward channel	channel 2reverse channel	N/Adate	2023/12/10time	16:40:08forward acquisition time	300,00reverse acquisition time	0,00gamma	499,1914k internal	0,3122k external	0,3122temperature offset calibration	1,0000default loss term (dB/km)	0,3820temperature slope calibration	1,0000multiplexer offset coefficient	1,0000multiplexer slope coefficient	1,0000fibre end	0,00T internal ref (°C)	22,38T ext. ref 1 (°C)	6,16T ext. ref 2 (°C)	6,18length (m)	temperature (°C)	Stokes	anti-Stokes-744,400	800,000	0,064	-0,137
-743,385	-84,785	-0,288	0,067
-742,371	226,722	0,051	-0,062
-741,356	-143,850	-0,173	0,012
-740,342	118,652	-0,064	0,059
-739,327	145,935	-0,127	0,127
-738,312	-15,727	0,110	-0,052
-737,298	-8,807	-0,214	0,107
-736,283	-4,055	0,107	0,055
-735,269	-74,012	-0,249	0,067
-734,254	225,104	0,042	0,051
-733,239	-125,070	-0,475	-0,054
-732,225	203,643	0,063	-0,073
-731,210	-200,000	-0,021	0,205
-730,196	-200,000	-0,041	-0,135
-729,181	69,526	-0,027	0,021
-728,167	800,000	0,005	-0,013
-727,152	-200,000	-0,007	-0,030
-726,137	-200,000	-0,007	-0,059
-725,123	800,000	-0,094	-0,198
-724,108	176,181	-0,046	-0,049
-723,094	-200,000	0,011	-0,053
-722,079	-200,000	-0,098	0,000
-721,064	-200,000	0,010	0,040
-720,050	201,650	-0,089	0,102
-719,035	-114,635	-0,082	-0,012
-718,021	-200,000	-0,023	-0,113
-717,006	-138,973	-0,114	0,009
-715,991	-75,474	-0,086	0,023
-714,977	800,000	0,060	0,151
-713,962	136,962	0,049	-0,047
-712,948	54,176	0,119	0,085
-711,933	32,575	-0,102	0,066
-710,918	25,554	0,098	-0,060
-709,904	537,803	0,026	0,046
-708,889	481,555	-0,045	-0,076
-707,875	39,817	-0,056	-0,037
-706,860	116,295	0,018	0,016
-705,845	317,026	-0,024	-0,034
-704,831	-200,000	0,020	-0,097
-703,816	-200,000	0,016	-0,074
-702,802	190,409	0,112	-0,126
-701,787	-200,000	-0,004	-0,018
-700,772	800,000	-0,049	-0,144
-699,758	-99,100	-0,065	-0,012
-698,743	164,107	0,052	-0,054
-697,729	13,544	-0,085	0,049
-696,714	800,000	-0,016	-0,047
-695,699	72,959	-0,091	-0,071
-694,685	394,528	-0,086	0,134
-693,670	-31,306	-0,179	-0,075
-692,656	-200,000	0,002	-0,065
-691,641	405,520	-0,016	0,025
-690,627	-200,000	-0,004	0,140
-689,612	-136,007	-0,039	0,003
-688,597	800,000	0,044	-0,138
-687,583	-163,773	0,137	-0,005
-686,568	58,723	0,063	0,046
-685,554	302,426	0,031	0,043
-684,539	-22,144	0,025	-0,011
-683,524	-131,686	-0,071	-0,007
-682,510	-200,000	-0,006	-0,066
-681,495	200,215	0,092	-0,106
-680,481	37,190	0,045	-0,029
-679,466	29,980	-0,112	-0,071
-678,451	800,000	0,036	-0,114
-677,437	146,186	-0,080	0,080
-676,422	628,971	-0,036	-0,067
-675,408	-65,678	0,033	0,010
-674,393	62,793	-0,059	0,044
-673,378	-103,777	-0,086	-0,015
-672,364	743,525	-0,032	0,064
-671,349	-200,000	-0,021	-0,095
-670,335	-52,058	-0,134	0,046
-669,320	102,247	0,081	0,071
-668,305	-200,000	-0,025	0,134
-667,291	-74,985	-0,157	0,041
-666,276	-103,681	-0,093	-0,016
-665,262	-32,756	-0,126	-0,052
-664,247	-200,000	-0,025	-0,104
-663,232	800,000	0,034	-0,074
-662,218	177,398	0,059	0,063
-661,203	-25,203	-0,128	-0,056
-660,189	-89,451	-0,071	0,015
-659,174	-157,042	-0,130	0,006
-658,159	703,583	-0,071	-0,140
-657,145	42,216	-0,088	-0,059
-656,130	-20,436	0,055	0,025
-655,116	-21,130	-0,064	-0,029
-654,101	131,299	0,073	0,070
-653,086	-133,532	-0,146	0,013
-652,072	-46,006	-0,102	0,037
-651,057	237,926	-0,115	-0,142
-650,043	-62,134	-0,057	0,017
-649,028	311,426	0,061	0,086
-648,014	-101,658	0,162	0,029
-646,999	176,815	-0,053	0,057
-645,984	89,031	0,056	-0,046
-644,970	100,064	-0,083	0,072
-643,955	187,887	0,063	0,070
-642,941	177,149	-0,101	-0,109
-641,926	-200,000	0,018	-0,068
-640,911	-200,000	-0,014	-0,046
-639,897	-46,929	0,026	0,009
-638,882	-200,000	0,014	0,111
-637,868	-140,207	-0,030	-0,002
-636,853	154,400	-0,021	0,022
-635,838	559,706	-0,042	-0,075
-634,824	-200,000	-0,026	-0,129
-633,809	444,034	0,025	-0,041
-632,795	201,815	0,041	-0,047
-631,780	-200,000	-0,011	0,142
-630,765	366,687	-0,037	-0,056
-629,751	-79,756	-0,057	0,014
-628,736	-200,000	0,017	-0,124
-627,722	304,858	-0,101	-0,140
-626,707	-85,524	-0,134	0,031
-625,692	-155,634	0,010	-0,000
-624,678	-200,000	-0,024	0,118
-623,663	56,746	-0,091	-0,066
-622,649	800,000	-0,031	-0,070
-621,634	800,000	-0,019	-0,047
-620,619	400,602	0,047	-0,073
-619,605	63,448	0,116	0,087
-618,590	-200,000	0,027	0,099
-617,576	329,515	0,063	0,090
-616,561	253,817	-0,019	0,024
-615,546	297,649	0,058	0,079
-614,532	-200,000	-0,038	-0,144
-613,517	-151,208	-0,130	0,007
-612,503	49,063	-0,038	-0,026
-611,488	-145,599	0,015	0,001
-610,474	55,559	-0,064	0,046
-609,459	44,204	0,024	-0,017
-608,444	105,408	-0,011	0,010
-607,430	569,031	0,029	-0,052
-606,415	-200,000	-0,046	-0,157
-605,401	-109,704	0,057	-0,009
-604,386	800,000	0,060	0,123
-603,371	800,000	0,010	0,031
-602,357	800,000	-0,045	-0,102
-601,342	-124,864	-0,094	-0,011
-600,328	107,678	0,055	-0,049
-599,313	800,000	0,037	-0,088
-598,298	-107,985	0,055	-0,009
-597,284	552,012	-0,065	-0,116
-596,269	393,186	0,047	0,073
-595,255	19,439	-0,077	0,046
-594,240	-200,000	-0,009	-0,088
-593,225	-200,000	-0,010	-0,043
-592,211	-137,651	-0,074	0,006
-591,196	369,017	0,038	-0,058
-590,182	800,000	0,025	0,054
-589,167	181,327	-0,124	0,135
-588,152	146,398	0,023	-0,023
-587,138	316,109	-0,049	-0,069
-586,123	800,000	-0,018	-0,046
-585,109	-126,195	-0,185	-0,020
-584,094	220,906	-0,050	-0,059
-583,079	-200,000	-0,005	-0,109
-582,065	134,572	0,023	0,022
-581,050	-132,225	0,075	0,007
-580,036	21,769	-0,071	0,043
-579,021	222,396	0,092	0,110
-578,006	-200,000	-0,013	-0,159
-576,992	177,402	0,056	-0,061
-575,977	221,790	0,039	0,046
-574,963	-116,629	0,159	-0,021
-573,948	5,132	0,050	-0,027
-572,934	-130,248	-0,150	0,015
-571,919	-200,000	-0,026	-0,087
-570,904	-1,219	-0,147	-0,077
-569,890	800,000	-0,066	-0,143
-568,875	64,420	-0,029	-0,022
-567,861	-200,000	0,046	0,174
-566,846	-153,239	0,085	0,004
-565,831	3,426	0,124	-0,067
-564,817	181,425	0,086	-0,094
-563,802	309,070	0,022	0,030
-562,788	-200,000	-0,017	-0,084
-561,773	94,298	-0,096	-0,081
-560,758	-200,000	-0,005	0,025
-559,744	800,000	-0,036	-0,115
-558,729	-200,000	0,008	-0,070
-557,715	-67,764	0,057	-0,016
-556,700	39,244	-0,097	-0,064
-555,685	87,313	-0,083	0,068
-554,671	-200,000	0,004	0,082
-553,656	368,374	0,047	-0,071
-552,642	-200,000	-0,008	0,068
-551,627	510,266	-0,021	-0,037
-550,612	54,531	0,105	0,075
-549,598	-200,000	-0,003	-0,019
-548,583	211,110	0,047	-0,055
-547,569	800,000	-0,013	0,029
-546,554	220,694	0,058	-0,069
-545,539	-200,000	-0,015	0,095
-544,525	-200,000	0,023	0,165
-543,510	76,916	0,081	0,063
-542,496	751,159	-0,051	-0,102
-541,481	517,946	-0,059	-0,102
-540,466	26,054	0,124	0,076
-539,452	-200,000	-0,014	0,068
-538,437	-200,000	0,016	-0,060
-537,423	-197,248	0,180	-0,001
-536,408	-62,618	0,156	0,048
-535,393	-67,355	-0,031	0,009
-534,379	800,000	-0,053	-0,164
-533,364	-200,000	0,005	-0,215
-532,350	-38,039	0,096	0,038
-531,335	37,904	-0,097	0,064
-530,321	-165,304	0,074	0,002
-529,306	117,004	-0,034	-0,031
-528,291	32,196	-0,089	-0,057
-527,277	-200,000	-0,013	-0,115
-526,262	800,000	0,012	-0,037
-525,248	-37,488	-0,044	-0,017
-524,233	-200,000	0,017	0,158
-523,218	-200,000	0,010	0,037
-522,204	-200,000	-0,006	-0,125
-521,189	89,035	0,105	-0,086
-520,175	-76,017	-0,124	-0,032
-519,160	-1,640	-0,053	-0,027
-518,145	381,120	-0,049	-0,075
-517,131	-91,557	-0,109	0,023
-516,116	150,980	0,065	0,065
-515,102	369,484	0,046	0,068
-514,087	-200,000	-0,005	0,061
-513,072	-200,000	-0,025	-0,209
-512,058	199,329	-0,060	-0,068
-511,043	162,019	0,159	0,165
-510,029	-183,476	0,181	0,002
-509,014	-141,561	-0,108	-0,008
-507,999	348,164	0,052	-0,076
-506,985	800,000	0,009	-0,019
-505,970	-94,661	0,110	0,022
-504,956	157,979	0,052	0,054
-503,941	398,661	0,038	0,059
-502,926	385,281	-0,010	0,016
-501,912	212,710	-0,066	0,077
-500,897	-200,000	0,004	-0,096
-499,883	-200,000	-0,013	0,059
-498,868	-3,213	-0,106	-0,054
-497,853	-200,000	-0,017	-0,129
-496,839	151,343	0,092	-0,093
-495,824	-5,912	0,081	0,041
-494,810	30,283	-0,090	-0,056
-493,795	221,287	-0,054	0,064
-492,781	458,365	0,036	0,059
-491,766	459,256	0,042	0,069
-490,751	-157,939	0,072	0,003
-489,737	311,356	0,011	-0,015
-488,722	73,712	-0,120	0,093
-487,708	181,149	0,141	0,153
-486,693	15,150	0,051	0,029
-485,678	-147,208	-0,128	-0,008
-484,664	50,574	-0,095	-0,066
-483,649	-0,085	-0,133	-0,070
-482,635	-125,542	-0,081	-0,009
-481,620	-200,000	0,011	-0,097
-480,605	-58,788	-0,029	-0,009
-479,591	-200,000	0,023	-0,086
-478,576	3,546	-0,045	-0,024
-477,562	-74,835	0,053	-0,014
-476,547	-92,246	-0,039	-0,008
-475,532	155,382	-0,081	0,083
-474,518	35,447	-0,049	0,032
-473,503	333,417	-0,027	0,039
-472,489	670,369	-0,057	-0,109
-471,474	-23,005	0,029	0,013
-470,459	-96,482	0,083	-0,016
-469,445	535,643	-0,060	-0,105
-468,430	-173,496	-0,107	-0,002
-467,416	-67,085	0,059	-0,017
-466,401	122,445	-0,057	-0,052
-465,386	-127,626	0,143	0,015
-464,372	-200,000	0,005	0,033
-463,357	125,800	-0,069	0,064
-462,343	-200,000	0,035	-0,180
-461,328	119,546	-0,165	-0,151
-460,313	-200,000	0,012	0,108
-459,299	-6,046	0,089	-0,045
-458,284	-15,170	0,053	-0,025
-457,270	-86,678	0,028	0,006
-456,255	-200,000	-0,008	-0,068
-455,241	234,513	-0,069	-0,084
-454,226	-139,087	-0,127	-0,010
-453,211	51,915	0,045	0,032
-452,197	-166,410	0,073	-0,002
-451,182	230,338	0,127	0,153
-450,168	476,707	-0,053	0,089
-449,153	-31,910	-0,099	0,041
-448,138	158,082	-0,114	0,117
-447,124	800,000	-0,025	-0,053
-446,109	-116,384	0,157	0,021
-445,095	573,704	-0,047	0,084
-444,080	800,000	0,056	0,159
-443,065	800,000	0,024	-0,050
-442,051	1,318	-0,061	0,032
-441,036	82,112	0,124	0,099
-440,022	-137,684	-0,065	0,005
-439,007	-77,060	0,032	0,008
-437,992	145,256	-0,080	-0,079
-436,978	800,000	-0,043	0,097
-435,963	385,001	0,058	0,089
-434,949	-200,000	0,013	-0,045
-433,934	-15,623	-0,124	-0,058
-432,919	800,000	0,033	0,083
-431,905	235,801	-0,063	-0,077
-430,890	-200,000	0,020	-0,100
-429,876	347,481	0,085	0,123
-428,861	38,003	0,226	0,148
-427,846	155,498	0,014	0,015
-426,832	-131,280	0,104	-0,010
-425,817	-49,738	-0,068	0,024
-424,803	422,832	-0,024	0,037
-423,788	-200,000	0,027	-0,130
-422,773	-118,471	0,151	0,020
-421,759	-200,000	-0,018	0,092
-420,744	54,342	0,098	-0,069
-419,730	-200,000	0,001	0,045
-418,715	301,378	0,039	-0,053
-417,701	-200,000	-0,008	0,046
-416,686	146,102	0,069	0,068
-415,671	-186,800	0,017	-0,000
-414,657	52,846	0,025	0,017
-413,642	-106,154	-0,086	0,014
-412,628	432,405	-0,072	0,115
-411,613	800,000	-0,028	0,070
-410,598	7,359	-0,025	-0,014
-409,584	215,692	0,063	-0,074
-408,569	101,335	0,027	-0,023
-407,555	-200,000	0,040	0,163
-406,540	-200,000	-0,005	0,092
-405,525	-200,000	0,025	0,142
-404,511	-134,714	-0,177	0,016
-403,496	-200,000	0,029	0,113
-402,482	19,057	-0,128	-0,075
-401,467	16,107	0,163	-0,094
-400,452	641,863	-0,035	0,066
-399,438	673,435	-0,039	0,074
-398,423	800,000	0,054	0,142
-397,409	305,188	-0,086	-0,118
-396,394	-28,050	-0,056	-0,024
-395,379	-36,025	0,060	-0,024
-394,365	-200,000	0,013	0,042
-393,350	-157,793	0,067	-0,003
-392,336	12,450	-0,050	-0,028
-391,321	800,000	0,076	0,163
-390,306	505,839	0,044	-0,076
-389,292	147,768	-0,013	-0,013
-388,277	1,915	-0,099	-0,052
-387,263	504,524	0,068	-0,116
-386,248	-200,000	0,011	0,101
-385,233	475,062	-0,060	0,100
-384,219	23,867	-0,040	0,024
-383,204	358,547	0,019	-0,027
-382,190	-200,000	0,012	0,058
-381,175	800,000	-0,079	-0,186
-380,160	168,067	0,056	0,059
-379,146	800,000	-0,033	0,076
-378,131	-200,000	-0,015	-0,074
-377,117	287,071	0,063	0,084
-376,102	261,490	-0,035	-0,045
-375,088	221,878	-0,086	-0,102
-374,073	-95,008	0,047	-0,009
-373,058	132,750	0,050	0,048
-372,044	29,199	-0,043	0,027
-371,029	-120,490	-0,049	-0,006
-370,015	-84,905	0,085	0,020
-369,000	-91,712	0,149	-0,031
-367,985	-79,503	-0,171	0,042
-366,971	281,341	-0,068	0,089
-365,956	684,622	-0,034	0,066
-364,942	800,000	0,068	-0,185
-363,927	-200,000	-0,001	0,047
-362,912	-200,000	0,008	0,082
-361,898	587,066	-0,049	-0,088
-360,883	-128,978	-0,025	0,003
-359,869	8,755	0,074	-0,041
-358,854	-200,000	-0,016	-0,151
-357,839	156,127	-0,018	0,018
-356,825	44,955	0,057	0,038
-355,810	800,000	-0,050	0,111
-354,796	196,358	-0,088	-0,099
-353,781	27,483	0,027	0,016
-352,766	348,761	-0,002	-0,002
-351,752	-103,165	-0,164	-0,028
-350,737	16,155	-0,026	-0,015
-349,723	-110,024	0,018	-0,003
-348,708	459,170	0,068	0,111
-347,693	-200,000	0,005	0,016
-346,679	-200,000	-0,047	-0,159
-345,664	-200,000	0,004	-0,121
-344,650	800,000	-0,010	0,027
-343,635	-63,243	0,106	-0,032
-342,620	180,893	0,043	0,047
-341,606	3,232	0,075	0,040
-340,591	-14,530	0,068	-0,032
-339,577	-68,703	-0,062	-0,018
-338,562	-34,347	-0,092	-0,037
-337,548	-200,000	0,038	-0,140
-336,533	-4,696	0,028	0,014
-335,518	800,000	0,027	0,062
-334,504	-200,000	0,035	0,159
-333,489	-150,712	-0,224	0,012
-332,475	-200,000	-0,008	0,101
-331,460	800,000	-0,059	-0,190
-330,445	-200,000	-0,024	0,081
-329,431	47,459	-0,153	0,105
-328,416	-29,580	0,098	0,041
-327,402	732,657	-0,024	0,047
-326,387	800,000	0,073	0,164
-325,372	272,980	0,075	0,098
-324,358	-200,000	-0,022	0,106
-323,343	-81,656	-0,129	-0,031
-322,329	-33,929	-0,037	0,015
-321,314	70,331	-0,106	-0,081
-320,299	-200,000	-0,014	-0,047
-319,285	126,550	-0,039	-0,036
-318,270	24,496	-0,090	0,054
-317,256	79,609	0,065	-0,051
-316,241	790,741	0,058	0,118
-315,226	-42,748	-0,049	0,018
-314,212	-200,000	-0,007	0,045
-313,197	127,372	-0,053	0,049
-312,183	446,296	0,053	0,085
-311,168	-200,000	0,009	0,104
-310,153	-102,086	0,044	0,008
-309,139	800,000	-0,031	-0,086
-308,124	135,288	-0,079	-0,075
-307,110	44,257	0,138	-0,093
-306,095	19,683	0,082	-0,048
-305,080	-117,668	-0,054	0,007
-304,066	123,037	-0,011	0,010
-303,051	126,067	0,128	0,118
-302,037	-200,000	0,004	-0,040
-301,022	-200,000	-0,006	0,066
-300,008	650,699	0,117	0,220
-298,993	-122,398	-0,099	-0,012
-297,978	129,251	-0,108	-0,101
-296,964	-200,000	0,028	-0,108
-295,949	455,056	-0,013	-0,021
-294,935	-200,000	0,009	-0,054
-293,920	170,362	0,043	0,046
-292,905	-200,000	-0,039	-0,133
-291,891	-30,038	-0,119	-0,049
-290,876	550,542	0,033	-0,058
-289,862	-200,000	0,008	-0,084
-288,847	-200,000	0,011	-0,117
-287,832	-200,000	-0,002	-0,171
-286,818	-122,364	0,080	0,009
-285,803	-200,000	0,162	0,000
-284,789	-200,000	0,023	-0,105
-283,774	800,000	-0,023	0,052
-282,759	800,000	-0,027	-0,064
-281,745	-110,040	0,040	0,006
-280,730	-160,264	0,066	0,003
-279,716	94,713	-0,106	-0,088
-278,701	-200,000	-0,010	-0,089
-277,686	-18,786	-0,044	-0,020
-276,672	707,491	0,046	0,088
-275,657	25,801	-0,014	0,009
-274,643	137,463	-0,067	0,064
-273,628	100,883	0,156	-0,132
-272,613	33,522	0,073	0,047
-271,599	-36,232	0,142	-0,056
-270,584	258,914	-0,025	0,032
-269,570	-200,000	0,008	-0,212
-268,555	-200,000	-0,010	0,061
-267,540	-200,000	0,038	-0,129
-266,526	-200,000	0,010	-0,166
-265,511	496,213	0,028	0,047
-264,497	56,474	-0,037	-0,026
-263,482	800,000	-0,023	0,072
-262,467	318,351	0,038	0,053
-261,453	-150,955	-0,027	-0,001
-260,438	201,606	-0,057	-0,064
-259,424	-200,000	0,002	-0,093
-258,409	-200,000	-0,012	-0,090
-257,395	-36,297	-0,079	-0,031
-256,380	-200,000	0,013	-0,108
-255,365	-200,000	0,011	0,205
-254,351	432,395	0,036	-0,058
-253,336	-92,168	-0,062	0,013
-252,322	78,753	0,118	-0,093
-251,307	60,146	0,026	-0,019
-250,292	57,177	-0,033	0,024
-249,278	-185,780	-0,106	0,001
-248,263	-155,044	0,158	0,007
-247,249	226,359	-0,019	0,022
-246,234	-200,000	-0,001	0,018
-245,219	192,941	0,084	-0,093
-244,205	-61,560	-0,064	0,019
-243,190	-114,218	0,111	0,015
-242,176	-105,493	0,121	0,020
-241,161	10,931	-0,082	-0,046
-240,146	146,889	0,096	0,094
-239,132	-21,850	0,087	0,039
-238,117	183,893	0,034	-0,036
-237,103	-49,430	0,096	-0,033
-236,088	-41,554	0,064	-0,024
-235,073	-200,000	0,004	0,088
-234,059	-200,000	-0,002	0,090
-233,044	748,441	0,040	0,079
-232,030	188,918	-0,064	0,070
-231,015	-200,000	-0,008	0,035
-230,000	-110,638	-0,144	0,022
-228,986	4,190	0,079	-0,042
-227,971	201,200	0,031	-0,035
-226,957	-167,419	0,062	-0,002
-225,942	279,156	-0,054	-0,070
-224,927	800,000	0,036	0,083
-223,913	63,080	-0,016	0,012
-222,898	-200,000	0,017	0,069
-221,884	11,911	0,020	-0,011
-220,869	202,628	-0,110	-0,124
-219,855	-200,000	0,007	0,061
-218,840	171,919	-0,026	-0,027
-217,825	200,860	-0,012	-0,013
-216,811	-26,478	-0,056	0,024
-215,796	800,000	-0,047	-0,145
-214,782	-200,000	-0,017	0,076
-213,767	0,623	-0,152	0,079
-212,752	340,268	0,045	0,065
-211,738	-189,177	0,053	-0,000
-210,723	326,177	0,093	0,130
-209,709	536,049	0,020	-0,034
-208,694	464,623	-0,029	0,047
-207,679	316,169	0,066	-0,092
-206,665	800,000	0,022	-0,068
-205,650	-200,000	-0,040	0,145
-204,636	-68,896	0,150	0,042
-203,621	800,000	0,027	0,065
-202,606	196,109	-0,015	-0,017
-201,592	800,000	0,025	0,054
-200,577	-103,656	0,039	0,007
-199,563	-35,541	0,054	-0,021
-198,548	-200,000	-0,018	0,184
-197,533	382,246	0,087	0,131
-196,519	800,000	-0,038	0,104
-195,504	-200,000	-0,012	0,091
-194,490	-164,268	-0,067	0,002
-193,475	-200,000	0,009	-0,030
-192,460	245,702	-0,023	-0,029
-191,446	-99,731	-0,038	0,007
-190,431	275,707	-0,078	0,101
-189,417	76,445	0,047	0,036
-188,402	800,000	0,031	0,076
-187,387	389,751	-0,016	0,024
-186,373	-200,000	-0,009	-0,103
-185,358	249,299	-0,091	0,113
-184,344	294,050	0,068	-0,091
-183,329	-200,000	0,006	0,040
-182,315	418,979	0,044	-0,069
-181,300	287,368	-0,037	-0,049
-180,285	244,703	0,058	0,071
-179,271	639,770	-0,059	-0,109
-178,256	384,479	-0,010	0,014
-177,242	800,000	0,018	0,049
-176,227	-200,000	-0,022	0,130
-175,212	800,000	-0,017	-0,038
-174,198	-200,000	-0,008	0,050
-173,183	25,322	-0,022	0,013
-172,169	800,000	-0,035	0,076
-171,154	-50,585	-0,133	0,045
-170,139	474,684	0,018	-0,030
-169,125	95,623	-0,064	0,053
-168,110	800,000	0,018	-0,039
-167,096	270,562	0,081	0,104
-166,081	22,329	-0,035	0,021
-165,066	-65,334	-0,142	0,041
-164,052	-200,000	-0,010	-0,053
-163,037	-131,694	0,036	0,003
-162,023	-5,922	0,117	0,058
-161,008	-200,000	-0,029	0,127
-159,993	-52,462	-0,056	0,019
-158,979	-200,000	0,007	-0,052
-157,964	346,386	-0,048	-0,069
-156,950	-89,240	-0,100	-0,021
-155,935	-39,081	0,090	0,034
-154,920	13,106	-0,132	-0,074
-153,906	-64,352	0,105	-0,031
-152,891	436,136	0,086	0,138
-151,877	-200,000	-0,004	0,013
-150,862	-200,000	-0,014	-0,121
-149,847	116,976	-0,133	-0,119
-148,833	-57,834	0,092	-0,029
-147,818	391,934	-0,063	-0,096
-146,804	516,747	-0,064	0,110
-145,789	800,000	-0,013	-0,034
-144,775	208,736	0,026	0,029
-143,760	-200,000	-0,002	0,072
-142,745	800,000	0,009	0,026
-141,731	-62,881	-0,052	-0,016
-140,716	196,355	-0,127	-0,141
-139,702	-200,000	-0,010	-0,084
-138,687	-70,974	0,091	0,025
-137,672	47,582	0,061	0,042
-136,658	800,000	-0,023	-0,057
-135,643	717,376	0,038	-0,074
-134,629	2,713	-0,055	-0,029
-133,614	389,257	0,089	0,135
-132,599	24,279	0,121	-0,073
-131,585	-200,000	-0,001	0,065
-130,570	21,124	0,030	0,018
-129,556	-200,000	-0,004	-0,122
-128,541	-200,000	-0,002	-0,087
-127,526	-97,093	-0,121	-0,023
-126,512	307,384	0,057	-0,078
-125,497	800,000	0,046	0,147
-124,483	-106,642	0,066	0,011
-123,468	-49,130	-0,087	0,030
-122,453	57,746	0,138	-0,098
-121,439	93,940	0,035	0,029
-120,424	-148,931	0,101	0,006
-119,410	80,887	0,089	-0,070
