DTS Sentinel unit serial number:	SN410029Multiplexer serial number:	ORYXHardware model number:	OX2-SRSoftware version number:	ORYX F/W v4,00 Oryx Data Collector v3.7.2.0data status	okinstallation	B6 Nyhavnadifferential loss correction	single-endedforward channel	channel 2reverse channel	N/Adate	2023/12/07time	22:50:08forward acquisition time	300,00reverse acquisition time	0,00gamma	499,1914k internal	0,3164k external	0,3164temperature offset calibration	1,0000default loss term (dB/km)	0,3820temperature slope calibration	1,0000multiplexer offset coefficient	1,0000multiplexer slope coefficient	1,0000fibre end	0,00T internal ref (°C)	13,53T ext. ref 1 (°C)	-3,38T ext. ref 2 (°C)	-3,37length (m)	temperature (°C)	Stokes	anti-Stokes-744,400	247,431	-0,057	0,070
-743,385	-50,191	-0,304	0,105
-742,371	8,099	0,144	0,079
-741,356	-170,212	-0,399	-0,010
-740,342	-0,151	0,083	0,043
-739,327	-99,059	-0,449	-0,083
-738,312	-24,716	0,147	0,064
-737,298	-120,057	-0,309	-0,039
-736,283	16,875	0,220	0,128
-735,269	-70,766	-0,317	-0,087
-734,254	196,034	0,114	-0,128
-733,239	-63,845	-0,547	-0,163
-732,225	-20,464	0,298	0,134
-731,210	-200,000	-0,013	0,092
-730,196	390,898	-0,056	-0,086
-729,181	495,294	-0,045	0,077
-728,167	38,025	0,095	0,062
-727,152	45,689	-0,142	-0,097
-726,137	-85,625	-0,067	0,015
-725,123	194,110	-0,077	0,086
-724,108	-136,051	-0,070	0,006
-723,094	-59,222	-0,120	-0,038
-722,079	635,690	-0,027	0,050
-721,064	-125,057	-0,060	0,007
-720,050	55,388	-0,031	0,022
-719,035	243,632	0,055	-0,068
-718,021	800,000	-0,034	0,089
-717,006	-7,879	0,032	-0,016
-715,991	-84,655	-0,127	-0,029
-714,977	392,804	0,038	-0,058
-713,962	32,434	-0,073	-0,046
-712,948	496,041	0,075	0,128
-711,933	800,000	0,011	-0,028
-710,918	-200,000	-0,016	0,078
-709,904	800,000	0,043	-0,096
-708,889	791,621	-0,023	0,048
-707,875	800,000	0,018	-0,040
-706,860	800,000	0,005	0,013
-705,845	39,621	0,231	0,152
-704,831	800,000	0,006	0,019
-703,816	-49,913	0,184	-0,064
-702,802	688,028	0,059	-0,114
-701,787	222,115	-0,097	-0,114
-700,772	-200,000	0,010	0,043
-699,758	-73,585	-0,047	-0,013
-698,743	-200,000	0,041	-0,137
-697,729	-200,000	-0,005	0,053
-696,714	-54,467	-0,071	-0,024
-695,699	349,619	-0,053	0,078
-694,685	-6,698	-0,080	-0,040
-693,670	-200,000	-0,006	-0,080
-692,656	77,964	-0,086	0,067
-691,641	-200,000	0,005	0,082
-690,627	-53,001	-0,073	-0,025
-689,612	783,473	-0,020	0,039
-688,597	800,000	-0,024	-0,052
-687,583	67,282	0,046	0,035
-686,568	6,040	-0,113	-0,061
-685,554	62,854	-0,076	0,056
-684,539	117,042	0,059	0,054
-683,524	-49,742	-0,093	0,032
-682,510	-64,888	0,105	0,031
-681,495	-200,000	0,026	0,184
-680,481	-200,000	-0,013	0,053
-679,466	-97,421	-0,128	-0,024
-678,451	-200,000	-0,019	-0,083
-677,437	-144,099	-0,209	-0,014
-676,422	-200,000	0,001	0,080
-675,408	-140,391	-0,072	-0,005
-674,393	750,647	0,034	0,067
-673,378	202,929	-0,078	-0,088
-672,364	273,784	0,014	-0,019
-671,349	-200,000	-0,001	-0,023
-670,335	112,024	-0,089	-0,079
-669,320	-200,000	0,043	0,213
-668,305	-79,133	-0,090	0,022
-667,291	500,751	-0,070	-0,119
-666,276	11,093	-0,067	0,037
-665,262	8,332	0,149	0,082
-664,247	800,000	-0,030	0,075
-663,232	-35,029	0,071	-0,028
-662,218	-100,975	-0,141	0,025
-661,203	5,716	-0,030	-0,016
-660,189	-200,000	-0,014	0,083
-659,174	-200,000	0,010	0,106
-658,159	-122,964	0,041	0,005
-657,145	335,691	-0,057	-0,081
-656,130	-62,875	0,140	0,042
-655,116	87,244	-0,087	0,071
-654,101	-200,000	-0,010	-0,057
-653,086	-29,055	-0,118	0,049
-652,072	19,987	0,021	-0,012
-651,057	102,799	0,037	-0,032
-650,043	-55,084	0,071	-0,023
-649,028	-200,000	-0,023	-0,105
-648,014	2,052	0,072	0,038
-646,999	-128,750	-0,112	0,011
-645,984	-137,997	-0,073	0,006
-644,970	-59,124	-0,048	0,015
-643,955	-200,000	-0,000	0,104
-642,941	234,376	-0,096	-0,117
-641,926	45,700	-0,071	0,048
-640,911	-200,000	-0,005	0,132
-639,897	-45,839	0,088	0,032
-638,882	604,471	0,045	0,082
-637,868	-37,344	0,105	0,041
-636,853	320,829	-0,057	-0,080
-635,838	-180,063	-0,072	0,001
-634,824	-200,000	-0,034	-0,134
-633,809	800,000	0,036	0,099
-632,795	60,620	-0,122	0,089
-631,780	-200,000	-0,026	0,118
-630,765	52,687	-0,024	0,017
-629,751	-134,743	-0,047	-0,004
-628,736	-22,975	-0,118	0,052
-627,722	-27,595	-0,091	-0,039
-626,707	-200,000	0,002	-0,149
-625,692	612,882	0,010	-0,019
-624,678	15,110	0,032	-0,018
-623,663	403,607	-0,123	0,191
-622,649	-101,914	-0,065	-0,011
-621,634	260,697	-0,101	0,128
-620,619	800,000	0,024	-0,071
-619,605	-200,000	0,047	-0,158
-618,590	36,884	-0,080	-0,052
-617,576	784,923	0,076	0,153
-616,561	58,587	-0,034	0,025
-615,546	-200,000	-0,031	-0,128
-614,532	-10,592	-0,118	-0,057
-613,517	-10,239	-0,139	-0,067
-612,503	72,571	-0,012	-0,009
-611,488	-200,000	-0,007	-0,057
-610,474	-200,000	-0,021	-0,086
-609,459	42,611	-0,083	-0,055
-608,444	228,952	0,068	0,082
-607,430	-40,268	-0,074	-0,028
-606,415	-19,268	-0,106	-0,048
-605,401	-86,720	-0,117	0,026
-604,386	162,769	0,018	-0,018
-603,371	-38,559	-0,055	-0,021
-602,357	66,364	0,096	0,071
-601,342	-55,733	-0,009	-0,003
-600,328	-39,154	-0,142	0,054
-599,313	80,361	-0,097	-0,077
-598,298	156,684	-0,082	-0,083
-597,284	28,275	0,101	0,062
-596,269	-6,329	0,088	-0,044
-595,255	-60,505	-0,062	0,019
-594,240	46,941	-0,015	-0,010
-593,225	30,299	0,177	-0,110
-592,211	-4,685	0,066	-0,033
-591,196	-130,383	0,066	-0,006
-590,182	-200,000	-0,004	0,021
-589,167	111,593	0,048	0,042
-588,152	800,000	-0,022	-0,066
-587,138	34,373	-0,127	-0,081
-586,123	-200,000	0,011	-0,047
-585,109	800,000	-0,019	-0,041
-584,094	-200,000	-0,012	-0,037
-583,079	144,940	-0,059	-0,058
-582,065	44,856	0,192	0,129
-581,050	-200,000	0,008	0,110
-580,036	-29,485	0,011	0,004
-579,021	-200,000	-0,006	-0,057
-578,006	-200,000	0,001	0,008
-576,992	-200,000	-0,003	-0,048
-575,977	193,053	-0,027	0,030
-574,963	640,976	-0,084	0,157
-573,948	-200,000	-0,009	-0,095
-572,934	-129,444	-0,063	-0,006
-571,919	-30,702	-0,062	0,026
-570,904	282,041	0,021	-0,028
-569,890	-200,000	0,020	0,180
-568,875	800,000	-0,017	-0,047
-567,861	-200,000	-0,003	0,071
-566,846	800,000	0,048	0,130
-565,831	301,540	0,069	0,093
-564,817	800,000	0,024	0,072
-563,802	-11,055	-0,073	0,035
-562,788	97,882	-0,077	0,064
-561,773	467,800	-0,037	0,061
-560,758	-200,000	0,016	0,100
-559,744	668,916	0,085	0,161
-558,729	429,411	-0,038	0,060
-557,715	519,962	0,048	-0,082
-556,700	-200,000	-0,008	-0,035
-555,685	-38,734	0,132	-0,051
-554,671	-200,000	0,007	0,036
-553,656	141,477	-0,048	-0,046
-552,642	-88,443	0,097	-0,021
-551,627	-200,000	0,006	0,037
-550,612	542,543	-0,063	-0,111
-549,598	150,727	-0,100	-0,099
-548,583	193,162	0,079	-0,087
-547,569	-76,881	0,011	0,003
-546,554	-200,000	0,002	0,042
-545,539	-16,522	-0,092	0,042
-544,525	247,511	-0,057	-0,071
-543,510	50,322	-0,090	-0,062
-542,496	-200,000	-0,012	-0,155
-541,481	800,000	0,085	-0,271
-540,466	3,806	0,098	0,052
-539,452	-137,980	-0,183	0,015
-538,437	97,354	0,057	0,048
-537,423	-200,000	0,014	0,128
-536,408	-200,000	0,011	0,101
-535,393	12,374	0,035	0,020
-534,379	-200,000	0,004	-0,019
-533,364	-108,770	-0,159	-0,025
-532,350	-84,817	0,074	0,017
-531,335	-200,000	0,037	-0,123
-530,321	-200,000	-0,002	0,065
-529,306	-29,375	0,186	-0,077
-528,291	118,635	0,053	0,048
-527,277	-200,000	-0,047	-0,182
-526,262	-108,680	0,029	-0,004
-525,248	-200,000	-0,002	0,028
-524,233	800,000	0,033	-0,074
-523,218	-106,861	0,013	0,002
-522,204	-200,000	0,001	-0,162
-521,189	-6,459	-0,017	-0,009
-520,175	800,000	0,039	-0,093
-519,160	-53,592	0,121	-0,040
-518,145	-64,945	0,103	0,030
-517,131	-19,635	0,093	-0,042
-516,116	247,515	-0,060	0,074
-515,102	800,000	-0,040	0,113
-514,087	800,000	0,016	0,037
-513,072	-164,176	-0,052	0,002
-512,058	-23,299	-0,066	-0,029
-511,043	-109,239	-0,018	-0,003
-510,029	-1,913	0,182	0,093
-509,014	212,134	-0,040	0,046
-507,999	-17,288	-0,135	-0,062
-506,985	16,376	0,060	-0,034
-505,970	39,105	0,055	-0,036
-504,956	-200,000	-0,010	-0,110
-503,941	-93,662	0,062	0,012
-502,926	332,804	0,077	-0,108
-501,912	302,331	0,115	0,156
-500,897	-200,000	-0,018	0,149
-499,883	-200,000	-0,009	0,113
-498,868	-81,050	-0,073	0,017
-497,853	800,000	0,018	0,044
-496,839	-103,056	-0,078	-0,013
-495,824	-162,774	-0,139	0,005
-494,810	-149,342	0,023	0,001
-493,795	-200,000	0,001	0,040
-492,781	42,523	0,041	-0,027
-491,766	150,946	-0,110	-0,109
-490,751	482,655	-0,119	-0,198
-489,737	-114,742	0,047	-0,006
-488,722	107,520	0,038	0,033
-487,708	-200,000	0,002	0,101
-486,693	-200,000	0,015	0,050
-485,678	-70,418	0,004	0,001
-484,664	-71,359	-0,135	-0,037
-483,649	55,459	-0,026	0,018
-482,635	-41,573	-0,070	-0,026
-481,620	-124,719	-0,057	0,006
-480,605	-200,000	-0,005	-0,163
-479,591	-26,000	0,146	0,062
-478,576	26,576	-0,091	-0,056
-477,562	50,474	-0,082	-0,056
-476,547	328,943	0,023	-0,033
-475,532	-173,875	-0,107	-0,002
-474,518	-200,000	0,000	0,111
-473,503	-141,060	0,175	0,013
-472,489	-56,870	0,070	0,022
-471,474	-81,938	-0,172	-0,041
-470,459	-200,000	0,010	-0,175
-469,445	-200,000	0,029	-0,121
-468,430	-200,000	-0,023	0,096
-467,416	455,291	0,021	0,034
-466,401	469,640	0,098	0,161
-465,386	35,240	-0,035	-0,022
-464,372	800,000	0,010	0,026
-463,357	171,922	-0,042	-0,044
-462,343	10,804	-0,060	-0,033
-461,328	-13,292	-0,125	-0,059
-460,313	-200,000	-0,004	0,110
-459,299	-54,547	0,145	0,048
-458,284	-24,859	-0,056	0,024
-457,270	526,939	0,047	-0,080
-456,255	368,781	-0,053	-0,078
-455,241	-74,494	0,056	0,014
-454,226	648,737	-0,047	-0,088
-453,211	447,196	-0,067	-0,108
-452,197	-74,283	0,075	0,020
-451,182	-200,000	0,002	0,047
-450,168	-20,608	-0,150	0,067
-449,153	-200,000	0,005	0,037
-448,138	423,484	0,027	-0,042
-447,124	-200,000	-0,008	0,044
-446,109	627,356	0,051	-0,094
-445,095	352,430	0,048	-0,070
-444,080	39,010	0,058	0,038
-443,065	-200,000	0,008	0,086
-442,051	99,233	0,052	0,043
-441,036	50,010	-0,147	0,101
-440,022	-200,000	-0,026	-0,103
-439,007	-47,353	-0,141	0,050
-437,992	800,000	0,032	0,080
-436,978	-26,326	0,024	0,010
-435,963	-200,000	-0,004	-0,094
-434,949	27,393	-0,076	-0,047
-433,934	123,151	0,095	0,086
-432,919	-200,000	-0,032	-0,150
-431,905	78,472	-0,009	0,007
-430,890	65,269	0,033	0,024
-429,876	-200,000	0,045	0,150
-428,861	-23,328	-0,041	0,018
-427,846	407,294	0,024	-0,037
-426,832	-103,332	-0,034	0,006
-425,817	615,143	0,026	-0,048
-424,803	-169,179	0,082	0,002
-423,788	-108,224	-0,096	0,015
-422,773	279,428	-0,031	0,040
-421,759	-121,631	0,058	-0,007
-420,744	-122,080	0,100	0,012
-419,730	-81,273	-0,122	0,029
-418,715	734,048	0,071	-0,140
-417,701	-137,925	-0,049	0,004
-416,686	-130,715	0,114	0,011
-415,671	-200,000	-0,004	-0,131
-414,657	8,888	0,094	-0,051
-413,642	92,766	0,075	0,062
-412,628	-200,000	0,006	-0,047
-411,613	-95,326	-0,107	0,021
-410,598	303,822	0,052	-0,071
-409,584	-76,083	-0,036	0,009
-408,569	22,596	0,112	0,066
-407,555	-27,299	0,074	-0,031
-406,540	-155,675	0,059	-0,003
-405,525	204,484	-0,073	-0,082
-404,511	-53,106	-0,096	0,032
-403,496	491,129	-0,031	-0,052
-402,482	429,805	-0,049	-0,077
-401,467	-200,000	-0,002	-0,026
-400,452	748,570	0,014	0,027
-399,438	125,238	-0,037	0,033
-398,423	-118,104	0,029	0,004
-397,409	-92,115	-0,091	0,019
-396,394	358,786	0,018	-0,025
-395,379	-200,000	0,006	0,046
-394,365	800,000	0,029	0,067
-393,350	763,541	0,037	0,073
-392,336	17,569	0,083	-0,048
-391,321	-200,000	-0,019	-0,090
-390,306	-200,000	-0,004	-0,072
-389,292	-200,000	-0,010	-0,128
-388,277	-103,181	-0,116	-0,020
-387,263	-79,751	0,022	-0,005
-386,248	181,961	0,032	0,035
-385,233	438,809	-0,047	-0,075
-384,219	-15,940	-0,098	-0,045
-383,204	-152,780	0,141	0,007
-382,190	-119,561	-0,049	0,006
-381,175	274,442	0,097	-0,125
-380,160	82,352	-0,101	0,080
-379,146	-200,000	-0,002	0,096
-378,131	248,457	0,037	-0,045
-377,117	425,130	-0,090	-0,141
-376,102	-181,385	0,164	0,002
-375,088	800,000	0,007	-0,021
-374,073	279,412	0,046	-0,060
-373,058	-200,000	0,007	0,041
-372,044	800,000	0,058	-0,146
-371,029	800,000	-0,073	0,198
-370,015	-200,000	0,009	-0,097
-369,000	-200,000	0,021	-0,156
-367,985	-200,000	-0,031	-0,175
-366,971	230,967	0,028	-0,034
-365,956	-200,000	0,008	0,041
-364,942	59,816	0,044	-0,032
-363,927	-48,307	0,146	-0,051
-362,912	-11,804	0,063	-0,030
-361,898	-66,456	0,019	0,005
-360,883	437,589	0,042	-0,066
-359,869	60,385	0,061	-0,044
-358,854	130,366	0,060	0,056
-357,839	800,000	0,050	0,129
-356,825	336,466	0,073	0,104
-355,810	29,555	0,050	0,031
-354,796	-148,086	0,110	0,006
-353,781	-28,759	-0,097	0,040
-352,766	151,501	-0,023	0,022
-351,752	-86,977	0,110	-0,024
-350,737	-200,000	-0,025	0,109
-349,723	-69,615	0,043	-0,012
-348,708	-175,226	-0,138	0,003
-347,693	-37,405	-0,072	0,028
-346,679	192,582	0,070	-0,077
-345,664	-72,978	0,081	-0,021
-344,650	36,141	-0,040	0,025
-343,635	-181,596	0,125	-0,002
-342,620	800,000	0,066	0,155
-341,606	-163,192	0,022	-0,001
-340,591	100,460	-0,051	-0,043
-339,577	-63,136	0,053	0,016
-338,562	-200,000	-0,015	-0,106
-337,548	173,254	0,036	0,037
-336,533	-106,677	0,106	0,017
-335,518	41,487	0,041	0,027
-334,504	-200,000	0,003	0,114
-333,489	-37,596	0,063	0,024
-332,475	-200,000	-0,027	-0,114
-331,460	43,336	0,048	-0,032
-330,445	-53,933	0,116	0,038
-329,431	317,647	0,098	0,134
-328,416	-200,000	0,005	-0,158
-327,402	-200,000	-0,036	-0,143
-326,387	129,882	0,064	0,059
-325,372	-93,332	-0,052	0,010
-324,358	61,815	-0,047	-0,034
-323,343	794,613	-0,015	-0,029
-322,329	-200,000	-0,050	0,185
-321,314	-106,166	-0,086	0,014
-320,299	-148,733	0,058	0,003
-319,285	-12,686	0,013	-0,006
-318,270	2,369	-0,132	-0,069
-317,256	-200,000	-0,019	0,068
-316,241	100,187	0,046	-0,038
-315,226	-200,000	0,027	0,122
-314,212	-129,932	0,081	-0,008
-313,197	271,623	0,059	0,075
-312,183	70,042	0,039	-0,029
-311,168	-200,000	-0,029	0,133
-310,153	-103,030	-0,090	-0,015
-309,139	-200,000	0,002	-0,113
-308,124	12,293	0,089	-0,049
-307,110	-82,098	0,047	-0,011
-306,095	-200,000	0,011	0,141
-305,080	-102,812	0,059	-0,010
-304,066	226,048	-0,048	-0,056
-303,051	506,783	-0,065	0,109
-302,037	368,854	0,071	0,105
-301,022	-118,483	-0,130	-0,016
-300,008	800,000	-0,035	0,087
-298,993	-200,000	0,013	0,050
-297,978	283,144	0,123	0,161
-296,964	38,022	-0,061	-0,039
-295,949	-200,000	0,007	0,101
-294,935	800,000	0,035	-0,110
-293,920	-200,000	0,008	0,080
-292,905	-40,544	-0,086	-0,032
-291,891	83,830	0,122	0,096
-290,876	-200,000	-0,031	0,197
-289,862	-97,641	0,081	0,015
-288,847	-68,649	-0,093	-0,026
-287,832	-98,366	0,058	-0,011
-286,818	166,551	0,169	-0,174
-285,803	62,591	-0,140	-0,101
-284,789	-32,361	0,114	0,046
-283,774	292,714	0,061	0,081
-282,759	-200,000	0,007	-0,032
-281,745	-65,868	0,076	-0,022
-280,730	800,000	-0,017	-0,056
-279,716	-23,981	0,140	-0,060
-278,701	221,699	0,088	-0,103
-277,686	311,641	0,065	-0,089
-276,672	800,000	-0,061	-0,152
-275,657	97,861	-0,053	0,044
-274,643	-155,396	-0,047	-0,002
-273,628	226,209	-0,024	-0,028
-272,613	800,000	-0,054	-0,145
-271,599	385,840	0,092	0,137
-270,584	-200,000	-0,013	-0,045
-269,570	800,000	-0,023	0,047
-268,555	-200,000	0,024	0,101
-267,540	-163,351	0,173	-0,006
-266,526	1,916	-0,048	-0,025
-265,511	-77,163	0,133	0,033
-264,497	-200,000	-0,044	0,189
-263,482	800,000	0,011	0,024
-262,467	-34,644	0,078	-0,031
-261,453	800,000	-0,010	0,027
-260,438	-26,501	0,012	0,005
-259,424	-200,000	-0,026	-0,119
-258,409	143,660	-0,008	0,007
-257,395	800,000	0,023	-0,062
-256,380	800,000	0,026	0,072
-255,365	800,000	-0,035	0,096
-254,351	-1,237	-0,121	0,061
-253,336	-5,375	0,066	-0,033
-252,322	304,695	-0,022	0,030
-251,307	-89,052	-0,116	-0,025
-250,292	-200,000	-0,023	-0,115
-249,278	125,796	-0,105	0,095
-248,263	-89,641	0,005	-0,001
-247,249	-54,345	0,152	0,050
-246,234	607,465	0,026	0,047
-245,219	-200,000	0,009	0,045
-244,205	182,905	-0,059	-0,063
-243,190	-134,067	0,114	0,010
-242,176	349,964	0,084	0,120
-241,161	800,000	-0,001	0,003
-240,146	290,433	-0,023	-0,030
-239,132	578,468	-0,047	0,083
-238,117	-44,888	-0,047	0,017
-237,103	666,642	0,065	-0,122
-236,088	352,911	-0,072	0,103
-235,073	-134,192	0,079	0,007
-234,059	800,000	-0,020	0,049
-233,044	-200,000	-0,007	-0,064
-232,030	800,000	-0,004	-0,009
-231,015	44,668	-0,071	0,047
-230,000	800,000	-0,016	-0,037
-228,986	-172,010	0,023	0,001
-227,971	-116,947	0,052	0,007
-226,957	-102,449	-0,148	0,025
-225,942	-200,000	0,021	-0,073
-224,927	-200,000	-0,057	0,216
-223,913	-200,000	0,021	0,099
-222,898	-200,000	-0,028	-0,111
-221,884	-162,882	-0,088	-0,003
-220,869	294,916	0,033	-0,043
-219,855	50,962	-0,016	0,011
-218,840	-2,016	0,016	0,008
-217,825	-85,419	-0,089	0,020
-216,811	-200,000	-0,042	0,185
-215,796	47,078	0,064	0,043
-214,782	113,822	0,083	-0,073
-213,767	84,495	0,172	-0,136
-212,752	800,000	0,021	-0,064
-211,738	800,000	-0,026	-0,083
-210,723	800,000	-0,045	0,121
-209,709	94,044	-0,073	-0,060
-208,694	-200,000	0,013	-0,168
-207,679	-37,085	-0,098	0,038
-206,665	-123,310	-0,051	0,006
-205,650	-61,633	-0,021	-0,006
-204,636	-22,211	0,045	-0,020
-203,621	-200,000	0,043	0,150
-202,606	-113,273	0,051	-0,007
-201,592	179,773	0,044	-0,046
-200,577	-200,000	-0,030	0,108
-199,563	344,962	0,033	0,046
-198,548	122,147	0,006	0,005
-197,533	267,792	-0,084	-0,107
-196,519	-40,325	-0,041	-0,015
-195,504	-88,328	-0,017	-0,004
-194,490	-200,000	-0,001	0,048
-193,475	-102,628	0,159	-0,027
-192,460	-176,041	-0,209	0,004
-191,446	-200,000	0,015	0,075
-190,431	466,443	0,097	0,157
-189,417	-200,000	-0,014	-0,047
-188,402	-200,000	-0,021	-0,079
-187,387	5,785	-0,050	0,026
-186,373	-200,000	0,004	0,072
-185,358	71,751	-0,054	0,041
-184,344	16,031	0,061	0,034
-183,329	800,000	-0,008	-0,022
-182,315	449,437	-0,035	0,055
-181,300	-20,160	-0,081	-0,036
-180,285	49,429	-0,090	0,061
-179,271	-59,288	-0,122	-0,037
-178,256	604,467	0,034	-0,062
-177,242	295,212	0,053	0,070
-176,227	154,106	-0,084	0,083
-175,212	-35,955	0,117	0,045
-174,198	-73,417	0,018	0,005
-173,183	800,000	-0,041	-0,101
-172,169	38,430	0,097	-0,062
-171,154	450,562	0,088	-0,140
-170,139	-200,000	-0,007	0,063
-169,125	76,800	-0,089	0,068
-168,110	-200,000	-0,032	0,147
-167,096	-200,000	0,005	0,135
-166,081	-200,000	-0,020	-0,151
-165,066	-83,046	-0,046	0,011
-164,052	-98,904	0,121	-0,022
-163,037	-200,000	-0,038	-0,139
-162,023	-200,000	-0,016	0,074
-161,008	47,361	0,095	0,064
-159,993	-200,000	-0,015	0,104
-158,979	247,350	-0,070	-0,086
-157,964	800,000	0,030	-0,064
-156,950	-200,000	0,022	-0,071
-155,935	404,057	0,079	-0,120
-154,920	394,528	-0,086	0,129
-153,906	-118,343	-0,117	-0,015
-152,891	69,362	-0,054	-0,040
-151,877	-122,582	0,081	-0,009
-150,862	-11,461	-0,141	0,067
-149,847	190,512	-0,058	0,062
-148,833	787,405	-0,040	0,078
-147,818	-153,031	0,091	0,005
-146,804	89,987	-0,076	0,061
-145,789	-76,894	0,113	0,028
-144,775	-116,503	-0,083	-0,011
-143,760	-93,953	-0,123	-0,024
-142,745	423,713	-0,066	-0,103
-141,731	429,810	0,045	-0,070
-140,716	-200,000	-0,021	-0,094
-139,702	215,307	0,024	0,027
-138,687	179,244	0,043	0,045
-137,672	277,255	-0,047	-0,060
-136,658	296,516	0,088	-0,116
-135,643	-41,885	-0,044	-0,016
-134,629	-105,795	-0,121	-0,019
-133,614	64,753	-0,030	0,022
-132,599	63,048	0,111	-0,079
-131,585	-200,000	0,009	0,042
-130,570	-140,070	-0,035	-0,003
-129,556	-172,997	-0,059	0,001
-128,541	-23,880	0,026	0,011
-127,526	661,941	0,041	-0,077
-126,512	79,864	-0,039	0,030
-125,497	-200,000	0,032	0,121
-124,483	-200,000	-0,002	-0,034
-123,468	3,406	-0,034	0,017
-122,453	-200,000	0,004	-0,045
-121,439	348,423	0,077	0,110
-120,424	86,003	0,057	0,045
-119,410	-200,000	0,013	0,087
