DTS Sentinel unit serial number:	SN410029Multiplexer serial number:	ORYXHardware model number:	OX2-SRSoftware version number:	ORYX F/W v4,00 Oryx Data Collector v3.7.2.0data status	okinstallation	B6 Nyhavnadifferential loss correction	single-endedforward channel	channel 2reverse channel	N/Adate	2023/12/11time	09:00:08forward acquisition time	300,00reverse acquisition time	0,00gamma	499,1914k internal	0,3134k external	0,3134temperature offset calibration	1,0000default loss term (dB/km)	0,3820temperature slope calibration	1,0000multiplexer offset coefficient	1,0000multiplexer slope coefficient	1,0000fibre end	0,00T internal ref (°C)	17,21T ext. ref 1 (°C)	-0,44T ext. ref 2 (°C)	-0,44length (m)	temperature (°C)	Stokes	anti-Stokes-744,400	-200,000	0,009	-0,095
-743,385	-101,685	-0,377	0,067
-742,371	566,750	0,125	0,227
-741,356	120,186	-0,170	0,157
-740,342	-51,147	0,241	0,083
-739,327	-146,117	-0,359	-0,023
-738,312	618,981	0,040	0,076
-737,298	-119,289	-0,319	0,041
-736,283	-200,000	0,016	-0,101
-735,269	-91,233	-0,239	-0,050
-734,254	-32,224	0,223	-0,092
-733,239	-106,583	-0,491	-0,080
-732,225	221,496	0,127	0,152
-731,210	144,574	-0,063	0,063
-730,196	-200,000	-0,001	0,020
-729,181	351,879	0,043	-0,063
-728,167	5,109	-0,131	-0,071
-727,152	-149,575	-0,132	-0,008
-726,137	800,000	-0,052	-0,108
-725,123	-17,311	-0,096	-0,045
-724,108	-200,000	-0,025	-0,126
-723,094	-13,003	-0,100	-0,048
-722,079	293,626	-0,150	-0,203
-721,064	-200,000	-0,002	-0,061
-720,050	27,618	0,077	-0,048
-719,035	548,631	-0,073	0,130
-718,021	-11,132	-0,089	-0,043
-717,006	91,509	-0,083	-0,069
-715,991	-131,488	-0,084	-0,008
-714,977	-200,000	0,010	-0,104
-713,962	-200,000	-0,011	-0,093
-712,948	800,000	-0,014	-0,035
-711,933	600,038	0,075	0,140
-710,918	-99,456	-0,059	-0,011
-709,904	-200,000	-0,022	-0,083
-708,889	83,287	0,076	-0,061
-707,875	498,606	-0,032	0,054
-706,860	-15,037	0,173	-0,082
-705,845	-200,000	-0,019	-0,098
-704,831	-111,018	0,057	0,009
-703,816	800,000	-0,013	-0,038
-702,802	-40,883	0,054	-0,021
-701,787	444,825	-0,073	-0,119
-700,772	-200,000	-0,012	-0,064
-699,758	800,000	-0,037	-0,120
-698,743	211,916	0,046	-0,054
-697,729	7,866	-0,086	-0,048
-696,714	-50,571	0,035	0,012
-695,699	-55,866	0,176	-0,058
-694,685	52,162	-0,090	0,064
-693,670	-200,000	-0,006	0,050
-692,656	498,749	-0,067	-0,115
-691,641	-78,625	0,091	-0,023
-690,627	-200,000	-0,022	-0,101
-689,612	127,922	0,082	0,077
-688,597	-200,000	0,001	-0,024
-687,583	-200,000	-0,003	-0,026
-686,568	46,749	0,066	0,045
-685,554	389,207	-0,043	-0,066
-684,539	58,796	0,102	-0,074
-683,524	-158,822	0,005	-0,000
-682,510	-200,000	0,025	0,198
-681,495	725,049	-0,012	-0,024
-680,481	-101,242	0,082	-0,015
-679,466	800,000	-0,048	-0,120
-678,451	-200,000	0,014	0,073
-677,437	-200,000	0,049	-0,216
-676,422	227,829	0,090	0,109
-675,408	-106,354	0,164	0,027
-674,393	-8,859	-0,073	-0,036
-673,378	800,000	-0,042	-0,121
-672,364	99,544	0,113	0,097
-671,349	-200,000	-0,006	-0,025
-670,335	172,525	0,070	-0,075
-669,320	800,000	-0,051	-0,115
-668,305	530,222	0,055	0,096
-667,291	-200,000	0,024	-0,079
-666,276	-46,309	0,125	0,045
-665,262	-200,000	-0,010	-0,090
-664,247	-200,000	0,004	0,027
-663,232	442,238	0,063	0,102
-662,218	800,000	-0,011	0,025
-661,203	133,119	0,049	-0,047
-660,189	96,396	0,090	-0,076
-659,174	-200,000	-0,006	-0,026
-658,159	-200,000	0,012	-0,060
-657,145	800,000	-0,030	-0,083
-656,130	800,000	-0,008	-0,026
-655,116	-86,228	-0,094	0,021
-654,101	-135,841	0,093	-0,008
-653,086	406,992	-0,115	-0,181
-652,072	213,420	-0,101	0,118
-651,057	120,357	-0,089	-0,081
-650,043	202,627	-0,043	0,049
-649,028	248,204	0,058	-0,073
-648,014	800,000	-0,023	0,072
-646,999	-2,861	-0,080	0,041
-645,984	-31,341	-0,107	0,045
-644,970	80,820	-0,099	-0,079
-643,955	800,000	0,004	-0,009
-642,941	-74,532	-0,108	-0,028
-641,926	737,088	0,021	0,041
-640,911	28,268	0,038	-0,024
-639,897	136,497	-0,058	0,056
-638,882	510,839	0,032	0,056
-637,868	-56,549	0,099	0,032
-636,853	-200,000	-0,006	-0,047
-635,838	86,655	-0,130	-0,106
-634,824	-102,616	0,162	-0,028
-633,809	449,267	-0,025	-0,041
-632,795	-72,737	-0,053	0,014
-631,780	-200,000	0,012	0,168
-630,765	800,000	0,025	-0,082
-629,751	660,048	0,045	0,086
-628,736	81,460	-0,057	-0,046
-627,722	-132,374	0,112	0,011
-626,707	800,000	-0,019	-0,047
-625,692	18,890	0,116	0,069
-624,678	-200,000	0,013	-0,085
-623,663	270,787	0,073	0,096
-622,649	-44,449	-0,213	-0,078
-621,634	273,792	-0,094	-0,123
-620,619	-100,150	-0,012	0,002
-619,605	85,746	-0,034	-0,027
-618,590	-166,848	0,112	-0,003
-617,576	125,191	-0,085	-0,079
-616,561	85,073	-0,093	-0,076
-615,546	665,750	0,048	-0,092
-614,532	800,000	0,030	-0,086
-613,517	800,000	0,010	0,024
-612,503	39,835	-0,039	-0,026
-611,488	-200,000	0,006	0,051
-610,474	-200,000	-0,011	0,121
-609,459	-148,399	0,051	-0,003
-608,444	800,000	-0,035	-0,101
-607,430	-141,281	0,031	0,002
-606,415	-52,830	-0,091	0,031
-605,401	-19,906	0,209	0,095
-604,386	87,113	0,073	0,059
-603,371	-200,000	-0,013	0,115
-602,357	231,717	0,074	-0,090
-601,342	-165,095	-0,156	0,005
-600,328	-200,000	0,007	0,034
-599,313	262,575	-0,087	-0,112
-598,298	800,000	0,018	0,038
-597,284	800,000	-0,036	-0,077
-596,269	334,234	-0,008	0,011
-595,255	34,135	0,128	0,082
-594,240	-200,000	-0,003	-0,156
-593,225	134,076	-0,021	0,020
-592,211	800,000	-0,017	0,039
-591,196	29,314	0,026	0,016
-590,182	-200,000	-0,074	0,245
-589,167	-149,725	-0,107	0,006
-588,152	-11,135	-0,022	0,011
-587,138	55,985	0,083	-0,060
-586,123	-11,168	-0,152	-0,074
-585,109	800,000	-0,091	-0,239
-584,094	413,312	0,079	-0,124
-583,079	-123,072	0,082	-0,010
-582,065	310,864	0,019	0,027
-581,050	-38,557	0,010	-0,004
-580,036	403,679	-0,041	0,063
-579,021	800,000	-0,037	-0,104
-578,006	-200,000	-0,004	-0,107
-576,992	73,711	0,062	0,048
-575,977	628,422	0,039	-0,074
-574,963	-200,000	-0,039	0,149
-573,948	84,631	0,119	0,096
-572,934	800,000	0,047	-0,106
-571,919	-121,481	0,127	0,015
-570,904	-200,000	0,032	-0,169
-569,890	-78,794	0,115	0,029
-568,875	800,000	0,073	0,175
-567,861	-200,000	-0,010	0,091
-566,846	-58,416	-0,030	0,010
-565,831	215,570	-0,063	0,074
-564,817	-155,059	0,031	0,001
-563,802	-48,707	-0,213	0,075
-562,788	-28,522	0,029	0,012
-561,773	141,405	-0,072	-0,070
-560,758	475,035	0,022	-0,038
-559,744	-13,991	0,090	0,043
-558,729	-200,000	0,014	0,173
-557,715	-96,672	0,094	0,018
-556,700	547,528	-0,059	-0,105
-555,685	152,773	-0,046	-0,046
-554,671	800,000	0,034	0,084
-553,656	17,916	0,095	0,056
-552,642	207,603	-0,086	-0,099
-551,627	-200,000	-0,007	-0,098
-550,612	-93,374	0,081	0,016
-549,598	-56,503	-0,116	0,038
-548,583	-200,000	-0,006	-0,210
-547,569	-200,000	0,019	0,070
-546,554	85,418	0,112	0,091
-545,539	124,464	0,089	0,082
-544,525	86,913	0,114	0,092
-543,510	204,609	0,064	0,073
-542,496	-200,000	-0,007	-0,076
-541,481	623,219	0,031	-0,057
-540,466	88,984	0,081	-0,067
-539,452	28,679	0,098	0,061
-538,437	800,000	0,059	0,148
-537,423	-98,832	-0,073	0,014
-536,408	-200,000	0,021	-0,170
-535,393	496,097	-0,080	-0,136
-534,379	98,295	-0,067	0,057
-533,364	400,284	-0,027	-0,042
-532,350	4,508	0,125	-0,067
-531,335	207,932	0,081	-0,093
-530,321	-200,000	0,045	-0,163
-529,306	-93,198	-0,110	0,022
-528,291	38,911	0,075	-0,049
-527,277	800,000	0,063	-0,158
-526,262	800,000	-0,008	-0,023
-525,248	508,992	-0,045	0,077
-524,233	-49,539	0,110	-0,038
-523,218	-200,000	0,010	-0,068
-522,204	753,069	0,046	-0,092
-521,189	-200,000	0,000	-0,109
-520,175	-77,443	-0,042	-0,011
-519,160	20,605	0,116	-0,069
-518,145	-164,988	0,005	0,000
-517,131	-52,024	-0,021	0,007
-516,116	29,974	0,060	0,038
-515,102	-56,509	-0,113	-0,037
-514,087	-44,811	-0,037	0,013
-513,072	123,859	-0,051	-0,047
-512,058	-200,000	0,006	-0,041
-511,043	-27,029	-0,083	0,035
-510,029	109,303	-0,021	-0,018
-509,014	18,999	0,135	-0,079
-507,999	40,573	-0,026	0,017
-506,985	800,000	-0,018	-0,039
-505,970	17,228	-0,186	0,108
-504,956	180,314	-0,032	-0,034
-503,941	-140,250	0,160	0,012
-502,926	800,000	-0,037	0,113
-501,912	-124,431	-0,033	0,004
-500,897	-200,000	-0,006	0,103
-499,883	36,912	-0,083	-0,054
-498,868	122,786	-0,044	0,040
-497,853	-200,000	-0,009	-0,126
-496,839	379,634	0,050	0,076
-495,824	-200,000	-0,003	-0,041
-494,810	28,648	-0,042	0,026
-493,795	-22,512	0,133	-0,059
-492,781	-200,000	0,008	-0,065
-491,766	-9,734	0,004	0,002
-490,751	14,773	-0,044	-0,025
-489,737	-9,712	-0,133	-0,065
-488,722	-26,908	0,096	-0,041
-487,708	800,000	0,034	0,096
-486,693	310,280	0,025	0,035
-485,678	91,892	0,068	0,056
-484,664	800,000	0,046	-0,143
-483,649	3,830	-0,133	0,071
-482,635	-60,857	-0,085	0,026
-481,620	-200,000	-0,012	-0,081
-480,605	-164,700	0,053	-0,002
-479,591	167,613	-0,109	0,114
-478,576	-126,324	-0,152	-0,017
-477,562	300,558	0,067	0,091
-476,547	-119,523	-0,071	-0,009
-475,532	165,959	-0,085	-0,088
-474,518	112,516	-0,071	0,063
-473,503	-200,000	0,016	0,101
-472,489	-200,000	0,008	0,100
-471,474	-52,422	0,028	0,009
-470,459	-200,000	-0,013	-0,068
-469,445	33,847	0,086	-0,055
-468,430	-200,000	-0,005	-0,070
-467,416	800,000	0,052	0,156
-466,401	-200,000	-0,011	0,126
-465,386	247,721	0,030	0,038
-464,372	641,039	-0,030	0,056
-463,357	800,000	0,025	0,071
-462,343	-200,000	0,014	0,070
-461,328	-132,675	-0,035	-0,003
-460,313	-15,424	0,095	-0,044
-459,299	-200,000	0,001	-0,007
-458,284	336,316	-0,065	-0,093
-457,270	32,570	-0,099	0,062
-456,255	-200,000	0,013	0,052
-455,241	-200,000	0,034	-0,113
-454,226	3,317	-0,145	-0,077
-453,211	132,728	0,015	0,015
-452,197	119,339	0,051	-0,046
-451,182	-200,000	0,021	0,069
-450,168	-7,596	-0,152	-0,075
-449,153	300,052	0,042	0,057
-448,138	-165,454	-0,103	-0,003
-447,124	123,328	0,070	0,064
-446,109	-123,459	0,028	0,003
-445,095	270,184	0,043	0,055
-444,080	72,145	-0,041	-0,031
-443,065	-200,000	-0,025	-0,140
-442,051	-99,212	-0,022	0,004
-441,036	281,823	-0,091	-0,120
-440,022	-200,000	0,005	-0,090
-439,007	26,473	0,039	-0,024
-437,992	644,990	0,012	-0,023
-436,978	-165,760	0,071	0,002
-435,963	147,839	-0,089	0,088
-434,949	334,453	-0,075	0,107
-433,934	105,429	-0,133	-0,116
-432,919	-200,000	0,025	-0,116
-431,905	-110,522	-0,035	0,005
-430,890	-48,199	0,062	0,022
-429,876	-200,000	-0,012	-0,101
-428,861	505,773	-0,054	-0,092
-427,846	-200,000	0,009	-0,083
-426,832	-56,389	-0,067	-0,022
-425,817	105,315	-0,054	-0,046
-424,803	173,383	0,072	0,077
-423,788	-140,723	-0,097	0,007
-422,773	270,956	-0,035	-0,045
-421,759	-200,000	0,095	0,000
-420,744	224,041	-0,064	0,076
-419,730	-200,000	0,009	-0,068
-418,715	44,289	-0,091	0,061
-417,701	-30,965	-0,070	-0,029
-416,686	-200,000	-0,002	0,123
-415,671	662,995	0,096	0,182
-414,657	633,698	0,043	0,079
-413,642	298,885	0,045	0,061
-412,628	63,673	-0,056	0,041
-411,613	354,620	-0,100	-0,147
-410,598	-200,000	0,036	-0,177
-409,584	225,940	0,061	-0,073
-408,569	-72,521	0,127	-0,034
-407,555	197,362	-0,054	-0,061
-406,540	83,183	-0,047	0,037
-405,525	-200,000	-0,003	-0,082
-404,511	145,332	-0,033	0,032
-403,496	239,393	-0,089	0,109
-402,482	-131,921	0,070	0,007
-401,467	-200,000	0,033	0,167
-400,452	-200,000	-0,001	-0,021
-399,438	-200,000	0,008	0,142
-398,423	-61,611	-0,138	0,042
-397,409	-90,563	-0,039	0,008
-396,394	-146,294	-0,033	0,002
-395,379	101,393	0,055	-0,047
-394,365	259,399	-0,101	0,128
-393,350	-17,600	0,084	0,039
-392,336	-35,133	0,059	-0,023
-391,321	-105,837	-0,085	-0,014
-390,306	-54,538	-0,047	-0,015
-389,292	-200,000	-0,015	-0,050
-388,277	-22,513	-0,071	-0,031
-387,263	-200,000	0,020	0,084
-386,248	-114,982	-0,145	-0,020
-385,233	-111,660	0,082	0,012
-384,219	-200,000	0,005	-0,097
-383,204	-59,564	-0,053	0,017
-382,190	-23,339	0,144	-0,063
-381,175	-200,000	0,026	-0,114
-380,160	-200,000	0,027	0,105
-379,146	263,666	0,088	0,112
-378,131	-200,000	-0,015	0,066
-377,117	-200,000	0,001	0,081
-376,102	10,494	-0,136	-0,076
-375,088	751,326	-0,075	-0,148
-374,073	-1,216	0,059	-0,030
-373,058	-200,000	0,003	0,026
-372,044	-96,354	0,098	0,019
-371,029	38,513	-0,080	-0,052
-370,015	800,000	-0,017	-0,038
-369,000	800,000	0,026	-0,064
-367,985	160,022	-0,080	-0,081
-366,971	-84,936	0,049	-0,011
-365,956	-60,495	0,117	0,036
-364,942	702,240	0,105	0,203
-363,927	-147,859	0,163	0,010
-362,912	249,835	0,009	0,011
-361,898	-3,881	-0,124	0,063
-360,883	-200,000	0,003	-0,101
-359,869	-182,452	-0,078	-0,001
-358,854	-200,000	0,004	0,048
-357,839	-46,152	0,093	-0,033
-356,825	684,984	-0,050	0,096
-355,810	318,282	-0,084	-0,117
-354,796	51,727	0,050	-0,035
-353,781	656,467	0,068	0,128
-352,766	393,712	-0,046	-0,070
-351,752	151,126	-0,014	0,013
-350,737	728,662	0,069	0,136
-349,723	-200,000	0,007	-0,171
-348,708	-79,737	0,166	-0,041
-347,693	-3,228	-0,040	0,020
-346,679	725,597	-0,041	-0,081
-345,664	8,447	0,049	0,027
-344,650	-136,663	-0,027	0,002
-343,635	167,683	0,076	0,079
-342,620	-103,047	0,080	0,014
-341,606	476,620	0,024	0,040
-340,591	-94,301	-0,110	0,022
-339,577	-87,174	0,066	0,015
-338,562	-49,435	0,078	-0,027
-337,548	-198,542	0,122	0,000
-336,533	406,916	0,068	0,105
-335,518	76,638	-0,086	0,067
-334,504	-200,000	0,017	-0,068
-333,489	-167,184	-0,072	-0,002
-332,475	24,996	0,063	-0,038
-331,460	-149,730	-0,026	-0,001
-330,445	-8,316	-0,098	0,048
-329,431	1,097	0,081	0,042
-328,416	-76,657	-0,076	-0,019
-327,402	230,008	0,084	0,101
-326,387	-44,205	0,043	-0,016
-325,372	3,426	-0,112	-0,060
-324,358	201,330	0,114	-0,128
-323,343	-200,000	0,035	-0,115
-322,329	800,000	-0,017	-0,042
-321,314	800,000	-0,066	0,162
-320,299	800,000	0,049	0,129
-319,285	-47,791	-0,033	-0,012
-318,270	219,272	0,114	0,134
-317,256	2,813	-0,093	0,049
-316,241	65,690	-0,081	0,060
-315,226	800,000	0,072	0,170
-314,212	-200,000	0,011	0,131
-313,197	800,000	0,022	0,049
-312,183	-99,864	-0,005	0,001
-311,168	800,000	0,042	-0,117
-310,153	152,712	0,061	-0,060
-309,139	463,312	-0,039	-0,064
-308,124	-200,000	-0,004	0,055
-307,110	176,020	0,040	0,042
-306,095	-200,000	0,004	-0,070
-305,080	92,504	-0,011	0,009
-304,066	800,000	-0,070	0,185
-303,051	288,752	-0,072	-0,096
-302,037	-177,927	0,063	-0,001
-301,022	800,000	-0,027	-0,067
-300,008	-112,661	0,195	-0,028
-298,993	-47,482	-0,080	0,028
-297,978	124,300	0,031	-0,029
-296,964	516,148	-0,092	0,157
-295,949	122,596	-0,065	0,059
-294,935	-200,000	-0,020	0,088
-293,920	-200,000	-0,019	-0,070
-292,905	-200,000	-0,001	0,059
-291,891	153,612	0,065	-0,065
-290,876	800,000	0,078	0,193
-289,862	800,000	0,033	0,083
-288,847	-11,952	-0,115	0,055
-287,832	-200,000	-0,026	-0,092
-286,818	-132,185	0,053	-0,005
-285,803	-200,000	-0,003	-0,012
-284,789	375,621	-0,078	0,117
-283,774	260,449	0,083	0,105
-282,759	131,984	0,045	-0,043
-281,745	-200,000	0,029	0,101
-280,730	-120,098	0,046	-0,006
-279,716	127,953	0,112	-0,104
-278,701	635,635	0,038	0,070
-277,686	87,958	0,112	0,090
-276,672	-192,972	-0,109	-0,001
-275,657	-159,921	-0,042	0,002
-274,643	-200,000	0,009	-0,108
-273,628	-127,954	0,020	-0,002
-272,613	-70,174	0,082	-0,023
-271,599	57,686	0,060	0,043
-270,584	33,761	-0,039	-0,025
-269,570	800,000	-0,017	0,035
-268,555	178,010	-0,051	0,054
-267,540	-111,407	0,069	-0,010
-266,526	-200,000	0,005	0,048
-265,511	-200,000	0,003	0,077
-264,497	-21,260	-0,034	0,015
-263,482	-103,608	-0,079	-0,013
-262,467	49,688	-0,052	0,036
-261,453	800,000	0,013	0,040
-260,438	800,000	-0,079	0,223
-259,424	800,000	-0,041	-0,096
-258,409	800,000	0,019	-0,040
-257,395	30,402	-0,074	0,046
-256,380	800,000	0,033	0,078
-255,365	800,000	-0,037	0,110
-254,351	800,000	-0,013	0,031
-253,336	-200,000	-0,011	-0,054
-252,322	-73,833	-0,088	0,023
-251,307	-77,674	-0,111	0,028
-250,292	800,000	0,045	-0,094
-249,278	800,000	0,026	0,059
-248,263	104,713	0,065	0,056
-247,249	14,548	-0,147	-0,083
-246,234	-200,000	-0,001	0,040
-245,219	-164,652	-0,071	0,002
-244,205	194,951	0,038	0,042
-243,190	289,026	0,029	-0,039
-242,176	-31,208	-0,041	-0,017
-241,161	-200,000	0,017	0,100
-240,146	-82,667	0,050	0,012
-239,132	-200,000	0,031	-0,101
-238,117	-200,000	0,053	0,215
-237,103	26,233	-0,074	0,045
-236,088	642,018	-0,038	-0,070
-235,073	512,780	0,044	-0,075
-234,059	384,222	0,040	0,059
-233,044	630,758	0,043	0,079
-232,030	-200,000	0,001	0,056
-231,015	272,702	0,059	-0,076
-230,000	-15,211	-0,083	-0,038
-228,986	-200,000	-0,047	-0,206
-227,971	-6,974	-0,052	0,025
-226,957	-200,000	0,037	0,185
-225,942	92,932	0,017	-0,014
-224,927	501,410	0,055	0,092
-223,913	-200,000	-0,005	-0,074
-222,898	-200,000	-0,006	-0,062
-221,884	109,159	0,070	-0,061
-220,869	-138,868	0,143	0,011
-219,855	800,000	0,020	-0,056
-218,840	800,000	0,017	0,054
-217,825	-200,000	0,014	-0,076
-216,811	149,142	-0,068	-0,067
-215,796	29,501	-0,166	-0,102
-214,782	800,000	-0,014	-0,035
-213,767	683,418	0,027	-0,051
-212,752	-200,000	0,011	0,111
-211,738	-200,000	-0,027	0,098
-210,723	14,944	-0,102	0,058
-209,709	-200,000	0,013	-0,104
-208,694	-200,000	0,046	-0,159
-207,679	657,957	0,047	0,088
-206,665	-200,000	-0,017	0,067
-205,650	-25,034	-0,011	0,005
-204,636	153,304	-0,067	-0,067
-203,621	142,233	0,080	-0,077
-202,606	390,743	-0,069	-0,105
-201,592	800,000	-0,024	-0,057
-200,577	-145,615	0,025	0,002
-199,563	-48,164	0,090	-0,031
-198,548	-15,259	0,142	0,066
-197,533	-149,529	0,091	0,005
-196,519	86,938	0,032	0,026
-195,504	786,956	-0,056	-0,111
-194,490	564,670	-0,046	0,081
-193,475	-200,000	-0,049	-0,163
-192,460	-200,000	-0,003	0,016
-191,446	-200,000	-0,007	0,049
-190,431	-60,775	0,115	0,035
-189,417	-72,216	0,040	-0,011
-188,402	221,464	0,093	0,109
-187,387	289,865	-0,136	-0,180
-186,373	-59,960	0,079	-0,024
-185,358	800,000	0,054	-0,126
-184,344	800,000	0,013	-0,028
-183,329	68,182	0,039	0,029
-182,315	572,106	-0,044	-0,077
-181,300	-80,081	-0,224	-0,054
-180,285	-200,000	0,011	0,043
-179,271	-119,721	0,119	-0,015
-178,256	54,369	0,098	0,068
-177,242	800,000	0,018	-0,048
-176,227	102,485	-0,040	-0,034
-175,212	-101,208	-0,085	-0,015
-174,198	-200,000	-0,015	-0,080
-173,183	200,874	0,112	-0,126
-172,169	-200,000	0,009	-0,051
-171,154	-200,000	0,017	-0,109
-170,139	250,457	0,093	0,115
-169,125	29,428	-0,061	-0,038
-168,110	-15,004	0,039	0,018
-167,096	-200,000	-0,017	-0,089
-166,081	-90,410	-0,220	-0,046
-165,066	-28,389	-0,104	-0,043
-164,052	413,738	-0,052	-0,080
-163,037	-200,000	0,006	-0,055
-162,023	-200,000	0,009	0,188
-161,008	-200,000	0,008	0,046
-159,993	800,000	-0,024	0,068
-158,979	171,041	-0,122	0,127
-157,964	-200,000	0,022	0,097
-156,950	-45,145	-0,057	0,020
-155,935	8,795	-0,011	0,006
-154,920	800,000	0,019	-0,045
-153,906	-150,122	0,166	0,009
-152,891	-200,000	-0,008	-0,025
-151,877	112,811	-0,055	-0,048
-150,862	-200,000	0,014	-0,074
-149,847	119,024	-0,064	-0,057
-148,833	-102,847	-0,014	0,002
-147,818	-200,000	-0,005	0,136
-146,804	800,000	-0,011	0,033
-145,789	750,221	-0,035	0,068
-144,775	-200,000	0,002	0,027
-143,760	-200,000	0,009	0,033
-142,745	-21,005	0,115	-0,051
-141,731	800,000	0,054	0,123
-140,716	800,000	-0,013	-0,040
-139,702	-10,083	0,076	-0,037
-138,687	-200,000	-0,001	0,093
-137,672	1,966	-0,153	0,080
-136,658	800,000	-0,013	0,029
-135,643	-35,962	-0,023	0,009
-134,629	136,839	0,069	-0,066
-133,614	212,000	0,050	0,058
-132,599	-82,191	0,181	0,042
-131,585	-150,614	0,093	0,005
-130,570	-200,000	0,093	0,000
-129,556	154,621	-0,047	-0,047
-128,541	-200,000	-0,012	-0,070
-127,526	-0,400	0,045	-0,023
-126,512	-46,964	-0,011	0,004
-125,497	169,108	0,037	-0,039
-124,483	-200,000	-0,017	0,074
-123,468	377,509	0,094	0,139
-122,453	308,782	0,018	0,024
-121,439	-200,000	0,052	-0,165
-120,424	59,285	-0,018	0,013
-119,410	-113,272	-0,138	0,019
