DTS Sentinel unit serial number:	SN410029Multiplexer serial number:	ORYXHardware model number:	OX2-SRSoftware version number:	ORYX F/W v4,00 Oryx Data Collector v3.7.2.0data status	okinstallation	B6 Nyhavnadifferential loss correction	single-endedforward channel	channel 2reverse channel	N/Adate	2023/12/07time	23:35:08forward acquisition time	300,00reverse acquisition time	0,00gamma	499,1914k internal	0,3164k external	0,3164temperature offset calibration	1,0000default loss term (dB/km)	0,3820temperature slope calibration	1,0000multiplexer offset coefficient	1,0000multiplexer slope coefficient	1,0000fibre end	0,00T internal ref (°C)	13,44T ext. ref 1 (°C)	-3,49T ext. ref 2 (°C)	-3,47length (m)	temperature (°C)	Stokes	anti-Stokes-744,400	148,636	-0,061	0,061
-743,385	-35,644	-0,325	-0,129
-742,371	-88,561	0,239	-0,052
-741,356	-84,058	-0,391	-0,091
-740,342	85,364	0,072	0,058
-739,327	-114,272	-0,309	-0,043
-738,312	-19,289	0,181	0,082
-737,298	-83,735	-0,397	0,092
-736,283	-58,057	0,119	0,038
-735,269	-106,427	-0,364	0,059
-734,254	-129,965	0,223	0,022
-733,239	31,430	-0,492	-0,310
-732,225	-27,512	0,245	0,104
-731,210	-200,000	-0,006	-0,083
-730,196	-108,456	0,084	0,013
-729,181	64,865	-0,150	-0,111
-728,167	722,462	0,011	-0,022
-727,152	-200,000	-0,013	0,059
-726,137	229,402	-0,054	0,065
-725,123	-200,000	-0,022	0,072
-724,108	-200,000	0,032	-0,154
-723,094	-12,619	-0,076	-0,036
-722,079	-28,411	0,138	-0,058
-721,064	-40,136	0,104	-0,040
-720,050	122,521	-0,107	0,098
-719,035	-73,234	-0,108	0,029
-718,021	-42,641	-0,054	0,020
-717,006	-200,000	0,014	-0,058
-715,991	-84,420	-0,085	0,019
-714,977	32,714	-0,071	0,045
-713,962	319,223	0,056	0,079
-712,948	-200,000	0,001	-0,006
-711,933	-200,000	-0,004	0,029
-710,918	-200,000	-0,016	-0,119
-709,904	-200,000	-0,012	-0,177
-708,889	-200,000	0,008	-0,040
-707,875	-200,000	-0,017	-0,085
-706,860	-76,832	-0,125	0,032
-705,845	800,000	-0,032	0,075
-704,831	99,450	-0,034	-0,029
-703,816	800,000	-0,011	0,026
-702,802	241,779	-0,109	-0,134
-701,787	-130,950	0,046	0,004
-700,772	768,747	0,036	0,073
-699,758	623,249	0,035	0,064
-698,743	-1,358	0,071	0,037
-697,729	-200,000	-0,010	-0,081
-696,714	308,589	0,027	-0,037
-695,699	14,485	0,085	-0,049
-694,685	-58,118	-0,071	-0,023
-693,670	800,000	-0,092	-0,214
-692,656	-200,000	-0,036	0,135
-691,641	-200,000	0,001	0,058
-690,627	33,453	0,032	-0,021
-689,612	800,000	-0,050	-0,106
-688,597	-115,321	-0,032	0,004
-687,583	606,977	0,014	0,025
-686,568	40,539	-0,073	-0,049
-685,554	-200,000	-0,009	-0,053
-684,539	-143,748	-0,164	-0,011
-683,524	121,963	0,064	-0,059
-682,510	97,116	-0,081	-0,068
-681,495	-98,811	0,085	-0,016
-680,481	800,000	-0,030	-0,092
-679,466	354,437	-0,063	-0,092
-678,451	86,254	-0,052	0,042
-677,437	390,951	-0,043	-0,066
-676,422	-80,325	0,184	0,045
-675,408	264,049	-0,082	-0,104
-674,393	-114,139	-0,133	0,019
-673,378	-72,290	-0,090	-0,024
-672,364	661,765	0,013	0,025
-671,349	76,012	0,078	-0,060
-670,335	-200,000	0,002	-0,162
-669,320	-200,000	-0,014	0,056
-668,305	-200,000	0,021	0,095
-667,291	366,937	0,108	0,161
-666,276	-99,533	0,049	-0,009
-665,262	800,000	-0,049	-0,147
-664,247	800,000	0,072	0,146
-663,232	-200,000	0,006	-0,023
-662,218	53,083	0,069	-0,048
-661,203	-200,000	-0,009	-0,030
-660,189	-200,000	-0,010	-0,084
-659,174	-55,756	-0,086	0,028
-658,159	-200,000	0,005	-0,059
-657,145	440,850	-0,091	-0,147
-656,130	38,314	-0,074	-0,048
-655,116	343,751	-0,073	-0,105
-654,101	473,627	0,061	0,101
-653,086	-88,373	-0,132	0,029
-652,072	-200,000	0,018	0,151
-651,057	24,947	0,083	0,051
-650,043	454,484	-0,066	0,107
-649,028	-200,000	-0,017	-0,085
-648,014	-28,466	-0,154	0,065
-646,999	-57,636	0,028	-0,009
-645,984	-200,000	-0,029	-0,174
-644,970	-4,761	-0,121	-0,061
-643,955	-200,000	-0,009	0,057
-642,941	800,000	-0,074	-0,189
-641,926	87,183	0,092	-0,075
-640,911	800,000	0,017	-0,053
-639,897	-134,959	0,165	-0,014
-638,882	372,918	0,049	-0,074
-637,868	755,058	0,068	-0,134
-636,853	-26,598	-0,140	-0,060
-635,838	-63,440	0,139	0,041
-634,824	-115,555	-0,058	0,008
-633,809	-0,423	-0,104	-0,054
-632,795	-200,000	-0,006	0,108
-631,780	-94,003	0,082	0,016
-630,765	-99,199	0,023	0,004
-629,751	-25,815	0,092	-0,039
-628,736	-88,844	-0,128	-0,028
-627,722	-35,695	-0,027	0,011
-626,707	-64,041	-0,067	-0,020
-625,692	612,350	0,015	0,028
-624,678	-200,000	-0,016	0,116
-623,663	200,473	-0,041	-0,046
-622,649	-200,000	0,004	0,048
-621,634	-49,823	0,087	-0,030
-620,619	-200,000	0,025	0,130
-619,605	579,489	-0,035	0,063
-618,590	-200,000	0,009	0,054
-617,576	800,000	0,046	0,124
-616,561	72,008	-0,079	-0,060
-615,546	800,000	-0,036	-0,112
-614,532	383,919	-0,056	-0,085
-613,517	12,965	-0,056	-0,032
-612,503	34,600	0,087	-0,055
-611,488	-12,683	-0,024	0,011
-610,474	-9,891	0,075	-0,036
-609,459	4,802	-0,028	0,015
-608,444	25,770	-0,203	-0,123
-607,430	-200,000	0,019	-0,109
-606,415	800,000	-0,062	-0,170
-605,401	-200,000	-0,001	-0,005
-604,386	-200,000	-0,074	0,313
-603,371	-151,923	0,043	0,002
-602,357	469,025	-0,068	0,113
-601,342	321,764	-0,066	-0,093
-600,328	582,455	-0,105	-0,189
-599,313	439,425	0,042	-0,068
-598,298	800,000	-0,048	-0,133
-597,284	-200,000	-0,010	0,071
-596,269	794,453	0,016	0,033
-595,255	-200,000	-0,009	0,063
-594,240	-17,492	0,133	-0,061
-593,225	200,767	0,052	0,059
-592,211	-200,000	0,010	-0,037
-591,196	-9,138	-0,069	-0,034
-590,182	-7,477	-0,083	0,041
-589,167	281,134	0,034	-0,045
-588,152	-200,000	0,023	0,077
-587,138	-92,912	-0,031	0,006
-586,123	-52,557	0,041	-0,014
-585,109	83,060	-0,052	-0,042
-584,094	800,000	0,039	-0,086
-583,079	18,666	0,019	0,011
-582,065	800,000	-0,033	0,104
-581,050	-200,000	-0,019	0,074
-580,036	800,000	0,026	-0,063
-579,021	800,000	0,021	0,068
-578,006	-200,000	0,021	-0,113
-576,992	800,000	-0,068	-0,141
-575,977	232,430	0,050	-0,060
-574,963	507,919	0,007	0,012
-573,948	47,334	-0,145	0,099
-572,934	82,582	0,072	0,057
-571,919	800,000	0,028	-0,063
-570,904	4,065	-0,119	-0,064
-569,890	800,000	-0,027	0,071
-568,875	-46,574	0,108	0,038
-567,861	-200,000	0,010	0,114
-566,846	217,456	-0,021	-0,024
-565,831	41,452	0,029	0,019
-564,817	187,372	-0,106	0,115
-563,802	800,000	-0,015	0,045
-562,788	-116,124	0,047	-0,006
-561,773	383,385	-0,017	-0,025
-560,758	-39,398	-0,048	-0,018
-559,744	427,087	0,062	-0,098
-558,729	64,075	0,022	0,016
-557,715	800,000	0,054	-0,134
-556,700	-81,195	-0,050	-0,012
-555,685	-200,000	-0,010	-0,123
-554,671	-200,000	-0,006	-0,023
-553,656	-124,317	0,106	-0,012
-552,642	103,913	-0,064	0,055
-551,627	173,949	0,006	0,006
-550,612	448,253	-0,065	-0,105
-549,598	-5,412	-0,082	-0,041
-548,583	-34,487	0,067	-0,027
-547,569	-200,000	0,014	-0,065
-546,554	-200,000	-0,059	0,217
-545,539	-113,056	-0,012	-0,002
-544,525	-200,000	-0,003	0,020
-543,510	800,000	-0,033	-0,103
-542,496	11,886	-0,132	0,074
-541,481	78,680	0,024	0,019
-540,466	46,247	0,083	-0,056
-539,452	183,361	-0,023	0,025
-538,437	-200,000	0,005	0,115
-537,423	-95,043	0,169	0,033
-536,408	-11,425	0,093	-0,044
-535,393	185,562	-0,124	-0,135
-534,379	-135,584	0,150	-0,013
-533,364	800,000	0,023	0,052
-532,350	-56,440	-0,092	0,029
-531,335	63,646	-0,011	-0,008
-530,321	-197,892	-0,046	0,000
-529,306	800,000	0,034	0,085
-528,291	225,374	0,031	-0,037
-527,277	37,374	-0,021	-0,014
-526,262	-200,000	-0,006	0,024
-525,248	283,190	0,061	0,080
-524,233	4,999	0,089	0,048
-523,218	-102,637	-0,156	0,027
-522,204	294,318	0,032	0,042
-521,189	800,000	-0,074	-0,182
-520,175	-200,000	0,001	0,038
-519,160	76,229	-0,102	-0,079
-518,145	154,001	0,050	0,051
-517,131	-200,000	-0,001	0,076
-516,116	172,328	0,051	-0,054
-515,102	195,440	0,035	-0,039
-514,087	800,000	0,062	-0,168
-513,072	-128,460	0,122	0,012
-512,058	-200,000	0,002	-0,063
-511,043	-200,000	0,029	-0,167
-510,029	-153,512	0,077	-0,004
-509,014	58,468	-0,163	0,116
-507,999	-122,120	-0,065	0,008
-506,985	761,778	-0,013	-0,025
-505,970	7,881	-0,034	0,018
-504,956	-200,000	0,010	-0,126
-503,941	-74,072	-0,052	-0,014
-502,926	-133,977	0,110	-0,010
-501,912	200,441	0,014	-0,016
-500,897	329,503	0,048	0,068
-499,883	-93,530	-0,054	-0,011
-498,868	-138,549	-0,050	-0,004
-497,853	800,000	0,018	-0,047
-496,839	800,000	-0,007	-0,018
-495,824	-200,000	0,006	0,035
-494,810	-200,000	-0,010	0,073
-493,795	-6,101	0,040	0,020
-492,781	-200,000	-0,001	-0,050
-491,766	-60,180	-0,156	-0,048
-490,751	800,000	0,043	0,108
-489,737	-36,588	-0,122	-0,047
-488,722	-118,163	0,074	0,010
-487,708	-108,081	-0,262	0,041
-486,693	-115,329	0,013	0,002
-485,678	-57,830	0,105	-0,033
-484,664	204,483	0,044	0,050
-483,649	75,904	-0,013	-0,010
-482,635	5,050	-0,048	0,026
-481,620	-165,714	-0,076	0,002
-480,605	800,000	-0,025	-0,075
-479,591	85,345	0,108	-0,086
-478,576	755,711	-0,029	-0,057
-477,562	-146,402	-0,150	-0,009
-476,547	-16,609	0,059	0,027
-475,532	-111,965	-0,078	0,011
-474,518	139,214	-0,121	0,116
-473,503	-124,627	0,049	0,005
-472,489	117,274	-0,042	-0,038
-471,474	706,596	-0,029	0,055
-470,459	81,235	0,046	-0,036
-469,445	800,000	-0,018	-0,053
-468,430	-109,744	-0,045	-0,007
-467,416	258,869	0,014	0,018
-466,401	-200,000	-0,000	0,085
-465,386	-149,739	-0,050	0,003
-464,372	800,000	0,023	0,068
-463,357	-101,793	-0,128	-0,022
-462,343	-200,000	0,012	-0,124
-461,328	298,399	-0,028	0,037
-460,313	-200,000	0,012	-0,045
-459,299	40,706	0,026	0,017
-458,284	-139,588	0,026	-0,002
-457,270	42,172	-0,024	0,016
-456,255	-4,628	0,047	-0,023
-455,241	-200,000	-0,008	-0,035
-454,226	-74,268	0,057	-0,015
-453,211	-113,569	-0,072	-0,010
-452,197	-166,695	-0,093	0,003
-451,182	489,205	-0,034	0,057
-450,168	800,000	0,050	-0,151
-449,153	404,033	0,021	0,032
-448,138	52,163	-0,112	-0,077
-447,124	-200,000	0,032	-0,126
-446,109	-200,000	-0,016	-0,104
-445,095	-166,864	0,104	-0,003
-444,080	-200,000	0,004	0,044
-443,065	604,377	0,108	0,197
-442,051	-200,000	0,010	0,174
-441,036	-90,685	-0,136	0,028
-440,022	800,000	0,068	0,145
-439,007	-200,000	0,009	-0,055
-437,992	-200,000	0,005	-0,066
-436,978	-200,000	0,036	0,131
-435,963	800,000	-0,024	0,050
-434,949	-36,590	0,014	-0,005
-433,934	-154,165	-0,095	-0,005
-432,919	-148,596	-0,050	0,003
-431,905	-200,000	-0,007	-0,037
-430,890	-121,148	0,113	-0,014
-429,876	143,949	0,081	0,079
-428,861	-85,196	0,051	0,011
-427,846	-171,314	0,111	0,003
-426,832	-5,416	0,017	0,008
-425,817	44,610	-0,092	-0,061
-424,803	88,552	-0,018	-0,015
-423,788	316,676	0,026	-0,036
-422,773	-91,072	0,100	0,021
-421,759	-71,554	0,116	-0,031
-420,744	356,066	-0,045	0,065
-419,730	800,000	-0,007	0,020
-418,715	-200,000	-0,021	-0,110
-417,701	-140,532	-0,070	0,005
-416,686	-200,000	0,028	0,095
-415,671	-121,708	-0,076	0,009
-414,657	188,059	0,064	0,070
-413,642	-200,000	-0,002	-0,059
-412,628	381,288	-0,024	0,036
-411,613	-200,000	0,036	-0,254
-410,598	73,009	-0,071	-0,054
-409,584	-200,000	0,036	0,193
-408,569	0,765	0,095	-0,049
-407,555	109,451	-0,067	-0,058
-406,540	57,300	0,135	-0,095
-405,525	-177,812	-0,174	-0,003
-404,511	324,913	-0,118	-0,165
-403,496	42,675	0,088	-0,058
-402,482	-93,263	0,067	-0,013
-401,467	-200,000	-0,005	-0,020
-400,452	-20,554	0,100	-0,044
-399,438	287,888	0,039	0,052
-398,423	-200,000	0,006	0,023
-397,409	-87,113	0,098	0,021
-396,394	418,765	-0,115	-0,179
-395,379	163,774	0,097	-0,099
-394,365	-18,665	0,122	0,055
-393,350	6,468	-0,024	0,013
-392,336	800,000	-0,012	-0,026
-391,321	44,226	0,064	-0,043
-390,306	-67,200	-0,108	0,031
-389,292	126,838	0,121	0,111
-388,277	800,000	0,069	-0,207
-387,263	-59,557	0,172	0,053
-386,248	-15,028	0,076	0,035
-385,233	-200,000	0,000	0,061
-384,219	-200,000	-0,008	-0,079
-383,204	663,848	0,045	0,084
-382,190	208,778	-0,060	0,068
-381,175	-148,354	0,097	0,006
-380,160	-52,802	0,152	0,051
-379,146	59,739	-0,127	-0,090
-378,131	-158,779	-0,032	-0,001
-377,117	-150,588	0,047	0,003
-376,102	800,000	-0,049	0,108
-375,088	-200,000	-0,004	0,022
-374,073	800,000	0,020	-0,043
-373,058	-200,000	0,017	0,079
-372,044	315,377	0,051	0,070
-371,029	-200,000	-0,024	0,203
-370,015	239,827	-0,064	-0,077
-369,000	501,016	-0,003	0,005
-367,985	160,478	0,134	0,136
-366,971	73,737	-0,028	-0,021
-365,956	-83,333	-0,061	0,014
-364,942	289,207	0,110	0,144
-363,927	159,558	-0,081	0,082
-362,912	93,769	0,048	-0,039
-361,898	800,000	-0,011	-0,026
-360,883	800,000	-0,036	-0,076
-359,869	800,000	-0,091	-0,199
-358,854	79,403	-0,086	-0,066
-357,839	-126,964	0,104	0,011
-356,825	800,000	0,031	0,088
-355,810	68,169	-0,054	-0,040
-354,796	800,000	0,026	-0,056
-353,781	454,629	-0,042	0,067
-352,766	-23,089	-0,088	0,038
-351,752	-41,693	-0,083	-0,031
-350,737	10,549	0,093	0,051
-349,723	119,162	0,062	0,056
-348,708	288,942	0,037	-0,048
-347,693	162,608	-0,008	0,008
-346,679	-14,826	-0,089	0,041
-345,664	-135,520	0,068	-0,006
-344,650	503,399	0,038	-0,065
-343,635	-72,207	0,085	-0,023
-342,620	397,541	-0,083	0,126
-341,606	737,387	0,042	0,083
-340,591	124,788	0,006	0,006
-339,577	-200,000	0,011	-0,103
-338,562	-200,000	-0,031	-0,128
-337,548	243,490	-0,079	-0,096
-336,533	-80,812	0,095	0,023
-335,518	-61,152	0,058	0,018
-334,504	-94,299	0,100	0,020
-333,489	-200,000	0,015	-0,059
-332,475	-81,647	-0,047	-0,011
-331,460	121,408	-0,098	-0,089
-330,445	234,080	0,095	-0,114
-329,431	-200,000	0,015	-0,097
-328,416	233,352	0,010	0,012
-327,402	-200,000	-0,009	0,097
-326,387	-28,496	-0,118	-0,049
-325,372	-200,000	-0,027	0,091
-324,358	-162,748	-0,011	0,000
-323,343	-200,000	0,007	0,116
-322,329	-58,530	0,121	0,038
-321,314	-200,000	-0,000	0,051
-320,299	-60,106	0,218	0,067
-319,285	-4,172	0,081	0,040
-318,270	372,524	-0,035	-0,052
-317,256	-29,902	-0,129	-0,053
-316,241	148,334	-0,034	-0,033
-315,226	97,273	-0,021	0,018
-314,212	642,789	-0,034	0,063
-313,197	495,472	0,067	-0,112
-312,183	-127,714	0,063	0,007
-311,168	80,743	-0,031	-0,025
-310,153	-32,331	-0,168	-0,067
-309,139	-200,000	-0,022	0,088
-308,124	-138,900	-0,075	0,006
-307,110	-83,291	0,098	0,023
-306,095	-152,341	0,047	-0,002
-305,080	174,362	-0,049	0,052
-304,066	228,103	-0,046	0,054
-303,051	-69,242	-0,031	-0,009
-302,037	17,633	0,119	0,068
-301,022	346,928	-0,024	-0,034
-300,008	442,244	0,046	-0,073
-298,993	349,241	-0,033	0,047
-297,978	-200,000	0,008	0,063
-296,964	-200,000	0,045	0,147
-295,949	-79,536	-0,083	-0,020
-294,935	-114,694	-0,104	-0,014
-293,920	95,872	-0,019	-0,016
-292,905	129,785	0,094	0,087
-291,891	-55,113	0,026	-0,008
-290,876	-200,000	0,011	0,095
-289,862	-16,175	0,039	0,018
-288,847	376,656	-0,055	-0,081
-287,832	-200,000	0,006	-0,075
-286,818	-44,448	0,067	-0,024
-285,803	-80,990	-0,023	-0,005
-284,789	-200,000	0,003	0,092
-283,774	-1,689	0,107	-0,054
-282,759	123,759	-0,055	0,050
-281,745	-200,000	-0,012	-0,122
-280,730	-13,827	0,080	-0,037
-279,716	183,711	-0,054	0,058
-278,701	37,482	0,104	0,067
-277,686	107,051	-0,106	0,091
-276,672	278,331	0,025	-0,033
-275,657	-40,081	-0,023	-0,009
-274,643	141,463	-0,047	0,045
-273,628	-200,000	0,016	-0,105
-272,613	210,644	-0,055	-0,063
-271,599	140,331	0,077	0,073
-270,584	-200,000	-0,032	0,114
-269,570	30,758	0,063	0,039
-268,555	-200,000	-0,021	-0,108
-267,540	-200,000	-0,020	0,116
-266,526	485,261	-0,009	-0,015
-265,511	-13,548	0,052	-0,024
-264,497	-200,000	0,021	0,131
-263,482	130,727	-0,081	0,075
-262,467	-15,538	-0,095	-0,044
-261,453	-70,553	-0,042	-0,011
-260,438	-200,000	-0,005	-0,070
-259,424	800,000	0,026	-0,054
-258,409	-6,660	-0,105	-0,052
-257,395	-57,120	0,084	-0,027
-256,380	500,554	-0,019	0,032
-255,365	320,980	-0,063	0,086
-254,351	-67,718	-0,085	0,024
-253,336	-200,000	0,041	0,148
-252,322	-160,127	-0,089	0,003
-251,307	-73,556	-0,090	0,023
-250,292	3,338	-0,118	-0,062
-249,278	-200,000	-0,009	0,141
-248,263	107,846	0,091	0,078
-247,249	800,000	0,110	0,228
-246,234	-200,000	0,001	-0,040
-245,219	800,000	0,048	0,108
-244,205	745,960	-0,049	-0,096
-243,190	800,000	-0,021	-0,062
-242,176	70,161	-0,067	0,050
-241,161	-50,688	0,082	0,028
-240,146	369,361	0,048	0,071
-239,132	47,906	-0,063	0,042
-238,117	-200,000	0,010	-0,118
-237,103	313,878	-0,054	-0,074
-236,088	112,279	0,157	-0,137
-235,073	29,711	0,028	0,017
-234,059	-200,000	0,011	-0,174
-233,044	-97,677	0,023	0,004
-232,030	-200,000	-0,003	0,009
-231,015	800,000	0,039	-0,079
-230,000	63,332	0,074	-0,054
-228,986	288,060	0,039	-0,051
-227,971	182,815	-0,023	-0,024
-226,957	800,000	-0,032	-0,099
-225,942	-200,000	0,020	0,160
-224,927	800,000	-0,056	0,141
-223,913	-91,756	-0,073	0,015
-222,898	800,000	-0,027	-0,059
-221,884	-156,799	-0,040	-0,002
-220,869	-200,000	0,018	0,130
-219,855	-178,542	0,114	-0,002
-218,840	-200,000	0,004	-0,018
-217,825	41,270	-0,013	0,008
-216,811	101,382	0,023	0,020
-215,796	-131,329	-0,090	0,009
-214,782	-156,776	-0,137	-0,006
-213,767	-200,000	0,027	0,113
-212,752	800,000	0,065	0,177
-211,738	800,000	-0,054	0,157
-210,723	-28,767	-0,097	0,040
-209,709	-200,000	-0,027	-0,132
-208,694	-200,000	0,002	-0,021
-207,679	-23,356	-0,052	-0,022
-206,665	-69,695	0,079	0,022
-205,650	77,605	0,088	-0,067
-204,636	30,310	-0,056	-0,034
-203,621	47,087	0,068	-0,045
-202,606	-111,285	0,061	-0,009
-201,592	-27,866	-0,074	-0,031
-200,577	-38,512	-0,032	-0,012
-199,563	-139,402	0,115	0,009
-198,548	800,000	0,031	-0,098
-197,533	135,868	0,071	0,067
-196,519	277,403	0,055	0,071
-195,504	-57,439	-0,138	-0,043
-194,490	-200,000	-0,007	0,055
-193,475	282,843	0,021	0,028
-192,460	-200,000	-0,017	0,060
-191,446	160,487	0,066	0,067
-190,431	-200,000	0,009	0,108
-189,417	-200,000	0,015	0,180
-188,402	800,000	0,072	0,158
-187,387	-61,242	-0,110	-0,033
-186,373	95,389	-0,039	0,032
-185,358	674,067	0,004	0,007
-184,344	198,023	0,164	-0,180
-183,329	566,631	0,041	0,072
-182,315	220,033	-0,017	0,020
-181,300	10,837	0,084	0,046
-180,285	-200,000	-0,033	-0,107
-179,271	458,301	-0,085	-0,136
-178,256	114,694	-0,063	-0,056
-177,242	-69,593	0,114	0,031
-176,227	188,864	-0,092	0,100
-175,212	-200,000	-0,022	0,134
-174,198	-200,000	0,019	-0,071
-173,183	25,952	-0,025	-0,015
-172,169	3,246	-0,028	0,015
-171,154	-200,000	0,000	0,009
-170,139	-200,000	0,006	0,126
-169,125	84,746	0,114	0,090
-168,110	31,135	0,106	0,065
-167,096	-200,000	-0,005	-0,151
-166,081	-102,423	-0,067	0,011
-165,066	282,961	0,084	-0,109
-164,052	77,107	-0,060	-0,046
-163,037	-130,533	0,064	0,006
-162,023	800,000	-0,024	-0,052
-161,008	-3,642	0,055	0,027
-159,993	40,963	-0,057	0,037
-158,979	6,350	-0,040	-0,021
-157,964	-42,470	0,027	0,010
-156,950	-83,319	-0,108	0,025
-155,935	795,600	0,026	0,053
-154,920	-111,731	0,090	0,013
-153,906	800,000	0,060	-0,124
-152,891	800,000	0,064	0,136
-151,877	-113,573	-0,133	-0,019
-150,862	328,465	0,064	0,088
-149,847	-200,000	-0,031	-0,128
-148,833	205,394	0,037	-0,042
-147,818	-200,000	-0,013	-0,049
-146,804	-154,052	-0,063	-0,003
-145,789	-48,653	0,097	0,033
-144,775	104,977	-0,088	0,074
-143,760	-200,000	-0,005	0,035
-142,745	-123,390	-0,159	0,018
-141,731	-200,000	-0,023	0,120
-140,716	-51,134	-0,065	0,022
-139,702	798,996	0,071	-0,141
-138,687	26,810	0,050	-0,030
-137,672	-200,000	-0,029	0,104
-136,658	437,851	0,092	-0,145
-135,643	133,582	0,037	-0,034
-134,629	-128,395	0,045	-0,005
-133,614	314,025	0,097	0,131
-132,599	124,771	-0,073	-0,066
-131,585	-200,000	-0,009	0,113
-130,570	-92,283	0,223	-0,045
-129,556	-200,000	-0,028	-0,137
-128,541	800,000	-0,043	-0,087
-127,526	71,523	0,085	0,063
-126,512	239,908	-0,045	0,054
-125,497	372,675	-0,056	0,082
-124,483	5,545	-0,052	-0,028
-123,468	-122,138	-0,075	0,009
-122,453	-200,000	0,010	-0,068
-121,439	13,083	0,097	0,054
-120,424	-200,000	-0,023	0,075
-119,410	300,730	-0,046	0,061
