DTS Sentinel unit serial number:	SN410029Multiplexer serial number:	ORYXHardware model number:	OX2-SRSoftware version number:	ORYX F/W v4,00 Oryx Data Collector v3.7.2.0data status	okinstallation	B6 Nyhavnadifferential loss correction	single-endedforward channel	channel 2reverse channel	N/Adate	2023/12/11time	07:30:08forward acquisition time	300,00reverse acquisition time	0,00gamma	499,1914k internal	0,3128k external	0,3128temperature offset calibration	1,0000default loss term (dB/km)	0,3820temperature slope calibration	1,0000multiplexer offset coefficient	1,0000multiplexer slope coefficient	1,0000fibre end	0,00T internal ref (°C)	19,01T ext. ref 1 (°C)	1,49T ext. ref 2 (°C)	1,53length (m)	temperature (°C)	Stokes	anti-Stokes-744,400	576,994	0,070	-0,129
-743,385	-10,328	-0,221	-0,109
-742,371	12,638	0,043	0,025
-741,356	-37,196	-0,245	0,097
-740,342	592,381	0,026	0,049
-739,327	32,186	-0,198	0,127
-738,312	485,383	0,042	-0,071
-737,298	-96,123	-0,266	0,052
-736,283	-46,426	0,060	0,022
-735,269	-167,517	-0,282	-0,008
-734,254	619,545	0,083	0,156
-733,239	-79,405	-0,411	-0,103
-732,225	-25,113	0,179	0,078
-731,210	69,177	-0,065	0,050
-730,196	-54,770	-0,058	0,019
-729,181	361,379	0,032	-0,048
-728,167	120,169	-0,014	0,013
-727,152	800,000	-0,011	0,029
-726,137	800,000	-0,008	-0,023
-725,123	-148,404	-0,198	0,012
-724,108	-187,908	-0,079	-0,001
-723,094	-200,000	-0,003	-0,013
-722,079	-43,583	-0,064	-0,024
-721,064	-141,978	-0,055	0,004
-720,050	93,633	-0,115	0,097
-719,035	398,305	0,057	-0,089
-718,021	203,847	-0,094	0,108
-717,006	54,522	0,067	-0,048
-715,991	-75,130	0,125	0,033
-714,977	247,753	-0,075	-0,094
-713,962	-60,823	-0,076	-0,024
-712,948	-200,000	0,013	0,156
-711,933	251,156	0,043	-0,054
-710,918	-104,597	-0,115	0,020
-709,904	-200,000	0,020	0,000
-708,889	44,080	-0,069	-0,047
-707,875	-200,000	0,012	-0,101
-706,860	610,799	0,044	0,083
-705,845	-200,000	0,008	-0,043
-704,831	-107,774	0,178	0,028
-703,816	-200,000	0,019	0,082
-702,802	514,420	-0,030	0,053
-701,787	800,000	-0,058	-0,146
-700,772	-200,000	0,002	0,012
-699,758	-200,000	-0,007	0,052
-698,743	-200,000	-0,011	0,079
-697,729	800,000	0,047	0,106
-696,714	-92,305	0,034	0,007
-695,699	61,472	-0,085	-0,063
-694,685	12,896	-0,078	-0,044
-693,670	-70,369	0,107	-0,030
-692,656	-0,752	0,061	0,032
-691,641	-200,000	0,002	0,038
-690,627	-128,598	0,151	0,016
-689,612	-200,000	0,017	-0,057
-688,597	445,258	-0,024	-0,039
-687,583	800,000	-0,013	0,040
-686,568	-194,949	-0,154	0,001
-685,554	-68,280	0,130	0,037
-684,539	-200,000	-0,029	0,169
-683,524	-55,967	0,075	0,025
-682,510	329,613	-0,063	0,091
-681,495	800,000	0,006	0,014
-680,481	-200,000	0,007	-0,126
-679,466	148,493	-0,061	0,061
-678,451	-200,000	-0,012	0,062
-677,437	322,756	0,009	-0,013
-676,422	559,359	0,039	0,071
-675,408	-200,000	0,011	-0,132
-674,393	43,463	-0,095	-0,065
-673,378	800,000	-0,020	0,043
-672,364	124,060	-0,138	-0,129
-671,349	433,855	0,061	-0,099
-670,335	-134,871	0,080	0,007
-669,320	184,968	0,030	-0,033
-668,305	-1,093	0,121	-0,063
-667,291	-116,405	0,069	-0,009
-666,276	117,265	-0,135	-0,123
-665,262	-200,000	-0,004	-0,102
-664,247	-200,000	0,006	0,095
-663,232	254,690	-0,053	0,068
-662,218	347,246	0,096	0,141
-661,203	79,199	0,088	-0,070
-660,189	-200,000	0,022	-0,072
-659,174	159,984	0,072	-0,074
-658,159	-124,868	0,063	-0,007
-657,145	-200,000	-0,012	0,057
-656,130	181,342	0,067	-0,074
-655,116	-168,021	0,076	0,002
-654,101	-200,000	0,006	-0,086
-653,086	9,949	-0,088	0,049
-652,072	-89,840	-0,129	0,028
-651,057	-200,000	-0,015	-0,055
-650,043	15,773	-0,101	-0,059
-649,028	-122,489	-0,113	-0,013
-648,014	-34,009	0,105	-0,043
-646,999	800,000	0,023	-0,056
-645,984	43,218	0,057	0,039
-644,970	-200,000	-0,011	-0,086
-643,955	-200,000	-0,020	0,105
-642,941	800,000	-0,039	-0,111
-641,926	394,729	0,031	-0,047
-640,911	-17,242	-0,136	0,063
-639,897	-143,894	0,149	-0,010
-638,882	320,381	0,102	-0,144
-637,868	50,801	-0,085	-0,060
-636,853	-200,000	-0,010	-0,041
-635,838	-174,677	-0,194	0,004
-634,824	-45,062	-0,029	0,011
-633,809	-200,000	0,007	-0,113
-632,795	227,608	-0,067	-0,081
-631,780	-200,000	-0,021	-0,086
-630,765	-200,000	-0,018	0,071
-629,751	-200,000	-0,031	-0,118
-628,736	800,000	-0,031	-0,091
-627,722	-200,000	-0,007	0,060
-626,707	800,000	0,032	0,071
-625,692	-200,000	-0,024	0,173
-624,678	-200,000	-0,019	0,119
-623,663	77,000	0,116	-0,091
-622,649	151,127	-0,110	-0,111
-621,634	-130,746	-0,160	0,016
-620,619	534,406	0,037	0,065
-619,605	695,866	0,069	0,134
-618,590	-168,340	-0,078	0,002
-617,576	-26,080	0,106	0,046
-616,561	800,000	-0,040	0,100
-615,546	319,753	-0,061	-0,086
-614,532	-27,735	-0,147	-0,063
-613,517	70,407	0,064	0,049
-612,503	-64,539	-0,012	-0,004
-611,488	800,000	-0,013	-0,039
-610,474	-200,000	0,097	-0,000
-609,459	149,750	-0,069	-0,069
-608,444	800,000	0,014	-0,041
-607,430	-25,168	0,096	0,042
-606,415	188,618	0,057	-0,063
-605,401	606,344	-0,053	0,098
-604,386	339,939	0,032	-0,046
-603,371	-200,000	0,010	-0,047
-602,357	29,604	-0,078	0,049
-601,342	746,214	-0,048	-0,095
-600,328	185,178	0,085	-0,093
-599,313	-200,000	-0,006	-0,167
-598,298	-110,015	0,038	-0,006
-597,284	-19,156	-0,077	-0,035
-596,269	-119,171	-0,008	0,001
-595,255	430,576	0,049	0,078
-594,240	-62,720	-0,092	0,028
-593,225	-136,264	0,021	0,002
-592,211	-200,000	0,006	0,031
-591,196	368,067	-0,031	-0,047
-590,182	-74,989	0,066	-0,017
-589,167	-200,000	-0,002	-0,105
-588,152	89,714	0,062	0,051
-587,138	219,922	-0,048	-0,057
-586,123	-200,000	0,009	-0,073
-585,109	-107,176	-0,098	-0,016
-584,094	3,156	-0,119	0,064
-583,079	-88,919	-0,068	0,015
-582,065	-100,364	0,110	-0,020
-581,050	-155,890	-0,042	0,002
-580,036	211,025	-0,051	-0,059
-579,021	1,529	-0,135	0,072
-578,006	-200,000	0,003	-0,062
-576,992	142,764	-0,061	0,060
-575,977	-5,981	-0,076	-0,038
-574,963	-200,000	-0,010	-0,059
-573,948	24,112	-0,151	-0,092
-572,934	800,000	-0,023	-0,051
-571,919	41,359	-0,133	-0,089
-570,904	-18,346	-0,072	-0,033
-569,890	-200,000	0,008	-0,041
-568,875	-200,000	0,045	0,150
-567,861	-200,000	-0,013	0,164
-566,846	103,743	0,055	0,048
-565,831	800,000	0,017	0,040
-564,817	-200,000	0,023	-0,096
-563,802	800,000	-0,018	-0,053
-562,788	209,307	0,032	0,037
-561,773	61,512	0,072	0,053
-560,758	-42,794	0,154	-0,058
-559,744	-100,247	-0,128	0,023
-558,729	48,916	-0,044	-0,030
-557,715	-98,108	-0,092	-0,017
-556,700	-200,000	0,005	-0,142
-555,685	22,200	0,045	0,027
-554,671	-200,000	0,013	-0,064
-553,656	-135,177	0,011	0,001
-552,642	422,285	0,047	0,075
-551,627	215,381	-0,010	-0,012
-550,612	800,000	0,019	0,046
-549,598	800,000	0,028	-0,074
-548,583	-200,000	-0,006	-0,094
-547,569	-66,345	0,106	0,031
-546,554	401,008	-0,025	0,039
-545,539	-200,000	0,031	-0,108
-544,525	120,883	0,057	0,052
-543,510	800,000	-0,031	-0,071
-542,496	466,296	-0,098	-0,162
-541,481	-200,000	-0,006	0,074
-540,466	515,134	-0,006	0,010
-539,452	-200,000	0,020	0,212
-538,437	-200,000	0,015	0,123
-537,423	18,745	-0,019	0,011
-536,408	136,913	0,005	0,005
-535,393	-200,000	0,037	-0,127
-534,379	212,963	0,037	0,043
-533,364	69,601	-0,044	0,033
-532,350	-45,303	0,114	-0,042
-531,335	-32,880	0,103	0,042
-530,321	26,459	0,085	-0,052
-529,306	3,326	-0,128	0,069
-528,291	425,849	-0,024	-0,039
-527,277	34,218	-0,092	-0,059
-526,262	74,796	-0,123	-0,095
-525,248	-0,435	0,031	-0,016
-524,233	22,091	-0,066	0,039
-523,218	65,680	0,059	0,044
-522,204	100,598	0,053	-0,046
-521,189	139,811	-0,040	0,039
-520,175	-40,897	-0,135	-0,051
-519,160	386,009	0,066	0,100
-518,145	-200,000	0,017	0,166
-517,131	-83,696	0,111	0,026
-516,116	800,000	0,059	0,160
-515,102	-200,000	0,006	0,073
-514,087	-61,674	-0,047	0,014
-513,072	-41,800	0,075	0,028
-512,058	-200,000	-0,014	-0,101
-511,043	164,686	-0,085	-0,089
-510,029	-29,154	0,073	-0,031
-509,014	440,084	-0,075	-0,122
-507,999	538,119	-0,045	0,080
-506,985	-105,303	-0,106	-0,018
-505,970	245,778	0,097	-0,121
-504,956	800,000	0,053	-0,117
-503,941	-200,000	0,026	-0,129
-502,926	233,052	0,064	0,077
-501,912	28,376	0,103	0,064
-500,897	-190,324	0,152	0,001
-499,883	103,989	-0,116	-0,100
-498,868	-200,000	0,010	-0,068
-497,853	800,000	0,032	-0,101
-496,839	253,910	-0,030	-0,038
-495,824	102,296	0,046	0,039
-494,810	-200,000	0,015	0,066
-493,795	-74,082	0,054	0,014
-492,781	-200,000	-0,017	0,060
-491,766	301,616	0,062	0,085
-490,751	-135,960	-0,240	0,021
-489,737	207,249	-0,082	0,094
-488,722	179,566	-0,053	-0,058
-487,708	785,619	-0,067	0,137
-486,693	800,000	0,026	0,063
-485,678	528,073	0,013	0,022
-484,664	401,264	-0,014	-0,021
-483,649	800,000	0,054	-0,112
-482,635	239,570	-0,107	-0,131
-481,620	-200,000	-0,016	-0,057
-480,605	226,955	0,065	-0,078
-479,591	-200,000	0,030	-0,144
-478,576	-200,000	0,008	0,045
-477,562	32,327	-0,079	-0,050
-476,547	-200,000	-0,046	-0,187
-475,532	-200,000	0,007	-0,151
-474,518	55,578	0,043	0,031
-473,503	-62,937	0,080	-0,024
-472,489	800,000	-0,034	0,109
-471,474	800,000	-0,064	0,174
-470,459	-199,945	-0,063	0,000
-469,445	-200,000	-0,016	0,070
-468,430	9,511	0,097	0,054
-467,416	139,546	0,042	0,041
-466,401	167,808	-0,063	0,066
-465,386	143,222	0,184	0,180
-464,372	-70,579	-0,168	-0,047
-463,357	13,108	-0,142	0,081
-462,343	96,193	-0,015	0,013
-461,328	23,926	-0,144	0,087
-460,313	235,837	-0,055	0,067
-459,299	140,064	0,126	0,122
-458,284	800,000	0,055	-0,126
-457,270	44,270	-0,018	0,012
-456,255	-188,157	-0,107	0,001
-455,241	800,000	-0,054	-0,127
-454,226	-181,502	0,047	0,001
-453,211	800,000	-0,013	-0,034
-452,197	490,797	0,130	0,220
-451,182	48,305	-0,063	0,044
-450,168	-128,017	0,095	-0,010
-449,153	-200,000	0,002	0,023
-448,138	-142,618	0,087	0,006
-447,124	-31,322	-0,136	-0,056
-446,109	-35,414	-0,060	0,024
-445,095	20,660	-0,050	-0,030
-444,080	-200,000	0,014	0,054
-443,065	-11,949	-0,060	0,029
-442,051	-162,727	0,128	-0,005
-441,036	-200,000	0,008	0,081
-440,022	43,729	-0,043	-0,029
-439,007	-31,848	-0,098	0,040
-437,992	601,261	0,039	0,071
-436,978	-35,490	0,161	-0,064
-435,963	800,000	-0,008	0,019
-434,949	44,446	-0,018	0,012
-433,934	-110,284	-0,152	-0,023
-432,919	148,392	0,042	-0,041
-431,905	800,000	0,014	-0,041
-430,890	0,098	-0,049	0,026
-429,876	-87,978	0,101	-0,022
-428,861	800,000	0,032	0,074
-427,846	-200,000	-0,003	0,116
-426,832	533,157	-0,067	-0,117
-425,817	186,855	-0,088	-0,097
-424,803	-200,000	-0,034	0,179
-423,788	-113,164	0,172	0,025
-422,773	156,440	-0,054	-0,055
-421,759	184,874	0,103	0,113
-420,744	-134,731	-0,037	-0,003
-419,730	106,156	-0,092	-0,080
-418,715	-152,479	-0,150	0,008
-417,701	51,555	0,192	0,134
-416,686	-49,409	0,064	0,022
-415,671	-70,316	0,100	0,028
-414,657	-200,000	0,004	0,075
-413,642	-5,006	0,030	0,015
-412,628	-200,000	-0,017	-0,113
-411,613	-132,816	-0,157	-0,015
-410,598	33,486	0,034	-0,021
-409,584	-97,465	-0,176	0,033
-408,569	-66,261	0,156	-0,045
-407,555	-200,000	0,009	0,096
-406,540	-183,237	0,095	-0,001
-405,525	770,174	-0,028	-0,056
-404,511	800,000	-0,053	-0,109
-403,496	-121,548	0,105	0,013
-402,482	-200,000	-0,015	0,047
-401,467	86,397	0,063	0,051
-400,452	800,000	0,026	0,070
-399,438	-200,000	0,011	0,045
-398,423	-115,988	0,156	0,021
-397,409	-182,195	0,088	-0,001
-396,394	15,720	0,039	-0,022
-395,379	-46,649	-0,096	0,034
-394,365	331,809	0,064	0,091
-393,350	-200,000	0,008	0,034
-392,336	21,643	0,153	-0,091
-391,321	307,489	-0,081	-0,111
-390,306	-200,000	0,010	-0,041
-389,292	800,000	0,059	-0,127
-388,277	-200,000	0,029	-0,121
-387,263	-200,000	0,032	0,140
-386,248	800,000	0,037	-0,111
-385,233	28,097	0,150	-0,093
-384,219	99,014	-0,094	0,079
-383,204	-20,803	-0,042	0,019
-382,190	-200,000	-0,013	-0,151
-381,175	-128,807	-0,145	-0,015
-380,160	800,000	0,020	-0,048
-379,146	-147,922	0,131	0,008
-378,131	224,056	-0,077	0,091
-377,117	38,402	0,146	-0,095
-376,102	502,853	-0,009	0,015
-375,088	800,000	-0,045	-0,129
-374,073	116,911	-0,064	-0,057
-373,058	283,428	0,078	-0,103
-372,044	800,000	0,025	-0,076
-371,029	-81,107	0,092	0,022
-370,015	800,000	-0,014	0,046
-369,000	-200,000	-0,025	-0,081
-367,985	-200,000	-0,004	0,040
-366,971	-200,000	0,002	0,092
-365,956	85,354	0,010	-0,008
-364,942	381,170	-0,020	0,030
-363,927	800,000	0,043	0,109
-362,912	284,605	0,076	-0,100
-361,898	-155,595	-0,145	-0,007
-360,883	319,742	-0,050	-0,070
-359,869	800,000	-0,063	-0,186
-358,854	800,000	-0,027	0,076
-357,839	-44,278	0,096	0,035
-356,825	98,191	-0,084	0,071
-355,810	-200,000	-0,028	0,124
-354,796	-11,772	0,123	-0,059
-353,781	800,000	-0,034	-0,074
-352,766	133,523	0,040	-0,038
-351,752	190,882	-0,073	0,081
-350,737	-20,870	-0,033	0,015
-349,723	-71,247	0,061	-0,017
-348,708	602,594	0,048	-0,088
-347,693	44,957	-0,068	-0,046
-346,679	774,778	-0,063	-0,126
-345,664	-134,440	0,129	0,011
-344,650	800,000	-0,028	0,062
-343,635	-200,000	-0,001	0,089
-342,620	-200,000	-0,022	-0,087
-341,606	69,438	-0,057	0,043
-340,591	8,783	0,065	0,036
-339,577	-200,000	-0,017	-0,183
-338,562	165,796	-0,060	0,063
-337,548	47,294	-0,078	-0,053
-336,533	-97,137	0,158	-0,030
-335,518	-64,723	0,031	0,009
-334,504	-200,000	-0,028	0,160
-333,489	162,424	-0,006	0,006
-332,475	-155,746	-0,040	0,002
-331,460	791,754	-0,028	-0,058
-330,445	-200,000	0,013	0,077
-329,431	-200,000	0,027	0,092
-328,416	114,152	0,044	0,040
-327,402	112,022	0,063	-0,056
-326,387	153,030	-0,086	-0,086
-325,372	-50,757	-0,048	0,016
-324,358	-68,500	-0,086	0,024
-323,343	-88,949	-0,053	0,011
-322,329	-47,528	-0,106	0,037
-321,314	-173,219	0,157	0,003
-320,299	216,133	-0,145	0,169
-319,285	31,446	-0,041	0,026
-318,270	-78,910	0,077	0,019
-317,256	32,111	-0,081	-0,051
-316,241	126,535	-0,028	0,026
-315,226	126,319	0,090	0,084
-314,212	118,939	-0,008	-0,007
-313,197	206,500	-0,050	-0,057
-312,183	-105,566	-0,051	0,008
-311,168	166,448	-0,144	-0,149
-310,153	341,113	0,006	-0,009
-309,139	89,622	0,082	-0,067
-308,124	-86,431	0,056	-0,013
-307,110	-200,000	0,029	0,143
-306,095	360,954	0,121	0,177
-305,080	74,090	0,067	-0,051
-304,066	800,000	0,024	0,067
-303,051	-57,597	0,108	0,035
-302,037	7,816	-0,036	0,020
-301,022	800,000	0,063	0,157
-300,008	-29,890	0,047	0,020
-298,993	539,836	-0,080	0,140
-297,978	800,000	-0,050	0,106
-296,964	-89,458	-0,041	0,009
-295,949	127,316	-0,074	0,069
-294,935	105,879	-0,084	0,072
-293,920	306,542	0,072	-0,099
-292,905	377,120	0,035	0,053
-291,891	713,463	0,062	0,121
-290,876	800,000	-0,008	0,018
-289,862	800,000	0,046	-0,143
-288,847	69,710	-0,125	-0,094
-287,832	-151,737	0,217	0,011
-286,818	233,086	0,065	-0,079
-285,803	-91,386	0,057	-0,012
-284,789	154,063	0,048	-0,048
-283,774	330,410	-0,030	-0,043
-282,759	-200,000	0,000	-0,025
-281,745	-200,000	-0,012	-0,192
-280,730	800,000	-0,047	-0,101
-279,716	377,043	-0,101	0,151
-278,701	65,448	0,066	0,048
-277,686	-82,794	0,096	0,022
-276,672	-183,016	0,035	-0,000
-275,657	-139,642	-0,042	0,003
-274,643	199,560	0,041	0,046
-273,628	-200,000	0,010	-0,080
-272,613	-200,000	0,016	-0,141
-271,599	-200,000	-0,003	-0,051
-270,584	106,182	0,154	0,134
-269,570	-5,824	0,172	0,086
-268,555	-52,163	0,090	0,030
-267,540	60,166	-0,085	0,062
-266,526	59,331	-0,098	0,070
-265,511	38,610	0,040	-0,026
-264,497	116,520	0,084	-0,076
-263,482	-200,000	-0,010	0,099
-262,467	-200,000	-0,009	0,092
-261,453	-200,000	-0,004	0,098
-260,438	800,000	-0,041	0,088
-259,424	800,000	0,015	0,033
-258,409	-200,000	-0,026	-0,090
-257,395	33,613	0,051	-0,032
-256,380	-200,000	0,014	-0,135
-255,365	-200,000	0,028	0,182
-254,351	-85,933	0,036	-0,008
-253,336	83,441	0,061	-0,049
-252,322	81,836	0,083	-0,065
-251,307	-200,000	-0,015	-0,058
-250,292	-200,000	0,030	0,180
-249,278	-87,419	0,138	-0,030
-248,263	-139,291	-0,081	-0,006
-247,249	104,785	-0,060	-0,051
-246,234	-110,688	0,022	-0,003
-245,219	33,405	-0,130	-0,082
-244,205	-42,219	-0,074	-0,028
-243,190	-200,000	-0,004	-0,020
-242,176	800,000	0,041	0,114
-241,161	360,245	-0,068	-0,100
-240,146	800,000	-0,014	0,042
-239,132	68,889	0,024	0,018
-238,117	324,204	-0,100	-0,139
-237,103	-139,388	0,071	-0,005
-236,088	317,185	-0,037	-0,051
-235,073	483,264	-0,092	0,153
-234,059	-200,000	-0,030	0,098
-233,044	-83,107	-0,183	-0,043
-232,030	233,686	-0,097	-0,117
-231,015	-150,245	-0,058	-0,003
-230,000	-200,000	0,017	0,170
-228,986	-200,000	0,002	0,028
-227,971	79,889	0,058	0,045
-226,957	800,000	-0,063	0,143
-225,942	-45,004	0,183	-0,066
-224,927	800,000	-0,038	0,080
-223,913	800,000	-0,002	-0,006
-222,898	-200,000	-0,010	-0,081
-221,884	402,025	0,050	-0,076
-220,869	555,861	-0,017	0,029
-219,855	159,249	-0,005	-0,005
-218,840	-92,676	0,158	-0,032
-217,825	-160,256	-0,086	0,003
-216,811	118,478	-0,061	-0,055
-215,796	-14,187	-0,126	0,059
-214,782	800,000	-0,026	0,058
-213,767	-200,000	-0,012	0,134
-212,752	800,000	-0,044	0,106
-211,738	-200,000	-0,015	0,055
-210,723	279,905	0,021	-0,028
-209,709	-30,830	0,104	-0,043
-208,694	-38,001	0,094	-0,036
-207,679	132,504	-0,069	-0,065
-206,665	216,083	0,050	-0,058
-205,650	-200,000	0,008	-0,047
-204,636	392,755	-0,032	-0,049
-203,621	-200,000	-0,013	0,081
-202,606	-200,000	-0,016	-0,134
-201,592	9,098	-0,045	-0,025
-200,577	-120,276	-0,135	0,017
-199,563	575,282	-0,018	0,032
-198,548	-119,083	0,039	0,005
-197,533	-200,000	-0,001	0,061
-196,519	800,000	-0,020	0,055
-195,504	-135,054	0,070	-0,006
-194,490	800,000	0,036	-0,079
-193,475	-42,294	-0,081	-0,030
-192,460	368,392	-0,034	0,050
-191,446	800,000	-0,028	0,061
-190,431	-75,811	0,067	0,017
-189,417	380,461	0,088	-0,131
-188,402	8,373	0,017	0,009
-187,387	-200,000	-0,015	-0,063
-186,373	-200,000	0,020	-0,184
-185,358	-29,947	-0,122	-0,050
-184,344	72,113	0,099	-0,075
-183,329	168,100	0,100	-0,104
-182,315	287,275	0,080	0,105
-181,300	-59,477	0,104	0,032
-180,285	800,000	0,017	-0,040
-179,271	634,423	0,026	0,049
-178,256	358,555	0,028	-0,041
-177,242	800,000	-0,055	0,160
-176,227	-200,000	-0,034	0,192
-175,212	-200,000	0,018	0,112
-174,198	380,961	-0,078	0,116
-173,183	800,000	-0,051	0,134
-172,169	-200,000	0,020	-0,082
-171,154	-138,350	0,060	-0,005
-170,139	-200,000	-0,001	0,017
-169,125	419,755	0,049	0,076
-168,110	-157,592	0,146	-0,006
-167,096	-111,238	0,095	-0,014
-166,081	800,000	-0,044	-0,119
-165,066	800,000	0,038	-0,104
-164,052	-101,531	-0,047	-0,008
-163,037	-95,141	0,035	0,007
-162,023	800,000	-0,006	0,017
-161,008	76,141	0,139	0,107
-159,993	-105,022	0,119	-0,020
-158,979	2,935	-0,128	0,068
-157,964	-200,000	-0,022	-0,126
-156,950	281,677	0,051	0,067
-155,935	-149,101	-0,053	0,003
-154,920	186,035	-0,076	-0,083
-153,906	160,810	0,028	0,028
-152,891	51,794	-0,072	0,050
-151,877	-200,000	0,009	0,032
-150,862	186,921	-0,099	-0,107
-149,847	-200,000	-0,008	0,045
-148,833	800,000	0,093	-0,214
-147,818	800,000	-0,036	0,089
-146,804	106,267	-0,076	0,065
-145,789	79,980	0,117	-0,091
-144,775	21,653	-0,067	-0,040
-143,760	693,192	0,019	-0,036
-142,745	-23,631	-0,119	-0,052
-141,731	-127,183	0,093	0,010
-140,716	-164,950	0,163	-0,005
-139,702	445,594	0,055	0,088
-138,687	124,787	0,111	0,101
-137,672	4,746	0,079	0,042
-136,658	126,107	0,030	-0,028
-135,643	89,015	0,070	-0,057
-134,629	50,108	0,079	0,054
-133,614	95,340	-0,065	-0,054
-132,599	-45,621	-0,107	0,038
-131,585	-200,000	0,009	-0,094
-130,570	-132,099	0,132	0,012
-129,556	-200,000	-0,000	0,065
-128,541	88,471	-0,059	-0,048
-127,526	435,614	-0,033	0,052
-126,512	800,000	-0,022	0,071
-125,497	259,229	0,130	0,163
-124,483	-25,742	-0,067	0,028
-123,468	32,936	0,060	-0,038
-122,453	-200,000	-0,007	-0,161
-121,439	535,030	-0,044	-0,076
-120,424	169,436	-0,044	-0,046
-119,410	98,537	0,080	-0,067
-118,395	20,032	-0,046	0,027
