DTS Sentinel unit serial number:	SN410029Multiplexer serial number:	ORYXHardware model number:	OX2-SRSoftware version number:	ORYX F/W v4,00 Oryx Data Collector v3.7.2.0data status	okinstallation	B6 Nyhavnadifferential loss correction	single-endedforward channel	channel 2reverse channel	N/Adate	2023/12/11time	02:35:08forward acquisition time	300,00reverse acquisition time	0,00gamma	499,1914k internal	0,3122k external	0,3122temperature offset calibration	1,0000default loss term (dB/km)	0,3820temperature slope calibration	1,0000multiplexer offset coefficient	1,0000multiplexer slope coefficient	1,0000fibre end	0,00T internal ref (°C)	21,68T ext. ref 1 (°C)	4,56T ext. ref 2 (°C)	4,57length (m)	temperature (°C)	Stokes	anti-Stokes-744,400	39,981	0,061	-0,041
-743,385	45,737	-0,206	0,142
-742,371	-57,966	-0,120	-0,039
-741,356	499,333	-0,132	0,228
-740,342	-200,000	0,005	-0,094
-739,327	-42,176	-0,237	0,090
-738,312	-16,907	0,070	-0,033
-737,298	-120,694	-0,284	0,035
-736,283	592,459	-0,033	-0,062
-735,269	20,756	-0,178	0,107
-734,254	-180,458	0,012	0,000
-733,239	-85,154	-0,488	-0,113
-732,225	-92,121	0,069	-0,015
-731,210	59,839	-0,068	0,050
-730,196	800,000	0,027	0,058
-729,181	-200,000	-0,012	0,090
-728,167	800,000	-0,026	-0,057
-727,152	201,206	0,096	0,110
-726,137	-132,205	-0,106	-0,010
-725,123	391,089	-0,051	-0,079
-724,108	-35,576	-0,125	-0,050
-723,094	-200,000	0,008	-0,115
-722,079	31,457	-0,087	-0,055
-721,064	-200,000	-0,001	-0,037
-720,050	85,979	0,105	-0,086
-719,035	106,228	0,025	0,022
-718,021	6,396	-0,125	-0,069
-717,006	-110,571	-0,184	-0,028
-715,991	-167,146	-0,111	-0,003
-714,977	-163,921	-0,035	0,001
-713,962	41,466	-0,076	0,051
-712,948	800,000	-0,046	-0,129
-711,933	-67,140	0,021	0,006
-710,918	-197,324	-0,121	-0,001
-709,904	750,384	-0,088	-0,177
-708,889	337,543	0,057	-0,083
-707,875	-21,647	-0,061	0,027
-706,860	-79,076	-0,075	0,019
-705,845	-200,000	0,001	0,008
-704,831	359,762	-0,032	-0,047
-703,816	13,097	0,057	0,033
-702,802	-86,983	-0,072	-0,016
-701,787	-200,000	-0,038	-0,184
-700,772	-200,000	-0,014	-0,054
-699,758	-141,243	-0,059	0,004
-698,743	519,053	0,020	0,035
-697,729	727,183	0,011	-0,022
-696,714	-200,000	-0,005	0,099
-695,699	-31,019	-0,114	0,047
-694,685	-200,000	0,023	-0,123
-693,670	-116,963	-0,122	-0,016
-692,656	-5,009	0,086	-0,044
-691,641	-111,217	-0,175	-0,026
-690,627	-200,000	0,006	-0,037
-689,612	254,541	-0,039	0,050
-688,597	194,224	-0,063	0,071
-687,583	-200,000	-0,006	-0,042
-686,568	121,785	-0,133	-0,123
-685,554	93,918	0,063	-0,053
-684,539	323,640	0,045	0,064
-683,524	-125,917	0,038	0,004
-682,510	31,812	0,030	0,019
-681,495	428,506	0,052	-0,083
-680,481	285,697	0,056	-0,075
-679,466	118,250	-0,109	-0,100
-678,451	165,098	-0,100	0,105
-677,437	614,296	-0,070	0,131
-676,422	-53,227	0,123	0,042
-675,408	89,647	-0,144	-0,119
-674,393	-41,204	0,092	-0,035
-673,378	5,918	0,038	0,021
-672,364	-177,774	-0,056	-0,001
-671,349	306,457	-0,073	0,101
-670,335	-200,000	0,007	0,048
-669,320	572,875	-0,104	0,190
-668,305	800,000	0,012	-0,031
-667,291	-200,000	-0,013	-0,051
-666,276	540,531	0,084	-0,149
-665,262	-200,000	0,004	-0,104
-664,247	39,467	0,056	0,037
-663,232	-49,136	-0,117	-0,041
-662,218	-57,103	-0,071	-0,023
-661,203	-200,000	-0,020	0,116
-660,189	800,000	-0,046	-0,099
-659,174	800,000	-0,036	-0,115
-658,159	34,492	-0,198	-0,128
-657,145	800,000	-0,086	-0,183
-656,130	593,140	0,061	-0,113
-655,116	800,000	-0,016	0,039
-654,101	800,000	0,048	0,144
-653,086	193,767	-0,047	0,053
-652,072	93,299	-0,116	0,097
-651,057	-191,205	-0,097	0,001
-650,043	-200,000	0,003	0,032
-649,028	-81,739	0,054	0,013
-648,014	8,346	-0,037	0,021
-646,999	-200,000	-0,025	0,083
-645,984	205,809	-0,043	0,050
-644,970	37,278	-0,081	0,053
-643,955	488,189	-0,020	0,034
-642,941	-164,744	-0,031	-0,001
-641,926	140,117	-0,068	0,067
-640,911	-82,146	-0,086	0,021
-639,897	696,117	0,067	-0,132
-638,882	350,885	-0,022	-0,033
-637,868	800,000	0,003	0,007
-636,853	-161,233	-0,021	-0,001
-635,838	-200,000	-0,005	-0,080
-634,824	11,947	-0,037	0,021
-633,809	-200,000	0,021	0,154
-632,795	-28,154	0,093	-0,040
-631,780	302,156	0,041	0,057
-630,765	-104,444	-0,051	0,009
-629,751	-71,746	-0,158	-0,044
-628,736	196,398	-0,038	-0,043
-627,722	335,259	0,078	0,113
-626,707	-200,000	0,006	0,026
-625,692	-78,823	-0,195	0,049
-624,678	-200,000	0,032	-0,107
-623,663	-200,000	0,019	0,067
-622,649	91,809	0,048	0,040
-621,634	800,000	-0,019	-0,059
-620,619	-175,864	-0,125	-0,002
-619,605	-200,000	-0,013	0,071
-618,590	-12,099	0,141	-0,068
-617,576	-200,000	0,053	-0,194
-616,561	800,000	-0,019	0,058
-615,546	800,000	-0,009	0,025
-614,532	78,234	0,050	0,040
-613,517	-47,974	-0,044	0,016
-612,503	-86,852	-0,078	-0,018
-611,488	-200,000	0,011	0,043
-610,474	-36,919	0,008	0,003
-609,459	173,731	-0,073	-0,078
-608,444	-200,000	-0,085	0,000
-607,430	800,000	0,025	-0,053
-606,415	-23,908	-0,151	-0,067
-605,401	-91,014	-0,111	0,023
-604,386	-200,000	0,012	-0,053
-603,371	122,363	0,071	0,066
-602,357	-139,229	0,042	0,003
-601,342	119,306	0,046	0,043
-600,328	800,000	-0,055	-0,119
-599,313	800,000	-0,062	0,144
-598,298	800,000	0,021	0,047
-597,284	-200,000	0,007	0,048
-596,269	800,000	0,030	-0,095
-595,255	800,000	0,031	0,076
-594,240	-200,000	-0,018	-0,058
-593,225	49,338	0,056	-0,039
-592,211	359,512	0,081	0,120
-591,196	317,432	-0,065	0,091
-590,182	-200,000	-0,002	0,034
-589,167	107,383	0,033	-0,029
-588,152	146,014	-0,103	-0,103
-587,138	-200,000	-0,012	0,040
-586,123	12,899	0,055	-0,032
-585,109	758,697	-0,076	-0,153
-584,094	-200,000	-0,011	-0,053
-583,079	231,140	0,055	0,067
-582,065	421,976	-0,032	-0,051
-581,050	-200,000	0,004	-0,040
-580,036	794,742	0,015	0,030
-579,021	233,091	-0,012	-0,014
-578,006	-70,433	0,112	-0,031
-576,992	800,000	-0,019	-0,040
-575,977	196,681	-0,088	-0,100
-574,963	-200,000	0,007	-0,065
-573,948	4,305	0,107	0,058
-572,934	226,152	0,054	0,066
-571,919	606,694	-0,011	-0,020
-570,904	-200,000	0,022	-0,237
-569,890	68,795	-0,034	0,026
-568,875	209,088	0,063	-0,073
-567,861	-0,368	0,112	0,059
-566,846	25,243	0,159	-0,098
-565,831	76,599	0,081	-0,063
-564,817	501,555	-0,075	0,129
-563,802	-54,640	-0,043	0,014
-562,788	326,625	-0,011	-0,015
-561,773	-200,000	0,015	-0,118
-560,758	-67,897	0,044	-0,013
-559,744	381,198	-0,042	-0,065
-558,729	619,089	0,025	0,047
-557,715	84,829	-0,061	-0,049
-556,700	715,751	-0,032	-0,064
-555,685	121,187	-0,061	-0,056
-554,671	-200,000	0,004	-0,021
-553,656	318,683	0,065	0,091
-552,642	800,000	0,051	0,147
-551,627	-200,000	0,003	0,086
-550,612	238,695	0,064	0,078
-549,598	6,555	-0,043	0,024
-548,583	27,659	-0,043	0,027
-547,569	350,244	-0,091	-0,134
-546,554	800,000	-0,036	-0,079
-545,539	-14,052	-0,087	-0,041
-544,525	47,818	0,065	-0,045
-543,510	76,165	-0,060	-0,047
-542,496	180,183	0,111	-0,121
-541,481	58,248	-0,076	-0,055
-540,466	10,565	0,087	0,049
-539,452	265,043	0,061	0,079
-538,437	16,700	0,056	-0,032
-537,423	-185,388	0,120	-0,001
-536,408	800,000	-0,035	0,083
-535,393	-169,689	0,085	0,002
-534,379	142,930	0,041	-0,041
-533,364	220,806	0,066	0,078
-532,350	516,181	0,078	-0,135
-531,335	-200,000	0,003	-0,021
-530,321	-43,783	0,161	0,059
-529,306	-200,000	-0,010	-0,066
-528,291	80,850	0,034	-0,027
-527,277	-27,532	-0,042	-0,018
-526,262	-200,000	-0,004	0,112
-525,248	407,512	-0,049	-0,076
-524,233	-154,900	-0,126	0,006
-523,218	800,000	0,019	-0,040
-522,204	-114,975	0,051	-0,007
-521,189	-200,000	0,027	-0,090
-520,175	43,982	0,097	-0,066
-519,160	-136,109	0,096	-0,008
-518,145	297,172	-0,054	0,074
-517,131	-200,000	-0,036	0,183
-516,116	80,753	0,079	0,063
-515,102	-200,000	0,004	0,032
-514,087	800,000	-0,032	-0,100
-513,072	-77,982	-0,215	0,054
-512,058	-86,915	0,038	0,008
-511,043	800,000	0,032	0,098
-510,029	-200,000	0,038	0,169
-509,014	800,000	0,046	0,098
-507,999	-200,000	0,002	0,026
-506,985	-71,031	-0,075	0,021
-505,970	56,686	-0,023	-0,017
-504,956	94,859	-0,030	-0,025
-503,941	51,195	0,093	0,065
-502,926	322,640	-0,037	-0,052
-501,912	57,449	-0,117	-0,084
-500,897	23,771	0,071	0,043
-499,883	-30,747	-0,066	-0,027
-498,868	236,593	-0,144	-0,176
-497,853	-200,000	0,072	-0,250
-496,839	294,620	-0,055	0,074
-495,824	-2,478	-0,061	-0,031
-494,810	126,294	0,126	0,118
-493,795	-70,475	-0,135	0,037
-492,781	464,200	0,064	0,106
-491,766	-200,000	0,090	0,000
-490,751	86,415	-0,109	0,089
-489,737	126,559	0,118	-0,110
-488,722	394,746	-0,069	-0,107
-487,708	-200,000	0,010	0,111
-486,693	-56,820	-0,154	-0,050
-485,678	71,209	0,039	-0,030
-484,664	-1,830	-0,068	-0,035
-483,649	-148,230	0,021	0,001
-482,635	473,769	-0,032	-0,053
-481,620	-56,721	-0,042	-0,014
-480,605	306,750	-0,032	-0,044
-479,591	255,117	0,050	0,064
-478,576	57,449	-0,018	-0,013
-477,562	569,547	-0,050	-0,089
-476,547	144,810	-0,067	-0,066
-475,532	-200,000	0,008	-0,128
-474,518	64,307	0,046	0,034
-473,503	-200,000	0,060	-0,000
-472,489	624,767	-0,053	-0,099
-471,474	-200,000	-0,016	0,147
-470,459	132,595	-0,042	0,040
-469,445	800,000	-0,035	-0,102
-468,430	111,612	-0,102	-0,091
-467,416	-200,000	0,003	-0,067
-466,401	32,488	0,112	0,071
-465,386	46,023	0,156	-0,107
-464,372	-62,102	0,211	-0,065
-463,357	-200,000	-0,003	-0,034
-462,343	-200,000	0,013	0,080
-461,328	410,442	-0,071	0,111
-460,313	-42,658	0,100	-0,038
-459,299	113,393	0,060	0,054
-458,284	-49,237	0,129	0,045
-457,270	16,254	-0,110	0,064
-456,255	-200,000	0,012	-0,051
-455,241	-200,000	-0,002	-0,044
-454,226	-200,000	0,002	-0,089
-453,211	-3,405	0,030	0,015
-452,197	253,525	-0,098	0,124
-451,182	-200,000	0,008	-0,058
-450,168	-91,326	0,061	-0,013
-449,153	800,000	0,029	0,062
-448,138	-179,862	-0,072	-0,001
-447,124	171,078	-0,124	0,131
-446,109	-55,165	0,107	0,035
-445,095	46,356	0,119	0,081
-444,080	-200,000	0,008	0,041
-443,065	-95,976	0,038	-0,007
-442,051	253,203	-0,022	-0,028
-441,036	800,000	-0,011	-0,035
-440,022	164,088	-0,059	0,061
-439,007	20,406	0,067	0,040
-437,992	-114,502	0,161	-0,022
-436,978	-200,000	0,014	-0,098
-435,963	-200,000	0,037	0,187
-434,949	667,377	-0,049	0,093
-433,934	800,000	0,016	-0,046
-432,919	-200,000	0,006	-0,093
-431,905	-200,000	0,021	-0,112
-430,890	7,814	-0,083	-0,046
-429,876	331,901	0,081	0,115
-428,861	48,353	0,081	-0,056
-427,846	800,000	0,014	-0,032
-426,832	-200,000	-0,024	-0,100
-425,817	-200,000	-0,047	-0,218
-424,803	-55,535	-0,093	0,031
-423,788	468,644	0,014	-0,023
-422,773	-200,000	-0,015	0,125
-421,759	391,647	-0,064	0,098
-420,744	90,147	-0,030	-0,024
-419,730	8,855	0,056	-0,031
-418,715	-200,000	0,005	0,115
-417,701	123,823	0,064	-0,059
-416,686	-200,000	-0,013	-0,133
-415,671	-200,000	0,007	0,056
-414,657	5,344	0,118	0,064
-413,642	-200,000	-0,020	0,105
-412,628	-116,146	-0,142	0,019
-411,613	275,004	-0,090	0,117
-410,598	-200,000	0,003	-0,048
-409,584	74,668	-0,139	0,107
-408,569	-200,000	0,003	0,040
-407,555	-110,436	-0,121	0,018
-406,540	-200,000	0,009	-0,050
-405,525	77,303	-0,024	0,019
-404,511	800,000	-0,025	-0,071
-403,496	-146,135	-0,120	0,008
-402,482	800,000	0,032	-0,077
-401,467	-200,000	0,014	0,096
-400,452	-200,000	0,011	0,112
-399,438	-200,000	-0,020	0,104
-398,423	-200,000	-0,038	0,161
-397,409	-200,000	-0,010	-0,041
-396,394	-120,329	-0,115	-0,014
-395,379	800,000	-0,039	-0,126
-394,365	-88,823	-0,225	0,049
-393,350	81,723	0,120	0,095
-392,336	209,560	-0,056	0,065
-391,321	53,148	0,046	-0,032
-390,306	800,000	-0,030	-0,074
-389,292	-127,878	0,041	-0,004
-388,277	800,000	-0,011	0,025
-387,263	-28,387	-0,079	0,034
-386,248	-79,408	-0,087	-0,021
-385,233	-200,000	0,012	-0,063
-384,219	-200,000	0,002	-0,066
-383,204	124,201	0,026	-0,024
-382,190	-200,000	-0,000	0,166
-381,175	-112,341	0,169	-0,025
-380,160	188,801	-0,072	0,079
-379,146	-200,000	0,012	-0,045
-378,131	-200,000	0,022	-0,139
-377,117	718,958	-0,055	0,109
-376,102	-200,000	-0,035	-0,115
-375,088	-200,000	-0,001	-0,042
-374,073	39,226	-0,076	0,050
-373,058	800,000	-0,047	0,123
-372,044	-182,792	-0,041	0,001
-371,029	-66,574	0,056	0,016
-370,015	96,409	0,025	-0,021
-369,000	-102,152	-0,069	-0,012
-367,985	137,952	0,042	-0,040
-366,971	800,000	-0,037	0,081
-365,956	-200,000	-0,013	0,045
-364,942	80,861	0,085	0,068
-363,927	-200,000	-0,001	-0,024
-362,912	-56,685	-0,045	0,014
-361,898	-18,179	-0,104	0,047
-360,883	61,027	-0,077	0,056
-359,869	76,381	0,064	0,050
-358,854	-144,252	0,106	-0,007
-357,839	138,389	-0,080	0,078
-356,825	145,117	0,083	-0,082
-355,810	26,719	0,134	-0,082
-354,796	-123,941	-0,108	0,012
-353,781	605,299	0,034	0,062
-352,766	-200,000	0,015	-0,143
-351,752	800,000	0,038	-0,096
-350,737	-93,076	0,087	0,018
-349,723	224,429	0,070	0,083
-348,708	5,292	0,086	0,046
-347,693	-200,000	0,001	-0,042
-346,679	-200,000	0,007	0,061
-345,664	-85,150	0,055	-0,012
-344,650	192,177	0,064	-0,070
-343,635	-11,036	0,034	-0,017
-342,620	224,836	-0,006	0,008
-341,606	-200,000	-0,002	0,088
-340,591	417,712	0,033	0,052
-339,577	206,964	-0,104	-0,119
-338,562	65,952	0,086	-0,064
-337,548	181,256	-0,075	-0,081
-336,533	800,000	-0,010	0,024
-335,518	-200,000	0,018	-0,070
-334,504	65,631	-0,042	0,031
-333,489	722,415	0,045	0,089
-332,475	102,114	-0,056	-0,048
-331,460	33,739	-0,048	0,030
-330,445	-22,659	-0,034	-0,015
-329,431	-200,000	0,002	-0,019
-328,416	-48,361	0,100	0,035
-327,402	-200,000	0,034	0,145
-326,387	60,400	0,099	-0,072
-325,372	800,000	0,056	-0,129
-324,358	-200,000	0,013	-0,051
-323,343	-200,000	0,022	-0,123
-322,329	175,759	0,052	0,055
-321,314	119,169	0,096	0,087
-320,299	800,000	0,042	0,126
-319,285	800,000	-0,020	0,060
-318,270	-109,578	-0,134	-0,021
-317,256	-200,000	0,010	-0,047
-316,241	-139,359	0,012	-0,001
-315,226	800,000	0,048	-0,130
-314,212	800,000	-0,027	-0,070
-313,197	608,230	-0,026	-0,048
-312,183	800,000	0,029	0,063
-311,168	65,732	0,056	-0,041
-310,153	219,337	-0,116	0,136
-309,139	-186,439	0,062	0,001
-308,124	-200,000	-0,004	0,093
-307,110	-200,000	-0,003	0,060
-306,095	-200,000	-0,001	0,036
-305,080	800,000	0,003	0,007
-304,066	-200,000	0,013	-0,101
-303,051	340,055	-0,109	-0,156
-302,037	195,754	-0,084	0,094
-301,022	-200,000	-0,004	0,130
-300,008	-200,000	0,003	-0,058
-298,993	147,945	0,062	0,061
-297,978	280,718	-0,044	-0,058
-296,964	224,479	-0,105	0,125
-295,949	360,772	-0,083	-0,122
-294,935	4,818	-0,070	-0,037
-293,920	-200,000	-0,001	0,041
-292,905	800,000	0,029	0,070
-291,891	726,777	-0,081	0,158
-290,876	-200,000	-0,022	0,089
-289,862	-200,000	0,001	-0,029
-288,847	388,070	-0,075	0,114
-287,832	800,000	-0,024	0,050
-286,818	-54,599	-0,082	0,027
-285,803	-153,038	0,153	0,008
-284,789	-15,072	0,056	-0,026
-283,774	-200,000	0,019	0,123
-282,759	-58,213	-0,079	0,025
-281,745	-200,000	-0,010	-0,097
-280,730	-200,000	-0,010	0,073
-279,716	-83,843	-0,144	0,033
-278,701	-118,860	-0,026	-0,003
-277,686	800,000	-0,007	0,014
-276,672	-27,717	0,059	0,025
-275,657	-72,664	-0,138	-0,037
-274,643	-110,622	0,056	-0,008
-273,628	-200,000	0,034	-0,193
-272,613	371,285	0,061	-0,091
-271,599	6,160	0,072	0,039
-270,584	800,000	-0,040	0,099
-269,570	107,237	-0,081	0,071
-268,555	2,392	-0,050	0,027
-267,540	-192,834	-0,061	0,000
-266,526	-200,000	0,019	-0,089
-265,511	-200,000	0,026	-0,164
-264,497	402,320	-0,086	-0,132
-263,482	-200,000	0,011	0,102
-262,467	404,258	-0,100	0,155
-261,453	-200,000	0,023	0,146
-260,438	-64,897	-0,036	0,010
-259,424	-121,853	0,142	-0,017
-258,409	12,196	-0,154	-0,086
-257,395	800,000	-0,009	-0,022
-256,380	-128,886	0,057	-0,006
-255,365	7,516	0,058	0,032
-254,351	-26,446	0,107	-0,046
-253,336	-200,000	0,030	-0,106
-252,322	-129,351	0,183	-0,018
-251,307	-200,000	-0,003	-0,067
-250,292	-200,000	-0,039	-0,126
-249,278	800,000	-0,014	-0,031
-248,263	-200,000	-0,004	0,159
-247,249	-146,062	-0,071	0,004
-246,234	800,000	0,005	-0,014
-245,219	215,569	-0,104	-0,120
-244,205	21,711	0,098	-0,058
-243,190	390,978	0,048	0,074
-242,176	509,262	0,043	-0,074
-241,161	176,452	0,135	0,143
-240,146	270,496	-0,088	0,113
-239,132	800,000	-0,014	-0,034
-238,117	-125,776	0,044	-0,005
-237,103	170,254	0,032	-0,034
-236,088	-184,343	0,193	0,002
-235,073	-200,000	0,022	0,134
-234,059	800,000	0,011	-0,034
-233,044	-13,735	-0,064	0,030
-232,030	800,000	-0,066	0,163
-231,015	800,000	0,078	0,174
-230,000	-200,000	0,001	0,122
-228,986	-200,000	-0,002	-0,036
-227,971	800,000	-0,010	-0,030
-226,957	-32,265	0,167	0,068
-225,942	-100,870	-0,091	-0,016
-224,927	-38,513	0,021	-0,008
-223,913	5,648	-0,047	-0,025
-222,898	26,986	0,035	-0,021
-221,884	-200,000	0,002	0,052
-220,869	27,686	-0,016	-0,010
-219,855	81,614	0,146	-0,116
-218,840	800,000	0,026	0,084
-217,825	-136,290	0,064	-0,005
-216,811	285,296	-0,049	-0,065
-215,796	294,324	-0,024	0,032
-214,782	-200,000	0,021	-0,084
-213,767	800,000	-0,035	0,075
-212,752	-58,447	0,186	0,059
-211,738	-178,113	0,065	-0,001
-210,723	31,621	0,084	-0,052
-209,709	109,526	-0,070	-0,061
-208,694	251,502	0,068	-0,085
-207,679	43,979	-0,059	-0,039
-206,665	-67,191	0,129	0,037
-205,650	-48,058	0,158	0,056
-204,636	234,813	0,091	-0,110
-203,621	139,544	0,043	0,042
-202,606	233,107	0,038	-0,045
-201,592	445,368	-0,055	-0,088
-200,577	341,811	-0,033	-0,047
-199,563	355,069	0,011	-0,016
-198,548	800,000	-0,027	0,077
-197,533	392,937	-0,011	0,017
-196,519	-21,506	0,117	-0,052
-195,504	-200,000	-0,006	-0,021
-194,490	-200,000	-0,013	-0,094
-193,475	-85,485	-0,220	0,050
-192,460	-105,281	0,067	-0,011
-191,446	512,707	-0,060	-0,103
-190,431	800,000	0,016	0,049
-189,417	-137,022	-0,035	0,003
-188,402	658,429	-0,064	-0,120
-187,387	800,000	-0,043	-0,090
-186,373	-163,331	-0,162	-0,006
-185,358	-194,636	0,095	0,001
-184,344	269,345	0,039	0,050
-183,329	-19,582	0,122	-0,055
-182,315	-200,000	0,003	-0,135
-181,300	-32,011	-0,004	0,002
-180,285	-104,641	-0,142	-0,024
-179,271	-3,665	-0,086	0,043
-178,256	-12,728	-0,068	0,032
-177,242	-200,000	0,019	-0,076
-176,227	318,401	0,035	0,048
-175,212	96,492	0,095	-0,079
-174,198	25,932	-0,170	-0,103
-173,183	-200,000	0,014	0,047
-172,169	-89,853	-0,051	0,011
-171,154	800,000	0,064	-0,163
-170,139	-200,000	0,016	-0,080
-169,125	93,957	0,036	-0,030
-168,110	-200,000	0,009	0,166
-167,096	554,837	-0,024	0,043
-166,081	-126,318	0,093	-0,010
-165,066	-200,000	0,014	-0,073
-164,052	-3,325	0,038	-0,019
-163,037	-166,911	-0,052	-0,002
-162,023	-82,914	-0,032	0,008
-161,008	-142,362	-0,183	0,013
-159,993	-200,000	0,003	-0,049
-158,979	-66,370	0,048	0,014
-157,964	120,150	-0,029	0,026
-156,950	31,168	-0,025	0,016
-155,935	-50,998	0,067	-0,023
-154,920	-200,000	0,011	0,102
-153,906	-200,000	-0,044	0,142
-152,891	-200,000	0,004	0,075
-151,877	-18,055	0,108	-0,049
-150,862	132,828	0,039	-0,036
-149,847	1,990	-0,081	-0,042
-148,833	-64,135	-0,023	0,007
-147,818	-6,065	0,058	0,029
-146,804	-32,507	0,026	-0,010
-145,789	-82,409	-0,051	0,012
-144,775	-173,886	-0,061	0,001
-143,760	787,490	0,010	0,021
-142,745	-200,000	-0,017	-0,110
-141,731	-200,000	0,006	-0,038
-140,716	-5,621	0,047	-0,024
-139,702	99,083	0,141	-0,119
-138,687	-27,385	-0,072	0,030
-137,672	-74,576	-0,108	0,028
-136,658	347,918	0,028	-0,041
-135,643	-200,000	-0,037	-0,129
-134,629	800,000	0,044	-0,090
-133,614	800,000	0,039	0,104
-132,599	-49,416	-0,052	0,018
-131,585	800,000	-0,024	-0,057
-130,570	305,511	-0,028	0,038
-129,556	348,891	0,032	0,046
-128,541	-123,070	0,046	0,005
-127,526	-30,328	-0,047	-0,019
-126,512	23,775	0,018	-0,011
-125,497	-105,008	0,104	-0,017
-124,483	67,551	0,034	0,025
-123,468	155,119	-0,139	0,139
-122,453	389,308	-0,061	0,092
-121,439	104,111	0,078	-0,067
-120,424	-137,673	-0,131	0,011
-119,410	-200,000	0,039	-0,169
