DTS Sentinel unit serial number:	SN410029Multiplexer serial number:	ORYXHardware model number:	OX2-SRSoftware version number:	ORYX F/W v4,00 Oryx Data Collector v3.7.2.0data status	okinstallation	B6 Nyhavnadifferential loss correction	single-endedforward channel	channel 2reverse channel	N/Adate	2023/12/10time	10:15:08forward acquisition time	300,00reverse acquisition time	0,00gamma	499,1914k internal	0,3123k external	0,3123temperature offset calibration	1,0000default loss term (dB/km)	0,3820temperature slope calibration	1,0000multiplexer offset coefficient	1,0000multiplexer slope coefficient	1,0000fibre end	0,00T internal ref (°C)	22,56T ext. ref 1 (°C)	6,39T ext. ref 2 (°C)	6,39length (m)	temperature (°C)	Stokes	anti-Stokes-744,400	800,000	-0,029	-0,082
-743,385	800,000	-0,093	0,211
-742,371	-127,493	0,095	0,010
-741,356	20,155	-0,248	0,149
-740,342	-200,000	0,011	-0,039
-739,327	20,799	-0,293	0,176
-738,312	-200,000	-0,013	-0,061
-737,298	-43,623	-0,172	-0,064
-736,283	19,129	-0,089	0,053
-735,269	-47,498	-0,233	0,084
-734,254	800,000	0,017	-0,050
-733,239	-177,553	-0,503	0,009
-732,225	197,399	0,056	-0,064
-731,210	19,465	-0,013	0,008
-730,196	-105,011	-0,099	-0,017
-729,181	62,464	0,044	-0,033
-728,167	-83,576	0,137	-0,032
-727,152	-200,000	-0,035	0,118
-726,137	-200,000	-0,006	0,063
-725,123	-31,157	-0,135	-0,056
-724,108	800,000	0,032	-0,094
-723,094	800,000	-0,095	-0,198
-722,079	-125,655	-0,143	-0,016
-721,064	800,000	0,052	-0,171
-720,050	77,035	0,102	0,080
-719,035	284,376	0,060	0,080
-718,021	800,000	0,042	0,099
-717,006	99,613	0,031	-0,026
-715,991	-77,037	-0,031	0,008
-714,977	380,124	0,035	0,054
-713,962	180,317	-0,058	0,063
-712,948	-115,536	0,084	0,012
-711,933	-108,510	-0,016	-0,003
-710,918	-200,000	0,015	0,054
-709,904	319,216	0,030	0,043
-708,889	-13,007	0,043	-0,021
-707,875	40,752	-0,077	-0,052
-706,860	92,452	-0,106	-0,089
-705,845	-19,300	-0,097	0,045
-704,831	-118,485	-0,092	0,012
-703,816	-200,000	0,013	-0,112
-702,802	313,330	-0,022	0,030
-701,787	65,673	-0,159	-0,120
-700,772	-200,000	0,022	-0,234
-699,758	-86,499	0,114	-0,026
-698,743	48,301	0,084	0,058
-697,729	-160,451	0,013	-0,000
-696,714	-102,240	0,128	-0,023
-695,699	297,050	-0,104	-0,143
-694,685	800,000	-0,077	-0,160
-693,670	-72,637	-0,074	-0,020
-692,656	800,000	0,059	-0,188
-691,641	218,856	0,090	-0,107
-690,627	-200,000	0,024	0,117
-689,612	448,279	-0,044	-0,073
-688,597	-200,000	-0,012	0,152
-687,583	-164,523	-0,073	0,002
-686,568	-94,168	-0,137	-0,028
-685,554	447,266	-0,075	-0,123
-684,539	-170,869	-0,059	0,001
-683,524	-89,286	0,152	-0,033
-682,510	-86,459	-0,100	-0,023
-681,495	85,047	-0,248	0,202
-680,481	-200,000	0,009	-0,175
-679,466	-200,000	0,041	-0,179
-678,451	280,395	0,031	-0,041
-677,437	111,333	-0,023	-0,021
-676,422	-111,941	0,139	0,021
-675,408	-200,000	0,034	-0,158
-674,393	366,792	0,041	-0,062
-673,378	800,000	-0,009	0,020
-672,364	-200,000	0,026	-0,254
-671,349	-90,547	0,031	0,007
-670,335	-13,922	-0,088	0,042
-669,320	-200,000	-0,003	-0,046
-668,305	97,535	-0,050	0,043
-667,291	-52,916	-0,027	-0,009
-666,276	-10,450	-0,057	-0,028
-665,262	-135,402	0,075	0,007
-664,247	800,000	-0,031	-0,093
-663,232	75,722	-0,061	-0,048
-662,218	-148,157	0,109	-0,007
-661,203	367,756	0,016	0,024
-660,189	-88,320	-0,088	-0,019
-659,174	-200,000	-0,014	0,115
-658,159	47,504	0,010	0,007
-657,145	-200,000	0,002	0,029
-656,130	-160,973	-0,033	0,001
-655,116	-16,850	0,138	-0,065
-654,101	-200,000	-0,024	0,088
-653,086	246,882	-0,046	-0,057
-652,072	-115,352	-0,230	0,032
-651,057	222,935	-0,043	-0,052
-650,043	-200,000	-0,020	0,068
-649,028	-69,521	0,044	-0,012
-648,014	-101,619	-0,151	-0,027
-646,999	-200,000	0,011	-0,066
-645,984	-200,000	0,018	0,112
-644,970	-9,987	0,035	-0,017
-643,955	-184,025	-0,113	0,001
-642,941	-99,599	-0,114	-0,021
-641,926	-105,327	0,141	-0,024
-640,911	800,000	0,036	0,076
-639,897	620,451	0,099	0,186
-638,882	-112,548	0,097	0,014
-637,868	371,670	-0,017	-0,025
-636,853	800,000	-0,029	-0,069
-635,838	-112,423	-0,076	0,011
-634,824	228,429	-0,061	0,073
-633,809	35,346	-0,055	0,036
-632,795	147,271	-0,068	0,068
-631,780	9,127	-0,158	-0,088
-630,765	-96,667	-0,104	0,020
-629,751	-200,000	0,009	-0,071
-628,736	-200,000	-0,001	-0,041
-627,722	800,000	-0,038	-0,096
-626,707	-26,889	-0,098	0,042
-625,692	299,580	0,045	-0,061
-624,678	-137,473	-0,084	-0,007
-623,663	359,074	-0,042	0,062
-622,649	207,096	-0,154	-0,179
-621,634	-27,754	0,110	-0,047
-620,619	-37,280	0,063	0,025
-619,605	-146,738	0,215	0,014
-618,590	-9,415	0,094	-0,046
-617,576	50,291	-0,033	0,023
-616,561	-63,078	0,180	-0,055
-615,546	-66,244	-0,137	-0,040
-614,532	104,453	-0,079	0,069
-613,517	-200,000	0,025	-0,175
-612,503	-128,902	0,015	0,002
-611,488	189,977	0,081	0,090
-610,474	-200,000	0,030	0,113
-609,459	-44,242	0,036	-0,013
-608,444	705,473	-0,002	-0,004
-607,430	7,914	-0,109	-0,060
-606,415	-111,870	-0,094	0,014
-605,401	-100,155	-0,104	0,019
-604,386	-161,930	0,174	0,006
-603,371	800,000	-0,015	0,037
-602,357	60,685	-0,012	0,009
-601,342	116,424	0,062	-0,056
-600,328	-150,712	-0,201	0,011
-599,313	-62,789	0,068	-0,021
-598,298	270,422	-0,059	-0,077
-597,284	84,097	0,035	-0,028
-596,269	145,947	0,016	-0,016
-595,255	-200,000	-0,009	0,156
-594,240	-126,029	-0,123	0,014
-593,225	-73,636	-0,077	-0,021
-592,211	-200,000	0,035	-0,139
-591,196	-200,000	0,028	-0,123
-590,182	-155,445	0,036	-0,002
-589,167	-200,000	-0,005	0,106
-588,152	484,160	0,043	-0,073
-587,138	-200,000	-0,022	0,078
-586,123	103,430	0,151	-0,131
-585,109	789,630	-0,047	-0,096
-584,094	-92,232	-0,078	-0,016
-583,079	137,431	-0,067	0,065
-582,065	-147,773	-0,095	-0,006
-581,050	-58,144	0,080	-0,026
-580,036	-106,436	0,011	0,002
-579,021	-200,000	-0,000	0,062
-578,006	429,171	-0,016	-0,025
-576,992	800,000	-0,049	0,130
-575,977	568,877	-0,018	-0,032
-574,963	156,882	0,049	0,050
-573,948	185,359	0,068	0,074
-572,934	-200,000	0,009	-0,098
-571,919	38,358	-0,101	0,066
-570,904	308,132	0,043	0,059
-569,890	738,424	0,033	-0,066
-568,875	-45,675	0,075	-0,027
-567,861	381,453	0,015	-0,023
-566,846	-137,276	0,151	0,012
-565,831	48,251	0,076	-0,053
-564,817	-200,000	-0,005	-0,018
-563,802	-75,651	-0,047	0,012
-562,788	-200,000	0,029	-0,104
-561,773	-200,000	-0,006	0,055
-560,758	-45,438	0,096	0,035
-559,744	-200,000	-0,023	0,125
-558,729	-71,365	0,128	-0,035
-557,715	-200,000	-0,017	0,148
-556,700	-40,723	-0,042	-0,016
-555,685	-200,000	-0,007	0,047
-554,671	-200,000	0,001	0,120
-553,656	-32,668	-0,040	-0,017
-552,642	-200,000	0,013	0,065
-551,627	-38,207	0,077	0,030
-550,612	207,177	-0,066	-0,076
-549,598	-200,000	-0,018	-0,066
-548,583	-99,976	0,100	-0,018
-547,569	433,102	-0,057	0,092
-546,554	800,000	0,007	0,023
-545,539	540,152	0,026	-0,046
-544,525	84,561	-0,050	-0,041
-543,510	-8,452	0,086	-0,043
-542,496	-200,000	-0,019	-0,240
-541,481	-200,000	0,001	-0,028
-540,466	187,567	-0,068	-0,075
-539,452	-200,000	0,010	0,101
-538,437	150,156	0,043	-0,043
-537,423	-200,000	-0,010	-0,036
-536,408	81,600	0,042	-0,034
-535,393	-110,311	-0,034	0,005
-534,379	800,000	-0,059	-0,121
-533,364	-200,000	-0,027	0,112
-532,350	6,266	0,084	0,046
-531,335	103,143	0,139	0,120
-530,321	91,738	-0,024	-0,020
-529,306	4,982	0,133	0,072
-528,291	-200,000	0,017	-0,093
-527,277	9,438	-0,020	0,011
-526,262	-200,000	-0,002	-0,067
-525,248	-135,307	0,044	-0,004
-524,233	-200,000	0,028	-0,134
-523,218	190,173	0,067	-0,075
-522,204	326,903	0,014	-0,020
-521,189	40,591	-0,047	-0,031
-520,175	127,533	0,039	0,036
-519,160	-1,922	-0,098	-0,051
-518,145	660,837	0,038	0,072
-517,131	549,516	0,031	-0,055
-516,116	261,267	0,038	0,048
-515,102	599,022	-0,051	-0,093
-514,087	95,965	0,021	0,017
-513,072	92,770	0,071	0,060
-512,058	-176,995	-0,177	0,003
-511,043	-200,000	-0,014	0,066
-510,029	-92,486	0,122	0,025
-509,014	85,956	-0,075	0,061
-507,999	-200,000	0,016	-0,058
-506,985	95,646	0,052	-0,044
-505,970	-115,062	-0,130	-0,018
-504,956	-57,668	-0,050	0,016
-503,941	-200,000	-0,004	-0,040
-502,926	58,438	0,109	0,079
-501,912	-200,000	-0,018	0,090
-500,897	800,000	-0,043	-0,092
-499,883	163,096	0,050	-0,052
-498,868	-44,663	0,050	0,019
-497,853	800,000	-0,060	-0,123
-496,839	-93,972	-0,087	-0,017
-495,824	-167,584	-0,080	-0,002
-494,810	90,931	0,041	0,034
-493,795	-8,040	0,017	0,008
-492,781	-200,000	-0,001	-0,068
-491,766	-200,000	0,032	-0,132
-490,751	-92,222	0,028	-0,006
-489,737	800,000	-0,008	0,019
-488,722	-59,187	0,155	0,049
-487,708	50,405	0,057	0,040
-486,693	800,000	-0,058	-0,168
-485,678	800,000	-0,020	0,042
-484,664	800,000	-0,036	0,114
-483,649	647,350	-0,050	0,095
-482,635	93,319	-0,088	0,074
-481,620	-5,422	0,184	0,093
-480,605	78,568	0,090	-0,071
-479,591	13,881	-0,099	-0,057
-478,576	-29,253	-0,169	0,071
-477,562	-50,993	-0,047	-0,016
-476,547	-19,449	0,095	0,043
-475,532	-145,438	-0,126	-0,008
-474,518	-95,008	0,088	-0,017
-473,503	187,442	0,089	0,098
-472,489	-200,000	0,030	0,145
-471,474	-200,000	-0,011	-0,124
-470,459	410,036	-0,151	0,237
-469,445	-167,379	-0,105	-0,003
-468,430	171,521	-0,078	-0,082
-467,416	-103,971	0,135	0,023
-466,401	-200,000	0,038	0,136
-465,386	-200,000	-0,011	-0,061
-464,372	42,707	0,054	0,036
-463,357	-200,000	-0,017	-0,107
-462,343	416,856	0,072	-0,114
-461,328	89,688	-0,122	0,100
-460,313	-200,000	0,006	0,068
-459,299	-56,335	0,120	-0,039
-458,284	-77,327	0,055	-0,014
-457,270	-91,931	0,093	-0,019
-456,255	-59,800	-0,024	0,008
-455,241	-200,000	0,009	-0,120
-454,226	-47,196	-0,052	0,019
-453,211	-200,000	0,001	0,054
-452,197	800,000	0,033	0,102
-451,182	-200,000	0,005	-0,023
-450,168	-70,453	0,126	-0,035
-449,153	149,656	-0,092	0,092
-448,138	-200,000	0,008	-0,048
-447,124	-51,687	-0,072	-0,025
-446,109	-74,475	0,165	-0,043
-445,095	800,000	0,050	0,115
-444,080	7,148	-0,066	0,036
-443,065	-200,000	-0,003	-0,052
-442,051	-58,328	-0,167	-0,053
-441,036	-200,000	0,003	-0,011
-440,022	800,000	-0,007	-0,019
-439,007	-200,000	0,002	-0,065
-437,992	170,045	0,085	-0,090
-436,978	-115,813	0,092	-0,013
-435,963	0,994	0,083	0,043
-434,949	262,375	0,017	-0,022
-433,934	-113,519	-0,085	0,012
-432,919	-81,868	-0,100	-0,024
-431,905	45,979	-0,113	0,077
-430,890	12,102	0,135	0,076
-429,876	288,822	0,083	0,111
-428,861	132,990	0,082	0,078
-427,846	-162,076	-0,055	0,002
-426,832	255,521	0,018	0,022
-425,817	126,568	-0,096	0,090
-424,803	619,230	-0,058	-0,108
-423,788	46,153	0,178	-0,121
-422,773	-200,000	-0,028	0,128
-421,759	-105,163	0,078	0,013
-420,744	-53,554	0,115	0,038
-419,730	-79,173	-0,062	0,015
-418,715	269,400	0,048	-0,062
-417,701	-200,000	0,000	0,042
-416,686	-38,475	-0,106	0,041
-415,671	-29,568	0,149	0,062
-414,657	-115,621	0,178	0,024
-413,642	-200,000	-0,007	-0,054
-412,628	-120,490	0,056	-0,007
-411,613	-160,581	-0,046	0,002
-410,598	52,388	0,099	-0,069
-409,584	-18,457	-0,075	0,034
-408,569	37,984	0,077	0,050
-407,555	-107,529	0,072	0,011
-406,540	211,658	0,065	0,075
-405,525	-200,000	-0,003	-0,106
-404,511	134,230	-0,056	-0,054
-403,496	-200,000	0,028	-0,131
-402,482	-38,794	-0,093	-0,036
-401,467	-101,454	0,133	0,024
-400,452	-167,864	0,071	0,002
-399,438	-140,683	-0,083	-0,006
-398,423	440,754	-0,076	0,122
-397,409	120,485	-0,092	0,084
-396,394	-13,077	-0,100	0,048
-395,379	-200,000	0,013	-0,117
-394,365	-45,027	0,124	0,045
-393,350	529,927	-0,042	0,073
-392,336	-130,994	0,090	0,009
-391,321	138,330	0,077	-0,074
-390,306	81,723	-0,136	0,108
-389,292	72,752	0,104	0,080
-388,277	-128,266	-0,082	-0,008
-387,263	323,358	0,050	0,070
-386,248	-126,272	0,034	0,004
-385,233	800,000	-0,031	0,098
-384,219	800,000	0,028	-0,070
-383,204	18,935	-0,084	-0,049
-382,190	-8,501	0,069	-0,034
-381,175	-30,298	0,066	0,027
-380,160	-132,254	0,207	-0,019
-379,146	800,000	-0,063	0,181
-378,131	-83,745	0,169	0,039
-377,117	48,613	-0,065	0,045
-376,102	216,182	-0,120	-0,141
-375,088	-130,609	-0,092	-0,009
-374,073	16,924	0,038	0,022
-373,058	-47,757	0,150	0,053
-372,044	62,178	-0,171	-0,125
-371,029	800,000	0,050	-0,129
-370,015	-105,785	0,058	0,009
-369,000	212,108	-0,068	-0,079
-367,985	377,385	-0,060	-0,091
-366,971	-70,363	-0,027	0,008
-365,956	-127,527	0,077	0,008
-364,942	117,934	0,130	0,117
-363,927	-200,000	-0,001	-0,005
-362,912	197,215	-0,052	-0,058
-361,898	16,542	0,061	0,035
-360,883	-9,019	-0,094	-0,046
-359,869	79,580	-0,052	-0,041
-358,854	9,178	-0,076	-0,042
-357,839	-73,497	-0,048	0,013
-356,825	-132,135	0,073	0,007
-355,810	-152,995	0,052	-0,003
-354,796	-19,491	-0,080	0,036
-353,781	275,988	0,029	-0,038
-352,766	-46,613	0,088	-0,032
-351,752	-6,023	-0,056	-0,028
-350,737	-6,507	-0,129	-0,064
-349,723	72,439	-0,060	-0,046
-348,708	-200,000	0,006	-0,105
-347,693	90,576	0,151	-0,124
-346,679	800,000	-0,054	-0,133
-345,664	-200,000	-0,010	-0,109
-344,650	-13,609	0,103	-0,049
-343,635	31,297	-0,084	-0,053
-342,620	2,606	0,074	0,039
-341,606	35,265	-0,073	0,047
-340,591	537,479	-0,064	-0,113
-339,577	800,000	-0,058	-0,119
-338,562	160,424	-0,119	-0,122
-337,548	84,100	0,077	-0,062
-336,533	272,161	0,107	0,139
-335,518	-200,000	0,006	0,049
-334,504	800,000	0,024	0,066
-333,489	537,656	0,040	0,071
-332,475	11,826	-0,019	-0,011
-331,460	162,621	-0,061	-0,062
-330,445	-198,604	-0,069	-0,000
-329,431	-200,000	-0,077	0,000
-328,416	12,941	0,079	0,045
-327,402	-104,811	-0,133	0,022
-326,387	24,891	-0,086	0,052
-325,372	-64,501	-0,218	0,065
-324,358	800,000	0,032	-0,101
-323,343	-200,000	-0,030	-0,109
-322,329	-104,510	-0,094	-0,016
-321,314	-200,000	-0,000	0,142
-320,299	325,952	-0,049	-0,069
-319,285	800,000	-0,023	0,073
-318,270	-200,000	-0,012	0,111
-317,256	17,111	-0,156	0,090
-316,241	211,380	0,029	-0,034
-315,226	-200,000	-0,005	-0,072
-314,212	756,747	-0,078	-0,156
-313,197	607,798	0,049	0,091
-312,183	-167,743	0,108	0,003
-311,168	800,000	-0,084	-0,231
-310,153	25,187	0,086	0,052
-309,139	800,000	0,014	-0,041
-308,124	236,384	-0,054	-0,065
-307,110	-122,642	0,098	-0,011
-306,095	-155,191	0,022	-0,001
-305,080	-42,464	-0,092	0,034
-304,066	747,267	0,028	-0,056
-303,051	4,620	-0,164	-0,088
-302,037	800,000	0,055	-0,152
-301,022	-165,492	0,095	0,003
-300,008	220,648	-0,072	-0,085
-298,993	158,515	0,055	0,056
-297,978	-125,607	-0,167	0,018
-296,964	30,069	-0,038	0,024
-295,949	-125,125	0,037	0,004
-294,935	800,000	-0,012	-0,035
-293,920	-127,094	0,050	-0,005
-292,905	-49,143	0,037	-0,013
-291,891	-10,521	0,102	0,049
-290,876	83,977	0,031	-0,025
-289,862	556,440	-0,006	0,010
-288,847	-200,000	0,004	-0,032
-287,832	800,000	-0,016	0,043
-286,818	-200,000	-0,022	-0,088
-285,803	-200,000	0,008	-0,085
-284,789	-200,000	-0,010	0,080
-283,774	800,000	0,054	0,132
-282,759	-69,228	0,126	0,035
-281,745	-200,000	-0,000	0,061
-280,730	-17,752	-0,139	-0,064
-279,716	-200,000	0,016	0,081
-278,701	-200,000	0,054	-0,195
-277,686	207,738	0,032	-0,037
-276,672	-200,000	-0,052	0,171
-275,657	59,667	-0,073	0,053
-274,643	-40,218	0,128	0,048
-273,628	-200,000	0,014	-0,081
-272,613	-19,682	0,053	0,024
-271,599	800,000	-0,045	-0,130
-270,584	606,253	0,056	0,103
-269,570	53,724	-0,099	-0,070
-268,555	-142,097	0,081	0,006
-267,540	-200,000	0,009	-0,065
-266,526	-98,006	-0,128	-0,024
-265,511	-41,672	-0,076	-0,029
-264,497	-30,890	0,124	0,051
-263,482	-103,160	-0,012	0,002
-262,467	225,918	-0,041	0,049
-261,453	-17,762	-0,098	-0,045
-260,438	80,146	-0,027	0,021
-259,424	-61,035	-0,074	-0,023
-258,409	-105,875	0,122	0,020
-257,395	1,889	-0,026	0,013
-256,380	48,951	-0,054	-0,037
-255,365	332,836	-0,049	0,070
-254,351	-105,688	-0,027	0,004
-253,336	74,784	0,012	0,009
-252,322	478,623	-0,030	0,049
-251,307	7,511	-0,028	-0,015
-250,292	69,853	0,088	0,066
-249,278	-200,000	0,002	0,011
-248,263	800,000	0,013	-0,032
-247,249	286,479	0,011	0,015
-246,234	-49,257	-0,118	-0,041
-245,219	800,000	0,022	-0,064
-244,205	-200,000	0,028	0,106
-243,190	800,000	-0,064	-0,137
-242,176	-200,000	0,032	-0,130
-241,161	-200,000	-0,035	0,180
-240,146	273,349	0,038	0,049
-239,132	264,260	-0,040	-0,052
-238,117	186,335	-0,078	0,085
-237,103	29,665	-0,052	-0,032
-236,088	-45,203	-0,060	-0,022
-235,073	-124,180	0,034	-0,004
-234,059	-200,000	0,010	0,092
-233,044	350,196	0,037	0,054
-232,030	248,979	-0,011	0,014
-231,015	-200,000	0,007	0,030
-230,000	502,360	0,028	0,047
-228,986	-112,392	0,121	-0,018
-227,971	-99,565	0,094	0,017
-226,957	-200,000	-0,015	0,103
-225,942	-86,720	0,136	0,030
-224,927	800,000	-0,034	-0,089
-223,913	-36,185	0,062	0,024
-222,898	-200,000	-0,002	-0,012
-221,884	-126,572	-0,055	-0,006
-220,869	494,825	-0,051	0,087
-219,855	-12,606	-0,053	-0,025
-218,840	-157,537	0,117	0,005
-217,825	53,554	-0,051	0,035
-216,811	393,208	-0,104	-0,159
-215,796	-133,468	0,169	0,015
-214,782	44,149	-0,100	-0,067
-213,767	610,199	0,070	0,128
-212,752	-200,000	0,033	0,110
-211,738	-97,689	-0,072	0,013
-210,723	515,263	-0,048	-0,082
-209,709	310,978	-0,052	-0,072
-208,694	-200,000	0,023	-0,095
-207,679	800,000	0,018	-0,041
-206,665	-92,944	-0,095	0,019
-205,650	-200,000	0,038	0,123
-204,636	-200,000	-0,007	0,042
-203,621	-200,000	-0,030	0,121
-202,606	517,768	0,039	0,068
-201,592	-200,000	-0,003	0,038
-200,577	-200,000	-0,013	-0,081
-199,563	102,940	0,070	-0,060
-198,548	535,872	0,061	0,107
-197,533	-49,834	-0,041	0,014
-196,519	240,482	0,090	-0,109
-195,504	208,908	-0,077	0,088
-194,490	20,890	-0,111	0,065
-193,475	-185,144	0,036	0,000
-192,460	361,343	-0,043	-0,064
-191,446	-98,539	-0,053	-0,010
-190,431	532,751	0,004	-0,007
-189,417	800,000	-0,041	0,082
-188,402	-200,000	0,042	0,139
-187,387	412,592	0,024	-0,037
-186,373	800,000	0,029	-0,077
-185,358	-153,441	-0,189	-0,009
-184,344	-32,858	0,105	0,042
-183,329	800,000	0,048	0,123
-182,315	800,000	0,016	-0,044
-181,300	60,045	-0,126	0,091
-180,285	-200,000	-0,006	0,080
-179,271	-70,228	-0,036	0,010
-178,256	479,509	0,035	0,057
-177,242	-200,000	-0,017	0,165
-176,227	-50,153	0,048	-0,017
-175,212	800,000	-0,027	0,078
-174,198	141,295	0,071	-0,069
-173,183	503,067	0,069	-0,116
-172,169	126,361	0,120	-0,111
-171,154	60,204	-0,030	0,022
-170,139	259,238	0,035	-0,044
-169,125	226,510	-0,039	0,046
-168,110	76,491	-0,081	0,063
-167,096	498,332	0,019	-0,032
-166,081	-200,000	0,021	-0,113
-165,066	-26,655	0,064	0,027
-164,052	195,112	-0,090	0,099
-163,037	-120,436	-0,121	-0,015
-162,023	18,932	0,102	0,060
-161,008	-126,009	-0,147	0,016
-159,993	-200,000	-0,008	0,147
-158,979	-200,000	0,001	-0,083
-157,964	-15,443	0,054	-0,025
-156,950	-22,188	0,011	-0,005
-155,935	-200,000	0,002	-0,013
-154,920	37,201	-0,028	-0,018
-153,906	132,137	0,111	0,104
-152,891	402,941	-0,038	0,059
-151,877	245,976	-0,084	0,103
-150,862	800,000	0,049	-0,141
-149,847	-113,413	-0,065	0,009
-148,833	331,507	0,045	0,064
-147,818	-90,562	0,092	0,019
-146,804	79,123	0,045	0,035
-145,789	113,461	0,028	-0,025
-144,775	800,000	-0,059	0,129
-143,760	-151,553	-0,072	0,004
-142,745	1,949	-0,027	0,014
-141,731	-122,999	-0,048	-0,006
-140,716	316,760	0,063	-0,087
-139,702	-69,641	0,227	0,063
-138,687	-200,000	0,027	0,117
-137,672	-109,819	-0,107	-0,016
-136,658	800,000	-0,019	-0,055
-135,643	53,282	-0,172	-0,119
-134,629	586,319	-0,138	0,248
-133,614	-136,340	0,056	0,005
-132,599	-141,063	-0,093	-0,007
-131,585	143,361	0,049	0,048
-130,570	-50,230	-0,078	-0,027
-129,556	230,243	0,056	-0,067
-128,541	-7,996	-0,148	0,072
-127,526	72,501	-0,089	0,068
-126,512	800,000	-0,058	0,131
-125,497	83,793	0,081	0,064
-124,483	-200,000	-0,014	0,121
-123,468	579,764	0,038	-0,068
-122,453	428,295	0,099	-0,156
-121,439	-200,000	0,006	-0,137
-120,424	390,325	-0,080	-0,122
-119,410	-117,992	0,033	-0,004
