DTS Sentinel unit serial number:	SN410029Multiplexer serial number:	ORYXHardware model number:	OX2-SRSoftware version number:	ORYX F/W v4,00 Oryx Data Collector v3.7.2.0data status	okinstallation	B6 Nyhavnadifferential loss correction	single-endedforward channel	channel 2reverse channel	N/Adate	2023/12/09time	03:55:08forward acquisition time	300,00reverse acquisition time	0,00gamma	499,1914k internal	0,3151k external	0,3151temperature offset calibration	1,0000default loss term (dB/km)	0,3820temperature slope calibration	1,0000multiplexer offset coefficient	1,0000multiplexer slope coefficient	1,0000fibre end	0,00T internal ref (°C)	16,61T ext. ref 1 (°C)	0,92T ext. ref 2 (°C)	0,92length (m)	temperature (°C)	Stokes	anti-Stokes-744,400	800,000	-0,038	0,106
-743,385	-58,116	-0,252	0,081
-742,371	-119,938	0,117	0,015
-741,356	-137,834	-0,293	-0,024
-740,342	-1,907	0,089	0,046
-739,327	-52,000	-0,302	-0,103
-738,312	43,464	0,115	-0,078
-737,298	18,916	-0,146	0,086
-736,283	77,936	-0,062	0,048
-735,269	-109,376	-0,181	0,028
-734,254	-200,000	-0,015	0,069
-733,239	-54,917	-0,464	-0,154
-732,225	62,502	0,151	0,111
-731,210	800,000	0,015	0,039
-730,196	-77,083	-0,077	-0,020
-729,181	348,135	-0,005	0,007
-728,167	115,813	-0,117	-0,105
-727,152	-17,472	0,076	-0,035
-726,137	98,716	-0,029	-0,025
-725,123	-26,706	-0,194	-0,083
-724,108	800,000	-0,041	-0,086
-723,094	204,633	-0,111	-0,128
-722,079	-154,923	-0,013	0,001
-721,064	760,030	-0,058	0,117
-720,050	-200,000	0,009	-0,132
-719,035	300,898	-0,140	-0,191
-718,021	-200,000	-0,023	-0,093
-717,006	-118,007	-0,192	-0,025
-715,991	-200,000	-0,009	-0,070
-714,977	11,670	-0,045	0,026
-713,962	-52,679	-0,056	0,019
-712,948	-23,899	-0,043	-0,019
-711,933	-200,000	0,010	0,045
-710,918	-78,837	-0,091	-0,023
-709,904	800,000	-0,035	-0,109
-708,889	767,585	-0,019	-0,039
-707,875	-200,000	0,035	-0,222
-706,860	-200,000	0,002	0,023
-705,845	-19,775	-0,045	-0,021
-704,831	-170,705	0,147	0,004
-703,816	-200,000	0,026	-0,123
-702,802	-97,724	-0,156	0,030
-701,787	161,539	-0,123	-0,128
-700,772	-200,000	-0,005	-0,141
-699,758	-200,000	0,012	-0,082
-698,743	35,691	-0,030	-0,020
-697,729	163,531	-0,021	0,022
-696,714	800,000	0,044	0,093
-695,699	-200,000	0,012	-0,098
-694,685	17,381	-0,133	-0,078
-693,670	744,389	-0,049	-0,097
-692,656	800,000	0,026	0,061
-691,641	90,581	0,032	0,027
-690,627	-153,393	-0,017	0,001
-689,612	-200,000	0,021	0,144
-688,597	260,775	-0,057	-0,073
-687,583	645,705	-0,008	-0,015
-686,568	-200,000	0,001	0,005
-685,554	376,322	0,051	0,078
-684,539	-200,000	0,004	-0,013
-683,524	-45,765	-0,073	-0,026
-682,510	-134,970	-0,019	0,002
-681,495	-146,767	-0,038	-0,002
-680,481	187,539	0,025	-0,027
-679,466	-74,519	0,101	-0,027
-678,451	800,000	0,008	0,022
-677,437	241,495	0,064	0,079
-676,422	-200,000	0,005	0,041
-675,408	91,552	0,100	-0,083
-674,393	207,791	-0,153	-0,176
-673,378	-119,704	-0,096	-0,012
-672,364	-123,251	-0,028	0,003
-671,349	200,836	-0,060	0,069
-670,335	-84,352	-0,104	-0,024
-669,320	-80,270	0,078	-0,019
-668,305	248,528	-0,110	0,137
-667,291	-200,000	-0,030	-0,154
-666,276	-48,476	0,065	-0,023
-665,262	800,000	-0,043	-0,088
-664,247	142,497	-0,002	0,002
-663,232	149,498	-0,082	-0,082
-662,218	-36,413	0,052	0,020
-661,203	296,867	-0,081	0,110
-660,189	-200,000	-0,043	0,189
-659,174	100,270	-0,117	-0,100
-658,159	-101,652	-0,057	0,010
-657,145	614,551	-0,097	-0,181
-656,130	490,145	0,039	-0,065
-655,116	800,000	0,016	-0,041
-654,101	391,520	-0,065	-0,100
-653,086	-127,602	-0,011	0,001
-652,072	151,912	-0,042	0,042
-651,057	138,131	-0,086	-0,083
-650,043	220,656	-0,099	-0,118
-649,028	-200,000	-0,003	0,101
-648,014	307,531	-0,043	0,060
-646,999	304,365	0,125	-0,172
-645,984	-200,000	-0,009	-0,064
-644,970	77,391	-0,099	-0,078
-643,955	-125,936	0,110	0,012
-642,941	-187,302	-0,057	-0,001
-641,926	14,726	-0,074	-0,043
-640,911	-200,000	-0,041	0,140
-639,897	773,925	0,039	0,079
-638,882	19,336	-0,136	0,080
-637,868	-200,000	0,008	-0,039
-636,853	-178,129	-0,044	0,001
-635,838	-200,000	0,006	-0,088
-634,824	70,082	0,061	0,046
-633,809	800,000	0,035	0,111
-632,795	-200,000	0,007	0,105
-631,780	-200,000	-0,040	0,161
-630,765	-28,591	0,054	0,023
-629,751	-49,463	-0,100	0,035
-628,736	-76,564	-0,085	-0,022
-627,722	-113,316	-0,123	0,018
-626,707	-200,000	-0,016	0,089
-625,692	154,874	0,065	0,066
-624,678	340,648	-0,088	0,126
-623,663	-200,000	0,040	0,158
-622,649	800,000	-0,052	-0,153
-621,634	-57,404	-0,151	-0,048
-620,619	11,547	0,114	0,064
-619,605	105,751	0,070	0,061
-618,590	-19,633	-0,040	0,018
-617,576	-200,000	0,029	0,105
-616,561	800,000	0,034	0,074
-615,546	-106,070	0,022	-0,004
-614,532	15,651	-0,146	-0,084
-613,517	-26,615	-0,081	0,035
-612,503	-200,000	0,021	-0,162
-611,488	-61,006	-0,110	0,034
-610,474	-97,042	0,048	0,009
-609,459	-111,174	-0,088	-0,013
-608,444	-200,000	-0,008	-0,052
-607,430	72,100	-0,099	-0,076
-606,415	800,000	-0,040	-0,107
-605,401	-174,123	0,035	0,001
-604,386	32,146	-0,069	-0,044
-603,371	796,010	0,024	-0,049
-602,357	-200,000	-0,045	-0,149
-601,342	116,869	-0,038	0,034
-600,328	329,995	-0,046	-0,065
-599,313	80,550	-0,124	-0,098
-598,298	267,970	-0,011	-0,014
-597,284	-193,956	0,113	-0,001
-596,269	-200,000	0,028	0,140
-595,255	800,000	0,082	0,214
-594,240	521,090	-0,024	0,042
-593,225	-81,657	-0,030	0,007
-592,211	800,000	-0,039	-0,099
-591,196	-149,548	0,053	0,003
-590,182	24,382	0,066	0,040
-589,167	-200,000	-0,031	0,137
-588,152	12,310	0,103	-0,058
-587,138	800,000	-0,040	-0,093
-586,123	-112,828	0,025	0,004
-585,109	-40,368	-0,092	-0,035
-584,094	-71,816	-0,095	-0,026
-583,079	-188,078	0,186	0,002
-582,065	-200,000	-0,002	0,013
-581,050	-200,000	-0,005	-0,177
-580,036	430,502	-0,031	-0,050
-579,021	-6,236	-0,068	-0,034
-578,006	-34,762	0,123	-0,049
-576,992	61,824	-0,053	0,039
-575,977	68,576	-0,067	0,050
-574,963	-158,682	0,109	0,005
-573,948	471,248	0,022	-0,036
-572,934	-200,000	-0,017	-0,078
-571,919	800,000	0,010	-0,021
-570,904	10,465	-0,113	-0,063
-569,890	31,645	-0,033	-0,021
-568,875	74,412	-0,029	0,022
-567,861	-3,308	0,094	0,048
-566,846	-57,217	-0,054	0,017
-565,831	-61,779	-0,081	-0,025
-564,817	-200,000	-0,002	-0,042
-563,802	307,286	-0,060	-0,082
-562,788	53,898	0,077	-0,054
-561,773	125,553	0,113	-0,105
-560,758	273,468	0,018	0,023
-559,744	800,000	-0,020	0,050
-558,729	168,563	0,003	-0,003
-557,715	-200,000	0,006	0,034
-556,700	-200,000	-0,002	-0,095
-555,685	452,662	0,036	-0,058
-554,671	800,000	-0,015	0,031
-553,656	227,003	0,056	0,066
-552,642	-200,000	-0,019	0,072
-551,627	-3,328	-0,079	0,040
-550,612	-46,657	-0,043	0,015
-549,598	-77,158	-0,121	-0,031
-548,583	381,608	0,041	-0,062
-547,569	-200,000	0,015	-0,085
-546,554	795,117	-0,029	0,058
-545,539	619,811	0,012	0,023
-544,525	-200,000	-0,020	0,132
-543,510	685,083	-0,060	0,116
-542,496	233,235	-0,109	0,131
-541,481	-200,000	-0,019	-0,080
-540,466	800,000	-0,079	-0,200
-539,452	-200,000	0,007	0,079
-538,437	41,425	0,077	-0,051
-537,423	166,836	-0,108	0,112
-536,408	-4,831	0,137	0,069
-535,393	29,150	-0,053	0,033
-534,379	-200,000	0,014	-0,049
-533,364	205,998	0,071	-0,081
-532,350	-46,661	0,048	0,017
-531,335	-63,614	0,126	-0,038
-530,321	31,081	0,091	-0,057
-529,306	800,000	-0,004	0,010
-528,291	402,795	0,051	0,079
-527,277	800,000	-0,034	-0,102
-526,262	800,000	-0,022	-0,054
-525,248	-200,000	-0,007	0,078
-524,233	-200,000	0,007	0,045
-523,218	416,538	0,072	0,113
-522,204	288,890	-0,062	0,083
-521,189	158,132	0,038	-0,038
-520,175	144,643	-0,048	0,047
-519,160	800,000	-0,014	-0,037
-518,145	432,010	0,027	0,043
-517,131	103,680	-0,031	0,026
-516,116	178,242	0,094	0,101
-515,102	800,000	-0,020	0,058
-514,087	-93,752	0,038	-0,008
-513,072	-200,000	-0,004	0,048
-512,058	-168,754	0,015	0,000
-511,043	-71,348	-0,052	-0,014
-510,029	-56,521	0,146	0,047
-509,014	-106,935	0,089	0,014
-507,999	429,296	0,064	-0,102
-506,985	368,692	-0,013	-0,019
-505,970	-18,412	-0,098	-0,045
-504,956	-124,750	0,092	-0,010
-503,941	267,862	-0,022	-0,028
-502,926	-200,000	-0,006	0,196
-501,912	120,086	0,055	0,050
-500,897	322,772	0,063	-0,088
-499,883	156,485	0,063	-0,063
-498,868	800,000	0,056	-0,116
-497,853	95,514	0,036	0,030
-496,839	271,875	0,134	-0,173
-495,824	-49,596	0,074	-0,026
-494,810	-12,765	-0,152	-0,072
-493,795	117,315	0,082	-0,074
-492,781	38,313	0,040	0,026
-491,766	-175,540	-0,094	0,002
-490,751	187,277	0,044	0,048
-489,737	-200,000	-0,020	-0,068
-488,722	-103,187	0,052	-0,009
-487,708	-51,685	0,074	-0,025
-486,693	-200,000	-0,009	-0,099
-485,678	598,268	-0,082	-0,149
-484,664	122,570	-0,087	-0,079
-483,649	43,739	-0,074	0,049
-482,635	304,562	0,048	-0,065
-481,620	-7,419	0,102	-0,050
-480,605	500,233	-0,023	0,039
-479,591	-200,000	0,007	-0,081
-478,576	-72,699	-0,113	-0,030
-477,562	-200,000	-0,022	0,182
-476,547	316,656	0,054	-0,075
-475,532	-200,000	0,028	0,126
-474,518	-185,065	0,125	0,001
-473,503	530,990	-0,080	0,139
-472,489	-64,884	0,026	0,008
-471,474	-69,352	-0,082	0,023
-470,459	-74,084	-0,076	0,020
-469,445	800,000	-0,043	-0,114
-468,430	-68,736	-0,055	0,015
-467,416	-200,000	0,039	0,154
-466,401	53,623	0,030	-0,021
-465,386	-200,000	0,011	-0,089
-464,372	182,392	0,017	-0,019
-463,357	-98,216	-0,006	-0,001
-462,343	496,342	-0,035	-0,060
-461,328	276,089	0,012	0,015
-460,313	310,873	-0,055	0,075
-459,299	-70,801	-0,037	-0,010
-458,284	-200,000	0,024	-0,081
-457,270	-81,771	0,060	0,014
-456,255	376,025	-0,038	-0,057
-455,241	-14,826	-0,110	0,052
-454,226	124,957	-0,025	0,023
-453,211	222,182	0,066	0,078
-452,197	800,000	-0,047	-0,101
-451,182	-200,000	0,012	0,059
-450,168	4,202	-0,039	-0,021
-449,153	800,000	0,040	-0,119
-448,138	480,244	0,080	-0,132
-447,124	199,677	-0,092	-0,103
-446,109	-200,000	0,014	-0,213
-445,095	421,429	-0,046	-0,072
-444,080	461,705	0,028	0,046
-443,065	-52,706	-0,099	0,033
-442,051	194,861	0,110	0,122
-441,036	-47,469	0,025	-0,009
-440,022	222,111	-0,017	0,020
-439,007	-200,000	0,024	0,082
-437,992	-200,000	-0,004	0,030
-436,978	706,408	0,042	0,082
-435,963	-90,535	0,165	0,035
-434,949	-103,792	-0,184	0,031
-433,934	-34,065	-0,025	-0,010
-432,919	800,000	0,022	-0,055
-431,905	288,274	-0,012	-0,016
-430,890	373,021	0,065	-0,096
-429,876	-105,704	-0,011	-0,002
-428,861	-28,553	-0,047	0,020
-427,846	-53,630	0,034	0,011
-426,832	193,864	-0,092	0,102
-425,817	121,712	0,065	-0,059
-424,803	192,667	0,074	0,082
-423,788	-200,000	-0,007	0,049
-422,773	47,514	0,048	0,033
-421,759	800,000	0,034	-0,072
-420,744	39,475	-0,035	0,023
-419,730	91,961	0,016	-0,014
-418,715	-113,214	-0,149	-0,021
-417,701	517,312	0,035	0,060
-416,686	800,000	0,025	0,078
-415,671	-119,962	0,107	-0,013
-414,657	-200,000	0,014	0,127
-413,642	-38,931	0,028	0,011
-412,628	156,882	0,080	-0,080
-411,613	800,000	0,008	0,023
-410,598	-1,123	-0,072	0,037
-409,584	800,000	0,048	-0,099
-408,569	-140,499	0,076	0,006
-407,555	-137,766	0,055	0,004
-406,540	-11,952	0,067	-0,032
-405,525	-41,015	0,102	-0,038
-404,511	-180,797	-0,193	0,003
-403,496	800,000	-0,023	0,070
-402,482	25,665	-0,056	-0,034
-401,467	270,278	-0,082	0,105
-400,452	150,586	0,024	0,024
-399,438	-200,000	-0,003	-0,042
-398,423	800,000	0,005	0,016
-397,409	-90,379	0,065	0,014
-396,394	84,666	0,011	0,009
-395,379	-200,000	-0,026	0,130
-394,365	-91,204	-0,049	-0,010
-393,350	-152,330	0,080	-0,004
-392,336	12,677	-0,006	0,003
-391,321	-90,803	0,205	0,043
-390,306	-133,882	-0,116	0,010
-389,292	-44,974	-0,156	0,056
-388,277	-200,000	-0,007	-0,047
-387,263	387,963	-0,011	-0,017
-386,248	800,000	-0,041	-0,087
-385,233	-200,000	0,028	0,146
-384,219	-60,079	-0,100	0,031
-383,204	756,566	0,027	-0,052
-382,190	800,000	-0,037	-0,109
-381,175	49,398	-0,055	0,037
-380,160	-28,233	0,072	-0,030
-379,146	345,605	-0,011	0,015
-378,131	-200,000	-0,002	-0,015
-377,117	-200,000	-0,002	-0,025
-376,102	-94,549	0,129	-0,025
-375,088	-73,495	-0,115	-0,030
-374,073	-11,743	-0,053	0,025
-373,058	-5,869	0,058	0,029
-372,044	-200,000	0,032	-0,129
-371,029	54,815	0,061	0,043
-370,015	709,096	0,057	0,110
-369,000	796,147	-0,028	-0,056
-367,985	56,289	-0,148	-0,105
-366,971	-32,001	0,134	-0,055
-365,956	-200,000	0,002	0,079
-364,942	296,400	-0,089	-0,119
-363,927	228,607	0,086	-0,102
-362,912	-200,000	0,021	0,089
-361,898	-200,000	0,000	-0,008
-360,883	-9,206	-0,056	0,027
-359,869	800,000	-0,053	-0,143
-358,854	800,000	0,031	-0,093
-357,839	-54,614	-0,045	0,015
-356,825	-58,763	0,097	0,030
-355,810	-9,531	-0,059	-0,028
-354,796	-200,000	0,006	-0,069
-353,781	450,371	0,095	-0,153
-352,766	800,000	0,017	0,043
-351,752	172,357	-0,025	-0,026
-350,737	-200,000	0,001	-0,034
-349,723	223,131	0,109	0,128
-348,708	800,000	0,034	0,091
-347,693	-7,813	-0,142	-0,069
-346,679	132,185	-0,092	-0,086
-345,664	-17,074	-0,079	-0,036
-344,650	-56,165	-0,090	0,029
-343,635	243,927	-0,013	0,016
-342,620	-200,000	-0,010	0,142
-341,606	-111,108	0,045	-0,007
-340,591	50,319	0,074	0,051
-339,577	511,545	0,058	-0,099
-338,562	289,952	-0,062	0,082
-337,548	-6,642	0,098	0,048
-336,533	-200,000	0,010	0,110
-335,518	-110,455	0,137	0,020
-334,504	104,961	-0,074	0,063
-333,489	133,922	-0,115	-0,108
-332,475	800,000	-0,045	-0,127
-331,460	33,432	-0,157	-0,099
-330,445	240,749	0,033	-0,040
-329,431	-64,230	0,072	0,021
-328,416	41,659	-0,055	0,036
-327,402	113,265	0,053	0,047
-326,387	-34,377	0,151	0,060
-325,372	-122,836	0,107	-0,012
-324,358	16,784	-0,110	-0,063
-323,343	180,014	0,053	-0,056
-322,329	-47,630	0,139	0,049
-321,314	93,532	0,199	0,163
-320,299	-200,000	0,005	0,054
-319,285	-139,083	-0,127	0,010
-318,270	-27,388	0,054	0,023
-317,256	-200,000	-0,020	0,071
-316,241	326,649	0,080	0,112
-315,226	158,669	-0,057	-0,057
-314,212	-104,085	0,074	-0,012
-313,197	-99,436	0,090	-0,016
-312,183	-23,237	-0,088	0,038
-311,168	-58,985	-0,043	0,013
-310,153	35,996	-0,102	-0,065
-309,139	800,000	0,064	-0,150
-308,124	800,000	0,037	0,097
-307,110	-123,164	0,126	0,014
-306,095	101,659	-0,038	0,032
-305,080	-70,390	-0,141	-0,039
-304,066	-200,000	0,032	-0,144
-303,051	51,675	0,045	0,031
-302,037	120,256	-0,046	-0,042
-301,022	28,044	0,146	0,089
-300,008	61,707	0,109	0,079
-298,993	64,140	0,149	0,109
-297,978	229,613	-0,028	-0,033
-296,964	-200,000	-0,012	-0,125
-295,949	15,319	-0,003	-0,002
-294,935	-23,942	-0,182	0,079
-293,920	-70,646	-0,088	-0,024
-292,905	22,709	0,014	0,008
-291,891	772,245	-0,038	0,076
-290,876	-77,576	0,110	0,027
-289,862	-200,000	-0,001	-0,042
-288,847	800,000	0,013	0,039
-287,832	-68,447	-0,139	-0,039
-286,818	800,000	-0,005	-0,016
-285,803	-110,462	0,111	0,017
-284,789	-200,000	-0,008	0,111
-283,774	232,191	-0,046	0,055
-282,759	-88,181	-0,049	0,010
-281,745	146,135	0,044	0,043
-280,730	-42,590	0,042	0,015
-279,716	-152,721	-0,039	-0,002
-278,701	468,383	-0,041	0,067
-277,686	-92,216	-0,021	-0,004
-276,672	800,000	-0,067	-0,151
-275,657	-69,510	-0,085	-0,023
-274,643	800,000	-0,016	-0,046
-273,628	55,185	-0,140	-0,098
-272,613	9,580	-0,086	0,047
-271,599	-200,000	-0,015	0,063
-270,584	-200,000	-0,006	-0,044
-269,570	417,000	0,099	0,153
-268,555	-200,000	0,005	0,042
-267,540	222,624	0,062	-0,073
-266,526	-29,881	-0,059	0,024
-265,511	38,290	-0,052	-0,033
-264,497	800,000	0,005	0,013
-263,482	800,000	0,054	0,161
-262,467	339,632	0,062	0,088
-261,453	-200,000	0,015	0,092
-260,438	-0,648	0,032	-0,017
-259,424	335,918	-0,035	0,049
-258,409	800,000	0,019	-0,046
-257,395	-76,442	-0,089	-0,022
-256,380	324,991	-0,113	0,157
-255,365	396,291	-0,083	0,127
-254,351	-200,000	-0,010	-0,091
-253,336	-200,000	-0,004	-0,030
-252,322	706,295	0,032	0,061
-251,307	800,000	-0,020	-0,057
-250,292	-200,000	-0,018	0,151
-249,278	134,795	0,028	0,027
-248,263	800,000	-0,021	0,063
-247,249	555,003	-0,043	-0,075
-246,234	370,696	-0,053	-0,078
-245,219	142,050	0,160	-0,154
-244,205	181,822	-0,174	-0,186
-243,190	47,865	0,063	-0,043
-242,176	-101,272	0,090	0,016
-241,161	52,000	0,047	0,032
-240,146	224,644	0,014	-0,016
-239,132	-30,516	-0,098	0,040
-238,117	-141,990	-0,042	0,003
-237,103	534,994	-0,064	0,111
-236,088	800,000	0,022	0,059
-235,073	-200,000	0,002	-0,024
-234,059	800,000	-0,036	0,098
-233,044	289,953	0,019	-0,025
-232,030	-91,834	0,116	-0,024
-231,015	-200,000	0,002	-0,043
-230,000	-200,000	-0,022	-0,108
-228,986	-200,000	-0,010	-0,151
-227,971	-4,851	0,107	0,053
-226,957	-200,000	0,013	-0,125
-225,942	-140,705	0,184	0,014
-224,927	-200,000	-0,031	-0,167
-223,913	206,473	-0,058	0,065
-222,898	-200,000	-0,009	0,089
-221,884	53,075	0,062	0,043
-220,869	-7,683	0,070	-0,034
-219,855	-168,148	0,117	0,003
-218,840	53,381	0,033	0,023
-217,825	200,191	0,073	0,081
-216,811	-200,000	0,000	0,086
-215,796	647,016	-0,034	-0,063
-214,782	-200,000	0,005	0,094
-213,767	-162,372	0,070	0,002
-212,752	-200,000	0,021	0,094
-211,738	800,000	-0,026	0,060
-210,723	44,946	-0,110	-0,073
-209,709	239,103	-0,126	-0,151
-208,694	33,976	0,022	0,014
-207,679	792,612	-0,026	-0,053
-206,665	-61,179	-0,067	-0,020
-205,650	-43,679	0,057	-0,021
-204,636	-52,410	-0,086	-0,029
-203,621	273,980	0,069	-0,088
-202,606	-48,667	0,154	0,053
-201,592	696,650	-0,075	-0,142
-200,577	403,513	-0,012	0,019
-199,563	-200,000	0,005	0,031
-198,548	-101,993	-0,061	0,011
-197,533	64,171	0,080	0,058
-196,519	-109,458	-0,040	0,006
-195,504	197,780	0,024	-0,026
-194,490	168,729	0,019	-0,020
-193,475	621,038	0,017	-0,031
-192,460	461,717	0,067	-0,108
-191,446	248,840	0,104	-0,128
-190,431	26,504	0,027	0,017
-189,417	-92,739	0,078	0,016
-188,402	104,829	-0,087	-0,074
-187,387	643,746	-0,004	-0,008
-186,373	257,617	-0,063	0,079
-185,358	800,000	-0,032	0,070
-184,344	-14,786	0,112	0,052
-183,329	800,000	-0,022	0,050
-182,315	6,151	-0,065	0,035
-181,300	-107,117	-0,151	-0,024
-180,285	125,172	-0,052	0,047
-179,271	-200,000	-0,017	-0,139
-178,256	366,551	0,029	0,043
-177,242	-63,958	0,129	-0,038
-176,227	459,402	0,062	0,101
-175,212	800,000	-0,035	-0,095
-174,198	-200,000	-0,007	0,127
-173,183	269,787	-0,012	-0,016
-172,169	98,553	-0,039	-0,033
-171,154	-200,000	0,001	-0,030
-170,139	245,839	0,131	0,160
-169,125	-46,981	-0,097	-0,034
-168,110	-200,000	-0,007	-0,117
-167,096	-13,594	0,121	0,056
-166,081	169,805	-0,073	-0,075
-165,066	155,622	-0,141	-0,140
-164,052	475,061	0,098	-0,161
-163,037	618,651	-0,019	-0,035
-162,023	690,579	-0,039	-0,074
-161,008	672,851	0,022	0,041
-159,993	17,675	-0,107	-0,061
-158,979	-54,049	-0,110	-0,036
-157,964	723,791	-0,045	0,087
-156,950	178,450	0,102	-0,108
-155,935	-200,000	0,011	0,090
-154,920	800,000	0,089	0,205
-153,906	-200,000	-0,017	0,076
-152,891	183,513	0,087	0,093
-151,877	-200,000	0,004	0,058
-150,862	88,557	-0,170	0,136
-149,847	-200,000	-0,055	0,176
-148,833	88,145	-0,019	-0,015
-147,818	18,462	0,110	0,063
-146,804	152,582	0,013	-0,013
-145,789	800,000	-0,033	-0,073
-144,775	45,505	-0,069	0,046
-143,760	-200,000	0,023	0,077
-142,745	157,935	-0,006	-0,006
-141,731	-200,000	0,006	0,074
-140,716	37,962	0,085	0,054
-139,702	528,539	0,035	0,060
-138,687	27,013	-0,065	-0,039
-137,672	58,585	0,095	0,067
-136,658	76,427	-0,048	-0,036
-135,643	210,672	0,089	-0,101
-134,629	55,228	-0,056	-0,039
-133,614	281,491	-0,049	0,064
-132,599	-79,141	0,213	-0,052
-131,585	-142,618	0,036	0,002
-130,570	127,048	-0,042	0,039
-129,556	-92,059	0,126	0,026
-128,541	539,784	-0,052	0,090
-127,526	800,000	0,002	0,007
-126,512	89,231	-0,045	-0,037
-125,497	-200,000	0,010	0,111
-124,483	381,792	0,124	0,185
-123,468	-200,000	0,037	0,127
-122,453	-200,000	0,000	-0,169
-121,439	51,027	-0,069	0,047
-120,424	593,642	0,089	-0,159
-119,410	-192,923	-0,104	-0,001
