DTS Sentinel unit serial number:	SN410029Multiplexer serial number:	ORYXHardware model number:	OX2-SRSoftware version number:	ORYX F/W v4,00 Oryx Data Collector v3.7.2.0data status	okinstallation	B6 Nyhavnadifferential loss correction	single-endedforward channel	channel 2reverse channel	N/Adate	2023/12/10time	20:00:09forward acquisition time	300,00reverse acquisition time	0,00gamma	499,1914k internal	0,3123k external	0,3123temperature offset calibration	1,0000default loss term (dB/km)	0,3820temperature slope calibration	1,0000multiplexer offset coefficient	1,0000multiplexer slope coefficient	1,0000fibre end	0,00T internal ref (°C)	22,31T ext. ref 1 (°C)	5,94T ext. ref 2 (°C)	5,96length (m)	temperature (°C)	Stokes	anti-Stokes-744,400	41,618	0,119	-0,080
-743,385	-143,129	-0,205	0,014
-742,371	-200,000	0,005	-0,178
-741,356	-8,618	-0,173	0,086
-740,342	-92,003	0,239	0,050
-739,327	-149,031	-0,163	0,010
-738,312	25,908	-0,132	-0,082
-737,298	-176,232	-0,290	0,006
-736,283	-168,812	0,085	-0,002
-735,269	-35,628	-0,243	0,098
-734,254	57,542	0,193	-0,140
-733,239	-42,084	-0,354	-0,134
-732,225	-137,922	0,101	0,008
-731,210	63,334	0,042	0,032
-730,196	262,380	-0,060	-0,078
-729,181	-133,650	-0,034	-0,003
-728,167	-200,000	-0,017	0,063
-727,152	-200,000	0,002	-0,129
-726,137	146,440	0,023	0,023
-725,123	551,916	-0,071	0,128
-724,108	350,826	-0,079	-0,117
-723,094	525,689	-0,031	0,055
-722,079	-59,488	-0,154	0,049
-721,064	-125,752	0,127	0,014
-720,050	63,348	-0,116	0,086
-719,035	489,673	-0,082	-0,140
-718,021	-200,000	-0,018	-0,067
-717,006	-130,604	-0,127	0,013
-715,991	626,335	-0,074	-0,140
-714,977	-200,000	-0,001	0,006
-713,962	-200,000	-0,001	-0,063
-712,948	-200,000	-0,001	-0,058
-711,933	-200,000	0,029	0,147
-710,918	-200,000	-0,009	-0,094
-709,904	-200,000	-0,028	-0,115
-708,889	193,623	-0,063	-0,071
-707,875	290,697	-0,092	-0,124
-706,860	-0,697	0,099	-0,052
-705,845	-79,763	0,055	0,014
-704,831	-200,000	0,011	0,041
-703,816	800,000	0,035	0,097
-702,802	115,184	-0,023	0,021
-701,787	800,000	-0,047	0,130
-700,772	-112,630	0,087	-0,013
-699,758	431,203	-0,022	-0,036
-698,743	-16,645	0,090	0,042
-697,729	-125,612	0,140	0,016
-696,714	5,995	-0,039	0,022
-695,699	-200,000	-0,032	-0,239
-694,685	-200,000	-0,016	0,113
-693,670	-200,000	0,003	-0,044
-692,656	-200,000	-0,009	-0,091
-691,641	-200,000	-0,002	0,026
-690,627	142,242	-0,046	0,046
-689,612	-200,000	-0,005	-0,047
-688,597	132,362	0,088	0,084
-687,583	-170,303	-0,175	-0,004
-686,568	-142,207	0,071	-0,005
-685,554	-2,163	0,074	-0,038
-684,539	-200,000	0,006	0,036
-683,524	-200,000	0,011	-0,100
-682,510	454,881	-0,037	0,062
-681,495	-189,584	0,031	0,000
-680,481	9,990	-0,073	0,041
-679,466	-189,879	-0,124	0,001
-678,451	520,387	0,015	0,026
-677,437	-57,185	0,128	0,042
-676,422	499,797	0,059	0,101
-675,408	800,000	0,019	-0,057
-674,393	-59,104	-0,153	-0,049
-673,378	-25,223	0,091	-0,040
-672,364	397,912	-0,024	-0,038
-671,349	194,023	0,079	-0,089
-670,335	-142,794	0,040	0,003
-669,320	-200,000	-0,004	-0,059
-668,305	-200,000	-0,009	0,036
-667,291	-127,767	0,106	-0,011
-666,276	-25,300	0,166	-0,073
-665,262	-200,000	0,003	-0,106
-664,247	-129,255	0,100	-0,010
-663,232	52,720	-0,070	-0,050
-662,218	515,628	-0,039	0,068
-661,203	800,000	-0,024	-0,067
-660,189	55,542	-0,145	0,104
-659,174	-200,000	0,009	-0,075
-658,159	-200,000	-0,008	-0,091
-657,145	-47,790	0,064	0,023
-656,130	305,228	0,084	0,117
-655,116	144,889	0,063	-0,063
-654,101	-4,930	0,097	-0,049
-653,086	103,633	-0,134	0,117
-652,072	177,666	-0,081	-0,088
-651,057	-200,000	-0,014	0,087
-650,043	-113,258	0,036	0,005
-649,028	-143,453	0,092	0,006
-648,014	-200,000	-0,015	0,075
-646,999	-67,021	-0,076	-0,022
-645,984	-200,000	-0,027	0,091
-644,970	11,513	0,059	0,033
-643,955	205,332	-0,122	-0,141
-642,941	-5,491	-0,048	0,024
-641,926	-106,151	0,095	-0,016
-640,911	-184,240	0,013	0,000
-639,897	-200,000	-0,016	-0,055
-638,882	-94,657	-0,185	-0,037
-637,868	800,000	-0,028	0,079
-636,853	209,681	-0,009	0,010
-635,838	200,824	-0,071	-0,081
-634,824	46,320	-0,023	-0,016
-633,809	70,944	0,168	-0,129
-632,795	-200,000	-0,021	-0,103
-631,780	-148,984	0,083	0,005
-630,765	800,000	-0,022	-0,062
-629,751	457,335	-0,069	-0,115
-628,736	-55,284	0,171	0,057
-627,722	15,485	0,048	-0,028
-626,707	-118,068	-0,079	0,010
-625,692	-200,000	-0,002	0,008
-624,678	-17,564	0,112	-0,052
-623,663	-17,407	0,121	-0,056
-622,649	-200,000	0,020	-0,118
-621,634	-200,000	-0,035	0,120
-620,619	-127,144	-0,123	-0,013
-619,605	-187,624	0,138	0,001
-618,590	-200,000	-0,009	0,043
-617,576	188,880	0,039	0,044
-616,561	183,773	0,021	0,023
-615,546	-17,373	0,073	0,034
-614,532	338,710	-0,037	0,054
-613,517	62,094	-0,032	-0,024
-612,503	-168,630	0,119	0,003
-611,488	39,572	0,044	-0,029
-610,474	-53,697	0,123	-0,041
-609,459	323,151	-0,027	-0,039
-608,444	223,681	-0,040	-0,048
-607,430	-129,829	-0,142	-0,014
-606,415	-39,843	-0,066	0,025
-605,401	489,368	-0,040	0,068
-604,386	517,698	0,028	0,048
-603,371	638,772	0,057	0,107
-602,357	-150,452	-0,115	0,006
-601,342	66,175	0,171	-0,128
-600,328	210,440	-0,006	-0,007
-599,313	219,542	-0,106	-0,126
-598,298	-62,455	0,053	0,016
-597,284	800,000	-0,055	-0,116
-596,269	-75,656	-0,068	-0,018
-595,255	-26,222	-0,098	-0,043
-594,240	-149,898	-0,154	0,009
-593,225	-200,000	-0,018	-0,078
-592,211	800,000	0,029	0,094
-591,196	355,626	-0,065	-0,096
-590,182	-144,375	-0,007	-0,000
-589,167	-10,968	0,074	0,036
-588,152	-131,246	0,133	0,013
-587,138	290,220	0,042	-0,057
-586,123	20,565	-0,016	-0,009
-585,109	102,573	0,090	-0,078
-584,094	173,373	-0,142	-0,152
-583,079	229,663	-0,070	0,084
-582,065	-200,000	-0,028	0,210
-581,050	333,752	-0,070	0,101
-580,036	81,101	-0,096	-0,077
-579,021	-35,595	0,044	-0,017
-578,006	85,342	-0,044	-0,036
-576,992	573,640	0,043	0,078
-575,977	800,000	-0,035	-0,085
-574,963	24,578	0,068	-0,042
-573,948	46,334	0,060	-0,041
-572,934	-134,541	-0,115	-0,010
-571,919	-13,822	-0,107	-0,051
-570,904	-122,921	-0,129	-0,015
-569,890	800,000	-0,023	-0,069
-568,875	-85,173	0,095	-0,022
-567,861	246,908	-0,017	-0,021
-566,846	-200,000	0,022	0,144
-565,831	-200,000	0,003	0,111
-564,817	437,926	-0,032	-0,053
-563,802	188,625	0,078	0,086
-562,788	800,000	-0,045	0,115
-561,773	-148,508	0,222	-0,013
-560,758	-200,000	-0,025	-0,102
-559,744	232,961	-0,056	0,068
-558,729	61,706	-0,140	0,103
-557,715	-200,000	-0,016	0,103
-556,700	-162,895	-0,056	0,002
-555,685	97,692	0,074	0,063
-554,671	553,484	0,074	-0,132
-553,656	-200,000	-0,008	-0,130
-552,642	-200,000	0,020	0,087
-551,627	-200,000	-0,007	-0,068
-550,612	-31,461	-0,168	-0,070
-549,598	-103,777	-0,107	0,018
-548,583	64,830	-0,083	0,062
-547,569	278,239	-0,030	0,039
-546,554	423,929	-0,011	0,017
-545,539	35,572	0,038	0,024
-544,525	375,774	-0,060	0,091
-543,510	800,000	-0,034	-0,074
-542,496	-28,069	-0,133	-0,057
-541,481	-200,000	0,003	-0,152
-540,466	141,475	-0,087	0,085
-539,452	-129,345	0,137	-0,014
-538,437	-65,756	-0,098	-0,029
-537,423	301,076	-0,040	0,055
-536,408	18,041	-0,109	-0,064
-535,393	-200,000	-0,003	-0,097
-534,379	800,000	0,015	-0,043
-533,364	800,000	-0,039	-0,108
-532,350	149,306	-0,091	-0,091
-531,335	33,042	0,036	0,023
-530,321	-200,000	-0,004	-0,047
-529,306	78,782	-0,090	-0,071
-528,291	89,292	0,049	-0,040
-527,277	163,838	-0,082	0,086
-526,262	-61,762	-0,090	-0,028
-525,248	18,938	-0,006	0,003
-524,233	368,317	-0,039	-0,059
-523,218	272,374	0,021	0,028
-522,204	-59,255	0,084	0,027
-521,189	-200,000	0,011	-0,195
-520,175	373,967	-0,050	-0,075
-519,160	800,000	-0,075	-0,162
-518,145	-200,000	0,045	-0,164
-517,131	37,546	-0,098	0,064
-516,116	-200,000	-0,005	0,080
-515,102	100,397	-0,012	-0,010
-514,087	195,801	0,042	-0,047
-513,072	-33,445	-0,087	-0,035
-512,058	800,000	0,003	0,007
-511,043	-200,000	-0,015	-0,052
-510,029	-200,000	0,023	0,077
-509,014	-110,093	0,075	0,011
-507,999	-200,000	0,011	0,107
-506,985	-108,201	-0,109	0,017
-505,970	-200,000	0,034	-0,152
-504,956	-34,502	0,054	-0,022
-503,941	-107,709	-0,059	0,009
-502,926	-153,348	0,135	0,007
-501,912	436,719	0,099	0,160
-500,897	-78,914	-0,075	0,019
-499,883	-114,596	0,059	0,008
-498,868	209,347	-0,116	-0,134
-497,853	-200,000	-0,004	-0,106
-496,839	-200,000	0,019	-0,064
-495,824	800,000	0,012	-0,034
-494,810	-102,475	0,024	0,004
-493,795	-200,000	0,016	0,087
-492,781	5,524	-0,064	0,035
-491,766	-200,000	0,004	-0,173
-490,751	800,000	-0,065	-0,183
-489,737	-200,000	-0,021	-0,104
-488,722	-200,000	-0,014	-0,078
-487,708	-168,021	-0,053	-0,001
-486,693	-38,198	0,084	-0,033
-485,678	50,147	-0,081	-0,056
-484,664	-105,886	0,110	-0,018
-483,649	-100,616	-0,143	-0,026
-482,635	-200,000	-0,001	-0,108
-481,620	-200,000	0,017	0,109
-480,605	679,242	0,099	0,191
-479,591	-200,000	-0,003	-0,119
-478,576	-160,048	-0,166	-0,007
-477,562	16,418	-0,047	-0,028
-476,547	-59,595	0,012	-0,004
-475,532	157,036	0,097	0,099
-474,518	-33,314	-0,099	0,040
-473,503	-152,749	0,051	0,003
-472,489	-200,000	0,004	0,046
-471,474	800,000	0,016	0,042
-470,459	-46,782	-0,139	0,050
-469,445	800,000	0,015	0,040
-468,430	800,000	0,053	0,129
-467,416	63,519	0,095	0,070
-466,401	-200,000	-0,001	0,152
-465,386	2,730	-0,093	0,049
-464,372	596,159	0,034	0,063
-463,357	-200,000	-0,007	-0,060
-462,343	-124,568	-0,070	0,008
-461,328	176,190	-0,009	0,009
-460,313	74,728	0,032	-0,025
-459,299	-169,180	-0,053	0,001
-458,284	-200,000	0,001	0,204
-457,270	493,040	-0,095	0,161
-456,255	-200,000	-0,065	0,227
-455,241	800,000	-0,042	-0,112
-454,226	687,583	-0,014	0,027
-453,211	-136,124	-0,048	0,004
-452,197	800,000	0,013	0,028
-451,182	497,484	-0,042	-0,071
-450,168	279,026	0,047	0,062
-449,153	-49,042	0,043	0,015
-448,138	-200,000	0,020	-0,102
-447,124	114,860	0,061	-0,054
-446,109	-28,649	0,074	0,031
-445,095	120,003	0,108	0,099
-444,080	16,767	0,176	0,102
-443,065	-176,031	-0,046	0,001
-442,051	-200,000	0,002	-0,067
-441,036	125,667	-0,035	0,032
-440,022	196,266	-0,079	-0,088
-439,007	141,958	0,198	-0,193
-437,992	39,327	0,136	-0,090
-436,978	-86,271	-0,075	-0,017
-435,963	800,000	0,058	0,122
-434,949	224,804	0,063	0,076
-433,934	206,755	0,076	-0,088
-432,919	499,658	-0,085	-0,145
-431,905	-50,292	-0,060	0,021
-430,890	141,776	-0,052	0,050
-429,876	800,000	0,090	0,228
-428,861	-200,000	-0,025	0,102
-427,846	-97,381	-0,049	0,009
-426,832	800,000	0,011	-0,025
-425,817	158,622	0,071	0,073
-424,803	-200,000	-0,022	0,094
-423,788	800,000	0,004	-0,012
-422,773	-17,671	0,075	-0,035
-421,759	5,160	-0,056	0,030
-420,744	147,419	0,098	0,097
-419,730	149,158	-0,107	-0,107
-418,715	-200,000	0,008	0,049
-417,701	764,966	0,003	-0,006
-416,686	800,000	0,035	0,085
-415,671	800,000	0,013	0,026
-414,657	133,296	-0,170	0,162
-413,642	40,460	0,134	0,089
-412,628	173,684	-0,027	0,029
-411,613	185,929	0,067	-0,074
-410,598	-129,670	-0,144	-0,014
-409,584	85,740	-0,080	-0,065
-408,569	-22,661	0,127	-0,056
-407,555	-4,008	0,058	-0,029
-406,540	111,889	0,009	0,008
-405,525	800,000	-0,038	0,090
-404,511	800,000	-0,038	-0,090
-403,496	-200,000	-0,001	0,044
-402,482	172,911	0,033	0,035
-401,467	-200,000	-0,005	0,017
-400,452	-155,171	0,053	0,003
-399,438	240,752	0,019	-0,023
-398,423	800,000	-0,002	-0,005
-397,409	-200,000	0,013	-0,046
-396,394	-106,023	0,024	-0,004
-395,379	338,144	-0,027	0,039
-394,365	-200,000	0,005	-0,061
-393,350	800,000	-0,023	-0,070
-392,336	-200,000	0,012	0,108
-391,321	800,000	0,026	-0,063
-390,306	-200,000	0,007	-0,052
-389,292	329,665	-0,070	-0,099
-388,277	-87,335	0,058	0,013
-387,263	-200,000	0,006	0,054
-386,248	-200,000	-0,035	0,116
-385,233	133,691	0,084	0,080
-384,219	-200,000	-0,036	0,131
-383,204	-200,000	-0,035	-0,163
-382,190	83,687	-0,124	-0,100
-381,175	542,649	-0,015	-0,026
-380,160	-200,000	-0,005	0,068
-379,146	253,470	0,020	0,025
-378,131	-187,228	0,075	-0,001
-377,117	-100,262	0,009	0,002
-376,102	-97,223	0,047	0,009
-375,088	-200,000	-0,001	0,014
-374,073	-99,739	0,091	0,017
-373,058	-47,446	0,077	0,027
-372,044	-66,522	0,076	-0,022
-371,029	38,516	-0,100	0,065
-370,015	800,000	0,031	0,066
-369,000	800,000	-0,010	0,023
-367,985	-127,917	-0,102	0,011
-366,971	95,241	-0,051	-0,043
-365,956	-55,748	-0,046	0,015
-364,942	-75,247	0,132	0,034
-363,927	800,000	-0,034	0,107
-362,912	-200,000	0,025	-0,086
-361,898	-14,154	-0,181	-0,085
-360,883	149,964	0,018	-0,018
-359,869	-83,630	-0,119	0,028
-358,854	-200,000	0,012	-0,126
-357,839	-200,000	-0,012	0,043
-356,825	-78,422	-0,051	-0,013
-355,810	-200,000	-0,018	0,089
-354,796	800,000	-0,012	-0,035
-353,781	800,000	-0,029	-0,065
-352,766	-200,000	-0,024	-0,105
-351,752	104,008	0,118	0,102
-350,737	-11,178	0,097	-0,047
-349,723	-117,642	0,123	-0,016
-348,708	800,000	-0,016	-0,051
-347,693	240,807	-0,026	0,031
-346,679	800,000	-0,090	-0,200
-345,664	310,285	0,043	0,059
-344,650	143,119	0,026	-0,025
-343,635	153,002	0,031	-0,031
-342,620	70,121	0,081	-0,061
-341,606	-140,244	0,065	-0,005
-340,591	-9,294	-0,060	-0,029
-339,577	55,818	-0,073	-0,052
-338,562	-54,029	0,120	-0,040
-337,548	225,129	-0,048	0,057
-336,533	158,869	-0,083	0,085
-335,518	330,508	0,045	0,064
-334,504	76,843	0,046	0,036
-333,489	44,222	0,024	0,016
-332,475	170,230	-0,055	-0,058
-331,460	-200,000	0,001	-0,016
-330,445	-200,000	0,008	0,033
-329,431	-200,000	-0,016	0,053
-328,416	312,168	0,065	-0,090
-327,402	-200,000	0,009	0,041
-326,387	20,367	0,060	0,036
-325,372	322,961	0,069	-0,096
-324,358	-48,470	-0,141	0,049
-323,343	-93,375	-0,049	0,010
-322,329	800,000	-0,019	-0,055
-321,314	364,770	-0,025	0,037
-320,299	-200,000	-0,000	0,060
-319,285	-200,000	-0,027	-0,091
-318,270	219,211	-0,022	-0,026
-317,256	-100,316	-0,150	-0,027
-316,241	-35,344	-0,165	-0,065
-315,226	606,090	0,055	0,102
-314,212	55,708	0,032	0,023
-313,197	53,216	0,065	-0,046
-312,183	-164,436	-0,094	-0,003
-311,168	800,000	0,056	-0,131
-310,153	-15,196	0,009	0,004
-309,139	279,022	-0,015	-0,020
-308,124	-200,000	-0,007	-0,048
-307,110	215,464	0,080	0,094
-306,095	25,909	0,066	-0,040
-305,080	57,073	0,143	-0,102
-304,066	-39,063	-0,130	-0,050
-303,051	147,233	0,072	-0,071
-302,037	-55,108	-0,220	0,072
-301,022	-15,467	0,074	0,034
-300,008	181,829	0,060	0,065
-298,993	-200,000	0,017	0,238
-297,978	-59,039	0,120	-0,038
-296,964	-47,350	0,071	-0,025
-295,949	155,219	-0,032	0,032
-294,935	342,505	-0,072	-0,103
-293,920	-62,274	-0,056	0,017
-292,905	800,000	-0,104	0,280
-291,891	-137,406	0,072	0,006
-290,876	-4,797	0,047	0,023
-289,862	-200,000	-0,008	-0,073
-288,847	-129,966	0,124	-0,012
-287,832	800,000	0,064	-0,171
-286,818	74,439	-0,168	0,129
-285,803	-26,356	-0,013	0,006
-284,789	-200,000	-0,017	0,063
-283,774	-188,991	0,043	0,000
-282,759	170,190	0,010	0,011
-281,745	-200,000	-0,008	0,033
-280,730	365,032	-0,033	-0,048
-279,716	-67,073	0,108	0,031
-278,701	151,511	-0,082	-0,081
-277,686	98,360	0,091	0,077
-276,672	800,000	0,022	-0,056
-275,657	-98,954	-0,047	0,009
-274,643	567,597	0,009	0,017
-273,628	800,000	-0,022	0,051
-272,613	-160,857	0,077	0,003
-271,599	-200,000	-0,038	0,223
-270,584	485,224	0,050	0,084
-269,570	119,004	-0,073	0,066
-268,555	-124,771	0,080	0,009
-267,540	800,000	0,044	0,109
-266,526	-200,000	0,020	0,078
-265,511	-200,000	-0,052	-0,000
-264,497	548,865	0,051	0,089
-263,482	227,830	-0,036	0,042
-262,467	-200,000	0,026	-0,106
-261,453	-200,000	-0,045	-0,177
-260,438	-91,134	0,165	0,034
-259,424	197,373	0,048	-0,054
-258,409	210,831	-0,101	-0,117
-257,395	255,269	0,012	-0,015
-256,380	-44,675	0,039	-0,014
-255,365	-144,049	0,124	0,008
-254,351	-33,636	0,073	-0,029
-253,336	39,224	0,023	-0,015
-252,322	175,453	0,063	0,067
-251,307	-43,305	0,092	-0,034
-250,292	380,596	0,070	-0,105
-249,278	1,100	-0,064	-0,034
-248,263	-113,205	0,074	0,011
-247,249	-9,442	0,075	-0,036
-246,234	124,750	-0,133	0,122
-245,219	-125,953	0,057	0,006
-244,205	-75,424	-0,071	0,018
-243,190	800,000	-0,039	-0,083
-242,176	168,073	0,153	0,160
-241,161	-115,060	-0,156	-0,021
-240,146	-53,485	0,146	0,049
-239,132	-200,000	-0,010	0,109
-238,117	800,000	-0,055	-0,120
-237,103	64,195	0,044	0,033
-236,088	150,993	0,035	-0,035
-235,073	36,562	-0,031	0,020
-234,059	349,926	-0,031	-0,045
-233,044	800,000	-0,078	0,170
-232,030	-134,044	-0,143	0,013
-231,015	-200,000	0,002	-0,062
-230,000	152,748	-0,102	-0,102
-228,986	232,546	0,039	0,046
-227,971	-121,710	0,012	-0,001
-226,957	800,000	-0,026	0,074
-225,942	23,664	0,081	-0,049
-224,927	-200,000	-0,003	0,023
-223,913	-200,000	0,022	-0,079
-222,898	-83,862	-0,117	0,027
-221,884	-200,000	-0,006	-0,068
-220,869	-128,391	0,177	0,018
-219,855	203,301	0,032	-0,037
-218,840	-14,852	0,098	-0,046
-217,825	514,863	-0,018	-0,032
-216,811	-15,536	0,072	0,033
-215,796	167,583	0,045	-0,047
-214,782	5,928	-0,042	-0,023
-213,767	-200,000	0,005	0,022
-212,752	80,595	0,111	0,087
-211,738	-200,000	-0,007	-0,029
-210,723	-200,000	-0,013	0,041
-209,709	800,000	0,039	-0,093
-208,694	800,000	-0,067	-0,173
-207,679	-11,716	-0,070	0,033
-206,665	-200,000	0,013	0,103
-205,650	164,817	0,072	0,074
-204,636	-92,255	-0,085	0,017
-203,621	-43,366	-0,097	0,036
-202,606	172,295	-0,040	-0,042
-201,592	-118,754	-0,124	0,016
-200,577	-200,000	0,017	-0,161
-199,563	176,722	-0,039	-0,041
-198,548	125,441	0,089	0,082
-197,533	155,483	0,123	-0,124
-196,519	-200,000	-0,027	0,120
-195,504	-200,000	0,012	0,113
-194,490	-25,119	-0,110	0,048
-193,475	-88,002	-0,087	0,019
-192,460	126,489	0,056	0,052
-191,446	-30,961	0,085	0,035
-190,431	19,929	0,099	0,058
-189,417	187,263	0,015	-0,016
-188,402	800,000	-0,029	0,068
-187,387	-200,000	0,000	-0,099
-186,373	-16,719	-0,029	-0,013
-185,358	-200,000	0,011	-0,097
-184,344	14,001	0,094	0,053
-183,329	766,264	-0,044	-0,088
-182,315	-14,235	0,084	0,039
-181,300	-200,000	0,007	0,078
-180,285	-200,000	0,022	-0,110
-179,271	800,000	0,015	0,042
-178,256	22,685	0,047	-0,028
-177,242	800,000	0,003	0,010
-176,227	263,298	-0,032	0,041
-175,212	766,653	0,044	-0,087
-174,198	445,825	0,016	0,025
-173,183	89,709	-0,086	0,070
-172,169	77,909	0,096	0,074
-171,154	-20,519	-0,066	0,030
-170,139	304,526	0,097	0,132
-169,125	-53,636	0,102	-0,034
-168,110	103,064	-0,091	0,078
-167,096	2,492	0,216	0,114
-166,081	-10,824	-0,077	-0,037
-165,066	345,882	-0,061	-0,088
-164,052	635,200	0,047	-0,087
-163,037	-200,000	0,023	0,078
-162,023	460,224	0,116	0,188
-161,008	-17,672	-0,012	0,006
-159,993	190,347	0,013	-0,014
-158,979	157,735	-0,057	-0,057
-157,964	-200,000	-0,003	-0,089
-156,950	-76,606	0,045	0,011
-155,935	-116,198	-0,025	0,003
-154,920	-26,677	0,030	-0,013
-153,906	42,433	0,055	0,037
-152,891	800,000	-0,028	0,073
-151,877	-147,176	-0,066	-0,004
-150,862	631,231	-0,045	-0,083
-149,847	684,641	0,024	0,046
-148,833	214,513	-0,112	0,129
-147,818	7,779	-0,105	-0,057
-146,804	-159,451	0,143	-0,006
-145,789	-59,952	-0,127	0,039
-144,775	800,000	-0,100	-0,226
-143,760	-200,000	0,003	-0,088
-142,745	-200,000	-0,009	-0,204
-141,731	-26,634	0,071	-0,030
-140,716	800,000	0,019	0,040
-139,702	581,121	0,018	0,033
-138,687	800,000	0,035	0,094
-137,672	-66,210	0,081	0,023
-136,658	800,000	-0,090	-0,266
-135,643	-143,597	-0,053	0,004
-134,629	-200,000	-0,005	0,031
-133,614	43,873	0,074	0,049
-132,599	105,744	0,019	-0,016
-131,585	800,000	0,011	0,029
-130,570	-111,678	0,142	-0,021
-129,556	-200,000	-0,016	0,119
-128,541	-143,046	0,114	0,008
-127,526	211,180	-0,063	-0,072
-126,512	-37,517	0,049	-0,019
-125,497	64,752	0,116	-0,085
-124,483	-39,226	0,076	-0,029
-123,468	-83,837	0,073	-0,017
-122,453	-71,696	-0,032	0,009
-121,439	-200,000	-0,022	0,074
-120,424	-200,000	-0,011	0,038
