DTS Sentinel unit serial number:	SN410029Multiplexer serial number:	ORYXHardware model number:	OX2-SRSoftware version number:	ORYX F/W v4,00 Oryx Data Collector v3.7.2.0data status	okinstallation	B6 Nyhavnadifferential loss correction	single-endedforward channel	channel 2reverse channel	N/Adate	2023/12/11time	04:00:08forward acquisition time	300,00reverse acquisition time	0,00gamma	499,1914k internal	0,3125k external	0,3125temperature offset calibration	1,0000default loss term (dB/km)	0,3820temperature slope calibration	1,0000multiplexer offset coefficient	1,0000multiplexer slope coefficient	1,0000fibre end	0,00T internal ref (°C)	20,84T ext. ref 1 (°C)	3,60T ext. ref 2 (°C)	3,61length (m)	temperature (°C)	Stokes	anti-Stokes-744,400	-200,000	0,014	-0,073
-743,385	-186,564	-0,277	-0,003
-742,371	-200,000	-0,006	-0,027
-741,356	-96,346	-0,172	-0,034
-740,342	800,000	0,054	-0,174
-739,327	-9,632	-0,240	0,119
-738,312	-200,000	0,033	-0,152
-737,298	-37,692	-0,266	0,105
-736,283	26,604	0,073	0,045
-735,269	-82,650	-0,313	0,075
-734,254	101,840	0,097	0,084
-733,239	-70,066	-0,580	-0,163
-732,225	-141,792	0,201	0,015
-731,210	8,017	-0,063	-0,035
-730,196	-17,865	0,114	-0,053
-729,181	170,013	-0,095	-0,101
-728,167	18,495	-0,014	0,008
-727,152	269,311	-0,016	0,021
-726,137	134,956	-0,072	-0,070
-725,123	438,095	-0,004	0,007
-724,108	-123,980	-0,089	0,010
-723,094	-26,671	-0,064	-0,028
-722,079	-126,430	0,144	-0,016
-721,064	52,530	-0,113	0,080
-720,050	-200,000	-0,003	0,101
-719,035	-84,118	-0,087	0,020
-718,021	-102,204	-0,147	-0,026
-717,006	-148,227	-0,112	0,007
-715,991	40,759	-0,173	-0,116
-714,977	800,000	-0,035	-0,101
-713,962	-200,000	0,028	0,126
-712,948	-200,000	0,000	-0,049
-711,933	532,908	-0,026	-0,046
-710,918	70,507	-0,087	0,067
-709,904	800,000	-0,035	-0,082
-708,889	-200,000	-0,018	-0,112
-707,875	-200,000	-0,012	-0,152
-706,860	81,150	0,012	-0,010
-705,845	-200,000	0,032	0,185
-704,831	-200,000	-0,016	0,054
-703,816	-157,874	-0,040	-0,002
-702,802	-60,129	-0,086	0,027
-701,787	51,295	0,121	-0,085
-700,772	-14,602	-0,077	-0,037
-699,758	-200,000	0,009	-0,030
-698,743	73,480	-0,056	0,044
-697,729	-120,242	-0,075	0,009
-696,714	-39,474	0,099	0,038
-695,699	445,238	-0,017	0,028
-694,685	622,741	0,053	-0,100
-693,670	-99,924	-0,026	-0,005
-692,656	-153,452	0,059	0,003
-691,641	800,000	-0,047	-0,124
-690,627	-115,645	-0,084	0,012
-689,612	-25,387	0,064	-0,028
-688,597	105,958	0,164	0,144
-687,583	40,292	-0,052	0,035
-686,568	86,981	-0,089	0,073
-685,554	-159,698	-0,099	0,004
-684,539	-16,841	0,105	-0,049
-683,524	-118,397	-0,082	0,011
-682,510	-200,000	-0,008	0,199
-681,495	-18,501	-0,025	-0,012
-680,481	-97,551	-0,136	-0,026
-679,466	-200,000	-0,008	-0,073
-678,451	385,149	0,095	0,146
-677,437	-200,000	-0,000	0,006
-676,422	52,965	0,102	0,073
-675,408	39,423	-0,086	0,057
-674,393	243,793	-0,066	-0,082
-673,378	10,873	-0,063	-0,035
-672,364	-200,000	-0,012	0,041
-671,349	435,877	-0,057	-0,093
-670,335	-200,000	-0,001	-0,112
-669,320	23,626	0,061	-0,037
-668,305	-89,921	-0,170	0,037
-667,291	145,401	-0,071	0,070
-666,276	-200,000	0,012	0,069
-665,262	331,630	-0,037	-0,054
-664,247	7,274	0,080	-0,044
-663,232	-200,000	-0,000	0,020
-662,218	537,638	-0,026	0,045
-661,203	59,072	0,086	-0,063
-660,189	-102,543	-0,086	-0,015
-659,174	-41,920	-0,117	0,044
-658,159	-200,000	-0,005	-0,019
-657,145	527,518	0,058	-0,101
-656,130	-64,207	0,119	-0,036
-655,116	-200,000	-0,013	0,101
-654,101	77,247	0,118	0,093
-653,086	166,094	-0,079	-0,083
-652,072	800,000	0,036	0,085
-651,057	364,244	-0,037	0,056
-650,043	398,346	-0,045	0,070
-649,028	194,511	0,045	-0,051
-648,014	-200,000	0,021	0,131
-646,999	50,445	0,063	-0,044
-645,984	79,252	0,059	-0,047
-644,970	-200,000	0,013	-0,197
-643,955	-55,143	-0,148	0,049
-642,941	30,307	0,032	0,020
-641,926	-200,000	0,006	0,029
-640,911	347,699	0,042	-0,061
-639,897	-200,000	0,004	0,060
-638,882	-96,924	0,122	0,024
-637,868	-193,718	-0,043	-0,000
-636,853	-135,498	-0,065	0,006
-635,838	-55,186	-0,023	0,008
-634,824	228,607	0,034	-0,042
-633,809	472,896	-0,067	-0,112
-632,795	-200,000	-0,020	0,145
-631,780	-76,562	0,144	0,037
-630,765	-200,000	0,003	-0,024
-629,751	-200,000	-0,012	0,067
-628,736	-200,000	-0,079	-0,000
-627,722	65,502	0,128	0,096
-626,707	-200,000	0,017	0,109
-625,692	-126,356	0,068	0,007
-624,678	35,999	-0,016	-0,010
-623,663	17,890	0,054	-0,032
-622,649	-200,000	0,020	-0,160
-621,634	338,499	-0,064	-0,093
-620,619	-68,609	0,053	0,015
-619,605	-184,870	-0,137	0,002
-618,590	-109,342	0,112	0,017
-617,576	102,908	0,142	0,123
-616,561	147,064	-0,045	-0,045
-615,546	-160,202	0,125	0,005
-614,532	-64,119	-0,049	0,015
-613,517	-133,106	-0,117	-0,011
-612,503	169,017	0,054	0,057
-611,488	17,135	0,058	-0,034
-610,474	800,000	-0,015	-0,033
-609,459	-88,913	0,088	-0,019
-608,444	176,964	-0,064	0,069
-607,430	-37,317	0,062	-0,024
-606,415	-200,000	-0,006	-0,084
-605,401	550,214	0,016	-0,029
-604,386	-24,226	0,053	0,023
-603,371	30,791	0,042	0,027
-602,357	-200,000	-0,026	-0,114
-601,342	-91,906	0,139	-0,029
-600,328	127,608	0,017	0,016
-599,313	-200,000	0,006	-0,091
-598,298	771,380	0,075	-0,152
-597,284	-200,000	-0,043	-0,165
-596,269	-23,634	0,033	-0,015
-595,255	-200,000	0,007	0,122
-594,240	-71,450	-0,088	-0,024
-593,225	154,532	0,069	-0,070
-592,211	144,466	-0,081	-0,080
-591,196	-79,015	0,126	-0,031
-590,182	137,160	0,037	-0,036
-589,167	-200,000	-0,007	0,061
-588,152	800,000	-0,037	0,112
-587,138	-54,532	-0,041	0,014
-586,123	-189,885	0,016	-0,000
-585,109	-200,000	-0,019	-0,102
-584,094	-74,170	0,104	0,028
-583,079	704,632	0,024	0,048
-582,065	-55,719	0,045	0,015
-581,050	-107,640	-0,064	-0,010
-580,036	-15,938	0,111	0,052
-579,021	185,746	-0,033	-0,036
-578,006	-24,492	-0,094	-0,041
-576,992	-200,000	0,019	-0,104
-575,977	-133,865	-0,108	0,010
-574,963	-106,880	0,151	-0,025
-573,948	74,482	-0,032	0,025
-572,934	126,993	0,021	-0,019
-571,919	-176,603	-0,094	-0,002
-570,904	-91,771	-0,042	-0,009
-569,890	101,411	-0,070	-0,060
-568,875	-158,246	0,072	-0,003
-567,861	350,886	-0,024	-0,035
-566,846	541,855	-0,038	-0,067
-565,831	-78,688	-0,058	-0,014
-564,817	-200,000	-0,022	-0,084
-563,802	-29,464	0,127	0,054
-562,788	-21,415	-0,071	-0,032
-561,773	-200,000	-0,018	0,089
-560,758	800,000	0,046	-0,094
-559,744	-200,000	-0,017	-0,130
-558,729	-138,710	0,013	-0,001
-557,715	-200,000	0,017	-0,118
-556,700	346,421	0,047	0,069
-555,685	352,097	-0,044	0,064
-554,671	800,000	0,035	-0,099
-553,656	288,211	0,043	-0,058
-552,642	98,267	-0,046	0,039
-551,627	275,878	-0,026	0,034
-550,612	-26,384	-0,036	0,016
-549,598	180,092	-0,142	-0,154
-548,583	-200,000	0,011	-0,042
-547,569	800,000	-0,045	-0,123
-546,554	-58,271	0,063	-0,020
-545,539	-200,000	0,037	0,153
-544,525	-103,721	-0,059	0,010
-543,510	53,881	-0,059	-0,042
-542,496	218,521	0,081	-0,096
-541,481	526,775	-0,019	-0,033
-540,466	-200,000	0,039	-0,135
-539,452	627,728	0,040	0,074
-538,437	-10,174	0,189	0,092
-537,423	800,000	0,040	0,091
-536,408	132,750	-0,022	0,021
-535,393	-14,718	-0,158	0,074
-534,379	-77,577	-0,104	-0,026
-533,364	-34,868	0,161	-0,065
-532,350	3,664	0,097	0,052
-531,335	-49,662	-0,148	-0,052
-530,321	-200,000	0,128	0,000
-529,306	103,169	-0,155	-0,134
-528,291	-81,713	-0,127	-0,031
-527,277	-89,401	-0,001	0,000
-526,262	-200,000	0,018	-0,090
-525,248	-150,727	0,062	0,003
-524,233	234,646	-0,075	-0,091
-523,218	10,654	-0,079	-0,044
-522,204	-185,016	-0,072	0,001
-521,189	-10,791	-0,094	-0,046
-520,175	-200,000	0,020	-0,164
-519,160	800,000	0,056	0,157
-518,145	191,904	-0,055	0,062
-517,131	330,109	0,085	0,121
-516,116	-200,000	-0,022	0,096
-515,102	-114,862	0,046	0,006
-514,087	-200,000	-0,019	-0,081
-513,072	342,898	0,051	0,074
-512,058	57,275	-0,138	0,100
-511,043	200,815	-0,039	0,045
-510,029	-200,000	-0,007	0,036
-509,014	35,854	0,112	0,072
-507,999	-200,000	-0,005	-0,062
-506,985	125,628	-0,054	-0,050
-505,970	135,663	-0,073	-0,070
-504,956	275,169	0,076	-0,100
-503,941	-91,994	0,078	-0,016
-502,926	-122,487	0,129	-0,015
-501,912	-107,681	0,037	-0,006
-500,897	-200,000	-0,006	0,031
-499,883	-46,669	0,033	-0,012
-498,868	264,938	0,038	-0,048
-497,853	38,097	-0,161	-0,106
-496,839	-120,703	0,158	-0,019
-495,824	167,640	0,055	0,058
-494,810	-200,000	0,011	0,128
-493,795	-14,231	-0,053	0,025
-492,781	-200,000	-0,013	-0,095
-491,766	-200,000	-0,012	0,189
-490,751	-200,000	-0,019	0,089
-489,737	-200,000	-0,013	-0,056
-488,722	-34,451	0,116	-0,047
-487,708	510,497	0,050	0,086
-486,693	-2,029	-0,061	0,031
-485,678	535,736	0,030	0,054
-484,664	800,000	0,011	0,025
-483,649	-200,000	-0,015	-0,054
-482,635	-13,831	-0,083	-0,040
-481,620	-200,000	0,027	0,118
-480,605	107,877	0,051	0,045
-479,591	67,369	-0,049	0,037
-478,576	269,141	-0,034	-0,044
-477,562	217,026	-0,103	-0,121
-476,547	800,000	0,027	-0,058
-475,532	-31,655	-0,086	-0,035
-474,518	800,000	0,071	0,165
-473,503	-60,338	-0,033	-0,010
-472,489	-85,080	-0,042	-0,010
-471,474	800,000	-0,065	0,141
-470,459	184,451	0,060	0,066
-469,445	70,376	-0,106	0,081
-468,430	76,001	-0,049	0,039
-467,416	-50,242	0,171	-0,059
-466,401	81,536	0,092	0,074
-465,386	-200,000	-0,008	-0,033
-464,372	-35,323	-0,146	0,058
-463,357	800,000	-0,060	0,133
-462,343	171,315	-0,091	-0,096
-461,328	-200,000	0,013	-0,055
-460,313	12,908	0,086	0,049
-459,299	72,036	-0,076	0,058
-458,284	-200,000	-0,006	0,063
-457,270	-200,000	0,013	0,086
-456,255	336,837	0,009	-0,012
-455,241	75,028	0,101	-0,079
-454,226	-136,077	-0,109	0,009
-453,211	800,000	0,041	0,119
-452,197	258,667	0,066	0,084
-451,182	-82,303	0,143	0,034
-450,168	-200,000	0,025	0,090
-449,153	171,099	-0,034	0,035
-448,138	-200,000	0,018	-0,066
-447,124	-98,729	-0,036	-0,007
-446,109	70,433	-0,015	0,012
-445,095	-32,464	0,113	-0,046
-444,080	153,792	0,059	-0,059
-443,065	800,000	-0,032	0,092
-442,051	97,944	-0,128	-0,109
-441,036	800,000	-0,076	-0,168
-440,022	234,749	0,086	-0,105
-439,007	55,613	-0,089	0,063
-437,992	588,692	0,089	0,163
-436,978	29,475	-0,086	0,054
-435,963	-37,672	0,078	-0,031
-434,949	-4,457	-0,062	-0,031
-433,934	-128,280	-0,043	0,004
-432,919	-108,987	-0,072	-0,011
-431,905	800,000	-0,061	-0,141
-430,890	-90,785	-0,057	-0,012
-429,876	800,000	0,021	0,046
-428,861	-200,000	-0,006	0,083
-427,846	-200,000	-0,006	-0,145
-426,832	800,000	0,082	-0,182
-425,817	-200,000	0,025	-0,118
-424,803	-200,000	-0,001	-0,046
-423,788	-200,000	0,023	0,137
-422,773	-151,693	-0,226	0,012
-421,759	40,437	0,066	-0,044
-420,744	-200,000	-0,017	0,089
-419,730	-76,870	-0,044	-0,011
-418,715	13,697	-0,173	-0,099
-417,701	634,681	-0,040	-0,075
-416,686	-200,000	0,013	0,126
-415,671	-200,000	0,011	0,048
-414,657	41,462	0,047	-0,031
-413,642	-200,000	0,005	0,037
-412,628	-200,000	-0,034	-0,114
-411,613	-200,000	-0,026	-0,135
-410,598	562,405	0,027	0,048
-409,584	100,516	0,053	0,045
-408,569	-81,116	0,098	0,024
-407,555	800,000	0,068	0,157
-406,540	800,000	-0,020	0,041
-405,525	-72,228	-0,066	0,018
-404,511	-116,867	0,041	0,005
-403,496	222,756	-0,015	0,018
-402,482	32,272	0,085	-0,054
-401,467	-21,206	0,016	-0,007
-400,452	-2,251	-0,100	-0,051
-399,438	413,390	-0,053	0,083
-398,423	279,422	-0,024	-0,031
-397,409	-200,000	0,005	-0,111
-396,394	288,021	0,035	-0,047
-395,379	800,000	-0,051	-0,138
-394,365	-81,233	-0,057	0,014
-393,350	41,165	0,077	-0,051
-392,336	800,000	-0,039	0,122
-391,321	-97,362	-0,011	-0,002
-390,306	110,499	-0,063	0,056
-389,292	-200,000	-0,045	-0,162
-388,277	800,000	-0,068	-0,183
-387,263	641,231	0,062	0,117
-386,248	-200,000	0,041	0,185
-385,233	-200,000	0,027	0,092
-384,219	215,386	-0,115	0,135
-383,204	-200,000	-0,018	0,126
-382,190	-200,000	-0,003	-0,043
-381,175	137,268	-0,124	-0,119
-380,160	-95,738	0,075	0,015
-379,146	-200,000	-0,038	0,143
-378,131	35,169	0,069	-0,045
-377,117	-60,034	0,045	0,014
-376,102	-200,000	0,003	0,018
-375,088	-78,999	0,157	0,039
-374,073	17,407	-0,075	0,044
-373,058	-200,000	0,009	0,081
-372,044	225,275	-0,036	0,042
-371,029	-54,208	0,108	-0,036
-370,015	800,000	0,043	0,137
-369,000	-200,000	0,001	0,111
-367,985	540,976	-0,106	-0,186
-366,971	-200,000	-0,003	-0,053
-365,956	-146,515	-0,045	-0,003
-364,942	186,031	-0,051	-0,056
-363,927	128,155	-0,089	0,083
-362,912	-179,447	-0,042	-0,001
-361,898	-200,000	-0,020	-0,081
-360,883	800,000	0,004	0,009
-359,869	-31,436	0,019	0,008
-358,854	179,803	0,055	0,059
-357,839	800,000	-0,013	0,037
-356,825	-82,954	0,105	-0,025
-355,810	-27,973	-0,080	0,034
-354,796	416,762	-0,037	0,059
-353,781	491,727	0,014	-0,023
-352,766	-44,050	-0,072	-0,026
-351,752	-17,270	-0,027	0,012
-350,737	-102,555	0,148	-0,026
-349,723	74,664	0,085	0,065
-348,708	-121,376	-0,073	-0,009
-347,693	250,696	-0,113	0,141
-346,679	800,000	-0,032	-0,066
-345,664	800,000	0,016	-0,044
-344,650	-84,188	-0,097	-0,022
-343,635	134,978	0,027	-0,026
-342,620	-200,000	-0,003	0,020
-341,606	125,434	0,033	0,030
-340,591	-200,000	-0,005	0,128
-339,577	-200,000	-0,031	0,148
-338,562	-200,000	-0,019	0,147
-337,548	-115,621	0,131	-0,018
-336,533	-126,295	-0,043	0,005
-335,518	29,479	-0,150	0,093
-334,504	-200,000	0,003	0,048
-333,489	-121,753	-0,035	-0,004
-332,475	800,000	-0,036	-0,092
-331,460	65,962	0,088	0,065
-330,445	-200,000	-0,011	0,036
-329,431	355,707	0,109	0,159
-328,416	91,174	0,084	0,069
-327,402	-82,716	-0,153	-0,036
-326,387	436,134	-0,052	-0,083
-325,372	800,000	0,024	-0,059
-324,358	-136,093	-0,075	0,006
-323,343	8,019	0,080	0,044
-322,329	534,079	-0,005	-0,008
-321,314	105,638	0,080	-0,069
-320,299	-135,465	0,058	-0,005
-319,285	-162,656	-0,069	-0,002
-318,270	173,992	-0,069	-0,073
-317,256	19,591	-0,108	-0,063
-316,241	-200,000	0,006	-0,028
-315,226	-200,000	0,014	0,110
-314,212	-111,611	0,075	0,011
-313,197	-63,476	0,041	0,012
-312,183	-166,207	-0,099	0,003
-311,168	-200,000	0,008	-0,061
-310,153	187,938	0,024	0,026
-309,139	9,557	-0,108	-0,060
-308,124	55,586	0,111	-0,078
-307,110	139,521	0,166	0,160
-306,095	258,704	0,016	0,021
-305,080	-69,090	0,053	-0,015
-304,066	-38,218	-0,038	0,015
-303,051	-200,000	0,003	-0,041
-302,037	800,000	0,042	0,116
-301,022	-200,000	-0,001	-0,171
-300,008	-78,413	-0,012	-0,003
-298,993	13,069	-0,098	-0,055
-297,978	-200,000	-0,005	0,036
-296,964	800,000	0,006	-0,018
-295,949	-38,675	0,068	-0,026
-294,935	34,114	-0,089	0,056
-293,920	148,410	0,104	-0,103
-292,905	-200,000	-0,002	0,009
-291,891	-100,374	0,059	0,011
-290,876	67,433	-0,134	-0,100
-289,862	63,193	0,077	-0,056
-288,847	376,075	-0,034	0,050
-287,832	172,601	0,013	-0,013
-286,818	267,510	-0,062	0,080
-285,803	274,155	0,022	-0,029
-284,789	-200,000	-0,003	0,157
-283,774	800,000	-0,039	0,101
-282,759	401,538	0,014	-0,021
-281,745	-96,393	-0,008	0,001
-280,730	-200,000	0,012	-0,135
-279,716	68,394	-0,017	-0,013
-278,701	-200,000	0,010	0,067
-277,686	-110,841	0,043	-0,006
-276,672	-200,000	0,002	-0,098
-275,657	169,162	0,063	0,066
-274,643	110,413	-0,075	-0,066
-273,628	98,709	-0,132	-0,111
-272,613	-31,843	0,129	-0,053
-271,599	237,110	0,010	-0,012
-270,584	364,112	0,018	0,026
-269,570	-173,287	0,123	0,003
-268,555	353,593	-0,068	0,099
-267,540	-68,600	-0,078	0,022
-266,526	211,962	-0,070	-0,081
-265,511	800,000	0,024	-0,070
-264,497	-200,000	-0,005	0,063
-263,482	158,710	-0,121	-0,123
-262,467	-133,040	0,053	0,005
-261,453	7,649	-0,022	-0,012
-260,438	-200,000	0,024	-0,081
-259,424	-200,000	0,009	-0,135
-258,409	-130,027	-0,062	-0,006
-257,395	-200,000	-0,010	0,070
-256,380	-4,718	0,065	0,033
-255,365	361,180	-0,012	-0,018
-254,351	800,000	0,030	-0,094
-253,336	-74,740	0,144	-0,037
-252,322	163,488	0,077	-0,079
-251,307	-142,976	-0,084	-0,006
-250,292	800,000	-0,033	-0,106
-249,278	-178,566	0,014	-0,000
-248,263	90,821	0,041	0,034
-247,249	163,788	0,107	0,110
-246,234	-200,000	0,037	-0,150
-245,219	239,986	-0,040	-0,049
-244,205	-200,000	0,013	-0,043
-243,190	-200,000	0,012	0,106
-242,176	72,930	0,044	0,033
-241,161	-200,000	0,011	0,086
-240,146	-39,995	-0,117	0,044
-239,132	800,000	0,037	0,082
-238,117	42,491	0,094	-0,062
-237,103	-122,726	0,097	-0,011
-236,088	-200,000	-0,025	-0,193
-235,073	-139,550	0,149	0,011
-234,059	59,060	0,036	0,026
-233,044	529,127	0,064	-0,111
-232,030	-33,253	-0,065	-0,026
-231,015	-73,660	-0,051	-0,014
-230,000	800,000	0,033	-0,072
-228,986	-142,983	0,074	0,005
-227,971	386,577	0,077	0,116
-226,957	418,977	0,033	-0,051
-225,942	-97,657	0,160	-0,030
-224,927	-181,234	-0,216	-0,003
-223,913	-126,435	0,055	-0,006
-222,898	-13,038	-0,141	-0,067
-221,884	-200,000	0,009	-0,099
-220,869	52,013	-0,010	-0,007
-219,855	800,000	-0,047	0,128
-218,840	-119,974	0,095	0,012
-217,825	-1,238	0,042	-0,021
-216,811	232,132	-0,125	-0,151
-215,796	-200,000	-0,003	-0,019
-214,782	160,007	-0,086	-0,088
-213,767	-200,000	0,009	0,156
-212,752	-200,000	0,013	0,098
-211,738	65,227	-0,007	0,005
-210,723	214,318	0,044	-0,051
-209,709	124,237	-0,024	-0,022
-208,694	-47,139	-0,097	-0,034
-207,679	32,466	0,069	0,043
-206,665	800,000	0,029	0,077
-205,650	14,992	-0,044	0,025
-204,636	-200,000	-0,002	0,046
-203,621	414,241	-0,035	-0,054
-202,606	604,600	0,009	0,016
-201,592	-117,829	-0,015	0,002
-200,577	140,505	-0,006	-0,006
-199,563	155,739	-0,054	0,054
-198,548	96,878	0,073	-0,061
-197,533	800,000	0,059	0,161
-196,519	-200,000	-0,021	0,127
-195,504	139,193	0,052	0,050
-194,490	-67,668	-0,141	0,040
-193,475	800,000	-0,027	-0,059
-192,460	-119,775	0,178	0,022
-191,446	79,198	0,034	-0,026
-190,431	159,623	-0,150	0,152
-189,417	-146,633	0,150	0,009
-188,402	-145,389	0,085	0,005
-187,387	-200,000	0,014	-0,077
-186,373	326,212	-0,078	0,109
-185,358	220,107	-0,038	-0,044
-184,344	140,989	0,056	-0,054
-183,329	477,557	-0,025	-0,041
-182,315	-200,000	-0,002	0,048
-181,300	200,757	-0,022	-0,024
-180,285	-21,662	-0,109	0,048
-179,271	180,499	-0,091	0,098
-178,256	38,606	0,021	0,013
-177,242	-11,436	0,072	0,035
-176,227	43,022	-0,193	0,128
-175,212	172,190	0,172	0,181
-174,198	109,456	0,041	0,036
-173,183	-60,828	0,142	0,044
-172,169	551,292	-0,022	0,038
-171,154	93,973	-0,037	-0,031
-170,139	580,870	-0,073	0,130
-169,125	5,521	0,073	-0,039
-168,110	-37,002	-0,138	0,053
-167,096	250,943	-0,043	0,053
-166,081	-11,631	-0,127	-0,061
-165,066	-51,616	-0,132	-0,045
-164,052	-200,000	-0,005	-0,086
-163,037	459,020	0,015	0,024
-162,023	493,948	0,018	-0,029
-161,008	800,000	-0,031	0,064
-159,993	188,775	0,037	-0,041
-158,979	15,881	0,044	-0,025
-157,964	593,127	-0,058	-0,105
-156,950	365,621	0,067	-0,099
-155,935	177,399	0,034	-0,036
-154,920	800,000	-0,056	0,119
-153,906	746,172	-0,037	0,073
-152,891	-159,840	0,059	0,002
-151,877	-200,000	0,026	0,126
-150,862	800,000	0,045	-0,112
-149,847	-200,000	-0,003	-0,091
-148,833	69,588	0,067	-0,050
-147,818	459,504	0,093	-0,151
-146,804	286,318	-0,087	0,115
-145,789	-200,000	-0,006	0,026
-144,775	-200,000	0,002	0,054
-143,760	-77,119	-0,102	-0,026
-142,745	22,764	0,089	-0,053
-141,731	800,000	-0,056	-0,138
-140,716	-200,000	0,035	0,195
-139,702	10,607	0,107	0,059
-138,687	-200,000	-0,021	0,082
-137,672	120,214	-0,030	0,027
-136,658	800,000	0,020	0,049
-135,643	-26,622	-0,130	0,055
-134,629	-103,670	-0,054	-0,009
-133,614	157,700	0,039	0,039
-132,599	537,503	0,038	-0,066
-131,585	-25,122	-0,148	0,064
-130,570	-200,000	-0,025	0,103
-129,556	127,529	-0,098	0,091
-128,541	-200,000	-0,013	-0,125
-127,526	113,885	0,026	-0,023
-126,512	800,000	0,064	0,170
-125,497	536,556	-0,055	0,096
-124,483	-200,000	0,023	0,132
-123,468	800,000	-0,071	-0,208
-122,453	281,035	-0,059	-0,078
-121,439	-7,245	-0,039	0,019
-120,424	-128,723	-0,060	0,006
