DTS Sentinel unit serial number:	SN410029Multiplexer serial number:	ORYXHardware model number:	OX2-SRSoftware version number:	ORYX F/W v4,00 Oryx Data Collector v3.7.2.0data status	okinstallation	B6 Nyhavnadifferential loss correction	single-endedforward channel	channel 2reverse channel	N/Adate	2023/12/08time	20:55:08forward acquisition time	300,00reverse acquisition time	0,00gamma	499,1914k internal	0,3158k external	0,3158temperature offset calibration	1,0000default loss term (dB/km)	0,3820temperature slope calibration	1,0000multiplexer offset coefficient	1,0000multiplexer slope coefficient	1,0000fibre end	0,00T internal ref (°C)	15,20T ext. ref 1 (°C)	-1,39T ext. ref 2 (°C)	-1,39length (m)	temperature (°C)	Stokes	anti-Stokes-744,400	-98,664	0,134	0,025
-743,385	-194,994	-0,270	-0,001
-742,371	-67,320	0,211	0,061
-741,356	-55,198	-0,294	-0,097
-740,342	-50,018	0,041	0,014
-739,327	-136,087	-0,354	0,030
-738,312	-200,000	-0,014	0,202
-737,298	-144,866	-0,360	-0,024
-736,283	-131,694	0,110	-0,010
-735,269	-136,193	-0,252	0,021
-734,254	383,342	0,125	0,190
-733,239	-42,609	-0,450	-0,168
-732,225	-200,000	0,009	-0,041
-731,210	-200,000	0,003	0,140
-730,196	-200,000	-0,004	-0,037
-729,181	6,104	-0,136	-0,074
-728,167	248,297	0,072	0,090
-727,152	-29,747	-0,019	0,008
-726,137	-24,469	-0,160	0,070
-725,123	-56,791	-0,122	-0,039
-724,108	136,560	-0,036	-0,034
-723,094	-200,000	-0,021	-0,113
-722,079	-200,000	-0,070	-0,000
-721,064	-99,181	0,106	-0,020
-720,050	93,129	0,090	0,075
-719,035	-200,000	-0,026	-0,095
-718,021	-200,000	-0,020	-0,075
-717,006	504,812	0,081	-0,139
-715,991	614,366	-0,063	-0,117
-714,977	121,324	-0,066	0,060
-713,962	-18,899	-0,077	0,035
-712,948	23,349	0,134	-0,081
-711,933	-200,000	-0,018	0,093
-710,918	-11,641	-0,128	0,062
-709,904	800,000	-0,053	-0,113
-708,889	-200,000	0,008	-0,104
-707,875	432,755	-0,111	-0,178
-706,860	800,000	-0,049	0,136
-705,845	-200,000	-0,004	0,122
-704,831	622,086	-0,055	-0,103
-703,816	23,079	-0,038	-0,023
-702,802	-200,000	0,009	-0,068
-701,787	-200,000	-0,136	-0,000
-700,772	123,889	0,086	0,079
-699,758	71,504	-0,077	-0,059
-698,743	33,509	-0,043	0,027
-697,729	82,655	-0,023	0,018
-696,714	-185,033	-0,070	0,001
-695,699	-200,000	-0,030	-0,131
-694,685	378,265	-0,065	-0,098
-693,670	800,000	0,077	-0,176
-692,656	86,146	-0,088	-0,071
-691,641	540,380	-0,027	0,047
-690,627	407,315	-0,028	0,044
-689,612	-107,318	-0,046	0,007
-688,597	646,203	0,037	-0,069
-687,583	-200,000	0,012	-0,081
-686,568	-36,135	-0,135	-0,053
-685,554	-7,863	-0,168	-0,083
-684,539	35,290	0,119	-0,076
-683,524	800,000	0,019	0,039
-682,510	-200,000	-0,044	-0,150
-681,495	-69,282	-0,181	0,051
-680,481	8,100	-0,095	0,053
-679,466	280,046	-0,100	-0,132
-678,451	149,804	0,031	-0,031
-677,437	32,032	0,077	-0,049
-676,422	800,000	0,010	-0,025
-675,408	800,000	0,059	-0,126
-674,393	-175,374	-0,062	0,001
-673,378	800,000	0,044	-0,116
-672,364	418,356	0,008	-0,013
-671,349	485,210	-0,004	-0,007
-670,335	777,276	0,020	0,041
-669,320	371,870	0,035	0,053
-668,305	243,004	0,041	-0,050
-667,291	-113,447	-0,099	-0,014
-666,276	646,923	0,086	-0,162
-665,262	39,350	-0,143	-0,094
-664,247	88,426	-0,082	-0,067
-663,232	800,000	0,025	-0,062
-662,218	800,000	-0,021	0,050
-661,203	800,000	-0,027	-0,065
-660,189	800,000	-0,057	-0,150
-659,174	70,477	-0,110	-0,083
-658,159	169,862	0,068	-0,071
-657,145	-195,370	-0,078	0,000
-656,130	343,830	0,104	0,150
-655,116	403,388	-0,029	0,045
-654,101	800,000	-0,037	-0,083
-653,086	-200,000	-0,002	0,038
-652,072	-200,000	0,008	0,051
-651,057	-98,350	-0,154	-0,029
-650,043	142,335	-0,052	-0,051
-649,028	-200,000	-0,020	-0,175
-648,014	-136,005	0,095	-0,008
-646,999	110,716	0,101	0,090
-645,984	443,082	0,021	0,034
-644,970	149,252	-0,032	-0,032
-643,955	-130,480	-0,057	-0,006
-642,941	800,000	-0,003	-0,008
-641,926	164,192	-0,097	0,100
-640,911	24,939	0,036	-0,022
-639,897	-200,000	0,008	0,068
-638,882	95,689	-0,091	-0,076
-637,868	107,429	-0,095	0,083
-636,853	-63,324	-0,100	0,030
-635,838	800,000	-0,018	-0,051
-634,824	-200,000	-0,009	-0,165
-633,809	-0,309	-0,185	-0,096
-632,795	800,000	0,038	0,090
-631,780	-200,000	0,018	-0,100
-630,765	-167,532	0,086	0,002
-629,751	-110,429	0,104	-0,016
-628,736	-200,000	0,014	-0,051
-627,722	-200,000	0,017	0,079
-626,707	-200,000	0,028	0,000
-625,692	-200,000	-0,028	0,110
-624,678	-200,000	0,001	0,051
-623,663	331,629	0,017	0,024
-622,649	-150,143	-0,068	-0,004
-621,634	-200,000	0,022	-0,128
-620,619	-58,784	0,060	0,019
-619,605	-200,000	-0,028	0,102
-618,590	-8,411	-0,200	-0,098
-617,576	-200,000	-0,001	-0,058
-616,561	8,069	-0,018	-0,010
-615,546	-200,000	-0,017	0,210
-614,532	501,174	-0,117	-0,199
-613,517	-200,000	0,002	-0,231
-612,503	-105,898	-0,108	-0,018
-611,488	-27,979	-0,031	-0,013
-610,474	732,308	-0,020	-0,040
-609,459	-200,000	-0,006	0,097
-608,444	323,610	-0,035	0,049
-607,430	-96,285	-0,052	-0,010
-606,415	-200,000	-0,029	-0,107
-605,401	800,000	-0,017	0,037
-604,386	800,000	-0,044	0,090
-603,371	-94,454	-0,104	-0,021
-602,357	-200,000	0,004	-0,019
-601,342	-118,689	-0,124	0,016
-600,328	163,236	-0,078	-0,080
-599,313	50,300	-0,230	-0,159
-598,298	204,693	-0,065	0,074
-597,284	436,401	0,041	0,065
-596,269	129,546	-0,135	-0,126
-595,255	-200,000	0,019	0,086
-594,240	276,053	-0,058	-0,076
-593,225	1,679	-0,064	0,034
-592,211	-87,491	-0,083	-0,018
-591,196	25,648	0,025	-0,015
-590,182	-18,783	-0,206	0,094
-589,167	238,269	-0,075	-0,091
-588,152	49,036	-0,123	0,084
-587,138	-55,120	0,107	0,035
-586,123	-40,642	-0,055	0,021
-585,109	66,382	0,057	-0,043
-584,094	-125,332	0,074	0,008
-583,079	52,384	0,163	-0,114
-582,065	-200,000	0,016	0,072
-581,050	800,000	-0,012	-0,037
-580,036	179,623	-0,035	0,038
-579,021	9,656	-0,007	0,004
-578,006	559,089	-0,031	0,054
-576,992	-200,000	0,009	0,051
-575,977	105,940	-0,057	0,049
-574,963	-200,000	-0,005	0,059
-573,948	130,169	0,030	0,028
-572,934	-200,000	-0,003	0,144
-571,919	-200,000	-0,007	-0,066
-570,904	437,350	-0,048	-0,077
-569,890	0,120	-0,103	-0,053
-568,875	413,731	-0,072	0,112
-567,861	-37,989	0,087	-0,034
-566,846	632,717	0,024	-0,044
-565,831	-200,000	-0,003	-0,054
-564,817	241,045	-0,076	0,094
-563,802	-96,845	-0,079	-0,015
-562,788	768,810	-0,036	-0,071
-561,773	-13,733	-0,120	-0,056
-560,758	-119,375	0,107	-0,013
-559,744	-200,000	-0,007	-0,081
-558,729	252,410	-0,084	-0,105
-557,715	130,766	-0,053	0,050
-556,700	-200,000	-0,012	-0,041
-555,685	15,933	-0,087	0,050
-554,671	-200,000	0,015	-0,056
-553,656	-200,000	-0,003	-0,041
-552,642	-200,000	-0,016	0,084
-551,627	-200,000	0,019	-0,170
-550,612	767,291	0,036	-0,073
-549,598	800,000	-0,050	-0,103
-548,583	-98,315	-0,109	0,020
-547,569	-25,908	-0,134	-0,057
-546,554	-139,146	0,038	0,003
-545,539	692,916	-0,032	0,062
-544,525	555,394	-0,046	0,082
-543,510	800,000	-0,025	0,063
-542,496	800,000	-0,056	-0,115
-541,481	-200,000	0,016	-0,079
-540,466	243,025	-0,059	-0,073
-539,452	186,634	-0,032	0,035
-538,437	-165,328	-0,049	0,002
-537,423	800,000	-0,008	0,021
-536,408	24,228	0,051	0,031
-535,393	-58,249	-0,020	-0,006
-534,379	-200,000	-0,020	-0,091
-533,364	160,421	0,034	0,035
-532,350	535,136	0,041	0,072
-531,335	68,589	0,045	0,033
-530,321	33,729	0,033	0,021
-529,306	667,957	0,024	-0,045
-528,291	800,000	0,019	-0,038
-527,277	-39,894	0,052	-0,020
-526,262	-38,880	0,015	0,006
-525,248	-87,361	0,242	-0,053
-524,233	-200,000	0,030	0,155
-523,218	-200,000	0,006	0,113
-522,204	800,000	-0,047	0,118
-521,189	43,226	0,063	0,042
-520,175	105,265	-0,032	0,028
-519,160	-89,963	-0,128	-0,027
-518,145	117,995	0,070	-0,063
-517,131	-200,000	-0,003	0,022
-516,116	800,000	0,071	0,204
-515,102	800,000	-0,012	0,038
-514,087	-200,000	-0,036	-0,187
-513,072	-200,000	0,019	-0,124
-512,058	-200,000	-0,030	-0,113
-511,043	800,000	-0,033	0,100
-510,029	-136,374	-0,068	-0,006
-509,014	778,335	-0,021	0,042
-507,999	177,947	-0,068	0,072
-506,985	-34,505	-0,067	0,027
-505,970	38,052	-0,032	-0,020
-504,956	-200,000	0,008	0,104
-503,941	-75,612	0,125	-0,032
-502,926	38,649	-0,066	-0,043
-501,912	-46,224	0,031	0,011
-500,897	456,540	-0,046	0,074
-499,883	-163,955	0,082	0,003
-498,868	-151,938	-0,086	0,005
-497,853	800,000	0,044	-0,098
-496,839	95,530	0,101	0,084
-495,824	-200,000	0,000	0,045
-494,810	-200,000	0,040	0,242
-493,795	26,819	-0,095	0,058
-492,781	499,603	-0,064	-0,108
-491,766	-26,087	-0,072	-0,031
-490,751	-151,956	0,062	-0,003
-489,737	344,113	-0,030	-0,042
-488,722	-92,485	0,076	-0,015
-487,708	-71,305	0,090	0,025
-486,693	-128,532	0,091	0,009
-485,678	800,000	0,027	0,063
-484,664	-200,000	0,005	-0,215
-483,649	236,313	-0,046	-0,056
-482,635	-68,158	-0,040	-0,011
-481,620	448,084	0,067	0,108
-480,605	-66,552	0,093	0,027
-479,591	-15,696	-0,115	0,053
-478,576	140,378	0,022	0,021
-477,562	256,663	-0,039	-0,049
-476,547	154,685	-0,087	-0,087
-475,532	-200,000	-0,003	-0,094
-474,518	50,914	-0,050	-0,035
-473,503	110,848	0,138	-0,121
-472,489	-198,406	0,155	0,001
-471,474	59,712	-0,136	0,098
-470,459	-135,246	-0,115	-0,010
-469,445	707,371	0,022	-0,043
-468,430	79,536	-0,051	0,040
-467,416	-187,997	0,133	0,001
-466,401	-200,000	-0,005	0,125
-465,386	-200,000	0,001	0,004
-464,372	99,389	-0,020	0,017
-463,357	108,543	-0,102	-0,089
-462,343	351,599	0,011	-0,015
-461,328	-121,700	-0,171	0,020
-460,313	-117,329	0,060	-0,008
-459,299	48,704	0,098	-0,067
-458,284	178,026	-0,074	0,078
-457,270	-98,541	-0,105	0,019
-456,255	480,551	-0,049	-0,081
-455,241	800,000	0,064	-0,145
-454,226	217,308	0,052	-0,060
-453,211	-69,573	0,178	0,049
-452,197	800,000	-0,023	0,050
-451,182	-106,025	0,090	0,015
-450,168	197,885	-0,052	0,058
-449,153	800,000	-0,061	0,172
-448,138	-200,000	0,015	-0,081
-447,124	74,479	-0,062	0,048
-446,109	-200,000	-0,030	-0,119
-445,095	364,086	-0,052	0,077
-444,080	800,000	0,004	0,010
-443,065	-200,000	-0,018	0,093
-442,051	-200,000	0,004	-0,054
-441,036	-200,000	-0,031	-0,121
-440,022	800,000	-0,070	-0,161
-439,007	-200,000	-0,003	-0,079
-437,992	-47,099	0,043	0,015
-436,978	-200,000	-0,000	-0,073
-435,963	-8,987	0,037	0,018
-434,949	-81,623	0,119	-0,028
-433,934	-146,630	-0,058	-0,004
-432,919	326,572	-0,086	-0,120
-431,905	555,004	0,072	-0,127
-430,890	-56,405	0,082	-0,026
-429,876	-61,793	0,147	0,045
-428,861	408,224	0,061	0,094
-427,846	2,521	-0,089	-0,047
-426,832	-54,650	0,200	-0,065
-425,817	-157,385	-0,101	-0,004
-424,803	-200,000	-0,018	-0,135
-423,788	-117,829	-0,085	0,011
-422,773	800,000	-0,004	-0,011
-421,759	367,222	-0,058	0,086
-420,744	465,393	0,073	0,120
-419,730	2,462	-0,150	-0,079
-418,715	-91,460	-0,162	0,033
-417,701	199,176	0,029	0,033
-416,686	-200,000	0,016	-0,068
-415,671	127,811	0,052	-0,048
-414,657	-113,406	0,060	-0,009
-413,642	50,205	-0,121	0,083
-412,628	571,420	0,042	-0,075
-411,613	800,000	-0,049	-0,111
-410,598	-200,000	0,023	-0,080
-409,584	-163,384	-0,037	0,001
-408,569	331,321	0,043	0,060
-407,555	84,879	0,045	0,036
-406,540	-200,000	0,004	0,018
-405,525	-200,000	-0,030	-0,111
-404,511	-80,340	0,100	-0,024
-403,496	9,776	0,103	-0,057
-402,482	-200,000	0,013	0,118
-401,467	-200,000	-0,008	0,030
-400,452	-200,000	-0,017	0,088
-399,438	648,620	-0,062	-0,116
-398,423	-200,000	0,005	-0,058
-397,409	-110,684	0,101	-0,015
-396,394	49,316	-0,059	0,041
-395,379	-88,031	0,036	0,008
-394,365	-113,792	0,144	0,020
-393,350	95,554	-0,056	0,047
-392,336	-9,362	0,178	-0,086
-391,321	29,910	-0,080	-0,049
-390,306	800,000	0,052	-0,136
-389,292	-200,000	-0,026	-0,096
-388,277	-200,000	0,020	0,195
-387,263	54,846	0,131	0,092
-386,248	-200,000	0,001	-0,041
-385,233	-200,000	0,032	0,179
-384,219	69,883	0,082	0,062
-383,204	-200,000	-0,006	-0,041
-382,190	-40,988	-0,055	-0,020
-381,175	36,258	0,085	-0,055
-380,160	-101,242	-0,053	0,009
-379,146	-124,306	-0,005	0,001
-378,131	-47,154	-0,078	0,027
-377,117	-200,000	0,037	-0,122
-376,102	255,174	-0,029	-0,037
-375,088	698,103	0,063	-0,121
-374,073	-200,000	-0,040	-0,215
-373,058	130,586	0,044	-0,041
-372,044	69,282	0,099	0,074
-371,029	-200,000	-0,018	0,143
-370,015	14,346	0,131	0,074
-369,000	8,621	0,138	0,075
-367,985	-109,475	0,042	-0,006
-366,971	-30,555	0,035	-0,014
-365,956	83,140	0,133	-0,105
-364,942	433,659	0,106	0,167
-363,927	-200,000	0,053	0,212
-362,912	108,173	-0,041	-0,035
-361,898	195,038	-0,091	-0,101
-360,883	800,000	-0,049	-0,152
-359,869	141,621	0,031	-0,030
-358,854	15,499	-0,009	0,005
-357,839	-104,852	0,167	-0,028
-356,825	-200,000	-0,014	-0,113
-355,810	596,282	-0,033	0,059
-354,796	-110,530	-0,141	0,021
-353,781	-47,520	0,086	-0,030
-352,766	-20,160	0,074	0,033
-351,752	-54,804	-0,095	0,031
-350,737	4,403	0,140	0,074
-349,723	-43,320	0,110	-0,040
-348,708	84,223	0,097	0,077
-347,693	-139,418	0,112	-0,009
-346,679	166,313	-0,096	0,099
-345,664	800,000	-0,056	0,116
-344,650	-120,247	-0,107	0,013
-343,635	800,000	-0,031	0,072
-342,620	-36,866	0,042	0,016
-341,606	-200,000	0,002	-0,051
-340,591	800,000	0,039	-0,084
-339,577	23,937	-0,073	0,044
-338,562	800,000	0,014	0,039
-337,548	60,886	-0,048	0,035
-336,533	16,270	0,037	0,021
-335,518	-121,737	0,095	-0,011
-334,504	21,637	-0,116	-0,068
-333,489	180,710	0,067	-0,072
-332,475	60,368	-0,041	-0,030
-331,460	-40,875	-0,128	-0,048
-330,445	-116,977	-0,111	0,015
-329,431	-200,000	0,009	0,167
-328,416	-200,000	0,003	0,050
-327,402	-87,287	-0,039	-0,009
-326,387	-132,830	-0,051	0,005
-325,372	-128,572	0,068	-0,007
-324,358	24,179	-0,113	-0,067
-323,343	800,000	-0,060	0,157
-322,329	-123,465	0,160	0,018
-321,314	48,238	0,087	0,059
-320,299	457,528	0,036	-0,059
-319,285	-200,000	-0,000	-0,108
-318,270	-200,000	0,004	-0,089
-317,256	194,089	-0,013	0,014
-316,241	800,000	0,013	-0,038
-315,226	125,199	0,056	-0,051
-314,212	159,373	-0,093	0,094
-313,197	386,307	0,048	0,072
-312,183	-62,452	0,087	-0,026
-311,168	-6,760	-0,032	-0,016
-310,153	-84,775	0,146	-0,033
-309,139	677,754	0,056	0,106
-308,124	-14,693	0,092	-0,043
-307,110	-200,000	0,000	-0,024
-306,095	22,438	-0,067	-0,039
-305,080	-200,000	0,003	-0,020
-304,066	91,847	0,029	-0,024
-303,051	-103,856	-0,084	-0,014
-302,037	232,936	0,098	-0,117
-301,022	-200,000	0,041	-0,131
-300,008	-200,000	-0,002	0,067
-298,993	-63,756	-0,076	0,022
-297,978	-123,199	0,213	0,024
-296,964	456,140	-0,042	0,068
-295,949	-117,598	0,117	-0,015
-294,935	42,580	0,041	-0,027
-293,920	202,487	0,063	0,070
-292,905	800,000	0,017	0,044
-291,891	286,446	0,108	0,142
-290,876	-95,372	-0,086	0,017
-289,862	-30,514	0,069	0,028
-288,847	-126,305	-0,122	0,013
-287,832	74,518	-0,102	0,078
-286,818	670,639	-0,019	0,037
-285,803	62,382	0,058	0,042
-284,789	-30,072	0,076	-0,031
-283,774	100,179	-0,090	0,075
-282,759	223,290	0,069	-0,081
-281,745	800,000	-0,046	-0,093
-280,730	-200,000	-0,005	-0,206
-279,716	245,688	-0,079	-0,097
-278,701	-200,000	0,018	0,073
-277,686	-27,910	0,140	0,059
-276,672	-72,219	-0,061	-0,016
-275,657	-38,071	0,020	0,008
-274,643	489,260	-0,064	0,106
-273,628	-200,000	-0,024	-0,091
-272,613	-200,000	0,017	0,085
-271,599	-32,254	0,098	0,040
-270,584	403,074	-0,020	0,030
-269,570	-200,000	-0,012	0,167
-268,555	37,488	0,088	0,057
-267,540	-2,135	-0,040	0,020
-266,526	331,135	-0,082	-0,114
-265,511	800,000	0,020	-0,044
-264,497	-193,653	-0,085	-0,001
-263,482	25,471	0,023	-0,014
-262,467	-153,289	0,060	-0,003
-261,453	800,000	-0,039	0,115
-260,438	-200,000	0,037	-0,140
-259,424	8,593	0,076	0,041
-258,409	13,529	0,142	-0,080
-257,395	-98,132	-0,049	-0,009
-256,380	107,514	0,093	-0,080
-255,365	155,761	0,055	0,055
-254,351	-15,959	-0,130	-0,060
-253,336	-37,167	0,066	-0,025
-252,322	582,916	0,011	-0,020
-251,307	255,432	0,040	-0,050
-250,292	-11,921	-0,071	-0,033
-249,278	357,553	0,092	0,134
-248,263	84,954	0,031	0,024
-247,249	187,582	0,028	0,030
-246,234	-20,292	0,034	0,015
-245,219	-200,000	0,009	0,084
-244,205	-200,000	-0,010	-0,147
-243,190	-200,000	-0,003	0,052
-242,176	799,058	-0,063	0,126
-241,161	-19,649	0,145	0,065
-240,146	-51,513	-0,072	-0,024
-239,132	-126,740	0,019	0,002
-238,117	136,807	-0,058	-0,055
-237,103	92,622	0,067	-0,055
-236,088	359,491	0,058	0,084
-235,073	177,137	-0,081	0,086
-234,059	-200,000	0,006	0,053
-233,044	20,680	0,056	0,033
-232,030	-200,000	-0,002	0,037
-231,015	-33,358	0,035	0,014
-230,000	328,695	-0,073	-0,102
-228,986	112,459	0,079	-0,069
-227,971	-200,000	-0,008	0,073
-226,957	21,979	0,126	0,074
-225,942	122,363	-0,162	-0,146
-224,927	-30,214	0,049	-0,020
-223,913	187,629	-0,011	-0,012
-222,898	-200,000	0,022	-0,097
-221,884	354,829	-0,078	0,112
-220,869	800,000	0,029	-0,084
-219,855	-170,333	0,199	-0,005
-218,840	-109,099	-0,105	-0,016
-217,825	470,035	0,090	0,147
-216,811	-136,558	-0,013	0,001
-215,796	28,602	-0,082	0,050
-214,782	-200,000	-0,000	-0,088
-213,767	800,000	0,039	0,091
-212,752	-200,000	-0,005	0,040
-211,738	73,074	-0,042	-0,032
-210,723	135,648	0,046	0,043
-209,709	-94,000	-0,062	0,012
-208,694	800,000	-0,012	-0,032
-207,679	76,967	0,078	-0,060
-206,665	-200,000	0,025	-0,116
-205,650	800,000	0,064	0,175
-204,636	336,080	0,022	0,030
-203,621	250,344	0,103	0,126
-202,606	-91,968	0,071	-0,014
-201,592	-118,790	-0,123	-0,015
-200,577	12,268	0,115	0,064
-199,563	-73,024	-0,059	0,016
-198,548	-200,000	0,006	0,068
-197,533	75,398	-0,038	-0,029
-196,519	-165,923	-0,147	-0,004
-195,504	84,456	0,039	-0,031
-194,490	-200,000	0,013	0,090
-193,475	-84,054	-0,031	0,007
-192,460	-157,032	0,107	0,005
-191,446	-200,000	-0,003	0,050
-190,431	338,166	-0,077	0,108
-189,417	-108,075	-0,159	0,025
-188,402	239,691	0,095	0,115
-187,387	-200,000	-0,035	-0,136
-186,373	298,057	-0,015	0,020
-185,358	-71,217	0,120	-0,032
-184,344	674,541	0,047	0,088
-183,329	-31,073	0,239	0,097
-182,315	-137,805	-0,145	-0,012
-181,300	-200,000	0,018	-0,069
-180,285	180,209	0,020	-0,021
-179,271	22,805	0,088	-0,052
-178,256	-200,000	0,021	0,101
-177,242	-44,220	-0,118	-0,043
-176,227	-136,875	-0,066	0,005
-175,212	-27,136	0,141	-0,059
-174,198	-200,000	0,003	0,041
-173,183	-44,558	-0,065	0,023
-172,169	98,240	-0,056	0,046
-171,154	155,118	-0,073	0,073
-170,139	-200,000	-0,030	0,097
-169,125	-98,717	-0,006	0,001
-168,110	-110,680	0,155	0,023
-167,096	38,805	-0,049	0,032
-166,081	-42,437	-0,141	-0,052
-165,066	-162,476	-0,029	0,001
-164,052	115,928	0,038	-0,034
-163,037	-200,000	0,025	-0,087
-162,023	101,856	-0,073	-0,061
-161,008	85,482	-0,054	0,043
-159,993	176,269	0,032	-0,033
-158,979	800,000	0,013	-0,027
-157,964	-26,170	0,116	0,049
-156,950	176,928	-0,054	0,057
-155,935	74,552	0,014	0,011
-154,920	119,435	-0,075	-0,067
-153,906	214,905	0,102	0,117
-152,891	-200,000	0,002	0,010
-151,877	-69,104	0,073	0,020
-150,862	-98,326	-0,060	0,011
-149,847	800,000	0,051	-0,124
-148,833	126,960	-0,031	-0,028
-147,818	693,933	0,055	0,104
-146,804	503,889	0,058	0,096
-145,789	-200,000	0,034	0,120
-144,775	-107,022	0,077	-0,012
-143,760	-200,000	-0,149	-0,000
-142,745	290,798	0,022	0,029
-141,731	-73,575	0,079	0,020
-140,716	-180,258	0,061	0,001
-139,702	30,182	-0,104	-0,064
-138,687	423,225	0,038	0,060
-137,672	188,703	-0,121	-0,131
-136,658	459,114	-0,031	-0,051
-135,643	800,000	0,017	-0,037
-134,629	-200,000	-0,004	-0,037
-133,614	-200,000	0,004	0,077
-132,599	-200,000	-0,008	-0,070
-131,585	-200,000	-0,014	0,076
-130,570	144,543	0,030	-0,029
-129,556	170,240	-0,036	-0,038
-128,541	800,000	0,067	-0,175
-127,526	229,983	0,112	0,132
-126,512	-200,000	0,005	0,138
-125,497	-200,000	0,003	0,012
-124,483	-200,000	-0,002	0,078
-123,468	-78,202	-0,118	-0,029
-122,453	15,218	0,106	0,060
-121,439	199,905	-0,039	-0,043
-120,424	-56,956	-0,068	-0,021
