DTS Sentinel unit serial number:	SN410029Multiplexer serial number:	ORYXHardware model number:	OX2-SRSoftware version number:	ORYX F/W v4,00 Oryx Data Collector v3.7.2.0data status	okinstallation	B6 Nyhavnadifferential loss correction	single-endedforward channel	channel 2reverse channel	N/Adate	2023/12/08time	08:10:08forward acquisition time	300,00reverse acquisition time	0,00gamma	499,1914k internal	0,3186k external	0,3186temperature offset calibration	1,0000default loss term (dB/km)	0,3820temperature slope calibration	1,0000multiplexer offset coefficient	1,0000multiplexer slope coefficient	1,0000fibre end	0,00T internal ref (°C)	10,90T ext. ref 1 (°C)	-2,57T ext. ref 2 (°C)	-2,56length (m)	temperature (°C)	Stokes	anti-Stokes-744,400	-200,000	-0,001	-0,024
-743,385	-166,588	-0,279	-0,008
-742,371	-92,726	0,252	-0,051
-741,356	-89,138	-0,267	-0,057
-740,342	-25,619	0,104	0,045
-739,327	-124,793	-0,463	-0,052
-738,312	-108,632	0,170	-0,026
-737,298	-121,500	-0,421	-0,051
-736,283	422,850	0,072	0,113
-735,269	-105,482	-0,415	-0,068
-734,254	508,061	0,055	0,093
-733,239	-33,091	-0,565	-0,228
-732,225	-93,610	0,243	-0,049
-731,210	-2,442	0,089	0,046
-730,196	127,609	-0,064	-0,060
-729,181	-200,000	0,006	-0,026
-728,167	178,814	-0,025	-0,027
-727,152	-200,000	-0,001	0,031
-726,137	-175,684	-0,096	0,002
-725,123	4,113	-0,073	-0,039
-724,108	800,000	0,041	-0,101
-723,094	800,000	-0,034	-0,075
-722,079	-200,000	0,001	0,062
-721,064	423,731	-0,094	-0,149
-720,050	28,565	-0,032	-0,019
-719,035	-7,382	-0,071	0,035
-718,021	181,163	-0,089	-0,095
-717,006	-25,751	-0,153	-0,066
-715,991	-70,221	-0,101	0,028
-714,977	696,787	0,029	-0,056
-713,962	-7,227	0,114	-0,056
-712,948	312,596	0,030	0,041
-711,933	-200,000	-0,002	0,064
-710,918	-200,000	-0,036	-0,138
-709,904	-49,604	-0,088	-0,031
-708,889	800,000	-0,088	-0,186
-707,875	9,778	-0,048	-0,026
-706,860	800,000	0,040	0,100
-705,845	-36,247	0,133	-0,052
-704,831	-200,000	0,005	-0,043
-703,816	-200,000	0,014	0,055
-702,802	-101,876	-0,085	-0,015
-701,787	-58,873	-0,095	-0,030
-700,772	148,178	0,024	0,023
-699,758	-125,151	-0,130	-0,014
-698,743	0,674	-0,107	-0,056
-697,729	800,000	-0,038	0,109
-696,714	800,000	-0,067	-0,167
-695,699	604,894	-0,059	-0,108
-694,685	132,323	-0,050	0,047
-693,670	-200,000	-0,011	-0,051
-692,656	431,552	0,052	0,083
-691,641	800,000	0,043	0,121
-690,627	34,169	-0,068	-0,043
-689,612	-200,000	0,007	-0,058
-688,597	-23,972	-0,066	0,029
-687,583	800,000	0,046	-0,120
-686,568	-100,240	0,155	-0,028
-685,554	800,000	-0,016	-0,038
-684,539	800,000	0,047	0,112
-683,524	185,055	0,084	-0,091
-682,510	-200,000	-0,002	-0,083
-681,495	-200,000	0,025	-0,108
-680,481	199,438	-0,078	-0,087
-679,466	800,000	-0,024	-0,075
-678,451	-200,000	0,013	-0,070
-677,437	-200,000	-0,003	-0,038
-676,422	33,625	0,161	-0,102
-675,408	209,831	-0,052	-0,060
-674,393	178,367	-0,097	-0,103
-673,378	518,719	-0,023	-0,039
-672,364	-104,311	-0,086	-0,014
-671,349	-200,000	-0,031	-0,113
-670,335	141,982	0,053	0,051
-669,320	-200,000	0,026	0,124
-668,305	-200,000	-0,019	0,133
-667,291	-200,000	-0,005	0,153
-666,276	-200,000	0,008	-0,045
-665,262	-154,723	-0,073	0,003
-664,247	16,473	0,100	-0,058
-663,232	-43,624	-0,046	0,017
-662,218	800,000	0,055	-0,120
-661,203	-5,911	0,074	-0,037
-660,189	-61,966	-0,144	0,044
-659,174	680,467	-0,031	-0,058
-658,159	454,302	-0,023	0,037
-657,145	-200,000	-0,005	0,106
-656,130	-158,498	-0,110	-0,005
-655,116	122,843	0,014	-0,013
-654,101	800,000	0,048	-0,140
-653,086	-200,000	0,019	0,116
-652,072	-126,451	0,037	0,004
-651,057	172,854	-0,087	-0,091
-650,043	63,486	-0,061	-0,045
-649,028	-200,000	0,016	-0,200
-648,014	2,192	-0,142	0,075
-646,999	-200,000	-0,006	-0,150
-645,984	24,590	-0,114	-0,068
-644,970	-200,000	0,013	-0,059
-643,955	-91,065	0,085	-0,018
-642,941	109,376	-0,070	-0,061
-641,926	433,395	-0,074	-0,117
-640,911	-200,000	0,048	0,190
-639,897	50,741	0,062	-0,043
-638,882	-200,000	0,002	0,016
-637,868	-37,508	-0,094	-0,036
-636,853	-200,000	0,014	0,107
-635,838	-200,000	0,023	0,097
-634,824	128,684	-0,044	0,041
-633,809	64,798	0,063	0,046
-632,795	131,778	-0,078	-0,073
-631,780	-3,952	0,088	0,044
-630,765	63,453	-0,018	0,013
-629,751	-53,516	-0,057	-0,019
-628,736	-200,000	0,010	-0,144
-627,722	388,197	0,075	-0,113
-626,707	-109,387	-0,122	0,019
-625,692	269,181	0,065	0,083
-624,678	800,000	0,012	-0,026
-623,663	259,835	-0,012	0,015
-622,649	800,000	0,019	-0,043
-621,634	-106,221	-0,073	0,012
-620,619	440,774	0,053	-0,085
-619,605	-200,000	0,000	-0,080
-618,590	-200,000	0,006	-0,078
-617,576	800,000	0,020	-0,055
-616,561	309,642	-0,164	-0,223
-615,546	92,627	0,100	0,082
-614,532	35,330	-0,125	0,080
-613,517	278,656	0,026	-0,034
-612,503	800,000	0,032	-0,093
-611,488	-18,288	0,204	-0,092
-610,474	-106,215	-0,139	0,022
-609,459	-170,271	0,090	-0,002
-608,444	67,730	-0,095	0,070
-607,430	800,000	0,052	-0,112
-606,415	47,501	-0,043	-0,029
-605,401	-114,004	0,096	-0,013
-604,386	94,136	0,124	0,102
-603,371	94,698	-0,051	-0,042
-602,357	-82,897	0,023	-0,005
-601,342	684,824	-0,008	0,016
-600,328	57,390	-0,082	-0,058
-599,313	-200,000	0,018	-0,063
-598,298	-58,666	-0,182	-0,057
-597,284	-101,414	0,107	-0,019
-596,269	-200,000	-0,012	0,126
-595,255	185,129	0,122	-0,132
-594,240	800,000	-0,026	-0,060
-593,225	-97,956	-0,161	-0,030
-592,211	-93,235	-0,134	-0,027
-591,196	-70,605	-0,107	-0,029
-590,182	-105,150	0,063	0,010
-589,167	-200,000	0,018	-0,078
-588,152	-6,832	-0,055	-0,027
-587,138	800,000	-0,024	0,077
-586,123	-200,000	0,006	-0,057
-585,109	-68,415	-0,032	0,009
-584,094	-22,879	0,123	0,054
-583,079	627,256	-0,028	0,052
-582,065	-136,464	0,105	-0,009
-581,050	-2,222	0,092	-0,047
-580,036	13,495	-0,170	-0,096
-579,021	82,528	-0,152	-0,120
-578,006	-136,101	0,130	-0,011
-576,992	142,226	-0,100	0,097
-575,977	-200,000	0,011	0,037
-574,963	175,297	-0,147	0,155
-573,948	-97,171	0,067	0,013
-572,934	800,000	0,003	-0,009
-571,919	32,431	-0,052	-0,032
-570,904	800,000	0,032	-0,072
-569,890	-200,000	0,008	-0,075
-568,875	-200,000	0,014	0,059
-567,861	-22,540	-0,049	0,022
-566,846	-200,000	-0,020	0,105
-565,831	-89,722	0,054	-0,011
-564,817	-7,827	-0,090	-0,044
-563,802	746,459	-0,031	0,061
-562,788	19,454	0,087	-0,051
-561,773	-117,400	-0,092	0,012
-560,758	90,731	-0,080	0,065
-559,744	32,033	-0,143	0,089
-558,729	-200,000	-0,005	0,087
-557,715	-200,000	-0,024	0,108
-556,700	-82,214	-0,052	-0,012
-555,685	-24,710	0,128	-0,055
-554,671	-90,093	0,098	-0,021
-553,656	378,432	-0,062	0,093
-552,642	-200,000	-0,005	-0,023
-551,627	372,510	-0,089	0,132
-550,612	-8,690	0,044	0,021
-549,598	28,740	0,107	-0,066
-548,583	800,000	0,063	-0,176
-547,569	553,489	-0,043	-0,075
-546,554	-200,000	0,003	0,020
-545,539	-72,287	0,080	0,021
-544,525	-200,000	-0,030	0,125
-543,510	-20,523	-0,085	-0,038
-542,496	-70,789	-0,122	-0,033
-541,481	-32,778	-0,063	-0,025
-540,466	125,132	0,147	0,135
-539,452	800,000	-0,076	-0,189
-538,437	-200,000	-0,005	0,073
-537,423	-58,197	0,080	-0,025
-536,408	-95,834	-0,110	0,021
-535,393	-200,000	-0,022	-0,090
-534,379	-117,763	-0,169	-0,022
-533,364	-200,000	-0,013	0,041
-532,350	-41,551	0,163	0,061
-531,335	-200,000	0,011	0,068
-530,321	-123,445	0,050	0,006
-529,306	-200,000	-0,005	0,053
-528,291	68,703	0,065	-0,048
-527,277	165,660	0,121	-0,124
-526,262	800,000	-0,020	0,056
-525,248	773,326	-0,055	0,110
-524,233	800,000	0,054	-0,151
-523,218	-200,000	0,050	0,162
-522,204	63,967	0,178	0,130
-521,189	753,627	-0,058	-0,115
-520,175	800,000	-0,050	0,143
-519,160	91,338	-0,023	-0,019
-518,145	-200,000	0,006	0,031
-517,131	-52,817	0,139	0,046
-516,116	664,992	-0,027	0,050
-515,102	-83,015	-0,070	0,016
-514,087	226,512	0,050	-0,059
-513,072	800,000	-0,046	-0,120
-512,058	-200,000	0,010	-0,129
-511,043	-191,769	0,049	0,000
-510,029	-200,000	0,034	0,133
-509,014	800,000	-0,086	-0,210
-507,999	-59,490	0,114	-0,035
-506,985	-166,246	-0,087	0,003
-505,970	400,064	-0,088	0,133
-504,956	-183,476	-0,099	0,001
-503,941	382,900	0,026	-0,039
-502,926	-200,000	-0,008	-0,055
-501,912	735,511	0,066	0,129
-500,897	-200,000	-0,012	0,148
-499,883	-40,548	-0,057	-0,021
-498,868	-136,559	-0,096	0,008
-497,853	-7,903	0,026	-0,013
-496,839	-200,000	0,012	-0,118
-495,824	-19,475	0,084	-0,038
-494,810	-52,858	-0,082	0,027
-493,795	-200,000	0,017	-0,131
-492,781	427,284	0,074	0,115
-491,766	-19,965	-0,061	0,027
-490,751	800,000	0,027	-0,057
-489,737	168,259	0,058	-0,059
-488,722	-25,026	0,135	-0,058
-487,708	-200,000	-0,003	0,021
-486,693	800,000	-0,025	0,081
-485,678	341,172	-0,019	-0,027
-484,664	63,585	-0,059	0,043
-483,649	9,826	0,018	-0,010
-482,635	-7,186	-0,109	0,053
-481,620	-146,314	-0,149	0,009
-480,605	45,152	0,092	0,061
-479,591	-54,619	-0,132	-0,043
-478,576	347,799	-0,043	-0,061
-477,562	-200,000	-0,008	0,066
-476,547	-143,252	0,096	-0,007
-475,532	-45,449	0,117	-0,042
-474,518	-200,000	-0,004	-0,134
-473,503	-200,000	0,009	0,051
-472,489	800,000	0,019	0,038
-471,474	-80,722	0,065	-0,015
-470,459	800,000	-0,048	0,122
-469,445	230,401	-0,044	0,052
-468,430	135,798	0,038	-0,036
-467,416	110,167	0,085	-0,074
-466,401	-200,000	-0,018	0,077
-465,386	-163,438	0,067	0,002
-464,372	-3,473	0,021	-0,011
-463,357	374,509	-0,048	0,071
-462,343	749,332	0,033	-0,064
-461,328	101,255	-0,079	-0,066
-460,313	84,766	0,091	-0,072
-459,299	800,000	0,087	0,207
-458,284	800,000	0,034	-0,093
-457,270	-161,042	-0,128	0,005
-456,255	301,791	0,030	0,040
-455,241	161,243	-0,053	0,054
-454,226	77,588	-0,055	0,043
-453,211	-200,000	0,017	0,060
-452,197	-70,237	0,081	0,022
-451,182	-146,913	-0,064	0,004
-450,168	-73,276	-0,093	0,024
-449,153	30,625	0,044	0,027
-448,138	800,000	0,021	-0,059
-447,124	16,130	-0,092	-0,052
-446,109	-200,000	0,005	-0,034
-445,095	-200,000	-0,012	0,132
-444,080	-90,135	0,010	-0,002
-443,065	251,490	0,053	0,065
-442,051	800,000	-0,063	-0,145
-441,036	800,000	0,035	0,105
-440,022	-71,495	-0,085	-0,023
-439,007	-169,431	-0,033	-0,001
-437,992	-200,000	-0,002	0,055
-436,978	-2,815	-0,040	-0,020
-435,963	-95,064	-0,013	0,003
-434,949	122,738	-0,066	-0,059
-433,934	143,564	-0,070	0,068
-432,919	-13,329	0,093	-0,044
-431,905	-127,123	0,186	0,019
-430,890	172,805	0,116	0,121
-429,876	89,529	-0,126	0,101
-428,861	284,376	0,079	0,103
-427,846	22,444	0,021	0,012
-426,832	282,711	0,024	0,031
-425,817	8,087	-0,063	0,034
-424,803	-200,000	-0,038	0,128
-423,788	115,680	-0,005	-0,005
-422,773	-4,326	-0,099	0,049
-421,759	-200,000	0,005	0,048
-420,744	653,813	0,027	-0,051
-419,730	32,059	0,072	0,045
-418,715	6,833	-0,031	-0,016
-417,701	-99,466	-0,037	-0,007
-416,686	-186,103	0,064	0,001
-415,671	208,835	0,083	0,094
-414,657	30,055	-0,124	0,076
-413,642	98,953	-0,064	0,054
-412,628	-55,886	-0,165	-0,053
-411,613	147,735	0,040	0,039
-410,598	37,239	0,134	0,085
-409,584	-200,000	-0,028	0,104
-408,569	-200,000	0,055	0,185
-407,555	291,676	0,033	0,044
-406,540	-37,569	0,006	-0,002
-405,525	-45,416	0,025	0,009
-404,511	-92,256	-0,202	-0,041
-403,496	284,855	-0,006	-0,008
-402,482	800,000	-0,015	-0,044
-401,467	256,525	0,062	-0,077
-400,452	800,000	-0,029	0,080
-399,438	-33,428	-0,039	0,015
-398,423	800,000	-0,015	-0,041
-397,409	-163,561	0,032	-0,001
-396,394	-73,987	-0,154	0,040
-395,379	196,169	0,030	0,032
-394,365	501,461	0,070	-0,117
-393,350	-200,000	0,000	-0,045
-392,336	218,091	0,103	-0,118
-391,321	-108,310	0,081	0,013
-390,306	172,180	-0,033	0,034
-389,292	-200,000	-0,004	0,173
-388,277	-200,000	-0,048	-0,184
-387,263	481,293	0,046	0,075
-386,248	-48,503	0,065	0,022
-385,233	-200,000	0,036	-0,139
-384,219	206,704	-0,087	-0,098
-383,204	-20,052	-0,079	0,035
-382,190	800,000	0,064	-0,169
-381,175	196,978	0,036	-0,040
-380,160	-100,526	-0,073	0,013
-379,146	-4,223	0,046	-0,023
-378,131	245,756	0,059	0,072
-377,117	800,000	-0,010	-0,025
-376,102	-7,413	0,098	0,047
-375,088	75,093	0,086	-0,065
-374,073	58,259	-0,060	-0,043
-373,058	-200,000	-0,026	0,111
-372,044	23,869	0,100	0,059
-371,029	-103,943	0,018	0,003
-370,015	238,781	-0,102	0,122
-369,000	-164,200	0,044	0,001
-367,985	73,153	-0,060	-0,045
-366,971	-83,277	-0,050	-0,012
-365,956	800,000	0,047	0,112
-364,942	-200,000	-0,007	0,140
-363,927	-200,000	0,007	-0,090
-362,912	-102,236	0,169	0,029
-361,898	-66,048	0,101	-0,029
-360,883	173,700	0,048	0,050
-359,869	-200,000	-0,005	0,060
-358,854	800,000	0,059	0,127
-357,839	-200,000	0,004	-0,017
-356,825	80,519	-0,028	-0,022
-355,810	305,215	0,112	0,151
-354,796	-54,410	-0,049	-0,016
-353,781	105,301	-0,057	-0,048
-352,766	30,670	-0,090	-0,056
-351,752	-123,497	0,122	-0,014
-350,737	-85,488	0,017	0,004
-349,723	-12,954	0,065	0,030
-348,708	45,127	-0,024	-0,016
-347,693	145,309	0,070	-0,067
-346,679	800,000	-0,051	0,126
-345,664	196,999	-0,115	0,127
-344,650	-200,000	0,002	0,072
-343,635	797,367	0,068	0,136
-342,620	556,448	0,027	0,046
-341,606	388,945	-0,087	-0,131
-340,591	-200,000	0,016	-0,058
-339,577	83,644	-0,092	-0,072
-338,562	62,037	0,064	0,046
-337,548	186,496	0,028	-0,030
-336,533	-47,858	0,125	-0,043
-335,518	343,007	-0,066	0,093
-334,504	-54,699	0,045	0,014
-333,489	-200,000	0,029	-0,127
-332,475	-115,131	-0,090	0,012
-331,460	-118,483	-0,012	0,002
-330,445	-200,000	0,038	0,122
-329,431	223,264	-0,052	0,060
-328,416	-162,078	-0,086	0,003
-327,402	-94,782	-0,106	-0,021
-326,387	51,579	-0,045	0,031
-325,372	255,857	0,033	-0,041
-324,358	-200,000	0,003	0,083
-323,343	-123,139	0,062	0,007
-322,329	800,000	0,035	-0,096
-321,314	-200,000	0,027	-0,107
-320,299	800,000	0,027	0,065
-319,285	26,734	0,079	0,047
-318,270	-92,990	-0,141	-0,028
-317,256	42,251	-0,067	-0,043
-316,241	-200,000	0,022	0,161
-315,226	-1,472	0,049	0,025
-314,212	800,000	-0,026	0,057
-313,197	800,000	-0,027	0,056
-312,183	-146,233	0,154	-0,010
-311,168	455,087	-0,116	-0,185
-310,153	93,453	0,021	-0,017
-309,139	-93,723	-0,047	-0,009
-308,124	-63,847	0,144	-0,042
-307,110	-51,911	0,101	0,034
-306,095	-5,741	-0,035	-0,017
-305,080	-200,000	-0,022	0,076
-304,066	8,060	0,100	-0,054
-303,051	-61,487	-0,068	-0,020
-302,037	456,099	0,078	-0,124
-301,022	116,098	-0,110	-0,097
-300,008	800,000	-0,016	0,039
-298,993	109,092	0,085	-0,073
-297,978	-16,578	0,103	0,047
-296,964	94,034	0,058	-0,048
-295,949	600,942	0,042	-0,075
-294,935	155,674	-0,177	-0,175
-293,920	306,804	-0,041	0,055
-292,905	-161,294	0,148	-0,005
-291,891	-68,001	0,092	0,026
-290,876	-200,000	-0,015	-0,056
-289,862	23,691	-0,134	0,079
-288,847	-200,000	0,001	-0,147
-287,832	-118,687	0,050	-0,006
-286,818	-36,591	0,074	0,029
-285,803	-128,584	-0,058	-0,006
-284,789	101,218	0,036	-0,030
-283,774	-200,000	0,014	0,064
-282,759	182,535	-0,042	0,045
-281,745	9,988	-0,086	0,047
-280,730	-200,000	-0,000	-0,051
-279,716	90,052	-0,102	0,082
-278,701	800,000	0,033	-0,081
-277,686	-200,000	0,017	0,116
-276,672	27,864	0,062	-0,037
-275,657	-200,000	-0,000	-0,113
-274,643	-200,000	-0,005	0,037
-273,628	45,910	0,061	-0,040
-272,613	-200,000	-0,002	0,071
-271,599	-70,642	0,135	0,036
-270,584	800,000	0,020	0,047
-269,570	796,898	0,052	-0,103
-268,555	-200,000	-0,002	0,103
-267,540	-200,000	0,008	-0,036
-266,526	-200,000	-0,001	0,057
-265,511	245,779	0,094	-0,114
-264,497	-200,000	0,035	0,119
-263,482	251,647	0,004	0,005
-262,467	60,306	-0,056	-0,040
-261,453	-65,632	0,071	0,020
-260,438	800,000	-0,062	-0,138
-259,424	139,187	-0,048	-0,045
-258,409	-128,679	-0,083	-0,008
-257,395	-121,815	0,133	-0,016
-256,380	-137,244	-0,077	0,006
-255,365	-200,000	0,256	-0,000
-254,351	-44,865	0,112	0,040
-253,336	-60,517	0,013	0,004
-252,322	76,633	-0,032	0,024
-251,307	68,353	0,093	0,068
-250,292	84,664	-0,042	-0,033
-249,278	-47,344	-0,041	0,014
-248,263	381,861	-0,028	-0,042
-247,249	591,578	-0,045	-0,081
-246,234	-26,407	0,118	-0,049
-245,219	-76,348	-0,164	-0,041
-244,205	-4,183	0,064	-0,032
-243,190	50,827	-0,051	0,035
-242,176	-200,000	0,013	0,095
-241,161	-139,524	0,087	-0,007
-240,146	244,936	-0,093	0,112
-239,132	165,419	0,024	0,024
-238,117	800,000	-0,042	-0,094
-237,103	-200,000	0,052	-0,194
-236,088	285,199	0,011	-0,014
-235,073	193,792	0,006	-0,006
-234,059	-33,937	-0,036	-0,014
-233,044	-98,521	-0,075	-0,014
-232,030	-200,000	0,001	-0,158
-231,015	800,000	-0,035	-0,102
-230,000	-111,910	-0,063	0,009
-228,986	164,437	-0,062	-0,062
-227,971	-200,000	0,012	0,094
-226,957	-31,976	0,095	-0,038
-225,942	17,218	0,055	0,031
-224,927	-110,022	-0,078	-0,012
-223,913	-18,023	-0,220	-0,098
-222,898	-200,000	-0,003	-0,059
-221,884	423,561	-0,058	0,089
-220,869	8,568	-0,053	0,028
-219,855	28,715	0,119	-0,072
-218,840	-200,000	0,020	0,109
-217,825	800,000	-0,011	-0,023
-216,811	800,000	0,030	0,065
-215,796	-200,000	0,019	-0,096
-214,782	-187,251	0,127	0,001
-213,767	-200,000	-0,039	-0,146
-212,752	-79,935	0,044	0,010
-211,738	-66,325	0,118	0,033
-210,723	-200,000	0,022	0,082
-209,709	449,827	0,018	-0,028
-208,694	-200,000	-0,018	-0,123
-207,679	551,695	0,036	-0,063
-206,665	133,292	-0,013	-0,012
-205,650	800,000	0,011	-0,026
-204,636	269,500	0,061	0,077
-203,621	-155,935	-0,087	-0,004
-202,606	-200,000	0,013	-0,135
-201,592	800,000	-0,029	-0,083
-200,577	15,934	-0,036	-0,020
-199,563	-67,486	-0,116	-0,032
-198,548	-49,438	0,089	-0,030
-197,533	800,000	0,062	0,128
-196,519	-200,000	-0,011	0,074
-195,504	-200,000	0,021	0,078
-194,490	-78,974	-0,087	-0,021
-193,475	800,000	-0,033	0,077
-192,460	-41,060	0,071	0,026
-191,446	800,000	-0,044	-0,097
-190,431	-200,000	0,001	-0,057
-189,417	800,000	-0,038	-0,093
-188,402	-94,474	-0,109	-0,021
-187,387	36,456	0,044	-0,027
-186,373	23,703	-0,090	0,053
-185,358	-141,832	0,158	0,011
-184,344	-5,041	-0,167	0,082
-183,329	-200,000	0,007	0,056
-182,315	-119,886	0,064	-0,008
-181,300	238,690	0,048	0,057
-180,285	271,558	-0,062	-0,078
-179,271	-200,000	0,013	-0,159
-178,256	-10,203	-0,076	0,036
-177,242	800,000	-0,026	0,082
-176,227	96,655	0,038	0,031
-175,212	189,157	0,046	0,049
-174,198	800,000	0,048	-0,132
-173,183	800,000	-0,015	0,044
-172,169	-157,783	0,083	-0,003
-171,154	-200,000	-0,004	0,077
-170,139	-163,462	-0,020	0,001
-169,125	800,000	0,059	0,132
-168,110	223,703	0,041	0,047
-167,096	85,488	0,052	0,041
-166,081	-18,498	-0,081	-0,036
-165,066	800,000	-0,020	0,051
-164,052	-128,360	-0,111	0,011
-163,037	-57,806	-0,088	0,027
-162,023	-200,000	0,044	0,159
-161,008	130,605	0,081	0,075
-159,993	68,404	-0,037	0,027
-158,979	800,000	-0,031	-0,079
-157,964	800,000	-0,060	-0,129
-156,950	-8,553	-0,132	-0,063
-155,935	-51,463	0,085	0,028
-154,920	-170,144	0,104	-0,003
-153,906	800,000	0,026	0,061
-152,891	64,370	-0,039	-0,028
-151,877	204,081	-0,016	0,018
-150,862	-10,269	-0,096	-0,045
-149,847	195,856	0,155	-0,169
-148,833	800,000	-0,035	-0,072
-147,818	-155,856	0,025	0,001
-146,804	605,994	0,055	-0,098
-145,789	150,406	0,093	0,091
-144,775	-79,650	-0,059	0,014
-143,760	-98,022	-0,146	0,027
-142,745	-76,681	-0,040	0,010
-141,731	-200,000	0,034	0,141
-140,716	800,000	-0,044	0,124
-139,702	-109,851	0,135	-0,020
-138,687	223,377	0,050	-0,057
-137,672	192,899	-0,052	-0,056
-136,658	-43,670	-0,131	-0,047
-135,643	800,000	0,035	0,095
-134,629	-67,840	-0,032	0,009
-133,614	32,664	0,009	-0,006
-132,599	-134,156	0,134	-0,012
-131,585	-24,367	0,112	0,048
-130,570	280,963	0,030	0,038
-129,556	-200,000	0,008	-0,094
-128,541	101,957	-0,049	-0,041
-127,526	329,575	0,073	-0,101
-126,512	-50,783	-0,020	-0,007
-125,497	800,000	-0,053	0,142
-124,483	-90,274	-0,157	0,032
-123,468	-200,000	0,013	0,041
-122,453	800,000	-0,036	-0,080
-121,439	501,061	-0,093	-0,153
-120,424	-61,023	-0,215	-0,064
-119,410	56,682	0,167	-0,116
