DTS Sentinel unit serial number:	SN410029Multiplexer serial number:	ORYXHardware model number:	OX2-SRSoftware version number:	ORYX F/W v4,00 Oryx Data Collector v3.7.2.0data status	okinstallation	B6 Nyhavnadifferential loss correction	single-endedforward channel	channel 2reverse channel	N/Adate	2023/12/08time	16:55:08forward acquisition time	300,00reverse acquisition time	0,00gamma	499,1914k internal	0,3158k external	0,3158temperature offset calibration	1,0000default loss term (dB/km)	0,3820temperature slope calibration	1,0000multiplexer offset coefficient	1,0000multiplexer slope coefficient	1,0000fibre end	0,00T internal ref (°C)	15,13T ext. ref 1 (°C)	-1,39T ext. ref 2 (°C)	-1,39length (m)	temperature (°C)	Stokes	anti-Stokes-744,400	800,000	0,019	-0,049
-743,385	-152,458	-0,266	0,014
-742,371	-200,000	-0,016	0,108
-741,356	-111,829	-0,240	-0,035
-740,342	-3,424	0,243	0,124
-739,327	-115,547	-0,262	0,036
-738,312	-200,000	0,023	-0,084
-737,298	-177,059	-0,299	-0,005
-736,283	182,907	0,093	0,101
-735,269	-121,408	-0,294	-0,036
-734,254	210,558	0,084	0,097
-733,239	-24,502	-0,509	-0,222
-732,225	-91,191	0,148	0,031
-731,210	184,937	-0,037	-0,041
-730,196	-94,235	0,010	-0,002
-729,181	-77,423	0,081	0,021
-728,167	91,465	-0,049	0,040
-727,152	-200,000	-0,003	-0,058
-726,137	800,000	0,028	-0,078
-725,123	-200,000	0,004	-0,136
-724,108	-93,827	-0,060	-0,012
-723,094	-200,000	0,027	-0,115
-722,079	-82,056	-0,027	0,007
-721,064	-2,760	-0,047	-0,024
-720,050	198,039	0,117	-0,132
-719,035	-200,000	-0,007	-0,119
-718,021	-139,855	-0,114	-0,009
-717,006	32,005	-0,187	-0,118
-715,991	800,000	-0,040	-0,121
-714,977	-17,589	0,085	-0,039
-713,962	76,194	0,050	-0,039
-712,948	-177,353	-0,067	0,001
-711,933	-200,000	-0,011	0,125
-710,918	603,522	0,071	-0,131
-709,904	-200,000	-0,012	-0,119
-708,889	-61,510	-0,171	-0,052
-707,875	-200,000	-0,037	-0,134
-706,860	39,589	-0,048	0,031
-705,845	-60,213	-0,156	-0,049
-704,831	-173,230	0,133	0,003
-703,816	392,893	-0,054	-0,083
-702,802	60,225	-0,041	0,030
-701,787	566,934	-0,046	-0,082
-700,772	-52,762	-0,067	-0,023
-699,758	14,597	-0,102	0,058
-698,743	121,162	0,142	0,130
-697,729	578,625	-0,029	0,052
-696,714	-200,000	-0,016	0,053
-695,699	-183,371	-0,037	-0,000
-694,685	800,000	-0,025	0,051
-693,670	522,978	-0,031	-0,053
-692,656	-19,777	-0,092	-0,042
-691,641	31,078	-0,076	-0,048
-690,627	207,548	-0,030	0,035
-689,612	69,228	-0,100	0,075
-688,597	447,359	-0,090	0,146
-687,583	109,285	-0,099	-0,087
-686,568	-200,000	-0,000	-0,008
-685,554	800,000	-0,039	0,103
-684,539	1,478	0,087	-0,046
-683,524	440,338	-0,042	-0,067
-682,510	-200,000	0,011	0,043
-681,495	273,471	-0,063	-0,082
-680,481	800,000	-0,037	-0,105
-679,466	588,779	-0,093	-0,168
-678,451	-200,000	0,021	-0,095
-677,437	151,516	-0,039	-0,039
-676,422	800,000	0,028	-0,077
-675,408	-200,000	-0,023	0,125
-674,393	246,764	0,097	-0,120
-673,378	544,373	-0,063	0,111
-672,364	-80,014	-0,164	-0,040
-671,349	419,299	-0,065	-0,102
-670,335	-57,746	-0,073	-0,023
-669,320	330,098	-0,053	0,075
-668,305	-100,591	-0,041	-0,007
-667,291	17,102	-0,031	-0,018
-666,276	-97,348	-0,124	0,023
-665,262	218,271	-0,154	-0,181
-664,247	270,831	-0,072	0,093
-663,232	32,066	-0,060	0,038
-662,218	166,334	0,076	-0,079
-661,203	-1,772	0,039	-0,020
-660,189	281,539	-0,021	0,028
-659,174	453,487	-0,045	-0,073
-658,159	-200,000	0,009	-0,051
-657,145	30,916	-0,067	-0,042
-656,130	-81,404	0,124	0,030
-655,116	79,511	-0,108	0,085
-654,101	-182,162	0,065	0,001
-653,086	194,432	-0,027	-0,030
-652,072	362,127	-0,042	-0,063
-651,057	-59,773	-0,090	-0,028
-650,043	161,109	-0,046	-0,047
-649,028	209,277	-0,053	0,061
-648,014	60,128	0,052	-0,038
-646,999	-200,000	-0,043	-0,157
-645,984	69,640	0,095	0,072
-644,970	-13,028	-0,094	-0,045
-643,955	8,547	-0,036	0,020
-642,941	22,940	-0,035	0,021
-641,926	-51,770	0,078	0,027
-640,911	440,573	-0,055	-0,088
-639,897	54,652	-0,051	0,036
-638,882	-200,000	-0,003	0,048
-637,868	-200,000	-0,003	-0,110
-636,853	800,000	0,032	-0,068
-635,838	108,632	0,042	0,037
-634,824	54,931	-0,027	0,019
-633,809	3,692	0,045	-0,024
-632,795	-42,752	-0,095	-0,035
-631,780	-200,000	0,034	-0,134
-630,765	57,668	-0,064	0,046
-629,751	204,736	-0,089	-0,102
-628,736	134,469	-0,072	0,068
-627,722	-200,000	-0,006	-0,045
-626,707	-180,898	-0,080	0,001
-625,692	80,902	0,103	-0,081
-624,678	183,091	0,035	-0,038
-623,663	-127,382	-0,030	-0,003
-622,649	777,439	-0,035	0,071
-621,634	105,022	-0,076	-0,066
-620,619	800,000	0,013	0,039
-619,605	269,111	-0,036	0,046
-618,590	97,899	0,087	-0,073
-617,576	800,000	0,037	0,095
-616,561	-85,593	-0,102	0,023
-615,546	-200,000	-0,011	0,140
-614,532	475,247	-0,030	-0,050
-613,517	409,808	-0,018	0,029
-612,503	-117,955	-0,006	0,001
-611,488	-92,107	0,130	-0,027
-610,474	800,000	0,068	0,162
-609,459	-75,713	-0,069	-0,018
-608,444	800,000	-0,052	-0,110
-607,430	75,474	-0,104	-0,080
-606,415	6,933	0,059	-0,032
-605,401	-126,966	-0,069	0,007
-604,386	66,023	0,158	0,118
-603,371	-200,000	-0,014	0,095
-602,357	-200,000	-0,008	0,126
-601,342	-13,267	0,178	0,085
-600,328	800,000	0,020	-0,055
-599,313	800,000	-0,056	-0,129
-598,298	-172,185	-0,151	-0,003
-597,284	-200,000	0,008	0,044
-596,269	60,474	0,153	0,111
-595,255	-200,000	-0,006	-0,126
-594,240	-141,246	0,066	0,005
-593,225	-111,298	0,056	-0,008
-592,211	149,861	-0,078	-0,078
-591,196	-183,937	-0,153	0,002
-590,182	-47,373	-0,092	-0,033
-589,167	194,115	-0,085	0,094
-588,152	8,260	-0,151	-0,083
-587,138	-200,000	0,008	-0,087
-586,123	211,207	-0,047	-0,055
-585,109	719,750	-0,022	0,042
-584,094	-200,000	0,010	-0,045
-583,079	-200,000	-0,020	-0,068
-582,065	800,000	0,032	-0,072
-581,050	80,385	0,113	-0,089
-580,036	-121,200	-0,087	-0,011
-579,021	236,524	0,013	0,016
-578,006	155,923	-0,076	0,077
-576,992	711,785	0,030	-0,058
-575,977	-200,000	-0,018	0,084
-574,963	-200,000	0,009	-0,122
-573,948	132,937	0,131	0,124
-572,934	192,867	0,041	0,045
-571,919	-127,943	0,075	0,008
-570,904	-119,529	-0,102	0,013
-569,890	-78,051	-0,044	0,011
-568,875	687,483	-0,014	-0,026
-567,861	-200,000	0,012	-0,093
-566,846	565,185	0,105	0,186
-565,831	-120,307	0,059	-0,007
-564,817	-152,666	0,101	-0,005
-563,802	-200,000	-0,017	-0,120
-562,788	493,565	-0,106	-0,179
-561,773	217,638	0,031	-0,037
-560,758	33,772	0,041	-0,026
-559,744	128,648	0,050	-0,047
-558,729	-200,000	-0,002	-0,039
-557,715	-66,634	-0,037	-0,011
-556,700	-200,000	0,013	-0,056
-555,685	197,679	-0,086	-0,096
-554,671	256,549	0,051	0,065
-553,656	-200,000	-0,008	0,085
-552,642	553,604	0,026	0,047
-551,627	4,988	0,072	0,039
-550,612	-51,282	-0,034	0,012
-549,598	-98,826	-0,117	-0,022
-548,583	-19,104	0,100	-0,045
-547,569	-200,000	-0,005	-0,034
-546,554	-200,000	-0,001	0,016
-545,539	639,538	0,026	-0,049
-544,525	-32,861	0,046	-0,018
-543,510	78,989	0,026	-0,021
-542,496	727,134	0,047	-0,093
-541,481	147,275	-0,074	-0,073
-540,466	142,066	0,112	-0,108
-539,452	-135,063	0,099	0,009
-538,437	-200,000	0,023	0,120
-537,423	152,318	-0,070	0,070
-536,408	110,649	0,112	-0,098
-535,393	-22,362	-0,070	0,031
-534,379	378,840	0,056	0,084
-533,364	-120,271	-0,089	-0,011
-532,350	77,148	0,039	0,031
-531,335	800,000	-0,023	0,057
-530,321	141,804	0,041	-0,040
-529,306	-200,000	-0,031	-0,180
-528,291	535,292	0,039	-0,068
-527,277	-88,220	-0,149	-0,032
-526,262	-200,000	0,014	-0,056
-525,248	353,035	0,044	-0,065
-524,233	-65,810	0,101	-0,029
-523,218	198,350	0,067	0,075
-522,204	800,000	-0,038	0,096
-521,189	-81,936	0,062	0,015
-520,175	469,965	0,035	0,057
-519,160	-200,000	-0,001	-0,069
-518,145	800,000	-0,009	-0,028
-517,131	-195,504	0,057	0,000
-516,116	-200,000	0,003	0,054
-515,102	120,615	0,063	0,057
-514,087	800,000	0,040	-0,081
-513,072	800,000	0,013	0,028
-512,058	191,343	-0,061	-0,068
-511,043	180,568	0,034	0,037
-510,029	571,800	0,040	0,071
-509,014	800,000	-0,046	0,106
-507,999	39,871	0,062	0,041
-506,985	-200,000	0,020	-0,075
-505,970	143,499	-0,029	0,029
-504,956	434,291	-0,064	-0,102
-503,941	308,742	0,052	0,071
-502,926	800,000	0,027	-0,070
-501,912	473,123	0,057	0,094
-500,897	-200,000	-0,011	-0,053
-499,883	-16,773	0,067	-0,031
-498,868	119,534	-0,069	-0,062
-497,853	13,357	-0,091	0,051
-496,839	272,365	0,039	0,050
-495,824	-200,000	0,045	0,180
-494,810	-200,000	0,004	0,034
-493,795	800,000	-0,033	-0,087
-492,781	-200,000	-0,007	-0,097
-491,766	-200,000	0,007	-0,139
-490,751	-28,796	0,062	-0,026
-489,737	800,000	-0,039	-0,085
-488,722	-33,436	-0,076	0,030
-487,708	225,664	0,056	-0,066
-486,693	269,420	0,027	0,034
-485,678	-51,741	-0,175	0,059
-484,664	193,049	-0,112	0,124
-483,649	-200,000	0,009	-0,063
-482,635	122,296	0,063	-0,057
-481,620	-200,000	0,015	0,144
-480,605	-80,422	0,118	0,028
-479,591	-140,741	-0,084	-0,006
-478,576	-200,000	-0,006	-0,060
-477,562	136,240	0,057	0,054
-476,547	-200,000	-0,022	-0,117
-475,532	47,649	-0,059	-0,040
-474,518	800,000	0,023	0,067
-473,503	-182,318	0,041	0,001
-472,489	-200,000	0,014	0,105
-471,474	-200,000	-0,013	0,058
-470,459	4,668	-0,098	0,053
-469,445	48,518	-0,049	-0,033
-468,430	-4,295	0,114	-0,057
-467,416	-147,433	0,075	0,005
-466,401	-200,000	0,007	-0,039
-465,386	710,794	0,063	0,123
-464,372	-200,000	0,001	0,009
-463,357	691,353	-0,018	-0,035
-462,343	-14,775	0,040	-0,019
-461,328	-200,000	0,020	-0,102
-460,313	-200,000	0,025	0,138
-459,299	716,374	0,050	-0,098
-458,284	800,000	0,038	0,086
-457,270	-200,000	-0,002	-0,015
-456,255	137,537	-0,093	-0,089
-455,241	691,175	0,041	-0,079
-454,226	-177,884	-0,163	0,003
-453,211	-33,600	0,191	0,077
-452,197	800,000	-0,037	-0,086
-451,182	-200,000	0,006	0,125
-450,168	38,661	0,130	0,084
-449,153	129,529	-0,030	0,028
-448,138	800,000	0,029	0,068
-447,124	367,858	-0,044	-0,065
-446,109	278,655	-0,001	0,001
-445,095	-200,000	-0,023	0,078
-444,080	-28,891	0,154	-0,064
-443,065	-200,000	-0,017	-0,114
-442,051	-130,532	0,034	0,003
-441,036	-31,096	0,092	-0,038
-440,022	800,000	-0,013	-0,037
-439,007	800,000	0,023	0,055
-437,992	-183,974	0,088	0,001
-436,978	-200,000	0,028	0,105
-435,963	800,000	-0,038	0,114
-434,949	-82,429	0,061	0,014
-433,934	-200,000	0,008	-0,039
-432,919	-86,103	0,004	-0,001
-431,905	800,000	0,046	-0,122
-430,890	-200,000	0,007	0,048
-429,876	510,898	-0,026	0,044
-428,861	-96,852	-0,055	0,010
-427,846	-129,558	-0,128	0,013
-426,832	-38,907	0,009	0,004
-425,817	209,185	-0,057	-0,065
-424,803	800,000	-0,027	-0,070
-423,788	150,598	0,028	0,028
-422,773	80,561	-0,043	0,033
-421,759	-200,000	0,002	0,042
-420,744	83,189	0,118	-0,094
-419,730	-90,304	0,088	0,019
-418,715	50,668	-0,141	-0,097
-417,701	23,259	0,022	0,013
-416,686	98,949	-0,045	-0,038
-415,671	52,377	0,044	0,030
-414,657	-200,000	0,005	0,062
-413,642	-200,000	0,029	0,182
-412,628	56,286	-0,092	0,065
-411,613	-12,510	-0,087	-0,041
-410,598	-200,000	-0,044	-0,172
-409,584	256,826	-0,035	0,044
-408,569	59,582	0,118	0,084
-407,555	-200,000	0,019	0,078
-406,540	317,491	-0,034	0,047
-405,525	224,462	0,034	0,040
-404,511	-200,000	-0,020	-0,173
-403,496	-144,939	-0,033	0,002
-402,482	-200,000	-0,003	0,048
-401,467	-200,000	-0,019	0,092
-400,452	-86,470	0,061	0,014
-399,438	-200,000	0,016	0,059
-398,423	-200,000	-0,005	0,119
-397,409	-200,000	-0,017	-0,130
-396,394	800,000	-0,046	-0,100
-395,379	-29,995	0,103	0,043
-394,365	-200,000	-0,032	0,127
-393,350	9,116	0,109	-0,060
-392,336	164,183	-0,045	-0,046
-391,321	91,171	-0,026	0,021
-390,306	541,013	-0,064	-0,111
-389,292	65,581	0,125	-0,092
-388,277	46,770	-0,043	-0,029
-387,263	-200,000	-0,017	-0,142
-386,248	-27,585	-0,055	-0,023
-385,233	6,515	-0,074	-0,040
-384,219	-200,000	0,026	-0,150
-383,204	453,424	-0,008	0,013
-382,190	-200,000	0,002	-0,063
-381,175	495,648	-0,062	0,103
-380,160	78,804	-0,080	0,063
-379,146	45,737	0,054	-0,036
-378,131	28,972	0,139	0,086
-377,117	-136,110	-0,124	0,010
-376,102	800,000	0,026	-0,057
-375,088	679,328	-0,014	-0,026
-374,073	220,154	-0,042	0,049
-373,058	468,502	-0,026	-0,043
-372,044	249,652	0,036	-0,044
-371,029	302,302	0,104	-0,140
-370,015	-200,000	-0,022	0,074
-369,000	-200,000	-0,019	-0,084
-367,985	-200,000	0,024	-0,142
-366,971	-200,000	0,012	0,072
-365,956	-200,000	0,014	0,085
-364,942	-200,000	-0,033	0,139
-363,927	138,668	-0,093	0,088
-362,912	-200,000	-0,014	0,091
-361,898	11,192	0,070	-0,039
-360,883	259,967	0,038	-0,047
-359,869	34,548	-0,042	-0,026
-358,854	454,343	0,050	-0,080
-357,839	113,494	-0,097	0,085
-356,825	-53,672	0,062	0,021
-355,810	-104,023	0,057	0,010
-354,796	7,276	-0,076	0,041
-353,781	-69,299	0,058	0,016
-352,766	-64,284	-0,168	-0,049
-351,752	-51,283	-0,100	-0,034
-350,737	223,896	0,045	0,053
-349,723	-200,000	-0,010	-0,101
-348,708	800,000	-0,054	-0,126
-347,693	42,227	0,051	0,034
-346,679	800,000	-0,030	0,068
-345,664	120,279	0,010	0,009
-344,650	-200,000	-0,003	-0,029
-343,635	-200,000	-0,011	0,048
-342,620	-163,447	0,068	-0,002
-341,606	381,875	0,042	0,063
-340,591	705,412	0,036	-0,070
-339,577	2,128	-0,086	0,045
-338,562	-200,000	0,012	-0,059
-337,548	534,533	0,089	0,154
-336,533	-200,000	-0,011	0,092
-335,518	-200,000	-0,018	0,095
-334,504	718,513	-0,052	-0,101
-333,489	-72,322	0,074	0,020
-332,475	253,843	-0,063	-0,079
-331,460	128,697	0,050	-0,046
-330,445	-99,817	-0,121	0,022
-329,431	-92,145	-0,020	0,004
-328,416	-200,000	-0,003	0,030
-327,402	11,944	-0,129	0,072
-326,387	100,817	-0,028	0,024
-325,372	696,732	-0,030	0,057
-324,358	4,527	0,190	-0,101
-323,343	-200,000	-0,022	0,083
-322,329	-200,000	-0,012	-0,139
-321,314	-200,000	-0,017	0,121
-320,299	800,000	0,033	-0,088
-319,285	163,526	-0,061	0,063
-318,270	-90,083	0,071	-0,015
-317,256	59,432	-0,145	-0,103
-316,241	800,000	0,050	-0,112
-315,226	-200,000	0,002	-0,071
-314,212	151,344	0,053	-0,052
-313,197	323,215	0,035	0,048
-312,183	130,490	0,076	0,070
-311,168	95,860	-0,030	-0,025
-310,153	31,221	-0,201	-0,125
-309,139	185,995	0,042	-0,045
-308,124	319,071	0,030	-0,042
-307,110	75,295	-0,078	-0,060
-306,095	299,001	-0,010	0,013
-305,080	-102,993	-0,051	0,009
-304,066	-200,000	0,001	-0,109
-303,051	-200,000	-0,012	-0,048
-302,037	-200,000	-0,018	0,062
-301,022	609,179	0,019	0,034
-300,008	90,377	-0,128	0,104
-298,993	406,533	0,038	0,058
-297,978	154,669	0,031	-0,030
-296,964	-25,866	-0,015	0,006
-295,949	522,917	0,012	-0,020
-294,935	-91,727	-0,099	0,020
-293,920	292,095	0,054	0,071
-292,905	362,515	0,073	0,107
-291,891	26,115	0,141	0,085
-290,876	19,158	0,036	0,021
-289,862	800,000	0,063	0,179
-288,847	163,858	0,023	-0,024
-287,832	-99,148	-0,030	0,005
-286,818	-200,000	0,002	-0,037
-285,803	-200,000	-0,003	-0,058
-284,789	-200,000	0,004	0,029
-283,774	-26,577	0,049	0,020
-282,759	-200,000	-0,011	-0,056
-281,745	-91,601	-0,038	-0,008
-280,730	-6,853	-0,069	0,034
-279,716	548,403	-0,073	0,126
-278,701	-148,311	0,111	0,006
-277,686	376,400	-0,045	0,067
-276,672	113,411	0,012	-0,011
-275,657	-157,546	-0,020	0,001
-274,643	316,520	-0,056	-0,076
-273,628	-200,000	-0,014	0,046
-272,613	-200,000	-0,009	-0,152
-271,599	-29,716	-0,075	-0,031
-270,584	-2,167	-0,083	0,042
-269,570	800,000	0,029	0,062
-268,555	94,999	0,073	0,060
-267,540	168,876	-0,037	0,038
-266,526	-140,996	0,093	0,007
-265,511	388,030	0,047	-0,070
-264,497	-69,318	0,055	0,015
-263,482	-4,102	-0,001	-0,000
-262,467	-139,062	-0,109	0,008
-261,453	-64,057	0,016	0,005
-260,438	251,924	0,099	0,123
-259,424	-200,000	0,005	0,100
-258,409	139,117	-0,125	0,119
-257,395	-200,000	-0,011	-0,082
-256,380	-28,354	0,094	-0,039
-255,365	800,000	-0,082	0,170
-254,351	603,859	0,059	0,107
-253,336	-200,000	0,008	0,053
-252,322	51,303	0,055	0,038
-251,307	170,250	0,096	-0,100
-250,292	259,056	-0,041	0,051
-249,278	76,707	-0,078	0,060
-248,263	-192,610	-0,049	-0,000
-247,249	-200,000	0,016	0,062
-246,234	36,103	-0,139	-0,088
-245,219	103,627	-0,099	-0,084
-244,205	2,519	-0,100	-0,052
-243,190	213,417	-0,036	0,041
-242,176	-200,000	0,020	-0,095
-241,161	-83,612	-0,115	0,026
-240,146	68,090	0,041	0,030
-239,132	60,799	0,052	0,037
-238,117	-200,000	0,014	-0,070
-237,103	345,906	-0,076	-0,108
-236,088	71,607	0,091	-0,069
-235,073	-51,452	0,162	0,055
-234,059	800,000	-0,020	-0,056
-233,044	-200,000	-0,002	0,046
-232,030	-91,286	-0,144	-0,030
-231,015	-52,956	0,106	0,035
-230,000	-121,023	-0,078	-0,009
-228,986	248,263	0,029	0,036
-227,971	-180,709	0,083	0,001
-226,957	14,125	-0,060	0,034
-225,942	284,918	0,040	-0,052
-224,927	-200,000	-0,023	0,080
-223,913	-143,757	0,090	0,006
-222,898	156,889	-0,027	-0,027
-221,884	27,591	-0,120	-0,073
-220,869	338,208	-0,022	-0,031
-219,855	409,299	-0,053	-0,081
-218,840	-15,111	-0,028	0,013
-217,825	47,538	0,068	-0,046
-216,811	-200,000	-0,009	-0,215
-215,796	197,602	-0,173	-0,191
-214,782	-200,000	0,024	0,129
-213,767	206,889	0,049	0,055
-212,752	-20,556	0,096	0,042
-211,738	-44,517	-0,058	0,021
-210,723	-136,096	-0,072	0,006
-209,709	-200,000	0,012	0,046
-208,694	393,410	0,039	-0,059
-207,679	202,460	-0,054	-0,060
-206,665	800,000	0,012	-0,027
-205,650	800,000	-0,044	-0,105
-204,636	7,741	0,042	0,022
-203,621	301,164	-0,035	0,047
-202,606	-42,760	-0,098	-0,036
-201,592	-200,000	0,001	0,100
-200,577	210,553	0,082	-0,093
-199,563	48,276	-0,096	-0,065
-198,548	108,207	0,038	0,033
-197,533	44,458	0,137	0,091
-196,519	236,566	-0,064	0,076
-195,504	-98,192	0,076	0,014
-194,490	360,562	-0,067	-0,097
-193,475	83,496	0,089	-0,070
-192,460	23,872	0,082	0,049
-191,446	5,511	-0,018	-0,010
-190,431	800,000	-0,038	-0,108
-189,417	-29,108	-0,116	0,048
-188,402	123,998	-0,064	0,058
-187,387	-82,310	-0,071	0,017
-186,373	421,727	0,043	-0,067
-185,358	239,332	0,054	0,064
-184,344	-200,000	-0,008	0,080
-183,329	28,650	0,092	0,056
-182,315	154,439	-0,044	0,044
-181,300	306,988	0,117	-0,158
-180,285	800,000	0,075	-0,181
-179,271	-185,368	0,029	-0,000
-178,256	-200,000	0,004	-0,045
-177,242	-200,000	0,015	0,064
-176,227	331,799	0,080	0,112
-175,212	638,872	-0,037	0,067
-174,198	800,000	0,016	-0,042
-173,183	-200,000	-0,033	-0,106
-172,169	628,958	-0,081	0,148
-171,154	800,000	-0,057	0,148
-170,139	-200,000	0,014	-0,049
-169,125	163,324	-0,074	-0,075
-168,110	20,212	-0,043	0,025
-167,096	-200,000	0,025	0,145
-166,081	32,063	0,052	0,032
-165,066	290,911	-0,061	0,080
-164,052	-7,698	0,084	0,041
-163,037	-45,580	0,059	-0,021
-162,023	-123,571	0,212	0,024
-161,008	800,000	-0,013	0,034
-159,993	800,000	-0,036	0,097
-158,979	7,811	-0,155	0,083
-157,964	99,772	0,051	0,043
-156,950	-200,000	0,020	0,090
-155,935	-53,913	0,186	0,061
-154,920	-100,939	-0,139	0,024
-153,906	-46,529	0,123	0,043
-152,891	44,835	-0,041	0,027
-151,877	800,000	-0,045	-0,095
-150,862	-200,000	-0,018	-0,079
-149,847	-200,000	0,003	-0,045
-148,833	800,000	0,035	0,079
-147,818	-169,702	0,103	-0,003
-146,804	800,000	0,024	-0,058
-145,789	52,124	0,028	0,019
-144,775	-200,000	0,021	-0,075
-143,760	316,033	-0,109	-0,149
-142,745	187,018	0,051	-0,055
-141,731	-200,000	-0,020	0,068
-140,716	731,896	-0,047	0,091
-139,702	800,000	-0,028	0,079
-138,687	800,000	0,045	-0,125
-137,672	749,478	0,054	-0,105
-136,658	-200,000	0,006	-0,159
-135,643	-31,826	-0,110	-0,044
-134,629	132,673	0,030	-0,028
-133,614	415,624	-0,085	0,130
-132,599	147,065	-0,105	0,101
-131,585	800,000	-0,073	0,186
-130,570	54,314	-0,032	0,022
-129,556	-200,000	0,037	-0,131
-128,541	-19,199	-0,087	-0,039
-127,526	308,460	-0,056	0,076
-126,512	18,887	0,030	0,017
-125,497	99,618	0,090	0,075
-124,483	-200,000	0,005	0,117
-123,468	-35,269	-0,063	0,025
-122,453	91,131	-0,012	0,010
-121,439	-200,000	0,013	-0,150
-120,424	-200,000	-0,044	-0,217
-119,410	26,882	-0,023	-0,014
-118,395	130,110	0,157	0,144
