DTS Sentinel unit serial number:	SN410029Multiplexer serial number:	ORYXHardware model number:	OX2-SRSoftware version number:	ORYX F/W v4,00 Oryx Data Collector v3.7.2.0data status	okinstallation	B6 Nyhavnadifferential loss correction	single-endedforward channel	channel 2reverse channel	N/Adate	2023/12/07time	21:50:08forward acquisition time	300,00reverse acquisition time	0,00gamma	499,1914k internal	0,3165k external	0,3165temperature offset calibration	1,0000default loss term (dB/km)	0,3820temperature slope calibration	1,0000multiplexer offset coefficient	1,0000multiplexer slope coefficient	1,0000fibre end	0,00T internal ref (°C)	13,65T ext. ref 1 (°C)	-3,28T ext. ref 2 (°C)	-3,29length (m)	temperature (°C)	Stokes	anti-Stokes-744,400	63,729	0,011	0,008
-743,385	-30,692	-0,258	-0,107
-742,371	48,841	0,092	0,063
-741,356	-80,808	-0,342	0,083
-740,342	95,512	0,140	0,117
-739,327	-143,661	-0,428	0,029
-738,312	-200,000	0,011	0,062
-737,298	-123,332	-0,288	-0,033
-736,283	223,168	0,058	-0,069
-735,269	-166,332	-0,339	0,010
-734,254	276,521	0,114	0,150
-733,239	-84,954	-0,524	-0,120
-732,225	67,977	0,100	0,075
-731,210	529,146	0,055	0,095
-730,196	394,637	-0,040	0,061
-729,181	-15,326	-0,245	-0,115
-728,167	800,000	0,053	-0,121
-727,152	243,802	-0,141	-0,175
-726,137	27,776	0,069	-0,043
-725,123	-54,954	-0,228	-0,075
-724,108	479,657	-0,065	0,109
-723,094	545,367	0,049	0,087
-722,079	-200,000	-0,019	-0,116
-721,064	6,874	-0,048	0,026
-720,050	74,336	-0,088	0,068
-719,035	-200,000	0,005	-0,068
-718,021	-200,000	0,029	0,130
-717,006	58,445	0,084	-0,061
-715,991	-38,402	-0,170	-0,066
-714,977	501,396	0,023	-0,039
-713,962	800,000	0,036	-0,084
-712,948	-99,930	-0,092	0,017
-711,933	-135,193	0,054	0,005
-710,918	475,437	-0,078	0,130
-709,904	39,233	-0,070	-0,046
-708,889	55,772	-0,044	-0,031
-707,875	-62,427	-0,118	-0,036
-706,860	-200,000	-0,001	-0,026
-705,845	-185,399	-0,126	0,001
-704,831	-121,247	0,060	0,007
-703,816	-200,000	-0,022	-0,119
-702,802	4,405	-0,071	0,038
-701,787	15,461	-0,048	-0,028
-700,772	146,034	-0,064	-0,063
-699,758	-105,106	-0,104	0,017
-698,743	-200,000	0,010	0,112
-697,729	800,000	0,026	0,075
-696,714	316,788	0,052	0,073
-695,699	58,846	-0,099	-0,071
-694,685	-200,000	-0,008	-0,129
-693,670	-14,053	0,074	-0,035
-692,656	-200,000	0,025	-0,118
-691,641	542,406	-0,009	-0,016
-690,627	366,222	0,097	0,145
-689,612	-80,498	0,212	-0,051
-688,597	-7,953	-0,161	-0,080
-687,583	37,539	-0,123	-0,080
-686,568	800,000	0,051	-0,133
-685,554	-200,000	-0,001	-0,097
-684,539	800,000	-0,066	0,150
-683,524	-27,564	-0,035	-0,015
-682,510	-38,282	0,120	0,046
-681,495	36,986	0,027	-0,018
-680,481	-200,000	-0,019	-0,071
-679,466	106,641	-0,157	-0,137
-678,451	-169,220	-0,080	-0,002
-677,437	154,302	0,040	0,040
-676,422	-200,000	-0,017	0,180
-675,408	800,000	0,039	-0,090
-674,393	-116,901	0,077	-0,010
-673,378	53,369	-0,106	0,074
-672,364	-200,000	-0,022	0,097
-671,349	742,484	-0,091	-0,180
-670,335	137,976	0,063	0,061
-669,320	-11,137	-0,064	0,031
-668,305	100,824	0,043	-0,037
-667,291	256,184	-0,021	-0,027
-666,276	102,751	-0,070	0,060
-665,262	-200,000	-0,037	-0,159
-664,247	199,956	-0,052	-0,059
-663,232	-171,480	0,083	-0,002
-662,218	-106,033	0,043	0,007
-661,203	-107,208	0,089	-0,014
-660,189	112,189	-0,076	-0,067
-659,174	24,827	-0,083	0,050
-658,159	-132,834	-0,142	0,013
-657,145	-200,000	0,011	-0,040
-656,130	-200,000	-0,017	0,094
-655,116	-200,000	0,032	0,117
-654,101	-127,637	0,099	-0,010
-653,086	-200,000	0,021	0,130
-652,072	-200,000	0,046	0,171
-651,057	175,898	-0,060	-0,064
-650,043	138,658	-0,028	-0,027
-649,028	-174,231	-0,079	-0,002
-648,014	-63,106	-0,056	-0,017
-646,999	129,284	0,084	-0,078
-645,984	219,032	-0,039	-0,046
-644,970	-200,000	-0,033	-0,110
-643,955	2,016	-0,175	-0,092
-642,941	800,000	-0,055	-0,127
-641,926	-200,000	-0,014	0,106
-640,911	102,259	-0,068	0,058
-639,897	144,904	0,081	-0,080
-638,882	-46,376	-0,119	0,043
-637,868	93,103	0,026	0,022
-636,853	78,285	-0,054	0,042
-635,838	-200,000	-0,008	-0,047
-634,824	-90,453	-0,042	-0,009
-633,809	84,655	0,026	-0,020
-632,795	-200,000	-0,033	0,119
-631,780	527,977	0,002	-0,004
-630,765	-200,000	0,023	0,102
-629,751	-200,000	0,026	0,096
-628,736	-94,751	-0,123	0,024
-627,722	57,158	-0,069	0,049
-626,707	-173,798	0,009	0,000
-625,692	226,891	-0,080	0,096
-624,678	640,719	-0,024	-0,044
-623,663	-200,000	0,008	-0,116
-622,649	-70,018	0,082	-0,023
-621,634	800,000	-0,012	-0,025
-620,619	-117,974	-0,104	-0,013
-619,605	73,591	-0,115	-0,088
-618,590	87,542	0,057	0,046
-617,576	106,017	-0,046	0,040
-616,561	-148,973	-0,111	0,006
-615,546	45,239	0,123	0,083
-614,532	800,000	-0,059	-0,130
-613,517	398,351	-0,023	-0,036
-612,503	620,273	-0,056	-0,104
-611,488	-157,918	-0,081	-0,003
-610,474	800,000	0,024	0,066
-609,459	-144,177	0,045	0,003
-608,444	-200,000	0,029	-0,098
-607,430	-146,611	-0,045	0,003
-606,415	-200,000	-0,007	-0,119
-605,401	-200,000	0,003	0,092
-604,386	198,005	0,075	0,084
-603,371	-25,909	0,078	0,033
-602,357	-149,429	0,064	0,004
-601,342	25,695	-0,125	-0,076
-600,328	665,554	0,030	-0,057
-599,313	129,992	-0,044	0,041
-598,298	79,371	0,007	0,005
-597,284	459,571	0,055	0,090
-596,269	84,464	-0,179	0,143
-595,255	-98,686	-0,053	-0,010
-594,240	-62,498	-0,149	0,045
-593,225	-200,000	-0,011	-0,109
-592,211	-1,958	-0,054	0,028
-591,196	281,580	0,058	0,076
-590,182	421,326	-0,022	0,035
-589,167	3,579	-0,045	-0,024
-588,152	-200,000	-0,011	0,171
-587,138	-22,870	-0,064	0,028
-586,123	525,732	-0,087	-0,149
-585,109	-200,000	0,006	-0,045
-584,094	58,699	-0,066	0,047
-583,079	800,000	0,027	-0,059
-582,065	-200,000	0,030	0,134
-581,050	170,335	0,029	0,030
-580,036	-200,000	-0,006	-0,058
-579,021	-11,466	-0,143	0,069
-578,006	800,000	0,019	0,041
-576,992	169,450	-0,071	-0,075
-575,977	-74,431	0,159	-0,042
-574,963	21,200	0,111	0,066
-573,948	-200,000	0,006	0,030
-572,934	-200,000	0,009	-0,108
-571,919	-123,451	-0,050	0,006
-570,904	-11,232	-0,105	0,051
-569,890	-159,483	-0,076	-0,003
-568,875	-97,267	-0,065	0,012
-567,861	-71,091	0,075	-0,020
-566,846	-200,000	0,001	0,042
-565,831	-125,816	0,055	0,006
-564,817	-200,000	-0,002	-0,025
-563,802	58,837	-0,065	-0,046
-562,788	286,796	-0,092	0,122
-561,773	-0,228	0,099	-0,051
-560,758	149,511	0,079	0,079
-559,744	800,000	-0,041	0,091
-558,729	-185,741	0,033	0,000
-557,715	-200,000	-0,028	-0,092
-556,700	-44,363	-0,073	0,026
-555,685	-157,157	0,069	0,003
-554,671	9,627	0,095	-0,052
-553,656	98,191	-0,023	-0,019
-552,642	800,000	0,040	0,099
-551,627	299,334	0,031	0,042
-550,612	421,543	0,034	0,053
-549,598	-200,000	0,033	-0,145
-548,583	157,282	-0,106	-0,107
-547,569	-106,297	-0,036	-0,006
-546,554	-105,425	-0,089	0,015
-545,539	-177,580	0,048	0,001
-544,525	-200,000	-0,029	0,111
-543,510	20,860	-0,039	-0,023
-542,496	-200,000	-0,003	0,065
-541,481	106,460	0,109	-0,094
-540,466	364,714	-0,021	0,030
-539,452	-200,000	0,009	-0,029
-538,437	402,197	0,068	-0,104
-537,423	-154,580	0,076	0,004
-536,408	41,101	0,073	0,048
-535,393	-76,045	0,050	-0,013
-534,379	-13,927	0,078	0,037
-533,364	112,747	0,026	-0,023
-532,350	13,555	-0,106	0,060
-531,335	800,000	0,016	0,044
-530,321	279,270	0,054	0,071
-529,306	800,000	-0,060	-0,125
-528,291	800,000	-0,010	-0,026
-527,277	-200,000	0,036	-0,145
-526,262	37,844	0,019	0,013
-525,248	-200,000	0,012	0,059
-524,233	27,582	0,053	0,032
-523,218	422,174	-0,054	-0,084
-522,204	-160,808	-0,036	-0,001
-521,189	-86,823	-0,040	0,009
-520,175	-35,130	0,024	0,009
-519,160	154,779	-0,069	0,069
-518,145	800,000	-0,065	-0,167
-517,131	800,000	0,045	0,121
-516,116	-129,729	0,219	0,022
-515,102	638,558	0,028	-0,052
-514,087	-200,000	-0,008	-0,154
-513,072	-200,000	0,009	0,110
-512,058	-85,705	0,098	-0,022
-511,043	-48,690	0,094	-0,033
-510,029	-200,000	0,016	0,062
-509,014	239,189	0,050	0,061
-507,999	-200,000	-0,007	0,053
-506,985	240,353	0,038	0,046
-505,970	-200,000	0,005	-0,140
-504,956	-80,303	-0,160	0,039
-503,941	-149,906	0,067	-0,004
-502,926	202,895	-0,041	-0,046
-501,912	-139,576	-0,020	0,002
-500,897	800,000	0,053	-0,117
-499,883	-200,000	0,012	0,102
-498,868	-200,000	0,020	0,070
-497,853	11,674	0,096	0,053
-496,839	358,229	0,039	0,056
-495,824	63,497	0,106	0,078
-494,810	-113,980	0,062	0,009
-493,795	800,000	-0,040	0,084
-492,781	158,396	0,017	0,017
-491,766	-200,000	-0,014	0,113
-490,751	-200,000	-0,015	-0,118
-489,737	-95,406	-0,080	-0,016
-488,722	-31,957	0,153	0,062
-487,708	158,627	-0,009	0,009
-486,693	-85,007	0,011	0,003
-485,678	42,074	0,028	-0,019
-484,664	800,000	-0,036	-0,091
-483,649	-22,201	0,108	0,047
-482,635	-22,279	-0,025	-0,011
-481,620	-200,000	0,015	-0,097
-480,605	113,087	0,065	-0,057
-479,591	259,387	0,028	-0,035
-478,576	-200,000	-0,013	0,109
-477,562	-64,746	0,105	0,031
-476,547	445,250	-0,062	0,100
-475,532	-54,321	-0,094	-0,031
-474,518	-150,861	0,134	-0,007
-473,503	-200,000	-0,017	0,067
-472,489	-63,035	-0,069	0,021
-471,474	-126,210	-0,103	-0,011
-470,459	108,483	-0,059	0,051
-469,445	-113,671	-0,027	-0,004
-468,430	286,265	-0,088	-0,116
-467,416	192,262	0,127	-0,140
-466,401	253,507	-0,029	0,037
-465,386	40,753	0,159	0,104
-464,372	262,342	-0,073	0,092
-463,357	-200,000	-0,006	0,058
-462,343	800,000	-0,051	-0,122
-461,328	-167,928	-0,113	0,003
-460,313	-112,247	0,170	0,024
-459,299	-86,626	0,183	-0,040
-458,284	-200,000	-0,010	0,095
-457,270	277,675	-0,084	0,109
-456,255	800,000	0,053	-0,114
-455,241	14,148	0,063	-0,036
-454,226	335,899	0,055	0,078
-453,211	-138,126	0,042	0,003
-452,197	800,000	0,044	0,101
-451,182	-200,000	0,043	-0,145
-450,168	104,103	0,094	0,080
-449,153	-200,000	0,008	-0,066
-448,138	-200,000	-0,003	0,087
-447,124	-57,377	-0,053	-0,017
-446,109	-19,519	0,072	-0,032
-445,095	-10,207	0,068	0,033
-444,080	-200,000	-0,060	0,232
-443,065	14,656	0,016	0,009
-442,051	-41,263	0,106	0,040
-441,036	-200,000	0,014	-0,075
-440,022	-26,612	-0,066	0,028
-439,007	-134,432	0,196	0,017
-437,992	-200,000	0,004	0,046
-436,978	326,638	-0,017	-0,024
-435,963	-200,000	0,005	0,036
-434,949	-150,721	-0,048	0,003
-433,934	-152,251	-0,067	-0,003
-432,919	-200,000	-0,002	0,070
-431,905	-109,889	-0,082	0,012
-430,890	800,000	0,039	0,099
-429,876	800,000	0,050	-0,105
-428,861	-109,283	0,024	0,004
-427,846	-200,000	0,052	-0,202
-426,832	-122,608	-0,131	0,015
-425,817	641,294	0,031	-0,058
-424,803	-200,000	0,009	0,082
-423,788	-200,000	0,016	0,000
-422,773	-92,822	0,030	-0,006
-421,759	-200,000	0,006	0,039
-420,744	-42,300	0,092	0,034
-419,730	37,230	-0,064	-0,041
-418,715	-9,217	0,044	-0,021
-417,701	-200,000	0,022	0,101
-416,686	85,704	0,133	-0,106
-415,671	255,033	0,090	-0,112
-414,657	467,775	-0,063	-0,103
-413,642	222,037	0,031	-0,037
-412,628	-200,000	0,006	-0,042
-411,613	-200,000	-0,014	-0,194
-410,598	-57,010	0,021	0,007
-409,584	159,961	0,033	0,034
-408,569	58,240	-0,153	0,109
-407,555	-200,000	-0,006	0,081
-406,540	800,000	-0,030	0,069
-405,525	382,251	-0,118	-0,176
-404,511	25,771	-0,056	0,034
-403,496	-133,247	-0,013	0,001
-402,482	-200,000	0,027	0,127
-401,467	-200,000	-0,015	0,105
-400,452	800,000	-0,027	0,054
-399,438	281,687	0,085	0,111
-398,423	55,678	0,105	-0,074
-397,409	-200,000	-0,013	0,048
-396,394	800,000	-0,035	-0,079
-395,379	-200,000	-0,004	-0,115
-394,365	80,145	0,053	-0,041
-393,350	800,000	0,004	0,010
-392,336	800,000	-0,026	0,071
-391,321	-71,188	0,094	-0,025
-390,306	254,944	-0,099	-0,123
-389,292	800,000	-0,021	0,055
-388,277	91,535	-0,018	-0,015
-387,263	20,300	-0,051	-0,030
-386,248	308,587	0,048	0,065
-385,233	205,109	0,087	0,098
-384,219	265,359	0,016	-0,020
-383,204	-58,142	0,018	0,006
-382,190	240,521	-0,048	-0,058
-381,175	800,000	-0,032	0,076
-380,160	-200,000	0,006	0,056
-379,146	-200,000	-0,087	0,281
-378,131	-33,528	0,185	0,074
-377,117	-98,065	0,027	-0,005
-376,102	-101,754	-0,062	-0,011
-375,088	135,004	-0,094	0,089
-374,073	-80,888	-0,020	-0,005
-373,058	140,897	-0,083	-0,080
-372,044	-10,034	0,169	0,081
-371,029	-200,000	-0,015	0,056
-370,015	90,806	-0,072	0,059
-369,000	-200,000	0,015	0,074
-367,985	-200,000	0,011	-0,104
-366,971	-127,558	-0,033	0,003
-365,956	800,000	-0,002	0,004
-364,942	800,000	0,078	0,187
-363,927	202,875	-0,044	0,049
-362,912	-137,851	-0,091	-0,007
-361,898	487,848	-0,076	-0,126
-360,883	180,412	0,094	-0,100
-359,869	-200,000	0,001	-0,067
-358,854	800,000	0,012	-0,034
-357,839	800,000	-0,025	-0,072
-356,825	-70,037	0,030	-0,008
-355,810	800,000	0,040	0,105
-354,796	401,057	-0,039	-0,059
-353,781	93,668	-0,159	0,131
-352,766	427,008	0,025	-0,039
-351,752	458,844	-0,042	-0,068
-350,737	744,114	-0,010	-0,019
-349,723	-81,977	-0,149	0,035
-348,708	16,816	0,157	0,090
-347,693	-148,772	-0,067	-0,004
-346,679	3,240	0,199	-0,105
-345,664	-200,000	0,003	-0,072
-344,650	-44,160	-0,193	-0,070
-343,635	-200,000	-0,013	-0,065
-342,620	-48,704	0,139	0,048
-341,606	93,378	-0,046	0,038
-340,591	604,622	0,037	-0,067
-339,577	-126,769	-0,154	-0,016
-338,562	800,000	0,036	0,075
-337,548	78,549	-0,066	0,051
-336,533	124,673	-0,016	0,015
-335,518	800,000	0,040	0,090
-334,504	19,431	-0,025	0,014
-333,489	-59,438	-0,019	-0,006
-332,475	51,408	-0,059	-0,041
-331,460	-32,523	-0,136	-0,055
-330,445	26,308	-0,120	-0,073
-329,431	-200,000	0,010	-0,034
-328,416	800,000	0,027	0,073
-327,402	800,000	0,025	0,058
-326,387	800,000	-0,046	0,125
-325,372	-35,756	0,068	0,027
-324,358	369,633	-0,085	-0,124
-323,343	-200,000	-0,018	-0,166
-322,329	-83,820	-0,022	0,005
-321,314	-67,528	0,034	-0,010
-320,299	72,191	0,120	-0,091
-319,285	4,445	-0,075	0,040
-318,270	119,076	-0,066	-0,059
-317,256	94,128	0,065	0,053
-316,241	26,734	0,026	-0,015
-315,226	-80,816	0,073	0,017
-314,212	-119,570	0,154	0,019
-313,197	-200,000	-0,010	0,037
-312,183	-53,689	0,187	0,062
-311,168	-200,000	-0,037	-0,208
-310,153	800,000	0,012	0,032
-309,139	800,000	-0,024	0,058
-308,124	-104,684	-0,067	0,011
-307,110	64,085	-0,061	-0,044
-306,095	-200,000	-0,014	0,046
-305,080	128,598	0,030	-0,028
-304,066	-144,981	-0,057	-0,004
-303,051	-17,186	0,100	0,045
-302,037	-25,818	-0,031	0,013
-301,022	-200,000	-0,000	-0,064
-300,008	-200,000	-0,013	0,089
-298,993	110,559	0,034	0,030
-297,978	-200,000	-0,009	0,081
-296,964	-155,142	-0,094	0,004
-295,949	-177,042	-0,096	0,002
-294,935	-58,198	-0,076	-0,024
-293,920	800,000	-0,024	-0,055
-292,905	-99,096	0,084	0,015
-291,891	-100,573	-0,043	0,008
-290,876	-200,000	0,025	0,109
-289,862	-200,000	-0,008	-0,062
-288,847	106,601	-0,041	-0,035
-287,832	169,721	0,030	-0,031
-286,818	-200,000	-0,036	0,129
-285,803	-50,233	-0,051	0,017
-284,789	800,000	0,024	-0,072
-283,774	651,505	0,068	0,127
-282,759	455,887	0,035	-0,056
-281,745	800,000	-0,057	-0,119
-280,730	-89,905	-0,017	0,003
-279,716	-200,000	-0,010	-0,101
-278,701	-51,204	-0,041	0,014
-277,686	-25,295	0,075	0,032
-276,672	622,922	0,011	-0,020
-275,657	-200,000	0,022	0,087
-274,643	-46,282	-0,175	0,062
-273,628	800,000	-0,019	-0,048
-272,613	-77,087	-0,074	0,019
-271,599	800,000	0,045	0,116
-270,584	35,981	0,075	0,048
-269,570	800,000	0,060	-0,134
-268,555	4,034	0,075	-0,039
-267,540	-68,602	0,066	-0,018
-266,526	-43,538	-0,103	0,037
-265,511	-32,020	0,013	-0,005
-264,497	275,166	-0,035	-0,044
-263,482	800,000	0,013	0,036
-262,467	-110,007	0,028	0,004
-261,453	-200,000	-0,008	0,087
-260,438	272,687	-0,054	-0,068
-259,424	326,855	-0,029	0,040
-258,409	-76,426	-0,203	-0,051
-257,395	-200,000	0,012	0,048
-256,380	412,075	0,099	0,152
-255,365	800,000	0,028	0,070
-254,351	-200,000	0,049	0,236
-253,336	800,000	0,048	0,097
-252,322	-38,289	-0,172	-0,066
-251,307	138,338	-0,151	-0,143
-250,292	647,575	0,043	0,079
-249,278	-8,723	0,084	0,040
-248,263	168,137	0,095	0,098
-247,249	-200,000	-0,009	0,060
-246,234	226,512	0,010	0,011
-245,219	14,177	-0,099	-0,055
-244,205	45,570	0,078	-0,052
-243,190	-200,000	0,008	-0,036
-242,176	52,410	-0,049	0,034
-241,161	-80,056	0,095	-0,023
-240,146	-43,685	0,102	-0,037
-239,132	-200,000	0,017	-0,157
-238,117	-200,000	0,009	-0,174
-237,103	334,517	-0,032	0,044
-236,088	800,000	-0,032	-0,092
-235,073	-43,937	0,097	-0,035
-234,059	56,727	-0,048	-0,034
-233,044	-35,020	0,114	-0,044
-232,030	800,000	-0,013	-0,035
-231,015	98,809	-0,094	-0,078
-230,000	622,190	-0,049	0,090
-228,986	-200,000	-0,007	-0,164
-227,971	-175,480	0,086	0,002
-226,957	15,613	0,099	0,056
-225,942	212,122	0,018	-0,020
-224,927	29,778	-0,048	0,029
-223,913	-200,000	-0,008	-0,117
-222,898	-200,000	-0,017	-0,094
-221,884	800,000	0,068	-0,212
-220,869	-200,000	-0,014	0,059
-219,855	-200,000	0,005	-0,020
-218,840	800,000	0,028	0,069
-217,825	567,349	-0,052	-0,092
-216,811	800,000	-0,012	0,032
-215,796	-200,000	0,002	0,053
-214,782	170,142	0,056	-0,057
-213,767	-172,988	0,096	0,002
-212,752	177,573	0,005	-0,005
-211,738	171,589	0,006	-0,006
-210,723	-95,606	-0,035	0,007
-209,709	-200,000	-0,019	-0,062
-208,694	139,192	-0,112	0,107
-207,679	800,000	0,019	-0,059
-206,665	-200,000	-0,127	0,000
-205,650	-200,000	-0,035	0,166
-204,636	800,000	-0,062	0,162
-203,621	-200,000	-0,021	0,072
-202,606	41,880	-0,077	-0,050
-201,592	-200,000	-0,002	-0,081
-200,577	-200,000	0,005	-0,059
-199,563	-200,000	0,003	-0,066
-198,548	633,598	0,013	-0,025
-197,533	-16,161	0,067	-0,031
-196,519	62,022	0,064	-0,046
-195,504	-84,539	0,096	-0,022
-194,490	800,000	-0,041	-0,082
-193,475	17,329	-0,034	0,019
-192,460	-200,000	0,005	-0,052
-191,446	127,702	0,092	0,084
-190,431	-200,000	0,010	-0,060
-189,417	-149,911	0,079	0,004
-188,402	-130,660	0,076	-0,007
-187,387	-153,640	-0,121	-0,006
-186,373	118,394	-0,061	-0,054
-185,358	104,633	0,140	-0,118
-184,344	-200,000	-0,016	0,092
-183,329	168,668	0,104	0,107
-182,315	59,820	-0,074	0,053
-181,300	203,078	-0,031	0,035
-180,285	800,000	-0,019	0,041
-179,271	328,803	-0,030	-0,042
-178,256	-200,000	0,031	-0,125
-177,242	-200,000	0,007	-0,087
-176,227	528,600	0,051	-0,086
-175,212	-90,822	-0,032	0,007
-174,198	-96,792	0,085	-0,016
-173,183	-43,949	0,056	0,020
-172,169	89,078	-0,161	-0,129
-171,154	-66,528	0,181	-0,051
-170,139	714,741	-0,015	0,028
-169,125	-200,000	0,002	-0,023
-168,110	-61,908	0,071	0,021
-167,096	-200,000	-0,017	0,061
-166,081	-200,000	0,001	-0,007
-165,066	174,617	0,034	-0,035
-164,052	519,469	0,032	-0,054
-163,037	-171,722	-0,137	0,003
-162,023	-200,000	0,015	0,076
-161,008	800,000	0,018	-0,043
-159,993	-91,111	0,114	0,023
-158,979	800,000	-0,019	-0,051
-157,964	-145,070	-0,152	0,010
-156,950	800,000	-0,003	0,008
-155,935	78,280	0,040	0,031
-154,920	800,000	0,031	-0,080
-153,906	-200,000	-0,016	-0,119
-152,891	800,000	0,020	-0,048
-151,877	-121,733	0,082	-0,010
-150,862	-20,813	-0,215	-0,095
-149,847	124,793	0,027	-0,024
-148,833	800,000	0,040	-0,099
-147,818	232,559	-0,063	-0,074
-146,804	610,569	-0,033	-0,059
-145,789	-151,170	0,106	-0,006
-144,775	150,331	0,032	-0,031
-143,760	16,517	0,039	-0,022
-142,745	26,749	0,051	0,031
-141,731	-133,817	0,060	0,005
-140,716	-200,000	-0,006	0,145
-139,702	-200,000	0,005	0,191
-138,687	-200,000	-0,014	0,054
-137,672	-39,671	-0,064	-0,024
-136,658	10,849	-0,051	-0,028
-135,643	-113,918	-0,083	-0,011
-134,629	-200,000	0,016	-0,080
-133,614	800,000	-0,014	0,040
-132,599	-104,713	-0,065	0,011
-131,585	-35,726	0,136	-0,053
-130,570	-95,465	-0,055	0,011
-129,556	535,840	0,022	0,037
-128,541	-159,445	0,056	0,002
-127,526	-200,000	0,021	-0,098
-126,512	-104,673	0,051	0,008
-125,497	24,638	0,132	-0,078
-124,483	147,499	-0,042	-0,040
-123,468	48,744	0,018	-0,012
-122,453	-200,000	-0,014	-0,055
-121,439	28,052	-0,080	-0,049
-120,424	83,630	0,032	0,025
-119,410	-191,156	0,034	-0,000
