DTS Sentinel unit serial number:	SN410029Multiplexer serial number:	ORYXHardware model number:	OX2-SRSoftware version number:	ORYX F/W v4,00 Oryx Data Collector v3.7.2.0data status	okinstallation	B6 Nyhavnadifferential loss correction	single-endedforward channel	channel 2reverse channel	N/Adate	2023/12/09time	20:45:08forward acquisition time	300,00reverse acquisition time	0,00gamma	499,1914k internal	0,3129k external	0,3129temperature offset calibration	1,0000default loss term (dB/km)	0,3820temperature slope calibration	1,0000multiplexer offset coefficient	1,0000multiplexer slope coefficient	1,0000fibre end	0,00T internal ref (°C)	21,38T ext. ref 1 (°C)	5,38T ext. ref 2 (°C)	5,37length (m)	temperature (°C)	Stokes	anti-Stokes-744,400	-122,978	0,070	0,008
-743,385	-127,823	-0,241	0,025
-742,371	20,631	0,158	-0,095
-741,356	115,356	-0,131	0,119
-740,342	61,039	-0,084	0,062
-739,327	15,406	-0,220	0,128
-738,312	-200,000	-0,004	0,028
-737,298	149,191	-0,166	0,168
-736,283	-84,083	0,142	0,033
-735,269	-155,852	-0,239	0,011
-734,254	114,350	0,097	-0,088
-733,239	-39,679	-0,338	-0,131
-732,225	423,557	-0,056	0,089
-731,210	800,000	0,082	0,216
-730,196	379,848	-0,078	-0,120
-729,181	387,640	-0,095	-0,147
-728,167	327,301	-0,011	-0,015
-727,152	122,203	-0,027	0,025
-726,137	0,980	-0,038	-0,020
-725,123	51,341	-0,166	-0,117
-724,108	337,435	0,051	-0,074
-723,094	-200,000	-0,008	-0,179
-722,079	124,262	-0,051	-0,048
-721,064	800,000	0,049	-0,105
-720,050	800,000	-0,025	-0,062
-719,035	11,084	-0,070	0,040
-718,021	-200,000	0,036	-0,177
-717,006	800,000	-0,035	-0,092
-715,991	85,550	-0,125	-0,102
-714,977	-139,887	-0,053	-0,004
-713,962	800,000	-0,032	-0,097
-712,948	26,679	0,092	0,057
-711,933	-107,930	0,035	-0,006
-710,918	-199,016	-0,167	-0,001
-709,904	-200,000	0,011	-0,088
-708,889	40,747	-0,075	0,050
-707,875	-92,147	0,025	0,005
-706,860	653,698	-0,029	-0,056
-705,845	155,942	-0,035	-0,036
-704,831	108,998	-0,057	-0,050
-703,816	800,000	0,010	0,021
-702,802	-200,000	-0,005	0,081
-701,787	-5,546	0,040	0,020
-700,772	-200,000	-0,033	-0,143
-699,758	-45,614	0,047	-0,017
-698,743	35,787	-0,143	-0,093
-697,729	-24,204	-0,022	0,010
-696,714	60,301	-0,054	0,040
-695,699	800,000	0,062	0,173
-694,685	203,729	0,025	-0,029
-693,670	99,529	-0,164	0,141
-692,656	222,218	-0,107	-0,128
-691,641	692,987	-0,056	-0,110
-690,627	-72,175	-0,128	-0,035
-689,612	-151,662	-0,169	-0,009
-688,597	-107,059	0,019	0,003
-687,583	-29,499	0,038	-0,016
-686,568	-200,000	-0,009	-0,035
-685,554	800,000	-0,050	-0,117
-684,539	-200,000	-0,015	-0,086
-683,524	-200,000	0,019	0,062
-682,510	-140,161	-0,163	-0,013
-681,495	-143,860	-0,058	-0,004
-680,481	-50,295	0,059	0,021
-679,466	-39,994	-0,087	-0,033
-678,451	800,000	0,036	-0,074
-677,437	-152,171	0,176	-0,009
-676,422	214,029	-0,050	0,059
-675,408	800,000	-0,025	0,075
-674,393	-200,000	-0,012	0,081
-673,378	60,874	-0,047	-0,034
-672,364	800,000	-0,023	-0,049
-671,349	180,213	-0,115	-0,125
-670,335	800,000	0,020	0,059
-669,320	-71,257	0,036	-0,010
-668,305	800,000	0,048	-0,102
-667,291	114,464	0,036	-0,032
-666,276	130,086	-0,034	-0,032
-665,262	-181,412	-0,106	0,001
-664,247	-200,000	-0,011	-0,139
-663,232	456,242	0,047	-0,078
-662,218	-60,131	0,035	0,011
-661,203	-200,000	-0,011	0,116
-660,189	97,868	0,129	0,110
-659,174	-59,598	0,092	-0,029
-658,159	-200,000	0,020	-0,088
-657,145	800,000	-0,064	-0,172
-656,130	16,182	-0,090	-0,052
-655,116	-117,052	-0,082	-0,011
-654,101	521,152	-0,056	-0,098
-653,086	257,376	-0,082	0,105
-652,072	46,825	-0,079	0,054
-651,057	800,000	-0,011	-0,026
-650,043	57,512	-0,077	0,056
-649,028	-200,000	-0,001	0,052
-648,014	800,000	0,028	0,085
-646,999	300,059	0,033	-0,045
-645,984	543,212	0,049	-0,087
-644,970	-64,356	-0,165	0,049
-643,955	40,565	-0,098	-0,066
-642,941	-1,092	-0,080	-0,042
-641,926	-23,835	-0,046	0,020
-640,911	-99,201	0,154	0,028
-639,897	11,192	-0,059	0,033
-638,882	-117,173	0,024	-0,003
-637,868	-123,301	0,067	-0,008
-636,853	162,485	-0,027	-0,028
-635,838	57,594	-0,034	-0,025
-634,824	66,558	0,070	-0,052
-633,809	314,517	-0,056	-0,078
-632,795	-102,992	0,143	0,025
-631,780	469,247	0,081	0,135
-630,765	-200,000	-0,028	0,128
-629,751	-97,188	-0,126	-0,024
-628,736	-76,805	-0,119	-0,031
-627,722	-28,552	-0,159	-0,068
-626,707	89,768	0,056	0,046
-625,692	800,000	0,052	0,135
-624,678	100,261	0,105	0,090
-623,663	365,694	-0,016	-0,025
-622,649	-200,000	-0,006	-0,076
-621,634	-94,724	-0,169	-0,034
-620,619	321,483	-0,068	-0,097
-619,605	-200,000	0,013	-0,119
-618,590	-200,000	0,022	-0,093
-617,576	67,176	-0,026	0,019
-616,561	800,000	-0,058	-0,127
-615,546	-200,000	0,040	-0,169
-614,532	-200,000	-0,006	-0,025
-613,517	-146,276	0,096	0,006
-612,503	-35,359	-0,131	-0,052
-611,488	199,383	0,036	0,041
-610,474	800,000	-0,058	0,153
-609,459	-123,733	-0,081	0,009
-608,444	-200,000	-0,023	-0,105
-607,430	134,787	0,076	-0,073
-606,415	800,000	0,061	-0,137
-605,401	-46,893	-0,052	-0,019
-604,386	-110,328	0,099	-0,015
-603,371	88,662	-0,090	0,074
-602,357	158,029	0,050	-0,051
-601,342	-83,229	-0,129	-0,030
-600,328	800,000	-0,044	-0,121
-599,313	545,552	0,073	-0,130
-598,298	-26,626	0,083	0,036
-597,284	354,824	0,048	0,071
-596,269	46,528	-0,022	0,015
-595,255	-200,000	-0,019	0,112
-594,240	-28,497	-0,113	-0,048
-593,225	159,627	0,031	-0,032
-592,211	-200,000	0,002	-0,086
-591,196	6,305	-0,009	0,005
-590,182	-57,237	-0,006	-0,002
-589,167	-200,000	0,030	0,000
-588,152	-3,395	0,024	0,012
-587,138	-200,000	-0,027	0,104
-586,123	173,408	-0,103	0,110
-585,109	-200,000	-0,004	0,062
-584,094	33,884	-0,041	0,026
-583,079	800,000	0,015	0,039
-582,065	71,823	0,070	-0,054
-581,050	-200,000	-0,001	-0,051
-580,036	87,824	-0,113	-0,093
-579,021	292,508	0,060	-0,081
-578,006	76,147	-0,025	-0,019
-576,992	340,086	0,035	0,051
-575,977	476,401	-0,024	-0,040
-574,963	-74,332	-0,028	-0,007
-573,948	73,138	0,115	0,089
-572,934	-200,000	-0,011	0,052
-571,919	101,807	0,052	-0,045
-570,904	372,166	0,058	-0,087
-569,890	-200,000	-0,003	0,039
-568,875	516,298	0,049	0,086
-567,861	373,020	0,066	-0,099
-566,846	94,870	-0,034	0,029
-565,831	180,629	-0,093	0,101
-564,817	-57,915	-0,082	-0,026
-563,802	-62,968	-0,080	0,024
-562,788	-200,000	-0,006	-0,094
-561,773	-51,780	0,155	0,053
-560,758	800,000	-0,029	-0,067
-559,744	-59,865	0,109	-0,034
-558,729	-200,000	-0,020	0,159
-557,715	-77,900	-0,040	0,010
-556,700	800,000	-0,056	-0,148
-555,685	-73,878	0,138	-0,037
-554,671	-200,000	-0,003	-0,131
-553,656	59,551	-0,059	-0,043
-552,642	-23,475	0,077	-0,034
-551,627	800,000	-0,037	0,088
-550,612	5,390	-0,043	-0,023
-549,598	-11,245	-0,209	-0,101
-548,583	10,580	0,049	-0,028
-547,569	-174,127	0,148	0,003
-546,554	216,159	0,098	0,115
-545,539	-11,956	0,079	0,038
-544,525	91,128	0,040	-0,033
-543,510	449,928	-0,059	-0,097
-542,496	791,778	0,047	0,095
-541,481	-200,000	-0,002	-0,017
-540,466	-200,000	-0,002	-0,096
-539,452	-200,000	0,022	-0,094
-538,437	-2,500	0,017	-0,009
-537,423	-139,137	0,018	0,001
-536,408	-26,691	0,090	-0,039
-535,393	-55,589	-0,036	-0,012
-534,379	-34,477	-0,040	0,016
-533,364	-200,000	0,030	0,140
-532,350	800,000	-0,034	-0,070
-531,335	-43,163	0,033	-0,012
-530,321	674,097	0,035	0,067
-529,306	-200,000	0,012	0,077
-528,291	741,309	0,009	-0,017
-527,277	800,000	-0,042	-0,113
-526,262	582,888	0,053	-0,097
-525,248	-200,000	-0,029	-0,149
-524,233	526,080	0,053	-0,093
-523,218	4,828	0,060	-0,033
-522,204	175,871	-0,079	-0,085
-521,189	-200,000	-0,011	-0,142
-520,175	120,466	-0,045	-0,041
-519,160	-200,000	0,005	-0,024
-518,145	67,351	-0,122	0,092
-517,131	-200,000	-0,008	0,044
-516,116	278,717	0,050	-0,066
-515,102	800,000	-0,050	0,148
-514,087	-200,000	-0,035	-0,124
-513,072	-200,000	-0,025	-0,174
-512,058	-38,304	-0,116	-0,045
-511,043	-28,402	0,087	0,037
-510,029	208,515	0,060	0,070
-509,014	-152,063	-0,156	-0,008
-507,999	-200,000	0,010	0,042
-506,985	-200,000	0,006	-0,022
-505,970	89,920	0,034	-0,028
-504,956	270,694	-0,046	0,060
-503,941	290,115	-0,040	0,054
-502,926	350,233	0,059	-0,087
-501,912	800,000	-0,024	-0,066
-500,897	-200,000	0,017	-0,085
-499,883	488,756	0,068	0,115
-498,868	117,707	-0,083	-0,075
-497,853	800,000	-0,014	-0,031
-496,839	686,844	-0,060	-0,115
-495,824	75,440	0,073	-0,057
-494,810	-92,067	0,116	0,024
-493,795	54,568	-0,029	0,021
-492,781	-21,834	-0,129	-0,057
-491,766	90,439	-0,081	-0,067
-490,751	562,054	-0,009	-0,016
-489,737	93,418	-0,107	0,089
-488,722	220,689	-0,057	0,068
-487,708	254,900	0,076	0,097
-486,693	201,491	-0,037	-0,042
-485,678	36,683	-0,123	-0,080
-484,664	-200,000	-0,052	-0,178
-483,649	-146,049	0,044	-0,003
-482,635	104,792	0,057	-0,050
-481,620	270,917	-0,106	0,138
-480,605	-200,000	-0,021	0,134
-479,591	-200,000	0,031	0,123
-478,576	-200,000	-0,007	0,084
-477,562	-37,542	0,032	0,013
-476,547	-183,356	-0,199	-0,002
-475,532	800,000	0,018	-0,048
-474,518	800,000	0,020	-0,041
-473,503	-90,224	0,109	-0,023
-472,489	-200,000	-0,025	0,251
-471,474	800,000	0,024	0,074
-470,459	291,116	-0,062	-0,083
-469,445	311,767	-0,014	0,019
-468,430	-8,263	-0,128	-0,063
-467,416	-69,501	0,109	-0,031
-466,401	325,880	-0,122	0,173
-465,386	-184,018	0,117	0,001
-464,372	179,509	-0,019	-0,021
-463,357	48,064	0,038	0,026
-462,343	800,000	0,032	0,091
-461,328	249,639	-0,074	0,092
-460,313	-119,158	0,093	-0,012
-459,299	-200,000	-0,021	0,087
-458,284	-200,000	0,006	0,120
-457,270	237,257	-0,038	0,046
-456,255	-103,304	-0,184	-0,032
-455,241	236,364	-0,050	-0,061
-454,226	800,000	-0,043	0,138
-453,211	34,937	0,109	-0,070
-452,197	800,000	-0,035	0,071
-451,182	800,000	-0,023	-0,057
-450,168	-200,000	-0,026	0,099
-449,153	12,997	-0,066	0,037
-448,138	27,603	0,060	0,037
-447,124	800,000	0,014	-0,036
-446,109	235,673	0,071	0,087
-445,095	16,296	0,160	0,093
-444,080	-200,000	0,018	0,151
-443,065	-117,059	0,083	-0,011
-442,051	-200,000	0,002	-0,063
-441,036	800,000	-0,025	-0,053
-440,022	-200,000	-0,027	-0,170
-439,007	-91,399	-0,055	0,012
-437,992	-55,548	-0,100	0,033
-436,978	-17,347	0,113	-0,052
-435,963	-138,942	0,096	0,008
-434,949	800,000	-0,032	-0,081
-433,934	420,176	-0,052	-0,082
-432,919	-200,000	-0,046	-0,166
-431,905	-50,865	-0,128	-0,044
-430,890	50,906	0,024	-0,017
-429,876	-76,633	0,163	0,042
-428,861	-200,000	0,011	0,093
-427,846	249,631	0,101	0,127
-426,832	98,663	-0,062	-0,053
-425,817	47,658	-0,063	-0,043
-424,803	-19,016	0,141	0,064
-423,788	-200,000	0,003	-0,020
-422,773	800,000	0,033	0,069
-421,759	-200,000	-0,010	0,060
-420,744	288,553	0,139	0,185
-419,730	128,221	0,042	0,039
-418,715	-107,497	-0,139	-0,022
-417,701	-200,000	-0,012	0,050
-416,686	13,786	-0,118	0,067
-415,671	-126,358	0,168	0,018
-414,657	800,000	0,047	0,119
-413,642	800,000	-0,048	0,103
-412,628	-157,410	0,087	-0,004
-411,613	-161,469	0,037	0,001
-410,598	-181,363	-0,016	-0,000
-409,584	-25,276	-0,061	0,027
-408,569	6,378	-0,056	0,030
-407,555	69,872	0,077	0,058
-406,540	782,181	0,060	0,121
-405,525	-24,026	-0,033	-0,015
-404,511	-153,816	-0,050	-0,002
-403,496	295,792	-0,037	0,050
-402,482	2,289	0,044	-0,023
-401,467	-61,909	0,176	-0,054
-400,452	-95,464	0,020	0,004
-399,438	-200,000	-0,007	0,028
-398,423	-200,000	-0,025	0,123
-397,409	52,968	0,094	-0,066
-396,394	800,000	0,017	-0,040
-395,379	-105,240	0,085	-0,014
-394,365	800,000	-0,031	0,100
-393,350	413,588	0,076	0,119
-392,336	9,492	-0,146	0,081
-391,321	89,964	-0,047	-0,038
-390,306	16,206	-0,176	-0,102
-389,292	703,597	-0,050	0,098
-388,277	800,000	0,026	-0,058
-387,263	-88,671	-0,069	-0,015
-386,248	-83,957	0,164	-0,038
-385,233	800,000	0,041	-0,132
-384,219	-52,128	-0,161	0,054
-383,204	-200,000	-0,011	-0,088
-382,190	-48,647	-0,018	-0,006
-381,175	-49,702	0,115	-0,040
-380,160	-143,030	0,025	-0,002
-379,146	-43,007	0,058	-0,022
-378,131	-200,000	-0,007	-0,047
-377,117	-200,000	0,005	-0,160
-376,102	-68,675	-0,115	0,033
-375,088	-64,518	-0,113	0,033
-374,073	-124,972	0,076	0,009
-373,058	315,205	-0,046	0,063
-372,044	-200,000	-0,016	0,103
-371,029	51,044	-0,140	0,097
-370,015	105,002	0,111	0,096
-369,000	-180,019	0,022	-0,000
-367,985	-200,000	0,007	-0,075
-366,971	-200,000	-0,030	-0,125
-365,956	-200,000	-0,008	0,075
-364,942	576,475	0,111	0,199
-363,927	-200,000	0,009	0,028
-362,912	410,003	0,005	0,007
-361,898	-92,615	-0,099	-0,020
-360,883	-134,864	0,004	0,000
-359,869	-60,608	0,026	0,008
-358,854	9,938	0,146	0,081
-357,839	-37,356	-0,117	-0,045
-356,825	55,755	-0,058	0,041
-355,810	800,000	0,027	0,058
-354,796	-151,535	-0,058	0,003
-353,781	-44,436	0,090	-0,033
-352,766	67,228	-0,083	0,062
-351,752	-200,000	0,041	0,146
-350,737	195,287	0,044	0,049
-349,723	50,316	0,082	-0,057
-348,708	572,054	-0,023	-0,041
-347,693	-16,144	0,017	0,008
-346,679	-200,000	-0,018	-0,160
-345,664	-37,940	-0,088	-0,034
-344,650	800,000	0,026	-0,068
-343,635	-200,000	-0,003	0,086
-342,620	800,000	0,025	-0,071
-341,606	-200,000	-0,013	-0,054
-340,591	80,331	-0,042	-0,033
-339,577	800,000	-0,037	-0,117
-338,562	-173,317	-0,024	0,001
-337,548	571,758	0,017	0,031
-336,533	800,000	0,017	0,039
-335,518	-49,268	-0,093	-0,032
-334,504	588,444	0,098	0,178
-333,489	-200,000	-0,023	0,147
-332,475	800,000	-0,041	-0,104
-331,460	-0,378	-0,103	-0,053
-330,445	78,148	0,083	-0,064
-329,431	63,422	0,123	0,090
-328,416	-200,000	-0,015	0,079
-327,402	96,280	0,102	-0,086
-326,387	-200,000	0,000	-0,032
-325,372	-200,000	0,037	0,149
-324,358	452,099	-0,074	0,120
-323,343	229,044	0,066	-0,079
-322,329	-200,000	-0,009	-0,083
-321,314	-26,982	0,211	0,090
-320,299	78,366	-0,164	0,128
-319,285	352,186	-0,032	-0,046
-318,270	-147,400	-0,105	-0,006
-317,256	-200,000	-0,005	0,024
-316,241	-200,000	-0,007	-0,115
-315,226	-153,287	0,032	-0,002
-314,212	800,000	0,074	0,153
-313,197	226,541	0,084	0,100
-312,183	-125,719	0,189	-0,021
-311,168	633,430	-0,044	-0,082
-310,153	235,709	-0,019	-0,024
-309,139	800,000	0,019	0,049
-308,124	163,056	0,064	0,066
-307,110	-200,000	-0,004	-0,075
-306,095	124,787	0,060	0,056
-305,080	463,679	0,023	-0,037
-304,066	-179,851	-0,128	-0,002
-303,051	-200,000	0,020	0,087
-302,037	-200,000	-0,003	-0,029
-301,022	-200,000	0,036	0,123
-300,008	-200,000	-0,013	0,192
-298,993	146,586	0,034	-0,033
-297,978	130,359	-0,036	-0,034
-296,964	-200,000	0,036	-0,115
-295,949	-200,000	-0,024	-0,104
-294,935	119,597	-0,083	0,075
-293,920	-151,559	0,097	0,005
-292,905	248,775	0,052	-0,065
-291,891	-200,000	-0,007	0,029
-290,876	180,118	-0,076	0,081
-289,862	800,000	0,011	0,028
-288,847	-11,307	-0,063	-0,030
-287,832	175,190	0,085	-0,090
-286,818	726,673	0,054	-0,106
-285,803	800,000	-0,018	-0,044
-284,789	35,352	-0,050	-0,032
-283,774	14,321	-0,067	0,038
-282,759	194,546	-0,034	0,037
-281,745	-24,889	-0,056	-0,024
-280,730	192,366	-0,063	-0,069
-279,716	-97,154	0,113	-0,021
-278,701	800,000	-0,040	0,101
-277,686	-112,974	0,042	0,006
-276,672	12,739	-0,134	0,075
-275,657	271,235	-0,037	-0,048
-274,643	800,000	-0,005	-0,014
-273,628	-78,868	0,031	-0,008
-272,613	157,475	0,033	0,033
-271,599	738,773	0,048	-0,095
-270,584	-191,538	0,076	0,001
-269,570	261,953	-0,112	0,142
-268,555	292,264	-0,094	0,125
-267,540	-200,000	-0,010	-0,080
-266,526	-200,000	0,000	-0,015
-265,511	464,142	0,039	0,065
-264,497	220,957	0,065	-0,076
-263,482	314,821	0,081	0,112
-262,467	-200,000	0,017	0,096
-261,453	144,955	0,061	0,060
-260,438	82,507	-0,079	-0,062
-259,424	282,710	0,027	0,035
-258,409	397,969	0,047	0,072
-257,395	-200,000	0,033	-0,171
-256,380	11,504	0,073	-0,041
-255,365	636,070	0,016	0,029
-254,351	-87,062	-0,144	0,032
-253,336	-200,000	0,009	-0,051
-252,322	-106,182	-0,125	-0,020
-251,307	254,632	0,017	0,021
-250,292	-200,000	-0,035	-0,137
-249,278	800,000	0,014	-0,033
-248,263	-61,871	-0,037	0,011
-247,249	-83,439	-0,100	0,023
-246,234	-122,438	0,054	0,006
-245,219	72,580	-0,070	-0,053
-244,205	640,263	0,052	-0,097
-243,190	-27,941	0,064	-0,027
-242,176	21,854	-0,028	-0,017
-241,161	-96,826	0,091	0,017
-240,146	-200,000	0,003	0,051
-239,132	-57,407	0,142	0,045
-238,117	114,974	-0,109	-0,097
-237,103	-115,785	-0,214	-0,029
-236,088	-200,000	-0,008	0,034
-235,073	-181,218	0,070	-0,001
-234,059	-124,647	0,070	0,008
-233,044	354,003	-0,053	0,078
-232,030	246,957	-0,049	0,061
-231,015	800,000	0,061	-0,141
-230,000	-102,189	-0,211	-0,037
-228,986	-118,172	-0,256	-0,033
-227,971	-27,152	0,052	0,022
-226,957	-200,000	0,113	-0,000
-225,942	800,000	-0,009	-0,027
-224,927	613,514	-0,028	0,051
-223,913	793,549	-0,011	-0,023
-222,898	612,037	0,034	-0,063
-221,884	800,000	-0,047	-0,096
-220,869	-200,000	-0,008	0,057
-219,855	-109,217	0,038	0,006
-218,840	598,213	0,064	0,115
-217,825	800,000	0,047	0,119
-216,811	-5,587	0,079	-0,040
-215,796	800,000	0,011	-0,023
-214,782	652,751	-0,031	0,058
-213,767	592,451	-0,045	-0,082
-212,752	800,000	-0,011	-0,032
-211,738	295,665	-0,042	0,056
-210,723	126,393	-0,087	0,080
-209,709	50,021	0,103	0,071
-208,694	-157,425	-0,158	0,007
-207,679	-200,000	-0,004	0,026
-206,665	14,742	0,095	0,054
-205,650	800,000	0,038	-0,111
-204,636	6,830	0,127	0,068
-203,621	-130,773	0,188	-0,018
-202,606	241,792	0,033	-0,041
-201,592	-200,000	0,021	-0,120
-200,577	98,482	-0,058	0,049
-199,563	-46,873	0,077	-0,027
-198,548	42,082	0,050	0,033
-197,533	800,000	-0,019	0,047
-196,519	-200,000	0,037	-0,136
-195,504	22,434	0,098	-0,058
-194,490	76,597	-0,120	-0,093
-193,475	-29,482	-0,046	-0,019
-192,460	-115,587	-0,055	0,007
-191,446	261,277	0,063	-0,080
-190,431	-34,676	-0,087	-0,034
-189,417	-200,000	0,007	0,093
-188,402	-74,393	0,089	0,023
-187,387	221,531	-0,101	-0,119
-186,373	-200,000	0,023	-0,110
-185,358	-200,000	0,039	-0,156
-184,344	466,838	0,053	-0,087
-183,329	8,375	0,118	0,064
-182,315	772,405	0,034	0,069
-181,300	-200,000	-0,013	-0,066
-180,285	134,407	0,040	-0,038
-179,271	254,178	-0,057	-0,071
-178,256	800,000	-0,013	0,037
-177,242	19,843	0,011	-0,007
-176,227	337,063	0,061	0,087
-175,212	800,000	-0,071	0,197
-174,198	-45,995	-0,094	0,034
-173,183	-156,158	-0,077	-0,003
-172,169	108,001	-0,067	-0,058
-171,154	106,143	0,060	-0,051
-170,139	-200,000	0,042	0,179
-169,125	113,875	-0,102	0,090
-168,110	800,000	0,004	0,013
-167,096	49,305	0,157	-0,107
-166,081	800,000	-0,016	0,040
-165,066	703,222	-0,036	-0,069
-164,052	-178,914	0,107	0,002
-163,037	-109,880	0,069	0,010
-162,023	546,994	0,070	-0,122
-161,008	-19,129	0,067	0,030
-159,993	-82,514	0,042	-0,010
-158,979	-165,265	-0,093	0,003
-157,964	-200,000	0,004	0,019
-156,950	325,635	-0,025	0,034
-155,935	8,604	0,121	0,066
-154,920	59,495	0,080	-0,057
-153,906	-96,671	-0,054	0,010
-152,891	-62,225	0,036	0,011
-151,877	200,119	0,027	0,031
-150,862	9,628	-0,066	-0,036
-149,847	209,096	-0,043	0,049
-148,833	800,000	-0,041	0,118
-147,818	-18,146	-0,117	0,053
-146,804	418,263	0,033	0,051
-145,789	170,154	0,106	-0,111
-144,775	-88,587	-0,107	-0,023
-143,760	79,268	-0,109	0,085
-142,745	394,876	0,049	-0,074
-141,731	-200,000	-0,022	-0,114
-140,716	125,486	0,050	-0,046
-139,702	220,604	0,063	0,073
-138,687	104,292	0,086	0,073
-137,672	-200,000	-0,011	-0,129
-136,658	-150,430	-0,104	0,006
-135,643	-200,000	-0,018	-0,162
-134,629	423,143	0,042	-0,065
-133,614	-45,834	0,111	-0,040
-132,599	287,650	-0,088	0,116
-131,585	800,000	0,041	0,112
-130,570	194,763	-0,045	0,050
-129,556	324,041	-0,030	0,041
-128,541	-200,000	0,008	-0,025
-127,526	-200,000	-0,011	-0,037
-126,512	800,000	0,008	0,024
-125,497	24,244	0,080	0,048
-124,483	209,641	-0,015	0,017
-123,468	-120,927	0,054	-0,006
-122,453	-59,503	-0,138	-0,043
-121,439	-90,405	0,093	-0,019
-120,424	106,340	-0,066	-0,057
-119,410	162,988	0,140	0,143
