DTS Sentinel unit serial number:	SN410029Multiplexer serial number:	ORYXHardware model number:	OX2-SRSoftware version number:	ORYX F/W v4,00 Oryx Data Collector v3.7.2.0data status	okinstallation	B6 Nyhavnadifferential loss correction	single-endedforward channel	channel 2reverse channel	N/Adate	2023/12/11time	06:50:08forward acquisition time	300,00reverse acquisition time	0,00gamma	499,1914k internal	0,3125k external	0,3125temperature offset calibration	1,0000default loss term (dB/km)	0,3820temperature slope calibration	1,0000multiplexer offset coefficient	1,0000multiplexer slope coefficient	1,0000fibre end	0,00T internal ref (°C)	19,36T ext. ref 1 (°C)	2,45T ext. ref 2 (°C)	2,49length (m)	temperature (°C)	Stokes	anti-Stokes-744,400	469,089	-0,034	0,056
-743,385	126,414	-0,116	0,110
-742,371	20,499	0,111	-0,067
-741,356	-115,374	-0,125	-0,017
-740,342	-115,086	0,084	0,012
-739,327	-123,424	-0,222	-0,026
-738,312	88,302	-0,137	-0,113
-737,298	-144,039	-0,336	-0,023
-736,283	-83,754	0,251	0,059
-735,269	-131,756	-0,213	0,020
-734,254	127,804	0,092	-0,087
-733,239	-10,741	-0,463	-0,227
-732,225	-162,028	0,143	0,005
-731,210	-2,727	0,057	0,030
-730,196	-58,202	-0,156	-0,050
-729,181	-200,000	0,016	-0,093
-728,167	-200,000	0,023	0,105
-727,152	216,088	-0,097	0,115
-726,137	22,061	0,035	0,021
-725,123	10,247	-0,103	-0,058
-724,108	97,027	-0,059	0,050
-723,094	355,827	-0,139	-0,206
-722,079	-200,000	-0,013	-0,082
-721,064	416,981	-0,030	0,048
-720,050	27,918	-0,059	-0,037
-719,035	291,618	-0,044	-0,060
-718,021	442,451	-0,011	-0,018
-717,006	48,918	-0,098	-0,068
-715,991	-200,000	-0,035	-0,145
-714,977	72,632	0,083	0,064
-713,962	-200,000	-0,017	0,061
-712,948	-200,000	0,005	-0,025
-711,933	-200,000	0,014	0,086
-710,918	-200,000	-0,012	-0,043
-709,904	264,638	-0,030	-0,039
-708,889	151,894	-0,069	-0,070
-707,875	-200,000	0,001	-0,049
-706,860	-200,000	-0,036	0,147
-705,845	800,000	0,014	-0,045
-704,831	-62,561	0,033	0,010
-703,816	-62,744	-0,167	0,051
-702,802	137,004	0,092	-0,089
-701,787	207,590	-0,068	-0,079
-700,772	-200,000	0,014	0,090
-699,758	378,884	-0,074	-0,114
-698,743	188,433	-0,100	0,111
-697,729	168,930	0,062	0,066
-696,714	-200,000	-0,003	0,122
-695,699	-200,000	-0,015	0,180
-694,685	-130,369	-0,104	0,010
-693,670	-33,671	0,018	-0,007
-692,656	73,283	-0,020	-0,016
-691,641	-200,000	0,034	0,134
-690,627	-58,004	0,184	0,059
-689,612	267,280	0,047	-0,062
-688,597	-200,000	0,002	0,094
-687,583	503,260	0,058	-0,100
-686,568	-200,000	-0,022	-0,175
-685,554	-200,000	-0,022	-0,113
-684,539	697,753	0,022	0,042
-683,524	-200,000	0,021	-0,128
-682,510	800,000	0,048	-0,125
-681,495	-200,000	-0,001	-0,035
-680,481	-200,000	-0,006	-0,035
-679,466	3,144	-0,194	-0,105
-678,451	-200,000	-0,005	-0,131
-677,437	243,054	-0,053	-0,066
-676,422	-147,230	0,037	-0,002
-675,408	-30,976	-0,189	-0,079
-674,393	-200,000	-0,032	-0,125
-673,378	359,576	-0,015	0,022
-672,364	-190,832	-0,078	-0,001
-671,349	-0,226	-0,083	-0,044
-670,335	552,480	0,058	-0,104
-669,320	-200,000	0,006	-0,024
-668,305	739,598	0,016	0,031
-667,291	-129,607	0,200	-0,020
-666,276	-20,955	-0,054	-0,024
-665,262	-200,000	-0,030	0,173
-664,247	-45,498	0,048	-0,018
-663,232	51,514	0,072	0,050
-662,218	-200,000	0,018	0,088
-661,203	328,334	-0,066	0,094
-660,189	-200,000	-0,026	-0,190
-659,174	17,945	-0,118	-0,069
-658,159	1,345	-0,095	-0,050
-657,145	-49,592	-0,157	0,055
-656,130	-80,815	-0,065	-0,016
-655,116	673,447	0,011	-0,022
-654,101	222,672	0,042	-0,050
-653,086	77,929	-0,113	-0,089
-652,072	2,538	-0,107	-0,057
-651,057	100,046	-0,076	-0,065
-650,043	39,774	-0,026	0,017
-649,028	-200,000	0,015	-0,050
-648,014	165,647	-0,070	0,073
-646,999	115,647	-0,060	0,055
-645,984	-7,605	0,063	0,031
-644,970	-200,000	-0,011	0,069
-643,955	800,000	0,010	-0,022
-642,941	-67,764	-0,163	0,047
-641,926	538,919	0,016	-0,028
-640,911	158,542	-0,072	0,074
-639,897	542,071	-0,054	0,096
-638,882	-106,587	-0,054	-0,009
-637,868	242,404	-0,181	-0,226
-636,853	226,255	-0,025	-0,030
-635,838	-30,661	-0,081	-0,034
-634,824	-62,960	-0,130	0,040
-633,809	12,084	0,081	-0,046
-632,795	-200,000	0,002	0,026
-631,780	38,404	-0,027	0,018
-630,765	195,601	-0,072	0,082
-629,751	201,670	0,023	-0,026
-628,736	-200,000	-0,011	-0,182
-627,722	-149,759	0,063	0,004
-626,707	205,287	-0,060	-0,070
-625,692	-78,151	0,060	-0,015
-624,678	-200,000	0,014	-0,067
-623,663	426,602	0,051	0,082
-622,649	-137,020	-0,021	-0,002
-621,634	-110,915	-0,162	-0,024
-620,619	-200,000	-0,023	-0,084
-619,605	620,155	0,035	0,065
-618,590	114,174	0,070	-0,063
-617,576	-35,432	0,096	0,039
-616,561	-200,000	-0,018	0,062
-615,546	554,299	-0,031	0,055
-614,532	-200,000	-0,000	-0,056
-613,517	158,877	0,066	0,068
-612,503	-200,000	-0,024	0,091
-611,488	156,209	-0,063	-0,065
-610,474	15,156	0,054	-0,031
-609,459	146,059	0,050	-0,050
-608,444	-200,000	0,013	-0,083
-607,430	31,400	-0,044	-0,028
-606,415	-200,000	0,035	-0,124
-605,401	-61,563	0,033	0,010
-604,386	-180,898	0,105	-0,002
-603,371	213,112	-0,094	0,110
-602,357	205,944	-0,060	-0,069
-601,342	-200,000	-0,014	0,088
-600,328	167,473	0,129	-0,136
-599,313	-132,561	-0,014	-0,001
-598,298	-200,000	0,018	-0,064
-597,284	-136,563	-0,073	0,006
-596,269	800,000	0,026	0,082
-595,255	-200,000	-0,010	0,056
-594,240	800,000	0,026	0,083
-593,225	288,897	-0,041	-0,056
-592,211	800,000	-0,021	0,055
-591,196	-200,000	0,025	-0,092
-590,182	-200,000	-0,019	-0,140
-589,167	-74,061	0,106	0,028
-588,152	-200,000	-0,014	-0,049
-587,138	-45,538	-0,074	0,027
-586,123	-117,108	0,050	0,007
-585,109	-28,540	-0,093	-0,040
-584,094	-49,811	-0,192	-0,067
-583,079	318,615	0,055	-0,078
-582,065	348,045	0,039	-0,056
-581,050	115,383	0,050	0,045
-580,036	41,046	0,023	0,015
-579,021	-116,300	0,128	-0,017
-578,006	800,000	-0,048	0,141
-576,992	390,920	0,062	-0,096
-575,977	290,375	0,062	-0,084
-574,963	98,351	-0,040	-0,034
-573,948	-133,239	0,143	0,013
-572,934	-200,000	0,002	-0,102
-571,919	-200,000	-0,008	-0,032
-570,904	-22,385	-0,157	-0,070
-569,890	209,680	-0,069	0,080
-568,875	-70,849	0,080	0,022
-567,861	-200,000	-0,023	-0,218
-566,846	-21,202	0,060	0,027
-565,831	-177,894	0,089	-0,002
-564,817	78,583	-0,066	0,052
-563,802	-115,600	0,078	0,011
-562,788	95,311	-0,071	0,060
-561,773	-200,000	-0,004	0,127
-560,758	162,303	-0,036	-0,037
-559,744	800,000	-0,030	0,066
-558,729	151,608	-0,007	-0,007
-557,715	188,547	-0,055	-0,061
-556,700	-200,000	0,002	0,005
-555,685	21,843	-0,031	-0,019
-554,671	-200,000	-0,009	0,095
-553,656	-97,599	-0,073	-0,014
-552,642	-200,000	-0,008	0,065
-551,627	800,000	0,021	-0,043
-550,612	135,933	-0,108	0,104
-549,598	123,119	0,068	-0,063
-548,583	-97,674	0,008	-0,001
-547,569	-41,669	0,049	-0,018
-546,554	-17,660	-0,099	0,046
-545,539	-200,000	0,031	0,161
-544,525	-63,896	0,116	-0,035
-543,510	372,636	-0,053	0,080
-542,496	800,000	-0,036	-0,081
-541,481	-18,337	0,049	0,022
-540,466	446,531	0,078	-0,127
-539,452	-113,465	0,054	0,008
-538,437	-0,465	0,112	-0,059
-537,423	2,613	-0,049	-0,026
-536,408	-99,493	0,065	-0,012
-535,393	-98,812	-0,054	-0,010
-534,379	331,160	-0,037	-0,052
-533,364	-199,953	-0,127	-0,000
-532,350	-84,778	-0,080	0,018
-531,335	-104,984	0,162	0,027
-530,321	-131,645	-0,167	-0,016
-529,306	106,309	-0,035	-0,030
-528,291	800,000	-0,012	0,034
-527,277	187,789	0,085	-0,093
-526,262	-200,000	0,005	0,072
-525,248	255,093	0,063	0,079
-524,233	-51,091	0,100	0,034
-523,218	41,274	-0,090	0,060
-522,204	-200,000	-0,005	0,026
-521,189	-74,977	0,012	0,003
-520,175	-28,430	0,096	0,041
-519,160	-200,000	0,011	0,101
-518,145	-200,000	0,009	-0,076
-517,131	-179,216	0,028	-0,000
-516,116	-133,125	-0,084	-0,008
-515,102	-200,000	-0,000	-0,021
-514,087	66,599	0,127	-0,095
-513,072	-200,000	0,001	-0,053
-512,058	-200,000	0,007	0,104
-511,043	800,000	-0,004	-0,012
-510,029	-33,249	0,122	0,050
-509,014	25,247	-0,099	-0,061
-507,999	534,888	-0,013	0,023
-506,985	13,838	0,019	-0,011
-505,970	800,000	0,066	-0,150
-504,956	443,152	0,068	-0,110
-503,941	-68,546	-0,144	-0,041
-502,926	122,655	0,092	-0,085
-501,912	42,275	0,128	-0,086
-500,897	-200,000	0,000	0,128
-499,883	-37,039	0,118	-0,046
-498,868	-112,083	-0,173	-0,025
-497,853	800,000	-0,063	-0,159
-496,839	-70,408	0,090	-0,025
-495,824	91,027	0,041	-0,034
-494,810	-200,000	-0,002	0,126
-493,795	215,661	0,093	-0,109
-492,781	224,978	0,070	-0,084
-491,766	273,343	-0,016	0,021
-490,751	800,000	0,062	-0,150
-489,737	83,705	-0,059	0,048
-488,722	-12,258	0,062	-0,030
-487,708	-115,755	-0,019	-0,003
-486,693	-200,000	0,038	0,156
-485,678	727,525	-0,016	-0,032
-484,664	168,061	-0,156	-0,164
-483,649	-56,791	-0,067	0,022
-482,635	-200,000	0,007	0,074
-481,620	460,872	-0,042	-0,069
-480,605	800,000	0,038	0,111
-479,591	413,915	-0,094	0,148
-478,576	800,000	0,041	0,133
-477,562	800,000	-0,029	-0,070
-476,547	-200,000	-0,027	-0,092
-475,532	609,457	0,048	-0,088
-474,518	800,000	-0,023	-0,059
-473,503	800,000	-0,047	0,152
-472,489	263,442	0,066	0,085
-471,474	-200,000	0,015	-0,083
-470,459	800,000	0,033	-0,078
-469,445	-200,000	-0,007	-0,035
-468,430	800,000	0,046	-0,098
-467,416	140,582	0,145	0,141
-466,401	-111,893	-0,063	-0,009
-465,386	0,512	-0,024	0,013
-464,372	-34,035	-0,099	0,040
-463,357	680,989	-0,069	0,134
-462,343	57,571	-0,033	-0,024
-461,328	-7,150	-0,052	0,026
-460,313	-71,488	0,100	-0,027
-459,299	-80,166	0,099	0,024
-458,284	-200,000	0,011	0,126
-457,270	49,345	-0,113	0,078
-456,255	24,314	-0,071	0,043
-455,241	138,716	-0,005	-0,005
-454,226	-200,000	0,039	-0,139
-453,211	193,227	0,104	0,116
-452,197	800,000	0,057	-0,137
-451,182	283,361	0,071	0,094
-450,168	-52,576	-0,126	-0,043
-449,153	-200,000	-0,012	-0,045
-448,138	-14,990	-0,099	0,047
-447,124	63,595	0,074	0,054
-446,109	249,166	-0,056	0,070
-445,095	-24,950	0,118	-0,051
-444,080	-121,750	-0,022	0,003
-443,065	-70,649	0,114	-0,031
-442,051	-56,236	-0,059	-0,019
-441,036	800,000	-0,038	-0,084
-440,022	6,187	-0,149	-0,081
-439,007	-89,324	-0,004	0,001
-437,992	-83,946	0,214	0,050
-436,978	800,000	-0,031	0,084
-435,963	359,563	-0,079	0,117
-434,949	113,309	-0,070	-0,063
-433,934	307,355	0,062	-0,086
-432,919	-200,000	-0,021	0,078
-431,905	-124,030	-0,007	0,001
-430,890	130,901	-0,079	0,074
-429,876	-200,000	-0,006	0,087
-428,861	35,734	-0,114	0,074
-427,846	275,411	0,014	-0,018
-426,832	-134,553	0,054	-0,005
-425,817	-200,000	0,015	-0,050
-424,803	-168,983	-0,038	-0,001
-423,788	148,314	0,046	0,046
-422,773	84,924	0,078	-0,062
-421,759	5,744	0,029	-0,016
-420,744	-200,000	-0,006	-0,116
-419,730	-200,000	0,007	-0,072
-418,715	800,000	0,025	0,053
-417,701	800,000	0,011	-0,024
-416,686	800,000	0,054	0,154
-415,671	-200,000	0,009	0,099
-414,657	-100,200	0,066	-0,012
-413,642	45,983	0,069	-0,047
-412,628	130,952	-0,064	-0,061
-411,613	-83,287	-0,096	0,022
-410,598	-200,000	-0,001	-0,040
-409,584	320,606	-0,059	0,083
-408,569	-200,000	-0,031	0,166
-407,555	11,071	0,060	0,034
-406,540	-79,345	-0,044	0,011
-405,525	394,902	0,035	0,053
-404,511	-8,624	-0,033	-0,016
-403,496	-104,070	-0,100	0,017
-402,482	678,684	0,044	0,085
-401,467	-121,589	0,161	-0,019
-400,452	-49,548	0,094	0,033
-399,438	-108,780	-0,071	0,011
-398,423	-133,549	0,086	-0,008
-397,409	116,689	-0,051	-0,046
-396,394	-170,649	-0,119	-0,003
-395,379	-200,000	-0,009	0,049
-394,365	-200,000	-0,034	0,125
-393,350	-200,000	0,005	-0,037
-392,336	32,233	-0,094	-0,059
-391,321	109,460	0,035	0,031
-390,306	800,000	-0,050	0,107
-389,292	-200,000	0,002	-0,010
-388,277	110,302	-0,056	-0,049
-387,263	-200,000	-0,029	0,096
-386,248	33,196	-0,055	-0,035
-385,233	22,249	0,079	0,047
-384,219	-200,000	-0,009	-0,029
-383,204	328,925	-0,099	-0,140
-382,190	175,890	-0,053	0,056
-381,175	651,457	0,039	0,073
-380,160	-24,637	0,032	0,014
-379,146	62,256	0,020	0,015
-378,131	800,000	-0,025	0,069
-377,117	-0,163	0,112	0,058
-376,102	-11,239	-0,057	-0,027
-375,088	-39,965	0,039	-0,015
-374,073	129,646	0,045	-0,042
-373,058	-70,314	0,106	0,029
-372,044	-125,803	-0,062	0,007
-371,029	-30,617	0,092	0,038
-370,015	-200,000	-0,034	0,175
-369,000	-46,125	0,170	-0,061
-367,985	-178,800	0,069	-0,001
-366,971	11,373	-0,199	0,111
-365,956	475,561	0,008	0,013
-364,942	-29,443	0,055	-0,023
-363,927	-57,240	0,147	0,047
-362,912	456,009	-0,016	0,027
-361,898	800,000	-0,020	-0,065
-360,883	739,159	0,057	0,113
-359,869	191,203	-0,061	-0,067
-358,854	-42,984	0,085	-0,031
-357,839	-117,193	0,074	0,010
-356,825	-200,000	0,008	0,037
-355,810	279,687	0,076	-0,100
-354,796	14,647	-0,161	-0,092
-353,781	-200,000	-0,012	-0,080
-352,766	-200,000	0,002	0,058
-351,752	713,038	-0,040	-0,077
-350,737	-200,000	0,041	-0,137
-349,723	800,000	-0,026	-0,079
-348,708	-98,774	-0,110	-0,020
-347,693	800,000	-0,024	-0,072
-346,679	351,340	-0,092	0,133
-345,664	33,078	-0,122	0,077
-344,650	-200,000	-0,040	0,000
-343,635	-62,273	0,086	0,026
-342,620	593,170	0,039	-0,072
-341,606	-200,000	-0,009	0,133
-340,591	220,243	0,042	-0,049
-339,577	-200,000	-0,007	-0,079
-338,562	-80,655	-0,050	-0,012
-337,548	317,147	-0,121	-0,168
-336,533	800,000	0,016	-0,042
-335,518	-200,000	-0,020	0,144
-334,504	-200,000	0,001	0,159
-333,489	345,175	0,032	-0,046
-332,475	553,518	-0,019	-0,034
-331,460	-200,000	-0,000	-0,034
-330,445	-69,232	0,079	0,022
-329,431	164,807	0,023	0,024
-328,416	-200,000	-0,013	0,081
-327,402	180,280	0,097	0,105
-326,387	-30,125	0,128	0,053
-325,372	-200,000	0,021	0,082
-324,358	-96,982	-0,120	0,023
-323,343	-200,000	-0,008	-0,087
-322,329	-61,073	0,208	0,064
-321,314	402,138	0,064	-0,099
-320,299	-200,000	-0,029	0,189
-319,285	-43,945	0,112	0,041
-318,270	800,000	-0,022	-0,059
-317,256	-136,115	-0,086	-0,007
-316,241	12,610	-0,041	-0,023
-315,226	-142,339	-0,040	-0,003
-314,212	-200,000	0,008	0,090
-313,197	-118,186	-0,131	0,017
-312,183	196,525	0,063	-0,071
-311,168	-200,000	-0,034	-0,117
-310,153	-200,000	0,019	-0,135
-309,139	525,247	0,019	0,034
-308,124	-138,295	0,101	0,008
-307,110	-113,824	-0,068	-0,010
-306,095	113,233	-0,038	0,034
-305,080	347,010	0,045	-0,065
-304,066	576,139	0,066	-0,118
-303,051	-82,195	0,094	-0,022
-302,037	165,290	-0,045	-0,047
-301,022	40,593	0,116	0,077
-300,008	276,365	0,033	-0,043
-298,993	516,227	0,020	-0,035
-297,978	800,000	0,049	0,133
-296,964	61,756	-0,083	0,061
-295,949	47,771	-0,227	-0,155
-294,935	-85,958	-0,111	-0,025
-293,920	800,000	-0,016	-0,052
-292,905	-200,000	0,014	0,065
-291,891	-110,274	0,131	0,020
-290,876	-200,000	0,012	-0,119
-289,862	-95,157	-0,091	-0,018
-288,847	800,000	-0,021	0,048
-287,832	-200,000	0,003	0,027
-286,818	-200,000	-0,008	-0,189
-285,803	-200,000	-0,143	0,000
-284,789	621,693	-0,040	0,075
-283,774	348,774	0,020	0,028
-282,759	53,762	0,154	0,108
-281,745	-72,068	0,083	0,022
-280,730	489,112	-0,028	-0,046
-279,716	189,819	-0,051	-0,056
-278,701	800,000	-0,027	0,061
-277,686	577,972	0,048	0,086
-276,672	-158,194	-0,089	0,004
-275,657	-11,691	0,119	-0,057
-274,643	-200,000	0,013	-0,097
-273,628	800,000	0,017	-0,046
-272,613	800,000	-0,050	0,114
-271,599	57,346	0,063	-0,045
-270,584	-87,903	0,127	0,028
-269,570	-200,000	-0,021	0,153
-268,555	-60,874	0,119	0,036
-267,540	-158,673	-0,110	0,005
-266,526	-102,188	-0,121	-0,021
-265,511	-63,742	-0,091	0,027
-264,497	800,000	-0,052	0,118
-263,482	-172,262	0,086	-0,002
-262,467	-131,133	-0,055	-0,005
-261,453	-200,000	-0,024	0,101
-260,438	-200,000	0,011	0,042
-259,424	-200,000	-0,054	0,238
-258,409	143,667	-0,052	-0,051
-257,395	-200,000	-0,003	-0,013
-256,380	477,578	0,069	0,114
-255,365	152,268	-0,088	0,088
-254,351	130,459	-0,083	0,077
-253,336	-200,000	0,015	-0,069
-252,322	-200,000	-0,029	-0,177
-251,307	-6,224	-0,053	0,026
-250,292	54,226	0,028	-0,019
-249,278	-200,000	-0,013	0,046
-248,263	-200,000	0,021	0,152
-247,249	-200,000	0,006	-0,058
-246,234	-200,000	-0,014	-0,060
-245,219	374,065	-0,050	-0,075
-244,205	-133,625	-0,130	-0,012
-243,190	37,488	0,085	0,055
-242,176	193,585	-0,046	0,051
-241,161	-200,000	-0,001	0,072
-240,146	-28,518	-0,099	0,042
-239,132	-101,304	-0,050	-0,009
-238,117	-200,000	-0,003	-0,152
-237,103	800,000	0,042	-0,106
-236,088	-12,469	0,035	0,016
-235,073	-72,585	0,055	0,015
-234,059	149,259	0,093	-0,092
-233,044	-200,000	-0,012	0,043
-232,030	103,367	-0,054	-0,046
-231,015	-200,000	0,024	-0,145
-230,000	301,890	-0,078	-0,105
-228,986	-160,207	-0,115	-0,004
-227,971	-200,000	0,011	0,104
-226,957	-200,000	0,028	0,142
-225,942	800,000	0,008	-0,019
-224,927	-200,000	0,020	0,154
-223,913	50,871	0,081	-0,056
-222,898	-200,000	-0,005	-0,085
-221,884	88,001	0,006	0,005
-220,869	461,088	0,080	-0,130
-219,855	-200,000	0,007	-0,100
-218,840	29,545	0,117	0,072
-217,825	-85,929	-0,149	-0,033
-216,811	27,032	-0,054	0,033
-215,796	-113,089	0,170	-0,024
-214,782	300,120	-0,009	-0,012
-213,767	175,615	0,025	0,026
-212,752	800,000	0,032	0,102
-211,738	-200,000	0,019	0,111
-210,723	-200,000	-0,010	0,150
-209,709	-200,000	-0,031	-0,119
-208,694	800,000	-0,091	-0,196
-207,679	85,822	0,070	0,056
-206,665	-58,798	0,097	0,031
-205,650	359,593	0,016	0,024
-204,636	-200,000	-0,016	0,126
-203,621	-200,000	-0,000	0,136
-202,606	-200,000	0,002	0,019
-201,592	-200,000	-0,014	-0,058
-200,577	800,000	-0,041	-0,131
-199,563	41,136	0,106	0,070
-198,548	254,403	0,064	0,080
-197,533	-200,000	-0,034	0,139
-196,519	446,767	-0,053	0,085
-195,504	-31,751	-0,130	-0,053
-194,490	-35,848	-0,074	0,029
-193,475	-200,000	0,020	-0,094
-192,460	800,000	-0,028	0,069
-191,446	-200,000	0,010	0,117
-190,431	126,317	-0,076	-0,070
-189,417	300,166	-0,048	-0,064
-188,402	79,854	0,030	-0,023
-187,387	106,968	0,080	-0,069
-186,373	-200,000	0,006	-0,184
-185,358	178,125	0,073	0,077
-184,344	8,040	0,197	-0,107
-183,329	-200,000	0,006	0,156
-182,315	-12,851	0,045	0,021
-181,300	31,608	0,145	-0,091
-180,285	-152,055	-0,139	-0,007
-179,271	-121,953	-0,124	0,015
-178,256	-200,000	0,047	-0,165
-177,242	46,477	0,109	0,074
-176,227	77,885	0,055	0,043
-175,212	69,137	-0,059	-0,044
-174,198	-49,248	-0,114	0,039
-173,183	-200,000	0,006	-0,142
-172,169	210,943	-0,092	-0,106
-171,154	665,104	0,042	-0,080
-170,139	-142,082	-0,141	-0,010
-169,125	-144,148	0,146	0,010
-168,110	239,719	-0,024	0,029
-167,096	-200,000	0,011	-0,087
-166,081	20,756	0,042	0,024
-165,066	-107,032	-0,046	-0,007
-164,052	168,494	0,075	-0,078
-163,037	-110,531	0,087	-0,013
-162,023	-200,000	0,017	0,165
-161,008	-62,753	0,117	0,035
-159,993	111,275	-0,082	-0,072
-158,979	-200,000	0,008	0,025
-157,964	800,000	0,043	0,087
-156,950	-24,438	-0,013	0,005
-155,935	-200,000	0,025	-0,082
-154,920	-200,000	0,006	-0,110
-153,906	800,000	0,019	-0,055
-152,891	134,780	-0,046	-0,044
-151,877	152,722	0,039	0,039
-150,862	-128,292	-0,075	-0,008
-149,847	-200,000	0,002	-0,070
-148,833	11,866	0,033	0,018
-147,818	170,094	0,200	-0,209
-146,804	-11,589	0,048	-0,023
-145,789	-200,000	-0,054	0,195
-144,775	-93,068	0,009	-0,002
-143,760	-23,216	-0,026	0,011
-142,745	800,000	0,057	-0,125
-141,731	-200,000	-0,012	-0,110
-140,716	246,293	-0,076	-0,093
-139,702	106,223	0,070	0,060
-138,687	582,430	0,093	0,166
-137,672	512,203	-0,026	-0,043
-136,658	-200,000	-0,022	-0,084
-135,643	180,134	-0,084	-0,090
-134,629	-200,000	0,001	0,181
-133,614	800,000	0,034	-0,088
-132,599	-114,946	-0,161	0,022
-131,585	454,935	-0,045	-0,072
-130,570	134,916	-0,116	-0,110
-129,556	-157,863	-0,087	-0,004
-128,541	-200,000	0,009	-0,054
-127,526	-200,000	-0,012	-0,067
-126,512	-200,000	-0,022	0,116
-125,497	-60,655	0,146	0,045
-124,483	-36,693	0,126	0,049
-123,468	-106,441	-0,089	-0,014
-122,453	-200,000	0,012	-0,042
-121,439	383,553	-0,064	-0,097
