DTS Sentinel unit serial number:	SN410029Multiplexer serial number:	ORYXHardware model number:	OX2-SRSoftware version number:	ORYX F/W v4,00 Oryx Data Collector v3.7.2.0data status	okinstallation	B6 Nyhavnadifferential loss correction	single-endedforward channel	channel 2reverse channel	N/Adate	2023/12/09time	11:30:08forward acquisition time	300,00reverse acquisition time	0,00gamma	499,1914k internal	0,3139k external	0,3139temperature offset calibration	1,0000default loss term (dB/km)	0,3820temperature slope calibration	1,0000multiplexer offset coefficient	1,0000multiplexer slope coefficient	1,0000fibre end	0,00T internal ref (°C)	18,83T ext. ref 1 (°C)	2,81T ext. ref 2 (°C)	2,82length (m)	temperature (°C)	Stokes	anti-Stokes-744,400	-24,355	0,122	0,054
-743,385	-50,140	-0,208	-0,073
-742,371	-176,639	0,072	-0,001
-741,356	9,163	-0,337	0,188
-740,342	-182,847	0,044	-0,001
-739,327	-111,643	-0,157	-0,023
-738,312	-92,654	-0,078	-0,016
-737,298	-63,379	-0,265	-0,080
-736,283	191,392	0,016	0,018
-735,269	128,374	-0,186	0,175
-734,254	-200,000	0,023	0,107
-733,239	-32,866	-0,525	-0,215
-732,225	-99,516	0,185	0,034
-731,210	93,655	-0,089	0,074
-730,196	-200,000	-0,012	-0,060
-729,181	-63,565	-0,192	-0,058
-728,167	-200,000	-0,004	-0,178
-727,152	-96,725	0,089	-0,017
-726,137	-200,000	-0,029	-0,226
-725,123	477,178	-0,040	-0,067
-724,108	-127,765	-0,061	-0,006
-723,094	25,861	-0,095	-0,059
-722,079	800,000	0,042	-0,127
-721,064	-133,182	-0,144	0,013
-720,050	-200,000	-0,012	-0,099
-719,035	193,673	0,130	-0,146
-718,021	72,769	-0,060	-0,046
-717,006	-200,000	0,013	-0,106
-715,991	49,054	0,079	-0,055
-714,977	-96,991	-0,153	-0,029
-713,962	-42,333	-0,077	0,029
-712,948	-200,000	0,001	0,095
-711,933	183,114	0,115	0,126
-710,918	173,480	-0,074	-0,080
-709,904	-200,000	0,023	-0,079
-708,889	-200,000	-0,002	-0,059
-707,875	23,653	-0,132	-0,080
-706,860	-19,860	0,059	-0,027
-705,845	14,512	0,036	0,021
-704,831	-200,000	-0,003	0,060
-703,816	-98,598	-0,111	0,021
-702,802	-16,125	-0,067	0,031
-701,787	800,000	0,034	-0,080
-700,772	72,482	0,091	-0,070
-699,758	245,752	0,036	-0,045
-698,743	-79,372	0,075	-0,019
-697,729	233,105	-0,039	0,047
-696,714	406,696	0,031	-0,048
-695,699	-200,000	-0,008	-0,154
-694,685	398,246	-0,028	0,043
-693,670	-99,150	-0,088	-0,016
-692,656	19,551	0,137	-0,081
-691,641	-37,199	0,131	0,052
-690,627	162,406	0,056	0,058
-689,612	251,609	-0,106	0,134
-688,597	800,000	0,046	-0,108
-687,583	112,675	0,005	-0,005
-686,568	-85,444	-0,023	0,005
-685,554	-121,235	-0,048	0,006
-684,539	-200,000	0,002	0,024
-683,524	389,932	-0,051	0,078
-682,510	-67,389	-0,083	-0,024
-681,495	64,995	-0,068	0,050
-680,481	53,673	0,087	-0,062
-679,466	48,980	-0,079	0,055
-678,451	-23,395	0,065	-0,029
-677,437	-200,000	0,027	0,137
-676,422	72,426	0,058	0,045
-675,408	103,159	-0,061	0,053
-674,393	137,914	0,037	-0,036
-673,378	800,000	-0,026	0,054
-672,364	-28,195	-0,083	-0,036
-671,349	-200,000	0,016	-0,106
-670,335	529,609	-0,068	-0,120
-669,320	-200,000	0,009	0,142
-668,305	-63,666	0,048	0,014
-667,291	317,198	0,030	0,042
-666,276	176,601	-0,078	0,084
-665,262	189,585	0,013	0,014
-664,247	332,765	0,054	0,078
-663,232	255,564	0,066	-0,084
-662,218	-200,000	0,037	-0,145
-661,203	-200,000	0,018	0,127
-660,189	-200,000	0,017	-0,056
-659,174	189,471	-0,085	0,094
-658,159	293,531	-0,056	0,076
-657,145	-200,000	0,018	0,062
-656,130	-125,936	0,193	-0,021
-655,116	32,261	0,130	0,083
-654,101	800,000	-0,082	0,193
-653,086	-200,000	0,000	-0,072
-652,072	80,332	0,116	-0,092
-651,057	16,965	-0,074	-0,043
-650,043	48,337	-0,148	0,102
-649,028	-68,220	0,073	-0,021
-648,014	149,779	0,096	0,096
-646,999	-58,887	-0,046	0,015
-645,984	800,000	0,025	0,055
-644,970	-113,325	-0,099	-0,014
-643,955	800,000	-0,038	-0,080
-642,941	-200,000	-0,020	0,088
-641,926	-43,001	-0,064	0,024
-640,911	800,000	0,054	0,159
-639,897	647,551	0,052	0,099
-638,882	-200,000	-0,009	-0,044
-637,868	-200,000	0,019	-0,071
-636,853	800,000	-0,042	-0,094
-635,838	150,961	-0,022	-0,022
-634,824	179,501	0,021	-0,022
-633,809	307,149	0,111	-0,153
-632,795	-165,904	0,137	-0,004
-631,780	210,395	0,055	0,064
-630,765	35,530	-0,070	-0,045
-629,751	-111,173	-0,125	-0,019
-628,736	-131,970	-0,036	-0,003
-627,722	-167,883	-0,094	-0,003
-626,707	-137,456	0,061	-0,005
-625,692	-97,271	-0,149	-0,028
-624,678	-108,851	0,142	-0,022
-623,663	800,000	0,013	-0,027
-622,649	-200,000	-0,016	-0,190
-621,634	-200,000	-0,008	-0,135
-620,619	407,093	0,013	0,021
-619,605	800,000	0,010	-0,028
-618,590	-180,258	0,095	-0,001
-617,576	212,325	0,107	0,125
-616,561	-117,775	-0,189	-0,025
-615,546	76,103	-0,066	-0,051
-614,532	262,136	-0,076	-0,098
-613,517	-82,757	0,083	-0,020
-612,503	125,786	0,044	0,041
-611,488	-7,170	0,081	0,040
-610,474	-200,000	-0,010	0,096
-609,459	91,556	-0,038	0,031
-608,444	-75,673	-0,192	-0,050
-607,430	-76,547	-0,104	-0,027
-606,415	800,000	-0,049	-0,103
-605,401	800,000	0,008	0,022
-604,386	392,462	0,020	0,030
-603,371	-200,000	0,022	-0,152
-602,357	-200,000	0,009	-0,089
-601,342	-129,205	0,078	0,008
-600,328	679,959	0,068	-0,130
-599,313	-46,367	-0,057	-0,021
-598,298	-97,419	-0,096	0,018
-597,284	127,395	0,032	0,030
-596,269	659,573	-0,043	0,082
-595,255	429,148	0,067	0,107
-594,240	194,841	-0,035	-0,039
-593,225	-13,074	0,026	0,013
-592,211	-33,035	0,029	0,012
-591,196	45,747	0,037	0,025
-590,182	147,570	-0,050	0,049
-589,167	-200,000	0,016	0,064
-588,152	800,000	-0,067	-0,155
-587,138	-200,000	0,006	-0,137
-586,123	211,981	-0,050	0,058
-585,109	-200,000	-0,024	0,155
-584,094	-14,579	-0,070	-0,033
-583,079	-200,000	0,014	0,072
-582,065	-157,355	-0,058	-0,003
-581,050	-114,443	0,079	-0,011
-580,036	168,161	-0,049	-0,052
-579,021	409,284	-0,073	-0,115
-578,006	-200,000	0,016	-0,055
-576,992	-200,000	0,003	-0,041
-575,977	69,561	0,086	-0,065
-574,963	-136,287	0,132	-0,011
-573,948	-200,000	-0,006	-0,094
-572,934	-153,166	-0,206	-0,010
-571,919	800,000	-0,026	-0,056
-570,904	-56,301	0,062	-0,020
-569,890	173,358	-0,032	-0,034
-568,875	549,433	0,036	-0,064
-567,861	800,000	-0,043	0,090
-566,846	-200,000	0,020	-0,091
-565,831	401,513	0,025	0,039
-564,817	-64,352	0,039	0,012
-563,802	221,409	0,032	0,038
-562,788	800,000	-0,019	-0,056
-561,773	-82,547	-0,105	0,025
-560,758	-131,066	0,078	-0,008
-559,744	-58,111	-0,052	0,016
-558,729	-200,000	-0,017	0,057
-557,715	-117,366	-0,138	-0,018
-556,700	-200,000	-0,022	0,076
-555,685	-69,759	-0,128	-0,036
-554,671	800,000	-0,005	-0,013
-553,656	-200,000	-0,004	0,131
-552,642	800,000	-0,003	-0,006
-551,627	-149,684	0,136	0,008
-550,612	-200,000	-0,021	-0,082
-549,598	-200,000	0,019	0,144
-548,583	-200,000	-0,037	-0,135
-547,569	-97,878	0,111	0,021
-546,554	800,000	0,033	0,094
-545,539	-200,000	-0,038	0,240
-544,525	-20,545	-0,119	0,054
-543,510	88,942	0,083	-0,068
-542,496	-22,970	-0,052	-0,023
-541,481	-167,120	-0,174	-0,005
-540,466	-36,847	0,043	-0,017
-539,452	-34,289	0,122	-0,049
-538,437	-200,000	-0,027	0,098
-537,423	16,876	0,026	0,015
-536,408	631,579	-0,061	-0,114
-535,393	-152,015	-0,078	-0,004
-534,379	451,876	0,069	-0,113
-533,364	-57,360	-0,065	-0,021
-532,350	-65,998	0,073	-0,021
-531,335	800,000	-0,089	0,202
-530,321	800,000	0,012	0,032
-529,306	219,025	0,058	0,069
-528,291	7,282	-0,062	-0,034
-527,277	-162,392	0,037	-0,001
-526,262	-90,146	0,066	-0,014
-525,248	106,922	0,097	0,085
-524,233	-200,000	0,008	0,175
-523,218	423,338	0,061	0,097
-522,204	31,695	-0,036	-0,023
-521,189	126,457	-0,042	0,039
-520,175	800,000	0,030	-0,088
-519,160	-200,000	0,032	-0,144
-518,145	217,134	0,024	-0,028
-517,131	-200,000	0,004	0,034
-516,116	-45,869	-0,208	-0,075
-515,102	9,133	0,076	-0,042
-514,087	134,872	0,065	-0,062
-513,072	-168,861	-0,158	0,004
-512,058	637,991	-0,043	-0,082
-511,043	800,000	-0,009	-0,027
-510,029	550,110	-0,063	-0,111
-509,014	-7,077	0,074	0,037
-507,999	214,961	-0,071	0,083
-506,985	800,000	-0,029	-0,061
-505,970	490,717	0,045	-0,077
-504,956	800,000	-0,035	-0,106
-503,941	800,000	-0,037	0,084
-502,926	13,530	0,138	-0,079
-501,912	800,000	-0,020	-0,051
-500,897	-34,531	0,031	0,012
-499,883	-72,441	-0,039	0,011
-498,868	58,168	0,010	-0,007
-497,853	-158,612	-0,119	-0,005
-496,839	800,000	0,046	-0,096
-495,824	-200,000	0,005	0,057
-494,810	7,050	-0,085	0,047
-493,795	207,845	-0,051	-0,058
-492,781	800,000	0,060	-0,172
-491,766	371,935	-0,041	0,061
-490,751	73,220	-0,082	-0,063
-489,737	159,523	-0,058	0,059
-488,722	-200,000	0,011	-0,040
-487,708	714,993	0,036	-0,070
-486,693	-21,108	-0,021	0,009
-485,678	-200,000	-0,007	-0,054
-484,664	274,972	0,053	-0,068
-483,649	-167,432	-0,074	-0,002
-482,635	-39,669	0,044	0,017
-481,620	-200,000	0,016	0,116
-480,605	-200,000	0,017	-0,140
-479,591	-102,691	0,085	0,015
-478,576	-200,000	0,040	-0,206
-477,562	-200,000	0,014	-0,175
-476,547	800,000	0,071	-0,154
-475,532	591,501	-0,033	0,059
-474,518	276,991	0,040	0,053
-473,503	-200,000	-0,010	0,121
-472,489	151,910	0,193	0,194
-471,474	800,000	-0,045	0,134
-470,459	87,786	-0,122	-0,099
-469,445	302,103	-0,048	-0,066
-468,430	148,512	-0,107	-0,106
-467,416	237,254	-0,024	0,030
-466,401	623,331	0,053	0,098
-465,386	467,977	-0,009	-0,014
-464,372	-107,194	0,115	-0,018
-463,357	443,930	-0,023	0,038
-462,343	-106,595	-0,096	0,016
-461,328	-75,436	-0,120	-0,031
-460,313	65,970	0,049	0,037
-459,299	-165,829	-0,052	-0,002
-458,284	6,329	-0,050	0,027
-457,270	-200,000	-0,007	-0,065
-456,255	552,222	0,003	-0,005
-455,241	-19,475	0,081	0,037
-454,226	65,882	-0,125	0,093
-453,211	67,811	0,170	-0,128
-452,197	-200,000	-0,004	-0,128
-451,182	-124,236	0,140	0,016
-450,168	-5,606	-0,043	0,021
-449,153	132,013	-0,060	-0,057
-448,138	63,956	0,106	0,078
-447,124	604,645	0,065	0,119
-446,109	-150,732	0,060	-0,003
-445,095	298,343	-0,020	0,027
-444,080	90,971	0,066	0,055
-443,065	-132,509	-0,036	-0,003
-442,051	307,288	-0,048	-0,066
-441,036	384,658	-0,040	-0,060
-440,022	724,510	0,073	-0,143
-439,007	456,776	0,055	0,090
-437,992	1,612	-0,056	0,029
-436,978	66,623	0,120	0,089
-435,963	224,871	-0,093	0,111
-434,949	-101,976	0,081	-0,014
-433,934	800,000	0,061	0,133
-432,919	800,000	-0,017	-0,049
-431,905	800,000	-0,028	-0,062
-430,890	382,834	0,015	-0,023
-429,876	141,359	0,042	0,041
-428,861	-48,203	0,115	0,040
-427,846	129,449	0,063	-0,059
-426,832	-200,000	0,035	-0,145
-425,817	304,025	-0,090	-0,123
-424,803	-140,728	0,120	-0,009
-423,788	-0,531	0,074	0,038
-422,773	90,553	-0,058	-0,048
-421,759	-200,000	-0,003	0,091
-420,744	197,579	-0,053	0,060
-419,730	-200,000	-0,007	-0,140
-418,715	128,305	-0,066	-0,061
-417,701	49,163	0,081	0,056
-416,686	-66,381	-0,020	-0,006
-415,671	-38,708	-0,048	0,019
-414,657	-200,000	0,018	0,127
-413,642	406,999	-0,029	-0,045
-412,628	649,029	0,016	-0,030
-411,613	434,726	-0,021	0,034
-410,598	-200,000	-0,031	-0,143
-409,584	96,574	-0,122	0,103
-408,569	365,754	0,096	0,143
-407,555	-200,000	0,027	0,120
-406,540	-34,428	-0,095	0,038
-405,525	35,771	-0,072	0,046
-404,511	-61,182	-0,069	0,021
-403,496	-85,477	-0,091	0,021
-402,482	45,233	0,077	0,052
-401,467	147,581	0,057	-0,056
-400,452	800,000	0,046	0,111
-399,438	65,235	-0,075	-0,055
-398,423	98,543	0,059	0,049
-397,409	-63,468	-0,105	-0,031
-396,394	4,961	-0,022	-0,012
-395,379	800,000	0,035	-0,093
-394,365	-110,807	0,070	-0,010
-393,350	-200,000	-0,006	0,103
-392,336	243,721	-0,065	0,079
-391,321	-24,368	0,126	0,055
-390,306	-200,000	0,003	-0,013
-389,292	417,105	-0,060	-0,095
-388,277	3,198	-0,044	-0,023
-387,263	-154,667	0,153	0,007
-386,248	95,541	0,098	0,082
-385,233	486,340	-0,016	-0,027
-384,219	-34,252	0,034	0,014
-383,204	-52,584	-0,219	-0,073
-382,190	-143,956	-0,054	-0,004
-381,175	800,000	0,033	0,090
-380,160	-183,014	0,050	-0,001
-379,146	-200,000	-0,011	-0,125
-378,131	800,000	0,033	0,067
-377,117	573,521	0,036	-0,065
-376,102	-200,000	0,030	-0,101
-375,088	-49,639	-0,050	0,017
-374,073	800,000	0,022	0,068
-373,058	-54,717	-0,076	0,025
-372,044	-8,717	0,042	0,021
-371,029	62,007	0,115	0,084
-370,015	-118,553	-0,088	0,011
-369,000	47,685	-0,028	0,019
-367,985	800,000	0,025	-0,060
-366,971	-29,317	0,048	-0,020
-365,956	262,775	-0,050	0,063
-364,942	-200,000	0,017	-0,059
-363,927	-200,000	0,046	0,153
-362,912	-115,478	0,147	0,020
-361,898	38,023	0,014	0,009
-360,883	-108,737	0,025	0,004
-359,869	-200,000	0,006	0,123
-358,854	800,000	-0,023	0,056
-357,839	800,000	0,016	0,035
-356,825	-141,531	-0,084	-0,006
-355,810	197,665	0,027	0,030
-354,796	244,994	-0,033	-0,041
-353,781	535,208	-0,044	-0,076
-352,766	800,000	0,056	-0,128
-351,752	-123,391	0,076	0,009
-350,737	-53,248	0,104	-0,035
-349,723	-128,589	-0,055	0,006
-348,708	470,612	-0,019	0,031
-347,693	120,943	0,112	0,102
-346,679	233,794	0,019	0,022
-345,664	800,000	0,011	-0,034
-344,650	224,825	-0,072	-0,085
-343,635	-44,205	-0,107	-0,039
-342,620	-114,395	-0,096	-0,013
-341,606	459,768	0,050	0,082
-340,591	90,982	-0,013	-0,011
-339,577	5,036	-0,080	-0,043
-338,562	800,000	-0,052	-0,119
-337,548	428,258	-0,062	0,099
-336,533	199,367	0,097	0,109
-335,518	-18,759	-0,053	0,024
-334,504	-12,746	0,081	0,038
-333,489	-15,545	-0,062	-0,029
-332,475	-89,713	-0,113	-0,024
-331,460	351,942	0,048	0,069
-330,445	66,592	0,069	-0,051
-329,431	800,000	0,035	0,079
-328,416	-25,284	0,134	0,058
-327,402	-200,000	0,009	-0,116
-326,387	104,643	-0,044	-0,038
-325,372	-76,181	0,114	-0,029
-324,358	385,727	-0,042	-0,064
-323,343	800,000	0,023	0,048
-322,329	128,277	-0,059	0,055
-321,314	761,249	0,038	0,075
-320,299	204,926	-0,016	0,018
-319,285	-200,000	0,001	-0,076
-318,270	800,000	0,045	-0,101
-317,256	800,000	-0,059	-0,137
-316,241	-103,309	-0,042	0,007
-315,226	-31,164	-0,037	0,015
-314,212	-37,479	0,199	0,077
-313,197	649,693	0,027	0,050
-312,183	-16,898	0,078	0,036
-311,168	39,691	-0,105	0,069
-310,153	189,721	0,017	0,019
-309,139	-93,975	0,037	0,007
-308,124	-128,273	0,092	-0,009
-307,110	17,266	0,085	-0,049
-306,095	611,309	0,075	0,138
-305,080	-200,000	-0,001	-0,036
-304,066	37,992	0,051	0,033
-303,051	10,544	-0,088	-0,049
-302,037	80,534	0,130	-0,102
-301,022	800,000	0,039	-0,081
-300,008	800,000	-0,019	0,055
-298,993	-23,439	0,049	-0,021
-297,978	-54,358	0,073	-0,024
-296,964	177,935	0,056	0,059
-295,949	164,799	-0,139	-0,143
-294,935	35,963	-0,106	-0,068
-293,920	139,810	-0,079	0,076
-292,905	-200,000	0,004	0,117
-291,891	-4,120	0,138	0,069
-290,876	95,233	-0,028	0,023
-289,862	436,398	-0,054	0,086
-288,847	-200,000	0,033	-0,112
-287,832	387,043	-0,019	0,029
-286,818	-98,640	0,107	0,020
-285,803	-88,535	-0,034	-0,007
-284,789	800,000	0,019	-0,043
-283,774	132,317	0,085	0,079
-282,759	-200,000	-0,021	0,189
-281,745	800,000	0,009	-0,029
-280,730	79,482	0,067	-0,052
-279,716	204,794	-0,076	0,086
-278,701	-200,000	0,004	-0,018
-277,686	146,311	0,028	0,028
-276,672	800,000	-0,026	-0,068
-275,657	158,350	-0,046	-0,046
-274,643	-79,461	-0,115	-0,028
-273,628	-200,000	0,018	0,107
-272,613	395,644	-0,115	-0,175
-271,599	-200,000	0,009	0,039
-270,584	-200,000	0,027	-0,147
-269,570	21,758	-0,098	0,058
-268,555	97,948	-0,056	0,047
-267,540	0,394	-0,027	-0,014
-266,526	638,502	-0,043	-0,081
-265,511	88,415	-0,035	0,029
-264,497	10,725	0,190	-0,105
-263,482	-200,000	-0,012	0,042
-262,467	49,934	0,109	0,075
-261,453	219,001	-0,016	-0,019
-260,438	164,181	0,062	0,063
-259,424	226,982	0,087	-0,103
-258,409	-200,000	0,007	-0,103
-257,395	-34,488	0,036	0,014
-256,380	-25,373	0,114	0,049
-255,365	19,906	0,169	0,099
-254,351	-200,000	0,000	0,205
-253,336	54,195	0,078	0,054
-252,322	697,865	0,019	0,037
-251,307	-200,000	0,000	0,063
-250,292	800,000	0,010	-0,031
-249,278	-200,000	-0,010	0,057
-248,263	-41,054	-0,042	-0,016
-247,249	621,930	0,055	-0,102
-246,234	-200,000	0,018	-0,152
-245,219	-65,360	-0,027	0,008
-244,205	296,409	-0,065	-0,087
-243,190	-200,000	0,009	0,081
-242,176	80,565	0,025	0,020
-241,161	211,242	0,045	0,051
-240,146	-200,000	0,003	0,018
-239,132	453,467	0,018	0,030
-238,117	75,956	0,091	0,070
-237,103	-67,148	0,027	0,008
-236,088	37,830	-0,086	-0,055
-235,073	-93,873	0,162	-0,032
-234,059	186,356	-0,142	0,154
-233,044	29,080	0,052	-0,032
-232,030	-62,781	-0,051	-0,015
-231,015	-29,023	-0,161	-0,067
-230,000	800,000	-0,093	-0,189
-228,986	294,449	-0,030	0,040
-227,971	34,232	0,059	-0,037
-226,957	333,424	-0,076	0,107
-225,942	-200,000	0,003	-0,035
-224,927	-200,000	0,008	0,027
-223,913	800,000	-0,026	0,074
-222,898	137,857	0,036	0,034
-221,884	800,000	-0,020	0,045
-220,869	309,754	-0,027	0,037
-219,855	407,617	0,041	-0,063
-218,840	41,128	0,063	-0,041
-217,825	-89,363	-0,144	0,030
-216,811	81,392	-0,217	-0,170
-215,796	306,626	-0,049	-0,067
-214,782	42,058	0,133	-0,088
-213,767	-47,758	-0,125	0,044
-212,752	-112,382	0,113	-0,016
-211,738	78,024	-0,087	0,068
-210,723	689,935	-0,029	-0,055
-209,709	515,038	0,058	-0,099
-208,694	50,233	-0,106	0,073
-207,679	-200,000	-0,003	0,025
-206,665	-150,604	0,098	-0,005
-205,650	424,278	0,073	0,115
-204,636	-41,187	0,076	0,028
-203,621	-77,550	-0,057	-0,014
-202,606	-200,000	-0,006	-0,060
-201,592	-200,000	0,000	-0,071
-200,577	-200,000	0,001	-0,021
-199,563	24,115	-0,074	-0,044
-198,548	-56,029	-0,193	0,062
-197,533	659,659	0,079	0,149
-196,519	-98,204	-0,057	-0,011
-195,504	161,777	-0,046	0,047
-194,490	-8,845	-0,129	0,062
-193,475	-200,000	0,001	-0,052
-192,460	-200,000	0,006	0,077
-191,446	96,852	0,110	0,091
-190,431	-23,924	-0,045	0,019
-189,417	148,706	-0,017	-0,017
-188,402	-78,759	-0,047	-0,011
-187,387	-49,533	-0,064	0,022
-186,373	-40,862	0,133	0,050
-185,358	-132,054	0,233	0,022
-184,344	-200,000	0,025	0,239
-183,329	48,895	0,054	0,037
-182,315	-200,000	0,025	0,082
-181,300	800,000	-0,034	-0,108
-180,285	-5,217	-0,112	-0,056
-179,271	157,645	0,059	0,059
-178,256	227,294	0,090	-0,107
-177,242	236,342	-0,024	0,028
-176,227	-104,874	0,094	0,016
-175,212	175,707	0,002	0,002
-174,198	565,680	-0,016	0,029
-173,183	387,448	0,010	0,015
-172,169	-200,000	-0,039	-0,170
-171,154	-142,983	-0,081	-0,006
-170,139	-200,000	0,021	0,123
-169,125	336,867	-0,073	0,103
-168,110	-200,000	0,013	0,101
-167,096	-132,039	0,077	0,007
-166,081	800,000	-0,041	0,089
-165,066	-200,000	-0,017	-0,057
-164,052	-36,339	0,069	-0,027
-163,037	-136,534	0,071	0,006
-162,023	800,000	0,025	-0,061
-161,008	800,000	0,024	0,066
-159,993	204,390	-0,099	0,112
-158,979	-150,624	-0,135	-0,007
-157,964	351,518	-0,153	-0,221
-156,950	29,501	-0,056	-0,034
-155,935	-115,021	-0,041	0,006
-154,920	-63,049	-0,032	-0,010
-153,906	-17,499	0,078	0,035
-152,891	40,655	0,019	-0,012
-151,877	-200,000	-0,021	-0,092
-150,862	-200,000	0,030	-0,156
-149,847	800,000	0,006	0,015
-148,833	47,754	0,047	-0,032
-147,818	-16,917	0,048	-0,022
-146,804	-89,577	0,044	-0,009
-145,789	172,114	0,015	-0,015
-144,775	-38,938	0,016	-0,006
-143,760	800,000	-0,027	-0,060
-142,745	232,812	0,008	-0,009
-141,731	359,720	0,075	0,109
-140,716	-26,300	0,102	0,043
-139,702	-48,679	0,038	-0,013
-138,687	-200,000	0,011	0,126
-137,672	-123,494	0,076	-0,009
-136,658	73,150	0,025	0,019
-135,643	40,794	0,078	0,051
-134,629	31,659	0,036	0,022
-133,614	266,613	-0,028	0,036
-132,599	601,869	0,103	0,187
-131,585	40,344	0,091	0,059
-130,570	-200,000	-0,002	-0,014
-129,556	-74,782	-0,007	0,002
-128,541	204,023	-0,059	0,066
-127,526	78,948	-0,094	-0,073
-126,512	-4,241	0,089	0,045
-125,497	435,163	0,077	0,122
-124,483	147,732	-0,040	0,039
-123,468	-3,081	0,019	-0,009
-122,453	-92,390	-0,072	-0,014
-121,439	-43,449	-0,040	0,014
-120,424	-4,231	-0,049	0,025
-119,410	53,740	-0,058	-0,040
-118,395	800,000	0,038	-0,085
-117,380	-170,219	0,059	0,001
