DTS Sentinel unit serial number:	SN410029Multiplexer serial number:	ORYXHardware model number:	OX2-SRSoftware version number:	ORYX F/W v4,00 Oryx Data Collector v3.7.2.0data status	okinstallation	B6 Nyhavnadifferential loss correction	single-endedforward channel	channel 2reverse channel	N/Adate	2023/12/07time	22:15:08forward acquisition time	300,00reverse acquisition time	0,00gamma	499,1914k internal	0,3165k external	0,3165temperature offset calibration	1,0000default loss term (dB/km)	0,3820temperature slope calibration	1,0000multiplexer offset coefficient	1,0000multiplexer slope coefficient	1,0000fibre end	0,00T internal ref (°C)	13,62T ext. ref 1 (°C)	-3,34T ext. ref 2 (°C)	-3,32length (m)	temperature (°C)	Stokes	anti-Stokes-744,400	154,675	0,019	0,019
-743,385	-112,283	-0,310	-0,045
-742,371	-129,495	0,213	0,021
-741,356	-44,017	-0,210	0,077
-740,342	-24,064	0,138	-0,060
-739,327	-113,499	-0,336	0,048
-738,312	-141,729	0,255	-0,019
-737,298	-190,450	-0,323	-0,003
-736,283	-61,060	0,121	0,037
-735,269	-135,690	-0,352	0,030
-734,254	318,553	0,061	0,085
-733,239	28,389	-0,456	-0,283
-732,225	-71,636	0,176	-0,048
-731,210	-57,434	-0,016	-0,005
-730,196	-77,442	-0,072	0,018
-729,181	-200,000	0,005	-0,082
-728,167	-87,079	-0,047	0,011
-727,152	-200,000	0,051	-0,174
-726,137	47,990	-0,163	-0,112
-725,123	-200,000	-0,018	-0,068
-724,108	-40,835	-0,109	-0,041
-723,094	-200,000	0,002	-0,176
-722,079	-185,111	-0,103	-0,001
-721,064	353,027	-0,019	-0,027
-720,050	-114,544	0,062	-0,009
-719,035	800,000	0,027	-0,062
-718,021	-65,147	-0,052	-0,015
-717,006	-58,634	-0,236	-0,075
-715,991	-60,798	-0,062	-0,019
-714,977	800,000	-0,044	-0,118
-713,962	531,834	-0,115	-0,201
-712,948	324,795	-0,056	0,079
-711,933	250,232	-0,064	-0,080
-710,918	-200,000	0,017	-0,146
-709,904	-90,698	0,067	-0,014
-708,889	-200,000	0,005	-0,027
-707,875	175,312	-0,071	-0,076
-706,860	-200,000	-0,015	-0,070
-705,845	84,853	0,086	-0,069
-704,831	-59,083	0,042	-0,013
-703,816	451,462	-0,052	0,084
-702,802	2,360	0,065	-0,034
-701,787	-0,105	-0,148	-0,077
-700,772	-172,656	0,080	0,002
-699,758	183,898	0,017	0,019
-698,743	-200,000	0,029	-0,095
-697,729	-200,000	-0,000	-0,070
-696,714	-119,792	-0,071	-0,009
-695,699	-24,434	-0,104	-0,045
-694,685	-200,000	-0,003	-0,053
-693,670	800,000	0,027	0,071
-692,656	323,511	0,075	-0,106
-691,641	-106,592	0,132	0,021
-690,627	800,000	0,027	0,060
-689,612	-200,000	0,015	0,131
-688,597	50,947	-0,120	0,083
-687,583	-70,266	-0,123	-0,034
-686,568	397,915	0,078	-0,120
-685,554	203,781	0,041	0,046
-684,539	-200,000	-0,001	-0,146
-683,524	-200,000	0,045	0,156
-682,510	108,236	-0,089	0,078
-681,495	154,617	0,087	0,088
-680,481	-101,222	-0,069	-0,012
-679,466	456,912	0,089	-0,145
-678,451	800,000	0,027	-0,078
-677,437	-200,000	0,035	-0,155
-676,422	-81,129	-0,146	-0,035
-675,408	724,742	-0,077	-0,152
-674,393	-151,299	-0,123	-0,007
-673,378	-29,815	-0,059	0,024
-672,364	422,298	-0,072	-0,113
-671,349	-67,399	-0,073	-0,021
-670,335	38,792	-0,038	0,025
-669,320	-200,000	-0,013	-0,051
-668,305	85,531	-0,085	-0,068
-667,291	-62,891	0,078	-0,024
-666,276	-200,000	0,010	-0,065
-665,262	-200,000	0,012	-0,110
-664,247	-100,756	-0,059	-0,010
-663,232	-146,572	-0,171	0,011
-662,218	800,000	-0,042	-0,093
-661,203	-161,433	0,162	-0,006
-660,189	494,940	0,011	-0,019
-659,174	34,748	-0,057	-0,036
-658,159	210,826	-0,081	0,094
-657,145	-137,688	-0,089	-0,007
-656,130	212,406	0,077	0,089
-655,116	-42,736	-0,059	0,022
-654,101	52,799	0,088	-0,062
-653,086	-106,857	-0,199	0,032
-652,072	800,000	-0,026	0,077
-651,057	367,841	-0,019	0,028
-650,043	60,403	-0,072	0,052
-649,028	-200,000	-0,037	-0,127
-648,014	-42,193	0,091	0,034
-646,999	-51,948	0,111	-0,037
-645,984	-200,000	0,035	-0,121
-644,970	210,318	-0,072	0,083
-643,955	800,000	-0,021	-0,067
-642,941	-126,360	-0,050	0,005
-641,926	520,521	0,060	-0,103
-640,911	212,039	-0,054	0,062
-639,897	72,164	0,046	0,035
-638,882	-200,000	-0,008	-0,088
-637,868	800,000	0,031	-0,089
-636,853	553,226	0,017	-0,030
-635,838	-32,997	-0,196	-0,079
-634,824	-72,823	0,048	-0,013
-633,809	181,551	0,026	0,028
-632,795	125,906	-0,074	0,069
-631,780	800,000	0,044	0,106
-630,765	-99,723	-0,027	-0,005
-629,751	-138,056	-0,052	0,004
-628,736	-200,000	-0,013	0,062
-627,722	-176,327	-0,092	0,002
-626,707	800,000	0,075	0,195
-625,692	-106,262	0,067	0,011
-624,678	-200,000	0,001	0,024
-623,663	357,640	-0,017	-0,025
-622,649	-200,000	0,000	0,002
-621,634	-100,956	-0,097	-0,017
-620,619	22,355	-0,066	-0,039
-619,605	-158,397	0,067	0,003
-618,590	-21,100	-0,120	0,053
-617,576	-81,308	0,007	0,002
-616,561	-200,000	0,013	-0,046
-615,546	472,751	0,045	0,074
-614,532	46,965	-0,072	-0,049
-613,517	184,686	0,075	0,082
-612,503	-127,667	0,063	-0,007
-611,488	800,000	-0,054	0,116
-610,474	310,013	-0,068	-0,093
-609,459	442,643	-0,012	0,019
-608,444	105,841	-0,100	-0,086
-607,430	54,119	0,036	0,025
-606,415	39,821	0,173	0,113
-605,401	364,934	-0,004	0,007
-604,386	488,245	0,050	0,084
-603,371	302,452	0,021	0,029
-602,357	-109,141	-0,121	-0,019
-601,342	-136,081	-0,042	-0,004
-600,328	70,838	-0,092	-0,070
-599,313	222,924	-0,050	-0,059
-598,298	-200,000	-0,013	0,088
-597,284	800,000	0,016	-0,049
-596,269	203,188	0,069	0,079
-595,255	-200,000	0,002	0,014
-594,240	98,981	-0,033	0,028
-593,225	621,905	-0,048	-0,088
-592,211	-27,091	-0,090	-0,038
-591,196	-171,925	0,069	0,002
-590,182	595,471	-0,072	-0,132
-589,167	157,176	0,108	0,109
-588,152	800,000	-0,028	-0,059
-587,138	800,000	0,044	-0,092
-586,123	69,312	-0,092	-0,069
-585,109	18,450	0,077	-0,045
-584,094	128,299	-0,002	0,002
-583,079	-200,000	-0,005	-0,092
-582,065	-96,833	-0,108	0,021
-581,050	107,174	-0,037	-0,032
-580,036	800,000	0,032	-0,076
-579,021	-81,335	-0,079	0,019
-578,006	168,638	-0,127	-0,133
-576,992	800,000	-0,043	0,110
-575,977	-200,000	0,005	0,049
-574,963	800,000	0,015	0,044
-573,948	-10,448	0,027	0,013
-572,934	-113,372	-0,028	-0,004
-571,919	-200,000	-0,008	-0,026
-570,904	297,076	-0,022	0,030
-569,890	-200,000	-0,009	0,180
-568,875	-3,565	0,098	-0,050
-567,861	137,501	0,017	0,017
-566,846	368,565	0,056	0,082
-565,831	256,254	-0,059	-0,074
-564,817	-156,734	0,159	-0,007
-563,802	189,733	-0,051	0,056
-562,788	-45,832	-0,090	-0,032
-561,773	-39,031	0,075	-0,029
-560,758	-15,347	-0,050	0,023
-559,744	800,000	0,022	-0,049
-558,729	-5,219	-0,065	0,033
-557,715	-148,969	-0,044	-0,003
-556,700	-77,298	0,151	0,038
-555,685	0,656	-0,090	-0,047
-554,671	-200,000	0,002	-0,151
-553,656	206,830	0,097	0,110
-552,642	219,764	0,081	0,095
-551,627	-200,000	-0,017	0,143
-550,612	-186,014	0,095	-0,001
-549,598	111,633	-0,058	-0,051
-548,583	60,928	-0,023	-0,017
-547,569	-163,966	-0,076	0,003
-546,554	307,370	0,081	0,111
-545,539	319,153	0,086	-0,120
-544,525	800,000	-0,046	-0,101
-543,510	-200,000	-0,007	0,090
-542,496	34,603	0,070	-0,045
-541,481	800,000	0,010	0,027
-540,466	-200,000	-0,029	0,095
-539,452	594,862	0,037	-0,067
-538,437	-200,000	0,008	0,063
-537,423	-145,577	0,148	0,010
-536,408	-200,000	-0,028	-0,110
-535,393	-200,000	0,006	0,081
-534,379	800,000	0,008	0,017
-533,364	-103,076	0,152	0,026
-532,350	352,379	0,062	0,089
-531,335	609,283	0,010	-0,017
-530,321	-25,316	-0,069	0,030
-529,306	-66,657	0,098	-0,028
-528,291	-200,000	0,026	-0,116
-527,277	800,000	0,080	-0,178
-526,262	548,052	-0,059	-0,104
-525,248	800,000	-0,020	0,051
-524,233	124,737	0,066	-0,060
-523,218	195,227	-0,086	0,095
-522,204	-200,000	-0,002	0,056
-521,189	-200,000	-0,002	-0,008
-520,175	299,080	0,044	-0,060
-519,160	-200,000	0,022	0,135
-518,145	-17,956	0,114	-0,052
-517,131	-200,000	-0,008	0,050
-516,116	-200,000	0,007	-0,052
-515,102	-200,000	-0,001	0,051
-514,087	147,344	-0,050	0,049
-513,072	-155,418	-0,203	0,009
-512,058	800,000	0,070	-0,142
-511,043	80,108	0,129	0,101
-510,029	-200,000	0,010	0,115
-509,014	265,022	0,120	-0,153
-507,999	-200,000	-0,025	-0,145
-506,985	-200,000	0,032	0,126
-505,970	670,230	0,056	-0,107
-504,956	21,951	-0,072	0,043
-503,941	-200,000	0,023	0,076
-502,926	800,000	-0,018	0,051
-501,912	-158,680	0,056	-0,002
-500,897	-52,755	0,082	-0,027
-499,883	-109,997	0,101	0,015
-498,868	-168,323	-0,128	-0,004
-497,853	-142,633	-0,181	0,013
-496,839	-91,621	-0,094	-0,019
-495,824	-200,000	0,010	0,061
-494,810	-187,494	0,065	-0,001
-493,795	800,000	0,066	0,147
-492,781	-200,000	0,003	-0,013
-491,766	-200,000	0,021	-0,092
-490,751	-55,613	-0,123	0,040
-489,737	-200,000	0,007	0,182
-488,722	356,141	0,114	0,165
-487,708	69,581	-0,010	0,008
-486,693	-73,970	-0,083	0,022
-485,678	800,000	0,033	0,083
-484,664	145,350	0,026	0,026
-483,649	-200,000	-0,001	-0,061
-482,635	-200,000	-0,009	-0,029
-481,620	800,000	0,058	-0,169
-480,605	-118,365	-0,090	-0,012
-479,591	31,863	-0,119	0,075
-478,576	-71,909	-0,090	0,024
-477,562	-200,000	-0,050	0,000
-476,547	231,042	-0,052	0,062
-475,532	-200,000	0,007	-0,057
-474,518	-200,000	0,047	-0,205
-473,503	-200,000	0,004	-0,083
-472,489	309,581	0,091	0,124
-471,474	-200,000	0,000	-0,045
-470,459	-80,480	-0,065	-0,016
-469,445	800,000	0,004	-0,010
-468,430	-75,504	-0,057	-0,015
-467,416	172,406	-0,116	0,122
-466,401	-23,855	0,103	-0,045
-465,386	-177,468	0,094	-0,002
-464,372	-200,000	0,012	-0,058
-463,357	-200,000	-0,051	-0,170
-462,343	261,614	-0,026	-0,033
-461,328	-75,844	-0,113	-0,029
-460,313	-200,000	-0,014	-0,051
-459,299	-200,000	-0,003	-0,022
-458,284	-110,576	0,071	-0,011
-457,270	-200,000	-0,003	0,089
-456,255	113,184	-0,105	-0,093
-455,241	-200,000	0,019	-0,064
-454,226	-107,572	-0,098	0,015
-453,211	-55,311	0,135	0,044
-452,197	800,000	0,028	0,072
-451,182	637,766	0,052	0,096
-450,168	230,494	0,033	-0,040
-449,153	17,447	0,042	-0,024
-448,138	620,051	-0,022	0,040
-447,124	277,806	-0,005	-0,007
-446,109	-145,355	0,263	0,017
-445,095	-30,809	0,165	0,068
-444,080	-140,457	-0,050	-0,004
-443,065	326,465	0,077	0,107
-442,051	-105,182	-0,067	0,011
-441,036	-69,073	-0,034	-0,010
-440,022	-200,000	0,032	-0,118
-439,007	-83,312	0,063	-0,014
-437,992	110,893	-0,009	-0,008
-436,978	-200,000	-0,070	0,231
-435,963	312,970	0,007	-0,009
-434,949	267,829	-0,034	0,043
-433,934	800,000	-0,039	-0,120
-432,919	800,000	0,068	-0,153
-431,905	-66,516	0,072	0,021
-430,890	-73,942	-0,128	0,034
-429,876	-4,239	0,057	0,028
-428,861	-200,000	-0,016	0,100
-427,846	54,162	-0,059	-0,041
-426,832	-200,000	-0,000	-0,052
-425,817	-128,997	-0,016	0,002
-424,803	-123,204	0,170	-0,020
-423,788	450,642	0,071	-0,114
-422,773	-200,000	-0,015	0,098
-421,759	246,748	-0,032	-0,040
-420,744	800,000	0,016	-0,050
-419,730	58,993	0,153	-0,109
-418,715	-200,000	0,005	-0,048
-417,701	800,000	0,029	0,059
-416,686	-200,000	0,024	-0,117
-415,671	-115,550	0,083	0,011
-414,657	-200,000	0,027	-0,092
-413,642	-67,464	-0,129	-0,036
-412,628	0,715	-0,091	0,047
-411,613	22,520	-0,025	-0,015
-410,598	-200,000	0,002	-0,055
-409,584	-137,675	-0,075	-0,006
-408,569	-200,000	0,010	0,042
-407,555	91,872	0,067	0,055
-406,540	254,630	0,077	0,096
-405,525	-44,775	-0,125	0,045
-404,511	51,964	-0,104	-0,072
-403,496	800,000	-0,036	0,090
-402,482	147,900	0,016	0,015
-401,467	558,377	0,037	-0,064
-400,452	-200,000	0,006	0,030
-399,438	-54,701	0,086	0,028
-398,423	-146,100	-0,065	-0,004
-397,409	-200,000	0,003	-0,022
-396,394	-200,000	-0,006	-0,075
-395,379	-200,000	-0,027	0,137
-394,365	-200,000	-0,005	-0,050
-393,350	-0,851	0,023	0,012
-392,336	270,944	0,050	0,064
-391,321	800,000	-0,032	0,068
-390,306	800,000	-0,015	-0,035
-389,292	800,000	-0,059	0,162
-388,277	110,148	0,112	-0,097
-387,263	-200,000	-0,026	0,088
-386,248	-63,032	0,108	0,032
-385,233	-21,594	-0,084	-0,037
-384,219	-156,421	0,051	0,002
-383,204	506,198	0,062	-0,104
-382,190	-61,916	0,042	-0,013
-381,175	800,000	-0,012	0,031
-380,160	87,566	0,105	0,084
-379,146	800,000	-0,040	0,094
-378,131	-200,000	-0,014	0,047
-377,117	-200,000	0,007	0,035
-376,102	325,302	-0,097	0,135
-375,088	48,828	0,179	-0,121
-374,073	-145,930	-0,042	0,003
-373,058	-200,000	-0,002	0,086
-372,044	800,000	-0,039	-0,082
-371,029	-15,480	0,140	0,065
-370,015	-200,000	-0,003	0,029
-369,000	800,000	-0,052	-0,118
-367,985	-73,382	-0,127	0,033
-366,971	243,080	0,018	-0,022
-365,956	188,669	-0,101	-0,109
-364,942	-120,805	0,099	0,012
-363,927	304,124	-0,012	0,016
-362,912	800,000	-0,022	-0,055
-361,898	-49,778	-0,148	0,051
-360,883	-133,602	-0,026	0,002
-359,869	-200,000	-0,005	-0,108
-358,854	800,000	-0,009	-0,026
-357,839	-200,000	0,014	0,086
-356,825	536,671	0,010	0,017
-355,810	340,150	-0,063	-0,089
-354,796	800,000	0,034	-0,091
-353,781	-44,947	-0,047	0,017
-352,766	800,000	-0,052	-0,120
-351,752	-200,000	0,022	0,094
-350,737	493,238	-0,095	0,159
-349,723	100,811	0,087	0,074
-348,708	360,769	-0,039	-0,057
-347,693	800,000	-0,049	0,136
-346,679	-78,367	-0,118	0,029
-345,664	-45,631	0,168	0,060
-344,650	-200,000	-0,021	0,069
-343,635	63,729	-0,110	0,080
-342,620	-200,000	-0,003	0,036
-341,606	161,552	0,064	-0,065
-340,591	616,441	-0,031	-0,057
-339,577	387,594	-0,026	-0,040
-338,562	-200,000	-0,005	-0,073
-337,548	-73,592	0,097	-0,025
-336,533	331,559	-0,063	0,089
-335,518	172,840	-0,067	-0,070
-334,504	-121,667	0,073	0,009
-333,489	78,263	-0,163	-0,125
-332,475	-9,829	-0,081	0,039
-331,460	221,068	-0,092	-0,107
-330,445	-116,856	-0,121	0,016
-329,431	-125,523	0,074	-0,008
-328,416	-33,386	0,109	0,043
-327,402	553,926	0,032	-0,056
-326,387	698,123	-0,002	0,004
-325,372	-74,121	-0,157	0,041
-324,358	83,484	-0,118	-0,093
-323,343	112,122	0,083	-0,073
-322,329	-200,000	-0,002	0,100
-321,314	-200,000	0,004	-0,072
-320,299	-91,965	0,091	0,019
-319,285	800,000	-0,081	-0,175
-318,270	-63,439	0,095	0,028
-317,256	-200,000	0,027	-0,111
-316,241	81,796	-0,170	-0,133
-315,226	50,922	-0,108	0,074
-314,212	-200,000	0,011	0,055
-313,197	-200,000	-0,013	0,175
-312,183	-200,000	0,026	0,193
-311,168	-200,000	-0,003	0,011
-310,153	-16,798	-0,006	0,003
-309,139	109,578	0,040	-0,035
-308,124	-103,595	0,108	-0,018
-307,110	-88,508	0,083	0,018
-306,095	224,342	-0,064	0,075
-305,080	596,335	-0,050	-0,090
-304,066	69,581	0,069	-0,052
-303,051	-200,000	0,003	0,108
-302,037	-200,000	0,029	0,115
-301,022	-200,000	0,006	0,103
-300,008	207,587	-0,015	-0,017
-298,993	800,000	-0,054	0,125
-297,978	236,874	0,016	0,019
-296,964	800,000	0,012	0,027
-295,949	432,331	0,039	-0,062
-294,935	800,000	-0,013	0,037
-293,920	24,734	0,069	-0,041
-292,905	-52,199	0,129	0,043
-291,891	-200,000	0,028	0,107
-290,876	-94,901	-0,072	-0,014
-289,862	75,681	-0,137	-0,104
-288,847	98,159	0,046	-0,038
-287,832	76,442	-0,028	0,021
-286,818	220,818	-0,044	-0,051
-285,803	-200,000	0,003	-0,131
-284,789	347,103	0,123	0,175
-283,774	-97,659	0,122	0,023
-282,759	-180,356	0,067	-0,001
-281,745	50,983	-0,021	0,014
-280,730	-55,210	-0,092	0,030
-279,716	-200,000	0,033	0,150
-278,701	-200,000	-0,029	-0,113
-277,686	800,000	0,012	0,027
-276,672	-200,000	0,020	-0,128
-275,657	-142,068	0,059	-0,004
-274,643	123,524	-0,067	0,061
-273,628	800,000	-0,051	-0,139
-272,613	-190,306	0,045	-0,000
-271,599	-200,000	0,007	-0,069
-270,584	163,856	0,019	0,019
-269,570	-200,000	0,014	0,093
-268,555	-41,608	-0,035	-0,013
-267,540	-169,244	-0,039	0,001
-266,526	85,483	-0,071	-0,056
-265,511	800,000	0,047	-0,105
-264,497	-200,000	-0,005	0,024
-263,482	-126,659	0,091	0,010
-262,467	-13,155	0,040	0,019
-261,453	-200,000	0,011	0,043
-260,438	116,370	-0,014	0,013
-259,424	-200,000	0,021	-0,067
-258,409	-133,719	-0,165	0,015
-257,395	-200,000	0,036	0,000
-256,380	-90,938	0,134	0,028
-255,365	-200,000	0,003	-0,063
-254,351	800,000	0,034	0,091
-253,336	-200,000	0,042	-0,219
-252,322	111,603	-0,095	-0,083
-251,307	-200,000	0,001	-0,017
-250,292	-6,450	0,094	0,046
-249,278	230,471	-0,044	-0,053
-248,263	-200,000	-0,025	-0,094
-247,249	-200,000	0,020	0,103
-246,234	-158,840	0,088	0,004
-245,219	-74,965	0,067	-0,017
-244,205	-70,622	-0,155	-0,042
-243,190	800,000	-0,042	0,121
-242,176	197,256	-0,049	0,054
-241,161	-200,000	0,011	0,079
-240,146	-200,000	-0,003	0,023
-239,132	227,297	0,101	-0,119
-238,117	-200,000	-0,032	-0,104
-237,103	800,000	-0,097	-0,201
-236,088	-200,000	-0,002	-0,067
-235,073	171,445	0,099	0,103
-234,059	-91,695	-0,143	0,029
-233,044	-67,417	0,078	0,022
-232,030	800,000	-0,072	-0,198
-231,015	-147,698	-0,005	-0,000
-230,000	727,721	-0,028	-0,053
-228,986	-129,786	0,151	-0,015
-227,971	700,971	0,042	-0,080
-226,957	-85,638	0,101	0,022
-225,942	64,001	-0,077	0,056
-224,927	-35,358	0,098	-0,038
-223,913	-16,257	-0,097	0,044
-222,898	-200,000	0,003	-0,080
-221,884	-119,122	0,009	0,001
-220,869	-97,758	-0,043	-0,008
-219,855	-151,137	0,138	0,007
-218,840	-0,134	-0,101	0,052
-217,825	-200,000	-0,014	0,085
-216,811	131,171	-0,055	-0,051
-215,796	495,676	-0,080	0,134
-214,782	-76,527	0,068	0,017
-213,767	-116,007	-0,102	-0,014
-212,752	158,991	0,068	-0,068
-211,738	174,810	-0,071	0,074
-210,723	448,038	-0,021	-0,033
-209,709	248,927	-0,114	-0,139
-208,694	-163,232	-0,036	0,001
-207,679	800,000	-0,020	-0,060
-206,665	210,821	0,016	0,018
-205,650	-66,078	-0,053	-0,015
-204,636	-200,000	0,012	-0,099
-203,621	673,389	-0,034	-0,064
-202,606	-126,889	-0,141	0,015
-201,592	-1,772	-0,056	0,028
-200,577	72,380	-0,151	-0,113
-199,563	705,028	0,029	-0,055
-198,548	289,747	0,042	-0,055
-197,533	-146,858	-0,117	-0,007
-196,519	-109,075	0,082	0,012
-195,504	-97,735	0,122	-0,023
-194,490	-200,000	-0,030	-0,111
-193,475	-151,132	-0,146	0,008
-192,460	-200,000	0,064	0,000
-191,446	-125,758	0,094	0,010
-190,431	-38,877	0,054	0,021
-189,417	-65,138	0,093	0,027
-188,402	-200,000	-0,011	-0,064
-187,387	-125,112	-0,108	-0,012
-186,373	-200,000	-0,015	-0,089
-185,358	-72,230	0,066	0,017
-184,344	-124,555	0,023	0,003
-183,329	-200,000	-0,031	0,114
-182,315	235,703	-0,033	-0,040
-181,300	-42,581	0,059	0,022
-180,285	-200,000	-0,029	-0,111
-179,271	-200,000	0,000	0,028
-178,256	48,566	0,063	0,042
-177,242	-68,206	-0,012	-0,003
-176,227	112,736	0,103	0,090
-175,212	-75,267	0,069	0,017
-174,198	267,341	0,162	0,204
-173,183	34,172	0,070	0,044
-172,169	86,079	-0,157	0,124
-171,154	717,121	0,034	0,066
-170,139	-109,811	-0,041	0,006
-169,125	-124,228	0,134	-0,015
-168,110	-200,000	-0,008	0,058
-167,096	-22,878	0,043	-0,019
-166,081	-142,645	-0,191	-0,013
-165,066	-64,234	-0,060	-0,018
-164,052	-93,751	0,043	-0,008
-163,037	-200,000	-0,001	0,021
-162,023	800,000	0,060	-0,147
-161,008	90,668	-0,062	0,050
-159,993	-200,000	-0,001	-0,029
-158,979	-200,000	-0,006	-0,022
-157,964	291,586	0,020	0,027
-156,950	196,593	-0,098	0,107
-155,935	-200,000	0,039	0,130
-154,920	-139,790	0,124	-0,009
-153,906	431,270	0,070	0,109
-152,891	164,710	-0,041	0,042
-151,877	25,768	0,081	-0,049
-150,862	-6,277	0,080	-0,039
-149,847	-4,819	0,027	-0,013
-148,833	800,000	-0,040	0,109
-147,818	80,916	0,018	0,014
-146,804	-200,000	0,018	0,132
-145,789	-145,181	0,130	0,008
-144,775	15,775	0,019	0,011
-143,760	800,000	-0,024	-0,064
-142,745	-137,351	0,084	0,007
-141,731	51,831	-0,154	-0,105
-140,716	-200,000	-0,012	0,055
-139,702	-200,000	0,010	0,049
-138,687	2,148	-0,107	0,055
-137,672	-126,504	0,136	0,014
-136,658	165,523	-0,106	-0,107
-135,643	-200,000	0,006	-0,041
-134,629	107,731	-0,067	-0,057
-133,614	800,000	-0,021	0,055
-132,599	-200,000	0,024	-0,078
-131,585	297,067	-0,091	-0,120
-130,570	93,137	-0,042	-0,034
-129,556	800,000	0,024	0,061
-128,541	-177,980	-0,199	0,003
-127,526	-58,820	0,078	0,024
-126,512	188,800	-0,058	0,062
-125,497	50,372	0,136	0,092
-124,483	94,012	-0,115	0,094
-123,468	-200,000	-0,004	-0,158
-122,453	-200,000	0,010	-0,143
-121,439	-74,824	-0,191	-0,049
