DTS Sentinel unit serial number:	SN410029Multiplexer serial number:	ORYXHardware model number:	OX2-SRSoftware version number:	ORYX F/W v4,00 Oryx Data Collector v3.7.2.0data status	okinstallation	B6 Nyhavnadifferential loss correction	single-endedforward channel	channel 2reverse channel	N/Adate	2023/12/08time	00:50:08forward acquisition time	300,00reverse acquisition time	0,00gamma	499,1914k internal	0,3165k external	0,3165temperature offset calibration	1,0000default loss term (dB/km)	0,3820temperature slope calibration	1,0000multiplexer offset coefficient	1,0000multiplexer slope coefficient	1,0000fibre end	0,00T internal ref (°C)	13,30T ext. ref 1 (°C)	-3,60T ext. ref 2 (°C)	-3,58length (m)	temperature (°C)	Stokes	anti-Stokes-744,400	800,000	0,048	-0,114
-743,385	-84,336	-0,304	0,070
-742,371	-200,000	0,012	0,058
-741,356	-83,204	-0,241	0,057
-740,342	439,708	0,075	0,121
-739,327	-155,922	-0,393	-0,018
-738,312	611,005	0,076	0,139
-737,298	-159,304	-0,369	-0,015
-736,283	-37,578	0,118	0,046
-735,269	-100,340	-0,348	0,063
-734,254	-200,000	0,162	-0,001
-733,239	-15,491	-0,599	-0,280
-732,225	-74,412	0,283	-0,075
-731,210	13,214	0,078	-0,044
-730,196	800,000	-0,013	-0,029
-729,181	-95,217	-0,166	0,033
-728,167	15,957	-0,118	0,068
-727,152	10,124	-0,079	0,044
-726,137	800,000	-0,022	0,046
-725,123	-25,016	-0,078	-0,034
-724,108	-113,102	-0,089	-0,013
-723,094	87,976	-0,069	0,057
-722,079	315,756	0,028	-0,038
-721,064	-200,000	0,009	-0,177
-720,050	16,802	0,082	-0,047
-719,035	230,920	-0,007	-0,008
-718,021	270,890	-0,034	0,044
-717,006	-54,795	0,085	-0,028
-715,991	139,618	-0,091	-0,088
-714,977	733,285	-0,027	0,054
-713,962	19,257	-0,080	-0,047
-712,948	800,000	0,041	0,110
-711,933	243,043	-0,065	-0,081
-710,918	-56,450	-0,057	0,019
-709,904	-200,000	-0,005	-0,110
-708,889	117,903	-0,058	0,053
-707,875	-84,818	-0,123	-0,028
-706,860	-200,000	-0,010	-0,046
-705,845	16,093	0,162	-0,093
-704,831	-200,000	-0,002	0,064
-703,816	-132,031	0,212	0,020
-702,802	414,533	0,121	0,190
-701,787	515,105	-0,068	-0,116
-700,772	-90,539	0,148	-0,031
-699,758	-200,000	-0,011	0,044
-698,743	-200,000	0,032	0,108
-697,729	-124,478	-0,029	-0,003
-696,714	800,000	-0,058	-0,119
-695,699	800,000	0,018	-0,044
-694,685	-200,000	-0,010	-0,137
-693,670	800,000	-0,009	0,026
-692,656	800,000	0,035	0,082
-691,641	-73,615	0,144	0,038
-690,627	-166,807	-0,130	0,004
-689,612	183,719	-0,068	0,073
-688,597	800,000	0,012	0,031
-687,583	-6,153	0,081	-0,040
-686,568	-200,000	0,003	-0,085
-685,554	-6,649	-0,013	0,007
-684,539	-125,517	0,150	0,016
-683,524	172,106	0,047	-0,050
-682,510	144,694	-0,076	0,074
-681,495	-127,489	-0,108	0,011
-680,481	72,216	-0,036	0,028
-679,466	-200,000	0,011	-0,109
-678,451	163,145	0,048	-0,050
-677,437	-200,000	-0,002	-0,013
-676,422	800,000	0,029	0,092
-675,408	-4,649	-0,046	-0,023
-674,393	690,224	-0,040	0,077
-673,378	-200,000	0,011	-0,065
-672,364	-70,893	-0,040	-0,011
-671,349	66,552	-0,070	0,052
-670,335	159,939	-0,049	-0,050
-669,320	-200,000	-0,002	0,046
-668,305	-60,094	-0,079	-0,025
-667,291	11,643	-0,043	-0,024
-666,276	-131,090	-0,025	-0,002
-665,262	212,807	0,058	0,067
-664,247	-81,932	0,105	-0,025
-663,232	-65,838	0,106	0,031
-662,218	-200,000	-0,029	0,095
-661,203	-106,452	0,159	0,026
-660,189	800,000	-0,048	-0,125
-659,174	-200,000	0,014	-0,152
-658,159	-22,046	0,043	0,019
-657,145	453,218	-0,027	0,043
-656,130	102,893	0,186	-0,160
-655,116	-115,602	0,006	0,001
-654,101	-200,000	-0,025	0,088
-653,086	800,000	-0,024	0,055
-652,072	-200,000	0,003	-0,066
-651,057	112,213	-0,064	-0,057
-650,043	800,000	-0,058	-0,146
-649,028	99,908	-0,054	0,046
-648,014	-88,807	0,116	0,025
-646,999	-200,000	-0,004	-0,025
-645,984	-200,000	-0,011	-0,051
-644,970	-200,000	0,007	-0,071
-643,955	-200,000	-0,012	0,130
-642,941	183,001	0,048	-0,052
-641,926	-200,000	-0,002	0,185
-640,911	148,528	0,068	0,067
-639,897	800,000	0,010	0,023
-638,882	-171,753	-0,037	0,001
-637,868	-83,560	0,115	-0,027
-636,853	-200,000	0,011	-0,096
-635,838	-200,000	0,013	0,056
-634,824	-138,860	-0,063	0,005
-633,809	-200,000	-0,003	0,067
-632,795	-51,527	0,103	0,035
-631,780	-42,896	0,141	0,052
-630,765	-97,770	-0,110	-0,021
-629,751	-200,000	0,027	-0,139
-628,736	800,000	0,041	0,119
-627,722	297,800	-0,030	-0,041
-626,707	-85,095	-0,027	-0,006
-625,692	-17,782	-0,056	0,025
-624,678	42,615	-0,023	-0,015
-623,663	-200,000	-0,033	-0,139
-622,649	106,905	0,079	-0,068
-621,634	309,866	0,032	-0,044
-620,619	-200,000	-0,022	-0,081
-619,605	168,841	0,067	0,070
-618,590	18,318	-0,026	0,015
-617,576	192,972	-0,057	0,063
-616,561	-200,000	0,000	-0,033
-615,546	-22,765	0,105	0,046
-614,532	70,099	-0,052	0,039
-613,517	-200,000	-0,051	-0,180
-612,503	-13,523	0,109	-0,051
-611,488	-200,000	-0,010	0,104
-610,474	11,009	-0,134	-0,075
-609,459	395,029	0,059	0,090
-608,444	-55,748	-0,089	-0,029
-607,430	-142,248	-0,203	-0,014
-606,415	133,960	0,098	-0,093
-605,401	194,562	0,140	-0,156
-604,386	487,199	-0,073	-0,123
-603,371	-200,000	0,016	0,072
-602,357	800,000	-0,047	-0,109
-601,342	-169,793	-0,164	-0,004
-600,328	277,494	-0,060	0,078
-599,313	529,135	-0,045	0,079
-598,298	733,795	0,032	-0,062
-597,284	76,911	0,110	0,085
-596,269	115,050	-0,029	-0,026
-595,255	461,524	-0,044	0,072
-594,240	30,459	-0,064	0,040
-593,225	261,381	-0,022	-0,028
-592,211	144,266	0,098	-0,096
-591,196	-185,263	0,086	0,001
-590,182	800,000	0,049	0,109
-589,167	-200,000	0,018	0,212
-588,152	453,705	-0,070	-0,114
-587,138	8,557	0,058	-0,032
-586,123	230,832	-0,116	0,139
-585,109	-105,286	-0,070	0,012
-584,094	800,000	0,041	0,130
-583,079	-105,851	0,191	-0,031
-582,065	-123,808	0,060	-0,007
-581,050	0,788	0,038	0,020
-580,036	800,000	-0,021	-0,050
-579,021	322,417	0,009	0,013
-578,006	11,807	-0,012	0,007
-576,992	-200,000	0,019	-0,069
-575,977	69,079	0,121	-0,091
-574,963	313,489	0,062	0,086
-573,948	-105,935	-0,120	-0,020
-572,934	-48,505	-0,200	-0,070
-571,919	228,102	0,013	-0,016
-570,904	543,318	0,026	0,045
-569,890	-163,417	-0,076	0,003
-568,875	800,000	0,024	0,049
-567,861	-30,745	-0,097	0,040
-566,846	598,839	0,037	0,068
-565,831	296,083	-0,089	0,119
-564,817	277,488	-0,041	-0,054
-563,802	62,752	-0,087	-0,064
-562,788	62,619	0,067	-0,049
-561,773	-70,388	0,054	0,015
-560,758	5,257	0,165	-0,089
-559,744	800,000	-0,043	0,120
-558,729	-45,682	0,106	0,038
-557,715	-200,000	-0,016	-0,056
-556,700	211,097	0,122	0,140
-555,685	-127,108	0,131	-0,014
-554,671	357,479	0,025	0,036
-553,656	-95,068	0,070	-0,014
-552,642	-200,000	0,034	0,133
-551,627	150,779	-0,060	-0,059
-550,612	162,207	-0,133	0,136
-549,598	525,775	0,012	-0,021
-548,583	800,000	-0,030	0,067
-547,569	-120,095	0,040	0,005
-546,554	-35,230	-0,053	0,021
-545,539	51,478	0,092	-0,064
-544,525	-200,000	0,010	-0,091
-543,510	20,578	0,052	0,030
-542,496	-200,000	0,002	-0,144
-541,481	-69,014	-0,171	-0,048
-540,466	151,657	-0,091	0,091
-539,452	-17,452	-0,048	-0,022
-538,437	348,958	-0,041	0,059
-537,423	108,065	-0,026	-0,023
-536,408	397,903	-0,032	0,049
-535,393	-37,470	0,115	0,045
-534,379	-200,000	-0,037	-0,155
-533,364	-200,000	-0,015	-0,050
-532,350	221,566	0,084	-0,099
-531,335	3,387	0,096	0,051
-530,321	800,000	-0,053	0,111
-529,306	35,308	-0,037	0,024
-528,291	252,246	-0,087	-0,108
-527,277	-200,000	-0,009	0,053
-526,262	-166,270	-0,144	-0,004
-525,248	-115,360	0,133	-0,018
-524,233	-143,840	-0,132	0,009
-523,218	-162,079	-0,075	-0,003
-522,204	81,801	-0,063	0,050
-521,189	800,000	-0,032	-0,072
-520,175	-200,000	-0,004	-0,029
-519,160	-9,494	-0,078	-0,038
-518,145	-83,635	0,054	-0,013
-517,131	800,000	-0,046	0,100
-516,116	-200,000	-0,019	0,103
-515,102	417,540	-0,072	-0,112
-514,087	12,394	-0,064	-0,036
-513,072	-52,390	0,018	0,006
-512,058	-95,668	0,217	-0,042
-511,043	-130,620	0,122	-0,012
-510,029	57,085	-0,079	-0,056
-509,014	-97,319	0,142	0,027
-507,999	-79,562	-0,078	-0,019
-506,985	-200,000	0,001	-0,035
-505,970	-200,000	0,005	-0,088
-504,956	185,004	0,061	-0,066
-503,941	-200,000	0,014	-0,072
-502,926	455,955	-0,025	-0,041
-501,912	-200,000	-0,016	0,054
-500,897	-137,226	0,136	0,011
-499,883	10,555	-0,175	-0,097
-498,868	-6,751	-0,160	-0,079
-497,853	-200,000	0,013	0,069
-496,839	-109,083	0,113	0,017
-495,824	-24,001	0,074	0,032
-494,810	-200,000	0,023	0,156
-493,795	-200,000	-0,006	-0,035
-492,781	449,767	0,088	-0,142
-491,766	702,948	0,006	-0,011
-490,751	-76,456	-0,069	0,018
-489,737	-200,000	-0,001	0,207
-488,722	83,428	-0,067	0,053
-487,708	-137,686	0,124	0,010
-486,693	-96,506	-0,062	-0,012
-485,678	-200,000	-0,008	0,055
-484,664	-200,000	-0,000	0,060
-483,649	130,778	-0,067	-0,062
-482,635	170,587	-0,092	-0,096
-481,620	688,186	-0,060	-0,115
-480,605	374,253	-0,041	0,061
-479,591	-200,000	-0,003	0,052
-478,576	471,010	0,018	-0,030
-477,562	-154,867	-0,097	-0,005
-476,547	235,835	-0,055	-0,067
-475,532	800,000	0,018	-0,047
-474,518	-200,000	-0,007	-0,042
-473,503	54,362	0,077	0,054
-472,489	-138,985	-0,136	-0,011
-471,474	9,499	0,091	0,050
-470,459	211,396	-0,008	-0,009
-469,445	-99,061	-0,059	-0,011
-468,430	169,359	0,091	0,095
-467,416	-200,000	-0,020	-0,155
-466,401	138,266	0,099	-0,095
-465,386	-126,409	-0,075	-0,008
-464,372	-200,000	-0,010	0,063
-463,357	37,154	-0,140	-0,090
-462,343	-200,000	-0,004	0,021
-461,328	-5,115	-0,163	-0,081
-460,313	800,000	-0,043	0,088
-459,299	708,424	-0,021	-0,041
-458,284	-78,582	-0,107	0,026
-457,270	-18,996	-0,061	0,027
-456,255	800,000	0,032	0,071
-455,241	-24,867	0,048	-0,021
-454,226	800,000	-0,031	-0,086
-453,211	-200,000	-0,032	-0,128
-452,197	-2,323	0,068	-0,035
-451,182	290,904	0,072	0,095
-450,168	-24,940	-0,100	0,043
-449,153	-60,194	0,056	-0,017
-448,138	-49,159	0,097	-0,034
-447,124	179,244	-0,084	-0,089
-446,109	-81,173	0,125	0,030
-445,095	4,894	0,125	0,066
-444,080	-70,960	-0,169	-0,046
-443,065	-200,000	0,007	0,064
-442,051	35,652	-0,159	-0,101
-441,036	171,180	-0,043	-0,045
-440,022	800,000	-0,011	0,028
-439,007	-3,031	-0,034	0,017
-437,992	-64,541	0,071	-0,021
-436,978	-200,000	-0,026	0,087
-435,963	131,711	-0,016	0,015
-434,949	422,224	-0,021	-0,033
-433,934	229,427	-0,073	0,087
-432,919	-70,444	-0,116	0,032
-431,905	-60,152	-0,077	0,024
-430,890	613,983	-0,022	-0,040
-429,876	-179,545	0,077	0,001
-428,861	96,228	-0,141	-0,117
-427,846	-13,008	0,051	-0,024
-426,832	66,676	0,012	-0,009
-425,817	-200,000	-0,001	0,048
-424,803	-92,450	-0,075	0,015
-423,788	135,281	-0,070	0,066
-422,773	-200,000	0,038	0,149
-421,759	234,378	-0,039	0,046
-420,744	148,232	-0,106	-0,104
-419,730	166,173	-0,099	-0,102
-418,715	-60,596	0,040	-0,012
-417,701	406,520	-0,047	-0,072
-416,686	-200,000	-0,009	-0,141
-415,671	483,019	0,026	0,043
-414,657	-70,656	-0,133	0,036
-413,642	-200,000	0,019	0,079
-412,628	121,839	-0,052	0,047
-411,613	54,756	-0,052	0,037
-410,598	16,333	-0,019	-0,011
-409,584	-38,881	-0,128	-0,049
-408,569	-200,000	-0,014	-0,067
-407,555	716,878	-0,129	0,250
-406,540	501,108	0,063	-0,107
-405,525	-193,499	-0,104	-0,001
-404,511	-159,671	-0,058	-0,002
-403,496	-200,000	0,011	0,140
-402,482	-105,521	0,181	0,030
-401,467	-200,000	-0,029	0,109
-400,452	137,839	0,149	0,142
-399,438	190,961	0,017	-0,019
-398,423	70,527	-0,116	0,087
-397,409	800,000	-0,041	-0,117
-396,394	-76,189	-0,112	0,028
-395,379	590,556	-0,021	-0,038
-394,365	-200,000	-0,005	0,096
-393,350	800,000	0,042	-0,101
-392,336	1,865	0,094	-0,049
-391,321	-200,000	0,005	-0,061
-390,306	185,495	-0,074	0,080
-389,292	800,000	-0,077	-0,166
-388,277	360,034	0,062	-0,091
-387,263	-131,952	0,200	0,019
-386,248	-79,318	0,052	-0,013
-385,233	800,000	-0,010	-0,030
-384,219	800,000	-0,041	-0,098
-383,204	784,083	0,064	-0,128
-382,190	147,634	-0,052	-0,051
-381,175	358,286	-0,094	-0,136
-380,160	-81,407	0,123	-0,029
-379,146	-200,000	-0,022	-0,093
-378,131	219,042	0,036	-0,042
-377,117	800,000	-0,044	0,101
-376,102	412,230	-0,039	-0,060
-375,088	203,254	0,080	-0,089
-374,073	208,620	-0,048	-0,054
-373,058	341,551	0,065	-0,092
-372,044	-166,593	0,023	-0,001
-371,029	435,238	-0,076	0,120
-370,015	-58,976	0,086	0,027
-369,000	473,396	-0,030	-0,049
-367,985	81,767	-0,070	0,055
-366,971	62,403	-0,018	0,013
-365,956	-200,000	0,016	0,060
-364,942	194,962	0,124	0,137
-363,927	-86,791	0,046	0,010
-362,912	-200,000	0,031	0,102
-361,898	-200,000	-0,008	-0,046
-360,883	669,809	0,014	0,027
-359,869	50,590	0,062	-0,042
-358,854	-96,728	-0,096	-0,018
-357,839	-200,000	-0,001	-0,019
-356,825	-70,955	-0,152	0,041
-355,810	-200,000	-0,006	0,067
-354,796	-166,192	-0,021	-0,001
-353,781	-44,729	0,067	0,024
-352,766	-200,000	0,017	-0,166
-351,752	735,343	0,027	0,052
-350,737	110,557	-0,050	0,043
-349,723	27,885	0,055	0,034
-348,708	27,085	0,136	0,082
-347,693	-157,820	0,048	0,002
-346,679	-155,015	0,104	-0,005
-345,664	129,478	0,093	-0,086
-344,650	35,599	0,026	-0,016
-343,635	59,737	0,098	0,070
-342,620	-22,120	-0,052	0,023
-341,606	-69,557	0,081	0,022
-340,591	-200,000	0,014	0,070
-339,577	800,000	0,037	-0,086
-338,562	618,225	-0,056	0,102
-337,548	16,794	-0,040	-0,023
-336,533	318,825	0,028	0,039
-335,518	-200,000	0,003	0,096
-334,504	-14,628	-0,025	-0,012
-333,489	566,621	-0,013	-0,022
-332,475	560,531	0,029	0,051
-331,460	-185,918	-0,085	-0,001
-330,445	-200,000	-0,024	0,128
-329,431	256,560	-0,051	0,064
-328,416	800,000	-0,058	0,173
-327,402	21,614	0,067	-0,040
-326,387	-83,045	-0,054	-0,012
-325,372	-94,838	-0,176	-0,034
-324,358	86,658	-0,142	-0,113
-323,343	800,000	-0,035	-0,089
-322,329	343,532	0,116	-0,165
-321,314	103,261	0,151	-0,128
-320,299	-8,675	0,027	0,013
-319,285	204,631	-0,027	0,030
-318,270	30,293	-0,033	0,020
-317,256	-183,796	-0,111	-0,001
-316,241	-7,697	0,015	-0,007
-315,226	440,332	-0,023	-0,036
-314,212	22,247	-0,014	-0,008
-313,197	-21,224	0,008	0,003
-312,183	28,494	-0,080	0,049
-311,168	-41,737	-0,100	0,037
-310,153	109,076	-0,048	-0,041
-309,139	-74,937	-0,100	-0,026
-308,124	224,991	-0,024	0,028
-307,110	177,948	0,077	0,081
-306,095	17,144	0,109	0,062
-305,080	18,446	0,109	0,063
-304,066	416,733	-0,062	-0,096
-303,051	710,677	-0,033	-0,063
-302,037	145,928	0,073	-0,071
-301,022	34,343	-0,060	-0,038
-300,008	72,423	0,100	0,075
-298,993	-200,000	0,033	0,110
-297,978	340,942	0,020	0,029
-296,964	-136,332	-0,110	0,009
-295,949	725,182	0,078	0,151
-294,935	800,000	-0,089	0,229
-293,920	55,229	0,157	-0,110
-292,905	-200,000	0,028	-0,140
-291,891	-200,000	0,007	0,178
-290,876	98,788	0,085	0,071
-289,862	0,719	-0,055	-0,029
-288,847	-200,000	-0,002	-0,046
-287,832	-200,000	0,005	-0,086
-286,818	327,794	0,031	-0,044
-285,803	357,050	0,021	-0,030
-284,789	450,486	0,043	-0,069
-283,774	800,000	0,090	-0,191
-282,759	182,724	-0,088	0,094
-281,745	-200,000	0,030	-0,123
-280,730	-200,000	-0,004	-0,037
-279,716	-50,626	0,142	0,048
-278,701	89,207	0,062	0,050
-277,686	40,575	-0,152	0,099
-276,672	800,000	0,034	-0,082
-275,657	192,351	-0,044	-0,048
-274,643	-102,501	-0,083	0,014
-273,628	-67,944	-0,227	-0,064
-272,613	800,000	0,065	0,172
-271,599	-58,213	0,088	-0,027
-270,584	-143,026	-0,098	0,007
-269,570	-200,000	0,044	0,241
-268,555	-139,778	0,133	-0,010
-267,540	-200,000	0,001	-0,035
-266,526	-24,135	0,034	0,015
-265,511	-200,000	-0,008	0,025
-264,497	-74,472	0,061	-0,016
-263,482	3,845	-0,024	0,013
-262,467	541,877	0,050	-0,086
-261,453	-200,000	0,007	-0,056
-260,438	-49,387	-0,095	-0,032
-259,424	-200,000	-0,020	-0,097
-258,409	696,030	0,040	0,076
-257,395	663,769	0,056	-0,105
-256,380	473,270	0,059	-0,096
-255,365	274,253	0,082	0,106
-254,351	-200,000	-0,016	0,123
-253,336	-200,000	0,002	0,120
-252,322	-200,000	0,004	-0,025
-251,307	232,355	0,079	0,093
-250,292	-200,000	0,023	-0,120
-249,278	-33,034	0,054	0,021
-248,263	-158,332	-0,083	0,003
-247,249	-93,360	0,139	-0,028
-246,234	-200,000	0,024	0,000
-245,219	800,000	-0,034	-0,092
-244,205	27,886	-0,037	-0,023
-243,190	38,664	0,089	0,057
-242,176	-184,956	0,158	-0,002
-241,161	80,773	-0,068	-0,053
-240,146	-164,560	0,156	-0,005
-239,132	-164,309	-0,050	-0,002
-238,117	10,968	-0,245	-0,135
-237,103	69,247	-0,065	-0,048
-236,088	-200,000	-0,002	-0,106
-235,073	-121,112	0,078	-0,009
-234,059	39,972	0,173	0,112
-233,044	800,000	-0,049	0,103
-232,030	-200,000	0,004	0,152
-231,015	287,418	0,047	0,061
-230,000	-191,522	-0,112	-0,001
-228,986	-121,014	-0,171	0,020
-227,971	115,392	-0,036	0,031
-226,957	-178,911	0,109	0,002
-225,942	800,000	-0,031	-0,077
-224,927	-152,160	0,048	-0,002
-223,913	-50,915	-0,013	0,005
-222,898	25,521	0,054	-0,032
-221,884	0,193	0,019	-0,010
-220,869	-200,000	-0,004	-0,031
-219,855	-17,409	0,081	0,037
-218,840	305,487	-0,108	-0,145
-217,825	800,000	0,022	-0,068
-216,811	800,000	-0,038	-0,086
-215,796	314,281	-0,099	-0,135
-214,782	-0,081	-0,100	-0,051
-213,767	-153,126	0,066	-0,003
-212,752	800,000	0,053	0,135
-211,738	-200,000	-0,025	0,093
-210,723	-154,270	0,048	0,002
-209,709	504,052	-0,035	0,058
-208,694	22,232	-0,099	-0,058
-207,679	-200,000	-0,002	0,074
-206,665	-200,000	-0,011	0,044
-205,650	300,380	0,088	-0,117
-204,636	44,417	0,125	-0,082
-203,621	-57,419	-0,078	0,024
-202,606	800,000	0,023	0,050
-201,592	114,316	0,036	-0,031
-200,577	-200,000	0,021	-0,082
-199,563	-200,000	0,002	-0,079
-198,548	-60,352	-0,038	-0,011
-197,533	36,933	0,084	-0,053
-196,519	691,963	-0,065	0,124
-195,504	3,097	0,063	0,033
-194,490	-200,000	-0,028	-0,111
-193,475	-41,393	0,079	-0,029
-192,460	800,000	0,029	0,077
-191,446	-200,000	-0,003	0,027
-190,431	325,468	0,025	0,034
-189,417	800,000	0,014	0,030
-188,402	-51,957	0,034	-0,011
-187,387	-125,874	-0,062	0,007
-186,373	-99,426	0,138	-0,025
-185,358	646,519	-0,060	-0,110
-184,344	-200,000	0,058	0,193
-183,329	206,299	0,079	0,089
-182,315	82,035	-0,053	-0,041
-181,300	-200,000	0,025	-0,088
-180,285	-116,399	0,171	-0,023
-179,271	-107,213	-0,103	-0,016
-178,256	604,251	0,027	-0,049
-177,242	-200,000	0,018	0,124
-176,227	220,328	0,152	0,176
-175,212	40,885	0,075	0,049
-174,198	62,668	-0,058	-0,042
-173,183	-200,000	-0,003	0,070
-172,169	192,579	-0,036	0,039
-171,154	107,766	-0,064	0,055
-170,139	73,987	0,148	0,112
-169,125	-200,000	0,012	-0,131
-168,110	-144,753	0,070	0,005
-167,096	-200,000	-0,030	0,155
-166,081	8,538	0,051	-0,028
-165,066	-200,000	-0,020	-0,133
-164,052	146,367	-0,094	0,091
-163,037	-130,897	-0,026	-0,003
-162,023	505,328	-0,037	0,062
-161,008	-67,988	0,018	-0,005
-159,993	104,548	0,061	0,052
-158,979	-200,000	-0,031	-0,120
-157,964	141,866	-0,036	0,035
-156,950	421,294	0,040	-0,061
-155,935	-116,891	0,148	0,019
-154,920	800,000	-0,011	-0,025
-153,906	-119,612	0,138	0,017
-152,891	-25,237	0,109	0,046
-151,877	102,586	-0,071	-0,060
-150,862	-200,000	0,017	-0,091
-149,847	415,738	-0,086	-0,132
-148,833	357,735	-0,116	0,167
-147,818	6,057	0,109	-0,058
-146,804	13,378	-0,137	-0,076
-145,789	341,826	0,057	0,080
-144,775	9,844	0,041	0,022
-143,760	-200,000	-0,023	0,143
-142,745	292,303	-0,056	-0,074
-141,731	35,011	0,060	-0,038
-140,716	-200,000	0,015	0,098
-139,702	426,137	-0,070	-0,109
-138,687	-183,962	-0,067	-0,001
-137,672	-46,151	-0,068	-0,024
-136,658	291,008	0,050	-0,065
-135,643	127,558	0,075	-0,068
-134,629	10,465	-0,101	0,055
-133,614	-200,000	0,044	0,180
-132,599	-43,724	0,119	0,043
-131,585	-73,799	-0,087	-0,023
-130,570	-75,991	-0,051	0,013
-129,556	740,361	-0,036	-0,069
-128,541	800,000	0,019	0,039
-127,526	267,701	0,047	0,060
-126,512	-150,180	0,057	0,003
-125,497	9,755	0,073	0,040
-124,483	627,565	-0,032	0,057
-123,468	146,628	0,029	-0,028
-122,453	800,000	0,017	-0,041
-121,439	-147,298	-0,085	0,005
-120,424	115,769	0,011	-0,010
-119,410	-96,639	0,111	-0,021
