DTS Sentinel unit serial number:	SN410029Multiplexer serial number:	ORYXHardware model number:	OX2-SRSoftware version number:	ORYX F/W v4,00 Oryx Data Collector v3.7.2.0data status	okinstallation	B6 Nyhavnadifferential loss correction	single-endedforward channel	channel 2reverse channel	N/Adate	2023/12/08time	14:10:08forward acquisition time	300,00reverse acquisition time	0,00gamma	499,1914k internal	0,3159k external	0,3159temperature offset calibration	1,0000default loss term (dB/km)	0,3820temperature slope calibration	1,0000multiplexer offset coefficient	1,0000multiplexer slope coefficient	1,0000fibre end	0,00T internal ref (°C)	15,05T ext. ref 1 (°C)	-1,54T ext. ref 2 (°C)	-1,55length (m)	temperature (°C)	Stokes	anti-Stokes-744,400	22,869	0,124	-0,075
-743,385	-200,000	-0,335	0,001
-742,371	39,764	0,207	0,136
-741,356	86,484	-0,264	0,214
-740,342	-200,000	0,007	0,123
-739,327	-22,483	-0,376	-0,167
-738,312	-106,443	-0,049	0,008
-737,298	-131,812	-0,274	-0,026
-736,283	-118,008	0,093	0,012
-735,269	180,417	-0,100	0,109
-734,254	23,707	0,100	0,061
-733,239	-98,035	-0,554	-0,104
-732,225	134,350	0,129	0,123
-731,210	-86,850	0,081	0,018
-730,196	-174,911	-0,174	-0,004
-729,181	-200,000	-0,008	-0,068
-728,167	-200,000	0,022	-0,128
-727,152	410,974	-0,051	0,081
-726,137	-8,247	0,114	0,056
-725,123	-58,735	-0,031	0,010
-724,108	70,174	-0,121	-0,092
-723,094	166,905	-0,051	-0,054
-722,079	-8,983	-0,083	0,041
-721,064	-95,779	-0,120	0,023
-720,050	-12,785	0,016	-0,008
-719,035	800,000	-0,049	-0,104
-718,021	-200,000	0,043	0,141
-717,006	800,000	0,030	0,066
-715,991	17,449	-0,167	-0,098
-714,977	10,862	-0,093	-0,052
-713,962	800,000	-0,072	-0,149
-712,948	-99,859	0,145	0,026
-711,933	800,000	-0,009	-0,022
-710,918	-131,358	-0,031	0,003
-709,904	22,170	-0,190	0,114
-708,889	-141,058	-0,127	-0,009
-707,875	-61,655	-0,050	0,015
-706,860	148,608	-0,068	-0,068
-705,845	360,314	-0,061	0,090
-704,831	-20,999	0,111	0,050
-703,816	495,928	-0,025	0,043
-702,802	28,957	0,047	0,029
-701,787	-200,000	0,025	-0,096
-700,772	69,076	-0,130	-0,098
-699,758	53,579	0,054	0,038
-698,743	-101,491	-0,119	0,021
-697,729	-200,000	-0,024	0,118
-696,714	-120,085	0,061	0,008
-695,699	207,528	-0,028	0,032
-694,685	12,109	0,084	0,047
-693,670	-33,499	-0,090	0,036
-692,656	-200,000	0,018	-0,113
-691,641	-200,000	-0,011	-0,054
-690,627	-129,246	0,126	0,013
-689,612	-200,000	-0,026	-0,148
-688,597	-200,000	-0,003	-0,192
-687,583	-200,000	0,007	-0,135
-686,568	100,847	-0,066	0,056
-685,554	35,709	-0,218	0,140
-684,539	220,657	0,069	0,081
-683,524	513,547	0,020	0,034
-682,510	-200,000	0,021	-0,070
-681,495	-14,263	-0,005	-0,002
-680,481	25,522	0,120	-0,073
-679,466	28,689	-0,096	-0,059
-678,451	179,246	-0,043	-0,047
-677,437	190,102	0,080	-0,088
-676,422	800,000	-0,018	-0,054
-675,408	-102,479	-0,109	0,019
-674,393	-118,481	-0,139	-0,018
-673,378	800,000	-0,032	0,065
-672,364	103,097	0,049	-0,042
-671,349	163,854	-0,086	-0,089
-670,335	-200,000	-0,005	0,188
-669,320	800,000	0,040	-0,101
-668,305	-126,375	0,049	-0,005
-667,291	-106,274	-0,122	0,020
-666,276	125,775	-0,033	-0,031
-665,262	392,045	0,051	0,078
-664,247	-13,645	0,145	-0,069
-663,232	61,032	-0,105	0,076
-662,218	800,000	-0,012	0,031
-661,203	-200,000	-0,004	0,073
-660,189	49,171	-0,074	0,051
-659,174	87,336	-0,136	0,110
-658,159	800,000	0,033	-0,086
-657,145	-152,670	-0,070	0,004
-656,130	-200,000	-0,004	0,022
-655,116	119,936	0,026	0,023
-654,101	-200,000	-0,028	-0,117
-653,086	-200,000	-0,006	0,052
-652,072	-12,436	-0,066	-0,032
-651,057	77,836	-0,022	-0,017
-650,043	-4,234	0,104	-0,052
-649,028	-90,856	-0,051	-0,011
-648,014	-68,403	0,212	0,060
-646,999	-148,614	0,045	-0,003
-645,984	-200,000	0,005	0,110
-644,970	-50,435	-0,156	-0,054
-643,955	800,000	-0,034	-0,073
-642,941	-94,394	-0,122	-0,024
-641,926	-200,000	0,001	0,009
-640,911	0,093	-0,185	0,096
-639,897	-200,000	0,021	0,092
-638,882	800,000	0,004	-0,012
-637,868	800,000	-0,020	-0,043
-636,853	-200,000	0,027	-0,173
-635,838	-200,000	-0,033	-0,187
-634,824	-165,743	0,043	-0,001
-633,809	-76,889	0,119	0,030
-632,795	282,273	0,030	-0,040
-631,780	-50,832	0,103	-0,035
-630,765	800,000	-0,085	-0,183
-629,751	445,351	-0,069	-0,111
-628,736	-23,760	-0,025	0,011
-627,722	121,907	-0,041	-0,038
-626,707	800,000	0,023	-0,071
-625,692	-98,224	-0,065	0,012
-624,678	4,919	-0,045	-0,024
-623,663	204,738	-0,032	-0,036
-622,649	-200,000	-0,029	-0,144
-621,634	119,338	-0,053	-0,048
-620,619	800,000	-0,034	-0,108
-619,605	-200,000	0,027	-0,091
-618,590	-200,000	-0,018	0,071
-617,576	-200,000	0,010	0,051
-616,561	181,577	0,043	-0,046
-615,546	-97,018	-0,154	-0,029
-614,532	250,699	-0,056	-0,070
-613,517	-28,071	-0,026	0,011
-612,503	800,000	0,065	-0,144
-611,488	-145,343	0,100	-0,006
-610,474	271,729	-0,079	0,102
-609,459	167,166	0,034	0,035
-608,444	-200,000	-0,007	-0,089
-607,430	-200,000	0,012	-0,226
-606,415	-77,785	-0,104	-0,026
-605,401	83,067	-0,084	0,067
-604,386	-200,000	-0,022	0,082
-603,371	-200,000	0,000	0,015
-602,357	800,000	0,024	0,073
-601,342	-200,000	-0,031	-0,137
-600,328	800,000	-0,026	-0,059
-599,313	19,600	-0,082	0,048
-598,298	-88,386	-0,181	-0,039
-597,284	576,197	0,009	-0,015
-596,269	342,861	0,059	0,085
-595,255	-127,857	-0,097	-0,010
-594,240	774,011	-0,035	0,070
-593,225	-84,398	-0,201	-0,046
-592,211	57,919	-0,051	-0,037
-591,196	-200,000	-0,010	-0,128
-590,182	800,000	-0,022	-0,059
-589,167	-5,982	0,023	-0,011
-588,152	-200,000	0,008	-0,099
-587,138	135,638	-0,064	-0,061
-586,123	800,000	-0,048	-0,102
-585,109	-200,000	0,000	-0,082
-584,094	800,000	0,006	-0,013
-583,079	681,724	-0,052	0,100
-582,065	736,840	0,027	0,053
-581,050	-200,000	-0,035	0,169
-580,036	14,074	0,106	0,061
-579,021	-200,000	-0,013	-0,115
-578,006	337,327	-0,037	0,053
-576,992	-200,000	-0,001	-0,113
-575,977	375,836	0,054	0,080
-574,963	-76,612	-0,081	0,021
-573,948	414,183	0,087	0,135
-572,934	800,000	-0,024	-0,068
-571,919	60,759	0,008	-0,005
-570,904	59,719	0,026	-0,019
-569,890	7,863	-0,065	0,036
-568,875	-200,000	-0,015	0,076
-567,861	69,988	0,043	0,033
-566,846	-200,000	-0,021	-0,205
-565,831	-148,380	-0,014	-0,001
-564,817	-78,429	-0,115	-0,029
-563,802	800,000	-0,019	-0,044
-562,788	29,783	-0,062	0,039
-561,773	-136,336	0,166	-0,014
-560,758	127,926	0,065	0,061
-559,744	334,363	-0,040	-0,056
-558,729	-200,000	0,002	-0,027
-557,715	-22,665	0,040	0,018
-556,700	219,538	0,062	0,073
-555,685	-131,167	0,084	-0,008
-554,671	-200,000	-0,000	-0,069
-553,656	198,456	0,098	0,110
-552,642	387,536	-0,008	0,012
-551,627	-200,000	0,009	0,122
-550,612	800,000	-0,049	0,148
-549,598	-200,000	-0,003	0,050
-548,583	-200,000	-0,019	0,062
-547,569	-200,000	0,010	0,058
-546,554	146,277	-0,058	0,057
-545,539	333,438	-0,028	-0,040
-544,525	-9,908	0,139	-0,067
-543,510	14,741	0,089	-0,051
-542,496	-200,000	-0,002	0,017
-541,481	-200,000	0,023	-0,144
-540,466	-4,768	-0,021	-0,010
-539,452	579,107	-0,016	-0,028
-538,437	90,832	0,085	-0,070
-537,423	-120,677	-0,037	-0,004
-536,408	800,000	0,046	0,108
-535,393	259,082	0,044	0,055
-534,379	-200,000	-0,047	-0,156
-533,364	800,000	0,034	-0,101
-532,350	800,000	0,023	-0,057
-531,335	-163,203	0,030	0,001
-530,321	-200,000	0,005	-0,043
-529,306	13,712	0,100	-0,057
-528,291	800,000	-0,019	-0,046
-527,277	-17,135	-0,028	-0,013
-526,262	576,554	0,035	-0,062
-525,248	235,576	0,056	-0,068
-524,233	-93,744	0,102	0,020
-523,218	-200,000	0,010	-0,058
-522,204	-200,000	0,019	0,075
-521,189	-200,000	-0,012	-0,091
-520,175	800,000	0,011	0,023
-519,160	800,000	0,025	0,058
-518,145	-103,173	-0,068	-0,012
-517,131	-16,680	0,169	-0,078
-516,116	287,173	-0,061	0,081
-515,102	800,000	0,007	0,021
-514,087	800,000	-0,032	-0,093
-513,072	157,540	-0,136	-0,138
-512,058	-149,389	-0,057	-0,003
-511,043	744,774	-0,053	-0,104
-510,029	-24,766	0,149	0,064
-509,014	575,668	-0,026	-0,046
-507,999	-200,000	0,036	0,216
-506,985	183,973	-0,050	-0,054
-505,970	-6,035	0,065	0,032
-504,956	-106,454	-0,070	-0,011
-503,941	75,788	0,059	-0,045
-502,926	-200,000	-0,003	-0,059
-501,912	-200,000	0,006	0,086
-500,897	33,514	0,071	0,045
-499,883	323,875	-0,060	0,084
-498,868	144,384	0,044	-0,043
-497,853	-200,000	0,004	-0,040
-496,839	-116,711	0,126	0,017
-495,824	-200,000	0,032	0,121
-494,810	-200,000	0,004	0,026
-493,795	157,530	-0,027	-0,028
-492,781	-62,272	0,061	-0,019
-491,766	104,837	-0,040	-0,035
-490,751	198,391	0,028	-0,032
-489,737	-85,724	-0,073	0,017
-488,722	-200,000	-0,005	-0,057
-487,708	-9,295	0,111	-0,054
-486,693	800,000	-0,047	-0,099
-485,678	23,342	-0,063	-0,038
-484,664	771,137	-0,052	-0,104
-483,649	90,251	-0,016	-0,013
-482,635	800,000	0,027	-0,074
-481,620	477,308	-0,018	-0,030
-480,605	-66,094	0,058	0,017
-479,591	-200,000	-0,026	0,093
-478,576	800,000	0,020	0,047
-477,562	531,833	0,045	0,077
-476,547	-200,000	-0,036	-0,145
-475,532	66,741	0,131	0,097
-474,518	342,253	-0,040	0,057
-473,503	-200,000	-0,024	0,083
-472,489	-200,000	0,022	0,071
-471,474	800,000	-0,027	-0,078
-470,459	57,321	-0,120	-0,085
-469,445	-55,054	-0,051	-0,017
-468,430	118,420	-0,071	-0,064
-467,416	-82,824	0,187	-0,044
-466,401	239,927	0,049	0,059
-465,386	-17,077	-0,135	0,062
-464,372	800,000	-0,027	0,083
-463,357	-200,000	0,002	0,050
-462,343	-200,000	-0,008	-0,120
-461,328	111,426	0,108	0,095
-460,313	-11,236	0,087	-0,042
-459,299	26,969	0,081	0,049
-458,284	237,417	-0,052	0,063
-457,270	262,750	0,084	0,106
-456,255	489,182	0,065	-0,108
-455,241	800,000	-0,027	-0,059
-454,226	-200,000	-0,020	-0,090
-453,211	-118,639	0,049	0,006
-452,197	254,072	-0,120	0,149
-451,182	-200,000	0,001	0,037
-450,168	-200,000	0,047	0,159
-449,153	50,200	0,014	0,010
-448,138	800,000	-0,018	-0,052
-447,124	-43,299	0,057	-0,021
-446,109	149,111	0,048	-0,048
-445,095	477,484	0,083	0,137
-444,080	-200,000	0,006	0,111
-443,065	442,598	0,016	0,026
-442,051	-86,954	-0,099	0,022
-441,036	-83,949	-0,040	0,009
-440,022	95,480	0,138	0,115
-439,007	-127,881	0,156	0,016
-437,992	-105,676	0,035	-0,006
-436,978	298,333	0,043	-0,058
-435,963	-200,000	-0,021	-0,108
-434,949	-5,407	-0,096	-0,048
-433,934	-200,000	-0,002	-0,182
-432,919	-132,908	-0,115	0,011
-431,905	-200,000	-0,017	-0,077
-430,890	-74,138	-0,075	-0,020
-429,876	-200,000	0,009	0,124
-428,861	214,723	0,100	0,116
-427,846	454,732	0,050	-0,082
-426,832	-129,954	-0,141	-0,014
-425,817	572,008	-0,045	-0,081
-424,803	197,585	0,082	0,092
-423,788	-141,081	0,048	-0,004
-422,773	386,064	0,051	0,077
-421,759	-47,991	0,109	-0,038
-420,744	-82,747	0,125	0,029
-419,730	-200,000	0,013	-0,090
-418,715	-86,996	0,100	0,022
-417,701	73,827	-0,057	-0,043
-416,686	59,642	-0,097	-0,070
-415,671	172,723	-0,022	-0,023
-414,657	-200,000	-0,006	0,101
-413,642	-200,000	0,028	0,106
-412,628	-26,961	0,017	0,007
-411,613	800,000	-0,024	-0,075
-410,598	358,427	-0,080	-0,117
-409,584	-125,677	0,201	-0,022
-408,569	-60,906	0,138	0,042
-407,555	615,384	-0,052	0,095
-406,540	-200,000	-0,014	0,070
-405,525	373,892	-0,068	0,100
-404,511	-200,000	-0,030	-0,105
-403,496	-200,000	0,005	-0,048
-402,482	-200,000	0,007	0,061
-401,467	569,206	0,028	-0,050
-400,452	267,961	-0,030	-0,038
-399,438	-92,030	0,070	0,014
-398,423	131,691	-0,044	-0,041
-397,409	800,000	-0,032	0,076
-396,394	106,616	0,051	-0,044
-395,379	244,265	-0,018	0,022
-394,365	-152,998	-0,118	0,006
-393,350	43,527	0,092	-0,061
-392,336	-200,000	-0,010	-0,081
-391,321	800,000	-0,066	0,155
-390,306	-25,685	-0,118	0,050
-389,292	118,203	-0,042	0,037
-388,277	57,254	-0,065	0,046
-387,263	148,504	0,117	0,115
-386,248	327,395	0,076	0,106
-385,233	622,990	0,043	0,080
-384,219	800,000	0,033	-0,097
-383,204	-55,883	-0,115	0,037
-382,190	-200,000	-0,027	0,132
-381,175	-95,260	-0,020	0,004
-380,160	800,000	0,069	-0,164
-379,146	788,794	0,049	0,098
-378,131	-109,718	-0,075	-0,011
-377,117	800,000	0,037	0,107
-376,102	800,000	-0,041	-0,119
-375,088	279,454	0,081	-0,105
-374,073	-134,514	-0,054	0,005
-373,058	-101,062	0,150	0,026
-372,044	146,215	-0,023	-0,022
-371,029	-28,148	-0,082	-0,034
-370,015	-200,000	-0,021	-0,074
-369,000	-104,918	-0,045	0,007
-367,985	-200,000	-0,038	-0,152
-366,971	-132,865	-0,055	0,005
-365,956	172,951	0,089	0,094
-364,942	-200,000	-0,005	-0,056
-363,927	133,907	-0,064	-0,060
-362,912	800,000	-0,109	-0,269
-361,898	800,000	0,022	-0,066
-360,883	39,528	-0,061	0,040
-359,869	-200,000	-0,014	-0,203
-358,854	407,154	0,093	0,143
-357,839	-200,000	-0,004	0,159
-356,825	800,000	0,061	-0,125
-355,810	800,000	0,043	-0,100
-354,796	-148,486	0,080	0,005
-353,781	-146,812	0,053	-0,003
-352,766	292,201	-0,105	-0,139
-351,752	156,941	0,032	0,032
-350,737	8,065	-0,064	0,034
-349,723	-200,000	0,015	0,098
-348,708	-200,000	0,012	0,056
-347,693	404,289	-0,044	-0,067
-346,679	-28,066	-0,145	-0,061
-345,664	11,003	0,031	-0,017
-344,650	-137,682	-0,130	0,010
-343,635	-13,677	0,052	0,024
-342,620	38,997	0,051	0,033
-341,606	287,098	0,074	0,097
-340,591	178,466	0,048	0,051
-339,577	-161,117	0,165	0,006
-338,562	43,436	-0,100	-0,066
-337,548	-200,000	-0,026	-0,100
-336,533	-200,000	0,009	0,054
-335,518	-9,675	-0,106	-0,051
-334,504	-69,481	0,134	0,037
-333,489	800,000	0,024	0,058
-332,475	46,544	-0,040	0,027
-331,460	648,900	0,052	0,097
-330,445	315,264	0,125	-0,171
-329,431	99,892	0,005	0,004
-328,416	800,000	0,022	0,054
-327,402	128,481	0,021	0,019
-326,387	-200,000	-0,037	0,201
-325,372	-48,272	-0,080	0,028
-324,358	181,685	0,031	-0,034
-323,343	-41,007	0,087	0,032
-322,329	-200,000	0,036	0,122
-321,314	269,244	-0,076	0,096
-320,299	-10,376	-0,067	0,032
-319,285	224,616	-0,054	0,064
-318,270	-200,000	0,016	0,060
-317,256	-200,000	0,050	-0,169
-316,241	-200,000	-0,007	-0,129
-315,226	465,184	0,062	-0,102
-314,212	-66,009	0,081	-0,023
-313,197	-18,835	0,072	0,032
-312,183	-200,000	-0,000	0,070
-311,168	-4,697	0,066	0,033
-310,153	-135,847	0,053	-0,004
-309,139	800,000	-0,037	0,077
-308,124	-106,855	-0,093	-0,015
-307,110	-94,387	0,052	0,010
-306,095	510,014	0,046	0,078
-305,080	-8,340	0,121	-0,059
-304,066	46,949	0,033	0,022
-303,051	210,743	-0,054	-0,061
-302,037	117,955	0,064	0,057
-301,022	66,525	0,032	-0,024
-300,008	800,000	0,048	0,111
-298,993	134,082	0,063	0,059
-297,978	-200,000	-0,017	0,097
-296,964	50,518	-0,033	-0,022
-295,949	-200,000	0,005	0,036
-294,935	800,000	0,020	-0,062
-293,920	502,568	0,068	0,114
-292,905	-200,000	-0,012	0,048
-291,891	228,686	0,074	0,087
-290,876	-200,000	-0,013	0,116
-289,862	-200,000	-0,013	0,125
-288,847	-82,210	-0,125	0,029
-287,832	800,000	0,011	-0,026
-286,818	171,815	0,085	0,088
-285,803	409,993	-0,075	-0,116
-284,789	-88,445	0,098	0,021
-283,774	-200,000	0,023	0,126
-282,759	12,476	-0,158	-0,088
-281,745	-69,103	0,148	0,041
-280,730	-200,000	-0,023	-0,093
-279,716	-33,977	-0,038	-0,015
-278,701	175,148	0,058	-0,061
-277,686	-75,174	0,158	0,041
-276,672	375,984	-0,042	-0,062
-275,657	17,663	-0,109	0,063
-274,643	800,000	0,089	0,191
-273,628	-163,332	-0,196	0,007
-272,613	211,117	-0,078	0,089
-271,599	-200,000	0,007	0,135
-270,584	141,201	0,163	0,156
-269,570	154,211	-0,031	-0,031
-268,555	24,040	0,057	0,034
-267,540	-200,000	-0,009	0,113
-266,526	-200,000	0,028	-0,122
-265,511	-90,669	0,051	0,011
-264,497	-200,000	0,015	-0,063
-263,482	-44,486	0,076	0,027
-262,467	-23,361	0,125	0,054
-261,453	-124,701	0,022	0,002
-260,438	87,694	-0,089	0,071
-259,424	176,817	-0,025	-0,026
-258,409	298,745	0,054	0,073
-257,395	-200,000	0,000	0,022
-256,380	307,287	0,097	0,131
-255,365	-200,000	-0,005	0,061
-254,351	-200,000	0,001	0,048
-253,336	-65,244	-0,037	-0,011
-252,322	-96,004	-0,036	-0,007
-251,307	-63,907	-0,085	-0,025
-250,292	-200,000	-0,017	-0,112
-249,278	0,137	-0,085	0,044
-248,263	713,167	0,028	0,053
-247,249	800,000	-0,068	0,140
-246,234	17,659	-0,104	-0,060
-245,219	800,000	-0,038	0,085
-244,205	-15,975	0,030	0,014
-243,190	-71,214	-0,030	0,008
-242,176	-35,282	0,040	0,016
-241,161	-60,568	0,090	0,027
-240,146	399,578	-0,054	-0,082
-239,132	-54,194	-0,087	0,028
-238,117	158,753	0,111	-0,111
-237,103	-110,563	-0,102	0,015
-236,088	226,373	0,050	0,058
-235,073	-121,544	0,071	-0,008
-234,059	800,000	0,046	-0,100
-233,044	-154,996	0,105	-0,005
-232,030	-200,000	-0,021	-0,111
-231,015	-34,782	-0,062	-0,024
-230,000	-19,222	-0,082	0,036
-228,986	9,407	0,050	0,027
-227,971	-67,050	0,032	0,009
-226,957	800,000	0,046	0,130
-225,942	-67,166	-0,208	0,059
-224,927	800,000	0,065	0,156
-223,913	114,595	-0,061	-0,054
-222,898	287,445	-0,028	-0,037
-221,884	800,000	0,027	-0,065
-220,869	5,093	0,214	-0,113
-219,855	-123,859	0,058	-0,006
-218,840	-15,663	0,136	-0,062
-217,825	94,898	-0,073	0,060
-216,811	-92,076	-0,126	-0,025
-215,796	-96,567	-0,140	-0,026
-214,782	800,000	-0,015	-0,039
-213,767	240,663	0,073	-0,089
-212,752	116,147	-0,067	0,059
-211,738	-200,000	-0,007	0,092
-210,723	85,051	-0,036	0,028
-209,709	1,382	-0,125	-0,065
-208,694	-200,000	-0,020	-0,163
-207,679	-200,000	-0,001	-0,069
-206,665	800,000	-0,023	0,047
-205,650	53,013	0,082	0,056
-204,636	224,386	-0,003	-0,003
-203,621	396,723	0,050	-0,076
-202,606	-200,000	-0,026	-0,145
-201,592	214,982	-0,091	-0,104
-200,577	271,189	0,037	-0,047
-199,563	-200,000	0,052	0,179
-198,548	-117,710	0,138	0,018
-197,533	-200,000	0,002	-0,148
-196,519	338,204	-0,046	-0,065
-195,504	-200,000	-0,042	0,145
-194,490	-62,731	-0,087	0,026
-193,475	407,118	-0,072	0,110
-192,460	800,000	-0,027	-0,083
-191,446	800,000	-0,017	-0,047
-190,431	-200,000	-0,003	-0,034
-189,417	800,000	-0,048	-0,129
-188,402	677,191	0,006	0,012
-187,387	-119,563	-0,077	-0,010
-186,373	77,222	-0,050	-0,038
-185,358	-136,328	-0,084	-0,007
-184,344	-200,000	-0,018	0,068
-183,329	353,001	0,040	0,057
-182,315	-49,152	-0,096	0,033
-181,300	321,756	-0,084	-0,116
-180,285	357,125	-0,053	-0,076
-179,271	22,215	-0,060	0,035
-178,256	-200,000	-0,023	-0,077
-177,242	-200,000	0,026	0,136
-176,227	-200,000	0,006	0,139
-175,212	-200,000	0,014	0,075
-174,198	300,679	0,021	0,028
-173,183	-82,776	-0,091	0,021
-172,169	-53,443	0,076	0,025
-171,154	464,666	-0,030	0,048
-170,139	-200,000	0,023	0,185
-169,125	-200,000	0,019	0,072
-168,110	-200,000	0,002	0,057
-167,096	422,042	-0,039	0,061
-166,081	-16,487	0,111	0,050
-165,066	-200,000	-0,018	0,083
-164,052	68,927	-0,018	0,013
-163,037	-200,000	0,141	0,000
-162,023	-200,000	-0,029	-0,094
-161,008	-8,669	0,125	-0,060
-159,993	-200,000	-0,096	-0,000
-158,979	-200,000	-0,005	-0,098
-157,964	29,860	-0,039	0,024
-156,950	602,665	-0,037	-0,067
-155,935	-193,449	-0,080	-0,000
-154,920	189,831	-0,079	-0,085
-153,906	24,721	-0,055	0,033
-152,891	112,223	-0,050	0,043
-151,877	6,255	0,138	0,073
-150,862	279,251	-0,054	-0,069
-149,847	800,000	-0,066	0,144
-148,833	-200,000	-0,022	0,071
-147,818	266,462	0,038	-0,047
-146,804	-200,000	-0,044	0,142
-145,789	-107,942	-0,193	-0,030
-144,775	478,213	-0,027	-0,044
-143,760	617,125	0,012	-0,021
-142,745	-200,000	-0,000	-0,103
-141,731	-8,303	-0,091	0,044
-140,716	57,377	0,035	-0,025
-139,702	-17,607	0,076	0,034
-138,687	90,182	-0,032	-0,025
-137,672	400,661	-0,093	0,141
-136,658	-200,000	-0,019	0,088
-135,643	294,384	0,012	-0,016
-134,629	512,181	0,056	-0,095
-133,614	-200,000	0,001	0,007
-132,599	171,930	-0,095	-0,098
-131,585	-200,000	0,021	0,111
-130,570	-33,527	0,066	-0,026
-129,556	-90,947	-0,150	-0,031
-128,541	737,725	0,020	-0,038
-127,526	145,881	-0,024	0,023
-126,512	800,000	0,060	0,133
-125,497	-200,000	-0,027	0,146
-124,483	146,602	0,055	0,053
-123,468	478,510	-0,040	0,065
-122,453	-88,785	-0,052	-0,011
-121,439	800,000	0,039	-0,118
-120,424	-200,000	0,020	-0,123
