DTS Sentinel unit serial number:	SN410029Multiplexer serial number:	ORYXHardware model number:	OX2-SRSoftware version number:	ORYX F/W v4,00 Oryx Data Collector v3.7.2.0data status	okinstallation	B6 Nyhavnadifferential loss correction	single-endedforward channel	channel 2reverse channel	N/Adate	2023/12/08time	14:45:08forward acquisition time	300,00reverse acquisition time	0,00gamma	499,1914k internal	0,3159k external	0,3159temperature offset calibration	1,0000default loss term (dB/km)	0,3820temperature slope calibration	1,0000multiplexer offset coefficient	1,0000multiplexer slope coefficient	1,0000fibre end	0,00T internal ref (°C)	15,06T ext. ref 1 (°C)	-1,49T ext. ref 2 (°C)	-1,50length (m)	temperature (°C)	Stokes	anti-Stokes-744,400	66,535	0,150	0,112
-743,385	-179,698	-0,393	0,006
-742,371	150,200	0,110	-0,110
-741,356	-188,582	-0,186	-0,002
-740,342	-108,066	0,198	0,031
-739,327	-95,776	-0,250	0,049
-738,312	-200,000	0,010	0,125
-737,298	6,758	-0,188	0,103
-736,283	65,406	0,051	0,038
-735,269	18,303	-0,216	0,127
-734,254	800,000	0,033	0,092
-733,239	-75,231	-0,568	-0,148
-732,225	119,720	0,191	0,174
-731,210	519,585	0,027	0,048
-730,196	800,000	0,008	0,017
-729,181	-200,000	0,006	0,025
-728,167	59,071	-0,075	-0,054
-727,152	418,878	0,092	-0,145
-726,137	-40,297	-0,149	-0,057
-725,123	387,185	-0,120	-0,183
-724,108	800,000	-0,019	-0,051
-723,094	800,000	-0,035	-0,109
-722,079	800,000	0,013	-0,034
-721,064	-200,000	-0,001	0,113
-720,050	-157,204	0,086	-0,004
-719,035	38,427	-0,078	-0,051
-718,021	-200,000	-0,021	-0,114
-717,006	171,254	-0,096	-0,101
-715,991	-54,878	-0,088	-0,029
-714,977	-164,979	-0,116	0,004
-713,962	-200,000	-0,021	-0,095
-712,948	367,613	-0,059	-0,087
-711,933	800,000	-0,039	0,091
-710,918	-200,000	-0,025	0,176
-709,904	-200,000	-0,009	-0,079
-708,889	-60,787	-0,068	-0,021
-707,875	2,255	-0,134	-0,071
-706,860	-116,147	0,044	0,006
-705,845	-200,000	-0,025	-0,083
-704,831	-200,000	0,006	-0,052
-703,816	-10,133	-0,085	-0,041
-702,802	746,160	-0,084	-0,167
-701,787	800,000	0,046	-0,107
-700,772	61,007	-0,111	-0,081
-699,758	97,340	0,104	-0,087
-698,743	-50,652	0,108	0,037
-697,729	200,222	0,082	0,093
-696,714	-63,552	0,061	0,018
-695,699	800,000	-0,024	-0,061
-694,685	800,000	-0,025	-0,055
-693,670	282,221	-0,036	0,047
-692,656	44,237	0,032	0,022
-691,641	108,783	-0,115	-0,101
-690,627	800,000	-0,017	0,054
-689,612	-200,000	-0,017	-0,105
-688,597	800,000	0,024	0,050
-687,583	800,000	0,038	0,101
-686,568	-200,000	-0,016	-0,072
-685,554	-71,544	-0,053	-0,014
-684,539	-200,000	0,002	-0,055
-683,524	615,624	0,039	-0,073
-682,510	-69,013	-0,188	-0,053
-681,495	183,906	-0,049	0,053
-680,481	14,121	0,167	-0,095
-679,466	-40,484	-0,191	0,073
-678,451	600,396	0,019	0,034
-677,437	21,564	0,030	0,018
-676,422	117,398	-0,086	-0,078
-675,408	90,508	-0,037	-0,031
-674,393	283,013	0,034	-0,046
-673,378	78,814	-0,129	-0,101
-672,364	800,000	-0,046	-0,147
-671,349	-110,480	0,072	-0,011
-670,335	-200,000	0,002	0,105
-669,320	-121,232	-0,149	0,018
-668,305	147,227	0,058	0,058
-667,291	319,599	-0,034	0,048
-666,276	800,000	-0,056	0,150
-665,262	-200,000	0,023	-0,093
-664,247	-21,634	0,123	-0,055
-663,232	19,274	-0,106	0,062
-662,218	48,029	0,090	0,062
-661,203	-200,000	0,003	0,041
-660,189	-45,600	0,126	-0,045
-659,174	-200,000	-0,020	-0,096
-658,159	483,185	0,047	-0,078
-657,145	-200,000	-0,012	-0,127
-656,130	800,000	0,028	-0,081
-655,116	303,489	0,060	-0,082
-654,101	800,000	-0,081	0,174
-653,086	74,631	-0,125	0,096
-652,072	-92,181	-0,164	-0,034
-651,057	8,513	-0,032	-0,018
-650,043	-7,279	-0,080	-0,040
-649,028	6,746	-0,108	-0,059
-648,014	-41,986	-0,144	0,054
-646,999	-116,934	0,033	-0,004
-645,984	82,292	-0,081	0,064
-644,970	-200,000	0,056	-0,182
-643,955	-200,000	0,006	-0,124
-642,941	242,827	-0,098	-0,121
-641,926	800,000	-0,046	0,124
-640,911	-56,739	0,131	0,042
-639,897	406,303	-0,031	-0,049
-638,882	-157,799	0,085	-0,004
-637,868	25,051	-0,080	0,049
-636,853	99,560	-0,129	0,109
-635,838	-200,000	-0,009	-0,040
-634,824	-67,868	-0,119	0,034
-633,809	-35,900	0,095	0,038
-632,795	0,245	-0,088	0,046
-631,780	163,534	-0,052	0,054
-630,765	-200,000	0,012	-0,124
-629,751	-6,957	-0,103	0,051
-628,736	800,000	-0,019	-0,048
-627,722	-200,000	0,006	-0,091
-626,707	-62,926	-0,102	0,031
-625,692	-200,000	0,006	0,125
-624,678	-21,380	-0,048	0,022
-623,663	-100,503	-0,179	-0,032
-622,649	-102,122	0,027	0,005
-621,634	800,000	-0,039	-0,092
-620,619	-80,166	-0,160	0,039
-619,605	-0,112	0,110	-0,057
-618,590	-28,166	0,174	0,073
-617,576	539,779	0,053	0,092
-616,561	61,603	-0,029	0,021
-615,546	462,460	0,085	-0,139
-614,532	197,837	0,043	-0,048
-613,517	126,973	0,078	-0,073
-612,503	0,833	-0,109	-0,057
-611,488	18,148	-0,015	0,009
-610,474	-200,000	0,004	-0,067
-609,459	-95,236	0,106	0,021
-608,444	32,395	-0,075	-0,047
-607,430	-200,000	-0,000	0,027
-606,415	439,727	-0,062	-0,099
-605,401	-98,399	-0,043	-0,008
-604,386	427,375	0,072	-0,115
-603,371	-139,731	-0,015	-0,001
-602,357	800,000	0,011	0,023
-601,342	800,000	0,033	-0,105
-600,328	291,275	-0,064	-0,086
-599,313	550,626	0,034	0,061
-598,298	-200,000	0,029	0,133
-597,284	-200,000	-0,070	-0,239
-596,269	-93,836	0,094	-0,019
-595,255	-22,689	-0,043	0,019
-594,240	-200,000	-0,012	0,073
-593,225	4,785	-0,075	-0,040
-592,211	99,182	0,078	-0,066
-591,196	-49,288	0,041	-0,014
-590,182	-200,000	-0,000	0,075
-589,167	-200,000	0,047	0,175
-588,152	-112,459	0,067	-0,010
-587,138	-106,234	-0,081	-0,013
-586,123	15,365	-0,087	-0,050
-585,109	-13,277	-0,068	-0,032
-584,094	28,223	-0,021	0,013
-583,079	800,000	0,006	0,020
-582,065	17,463	-0,088	0,051
-581,050	178,045	0,081	0,087
-580,036	-101,678	-0,108	-0,019
-579,021	81,152	-0,093	-0,073
-578,006	55,550	-0,048	0,034
-576,992	-200,000	0,013	0,085
-575,977	-2,412	-0,054	0,028
-574,963	83,697	0,055	0,044
-573,948	-200,000	-0,006	-0,089
-572,934	-140,778	0,040	-0,003
-571,919	-178,449	-0,119	0,002
-570,904	800,000	0,002	-0,005
-569,890	83,570	-0,019	-0,015
-568,875	777,704	0,044	0,089
-567,861	-200,000	-0,003	0,097
-566,846	-200,000	-0,019	-0,060
-565,831	71,370	0,073	0,056
-564,817	-110,396	0,110	-0,017
-563,802	-200,000	0,032	-0,188
-562,788	800,000	0,052	0,144
-561,773	398,093	-0,004	-0,006
-560,758	-200,000	-0,021	0,084
-559,744	230,183	0,063	0,076
-558,729	-87,573	-0,072	-0,016
-557,715	2,534	0,068	0,036
-556,700	591,925	-0,032	0,059
-555,685	800,000	-0,070	-0,154
-554,671	81,059	-0,148	-0,117
-553,656	-200,000	0,008	-0,051
-552,642	782,010	0,052	0,105
-551,627	-200,000	0,001	0,086
-550,612	800,000	0,055	0,130
-549,598	78,070	-0,078	-0,060
-548,583	423,373	0,033	0,052
-547,569	403,087	-0,044	-0,068
-546,554	119,088	0,102	-0,092
-545,539	-98,647	0,060	-0,011
-544,525	-200,000	0,023	0,094
-543,510	-200,000	0,002	0,027
-542,496	800,000	-0,033	0,094
-541,481	58,137	-0,107	-0,077
-540,466	-174,922	-0,066	-0,001
-539,452	-200,000	-0,016	-0,071
-538,437	-200,000	0,015	-0,061
-537,423	180,811	0,032	0,034
-536,408	721,168	0,031	-0,061
-535,393	-35,729	-0,147	-0,058
-534,379	-89,645	-0,159	0,034
-533,364	-43,951	0,021	-0,008
-532,350	-26,911	0,023	0,010
-531,335	-200,000	0,018	-0,059
-530,321	800,000	0,014	0,030
-529,306	-200,000	-0,004	0,053
-528,291	-67,306	-0,066	-0,019
-527,277	305,709	-0,045	-0,062
-526,262	800,000	-0,024	0,059
-525,248	147,342	0,071	-0,070
-524,233	-46,446	0,213	-0,076
-523,218	-81,741	-0,057	-0,014
-522,204	-200,000	-0,007	-0,026
-521,189	800,000	-0,006	-0,018
-520,175	706,092	0,024	0,047
-519,160	-107,516	-0,049	-0,008
-518,145	-149,011	0,136	0,008
-517,131	188,560	0,099	0,108
-516,116	-109,046	0,118	0,018
-515,102	353,353	-0,030	0,043
-514,087	2,109	-0,110	-0,058
-513,072	-200,000	0,006	-0,035
-512,058	-178,774	-0,104	0,002
-511,043	-200,000	0,004	-0,047
-510,029	-200,000	-0,041	0,163
-509,014	65,893	0,091	0,067
-507,999	-200,000	0,018	0,072
-506,985	-31,008	-0,031	-0,013
-505,970	-70,829	-0,114	0,031
-504,956	172,763	0,068	0,072
-503,941	-195,509	-0,049	-0,000
-502,926	8,009	0,026	0,014
-501,912	-6,919	-0,029	-0,014
-500,897	-200,000	-0,002	-0,034
-499,883	457,908	0,072	-0,117
-498,868	-93,696	-0,042	0,008
-497,853	502,343	-0,059	-0,100
-496,839	-84,386	0,063	0,014
-495,824	-200,000	-0,008	0,137
-494,810	100,737	-0,034	0,029
-493,795	-90,226	0,027	0,006
-492,781	-135,521	0,107	-0,009
-491,766	-116,423	-0,128	-0,017
-490,751	142,357	-0,038	0,036
-489,737	-122,900	-0,067	0,008
-488,722	-200,000	-0,012	-0,218
-487,708	800,000	0,069	-0,145
-486,693	757,996	0,079	0,157
-485,678	-200,000	-0,005	0,032
-484,664	23,237	0,032	-0,019
-483,649	800,000	-0,034	-0,099
-482,635	-200,000	-0,008	0,045
-481,620	-78,950	0,104	-0,026
-480,605	175,857	0,111	0,118
-479,591	-200,000	0,002	0,146
-478,576	-200,000	0,000	0,041
-477,562	-96,249	-0,101	0,019
-476,547	-3,174	-0,051	-0,026
-475,532	-200,000	-0,025	-0,098
-474,518	-7,376	0,121	-0,060
-473,503	476,897	0,060	0,100
-472,489	800,000	0,037	0,088
-471,474	-200,000	-0,014	-0,082
-470,459	800,000	0,050	-0,149
-469,445	-200,000	-0,004	0,021
-468,430	-66,374	-0,068	0,019
-467,416	39,240	0,055	-0,036
-466,401	-59,989	0,106	0,033
-465,386	26,670	0,075	0,046
-464,372	-200,000	0,016	0,098
-463,357	356,246	-0,021	-0,031
-462,343	800,000	-0,015	-0,036
-461,328	230,261	-0,042	0,050
-460,313	230,671	-0,030	-0,036
-459,299	-200,000	0,037	0,129
-458,284	116,029	0,111	-0,099
-457,270	104,558	-0,065	0,056
-456,255	-101,153	-0,160	0,028
-455,241	114,504	-0,141	0,126
-454,226	-133,462	-0,042	-0,004
-453,211	800,000	-0,061	0,153
-452,197	800,000	0,027	0,069
-451,182	265,904	0,067	0,085
-450,168	-200,000	0,014	0,082
-449,153	353,938	0,032	-0,047
-448,138	8,340	0,044	0,024
-447,124	-200,000	0,007	-0,041
-446,109	-83,480	0,161	0,037
-445,095	-125,953	0,073	0,008
-444,080	27,478	0,179	0,110
-443,065	383,958	-0,098	0,147
-442,051	-65,527	-0,153	-0,044
-441,036	-200,000	0,008	-0,036
-440,022	800,000	-0,032	0,087
-439,007	-138,290	-0,027	0,002
-437,992	124,865	-0,102	0,093
-436,978	-200,000	0,009	0,108
-435,963	-159,979	0,053	0,002
-434,949	644,910	0,037	-0,068
-433,934	-200,000	-0,009	-0,048
-432,919	-0,842	-0,077	-0,039
-431,905	800,000	0,046	0,103
-430,890	128,734	-0,032	-0,030
-429,876	591,066	-0,031	-0,056
-428,861	12,239	0,057	-0,032
-427,846	-200,000	-0,027	-0,094
-426,832	-82,012	0,034	-0,008
-425,817	-170,108	-0,118	-0,003
-424,803	152,110	0,050	-0,050
-423,788	339,078	0,119	-0,169
-422,773	65,431	-0,054	-0,040
-421,759	159,827	-0,047	0,047
-420,744	800,000	-0,020	-0,059
-419,730	-6,019	0,046	-0,023
-418,715	-169,421	-0,164	0,004
-417,701	227,298	0,045	-0,053
-416,686	-169,302	-0,027	0,001
-415,671	13,204	-0,074	-0,041
-414,657	113,514	0,049	-0,043
-413,642	-200,000	-0,031	-0,163
-412,628	-33,589	-0,074	-0,030
-411,613	-126,864	0,030	-0,003
-410,598	649,129	-0,038	-0,071
-409,584	68,263	0,057	-0,043
-408,569	494,909	-0,020	0,033
-407,555	-200,000	0,003	0,028
-406,540	-90,012	-0,037	0,008
-405,525	-200,000	-0,003	-0,147
-404,511	101,676	-0,117	-0,099
-403,496	800,000	-0,034	-0,092
-402,482	800,000	0,034	0,099
-401,467	532,195	-0,130	-0,224
-400,452	211,421	-0,062	-0,071
-399,438	-200,000	-0,010	-0,097
-398,423	50,377	-0,086	-0,059
-397,409	268,489	-0,080	-0,102
-396,394	800,000	-0,076	-0,205
-395,379	37,662	0,061	0,039
-394,365	-42,063	-0,049	0,018
-393,350	800,000	0,089	0,222
-392,336	800,000	0,040	0,119
-391,321	800,000	0,031	-0,080
-390,306	-84,628	-0,090	0,020
-389,292	-200,000	-0,000	-0,088
-388,277	-78,829	0,131	-0,032
-387,263	-11,275	-0,072	0,034
-386,248	-35,914	0,045	-0,017
-385,233	119,291	0,072	-0,065
-384,219	530,925	0,046	-0,079
-383,204	800,000	0,024	0,048
-382,190	38,305	0,074	-0,048
-381,175	-115,647	0,018	0,002
-380,160	-70,458	0,088	0,024
-379,146	485,175	0,039	0,065
-378,131	-200,000	0,006	0,031
-377,117	-200,000	-0,007	0,088
-376,102	-152,138	-0,153	-0,008
-375,088	-173,952	0,120	0,003
-374,073	36,849	0,054	0,035
-373,058	-12,268	-0,096	-0,045
-372,044	-134,806	0,075	-0,007
-371,029	632,517	0,043	0,080
-370,015	-200,000	-0,001	-0,006
-369,000	6,076	-0,057	0,030
-367,985	52,250	0,099	-0,068
-366,971	52,303	-0,087	0,060
-365,956	18,957	0,036	0,021
-364,942	-62,946	-0,054	0,016
-363,927	32,669	0,100	0,062
-362,912	-65,122	-0,038	0,011
-361,898	344,378	-0,059	0,085
-360,883	-46,168	-0,122	-0,043
-359,869	351,648	0,093	-0,134
-358,854	366,478	-0,029	-0,042
-357,839	144,604	0,122	0,119
-356,825	-200,000	0,000	-0,007
-355,810	340,713	-0,043	-0,062
-354,796	-200,000	0,000	0,014
-353,781	-168,001	-0,075	-0,002
-352,766	80,489	-0,043	0,034
-351,752	-99,311	-0,088	-0,016
-350,737	488,326	0,121	0,202
-349,723	14,984	0,071	-0,040
-348,708	-129,519	-0,045	0,004
-347,693	-83,174	0,123	0,029
-346,679	4,136	-0,030	0,016
-345,664	800,000	0,050	-0,126
-344,650	249,296	0,103	0,127
-343,635	-200,000	-0,026	-0,137
-342,620	-156,847	0,124	0,005
-341,606	-15,594	-0,085	-0,039
-340,591	-200,000	0,001	0,032
-339,577	-200,000	0,001	0,032
-338,562	-176,139	-0,126	-0,002
-337,548	-200,000	-0,032	-0,118
-336,533	-31,769	0,071	0,029
-335,518	610,897	-0,031	0,057
-334,504	800,000	-0,030	-0,074
-333,489	-200,000	-0,014	-0,049
-332,475	-200,000	0,008	0,072
-331,460	38,015	0,031	0,020
-330,445	781,981	0,060	0,119
-329,431	4,935	0,061	0,032
-328,416	51,743	-0,057	-0,039
-327,402	17,279	-0,096	0,055
-326,387	73,607	-0,064	0,049
-325,372	528,882	-0,059	-0,101
-324,358	-189,721	-0,037	-0,000
-323,343	800,000	-0,016	-0,048
-322,329	800,000	-0,021	-0,046
-321,314	-12,503	-0,049	-0,023
-320,299	-7,301	0,059	0,029
-319,285	-30,437	-0,121	0,050
-318,270	128,080	0,057	-0,053
-317,256	27,250	-0,089	-0,054
-316,241	416,124	0,082	-0,127
-315,226	125,758	-0,078	0,071
-314,212	38,455	0,046	0,030
-313,197	-50,699	0,089	-0,030
-312,183	-200,000	0,019	0,084
-311,168	17,091	-0,066	-0,038
-310,153	-52,549	-0,021	0,007
-309,139	-63,897	0,141	-0,042
-308,124	-58,268	0,051	0,016
-307,110	-200,000	0,053	0,249
-306,095	59,853	0,172	0,123
-305,080	36,310	-0,069	0,044
-304,066	800,000	-0,027	0,076
-303,051	-37,448	0,075	0,029
-302,037	118,118	-0,062	0,056
-301,022	800,000	0,030	-0,068
-300,008	444,341	0,054	0,087
-298,993	48,379	0,109	0,074
-297,978	-200,000	0,004	0,060
-296,964	-200,000	-0,013	0,046
-295,949	-5,891	-0,040	0,020
-294,935	384,210	0,023	0,035
-293,920	-200,000	-0,033	-0,108
-292,905	-86,528	0,074	0,016
-291,891	-200,000	0,029	0,134
-290,876	-16,201	0,037	0,017
-289,862	434,207	0,082	-0,129
-288,847	53,154	-0,091	-0,063
-287,832	73,080	0,040	-0,031
-286,818	495,582	-0,018	-0,030
-285,803	34,882	0,049	-0,031
-284,789	-189,944	0,091	0,001
-283,774	800,000	-0,034	-0,086
-282,759	-47,698	0,059	-0,020
-281,745	60,843	0,065	-0,047
-280,730	66,831	0,068	0,050
-279,716	-200,000	-0,032	0,162
-278,701	-133,640	0,062	-0,006
-277,686	-200,000	-0,004	0,013
-276,672	-129,261	0,106	-0,011
-275,657	-46,203	-0,123	-0,044
-274,643	-35,215	0,147	0,058
-273,628	52,907	-0,064	-0,044
-272,613	211,955	-0,087	0,099
-271,599	800,000	-0,027	0,055
-270,584	-200,000	0,000	0,028
-269,570	550,648	-0,007	-0,013
-268,555	-69,497	0,106	-0,029
-267,540	390,660	-0,033	-0,050
-266,526	503,980	-0,055	-0,092
-265,511	45,444	-0,074	0,049
-264,497	-48,392	0,070	-0,024
-263,482	-92,468	0,094	-0,019
-262,467	-50,118	0,048	0,016
-261,453	-200,000	0,024	0,131
-260,438	800,000	-0,015	-0,041
-259,424	-107,743	0,126	-0,020
-258,409	-200,000	-0,009	0,028
-257,395	36,647	-0,023	-0,015
-256,380	239,612	0,045	0,054
-255,365	236,718	0,089	0,107
-254,351	138,530	-0,045	0,043
-253,336	110,065	0,022	-0,019
-252,322	-200,000	0,011	-0,113
-251,307	-200,000	0,021	0,079
-250,292	-200,000	0,015	-0,097
-249,278	-54,887	-0,175	-0,057
-248,263	365,075	-0,075	0,110
-247,249	800,000	-0,007	0,015
-246,234	-200,000	0,100	-0,000
-245,219	88,156	-0,067	-0,053
-244,205	-200,000	-0,019	-0,145
-243,190	-7,800	0,053	-0,026
-242,176	-69,005	0,153	0,042
-241,161	128,800	-0,073	-0,068
-240,146	414,741	-0,050	-0,076
-239,132	141,980	0,055	-0,053
-238,117	800,000	-0,083	-0,181
-237,103	220,436	-0,033	-0,038
-236,088	-200,000	-0,008	0,098
-235,073	-67,800	0,140	-0,039
-234,059	-77,382	-0,099	-0,025
-233,044	-33,447	-0,015	0,006
-232,030	800,000	-0,057	0,129
-231,015	-93,849	-0,171	-0,034
-230,000	-52,226	0,031	0,010
-228,986	4,574	0,071	0,037
-227,971	251,173	-0,052	-0,064
-226,957	-48,785	0,063	0,022
-225,942	-89,891	-0,063	-0,013
-224,927	54,508	-0,098	0,068
-223,913	-200,000	0,009	-0,060
-222,898	-32,215	-0,079	-0,032
-221,884	-46,371	0,073	-0,026
-220,869	698,020	-0,051	-0,098
-219,855	435,960	0,063	0,099
-218,840	119,068	0,014	-0,013
-217,825	210,632	-0,087	0,099
-216,811	103,867	0,012	-0,010
-215,796	-200,000	0,028	-0,134
-214,782	26,848	0,120	0,072
-213,767	-23,591	0,062	0,027
-212,752	-200,000	0,009	0,079
-211,738	-117,039	0,089	-0,012
-210,723	-126,854	-0,037	0,004
-209,709	800,000	0,050	-0,116
-208,694	210,512	0,089	-0,101
-207,679	267,635	-0,055	-0,070
-206,665	-162,231	0,047	0,002
-205,650	248,377	0,044	0,053
-204,636	800,000	0,021	-0,063
-203,621	-200,000	0,017	-0,144
-202,606	-200,000	0,001	0,049
-201,592	800,000	-0,105	-0,214
-200,577	76,987	0,119	-0,091
-199,563	-200,000	0,009	0,058
-198,548	800,000	-0,016	0,032
-197,533	50,656	0,084	0,058
-196,519	800,000	-0,032	0,067
-195,504	69,107	-0,104	0,077
-194,490	86,646	-0,059	0,047
-193,475	-200,000	-0,003	-0,160
-192,460	800,000	-0,022	0,051
-191,446	638,443	-0,011	0,021
-190,431	39,636	-0,045	0,029
-189,417	-42,978	-0,050	-0,018
-188,402	86,875	0,030	0,024
-187,387	89,374	-0,003	0,003
-186,373	-6,052	-0,052	0,026
-185,358	800,000	0,021	-0,045
-184,344	138,828	0,097	0,092
-183,329	800,000	-0,047	0,096
-182,315	70,210	-0,053	-0,039
-181,300	-74,777	-0,075	-0,019
-180,285	256,785	-0,015	0,018
-179,271	-200,000	0,008	-0,069
-178,256	-200,000	0,013	0,075
-177,242	-200,000	0,010	0,048
-176,227	800,000	-0,046	0,115
-175,212	66,583	0,151	0,110
-174,198	102,320	-0,079	0,067
-173,183	-84,273	-0,139	0,031
-172,169	800,000	0,041	-0,121
-171,154	48,999	0,122	-0,082
-170,139	185,334	0,038	0,041
-169,125	-200,000	-0,013	0,179
-168,110	-200,000	0,034	0,130
-167,096	9,267	-0,166	-0,090
-166,081	-51,475	-0,047	0,016
-165,066	-200,000	-0,030	0,113
-164,052	800,000	-0,020	0,058
-163,037	-86,785	0,134	-0,029
-162,023	-82,991	0,183	-0,042
-161,008	184,534	0,018	0,019
-159,993	-42,908	-0,060	-0,022
-158,979	86,956	0,061	-0,048
-157,964	-200,000	-0,055	-0,187
-156,950	-111,199	-0,082	-0,012
-155,935	-44,197	0,164	0,059
-154,920	-43,875	0,100	-0,036
-153,906	-83,680	-0,037	0,008
-152,891	78,486	0,178	0,137
-151,877	210,915	-0,068	0,077
-150,862	198,449	0,030	-0,034
-149,847	21,507	0,080	-0,047
-148,833	363,294	-0,043	-0,063
-147,818	-57,411	0,084	0,026
-146,804	51,812	-0,040	0,028
-145,789	-112,323	0,093	0,013
-144,775	-187,777	-0,039	-0,000
-143,760	-33,611	0,129	0,051
-142,745	800,000	0,061	-0,153
-141,731	57,552	0,054	0,038
-140,716	-46,486	0,099	-0,035
-139,702	-30,805	0,024	-0,010
-138,687	-200,000	0,018	0,150
-137,672	76,460	0,131	-0,100
-136,658	-200,000	-0,015	-0,079
-135,643	453,692	0,026	-0,041
-134,629	-57,932	0,192	0,060
-133,614	800,000	-0,008	0,018
-132,599	-4,601	0,041	-0,020
-131,585	212,485	0,046	-0,053
-130,570	120,295	0,042	-0,038
-129,556	-52,450	0,085	-0,028
-128,541	-42,261	0,070	0,026
-127,526	-156,705	-0,018	0,001
-126,512	-99,989	-0,051	-0,009
-125,497	57,269	-0,014	0,010
-124,483	126,596	-0,055	0,050
-123,468	85,740	0,021	-0,016
-122,453	158,659	-0,008	0,008
-121,439	800,000	0,032	-0,092
-120,424	243,427	-0,019	0,023
-119,410	41,622	0,125	-0,081
-118,395	71,653	0,041	0,031
-117,380	-200,000	-0,008	0,179
