DTS Sentinel unit serial number:	SN410029Multiplexer serial number:	ORYXHardware model number:	OX2-SRSoftware version number:	ORYX F/W v4,00 Oryx Data Collector v3.7.2.0data status	okinstallation	B6 Nyhavnadifferential loss correction	single-endedforward channel	channel 2reverse channel	N/Adate	2023/12/09time	02:40:08forward acquisition time	300,00reverse acquisition time	0,00gamma	499,1914k internal	0,3155k external	0,3155temperature offset calibration	1,0000default loss term (dB/km)	0,3820temperature slope calibration	1,0000multiplexer offset coefficient	1,0000multiplexer slope coefficient	1,0000fibre end	0,00T internal ref (°C)	16,05T ext. ref 1 (°C)	-0,18T ext. ref 2 (°C)	-0,19length (m)	temperature (°C)	Stokes	anti-Stokes-744,400	-141,986	0,196	0,014
-743,385	-79,600	-0,331	0,082
-742,371	305,783	0,071	0,097
-741,356	-154,274	-0,252	-0,012
-740,342	61,017	0,046	-0,034
-739,327	-103,880	-0,295	0,050
-738,312	-113,211	0,127	0,018
-737,298	-52,288	-0,234	0,080
-736,283	-40,082	0,117	0,045
-735,269	-72,050	-0,329	0,089
-734,254	-100,429	0,184	0,033
-733,239	-84,808	-0,464	-0,107
-732,225	10,422	0,188	0,105
-731,210	-152,261	-0,062	0,003
-730,196	436,585	0,069	0,111
-729,181	113,938	0,020	0,018
-728,167	-58,410	-0,051	0,016
-727,152	-200,000	0,077	0,000
-726,137	405,641	0,084	-0,130
-725,123	33,879	-0,077	-0,050
-724,108	-67,466	-0,113	-0,032
-723,094	800,000	-0,054	-0,136
-722,079	178,813	0,057	-0,062
-721,064	-52,847	0,021	0,007
-720,050	86,197	0,050	0,041
-719,035	-200,000	-0,002	-0,023
-718,021	11,384	-0,034	-0,019
-717,006	44,983	-0,113	0,077
-715,991	21,089	-0,145	-0,086
-714,977	800,000	-0,014	-0,041
-713,962	-200,000	0,006	-0,032
-712,948	-200,000	-0,010	0,072
-711,933	-55,233	-0,092	-0,030
-710,918	438,810	-0,041	-0,066
-709,904	-124,645	0,150	-0,017
-708,889	-41,673	-0,081	-0,031
-707,875	-200,000	0,014	-0,088
-706,860	225,183	0,016	0,019
-705,845	169,718	0,013	0,014
-704,831	800,000	0,027	0,079
-703,816	333,473	-0,059	-0,084
-702,802	-200,000	-0,025	-0,112
-701,787	32,462	-0,020	0,013
-700,772	800,000	-0,028	-0,063
-699,758	-200,000	0,005	-0,038
-698,743	592,834	0,023	-0,041
-697,729	800,000	0,069	0,160
-696,714	-200,000	-0,009	0,035
-695,699	-74,389	0,046	0,012
-694,685	800,000	-0,048	0,106
-693,670	-44,545	-0,146	0,054
-692,656	40,492	0,054	-0,036
-691,641	-200,000	0,029	0,104
-690,627	-37,273	0,088	0,035
-689,612	-200,000	0,000	0,065
-688,597	-5,083	-0,112	0,057
-687,583	-200,000	-0,036	-0,119
-686,568	-200,000	-0,026	-0,108
-685,554	-200,000	-0,025	0,096
-684,539	800,000	-0,022	-0,051
-683,524	127,928	0,022	-0,021
-682,510	-19,087	-0,029	-0,013
-681,495	266,160	-0,037	0,048
-680,481	800,000	-0,079	-0,173
-679,466	-200,000	0,017	-0,220
-678,451	-38,910	-0,058	-0,022
-677,437	-138,162	0,065	0,005
-676,422	568,378	0,041	0,073
-675,408	420,124	0,015	0,023
-674,393	121,546	-0,091	-0,083
-673,378	-200,000	-0,005	-0,100
-672,364	-200,000	-0,019	0,127
-671,349	-200,000	-0,018	-0,071
-670,335	-95,066	-0,039	0,008
-669,320	-200,000	0,013	-0,080
-668,305	-200,000	0,045	0,159
-667,291	70,150	0,116	-0,088
-666,276	299,572	-0,071	-0,096
-665,262	49,657	-0,014	-0,009
-664,247	198,671	-0,027	-0,030
-663,232	607,797	0,057	0,104
-662,218	-200,000	-0,028	-0,126
-661,203	206,785	0,019	-0,022
-660,189	-33,096	0,117	0,047
-659,174	-200,000	0,039	0,179
-658,159	-25,029	-0,160	-0,069
-657,145	-38,762	-0,122	-0,047
-656,130	-115,756	-0,167	0,023
-655,116	289,335	0,060	-0,080
-654,101	332,470	-0,078	0,111
-653,086	800,000	-0,019	-0,057
-652,072	128,876	-0,032	0,030
-651,057	55,771	-0,099	-0,071
-650,043	-115,324	-0,049	0,007
-649,028	-124,685	-0,056	-0,006
-648,014	-80,111	-0,101	-0,025
-646,999	300,324	0,137	0,187
-645,984	-200,000	0,038	0,136
-644,970	-200,000	-0,025	0,109
-643,955	-200,000	0,001	0,039
-642,941	65,455	-0,094	-0,070
-641,926	-200,000	0,034	-0,117
-640,911	648,646	0,015	-0,029
-639,897	104,307	0,029	0,025
-638,882	562,451	-0,036	0,064
-637,868	44,640	-0,046	0,031
-636,853	74,139	-0,142	-0,109
-635,838	273,023	0,102	-0,132
-634,824	528,268	0,031	-0,054
-633,809	529,067	0,078	0,137
-632,795	133,484	0,034	0,032
-631,780	-200,000	-0,016	-0,177
-630,765	800,000	-0,008	0,018
-629,751	95,687	0,071	-0,059
-628,736	54,587	-0,069	-0,049
-627,722	-54,786	0,146	-0,048
-626,707	-71,084	-0,075	0,021
-625,692	84,878	0,035	-0,028
-624,678	-200,000	-0,002	-0,033
-623,663	-28,573	-0,083	0,035
-622,649	48,388	-0,054	0,037
-621,634	-78,052	-0,145	-0,036
-620,619	-30,400	-0,136	-0,056
-619,605	-28,481	-0,036	0,015
-618,590	275,977	0,136	0,178
-617,576	9,813	0,054	0,030
-616,561	41,158	0,062	0,041
-615,546	-75,838	-0,129	-0,033
-614,532	167,280	0,089	-0,093
-613,517	246,089	-0,025	-0,031
-612,503	-38,853	-0,091	-0,035
-611,488	-26,797	-0,056	-0,024
-610,474	67,873	-0,039	0,029
-609,459	-200,000	0,012	-0,051
-608,444	-200,000	0,000	0,046
-607,430	126,883	-0,138	-0,128
-606,415	-200,000	-0,027	-0,092
-605,401	-51,286	0,068	0,023
-604,386	97,819	0,076	0,064
-603,371	-200,000	0,000	-0,032
-602,357	406,988	0,058	0,090
-601,342	227,589	0,044	0,052
-600,328	259,192	0,047	-0,060
-599,313	82,120	0,033	-0,027
-598,298	-200,000	-0,010	-0,072
-597,284	79,035	0,064	0,050
-596,269	800,000	0,045	0,102
-595,255	64,363	-0,122	0,090
-594,240	-200,000	-0,004	-0,072
-593,225	-200,000	-0,007	0,072
-592,211	-21,429	-0,095	-0,042
-591,196	-160,148	-0,022	-0,001
-590,182	800,000	0,015	0,032
-589,167	-200,000	-0,015	0,056
-588,152	-28,860	-0,080	-0,034
-587,138	-200,000	-0,005	0,076
-586,123	-87,581	0,034	-0,008
-585,109	150,906	-0,125	0,125
-584,094	174,609	-0,103	0,110
-583,079	656,521	0,058	0,110
-582,065	69,879	-0,073	0,055
-581,050	168,017	0,089	0,093
-580,036	-200,000	-0,011	0,095
-579,021	-200,000	-0,010	-0,087
-578,006	688,925	0,059	-0,114
-576,992	-200,000	-0,015	0,078
-575,977	-53,121	0,146	-0,049
-574,963	800,000	-0,017	-0,046
-573,948	305,694	-0,057	-0,077
-572,934	-200,000	0,001	-0,121
-571,919	755,175	-0,076	-0,152
-570,904	-107,506	-0,073	0,012
-569,890	800,000	-0,012	-0,036
-568,875	63,917	-0,015	0,011
-567,861	-114,089	-0,022	0,003
-566,846	153,630	-0,058	0,058
-565,831	498,846	0,028	-0,047
-564,817	800,000	-0,034	-0,090
-563,802	-43,715	-0,033	-0,012
-562,788	392,153	0,069	0,106
-561,773	363,069	0,101	0,149
-560,758	169,891	0,066	-0,069
-559,744	800,000	0,030	-0,065
-558,729	-141,210	-0,066	-0,005
-557,715	800,000	-0,026	0,084
-556,700	800,000	0,083	0,176
-555,685	185,461	-0,112	-0,122
-554,671	-86,504	0,096	-0,021
-553,656	-200,000	0,007	0,029
-552,642	-112,904	-0,034	-0,005
-551,627	49,007	-0,157	0,108
-550,612	-92,390	0,058	0,012
-549,598	-149,878	0,041	-0,002
-548,583	-200,000	0,003	-0,106
-547,569	-29,454	0,090	0,037
-546,554	800,000	-0,031	-0,063
-545,539	-200,000	0,023	0,085
-544,525	11,159	0,086	-0,048
-543,510	-95,795	-0,176	-0,034
-542,496	-200,000	0,005	0,113
-541,481	-20,807	-0,119	0,053
-540,466	130,127	0,141	0,132
-539,452	-65,702	-0,082	-0,024
-538,437	800,000	-0,023	0,069
-537,423	494,192	-0,022	0,037
-536,408	2,311	0,028	-0,015
-535,393	-21,889	-0,089	-0,040
-534,379	-200,000	0,018	0,093
-533,364	-200,000	-0,013	-0,071
-532,350	453,920	0,067	-0,109
-531,335	-10,191	0,056	-0,027
-530,321	164,350	0,182	0,188
-529,306	-134,901	-0,099	0,009
-528,291	-200,000	0,023	-0,160
-527,277	-74,272	-0,029	0,007
-526,262	89,227	-0,184	-0,150
-525,248	449,305	-0,036	-0,059
-524,233	-83,238	0,123	0,029
-523,218	800,000	0,057	0,153
-522,204	-44,630	-0,107	-0,039
-521,189	-33,186	-0,055	-0,022
-520,175	-200,000	-0,029	0,105
-519,160	-137,207	0,068	-0,006
-518,145	259,320	-0,046	-0,059
-517,131	800,000	0,035	0,109
-516,116	800,000	0,052	0,158
-515,102	-200,000	0,011	0,047
-514,087	-13,671	-0,090	-0,043
-513,072	800,000	-0,043	-0,092
-512,058	339,309	-0,069	-0,099
-511,043	3,563	-0,074	0,040
-510,029	-107,456	0,103	0,016
-509,014	54,449	-0,139	0,098
-507,999	800,000	0,050	0,111
-506,985	-91,974	0,155	0,032
-505,970	-200,000	0,014	-0,187
-504,956	0,688	-0,126	-0,066
-503,941	-200,000	0,005	0,086
-502,926	-127,067	0,022	0,002
-501,912	-200,000	-0,007	0,176
-500,897	461,350	0,094	-0,154
-499,883	35,531	-0,072	-0,046
-498,868	-123,903	0,029	0,003
-497,853	104,138	0,056	-0,048
-496,839	695,303	0,014	0,026
-495,824	36,357	0,067	-0,043
-494,810	-130,479	0,023	0,002
-493,795	45,697	0,119	0,081
-492,781	-200,000	0,010	-0,070
-491,766	-200,000	-0,045	-0,153
-490,751	120,534	-0,094	-0,086
-489,737	-156,075	0,090	0,004
-488,722	319,701	-0,089	0,123
-487,708	371,327	0,055	0,081
-486,693	314,791	-0,029	0,040
-485,678	368,018	-0,061	0,090
-484,664	-200,000	-0,005	-0,040
-483,649	112,181	-0,090	-0,079
-482,635	-79,877	-0,089	0,022
-481,620	-54,022	0,057	-0,019
-480,605	-73,943	0,036	-0,010
-479,591	800,000	0,027	-0,058
-478,576	-103,185	0,067	-0,011
-477,562	-200,000	-0,009	-0,088
-476,547	-150,967	-0,132	0,007
-475,532	173,151	-0,086	0,090
-474,518	116,082	0,037	-0,033
-473,503	-200,000	0,002	0,064
-472,489	-200,000	0,004	0,096
-471,474	800,000	-0,052	0,118
-470,459	67,292	0,044	-0,033
-469,445	-24,894	0,045	0,019
-468,430	-175,689	-0,041	0,001
-467,416	-126,959	-0,067	-0,007
-466,401	-147,224	0,144	0,009
-465,386	-200,000	-0,005	0,034
-464,372	-200,000	-0,006	0,123
-463,357	647,109	-0,036	-0,067
-462,343	236,329	-0,019	0,023
-461,328	-6,598	-0,063	0,031
-460,313	386,650	-0,041	0,061
-459,299	14,624	0,070	0,040
-458,284	-93,200	0,146	-0,029
-457,270	72,832	-0,071	0,054
-456,255	59,212	-0,190	0,137
-455,241	48,820	-0,107	-0,073
-454,226	75,186	-0,107	0,082
-453,211	244,066	0,015	0,018
-452,197	227,769	0,044	0,052
-451,182	-174,695	-0,064	0,001
-450,168	108,177	0,023	-0,020
-449,153	800,000	-0,038	-0,088
-448,138	-103,275	0,091	0,015
-447,124	-97,437	-0,089	0,017
-446,109	198,783	-0,058	-0,065
-445,095	-14,148	-0,123	0,058
-444,080	-200,000	-0,001	0,013
-443,065	775,141	0,033	-0,067
-442,051	-7,568	0,137	-0,068
-441,036	101,239	-0,225	0,191
-440,022	89,614	0,026	-0,021
-439,007	104,772	0,079	0,068
-437,992	773,824	-0,060	-0,120
-436,978	-200,000	0,013	-0,058
-435,963	-56,036	0,051	0,017
-434,949	213,555	-0,017	-0,020
-433,934	-200,000	0,015	-0,090
-432,919	-8,095	-0,028	0,014
-431,905	-144,877	0,047	-0,003
-430,890	372,837	-0,073	-0,108
-429,876	800,000	-0,058	-0,119
-428,861	44,163	0,050	0,034
-427,846	800,000	-0,032	0,102
-426,832	-200,000	0,003	-0,103
-425,817	-25,772	0,038	-0,016
-424,803	13,164	0,055	-0,031
-423,788	291,128	-0,020	0,027
-422,773	290,048	0,035	-0,046
-421,759	-200,000	-0,013	0,150
-420,744	-41,797	-0,015	0,006
-419,730	99,652	-0,038	0,032
-418,715	800,000	-0,031	-0,067
-417,701	-200,000	0,025	-0,125
-416,686	109,468	0,064	-0,056
-415,671	376,525	-0,078	0,117
-414,657	-18,756	0,104	-0,047
-413,642	291,914	0,051	-0,067
-412,628	-200,000	-0,007	-0,055
-411,613	-200,000	0,075	-0,243
-410,598	-200,000	0,006	0,034
-409,584	-200,000	-0,003	0,022
-408,569	-64,237	-0,049	0,014
-407,555	166,042	0,066	0,068
-406,540	288,154	0,030	-0,039
-405,525	130,533	0,028	0,026
-404,511	-114,502	-0,102	0,014
-403,496	125,964	0,079	0,073
-402,482	358,141	-0,015	-0,022
-401,467	-195,940	0,100	-0,001
-400,452	152,239	-0,029	-0,029
-399,438	-60,745	-0,054	-0,017
-398,423	-200,000	-0,013	0,066
-397,409	-200,000	-0,032	-0,130
-396,394	-200,000	-0,022	-0,117
-395,379	513,352	0,043	0,073
-394,365	50,442	-0,040	0,028
-393,350	37,136	0,156	-0,100
-392,336	144,563	0,089	-0,087
-391,321	-78,032	0,054	0,013
-390,306	800,000	-0,033	-0,072
-389,292	-53,013	0,122	-0,040
-388,277	714,439	0,070	0,136
-387,263	276,685	0,082	0,107
-386,248	-76,934	0,154	-0,039
-385,233	-115,627	-0,037	-0,005
-384,219	-92,633	0,149	0,030
-383,204	-146,091	-0,039	-0,002
-382,190	-200,000	-0,002	-0,133
-381,175	27,717	0,082	-0,050
-380,160	-200,000	0,001	-0,016
-379,146	-47,689	-0,028	0,010
-378,131	-65,627	0,072	0,021
-377,117	-200,000	-0,029	-0,152
-376,102	9,593	-0,079	-0,043
-375,088	-46,934	-0,053	-0,019
-374,073	54,489	0,193	-0,135
-373,058	318,588	-0,027	-0,037
-372,044	366,010	-0,078	0,115
-371,029	800,000	-0,042	0,088
-370,015	-200,000	0,001	-0,087
-369,000	440,114	-0,047	-0,074
-367,985	-171,445	-0,032	0,001
-366,971	-54,124	0,021	0,007
-365,956	134,075	-0,080	-0,075
-364,942	-124,119	0,144	-0,016
-363,927	228,683	0,040	0,048
-362,912	163,827	-0,023	0,024
-361,898	604,158	-0,035	-0,064
-360,883	-200,000	-0,005	-0,094
-359,869	87,092	-0,036	-0,029
-358,854	-200,000	0,008	0,103
-357,839	800,000	0,013	0,034
-356,825	62,513	0,129	-0,094
-355,810	-200,000	-0,004	0,125
-354,796	-122,024	-0,062	-0,007
-353,781	8,163	-0,144	-0,078
-352,766	-200,000	-0,015	-0,144
-351,752	81,381	0,100	-0,079
-350,737	800,000	-0,041	0,105
-349,723	800,000	-0,051	0,125
-348,708	390,785	-0,045	-0,069
-347,693	-99,019	-0,172	-0,031
-346,679	-59,288	0,040	-0,012
-345,664	384,545	-0,043	-0,064
-344,650	-200,000	-0,003	0,017
-343,635	-56,042	-0,052	0,017
-342,620	-62,221	0,050	-0,015
-341,606	360,260	-0,062	0,090
-340,591	800,000	0,114	0,232
-339,577	-72,618	-0,050	0,013
-338,562	371,121	-0,032	-0,048
-337,548	800,000	0,031	-0,074
-336,533	451,685	0,058	0,094
-335,518	-200,000	0,021	0,163
-334,504	-15,769	-0,039	0,018
-333,489	-81,478	0,081	-0,019
-332,475	-200,000	-0,027	-0,109
-331,460	-200,000	-0,008	-0,035
-330,445	197,367	0,062	-0,069
-329,431	-65,283	-0,042	-0,012
-328,416	800,000	-0,061	0,152
-327,402	-52,971	0,101	0,034
-326,387	-200,000	-0,009	0,061
-325,372	-200,000	0,002	-0,054
-324,358	-10,907	-0,100	0,048
-323,343	-200,000	-0,035	0,146
-322,329	460,849	-0,033	-0,054
-321,314	66,228	0,122	0,090
-320,299	-21,224	0,018	0,008
-319,285	-200,000	-0,013	-0,091
-318,270	103,530	-0,079	0,067
-317,256	353,820	0,012	-0,018
-316,241	-74,040	-0,020	0,005
-315,226	24,268	-0,018	0,011
-314,212	395,367	0,036	0,055
-313,197	800,000	0,035	-0,086
-312,183	88,778	-0,113	-0,091
-311,168	-103,830	-0,116	-0,019
-310,153	-110,393	-0,021	0,003
-309,139	-109,021	-0,089	0,014
-308,124	-200,000	0,014	0,053
-307,110	-200,000	0,023	0,079
-306,095	495,699	-0,055	0,091
-305,080	34,974	0,032	-0,020
-304,066	-188,856	0,058	-0,001
-303,051	-66,276	-0,085	-0,025
-302,037	-136,605	0,021	0,002
-301,022	-200,000	0,019	-0,071
-300,008	62,569	0,103	-0,075
-298,993	-177,412	-0,074	-0,001
-297,978	326,988	0,053	-0,074
-296,964	-200,000	0,008	0,083
-295,949	83,815	0,110	-0,087
-294,935	-141,757	0,137	-0,010
-293,920	-69,920	-0,078	0,022
-292,905	-56,428	-0,039	0,012
-291,891	-200,000	0,007	-0,049
-290,876	-59,084	-0,052	-0,016
-289,862	-98,968	-0,156	-0,028
-288,847	46,072	0,128	0,086
-287,832	277,983	-0,028	0,036
-286,818	-127,024	-0,067	0,007
-285,803	401,422	-0,036	0,055
-284,789	-200,000	0,001	0,054
-283,774	707,310	0,027	0,052
-282,759	-200,000	0,017	-0,083
-281,745	-34,130	0,124	0,049
-280,730	-200,000	0,012	-0,102
-279,716	186,277	0,049	-0,053
-278,701	-28,647	0,083	0,035
-277,686	165,075	-0,005	0,005
-276,672	-200,000	0,005	0,090
-275,657	-152,762	-0,102	-0,005
-274,643	-200,000	-0,010	0,036
-273,628	67,977	-0,085	-0,063
-272,613	-2,441	0,041	-0,021
-271,599	-200,000	0,015	-0,049
-270,584	-97,606	0,034	-0,006
-269,570	-177,679	0,098	-0,002
-268,555	800,000	-0,039	0,110
-267,540	800,000	-0,021	-0,047
-266,526	-133,988	-0,031	0,003
-265,511	40,370	-0,068	0,044
-264,497	-200,000	0,004	-0,051
-263,482	344,705	0,066	0,094
-262,467	-20,377	-0,125	-0,056
-261,453	-82,295	0,086	0,020
-260,438	735,906	0,070	-0,137
-259,424	-35,720	0,047	0,019
-258,409	64,607	-0,079	0,057
-257,395	28,443	0,044	-0,027
-256,380	-200,000	-0,007	-0,030
-255,365	-200,000	-0,027	-0,086
-254,351	672,047	0,061	0,115
-253,336	-200,000	-0,002	0,028
-252,322	-200,000	-0,001	-0,025
-251,307	380,207	0,034	-0,051
-250,292	-25,319	0,139	-0,059
-249,278	770,231	0,033	-0,066
-248,263	113,768	-0,018	-0,016
-247,249	20,384	0,089	0,052
-246,234	519,923	-0,064	-0,109
-245,219	255,813	-0,073	-0,091
-244,205	243,915	-0,033	-0,040
-243,190	800,000	0,069	-0,206
-242,176	-150,422	-0,075	-0,004
-241,161	-14,193	-0,084	-0,039
-240,146	-200,000	0,005	0,031
-239,132	59,988	-0,107	-0,076
-238,117	-20,815	-0,041	0,018
-237,103	-200,000	-0,050	-0,162
-236,088	117,097	-0,106	-0,095
-235,073	150,628	0,062	0,061
-234,059	800,000	0,037	0,090
-233,044	-200,000	-0,001	0,096
-232,030	-200,000	0,012	0,048
-231,015	70,276	-0,054	-0,040
-230,000	800,000	0,003	-0,006
-228,986	507,268	-0,014	-0,024
-227,971	-12,613	0,087	-0,041
-226,957	-200,000	0,050	0,206
-225,942	572,918	-0,034	0,061
-224,927	436,518	-0,098	-0,155
-223,913	155,785	-0,020	-0,020
-222,898	31,238	-0,033	-0,020
-221,884	-200,000	-0,003	-0,033
-220,869	-200,000	-0,002	-0,034
-219,855	800,000	0,055	0,133
-218,840	-53,814	0,122	0,040
-217,825	-39,079	0,088	-0,033
-216,811	-104,981	0,197	-0,032
-215,796	-200,000	0,009	-0,139
-214,782	-200,000	-0,005	0,066
-213,767	271,786	0,065	-0,083
-212,752	-166,493	0,079	-0,002
-211,738	-57,795	0,025	-0,008
-210,723	800,000	0,047	0,115
-209,709	800,000	-0,029	-0,083
-208,694	288,311	0,058	-0,076
-207,679	103,246	0,047	0,040
-206,665	317,969	0,035	0,048
-205,650	75,764	0,130	0,100
-204,636	136,926	-0,011	-0,010
-203,621	-46,404	-0,049	0,017
-202,606	212,856	0,105	-0,120
-201,592	154,449	-0,154	-0,152
-200,577	-86,679	0,100	-0,022
-199,563	-98,007	-0,066	-0,012
-198,548	65,436	0,053	0,039
-197,533	800,000	0,027	0,067
-196,519	-81,447	0,095	-0,022
-195,504	-63,413	-0,172	0,051
-194,490	-62,344	-0,011	-0,003
-193,475	196,576	0,023	-0,025
-192,460	179,028	0,022	-0,024
-191,446	-55,361	0,063	0,020
-190,431	-19,504	0,079	0,035
-189,417	-173,688	0,092	-0,002
-188,402	-173,914	-0,137	0,003
-187,387	-200,000	-0,001	-0,018
-186,373	-200,000	-0,000	-0,107
-185,358	-200,000	-0,002	-0,018
-184,344	-24,028	-0,036	-0,016
-183,329	800,000	0,061	0,157
-182,315	800,000	-0,048	0,111
-181,300	335,452	-0,057	0,081
-180,285	-142,951	0,066	0,005
-179,271	-200,000	0,010	0,060
-178,256	800,000	-0,022	0,066
-177,242	429,793	-0,034	0,054
-176,227	40,850	0,049	0,032
-175,212	347,397	0,048	0,069
-174,198	-200,000	0,007	-0,074
-173,183	-195,414	0,083	-0,000
-172,169	463,182	-0,068	0,110
-171,154	-182,766	0,059	-0,001
-170,139	-101,718	0,135	0,023
-169,125	-33,520	0,046	0,018
-168,110	-200,000	-0,015	0,175
-167,096	-200,000	0,014	-0,128
-166,081	800,000	-0,024	-0,070
-165,066	-200,000	-0,003	-0,082
-164,052	-94,001	0,027	-0,005
-163,037	-200,000	0,028	-0,094
-162,023	800,000	0,032	0,070
-161,008	-200,000	-0,001	0,103
-159,993	-81,535	-0,114	0,027
-158,979	42,908	0,049	-0,032
-157,964	380,855	-0,034	0,051
-156,950	-200,000	-0,011	-0,080
-155,935	-4,974	-0,053	-0,026
-154,920	144,391	0,084	0,081
-153,906	-75,615	-0,132	-0,034
-152,891	685,788	-0,079	0,149
-151,877	43,652	0,105	0,069
-150,862	-200,000	-0,005	-0,022
-149,847	-47,650	0,134	0,047
-148,833	713,990	-0,011	0,021
-147,818	-106,507	-0,011	-0,002
-146,804	46,550	-0,027	0,018
-145,789	-149,507	0,018	0,001
-144,775	-163,852	0,121	0,004
-143,760	125,143	0,037	-0,034
-142,745	165,944	0,028	0,029
-141,731	438,830	0,027	-0,043
-140,716	-66,410	0,141	-0,040
-139,702	800,000	0,020	0,054
-138,687	-132,951	0,137	-0,012
-137,672	-200,000	0,047	-0,158
-136,658	-200,000	0,010	-0,090
-135,643	200,738	0,077	0,086
-134,629	-200,000	0,011	-0,072
-133,614	3,059	0,131	-0,068
-132,599	800,000	0,022	-0,048
-131,585	149,402	0,020	0,020
-130,570	626,848	0,022	-0,041
-129,556	-64,966	0,088	-0,025
-128,541	-72,286	-0,086	0,023
-127,526	228,228	0,036	-0,043
-126,512	-48,965	0,098	0,033
-125,497	31,066	0,045	0,028
-124,483	-8,938	0,043	0,021
-123,468	159,601	-0,045	-0,045
-122,453	78,121	-0,061	-0,047
-121,439	-200,000	-0,020	-0,179
-120,424	674,501	0,071	0,132
