DTS Sentinel unit serial number:	SN410029Multiplexer serial number:	ORYXHardware model number:	OX2-SRSoftware version number:	ORYX F/W v4,00 Oryx Data Collector v3.7.2.0data status	okinstallation	B6 Nyhavnadifferential loss correction	single-endedforward channel	channel 2reverse channel	N/Adate	2023/12/10time	08:10:08forward acquisition time	300,00reverse acquisition time	0,00gamma	499,1914k internal	0,3123k external	0,3123temperature offset calibration	1,0000default loss term (dB/km)	0,3820temperature slope calibration	1,0000multiplexer offset coefficient	1,0000multiplexer slope coefficient	1,0000fibre end	0,00T internal ref (°C)	22,57T ext. ref 1 (°C)	6,33T ext. ref 2 (°C)	6,35length (m)	temperature (°C)	Stokes	anti-Stokes-744,400	213,342	0,045	-0,053
-743,385	-152,711	-0,254	-0,013
-742,371	-200,000	0,032	-0,149
-741,356	155,280	-0,117	0,120
-740,342	800,000	-0,042	0,114
-739,327	16,914	-0,113	0,066
-738,312	-130,716	0,074	0,007
-737,298	-75,625	-0,206	0,054
-736,283	800,000	0,042	-0,095
-735,269	643,683	-0,049	0,093
-734,254	283,163	0,030	-0,041
-733,239	-118,128	-0,350	-0,046
-732,225	-115,387	0,127	-0,018
-731,210	244,910	0,079	0,099
-730,196	800,000	-0,043	0,095
-729,181	-147,427	0,130	0,008
-728,167	-200,000	0,003	0,145
-727,152	-84,985	0,085	-0,020
-726,137	176,504	-0,106	-0,115
-725,123	30,173	-0,081	-0,052
-724,108	-119,055	-0,073	-0,009
-723,094	-200,000	0,037	-0,147
-722,079	-130,787	-0,135	-0,013
-721,064	-200,000	-0,005	-0,186
-720,050	-40,838	-0,100	-0,038
-719,035	-200,000	-0,015	-0,064
-718,021	-200,000	-0,042	-0,171
-717,006	-200,000	-0,002	0,110
-715,991	-200,000	-0,031	-0,205
-714,977	316,210	0,114	-0,161
-713,962	96,169	-0,110	-0,093
-712,948	232,922	-0,052	0,064
-711,933	193,796	0,032	-0,036
-710,918	-200,000	-0,020	-0,073
-709,904	346,497	-0,083	-0,122
-708,889	494,605	0,052	-0,089
-707,875	265,775	-0,097	-0,127
-706,860	800,000	0,046	-0,118
-705,845	152,862	-0,041	0,042
-704,831	-110,161	0,153	-0,023
-703,816	-9,696	-0,076	0,037
-702,802	-48,004	-0,013	0,005
-701,787	800,000	-0,042	-0,115
-700,772	36,618	0,100	-0,066
-699,758	-1,390	0,054	0,028
-698,743	800,000	0,044	0,117
-697,729	-200,000	0,021	0,075
-696,714	134,677	-0,077	0,075
-695,699	-176,852	-0,095	-0,002
-694,685	172,792	-0,062	0,067
-693,670	-150,935	-0,063	-0,003
-692,656	-4,092	0,124	0,064
-691,641	155,410	0,135	-0,138
-690,627	-143,552	0,089	-0,006
-689,612	500,693	-0,086	0,148
-688,597	-70,182	0,066	-0,018
-687,583	203,839	-0,112	-0,129
-686,568	-200,000	-0,019	-0,081
-685,554	800,000	0,039	-0,085
-684,539	56,371	-0,070	0,051
-683,524	50,028	-0,081	-0,057
-682,510	67,957	0,092	-0,070
-681,495	-60,892	-0,034	0,011
-680,481	34,989	0,034	0,022
-679,466	-146,000	-0,092	-0,006
-678,451	-200,000	0,026	-0,128
-677,437	800,000	-0,014	0,046
-676,422	-169,950	0,089	0,002
-675,408	-200,000	-0,001	-0,010
-674,393	1,396	0,131	0,070
-673,378	-200,000	-0,009	0,035
-672,364	41,816	-0,047	0,032
-671,349	-61,008	-0,055	0,017
-670,335	-10,191	0,107	0,052
-669,320	-200,000	-0,005	-0,057
-668,305	800,000	0,013	-0,042
-667,291	177,513	0,035	-0,038
-666,276	-77,422	-0,080	0,021
-665,262	400,933	-0,106	0,166
-664,247	-200,000	0,003	-0,057
-663,232	3,359	-0,060	0,032
-662,218	97,741	-0,070	0,060
-661,203	264,434	0,056	-0,072
-660,189	-166,743	0,005	-0,000
-659,174	-77,245	-0,102	-0,026
-658,159	142,095	-0,056	0,055
-657,145	-200,000	-0,041	-0,189
-656,130	-48,395	-0,115	-0,041
-655,116	800,000	-0,006	0,016
-654,101	34,274	-0,076	0,049
-653,086	-200,000	0,002	0,085
-652,072	-130,246	-0,099	-0,010
-651,057	-125,449	0,139	-0,016
-650,043	10,243	0,059	0,033
-649,028	-200,000	-0,008	-0,208
-648,014	38,674	0,063	-0,042
-646,999	33,950	-0,018	-0,012
-645,984	576,097	0,052	-0,094
-644,970	43,255	-0,055	0,037
-643,955	16,696	-0,074	-0,043
-642,941	18,917	0,068	-0,041
-641,926	-124,924	-0,088	-0,010
-640,911	-108,837	0,014	0,002
-639,897	223,058	-0,011	-0,013
-638,882	116,897	-0,045	0,041
-637,868	57,058	0,056	-0,040
-636,853	-27,689	-0,096	-0,041
-635,838	-200,000	-0,026	-0,169
-634,824	-116,704	-0,114	-0,015
-633,809	150,228	0,083	-0,084
-632,795	100,658	0,143	0,123
-631,780	-77,643	0,068	0,017
-630,765	-55,808	0,025	-0,008
-629,751	-105,270	-0,087	0,015
-628,736	800,000	-0,027	-0,071
-627,722	-200,000	0,028	0,112
-626,707	318,111	-0,073	-0,102
-625,692	-173,219	0,178	-0,004
-624,678	-16,280	-0,097	-0,046
-623,663	147,213	-0,027	0,027
-622,649	52,942	-0,094	-0,067
-621,634	800,000	0,038	-0,103
-620,619	800,000	0,034	0,075
-619,605	800,000	0,043	-0,089
-618,590	-178,914	0,071	0,001
-617,576	-200,000	-0,015	-0,126
-616,561	-174,282	-0,081	0,002
-615,546	102,869	-0,014	0,012
-614,532	32,156	-0,117	-0,075
-613,517	3,335	-0,127	-0,068
-612,503	-1,379	0,100	-0,052
-611,488	-159,794	0,066	0,003
-610,474	-23,348	-0,069	-0,030
-609,459	800,000	0,023	0,076
-608,444	800,000	-0,069	-0,215
-607,430	301,646	0,026	-0,036
-606,415	-67,420	-0,125	0,036
-605,401	106,642	-0,081	0,071
-604,386	30,576	0,173	0,110
-603,371	-200,000	0,023	0,183
-602,357	153,893	-0,089	0,090
-601,342	37,400	-0,067	-0,044
-600,328	-67,675	0,072	-0,021
-599,313	109,015	-0,095	-0,084
-598,298	375,344	-0,041	-0,063
-597,284	-140,749	0,087	-0,007
-596,269	-1,503	0,047	-0,024
-595,255	800,000	-0,041	0,127
-594,240	151,130	-0,005	-0,005
-593,225	192,063	-0,075	-0,084
-592,211	800,000	-0,010	-0,033
-591,196	-35,038	-0,124	-0,050
-590,182	68,336	-0,021	0,016
-589,167	-116,920	0,061	0,008
-588,152	182,674	0,040	0,043
-587,138	385,903	-0,044	-0,068
-586,123	-200,000	-0,019	-0,109
-585,109	-12,068	0,063	-0,030
-584,094	690,289	-0,041	0,081
-583,079	-10,301	0,075	0,037
-582,065	124,787	-0,027	0,026
-581,050	-132,458	-0,110	-0,010
-580,036	-107,559	0,086	0,014
-579,021	-114,458	0,064	-0,009
-578,006	800,000	0,013	0,037
-576,992	-42,959	-0,050	-0,019
-575,977	-170,025	-0,013	-0,000
-574,963	82,089	0,071	0,057
-573,948	25,857	-0,101	0,062
-572,934	57,201	0,072	0,052
-571,919	47,443	0,095	-0,066
-570,904	181,492	-0,025	0,027
-569,890	800,000	-0,009	0,021
-568,875	-200,000	0,012	-0,054
-567,861	75,227	0,097	-0,076
-566,846	-159,160	0,030	0,001
-565,831	-200,000	-0,017	-0,102
-564,817	10,407	-0,121	-0,068
-563,802	-5,871	-0,029	-0,015
-562,788	-200,000	0,014	-0,054
-561,773	34,463	-0,080	-0,051
-560,758	-200,000	-0,010	0,105
-559,744	60,369	0,127	0,093
-558,729	800,000	0,018	0,042
-557,715	576,325	-0,096	-0,175
-556,700	245,586	0,009	0,011
-555,685	584,992	-0,031	0,057
-554,671	35,720	-0,061	0,040
-553,656	-200,000	0,031	0,137
-552,642	119,667	0,104	0,095
-551,627	-109,501	-0,107	0,016
-550,612	-200,000	-0,008	-0,145
-549,598	-200,000	0,014	-0,070
-548,583	697,168	-0,055	-0,107
-547,569	-77,179	0,084	0,021
-546,554	311,829	0,047	0,066
-545,539	-51,862	0,069	0,024
-544,525	800,000	0,029	-0,077
-543,510	163,573	0,056	0,059
-542,496	-200,000	0,022	0,159
-541,481	800,000	-0,031	0,087
-540,466	290,589	-0,085	0,115
-539,452	-200,000	0,017	0,063
-538,437	133,963	0,046	0,044
-537,423	270,860	-0,078	0,102
-536,408	-53,523	0,050	0,017
-535,393	435,036	-0,058	-0,093
-534,379	452,029	-0,061	-0,100
-533,364	326,609	0,100	-0,142
-532,350	2,690	-0,038	0,020
-531,335	-19,168	-0,045	0,020
-530,321	36,042	0,066	0,043
-529,306	319,578	-0,116	-0,162
-528,291	-200,000	0,001	0,009
-527,277	-121,408	-0,146	0,018
-526,262	120,112	-0,166	0,152
-525,248	800,000	0,030	-0,064
-524,233	573,277	-0,041	0,075
-523,218	297,712	0,030	0,041
-522,204	800,000	0,029	0,060
-521,189	392,640	-0,069	-0,106
-520,175	800,000	-0,063	0,134
-519,160	-200,000	-0,012	0,065
-518,145	-200,000	-0,002	0,034
-517,131	800,000	-0,050	0,107
-516,116	-200,000	-0,006	0,041
-515,102	-58,538	0,161	-0,051
-514,087	61,554	-0,061	-0,045
-513,072	-200,000	-0,009	-0,112
-512,058	12,763	0,058	-0,033
-511,043	181,128	0,038	0,041
-510,029	-50,212	0,165	0,057
-509,014	800,000	0,066	0,143
-507,999	-91,020	-0,078	0,016
-506,985	4,702	-0,102	-0,055
-505,970	-94,705	-0,115	0,023
-504,956	-43,477	0,046	0,017
-503,941	-200,000	-0,001	0,009
-502,926	-13,411	0,091	0,044
-501,912	282,545	-0,062	-0,082
-500,897	69,232	-0,129	0,098
-499,883	-200,000	0,022	-0,101
-498,868	259,445	-0,065	0,083
-497,853	-174,794	-0,093	-0,002
-496,839	774,702	-0,045	0,091
-495,824	-148,128	-0,073	-0,004
-494,810	43,219	-0,126	0,085
-493,795	-197,045	-0,081	0,000
-492,781	-200,000	0,013	0,111
-491,766	648,806	-0,058	-0,111
-490,751	-76,808	0,037	0,010
-489,737	102,423	0,038	0,032
-488,722	-200,000	0,005	-0,092
-487,708	254,419	0,077	0,098
-486,693	-18,851	-0,072	0,033
-485,678	-67,877	0,048	-0,014
-484,664	588,022	0,013	-0,024
-483,649	432,205	0,047	-0,075
-482,635	-14,789	-0,031	-0,015
-481,620	248,643	0,072	0,090
-480,605	-200,000	-0,005	0,063
-479,591	-161,413	-0,097	0,004
-478,576	54,138	0,049	0,035
-477,562	25,433	-0,121	-0,074
-476,547	-109,285	-0,072	0,011
-475,532	-126,014	-0,068	-0,007
-474,518	103,760	0,080	-0,069
-473,503	-200,000	0,036	0,127
-472,489	122,586	0,056	-0,051
-471,474	-200,000	-0,012	0,113
-470,459	8,174	-0,124	-0,068
-469,445	257,261	-0,087	0,110
-468,430	141,166	0,009	-0,009
-467,416	311,090	0,015	0,020
-466,401	-139,292	0,045	0,004
-465,386	-50,582	0,041	0,014
-464,372	-57,142	-0,062	-0,020
-463,357	800,000	-0,003	-0,008
-462,343	-183,179	-0,070	-0,001
-461,328	-200,000	0,004	-0,035
-460,313	-149,424	-0,077	-0,004
-459,299	574,850	0,055	0,100
-458,284	-26,961	0,055	0,024
-457,270	-48,941	-0,114	-0,040
-456,255	-200,000	-0,020	-0,156
-455,241	-79,773	-0,062	-0,015
-454,226	-200,000	0,035	-0,215
-453,211	-43,973	0,067	-0,025
-452,197	-200,000	-0,003	0,025
-451,182	-200,000	0,006	0,058
-450,168	176,190	0,131	0,140
-449,153	-99,565	-0,093	-0,017
-448,138	-200,000	0,019	-0,168
-447,124	-46,620	-0,156	-0,056
-446,109	-200,000	-0,023	0,115
-445,095	154,422	-0,077	-0,078
-444,080	-49,058	0,065	-0,023
-443,065	42,853	-0,012	-0,008
-442,051	-200,000	0,013	0,092
-441,036	-64,633	-0,108	0,032
-440,022	800,000	-0,036	0,111
-439,007	-200,000	0,006	-0,073
-437,992	372,069	0,109	0,164
-436,978	19,951	-0,041	0,024
-435,963	11,711	0,122	-0,069
-434,949	-107,530	-0,073	-0,012
-433,934	-9,675	0,082	-0,040
-432,919	-200,000	0,003	-0,089
-431,905	-163,227	0,047	-0,002
-430,890	-54,982	-0,065	-0,021
-429,876	800,000	0,019	0,047
-428,861	-51,521	0,195	-0,067
-427,846	-48,769	0,060	0,021
-426,832	-105,184	-0,158	0,026
-425,817	-137,878	0,060	-0,005
-424,803	-200,000	0,006	-0,131
-423,788	-200,000	-0,000	-0,028
-422,773	800,000	0,041	-0,107
-421,759	-200,000	-0,008	0,115
-420,744	-55,506	0,160	0,052
-419,730	800,000	-0,045	0,105
-418,715	-200,000	-0,001	-0,106
-417,701	171,673	0,038	0,040
-416,686	491,588	-0,039	0,065
-415,671	143,020	0,107	0,104
-414,657	-200,000	-0,008	0,075
-413,642	-64,505	-0,051	-0,015
-412,628	103,314	0,081	-0,070
-411,613	-96,337	-0,039	-0,008
-410,598	-89,595	-0,136	-0,029
-409,584	33,815	0,004	-0,002
-408,569	-200,000	0,009	0,030
-407,555	582,839	-0,037	0,068
-406,540	-200,000	0,024	0,107
-405,525	-92,531	-0,131	-0,027
-404,511	800,000	0,021	-0,061
-403,496	31,762	0,111	-0,070
-402,482	800,000	0,024	0,068
-401,467	-89,000	0,119	-0,026
-400,452	54,715	-0,070	0,049
-399,438	-107,933	-0,076	-0,012
-398,423	-200,000	-0,006	-0,094
-397,409	800,000	-0,011	0,023
-396,394	-144,918	0,040	-0,003
-395,379	-200,000	0,033	-0,147
-394,365	42,399	-0,051	-0,034
-393,350	-200,000	-0,019	0,128
-392,336	800,000	-0,053	0,157
-391,321	63,780	0,051	-0,037
-390,306	202,656	-0,058	-0,066
-389,292	82,342	-0,107	-0,085
-388,277	800,000	-0,067	-0,137
-387,263	-96,513	0,060	0,012
-386,248	800,000	0,040	0,095
-385,233	-200,000	0,003	0,063
-384,219	156,164	0,060	0,061
-383,204	111,589	-0,097	0,086
-382,190	-151,014	0,078	-0,004
-381,175	800,000	-0,031	-0,066
-380,160	19,353	0,093	0,055
-379,146	-200,000	0,002	0,013
-378,131	744,937	-0,016	0,032
-377,117	9,058	-0,021	-0,012
-376,102	-200,000	0,008	-0,065
-375,088	800,000	0,038	-0,101
-374,073	-182,219	0,053	-0,001
-373,058	275,718	0,080	-0,104
-372,044	-78,097	-0,035	0,009
-371,029	110,178	0,106	0,093
-370,015	-16,814	0,151	0,070
-369,000	154,120	0,077	-0,077
-367,985	278,443	-0,051	-0,068
-366,971	22,297	0,026	-0,015
-365,956	-89,885	-0,079	-0,017
-364,942	800,000	0,022	0,051
-363,927	325,770	0,101	0,142
-362,912	-66,740	-0,084	0,024
-361,898	-156,864	-0,101	-0,004
-360,883	232,282	-0,026	-0,032
-359,869	800,000	-0,035	0,075
-358,854	-5,598	0,036	-0,018
-357,839	535,947	-0,043	-0,075
-356,825	-200,000	-0,009	0,040
-355,810	552,336	0,060	0,107
-354,796	800,000	0,030	-0,081
-353,781	-82,827	-0,134	-0,031
-352,766	-113,448	0,076	-0,011
-351,752	82,064	0,061	0,049
-350,737	800,000	0,031	0,084
-349,723	800,000	0,052	0,134
-348,708	362,324	0,065	0,096
-347,693	76,430	0,031	-0,024
-346,679	800,000	-0,021	0,065
-345,664	-158,850	-0,049	0,002
-344,650	-200,000	-0,012	0,042
-343,635	-45,804	-0,091	-0,033
-342,620	123,480	0,024	-0,022
-341,606	218,562	-0,085	0,100
-340,591	-55,959	-0,142	0,046
-339,577	284,285	0,003	0,004
-338,562	800,000	0,027	0,082
-337,548	-200,000	0,031	-0,157
-336,533	402,206	0,031	0,048
-335,518	-200,000	-0,006	0,181
-334,504	121,413	0,053	0,049
-333,489	-51,150	0,072	-0,025
-332,475	800,000	-0,015	0,037
-331,460	14,066	-0,053	-0,030
-330,445	-200,000	-0,004	-0,052
-329,431	-200,000	-0,006	-0,068
-328,416	800,000	0,073	0,188
-327,402	-200,000	0,018	0,112
-326,387	-7,134	0,049	-0,024
-325,372	-26,486	0,113	0,048
-324,358	289,553	0,123	-0,164
-323,343	58,181	-0,041	-0,029
-322,329	800,000	0,027	-0,065
-321,314	-200,000	0,028	0,138
-320,299	800,000	0,047	0,111
-319,285	58,946	0,026	0,019
-318,270	-171,933	-0,175	0,004
-317,256	-45,999	0,047	-0,017
-316,241	-200,000	0,018	-0,097
-315,226	342,139	-0,071	-0,102
-314,212	-200,000	-0,016	-0,145
-313,197	-134,597	0,146	-0,013
-312,183	51,640	0,100	-0,069
-311,168	142,979	-0,096	-0,094
-310,153	-200,000	0,018	0,063
-309,139	-62,770	0,072	-0,022
-308,124	-200,000	-0,004	0,123
-307,110	-200,000	0,023	-0,076
-306,095	-200,000	-0,013	0,076
-305,080	746,070	-0,030	-0,060
-304,066	800,000	0,003	-0,007
-303,051	800,000	0,027	-0,057
-302,037	-118,816	-0,174	-0,022
-301,022	-200,000	0,015	-0,073
-300,008	545,128	0,037	0,066
-298,993	164,483	0,026	0,027
-297,978	-86,386	-0,067	0,015
-296,964	-200,000	-0,009	0,097
-295,949	800,000	-0,023	-0,067
-294,935	671,813	0,048	-0,091
-293,920	87,621	0,049	-0,040
-292,905	-64,733	0,156	-0,046
-291,891	107,161	0,083	-0,072
-290,876	316,779	0,098	0,136
-289,862	-127,553	0,106	-0,011
-288,847	800,000	0,055	0,122
-287,832	-117,202	-0,113	-0,015
-286,818	-168,731	-0,121	0,003
-285,803	-39,448	-0,108	-0,041
-284,789	800,000	0,050	0,153
-283,774	-147,286	0,096	-0,006
-282,759	800,000	-0,039	-0,098
-281,745	-200,000	-0,006	-0,123
-280,730	-125,058	-0,108	0,012
-279,716	-83,428	0,113	0,026
-278,701	286,167	0,022	0,030
-277,686	800,000	0,034	0,094
-276,672	22,350	0,071	0,042
-275,657	71,539	-0,081	-0,062
-274,643	-7,678	0,064	0,031
-273,628	25,471	-0,055	-0,033
-272,613	-200,000	-0,015	-0,065
-271,599	-87,547	0,114	-0,025
-270,584	-23,461	0,130	0,057
-269,570	45,975	0,047	-0,032
-268,555	323,373	-0,040	-0,056
-267,540	-200,000	-0,009	-0,072
-266,526	93,228	-0,065	-0,054
-265,511	-146,206	-0,057	-0,004
-264,497	22,041	0,140	0,083
-263,482	107,644	0,119	-0,103
-262,467	54,645	0,168	0,119
-261,453	-200,000	-0,015	0,100
-260,438	364,493	0,016	0,023
-259,424	150,108	-0,055	-0,055
-258,409	-200,000	-0,023	-0,116
-257,395	-29,398	0,155	0,065
-256,380	-30,386	-0,123	-0,051
-255,365	-58,381	0,095	0,030
-254,351	-100,223	0,178	-0,032
-253,336	-175,384	0,093	0,002
-252,322	-200,000	0,040	-0,132
-251,307	-131,792	-0,068	-0,006
-250,292	-177,882	0,066	-0,001
-249,278	23,449	0,108	-0,065
-248,263	-200,000	-0,021	-0,119
-247,249	-200,000	-0,009	-0,190
-246,234	54,731	-0,073	0,051
-245,219	-6,636	0,037	-0,019
-244,205	-200,000	0,027	-0,090
-243,190	-200,000	0,020	0,178
-242,176	800,000	0,023	0,051
-241,161	-150,132	0,019	0,001
-240,146	-200,000	0,002	-0,072
-239,132	-116,431	-0,033	-0,004
-238,117	-27,668	0,145	-0,061
-237,103	-72,291	-0,105	0,028
-236,088	443,390	-0,083	-0,134
-235,073	-31,973	-0,040	-0,016
-234,059	-116,656	-0,088	-0,012
-233,044	-44,928	0,078	-0,028
-232,030	-97,036	-0,050	-0,009
-231,015	-200,000	0,001	0,073
-230,000	-200,000	-0,017	-0,105
-228,986	800,000	-0,043	-0,096
-227,971	-200,000	-0,003	-0,066
-226,957	-13,731	0,107	0,050
-225,942	-200,000	0,008	-0,123
-224,927	800,000	0,044	-0,091
-223,913	-200,000	0,015	-0,056
-222,898	800,000	-0,026	0,069
-221,884	-148,655	0,137	0,008
-220,869	-200,000	0,027	0,000
-219,855	-200,000	0,003	0,050
-218,840	-200,000	-0,001	0,089
-217,825	84,171	-0,100	0,080
-216,811	800,000	-0,022	-0,048
-215,796	-57,092	-0,183	-0,058
-214,782	-103,662	0,063	-0,011
-213,767	800,000	0,077	0,195
-212,752	169,024	-0,035	0,037
-211,738	800,000	-0,061	0,141
-210,723	225,632	-0,079	0,093
-209,709	52,974	-0,040	0,028
-208,694	-54,921	-0,074	0,024
-207,679	42,563	-0,061	0,040
-206,665	154,030	-0,086	-0,086
-205,650	-71,816	-0,058	0,016
-204,636	-200,000	-0,010	0,088
-203,621	220,462	0,041	0,048
-202,606	-2,250	-0,061	0,031
-201,592	-86,794	0,174	0,038
-200,577	88,515	-0,127	0,103
-199,563	-16,737	0,134	-0,061
-198,548	37,514	0,061	0,040
-197,533	181,855	0,095	-0,102
-196,519	-32,766	-0,092	-0,037
-195,504	-93,504	-0,125	0,025
-194,490	2,145	0,077	-0,040
-193,475	3,672	0,082	0,043
-192,460	800,000	0,048	0,101
-191,446	102,411	-0,029	-0,025
-190,431	-200,000	-0,002	-0,067
-189,417	176,146	-0,089	-0,094
-188,402	1,715	-0,065	-0,034
-187,387	-200,000	-0,003	-0,114
-186,373	500,487	0,083	-0,141
-185,358	76,167	-0,099	0,077
-184,344	543,701	-0,007	-0,013
-183,329	-200,000	0,002	0,112
-182,315	800,000	0,035	0,076
-181,300	-200,000	-0,007	-0,084
-180,285	212,514	0,055	-0,064
-179,271	254,665	0,029	-0,036
-178,256	-67,188	-0,101	0,029
-177,242	-72,689	0,088	-0,023
-176,227	136,694	-0,102	0,097
-175,212	-200,000	0,011	0,038
-174,198	337,399	-0,022	0,031
-173,183	-5,692	0,110	-0,055
-172,169	80,072	-0,040	-0,031
-171,154	800,000	-0,037	0,084
-170,139	-200,000	0,045	0,149
-169,125	-200,000	0,032	0,102
-168,110	-200,000	0,011	-0,044
-167,096	-200,000	0,027	0,122
-166,081	705,599	-0,080	-0,155
-165,066	299,902	-0,110	-0,148
-164,052	341,054	-0,066	-0,094
-163,037	-114,775	0,146	-0,020
-162,023	46,003	-0,119	-0,080
-161,008	-200,000	0,001	0,071
-159,993	-53,098	0,151	0,050
-158,979	800,000	-0,036	-0,076
-157,964	-101,360	-0,073	-0,013
-156,950	-200,000	-0,009	0,048
-155,935	-138,577	-0,032	-0,003
-154,920	334,913	0,064	-0,090
-153,906	-200,000	-0,007	0,240
-152,891	-200,000	0,018	0,098
-151,877	761,702	0,064	0,128
-150,862	-37,530	0,071	0,027
-149,847	-200,000	0,014	-0,121
-148,833	30,503	-0,069	0,043
-147,818	-95,632	0,116	0,022
-146,804	111,127	-0,073	0,064
-145,789	-200,000	0,008	0,115
-144,775	-157,475	-0,059	0,003
-143,760	139,824	0,097	-0,093
-142,745	-200,000	-0,002	-0,046
-141,731	-110,655	-0,030	-0,004
-140,716	151,632	0,115	-0,114
-139,702	3,368	0,061	0,032
-138,687	-32,006	0,050	-0,020
-137,672	-167,910	-0,155	-0,004
-136,658	-200,000	0,011	0,057
-135,643	-17,534	-0,167	-0,076
-134,629	-154,403	0,051	0,002
-133,614	56,062	0,070	-0,049
-132,599	705,396	0,074	0,143
-131,585	-200,000	0,022	0,074
-130,570	800,000	-0,017	-0,043
-129,556	206,217	0,065	-0,074
-128,541	-20,658	-0,087	-0,039
-127,526	-148,882	-0,105	-0,006
-126,512	-200,000	0,015	-0,079
-125,497	800,000	-0,034	0,081
-124,483	223,815	-0,076	0,089
-123,468	800,000	-0,076	0,171
-122,453	-200,000	-0,013	0,092
-121,439	-200,000	0,022	-0,209
-120,424	207,577	-0,107	-0,122
