DTS Sentinel unit serial number:	SN410029Multiplexer serial number:	ORYXHardware model number:	OX2-SRSoftware version number:	ORYX F/W v4,00 Oryx Data Collector v3.7.2.0data status	okinstallation	B6 Nyhavnadifferential loss correction	single-endedforward channel	channel 2reverse channel	N/Adate	2023/12/10time	08:45:08forward acquisition time	300,00reverse acquisition time	0,00gamma	499,1914k internal	0,3123k external	0,3123temperature offset calibration	1,0000default loss term (dB/km)	0,3820temperature slope calibration	1,0000multiplexer offset coefficient	1,0000multiplexer slope coefficient	1,0000fibre end	0,00T internal ref (°C)	22,57T ext. ref 1 (°C)	6,30T ext. ref 2 (°C)	6,32length (m)	temperature (°C)	Stokes	anti-Stokes-744,400	-121,130	0,164	-0,020
-743,385	-50,780	-0,106	0,037
-742,371	45,794	0,106	-0,073
-741,356	150,235	-0,197	0,200
-740,342	-86,811	0,123	-0,028
-739,327	58,550	-0,173	0,126
-738,312	-13,935	0,128	0,061
-737,298	-44,787	-0,337	0,125
-736,283	133,324	0,113	-0,109
-735,269	-125,391	-0,229	0,026
-734,254	-82,015	0,051	-0,012
-733,239	-76,569	-0,378	-0,098
-732,225	800,000	0,042	0,093
-731,210	800,000	-0,074	0,169
-730,196	115,764	-0,067	0,061
-729,181	800,000	0,028	0,065
-728,167	92,647	0,048	0,040
-727,152	-16,609	0,040	0,019
-726,137	-70,010	-0,108	-0,031
-725,123	0,978	0,095	-0,051
-724,108	168,427	-0,133	-0,141
-723,094	-200,000	-0,055	-0,221
-722,079	-114,890	-0,062	-0,009
-721,064	772,350	-0,047	0,097
-720,050	-93,974	0,087	-0,018
-719,035	-97,867	-0,166	-0,032
-718,021	-200,000	0,001	-0,005
-717,006	94,524	-0,062	-0,052
-715,991	250,993	-0,071	-0,090
-714,977	-93,659	0,070	-0,014
-713,962	157,457	-0,066	0,068
-712,948	-200,000	-0,004	-0,036
-711,933	-145,775	0,038	0,002
-710,918	-85,577	-0,071	0,016
-709,904	-39,630	-0,097	0,038
-708,889	-116,732	-0,062	-0,008
-707,875	800,000	0,054	-0,147
-706,860	461,593	-0,035	0,058
-705,845	141,369	-0,036	0,036
-704,831	-200,000	0,009	-0,112
-703,816	800,000	0,032	-0,086
-702,802	-200,000	0,019	0,071
-701,787	143,796	-0,152	-0,150
-700,772	-200,000	0,010	-0,038
-699,758	-200,000	0,018	0,062
-698,743	40,490	0,020	0,013
-697,729	-200,000	-0,017	0,124
-696,714	-200,000	-0,009	0,107
-695,699	-200,000	-0,004	-0,153
-694,685	800,000	-0,036	-0,084
-693,670	169,877	0,063	-0,067
-692,656	-47,253	0,022	-0,008
-691,641	126,889	0,034	-0,032
-690,627	-181,820	0,038	0,001
-689,612	-151,067	0,167	0,009
-688,597	101,042	0,017	-0,015
-687,583	131,482	0,089	-0,085
-686,568	294,085	0,025	0,034
-685,554	-15,941	-0,108	0,051
-684,539	-200,000	0,045	0,151
-683,524	-200,000	0,020	-0,107
-682,510	-200,000	-0,017	-0,069
-681,495	81,210	-0,060	-0,048
-680,481	-200,000	0,000	-0,106
-679,466	-58,610	-0,055	-0,017
-678,451	250,060	-0,064	0,081
-677,437	741,820	-0,051	-0,103
-676,422	738,602	0,062	0,123
-675,408	57,180	-0,125	-0,090
-674,393	800,000	-0,013	-0,030
-673,378	206,295	0,056	-0,065
-672,364	87,401	-0,027	-0,022
-671,349	155,347	-0,047	-0,048
-670,335	-200,000	0,016	0,064
-669,320	335,748	-0,036	-0,052
-668,305	800,000	-0,027	-0,058
-667,291	-200,000	-0,019	-0,077
-666,276	-104,476	-0,150	-0,025
-665,262	439,781	-0,044	0,072
-664,247	-16,933	-0,191	-0,089
-663,232	251,383	0,029	0,036
-662,218	134,211	0,078	0,075
-661,203	-27,665	-0,142	-0,061
-660,189	800,000	-0,032	-0,079
-659,174	-28,633	-0,085	-0,036
-658,159	79,027	0,126	-0,100
-657,145	182,796	-0,093	-0,102
-656,130	-2,452	0,065	0,034
-655,116	-200,000	0,019	-0,133
-654,101	30,330	-0,089	0,056
-653,086	453,944	-0,049	-0,080
-652,072	800,000	0,001	-0,002
-651,057	-200,000	0,015	-0,102
-650,043	-200,000	0,003	0,072
-649,028	51,060	-0,044	0,031
-648,014	800,000	0,032	-0,071
-646,999	82,119	0,042	-0,034
-645,984	722,094	-0,054	-0,108
-644,970	-129,732	-0,150	-0,015
-643,955	226,967	0,054	-0,065
-642,941	238,559	0,070	-0,086
-641,926	313,033	0,032	-0,045
-640,911	18,281	-0,104	0,062
-639,897	790,890	0,033	-0,068
-638,882	-23,651	0,035	0,015
-637,868	278,630	-0,087	0,116
-636,853	58,147	-0,044	0,032
-635,838	23,231	-0,040	-0,024
-634,824	250,374	-0,093	0,118
-633,809	73,913	-0,062	-0,049
-632,795	-200,000	-0,026	0,087
-631,780	36,462	0,040	0,026
-630,765	-80,922	-0,094	-0,023
-629,751	95,980	-0,187	-0,158
-628,736	24,294	-0,111	-0,068
-627,722	239,027	0,019	0,024
-626,707	26,055	0,066	0,041
-625,692	800,000	0,043	-0,094
-624,678	-88,527	0,024	-0,005
-623,663	-150,042	-0,059	0,003
-622,649	224,899	-0,066	0,079
-621,634	-38,840	-0,115	-0,045
-620,619	-8,467	-0,045	-0,022
-619,605	144,446	-0,069	0,069
-618,590	-51,593	-0,027	0,009
-617,576	7,984	-0,069	-0,038
-616,561	-200,000	0,005	0,226
-615,546	110,624	-0,103	0,091
-614,532	-200,000	0,012	-0,139
-613,517	-200,000	-0,004	-0,096
-612,503	10,183	0,142	-0,080
-611,488	-200,000	-0,018	-0,061
-610,474	800,000	-0,029	0,088
-609,459	253,623	-0,043	0,054
-608,444	478,869	0,048	-0,081
-607,430	800,000	-0,023	-0,068
-606,415	-200,000	-0,020	-0,178
-605,401	800,000	0,022	-0,057
-604,386	125,086	0,038	-0,036
-603,371	-200,000	0,005	0,086
-602,357	31,013	0,051	-0,032
-601,342	-101,819	-0,085	0,015
-600,328	64,952	-0,035	-0,026
-599,313	-200,000	0,000	0,078
-598,298	187,665	0,034	0,037
-597,284	14,613	0,141	0,081
-596,269	-38,673	0,068	0,026
-595,255	291,558	-0,079	-0,106
-594,240	-78,340	0,018	0,004
-593,225	765,817	-0,049	-0,099
-592,211	-34,756	-0,036	0,014
-591,196	800,000	0,028	0,084
-590,182	207,121	-0,037	0,043
-589,167	94,631	-0,050	-0,042
-588,152	800,000	0,040	-0,104
-587,138	44,781	-0,086	-0,058
-586,123	47,541	-0,098	-0,068
-585,109	633,274	-0,047	-0,088
-584,094	-26,280	-0,025	0,011
-583,079	326,029	0,041	-0,059
-582,065	800,000	0,012	0,025
-581,050	22,667	-0,075	-0,046
-580,036	-120,316	-0,076	0,009
-579,021	-171,022	-0,092	-0,002
-578,006	252,054	-0,043	-0,054
-576,992	728,148	0,028	0,056
-575,977	-196,055	-0,066	-0,000
-574,963	64,957	-0,038	0,029
-573,948	-57,270	0,116	-0,038
-572,934	252,951	0,087	-0,110
-571,919	800,000	0,018	-0,053
-570,904	315,387	-0,021	0,030
-569,890	-60,828	-0,109	-0,034
-568,875	39,738	0,081	-0,054
-567,861	7,785	0,158	0,087
-566,846	-132,998	-0,084	-0,008
-565,831	418,548	0,022	-0,036
-564,817	163,978	-0,078	0,082
-563,802	-200,000	-0,001	-0,017
-562,788	-162,649	0,043	-0,002
-561,773	-200,000	-0,003	-0,053
-560,758	-5,729	0,080	-0,040
-559,744	-200,000	-0,001	0,069
-558,729	-200,000	0,002	-0,032
-557,715	208,257	-0,111	0,128
-556,700	225,445	-0,020	0,024
-555,685	800,000	-0,033	-0,094
-554,671	383,252	-0,033	0,051
-553,656	800,000	0,068	0,180
-552,642	-105,151	0,055	-0,009
-551,627	129,223	0,022	-0,021
-550,612	-124,601	0,131	0,015
-549,598	-161,588	-0,070	-0,003
-548,583	502,783	-0,044	0,075
-547,569	800,000	-0,024	-0,053
-546,554	639,965	0,035	-0,066
-545,539	61,660	-0,152	-0,112
-544,525	800,000	0,036	0,089
-543,510	-200,000	-0,012	-0,057
-542,496	-84,439	-0,065	0,015
-541,481	62,629	0,102	0,075
-540,466	800,000	-0,020	-0,044
-539,452	1,221	0,171	-0,091
-538,437	-139,380	0,149	0,012
-537,423	-200,000	0,015	0,071
-536,408	-96,905	0,028	-0,005
-535,393	208,390	0,056	-0,065
-534,379	800,000	-0,067	-0,157
-533,364	-200,000	0,013	-0,042
-532,350	800,000	0,032	0,096
-531,335	243,836	-0,135	0,168
-530,321	82,951	0,033	-0,027
-529,306	-81,508	-0,148	0,036
-528,291	371,101	0,072	0,108
-527,277	800,000	0,043	0,130
-526,262	193,647	-0,059	-0,066
-525,248	214,494	-0,057	0,067
-524,233	-118,566	0,120	0,016
-523,218	800,000	0,053	0,159
-522,204	-8,448	-0,049	-0,024
-521,189	76,829	-0,025	-0,019
-520,175	148,587	-0,059	-0,059
-519,160	344,380	-0,064	-0,094
-518,145	124,995	0,071	0,066
-517,131	171,078	0,008	0,009
-516,116	-200,000	0,008	-0,058
-515,102	-200,000	0,024	-0,093
-514,087	-78,955	-0,077	-0,019
-513,072	-200,000	-0,004	0,040
-512,058	-120,973	-0,129	0,016
-511,043	-64,867	0,114	0,034
-510,029	544,575	-0,021	0,038
-509,014	256,697	0,047	0,060
-507,999	-132,453	-0,025	0,002
-506,985	800,000	-0,039	-0,093
-505,970	127,073	-0,057	-0,054
-504,956	293,569	-0,068	-0,092
-503,941	771,593	0,026	0,053
-502,926	444,938	0,073	-0,119
-501,912	175,906	-0,066	-0,071
-500,897	337,593	0,058	0,083
-499,883	133,600	-0,048	0,046
-498,868	683,138	-0,086	-0,166
-497,853	-97,752	-0,044	0,008
-496,839	363,311	-0,076	-0,113
-495,824	-39,885	-0,099	-0,038
-494,810	168,767	-0,025	0,026
-493,795	-200,000	0,025	0,151
-492,781	-165,015	-0,117	0,004
-491,766	-200,000	0,017	-0,058
-490,751	-51,494	-0,109	-0,037
-489,737	-109,326	-0,106	0,016
-488,722	2,862	0,079	-0,042
-487,708	400,239	0,062	-0,096
-486,693	-200,000	0,007	0,073
-485,678	-93,489	-0,196	0,040
-484,664	800,000	0,011	-0,034
-483,649	800,000	0,027	0,080
-482,635	42,773	0,066	-0,044
-481,620	-200,000	0,012	-0,173
-480,605	-20,975	0,036	0,016
-479,591	-200,000	0,024	0,101
-478,576	446,884	0,068	-0,111
-477,562	73,323	0,058	-0,045
-476,547	617,962	-0,060	0,111
-475,532	-143,253	-0,008	0,001
-474,518	-80,462	-0,065	0,016
-473,503	800,000	0,090	0,240
-472,489	800,000	-0,045	-0,123
-471,474	164,830	-0,055	-0,058
-470,459	209,828	-0,080	-0,093
-469,445	184,758	-0,095	-0,104
-468,430	120,644	0,129	-0,119
-467,416	447,897	0,060	-0,098
-466,401	-2,989	-0,075	0,038
-465,386	-200,000	-0,005	-0,192
-464,372	800,000	-0,027	-0,078
-463,357	16,824	0,050	-0,029
-462,343	574,017	0,040	-0,072
-461,328	179,432	-0,045	-0,048
-460,313	-50,749	-0,109	0,037
-459,299	-49,645	0,051	-0,018
-458,284	732,442	-0,026	-0,051
-457,270	250,065	0,076	-0,095
-456,255	-54,377	-0,020	-0,006
-455,241	-19,472	0,047	-0,021
-454,226	-96,923	-0,021	-0,004
-453,211	800,000	0,029	-0,067
-452,197	411,777	-0,022	-0,035
-451,182	800,000	0,047	0,109
-450,168	48,340	0,064	-0,044
-449,153	-145,419	-0,020	-0,001
-448,138	246,264	0,035	0,043
-447,124	672,585	0,035	-0,068
-446,109	60,316	-0,075	0,054
-445,095	126,270	-0,042	-0,040
-444,080	449,814	-0,055	-0,089
-443,065	30,323	0,119	-0,075
-442,051	-35,192	-0,076	0,030
-441,036	-200,000	0,016	-0,066
-440,022	-55,972	0,053	-0,017
-439,007	-28,108	0,042	0,018
-437,992	62,456	0,092	0,068
-436,978	225,500	0,061	0,073
-435,963	4,121	-0,090	0,048
-434,949	-63,049	-0,093	-0,028
-433,934	-125,109	0,061	-0,007
-432,919	-200,000	-0,011	0,043
-431,905	800,000	-0,021	-0,067
-430,890	224,601	-0,032	-0,038
-429,876	16,729	0,110	0,064
-428,861	-200,000	-0,000	0,119
-427,846	-9,278	-0,077	0,038
-426,832	72,240	-0,069	-0,053
-425,817	-1,143	-0,064	0,033
-424,803	168,113	0,046	-0,048
-423,788	-200,000	-0,004	0,025
-422,773	-200,000	0,015	-0,060
-421,759	-55,018	0,033	0,011
-420,744	-18,120	-0,055	0,025
-419,730	189,376	-0,058	0,064
-418,715	-168,635	-0,138	0,004
-417,701	69,609	-0,049	0,037
-416,686	-46,570	0,090	-0,032
-415,671	14,521	0,145	0,083
-414,657	-200,000	-0,006	0,036
-413,642	-200,000	-0,000	0,011
-412,628	264,338	-0,013	-0,016
-411,613	-200,000	0,003	-0,051
-410,598	552,183	-0,033	0,059
-409,584	27,087	0,140	0,086
-408,569	423,400	0,082	0,130
-407,555	327,086	0,048	0,068
-406,540	-200,000	0,011	-0,058
-405,525	-200,000	-0,005	0,088
-404,511	51,253	-0,017	0,012
-403,496	-200,000	-0,024	-0,148
-402,482	583,195	-0,025	-0,045
-401,467	-200,000	0,001	0,012
-400,452	57,616	0,055	-0,040
-399,438	-200,000	-0,031	-0,121
-398,423	36,377	-0,084	-0,054
-397,409	142,375	0,066	0,064
-396,394	-9,606	-0,031	-0,015
-395,379	-97,825	0,096	-0,018
-394,365	-75,110	-0,007	0,002
-393,350	392,119	-0,088	0,135
-392,336	-135,852	0,102	-0,009
-391,321	-68,443	-0,066	0,019
-390,306	800,000	0,039	-0,093
-389,292	440,901	0,024	0,039
-388,277	-78,481	0,161	-0,040
-387,263	51,884	0,026	0,018
-386,248	118,005	-0,011	0,010
-385,233	102,115	0,069	-0,060
-384,219	-200,000	-0,020	-0,069
-383,204	110,618	0,053	-0,047
-382,190	571,443	-0,025	0,045
-381,175	800,000	-0,022	0,064
-380,160	526,022	0,056	0,098
-379,146	16,754	0,058	0,034
-378,131	-200,000	-0,018	0,076
-377,117	737,163	0,065	-0,128
-376,102	800,000	0,002	0,008
-375,088	54,706	-0,138	-0,098
-374,073	800,000	-0,048	0,129
-373,058	-84,322	-0,090	-0,021
-372,044	-200,000	-0,028	0,187
-371,029	-200,000	-0,021	-0,122
-370,015	405,865	0,106	-0,165
-369,000	-8,723	-0,112	-0,055
-367,985	-200,000	-0,007	-0,048
-366,971	-26,745	-0,032	-0,014
-365,956	-200,000	-0,008	-0,033
-364,942	405,639	-0,062	0,097
-363,927	177,945	0,103	0,110
-362,912	-200,000	-0,012	0,044
-361,898	289,210	0,059	-0,078
-360,883	141,741	-0,007	-0,007
-359,869	272,356	-0,032	0,041
-358,854	146,693	-0,058	0,057
-357,839	741,013	-0,032	0,064
-356,825	30,296	-0,031	0,019
-355,810	10,545	-0,030	0,017
-354,796	-103,468	0,129	-0,022
-353,781	-200,000	-0,014	-0,062
-352,766	-41,906	-0,051	-0,019
-351,752	-145,669	0,084	-0,005
-350,737	531,070	-0,004	-0,008
-349,723	712,570	0,010	-0,020
-348,708	-137,058	-0,025	0,002
-347,693	800,000	0,026	-0,072
-346,679	-200,000	-0,011	0,057
-345,664	405,005	-0,055	-0,085
-344,650	-200,000	0,031	-0,144
-343,635	80,135	0,091	-0,072
-342,620	4,167	0,057	0,031
-341,606	800,000	0,019	0,056
-340,591	-57,595	0,091	0,029
-339,577	800,000	0,045	0,110
-338,562	-154,847	0,120	-0,006
-337,548	99,388	-0,079	0,067
-336,533	-121,894	-0,161	0,019
-335,518	-46,756	-0,100	0,036
-334,504	-200,000	0,043	0,230
-333,489	284,740	0,056	-0,074
-332,475	20,308	-0,107	0,063
-331,460	304,807	-0,018	-0,025
-330,445	382,434	-0,065	-0,098
-329,431	258,261	-0,011	0,013
-328,416	109,511	0,082	-0,072
-327,402	-200,000	-0,009	0,224
-326,387	39,411	-0,068	0,044
-325,372	-200,000	0,006	0,046
-324,358	-200,000	-0,038	-0,146
-323,343	-154,284	0,060	-0,003
-322,329	800,000	-0,031	-0,083
-321,314	262,300	0,053	-0,068
-320,299	-85,703	-0,134	-0,030
-319,285	43,388	0,092	0,062
-318,270	-88,976	0,089	-0,019
-317,256	39,786	-0,074	0,048
-316,241	62,819	0,051	-0,038
-315,226	-32,453	0,128	0,052
-314,212	447,996	-0,040	-0,064
-313,197	-95,884	0,074	0,014
-312,183	61,420	0,075	-0,054
-311,168	800,000	-0,011	-0,029
-310,153	-76,711	-0,011	0,003
-309,139	374,586	0,057	0,085
-308,124	222,446	0,054	-0,064
-307,110	-200,000	0,004	0,177
-306,095	-53,812	0,116	0,039
-305,080	-200,000	0,016	0,073
-304,066	240,231	-0,059	-0,072
-303,051	101,938	-0,018	-0,016
-302,037	-200,000	0,015	0,106
-301,022	101,565	0,092	0,079
-300,008	159,429	-0,022	0,023
-298,993	-200,000	-0,013	0,093
-297,978	-78,612	-0,093	0,023
-296,964	-200,000	-0,010	0,038
-295,949	763,479	-0,036	0,072
-294,935	312,990	0,039	-0,054
-293,920	508,685	0,063	0,108
-292,905	-101,503	-0,005	-0,001
-291,891	-200,000	0,003	0,043
-290,876	5,380	0,106	0,057
-289,862	140,157	-0,054	0,052
-288,847	-119,139	-0,090	0,011
-287,832	-114,139	0,123	-0,017
-286,818	-75,602	-0,077	-0,020
-285,803	50,937	0,036	0,025
-284,789	-60,666	0,100	-0,031
-283,774	-200,000	-0,007	-0,076
-282,759	800,000	0,012	-0,033
-281,745	415,685	0,058	-0,090
-280,730	-200,000	-0,019	0,072
-279,716	800,000	0,048	-0,153
-278,701	-200,000	0,004	0,020
-277,686	249,295	-0,024	0,030
-276,672	-178,519	0,058	0,001
-275,657	-200,000	-0,034	-0,139
-274,643	800,000	0,042	-0,109
-273,628	134,810	-0,119	-0,113
-272,613	-51,703	0,078	0,026
-271,599	-200,000	0,005	-0,111
-270,584	-200,000	0,013	-0,082
-269,570	16,340	0,104	-0,060
-268,555	-106,225	0,037	-0,006
-267,540	86,608	0,055	0,045
-266,526	-200,000	-0,021	0,086
-265,511	36,247	-0,011	-0,007
-264,497	-130,478	0,192	0,019
-263,482	-61,329	0,072	0,022
-262,467	800,000	0,019	0,057
-261,453	-84,963	0,108	-0,025
-260,438	95,449	-0,118	-0,098
-259,424	-10,499	-0,028	0,013
-258,409	800,000	-0,013	0,041
-257,395	-200,000	-0,018	0,075
-256,380	52,234	-0,062	-0,043
-255,365	29,514	0,038	0,024
-254,351	-27,119	0,099	-0,042
-253,336	-5,865	-0,029	-0,014
-252,322	-34,070	-0,158	-0,063
-251,307	232,977	0,083	0,100
-250,292	90,405	-0,039	-0,032
-249,278	175,083	0,088	0,093
-248,263	800,000	-0,012	-0,033
-247,249	800,000	0,036	0,088
-246,234	-89,326	-0,043	0,009
-245,219	-39,449	-0,089	0,034
-244,205	123,070	0,082	0,075
-243,190	-21,117	-0,091	-0,041
-242,176	275,044	0,055	-0,072
-241,161	732,524	0,062	0,122
-240,146	-65,543	0,064	-0,019
-239,132	-91,962	0,034	-0,007
-238,117	710,429	-0,008	0,016
-237,103	800,000	-0,005	0,014
-236,088	-109,350	-0,040	0,006
-235,073	181,858	0,080	-0,086
-234,059	57,940	0,051	0,036
-233,044	157,866	0,032	-0,032
-232,030	-200,000	-0,007	-0,105
-231,015	92,844	-0,042	0,035
-230,000	193,056	-0,062	-0,068
-228,986	-27,179	-0,071	-0,030
-227,971	-104,193	0,053	-0,009
-226,957	23,455	0,090	0,054
-225,942	-200,000	-0,020	0,085
-224,927	49,097	-0,095	-0,065
-223,913	-200,000	0,003	-0,071
-222,898	-200,000	0,012	-0,069
-221,884	-107,515	0,030	-0,005
-220,869	8,342	0,125	-0,069
-219,855	-38,858	-0,159	0,061
-218,840	800,000	-0,050	0,106
-217,825	109,422	-0,011	0,010
-216,811	-161,411	-0,085	-0,003
-215,796	-130,471	0,016	-0,002
-214,782	800,000	-0,036	-0,098
-213,767	-200,000	-0,001	-0,022
-212,752	274,915	-0,061	0,079
-211,738	-200,000	-0,003	-0,028
-210,723	105,256	0,031	-0,027
-209,709	14,618	-0,076	0,043
-208,694	-200,000	0,008	-0,058
-207,679	375,504	0,053	0,079
-206,665	800,000	0,032	-0,084
-205,650	277,355	-0,026	0,034
-204,636	85,900	0,098	0,079
-203,621	17,274	0,085	-0,049
-202,606	-200,000	0,034	0,146
-201,592	-30,676	-0,055	0,022
-200,577	60,495	-0,064	-0,046
-199,563	270,800	0,011	-0,014
-198,548	-200,000	-0,009	0,180
-197,533	-3,613	0,035	0,018
-196,519	800,000	0,039	-0,094
-195,504	800,000	0,070	0,158
-194,490	-149,727	0,111	-0,006
-193,475	-200,000	-0,007	0,027
-192,460	130,859	0,088	0,083
-191,446	800,000	-0,033	-0,089
-190,431	116,164	0,154	0,138
-189,417	132,080	-0,057	0,053
-188,402	318,175	-0,018	-0,025
-187,387	-155,472	-0,079	-0,004
-186,373	800,000	0,060	-0,162
-185,358	800,000	0,037	0,109
-184,344	256,670	0,063	0,079
-183,329	110,050	0,048	0,042
-182,315	-200,000	-0,014	0,061
-181,300	-200,000	0,018	-0,079
-180,285	800,000	0,045	0,138
-179,271	131,107	0,182	0,171
-178,256	354,405	0,035	-0,051
-177,242	491,203	0,039	0,066
-176,227	-172,014	0,084	0,002
-175,212	139,078	-0,091	0,088
-174,198	28,935	-0,067	0,041
-173,183	-74,887	-0,020	0,005
-172,169	167,274	-0,054	0,056
-171,154	-30,857	0,127	0,052
-170,139	-200,000	-0,004	-0,042
-169,125	413,943	-0,035	-0,054
-168,110	-200,000	0,020	0,255
-167,096	-200,000	0,024	0,168
-166,081	-68,991	-0,032	0,009
-165,066	-160,520	-0,068	0,003
-164,052	800,000	0,026	0,074
-163,037	167,043	-0,044	0,045
-162,023	-157,297	-0,077	0,003
-161,008	800,000	-0,052	0,111
-159,993	-80,540	0,076	0,018
-158,979	2,005	-0,112	-0,059
-157,964	-200,000	-0,002	0,107
-156,950	-8,209	-0,046	-0,022
-155,935	-200,000	-0,017	-0,078
-154,920	800,000	0,052	-0,148
-153,906	-56,370	0,040	-0,013
-152,891	800,000	-0,005	0,011
-151,877	-200,000	-0,014	-0,069
-150,862	-200,000	-0,013	0,090
-149,847	123,018	-0,066	-0,060
-148,833	121,302	-0,068	-0,062
-147,818	-67,437	0,153	-0,044
-146,804	-103,627	0,029	-0,005
-145,789	117,192	0,103	0,092
-144,775	-124,538	0,131	-0,015
-143,760	-57,821	-0,080	-0,025
-142,745	379,100	0,058	0,087
-141,731	-89,954	0,047	-0,010
-140,716	488,884	-0,041	0,068
-139,702	-132,392	-0,064	0,006
-138,687	351,509	0,032	0,046
-137,672	-200,000	0,000	0,052
-136,658	-78,313	-0,091	0,022
-135,643	-44,838	0,024	0,009
-134,629	-118,629	-0,110	0,014
-133,614	525,827	0,068	0,117
-132,599	-74,883	0,151	-0,039
-131,585	-200,000	-0,003	0,089
-130,570	-89,265	-0,098	0,021
-129,556	-137,836	0,120	-0,010
-128,541	-166,125	-0,100	-0,003
-127,526	62,690	-0,107	-0,077
-126,512	-78,729	-0,092	0,023
-125,497	800,000	-0,038	-0,100
-124,483	-33,544	-0,047	-0,019
-123,468	-0,312	-0,011	0,005
-122,453	800,000	-0,028	-0,069
-121,439	-200,000	0,010	-0,112
-120,424	-200,000	0,002	-0,110
-119,410	92,442	0,126	0,103
-118,395	155,507	0,038	-0,038
