DTS Sentinel unit serial number:	SN410029Multiplexer serial number:	ORYXHardware model number:	OX2-SRSoftware version number:	ORYX F/W v4,00 Oryx Data Collector v3.7.2.0data status	okinstallation	B6 Nyhavnadifferential loss correction	single-endedforward channel	channel 2reverse channel	N/Adate	2023/12/07time	13:20:08forward acquisition time	300,00reverse acquisition time	0,00gamma	499,1914k internal	0,3203k external	0,3203temperature offset calibration	1,0000default loss term (dB/km)	0,3820temperature slope calibration	1,0000multiplexer offset coefficient	1,0000multiplexer slope coefficient	1,0000fibre end	0,00T internal ref (°C)	11,77T ext. ref 1 (°C)	-1,78T ext. ref 2 (°C)	-1,78length (m)	temperature (°C)	Stokes	anti-Stokes-744,400	63,261	0,082	0,060
-743,385	-41,841	-0,213	-0,079
-742,371	-49,310	0,137	0,047
-741,356	-98,306	-0,339	-0,063
-740,342	-22,374	0,111	0,049
-739,327	-93,798	-0,265	-0,052
-738,312	-98,517	-0,095	0,018
-737,298	-61,613	-0,384	-0,116
-736,283	119,081	0,084	0,076
-735,269	-138,211	-0,283	0,022
-734,254	800,000	0,033	0,069
-733,239	-49,233	-0,581	-0,201
-732,225	352,554	0,095	0,137
-731,210	-200,000	-0,006	0,097
-730,196	-200,000	-0,005	0,061
-729,181	63,036	-0,132	-0,096
-728,167	-108,931	0,069	0,011
-727,152	800,000	-0,049	-0,148
-726,137	-200,000	0,043	-0,161
-725,123	800,000	-0,080	-0,204
-724,108	142,483	-0,092	0,089
-723,094	-200,000	0,000	-0,011
-722,079	-196,661	-0,060	-0,000
-721,064	-200,000	0,017	0,067
-720,050	-33,977	-0,132	0,052
-719,035	416,478	0,058	-0,091
-718,021	-200,000	0,002	0,014
-717,006	179,816	-0,102	-0,108
-715,991	157,648	-0,176	-0,177
-714,977	-96,387	0,139	-0,026
-713,962	-91,507	-0,088	-0,018
-712,948	-200,000	-0,015	0,081
-711,933	-148,481	-0,108	-0,006
-710,918	-146,531	0,022	0,001
-709,904	-200,000	-0,021	-0,145
-708,889	354,632	-0,113	-0,164
-707,875	39,037	0,063	-0,041
-706,860	95,675	-0,021	-0,017
-705,845	-200,000	-0,148	-0,000
-704,831	246,557	0,106	0,130
-703,816	-31,112	-0,047	-0,019
-702,802	-200,000	-0,027	-0,123
-701,787	-200,000	-0,026	-0,127
-700,772	-146,298	-0,119	0,007
-699,758	24,690	-0,049	-0,029
-698,743	-200,000	0,009	0,053
-697,729	-200,000	-0,013	0,059
-696,714	0,976	0,050	-0,026
-695,699	-92,283	-0,091	0,018
-694,685	800,000	0,003	0,008
-693,670	-200,000	0,005	-0,115
-692,656	-118,595	-0,078	0,010
-691,641	357,263	0,080	-0,116
-690,627	410,213	-0,037	-0,057
-689,612	285,328	0,058	-0,077
-688,597	-71,791	-0,094	0,025
-687,583	-200,000	-0,005	0,037
-686,568	13,555	-0,094	-0,053
-685,554	-200,000	-0,014	-0,115
-684,539	-200,000	0,025	-0,125
-683,524	-1,390	0,225	0,115
-682,510	23,329	-0,143	-0,085
-681,495	85,043	-0,101	-0,081
-680,481	-200,000	-0,051	-0,166
-679,466	-3,999	-0,044	-0,022
-678,451	-94,689	-0,065	-0,013
-677,437	-200,000	-0,036	-0,127
-676,422	-88,611	-0,099	-0,021
-675,408	-200,000	-0,007	-0,066
-674,393	-64,235	0,113	-0,033
-673,378	-101,087	-0,172	0,030
-672,364	613,190	-0,044	-0,081
-671,349	135,594	-0,117	0,110
-670,335	741,282	-0,057	-0,111
-669,320	39,632	0,079	-0,051
-668,305	-157,208	-0,077	0,003
-667,291	-200,000	0,003	0,011
-666,276	-12,069	-0,143	-0,068
-665,262	-200,000	0,009	-0,069
-664,247	800,000	-0,074	-0,197
-663,232	20,913	-0,039	0,023
-662,218	-34,488	-0,064	0,025
-661,203	594,385	-0,016	-0,028
-660,189	105,210	0,130	0,111
-659,174	-200,000	-0,109	0,000
-658,159	-48,208	-0,034	-0,012
-657,145	-31,693	0,138	0,056
-656,130	156,281	0,050	-0,050
-655,116	126,776	-0,125	0,115
-654,101	524,671	-0,033	0,057
-653,086	227,011	-0,102	-0,120
-652,072	292,756	0,032	-0,043
-651,057	800,000	-0,010	0,033
-650,043	12,708	-0,111	-0,062
-649,028	160,230	0,132	-0,134
-648,014	800,000	0,042	-0,103
-646,999	-200,000	0,003	0,036
-645,984	-200,000	-0,025	0,096
-644,970	-200,000	-0,031	-0,152
-643,955	-58,265	0,037	0,011
-642,941	-200,000	-0,019	-0,216
-641,926	267,302	0,059	0,075
-640,911	-200,000	0,008	0,048
-639,897	-59,272	-0,106	0,033
-638,882	-134,298	0,068	-0,006
-637,868	-96,249	-0,135	-0,026
-636,853	-93,393	0,049	-0,010
-635,838	-155,517	-0,037	0,002
-634,824	2,002	-0,058	0,030
-633,809	183,679	0,042	-0,045
-632,795	-115,601	-0,068	-0,009
-631,780	-200,000	0,002	0,102
-630,765	218,979	0,027	-0,031
-629,751	97,598	-0,010	-0,008
-628,736	-67,877	-0,062	0,018
-627,722	262,062	0,062	0,078
-626,707	-200,000	0,014	0,121
-625,692	290,853	-0,030	-0,040
-624,678	-200,000	0,017	0,069
-623,663	-200,000	-0,007	0,028
-622,649	-200,000	0,004	0,019
-621,634	-6,017	-0,151	-0,074
-620,619	-108,889	-0,118	-0,018
-619,605	223,914	0,009	-0,010
-618,590	187,748	0,029	-0,032
-617,576	365,467	0,020	0,029
-616,561	800,000	-0,019	0,051
-615,546	143,910	-0,074	0,071
-614,532	-190,915	-0,123	0,001
-613,517	67,019	0,063	-0,046
-612,503	-200,000	-0,015	-0,095
-611,488	167,551	-0,075	0,077
-610,474	-21,578	-0,092	0,040
-609,459	-110,385	-0,058	-0,009
-608,444	105,602	-0,060	-0,051
-607,430	209,811	0,030	-0,034
-606,415	129,304	0,146	0,134
-605,401	91,845	0,083	0,068
-604,386	-200,000	0,042	0,171
-603,371	-19,898	0,050	0,022
-602,357	800,000	-0,038	0,110
-601,342	317,834	-0,075	0,103
-600,328	73,271	-0,057	0,043
-599,313	-200,000	-0,009	-0,073
-598,298	-200,000	0,016	-0,084
-597,284	800,000	0,029	-0,068
-596,269	-200,000	-0,005	0,162
-595,255	27,074	-0,006	0,004
-594,240	-200,000	0,033	-0,109
-593,225	413,981	-0,029	0,044
-592,211	800,000	-0,034	-0,079
-591,196	-200,000	0,026	0,158
-590,182	-200,000	0,035	-0,161
-589,167	604,039	0,036	-0,064
-588,152	-47,850	-0,031	0,011
-587,138	800,000	0,040	0,083
-586,123	-200,000	-0,054	-0,198
-585,109	-200,000	-0,024	-0,101
-584,094	800,000	-0,045	-0,116
-583,079	45,056	0,053	0,035
-582,065	28,723	0,013	-0,008
-581,050	-200,000	0,005	0,028
-580,036	-200,000	0,009	0,115
-579,021	-200,000	-0,034	-0,222
-578,006	-105,407	0,018	-0,003
-576,992	174,357	0,166	-0,173
-575,977	800,000	-0,033	-0,079
-574,963	-200,000	0,011	0,128
-573,948	94,337	-0,068	0,055
-572,934	800,000	-0,033	-0,100
-571,919	-129,183	-0,049	0,005
-570,904	760,313	-0,025	-0,050
-569,890	800,000	0,056	0,113
-568,875	-39,216	0,162	0,061
-567,861	69,378	0,053	0,039
-566,846	-62,906	0,058	-0,017
-565,831	478,032	0,015	0,024
-564,817	-200,000	-0,008	0,090
-563,802	800,000	-0,062	-0,172
-562,788	800,000	-0,058	-0,128
-561,773	130,605	-0,083	0,076
-560,758	112,638	0,096	0,084
-559,744	84,136	0,057	-0,045
-558,729	-200,000	-0,021	-0,101
-557,715	-200,000	-0,002	-0,031
-556,700	19,351	-0,155	-0,090
-555,685	-200,000	-0,013	0,139
-554,671	-10,914	0,068	-0,032
-553,656	297,357	0,090	0,119
-552,642	800,000	0,077	0,170
-551,627	467,921	-0,062	0,100
-550,612	-122,676	-0,083	-0,010
-549,598	800,000	-0,061	-0,147
-548,583	-59,523	0,089	0,028
-547,569	-200,000	0,010	-0,071
-546,554	70,912	-0,048	-0,036
-545,539	-58,582	0,116	0,036
-544,525	48,529	0,105	-0,071
-543,510	216,371	-0,033	-0,038
-542,496	230,056	0,048	-0,056
-541,481	789,004	-0,068	-0,135
-540,466	-200,000	-0,007	-0,049
-539,452	800,000	0,035	0,108
-538,437	-200,000	0,000	0,099
-537,423	80,370	0,050	0,039
-536,408	-200,000	-0,003	-0,027
-535,393	-0,342	-0,125	-0,064
-534,379	-200,000	-0,003	0,058
-533,364	800,000	0,007	-0,016
-532,350	-200,000	0,003	-0,036
-531,335	-61,338	0,095	-0,029
-530,321	800,000	-0,028	-0,081
-529,306	666,376	0,020	0,037
-528,291	-200,000	-0,014	-0,071
-527,277	-200,000	-0,001	-0,068
-526,262	21,382	0,101	-0,059
-525,248	-200,000	0,027	0,089
-524,233	128,915	-0,055	0,051
-523,218	-43,655	-0,086	0,031
-522,204	-200,000	-0,004	0,073
-521,189	14,789	-0,050	-0,028
-520,175	-25,332	-0,172	-0,073
-519,160	-200,000	-0,038	-0,125
-518,145	-200,000	0,003	0,125
-517,131	-163,876	-0,073	0,002
-516,116	-96,910	0,085	-0,016
-515,102	-200,000	0,035	0,125
-514,087	-38,829	-0,095	-0,036
-513,072	-200,000	0,014	-0,055
-512,058	161,198	-0,127	-0,128
-511,043	-200,000	0,029	0,123
-510,029	800,000	0,042	-0,085
-509,014	-4,606	0,005	-0,002
-507,999	-19,480	-0,034	0,015
-506,985	263,238	-0,081	-0,102
-505,970	161,124	0,031	-0,031
-504,956	448,695	0,036	-0,058
-503,941	800,000	0,046	-0,095
-502,926	800,000	0,061	0,138
-501,912	341,799	0,070	-0,099
-500,897	-40,238	0,204	-0,076
-499,883	-20,306	-0,124	0,055
-498,868	-45,510	-0,111	0,039
-497,853	-200,000	-0,003	-0,013
-496,839	91,755	0,071	-0,057
-495,824	-200,000	0,030	0,113
-494,810	-200,000	-0,025	-0,178
-493,795	-200,000	-0,009	0,132
-492,781	-31,666	0,097	0,039
-491,766	-200,000	0,024	-0,162
-490,751	23,282	0,077	-0,045
-489,737	565,861	-0,006	-0,011
-488,722	-123,005	0,048	-0,005
-487,708	-200,000	0,036	0,205
-486,693	-200,000	-0,006	0,051
-485,678	176,938	-0,108	0,113
-484,664	439,404	0,043	0,068
-483,649	-200,000	-0,003	0,034
-482,635	800,000	0,040	-0,115
-481,620	61,401	-0,021	0,015
-480,605	800,000	0,054	-0,158
-479,591	-11,780	0,086	0,041
-478,576	87,690	-0,111	0,088
-477,562	-200,000	0,011	0,074
-476,547	-56,392	-0,051	-0,016
-475,532	452,032	-0,045	-0,072
-474,518	3,212	-0,041	0,021
-473,503	222,125	0,140	0,162
-472,489	-200,000	0,000	0,086
-471,474	14,033	0,111	0,062
-470,459	-200,000	-0,003	0,051
-469,445	18,239	-0,207	0,118
-468,430	368,478	0,084	-0,122
-467,416	800,000	-0,022	-0,054
-466,401	58,099	0,055	-0,039
-465,386	800,000	-0,059	0,183
-464,372	405,763	0,030	0,045
-463,357	240,701	0,034	-0,041
-462,343	567,730	-0,074	-0,129
-461,328	218,428	-0,054	0,062
-460,313	-34,294	0,112	0,044
-459,299	800,000	0,058	0,126
-458,284	55,137	0,078	0,054
-457,270	-79,366	0,147	-0,035
-456,255	215,350	-0,117	-0,134
-455,241	376,529	0,015	-0,022
-454,226	-200,000	0,013	-0,116
-453,211	800,000	-0,013	0,035
-452,197	88,971	0,060	0,048
-451,182	603,367	0,071	-0,127
-450,168	-200,000	-0,026	-0,226
-449,153	114,906	0,017	0,015
-448,138	417,285	-0,052	-0,080
-447,124	-200,000	-0,019	-0,070
-446,109	355,173	0,033	-0,047
-445,095	-147,057	0,107	0,006
-444,080	-200,000	-0,025	0,116
-443,065	643,910	0,004	-0,007
-442,051	350,462	0,062	0,089
-441,036	-8,891	-0,076	-0,037
-440,022	-200,000	-0,001	-0,013
-439,007	70,416	-0,044	-0,033
-437,992	-200,000	-0,010	-0,186
-436,978	67,223	0,051	0,037
-435,963	50,524	-0,110	0,074
-434,949	233,418	-0,015	0,018
-433,934	207,153	0,082	0,092
-432,919	-15,941	-0,141	-0,064
-431,905	136,785	-0,136	0,128
-430,890	-2,577	0,064	-0,032
-429,876	80,912	0,065	-0,050
-428,861	192,239	0,032	-0,035
-427,846	-200,000	-0,005	-0,025
-426,832	-11,841	-0,036	-0,017
-425,817	-73,536	-0,141	-0,037
-424,803	284,404	-0,036	-0,047
-423,788	303,896	0,044	-0,059
-422,773	-200,000	-0,000	0,066
-421,759	-200,000	-0,019	0,063
-420,744	105,468	-0,013	-0,011
-419,730	800,000	0,056	-0,147
-418,715	-101,821	-0,041	0,007
-417,701	189,433	-0,052	0,056
-416,686	-200,000	0,000	-0,061
-415,671	-200,000	0,010	0,076
-414,657	-200,000	-0,020	-0,142
-413,642	-200,000	-0,023	-0,130
-412,628	-200,000	0,024	-0,082
-411,613	-200,000	-0,018	-0,099
-410,598	156,323	-0,033	-0,033
-409,584	285,665	-0,016	0,021
-408,569	800,000	0,030	0,077
-407,555	549,753	-0,081	0,140
-406,540	800,000	-0,010	-0,026
-405,525	230,777	-0,074	-0,087
-404,511	650,619	0,116	-0,213
-403,496	-200,000	-0,003	0,050
-402,482	-200,000	0,002	-0,045
-401,467	6,694	-0,103	-0,055
-400,452	800,000	0,061	0,154
-399,438	800,000	-0,027	0,080
-398,423	-156,935	-0,060	-0,003
-397,409	669,716	-0,022	0,041
-396,394	30,542	-0,101	0,062
-395,379	-137,987	0,059	0,005
-394,365	-16,964	0,107	-0,048
-393,350	-131,467	-0,083	0,008
-392,336	-77,792	0,148	-0,036
-391,321	-122,472	-0,061	0,007
-390,306	-167,856	-0,160	0,004
-389,292	800,000	-0,043	-0,099
-388,277	17,015	-0,032	-0,018
-387,263	800,000	0,038	0,116
-386,248	-123,733	-0,024	0,003
-385,233	-200,000	-0,016	-0,051
-384,219	58,060	-0,018	0,013
-383,204	134,593	-0,048	-0,044
-382,190	335,543	0,082	-0,114
-381,175	16,849	-0,104	0,059
-380,160	800,000	0,023	0,064
-379,146	-186,134	-0,142	0,001
-378,131	800,000	0,048	0,100
-377,117	-57,528	-0,020	-0,006
-376,102	694,723	0,036	-0,068
-375,088	228,711	0,038	0,044
-374,073	399,367	-0,021	-0,032
-373,058	72,589	0,042	0,031
-372,044	737,080	-0,007	-0,014
-371,029	-200,000	-0,004	0,057
-370,015	294,379	0,048	-0,063
-369,000	8,484	0,119	-0,064
-367,985	160,215	0,032	0,032
-366,971	-200,000	0,005	0,019
-365,956	21,510	0,035	0,020
-364,942	-151,058	-0,031	0,002
-363,927	-51,525	-0,058	0,019
-362,912	487,103	0,066	0,108
-361,898	80,968	0,104	0,080
-360,883	-84,125	-0,156	-0,035
-359,869	800,000	0,018	0,044
-358,854	8,314	-0,102	-0,054
-357,839	160,464	0,069	0,069
-356,825	169,557	-0,033	-0,034
-355,810	-200,000	0,000	-0,027
-354,796	-5,286	0,083	0,041
-353,781	445,137	0,070	-0,110
-352,766	-149,235	-0,141	0,008
-351,752	-92,680	-0,080	-0,016
-350,737	-9,819	0,068	0,032
-349,723	93,154	-0,052	0,042
-348,708	386,567	-0,030	0,044
-347,693	-172,119	-0,186	0,004
-346,679	-200,000	0,008	-0,059
-345,664	-125,325	0,027	0,003
-344,650	52,017	0,028	0,019
-343,635	-200,000	-0,011	-0,058
-342,620	-95,816	0,112	0,021
-341,606	81,088	-0,099	0,076
-340,591	569,590	-0,021	-0,037
-339,577	-61,091	0,032	-0,010
-338,562	-143,108	-0,080	-0,005
-337,548	-200,000	0,000	0,089
-336,533	56,522	-0,067	0,046
-335,518	25,176	0,101	-0,060
-334,504	33,711	-0,065	-0,040
-333,489	-45,537	-0,088	0,031
-332,475	-54,989	0,077	-0,025
-331,460	-15,185	-0,146	-0,067
-330,445	734,012	-0,018	0,034
-329,431	-149,475	-0,008	-0,000
-328,416	-58,762	0,189	-0,058
-327,402	-200,000	-0,032	0,140
-326,387	-53,810	0,201	0,065
-325,372	-200,000	-0,007	0,071
-324,358	-200,000	-0,017	-0,159
-323,343	-197,945	-0,049	0,000
-322,329	-200,000	0,004	-0,078
-321,314	182,286	0,057	0,060
-320,299	-200,000	0,009	0,080
-319,285	731,053	0,062	0,120
-318,270	-200,000	0,000	0,006
-317,256	10,108	-0,089	0,048
-316,241	800,000	0,030	0,072
-315,226	-62,043	0,089	-0,026
-314,212	800,000	0,060	0,141
-313,197	-200,000	0,021	0,134
-312,183	800,000	-0,050	0,116
-311,168	-113,310	-0,071	-0,010
-310,153	-174,213	0,019	-0,000
-309,139	690,339	-0,034	-0,064
-308,124	-144,460	0,078	0,005
-307,110	800,000	-0,024	0,062
-306,095	-144,472	0,085	-0,006
-305,080	800,000	-0,022	0,058
-304,066	251,356	0,015	0,018
-303,051	213,842	-0,074	0,083
-302,037	177,548	-0,062	0,064
-301,022	480,500	0,107	0,174
-300,008	-3,570	0,075	0,037
-298,993	202,663	0,068	0,075
-297,978	800,000	-0,053	0,110
-296,964	1,066	-0,147	-0,075
-295,949	800,000	-0,056	0,128
-294,935	800,000	0,052	-0,119
-293,920	41,167	-0,083	-0,054
-292,905	68,559	-0,099	0,073
-291,891	-200,000	-0,037	0,146
-290,876	800,000	0,075	0,150
-289,862	-200,000	0,009	-0,174
-288,847	-200,000	-0,005	-0,191
-287,832	29,839	-0,034	0,020
-286,818	-68,818	0,037	0,010
-285,803	149,959	-0,044	-0,043
-284,789	-98,869	0,112	0,020
-283,774	800,000	-0,019	0,050
-282,759	-72,874	-0,173	0,045
-281,745	-1,156	0,029	-0,015
-280,730	143,962	0,028	0,026
-279,716	33,673	-0,027	-0,016
-278,701	-200,000	-0,009	-0,030
-277,686	-200,000	-0,007	0,025
-276,672	-41,417	-0,059	-0,021
-275,657	-200,000	0,004	0,041
-274,643	-57,433	-0,040	0,013
-273,628	-58,794	-0,163	-0,050
-272,613	-200,000	0,002	-0,083
-271,599	-106,659	-0,079	-0,012
-270,584	-30,154	-0,094	-0,038
-269,570	800,000	-0,029	0,065
-268,555	60,584	-0,066	-0,047
-267,540	-52,692	-0,033	-0,011
-266,526	78,576	0,147	-0,112
-265,511	800,000	0,022	-0,059
-264,497	8,844	0,091	-0,049
-263,482	-105,259	0,093	-0,015
-262,467	357,463	-0,051	0,073
-261,453	495,731	-0,035	0,058
-260,438	800,000	-0,006	-0,013
-259,424	-146,230	0,064	-0,004
-258,409	36,512	-0,064	-0,040
-257,395	800,000	-0,029	0,063
-256,380	88,118	0,063	0,049
-255,365	150,414	0,059	-0,057
-254,351	36,411	0,078	-0,049
-253,336	112,692	-0,113	-0,097
-252,322	66,630	0,045	-0,033
-251,307	-200,000	0,009	-0,110
-250,292	800,000	0,031	0,079
-249,278	533,182	-0,021	0,035
-248,263	-200,000	0,048	-0,164
-247,249	-43,212	0,099	0,035
-246,234	-67,933	-0,084	0,023
-245,219	-49,813	0,066	-0,022
-244,205	-60,761	-0,166	0,050
-243,190	95,561	-0,038	0,031
-242,176	-43,580	0,167	-0,060
-241,161	800,000	0,023	-0,046
-240,146	-152,258	0,079	-0,004
-239,132	-200,000	0,008	0,064
-238,117	-200,000	-0,018	-0,209
-237,103	-40,105	0,028	0,011
-236,088	69,671	0,070	0,051
-235,073	-97,258	0,102	-0,019
-234,059	-127,218	-0,168	-0,017
-233,044	-200,000	-0,002	0,213
-232,030	-61,240	0,101	-0,030
-231,015	-110,860	0,044	-0,006
-230,000	320,014	0,018	0,025
-228,986	27,263	-0,053	0,032
-227,971	-17,771	0,051	-0,023
-226,957	201,744	-0,086	-0,095
-225,942	56,033	-0,051	-0,035
-224,927	-150,499	0,074	-0,004
-223,913	-115,789	-0,135	0,018
-222,898	434,827	0,040	-0,062
-221,884	-144,192	0,107	0,007
-220,869	-200,000	0,023	0,132
-219,855	573,269	-0,088	0,153
-218,840	489,076	0,036	0,058
-217,825	-200,000	-0,000	-0,136
-216,811	-200,000	0,015	-0,164
-215,796	800,000	-0,074	-0,164
-214,782	-119,708	-0,074	0,009
-213,767	6,004	0,136	0,071
-212,752	270,696	-0,028	0,036
-211,738	-200,000	0,020	0,107
-210,723	800,000	0,017	0,042
-209,709	-200,000	0,003	-0,075
-208,694	218,543	-0,097	-0,110
-207,679	-200,000	0,003	0,069
-206,665	800,000	-0,046	0,144
-205,650	-200,000	-0,008	0,090
-204,636	82,140	0,119	0,092
-203,621	87,038	0,117	-0,092
-202,606	-10,126	0,073	-0,035
-201,592	20,210	-0,049	0,028
-200,577	236,938	0,013	-0,016
-199,563	142,474	0,077	-0,073
-198,548	200,567	0,104	-0,114
-197,533	-146,974	-0,014	0,001
-196,519	-14,358	0,131	-0,060
-195,504	310,577	0,035	-0,046
-194,490	-99,079	-0,113	-0,020
-193,475	14,315	-0,139	-0,077
-192,460	-200,000	-0,008	-0,077
-191,446	800,000	-0,040	0,094
-190,431	-121,302	0,091	-0,011
-189,417	-200,000	0,004	-0,054
-188,402	43,218	0,108	0,070
-187,387	800,000	-0,011	-0,029
-186,373	-148,146	-0,115	0,007
-185,358	-12,593	0,086	-0,040
-184,344	141,391	0,121	-0,114
-183,329	116,322	-0,023	0,020
-182,315	104,137	0,117	0,098
-181,300	-77,401	-0,036	-0,009
-180,285	-107,693	0,061	-0,009
-179,271	295,822	0,043	0,057
-178,256	-125,294	0,160	0,017
-177,242	800,000	-0,036	-0,093
-176,227	127,249	0,044	0,040
-175,212	800,000	-0,036	-0,085
-174,198	365,159	-0,019	0,027
-173,183	339,731	-0,128	0,178
-172,169	91,003	-0,038	0,030
-171,154	800,000	-0,025	0,068
-170,139	-200,000	0,026	0,131
-169,125	-76,406	0,155	0,039
-168,110	-142,941	-0,015	0,001
-167,096	424,459	0,049	-0,076
-166,081	200,701	-0,068	0,074
-165,066	-200,000	0,009	0,050
-164,052	288,848	0,058	-0,075
-163,037	800,000	0,035	-0,092
-162,023	-200,000	-0,001	0,051
-161,008	800,000	0,046	-0,111
-159,993	-29,125	-0,116	0,047
-158,979	342,381	-0,108	0,150
-157,964	192,844	-0,080	0,086
-156,950	17,647	0,063	0,035
-155,935	-36,981	0,127	0,048
-154,920	-200,000	0,005	-0,024
-153,906	800,000	0,033	-0,077
-152,891	-73,034	-0,063	-0,016
-151,877	-200,000	-0,005	-0,098
-150,862	404,348	-0,075	-0,112
-149,847	39,126	-0,079	-0,050
-148,833	-165,794	0,101	-0,003
-147,818	31,413	0,099	-0,060
-146,804	-200,000	0,006	-0,031
-145,789	145,258	0,086	0,082
-144,775	-132,303	-0,136	-0,012
-143,760	-2,710	0,080	-0,039
-142,745	137,781	-0,147	-0,137
-141,731	-200,000	0,007	-0,045
-140,716	85,546	0,164	0,128
-139,702	-200,000	-0,018	0,086
-138,687	14,201	0,133	-0,073
-137,672	-85,515	-0,059	0,013
-136,658	698,889	-0,083	0,156
-135,643	-116,877	0,064	0,008
-134,629	175,306	0,055	-0,057
-133,614	5,219	-0,052	-0,027
-132,599	219,361	0,091	0,104
-131,585	-200,000	-0,004	0,189
-130,570	-200,000	0,004	-0,031
-129,556	-140,262	-0,117	-0,009
-128,541	-78,771	-0,040	-0,010
-127,526	800,000	-0,028	-0,056
-126,512	-46,492	0,154	0,053
-125,497	800,000	-0,052	0,122
-124,483	-14,130	0,023	-0,010
-123,468	-69,628	-0,043	0,012
-122,453	-157,935	-0,068	0,003
-121,439	-109,003	-0,053	0,008
-120,424	-200,000	0,013	-0,065
