DTS Sentinel unit serial number:	SN410029Multiplexer serial number:	ORYXHardware model number:	OX2-SRSoftware version number:	ORYX F/W v4,00 Oryx Data Collector v3.7.2.0data status	okinstallation	B6 Nyhavnadifferential loss correction	single-endedforward channel	channel 2reverse channel	N/Adate	2023/12/09time	05:10:08forward acquisition time	300,00reverse acquisition time	0,00gamma	499,1914k internal	0,3144k external	0,3144temperature offset calibration	1,0000default loss term (dB/km)	0,3820temperature slope calibration	1,0000multiplexer offset coefficient	1,0000multiplexer slope coefficient	1,0000fibre end	0,00T internal ref (°C)	17,67T ext. ref 1 (°C)	2,19T ext. ref 2 (°C)	2,21length (m)	temperature (°C)	Stokes	anti-Stokes-744,400	-2,410	0,098	-0,051
-743,385	-97,690	-0,153	0,029
-742,371	205,109	0,092	0,106
-741,356	-105,286	-0,189	0,032
-740,342	574,925	-0,026	0,047
-739,327	-137,073	-0,276	-0,023
-738,312	-128,125	0,062	0,006
-737,298	-66,443	-0,217	0,063
-736,283	6,985	0,112	0,062
-735,269	28,803	-0,144	0,090
-734,254	187,342	0,078	-0,086
-733,239	-27,378	-0,353	-0,152
-732,225	-50,208	0,134	0,047
-731,210	800,000	-0,034	-0,100
-730,196	800,000	-0,028	-0,068
-729,181	65,081	0,047	-0,035
-728,167	-110,906	-0,031	0,005
-727,152	-200,000	-0,033	-0,136
-726,137	11,274	0,009	-0,005
-725,123	-80,090	0,037	0,009
-724,108	63,051	-0,095	-0,071
-723,094	12,552	-0,132	-0,075
-722,079	-165,536	0,049	-0,002
-721,064	438,159	-0,028	-0,045
-720,050	46,624	0,006	0,004
-719,035	-69,747	-0,057	0,016
-718,021	539,407	-0,058	-0,102
-717,006	204,587	-0,125	-0,144
-715,991	800,000	-0,066	-0,150
-714,977	100,335	-0,143	-0,122
-713,962	71,537	-0,048	-0,037
-712,948	-200,000	-0,024	0,091
-711,933	-200,000	-0,006	0,030
-710,918	-200,000	-0,005	-0,048
-709,904	-200,000	-0,001	-0,097
-708,889	-41,951	-0,055	-0,021
-707,875	-200,000	0,025	-0,107
-706,860	191,827	-0,008	-0,009
-705,845	-200,000	-0,010	0,035
-704,831	247,260	-0,026	-0,032
-703,816	-200,000	0,006	0,107
-702,802	75,127	-0,052	-0,041
-701,787	-200,000	-0,028	-0,095
-700,772	-200,000	-0,029	-0,211
-699,758	-23,573	-0,059	-0,026
-698,743	-67,454	0,089	-0,026
-697,729	-4,894	0,113	0,058
-696,714	36,653	-0,027	0,018
-695,699	-87,903	0,122	0,027
-694,685	314,936	-0,039	-0,055
-693,670	-47,110	-0,156	-0,056
-692,656	731,304	-0,021	0,043
-691,641	-31,855	-0,095	0,039
-690,627	595,206	-0,050	0,092
-689,612	42,316	-0,073	-0,049
-688,597	-79,339	-0,110	0,027
-687,583	-61,864	-0,062	0,019
-686,568	800,000	-0,026	0,082
-685,554	48,360	0,062	0,043
-684,539	284,970	-0,050	-0,067
-683,524	125,630	-0,092	-0,086
-682,510	-152,328	0,042	-0,002
-681,495	-66,994	-0,067	-0,019
-680,481	213,786	-0,063	-0,074
-679,466	34,769	-0,032	-0,020
-678,451	-200,000	-0,017	-0,106
-677,437	-200,000	0,006	-0,095
-676,422	-200,000	-0,018	-0,166
-675,408	-74,956	0,174	-0,046
-674,393	-177,581	-0,219	0,004
-673,378	228,123	-0,045	-0,054
-672,364	-200,000	-0,006	-0,055
-671,349	247,960	-0,080	-0,100
-670,335	-84,897	-0,042	0,010
-669,320	-200,000	0,018	0,086
-668,305	207,706	0,046	-0,053
-667,291	-46,149	-0,178	-0,064
-666,276	330,346	-0,051	0,072
-665,262	-200,000	-0,003	-0,027
-664,247	-39,523	-0,128	0,049
-663,232	61,232	0,081	-0,059
-662,218	-29,558	-0,012	-0,005
-661,203	-70,704	0,194	0,054
-660,189	58,775	0,154	0,112
-659,174	-15,072	-0,065	-0,031
-658,159	6,935	-0,062	0,034
-657,145	-200,000	-0,035	0,128
-656,130	-200,000	0,002	-0,133
-655,116	-200,000	0,036	-0,165
-654,101	800,000	-0,024	0,054
-653,086	-200,000	-0,025	-0,105
-652,072	-200,000	0,012	0,049
-651,057	241,834	-0,036	-0,045
-650,043	800,000	-0,077	-0,162
-649,028	-61,166	0,014	-0,004
-648,014	-55,664	-0,069	-0,023
-646,999	178,527	0,017	0,018
-645,984	2,977	-0,093	0,049
-644,970	-200,000	-0,010	0,051
-643,955	-190,891	-0,010	0,000
-642,941	-129,873	-0,028	-0,003
-641,926	800,000	0,029	-0,060
-640,911	-200,000	0,007	-0,036
-639,897	10,767	0,160	-0,090
-638,882	107,775	-0,073	0,064
-637,868	240,864	-0,063	-0,078
-636,853	-13,759	-0,066	0,031
-635,838	405,782	-0,013	0,021
-634,824	323,952	0,058	-0,082
-633,809	474,385	0,078	0,130
-632,795	800,000	0,024	0,053
-631,780	-200,000	-0,043	0,139
-630,765	-200,000	0,026	0,164
-629,751	800,000	0,067	0,211
-628,736	-200,000	0,019	0,127
-627,722	421,804	-0,027	0,042
-626,707	800,000	-0,044	0,107
-625,692	-24,882	0,057	0,025
-624,678	-88,060	0,053	0,012
-623,663	98,222	-0,029	-0,025
-622,649	-71,250	0,064	-0,018
-621,634	-174,587	-0,161	0,003
-620,619	-126,292	0,060	-0,007
-619,605	6,181	0,062	-0,034
-618,590	-160,069	0,072	-0,003
-617,576	800,000	0,053	0,151
-616,561	288,085	0,082	0,110
-615,546	157,982	0,115	0,118
-614,532	800,000	-0,062	-0,134
-613,517	-200,000	0,008	-0,066
-612,503	-199,708	0,108	0,000
-611,488	-200,000	0,008	-0,076
-610,474	103,308	0,049	-0,042
-609,459	657,971	-0,037	0,070
-608,444	-200,000	-0,021	-0,119
-607,430	800,000	-0,059	-0,132
-606,415	-200,000	-0,004	0,127
-605,401	122,065	-0,130	-0,119
-604,386	86,956	-0,040	0,033
-603,371	449,252	0,022	-0,036
-602,357	800,000	-0,053	0,116
-601,342	597,316	-0,036	0,066
-600,328	157,055	0,058	-0,059
-599,313	-200,000	-0,010	0,130
-598,298	161,445	-0,027	-0,028
-597,284	800,000	0,026	-0,080
-596,269	800,000	0,023	0,050
-595,255	174,997	-0,044	-0,047
-594,240	-33,372	-0,103	-0,042
-593,225	-48,346	-0,041	0,015
-592,211	75,523	0,008	-0,006
-591,196	426,679	-0,036	0,057
-590,182	-200,000	-0,007	-0,069
-589,167	-89,755	0,080	0,017
-588,152	-200,000	0,012	0,100
-587,138	431,218	-0,025	-0,040
-586,123	141,165	-0,035	-0,034
-585,109	-200,000	0,009	0,162
-584,094	800,000	-0,042	0,106
-583,079	123,755	-0,067	0,062
-582,065	-200,000	-0,016	0,124
-581,050	800,000	0,024	0,056
-580,036	-183,193	-0,071	-0,001
-579,021	-200,000	0,002	-0,030
-578,006	406,077	0,045	-0,070
-576,992	-200,000	0,057	0,000
-575,977	-200,000	0,003	-0,182
-574,963	-200,000	-0,002	0,048
-573,948	155,962	0,126	0,128
-572,934	-200,000	0,010	-0,236
-571,919	-94,870	-0,060	-0,012
-570,904	-79,579	0,082	-0,020
-569,890	-42,016	-0,081	-0,030
-568,875	434,503	-0,037	-0,060
-567,861	-137,378	0,102	-0,008
-566,846	662,878	-0,084	0,160
-565,831	137,653	0,158	-0,153
-564,817	-102,939	-0,022	0,004
-563,802	125,457	-0,045	0,042
-562,788	800,000	-0,041	-0,109
-561,773	800,000	0,016	0,046
-560,758	9,846	-0,037	-0,021
-559,744	800,000	0,006	-0,014
-558,729	-35,138	0,029	-0,012
-557,715	-200,000	-0,014	-0,062
-556,700	-200,000	-0,014	-0,102
-555,685	122,044	-0,145	-0,133
-554,671	-200,000	-0,012	-0,054
-553,656	-77,088	0,137	0,035
-552,642	502,350	0,041	0,070
-551,627	-200,000	0,007	-0,046
-550,612	66,129	-0,041	-0,030
-549,598	-52,627	-0,083	-0,028
-548,583	17,918	-0,090	0,052
-547,569	800,000	-0,041	0,114
-546,554	-200,000	-0,004	0,043
-545,539	341,446	0,068	0,098
-544,525	-1,560	0,077	0,040
-543,510	18,458	-0,084	0,049
-542,496	226,329	-0,115	0,137
-541,481	-200,000	-0,001	-0,055
-540,466	-172,234	-0,022	0,001
-539,452	-141,984	-0,045	-0,003
-538,437	38,438	0,119	-0,078
-537,423	-200,000	-0,007	0,045
-536,408	800,000	-0,006	0,019
-535,393	566,534	-0,008	-0,014
-534,379	-200,000	0,021	-0,079
-533,364	-200,000	0,002	0,299
-532,350	-200,000	-0,022	0,087
-531,335	423,066	0,004	-0,007
-530,321	-92,653	0,129	-0,026
-529,306	139,641	-0,083	0,081
-528,291	76,457	0,083	-0,064
-527,277	611,883	-0,047	0,087
-526,262	-126,864	-0,077	-0,008
-525,248	-156,470	0,098	0,004
-524,233	115,591	-0,051	0,046
-523,218	-200,000	0,006	0,086
-522,204	340,213	-0,029	0,042
-521,189	-200,000	-0,010	-0,109
-520,175	-200,000	-0,042	-0,147
-519,160	800,000	0,042	0,087
-518,145	329,630	0,119	-0,169
-517,131	34,888	0,126	0,081
-516,116	-115,987	-0,056	0,008
-515,102	25,773	-0,070	-0,043
-514,087	-122,459	-0,099	0,012
-513,072	374,913	0,051	-0,077
-512,058	494,368	0,061	-0,103
-511,043	39,918	-0,030	-0,020
-510,029	-200,000	-0,029	0,097
-509,014	-200,000	-0,002	-0,197
-507,999	800,000	-0,026	-0,058
-506,985	-200,000	-0,016	-0,128
-505,970	800,000	0,039	-0,117
-504,956	-200,000	-0,035	-0,119
-503,941	223,951	-0,070	-0,083
-502,926	87,294	0,054	0,044
-501,912	-8,160	0,131	-0,064
-500,897	187,243	-0,010	-0,011
-499,883	-200,000	0,027	-0,146
-498,868	129,039	-0,056	-0,053
-497,853	80,849	0,094	-0,074
-496,839	-200,000	0,001	-0,060
-495,824	771,289	-0,042	0,085
-494,810	188,328	0,120	0,131
-493,795	284,040	0,062	-0,082
-492,781	196,771	0,066	-0,074
-491,766	-200,000	-0,036	-0,145
-490,751	-200,000	-0,005	-0,032
-489,737	659,000	0,057	-0,107
-488,722	800,000	-0,021	-0,053
-487,708	-59,822	0,032	0,010
-486,693	325,010	-0,076	-0,107
-485,678	-132,986	-0,139	-0,013
-484,664	285,007	-0,046	-0,061
-483,649	-133,099	-0,230	-0,021
-482,635	113,586	0,110	-0,098
-481,620	228,723	-0,017	0,020
-480,605	23,681	0,020	-0,012
-479,591	760,208	0,017	0,035
-478,576	800,000	0,025	0,077
-477,562	-200,000	-0,047	-0,154
-476,547	-200,000	0,010	-0,094
-475,532	800,000	0,009	-0,025
-474,518	-200,000	0,000	-0,016
-473,503	303,218	-0,059	-0,080
-472,489	16,455	-0,091	0,052
-471,474	18,251	0,128	0,075
-470,459	-41,065	-0,116	-0,044
-469,445	447,739	0,041	-0,066
-468,430	177,657	-0,100	0,107
-467,416	800,000	0,041	-0,106
-466,401	-50,537	0,063	-0,022
-465,386	-3,662	0,113	0,057
-464,372	86,396	-0,049	0,039
-463,357	210,829	-0,062	0,072
-462,343	-200,000	-0,012	0,066
-461,328	166,199	0,051	-0,053
-460,313	111,042	0,101	0,089
-459,299	66,623	-0,015	-0,011
-458,284	800,000	-0,043	-0,108
-457,270	-200,000	-0,018	-0,079
-456,255	54,834	-0,122	-0,086
-455,241	-100,545	-0,053	0,010
-454,226	800,000	-0,033	0,081
-453,211	800,000	-0,046	0,107
-452,197	-1,066	0,077	0,040
-451,182	-97,586	0,104	0,020
-450,168	206,848	0,069	0,079
-449,153	494,339	-0,070	-0,118
-448,138	800,000	-0,047	0,116
-447,124	-200,000	-0,025	0,093
-446,109	13,038	-0,122	0,069
-445,095	270,729	0,092	0,119
-444,080	-192,398	0,022	-0,000
-443,065	-112,149	0,023	0,003
-442,051	-200,000	-0,023	-0,163
-441,036	-105,266	-0,051	-0,008
-440,022	443,747	-0,085	-0,137
-439,007	800,000	0,021	0,045
-437,992	525,797	-0,048	0,083
-436,978	288,268	-0,034	0,045
-435,963	-32,796	-0,178	0,072
-434,949	-41,925	0,101	-0,037
-433,934	127,751	0,091	-0,084
-432,919	195,935	-0,026	-0,029
-431,905	261,445	0,018	0,023
-430,890	800,000	-0,017	0,040
-429,876	-82,861	-0,020	-0,005
-428,861	128,422	0,103	0,096
-427,846	170,089	0,028	0,030
-426,832	-35,227	-0,148	0,059
-425,817	121,339	-0,066	0,060
-424,803	-71,353	0,087	-0,024
-423,788	800,000	0,035	-0,092
-422,773	60,233	0,085	0,061
-421,759	583,257	-0,050	0,089
-420,744	231,746	0,065	0,078
-419,730	17,820	-0,123	-0,072
-418,715	99,551	-0,124	0,105
-417,701	-200,000	-0,001	0,023
-416,686	-200,000	-0,009	-0,047
-415,671	113,807	0,076	0,068
-414,657	531,479	0,015	-0,026
-413,642	-200,000	-0,018	-0,083
-412,628	188,196	-0,037	0,040
-411,613	23,856	0,060	-0,036
-410,598	-200,000	0,021	-0,114
-409,584	-115,667	0,116	0,016
-408,569	307,599	-0,052	0,072
-407,555	-200,000	0,036	0,157
-406,540	-90,338	-0,056	-0,012
-405,525	-200,000	0,042	0,145
-404,511	787,304	-0,026	-0,052
-403,496	-147,349	-0,091	-0,006
-402,482	-200,000	-0,014	-0,097
-401,467	-63,706	0,143	-0,043
-400,452	-149,555	0,065	-0,004
-399,438	-200,000	0,012	0,073
-398,423	160,340	0,063	0,064
-397,409	-200,000	-0,036	-0,132
-396,394	-87,674	0,063	0,014
-395,379	800,000	0,043	0,138
-394,365	800,000	0,082	0,207
-393,350	-26,923	0,137	-0,058
-392,336	-200,000	-0,015	0,114
-391,321	-200,000	0,027	-0,163
-390,306	-200,000	-0,010	0,158
-389,292	554,024	-0,057	-0,100
-388,277	403,912	0,099	-0,153
-387,263	-10,034	-0,138	-0,067
-386,248	71,664	0,079	-0,060
-385,233	28,061	0,044	-0,027
-384,219	800,000	-0,082	0,167
-383,204	800,000	-0,030	-0,064
-382,190	260,494	-0,057	0,072
-381,175	630,984	-0,060	-0,111
-380,160	-200,000	-0,000	0,101
-379,146	139,491	0,077	0,074
-378,131	1,186	0,078	-0,041
-377,117	-200,000	-0,010	0,065
-376,102	339,825	-0,091	-0,130
-375,088	-82,602	-0,102	0,024
-374,073	230,099	0,068	0,082
-373,058	-119,293	-0,074	0,009
-372,044	-149,940	-0,038	0,002
-371,029	-158,418	-0,011	-0,000
-370,015	115,891	-0,094	0,084
-369,000	-124,325	-0,009	0,001
-367,985	54,075	-0,165	-0,115
-366,971	-73,478	0,115	0,030
-365,956	-200,000	-0,011	-0,124
-364,942	-171,054	-0,074	0,002
-363,927	204,952	0,096	0,108
-362,912	-45,456	-0,066	0,024
-361,898	44,232	-0,027	-0,018
-360,883	800,000	-0,031	-0,095
-359,869	800,000	0,044	-0,106
-358,854	-200,000	0,002	-0,058
-357,839	-200,000	-0,005	-0,046
-356,825	-200,000	0,008	-0,080
-355,810	176,230	0,062	0,066
-354,796	52,401	0,202	-0,140
-353,781	-14,769	-0,128	-0,060
-352,766	167,549	-0,075	0,078
-351,752	-103,349	-0,098	0,017
-350,737	800,000	-0,024	-0,054
-349,723	-41,090	0,146	-0,055
-348,708	102,910	0,125	-0,107
-347,693	86,826	-0,015	-0,012
-346,679	-200,000	-0,032	-0,159
-345,664	-200,000	0,023	-0,076
-344,650	800,000	-0,040	0,105
-343,635	67,990	0,062	-0,046
-342,620	-200,000	0,006	0,109
-341,606	47,062	-0,040	0,027
-340,591	800,000	-0,018	-0,044
-339,577	-200,000	0,017	0,067
-338,562	10,811	-0,155	0,086
-337,548	-200,000	0,021	-0,079
-336,533	134,647	0,035	0,033
-335,518	42,740	0,058	-0,038
-334,504	800,000	0,033	-0,084
-333,489	30,055	0,129	0,080
-332,475	-123,821	-0,145	0,016
-331,460	800,000	-0,025	-0,064
-330,445	-127,417	-0,069	0,007
-329,431	-167,091	-0,084	0,002
-328,416	678,382	-0,005	0,010
-327,402	616,480	0,118	0,217
-326,387	-200,000	0,000	0,219
-325,372	-184,284	-0,021	-0,000
-324,358	579,503	-0,062	-0,111
-323,343	-200,000	-0,021	-0,149
-322,329	800,000	-0,044	-0,090
-321,314	-200,000	0,031	0,175
-320,299	11,332	0,027	0,015
-319,285	104,497	-0,051	0,044
-318,270	-200,000	-0,031	-0,114
-317,256	21,037	-0,149	-0,088
-316,241	-123,061	-0,123	-0,014
-315,226	-171,669	0,095	0,002
-314,212	800,000	0,052	0,116
-313,197	207,184	-0,013	-0,015
-312,183	9,616	0,079	0,043
-311,168	-52,180	-0,163	-0,055
-310,153	-171,460	-0,044	0,001
-309,139	-200,000	0,000	-0,069
-308,124	-63,793	-0,044	-0,013
-307,110	264,696	0,078	-0,099
-306,095	177,726	0,031	-0,033
-305,080	266,988	-0,047	0,060
-304,066	-37,483	-0,062	0,024
-303,051	36,198	-0,151	-0,097
-302,037	165,520	0,022	-0,023
-301,022	-17,659	0,046	0,021
-300,008	-200,000	-0,032	-0,169
-298,993	-79,813	0,062	-0,015
-297,978	-32,985	0,105	0,042
-296,964	-13,111	0,078	-0,037
-295,949	-200,000	0,003	0,045
-294,935	-200,000	0,004	0,077
-293,920	72,705	0,056	0,042
-292,905	133,354	0,063	0,059
-291,891	-75,574	0,240	-0,062
-290,876	-132,362	0,139	-0,013
-289,862	-142,221	-0,093	-0,007
-288,847	410,137	-0,044	0,067
-287,832	-70,577	-0,096	0,026
-286,818	-200,000	0,004	0,023
-285,803	-200,000	-0,023	0,145
-284,789	122,431	-0,072	-0,065
-283,774	104,678	-0,081	0,070
-282,759	388,731	-0,067	0,101
-281,745	-26,087	0,106	-0,045
-280,730	99,883	-0,029	-0,025
-279,716	82,903	-0,064	-0,051
-278,701	-200,000	0,008	0,066
-277,686	416,791	0,014	0,021
-276,672	-130,887	0,070	-0,007
-275,657	800,000	-0,025	-0,061
-274,643	800,000	0,062	-0,135
-273,628	800,000	-0,084	-0,177
-272,613	-165,566	0,085	-0,003
-271,599	564,611	0,042	-0,075
-270,584	800,000	-0,024	0,061
-269,570	-200,000	0,015	0,084
-268,555	-46,414	0,164	-0,058
-267,540	-5,973	0,019	-0,009
-266,526	499,248	0,034	-0,057
-265,511	485,488	-0,042	0,070
-264,497	-166,325	0,123	-0,004
-263,482	-117,760	-0,127	-0,016
-262,467	-99,367	0,039	0,007
-261,453	87,362	0,121	0,097
-260,438	-96,220	-0,082	0,016
-259,424	240,951	0,048	0,059
-258,409	-94,503	-0,065	-0,013
-257,395	-200,000	0,009	0,111
-256,380	264,699	0,061	0,078
-255,365	800,000	-0,014	-0,037
-254,351	-31,222	0,099	-0,040
-253,336	663,490	-0,029	-0,055
-252,322	800,000	-0,008	-0,024
-251,307	-200,000	0,027	0,099
-250,292	-17,051	-0,032	0,014
-249,278	45,310	0,041	-0,027
-248,263	-26,063	0,100	0,043
-247,249	-130,229	-0,027	0,003
-246,234	286,194	-0,012	-0,016
-245,219	76,322	0,052	-0,040
-244,205	294,233	0,028	0,038
-243,190	256,321	0,020	0,025
-242,176	438,343	0,090	-0,144
-241,161	307,982	0,016	0,021
-240,146	-10,643	-0,057	0,027
-239,132	220,837	-0,056	0,066
-238,117	-92,219	0,016	-0,003
-237,103	185,604	-0,055	-0,059
-236,088	53,901	-0,064	-0,045
-235,073	132,065	0,026	-0,025
-234,059	256,683	0,063	-0,079
-233,044	-157,051	-0,046	0,002
-232,030	339,111	-0,090	0,128
-231,015	336,666	-0,053	-0,074
-230,000	266,852	0,048	0,061
-228,986	-200,000	-0,007	0,133
-227,971	-180,187	-0,078	0,001
-226,957	800,000	0,065	0,173
-225,942	20,903	-0,145	-0,085
-224,927	-142,284	0,110	0,008
-223,913	-200,000	-0,024	0,113
-222,898	-28,278	-0,048	-0,020
-221,884	273,355	0,062	-0,079
-220,869	800,000	0,028	-0,074
-219,855	-123,526	-0,071	0,008
-218,840	215,713	0,057	0,066
-217,825	800,000	0,090	0,185
-216,811	-78,972	-0,082	-0,020
-215,796	194,434	-0,050	-0,055
-214,782	-134,697	0,155	0,013
-213,767	103,411	-0,050	0,043
-212,752	685,946	0,088	-0,168
-211,738	-111,889	-0,092	0,013
-210,723	-200,000	0,045	-0,148
-209,709	574,016	-0,039	-0,070
-208,694	800,000	0,017	-0,035
-207,679	93,331	0,051	0,042
-206,665	-200,000	-0,023	0,139
-205,650	-200,000	0,001	0,078
-204,636	135,336	0,058	0,055
-203,621	-113,561	0,072	-0,010
-202,606	800,000	-0,020	-0,048
-201,592	-104,784	-0,129	0,021
-200,577	-55,224	0,054	-0,018
-199,563	-64,046	0,086	0,025
-198,548	-55,715	0,049	-0,016
-197,533	14,157	0,041	-0,023
-196,519	-64,071	0,058	-0,017
-195,504	67,858	-0,051	-0,038
-194,490	800,000	0,026	0,077
-193,475	-125,609	-0,130	-0,014
-192,460	-185,561	-0,124	-0,001
-191,446	-200,000	-0,013	-0,088
-190,431	119,844	0,020	0,018
-189,417	-200,000	-0,020	0,109
-188,402	-3,117	0,049	-0,025
-187,387	264,807	-0,012	0,015
-186,373	800,000	0,056	-0,131
-185,358	-200,000	0,011	-0,136
-184,344	-152,883	0,093	-0,005
-183,329	-200,000	0,015	-0,142
-182,315	-200,000	-0,003	0,079
-181,300	800,000	0,043	0,134
-180,285	227,344	-0,093	-0,110
-179,271	475,069	-0,051	0,083
-178,256	664,843	-0,025	-0,047
-177,242	-115,841	-0,108	0,014
-176,227	103,510	0,054	0,046
-175,212	131,944	0,102	0,095
-174,198	142,897	0,032	-0,031
-173,183	8,664	-0,076	0,041
-172,169	230,027	-0,088	0,105
-171,154	-200,000	0,003	-0,095
-170,139	171,847	-0,016	0,016
-169,125	28,060	0,100	0,061
-168,110	-71,223	0,057	-0,015
-167,096	45,376	0,120	0,080
-166,081	800,000	0,083	-0,184
-165,066	5,688	-0,196	-0,105
-164,052	-55,862	-0,137	-0,044
-163,037	-200,000	0,018	0,137
-162,023	-200,000	0,006	0,052
-161,008	-100,875	0,068	0,012
-159,993	800,000	0,042	0,125
-158,979	110,021	-0,079	0,069
-157,964	-145,074	0,049	0,003
-156,950	159,344	0,045	-0,045
-155,935	-63,622	-0,032	-0,009
-154,920	43,538	0,137	0,090
-153,906	250,392	0,058	0,071
-152,891	111,692	-0,178	-0,155
-151,877	-200,000	0,034	-0,139
-150,862	-128,983	0,078	0,008
-149,847	800,000	-0,062	-0,154
-148,833	-44,067	0,065	0,024
-147,818	-72,776	0,082	-0,022
-146,804	-200,000	-0,011	-0,085
-145,789	192,820	0,071	-0,078
-144,775	342,748	-0,064	0,091
-143,760	135,862	0,124	-0,117
-142,745	157,635	0,071	0,072
-141,731	43,208	-0,083	-0,055
-140,716	17,823	0,139	-0,080
-139,702	-200,000	0,022	0,084
-138,687	-200,000	0,038	-0,157
-137,672	164,983	0,017	0,017
-136,658	-176,484	-0,037	-0,001
-135,643	135,424	0,173	0,163
-134,629	-200,000	0,013	-0,083
-133,614	-99,598	0,165	-0,030
-132,599	677,089	-0,053	0,100
-131,585	23,885	-0,102	-0,060
-130,570	-200,000	-0,002	0,042
-129,556	-109,746	-0,087	0,013
-128,541	800,000	0,031	-0,097
-127,526	-200,000	-0,045	0,227
-126,512	-148,991	-0,102	-0,006
-125,497	15,748	-0,084	0,048
-124,483	-200,000	-0,024	0,117
-123,468	19,451	-0,082	0,047
-122,453	795,063	0,025	-0,051
-121,439	-72,769	-0,126	-0,033
-120,424	73,818	0,010	-0,008
