DTS Sentinel unit serial number:	SN410029Multiplexer serial number:	ORYXHardware model number:	OX2-SRSoftware version number:	ORYX F/W v4,00 Oryx Data Collector v3.7.2.0data status	okinstallation	B6 Nyhavnadifferential loss correction	single-endedforward channel	channel 2reverse channel	N/Adate	2023/12/10time	16:05:08forward acquisition time	300,00reverse acquisition time	0,00gamma	499,1914k internal	0,3123k external	0,3123temperature offset calibration	1,0000default loss term (dB/km)	0,3820temperature slope calibration	1,0000multiplexer offset coefficient	1,0000multiplexer slope coefficient	1,0000fibre end	0,00T internal ref (°C)	22,38T ext. ref 1 (°C)	6,05T ext. ref 2 (°C)	6,05length (m)	temperature (°C)	Stokes	anti-Stokes-744,400	-200,000	0,008	0,040
-743,385	-124,850	-0,200	0,023
-742,371	51,949	0,101	0,071
-741,356	195,476	-0,248	0,282
-740,342	49,643	-0,017	0,012
-739,327	21,153	-0,247	0,149
-738,312	111,745	0,115	0,104
-737,298	-37,982	-0,240	0,094
-736,283	-200,000	0,005	0,018
-735,269	-53,408	-0,057	0,019
-734,254	-200,000	0,012	-0,043
-733,239	-54,834	-0,383	-0,128
-732,225	-50,716	0,085	-0,030
-731,210	-66,135	-0,048	0,014
-730,196	-60,837	0,051	-0,016
-729,181	-16,605	-0,127	0,060
-728,167	-144,994	0,093	-0,006
-727,152	-137,945	-0,060	0,005
-726,137	-146,846	-0,291	0,018
-725,123	260,152	-0,133	-0,171
-724,108	566,753	-0,095	-0,173
-723,094	-200,000	0,033	-0,176
-722,079	-200,000	0,002	0,042
-721,064	-200,000	0,018	-0,081
-720,050	-200,000	0,004	0,078
-719,035	-200,000	-0,012	0,079
-718,021	48,224	-0,131	-0,091
-717,006	266,648	-0,111	-0,145
-715,991	96,345	-0,167	-0,143
-714,977	-64,607	-0,066	0,020
-713,962	-42,217	0,078	0,030
-712,948	-200,000	-0,007	0,033
-711,933	-90,599	0,063	-0,013
-710,918	-200,000	-0,024	-0,122
-709,904	11,382	-0,078	-0,044
-708,889	-200,000	0,002	-0,028
-707,875	57,573	-0,113	-0,082
-706,860	434,562	0,019	0,031
-705,845	87,743	0,033	0,027
-704,831	46,365	0,012	0,008
-703,816	-112,155	-0,104	-0,015
-702,802	-12,707	0,148	-0,071
-701,787	439,275	-0,037	-0,061
-700,772	-3,681	0,076	0,039
-699,758	455,972	-0,034	-0,056
-698,743	-21,415	-0,080	-0,036
-697,729	161,648	0,023	0,024
-696,714	60,224	-0,128	0,094
-695,699	110,435	-0,121	0,108
-694,685	-200,000	-0,020	-0,175
-693,670	111,487	-0,062	-0,056
-692,656	605,630	-0,036	-0,068
-691,641	493,546	-0,037	-0,064
-690,627	321,863	-0,111	0,157
-689,612	37,350	-0,069	0,046
-688,597	-0,242	-0,091	-0,048
-687,583	79,839	-0,137	0,109
-686,568	-51,237	0,081	-0,028
-685,554	609,219	-0,055	-0,103
-684,539	-132,374	-0,079	-0,008
-683,524	800,000	-0,008	-0,023
-682,510	800,000	-0,060	0,163
-681,495	93,439	-0,152	0,128
-680,481	800,000	-0,040	0,116
-679,466	-15,311	-0,082	-0,039
-678,451	-24,068	-0,102	-0,045
-677,437	114,788	0,082	-0,075
-676,422	302,478	-0,065	0,090
-675,408	-46,418	-0,050	0,018
-674,393	-2,931	0,076	-0,039
-673,378	506,577	-0,088	0,152
-672,364	18,838	-0,101	0,060
-671,349	161,504	-0,098	-0,101
-670,335	7,240	0,061	-0,034
-669,320	256,541	0,077	-0,099
-668,305	74,138	0,019	0,015
-667,291	187,475	-0,071	0,078
-666,276	337,788	-0,025	-0,036
-665,262	800,000	0,013	-0,033
-664,247	156,218	0,029	-0,030
-663,232	800,000	-0,021	-0,048
-662,218	-28,466	0,066	0,028
-661,203	335,513	-0,100	0,144
-660,189	800,000	0,021	0,057
-659,174	18,275	-0,042	0,025
-658,159	-200,000	0,022	-0,142
-657,145	-118,710	-0,084	0,011
-656,130	-46,509	0,120	-0,043
-655,116	146,526	-0,058	0,058
-654,101	-82,733	-0,064	-0,015
-653,086	800,000	0,033	0,068
-652,072	6,221	-0,127	0,070
-651,057	-22,997	-0,163	-0,073
-650,043	84,216	-0,077	0,063
-649,028	0,393	-0,014	0,007
-648,014	-139,679	0,023	-0,002
-646,999	663,409	-0,033	-0,063
-645,984	800,000	-0,028	-0,071
-644,970	-200,000	-0,045	-0,169
-643,955	-200,000	0,011	-0,120
-642,941	784,569	-0,091	-0,186
-641,926	483,616	-0,051	-0,086
-640,911	149,904	0,026	-0,026
-639,897	-82,360	-0,024	0,006
-638,882	147,382	-0,073	0,073
-637,868	-99,095	-0,050	0,009
-636,853	-42,011	-0,257	0,097
-635,838	52,837	-0,060	-0,042
-634,824	11,369	-0,009	-0,005
-633,809	105,812	0,011	-0,009
-632,795	-200,000	-0,001	0,123
-631,780	-99,694	0,052	0,010
-630,765	363,005	0,069	0,103
-629,751	413,159	0,058	-0,092
-628,736	10,893	-0,108	-0,061
-627,722	278,259	0,075	-0,100
-626,707	293,739	-0,037	-0,051
-625,692	315,740	0,040	0,056
-624,678	-125,718	-0,051	0,006
-623,663	-133,108	0,097	0,009
-622,649	669,054	-0,065	0,125
-621,634	800,000	-0,062	-0,184
-620,619	298,780	-0,114	-0,156
-619,605	-142,665	0,094	0,007
-618,590	-200,000	0,007	-0,135
-617,576	800,000	-0,015	0,032
-616,561	40,891	-0,133	-0,089
-615,546	230,131	-0,123	-0,150
-614,532	-200,000	0,017	0,081
-613,517	-132,478	-0,005	-0,001
-612,503	115,242	0,066	0,060
-611,488	-200,000	-0,021	0,105
-610,474	-42,477	-0,159	0,060
-609,459	489,335	-0,037	0,063
-608,444	-33,092	0,091	-0,037
-607,430	-161,646	-0,108	0,004
-606,415	143,407	-0,062	-0,061
-605,401	-200,000	0,018	-0,078
-604,386	78,172	0,073	0,058
-603,371	44,954	-0,089	-0,060
-602,357	119,749	-0,068	-0,062
-601,342	596,833	-0,033	0,062
-600,328	-162,544	-0,177	-0,006
-599,313	800,000	-0,016	0,046
-598,298	-200,000	0,005	-0,026
-597,284	-200,000	-0,052	0,180
-596,269	-171,763	0,096	0,002
-595,255	-9,609	-0,083	-0,041
-594,240	576,206	-0,087	-0,158
-593,225	32,690	0,134	-0,086
-592,211	378,923	0,048	-0,073
-591,196	-11,826	-0,114	-0,055
-590,182	21,301	-0,071	0,042
-589,167	-200,000	0,009	-0,046
-588,152	96,637	0,039	-0,033
-587,138	139,634	-0,050	0,049
-586,123	634,895	0,032	-0,061
-585,109	9,978	-0,136	0,076
-584,094	800,000	-0,033	-0,083
-583,079	-200,000	0,007	0,051
-582,065	-200,000	0,024	0,097
-581,050	63,682	0,072	-0,053
-580,036	88,600	0,031	-0,026
-579,021	192,123	-0,082	0,092
-578,006	658,818	0,012	-0,022
-576,992	-139,833	-0,104	-0,008
-575,977	-200,000	0,001	0,032
-574,963	-200,000	-0,010	-0,116
-573,948	-68,071	0,143	-0,041
-572,934	-39,162	0,090	-0,035
-571,919	-125,681	-0,065	0,007
-570,904	434,230	-0,026	0,043
-569,890	504,651	-0,016	0,027
-568,875	42,583	0,127	0,085
-567,861	-41,312	-0,071	-0,027
-566,846	-18,690	0,023	0,011
-565,831	-200,000	-0,002	-0,010
-564,817	-135,082	0,056	0,005
-563,802	-200,000	-0,005	0,072
-562,788	-200,000	-0,010	-0,115
-561,773	-117,418	-0,031	-0,004
-560,758	456,571	0,070	0,115
-559,744	-200,000	0,011	0,038
-558,729	-24,659	0,141	-0,062
-557,715	800,000	0,052	-0,109
-556,700	-138,517	-0,139	0,011
-555,685	-2,557	0,033	0,017
-554,671	-145,873	-0,172	0,011
-553,656	68,412	-0,038	-0,029
-552,642	288,577	0,046	-0,062
-551,627	800,000	-0,007	0,021
-550,612	800,000	0,018	-0,054
-549,598	4,445	0,120	0,065
-548,583	-17,094	-0,174	0,081
-547,569	54,759	-0,065	-0,047
-546,554	169,921	0,030	0,032
-545,539	270,072	-0,071	0,092
-544,525	-28,888	-0,096	0,041
-543,510	258,196	-0,080	-0,103
-542,496	-54,387	0,154	-0,051
-541,481	177,972	0,060	-0,065
-540,466	-18,184	-0,072	-0,033
-539,452	248,914	0,042	0,053
-538,437	0,353	0,040	0,021
-537,423	-15,120	0,029	-0,014
-536,408	-80,590	-0,016	-0,004
-535,393	69,188	-0,033	0,025
-534,379	485,600	0,043	-0,073
-533,364	352,248	0,065	-0,095
-532,350	-200,000	-0,027	0,140
-531,335	35,809	0,090	0,059
-530,321	98,683	0,019	-0,016
-529,306	800,000	0,038	-0,090
-528,291	-15,461	-0,038	0,018
-527,277	800,000	0,013	-0,030
-526,262	-85,118	0,051	0,012
-525,248	196,260	0,025	-0,028
-524,233	-200,000	0,012	0,145
-523,218	513,900	0,070	0,121
-522,204	-125,643	0,083	-0,009
-521,189	207,506	-0,045	-0,052
-520,175	-162,626	0,084	-0,003
-519,160	-89,592	-0,027	-0,006
-518,145	800,000	-0,023	0,063
-517,131	-200,000	0,020	-0,212
-516,116	304,463	-0,014	0,019
-515,102	-35,940	-0,100	-0,040
-514,087	-104,730	-0,086	-0,014
-513,072	-106,942	-0,066	-0,011
-512,058	-117,102	-0,111	-0,015
-511,043	285,397	0,060	0,080
-510,029	-200,000	0,018	-0,064
-509,014	98,892	-0,124	0,105
-507,999	63,403	0,066	0,049
-506,985	-93,589	0,041	-0,008
-505,970	597,554	-0,060	0,109
-504,956	149,135	-0,136	-0,136
-503,941	212,674	0,156	-0,182
-502,926	800,000	-0,020	-0,041
-501,912	-200,000	0,041	0,202
-500,897	586,085	0,048	0,087
-499,883	446,585	-0,050	-0,082
-498,868	144,932	0,035	0,035
-497,853	-39,202	0,149	-0,058
-496,839	153,876	0,074	-0,075
-495,824	-200,000	0,017	0,080
-494,810	159,180	0,087	0,089
-493,795	-169,765	0,024	-0,001
-492,781	-200,000	0,009	0,056
-491,766	65,604	-0,021	0,016
-490,751	-200,000	-0,008	0,084
-489,737	190,971	0,106	0,118
-488,722	279,457	0,110	0,146
-487,708	91,481	-0,096	0,080
-486,693	-115,702	0,123	0,017
-485,678	800,000	-0,009	0,029
-484,664	444,563	-0,030	0,049
-483,649	119,925	0,080	-0,073
-482,635	177,822	0,018	-0,019
-481,620	-97,180	0,078	0,015
-480,605	-200,000	-0,005	0,071
-479,591	580,179	0,089	0,162
-478,576	-127,998	-0,121	-0,013
-477,562	-200,000	-0,047	-0,158
-476,547	74,437	-0,062	-0,048
-475,532	-133,745	0,150	0,014
-474,518	156,641	0,060	-0,061
-473,503	800,000	-0,037	-0,089
-472,489	428,652	0,117	-0,187
-471,474	-120,956	-0,122	0,015
-470,459	80,370	-0,040	0,032
-469,445	-178,528	-0,070	-0,001
-468,430	-26,525	-0,115	-0,050
-467,416	8,510	0,035	-0,019
-466,401	648,604	0,043	-0,082
-465,386	-200,000	0,042	-0,145
-464,372	-97,953	0,076	-0,014
-463,357	800,000	-0,089	-0,196
-462,343	-200,000	-0,021	0,096
-461,328	800,000	-0,039	0,107
-460,313	123,050	0,033	-0,030
-459,299	-200,000	0,027	-0,100
-458,284	-103,906	-0,059	-0,010
-457,270	38,289	0,109	-0,071
-456,255	4,543	-0,146	0,079
-455,241	-200,000	0,003	-0,084
-454,226	96,446	0,080	-0,067
-453,211	52,406	-0,076	-0,054
-452,197	715,406	0,054	0,107
-451,182	39,757	0,032	0,021
-450,168	-89,971	0,081	0,017
-449,153	-15,790	0,074	-0,035
-448,138	-200,000	0,027	-0,176
-447,124	298,146	-0,053	-0,072
-446,109	146,830	-0,025	-0,025
-445,095	-35,182	0,093	-0,037
-444,080	43,171	-0,088	0,059
-443,065	-200,000	0,041	-0,148
-442,051	320,498	-0,042	0,058
-441,036	-96,260	0,084	-0,016
-440,022	800,000	0,026	-0,071
-439,007	174,247	-0,055	-0,059
-437,992	103,082	-0,031	-0,027
-436,978	65,527	-0,030	-0,023
-435,963	96,992	-0,034	-0,029
-434,949	55,032	-0,095	0,068
-433,934	84,967	0,121	0,097
-432,919	-200,000	-0,033	-0,144
-431,905	800,000	-0,032	0,071
-430,890	800,000	0,031	-0,090
-429,876	9,664	-0,028	-0,015
-428,861	139,020	-0,079	0,076
-427,846	337,298	-0,075	0,108
-426,832	-200,000	0,010	-0,116
-425,817	-200,000	0,031	-0,106
-424,803	214,345	0,022	0,025
-423,788	800,000	0,034	-0,071
-422,773	-151,583	-0,132	0,007
-421,759	800,000	-0,022	-0,049
-420,744	-200,000	-0,027	-0,096
-419,730	56,228	0,103	0,074
-418,715	-58,092	-0,124	0,040
-417,701	165,783	0,048	-0,050
-416,686	-200,000	0,018	0,147
-415,671	-200,000	-0,016	-0,072
-414,657	-200,000	0,013	-0,059
-413,642	-102,937	0,091	-0,016
-412,628	800,000	0,005	0,013
-411,613	-200,000	0,015	-0,114
-410,598	-200,000	0,001	-0,057
-409,584	-200,000	0,001	0,093
-408,569	-118,958	-0,093	-0,012
-407,555	26,739	-0,031	-0,019
-406,540	239,720	0,027	0,034
-405,525	800,000	0,029	-0,060
-404,511	-19,322	-0,074	0,034
-403,496	-200,000	-0,013	-0,154
-402,482	90,869	0,021	-0,017
-401,467	-60,485	-0,051	-0,016
-400,452	81,464	0,073	0,058
-399,438	-200,000	0,004	0,060
-398,423	800,000	-0,021	0,043
-397,409	89,439	0,150	0,123
-396,394	442,612	-0,091	-0,148
-395,379	-33,741	0,067	-0,027
-394,365	-200,000	-0,034	0,126
-393,350	7,159	0,107	0,058
-392,336	800,000	-0,041	0,131
-391,321	226,327	-0,119	-0,142
-390,306	48,430	-0,058	0,040
-389,292	-200,000	0,006	-0,215
-388,277	-12,066	-0,095	-0,046
-387,263	128,037	-0,073	0,068
-386,248	117,442	0,028	-0,026
-385,233	408,621	0,068	0,107
-384,219	-37,555	0,033	0,013
-383,204	140,140	-0,050	-0,049
-382,190	800,000	-0,070	-0,178
-381,175	100,719	-0,058	-0,050
-380,160	-200,000	-0,025	0,117
-379,146	-200,000	0,031	0,100
-378,131	70,382	0,085	0,064
-377,117	-200,000	0,021	0,091
-376,102	-200,000	-0,001	-0,097
-375,088	-36,043	-0,155	-0,061
-374,073	308,623	0,118	0,162
-373,058	-77,354	-0,067	0,017
-372,044	388,057	-0,032	0,049
-371,029	-57,016	-0,068	-0,022
-370,015	-200,000	0,007	0,067
-369,000	-187,510	-0,126	0,001
-367,985	-200,000	0,002	-0,017
-366,971	224,785	0,035	0,042
-365,956	800,000	-0,015	0,040
-364,942	50,235	0,153	0,106
-363,927	76,209	-0,032	0,025
-362,912	-99,487	0,033	0,006
-361,898	57,560	-0,054	0,039
-360,883	393,411	0,070	-0,108
-359,869	555,474	-0,033	-0,059
-358,854	-111,534	-0,034	0,005
-357,839	800,000	-0,063	-0,154
-356,825	800,000	0,047	0,122
-355,810	412,251	0,065	0,102
-354,796	-15,060	-0,159	0,075
-353,781	108,663	-0,072	0,063
-352,766	399,319	0,080	0,124
-351,752	222,430	0,018	0,021
-350,737	-200,000	0,032	0,154
-349,723	71,033	0,128	0,097
-348,708	131,335	-0,042	0,039
-347,693	-171,380	-0,044	-0,001
-346,679	800,000	-0,022	0,060
-345,664	347,082	-0,039	0,057
-344,650	-73,089	0,061	0,016
-343,635	800,000	0,023	0,058
-342,620	47,062	0,090	-0,061
-341,606	-200,000	-0,001	0,009
-340,591	-58,363	0,037	0,012
-339,577	-115,269	0,067	-0,009
-338,562	212,400	-0,042	-0,049
-337,548	-200,000	0,023	-0,076
-336,533	461,585	-0,048	0,078
-335,518	-15,296	-0,061	0,028
-334,504	-200,000	0,010	-0,081
-333,489	67,824	-0,103	-0,077
-332,475	-110,719	-0,022	0,003
-331,460	345,133	-0,033	-0,048
-330,445	495,460	0,019	-0,032
-329,431	-164,527	-0,041	0,001
-328,416	-200,000	0,032	0,104
-327,402	-200,000	-0,007	0,076
-326,387	120,119	0,090	-0,082
-325,372	-200,000	0,006	0,054
-324,358	-200,000	-0,026	0,110
-323,343	-200,000	0,004	0,066
-322,329	-200,000	-0,004	-0,096
-321,314	-200,000	-0,021	0,172
-320,299	-200,000	-0,009	0,051
-319,285	-6,661	0,027	-0,014
-318,270	-82,415	0,064	-0,015
-317,256	8,254	-0,051	0,028
-316,241	800,000	0,041	-0,083
-315,226	-200,000	0,038	-0,128
-314,212	56,091	0,092	0,065
-313,197	179,880	0,171	0,184
-312,183	-200,000	0,002	-0,057
-311,168	-200,000	-0,028	-0,186
-310,153	-106,876	-0,109	-0,017
-309,139	800,000	0,056	-0,157
-308,124	-71,447	-0,015	0,004
-307,110	-66,935	0,180	0,052
-306,095	-200,000	0,046	0,208
-305,080	800,000	0,047	0,119
-304,066	-40,731	0,069	-0,026
-303,051	-139,059	-0,080	0,006
-302,037	-200,000	-0,026	-0,097
-301,022	469,686	0,009	-0,015
-300,008	91,341	-0,069	0,057
-298,993	141,402	0,042	0,041
-297,978	-81,467	0,099	-0,024
-296,964	-59,127	-0,125	0,039
-295,949	596,222	-0,051	0,093
-294,935	-200,000	-0,001	-0,018
-293,920	63,510	-0,119	0,087
-292,905	-200,000	0,032	0,186
-291,891	593,838	-0,072	0,131
-290,876	-200,000	-0,023	-0,206
-289,862	800,000	0,016	0,047
-288,847	-44,001	-0,008	0,003
-287,832	-165,422	0,090	0,003
-286,818	800,000	-0,044	0,103
-285,803	800,000	-0,026	-0,071
-284,789	-73,471	0,132	0,035
-283,774	535,900	0,044	0,077
-282,759	366,804	0,039	-0,057
-281,745	22,744	0,085	-0,051
-280,730	483,197	-0,070	-0,118
-279,716	-200,000	0,034	-0,159
-278,701	26,724	0,059	0,036
-277,686	-200,000	-0,021	0,131
-276,672	-68,747	-0,075	0,021
-275,657	267,081	-0,033	-0,042
-274,643	20,583	-0,024	0,014
-273,628	800,000	0,013	0,027
-272,613	384,876	-0,035	-0,054
-271,599	800,000	0,023	0,067
-270,584	-200,000	0,028	0,120
-269,570	-200,000	0,017	0,132
-268,555	-78,358	0,117	-0,029
-267,540	48,485	-0,063	-0,043
-266,526	81,887	-0,055	0,044
-265,511	-200,000	0,015	-0,086
-264,497	-200,000	0,107	0,000
-263,482	176,758	-0,091	-0,097
-262,467	-160,922	0,068	-0,003
-261,453	81,728	0,044	0,035
-260,438	-67,245	0,019	0,005
-259,424	-80,590	-0,034	-0,008
-258,409	-200,000	-0,000	-0,024
-257,395	-119,189	0,066	0,008
-256,380	62,400	0,102	0,074
-255,365	-104,966	0,010	0,002
-254,351	-78,765	0,067	-0,017
-253,336	190,976	0,029	-0,031
-252,322	-200,000	0,017	-0,059
-251,307	261,701	-0,090	-0,114
-250,292	259,223	-0,041	-0,052
-249,278	-116,126	0,126	0,017
-248,263	-176,301	-0,054	0,001
-247,249	-200,000	-0,013	0,053
-246,234	70,915	-0,062	-0,047
-245,219	177,217	0,076	0,081
-244,205	133,663	0,054	-0,051
-243,190	800,000	-0,028	-0,089
-242,176	204,996	-0,047	0,053
-241,161	-99,916	-0,155	0,028
-240,146	763,628	-0,032	-0,063
-239,132	-200,000	-0,021	-0,088
-238,117	456,621	-0,037	0,060
-237,103	-172,398	-0,010	0,000
-236,088	-101,013	0,024	0,004
-235,073	-4,578	0,057	0,029
-234,059	-200,000	0,012	0,114
-233,044	-200,000	0,002	0,028
-232,030	800,000	0,051	0,108
-231,015	-172,463	-0,138	-0,003
-230,000	68,313	0,067	-0,050
-228,986	140,332	0,040	-0,039
-227,971	-50,499	-0,027	-0,009
-226,957	330,573	0,055	0,077
-225,942	-161,547	-0,064	-0,002
-224,927	-200,000	0,000	-0,091
-223,913	301,447	-0,054	-0,073
-222,898	800,000	0,061	0,135
-221,884	146,769	-0,040	-0,039
-220,869	267,569	-0,058	-0,074
-219,855	-143,405	-0,037	0,003
-218,840	-200,000	-0,001	0,102
-217,825	42,538	0,139	0,092
-216,811	291,207	0,070	-0,094
-215,796	-38,662	-0,030	-0,012
-214,782	195,632	-0,038	-0,042
-213,767	274,890	-0,041	-0,053
-212,752	221,937	0,021	0,025
-211,738	-200,000	0,009	0,072
-210,723	-28,541	0,082	0,034
-209,709	-200,000	-0,001	0,031
-208,694	139,969	0,076	-0,073
-207,679	800,000	-0,045	-0,121
-206,665	199,718	0,038	-0,043
-205,650	-200,000	0,003	0,073
-204,636	-200,000	0,043	0,168
-203,621	-200,000	0,011	-0,090
-202,606	205,550	0,050	-0,057
-201,592	800,000	-0,020	-0,051
-200,577	326,333	0,060	-0,084
-199,563	182,188	0,095	0,102
-198,548	-2,491	0,038	-0,019
-197,533	579,361	0,094	0,169
-196,519	800,000	0,051	0,164
-195,504	487,261	-0,073	-0,123
-194,490	-55,948	0,105	-0,034
-193,475	800,000	-0,007	0,021
-192,460	421,246	-0,042	0,066
-191,446	-200,000	-0,000	0,064
-190,431	57,450	0,079	0,056
-189,417	-200,000	0,013	0,143
-188,402	774,142	0,022	0,045
-187,387	-92,140	0,039	-0,008
-186,373	407,249	-0,026	0,040
-185,358	800,000	0,048	-0,118
-184,344	-200,000	-0,010	-0,155
-183,329	-200,000	-0,021	0,144
-182,315	148,979	-0,073	0,072
-181,300	0,695	-0,054	0,028
-180,285	800,000	-0,009	0,025
-179,271	-25,410	0,103	-0,044
-178,256	-200,000	-0,003	-0,015
-177,242	152,597	-0,032	0,031
-176,227	-121,799	0,072	0,009
-175,212	800,000	-0,017	0,043
-174,198	-99,009	-0,091	0,017
-173,183	264,797	0,004	0,005
-172,169	69,112	0,057	0,042
-171,154	-200,000	0,010	-0,130
-170,139	191,708	0,038	0,042
-169,125	800,000	-0,007	-0,019
-168,110	-200,000	0,011	0,063
-167,096	-200,000	0,032	0,139
-166,081	171,519	-0,062	0,065
-165,066	77,360	0,072	0,056
-164,052	-200,000	0,002	-0,115
-163,037	-144,177	0,072	-0,005
-162,023	-109,478	0,061	0,009
-161,008	-35,879	-0,152	0,060
-159,993	-200,000	0,006	0,142
-158,979	160,426	0,049	-0,050
-157,964	243,210	-0,089	-0,109
-156,950	-200,000	-0,002	-0,061
-155,935	800,000	0,012	0,037
-154,920	26,857	0,059	-0,036
-153,906	-105,382	-0,082	-0,013
-152,891	519,413	0,022	-0,037
-151,877	10,372	0,039	-0,022
-150,862	788,967	-0,030	0,060
-149,847	-110,065	-0,045	0,007
-148,833	-200,000	0,023	0,216
-147,818	800,000	-0,050	-0,102
-146,804	800,000	0,035	-0,079
-145,789	36,459	-0,073	-0,047
-144,775	-128,161	-0,043	-0,004
-143,760	800,000	0,056	0,167
-142,745	146,919	-0,074	0,073
-141,731	-100,556	-0,103	-0,018
-140,716	800,000	-0,030	0,075
-139,702	57,421	-0,070	0,050
-138,687	600,426	-0,044	0,080
-137,672	-85,731	-0,066	0,015
-136,658	140,985	0,047	-0,045
-135,643	-200,000	0,015	-0,206
-134,629	59,860	0,022	-0,016
-133,614	-119,411	-0,051	0,006
-132,599	-200,000	-0,007	0,088
-131,585	800,000	0,034	0,082
-130,570	800,000	0,021	0,057
-129,556	-127,415	-0,090	-0,009
-128,541	800,000	-0,043	-0,092
-127,526	-141,179	0,065	0,005
-126,512	-131,353	0,126	-0,012
-125,497	-200,000	0,027	0,095
-124,483	222,065	-0,077	0,090
-123,468	-200,000	-0,029	0,100
-122,453	-200,000	-0,070	0,258
-121,439	-120,669	-0,108	0,013
-120,424	351,268	0,097	-0,140
-119,410	266,970	0,056	-0,071
-118,395	800,000	-0,019	-0,059
