DTS Sentinel unit serial number:	SN410029Multiplexer serial number:	ORYXHardware model number:	OX2-SRSoftware version number:	ORYX F/W v4,00 Oryx Data Collector v3.7.2.0data status	okinstallation	B6 Nyhavnadifferential loss correction	single-endedforward channel	channel 2reverse channel	N/Adate	2023/12/10time	20:40:08forward acquisition time	300,00reverse acquisition time	0,00gamma	499,1914k internal	0,3122k external	0,3122temperature offset calibration	1,0000default loss term (dB/km)	0,3820temperature slope calibration	1,0000multiplexer offset coefficient	1,0000multiplexer slope coefficient	1,0000fibre end	0,00T internal ref (°C)	22,26T ext. ref 1 (°C)	5,80T ext. ref 2 (°C)	5,81length (m)	temperature (°C)	Stokes	anti-Stokes-744,400	-153,200	-0,108	0,006
-743,385	-122,722	-0,203	0,024
-742,371	256,056	0,050	-0,064
-741,356	120,140	-0,180	0,167
-740,342	800,000	0,018	0,038
-739,327	7,255	-0,215	0,119
-738,312	800,000	0,063	-0,190
-737,298	20,434	-0,146	-0,088
-736,283	124,366	-0,012	-0,011
-735,269	6,972	-0,248	0,138
-734,254	81,756	0,037	-0,029
-733,239	-64,079	-0,453	-0,137
-732,225	34,123	0,148	-0,096
-731,210	-124,813	-0,072	-0,008
-730,196	800,000	-0,036	-0,114
-729,181	391,679	-0,088	-0,136
-728,167	-100,521	0,109	-0,020
-727,152	800,000	0,041	0,133
-726,137	-182,638	-0,023	-0,000
-725,123	-73,799	-0,030	-0,008
-724,108	197,243	-0,065	-0,074
-723,094	-200,000	0,012	-0,123
-722,079	800,000	-0,061	-0,126
-721,064	-60,638	-0,136	0,043
-720,050	-169,254	0,075	-0,002
-719,035	-200,000	0,003	-0,056
-718,021	-118,804	-0,079	0,010
-717,006	-20,324	-0,158	0,072
-715,991	52,419	-0,114	0,081
-714,977	-200,000	-0,002	-0,140
-713,962	-22,491	-0,127	-0,057
-712,948	115,055	0,038	-0,035
-711,933	-6,341	-0,059	-0,030
-710,918	89,525	-0,077	0,064
-709,904	-62,789	-0,101	-0,031
-708,889	328,722	-0,031	-0,045
-707,875	800,000	0,017	-0,039
-706,860	-200,000	0,036	-0,159
-705,845	-200,000	-0,014	-0,063
-704,831	-24,237	0,059	0,026
-703,816	33,848	-0,095	0,061
-702,802	8,462	-0,078	-0,044
-701,787	339,004	-0,070	-0,102
-700,772	790,548	-0,031	-0,063
-699,758	-91,845	0,144	-0,030
-698,743	-83,489	0,052	0,012
-697,729	197,035	-0,060	0,069
-696,714	-200,000	0,003	0,183
-695,699	-10,613	-0,102	0,050
-694,685	-200,000	-0,008	0,054
-693,670	-200,000	0,035	0,130
-692,656	-73,400	-0,074	0,020
-691,641	-36,043	0,022	0,009
-690,627	201,485	0,098	0,113
-689,612	-97,839	-0,047	-0,009
-688,597	-200,000	0,014	-0,075
-687,583	800,000	0,024	-0,051
-686,568	-152,254	-0,049	-0,003
-685,554	115,556	0,038	0,035
-684,539	310,094	0,051	0,071
-683,524	-68,359	-0,089	-0,025
-682,510	-200,000	-0,005	-0,025
-681,495	800,000	-0,032	-0,066
-680,481	-200,000	0,016	-0,112
-679,466	201,715	0,052	-0,060
-678,451	-200,000	-0,031	-0,122
-677,437	800,000	0,015	0,041
-676,422	-93,953	-0,118	-0,024
-675,408	-200,000	-0,020	0,140
-674,393	40,640	0,044	0,030
-673,378	117,915	-0,017	0,016
-672,364	-200,000	-0,010	0,066
-671,349	-200,000	-0,010	-0,101
-670,335	-93,979	0,097	0,020
-669,320	10,646	-0,072	0,041
-668,305	-200,000	0,004	-0,024
-667,291	217,479	0,005	0,006
-666,276	-200,000	-0,003	0,165
-665,262	800,000	-0,016	0,043
-664,247	-200,000	0,010	-0,160
-663,232	800,000	0,049	0,111
-662,218	-200,000	0,005	0,164
-661,203	-23,412	-0,148	-0,066
-660,189	305,263	-0,031	-0,043
-659,174	85,389	-0,044	0,036
-658,159	-8,257	-0,085	-0,042
-657,145	607,698	-0,083	-0,155
-656,130	-138,144	0,090	0,007
-655,116	-121,794	-0,133	-0,016
-654,101	-200,000	0,014	0,110
-653,086	-200,000	0,010	0,044
-652,072	-200,000	0,010	-0,101
-651,057	-88,904	0,023	-0,005
-650,043	-120,575	-0,062	-0,008
-649,028	327,516	-0,037	0,053
-648,014	486,363	0,039	-0,066
-646,999	550,428	0,074	-0,132
-645,984	-144,325	-0,197	-0,013
-644,970	73,202	0,092	-0,072
-643,955	-13,773	-0,025	0,012
-642,941	0,767	-0,131	-0,069
-641,926	508,456	-0,034	-0,059
-640,911	-200,000	-0,016	0,078
-639,897	106,187	0,061	0,054
-638,882	-47,399	-0,066	0,024
-637,868	417,188	-0,022	0,036
-636,853	-2,035	-0,061	0,032
-635,838	-200,000	0,013	-0,053
-634,824	800,000	0,024	-0,056
-633,809	-200,000	0,003	0,070
-632,795	784,335	-0,043	0,088
-631,780	476,722	0,038	0,064
-630,765	177,928	0,084	-0,091
-629,751	800,000	-0,043	-0,138
-628,736	-32,974	0,056	-0,023
-627,722	-200,000	-0,011	-0,085
-626,707	-80,961	0,082	-0,020
-625,692	800,000	0,054	0,122
-624,678	614,510	-0,031	-0,059
-623,663	-153,122	-0,051	-0,003
-622,649	800,000	-0,052	-0,117
-621,634	-33,784	-0,039	0,016
-620,619	150,378	-0,107	-0,108
-619,605	-89,059	0,089	0,019
-618,590	800,000	0,043	0,122
-617,576	-127,421	-0,072	0,008
-616,561	-131,028	-0,050	-0,005
-615,546	-108,678	-0,152	-0,024
-614,532	180,235	-0,068	-0,074
-613,517	-200,000	-0,025	0,085
-612,503	50,237	-0,050	-0,035
-611,488	473,623	0,033	0,055
-610,474	9,108	0,021	-0,012
-609,459	800,000	-0,027	0,069
-608,444	-200,000	-0,010	-0,134
-607,430	-200,000	0,001	-0,065
-606,415	210,608	-0,157	-0,184
-605,401	-200,000	-0,004	0,136
-604,386	-200,000	-0,002	-0,052
-603,371	-24,083	-0,114	0,050
-602,357	82,420	0,048	0,039
-601,342	220,120	-0,077	-0,092
-600,328	385,734	-0,083	-0,128
-599,313	-67,283	0,094	-0,027
-598,298	431,428	-0,066	-0,107
-597,284	-39,076	0,089	0,035
-596,269	-200,000	-0,017	-0,070
-595,255	486,022	-0,033	-0,056
-594,240	800,000	0,026	-0,059
-593,225	-95,482	-0,075	-0,015
-592,211	-67,220	-0,087	-0,025
-591,196	-200,000	0,013	-0,066
-590,182	135,639	-0,066	0,064
-589,167	-198,076	0,073	0,000
-588,152	-200,000	-0,019	0,124
-587,138	-30,204	-0,056	-0,024
-586,123	800,000	-0,037	-0,078
-585,109	701,551	-0,020	-0,039
-584,094	-196,054	-0,025	0,000
-583,079	46,947	0,069	-0,048
-582,065	-51,169	-0,114	-0,039
-581,050	-200,000	0,029	0,129
-580,036	-200,000	-0,003	-0,094
-579,021	114,512	-0,068	-0,062
-578,006	800,000	-0,040	-0,104
-576,992	-200,000	0,018	0,097
-575,977	-200,000	-0,002	0,054
-574,963	-32,306	0,036	0,015
-573,948	496,242	-0,021	0,036
-572,934	46,542	0,033	-0,022
-571,919	-200,000	-0,029	-0,167
-570,904	-200,000	0,042	-0,178
-569,890	-65,982	-0,070	0,021
-568,875	800,000	0,016	-0,044
-567,861	535,442	0,021	-0,038
-566,846	-200,000	0,006	-0,032
-565,831	-36,219	-0,030	-0,012
-564,817	287,829	0,024	0,032
-563,802	750,889	0,047	0,095
-562,788	503,644	-0,008	0,014
-561,773	-200,000	-0,001	0,082
-560,758	268,818	0,042	0,055
-559,744	-107,396	0,181	0,029
-558,729	-200,000	-0,002	-0,111
-557,715	-200,000	0,002	0,048
-556,700	-200,000	-0,027	-0,102
-555,685	165,294	0,099	0,103
-554,671	159,326	-0,086	0,088
-553,656	749,822	-0,015	0,030
-552,642	180,028	0,066	-0,072
-551,627	284,196	0,071	-0,094
-550,612	58,121	0,037	-0,027
-549,598	-28,708	0,068	-0,029
-548,583	235,785	-0,044	0,054
-547,569	50,610	0,135	0,094
-546,554	733,801	-0,035	-0,070
-545,539	338,027	-0,017	-0,024
-544,525	-109,036	0,129	0,020
-543,510	91,957	-0,159	0,133
-542,496	-100,360	-0,079	-0,014
-541,481	498,438	0,070	-0,120
-540,466	-50,488	0,037	0,013
-539,452	-88,550	0,099	0,022
-538,437	451,100	0,021	0,035
-537,423	800,000	-0,053	-0,113
-536,408	93,560	0,049	-0,041
-535,393	222,946	-0,142	-0,170
-534,379	24,453	-0,122	-0,074
-533,364	-200,000	-0,001	-0,005
-532,350	93,309	0,039	-0,033
-531,335	-33,139	0,217	0,089
-530,321	295,277	-0,064	0,087
-529,306	800,000	-0,008	-0,026
-528,291	-200,000	-0,024	-0,100
-527,277	350,136	-0,032	0,047
-526,262	-45,011	-0,101	-0,037
-525,248	-24,433	0,139	0,061
-524,233	-200,000	-0,108	0,000
-523,218	209,366	0,039	-0,046
-522,204	-200,000	0,031	-0,109
-521,189	-200,000	-0,032	0,136
-520,175	-26,380	-0,079	-0,034
-519,160	229,654	0,109	-0,132
-518,145	-200,000	0,031	0,106
-517,131	-68,336	-0,063	0,018
-516,116	-135,274	0,083	0,007
-515,102	215,578	-0,063	-0,074
-514,087	424,848	-0,034	0,054
-513,072	-20,960	-0,115	-0,052
-512,058	-200,000	0,006	0,046
-511,043	110,529	-0,085	0,075
-510,029	175,914	-0,037	-0,040
-509,014	76,862	0,035	0,027
-507,999	-3,465	0,074	-0,038
-506,985	800,000	0,005	0,014
-505,970	-37,683	-0,046	0,018
-504,956	800,000	0,041	-0,102
-503,941	390,391	-0,057	-0,088
-502,926	110,451	0,052	0,046
-501,912	-200,000	0,006	-0,154
-500,897	202,948	-0,003	0,004
-499,883	-200,000	0,018	-0,107
-498,868	194,401	-0,058	0,065
-497,853	-200,000	-0,005	0,039
-496,839	122,373	-0,062	0,058
-495,824	40,173	0,067	-0,044
-494,810	159,710	0,114	0,118
-493,795	-200,000	0,001	0,054
-492,781	-45,696	-0,099	0,036
-491,766	-200,000	-0,017	-0,061
-490,751	-20,475	-0,081	-0,037
-489,737	-200,000	-0,012	-0,055
-488,722	55,280	0,036	-0,026
-487,708	136,424	0,137	0,132
-486,693	8,338	0,081	0,045
-485,678	800,000	0,019	-0,052
-484,664	-144,979	-0,092	-0,006
-483,649	-8,823	-0,066	-0,032
-482,635	568,008	-0,011	-0,019
-481,620	93,532	0,077	-0,064
-480,605	29,050	0,140	0,087
-479,591	-200,000	-0,023	0,105
-478,576	-112,454	-0,024	0,003
-477,562	-112,696	-0,103	-0,015
-476,547	-14,858	-0,092	-0,043
-475,532	-91,576	0,033	0,007
-474,518	-165,307	-0,126	0,004
-473,503	201,632	0,009	0,010
-472,489	686,613	-0,039	0,076
-471,474	31,929	-0,101	0,064
-470,459	800,000	0,026	0,073
-469,445	-200,000	-0,018	-0,065
-468,430	239,022	0,033	-0,040
-467,416	-42,861	-0,017	-0,006
-466,401	-102,755	0,100	-0,017
-465,386	237,335	-0,021	-0,026
-464,372	600,567	0,061	0,113
-463,357	800,000	-0,027	-0,077
-462,343	-14,684	-0,114	0,054
-461,328	-200,000	-0,025	-0,148
-460,313	-44,826	0,077	-0,028
-459,299	67,685	-0,113	0,085
-458,284	265,681	0,010	0,012
-457,270	82,508	-0,022	-0,018
-456,255	-200,000	0,004	0,163
-455,241	-91,891	-0,089	-0,018
-454,226	-40,636	-0,039	0,015
-453,211	800,000	-0,028	0,060
-452,197	-69,812	0,085	0,024
-451,182	60,184	0,047	0,035
-450,168	-33,613	0,045	-0,018
-449,153	800,000	0,042	0,100
-448,138	800,000	-0,044	-0,092
-447,124	-101,392	-0,050	-0,009
-446,109	-5,789	0,076	-0,038
-445,095	-130,387	0,014	0,001
-444,080	-94,496	-0,013	-0,003
-443,065	-42,252	0,091	0,034
-442,051	-200,000	0,005	-0,075
-441,036	800,000	-0,052	-0,159
-440,022	-72,916	0,122	0,033
-439,007	-200,000	-0,011	0,058
-437,992	-200,000	-0,020	0,107
-436,978	-118,123	0,118	0,015
-435,963	438,532	0,076	-0,123
-434,949	800,000	0,038	0,077
-433,934	12,007	0,052	0,030
-432,919	73,454	-0,048	0,037
-431,905	230,237	0,072	-0,087
-430,890	800,000	-0,037	0,095
-429,876	-112,995	0,077	0,011
-428,861	707,212	0,025	-0,049
-427,846	-200,000	-0,008	-0,034
-426,832	277,766	-0,034	-0,045
-425,817	197,547	0,113	0,127
-424,803	-200,000	0,011	-0,120
-423,788	75,213	0,035	0,027
-422,773	800,000	-0,025	-0,051
-421,759	9,813	0,088	0,049
-420,744	-200,000	-0,009	0,034
-419,730	-52,285	-0,208	0,071
-418,715	-155,182	-0,073	-0,003
-417,701	-151,351	0,044	-0,002
-416,686	-5,868	0,109	0,055
-415,671	-130,045	0,081	-0,008
-414,657	63,406	0,023	0,017
-413,642	-200,000	0,018	-0,082
-412,628	-141,617	-0,068	-0,005
-411,613	-139,278	-0,029	-0,002
-410,598	309,332	-0,023	0,031
-409,584	-26,323	0,128	0,055
-408,569	81,779	-0,105	0,083
-407,555	13,816	0,087	-0,050
-406,540	-52,069	0,091	0,031
-405,525	18,571	-0,108	0,063
-404,511	-17,780	-0,214	0,098
-403,496	-2,493	-0,093	0,048
-402,482	541,109	-0,043	-0,076
-401,467	-106,678	0,071	-0,011
-400,452	-31,990	-0,095	0,039
-399,438	800,000	0,037	0,076
-398,423	185,933	0,071	-0,078
-397,409	-159,465	-0,089	0,004
-396,394	800,000	0,045	-0,107
-395,379	186,362	-0,027	-0,030
-394,365	44,594	-0,074	0,050
-393,350	-16,755	0,053	0,025
-392,336	-168,654	0,157	0,004
-391,321	85,993	-0,033	-0,026
-390,306	329,123	0,027	0,038
-389,292	800,000	-0,025	-0,068
-388,277	-110,203	-0,060	0,009
-387,263	318,392	0,044	0,061
-386,248	164,269	0,119	-0,123
-385,233	-123,174	0,028	0,003
-384,219	-23,498	-0,058	-0,025
-383,204	139,239	-0,079	-0,077
-382,190	16,280	0,047	0,027
-381,175	170,637	0,019	-0,020
-380,160	800,000	-0,042	-0,092
-379,146	-200,000	0,024	0,093
-378,131	245,755	-0,031	0,038
-377,117	344,967	0,037	-0,054
-376,102	-6,443	0,052	0,026
-375,088	377,765	-0,010	0,016
-374,073	23,124	-0,060	0,036
-373,058	-200,000	-0,003	0,165
-372,044	-200,000	0,004	0,014
-371,029	-170,887	-0,056	-0,001
-370,015	-200,000	0,019	0,077
-369,000	-54,393	-0,089	-0,029
-367,985	316,657	-0,045	-0,062
-366,971	-200,000	-0,021	-0,198
-365,956	606,079	0,034	-0,063
-364,942	459,726	0,033	0,055
-363,927	-49,592	0,142	-0,049
-362,912	-89,102	-0,077	-0,017
-361,898	324,228	-0,055	0,077
-360,883	-200,000	0,017	-0,085
-359,869	-200,000	0,005	0,046
-358,854	285,135	-0,047	-0,063
-357,839	340,396	0,062	0,089
-356,825	-149,526	0,055	0,003
-355,810	-200,000	0,016	-0,073
-354,796	800,000	-0,067	0,144
-353,781	-200,000	-0,024	-0,095
-352,766	-200,000	0,028	-0,102
-351,752	308,264	-0,024	0,033
-350,737	89,909	0,054	0,044
-349,723	-200,000	-0,013	0,043
-348,708	-167,566	0,091	0,003
-347,693	261,051	0,018	-0,024
-346,679	429,709	-0,037	0,059
-345,664	109,840	-0,095	-0,084
-344,650	469,672	-0,037	0,062
-343,635	-183,817	0,159	0,002
-342,620	-200,000	-0,009	-0,049
-341,606	-200,000	-0,029	0,184
-340,591	-200,000	-0,009	-0,086
-339,577	-95,515	0,040	0,008
-338,562	148,603	-0,067	-0,067
-337,548	-200,000	0,019	0,078
-336,533	392,646	-0,050	-0,076
-335,518	194,729	-0,008	-0,009
-334,504	749,805	0,044	0,088
-333,489	35,401	0,048	-0,031
-332,475	800,000	-0,049	-0,136
-331,460	571,011	-0,046	0,083
-330,445	-138,642	0,033	0,003
-329,431	483,094	0,076	-0,127
-328,416	-200,000	-0,015	0,117
-327,402	-200,000	0,002	0,008
-326,387	-200,000	-0,015	0,055
-325,372	52,666	0,064	0,045
-324,358	-37,346	-0,027	0,010
-323,343	612,321	0,034	-0,063
-322,329	-200,000	0,012	-0,069
-321,314	112,331	-0,096	0,086
-320,299	-94,450	0,042	0,008
-319,285	442,177	-0,040	-0,064
-318,270	-56,393	-0,116	-0,038
-317,256	-134,005	0,012	-0,001
-316,241	364,109	0,058	-0,086
-315,226	1,621	0,144	-0,076
-314,212	386,628	0,016	-0,024
-313,197	-28,548	0,035	-0,015
-312,183	-131,421	-0,038	-0,004
-311,168	-188,323	-0,170	-0,002
-310,153	-200,000	0,006	-0,057
-309,139	602,587	-0,042	0,076
-308,124	-75,734	-0,063	0,016
-307,110	287,943	0,055	0,073
-306,095	122,953	0,118	0,109
-305,080	-200,000	0,042	-0,140
-304,066	-200,000	0,053	-0,192
-303,051	-5,817	-0,005	0,003
-302,037	-36,612	0,084	-0,033
-301,022	-200,000	0,001	-0,084
-300,008	-33,453	0,090	-0,036
-298,993	188,258	0,083	0,091
-297,978	75,810	0,043	0,033
-296,964	65,465	0,074	-0,055
-295,949	-7,698	0,090	0,044
-294,935	121,431	0,097	-0,089
-293,920	-200,000	-0,029	-0,127
-292,905	-143,575	-0,074	-0,005
-291,891	267,377	-0,064	0,082
-290,876	-200,000	-0,000	0,040
-289,862	800,000	-0,052	-0,163
-288,847	114,764	0,040	0,036
-287,832	364,401	-0,088	0,130
-286,818	-200,000	0,008	-0,060
-285,803	-66,519	-0,066	0,019
-284,789	800,000	0,018	0,042
-283,774	39,367	0,126	0,083
-282,759	-112,743	0,095	0,014
-281,745	-96,502	-0,097	0,019
-280,730	46,336	-0,023	-0,016
-279,716	-200,000	0,003	0,110
-278,701	371,324	0,133	0,198
-277,686	-200,000	0,001	-0,015
-276,672	-86,960	-0,075	-0,017
-275,657	88,695	0,009	0,007
-274,643	69,740	0,066	0,050
-273,628	14,210	0,177	0,101
-272,613	800,000	0,022	-0,058
-271,599	-200,000	-0,002	-0,028
-270,584	-112,194	0,028	0,004
-269,570	667,828	0,056	0,107
-268,555	-59,028	0,221	0,070
-267,540	-200,000	-0,041	-0,134
-266,526	269,573	-0,025	-0,032
-265,511	156,514	-0,082	0,083
-264,497	244,784	0,037	-0,046
-263,482	351,090	-0,051	-0,075
-262,467	-200,000	-0,040	0,167
-261,453	150,845	-0,035	0,035
-260,438	58,180	-0,106	-0,076
-259,424	800,000	-0,014	-0,031
-258,409	16,007	-0,011	-0,006
-257,395	25,942	0,106	0,065
-256,380	223,901	-0,039	-0,046
-255,365	-200,000	-0,023	0,094
-254,351	245,057	-0,044	0,054
-253,336	227,189	-0,040	-0,048
-252,322	-200,000	0,001	-0,148
-251,307	-200,000	0,001	0,068
-250,292	800,000	-0,008	0,019
-249,278	407,629	0,034	-0,053
-248,263	-200,000	-0,002	0,067
-247,249	800,000	0,014	0,042
-246,234	230,258	0,022	-0,026
-245,219	78,211	0,024	0,019
-244,205	-200,000	0,012	0,087
-243,190	214,157	0,091	0,106
-242,176	740,189	0,058	0,115
-241,161	-88,854	0,080	-0,017
-240,146	183,587	0,121	-0,131
-239,132	-89,995	0,084	0,018
-238,117	42,315	-0,117	-0,077
-237,103	38,897	-0,165	0,107
-236,088	800,000	-0,030	0,065
-235,073	237,733	0,089	-0,108
-234,059	-26,916	0,069	-0,029
-233,044	-3,495	0,055	0,028
-232,030	295,800	-0,101	-0,136
-231,015	162,020	-0,097	-0,099
-230,000	637,475	-0,048	-0,090
-228,986	-23,770	-0,051	0,022
-227,971	-28,890	0,117	0,049
-226,957	-200,000	0,003	-0,061
-225,942	38,156	-0,139	0,090
-224,927	-172,659	-0,078	0,002
-223,913	-9,754	-0,021	0,010
-222,898	-65,528	0,098	-0,028
-221,884	-200,000	-0,017	0,116
-220,869	800,000	-0,012	0,026
-219,855	-147,177	-0,098	0,006
-218,840	800,000	0,088	0,204
-217,825	-200,000	-0,001	0,104
-216,811	101,163	0,044	-0,037
-215,796	772,891	-0,041	0,083
-214,782	800,000	-0,010	0,029
-213,767	96,649	-0,030	0,025
-212,752	-86,743	0,042	-0,009
-211,738	-200,000	-0,002	0,053
-210,723	414,275	-0,047	-0,074
-209,709	-68,709	0,082	-0,023
-208,694	-200,000	-0,015	0,102
-207,679	-199,260	-0,053	0,000
-206,665	-143,345	0,119	-0,008
-205,650	-200,000	0,025	0,133
-204,636	-122,170	-0,073	0,009
-203,621	-120,176	-0,020	-0,002
-202,606	800,000	-0,011	0,024
-201,592	27,374	0,007	-0,004
-200,577	-200,000	-0,018	-0,092
-199,563	-121,766	0,082	0,010
-198,548	-148,709	0,098	0,006
-197,533	142,446	0,069	0,067
-196,519	-134,192	-0,111	0,010
-195,504	-113,630	0,142	-0,020
-194,490	43,335	0,037	0,024
-193,475	-89,296	-0,031	-0,007
-192,460	-11,640	0,016	-0,008
-191,446	128,974	0,033	-0,031
-190,431	149,462	-0,034	0,033
-189,417	-152,763	-0,125	0,006
-188,402	74,773	-0,074	0,057
-187,387	-59,211	-0,059	0,018
-186,373	5,897	-0,089	0,048
-185,358	20,707	-0,063	-0,037
-184,344	-200,000	0,065	-0,000
-183,329	-2,187	-0,107	-0,055
-182,315	-200,000	0,003	0,182
-181,300	-131,194	0,127	-0,012
-180,285	-82,792	-0,184	-0,043
-179,271	-23,355	-0,081	-0,035
-178,256	73,916	-0,072	-0,055
-177,242	-92,015	-0,049	0,010
-176,227	-200,000	-0,010	0,156
-175,212	145,118	0,046	-0,045
-174,198	284,981	-0,009	0,011
-173,183	-85,927	0,061	0,014
-172,169	35,284	-0,046	0,030
-171,154	68,932	-0,133	0,099
-170,139	-200,000	0,019	0,101
-169,125	800,000	0,075	0,228
-168,110	800,000	0,041	-0,087
-167,096	61,367	0,125	-0,091
-166,081	800,000	-0,039	-0,095
-165,066	-200,000	0,086	0,000
-164,052	167,102	0,062	-0,064
-163,037	30,799	0,015	-0,009
-162,023	800,000	-0,030	0,067
-161,008	800,000	0,041	0,108
-159,993	-200,000	-0,006	-0,086
-158,979	17,334	0,027	-0,015
-157,964	800,000	-0,070	0,163
-156,950	90,025	0,084	-0,069
-155,935	-113,172	0,105	-0,015
-154,920	215,312	0,029	0,034
-153,906	-119,805	-0,003	0,000
-152,891	-15,663	-0,017	0,008
-151,877	-200,000	-0,004	0,031
-150,862	105,701	-0,127	-0,109
-149,847	800,000	-0,013	-0,033
-148,833	19,660	-0,073	-0,043
-147,818	800,000	0,064	0,134
-146,804	149,853	0,105	0,104
-145,789	345,633	-0,068	0,098
-144,775	-134,250	-0,049	0,004
-143,760	-200,000	0,023	-0,079
-142,745	-39,306	-0,128	-0,049
-141,731	-200,000	0,004	0,014
-140,716	17,778	0,075	-0,043
-139,702	319,967	0,028	-0,039
-138,687	-200,000	-0,039	-0,129
-137,672	-113,981	0,032	-0,005
-136,658	-200,000	-0,001	0,084
-135,643	212,639	0,126	-0,145
-134,629	293,779	-0,090	-0,120
-133,614	-200,000	0,028	0,096
-132,599	784,991	-0,053	-0,106
-131,585	-200,000	-0,009	0,066
-130,570	-79,632	-0,090	-0,022
-129,556	-14,836	-0,092	-0,043
-128,541	800,000	-0,070	-0,161
-127,526	-1,141	-0,099	0,051
-126,512	339,934	-0,044	0,063
-125,497	-125,379	0,070	0,008
-124,483	800,000	-0,014	0,038
-123,468	800,000	-0,051	-0,121
-122,453	2,499	-0,146	-0,077
-121,439	-143,134	0,072	0,005
-120,424	253,193	-0,035	0,044
-119,410	40,855	0,087	0,057
