DTS Sentinel unit serial number:	SN410029Multiplexer serial number:	ORYXHardware model number:	OX2-SRSoftware version number:	ORYX F/W v4,00 Oryx Data Collector v3.7.2.0data status	okinstallation	B6 Nyhavnadifferential loss correction	single-endedforward channel	channel 2reverse channel	N/Adate	2023/12/08time	06:40:08forward acquisition time	300,00reverse acquisition time	0,00gamma	499,1914k internal	0,3165k external	0,3165temperature offset calibration	1,0000default loss term (dB/km)	0,3820temperature slope calibration	1,0000multiplexer offset coefficient	1,0000multiplexer slope coefficient	1,0000fibre end	0,00T internal ref (°C)	13,02T ext. ref 1 (°C)	-3,64T ext. ref 2 (°C)	-3,64length (m)	temperature (°C)	Stokes	anti-Stokes-744,400	30,616	0,102	-0,064
-743,385	-106,567	-0,134	0,022
-742,371	551,117	0,073	0,129
-741,356	-45,377	-0,313	-0,114
-740,342	90,465	0,107	0,088
-739,327	-117,907	-0,495	-0,064
-738,312	288,393	0,095	-0,127
-737,298	-49,491	-0,383	-0,133
-736,283	162,102	0,120	-0,124
-735,269	-117,625	-0,367	-0,048
-734,254	-127,455	0,167	0,018
-733,239	-4,253	-0,398	-0,202
-732,225	-134,620	0,202	0,018
-731,210	176,468	0,130	0,139
-730,196	-102,111	0,114	-0,020
-729,181	800,000	0,024	0,060
-728,167	-200,000	0,008	0,113
-727,152	269,527	-0,060	0,077
-726,137	-200,000	-0,014	-0,165
-725,123	29,134	-0,108	-0,067
-724,108	-164,082	-0,073	0,002
-723,094	800,000	-0,023	-0,067
-722,079	99,423	0,045	-0,038
-721,064	-153,138	-0,145	-0,007
-720,050	150,771	0,049	0,049
-719,035	-200,000	0,005	0,034
-718,021	403,951	-0,057	0,088
-717,006	-200,000	-0,008	-0,067
-715,991	800,000	-0,066	-0,195
-714,977	-200,000	-0,008	0,058
-713,962	-154,139	-0,101	-0,005
-712,948	148,427	0,045	-0,045
-711,933	-179,328	-0,051	-0,001
-710,918	-200,000	0,009	0,050
-709,904	321,711	-0,030	0,042
-708,889	185,526	-0,013	0,014
-707,875	48,640	0,116	0,080
-706,860	554,406	0,036	0,065
-705,845	379,843	-0,087	0,131
-704,831	-200,000	0,037	-0,153
-703,816	246,195	-0,028	-0,035
-702,802	129,358	0,082	0,077
-701,787	-79,926	-0,100	-0,024
-700,772	509,564	0,054	-0,092
-699,758	-129,221	0,100	0,010
-698,743	123,783	0,077	0,071
-697,729	456,681	0,023	-0,038
-696,714	24,894	-0,054	-0,033
-695,699	124,476	-0,100	0,093
-694,685	-13,407	0,150	0,071
-693,670	-177,849	0,059	0,001
-692,656	223,081	-0,067	0,079
-691,641	264,419	0,075	0,096
-690,627	663,733	-0,062	0,117
-689,612	-69,855	-0,091	0,025
-688,597	-200,000	0,004	-0,046
-687,583	144,443	-0,026	-0,026
-686,568	-200,000	-0,002	-0,117
-685,554	800,000	0,001	0,003
-684,539	183,909	0,066	0,071
-683,524	-200,000	-0,012	-0,056
-682,510	414,863	0,069	0,108
-681,495	-16,645	0,053	0,025
-680,481	-83,507	-0,038	-0,009
-679,466	361,035	0,080	-0,118
-678,451	29,543	-0,079	-0,049
-677,437	-157,520	0,136	-0,006
-676,422	5,501	0,082	0,044
-675,408	573,084	-0,056	-0,101
-674,393	121,495	0,081	0,074
-673,378	-37,772	-0,086	-0,033
-672,364	800,000	-0,071	-0,146
-671,349	16,345	-0,125	-0,072
-670,335	532,085	0,016	-0,027
-669,320	-131,907	-0,090	-0,008
-668,305	-200,000	0,023	0,191
-667,291	277,368	0,099	0,129
-666,276	15,564	-0,050	0,029
-665,262	-52,060	-0,180	-0,061
-664,247	-164,823	0,130	-0,004
-663,232	49,357	-0,080	0,055
-662,218	293,566	0,119	0,160
-661,203	-200,000	-0,038	0,180
-660,189	-200,000	-0,023	0,102
-659,174	-200,000	0,009	0,035
-658,159	-200,000	-0,021	-0,090
-657,145	-56,175	-0,134	-0,043
-656,130	214,687	-0,025	-0,029
-655,116	-200,000	0,017	-0,058
-654,101	410,453	0,045	0,071
-653,086	63,941	-0,080	0,059
-652,072	-200,000	0,009	-0,134
-651,057	-6,228	-0,009	-0,004
-650,043	159,017	-0,050	-0,051
-649,028	-200,000	0,008	0,034
-648,014	-200,000	-0,029	0,100
-646,999	800,000	-0,005	0,011
-645,984	120,240	-0,036	0,032
-644,970	-200,000	0,029	0,117
-643,955	-5,790	-0,061	-0,030
-642,941	-18,801	-0,116	0,053
-641,926	-200,000	0,007	-0,028
-640,911	-65,759	0,102	0,030
-639,897	-61,436	-0,050	-0,015
-638,882	800,000	0,018	-0,048
-637,868	-116,198	-0,093	0,013
-636,853	436,041	0,026	0,042
-635,838	-200,000	0,015	-0,097
-634,824	800,000	0,041	0,102
-633,809	-200,000	0,010	-0,144
-632,795	782,312	-0,020	0,040
-631,780	25,594	-0,099	0,060
-630,765	-58,551	0,119	-0,038
-629,751	426,906	-0,026	-0,042
-628,736	-121,857	-0,095	-0,011
-627,722	409,902	-0,039	0,061
-626,707	800,000	0,061	-0,175
-625,692	657,483	-0,040	0,076
-624,678	-65,392	-0,031	0,009
-623,663	-41,018	0,017	-0,007
-622,649	21,035	-0,146	0,087
-621,634	-200,000	-0,014	-0,049
-620,619	-200,000	0,005	-0,066
-619,605	56,059	0,136	-0,097
-618,590	-82,739	0,167	-0,039
-617,576	-200,000	0,024	0,126
-616,561	-200,000	0,013	0,067
-615,546	-144,765	0,075	0,005
-614,532	-200,000	0,012	-0,088
-613,517	546,822	-0,032	-0,057
-612,503	-79,552	0,033	0,008
-611,488	-163,630	-0,073	-0,002
-610,474	800,000	-0,014	0,036
-609,459	800,000	0,019	0,054
-608,444	100,792	-0,040	-0,034
-607,430	-64,211	-0,129	0,038
-606,415	267,283	-0,055	-0,071
-605,401	-200,000	-0,025	0,099
-604,386	43,117	0,138	0,092
-603,371	-27,719	-0,204	0,086
-602,357	-43,777	0,130	-0,048
-601,342	9,318	-0,088	0,048
-600,328	385,517	-0,099	0,150
-599,313	220,571	-0,070	0,083
-598,298	800,000	-0,030	-0,068
-597,284	-200,000	-0,040	0,162
-596,269	-129,436	-0,095	0,010
-595,255	800,000	-0,059	-0,122
-594,240	67,760	0,151	-0,113
-593,225	-144,497	0,050	0,003
-592,211	-3,730	-0,181	-0,091
-591,196	-153,200	-0,159	-0,008
-590,182	-200,000	-0,027	-0,102
-589,167	-86,880	0,084	0,019
-588,152	8,626	0,061	0,033
-587,138	-64,178	-0,111	-0,033
-586,123	-82,497	-0,146	-0,034
-585,109	144,048	0,102	-0,099
-584,094	123,845	0,143	-0,132
-583,079	-48,256	-0,164	0,058
-582,065	800,000	0,030	0,062
-581,050	615,914	-0,046	0,085
-580,036	184,789	0,095	0,103
-579,021	684,104	0,065	-0,125
-578,006	38,162	0,092	-0,060
-576,992	-150,718	-0,112	-0,006
-575,977	487,964	0,042	-0,071
-574,963	-200,000	0,011	-0,072
-573,948	206,687	0,076	0,087
-572,934	665,046	0,035	-0,067
-571,919	-6,168	-0,049	0,024
-570,904	-104,478	-0,096	-0,016
-569,890	297,798	-0,045	-0,061
-568,875	-49,986	0,132	-0,046
-567,861	-200,000	-0,002	-0,086
-566,846	32,103	0,153	0,096
-565,831	228,354	-0,032	0,038
-564,817	800,000	-0,010	-0,029
-563,802	-71,598	-0,027	-0,007
-562,788	-200,000	0,022	-0,142
-561,773	-200,000	0,013	-0,072
-560,758	-200,000	-0,016	-0,074
-559,744	-144,011	-0,108	0,007
-558,729	83,055	-0,060	-0,048
-557,715	-200,000	-0,004	-0,038
-556,700	60,726	-0,122	-0,088
-555,685	224,018	-0,083	-0,098
-554,671	-200,000	0,004	0,110
-553,656	800,000	0,043	0,116
-552,642	-200,000	0,002	0,039
-551,627	-39,840	-0,060	-0,023
-550,612	-12,498	-0,090	-0,043
-549,598	427,503	-0,096	-0,152
-548,583	141,399	0,062	-0,060
-547,569	156,353	-0,043	-0,044
-546,554	-123,720	0,063	0,007
-545,539	-200,000	0,018	0,093
-544,525	-200,000	0,002	0,070
-543,510	800,000	-0,063	-0,159
-542,496	288,462	0,056	-0,074
-541,481	266,963	-0,037	-0,048
-540,466	43,627	0,021	-0,014
-539,452	-200,000	-0,003	-0,014
-538,437	539,157	0,016	-0,029
-537,423	-13,606	0,129	0,061
-536,408	-200,000	-0,003	0,063
-535,393	-29,489	0,064	0,026
-534,379	-200,000	-0,014	-0,062
-533,364	-12,278	-0,150	0,071
-532,350	56,060	0,039	0,028
-531,335	150,440	-0,034	-0,034
-530,321	800,000	-0,026	-0,080
-529,306	-164,974	0,083	-0,003
-528,291	60,970	-0,079	-0,057
-527,277	33,838	0,151	0,095
-526,262	-200,000	0,007	0,037
-525,248	319,184	-0,031	-0,043
-524,233	-166,642	0,058	-0,002
-523,218	-200,000	0,007	0,103
-522,204	-200,000	0,020	0,218
-521,189	-200,000	0,019	0,128
-520,175	481,842	0,057	-0,095
-519,160	122,487	0,060	-0,055
-518,145	78,104	0,118	0,092
-517,131	-200,000	-0,001	0,057
-516,116	283,061	-0,052	0,068
-515,102	800,000	0,022	0,048
-514,087	-109,726	0,056	0,008
-513,072	-200,000	-0,016	-0,072
-512,058	81,682	-0,042	0,033
-511,043	90,651	0,010	0,008
-510,029	311,958	0,048	0,066
-509,014	273,929	-0,012	-0,015
-507,999	296,203	-0,008	0,011
-506,985	46,418	-0,096	0,065
-505,970	-5,562	-0,086	-0,043
-504,956	160,872	0,057	-0,058
-503,941	91,673	-0,045	-0,037
-502,926	65,855	0,093	-0,069
-501,912	-200,000	-0,000	-0,076
-500,897	116,743	-0,040	-0,035
-499,883	800,000	0,051	-0,124
-498,868	89,716	-0,090	-0,073
-497,853	800,000	0,029	-0,075
-496,839	-81,511	0,075	0,018
-495,824	-200,000	-0,012	0,087
-494,810	-134,676	0,056	0,005
-493,795	467,095	-0,010	0,016
-492,781	-200,000	-0,017	0,089
-491,766	-45,892	-0,101	0,036
-490,751	-84,927	0,143	-0,032
-489,737	0,550	0,099	0,052
-488,722	-31,662	-0,069	-0,028
-487,708	-56,835	0,110	-0,035
-486,693	143,167	-0,077	0,075
-485,678	31,553	-0,090	-0,056
-484,664	-73,654	-0,145	0,038
-483,649	-200,000	-0,012	0,043
-482,635	-140,894	0,168	-0,012
-481,620	278,966	0,076	-0,099
-480,605	-14,207	0,091	0,043
-479,591	-105,767	0,124	0,020
-478,576	800,000	0,018	-0,053
-477,562	-200,000	-0,004	-0,074
-476,547	-200,000	-0,014	-0,124
-475,532	35,542	-0,121	-0,077
-474,518	722,430	0,094	-0,184
-473,503	-69,422	-0,029	0,008
-472,489	-20,185	-0,064	-0,029
-471,474	-200,000	0,021	-0,106
-470,459	-200,000	-0,019	0,071
-469,445	-147,348	-0,043	-0,003
-468,430	-134,019	-0,097	-0,009
-467,416	542,605	0,030	-0,052
-466,401	-15,074	-0,023	0,011
-465,386	636,501	0,055	0,102
-464,372	-190,043	-0,074	0,001
-463,357	87,808	0,018	0,014
-462,343	-137,015	-0,022	0,002
-461,328	52,999	-0,081	0,056
-460,313	777,986	-0,004	-0,008
-459,299	-73,191	0,067	-0,018
-458,284	29,467	0,066	0,041
-457,270	153,716	0,084	-0,084
-456,255	-74,693	0,088	0,023
-455,241	89,683	-0,062	0,050
-454,226	47,389	-0,079	0,053
-453,211	133,002	0,080	0,075
-452,197	-134,801	0,068	0,006
-451,182	-111,890	0,051	0,007
-450,168	-78,819	-0,045	0,011
-449,153	800,000	-0,057	0,138
-448,138	-66,954	-0,167	0,048
-447,124	51,988	0,055	-0,038
-446,109	170,953	-0,081	-0,084
-445,095	442,293	0,033	0,052
-444,080	-172,368	0,083	0,002
-443,065	641,832	0,079	-0,147
-442,051	13,967	-0,121	0,068
-441,036	126,480	-0,068	-0,062
-440,022	-121,319	0,047	0,006
-439,007	-54,992	0,042	-0,014
-437,992	124,801	-0,106	-0,097
-436,978	-111,888	0,124	0,018
-435,963	800,000	0,059	0,172
-434,949	91,340	0,055	-0,044
-433,934	605,817	0,023	0,041
-432,919	107,299	-0,154	-0,133
-431,905	-150,814	0,021	-0,001
-430,890	-200,000	-0,032	0,164
-429,876	-200,000	0,016	0,173
-428,861	355,739	0,072	0,105
-427,846	-102,226	0,042	-0,007
-426,832	-200,000	0,006	0,064
-425,817	178,299	-0,049	-0,053
-424,803	-200,000	-0,022	-0,113
-423,788	-200,000	-0,022	-0,095
-422,773	-10,022	-0,128	0,062
-421,759	125,683	-0,023	0,021
-420,744	155,092	0,022	-0,022
-419,730	129,155	-0,066	-0,062
-418,715	316,825	-0,053	-0,074
-417,701	349,539	0,083	-0,120
-416,686	-200,000	0,015	0,069
-415,671	324,058	-0,022	-0,031
-414,657	-200,000	-0,010	0,050
-413,642	-59,609	0,085	0,026
-412,628	139,394	-0,152	0,145
-411,613	-200,000	0,019	-0,239
-410,598	-111,725	-0,105	-0,015
-409,584	-82,098	0,059	-0,014
-408,569	23,134	0,206	-0,123
-407,555	-200,000	0,015	0,173
-406,540	-200,000	-0,006	0,058
-405,525	-200,000	-0,001	0,186
-404,511	-87,301	-0,132	-0,029
-403,496	-200,000	-0,025	-0,106
-402,482	159,770	-0,038	-0,038
-401,467	246,370	0,079	0,097
-400,452	-200,000	0,022	0,101
-399,438	-200,000	-0,018	0,216
-398,423	-200,000	0,007	-0,043
-397,409	326,200	0,081	-0,113
-396,394	114,983	-0,124	-0,110
-395,379	-182,938	0,081	-0,001
-394,365	484,924	-0,063	0,105
-393,350	131,070	0,045	0,042
-392,336	115,381	0,055	0,049
-391,321	0,998	0,053	0,027
-390,306	54,848	-0,118	-0,083
-389,292	334,139	-0,046	0,065
-388,277	191,008	0,082	0,089
-387,263	240,330	0,064	0,078
-386,248	-200,000	-0,004	0,017
-385,233	136,514	-0,048	-0,046
-384,219	-117,208	-0,090	-0,012
-383,204	75,421	-0,120	-0,092
-382,190	30,863	-0,124	-0,077
-381,175	280,247	-0,074	-0,097
-380,160	800,000	0,020	0,055
-379,146	-200,000	-0,004	-0,154
-378,131	-200,000	0,003	-0,085
-377,117	17,606	0,078	0,045
-376,102	68,906	-0,102	-0,076
-375,088	46,727	-0,102	-0,069
-374,073	-200,000	-0,003	-0,037
-373,058	166,843	-0,019	-0,020
-372,044	56,740	0,084	0,059
-371,029	800,000	-0,049	0,124
-370,015	-162,662	-0,102	-0,004
-369,000	2,970	-0,158	-0,083
-367,985	-200,000	-0,039	-0,174
-366,971	173,880	-0,123	-0,129
-365,956	627,258	0,053	-0,097
-364,942	517,828	0,041	-0,069
-363,927	4,445	0,036	0,019
-362,912	23,731	-0,123	0,073
-361,898	-200,000	-0,003	-0,024
-360,883	-50,312	0,053	0,018
-359,869	-200,000	-0,010	0,152
-358,854	-200,000	0,009	-0,091
-357,839	-54,717	0,147	-0,048
-356,825	-200,000	0,022	0,083
-355,810	75,190	0,045	0,034
-354,796	-65,177	-0,128	0,037
-353,781	430,947	-0,015	0,024
-352,766	-200,000	0,012	-0,135
-351,752	-200,000	0,000	-0,134
-350,737	800,000	0,035	-0,079
-349,723	96,794	-0,099	0,082
-348,708	387,564	-0,027	-0,041
-347,693	-200,000	0,007	-0,088
-346,679	520,415	-0,021	-0,036
-345,664	298,658	0,043	-0,058
-344,650	-37,937	0,113	-0,043
-343,635	-2,184	-0,074	0,037
-342,620	800,000	-0,022	0,058
-341,606	-200,000	-0,004	0,053
-340,591	7,710	-0,006	0,003
-339,577	800,000	-0,011	-0,032
-338,562	107,333	-0,081	0,069
-337,548	-200,000	-0,008	0,144
-336,533	-22,881	-0,051	-0,022
-335,518	-173,981	-0,026	-0,001
-334,504	-200,000	0,013	0,043
-333,489	122,115	0,032	0,029
-332,475	-200,000	-0,012	0,089
-331,460	196,989	0,036	0,040
-330,445	208,947	-0,075	-0,085
-329,431	-190,100	0,193	0,002
-328,416	1,040	0,075	0,039
-327,402	176,383	0,150	0,158
-326,387	-76,100	-0,073	-0,018
-325,372	-200,000	-0,034	-0,127
-324,358	-150,259	0,050	-0,003
-323,343	-200,000	0,006	-0,132
-322,329	514,590	-0,051	0,087
-321,314	-26,028	0,116	-0,049
-320,299	88,935	0,121	0,098
-319,285	499,238	-0,073	-0,122
-318,270	800,000	-0,042	-0,092
-317,256	77,070	0,074	-0,056
-316,241	-200,000	-0,018	-0,088
-315,226	-200,000	-0,014	-0,052
-314,212	-200,000	-0,018	-0,111
-313,197	-200,000	0,030	-0,193
-312,183	-181,160	0,042	0,001
-311,168	-42,546	0,023	-0,008
-310,153	-47,827	-0,094	-0,033
-309,139	108,169	0,053	-0,045
-308,124	127,290	-0,134	-0,123
-307,110	800,000	0,053	0,113
-306,095	60,604	-0,073	0,052
-305,080	402,003	-0,018	0,028
-304,066	-200,000	-0,006	0,031
-303,051	699,395	0,035	-0,067
-302,037	372,318	-0,072	0,106
-301,022	800,000	0,027	0,078
-300,008	-200,000	-0,004	0,029
-298,993	168,166	-0,116	0,119
-297,978	-152,849	0,067	0,003
-296,964	-106,580	0,052	-0,008
-295,949	-99,180	0,145	-0,026
-294,935	-200,000	0,003	-0,104
-293,920	-17,452	-0,130	0,059
-292,905	-200,000	-0,013	0,102
-291,891	800,000	0,067	0,139
-290,876	-200,000	0,048	0,205
-289,862	800,000	0,029	0,083
-288,847	-54,446	0,115	0,038
-287,832	300,980	-0,076	-0,102
-286,818	-67,898	0,170	0,048
-285,803	0,913	-0,073	-0,038
-284,789	364,006	-0,048	0,070
-283,774	-82,289	0,149	-0,035
-282,759	32,558	0,060	0,038
-281,745	800,000	-0,026	-0,060
-280,730	222,590	-0,031	-0,037
-279,716	-200,000	0,043	0,152
-278,701	75,667	-0,068	0,052
-277,686	-85,832	0,064	0,014
-276,672	342,329	-0,042	0,060
-275,657	472,907	-0,033	-0,054
-274,643	41,664	-0,037	0,024
-273,628	-200,000	-0,013	-0,057
-272,613	577,629	0,055	-0,098
-271,599	380,132	0,046	-0,069
-270,584	-21,993	0,026	0,011
-269,570	411,479	0,093	0,143
-268,555	111,620	0,029	-0,026
-267,540	-18,368	0,077	0,034
-266,526	-157,064	-0,117	0,005
-265,511	-15,625	0,131	0,060
-264,497	-40,446	-0,048	-0,018
-263,482	800,000	-0,017	-0,046
-262,467	-19,317	0,006	0,003
-261,453	-97,582	-0,131	-0,024
-260,438	800,000	0,056	-0,130
-259,424	-81,791	-0,106	0,025
-258,409	72,380	-0,041	0,031
-257,395	-66,698	0,047	-0,013
-256,380	-200,000	-0,025	0,109
-255,365	800,000	-0,022	-0,058
-254,351	6,171	0,027	0,015
-253,336	800,000	-0,032	-0,069
-252,322	-200,000	0,007	-0,075
-251,307	80,254	0,091	0,070
-250,292	800,000	-0,016	0,033
-249,278	146,958	-0,007	0,007
-248,263	146,539	0,096	-0,093
-247,249	-200,000	0,018	0,249
-246,234	83,274	-0,002	0,002
-245,219	2,802	0,083	-0,043
-244,205	-200,000	0,022	-0,080
-243,190	-116,524	0,078	-0,010
-242,176	345,776	-0,098	0,140
-241,161	-46,507	-0,016	-0,006
-240,146	163,571	-0,015	0,015
-239,132	19,607	-0,027	-0,015
-238,117	-105,822	-0,141	-0,023
-237,103	1,797	0,063	0,033
-236,088	731,465	0,017	0,034
-235,073	63,881	0,086	-0,062
-234,059	246,450	0,060	0,074
-233,044	1,324	-0,077	0,040
-232,030	800,000	0,014	-0,041
-231,015	-2,071	0,104	0,052
-230,000	800,000	0,027	0,065
-228,986	-200,000	-0,006	0,108
-227,971	-115,953	-0,090	0,012
-226,957	-177,724	0,054	-0,001
-225,942	800,000	-0,009	0,023
-224,927	526,753	-0,077	-0,131
-223,913	314,222	-0,039	0,053
-222,898	-91,437	-0,169	-0,035
-221,884	310,027	-0,068	0,092
-220,869	-42,711	0,087	0,032
-219,855	161,266	-0,078	0,079
-218,840	800,000	0,055	0,132
-217,825	100,751	0,087	-0,073
-216,811	-58,209	-0,094	0,029
-215,796	210,055	0,034	0,039
-214,782	178,257	-0,050	-0,052
-213,767	-165,293	0,122	0,004
-212,752	33,813	0,068	-0,043
-211,738	265,602	0,092	-0,115
-210,723	-200,000	-0,008	-0,075
-209,709	-200,000	0,006	0,048
-208,694	-200,000	-0,018	0,090
-207,679	800,000	-0,070	-0,193
-206,665	-200,000	0,002	-0,059
-205,650	-200,000	0,039	0,141
-204,636	-29,404	0,139	-0,057
-203,621	-70,125	-0,119	0,032
-202,606	205,482	0,045	-0,050
-201,592	130,273	0,165	-0,152
-200,577	-112,363	-0,116	0,017
-199,563	-200,000	0,030	0,202
-198,548	44,574	0,156	0,103
-197,533	-200,000	-0,009	0,098
-196,519	174,831	0,057	0,059
-195,504	50,873	0,137	0,093
-194,490	-200,000	-0,018	-0,067
-193,475	-1,798	-0,022	-0,011
-192,460	135,938	0,135	-0,126
-191,446	-32,452	0,047	0,019
-190,431	800,000	0,029	0,069
-189,417	-53,249	-0,042	0,014
-188,402	-200,000	0,003	0,127
-187,387	56,369	0,109	0,076
-186,373	-58,448	0,160	0,050
-185,358	200,302	0,017	-0,019
-184,344	72,722	-0,061	0,046
-183,329	-29,056	0,094	-0,038
-182,315	29,480	0,061	-0,037
-181,300	113,931	0,048	0,042
-180,285	336,925	-0,071	-0,099
-179,271	-200,000	-0,014	0,096
-178,256	-31,375	-0,069	0,028
-177,242	-200,000	-0,017	-0,061
-176,227	800,000	-0,055	0,136
-175,212	174,428	0,047	0,049
-174,198	-67,589	-0,061	0,017
-173,183	-96,633	-0,092	-0,017
-172,169	57,433	0,039	0,027
-171,154	348,070	-0,012	0,017
-170,139	-3,028	0,035	0,018
-169,125	-60,150	0,166	0,051
-168,110	-200,000	0,012	0,185
-167,096	70,531	-0,038	-0,028
-166,081	264,936	-0,077	0,097
-165,066	-200,000	-0,041	-0,188
-164,052	-200,000	-0,004	-0,091
-163,037	800,000	-0,067	-0,144
-162,023	-17,435	-0,114	0,052
-161,008	-109,959	0,078	-0,012
-159,993	443,217	0,102	-0,161
-158,979	-200,000	0,006	-0,025
-157,964	6,524	-0,143	-0,076
-156,950	-27,877	-0,071	0,029
-155,935	-133,068	0,067	-0,006
-154,920	-173,536	0,214	-0,005
-153,906	7,712	-0,088	0,047
-152,891	-114,243	-0,057	0,008
-151,877	-200,000	-0,027	-0,148
-150,862	-154,867	-0,093	0,004
-149,847	800,000	-0,007	0,016
-148,833	800,000	-0,022	-0,063
-147,818	800,000	-0,026	0,073
-146,804	547,602	-0,031	-0,054
-145,789	800,000	0,008	-0,023
-144,775	313,049	-0,079	-0,107
-143,760	122,104	0,099	0,089
-142,745	-59,578	-0,100	0,031
-141,731	-200,000	0,043	0,175
-140,716	-59,575	0,128	-0,039
-139,702	-200,000	-0,006	0,042
-138,687	-18,144	-0,117	0,052
-137,672	-2,593	-0,082	-0,041
-136,658	49,044	0,124	-0,084
-135,643	303,176	-0,031	-0,041
-134,629	800,000	0,021	0,053
-133,614	-64,041	0,032	0,009
-132,599	-200,000	-0,022	0,118
-131,585	-200,000	-0,024	0,128
-130,570	800,000	0,024	0,072
-129,556	31,319	-0,048	-0,029
-128,541	-200,000	-0,016	0,078
-127,526	89,383	0,039	-0,031
-126,512	-165,958	0,194	0,006
-125,497	-61,122	0,111	0,033
-124,483	180,612	0,053	0,056
-123,468	800,000	0,043	0,094
-122,453	-82,113	0,066	-0,015
-121,439	336,358	-0,062	-0,087
-120,424	22,529	-0,091	-0,053
-119,410	-62,445	-0,076	-0,023
-118,395	8,407	0,157	0,084
