DTS Sentinel unit serial number:	SN410029Multiplexer serial number:	ORYXHardware model number:	OX2-SRSoftware version number:	ORYX F/W v4,00 Oryx Data Collector v3.7.2.0data status	okinstallation	B6 Nyhavnadifferential loss correction	single-endedforward channel	channel 2reverse channel	N/Adate	2023/12/09time	23:20:08forward acquisition time	300,00reverse acquisition time	0,00gamma	499,1914k internal	0,3126k external	0,3126temperature offset calibration	1,0000default loss term (dB/km)	0,3820temperature slope calibration	1,0000multiplexer offset coefficient	1,0000multiplexer slope coefficient	1,0000fibre end	0,00T internal ref (°C)	21,69T ext. ref 1 (°C)	5,52T ext. ref 2 (°C)	5,50length (m)	temperature (°C)	Stokes	anti-Stokes-744,400	296,942	0,035	-0,048
-743,385	-36,531	-0,297	0,118
-742,371	800,000	-0,009	0,023
-741,356	-84,012	-0,154	0,036
-740,342	-200,000	0,002	0,086
-739,327	-44,849	-0,225	0,083
-738,312	3,494	0,037	0,020
-737,298	-103,902	-0,244	0,042
-736,283	-200,000	-0,008	-0,076
-735,269	-46,084	-0,237	0,087
-734,254	484,797	0,042	-0,071
-733,239	-50,261	-0,522	-0,183
-732,225	-131,020	0,073	0,007
-731,210	-27,332	0,112	-0,048
-730,196	236,866	0,060	-0,074
-729,181	-36,087	0,046	0,019
-728,167	-200,000	0,005	-0,052
-727,152	205,047	0,028	-0,032
-726,137	-139,199	-0,091	-0,007
-725,123	-200,000	-0,033	-0,125
-724,108	286,813	0,059	-0,080
-723,094	168,676	-0,119	-0,126
-722,079	-200,000	0,014	-0,098
-721,064	-72,829	0,142	-0,039
-720,050	-136,049	-0,081	-0,007
-719,035	18,748	-0,022	0,013
-718,021	-200,000	0,008	-0,069
-717,006	135,948	-0,108	-0,105
-715,991	134,829	-0,057	-0,055
-714,977	-41,620	-0,092	-0,035
-713,962	425,545	0,041	-0,065
-712,948	-44,056	0,143	-0,053
-711,933	-54,156	-0,056	0,019
-710,918	81,932	-0,082	0,066
-709,904	-128,731	-0,085	0,009
-708,889	157,468	-0,116	-0,120
-707,875	-200,000	-0,010	-0,095
-706,860	-0,179	-0,051	-0,027
-705,845	-64,935	0,102	-0,030
-704,831	128,777	-0,034	0,032
-703,816	56,070	0,035	0,025
-702,802	-46,878	-0,013	0,005
-701,787	111,967	-0,077	-0,069
-700,772	39,034	-0,020	-0,013
-699,758	5,954	-0,015	-0,008
-698,743	423,260	0,099	0,159
-697,729	265,261	-0,164	0,212
-696,714	800,000	0,061	0,165
-695,699	-178,481	0,093	0,002
-694,685	-200,000	-0,004	0,036
-693,670	12,492	-0,038	0,021
-692,656	95,897	0,024	-0,020
-691,641	270,489	0,036	-0,047
-690,627	-114,417	0,053	0,008
-689,612	-90,411	-0,121	0,026
-688,597	601,305	-0,025	0,047
-687,583	-76,666	-0,175	-0,045
-686,568	-200,000	-0,025	-0,123
-685,554	-200,000	-0,015	-0,153
-684,539	1,051	-0,093	-0,049
-683,524	-69,843	-0,090	-0,025
-682,510	11,044	-0,034	-0,019
-681,495	242,809	0,057	-0,071
-680,481	177,275	0,037	0,040
-679,466	800,000	-0,045	-0,107
-678,451	253,890	-0,085	-0,108
-677,437	237,290	-0,038	-0,047
-676,422	-4,021	0,109	-0,056
-675,408	-67,319	-0,087	-0,025
-674,393	-77,891	-0,105	0,027
-673,378	800,000	0,025	-0,061
-672,364	800,000	0,042	-0,123
-671,349	298,951	0,084	-0,115
-670,335	-86,889	0,075	0,017
-669,320	-80,916	0,136	-0,033
-668,305	-109,176	0,072	0,011
-667,291	235,385	-0,035	-0,042
-666,276	79,379	-0,086	-0,068
-665,262	-200,000	-0,011	-0,117
-664,247	292,880	-0,030	0,041
-663,232	663,966	0,047	-0,090
-662,218	-133,461	0,087	-0,008
-661,203	-16,009	-0,119	0,056
-660,189	-64,630	-0,080	0,024
-659,174	-200,000	0,010	-0,088
-658,159	205,204	-0,029	0,033
-657,145	-153,523	-0,170	0,009
-656,130	33,450	0,097	-0,062
-655,116	-200,000	0,002	0,050
-654,101	-10,245	0,137	0,067
-653,086	34,823	-0,115	-0,074
-652,072	-200,000	0,002	-0,054
-651,057	278,677	-0,071	-0,095
-650,043	-200,000	0,014	-0,108
-649,028	-16,744	0,071	0,033
-648,014	-6,174	0,071	-0,036
-646,999	-200,000	-0,029	0,140
-645,984	-200,000	-0,007	0,029
-644,970	800,000	0,020	-0,051
-643,955	-200,000	-0,024	-0,088
-642,941	-13,289	-0,261	0,125
-641,926	593,487	-0,022	-0,041
-640,911	135,530	-0,124	-0,120
-639,897	-76,544	-0,124	0,032
-638,882	-90,283	0,163	-0,035
-637,868	159,550	-0,042	0,043
-636,853	800,000	0,011	-0,031
-635,838	507,122	-0,065	-0,112
-634,824	223,891	-0,046	-0,055
-633,809	800,000	-0,033	0,098
-632,795	800,000	0,033	0,094
-631,780	-59,935	0,071	0,022
-630,765	433,308	0,031	0,050
-629,751	43,160	-0,092	0,062
-628,736	-200,000	0,011	0,126
-627,722	698,339	0,068	0,133
-626,707	84,282	-0,060	0,049
-625,692	262,887	-0,080	-0,103
-624,678	-167,782	0,130	0,004
-623,663	-36,973	0,077	-0,030
-622,649	-200,000	-0,011	-0,120
-621,634	67,219	-0,014	-0,011
-620,619	-200,000	0,004	-0,162
-619,605	74,032	0,092	0,071
-618,590	-200,000	-0,001	0,011
-617,576	312,429	0,036	0,050
-616,561	-119,968	-0,116	-0,015
-615,546	209,266	-0,058	0,068
-614,532	181,187	-0,081	-0,089
-613,517	797,194	-0,041	-0,083
-612,503	-26,475	0,114	0,049
-611,488	46,015	0,120	0,082
-610,474	-200,000	-0,009	0,036
-609,459	48,060	-0,121	-0,084
-608,444	800,000	-0,040	-0,101
-607,430	-200,000	-0,009	-0,089
-606,415	-89,711	-0,049	0,011
-605,401	183,521	0,064	-0,070
-604,386	800,000	-0,024	0,065
-603,371	-36,951	0,153	0,060
-602,357	-200,000	0,015	-0,101
-601,342	237,040	0,078	-0,096
-600,328	-146,420	-0,142	-0,009
-599,313	-200,000	-0,007	-0,078
-598,298	-63,669	0,056	-0,017
-597,284	-120,575	-0,103	-0,013
-596,269	-4,467	0,088	-0,045
-595,255	800,000	0,036	0,086
-594,240	-118,906	-0,126	-0,016
-593,225	-122,590	0,042	-0,005
-592,211	13,232	-0,030	-0,017
-591,196	-200,000	0,013	-0,082
-590,182	-113,879	0,025	0,004
-589,167	-200,000	-0,004	-0,065
-588,152	100,174	0,019	-0,016
-587,138	-200,000	0,024	-0,084
-586,123	396,378	-0,015	-0,023
-585,109	-41,748	0,014	-0,005
-584,094	-200,000	-0,017	0,117
-583,079	688,424	0,044	0,085
-582,065	800,000	0,064	0,132
-581,050	-200,000	-0,019	0,111
-580,036	800,000	0,018	0,041
-579,021	17,798	-0,104	-0,061
-578,006	-139,410	0,062	0,005
-576,992	704,239	-0,050	-0,098
-575,977	-200,000	-0,025	0,094
-574,963	128,030	0,063	0,059
-573,948	-67,857	0,180	-0,052
-572,934	44,189	0,066	-0,045
-571,919	-200,000	-0,030	-0,105
-570,904	-200,000	0,000	0,100
-569,890	74,560	0,050	0,039
-568,875	-200,000	-0,003	-0,079
-567,861	-200,000	0,004	0,069
-566,846	146,470	-0,141	0,140
-565,831	368,588	0,061	-0,091
-564,817	-141,703	-0,056	0,004
-563,802	297,868	-0,061	-0,084
-562,788	-31,902	-0,123	-0,051
-561,773	-163,960	0,113	-0,004
-560,758	-200,000	0,011	0,077
-559,744	-200,000	-0,029	0,255
-558,729	214,178	0,035	0,041
-557,715	-86,885	-0,202	-0,045
-556,700	-17,436	-0,076	0,035
-555,685	-200,000	-0,011	0,068
-554,671	-200,000	0,006	0,072
-553,656	-163,628	0,169	0,006
-552,642	313,074	0,040	0,055
-551,627	715,710	-0,072	-0,142
-550,612	-200,000	0,001	-0,033
-549,598	184,384	-0,016	-0,017
-548,583	-200,000	0,031	-0,138
-547,569	-87,623	-0,074	-0,016
-546,554	-200,000	-0,028	0,103
-545,539	-153,562	0,055	0,003
-544,525	-200,000	-0,008	0,082
-543,510	430,565	-0,034	-0,054
-542,496	-200,000	0,011	-0,061
-541,481	510,659	-0,059	-0,101
-540,466	-200,000	-0,010	-0,179
-539,452	-200,000	0,009	-0,101
-538,437	-70,235	-0,100	0,028
-537,423	-70,583	-0,054	0,015
-536,408	-200,000	0,018	0,113
-535,393	439,569	-0,056	-0,090
-534,379	155,496	-0,042	0,043
-533,364	-161,471	0,039	-0,001
-532,350	-200,000	0,002	-0,047
-531,335	800,000	0,018	-0,046
-530,321	20,976	0,080	0,048
-529,306	229,244	-0,098	-0,118
-528,291	800,000	-0,063	-0,150
-527,277	223,514	0,066	-0,079
-526,262	-112,187	-0,097	0,014
-525,248	172,502	-0,094	0,100
-524,233	-200,000	-0,022	0,108
-523,218	157,168	0,133	-0,136
-522,204	800,000	0,018	-0,042
-521,189	-25,876	0,133	-0,057
-520,175	-98,816	-0,163	-0,030
-519,160	-200,000	-0,018	-0,097
-518,145	39,927	0,008	0,006
-517,131	738,277	-0,011	0,023
-516,116	-200,000	0,006	-0,096
-515,102	76,838	-0,116	0,091
-514,087	-200,000	0,002	0,041
-513,072	425,553	-0,056	-0,089
-512,058	132,794	-0,121	0,115
-511,043	-64,590	-0,083	-0,025
-510,029	-159,269	0,092	0,004
-509,014	-200,000	-0,024	0,116
-507,999	216,352	-0,078	0,092
-506,985	-24,609	-0,186	-0,081
-505,970	148,173	-0,145	0,144
-504,956	-200,000	-0,010	-0,071
-503,941	-152,403	0,121	0,006
-502,926	116,511	0,048	0,043
-501,912	712,888	-0,044	0,086
-500,897	800,000	-0,032	-0,075
-499,883	800,000	-0,014	0,029
-498,868	-200,000	0,043	-0,165
-497,853	-169,798	0,007	0,000
-496,839	202,253	-0,040	0,046
-495,824	800,000	-0,056	-0,115
-494,810	71,008	0,048	-0,037
-493,795	622,357	-0,037	-0,069
-492,781	800,000	-0,044	-0,106
-491,766	-200,000	0,024	-0,121
-490,751	38,201	-0,048	-0,031
-489,737	800,000	-0,034	-0,108
-488,722	472,025	-0,060	-0,101
-487,708	-61,257	0,102	-0,032
-486,693	19,067	0,100	0,059
-485,678	38,876	-0,183	-0,120
-484,664	589,159	0,009	-0,017
-483,649	800,000	-0,017	0,050
-482,635	-92,055	0,029	0,006
-481,620	-56,009	0,134	0,044
-480,605	-104,734	-0,049	-0,008
-479,591	213,080	-0,051	0,059
-478,576	-200,000	-0,025	0,088
-477,562	324,121	0,005	-0,007
-476,547	-69,227	-0,062	-0,017
-475,532	441,459	0,086	-0,139
-474,518	-200,000	-0,011	-0,084
-473,503	180,546	0,013	-0,014
-472,489	-24,573	0,083	0,036
-471,474	-86,811	0,068	0,015
-470,459	-129,051	0,072	-0,007
-469,445	-47,939	-0,105	-0,037
-468,430	8,667	-0,088	-0,049
-467,416	-168,224	0,057	0,002
-466,401	-45,496	0,070	-0,025
-465,386	800,000	-0,018	-0,048
-464,372	-200,000	-0,015	0,165
-463,357	186,837	-0,083	0,091
-462,343	102,545	0,030	0,026
-461,328	-45,753	-0,091	0,033
-460,313	162,019	0,059	0,061
-459,299	-200,000	-0,009	0,075
-458,284	-200,000	-0,007	0,063
-457,270	159,441	0,086	-0,088
-456,255	-102,379	-0,192	0,034
-455,241	-200,000	-0,023	0,079
-454,226	-200,000	0,004	-0,081
-453,211	800,000	-0,012	-0,034
-452,197	113,437	0,059	0,053
-451,182	-200,000	-0,024	-0,105
-450,168	-166,885	0,108	0,003
-449,153	-68,559	0,176	0,050
-448,138	112,943	-0,105	-0,094
-447,124	653,318	0,032	-0,061
-446,109	800,000	-0,027	-0,056
-445,095	-15,870	0,088	0,041
-444,080	125,022	0,079	0,073
-443,065	119,943	0,020	-0,018
-442,051	122,445	0,083	-0,076
-441,036	-200,000	0,015	0,079
-440,022	409,170	-0,094	0,147
-439,007	-21,834	0,107	0,048
-437,992	-200,000	0,016	0,163
-436,978	233,790	-0,021	0,026
-435,963	508,707	-0,046	0,078
-434,949	778,812	0,062	-0,125
-433,934	-200,000	-0,024	-0,159
-432,919	800,000	-0,052	-0,146
-431,905	173,487	0,048	0,051
-430,890	-200,000	0,006	-0,022
-429,876	54,115	0,087	0,061
-428,861	29,108	-0,077	0,048
-427,846	800,000	0,051	-0,107
-426,832	75,038	-0,071	0,055
-425,817	-200,000	-0,003	0,078
-424,803	464,115	-0,031	0,050
-423,788	-32,653	0,068	0,028
-422,773	-8,070	-0,075	0,037
-421,759	58,933	0,129	0,093
-420,744	-47,512	-0,007	0,002
-419,730	164,992	-0,034	-0,035
-418,715	-200,000	0,015	-0,085
-417,701	-200,000	0,012	-0,068
-416,686	-26,247	0,067	0,029
-415,671	-59,237	-0,052	-0,016
-414,657	-200,000	0,007	-0,212
-413,642	60,423	0,062	-0,045
-412,628	-200,000	0,001	-0,236
-411,613	114,949	-0,138	0,124
-410,598	126,487	0,105	0,098
-409,584	-141,938	0,035	-0,003
-408,569	-101,729	0,129	-0,023
-407,555	-145,848	0,063	-0,004
-406,540	411,154	-0,055	0,086
-405,525	324,963	0,039	0,055
-404,511	-200,000	-0,018	0,177
-403,496	-151,226	-0,015	0,001
-402,482	-174,735	-0,087	-0,002
-401,467	58,685	-0,056	-0,041
-400,452	-158,433	-0,025	0,001
-399,438	307,026	-0,030	0,041
-398,423	285,544	0,033	0,044
-397,409	-200,000	0,015	-0,146
-396,394	-200,000	0,006	-0,030
-395,379	203,344	0,052	0,060
-394,365	800,000	0,025	-0,059
-393,350	800,000	0,044	0,097
-392,336	70,382	0,024	0,018
-391,321	-138,647	-0,041	-0,003
-390,306	-200,000	0,002	-0,126
-389,292	800,000	0,009	-0,019
-388,277	368,234	0,004	-0,006
-387,263	800,000	0,024	-0,066
-386,248	452,340	-0,038	0,062
-385,233	-200,000	0,015	-0,140
-384,219	-200,000	-0,016	-0,112
-383,204	30,175	-0,084	0,053
-382,190	131,442	-0,084	-0,079
-381,175	-200,000	0,038	0,125
-380,160	-135,909	0,159	0,014
-379,146	123,577	0,069	0,063
-378,131	758,794	0,033	0,065
-377,117	126,205	-0,086	-0,080
-376,102	186,058	-0,092	0,100
-375,088	-200,000	0,010	0,067
-374,073	-200,000	-0,014	-0,092
-373,058	-98,539	-0,026	-0,005
-372,044	88,092	0,102	-0,083
-371,029	-119,266	0,068	-0,009
-370,015	67,596	0,035	0,026
-369,000	25,979	-0,082	-0,050
-367,985	703,533	-0,069	0,134
-366,971	-107,423	0,128	-0,020
-365,956	-200,000	-0,016	0,075
-364,942	-119,240	0,034	0,004
-363,927	73,923	0,067	0,051
-362,912	-200,000	0,029	0,141
-361,898	51,661	0,044	0,031
-360,883	-89,804	-0,101	-0,022
-359,869	-83,815	0,198	0,046
-358,854	66,142	0,035	-0,026
-357,839	298,938	0,067	-0,091
-356,825	-200,000	0,004	0,079
-355,810	800,000	-0,016	-0,052
-354,796	127,763	0,051	-0,048
-353,781	174,165	0,040	0,043
-352,766	667,056	-0,019	-0,037
-351,752	44,501	0,108	0,073
-350,737	252,579	0,027	0,034
-349,723	-200,000	-0,013	0,082
-348,708	800,000	0,059	0,135
-347,693	242,579	-0,024	-0,030
-346,679	356,646	0,053	-0,078
-345,664	580,738	0,075	-0,136
-344,650	3,249	0,084	-0,044
-343,635	18,973	-0,104	0,061
-342,620	52,551	0,036	0,025
-341,606	800,000	-0,067	0,153
-340,591	47,611	0,088	0,060
-339,577	43,395	-0,115	-0,077
-338,562	-105,627	-0,084	-0,014
-337,548	-200,000	-0,024	-0,107
-336,533	-101,195	0,147	0,026
-335,518	-200,000	0,010	0,096
-334,504	234,307	0,082	0,099
-333,489	-94,203	0,065	-0,013
-332,475	-111,981	0,108	0,016
-331,460	27,108	0,061	-0,037
-330,445	-200,000	-0,003	-0,051
-329,431	-51,118	0,078	-0,027
-328,416	-83,625	0,206	0,048
-327,402	-77,136	-0,086	0,022
-326,387	319,340	0,077	-0,107
-325,372	228,371	-0,023	0,027
-324,358	-155,696	-0,130	-0,006
-323,343	10,961	0,166	-0,093
-322,329	-116,985	0,085	0,011
-321,314	-102,204	0,151	0,026
-320,299	800,000	-0,010	0,024
-319,285	-58,996	0,027	-0,008
-318,270	544,489	0,010	-0,017
-317,256	-200,000	-0,003	-0,159
-316,241	7,154	-0,074	0,041
-315,226	-108,989	0,094	-0,015
-314,212	-14,946	-0,046	0,021
-313,197	-200,000	0,016	0,147
-312,183	-200,000	-0,022	0,098
-311,168	-200,000	-0,008	0,064
-310,153	-33,942	0,079	-0,032
-309,139	166,507	-0,021	-0,022
-308,124	506,381	-0,019	0,033
-307,110	292,671	0,055	0,073
-306,095	-200,000	0,011	0,090
-305,080	-165,072	0,006	0,000
-304,066	-28,830	0,130	-0,055
-303,051	-95,921	-0,174	-0,034
-302,037	766,900	-0,046	0,092
-301,022	800,000	-0,095	0,207
-300,008	-200,000	-0,006	0,076
-298,993	-200,000	-0,002	0,023
-297,978	65,660	-0,096	-0,071
-296,964	-200,000	-0,007	0,098
-295,949	-200,000	-0,013	-0,119
-294,935	-90,893	-0,046	-0,010
-293,920	69,426	-0,067	-0,050
-292,905	60,261	0,049	0,036
-291,891	55,994	0,110	0,078
-290,876	98,225	0,035	0,030
-289,862	-76,527	-0,154	0,039
-288,847	-200,000	0,027	-0,111
-287,832	126,788	0,107	0,099
-286,818	800,000	-0,022	0,067
-285,803	36,464	-0,016	-0,011
-284,789	-200,000	0,034	0,128
-283,774	-200,000	0,018	-0,060
-282,759	155,516	0,092	0,092
-281,745	-42,405	-0,182	-0,068
-280,730	427,093	-0,078	-0,123
-279,716	194,735	0,031	-0,034
-278,701	283,538	0,043	0,056
-277,686	-200,000	-0,040	0,138
-276,672	213,900	-0,096	-0,112
-275,657	21,390	0,106	0,063
-274,643	412,430	-0,082	-0,128
-273,628	162,559	0,085	-0,087
-272,613	111,413	-0,041	0,036
-271,599	-200,000	0,000	0,010
-270,584	120,663	0,034	0,031
-269,570	9,351	0,045	0,025
-268,555	54,486	-0,104	-0,073
-267,540	-78,495	-0,102	0,025
-266,526	186,863	-0,076	-0,083
-265,511	506,588	0,036	0,061
-264,497	-70,283	0,040	0,011
-263,482	-22,447	0,092	0,041
-262,467	-63,231	0,059	-0,018
-261,453	200,310	0,140	0,157
-260,438	80,161	0,068	0,054
-259,424	178,356	0,025	-0,027
-258,409	-200,000	-0,011	-0,103
-257,395	-58,516	-0,097	-0,031
-256,380	767,119	-0,042	-0,084
-255,365	31,983	0,114	-0,072
-254,351	55,223	0,096	-0,067
-253,336	-200,000	0,013	-0,090
-252,322	-68,421	-0,101	0,028
-251,307	800,000	-0,076	-0,188
-250,292	147,958	-0,024	0,024
-249,278	-200,000	0,016	-0,138
-248,263	7,207	0,102	0,055
-247,249	-200,000	0,010	-0,047
-246,234	800,000	-0,019	0,039
-245,219	347,390	-0,094	-0,135
-244,205	4,933	-0,069	-0,037
-243,190	-151,874	-0,050	-0,003
-242,176	-163,867	0,056	-0,002
-241,161	-106,825	-0,116	0,019
-240,146	-83,095	0,037	-0,009
-239,132	-43,711	-0,065	0,024
-238,117	-200,000	0,004	0,073
-237,103	-200,000	-0,009	0,037
-236,088	-155,495	-0,068	-0,003
-235,073	580,351	-0,079	0,143
-234,059	63,235	0,112	0,082
-233,044	99,330	-0,009	-0,008
-232,030	800,000	0,071	-0,159
-231,015	800,000	-0,042	-0,123
-230,000	-5,926	0,017	0,008
-228,986	-91,098	-0,062	-0,013
-227,971	10,253	0,030	-0,016
-226,957	800,000	-0,038	0,102
-225,942	95,298	0,081	0,067
-224,927	134,452	0,043	0,041
-223,913	-200,000	-0,005	-0,095
-222,898	462,762	0,032	-0,052
-221,884	800,000	0,013	-0,033
-220,869	-1,192	0,087	0,045
-219,855	-200,000	0,013	0,170
-218,840	800,000	-0,017	0,039
-217,825	228,953	0,017	0,020
-216,811	-75,416	-0,042	-0,011
-215,796	-30,171	0,046	-0,019
-214,782	800,000	-0,031	-0,076
-213,767	-200,000	0,019	0,072
-212,752	-26,347	0,066	-0,028
-211,738	-136,871	0,160	0,013
-210,723	-57,232	-0,045	0,014
-209,709	22,168	-0,082	-0,049
-208,694	389,486	-0,075	-0,113
-207,679	800,000	0,012	0,032
-206,665	578,009	-0,034	0,061
-205,650	-200,000	-0,006	-0,141
-204,636	382,180	0,075	0,113
-203,621	800,000	-0,052	0,117
-202,606	248,127	0,039	0,049
-201,592	12,281	-0,077	-0,043
-200,577	-200,000	-0,025	0,094
-199,563	2,115	0,057	0,030
-198,548	154,019	-0,071	0,071
-197,533	50,911	0,158	0,109
-196,519	-84,770	-0,147	-0,034
-195,504	-7,223	-0,125	0,062
-194,490	69,994	-0,019	-0,014
-193,475	-119,169	-0,046	0,006
-192,460	2,888	-0,074	-0,039
-191,446	800,000	-0,035	0,087
-190,431	320,463	0,083	0,115
-189,417	800,000	0,028	0,072
-188,402	87,631	0,116	-0,094
-187,387	-200,000	-0,022	-0,079
-186,373	800,000	0,053	-0,160
-185,358	800,000	-0,040	0,117
-184,344	216,798	-0,027	0,031
-183,329	-200,000	0,002	-0,032
-182,315	-196,924	-0,058	-0,000
-181,300	-94,090	0,017	-0,003
-180,285	-200,000	0,007	-0,097
-179,271	-200,000	0,020	-0,252
-178,256	107,291	0,043	-0,037
-177,242	239,768	0,047	-0,057
-176,227	800,000	-0,043	0,115
-175,212	96,778	0,053	-0,044
-174,198	-200,000	-0,018	0,126
-173,183	-54,215	-0,127	0,042
-172,169	126,504	-0,040	0,037
-171,154	-41,283	0,042	-0,016
-170,139	262,760	-0,022	0,028
-169,125	652,111	0,008	0,015
-168,110	-53,715	0,001	0,000
-167,096	-200,000	0,006	0,077
-166,081	202,494	0,008	0,010
-165,066	-143,751	-0,064	-0,004
-164,052	120,633	0,085	0,077
-163,037	-55,189	0,046	-0,015
-162,023	497,299	0,038	0,063
-161,008	-42,177	-0,173	0,064
-159,993	-28,616	0,074	0,031
-158,979	800,000	-0,061	-0,141
-157,964	-200,000	0,000	-0,085
-156,950	-18,623	-0,090	-0,041
-155,935	-12,141	-0,132	0,063
-154,920	8,942	0,018	0,010
-153,906	-79,654	-0,097	-0,024
-152,891	800,000	-0,034	0,097
-151,877	110,620	0,047	0,041
-150,862	-200,000	0,000	0,067
-149,847	225,493	-0,010	0,012
-148,833	800,000	-0,016	-0,034
-147,818	661,758	0,041	0,078
-146,804	-12,534	-0,073	-0,034
-145,789	152,286	-0,048	-0,047
-144,775	33,347	0,087	-0,055
-143,760	-85,535	0,071	0,016
-142,745	71,634	-0,132	0,100
-141,731	-200,000	0,081	-0,000
-140,716	555,124	0,021	0,036
-139,702	60,840	0,016	0,012
-138,687	180,151	-0,072	0,077
-137,672	184,715	0,084	-0,091
-136,658	-44,576	-0,042	-0,015
-135,643	152,541	-0,066	0,066
-134,629	800,000	0,042	0,086
-133,614	-46,734	-0,065	0,023
-132,599	619,852	0,085	-0,157
-131,585	-111,378	-0,038	0,006
-130,570	800,000	0,027	-0,057
-129,556	-30,242	-0,044	-0,018
-128,541	-1,762	-0,089	0,045
-127,526	-79,176	0,025	-0,006
-126,512	-84,959	0,064	0,014
-125,497	800,000	0,033	-0,082
-124,483	53,575	0,012	0,008
-123,468	-200,000	0,044	-0,153
-122,453	-200,000	-0,002	-0,095
-121,439	-200,000	0,057	-0,202
-120,424	279,311	-0,024	-0,032
-119,410	-19,592	-0,040	-0,018
