DTS Sentinel unit serial number:	SN410029Multiplexer serial number:	ORYXHardware model number:	OX2-SRSoftware version number:	ORYX F/W v4,00 Oryx Data Collector v3.7.2.0data status	okinstallation	B6 Nyhavnadifferential loss correction	single-endedforward channel	channel 2reverse channel	N/Adate	2023/12/09time	02:10:08forward acquisition time	300,00reverse acquisition time	0,00gamma	499,1914k internal	0,3156k external	0,3156temperature offset calibration	1,0000default loss term (dB/km)	0,3820temperature slope calibration	1,0000multiplexer offset coefficient	1,0000multiplexer slope coefficient	1,0000fibre end	0,00T internal ref (°C)	15,92T ext. ref 1 (°C)	-0,34T ext. ref 2 (°C)	-0,35length (m)	temperature (°C)	Stokes	anti-Stokes-744,400	-82,195	0,167	0,040
-743,385	-84,390	-0,301	0,070
-742,371	-101,585	0,180	0,032
-741,356	-155,861	-0,377	0,017
-740,342	65,215	0,075	-0,056
-739,327	-98,107	-0,271	-0,051
-738,312	-200,000	-0,002	-0,107
-737,298	16,777	-0,305	0,177
-736,283	-200,000	0,006	0,121
-735,269	-37,369	-0,132	0,052
-734,254	48,163	0,072	-0,050
-733,239	-85,214	-0,576	-0,132
-732,225	-119,977	0,205	0,026
-731,210	-158,031	0,021	0,001
-730,196	43,329	-0,064	-0,043
-729,181	13,895	-0,087	0,050
-728,167	-72,497	-0,139	-0,038
-727,152	374,634	0,016	0,024
-726,137	354,160	0,042	-0,061
-725,123	-35,108	-0,129	-0,052
-724,108	-131,010	-0,107	0,010
-723,094	-141,031	0,013	0,001
-722,079	-191,501	-0,122	0,001
-721,064	-98,764	0,077	-0,014
-720,050	-33,085	-0,061	0,025
-719,035	597,112	-0,034	0,063
-718,021	-78,057	-0,097	0,024
-717,006	-57,563	-0,061	0,020
-715,991	7,819	-0,108	-0,059
-714,977	17,011	-0,091	0,053
-713,962	800,000	-0,043	-0,102
-712,948	-29,242	-0,042	0,018
-711,933	-200,000	0,007	-0,030
-710,918	294,579	0,019	-0,025
-709,904	-143,364	-0,042	-0,003
-708,889	-200,000	0,033	0,121
-707,875	-54,904	-0,037	-0,012
-706,860	-94,180	-0,078	-0,016
-705,845	-115,180	0,023	-0,003
-704,831	-93,311	-0,023	-0,005
-703,816	501,099	-0,042	0,071
-702,802	260,285	-0,009	-0,011
-701,787	-18,268	-0,069	-0,032
-700,772	-200,000	-0,017	-0,070
-699,758	-200,000	0,007	-0,038
-698,743	-4,963	-0,053	-0,027
-697,729	59,601	-0,070	-0,051
-696,714	756,888	0,061	0,121
-695,699	-38,444	0,157	-0,061
-694,685	-3,569	-0,022	0,011
-693,670	-39,385	-0,094	0,036
-692,656	-200,000	0,003	0,024
-691,641	-14,060	0,016	0,008
-690,627	-200,000	0,002	0,208
-689,612	285,953	-0,074	0,098
-688,597	26,278	-0,063	0,039
-687,583	-18,030	-0,092	-0,042
-686,568	49,813	-0,109	-0,075
-685,554	-84,962	-0,128	-0,029
-684,539	-101,966	0,024	0,004
-683,524	134,586	0,049	0,046
-682,510	800,000	-0,027	0,079
-681,495	-2,588	-0,126	0,065
-680,481	11,404	-0,121	-0,068
-679,466	5,753	-0,054	-0,030
-678,451	800,000	-0,030	-0,070
-677,437	182,058	-0,023	-0,025
-676,422	-115,564	0,062	0,008
-675,408	800,000	-0,090	0,222
-674,393	800,000	-0,013	-0,034
-673,378	800,000	0,005	-0,014
-672,364	-200,000	-0,025	-0,166
-671,349	800,000	-0,012	-0,025
-670,335	270,176	-0,072	0,094
-669,320	-29,109	-0,172	0,072
-668,305	-2,307	-0,085	0,044
-667,291	477,922	-0,014	0,023
-666,276	227,998	-0,067	-0,081
-665,262	361,856	0,053	-0,078
-664,247	800,000	-0,056	0,118
-663,232	394,552	-0,109	0,168
-662,218	-85,589	0,148	0,033
-661,203	-167,352	0,038	0,001
-660,189	-87,410	-0,087	0,019
-659,174	-118,662	-0,096	0,012
-658,159	800,000	-0,043	-0,135
-657,145	-123,183	0,111	-0,013
-656,130	487,704	-0,016	-0,026
-655,116	130,355	-0,005	-0,005
-654,101	-49,816	0,087	0,030
-653,086	-200,000	0,002	0,053
-652,072	-128,972	-0,077	-0,008
-651,057	704,139	-0,104	-0,203
-650,043	-200,000	0,026	-0,150
-649,028	465,431	-0,065	0,107
-648,014	-200,000	0,029	0,104
-646,999	387,317	0,021	0,033
-645,984	309,253	-0,046	0,064
-644,970	368,126	-0,021	0,032
-643,955	414,464	-0,043	-0,067
-642,941	73,050	-0,136	-0,105
-641,926	214,230	0,101	-0,118
-640,911	76,823	0,092	-0,072
-639,897	-63,221	0,043	0,013
-638,882	-200,000	0,011	0,112
-637,868	-83,368	0,074	-0,017
-636,853	490,006	0,044	0,074
-635,838	6,802	-0,078	-0,043
-634,824	783,676	-0,040	-0,081
-633,809	-200,000	0,020	-0,085
-632,795	139,575	0,047	0,046
-631,780	19,987	0,046	0,027
-630,765	185,529	-0,080	-0,087
-629,751	380,532	-0,029	0,044
-628,736	800,000	-0,073	-0,174
-627,722	-119,268	-0,078	0,010
-626,707	-200,000	-0,009	-0,051
-625,692	692,563	0,106	-0,204
-624,678	800,000	-0,031	-0,065
-623,663	-138,708	0,153	-0,012
-622,649	63,383	-0,119	-0,088
-621,634	-6,911	0,101	-0,050
-620,619	800,000	0,035	-0,079
-619,605	-44,427	0,094	-0,035
-618,590	169,357	0,065	-0,068
-617,576	145,349	-0,093	-0,091
-616,561	-91,100	0,033	0,007
-615,546	574,799	-0,067	0,120
-614,532	484,434	0,054	-0,091
-613,517	-77,540	-0,039	0,010
-612,503	-52,912	-0,081	-0,027
-611,488	-112,802	0,173	0,025
-610,474	277,662	-0,062	-0,081
-609,459	-82,267	0,068	-0,016
-608,444	800,000	0,018	-0,054
-607,430	22,241	-0,096	0,057
-606,415	-33,742	0,089	0,036
-605,401	-44,625	0,071	-0,026
-604,386	-200,000	-0,001	-0,013
-603,371	-200,000	0,003	-0,148
-602,357	9,204	0,037	0,020
-601,342	-200,000	0,002	0,012
-600,328	-200,000	-0,003	-0,055
-599,313	-62,490	-0,061	-0,019
-598,298	251,200	0,068	0,085
-597,284	-11,413	0,074	-0,036
-596,269	-200,000	-0,010	-0,071
-595,255	-86,676	-0,114	0,025
-594,240	9,879	-0,091	0,050
-593,225	800,000	0,081	-0,170
-592,211	-117,043	-0,032	0,004
-591,196	276,170	-0,061	0,079
-590,182	-200,000	-0,002	0,038
-589,167	225,068	0,053	-0,062
-588,152	-200,000	-0,039	0,205
-587,138	-200,000	-0,002	-0,090
-586,123	46,539	-0,028	0,019
-585,109	133,262	-0,075	-0,071
-584,094	92,699	0,131	-0,108
-583,079	-107,922	0,072	0,011
-582,065	510,260	-0,081	0,138
-581,050	7,983	0,097	-0,053
-580,036	800,000	0,068	0,147
-579,021	-135,271	-0,034	0,003
-578,006	201,904	-0,025	0,028
-576,992	198,240	0,059	-0,066
-575,977	-128,414	-0,091	-0,009
-574,963	-8,587	-0,026	-0,013
-573,948	-50,944	-0,008	-0,003
-572,934	189,814	-0,024	0,026
-571,919	628,072	0,058	-0,108
-570,904	-54,211	-0,086	-0,029
-569,890	25,452	0,048	-0,029
-568,875	663,797	0,024	0,046
-567,861	84,496	-0,100	-0,080
-566,846	-200,000	0,050	0,174
-565,831	800,000	0,061	0,133
-564,817	-200,000	-0,008	-0,048
-563,802	-99,395	-0,086	-0,016
-562,788	800,000	0,047	-0,117
-561,773	-86,453	0,123	-0,028
-560,758	-119,650	-0,147	0,018
-559,744	-200,000	0,056	-0,216
-558,729	800,000	-0,038	0,078
-557,715	800,000	-0,023	-0,071
-556,700	-131,974	0,100	0,009
-555,685	-11,409	-0,078	0,037
-554,671	-200,000	-0,003	0,161
-553,656	792,366	0,042	-0,086
-552,642	731,379	0,064	0,126
-551,627	-200,000	-0,008	0,092
-550,612	708,748	-0,079	-0,153
-549,598	84,231	-0,118	0,095
-548,583	800,000	0,015	-0,033
-547,569	800,000	0,018	-0,052
-546,554	306,109	0,080	0,109
-545,539	-200,000	0,006	-0,043
-544,525	173,362	0,090	0,095
-543,510	92,986	0,039	0,033
-542,496	23,881	-0,117	0,070
-541,481	460,366	-0,016	-0,026
-540,466	-200,000	-0,011	0,078
-539,452	800,000	-0,060	0,150
-538,437	730,857	-0,100	0,197
-537,423	-162,216	-0,121	0,004
-536,408	-8,358	-0,044	0,021
-535,393	-9,787	0,032	-0,015
-534,379	449,807	0,082	-0,133
-533,364	-200,000	-0,008	0,029
-532,350	-104,095	0,143	0,024
-531,335	164,457	-0,061	0,063
-530,321	-21,948	0,084	0,037
-529,306	307,211	-0,017	-0,023
-528,291	64,227	-0,093	0,068
-527,277	60,029	-0,091	-0,066
-526,262	-200,000	0,006	0,025
-525,248	-52,642	0,152	0,051
-524,233	-116,351	0,045	-0,006
-523,218	-21,309	-0,072	-0,032
-522,204	259,691	-0,020	0,025
-521,189	800,000	0,018	-0,042
-520,175	-157,156	0,082	0,004
-519,160	346,109	-0,058	0,083
-518,145	-34,185	0,156	0,062
-517,131	-87,029	0,049	0,011
-516,116	-200,000	-0,005	-0,035
-515,102	207,006	-0,036	0,041
-514,087	-200,000	0,000	0,019
-513,072	800,000	0,047	-0,100
-512,058	547,105	-0,055	-0,097
-511,043	800,000	0,030	0,069
-510,029	207,913	0,106	0,122
-509,014	248,531	0,049	0,061
-507,999	709,614	0,042	0,082
-506,985	-76,317	-0,111	0,028
-505,970	-22,166	-0,125	-0,055
-504,956	-48,117	0,073	0,026
-503,941	-200,000	0,016	0,059
-502,926	178,471	-0,081	0,087
-501,912	159,999	-0,102	0,104
-500,897	38,419	0,078	0,051
-499,883	800,000	-0,019	0,043
-498,868	704,610	-0,050	-0,097
-497,853	-107,257	0,077	-0,012
-496,839	313,449	-0,014	-0,020
-495,824	46,521	0,173	0,117
-494,810	-200,000	0,015	0,143
-493,795	328,588	-0,066	-0,093
-492,781	-43,978	-0,050	0,018
-491,766	-200,000	0,003	0,037
-490,751	800,000	0,037	-0,094
-489,737	800,000	0,018	-0,042
-488,722	-155,316	0,081	0,004
-487,708	-33,008	-0,088	0,035
-486,693	-167,371	-0,087	0,002
-485,678	4,984	-0,100	-0,054
-484,664	800,000	-0,047	0,099
-483,649	-200,000	0,012	0,052
-482,635	352,367	0,045	-0,065
-481,620	26,689	-0,048	-0,029
-480,605	-200,000	0,038	0,141
-479,591	393,316	-0,064	0,098
-478,576	122,421	-0,096	-0,088
-477,562	92,084	0,051	-0,042
-476,547	-200,000	-0,002	-0,092
-475,532	-200,000	0,008	0,051
-474,518	-64,720	0,080	0,024
-473,503	49,351	0,049	-0,033
-472,489	556,553	-0,060	0,105
-471,474	-166,012	-0,043	0,001
-470,459	66,017	-0,065	-0,048
-469,445	71,501	-0,105	-0,079
-468,430	480,533	0,042	0,070
-467,416	571,242	0,023	0,041
-466,401	392,372	0,122	0,185
-465,386	-104,444	0,016	0,003
-464,372	-157,833	-0,101	-0,004
-463,357	742,114	-0,013	-0,025
-462,343	-200,000	0,006	-0,106
-461,328	204,977	-0,047	0,053
-460,313	-121,169	0,113	0,014
-459,299	-86,802	0,064	0,014
-458,284	12,641	-0,075	-0,042
-457,270	-187,774	-0,056	-0,001
-456,255	579,118	0,053	-0,095
-455,241	800,000	0,030	-0,070
-454,226	-200,000	0,006	-0,032
-453,211	-93,120	0,088	-0,018
-452,197	-200,000	0,008	-0,065
-451,182	320,318	-0,042	0,058
-450,168	1,499	-0,018	0,009
-449,153	-2,493	0,086	-0,044
-448,138	206,684	0,087	-0,099
-447,124	-1,625	-0,055	0,028
-446,109	-200,000	-0,001	0,047
-445,095	162,295	0,065	-0,066
-444,080	795,388	0,033	-0,066
-443,065	-200,000	-0,001	-0,025
-442,051	-200,000	0,000	-0,065
-441,036	-13,904	0,018	-0,009
-440,022	-89,804	0,115	0,024
-439,007	-9,156	0,074	-0,036
-437,992	439,288	0,052	-0,083
-436,978	-56,300	0,064	0,021
-435,963	272,274	0,024	0,031
-434,949	-162,788	0,053	0,002
-433,934	-110,139	0,126	-0,019
-432,919	479,807	-0,049	-0,081
-431,905	91,475	0,047	-0,039
-430,890	20,080	0,106	0,062
-429,876	54,171	0,062	-0,044
-428,861	-137,314	0,069	-0,006
-427,846	134,960	0,023	0,021
-426,832	477,934	-0,079	-0,131
-425,817	354,300	0,111	-0,162
-424,803	-155,750	-0,016	-0,001
-423,788	-71,996	-0,151	0,041
-422,773	-42,885	0,034	-0,012
-421,759	-171,480	0,154	-0,004
-420,744	2,384	-0,071	0,037
-419,730	800,000	-0,017	0,038
-418,715	695,992	-0,036	0,069
-417,701	-52,766	0,024	-0,008
-416,686	26,530	-0,013	0,008
-415,671	-200,000	0,009	-0,086
-414,657	-117,548	0,109	-0,014
-413,642	-84,691	-0,079	0,018
-412,628	191,779	0,064	-0,071
-411,613	-200,000	-0,003	-0,026
-410,598	-64,225	0,083	-0,024
-409,584	136,260	0,132	0,125
-408,569	800,000	0,060	0,143
-407,555	221,904	-0,023	-0,027
-406,540	-200,000	-0,000	0,016
-405,525	800,000	0,075	-0,159
-404,511	162,541	-0,037	-0,038
-403,496	-65,054	-0,096	-0,028
-402,482	53,088	-0,056	-0,039
-401,467	-58,504	-0,086	-0,027
-400,452	800,000	-0,064	0,140
-399,438	-200,000	0,042	0,145
-398,423	-91,315	0,115	0,024
-397,409	119,736	-0,110	-0,099
-396,394	612,114	0,043	-0,079
-395,379	75,717	0,131	0,101
-394,365	-61,192	-0,090	0,028
-393,350	-200,000	-0,004	0,036
-392,336	563,496	0,033	0,059
-391,321	-105,943	0,082	-0,013
-390,306	45,614	-0,165	-0,111
-389,292	451,078	-0,033	-0,054
-388,277	-200,000	-0,009	0,040
-387,263	156,011	0,074	-0,075
-386,248	275,464	0,083	0,107
-385,233	427,339	0,036	-0,057
-384,219	800,000	-0,021	-0,065
-383,204	515,280	-0,047	-0,081
-382,190	322,426	-0,089	0,123
-381,175	-112,633	0,025	0,004
-380,160	800,000	0,074	0,152
-379,146	128,341	-0,023	0,021
-378,131	15,109	0,103	0,059
-377,117	201,278	-0,028	-0,031
-376,102	-200,000	-0,002	-0,088
-375,088	265,556	-0,035	-0,045
-374,073	317,990	-0,061	0,084
-373,058	108,368	-0,070	-0,061
-372,044	-111,474	-0,032	0,005
-371,029	800,000	0,025	0,067
-370,015	-130,832	-0,081	-0,008
-369,000	31,915	0,072	0,045
-367,985	-200,000	-0,000	-0,015
-366,971	526,793	-0,057	-0,098
-365,956	90,700	0,083	0,067
-364,942	-69,584	0,075	0,021
-363,927	800,000	-0,005	0,010
-362,912	421,046	0,039	0,060
-361,898	-200,000	0,010	-0,041
-360,883	107,894	-0,047	-0,041
-359,869	800,000	-0,025	-0,056
-358,854	-173,521	0,228	0,005
-357,839	-200,000	0,001	-0,018
-356,825	145,864	0,090	0,088
-355,810	96,108	0,097	0,081
-354,796	-148,821	-0,100	-0,006
-353,781	-200,000	-0,035	-0,141
-352,766	13,814	0,064	-0,036
-351,752	-75,480	0,016	0,004
-350,737	538,123	0,053	0,092
-349,723	272,547	-0,057	-0,074
-348,708	111,036	-0,013	0,011
-347,693	583,144	-0,055	0,098
-346,679	340,332	-0,055	-0,079
-345,664	-200,000	0,022	-0,098
-344,650	95,365	-0,056	0,046
-343,635	-200,000	-0,005	0,092
-342,620	-103,438	0,045	0,008
-341,606	225,111	-0,072	0,085
-340,591	-43,783	-0,042	-0,015
-339,577	800,000	-0,061	-0,143
-338,562	-30,455	0,150	0,062
-337,548	53,934	-0,118	-0,082
-336,533	-14,558	0,182	-0,085
-335,518	800,000	-0,032	-0,074
-334,504	350,501	0,039	-0,057
-333,489	-189,523	0,076	-0,001
-332,475	-200,000	-0,018	-0,109
-331,460	800,000	0,012	-0,037
-330,445	-200,000	-0,033	-0,172
-329,431	-79,293	-0,074	0,018
-328,416	59,873	-0,102	-0,073
-327,402	800,000	-0,042	0,111
-326,387	-200,000	0,047	-0,160
-325,372	58,521	-0,012	0,008
-324,358	280,589	0,031	-0,041
-323,343	18,378	0,096	-0,055
-322,329	421,865	0,058	0,090
-321,314	-188,286	0,154	-0,001
-320,299	-200,000	0,008	0,065
-319,285	-200,000	0,037	0,150
-318,270	166,111	-0,017	0,017
-317,256	46,482	-0,021	-0,014
-316,241	-163,705	0,039	0,001
-315,226	-199,286	-0,110	-0,000
-314,212	-200,000	-0,006	0,031
-313,197	221,472	-0,030	0,035
-312,183	248,401	-0,080	0,098
-311,168	-200,000	-0,044	-0,167
-310,153	-200,000	-0,005	-0,079
-309,139	-22,687	-0,059	-0,026
-308,124	-200,000	0,006	-0,052
-307,110	302,896	0,054	0,072
-306,095	-61,237	0,040	0,012
-305,080	129,147	0,018	-0,016
-304,066	800,000	0,039	-0,089
-303,051	-200,000	0,003	-0,021
-302,037	76,184	-0,080	0,061
-301,022	296,507	0,008	-0,011
-300,008	56,674	-0,156	-0,110
-298,993	-59,089	0,052	-0,016
-297,978	27,248	0,074	0,045
-296,964	0,246	-0,123	-0,063
-295,949	800,000	-0,087	-0,177
-294,935	-200,000	-0,008	-0,070
-293,920	180,241	0,052	0,055
-292,905	156,788	0,017	0,017
-291,891	591,319	0,016	0,028
-290,876	-200,000	0,024	0,117
-289,862	402,339	0,044	-0,067
-288,847	-38,843	-0,033	0,012
-287,832	-200,000	0,007	-0,029
-286,818	-42,307	0,126	-0,046
-285,803	156,212	-0,104	0,104
-284,789	54,648	-0,037	0,026
-283,774	347,454	-0,070	0,100
-282,759	-46,464	-0,044	-0,016
-281,745	194,452	-0,068	0,075
-280,730	399,334	-0,086	-0,131
-279,716	-34,297	0,065	-0,026
-278,701	236,592	-0,053	0,063
-277,686	800,000	0,084	0,214
-276,672	-57,877	0,078	-0,025
-275,657	147,242	-0,008	-0,008
-274,643	-6,310	-0,258	-0,127
-273,628	-200,000	-0,012	-0,085
-272,613	18,950	-0,053	-0,031
-271,599	17,316	0,046	0,026
-270,584	-37,801	-0,066	-0,025
-269,570	-200,000	-0,028	0,177
-268,555	-18,143	-0,071	-0,032
-267,540	-160,461	0,057	0,002
-266,526	142,901	0,088	-0,085
-265,511	171,391	0,048	0,050
-264,497	-161,675	-0,005	-0,000
-263,482	-200,000	0,058	0,187
-262,467	86,399	0,072	0,058
-261,453	783,887	-0,022	0,045
-260,438	466,295	-0,020	-0,033
-259,424	32,434	-0,121	-0,075
-258,409	-200,000	0,005	-0,107
-257,395	-200,000	0,026	-0,145
-256,380	203,296	-0,043	-0,048
-255,365	-200,000	-0,030	0,099
-254,351	84,957	-0,017	-0,013
-253,336	-200,000	-0,005	0,058
-252,322	66,056	-0,102	-0,075
-251,307	360,574	-0,032	-0,046
-250,292	-200,000	0,020	-0,089
-249,278	-29,840	-0,053	-0,022
-248,263	279,105	0,111	0,144
-247,249	-200,000	0,003	0,062
-246,234	752,097	-0,029	0,058
-245,219	-200,000	0,015	0,058
-244,205	-134,798	-0,065	-0,006
-243,190	800,000	-0,049	0,101
-242,176	-200,000	-0,015	0,184
-241,161	-200,000	-0,008	0,176
-240,146	-179,895	-0,177	-0,003
-239,132	457,109	-0,040	0,064
-238,117	20,788	-0,103	-0,060
-237,103	-99,588	0,073	-0,013
-236,088	800,000	0,037	-0,107
-235,073	742,222	-0,065	0,128
-234,059	-200,000	-0,013	0,212
-233,044	-200,000	0,022	0,147
-232,030	-18,276	-0,159	0,071
-231,015	29,634	-0,022	-0,013
-230,000	48,318	0,059	0,040
-228,986	-200,000	0,011	-0,058
-227,971	-42,019	0,162	-0,060
-226,957	308,955	-0,008	-0,011
-225,942	590,921	0,027	0,048
-224,927	-200,000	-0,006	0,150
-223,913	800,000	0,017	0,033
-222,898	92,348	-0,059	0,048
-221,884	225,816	0,107	0,126
-220,869	696,383	0,073	-0,139
-219,855	-200,000	-0,008	0,081
-218,840	91,153	-0,074	0,060
-217,825	-63,964	0,045	0,013
-216,811	-200,000	0,012	-0,046
-215,796	329,050	-0,036	-0,050
-214,782	-164,397	-0,057	0,002
-213,767	-112,733	-0,069	-0,010
-212,752	-22,718	0,066	0,029
-211,738	26,193	-0,094	0,056
-210,723	670,519	-0,034	-0,063
-209,709	-200,000	-0,009	-0,147
-208,694	279,735	-0,081	-0,105
-207,679	51,001	0,109	0,074
-206,665	-145,002	0,056	-0,004
-205,650	-149,070	0,268	-0,015
-204,636	103,033	-0,069	0,059
-203,621	-113,779	-0,081	0,011
-202,606	15,087	0,032	-0,018
-201,592	238,201	0,090	0,108
-200,577	453,388	-0,039	0,063
-199,563	-99,506	-0,035	-0,006
-198,548	121,462	-0,014	-0,013
-197,533	-200,000	0,025	0,103
-196,519	190,523	-0,028	0,030
-195,504	800,000	-0,027	0,065
-194,490	6,153	-0,088	-0,047
-193,475	-88,545	-0,021	-0,004
-192,460	-200,000	-0,011	-0,117
-191,446	-99,198	0,138	0,025
-190,431	-106,275	-0,105	-0,017
-189,417	-200,000	0,007	-0,122
-188,402	-200,000	-0,003	-0,015
-187,387	389,427	-0,020	-0,030
-186,373	14,412	-0,081	0,045
-185,358	142,686	-0,105	-0,101
-184,344	-200,000	0,002	0,012
-183,329	-48,620	-0,106	-0,036
-182,315	250,239	0,051	0,062
-181,300	224,799	-0,029	0,034
-180,285	-70,676	-0,023	-0,006
-179,271	418,133	-0,029	-0,044
-178,256	136,581	0,051	0,048
-177,242	-82,354	-0,084	0,019
-176,227	104,515	-0,064	-0,054
-175,212	-200,000	-0,031	-0,099
-174,198	22,869	-0,034	-0,020
-173,183	-200,000	-0,017	-0,109
-172,169	51,475	0,006	0,004
-171,154	-89,529	0,075	0,016
-170,139	427,610	-0,081	0,127
-169,125	444,717	0,056	0,090
-168,110	-115,315	-0,125	-0,017
-167,096	395,123	-0,024	0,037
-166,081	68,417	0,097	-0,071
-165,066	800,000	-0,060	-0,152
-164,052	118,991	0,048	-0,043
-163,037	178,058	0,064	0,067
-162,023	475,569	0,088	0,143
-161,008	-126,367	-0,112	0,012
-159,993	-107,152	0,080	0,013
-158,979	-200,000	0,004	-0,063
-157,964	355,342	-0,087	0,125
-156,950	-20,051	-0,147	0,065
-155,935	-200,000	0,013	-0,131
-154,920	774,667	0,042	-0,082
-153,906	-200,000	-0,003	0,030
-152,891	-200,000	-0,024	-0,098
-151,877	-200,000	0,021	-0,080
-150,862	176,264	-0,092	0,097
-149,847	-143,943	0,184	-0,012
-148,833	-200,000	-0,003	0,013
-147,818	-200,000	0,019	-0,070
-146,804	-63,563	-0,067	-0,020
-145,789	-54,095	-0,073	-0,024
-144,775	74,007	0,072	-0,054
-143,760	-200,000	-0,028	-0,127
-142,745	333,057	-0,061	-0,086
-141,731	-200,000	0,003	-0,079
-140,716	176,441	0,084	0,088
-139,702	54,191	0,146	0,101
-138,687	-185,463	-0,073	0,001
-137,672	-72,542	0,035	0,009
-136,658	-200,000	-0,012	-0,042
-135,643	33,840	0,138	-0,086
-134,629	-144,705	-0,128	0,008
-133,614	-96,510	-0,206	-0,039
-132,599	146,661	0,143	0,138
-131,585	166,464	-0,016	-0,016
-130,570	251,910	0,050	-0,062
-129,556	-89,799	-0,128	0,027
-128,541	-128,792	-0,127	-0,013
-127,526	-26,930	-0,074	0,031
-126,512	46,501	0,180	0,120
-125,497	-52,154	0,058	0,019
-124,483	-200,000	-0,018	0,107
-123,468	800,000	0,037	0,082
-122,453	-200,000	0,021	0,084
-121,439	758,737	-0,074	-0,145
-120,424	-200,000	-0,050	-0,180
-119,410	208,958	-0,059	0,067
