DTS Sentinel unit serial number:	SN410029Multiplexer serial number:	ORYXHardware model number:	OX2-SRSoftware version number:	ORYX F/W v4,00 Oryx Data Collector v3.7.2.0data status	okinstallation	B6 Nyhavnadifferential loss correction	single-endedforward channel	channel 2reverse channel	N/Adate	2023/12/09time	22:15:08forward acquisition time	300,00reverse acquisition time	0,00gamma	499,1914k internal	0,3127k external	0,3127temperature offset calibration	1,0000default loss term (dB/km)	0,3820temperature slope calibration	1,0000multiplexer offset coefficient	1,0000multiplexer slope coefficient	1,0000fibre end	0,00T internal ref (°C)	21,66T ext. ref 1 (°C)	5,42T ext. ref 2 (°C)	5,41length (m)	temperature (°C)	Stokes	anti-Stokes-744,400	336,509	0,059	-0,086
-743,385	-26,347	-0,255	0,111
-742,371	-73,970	0,083	-0,022
-741,356	312,712	-0,141	0,198
-740,342	-103,831	0,135	0,023
-739,327	-131,892	-0,316	-0,030
-738,312	-47,732	0,080	0,029
-737,298	-7,009	-0,172	0,087
-736,283	60,398	0,143	-0,105
-735,269	-67,669	-0,163	0,047
-734,254	387,583	-0,058	0,090
-733,239	-147,766	-0,435	-0,027
-732,225	-35,023	0,147	0,059
-731,210	-200,000	-0,013	0,066
-730,196	715,878	-0,071	0,141
-729,181	242,525	0,030	0,038
-728,167	77,306	0,040	-0,031
-727,152	800,000	0,016	-0,041
-726,137	74,888	-0,096	-0,075
-725,123	728,997	-0,098	-0,197
-724,108	-200,000	0,032	-0,186
-723,094	13,792	-0,041	0,023
-722,079	-173,082	-0,068	-0,002
-721,064	-94,603	0,136	0,027
-720,050	271,725	-0,047	-0,062
-719,035	800,000	-0,044	0,096
-718,021	30,540	-0,187	0,119
-717,006	217,568	-0,097	-0,116
-715,991	51,055	-0,109	-0,077
-714,977	-12,778	-0,092	0,044
-713,962	240,694	0,032	-0,040
-712,948	491,713	0,064	-0,109
-711,933	-200,000	0,005	0,056
-710,918	800,000	0,034	-0,099
-709,904	28,911	-0,073	-0,046
-708,889	351,338	-0,034	-0,051
-707,875	552,106	-0,069	-0,124
-706,860	-200,000	-0,035	-0,180
-705,845	-200,000	-0,013	-0,058
-704,831	-91,666	0,108	-0,023
-703,816	800,000	-0,033	0,078
-702,802	137,944	-0,133	0,130
-701,787	-200,000	-0,024	-0,083
-700,772	-200,000	-0,004	0,116
-699,758	-200,000	-0,008	0,081
-698,743	716,263	-0,070	0,139
-697,729	21,443	0,095	0,058
-696,714	800,000	-0,054	0,115
-695,699	179,062	-0,092	-0,100
-694,685	-200,000	-0,003	-0,070
-693,670	-200,000	0,009	0,067
-692,656	-162,390	0,065	-0,002
-691,641	-200,000	0,015	0,088
-690,627	-61,725	0,128	-0,040
-689,612	704,924	-0,059	0,116
-688,597	420,598	-0,024	0,038
-687,583	107,674	-0,084	-0,074
-686,568	253,438	0,079	0,100
-685,554	-116,832	0,124	-0,017
-684,539	-200,000	-0,054	-0,229
-683,524	-200,000	-0,003	-0,159
-682,510	-200,000	-0,008	-0,115
-681,495	280,131	-0,053	-0,071
-680,481	666,587	-0,047	-0,091
-679,466	-45,641	-0,026	0,009
-678,451	-13,365	-0,078	-0,038
-677,437	-200,000	0,040	0,175
-676,422	-133,198	0,062	0,006
-675,408	201,826	0,103	-0,118
-674,393	-200,000	-0,009	-0,046
-673,378	434,033	-0,012	0,020
-672,364	-59,950	-0,106	-0,034
-671,349	82,915	0,085	-0,069
-670,335	173,939	0,108	-0,116
-669,320	-200,000	0,014	0,139
-668,305	-31,239	-0,139	0,058
-667,291	-22,355	-0,179	0,080
-666,276	15,177	0,092	-0,054
-665,262	-26,222	-0,156	-0,068
-664,247	-30,607	-0,086	0,036
-663,232	144,245	0,111	0,110
-662,218	-43,502	0,132	0,049
-661,203	186,119	0,078	0,086
-660,189	-95,563	0,010	-0,002
-659,174	-122,111	-0,069	0,008
-658,159	161,987	-0,028	0,030
-657,145	-200,000	-0,106	-0,000
-656,130	52,595	0,044	0,031
-655,116	-52,328	0,094	0,032
-654,101	800,000	-0,029	0,071
-653,086	800,000	-0,022	0,046
-652,072	800,000	0,059	-0,144
-651,057	800,000	-0,063	-0,168
-650,043	-63,121	-0,144	-0,044
-649,028	-39,419	0,082	0,032
-648,014	800,000	0,037	-0,096
-646,999	-200,000	-0,016	0,134
-645,984	45,117	0,022	-0,015
-644,970	-46,285	-0,077	0,028
-643,955	71,844	-0,102	-0,079
-642,941	-200,000	0,001	0,004
-641,926	-200,000	0,025	-0,145
-640,911	91,239	-0,040	0,033
-639,897	131,677	0,030	-0,028
-638,882	562,503	0,044	-0,080
-637,868	153,343	-0,046	0,046
-636,853	-200,000	-0,035	-0,133
-635,838	-200,000	-0,005	-0,121
-634,824	-33,924	-0,100	0,041
-633,809	800,000	0,021	0,067
-632,795	51,232	0,106	0,075
-631,780	172,465	-0,099	-0,106
-630,765	108,247	-0,034	0,030
-629,751	-51,331	-0,119	-0,041
-628,736	-119,797	0,047	-0,006
-627,722	140,197	-0,039	-0,038
-626,707	-77,929	-0,089	-0,023
-625,692	158,376	-0,069	0,071
-624,678	-200,000	-0,004	0,116
-623,663	-102,791	-0,178	-0,031
-622,649	-48,573	-0,149	-0,053
-621,634	-25,585	-0,159	0,069
-620,619	341,535	-0,066	-0,096
-619,605	-200,000	0,009	0,074
-618,590	-200,000	0,042	0,176
-617,576	-200,000	0,000	0,076
-616,561	-200,000	-0,005	0,044
-615,546	800,000	-0,023	0,048
-614,532	38,143	0,022	0,015
-613,517	-131,802	-0,135	0,013
-612,503	-58,121	0,122	-0,039
-611,488	-200,000	-0,004	0,224
-610,474	256,320	0,120	0,153
-609,459	320,421	-0,097	-0,137
-608,444	-158,677	-0,075	-0,003
-607,430	-200,000	-0,001	-0,022
-606,415	-200,000	0,008	0,050
-605,401	585,050	-0,046	0,084
-604,386	-31,360	0,075	0,031
-603,371	164,943	-0,062	0,065
-602,357	-200,000	0,026	0,108
-601,342	-200,000	-0,035	-0,120
-600,328	-200,000	0,003	-0,044
-599,313	547,689	-0,047	-0,083
-598,298	604,045	-0,068	-0,126
-597,284	436,855	-0,026	-0,043
-596,269	-200,000	-0,026	-0,113
-595,255	800,000	0,031	-0,088
-594,240	-114,240	0,046	-0,006
-593,225	-200,000	-0,021	0,125
-592,211	-200,000	-0,025	-0,102
-591,196	-3,793	0,058	0,030
-590,182	60,642	0,041	0,030
-589,167	23,581	0,053	0,032
-588,152	800,000	0,038	-0,103
-587,138	-23,750	-0,062	-0,027
-586,123	21,931	-0,135	-0,081
-585,109	464,600	-0,077	-0,128
-584,094	-29,917	-0,071	-0,030
-583,079	-110,539	-0,072	-0,011
-582,065	215,987	0,020	0,024
-581,050	-85,976	0,143	0,033
-580,036	-200,000	0,009	0,060
-579,021	103,059	-0,060	0,052
-578,006	-180,317	-0,058	-0,001
-576,992	-200,000	-0,019	-0,166
-575,977	-75,338	-0,007	0,002
-574,963	-2,832	0,068	-0,035
-573,948	-200,000	-0,005	0,128
-572,934	800,000	0,018	0,042
-571,919	-70,039	0,083	0,023
-570,904	119,842	-0,072	-0,066
-569,890	-27,330	-0,025	0,011
-568,875	-200,000	-0,029	0,201
-567,861	2,754	0,031	-0,017
-566,846	-43,279	0,060	0,022
-565,831	-104,787	-0,102	-0,017
-564,817	-37,455	-0,039	-0,015
-563,802	800,000	0,035	-0,092
-562,788	-154,122	0,068	0,003
-561,773	-200,000	0,011	0,042
-560,758	364,780	0,069	-0,104
-559,744	759,864	-0,060	-0,120
-558,729	425,030	-0,069	-0,110
-557,715	-99,010	-0,147	0,027
-556,700	283,588	-0,086	0,115
-555,685	-169,436	0,041	0,001
-554,671	-200,000	0,008	0,107
-553,656	-200,000	0,001	0,050
-552,642	-200,000	0,020	0,107
-551,627	800,000	-0,040	0,096
-550,612	-200,000	-0,001	-0,005
-549,598	-200,000	-0,014	-0,144
-548,583	105,308	0,085	-0,074
-547,569	800,000	0,009	-0,024
-546,554	63,364	-0,061	-0,045
-545,539	180,596	0,102	0,111
-544,525	-200,000	-0,033	0,145
-543,510	-200,000	-0,005	-0,021
-542,496	88,293	-0,084	0,069
-541,481	-9,136	-0,134	0,066
-540,466	-200,000	0,038	0,176
-539,452	800,000	0,017	0,053
-538,437	-15,441	0,151	0,071
-537,423	523,624	0,072	0,126
-536,408	-200,000	0,010	-0,037
-535,393	-200,000	-0,043	-0,144
-534,379	800,000	-0,019	-0,042
-533,364	-24,204	0,037	-0,016
-532,350	-42,177	0,080	-0,030
-531,335	-84,246	0,080	-0,018
-530,321	378,345	-0,042	-0,064
-529,306	4,074	-0,077	-0,042
-528,291	-43,543	0,187	-0,069
-527,277	-186,418	-0,073	0,001
-526,262	-200,000	-0,005	0,019
-525,248	800,000	0,036	-0,096
-524,233	-200,000	-0,018	-0,102
-523,218	16,871	0,067	-0,039
-522,204	-107,033	0,046	0,007
-521,189	-97,240	-0,138	-0,026
-520,175	211,283	-0,021	-0,024
-519,160	-200,000	-0,001	-0,037
-518,145	-200,000	-0,001	0,147
-517,131	58,242	-0,107	-0,078
-516,116	-41,075	0,050	0,019
-515,102	-200,000	-0,019	0,083
-514,087	189,988	-0,083	-0,092
-513,072	183,768	0,051	0,056
-512,058	-101,546	-0,078	0,014
-511,043	-200,000	0,002	0,045
-510,029	-200,000	0,026	0,099
-509,014	800,000	0,041	0,121
-507,999	70,710	-0,033	-0,025
-506,985	-78,451	0,103	-0,026
-505,970	48,369	0,179	-0,123
-504,956	-200,000	-0,028	0,115
-503,941	-23,792	-0,036	0,016
-502,926	-200,000	-0,012	0,040
-501,912	-30,459	0,077	0,032
-500,897	340,463	-0,054	0,078
-499,883	-11,883	-0,096	0,046
-498,868	-64,871	-0,095	-0,028
-497,853	-200,000	0,009	-0,066
-496,839	-94,745	0,144	-0,029
-495,824	-113,469	-0,024	-0,003
-494,810	189,921	0,039	0,043
-493,795	84,722	0,051	0,041
-492,781	385,201	-0,050	-0,077
-491,766	96,437	0,059	-0,050
-490,751	-33,675	0,101	0,041
-489,737	800,000	-0,041	-0,131
-488,722	-42,225	0,091	0,034
-487,708	42,264	-0,078	-0,052
-486,693	-122,805	0,067	0,008
-485,678	102,228	0,008	0,007
-484,664	-128,457	0,027	0,003
-483,649	21,752	-0,069	-0,042
-482,635	-200,000	-0,017	0,062
-481,620	800,000	0,071	0,173
-480,605	-10,854	0,172	0,083
-479,591	800,000	-0,033	0,079
-478,576	-105,537	0,153	0,025
-477,562	94,716	-0,068	-0,057
-476,547	-200,000	0,012	-0,093
-475,532	-107,403	-0,103	-0,017
-474,518	-200,000	0,014	0,071
-473,503	330,162	0,121	0,172
-472,489	800,000	0,042	-0,093
-471,474	800,000	0,011	0,026
-470,459	158,777	-0,086	-0,088
-469,445	287,261	0,050	-0,066
-468,430	-115,915	-0,166	0,023
-467,416	-200,000	0,002	-0,006
-466,401	148,563	-0,118	-0,117
-465,386	-200,000	0,002	-0,034
-464,372	-158,598	-0,106	-0,004
-463,357	800,000	0,045	-0,135
-462,343	-105,207	-0,112	-0,019
-461,328	41,707	-0,046	-0,031
-460,313	-200,000	-0,014	0,126
-459,299	231,848	0,078	-0,094
-458,284	53,651	0,052	0,037
-457,270	-90,268	0,112	0,024
-456,255	305,812	-0,056	0,077
-455,241	-200,000	-0,011	0,146
-454,226	-200,000	-0,005	0,104
-453,211	60,011	0,085	0,062
-452,197	800,000	-0,047	0,127
-451,182	-200,000	0,010	-0,054
-450,168	-142,559	0,065	0,005
-449,153	-200,000	0,000	0,016
-448,138	-200,000	-0,030	-0,151
-447,124	333,133	0,041	0,058
-446,109	127,113	-0,065	0,061
-445,095	-200,000	-0,000	0,131
-444,080	4,662	0,170	0,091
-443,065	-118,523	-0,050	0,007
-442,051	328,610	-0,017	0,024
-441,036	427,060	-0,049	-0,078
-440,022	-35,577	-0,045	-0,018
-439,007	-67,526	0,009	0,003
-437,992	191,604	-0,079	0,087
-436,978	112,212	0,088	0,078
-435,963	368,303	0,042	0,062
-434,949	800,000	-0,061	-0,143
-433,934	-8,111	-0,044	0,022
-432,919	103,513	0,064	-0,055
-431,905	116,419	0,098	-0,088
-430,890	-103,500	0,101	0,017
-429,876	-200,000	0,007	0,191
-428,861	800,000	-0,015	-0,037
-427,846	-200,000	-0,004	-0,090
-426,832	-200,000	0,005	0,066
-425,817	82,622	-0,015	-0,012
-424,803	-50,944	0,122	-0,042
-423,788	-200,000	0,001	0,082
-422,773	-124,255	0,098	0,011
-421,759	611,110	0,047	-0,087
-420,744	291,665	-0,091	0,122
-419,730	800,000	-0,013	-0,032
-418,715	800,000	0,053	-0,148
-417,701	132,995	-0,090	-0,085
-416,686	116,235	-0,045	0,041
-415,671	-44,827	0,044	-0,016
-414,657	-135,417	-0,145	0,013
-413,642	-200,000	-0,038	0,211
-412,628	702,484	0,041	0,079
-411,613	94,452	-0,114	-0,095
-410,598	677,529	0,011	-0,021
-409,584	-88,160	-0,020	0,004
-408,569	758,533	-0,046	0,092
-407,555	36,915	-0,089	-0,058
-406,540	800,000	0,052	-0,140
-405,525	3,047	0,035	0,018
-404,511	373,167	-0,044	-0,065
-403,496	-39,134	0,022	-0,008
-402,482	59,841	0,078	-0,057
-401,467	47,652	0,083	-0,057
-400,452	-200,000	0,021	0,111
-399,438	67,816	0,107	-0,080
-398,423	-123,367	0,052	0,006
-397,409	800,000	-0,046	-0,127
-396,394	9,169	0,072	-0,040
-395,379	-89,989	0,083	-0,018
-394,365	10,733	-0,066	0,037
-393,350	380,453	-0,026	0,039
-392,336	-134,397	0,129	-0,011
-391,321	350,585	0,055	-0,080
-390,306	101,747	-0,065	-0,056
-389,292	-200,000	-0,003	0,033
-388,277	-200,000	-0,008	-0,148
-387,263	800,000	-0,021	-0,045
-386,248	506,458	0,099	0,168
-385,233	434,817	-0,016	-0,026
-384,219	-200,000	0,012	-0,057
-383,204	800,000	-0,048	-0,132
-382,190	-200,000	-0,004	-0,096
-381,175	-22,815	0,052	-0,023
-380,160	33,534	0,105	0,067
-379,146	-200,000	0,014	0,121
-378,131	5,575	-0,065	0,035
-377,117	-167,955	0,131	-0,004
-376,102	130,664	0,078	-0,074
-375,088	70,048	0,040	-0,030
-374,073	5,505	-0,114	-0,062
-373,058	-200,000	-0,011	0,074
-372,044	212,839	0,032	0,037
-371,029	-81,350	-0,212	-0,051
-370,015	-200,000	-0,034	-0,123
-369,000	609,530	-0,038	-0,069
-367,985	800,000	-0,092	-0,214
-366,971	-170,510	-0,116	0,003
-365,956	190,416	0,066	-0,073
-364,942	-81,775	-0,026	0,006
-363,927	75,858	0,067	0,052
-362,912	-200,000	0,005	-0,057
-361,898	-170,806	0,034	-0,001
-360,883	249,612	0,032	-0,040
-359,869	378,422	-0,039	-0,059
-358,854	371,934	-0,039	-0,058
-357,839	75,745	-0,111	-0,086
-356,825	-94,146	0,111	0,022
-355,810	-37,321	-0,037	0,014
-354,796	377,551	-0,066	0,100
-353,781	93,013	-0,100	-0,083
-352,766	-121,178	-0,052	0,006
-351,752	162,116	0,049	0,050
-350,737	232,929	-0,081	0,098
-349,723	-103,533	-0,048	0,008
-348,708	-200,000	-0,023	0,167
-347,693	122,061	-0,035	0,032
-346,679	-82,020	-0,109	0,026
-345,664	184,218	-0,070	-0,076
-344,650	29,166	-0,038	0,024
-343,635	-169,344	0,103	0,003
-342,620	-128,399	-0,055	0,006
-341,606	-200,000	0,010	-0,136
-340,591	-200,000	0,006	-0,018
-339,577	-52,817	-0,056	-0,019
-338,562	-39,109	-0,046	-0,018
-337,548	-135,629	0,066	-0,006
-336,533	-43,010	0,031	-0,011
-335,518	800,000	0,020	0,045
-334,504	124,599	0,114	0,105
-333,489	134,527	0,064	0,061
-332,475	739,737	-0,035	-0,069
-331,460	-76,049	0,099	-0,026
-330,445	82,494	0,148	0,118
-329,431	-189,422	0,145	0,001
-328,416	800,000	0,029	0,076
-327,402	-55,414	-0,049	0,016
-326,387	-200,000	0,025	0,086
-325,372	-200,000	0,001	0,045
-324,358	-200,000	0,005	-0,019
-323,343	-200,000	0,003	-0,086
-322,329	-66,711	0,158	0,045
-321,314	-200,000	0,024	0,079
-320,299	800,000	0,031	-0,094
-319,285	90,556	0,039	0,032
-318,270	-150,879	0,093	-0,005
-317,256	21,071	0,126	0,075
-316,241	800,000	-0,051	0,128
-315,226	-200,000	-0,011	-0,071
-314,212	-95,954	0,116	0,022
-313,197	-50,602	0,082	0,028
-312,183	107,318	0,039	-0,034
-311,168	772,787	0,027	0,053
-310,153	70,735	-0,049	-0,037
-309,139	158,271	-0,062	-0,063
-308,124	-200,000	-0,018	-0,117
-307,110	800,000	0,019	0,058
-306,095	-113,213	0,120	0,017
-305,080	475,366	-0,047	0,078
-304,066	-85,939	0,063	-0,014
-303,051	506,583	0,099	-0,169
-302,037	-47,688	-0,054	-0,019
-301,022	-200,000	0,028	-0,130
-300,008	-200,000	0,000	0,022
-298,993	131,779	0,045	0,042
-297,978	141,546	-0,052	-0,051
-296,964	-200,000	0,013	-0,119
-295,949	-73,614	-0,065	-0,017
-294,935	-90,028	-0,036	0,008
-293,920	-200,000	0,006	-0,197
-292,905	-96,030	0,116	-0,022
-291,891	-200,000	-0,008	-0,086
-290,876	114,824	0,046	-0,041
-289,862	-102,265	-0,086	0,015
-288,847	642,797	0,049	-0,092
-287,832	-200,000	0,018	-0,119
-286,818	-200,000	-0,033	-0,126
-285,803	-200,000	0,010	0,102
-284,789	287,954	0,032	0,042
-283,774	-124,617	0,042	0,005
-282,759	-34,021	0,077	-0,031
-281,745	-200,000	0,013	-0,073
-280,730	549,539	-0,063	-0,111
-279,716	227,722	-0,031	-0,037
-278,701	-200,000	0,009	-0,031
-277,686	297,665	0,087	0,117
-276,672	-200,000	0,047	0,180
-275,657	141,142	0,093	0,090
-274,643	-200,000	-0,011	0,041
-273,628	39,993	0,055	-0,036
-272,613	359,664	0,033	-0,049
-271,599	93,762	0,140	-0,116
-270,584	10,666	-0,089	-0,049
-269,570	-158,769	0,176	-0,007
-268,555	-200,000	0,017	0,106
-267,540	244,223	-0,050	-0,062
-266,526	12,913	-0,138	-0,078
-265,511	800,000	0,031	-0,064
-264,497	-150,855	0,173	0,009
-263,482	78,328	0,062	0,049
-262,467	-200,000	0,009	0,063
-261,453	-200,000	0,004	-0,130
-260,438	68,843	0,069	0,052
-259,424	-200,000	0,006	-0,131
-258,409	-169,882	-0,152	0,004
-257,395	230,093	-0,080	-0,096
-256,380	451,403	0,049	-0,079
-255,365	-139,852	-0,062	-0,005
-254,351	800,000	-0,031	-0,081
-253,336	116,532	-0,011	-0,010
-252,322	248,519	0,042	-0,052
-251,307	-11,857	-0,066	-0,032
-250,292	267,823	0,053	0,068
-249,278	59,807	0,121	0,087
-248,263	-200,000	-0,023	-0,099
-247,249	124,922	0,066	0,061
-246,234	200,208	-0,077	-0,087
-245,219	-134,313	0,095	-0,008
-244,205	-129,507	-0,029	-0,003
-243,190	-200,000	-0,019	-0,062
-242,176	-200,000	-0,047	0,163
-241,161	85,878	0,061	0,049
-240,146	416,418	0,076	0,118
-239,132	-13,712	0,020	-0,010
-238,117	5,585	-0,047	-0,025
-237,103	21,578	-0,099	-0,059
-236,088	411,095	-0,042	-0,065
-235,073	-110,508	0,028	0,004
-234,059	291,595	-0,072	0,096
-233,044	253,820	0,062	0,078
-232,030	557,597	-0,025	0,044
-231,015	-200,000	0,009	0,069
-230,000	800,000	0,022	0,070
-228,986	800,000	-0,039	-0,096
-227,971	197,025	0,100	0,111
-226,957	124,207	-0,085	0,078
-225,942	-96,818	0,033	0,006
-224,927	-37,070	-0,163	-0,063
-223,913	-200,000	-0,002	0,116
-222,898	800,000	-0,020	-0,041
-221,884	-113,327	-0,059	0,008
-220,869	-200,000	0,003	0,015
-219,855	-200,000	0,005	0,050
-218,840	741,967	0,022	-0,043
-217,825	185,455	-0,014	0,015
-216,811	140,252	-0,086	-0,083
-215,796	20,391	0,054	-0,032
-214,782	800,000	-0,023	-0,074
-213,767	310,324	0,068	0,093
-212,752	623,050	0,015	0,027
-211,738	119,772	0,100	0,091
-210,723	-200,000	-0,010	-0,044
-209,709	23,519	0,115	0,069
-208,694	-34,629	-0,067	0,026
-207,679	335,510	-0,093	0,131
-206,665	209,126	0,013	-0,015
-205,650	185,852	-0,073	-0,079
-204,636	-200,000	0,016	0,230
-203,621	13,250	-0,129	0,072
-202,606	-200,000	0,023	-0,090
-201,592	800,000	0,027	0,054
-200,577	-200,000	0,001	0,073
-199,563	764,520	0,026	0,053
-198,548	99,048	-0,063	-0,053
-197,533	-200,000	0,008	0,051
-196,519	-200,000	-0,004	0,167
-195,504	-44,412	-0,097	-0,035
-194,490	22,455	-0,060	-0,036
-193,475	-200,000	-0,018	-0,104
-192,460	23,960	0,076	0,046
-191,446	-200,000	-0,017	0,099
-190,431	-111,777	-0,064	-0,009
-189,417	800,000	0,031	0,081
-188,402	-200,000	-0,020	-0,241
-187,387	31,504	0,071	-0,044
-186,373	568,303	0,007	-0,013
-185,358	-200,000	-0,019	-0,072
-184,344	181,268	0,045	0,048
-183,329	-93,345	-0,111	0,022
-182,315	800,000	0,036	0,112
-181,300	800,000	-0,045	0,142
-180,285	-43,259	0,128	-0,047
-179,271	213,568	-0,068	-0,078
-178,256	212,416	0,089	-0,102
-177,242	-141,722	0,169	-0,012
-176,227	-110,475	-0,088	0,013
-175,212	-200,000	0,012	0,053
-174,198	-141,286	-0,055	-0,004
-173,183	-200,000	-0,013	0,046
-172,169	59,319	0,061	-0,044
-171,154	535,428	-0,007	0,013
-170,139	-200,000	-0,006	0,020
-169,125	-168,359	-0,048	0,001
-168,110	-44,067	0,037	-0,013
-167,096	800,000	-0,015	-0,035
-166,081	142,181	-0,070	-0,067
-165,066	91,804	-0,099	0,081
-164,052	-200,000	0,035	0,235
-163,037	-9,249	-0,131	0,064
-162,023	181,716	-0,154	0,165
-161,008	132,081	0,068	0,064
-159,993	-46,079	-0,062	0,022
-158,979	51,189	-0,122	-0,084
-157,964	-200,000	0,031	-0,153
-156,950	16,025	0,051	-0,029
-155,935	800,000	0,055	-0,116
-154,920	149,413	-0,110	0,108
-153,906	100,113	0,041	-0,034
-152,891	-11,766	0,015	-0,007
-151,877	-200,000	-0,007	-0,059
-150,862	543,639	0,028	0,050
-149,847	-156,107	0,143	0,006
-148,833	-29,967	0,070	0,029
-147,818	-200,000	0,005	-0,053
-146,804	126,831	0,076	0,070
-145,789	-200,000	-0,040	0,217
-144,775	264,521	0,097	0,124
-143,760	-200,000	0,002	-0,038
-142,745	174,236	0,022	-0,023
-141,731	-200,000	-0,014	-0,066
-140,716	12,137	-0,080	0,045
-139,702	76,557	0,009	0,007
-138,687	498,934	0,053	-0,089
-137,672	-96,128	-0,107	-0,020
-136,658	-200,000	-0,001	-0,067
-135,643	51,605	-0,056	-0,038
-134,629	159,297	0,039	-0,040
-133,614	10,351	0,106	0,059
-132,599	558,745	0,073	0,128
-131,585	303,264	-0,107	-0,144
-130,570	286,491	0,091	-0,120
-129,556	-139,531	-0,092	-0,007
-128,541	800,000	-0,071	-0,189
-127,526	46,452	0,065	0,044
-126,512	64,040	-0,086	0,063
-125,497	-50,981	0,053	0,018
-124,483	765,076	-0,023	-0,045
-123,468	-200,000	0,004	0,153
-122,453	-200,000	-0,007	-0,036
-121,439	-96,817	0,153	-0,029
-120,424	-27,991	-0,110	-0,046
