DTS Sentinel unit serial number:	SN410029Multiplexer serial number:	ORYXHardware model number:	OX2-SRSoftware version number:	ORYX F/W v4,00 Oryx Data Collector v3.7.2.0data status	okinstallation	B6 Nyhavnadifferential loss correction	single-endedforward channel	channel 2reverse channel	N/Adate	2023/12/09time	04:00:08forward acquisition time	300,00reverse acquisition time	0,00gamma	499,1914k internal	0,3151k external	0,3151temperature offset calibration	1,0000default loss term (dB/km)	0,3820temperature slope calibration	1,0000multiplexer offset coefficient	1,0000multiplexer slope coefficient	1,0000fibre end	0,00T internal ref (°C)	16,67T ext. ref 1 (°C)	1,03T ext. ref 2 (°C)	1,03length (m)	temperature (°C)	Stokes	anti-Stokes-744,400	-200,000	-0,020	-0,094
-743,385	-98,977	-0,279	-0,052
-742,371	520,422	0,092	-0,160
-741,356	-109,167	-0,281	0,044
-740,342	-144,403	0,183	0,012
-739,327	-55,545	-0,340	0,112
-738,312	-59,902	0,109	0,034
-737,298	-126,453	-0,376	-0,041
-736,283	5,600	0,047	-0,025
-735,269	-67,037	-0,273	0,079
-734,254	-107,234	0,057	-0,009
-733,239	-34,999	-0,465	-0,186
-732,225	11,387	0,146	0,083
-731,210	-200,000	0,044	0,278
-730,196	800,000	0,016	-0,042
-729,181	39,917	-0,047	-0,031
-728,167	-112,762	0,094	-0,014
-727,152	-12,981	-0,218	-0,104
-726,137	499,945	-0,055	-0,094
-725,123	800,000	-0,050	0,142
-724,108	487,069	-0,038	-0,065
-723,094	-66,174	-0,188	-0,055
-722,079	158,041	0,033	-0,034
-721,064	-200,000	-0,032	-0,105
-720,050	-73,935	-0,062	0,017
-719,035	34,891	-0,111	0,072
-718,021	-200,000	0,004	-0,085
-717,006	-114,703	-0,035	-0,005
-715,991	-166,251	-0,193	-0,006
-714,977	800,000	0,033	0,070
-713,962	-113,341	0,134	0,019
-712,948	-152,149	0,047	-0,002
-711,933	-200,000	0,016	0,084
-710,918	-42,019	-0,118	-0,044
-709,904	72,419	0,070	0,054
-708,889	-127,353	-0,137	0,015
-707,875	-200,000	-0,028	-0,179
-706,860	800,000	0,042	-0,133
-705,845	-182,771	-0,137	-0,002
-704,831	800,000	0,031	0,092
-703,816	800,000	0,033	-0,089
-702,802	-189,086	-0,050	-0,000
-701,787	51,723	-0,095	-0,066
-700,772	-200,000	-0,003	-0,093
-699,758	-71,107	0,106	-0,029
-698,743	800,000	-0,025	0,079
-697,729	0,936	-0,106	-0,056
-696,714	-67,330	0,125	-0,036
-695,699	256,348	0,087	-0,111
-694,685	800,000	0,017	0,043
-693,670	58,931	0,075	0,055
-692,656	-200,000	-0,016	-0,083
-691,641	354,364	-0,023	-0,034
-690,627	75,233	-0,092	0,072
-689,612	423,242	-0,056	-0,089
-688,597	-200,000	0,003	-0,095
-687,583	-200,000	-0,001	-0,158
-686,568	257,153	-0,066	-0,084
-685,554	14,621	-0,164	-0,094
-684,539	160,516	-0,117	-0,120
-683,524	153,114	0,042	-0,042
-682,510	-200,000	0,006	-0,062
-681,495	-200,000	-0,005	-0,018
-680,481	-28,417	-0,078	0,033
-679,466	-200,000	-0,015	-0,142
-678,451	486,483	-0,069	-0,117
-677,437	800,000	0,012	-0,037
-676,422	-200,000	-0,017	-0,121
-675,408	100,325	0,065	0,056
-674,393	30,888	-0,083	-0,052
-673,378	208,494	-0,108	-0,124
-672,364	-112,697	0,069	0,010
-671,349	-200,000	-0,017	-0,131
-670,335	-200,000	0,006	0,065
-669,320	-142,897	0,126	0,009
-668,305	-200,000	-0,041	0,162
-667,291	305,096	-0,027	0,038
-666,276	-200,000	-0,013	0,127
-665,262	800,000	-0,037	-0,101
-664,247	354,492	-0,058	-0,085
-663,232	313,191	0,039	-0,054
-662,218	-200,000	0,003	0,000
-661,203	-87,852	-0,115	-0,025
-660,189	58,409	-0,113	0,081
-659,174	49,642	-0,066	-0,046
-658,159	313,150	-0,020	-0,028
-657,145	-11,569	-0,143	-0,069
-656,130	-167,343	0,171	-0,005
-655,116	68,859	0,045	0,034
-654,101	-200,000	0,008	0,079
-653,086	-25,642	-0,097	0,042
-652,072	70,095	-0,052	-0,039
-651,057	-165,349	-0,186	-0,006
-650,043	-200,000	-0,029	-0,151
-649,028	-200,000	0,009	-0,033
-648,014	-200,000	-0,024	0,085
-646,999	59,201	-0,058	-0,042
-645,984	-145,456	-0,149	-0,010
-644,970	166,576	-0,060	-0,062
-643,955	474,892	-0,034	-0,056
-642,941	404,924	-0,090	-0,140
-641,926	-200,000	-0,013	0,054
-640,911	-165,937	0,191	-0,006
-639,897	-200,000	-0,041	-0,197
-638,882	88,746	0,054	-0,044
-637,868	111,970	0,105	0,093
-636,853	-52,293	-0,106	0,036
-635,838	-23,816	-0,064	-0,028
-634,824	-200,000	0,012	-0,091
-633,809	-97,596	-0,019	0,004
-632,795	-145,545	0,210	0,014
-631,780	396,078	0,035	0,054
-630,765	-139,737	-0,046	-0,004
-629,751	-200,000	-0,040	0,148
-628,736	-200,000	0,016	-0,118
-627,722	800,000	0,059	-0,161
-626,707	-100,255	0,030	0,005
-625,692	55,729	-0,036	0,026
-624,678	-117,714	-0,083	0,011
-623,663	188,521	0,038	-0,042
-622,649	-28,502	-0,119	-0,050
-621,634	-91,817	-0,067	-0,014
-620,619	800,000	-0,054	0,138
-619,605	-137,893	-0,045	-0,004
-618,590	800,000	0,017	0,044
-617,576	-106,682	0,055	0,009
-616,561	-151,589	-0,157	-0,008
-615,546	-54,615	0,095	-0,031
-614,532	-96,454	-0,114	-0,022
-613,517	-102,708	-0,065	-0,011
-612,503	48,465	0,115	-0,079
-611,488	-1,092	0,054	0,028
-610,474	-200,000	0,002	0,162
-609,459	-90,294	-0,019	0,004
-608,444	717,873	-0,026	0,052
-607,430	314,320	-0,056	-0,077
-606,415	800,000	-0,031	-0,077
-605,401	109,385	0,034	0,030
-604,386	-200,000	-0,005	0,019
-603,371	800,000	-0,027	0,071
-602,357	-200,000	-0,024	0,126
-601,342	-130,253	-0,106	-0,010
-600,328	-200,000	-0,017	-0,118
-599,313	-200,000	0,041	-0,164
-598,298	800,000	0,020	0,042
-597,284	140,639	-0,063	0,061
-596,269	-145,219	0,078	-0,005
-595,255	800,000	0,021	0,067
-594,240	40,284	0,064	-0,042
-593,225	-200,000	0,019	-0,098
-592,211	-47,588	-0,195	-0,069
-591,196	28,389	0,095	-0,059
-590,182	-91,260	0,129	0,027
-589,167	69,382	-0,106	0,080
-588,152	-50,666	0,053	0,018
-587,138	-200,000	-0,003	0,023
-586,123	-200,000	-0,043	-0,149
-585,109	-17,777	0,190	-0,087
-584,094	227,301	-0,013	-0,015
-583,079	21,728	0,088	-0,052
-582,065	800,000	0,005	-0,014
-581,050	-54,980	0,145	0,048
-580,036	8,747	0,073	-0,040
-579,021	40,103	-0,159	-0,105
-578,006	319,169	-0,017	-0,024
-576,992	-200,000	0,002	-0,150
-575,977	-200,000	0,014	-0,086
-574,963	-200,000	0,008	-0,038
-573,948	800,000	0,019	0,050
-572,934	-132,791	-0,028	0,003
-571,919	-200,000	0,033	-0,147
-570,904	-47,048	-0,052	-0,018
-569,890	-200,000	-0,009	-0,096
-568,875	-88,662	0,041	0,009
-567,861	141,374	0,071	-0,069
-566,846	800,000	-0,050	0,142
-565,831	-72,551	0,102	0,027
-564,817	-42,518	-0,213	0,079
-563,802	-98,129	-0,213	0,040
-562,788	-52,609	0,022	0,007
-561,773	-78,905	0,053	0,013
-560,758	129,402	-0,009	-0,008
-559,744	534,995	0,046	0,080
-558,729	-200,000	-0,023	-0,086
-557,715	-73,372	-0,165	0,044
-556,700	800,000	0,036	0,109
-555,685	800,000	-0,004	-0,009
-554,671	-200,000	0,010	-0,071
-553,656	744,854	-0,042	-0,083
-552,642	530,832	0,044	0,077
-551,627	-200,000	0,006	0,047
-550,612	290,423	-0,102	-0,137
-549,598	-160,547	0,080	0,003
-548,583	308,040	-0,019	-0,025
-547,569	600,380	0,103	0,188
-546,554	-28,616	0,058	0,024
-545,539	186,349	-0,041	0,045
-544,525	-200,000	0,008	-0,052
-543,510	93,479	0,066	0,055
-542,496	232,890	-0,066	-0,080
-541,481	710,409	0,030	-0,059
-540,466	276,627	0,075	0,097
-539,452	-200,000	0,002	-0,038
-538,437	-92,909	0,039	0,008
-537,423	359,868	-0,076	-0,112
-536,408	-19,585	-0,062	0,028
-535,393	-68,879	0,028	0,008
-534,379	-118,580	-0,063	0,008
-533,364	668,928	-0,075	-0,144
-532,350	-200,000	-0,001	-0,087
-531,335	88,368	0,132	-0,108
-530,321	-83,909	-0,158	0,037
-529,306	662,531	-0,056	0,107
-528,291	-200,000	-0,005	-0,152
-527,277	-200,000	0,004	-0,297
-526,262	105,228	0,028	-0,024
-525,248	-63,733	-0,069	0,021
-524,233	-200,000	-0,008	0,112
-523,218	800,000	-0,028	-0,086
-522,204	-200,000	0,006	0,040
-521,189	800,000	-0,049	0,111
-520,175	-23,241	0,063	0,027
-519,160	-200,000	-0,008	0,055
-518,145	193,828	0,052	-0,058
-517,131	179,918	0,049	-0,052
-516,116	-104,260	0,048	0,008
-515,102	-200,000	-0,018	0,067
-514,087	-49,396	0,016	0,006
-513,072	-86,039	-0,141	0,032
-512,058	800,000	0,052	-0,114
-511,043	-70,744	0,071	-0,019
-510,029	-200,000	-0,013	0,148
-509,014	-69,423	0,028	-0,008
-507,999	-171,232	-0,108	0,003
-506,985	-200,000	-0,010	0,034
-505,970	-5,369	-0,093	-0,046
-504,956	800,000	0,028	-0,077
-503,941	-200,000	-0,007	0,026
-502,926	497,478	0,053	0,089
-501,912	-200,000	0,003	-0,199
-500,897	-58,004	0,140	0,044
-499,883	-123,490	0,090	0,010
-498,868	133,439	-0,078	0,074
-497,853	6,528	-0,033	-0,018
-496,839	45,523	0,093	-0,063
-495,824	-200,000	0,000	-0,013
-494,810	153,733	0,112	0,112
-493,795	-38,773	0,070	0,027
-492,781	800,000	-0,041	0,122
-491,766	-200,000	0,007	-0,071
-490,751	-200,000	-0,002	-0,082
-489,737	-95,951	0,088	-0,017
-488,722	-34,269	0,150	-0,060
-487,708	51,303	0,050	0,035
-486,693	-200,000	0,018	-0,101
-485,678	800,000	-0,015	-0,046
-484,664	-200,000	0,010	-0,092
-483,649	-200,000	-0,005	0,052
-482,635	225,928	-0,049	-0,058
-481,620	-135,419	0,128	-0,011
-480,605	800,000	0,036	0,088
-479,591	-34,309	0,193	0,077
-478,576	4,834	0,045	-0,024
-477,562	-93,132	-0,072	-0,015
-476,547	-200,000	-0,018	-0,105
-475,532	-200,000	-0,011	0,058
-474,518	-124,290	-0,030	0,003
-473,503	9,505	0,120	-0,066
-472,489	-200,000	0,014	-0,087
-471,474	-200,000	-0,010	-0,042
-470,459	-181,916	-0,211	-0,003
-469,445	94,351	-0,069	-0,057
-468,430	-200,000	0,018	0,065
-467,416	-112,123	-0,106	0,015
-466,401	-88,480	0,109	-0,023
-465,386	50,562	-0,112	0,078
-464,372	-61,607	-0,149	-0,046
-463,357	183,101	-0,060	-0,065
-462,343	-200,000	0,029	-0,117
-461,328	570,351	-0,036	-0,065
-460,313	81,505	-0,112	0,089
-459,299	-46,969	0,041	-0,015
-458,284	-200,000	0,012	0,057
-457,270	102,546	0,030	0,026
-456,255	-54,118	-0,159	0,053
-455,241	70,674	0,020	-0,015
-454,226	79,523	-0,064	0,050
-453,211	-139,265	0,077	-0,006
-452,197	740,541	0,028	0,055
-451,182	-200,000	0,023	0,200
-450,168	384,600	0,054	0,082
-449,153	22,326	-0,082	-0,049
-448,138	-200,000	0,022	-0,147
-447,124	-200,000	0,018	-0,073
-446,109	276,874	0,101	-0,132
-445,095	210,883	0,062	0,071
-444,080	441,439	0,016	0,025
-443,065	177,608	-0,006	-0,007
-442,051	47,592	-0,128	0,087
-441,036	133,496	0,062	0,059
-440,022	-148,849	0,068	0,004
-439,007	209,384	-0,096	0,110
-437,992	257,567	-0,072	0,091
-436,978	30,574	0,101	-0,063
-435,963	386,350	-0,049	0,073
-434,949	128,245	-0,170	0,158
-433,934	193,721	-0,068	-0,076
-432,919	-137,856	0,011	0,001
-431,905	33,190	0,074	0,047
-430,890	-16,568	-0,048	0,022
-429,876	204,729	0,063	0,071
-428,861	-88,945	0,042	0,009
-427,846	222,907	-0,113	-0,133
-426,832	-200,000	-0,025	0,125
-425,817	-121,579	-0,028	-0,003
-424,803	97,897	-0,087	0,073
-423,788	-200,000	0,018	-0,108
-422,773	-68,889	0,120	0,034
-421,759	220,902	0,043	-0,051
-420,744	-140,160	0,072	0,005
-419,730	233,155	-0,063	-0,076
-418,715	39,560	-0,070	0,045
-417,701	800,000	0,018	-0,054
-416,686	-76,459	0,019	0,005
-415,671	654,875	-0,027	0,050
-414,657	-115,677	-0,060	-0,008
-413,642	-200,000	0,004	0,065
-412,628	-1,126	-0,050	0,026
-411,613	98,841	0,037	-0,031
-410,598	10,542	-0,161	-0,089
-409,584	-37,631	-0,113	0,044
-408,569	800,000	0,086	0,210
-407,555	172,358	0,029	-0,031
-406,540	-67,511	0,103	-0,029
-405,525	-43,884	-0,126	-0,046
-404,511	-8,932	-0,086	-0,042
-403,496	-150,554	0,123	-0,007
-402,482	-127,128	0,145	0,015
-401,467	-0,611	-0,090	0,046
-400,452	-122,151	-0,063	0,007
-399,438	800,000	0,028	-0,091
-398,423	-124,175	0,094	0,011
-397,409	-135,003	-0,084	-0,007
-396,394	-75,662	0,109	0,028
-395,379	-200,000	0,004	-0,045
-394,365	-200,000	-0,001	0,011
-393,350	286,155	0,070	-0,092
-392,336	800,000	-0,050	0,122
-391,321	-37,408	0,028	-0,011
-390,306	-200,000	-0,006	0,057
-389,292	800,000	0,011	0,034
-388,277	-200,000	0,017	-0,107
-387,263	800,000	0,031	-0,097
-386,248	45,164	0,105	0,070
-385,233	177,090	-0,127	0,135
-384,219	-120,999	-0,081	-0,010
-383,204	-200,000	-0,006	-0,087
-382,190	85,196	0,020	-0,016
-381,175	800,000	-0,078	0,159
-380,160	-200,000	0,005	0,120
-379,146	-200,000	0,007	0,175
-378,131	94,824	-0,067	0,056
-377,117	-65,761	0,075	-0,022
-376,102	35,072	0,107	-0,068
-375,088	-54,037	-0,061	-0,020
-374,073	-129,576	-0,061	-0,006
-373,058	0,679	0,128	0,066
-372,044	448,275	0,098	-0,159
-371,029	-200,000	0,001	0,110
-370,015	-200,000	0,014	0,062
-369,000	-200,000	-0,001	0,009
-367,985	-3,656	-0,148	-0,075
-366,971	70,129	0,143	0,107
-365,956	24,880	0,084	0,050
-364,942	-200,000	-0,001	0,025
-363,927	-140,197	0,067	-0,005
-362,912	800,000	-0,044	0,089
-361,898	-200,000	0,003	-0,014
-360,883	118,944	-0,103	0,093
-359,869	128,507	0,040	0,037
-358,854	-97,780	0,121	0,023
-357,839	129,736	0,039	-0,036
-356,825	21,652	0,071	-0,042
-355,810	91,612	-0,016	0,013
-354,796	-174,874	-0,192	0,004
-353,781	-48,958	-0,116	-0,040
-352,766	122,820	-0,102	-0,093
-351,752	-107,753	0,160	-0,025
-350,737	137,439	0,026	0,025
-349,723	-200,000	-0,014	0,061
-348,708	-200,000	0,007	-0,028
-347,693	-200,000	-0,038	-0,172
-346,679	800,000	0,006	0,018
-345,664	-25,282	-0,154	0,066
-344,650	41,042	0,021	0,014
-343,635	180,635	0,045	0,049
-342,620	685,036	0,022	0,041
-341,606	-7,855	-0,021	-0,010
-340,591	181,814	0,044	-0,047
-339,577	63,890	-0,078	0,057
-338,562	528,031	-0,032	-0,055
-337,548	-181,714	0,064	0,001
-336,533	-16,955	0,209	0,095
-335,518	-200,000	0,029	0,096
-334,504	-200,000	0,032	0,121
-333,489	410,586	-0,061	-0,094
-332,475	-200,000	0,013	-0,109
-331,460	109,603	0,206	-0,179
-330,445	66,395	-0,036	0,027
-329,431	-200,000	0,009	0,117
-328,416	76,562	0,078	0,060
-327,402	-133,500	0,047	-0,004
-326,387	800,000	-0,024	0,057
-325,372	-200,000	0,003	0,027
-324,358	-158,917	-0,124	0,005
-323,343	800,000	0,053	0,110
-322,329	44,011	0,055	0,037
-321,314	163,138	-0,015	0,015
-320,299	65,355	-0,024	-0,018
-319,285	-136,016	-0,036	0,003
-318,270	765,477	0,037	-0,074
-317,256	60,185	-0,116	-0,083
-316,241	390,559	-0,118	0,178
-315,226	208,140	0,101	-0,115
-314,212	-52,867	0,089	0,030
-313,197	-40,038	0,090	-0,034
-312,183	-50,704	-0,135	-0,046
-311,168	-145,639	-0,068	0,004
-310,153	-123,703	-0,145	-0,016
-309,139	800,000	-0,015	-0,039
-308,124	-41,730	0,161	0,060
-307,110	238,221	0,024	0,029
-306,095	153,305	0,052	0,052
-305,080	797,917	0,010	0,020
-304,066	-148,457	-0,099	-0,006
-303,051	100,402	-0,004	0,003
-302,037	-200,000	-0,007	-0,065
-301,022	-200,000	-0,011	-0,148
-300,008	739,859	0,046	0,090
-298,993	800,000	0,029	0,087
-297,978	348,791	-0,081	-0,117
-296,964	339,604	0,044	0,062
-295,949	16,249	-0,126	-0,072
-294,935	357,192	0,020	0,029
-293,920	-200,000	-0,001	0,017
-292,905	32,592	-0,053	0,033
-291,891	458,871	0,051	0,082
-290,876	-200,000	0,001	-0,018
-289,862	-157,920	0,153	-0,006
-288,847	-200,000	-0,024	-0,111
-287,832	335,199	-0,090	-0,126
-286,818	-200,000	0,018	0,068
-285,803	292,402	-0,026	-0,035
-284,789	-111,434	0,069	0,010
-283,774	-200,000	-0,006	0,107
-282,759	145,232	0,054	-0,052
-281,745	800,000	-0,013	-0,027
-280,730	-200,000	-0,001	-0,069
-279,716	-79,264	0,109	-0,027
-278,701	-200,000	-0,041	0,140
-277,686	47,694	-0,067	0,046
-276,672	-200,000	0,015	0,049
-275,657	137,785	0,040	0,038
-274,643	62,761	-0,073	-0,053
-273,628	242,268	-0,021	0,025
-272,613	-155,690	0,040	-0,002
-271,599	124,379	0,029	-0,026
-270,584	415,694	0,006	-0,010
-269,570	-134,710	0,076	-0,007
-268,555	-78,046	-0,081	-0,020
-267,540	-70,949	-0,118	-0,032
-266,526	800,000	-0,046	-0,134
-265,511	-156,126	0,068	-0,003
-264,497	19,838	0,050	-0,029
-263,482	-161,701	0,141	-0,005
-262,467	-200,000	-0,028	-0,121
-261,453	30,583	0,066	0,041
-260,438	-65,297	-0,136	0,039
-259,424	-150,209	0,015	-0,001
-258,409	800,000	0,029	-0,075
-257,395	90,463	0,071	0,058
-256,380	35,251	0,011	-0,007
-255,365	-200,000	-0,011	0,120
-254,351	387,729	0,014	-0,021
-253,336	234,214	-0,028	-0,034
-252,322	69,847	0,050	-0,037
-251,307	701,280	-0,075	-0,144
-250,292	31,639	0,068	0,042
-249,278	-156,296	0,190	-0,008
-248,263	233,020	0,055	0,066
-247,249	-9,295	-0,179	0,086
-246,234	259,928	-0,050	0,063
-245,219	-3,095	0,028	-0,014
-244,205	-1,601	0,061	0,031
-243,190	450,154	-0,041	0,065
-242,176	-109,836	0,108	0,016
-241,161	-138,901	-0,062	0,005
-240,146	-21,613	-0,077	0,034
-239,132	-119,744	-0,073	-0,009
-238,117	144,863	-0,084	-0,081
-237,103	60,386	-0,099	-0,071
-236,088	750,921	-0,070	-0,138
-235,073	-76,240	0,024	-0,006
-234,059	585,491	-0,022	0,039
-233,044	32,308	0,087	-0,054
-232,030	214,443	-0,047	0,054
-231,015	-200,000	-0,003	-0,010
-230,000	-200,000	0,001	-0,092
-228,986	499,965	-0,072	-0,120
-227,971	541,767	0,065	0,113
-226,957	-200,000	0,053	0,180
-225,942	-25,789	0,142	0,060
-224,927	-200,000	0,039	0,159
-223,913	-22,153	-0,030	-0,013
-222,898	211,255	0,073	-0,083
-221,884	691,294	0,002	-0,004
-220,869	561,763	0,021	-0,036
-219,855	4,189	-0,139	0,073
-218,840	326,937	-0,018	-0,026
-217,825	64,529	0,050	-0,036
-216,811	54,123	-0,074	-0,051
-215,796	231,511	0,086	-0,103
-214,782	85,849	0,134	0,107
-213,767	-26,457	0,034	0,014
-212,752	800,000	-0,028	-0,057
-211,738	389,139	0,032	0,047
-210,723	117,983	0,036	0,032
-209,709	52,675	-0,029	0,020
-208,694	-200,000	0,015	-0,066
-207,679	-100,976	-0,145	-0,026
-206,665	800,000	-0,042	0,108
-205,650	-200,000	-0,006	0,087
-204,636	-33,716	-0,041	-0,016
-203,621	-133,024	0,117	0,011
-202,606	338,563	0,071	-0,100
-201,592	-109,783	-0,142	-0,021
-200,577	800,000	-0,046	-0,093
-199,563	242,120	0,043	0,052
-198,548	478,858	0,012	-0,020
-197,533	171,334	0,128	0,133
-196,519	68,963	0,010	-0,008
-195,504	-146,161	-0,048	-0,003
-194,490	800,000	-0,015	-0,042
-193,475	552,658	-0,041	-0,072
-192,460	800,000	-0,029	-0,090
-191,446	-79,432	0,122	-0,030
-190,431	-20,402	0,112	0,050
-189,417	189,435	-0,101	-0,110
-188,402	-0,918	0,106	0,054
-187,387	228,195	-0,061	-0,072
-186,373	-41,669	-0,065	-0,024
-185,358	124,745	-0,087	-0,079
-184,344	-54,144	0,013	-0,004
-183,329	193,453	0,026	0,029
-182,315	636,544	0,018	-0,032
-181,300	-112,481	0,061	-0,009
-180,285	-50,373	-0,132	-0,045
-179,271	-200,000	-0,021	0,112
-178,256	184,625	0,056	0,060
-177,242	-107,501	0,103	0,016
-176,227	-58,435	-0,014	-0,004
-175,212	-2,486	0,035	-0,017
-174,198	800,000	-0,039	0,089
-173,183	-200,000	-0,029	-0,111
-172,169	-200,000	-0,035	-0,120
-171,154	-200,000	0,003	-0,060
-170,139	-165,604	0,012	-0,000
-169,125	152,152	0,102	0,101
-168,110	-200,000	-0,004	0,018
-167,096	-33,850	-0,018	-0,007
-166,081	172,150	0,102	0,106
-165,066	-118,384	-0,252	-0,032
-164,052	-155,854	-0,025	0,001
-163,037	800,000	0,050	0,114
-162,023	800,000	0,054	0,137
-161,008	178,441	0,035	0,037
-159,993	800,000	0,052	0,131
-158,979	740,980	-0,032	-0,063
-157,964	135,089	-0,031	0,029
-156,950	-200,000	-0,000	0,141
-155,935	-200,000	-0,006	0,152
-154,920	56,353	-0,057	0,040
-153,906	141,976	0,099	0,094
-152,891	-84,956	-0,090	0,020
-151,877	44,055	0,082	-0,054
-150,862	-114,706	-0,063	0,009
-149,847	-148,915	0,172	-0,010
-148,833	230,214	0,052	0,062
-147,818	-56,769	0,087	0,027
-146,804	56,320	0,016	-0,011
-145,789	-11,537	0,022	-0,010
-144,775	-8,482	-0,072	-0,035
-143,760	68,522	-0,122	-0,090
-142,745	-151,001	0,077	0,004
-141,731	212,446	-0,051	0,058
-140,716	179,423	0,094	0,099
-139,702	-97,874	0,057	-0,011
-138,687	66,431	-0,076	-0,056
-137,672	-43,163	-0,135	0,049
-136,658	459,747	-0,123	-0,198
-135,643	277,138	-0,068	-0,088
-134,629	143,322	-0,042	-0,040
-133,614	120,347	0,065	-0,058
-132,599	-43,465	-0,073	0,026
-131,585	-200,000	0,026	0,137
-130,570	-200,000	-0,008	-0,093
-129,556	55,189	-0,119	0,083
-128,541	229,584	0,048	0,057
-127,526	-200,000	-0,035	-0,143
-126,512	597,343	-0,123	-0,220
-125,497	99,095	0,104	-0,087
-124,483	147,049	-0,056	-0,054
-123,468	-200,000	-0,025	-0,154
-122,453	247,276	-0,034	-0,041
-121,439	102,813	-0,076	0,064
-120,424	-200,000	-0,041	0,131
