DTS Sentinel unit serial number:	SN410029Multiplexer serial number:	ORYXHardware model number:	OX2-SRSoftware version number:	ORYX F/W v4,00 Oryx Data Collector v3.7.2.0data status	okinstallation	B6 Nyhavnadifferential loss correction	single-endedforward channel	channel 2reverse channel	N/Adate	2023/12/09time	20:50:08forward acquisition time	300,00reverse acquisition time	0,00gamma	499,1914k internal	0,3129k external	0,3129temperature offset calibration	1,0000default loss term (dB/km)	0,3820temperature slope calibration	1,0000multiplexer offset coefficient	1,0000multiplexer slope coefficient	1,0000fibre end	0,00T internal ref (°C)	21,41T ext. ref 1 (°C)	5,37T ext. ref 2 (°C)	5,36length (m)	temperature (°C)	Stokes	anti-Stokes-744,400	-200,000	0,006	-0,097
-743,385	-83,186	-0,221	0,052
-742,371	-200,000	0,003	0,042
-741,356	-164,716	-0,240	0,008
-740,342	-200,000	0,020	-0,197
-739,327	-102,015	-0,320	0,057
-738,312	800,000	-0,028	0,072
-737,298	-109,816	-0,239	0,037
-736,283	-102,353	0,165	-0,029
-735,269	-19,006	-0,114	0,052
-734,254	-98,246	-0,015	-0,003
-733,239	-184,690	-0,417	-0,005
-732,225	-173,527	0,063	-0,001
-731,210	29,186	-0,034	-0,021
-730,196	-200,000	0,031	-0,118
-729,181	800,000	-0,020	0,049
-728,167	-200,000	0,020	-0,068
-727,152	24,488	-0,099	0,061
-726,137	72,468	-0,228	-0,177
-725,123	-2,159	-0,087	-0,045
-724,108	-200,000	-0,021	-0,076
-723,094	444,943	-0,085	-0,139
-722,079	-50,674	-0,114	-0,040
-721,064	-200,000	0,004	0,026
-720,050	-200,000	-0,001	-0,004
-719,035	-96,614	0,109	0,021
-718,021	800,000	-0,039	-0,106
-717,006	-200,000	-0,025	-0,112
-715,991	-200,000	-0,009	-0,155
-714,977	8,106	-0,100	-0,055
-713,962	-200,000	0,011	-0,080
-712,948	207,965	-0,042	-0,049
-711,933	25,146	0,084	0,052
-710,918	655,118	-0,062	-0,119
-709,904	111,273	0,074	-0,066
-708,889	800,000	0,046	-0,128
-707,875	800,000	-0,065	-0,149
-706,860	-39,665	-0,053	-0,021
-705,845	-200,000	0,000	0,030
-704,831	-200,000	0,054	0,180
-703,816	77,904	0,067	-0,053
-702,802	-178,503	-0,142	0,002
-701,787	375,351	0,067	-0,102
-700,772	196,071	-0,053	-0,060
-699,758	-119,832	0,087	-0,011
-698,743	-132,543	-0,074	-0,007
-697,729	225,588	-0,065	0,078
-696,714	-106,558	0,146	-0,024
-695,699	-4,813	-0,023	-0,012
-694,685	-200,000	0,002	-0,068
-693,670	-154,545	-0,146	-0,007
-692,656	-101,251	-0,059	0,011
-691,641	-43,775	0,058	0,021
-690,627	155,163	0,063	0,065
-689,612	67,376	-0,135	0,102
-688,597	800,000	0,050	-0,144
-687,583	800,000	0,022	0,057
-686,568	-88,327	-0,148	0,033
-685,554	-129,687	-0,107	0,011
-684,539	260,885	-0,024	0,031
-683,524	235,307	0,021	-0,026
-682,510	-200,000	0,008	0,054
-681,495	-136,280	0,087	-0,007
-680,481	58,228	-0,137	-0,099
-679,466	-200,000	0,020	-0,066
-678,451	-71,275	-0,079	-0,022
-677,437	-200,000	-0,011	-0,054
-676,422	-74,773	0,111	0,029
-675,408	62,410	-0,071	0,052
-674,393	49,511	0,128	-0,089
-673,378	31,681	-0,047	0,030
-672,364	54,379	0,014	0,010
-671,349	104,861	0,101	-0,088
-670,335	305,613	0,047	-0,065
-669,320	177,994	0,063	-0,069
-668,305	-4,331	-0,032	-0,016
-667,291	314,921	-0,077	0,108
-666,276	78,939	-0,057	0,046
-665,262	-200,000	-0,015	-0,083
-664,247	-100,284	0,119	-0,022
-663,232	-200,000	-0,028	-0,098
-662,218	800,000	0,047	-0,111
-661,203	25,291	-0,066	0,041
-660,189	-112,649	0,154	0,022
-659,174	391,770	0,033	0,051
-658,159	754,684	-0,044	-0,088
-657,145	139,369	0,096	-0,094
-656,130	-54,479	-0,041	-0,014
-655,116	-200,000	-0,044	-0,157
-654,101	-200,000	0,008	0,124
-653,086	682,654	-0,031	-0,060
-652,072	-200,000	-0,005	-0,081
-651,057	-19,331	-0,117	-0,053
-650,043	-1,684	-0,018	-0,009
-649,028	465,150	-0,039	0,065
-648,014	-79,979	-0,049	0,012
-646,999	458,262	-0,032	0,052
-645,984	-200,000	-0,021	-0,084
-644,970	354,556	-0,063	-0,092
-643,955	24,177	-0,217	-0,132
-642,941	800,000	-0,021	-0,051
-641,926	246,755	0,067	0,084
-640,911	-66,944	-0,068	-0,020
-639,897	-14,956	0,102	-0,048
-638,882	-200,000	0,000	0,024
-637,868	-25,495	-0,086	0,037
-636,853	-200,000	-0,006	-0,055
-635,838	-200,000	-0,004	-0,051
-634,824	800,000	-0,019	0,039
-633,809	-80,873	-0,042	0,010
-632,795	338,182	0,032	-0,046
-631,780	-171,947	0,064	-0,001
-630,765	-39,721	-0,032	-0,012
-629,751	-14,777	-0,119	0,056
-628,736	-18,375	-0,095	0,044
-627,722	-116,348	0,092	-0,013
-626,707	-45,076	-0,156	-0,057
-625,692	-109,306	0,051	-0,008
-624,678	519,920	0,067	-0,117
-623,663	8,027	-0,166	-0,092
-622,649	24,881	-0,041	0,025
-621,634	16,448	-0,038	-0,022
-620,619	8,955	-0,080	-0,044
-619,605	-48,342	-0,144	0,051
-618,590	307,990	-0,059	0,081
-617,576	800,000	0,040	0,082
-616,561	-200,000	0,004	0,211
-615,546	-49,709	-0,095	0,033
-614,532	199,402	0,038	0,043
-613,517	800,000	-0,087	-0,182
-612,503	735,121	0,078	0,155
-611,488	-200,000	-0,031	-0,120
-610,474	439,764	0,051	0,082
-609,459	-106,950	-0,113	0,018
-608,444	-41,372	-0,075	-0,028
-607,430	-54,151	0,040	0,013
-606,415	-200,000	-0,013	-0,054
-605,401	-76,318	0,041	0,011
-604,386	59,455	-0,145	0,106
-603,371	-103,045	0,096	0,017
-602,357	-200,000	0,015	0,129
-601,342	-200,000	-0,046	-0,227
-600,328	-147,809	0,062	-0,004
-599,313	-200,000	-0,004	-0,023
-598,298	360,359	-0,049	0,073
-597,284	-57,490	0,139	0,045
-596,269	383,962	0,025	-0,038
-595,255	257,145	-0,004	-0,005
-594,240	108,536	0,029	0,026
-593,225	-200,000	-0,006	-0,155
-592,211	44,024	0,044	-0,030
-591,196	388,522	0,046	-0,070
-590,182	147,327	0,078	0,078
-589,167	-57,926	-0,033	-0,011
-588,152	800,000	-0,078	0,198
-587,138	52,046	-0,050	0,035
-586,123	-200,000	-0,000	-0,025
-585,109	-122,000	0,020	0,002
-584,094	55,817	0,055	-0,039
-583,079	800,000	0,060	0,143
-582,065	603,518	0,071	0,131
-581,050	-200,000	-0,036	0,144
-580,036	800,000	-0,020	-0,055
-579,021	389,930	0,064	0,099
-578,006	-200,000	-0,015	-0,064
-576,992	40,373	-0,081	0,054
-575,977	110,410	-0,059	0,052
-574,963	-92,669	-0,099	0,020
-573,948	-200,000	-0,019	-0,066
-572,934	-94,406	-0,117	-0,023
-571,919	-149,534	-0,167	0,010
-570,904	800,000	-0,021	0,044
-569,890	-110,125	0,035	-0,005
-568,875	-200,000	0,012	0,131
-567,861	800,000	0,025	0,062
-566,846	535,670	-0,026	0,046
-565,831	-200,000	-0,006	0,025
-564,817	-200,000	-0,006	-0,039
-563,802	-52,041	-0,075	0,026
-562,788	-200,000	-0,001	-0,111
-561,773	-111,014	-0,069	0,010
-560,758	-200,000	0,013	0,046
-559,744	800,000	-0,056	0,119
-558,729	130,799	-0,041	0,039
-557,715	274,587	-0,111	-0,145
-556,700	10,397	0,099	0,055
-555,685	5,359	0,061	0,033
-554,671	-200,000	0,022	-0,074
-553,656	528,553	-0,001	0,002
-552,642	122,023	0,136	0,125
-551,627	-119,181	0,061	0,008
-550,612	-164,484	-0,095	-0,003
-549,598	42,531	0,119	-0,080
-548,583	-200,000	0,010	-0,075
-547,569	341,670	0,058	-0,084
-546,554	800,000	-0,014	0,035
-545,539	748,540	0,026	-0,051
-544,525	-200,000	-0,015	0,109
-543,510	-200,000	0,008	0,042
-542,496	800,000	-0,046	-0,116
-541,481	43,940	0,040	-0,027
-540,466	257,200	-0,032	-0,041
-539,452	178,411	-0,027	-0,029
-538,437	251,052	-0,042	-0,053
-537,423	68,699	-0,067	0,050
-536,408	202,562	0,026	0,030
-535,393	4,359	-0,179	-0,097
-534,379	-53,571	-0,094	-0,031
-533,364	-169,820	0,099	-0,003
-532,350	-200,000	0,001	-0,050
-531,335	-81,794	0,010	-0,002
-530,321	-200,000	-0,009	-0,068
-529,306	91,079	-0,050	-0,041
-528,291	20,967	-0,063	0,038
-527,277	-134,533	-0,145	0,013
-526,262	87,228	0,085	0,069
-525,248	-33,359	0,028	-0,011
-524,233	-54,888	0,083	0,027
-523,218	388,646	-0,051	0,077
-522,204	106,527	-0,019	-0,017
-521,189	-93,074	-0,033	-0,007
-520,175	-110,344	-0,138	0,021
-519,160	-200,000	-0,019	0,066
-518,145	-200,000	-0,021	0,115
-517,131	-165,007	0,111	0,004
-516,116	197,451	0,076	-0,086
-515,102	420,849	-0,055	-0,088
-514,087	-200,000	0,002	-0,159
-513,072	800,000	0,030	0,095
-512,058	150,872	-0,139	0,140
-511,043	725,253	0,036	0,072
-510,029	299,856	0,086	0,117
-509,014	96,930	-0,133	0,112
-507,999	-120,852	-0,085	0,010
-506,985	6,726	0,033	-0,018
-505,970	722,151	-0,098	-0,193
-504,956	-17,314	-0,027	0,012
-503,941	140,517	-0,058	-0,056
-502,926	-137,001	-0,092	0,008
-501,912	-121,559	0,056	0,007
-500,897	64,178	0,053	0,039
-499,883	117,122	0,045	0,040
-498,868	-200,000	-0,001	0,095
-497,853	800,000	0,034	-0,093
-496,839	-73,447	0,148	-0,039
-495,824	-200,000	0,010	-0,067
-494,810	-28,194	0,115	-0,049
-493,795	10,376	-0,150	0,084
-492,781	800,000	0,021	-0,062
-491,766	-90,853	-0,092	0,019
-490,751	10,585	0,110	-0,062
-489,737	592,724	-0,055	-0,101
-488,722	-200,000	-0,009	0,053
-487,708	592,050	-0,027	0,049
-486,693	-85,063	-0,120	0,028
-485,678	-200,000	0,023	0,140
-484,664	-200,000	-0,026	0,119
-483,649	-60,634	-0,103	-0,032
-482,635	800,000	0,066	-0,191
-481,620	-2,355	-0,188	0,097
-480,605	-95,609	-0,063	-0,012
-479,591	-80,646	0,141	0,034
-478,576	800,000	0,051	0,104
-477,562	-84,782	0,021	-0,005
-476,547	-200,000	-0,043	-0,155
-475,532	166,489	-0,034	0,036
-474,518	-200,000	-0,009	0,125
-473,503	-200,000	-0,022	0,199
-472,489	-35,931	0,083	-0,033
-471,474	-200,000	0,016	0,092
-470,459	89,801	-0,076	0,062
-469,445	-200,000	-0,045	0,185
-468,430	-140,739	0,074	0,006
-467,416	78,994	0,116	-0,091
-466,401	800,000	-0,029	0,071
-465,386	125,488	-0,066	-0,061
-464,372	215,771	-0,073	0,085
-463,357	800,000	0,023	-0,069
-462,343	-76,047	-0,039	0,010
-461,328	800,000	0,026	-0,074
-460,313	-51,771	-0,037	0,012
-459,299	177,091	0,064	-0,069
-458,284	-140,938	-0,062	-0,005
-457,270	-37,722	0,091	0,035
-456,255	800,000	0,024	0,074
-455,241	-50,378	-0,098	0,034
-454,226	-153,843	0,082	-0,004
-453,211	800,000	0,041	0,108
-452,197	-69,259	-0,033	0,009
-451,182	-200,000	0,022	-0,082
-450,168	-48,759	0,032	0,011
-449,153	-85,580	0,087	0,020
-448,138	-111,603	-0,076	-0,011
-447,124	-92,041	-0,005	-0,001
-446,109	282,905	-0,064	0,085
-445,095	586,673	0,063	0,114
-444,080	-123,253	0,092	-0,011
-443,065	-184,760	0,074	-0,001
-442,051	-200,000	-0,005	-0,108
-441,036	794,499	0,050	-0,101
-440,022	800,000	0,046	-0,113
-439,007	140,154	0,084	-0,082
-437,992	-119,527	0,086	0,011
-436,978	-200,000	-0,041	0,177
-435,963	-200,000	0,007	0,128
-434,949	-200,000	0,013	0,073
-433,934	800,000	0,024	0,052
-432,919	-200,000	-0,024	-0,112
-431,905	-200,000	-0,028	-0,103
-430,890	800,000	0,024	0,053
-429,876	-99,455	-0,049	0,009
-428,861	-133,893	-0,059	-0,005
-427,846	800,000	0,050	0,104
-426,832	-130,525	-0,108	-0,011
-425,817	-200,000	-0,032	-0,132
-424,803	36,326	-0,023	0,015
-423,788	800,000	-0,031	-0,081
-422,773	-85,606	0,179	-0,041
-421,759	-200,000	0,007	0,071
-420,744	-81,869	0,075	0,018
-419,730	-12,061	0,027	0,013
-418,715	-200,000	-0,002	-0,081
-417,701	-200,000	0,020	-0,169
-416,686	29,970	0,069	-0,043
-415,671	101,336	0,101	-0,086
-414,657	289,713	-0,062	-0,083
-413,642	-200,000	-0,022	0,078
-412,628	-34,549	-0,193	0,077
-411,613	-200,000	0,012	-0,158
-410,598	412,233	0,021	0,032
-409,584	-128,679	-0,069	-0,007
-408,569	-101,738	-0,059	0,010
-407,555	154,857	0,100	0,101
-406,540	112,900	-0,031	-0,028
-405,525	800,000	-0,055	-0,113
-404,511	92,241	-0,009	0,007
-403,496	533,641	-0,044	0,077
-402,482	-25,567	-0,111	-0,048
-401,467	-200,000	-0,002	-0,094
-400,452	277,401	0,052	-0,068
-399,438	13,662	0,135	0,077
-398,423	-96,395	0,064	0,012
-397,409	100,745	0,111	0,095
-396,394	342,548	-0,083	-0,120
-395,379	-88,638	-0,083	-0,018
-394,365	31,440	-0,050	0,031
-393,350	-200,000	0,007	0,132
-392,336	-200,000	-0,016	0,130
-391,321	-143,132	0,068	-0,005
-390,306	153,915	0,091	-0,092
-389,292	9,073	-0,020	-0,011
-388,277	469,940	0,036	-0,060
-387,263	800,000	0,041	-0,100
-386,248	-200,000	-0,004	0,108
-385,233	207,988	0,059	0,068
-384,219	-165,643	-0,024	-0,001
-383,204	67,220	-0,067	0,050
-382,190	-200,000	0,013	0,112
-381,175	-26,367	-0,032	-0,014
-380,160	10,236	0,049	-0,028
-379,146	-88,759	0,088	0,019
-378,131	264,342	0,018	-0,024
-377,117	141,335	-0,065	-0,063
-376,102	571,118	0,013	0,022
-375,088	-17,811	0,128	-0,059
-374,073	-141,979	0,081	-0,006
-373,058	-44,881	0,014	-0,005
-372,044	72,238	-0,026	0,020
-371,029	165,398	0,073	0,076
-370,015	154,470	0,111	-0,112
-369,000	-131,832	0,096	-0,009
-367,985	186,582	-0,060	-0,066
-366,971	83,681	0,018	-0,014
-365,956	-200,000	-0,011	0,078
-364,942	-200,000	-0,007	0,026
-363,927	-83,921	-0,103	0,024
-362,912	226,547	-0,093	-0,110
-361,898	107,296	-0,092	0,080
-360,883	67,706	0,041	-0,031
-359,869	-25,152	-0,050	-0,021
-358,854	280,626	0,035	0,046
-357,839	20,543	0,075	-0,044
-356,825	-106,525	-0,054	0,009
-355,810	105,679	-0,029	-0,025
-354,796	-52,049	-0,032	0,011
-353,781	86,764	-0,020	-0,016
-352,766	-91,445	0,119	-0,025
-351,752	-119,988	0,101	0,013
-350,737	-110,186	-0,118	-0,018
-349,723	77,818	0,155	0,121
-348,708	800,000	-0,021	-0,055
-347,693	15,284	0,050	0,028
-346,679	-200,000	0,022	-0,097
-345,664	800,000	0,030	-0,063
-344,650	-200,000	0,005	0,051
-343,635	224,002	-0,035	-0,041
-342,620	102,047	-0,082	0,070
-341,606	-150,462	0,072	-0,004
-340,591	-200,000	-0,010	-0,110
-339,577	382,242	0,122	-0,185
-338,562	63,564	-0,102	-0,075
-337,548	140,374	0,079	-0,077
-336,533	261,314	0,049	-0,062
-335,518	800,000	0,008	0,016
-334,504	-200,000	0,025	-0,105
-333,489	800,000	-0,024	0,050
-332,475	-165,827	0,041	-0,001
-331,460	-200,000	-0,005	-0,058
-330,445	-200,000	0,011	-0,071
-329,431	-136,368	-0,046	-0,004
-328,416	-42,686	0,117	-0,043
-327,402	310,252	0,081	0,111
-326,387	286,528	0,041	0,055
-325,372	82,276	-0,107	0,085
-324,358	679,093	-0,066	-0,125
-323,343	-200,000	-0,003	0,045
-322,329	800,000	0,045	-0,105
-321,314	-56,738	-0,111	-0,036
-320,299	40,545	-0,038	-0,025
-319,285	-200,000	0,038	-0,134
-318,270	800,000	-0,041	-0,099
-317,256	-149,726	-0,035	0,002
-316,241	420,267	-0,012	0,019
-315,226	800,000	-0,012	0,034
-314,212	800,000	0,030	-0,085
-313,197	-2,990	-0,076	-0,039
-312,183	-75,087	0,017	-0,004
-311,168	474,704	-0,034	-0,057
-310,153	800,000	-0,028	-0,086
-309,139	702,742	0,051	0,099
-308,124	-69,021	-0,005	-0,001
-307,110	-200,000	-0,022	-0,131
-306,095	58,988	-0,025	0,018
-305,080	-59,234	0,229	-0,072
-304,066	124,698	0,130	-0,120
-303,051	587,897	0,005	-0,008
-302,037	62,657	-0,103	-0,076
-301,022	800,000	-0,030	0,089
-300,008	59,031	0,089	0,064
-298,993	-46,745	0,146	0,052
-297,978	800,000	0,038	-0,104
-296,964	175,886	-0,045	-0,048
-295,949	-40,509	0,083	-0,031
-294,935	280,739	0,095	0,124
-293,920	-200,000	0,004	-0,019
-292,905	800,000	0,027	-0,056
-291,891	-200,000	-0,007	0,128
-290,876	124,281	0,076	-0,070
-289,862	-200,000	-0,001	-0,073
-288,847	-151,666	0,104	-0,005
-287,832	-200,000	0,013	-0,157
-286,818	-163,227	-0,035	0,001
-285,803	-61,965	-0,027	0,008
-284,789	800,000	0,095	0,200
-283,774	126,705	0,042	0,039
-282,759	-49,306	-0,059	0,021
-281,745	580,936	-0,054	-0,097
-280,730	-175,700	0,134	-0,003
-279,716	-200,000	-0,007	0,031
-278,701	237,258	0,036	0,044
-277,686	-51,420	0,166	0,056
-276,672	11,536	-0,032	-0,018
-275,657	-200,000	0,025	0,111
-274,643	-76,572	-0,092	0,023
-273,628	-11,370	-0,090	0,043
-272,613	-105,473	-0,048	0,008
-271,599	-132,488	0,057	0,005
-270,584	27,038	0,102	0,063
-269,570	-200,000	0,029	-0,158
-268,555	79,776	-0,042	-0,033
-267,540	-138,030	-0,137	-0,011
-266,526	-105,781	-0,116	0,019
-265,511	-75,592	0,071	-0,018
-264,497	259,412	0,048	0,061
-263,482	800,000	-0,053	-0,125
-262,467	33,650	0,105	-0,067
-261,453	-72,471	-0,066	0,018
-260,438	160,451	-0,016	-0,017
-259,424	237,325	-0,142	0,172
-258,409	-67,905	0,079	-0,022
-257,395	-62,081	0,102	0,031
-256,380	-62,898	0,117	-0,035
-255,365	-188,033	0,186	-0,002
-254,351	329,946	0,082	0,115
-253,336	341,559	-0,035	0,050
-252,322	327,296	-0,024	-0,034
-251,307	68,475	-0,182	-0,136
-250,292	516,435	-0,038	-0,064
-249,278	12,835	0,071	-0,040
-248,263	800,000	-0,048	0,111
-247,249	-127,644	0,059	0,006
-246,234	292,400	-0,118	-0,157
-245,219	-9,357	-0,036	0,018
-244,205	-200,000	-0,002	-0,049
-243,190	-50,309	0,155	-0,053
-242,176	-51,577	-0,051	0,017
-241,161	-97,903	0,050	-0,009
-240,146	447,597	-0,054	0,087
-239,132	480,883	-0,046	-0,076
-238,117	-59,887	0,088	0,027
-237,103	800,000	0,010	-0,031
-236,088	-200,000	0,029	-0,163
-235,073	-8,142	0,132	-0,065
-234,059	63,595	0,167	-0,122
-233,044	800,000	-0,023	0,049
-232,030	-197,310	-0,027	0,000
-231,015	-60,726	-0,070	-0,021
-230,000	-127,109	-0,084	-0,009
-228,986	-3,840	0,091	0,046
-227,971	-93,396	0,092	0,018
-226,957	273,774	-0,073	0,095
-225,942	232,060	-0,066	0,080
-224,927	464,954	-0,090	0,148
-223,913	-4,941	0,066	-0,033
-222,898	-200,000	-0,008	-0,034
-221,884	-200,000	-0,021	-0,107
-220,869	318,352	-0,033	0,045
-219,855	-150,452	0,145	-0,008
-218,840	-48,233	-0,046	-0,016
-217,825	304,717	-0,028	0,039
-216,811	-22,659	0,012	-0,005
-215,796	-200,000	-0,008	-0,147
-214,782	-141,780	-0,100	-0,007
-213,767	608,624	0,037	0,068
-212,752	46,044	-0,078	-0,052
-211,738	146,900	0,094	0,092
-210,723	800,000	0,069	0,154
-209,709	206,780	-0,020	-0,022
-208,694	-166,224	-0,069	0,002
-207,679	155,027	0,072	-0,072
-206,665	-200,000	-0,019	0,117
-205,650	145,123	-0,074	0,072
-204,636	169,139	0,115	0,120
-203,621	800,000	0,028	-0,090
-202,606	-41,306	0,069	-0,026
-201,592	800,000	0,044	0,095
-200,577	-200,000	0,014	0,072
-199,563	410,195	0,080	-0,123
-198,548	60,235	0,035	-0,025
-197,533	-200,000	0,008	-0,078
-196,519	-72,354	0,077	-0,020
-195,504	292,889	0,036	0,047
-194,490	202,538	0,099	-0,112
-193,475	-56,444	-0,076	0,025
-192,460	424,810	0,010	-0,016
-191,446	-46,607	0,127	-0,045
-190,431	98,413	-0,050	0,042
-189,417	-21,200	0,143	-0,063
-188,402	800,000	-0,014	0,031
-187,387	-200,000	0,009	0,077
-186,373	-80,567	-0,137	0,033
-185,358	-158,333	-0,128	0,005
-184,344	26,940	0,053	-0,032
-183,329	126,342	-0,123	0,114
-182,315	-200,000	0,010	0,082
-181,300	-200,000	0,010	-0,086
-180,285	-200,000	-0,002	-0,054
-179,271	800,000	-0,039	-0,089
-178,256	499,192	-0,053	-0,090
-177,242	234,216	-0,090	0,108
-176,227	27,719	-0,114	0,070
-175,212	-113,437	0,117	0,017
-174,198	-165,502	0,081	0,003
-173,183	83,323	0,005	0,004
-172,169	162,013	-0,112	0,115
-171,154	-100,684	0,140	0,025
-170,139	3,968	0,037	0,019
-169,125	800,000	-0,064	0,181
-168,110	429,555	-0,021	0,034
-167,096	61,503	-0,053	0,038
-166,081	-200,000	0,016	-0,059
-165,066	-200,000	-0,007	-0,117
-164,052	-200,000	-0,025	-0,082
-163,037	-134,847	-0,083	0,007
-162,023	-115,035	0,115	0,016
-161,008	-200,000	0,022	0,129
-159,993	-11,606	0,121	-0,058
-158,979	800,000	-0,058	0,154
-157,964	-124,939	-0,110	-0,012
-156,950	226,589	-0,072	-0,085
-155,935	800,000	0,081	0,169
-154,920	-103,280	-0,097	0,016
-153,906	-63,263	-0,031	-0,009
-152,891	605,752	0,038	-0,069
-151,877	263,134	-0,058	-0,073
-150,862	684,395	-0,048	-0,092
-149,847	193,667	0,029	0,032
-148,833	-66,476	-0,072	0,021
-147,818	11,763	0,076	0,042
-146,804	-43,671	-0,059	0,022
-145,789	-126,866	0,126	-0,013
-144,775	-200,000	0,007	0,052
-143,760	769,479	-0,042	-0,083
-142,745	62,045	0,038	0,027
-141,731	-200,000	-0,006	0,030
-140,716	-22,160	0,071	0,031
-139,702	-11,790	-0,110	-0,052
-138,687	-115,986	-0,092	0,012
-137,672	227,453	-0,080	-0,094
-136,658	294,338	-0,108	-0,144
-135,643	36,593	0,066	-0,042
-134,629	-99,600	-0,241	-0,044
-133,614	419,707	0,034	-0,053
-132,599	800,000	0,043	0,101
-131,585	-54,046	0,117	0,038
-130,570	-200,000	0,002	-0,084
-129,556	-2,860	0,033	-0,017
-128,541	-95,650	-0,137	-0,026
-127,526	800,000	-0,054	-0,128
-126,512	135,330	-0,064	0,061
-125,497	-132,305	-0,110	0,010
-124,483	-45,296	-0,072	-0,026
-123,468	166,479	-0,061	0,063
-122,453	-200,000	0,001	0,067
-121,439	134,200	0,023	0,022
-120,424	125,316	-0,076	-0,070
