DTS Sentinel unit serial number:	SN410029Multiplexer serial number:	ORYXHardware model number:	OX2-SRSoftware version number:	ORYX F/W v4,00 Oryx Data Collector v3.7.2.0data status	okinstallation	B6 Nyhavnadifferential loss correction	single-endedforward channel	channel 2reverse channel	N/Adate	2023/12/09time	02:05:08forward acquisition time	300,00reverse acquisition time	0,00gamma	499,1914k internal	0,3156k external	0,3156temperature offset calibration	1,0000default loss term (dB/km)	0,3820temperature slope calibration	1,0000multiplexer offset coefficient	1,0000multiplexer slope coefficient	1,0000fibre end	0,00T internal ref (°C)	15,91T ext. ref 1 (°C)	-0,37T ext. ref 2 (°C)	-0,38length (m)	temperature (°C)	Stokes	anti-Stokes-744,400	125,582	0,111	-0,104
-743,385	-175,013	-0,309	-0,006
-742,371	-117,991	0,094	0,012
-741,356	-71,113	-0,361	0,099
-740,342	-200,000	-0,001	0,225
-739,327	-31,863	-0,306	0,126
-738,312	4,704	0,123	0,067
-737,298	-101,914	-0,351	0,062
-736,283	800,000	-0,034	-0,077
-735,269	-3,034	-0,232	-0,119
-734,254	0,280	0,129	0,068
-733,239	-30,951	-0,492	-0,204
-732,225	-75,278	0,162	0,042
-731,210	-200,000	-0,007	0,025
-730,196	800,000	-0,022	0,062
-729,181	333,402	0,088	-0,125
-728,167	800,000	-0,015	-0,045
-727,152	800,000	0,054	-0,117
-726,137	168,574	0,030	0,031
-725,123	175,793	-0,102	-0,109
-724,108	11,614	-0,151	-0,085
-723,094	154,472	0,031	-0,032
-722,079	57,155	0,075	-0,054
-721,064	-200,000	-0,006	-0,098
-720,050	34,590	0,062	-0,040
-719,035	800,000	0,024	-0,063
-718,021	-31,745	-0,147	-0,060
-717,006	800,000	0,037	-0,116
-715,991	106,464	0,063	-0,055
-714,977	750,549	-0,040	-0,079
-713,962	-23,582	0,084	-0,037
-712,948	-143,847	0,078	-0,005
-711,933	2,809	-0,069	0,037
-710,918	98,292	0,082	-0,070
-709,904	-62,042	-0,123	-0,038
-708,889	-115,022	0,055	-0,008
-707,875	204,242	0,027	-0,031
-706,860	250,023	0,073	0,092
-705,845	-200,000	-0,004	0,017
-704,831	138,491	0,071	0,068
-703,816	321,535	0,047	-0,066
-702,802	-12,549	-0,097	-0,047
-701,787	279,662	-0,036	0,047
-700,772	-200,000	0,016	-0,068
-699,758	-174,954	0,029	0,001
-698,743	-34,346	0,024	-0,009
-697,729	-200,000	-0,031	-0,137
-696,714	-67,063	0,092	-0,026
-695,699	-108,877	-0,035	0,005
-694,685	-34,323	0,065	-0,026
-693,670	768,200	0,052	-0,105
-692,656	800,000	0,035	-0,075
-691,641	-74,163	0,037	-0,010
-690,627	165,715	-0,070	0,073
-689,612	-25,468	-0,086	0,037
-688,597	605,624	0,075	-0,138
-687,583	376,498	-0,034	-0,052
-686,568	-200,000	0,017	-0,065
-685,554	-200,000	0,011	-0,131
-684,539	295,872	-0,047	-0,064
-683,524	-200,000	0,001	0,006
-682,510	27,664	-0,062	0,039
-681,495	236,948	-0,115	0,140
-680,481	233,878	-0,045	0,055
-679,466	48,280	0,119	0,082
-678,451	-0,113	-0,024	0,012
-677,437	-99,111	0,033	-0,006
-676,422	-200,000	0,013	-0,102
-675,408	78,667	-0,055	-0,043
-674,393	274,317	-0,021	0,027
-673,378	-200,000	0,027	-0,171
-672,364	309,023	-0,102	-0,140
-671,349	-200,000	0,013	-0,060
-670,335	372,385	0,070	-0,106
-669,320	80,018	0,034	0,027
-668,305	51,713	-0,062	0,043
-667,291	-200,000	-0,008	0,142
-666,276	16,322	-0,118	-0,069
-665,262	-2,903	-0,040	0,021
-664,247	-42,516	-0,080	-0,030
-663,232	113,259	-0,071	-0,064
-662,218	-5,472	0,125	0,063
-661,203	-200,000	-0,005	0,135
-660,189	-200,000	0,022	0,120
-659,174	71,737	-0,087	-0,067
-658,159	-15,071	0,068	0,032
-657,145	-200,000	-0,012	-0,078
-656,130	800,000	0,063	0,166
-655,116	98,964	-0,099	-0,084
-654,101	0,423	0,120	-0,063
-653,086	31,455	0,110	-0,069
-652,072	-163,186	-0,126	0,004
-651,057	-48,841	-0,044	-0,015
-650,043	-3,610	0,054	-0,028
-649,028	91,780	0,092	-0,076
-648,014	199,562	-0,100	-0,113
-646,999	33,278	0,030	-0,019
-645,984	-44,655	-0,067	0,024
-644,970	68,490	-0,112	0,085
-643,955	432,475	-0,041	-0,066
-642,941	58,318	-0,158	-0,114
-641,926	176,974	0,061	0,065
-640,911	136,448	0,136	0,131
-639,897	222,060	-0,035	-0,041
-638,882	318,387	0,044	0,061
-637,868	126,340	0,057	-0,053
-636,853	277,837	-0,105	-0,138
-635,838	800,000	-0,034	-0,094
-634,824	-82,252	-0,103	0,024
-633,809	369,875	-0,053	0,080
-632,795	-200,000	-0,015	-0,101
-631,780	200,141	0,062	-0,070
-630,765	6,001	-0,025	-0,013
-629,751	255,038	-0,076	0,095
-628,736	563,272	-0,035	-0,062
-627,722	329,931	0,010	0,015
-626,707	-59,274	0,090	0,028
-625,692	-200,000	0,008	0,057
-624,678	-13,099	-0,026	0,013
-623,663	186,590	0,053	-0,058
-622,649	-6,289	0,087	-0,044
-621,634	-186,434	0,047	0,000
-620,619	-23,542	-0,024	-0,010
-619,605	-200,000	-0,044	0,181
-618,590	-200,000	-0,019	-0,083
-617,576	-127,551	-0,052	-0,005
-616,561	-102,378	0,081	0,014
-615,546	-63,995	0,014	-0,004
-614,532	-200,000	0,019	-0,109
-613,517	-112,125	-0,058	0,008
-612,503	305,611	0,037	0,051
-611,488	-63,128	0,129	-0,039
-610,474	36,878	0,070	0,045
-609,459	-17,999	-0,154	0,070
-608,444	58,748	-0,048	0,034
-607,430	-200,000	-0,007	-0,068
-606,415	-143,510	-0,021	0,001
-605,401	-200,000	-0,043	0,180
-604,386	37,561	-0,031	0,020
-603,371	627,514	0,011	0,021
-602,357	-35,896	0,050	-0,020
-601,342	67,619	-0,022	-0,016
-600,328	-145,781	-0,096	0,006
-599,313	-71,508	0,066	0,018
-598,298	277,171	0,024	-0,031
-597,284	16,770	-0,069	-0,040
-596,269	-14,181	0,070	0,033
-595,255	-111,137	-0,048	-0,007
-594,240	-160,457	0,088	0,003
-593,225	-76,221	0,036	0,009
-592,211	337,109	-0,025	-0,035
-591,196	-200,000	-0,023	-0,082
-590,182	-78,866	-0,113	-0,028
-589,167	800,000	-0,034	0,071
-588,152	-20,265	-0,131	0,059
-587,138	669,762	-0,053	-0,101
-586,123	800,000	-0,071	-0,179
-585,109	-200,000	0,023	-0,103
-584,094	82,992	0,111	-0,089
-583,079	-200,000	-0,025	0,081
-582,065	-200,000	-0,029	0,113
-581,050	-200,000	0,008	-0,050
-580,036	-61,374	0,049	-0,015
-579,021	800,000	-0,071	-0,145
-578,006	800,000	-0,013	-0,041
-576,992	-62,006	-0,041	-0,013
-575,977	418,086	0,054	-0,085
-574,963	167,009	0,086	-0,090
-573,948	-78,303	-0,041	-0,010
-572,934	259,421	0,092	-0,117
-571,919	-68,902	0,055	-0,016
-570,904	800,000	-0,043	-0,115
-569,890	56,243	-0,080	0,057
-568,875	-200,000	0,007	-0,028
-567,861	800,000	0,056	0,137
-566,846	-200,000	0,019	-0,100
-565,831	-200,000	-0,010	0,078
-564,817	18,775	-0,021	0,012
-563,802	-135,891	-0,050	0,004
-562,788	-16,651	-0,077	-0,035
-561,773	-115,406	0,018	0,002
-560,758	-83,006	-0,056	0,013
-559,744	59,862	0,071	-0,052
-558,729	-200,000	-0,002	0,069
-557,715	-73,642	-0,144	-0,038
-556,700	-100,132	-0,069	0,012
-555,685	-151,826	-0,189	-0,010
-554,671	-164,627	-0,025	0,001
-553,656	230,832	-0,057	0,069
-552,642	343,193	0,097	-0,139
-551,627	21,794	-0,038	-0,022
-550,612	-16,010	-0,019	-0,009
-549,598	-200,000	0,004	-0,091
-548,583	188,064	-0,049	-0,054
-547,569	-131,744	-0,046	0,004
-546,554	37,246	0,125	0,081
-545,539	188,283	-0,051	-0,055
-544,525	-148,501	-0,063	0,004
-543,510	54,359	-0,034	0,024
-542,496	235,502	-0,052	-0,063
-541,481	394,492	-0,035	0,053
-540,466	-83,160	0,088	-0,020
-539,452	40,317	0,080	-0,052
-538,437	-200,000	0,005	-0,029
-537,423	298,157	0,044	0,059
-536,408	19,700	-0,062	-0,036
-535,393	-59,384	-0,278	-0,087
-534,379	101,411	0,099	-0,084
-533,364	-152,996	-0,067	-0,003
-532,350	-200,000	-0,009	-0,090
-531,335	-200,000	-0,030	-0,103
-530,321	-104,273	-0,133	-0,022
-529,306	-200,000	-0,012	-0,087
-528,291	-138,396	-0,130	0,010
-527,277	-200,000	0,041	-0,188
-526,262	604,530	-0,013	0,023
-525,248	89,605	0,031	0,025
-524,233	-200,000	0,023	0,110
-523,218	330,366	-0,075	0,106
-522,204	-200,000	-0,007	-0,063
-521,189	54,873	0,092	-0,065
-520,175	800,000	-0,034	-0,074
-519,160	321,890	0,082	-0,115
-518,145	75,493	-0,033	-0,025
-517,131	-200,000	0,024	0,102
-516,116	-200,000	0,022	0,115
-515,102	-102,123	0,085	-0,015
-514,087	14,597	-0,022	0,013
-513,072	800,000	-0,058	0,132
-512,058	-74,827	0,045	-0,012
-511,043	-200,000	0,009	0,059
-510,029	-200,000	-0,014	0,082
-509,014	282,670	0,049	0,065
-507,999	127,364	0,027	-0,025
-506,985	-200,000	0,015	0,132
-505,970	-39,071	0,086	-0,033
-504,956	312,600	0,040	-0,055
-503,941	-31,444	0,029	-0,012
-502,926	246,920	-0,027	0,034
-501,912	-200,000	0,001	-0,012
-500,897	110,977	-0,133	-0,117
-499,883	-101,537	-0,070	-0,012
-498,868	325,685	-0,077	0,108
-497,853	20,924	0,070	0,041
-496,839	-27,779	0,026	-0,011
-495,824	-2,116	0,101	-0,052
-494,810	800,000	-0,046	0,143
-493,795	-200,000	0,029	0,114
-492,781	395,570	0,074	-0,113
-491,766	-200,000	0,004	-0,085
-490,751	-111,137	-0,122	-0,018
-489,737	-57,255	0,071	0,023
-488,722	-200,000	-0,032	0,176
-487,708	212,958	0,062	0,071
-486,693	-96,092	0,158	0,030
-485,678	93,493	-0,089	0,073
-484,664	-200,000	-0,001	-0,203
-483,649	-52,269	-0,053	-0,018
-482,635	800,000	0,059	-0,149
-481,620	-134,650	0,152	-0,013
-480,605	67,700	0,045	0,034
-479,591	-160,931	0,056	0,002
-478,576	-135,701	-0,132	0,011
-477,562	11,874	-0,106	0,059
-476,547	112,344	-0,076	-0,067
-475,532	642,098	0,029	0,054
-474,518	-66,691	-0,105	0,030
-473,503	332,200	0,070	0,099
-472,489	-164,096	-0,093	0,003
-471,474	373,241	0,062	0,092
-470,459	594,271	0,023	-0,042
-469,445	-79,381	-0,159	-0,039
-468,430	-96,006	0,029	-0,006
-467,416	-200,000	0,008	0,110
-466,401	-200,000	-0,010	-0,157
-465,386	-200,000	0,031	-0,127
-464,372	-118,086	-0,094	-0,012
-463,357	129,484	-0,012	-0,011
-462,343	-200,000	-0,036	-0,134
-461,328	796,043	0,016	-0,032
-460,313	79,414	-0,062	-0,049
-459,299	-29,438	0,124	-0,051
-458,284	800,000	-0,021	-0,054
-457,270	-200,000	0,022	-0,101
-456,255	150,719	-0,032	0,032
-455,241	12,339	-0,053	0,030
-454,226	-200,000	-0,020	0,134
-453,211	-108,845	0,114	0,018
-452,197	-200,000	-0,011	0,075
-451,182	46,389	-0,044	-0,030
-450,168	-200,000	-0,023	0,226
-449,153	154,026	0,097	-0,097
-448,138	-78,996	-0,050	0,012
-447,124	-200,000	0,005	0,050
-446,109	11,507	-0,017	0,009
-445,095	-143,783	0,094	0,006
-444,080	-47,618	0,061	-0,021
-443,065	800,000	0,029	-0,071
-442,051	-48,405	-0,037	0,013
-441,036	-113,987	-0,124	0,017
-440,022	32,346	-0,031	0,020
-439,007	211,272	0,071	-0,082
-437,992	-0,523	-0,031	0,016
-436,978	-31,276	0,048	0,020
-435,963	254,577	-0,052	0,065
-434,949	15,145	0,040	0,023
-433,934	-200,000	-0,009	0,091
-432,919	800,000	-0,011	-0,031
-431,905	32,889	-0,100	0,063
-430,890	737,701	-0,083	0,163
-429,876	-200,000	0,012	0,053
-428,861	-72,452	0,116	-0,031
-427,846	-200,000	0,014	-0,105
-426,832	-158,032	-0,124	0,005
-425,817	-142,831	-0,118	0,008
-424,803	738,105	-0,041	0,081
-423,788	-5,569	0,117	0,058
-422,773	-200,000	-0,010	0,140
-421,759	620,359	0,024	0,045
-420,744	-31,247	0,143	-0,058
-419,730	-48,145	0,021	-0,007
-418,715	-129,954	-0,164	0,016
-417,701	62,614	0,086	0,063
-416,686	800,000	0,055	0,133
-415,671	-36,609	-0,096	-0,038
-414,657	18,781	-0,075	0,043
-413,642	-200,000	0,013	0,055
-412,628	63,742	-0,093	0,068
-411,613	88,365	-0,104	-0,084
-410,598	-130,873	-0,133	0,013
-409,584	-200,000	0,018	0,100
-408,569	800,000	0,007	-0,016
-407,555	793,297	0,034	0,068
-406,540	-200,000	-0,042	0,148
-405,525	393,474	-0,041	0,062
-404,511	-171,034	-0,180	0,004
-403,496	-200,000	-0,016	0,057
-402,482	61,037	0,083	-0,060
-401,467	-200,000	0,023	-0,089
-400,452	264,676	0,035	0,044
-399,438	-92,863	-0,098	0,020
-398,423	48,346	0,052	0,035
-397,409	800,000	0,043	-0,111
-396,394	81,884	-0,138	-0,108
-395,379	-200,000	0,050	0,227
-394,365	216,621	0,077	0,089
-393,350	-200,000	0,005	-0,081
-392,336	-200,000	0,008	0,075
-391,321	20,271	0,063	0,037
-390,306	800,000	0,019	-0,056
-389,292	-200,000	-0,012	-0,066
-388,277	-112,284	-0,140	0,020
-387,263	-200,000	0,017	0,091
-386,248	-200,000	0,060	0,225
-385,233	-122,350	0,074	-0,009
-384,219	260,151	-0,060	-0,076
-383,204	161,056	-0,022	0,023
-382,190	9,781	-0,039	-0,021
-381,175	83,045	-0,093	-0,073
-380,160	107,215	0,023	-0,020
-379,146	-136,539	0,130	0,011
-378,131	-23,868	0,105	0,045
-377,117	-121,848	-0,165	0,020
-376,102	-200,000	0,023	0,080
-375,088	80,874	-0,034	0,026
-374,073	445,934	0,014	0,022
-373,058	194,120	-0,079	-0,088
-372,044	282,309	0,033	0,043
-371,029	-22,696	0,126	-0,055
-370,015	-148,073	-0,075	0,004
-369,000	125,402	0,028	0,026
-367,985	56,210	0,108	-0,076
-366,971	800,000	0,052	-0,107
-365,956	-104,177	0,108	-0,018
-364,942	790,969	0,029	0,059
-363,927	-200,000	-0,007	0,030
-362,912	800,000	0,024	-0,062
-361,898	33,229	-0,051	-0,032
-360,883	-103,532	0,054	0,009
-359,869	-200,000	-0,014	-0,177
-358,854	400,111	0,055	0,084
-357,839	-110,920	0,074	-0,011
-356,825	294,837	0,084	0,112
-355,810	800,000	-0,027	-0,076
-354,796	-200,000	-0,023	-0,116
-353,781	708,314	-0,041	0,079
-352,766	-200,000	-0,008	0,146
-351,752	557,804	-0,043	0,076
-350,737	-140,098	0,095	-0,007
-349,723	-114,184	0,175	0,024
-348,708	-157,913	0,129	0,005
-347,693	-75,132	0,055	0,014
-346,679	311,324	-0,056	-0,076
-345,664	51,938	-0,115	-0,079
-344,650	-98,461	0,133	-0,025
-343,635	-22,348	0,102	-0,045
-342,620	800,000	0,069	-0,177
-341,606	22,088	0,102	-0,060
-340,591	-3,336	-0,083	-0,042
-339,577	228,011	0,073	-0,086
-338,562	-200,000	-0,017	-0,060
-337,548	-200,000	-0,000	-0,076
-336,533	237,838	-0,084	-0,101
-335,518	-30,718	0,029	-0,012
-334,504	-5,670	-0,079	0,039
-333,489	214,938	0,039	0,045
-332,475	800,000	0,031	0,069
-331,460	190,644	-0,078	-0,085
-330,445	-2,005	-0,008	-0,004
-329,431	-152,553	0,141	-0,007
-328,416	-200,000	-0,004	-0,066
-327,402	-200,000	-0,000	-0,035
-326,387	-200,000	-0,007	-0,031
-325,372	218,215	-0,018	0,021
-324,358	800,000	-0,037	-0,085
-323,343	18,895	0,032	0,018
-322,329	-200,000	-0,032	-0,117
-321,314	-200,000	-0,010	-0,148
-320,299	-108,414	0,148	0,023
-319,285	-200,000	0,000	-0,103
-318,270	43,317	-0,066	0,044
-317,256	-200,000	0,000	0,028
-316,241	-99,373	-0,079	-0,014
-315,226	-19,956	0,064	0,029
-314,212	-67,669	0,110	-0,031
-313,197	-200,000	0,008	0,043
-312,183	-200,000	-0,017	0,063
-311,168	-60,872	-0,128	0,039
-310,153	542,274	0,041	-0,072
-309,139	51,542	0,069	0,048
-308,124	-200,000	0,000	-0,139
-307,110	800,000	0,048	0,139
-306,095	-26,090	0,209	0,089
-305,080	29,751	0,094	0,058
-304,066	49,979	-0,024	-0,017
-303,051	170,060	-0,046	0,048
-302,037	-200,000	-0,015	0,065
-301,022	-200,000	0,011	0,065
-300,008	-200,000	-0,014	0,175
-298,993	153,134	0,107	0,107
-297,978	16,335	-0,069	0,039
-296,964	8,586	-0,092	-0,050
-295,949	-144,150	0,012	0,001
-294,935	-200,000	0,012	-0,117
-293,920	311,391	0,087	0,119
-292,905	-109,032	0,067	-0,010
-291,891	638,481	0,025	0,047
-290,876	-200,000	-0,001	0,061
-289,862	-108,065	-0,072	0,011
-288,847	129,607	-0,060	-0,055
-287,832	-115,439	0,038	0,005
-286,818	-200,000	-0,003	-0,018
-285,803	-107,585	0,101	0,016
-284,789	-134,561	0,014	0,001
-283,774	-15,441	0,049	0,023
-282,759	-93,084	0,154	-0,031
-281,745	800,000	0,037	-0,085
-280,730	-16,823	-0,049	-0,023
-279,716	-24,584	0,130	0,056
-278,701	800,000	-0,044	0,140
-277,686	309,582	0,082	0,112
-276,672	391,175	0,108	0,163
-275,657	435,130	-0,055	0,087
-274,643	156,477	-0,044	0,044
-273,628	491,075	0,031	-0,051
-272,613	-30,392	-0,090	0,037
-271,599	177,749	0,033	0,035
-270,584	-119,236	0,113	0,014
-269,570	14,569	-0,126	-0,071
-268,555	-200,000	-0,007	0,051
-267,540	-58,329	-0,059	0,019
-266,526	547,351	-0,077	-0,134
-265,511	154,524	0,078	-0,077
-264,497	-17,597	-0,080	0,036
-263,482	-16,178	0,121	0,055
-262,467	23,641	-0,109	0,065
-261,453	-9,648	0,048	-0,023
-260,438	106,995	-0,127	-0,109
-259,424	86,340	0,060	-0,048
-258,409	800,000	-0,029	0,071
-257,395	75,813	-0,048	-0,037
-256,380	-169,790	0,028	-0,001
-255,365	284,014	-0,031	-0,040
-254,351	383,706	0,037	0,055
-253,336	65,947	-0,191	-0,140
-252,322	-200,000	-0,006	-0,030
-251,307	800,000	0,016	0,037
-250,292	319,260	-0,051	0,070
-249,278	-171,259	0,089	-0,002
-248,263	345,039	0,064	0,091
-247,249	-200,000	-0,031	0,151
-246,234	20,983	-0,037	0,022
-245,219	-200,000	0,004	0,014
-244,205	-10,123	-0,069	-0,033
-243,190	-200,000	-0,016	-0,096
-242,176	-200,000	0,014	0,067
-241,161	-200,000	-0,018	0,145
-240,146	-122,225	-0,080	0,009
-239,132	800,000	0,039	0,092
-238,117	800,000	0,012	0,029
-237,103	-200,000	0,034	-0,119
-236,088	-200,000	0,018	0,150
-235,073	-200,000	0,008	0,046
-234,059	21,359	0,062	0,036
-233,044	800,000	0,030	0,064
-232,030	800,000	0,046	-0,144
-231,015	-200,000	-0,008	-0,115
-230,000	-200,000	-0,001	-0,113
-228,986	26,346	-0,057	0,034
-227,971	800,000	0,037	0,082
-226,957	44,569	-0,026	0,017
-225,942	227,209	0,112	-0,132
-224,927	613,796	-0,039	-0,070
-223,913	-4,030	-0,091	-0,045
-222,898	436,219	0,039	-0,061
-221,884	-200,000	0,002	-0,087
-220,869	-91,990	0,074	0,015
-219,855	-140,893	0,055	0,004
-218,840	499,201	-0,011	-0,018
-217,825	-110,803	0,132	0,019
-216,811	-200,000	0,010	-0,090
-215,796	411,764	0,147	-0,227
-214,782	50,930	0,058	-0,039
-213,767	-115,442	0,113	0,015
-212,752	63,582	-0,026	-0,019
-211,738	78,012	0,115	0,089
-210,723	-125,990	-0,087	-0,009
-209,709	351,834	-0,062	-0,089
-208,694	-200,000	0,026	0,086
-207,679	-11,454	-0,015	0,007
-206,665	78,898	0,045	0,034
-205,650	208,975	0,121	0,137
-204,636	-200,000	0,019	0,086
-203,621	-200,000	-0,025	0,108
-202,606	-200,000	0,000	-0,148
-201,592	25,731	-0,157	-0,094
-200,577	-51,520	0,093	0,031
-199,563	-32,810	-0,117	-0,047
-198,548	78,998	0,071	0,055
-197,533	148,719	0,085	0,083
-196,519	107,625	-0,007	-0,006
-195,504	-200,000	-0,013	-0,132
-194,490	-200,000	-0,024	-0,177
-193,475	-83,309	-0,094	-0,022
-192,460	-72,097	0,066	0,018
-191,446	-200,000	-0,007	0,106
-190,431	125,040	0,127	0,115
-189,417	209,154	0,055	0,062
-188,402	800,000	-0,032	0,092
-187,387	800,000	-0,033	-0,074
-186,373	263,086	-0,077	-0,097
-185,358	16,165	-0,046	-0,026
-184,344	800,000	-0,035	0,103
-183,329	800,000	-0,023	0,050
-182,315	-200,000	-0,049	0,182
-181,300	126,718	-0,142	0,130
-180,285	-87,680	-0,039	-0,008
-179,271	-23,573	-0,172	-0,074
-178,256	286,868	0,093	-0,121
-177,242	767,063	0,042	-0,083
-176,227	-200,000	-0,017	0,060
-175,212	116,472	0,023	0,020
-174,198	472,383	0,132	-0,214
-173,183	19,555	-0,051	-0,030
-172,169	148,928	0,071	0,070
-171,154	-71,163	-0,093	0,025
-170,139	186,430	0,110	0,118
-169,125	-200,000	0,003	0,098
-168,110	-101,468	-0,041	-0,007
-167,096	800,000	0,014	-0,036
-166,081	-5,848	-0,167	-0,082
-165,066	800,000	-0,047	0,099
-164,052	-53,680	0,110	0,036
-163,037	-148,845	0,044	-0,003
-162,023	-76,155	0,078	0,020
-161,008	84,316	0,013	-0,011
-159,993	475,334	0,060	0,099
-158,979	800,000	0,038	-0,081
-157,964	-95,875	-0,052	0,010
-156,950	15,638	-0,068	-0,038
-155,935	-138,324	0,159	-0,012
-154,920	800,000	0,066	-0,144
-153,906	82,857	-0,139	0,109
-152,891	-200,000	-0,008	0,049
-151,877	800,000	0,039	-0,093
-150,862	308,495	-0,041	-0,056
-149,847	47,690	0,074	0,049
-148,833	-200,000	0,015	0,061
-147,818	-200,000	-0,006	0,047
-146,804	-75,286	0,055	0,014
-145,789	719,687	0,081	-0,157
-144,775	-19,068	0,129	-0,058
-143,760	-68,349	-0,174	0,048
-142,745	800,000	-0,054	-0,134
-141,731	-200,000	0,020	-0,078
-140,716	97,141	0,071	0,059
-139,702	800,000	0,027	0,055
-138,687	-200,000	0,031	-0,104
-137,672	625,784	0,054	-0,099
-136,658	114,514	-0,080	-0,070
-135,643	218,748	0,064	-0,074
-134,629	-200,000	0,007	-0,126
-133,614	9,819	0,161	0,088
-132,599	-200,000	0,005	0,192
-131,585	228,579	-0,070	0,082
-130,570	800,000	0,044	-0,101
-129,556	566,876	-0,023	-0,040
-128,541	438,227	0,027	-0,043
-127,526	573,841	0,013	0,023
-126,512	-200,000	-0,006	0,068
-125,497	-168,184	-0,085	-0,002
-124,483	-71,914	-0,072	-0,019
-123,468	-200,000	-0,012	0,042
-122,453	308,039	0,065	-0,088
-121,439	-33,565	-0,033	0,013
-120,424	-117,899	-0,089	0,011
-119,410	371,861	0,039	0,057
