DTS Sentinel unit serial number:	SN410029Multiplexer serial number:	ORYXHardware model number:	OX2-SRSoftware version number:	ORYX F/W v4,00 Oryx Data Collector v3.7.2.0data status	okinstallation	B6 Nyhavnadifferential loss correction	single-endedforward channel	channel 2reverse channel	N/Adate	2023/12/10time	03:25:08forward acquisition time	300,00reverse acquisition time	0,00gamma	499,1914k internal	0,3125k external	0,3125temperature offset calibration	1,0000default loss term (dB/km)	0,3820temperature slope calibration	1,0000multiplexer offset coefficient	1,0000multiplexer slope coefficient	1,0000fibre end	0,00T internal ref (°C)	22,00T ext. ref 1 (°C)	5,91T ext. ref 2 (°C)	5,88length (m)	temperature (°C)	Stokes	anti-Stokes-744,400	-200,000	0,018	0,064
-743,385	-95,316	-0,280	0,056
-742,371	25,088	0,048	0,030
-741,356	10,218	-0,214	0,121
-740,342	-69,408	0,135	0,038
-739,327	-76,950	-0,178	0,046
-738,312	629,626	0,093	-0,176
-737,298	-63,520	-0,117	-0,036
-736,283	-7,335	-0,041	-0,021
-735,269	-200,000	-0,015	0,111
-734,254	-23,993	-0,097	0,043
-733,239	-17,426	-0,308	-0,144
-732,225	-119,324	0,170	-0,022
-731,210	157,450	0,058	0,060
-730,196	800,000	0,017	0,050
-729,181	149,370	0,023	-0,023
-728,167	-5,998	-0,052	-0,026
-727,152	-200,000	0,022	0,136
-726,137	-200,000	-0,020	0,086
-725,123	99,838	-0,145	-0,125
-724,108	-180,546	-0,059	-0,001
-723,094	-84,078	-0,112	0,026
-722,079	-94,700	-0,100	-0,020
-721,064	76,941	-0,084	-0,066
-720,050	-200,000	0,020	-0,094
-719,035	372,146	0,010	0,015
-718,021	252,770	-0,138	0,175
-717,006	19,201	-0,105	-0,063
-715,991	-85,756	-0,092	-0,021
-714,977	-25,500	0,045	-0,020
-713,962	677,845	0,098	-0,191
-712,948	398,490	0,048	-0,074
-711,933	-200,000	-0,020	0,075
-710,918	800,000	0,043	0,127
-709,904	83,985	-0,103	-0,084
-708,889	-35,743	-0,071	-0,029
-707,875	-73,082	-0,163	-0,044
-706,860	-65,990	0,058	0,017
-705,845	201,070	-0,081	0,093
-704,831	83,505	-0,165	-0,134
-703,816	-200,000	-0,004	0,040
-702,802	111,784	0,036	0,032
-701,787	230,899	-0,091	-0,111
-700,772	-21,652	-0,208	-0,094
-699,758	-144,052	-0,049	-0,003
-698,743	-200,000	0,009	0,137
-697,729	-47,969	-0,046	-0,017
-696,714	59,294	-0,138	-0,101
-695,699	787,406	-0,014	-0,029
-694,685	47,267	-0,090	0,062
-693,670	800,000	-0,064	-0,187
-692,656	604,427	0,040	-0,074
-691,641	-200,000	0,027	-0,107
-690,627	-200,000	-0,017	0,078
-689,612	-14,469	-0,022	0,011
-688,597	-107,863	0,096	0,015
-687,583	-159,739	-0,155	0,006
-686,568	-56,348	-0,098	0,032
-685,554	428,901	0,066	-0,107
-684,539	-157,309	0,067	-0,003
-683,524	316,287	0,068	0,095
-682,510	-200,000	0,028	0,105
-681,495	30,056	-0,118	-0,075
-680,481	-200,000	-0,026	-0,151
-679,466	-200,000	-0,022	-0,163
-678,451	-34,707	-0,097	0,039
-677,437	800,000	0,022	-0,070
-676,422	358,451	-0,023	-0,035
-675,408	-46,869	-0,070	0,025
-674,393	-25,908	-0,043	-0,019
-673,378	-3,141	-0,086	-0,044
-672,364	5,169	-0,104	-0,057
-671,349	45,654	0,122	0,083
-670,335	-200,000	-0,002	-0,090
-669,320	-88,707	-0,028	0,006
-668,305	12,241	-0,045	0,026
-667,291	-85,422	-0,114	-0,026
-666,276	800,000	-0,045	0,095
-665,262	-200,000	0,007	0,062
-664,247	-200,000	0,022	-0,148
-663,232	-20,370	-0,178	-0,081
-662,218	789,447	-0,015	-0,030
-661,203	-12,161	0,066	0,032
-660,189	18,250	-0,035	-0,021
-659,174	214,978	-0,004	0,005
-658,159	-102,094	-0,115	-0,020
-657,145	294,140	-0,059	-0,080
-656,130	275,137	0,023	0,030
-655,116	-122,990	-0,076	-0,009
-654,101	800,000	-0,046	0,136
-653,086	800,000	-0,030	0,065
-652,072	-170,016	0,127	-0,003
-651,057	-29,561	-0,234	-0,099
-650,043	223,625	-0,057	-0,069
-649,028	-200,000	-0,014	0,070
-648,014	165,331	0,147	0,155
-646,999	-20,617	0,079	0,036
-645,984	571,235	0,102	-0,185
-644,970	591,071	-0,029	-0,053
-643,955	800,000	0,043	-0,092
-642,941	114,277	0,074	0,066
-641,926	-141,110	0,113	-0,008
-640,911	206,224	-0,064	0,074
-639,897	-57,277	0,081	0,026
-638,882	107,112	-0,065	0,057
-637,868	150,205	0,114	-0,115
-636,853	-163,697	0,047	0,002
-635,838	-200,000	-0,035	-0,159
-634,824	50,451	-0,035	-0,025
-633,809	789,081	0,030	-0,062
-632,795	-43,252	-0,144	0,054
-631,780	759,754	-0,026	-0,053
-630,765	-200,000	-0,021	-0,085
-629,751	-159,808	-0,066	-0,003
-628,736	60,087	-0,083	-0,061
-627,722	-132,182	-0,037	0,004
-626,707	38,347	0,030	0,020
-625,692	-164,782	-0,068	-0,002
-624,678	23,908	0,121	0,074
-623,663	-200,000	-0,006	-0,128
-622,649	-53,833	-0,068	-0,023
-621,634	-45,867	-0,121	-0,044
-620,619	-102,318	-0,122	0,021
-619,605	-200,000	0,012	-0,056
-618,590	-94,317	-0,050	-0,010
-617,576	-112,612	-0,039	0,006
-616,561	800,000	0,084	-0,190
-615,546	129,541	-0,057	0,054
-614,532	-200,000	-0,026	-0,217
-613,517	800,000	-0,078	0,192
-612,503	251,141	-0,099	-0,125
-611,488	800,000	0,008	0,023
-610,474	800,000	-0,026	-0,056
-609,459	800,000	-0,067	0,172
-608,444	800,000	-0,046	-0,124
-607,430	-200,000	-0,006	-0,111
-606,415	-200,000	-0,033	-0,135
-605,401	-72,686	0,092	-0,025
-604,386	228,112	0,055	0,066
-603,371	800,000	0,035	0,075
-602,357	-200,000	0,011	0,130
-601,342	11,443	0,039	0,022
-600,328	-200,000	0,003	-0,086
-599,313	-70,173	-0,099	-0,028
-598,298	624,469	0,052	-0,098
-597,284	389,828	-0,039	-0,060
-596,269	-79,309	0,042	0,011
-595,255	1,979	0,015	0,008
-594,240	-161,924	-0,139	-0,005
-593,225	-36,411	-0,037	-0,015
-592,211	98,883	-0,064	0,055
-591,196	-191,816	0,084	-0,001
-590,182	-89,159	-0,149	-0,032
-589,167	-118,930	-0,026	0,003
-588,152	-69,110	0,041	0,012
-587,138	3,291	-0,179	0,096
-586,123	-200,000	-0,001	-0,057
-585,109	-200,000	0,006	-0,126
-584,094	128,552	0,048	0,045
-583,079	55,695	0,092	-0,066
-582,065	-200,000	-0,003	-0,052
-581,050	-200,000	0,009	0,039
-580,036	487,507	-0,101	0,171
-579,021	139,314	-0,075	-0,073
-578,006	282,719	-0,045	-0,060
-576,992	343,975	-0,071	-0,104
-575,977	-104,782	0,175	0,030
-574,963	-200,000	0,005	0,119
-573,948	364,125	-0,086	0,129
-572,934	800,000	-0,057	-0,149
-571,919	-200,000	0,059	-0,196
-570,904	-109,788	-0,090	-0,014
-569,890	293,731	-0,095	0,128
-568,875	800,000	0,023	-0,048
-567,861	-200,000	0,037	-0,177
-566,846	0,608	0,056	-0,029
-565,831	3,997	-0,088	0,048
-564,817	-173,097	0,119	0,003
-563,802	-200,000	-0,015	-0,076
-562,788	-200,000	-0,021	0,069
-561,773	236,072	0,035	0,042
-560,758	39,650	0,086	0,057
-559,744	-103,620	0,002	-0,000
-558,729	0,944	0,096	-0,050
-557,715	-2,413	0,190	-0,098
-556,700	551,558	0,012	0,021
-555,685	-200,000	0,032	-0,161
-554,671	-162,041	0,126	-0,005
-553,656	407,605	-0,047	-0,074
-552,642	250,657	0,035	0,045
-551,627	-200,000	-0,008	0,121
-550,612	800,000	-0,039	0,110
-549,598	-2,312	-0,065	-0,033
-548,583	-152,431	-0,129	0,007
-547,569	-200,000	-0,001	0,076
-546,554	-200,000	0,020	0,072
-545,539	-106,199	0,046	-0,007
-544,525	800,000	-0,078	0,235
-543,510	-200,000	0,007	-0,095
-542,496	-200,000	-0,004	-0,054
-541,481	-30,818	-0,087	-0,036
-540,466	-127,570	0,122	-0,013
-539,452	800,000	-0,028	-0,058
-538,437	264,246	0,023	-0,029
-537,423	-103,514	-0,040	-0,007
-536,408	-200,000	0,026	-0,117
-535,393	24,169	0,012	0,007
-534,379	-94,580	-0,145	-0,029
-533,364	-200,000	-0,017	0,083
-532,350	520,234	-0,088	-0,153
-531,335	-200,000	-0,001	-0,017
-530,321	476,474	-0,064	0,108
-529,306	378,158	0,015	-0,022
-528,291	27,776	-0,032	-0,020
-527,277	-143,532	-0,070	-0,005
-526,262	-45,845	0,050	0,018
-525,248	-133,923	0,047	-0,004
-524,233	166,934	-0,036	-0,037
-523,218	-200,000	0,017	0,076
-522,204	-62,784	-0,117	0,036
-521,189	-200,000	-0,003	-0,115
-520,175	78,535	0,061	-0,048
-519,160	241,265	-0,068	-0,084
-518,145	800,000	-0,023	-0,052
-517,131	-115,458	0,079	0,011
-516,116	48,873	0,042	-0,029
-515,102	-6,772	-0,033	0,017
-514,087	-130,471	-0,064	0,006
-513,072	-106,927	-0,037	-0,006
-512,058	44,928	0,031	0,021
-511,043	-37,006	0,070	0,027
-510,029	7,414	-0,099	-0,054
-509,014	74,039	0,044	-0,034
-507,999	39,219	-0,045	0,030
-506,985	290,881	-0,075	0,100
-505,970	800,000	0,034	0,093
-504,956	372,981	0,070	0,105
-503,941	140,571	-0,012	0,012
-502,926	-114,044	0,097	-0,014
-501,912	-91,450	-0,086	0,018
-500,897	-47,643	-0,065	0,023
-499,883	-200,000	-0,012	-0,058
-498,868	-80,469	0,040	0,010
-497,853	800,000	0,045	0,118
-496,839	341,203	-0,036	0,052
-495,824	800,000	0,038	0,086
-494,810	-80,580	0,108	0,026
-493,795	-64,780	0,198	0,059
-492,781	429,200	0,020	0,032
-491,766	-28,247	0,069	-0,029
-490,751	685,719	-0,086	-0,166
-489,737	134,070	-0,103	0,098
-488,722	247,667	-0,110	-0,138
-487,708	-55,711	-0,092	0,030
-486,693	800,000	-0,024	0,067
-485,678	-128,800	-0,025	-0,003
-484,664	800,000	0,057	-0,138
-483,649	800,000	-0,075	-0,162
-482,635	449,178	0,024	-0,040
-481,620	52,759	0,084	-0,059
-480,605	-52,852	-0,190	0,064
-479,591	447,231	-0,028	0,046
-478,576	305,355	0,020	-0,028
-477,562	83,836	-0,080	0,064
-476,547	14,447	0,063	0,036
-475,532	-163,845	-0,069	0,002
-474,518	418,385	0,098	0,156
-473,503	-200,000	-0,006	0,130
-472,489	-46,246	-0,083	0,030
-471,474	-28,395	-0,112	0,047
-470,459	-153,135	-0,048	0,002
-469,445	-113,596	-0,107	-0,015
-468,430	16,813	-0,020	-0,012
-467,416	-200,000	-0,001	0,144
-466,401	735,871	-0,005	0,011
-465,386	-200,000	-0,016	-0,069
-464,372	-200,000	0,000	-0,027
-463,357	188,207	0,105	-0,116
-462,343	209,676	0,040	-0,047
-461,328	33,747	-0,088	0,056
-460,313	800,000	0,058	0,180
-459,299	-3,476	-0,107	0,055
-458,284	70,479	-0,049	-0,037
-457,270	9,258	0,059	0,033
-456,255	101,099	-0,017	0,015
-455,241	-158,978	-0,125	-0,005
-454,226	396,013	0,055	-0,085
-453,211	-200,000	0,001	-0,058
-452,197	-200,000	0,022	-0,093
-451,182	446,450	0,058	0,094
-450,168	-146,293	0,069	0,004
-449,153	-116,530	-0,123	0,017
-448,138	395,401	-0,039	-0,060
-447,124	-48,623	0,011	0,004
-446,109	-93,561	-0,179	-0,036
-445,095	394,954	-0,015	-0,023
-444,080	-113,233	-0,039	0,006
-443,065	194,656	-0,049	-0,054
-442,051	54,033	-0,109	0,077
-441,036	-137,507	0,059	0,005
-440,022	-200,000	0,039	-0,132
-439,007	-200,000	-0,002	-0,160
-437,992	-3,276	0,109	-0,056
-436,978	-43,483	0,153	0,057
-435,963	-200,000	-0,000	-0,041
-434,949	-186,818	-0,146	-0,001
-433,934	14,675	-0,171	-0,098
-432,919	-200,000	-0,026	-0,123
-431,905	437,227	-0,083	-0,134
-430,890	313,005	0,029	-0,040
-429,876	-92,205	0,071	-0,015
-428,861	90,520	-0,034	0,028
-427,846	-127,750	-0,112	-0,012
-426,832	-200,000	0,002	0,025
-425,817	800,000	0,027	-0,073
-424,803	-61,289	-0,039	0,012
-423,788	39,108	0,076	0,050
-422,773	128,161	0,095	0,089
-421,759	93,975	-0,071	0,059
-420,744	800,000	-0,009	0,028
-419,730	-200,000	0,011	0,122
-418,715	-130,108	0,100	-0,010
-417,701	149,130	-0,053	-0,053
-416,686	290,887	0,103	0,138
-415,671	-200,000	-0,008	0,047
-414,657	-171,338	0,119	0,003
-413,642	-200,000	-0,009	0,134
-412,628	-29,759	-0,150	-0,062
-411,613	-200,000	-0,014	-0,063
-410,598	-2,004	-0,059	0,031
-409,584	-16,183	0,069	-0,032
-408,569	-80,854	-0,018	-0,004
-407,555	20,564	-0,035	-0,021
-406,540	65,938	-0,109	-0,081
-405,525	88,819	-0,049	0,040
-404,511	177,245	-0,055	0,058
-403,496	221,902	0,047	-0,055
-402,482	364,693	-0,081	0,120
-401,467	533,709	-0,076	0,133
-400,452	-103,290	-0,062	0,011
-399,438	800,000	0,018	0,039
-398,423	-200,000	-0,006	0,042
-397,409	-66,560	-0,099	-0,029
-396,394	-200,000	-0,020	-0,128
-395,379	1,595	0,065	-0,034
-394,365	-106,216	-0,027	0,004
-393,350	-81,001	0,152	-0,037
-392,336	-200,000	-0,010	0,045
-391,321	-200,000	0,004	0,118
-390,306	-200,000	-0,021	-0,107
-389,292	-161,821	-0,049	0,002
-388,277	-83,839	-0,048	0,011
-387,263	-100,900	0,154	0,028
-386,248	52,693	-0,042	-0,029
-385,233	-46,484	0,111	0,040
-384,219	46,779	-0,098	0,066
-383,204	666,541	0,051	0,096
-382,190	300,736	-0,097	-0,132
-381,175	-200,000	-0,007	0,035
-380,160	800,000	0,020	-0,050
-379,146	800,000	0,034	-0,087
-378,131	-137,771	-0,107	0,009
-377,117	-200,000	0,004	0,014
-376,102	-200,000	0,011	0,061
-375,088	261,995	-0,015	0,020
-374,073	223,090	-0,026	-0,031
-373,058	62,566	0,035	0,025
-372,044	88,275	-0,007	0,006
-371,029	35,164	-0,089	-0,057
-370,015	-200,000	0,001	0,020
-369,000	-84,303	-0,038	-0,009
-367,985	800,000	0,068	-0,203
-366,971	-200,000	0,004	-0,063
-365,956	47,882	0,049	0,033
-364,942	142,893	0,039	-0,038
-363,927	-147,859	0,110	0,007
-362,912	-200,000	0,038	-0,185
-361,898	-200,000	-0,009	-0,122
-360,883	79,654	0,091	-0,072
-359,869	-200,000	-0,037	-0,242
-358,854	95,785	0,030	-0,025
-357,839	266,861	-0,044	-0,057
-356,825	800,000	-0,025	0,074
-355,810	-130,566	0,083	-0,008
-354,796	-72,093	0,097	-0,026
-353,781	800,000	-0,013	0,034
-352,766	-132,557	0,014	0,001
-351,752	157,050	-0,058	0,059
-350,737	-0,152	0,039	0,020
-349,723	-200,000	0,005	0,127
-348,708	-200,000	-0,014	-0,050
-347,693	-167,294	0,154	0,004
-346,679	-80,165	-0,141	-0,034
-345,664	800,000	-0,024	-0,055
-344,650	-24,180	0,116	0,051
-343,635	34,735	0,121	0,078
-342,620	-200,000	0,048	0,156
-341,606	284,250	-0,055	-0,073
-340,591	638,339	0,005	-0,010
-339,577	437,748	-0,060	-0,096
-338,562	-75,594	0,121	-0,031
-337,548	-200,000	-0,003	-0,191
-336,533	-200,000	-0,025	0,094
-335,518	-53,497	0,135	-0,045
-334,504	-200,000	0,010	-0,114
-333,489	-200,000	0,024	0,097
-332,475	5,328	-0,040	-0,022
-331,460	-155,105	-0,196	-0,009
-330,445	117,050	0,079	-0,071
-329,431	-200,000	0,004	0,084
-328,416	386,489	0,060	0,091
-327,402	-172,957	0,070	0,002
-326,387	556,204	-0,048	0,085
-325,372	800,000	-0,026	0,054
-324,358	254,715	-0,021	-0,027
-323,343	746,094	-0,039	-0,077
-322,329	-7,906	0,075	0,037
-321,314	-200,000	0,020	0,087
-320,299	-200,000	0,018	0,096
-319,285	268,305	0,078	0,101
-318,270	146,671	-0,080	-0,079
-317,256	-200,000	0,007	0,043
-316,241	-200,000	0,018	-0,080
-315,226	152,184	-0,055	0,055
-314,212	782,111	-0,036	0,073
-313,197	-7,081	0,103	0,051
-312,183	800,000	0,007	0,021
-311,168	726,969	0,085	-0,167
-310,153	800,000	-0,022	-0,061
-309,139	-163,384	-0,103	-0,004
-308,124	142,159	-0,079	0,077
-307,110	-35,705	0,121	-0,048
-306,095	-96,124	0,053	0,010
-305,080	800,000	0,056	0,118
-304,066	-200,000	-0,072	0,000
-303,051	-73,817	-0,102	0,027
-302,037	282,194	-0,044	-0,058
-301,022	-200,000	0,003	0,012
-300,008	347,328	0,075	0,108
-298,993	-200,000	0,010	0,038
-297,978	-22,813	0,104	0,046
-296,964	12,817	0,111	-0,062
-295,949	610,864	-0,040	0,073
-294,935	-200,000	0,004	0,020
-293,920	10,935	-0,091	0,051
-292,905	-200,000	0,014	0,085
-291,891	-8,818	0,055	0,027
-290,876	-117,102	0,221	0,029
-289,862	60,190	-0,103	-0,075
-288,847	800,000	-0,025	-0,066
-287,832	635,918	0,090	-0,169
-286,818	-200,000	0,007	0,100
-285,803	57,606	-0,096	0,068
-284,789	14,129	0,097	-0,055
-283,774	-138,900	0,175	0,014
-282,759	-90,470	-0,047	0,010
-281,745	-40,986	0,061	-0,023
-280,730	-70,051	-0,054	0,015
-279,716	-200,000	-0,021	-0,073
-278,701	800,000	0,022	0,070
-277,686	-9,732	0,108	0,053
-276,672	90,904	-0,166	0,136
-275,657	-76,789	0,020	-0,005
-274,643	800,000	0,047	0,115
-273,628	168,535	0,051	-0,054
-272,613	-82,412	0,147	-0,035
-271,599	-51,549	0,004	0,001
-270,584	601,296	-0,030	0,055
-269,570	156,172	-0,040	0,040
-268,555	-200,000	-0,010	-0,041
-267,540	800,000	0,028	-0,070
-266,526	-130,212	0,083	-0,008
-265,511	800,000	-0,007	0,022
-264,497	35,899	-0,064	-0,041
-263,482	55,083	0,075	0,053
-262,467	534,240	0,009	0,016
-261,453	-200,000	0,017	0,061
-260,438	103,356	-0,074	0,063
-259,424	45,451	-0,123	0,083
-258,409	-30,980	-0,067	0,028
-257,395	-175,392	0,065	0,001
-256,380	191,863	-0,054	-0,059
-255,365	28,422	0,056	0,035
-254,351	-200,000	0,001	0,039
-253,336	97,397	-0,088	0,074
-252,322	76,139	-0,044	0,034
-251,307	800,000	0,013	0,033
-250,292	800,000	0,056	-0,143
-249,278	-87,364	0,087	0,019
-248,263	5,874	0,032	0,017
-247,249	67,782	-0,108	0,081
-246,234	-76,597	-0,119	-0,030
-245,219	800,000	0,035	0,093
-244,205	-171,111	-0,123	0,003
-243,190	-146,103	-0,039	0,002
-242,176	-158,085	0,106	-0,004
-241,161	-88,399	0,131	-0,028
-240,146	165,204	-0,090	0,092
-239,132	800,000	-0,009	0,020
-238,117	249,700	-0,014	-0,018
-237,103	800,000	-0,047	-0,098
-236,088	-200,000	-0,018	-0,071
-235,073	417,305	0,010	-0,016
-234,059	64,205	0,091	0,067
-233,044	800,000	-0,045	0,127
-232,030	-160,977	0,036	0,001
-231,015	-11,658	-0,077	0,037
-230,000	-120,965	-0,151	0,018
-228,986	-22,614	-0,079	-0,035
-227,971	258,654	0,088	0,111
-226,957	800,000	0,030	0,076
-225,942	378,474	-0,034	0,051
-224,927	-163,719	-0,046	-0,002
-223,913	-31,404	0,099	0,040
-222,898	-200,000	0,011	-0,037
-221,884	596,479	0,012	-0,022
-220,869	-95,768	0,078	-0,015
-219,855	670,367	0,021	0,040
-218,840	90,587	-0,069	0,056
-217,825	398,470	0,060	-0,092
-216,811	-21,081	-0,034	-0,015
-215,796	-137,545	0,095	0,008
-214,782	-200,000	0,023	-0,104
-213,767	109,428	0,009	0,008
-212,752	-200,000	-0,008	0,116
-211,738	-200,000	-0,014	0,100
-210,723	800,000	-0,072	0,190
-209,709	-46,258	-0,107	-0,038
-208,694	44,250	-0,023	-0,016
-207,679	-200,000	0,025	-0,117
-206,665	-35,300	-0,088	0,035
-205,650	-128,837	0,151	-0,015
-204,636	-133,519	0,188	0,017
-203,621	143,815	0,060	-0,058
-202,606	-200,000	0,000	-0,089
-201,592	197,148	0,064	-0,072
-200,577	800,000	-0,003	-0,007
-199,563	495,586	0,068	-0,115
-198,548	101,587	0,098	0,084
-197,533	484,839	-0,046	-0,076
-196,519	-41,688	-0,152	0,056
-195,504	-83,448	-0,058	-0,013
-194,490	61,427	0,154	-0,111
-193,475	-116,103	-0,095	0,013
-192,460	40,663	0,132	0,086
-191,446	57,409	0,027	-0,019
-190,431	-2,155	0,014	-0,007
-189,417	149,897	0,081	0,080
-188,402	-200,000	-0,019	0,158
-187,387	800,000	0,034	0,068
-186,373	235,112	0,044	-0,053
-185,358	616,980	-0,038	-0,069
-184,344	-18,789	0,136	0,061
-183,329	188,679	-0,017	-0,018
-182,315	800,000	-0,001	0,002
-181,300	-200,000	0,005	0,066
-180,285	-48,001	-0,137	0,048
-179,271	165,098	0,068	0,070
-178,256	112,378	0,055	0,049
-177,242	361,712	0,047	0,069
-176,227	616,995	-0,058	-0,106
-175,212	-200,000	0,029	0,104
-174,198	-200,000	-0,004	0,026
-173,183	116,000	0,065	-0,058
-172,169	237,006	-0,044	-0,053
-171,154	-200,000	0,023	-0,082
-170,139	76,495	-0,124	0,095
-169,125	-200,000	-0,017	0,059
-168,110	-135,499	0,219	0,019
-167,096	-200,000	0,035	-0,124
-166,081	-152,200	-0,090	-0,005
-165,066	9,302	0,020	-0,011
-164,052	800,000	0,015	0,030
-163,037	-200,000	-0,038	0,121
-162,023	-53,770	-0,011	0,004
-161,008	-8,556	0,153	0,074
-159,993	-200,000	0,009	0,048
-158,979	377,116	0,061	-0,091
-157,964	800,000	0,037	-0,081
-156,950	326,497	0,054	0,075
-155,935	800,000	0,056	-0,129
-154,920	39,351	0,150	-0,098
-153,906	-200,000	0,022	0,159
-152,891	-200,000	-0,009	0,089
-151,877	727,720	0,008	0,016
-150,862	-89,965	-0,114	-0,024
-149,847	800,000	-0,045	0,116
-148,833	-107,169	-0,049	-0,008
-147,818	-200,000	-0,003	0,122
-146,804	-152,549	0,090	0,005
-145,789	-200,000	0,012	0,082
-144,775	249,708	-0,030	0,037
-143,760	800,000	0,019	-0,042
-142,745	-200,000	-0,001	0,015
-141,731	-18,672	0,134	-0,060
-140,716	-200,000	0,031	0,107
-139,702	800,000	-0,014	0,036
-138,687	-109,902	-0,124	0,019
-137,672	52,560	0,050	0,035
-136,658	800,000	0,041	0,125
-135,643	-190,649	0,017	-0,000
-134,629	182,798	0,058	-0,062
-133,614	-200,000	0,041	-0,145
-132,599	-32,899	0,155	-0,062
-131,585	-200,000	0,002	0,067
-130,570	107,637	0,021	-0,018
-129,556	207,280	-0,086	-0,098
-128,541	502,649	-0,048	-0,082
-127,526	-200,000	-0,010	0,036
-126,512	110,670	0,023	0,020
-125,497	-200,000	0,018	0,071
-124,483	-38,628	0,162	0,062
-123,468	-200,000	-0,005	0,097
-122,453	104,009	-0,099	0,085
-121,439	-200,000	0,015	-0,159
-120,424	800,000	0,010	0,029
-119,410	-144,914	-0,042	-0,003
