DTS Sentinel unit serial number:	SN410029Multiplexer serial number:	ORYXHardware model number:	OX2-SRSoftware version number:	ORYX F/W v4,00 Oryx Data Collector v3.7.2.0data status	okinstallation	B6 Nyhavnadifferential loss correction	single-endedforward channel	channel 2reverse channel	N/Adate	2023/12/09time	17:15:09forward acquisition time	300,00reverse acquisition time	0,00gamma	499,1914k internal	0,3131k external	0,3131temperature offset calibration	1,0000default loss term (dB/km)	0,3820temperature slope calibration	1,0000multiplexer offset coefficient	1,0000multiplexer slope coefficient	1,0000fibre end	0,00T internal ref (°C)	20,98T ext. ref 1 (°C)	4,70T ext. ref 2 (°C)	4,69length (m)	temperature (°C)	Stokes	anti-Stokes-744,400	-147,086	0,030	-0,002
-743,385	-88,020	-0,275	0,061
-742,371	15,536	0,122	0,071
-741,356	235,047	-0,182	0,224
-740,342	405,646	0,071	0,112
-739,327	-125,486	-0,252	-0,028
-738,312	800,000	0,051	-0,108
-737,298	-147,196	-0,318	0,020
-736,283	-47,004	0,148	-0,053
-735,269	48,175	-0,235	0,163
-734,254	366,096	-0,032	0,049
-733,239	-78,912	-0,442	-0,111
-732,225	-142,560	0,147	0,011
-731,210	800,000	0,037	-0,090
-730,196	247,259	-0,057	0,071
-729,181	16,735	0,052	0,031
-728,167	-200,000	0,028	-0,141
-727,152	-200,000	0,027	-0,129
-726,137	800,000	-0,034	-0,083
-725,123	38,179	-0,231	-0,153
-724,108	360,304	-0,055	-0,082
-723,094	-200,000	0,024	-0,110
-722,079	-200,000	-0,037	-0,134
-721,064	-200,000	0,001	-0,028
-720,050	-87,787	-0,095	0,021
-719,035	-17,846	-0,053	0,024
-718,021	-8,001	-0,087	0,043
-717,006	7,616	-0,171	-0,095
-715,991	597,549	-0,062	-0,114
-714,977	106,252	-0,048	0,042
-713,962	-57,235	-0,061	-0,020
-712,948	-48,001	0,053	0,019
-711,933	-200,000	-0,018	-0,101
-710,918	-8,703	-0,123	0,061
-709,904	-136,795	-0,219	0,018
-708,889	9,042	-0,040	-0,022
-707,875	129,215	-0,046	0,044
-706,860	378,385	-0,027	-0,041
-705,845	32,748	0,091	-0,058
-704,831	-183,309	-0,099	-0,001
-703,816	800,000	0,058	-0,132
-702,802	-132,242	-0,144	0,014
-701,787	569,505	-0,085	-0,154
-700,772	-138,877	-0,191	-0,015
-699,758	800,000	0,061	-0,151
-698,743	-153,624	0,151	0,008
-697,729	333,630	0,017	0,024
-696,714	55,980	-0,039	0,028
-695,699	-200,000	0,012	0,074
-694,685	751,605	0,064	-0,129
-693,670	-109,342	-0,163	0,025
-692,656	-200,000	0,020	0,092
-691,641	-200,000	0,011	0,094
-690,627	-200,000	0,002	0,030
-689,612	376,807	-0,029	0,045
-688,597	-64,266	-0,119	0,036
-687,583	568,385	-0,042	-0,077
-686,568	-57,909	-0,105	0,034
-685,554	121,071	0,031	-0,029
-684,539	-52,325	0,073	0,025
-683,524	677,095	0,046	-0,090
-682,510	14,074	0,118	0,068
-681,495	37,816	-0,155	-0,102
-680,481	-122,331	-0,099	0,012
-679,466	277,190	-0,067	-0,089
-678,451	-200,000	-0,026	0,093
-677,437	474,363	0,025	-0,042
-676,422	-4,120	-0,045	0,023
-675,408	30,567	0,061	-0,039
-674,393	24,737	0,062	-0,038
-673,378	37,734	-0,162	-0,107
-672,364	180,164	-0,030	-0,033
-671,349	-200,000	0,022	-0,110
-670,335	-132,372	0,104	-0,010
-669,320	203,857	0,091	0,105
-668,305	-16,526	0,109	0,051
-667,291	94,684	0,048	0,041
-666,276	34,566	0,021	-0,014
-665,262	76,088	-0,073	0,057
-664,247	800,000	-0,066	-0,149
-663,232	-200,000	0,004	0,015
-662,218	-200,000	-0,013	-0,088
-661,203	-102,863	-0,098	0,017
-660,189	-178,683	0,082	-0,001
-659,174	-53,552	-0,083	0,028
-658,159	-200,000	-0,023	-0,132
-657,145	-35,158	-0,118	-0,047
-656,130	62,916	0,075	0,055
-655,116	782,527	-0,066	0,135
-654,101	545,556	0,071	0,127
-653,086	291,269	0,044	0,060
-652,072	-119,469	-0,019	-0,002
-651,057	-129,255	-0,108	0,011
-650,043	175,098	0,041	-0,044
-649,028	244,289	0,030	-0,038
-648,014	215,950	-0,058	-0,069
-646,999	-6,342	-0,143	0,072
-645,984	-133,471	0,143	-0,013
-644,970	800,000	0,020	0,065
-643,955	-200,000	0,016	0,062
-642,941	-133,361	-0,124	0,011
-641,926	-117,805	0,015	-0,002
-640,911	537,032	0,059	0,105
-639,897	-34,155	0,050	0,020
-638,882	-200,000	-0,001	0,052
-637,868	-87,928	-0,049	0,011
-636,853	-200,000	-0,015	0,055
-635,838	336,744	-0,049	-0,070
-634,824	-200,000	0,007	-0,070
-633,809	-173,046	-0,061	-0,001
-632,795	82,276	-0,054	0,043
-631,780	-123,014	0,102	-0,012
-630,765	-77,788	-0,062	-0,016
-629,751	-200,000	-0,008	-0,147
-628,736	82,023	-0,022	-0,017
-627,722	-200,000	-0,003	0,151
-626,707	-200,000	0,014	0,052
-625,692	800,000	0,034	-0,083
-624,678	-18,354	-0,094	0,043
-623,663	304,084	-0,005	0,007
-622,649	13,665	-0,074	-0,042
-621,634	-17,085	-0,080	0,037
-620,619	-200,000	-0,000	-0,093
-619,605	-200,000	-0,001	-0,016
-618,590	63,809	0,045	0,034
-617,576	800,000	-0,035	-0,086
-616,561	-94,442	-0,028	0,006
-615,546	355,052	-0,036	0,054
-614,532	91,849	-0,087	-0,073
-613,517	-33,975	-0,127	0,051
-612,503	88,639	-0,063	-0,052
-611,488	-200,000	-0,003	0,070
-610,474	-200,000	-0,019	0,174
-609,459	800,000	-0,032	0,092
-608,444	-117,359	0,063	0,008
-607,430	54,191	-0,095	0,067
-606,415	-117,539	-0,082	-0,011
-605,401	-118,667	-0,127	0,016
-604,386	-200,000	-0,007	0,100
-603,371	-177,005	0,015	-0,000
-602,357	-104,478	0,036	-0,006
-601,342	268,664	-0,069	0,089
-600,328	169,328	0,057	-0,061
-599,313	-200,000	0,010	0,093
-598,298	-200,000	0,000	-0,083
-597,284	800,000	-0,008	-0,024
-596,269	-87,111	0,105	0,024
-595,255	-200,000	-0,006	-0,155
-594,240	238,058	0,076	-0,093
-593,225	-123,372	0,108	0,013
-592,211	-200,000	0,014	-0,122
-591,196	75,167	0,053	0,041
-590,182	324,389	0,068	0,097
-589,167	13,753	0,061	0,035
-588,152	-148,522	0,163	0,010
-587,138	-96,930	-0,124	0,024
-586,123	-200,000	-0,026	-0,151
-585,109	225,103	0,057	-0,069
-584,094	319,852	-0,028	-0,040
-583,079	66,644	0,205	0,154
-582,065	35,670	0,057	-0,037
-581,050	-101,339	-0,119	0,021
-580,036	-200,000	0,040	-0,135
-579,021	-200,000	0,006	-0,062
-578,006	800,000	-0,021	-0,063
-576,992	800,000	-0,008	0,018
-575,977	117,728	-0,095	-0,087
-574,963	-81,257	0,040	-0,010
-573,948	386,979	0,106	0,162
-572,934	48,062	-0,040	-0,028
-571,919	188,714	-0,002	0,002
-570,904	-78,294	-0,016	0,004
-569,890	800,000	0,019	-0,060
-568,875	-65,966	0,106	-0,031
-567,861	-71,414	0,043	0,012
-566,846	-200,000	-0,011	0,059
-565,831	23,239	0,075	-0,045
-564,817	-200,000	0,025	0,113
-563,802	800,000	-0,032	0,077
-562,788	254,213	-0,078	-0,098
-561,773	800,000	-0,020	0,061
-560,758	-6,286	0,064	0,032
-559,744	800,000	-0,048	-0,111
-558,729	165,805	-0,042	0,044
-557,715	800,000	-0,056	-0,121
-556,700	800,000	-0,024	0,056
-555,685	377,968	0,057	-0,087
-554,671	800,000	0,040	0,121
-553,656	244,231	-0,100	0,125
-552,642	-51,099	0,088	-0,030
-551,627	243,348	-0,040	0,050
-550,612	-126,394	0,074	0,008
-549,598	297,285	-0,039	-0,053
-548,583	-72,023	-0,043	-0,012
-547,569	-160,051	0,038	0,001
-546,554	231,238	0,092	-0,112
-545,539	194,632	0,017	-0,019
-544,525	-186,894	0,069	0,001
-543,510	48,330	0,069	0,048
-542,496	800,000	0,039	0,091
-541,481	-70,675	-0,070	0,019
-540,466	-46,316	0,062	0,022
-539,452	237,312	0,032	0,039
-538,437	249,030	0,015	0,019
-537,423	-200,000	-0,008	0,162
-536,408	35,237	-0,116	-0,075
-535,393	129,133	0,073	0,069
-534,379	-3,270	-0,080	0,041
-533,364	-116,161	-0,036	-0,005
-532,350	-46,393	0,040	0,014
-531,335	176,622	-0,041	0,044
-530,321	800,000	0,052	-0,124
-529,306	136,816	-0,037	-0,036
-528,291	-111,369	-0,094	0,014
-527,277	105,445	-0,048	-0,042
-526,262	-93,486	-0,106	-0,021
-525,248	130,970	0,047	0,045
-524,233	-29,818	0,023	0,010
-523,218	-200,000	0,012	-0,084
-522,204	800,000	0,015	-0,030
-521,189	-169,650	-0,129	-0,003
-520,175	-95,498	-0,057	0,011
-519,160	275,307	0,060	-0,078
-518,145	118,867	0,041	-0,037
-517,131	-200,000	0,030	-0,102
-516,116	779,361	0,038	-0,078
-515,102	-140,467	-0,043	0,003
-514,087	168,649	0,053	-0,056
-513,072	-4,659	-0,075	-0,038
-512,058	-200,000	0,008	0,043
-511,043	-113,622	0,022	0,003
-510,029	-26,082	0,060	0,026
-509,014	-52,812	0,128	0,043
-507,999	-28,487	0,030	0,013
-506,985	-89,495	-0,100	-0,022
-505,970	324,225	-0,051	-0,072
-504,956	-116,499	0,028	-0,004
-503,941	-154,122	0,076	0,004
-502,926	-200,000	-0,005	-0,035
-501,912	-43,592	-0,068	0,025
-500,897	-40,329	-0,048	0,018
-499,883	-31,280	-0,128	0,053
-498,868	-124,437	-0,044	-0,005
-497,853	-145,838	-0,213	0,014
-496,839	221,312	-0,026	-0,031
-495,824	161,172	0,025	0,026
-494,810	672,067	0,014	0,026
-493,795	-176,877	-0,033	-0,001
-492,781	-200,000	0,002	0,047
-491,766	122,451	0,023	0,021
-490,751	-15,674	-0,140	-0,065
-489,737	170,063	0,060	-0,064
-488,722	-37,219	0,059	0,023
-487,708	-42,522	-0,132	-0,049
-486,693	800,000	0,035	0,112
-485,678	-200,000	0,018	0,169
-484,664	149,540	0,044	-0,044
-483,649	800,000	0,018	0,054
-482,635	-93,486	0,064	0,013
-481,620	104,251	-0,069	0,059
-480,605	260,153	-0,068	0,087
-479,591	11,370	-0,146	-0,082
-478,576	-67,036	-0,199	0,057
-477,562	-200,000	0,006	-0,075
-476,547	800,000	-0,065	-0,141
-475,532	-76,198	0,160	0,041
-474,518	-2,300	0,054	-0,028
-473,503	41,831	0,017	0,011
-472,489	-200,000	-0,004	0,184
-471,474	-200,000	-0,002	-0,016
-470,459	58,804	-0,113	0,081
-469,445	172,845	0,072	-0,076
-468,430	-155,927	0,109	-0,005
-467,416	800,000	-0,038	0,095
-466,401	-128,723	0,124	-0,013
-465,386	-27,151	0,210	0,090
-464,372	800,000	0,017	-0,041
-463,357	544,192	-0,037	-0,066
-462,343	-103,926	-0,172	0,029
-461,328	28,635	-0,086	-0,053
-460,313	150,934	-0,140	0,140
-459,299	602,506	0,078	-0,143
-458,284	-87,326	-0,115	-0,026
-457,270	4,480	-0,098	-0,053
-456,255	-200,000	-0,046	-0,159
-455,241	17,687	-0,077	-0,045
-454,226	800,000	-0,067	0,161
-453,211	-200,000	0,009	0,060
-452,197	-73,445	0,060	0,016
-451,182	-137,069	-0,049	-0,004
-450,168	-141,216	0,096	0,007
-449,153	-8,296	-0,052	0,026
-448,138	-51,317	0,077	-0,026
-447,124	166,411	-0,065	0,068
-446,109	-104,953	0,118	-0,020
-445,095	-82,084	0,100	0,024
-444,080	-154,883	0,151	0,007
-443,065	473,236	0,062	0,103
-442,051	80,090	0,055	-0,044
-441,036	182,256	0,012	-0,013
-440,022	-109,795	-0,045	-0,007
-439,007	-28,204	-0,045	-0,019
-437,992	-200,000	-0,013	0,089
-436,978	60,157	-0,013	-0,009
-435,963	153,521	0,033	-0,033
-434,949	-178,963	-0,003	0,000
-433,934	-200,000	0,003	-0,022
-432,919	-200,000	0,025	-0,124
-431,905	-82,395	-0,066	-0,016
-430,890	-25,270	0,170	0,074
-429,876	266,896	-0,085	-0,110
-428,861	-200,000	0,005	0,073
-427,846	90,005	-0,095	0,078
-426,832	15,816	-0,066	0,038
-425,817	299,522	-0,115	-0,156
-424,803	264,741	-0,006	0,008
-423,788	191,147	-0,072	-0,080
-422,773	275,570	0,048	0,062
-421,759	-200,000	-0,004	0,074
-420,744	-200,000	0,014	0,069
-419,730	-200,000	0,010	-0,148
-418,715	-200,000	0,003	-0,119
-417,701	23,830	-0,050	-0,030
-416,686	-93,860	0,068	0,014
-415,671	164,989	0,038	-0,039
-414,657	800,000	-0,026	0,054
-413,642	93,798	0,083	0,069
-412,628	800,000	-0,003	-0,009
-411,613	800,000	0,099	-0,254
-410,598	-200,000	-0,031	-0,102
-409,584	800,000	-0,064	-0,162
-408,569	68,291	0,045	0,034
-407,555	-200,000	0,006	0,103
-406,540	-36,290	0,076	-0,030
-405,525	27,932	0,106	-0,065
-404,511	-59,223	-0,130	0,041
-403,496	-200,000	0,002	0,098
-402,482	-93,673	-0,066	-0,013
-401,467	-28,817	0,109	-0,046
-400,452	800,000	-0,046	-0,131
-399,438	800,000	-0,026	0,078
-398,423	44,374	0,100	-0,067
-397,409	-67,920	0,073	-0,021
-396,394	800,000	-0,043	-0,114
-395,379	32,794	-0,101	0,064
-394,365	-122,613	-0,160	0,019
-393,350	-38,984	0,134	-0,052
-392,336	-75,515	0,016	0,004
-391,321	-200,000	0,006	0,113
-390,306	38,032	0,072	0,047
-389,292	-151,812	0,082	-0,004
-388,277	800,000	0,039	-0,118
-387,263	-103,272	0,110	-0,019
-386,248	35,178	-0,054	-0,034
-385,233	223,798	-0,023	0,028
-384,219	483,851	0,058	-0,097
-383,204	-135,028	-0,044	-0,004
-382,190	13,949	0,142	-0,081
-381,175	-200,000	-0,012	-0,100
-380,160	-200,000	0,054	-0,185
-379,146	-137,448	0,077	-0,006
-378,131	371,144	-0,053	0,079
-377,117	800,000	-0,028	0,064
-376,102	-29,946	0,163	-0,068
-375,088	-52,006	-0,182	-0,062
-374,073	-200,000	0,005	0,162
-373,058	71,844	0,094	0,071
-372,044	93,394	0,037	0,031
-371,029	-123,174	-0,042	-0,005
-370,015	-70,757	0,054	0,015
-369,000	335,252	-0,085	-0,121
-367,985	126,679	-0,080	-0,074
-366,971	-27,933	0,038	0,016
-365,956	324,563	0,080	-0,113
-364,942	-84,860	0,055	0,013
-363,927	114,165	-0,039	-0,035
-362,912	-200,000	-0,004	0,075
-361,898	-55,058	0,074	0,024
-360,883	-101,209	-0,138	-0,025
-359,869	-158,193	-0,150	0,006
-358,854	-89,136	0,163	-0,035
-357,839	-69,098	0,023	-0,007
-356,825	173,945	-0,013	-0,014
-355,810	115,769	-0,076	0,068
-354,796	-200,000	-0,004	-0,069
-353,781	-79,346	-0,092	-0,023
-352,766	-200,000	0,014	-0,077
-351,752	800,000	0,030	0,073
-350,737	-200,000	-0,012	-0,067
-349,723	176,922	0,064	-0,068
-348,708	-200,000	0,001	0,081
-347,693	171,589	0,044	-0,046
-346,679	236,611	-0,064	-0,077
-345,664	-200,000	-0,022	-0,107
-344,650	-127,306	0,104	0,011
-343,635	73,611	-0,072	-0,055
-342,620	393,777	0,074	0,114
-341,606	117,729	0,106	0,095
-340,591	433,665	0,022	0,036
-339,577	224,081	-0,009	-0,010
-338,562	-82,333	-0,051	-0,012
-337,548	-79,456	0,060	-0,015
-336,533	-200,000	0,033	0,128
-335,518	-200,000	-0,004	0,176
-334,504	-65,132	-0,129	-0,038
-333,489	800,000	-0,056	-0,120
-332,475	88,472	-0,052	0,043
-331,460	22,573	-0,099	-0,059
-330,445	174,219	-0,084	-0,089
-329,431	38,516	0,077	0,050
-328,416	-110,962	0,102	0,015
-327,402	800,000	0,033	0,077
-326,387	-153,339	-0,037	-0,002
-325,372	-200,000	0,001	0,051
-324,358	-200,000	0,005	-0,067
-323,343	549,123	-0,066	0,116
-322,329	-111,723	0,137	0,020
-321,314	12,497	0,084	0,047
-320,299	800,000	0,050	0,119
-319,285	-23,117	0,102	-0,045
-318,270	-200,000	-0,014	-0,072
-317,256	-35,476	-0,149	-0,059
-316,241	-20,198	-0,144	0,064
-315,226	48,953	0,078	0,053
-314,212	-199,719	0,217	-0,001
-313,197	-42,066	-0,056	-0,021
-312,183	0,290	-0,152	0,079
-311,168	-29,071	-0,072	0,030
-310,153	-200,000	-0,028	-0,097
-309,139	392,288	-0,070	-0,107
-308,124	335,727	-0,019	-0,027
-307,110	423,477	0,039	-0,062
-306,095	204,327	0,035	-0,039
-305,080	800,000	0,052	0,110
-304,066	-0,451	0,125	0,065
-303,051	-200,000	0,019	-0,090
-302,037	800,000	0,034	-0,070
-301,022	-117,159	0,033	0,004
-300,008	800,000	-0,057	-0,143
-298,993	-200,000	-0,026	0,107
-297,978	-127,139	0,062	0,007
-296,964	800,000	-0,034	-0,071
-295,949	-134,142	0,098	0,009
-294,935	-200,000	-0,025	-0,112
-293,920	-140,417	0,085	0,006
-292,905	205,629	-0,063	0,071
-291,891	-147,510	-0,073	0,004
-290,876	-200,000	0,005	-0,076
-289,862	800,000	-0,072	-0,149
-288,847	-200,000	0,027	0,107
-287,832	-65,346	0,134	-0,039
-286,818	36,487	-0,050	-0,032
-285,803	95,930	0,028	0,024
-284,789	-200,000	-0,008	-0,146
-283,774	-45,025	0,104	-0,038
-282,759	800,000	0,019	-0,039
-281,745	263,377	-0,048	-0,061
-280,730	305,988	0,020	0,028
-279,716	87,724	-0,080	0,064
-278,701	-76,339	-0,060	-0,015
-277,686	-200,000	0,021	0,092
-276,672	800,000	-0,036	0,074
-275,657	107,081	-0,093	-0,080
-274,643	-149,678	-0,160	-0,009
-273,628	567,297	0,063	0,111
-272,613	8,648	0,118	0,065
-271,599	800,000	-0,017	-0,038
-270,584	-200,000	0,005	0,066
-269,570	-35,845	0,100	-0,039
-268,555	-200,000	0,023	0,122
-267,540	55,154	-0,052	0,037
-266,526	274,809	-0,065	-0,084
-265,511	91,720	0,103	0,085
-264,497	600,442	0,071	-0,130
-263,482	-7,200	-0,034	0,017
-262,467	-133,247	-0,086	0,008
-261,453	-72,085	-0,027	0,007
-260,438	-17,691	-0,174	0,079
-259,424	-200,000	0,003	0,091
-258,409	151,127	-0,119	0,118
-257,395	800,000	0,079	-0,190
-256,380	-62,230	-0,117	0,035
-255,365	619,847	0,043	0,079
-254,351	-37,685	0,108	-0,042
-253,336	-69,657	-0,029	-0,008
-252,322	399,818	-0,089	-0,136
-251,307	800,000	-0,059	0,143
-250,292	800,000	0,079	0,184
-249,278	-11,691	-0,134	0,064
-248,263	800,000	0,064	0,165
-247,249	399,551	0,036	0,055
-246,234	-163,662	0,021	-0,001
-245,219	482,404	0,024	0,039
-244,205	574,836	-0,072	0,128
-243,190	66,710	0,129	0,096
-242,176	312,416	0,155	-0,213
-241,161	380,690	-0,106	-0,159
-240,146	535,849	0,024	-0,042
-239,132	-200,000	0,008	0,048
-238,117	800,000	-0,026	-0,068
-237,103	511,838	-0,069	-0,118
-236,088	195,634	0,024	-0,027
-235,073	800,000	0,037	0,100
-234,059	-200,000	0,012	0,039
-233,044	-69,949	0,149	0,041
-232,030	800,000	-0,034	0,082
-231,015	-200,000	-0,001	-0,029
-230,000	-200,000	-0,000	0,027
-228,986	621,550	0,026	0,047
-227,971	67,764	0,047	0,035
-226,957	-15,255	-0,069	0,032
-225,942	-6,335	0,112	0,056
-224,927	-200,000	0,004	-0,036
-223,913	-200,000	0,002	-0,103
-222,898	-67,132	-0,097	-0,028
-221,884	-4,285	-0,024	0,012
-220,869	32,452	-0,108	0,068
-219,855	245,419	0,080	0,098
-218,840	-200,000	-0,005	-0,056
-217,825	96,024	-0,043	-0,035
-216,811	163,443	-0,083	-0,085
-215,796	358,946	-0,160	-0,233
-214,782	-200,000	0,028	-0,111
-213,767	-67,669	0,126	0,036
-212,752	-67,036	0,087	-0,025
-211,738	-79,204	0,089	-0,022
-210,723	-200,000	-0,011	0,119
-209,709	-200,000	-0,017	0,061
-208,694	516,722	0,102	0,173
-207,679	-200,000	-0,012	-0,076
-206,665	180,854	0,054	-0,057
-205,650	87,018	0,080	-0,064
-204,636	-59,071	-0,049	0,015
-203,621	-151,683	0,077	-0,004
-202,606	-95,432	0,056	0,011
-201,592	315,035	0,021	0,029
-200,577	284,576	-0,057	-0,075
-199,563	137,919	0,106	-0,101
-198,548	-200,000	0,015	0,105
-197,533	330,925	-0,070	0,098
-196,519	-97,044	-0,119	0,023
-195,504	-95,349	-0,092	0,018
-194,490	-92,310	-0,099	-0,020
-193,475	-200,000	-0,006	0,021
-192,460	-64,318	0,016	0,005
-191,446	-132,520	0,099	0,009
-190,431	-78,358	0,062	-0,015
-189,417	395,521	0,009	0,014
-188,402	-104,451	-0,168	0,028
-187,387	-200,000	0,016	-0,150
-186,373	-200,000	0,014	-0,147
-185,358	433,697	0,033	-0,052
-184,344	-20,046	0,083	0,037
-183,329	-18,470	-0,094	-0,042
-182,315	0,388	0,155	0,080
-181,300	-117,182	0,052	-0,007
-180,285	-161,264	-0,107	0,004
-179,271	-200,000	-0,007	-0,071
-178,256	-37,206	0,034	0,013
-177,242	277,819	0,078	0,101
-176,227	-95,649	0,147	0,028
-175,212	52,134	-0,045	0,031
-174,198	477,278	0,011	-0,019
-173,183	764,067	-0,028	0,055
-172,169	-83,888	-0,243	-0,056
-171,154	96,078	0,075	0,062
-170,139	489,041	0,085	0,142
-169,125	8,545	-0,093	0,051
-168,110	800,000	0,015	0,030
-167,096	-198,091	0,011	0,000
-166,081	-200,000	-0,007	0,135
-165,066	800,000	-0,064	-0,173
-164,052	-200,000	0,019	-0,089
-163,037	-119,021	0,116	-0,015
-162,023	800,000	0,024	-0,054
-161,008	-200,000	-0,026	0,133
-159,993	800,000	-0,032	0,099
-158,979	67,188	-0,063	-0,047
-157,964	-127,302	0,120	-0,013
-156,950	-200,000	-0,012	-0,160
-155,935	22,223	-0,105	0,062
-154,920	-200,000	0,004	0,176
-153,906	92,239	0,098	0,080
-152,891	-200,000	0,015	0,178
-151,877	800,000	-0,061	-0,143
-150,862	-112,565	0,129	0,019
-149,847	-121,232	0,062	0,007
-148,833	87,791	0,051	0,041
-147,818	-200,000	-0,020	-0,103
-146,804	-80,643	0,092	0,022
-145,789	-200,000	0,011	0,139
-144,775	66,309	-0,031	-0,023
-143,760	-58,959	-0,019	-0,006
-142,745	311,102	0,029	0,039
-141,731	-200,000	0,006	-0,074
-140,716	7,820	0,097	0,053
-139,702	-200,000	-0,004	0,191
-138,687	211,960	0,104	0,120
-137,672	-138,572	-0,134	-0,010
-136,658	-95,632	-0,070	-0,013
-135,643	-76,179	0,068	-0,017
-134,629	-200,000	-0,010	0,052
-133,614	89,565	0,109	0,088
-132,599	-23,195	0,066	0,029
-131,585	52,167	-0,117	0,081
-130,570	19,966	0,091	-0,053
-129,556	128,984	0,110	-0,102
-128,541	-200,000	-0,032	0,172
-127,526	-200,000	-0,011	0,100
-126,512	-29,742	-0,040	0,016
-125,497	-167,807	-0,070	-0,002
-124,483	-51,377	0,073	-0,025
-123,468	-18,736	0,111	-0,050
-122,453	800,000	-0,010	-0,028
-121,439	126,106	-0,048	-0,044
-120,424	564,373	0,055	0,097
-119,410	-200,000	0,024	0,135
-118,395	125,947	0,013	-0,012
