DTS Sentinel unit serial number:	SN410029Multiplexer serial number:	ORYXHardware model number:	OX2-SRSoftware version number:	ORYX F/W v4,00 Oryx Data Collector v3.7.2.0data status	okinstallation	B6 Nyhavnadifferential loss correction	single-endedforward channel	channel 2reverse channel	N/Adate	2023/12/08time	05:10:08forward acquisition time	300,00reverse acquisition time	0,00gamma	499,1914k internal	0,3165k external	0,3165temperature offset calibration	1,0000default loss term (dB/km)	0,3820temperature slope calibration	1,0000multiplexer offset coefficient	1,0000multiplexer slope coefficient	1,0000fibre end	0,00T internal ref (°C)	13,04T ext. ref 1 (°C)	-3,83T ext. ref 2 (°C)	-3,83length (m)	temperature (°C)	Stokes	anti-Stokes-744,400	-94,177	0,177	-0,035
-743,385	-102,562	-0,324	-0,056
-742,371	-69,446	0,155	-0,043
-741,356	-98,495	-0,377	-0,070
-740,342	96,166	0,106	0,089
-739,327	-135,515	-0,361	-0,031
-738,312	447,682	-0,018	-0,029
-737,298	-89,074	-0,306	0,066
-736,283	200,002	0,160	0,181
-735,269	-128,832	-0,196	-0,020
-734,254	-200,000	0,016	0,168
-733,239	-64,192	-0,497	-0,148
-732,225	168,479	0,215	0,225
-731,210	-200,000	-0,041	0,145
-730,196	-200,000	0,011	-0,047
-729,181	-200,000	-0,030	-0,178
-728,167	-23,139	0,092	0,041
-727,152	-42,114	0,158	-0,059
-726,137	-169,875	-0,093	0,002
-725,123	775,082	-0,042	-0,085
-724,108	536,487	-0,069	-0,122
-723,094	800,000	-0,023	-0,066
-722,079	66,305	-0,073	-0,054
-721,064	-200,000	0,003	0,029
-720,050	-200,000	-0,034	-0,112
-719,035	-200,000	-0,007	0,046
-718,021	280,624	-0,028	0,037
-717,006	205,034	-0,130	-0,148
-715,991	-75,924	-0,132	0,034
-714,977	-200,000	-0,035	-0,222
-713,962	800,000	0,041	0,084
-712,948	8,599	-0,148	-0,082
-711,933	-113,076	-0,059	-0,008
-710,918	-73,636	0,037	0,010
-709,904	800,000	-0,002	-0,007
-708,889	800,000	-0,054	-0,137
-707,875	-200,000	0,018	-0,159
-706,860	-123,308	0,049	-0,006
-705,845	-200,000	-0,015	0,049
-704,831	129,606	-0,036	-0,034
-703,816	122,044	-0,093	0,085
-702,802	-200,000	0,039	-0,129
-701,787	116,488	-0,159	-0,143
-700,772	-113,327	0,013	-0,002
-699,758	-200,000	-0,037	-0,153
-698,743	-163,165	0,178	0,006
-697,729	248,860	-0,091	0,114
-696,714	676,949	0,061	-0,117
-695,699	800,000	-0,028	0,076
-694,685	187,938	-0,057	-0,062
-693,670	92,611	-0,048	-0,040
-692,656	0,406	-0,065	-0,034
-691,641	22,662	-0,061	0,037
-690,627	-200,000	-0,014	0,087
-689,612	49,692	-0,038	0,026
-688,597	366,499	-0,043	0,064
-687,583	784,263	-0,017	-0,035
-686,568	790,195	0,122	-0,248
-685,554	-32,720	-0,085	-0,034
-684,539	800,000	0,068	0,141
-683,524	-200,000	-0,005	-0,137
-682,510	440,639	-0,075	0,120
-681,495	-12,810	0,079	0,038
-680,481	167,941	0,016	0,016
-679,466	-87,754	-0,092	0,020
-678,451	324,656	-0,058	0,082
-677,437	-198,363	0,110	0,000
-676,422	112,923	-0,125	0,111
-675,408	13,093	-0,146	0,082
-674,393	-81,246	-0,061	0,015
-673,378	-134,976	-0,115	-0,010
-672,364	271,780	-0,038	-0,049
-671,349	167,279	-0,054	0,057
-670,335	48,084	0,095	0,065
-669,320	-1,375	0,126	0,065
-668,305	35,069	-0,122	0,078
-667,291	-158,066	0,080	0,003
-666,276	-86,620	-0,116	0,026
-665,262	241,206	-0,066	-0,081
-664,247	-75,094	-0,050	-0,013
-663,232	-127,002	0,045	-0,005
-662,218	-200,000	-0,005	0,183
-661,203	58,372	0,051	0,037
-660,189	360,639	-0,091	0,133
-659,174	-37,463	-0,100	0,039
-658,159	-55,378	0,039	-0,013
-657,145	112,795	-0,086	-0,076
-656,130	565,699	0,023	0,040
-655,116	2,331	0,172	0,091
-654,101	-86,751	0,157	-0,035
-653,086	-200,000	-0,003	-0,087
-652,072	-87,127	0,079	0,017
-651,057	800,000	-0,006	-0,017
-650,043	447,579	-0,041	-0,066
-649,028	200,959	-0,090	-0,101
-648,014	-200,000	0,011	-0,051
-646,999	284,179	-0,004	-0,005
-645,984	-92,596	0,079	0,016
-644,970	-200,000	0,003	-0,044
-643,955	-71,487	-0,020	-0,005
-642,941	151,785	0,015	0,015
-641,926	-56,009	-0,135	-0,044
-640,911	322,572	0,084	0,118
-639,897	-22,362	-0,094	0,042
-638,882	800,000	0,009	0,020
-637,868	147,160	0,052	-0,051
-636,853	332,824	-0,062	-0,087
-635,838	-177,769	0,038	0,001
-634,824	225,204	0,032	-0,038
-633,809	-95,068	0,032	-0,006
-632,795	24,373	0,055	0,033
-631,780	239,681	0,063	0,077
-630,765	393,645	-0,049	-0,075
-629,751	800,000	0,022	-0,060
-628,736	-200,000	0,020	-0,103
-627,722	-18,510	0,139	-0,063
-626,707	-101,622	0,095	0,017
-625,692	367,165	-0,092	0,137
-624,678	-36,693	-0,160	-0,063
-623,663	23,149	0,016	0,010
-622,649	-94,465	0,122	0,024
-621,634	152,586	-0,094	-0,094
-620,619	47,384	0,106	-0,072
-619,605	160,450	0,032	0,033
-618,590	157,116	0,133	0,135
-617,576	-141,761	0,019	-0,001
-616,561	-200,000	-0,016	0,082
-615,546	206,574	-0,054	-0,061
-614,532	-200,000	-0,013	-0,046
-613,517	101,944	-0,088	-0,075
-612,503	-200,000	0,040	-0,131
-611,488	463,751	0,080	-0,131
-610,474	27,610	-0,025	0,015
-609,459	32,714	-0,037	-0,023
-608,444	800,000	-0,051	0,121
-607,430	-200,000	-0,002	-0,030
-606,415	-115,464	-0,161	-0,022
-605,401	358,454	-0,065	-0,095
-604,386	-200,000	-0,043	0,161
-603,371	-98,545	-0,036	-0,007
-602,357	142,971	-0,096	-0,093
-601,342	558,521	-0,062	0,110
-600,328	-74,660	-0,052	-0,014
-599,313	-78,029	0,064	-0,016
-598,298	800,000	0,024	-0,060
-597,284	-10,852	0,060	-0,029
-596,269	-54,216	-0,038	0,013
-595,255	-200,000	0,023	0,119
-594,240	-20,571	-0,222	0,099
-593,225	800,000	0,021	-0,052
-592,211	-200,000	-0,038	-0,153
-591,196	112,658	0,034	-0,030
-590,182	12,728	-0,054	0,030
-589,167	203,939	0,152	0,173
-588,152	511,690	-0,025	-0,042
-587,138	493,147	-0,056	-0,094
-586,123	251,593	-0,010	-0,013
-585,109	59,905	0,078	0,056
-584,094	-5,794	-0,048	-0,024
-583,079	572,494	-0,034	0,061
-582,065	-62,026	-0,111	-0,034
-581,050	91,531	-0,126	0,103
-580,036	-89,767	-0,061	0,013
-579,021	-52,608	-0,079	0,026
-578,006	188,536	-0,041	-0,045
-576,992	800,000	0,021	0,046
-575,977	-190,437	-0,086	0,001
-574,963	384,160	0,064	0,097
-573,948	-46,280	0,023	-0,008
-572,934	-200,000	0,006	0,068
-571,919	88,560	-0,065	-0,052
-570,904	-200,000	0,015	-0,133
-569,890	57,492	-0,095	-0,068
-568,875	-61,522	0,126	0,038
-567,861	-10,142	0,029	0,014
-566,846	-200,000	0,006	-0,031
-565,831	-64,260	-0,078	0,023
-564,817	390,624	-0,044	-0,067
-563,802	-103,167	-0,100	-0,017
-562,788	48,150	-0,077	0,052
-561,773	136,663	0,084	0,080
-560,758	235,343	0,030	-0,036
-559,744	103,007	-0,116	-0,099
-558,729	-122,247	-0,177	-0,021
-557,715	-200,000	0,012	-0,116
-556,700	-67,643	-0,031	0,009
-555,685	149,982	0,017	-0,017
-554,671	-200,000	0,008	0,051
-553,656	800,000	-0,040	-0,111
-552,642	-200,000	-0,026	0,108
-551,627	-200,000	-0,005	0,133
-550,612	-51,781	0,048	-0,016
-549,598	-146,591	-0,085	-0,005
-548,583	120,824	0,114	0,104
-547,569	800,000	-0,060	0,143
-546,554	-200,000	-0,005	-0,063
-545,539	-4,657	0,081	0,041
-544,525	-200,000	-0,019	0,080
-543,510	492,693	-0,037	0,062
-542,496	30,603	0,027	0,017
-541,481	47,619	-0,056	-0,038
-540,466	-92,385	0,180	-0,037
-539,452	-75,524	0,040	0,010
-538,437	-117,047	-0,104	-0,014
-537,423	-9,763	0,102	0,049
-536,408	800,000	-0,047	-0,129
-535,393	218,628	0,068	-0,079
-534,379	114,456	-0,103	-0,092
-533,364	-163,761	-0,084	0,003
-532,350	-75,332	0,017	-0,004
-531,335	611,408	0,066	0,120
-530,321	-85,744	0,144	0,032
-529,306	151,883	-0,128	-0,127
-528,291	288,555	0,006	-0,008
-527,277	-200,000	-0,016	-0,103
-526,262	800,000	0,062	-0,159
-525,248	-200,000	0,006	-0,044
-524,233	-200,000	-0,043	0,214
-523,218	277,403	0,047	0,062
-522,204	-200,000	-0,003	-0,117
-521,189	-1,820	-0,050	0,026
-520,175	-14,182	0,066	-0,031
-519,160	87,405	-0,088	-0,071
-518,145	124,827	0,071	0,065
-517,131	800,000	-0,012	-0,033
-516,116	19,863	0,103	0,060
-515,102	-12,883	0,041	-0,019
-514,087	-200,000	0,034	0,165
-513,072	-200,000	-0,022	-0,230
-512,058	-100,700	-0,170	-0,030
-511,043	-11,346	0,123	0,059
-510,029	-32,576	0,012	0,005
-509,014	663,123	-0,100	0,188
-507,999	-129,688	-0,133	-0,013
-506,985	-174,407	0,111	0,002
-505,970	78,310	-0,042	0,033
-504,956	-136,805	0,043	-0,004
-503,941	176,492	0,064	-0,067
-502,926	32,758	-0,013	-0,008
-501,912	-200,000	-0,005	-0,027
-500,897	-54,577	0,056	-0,018
-499,883	-39,944	-0,106	0,040
-498,868	-200,000	-0,033	0,117
-497,853	221,701	0,073	-0,086
-496,839	211,419	-0,024	0,028
-495,824	243,753	0,118	0,144
-494,810	110,343	0,056	-0,049
-493,795	50,136	-0,062	0,043
-492,781	244,040	0,029	0,035
-491,766	-2,361	-0,077	0,039
-490,751	-131,845	0,136	0,013
-489,737	323,142	-0,047	-0,066
-488,722	-2,691	0,140	0,071
-487,708	-5,611	0,084	-0,042
-486,693	263,979	0,012	0,015
-485,678	-200,000	-0,008	0,090
-484,664	419,759	-0,059	-0,093
-483,649	455,780	0,029	-0,047
-482,635	192,076	-0,039	-0,043
-481,620	-200,000	-0,021	0,088
-480,605	103,333	-0,049	-0,042
-479,591	800,000	-0,067	-0,190
-478,576	-10,849	-0,042	-0,020
-477,562	120,084	-0,065	-0,059
-476,547	-200,000	0,029	-0,110
-475,532	188,018	0,048	0,052
-474,518	225,339	0,111	0,131
-473,503	112,761	-0,094	0,083
-472,489	-200,000	-0,004	0,049
-471,474	-52,350	0,079	0,026
-470,459	186,399	-0,109	-0,118
-469,445	-200,000	-0,019	-0,108
-468,430	-116,121	-0,076	-0,010
-467,416	203,503	-0,081	-0,091
-466,401	138,186	-0,018	0,017
-465,386	38,963	0,097	0,063
-464,372	-200,000	-0,036	-0,163
-463,357	800,000	-0,028	0,062
-462,343	585,047	0,015	-0,026
-461,328	-77,488	0,123	-0,031
-460,313	-200,000	0,026	0,092
-459,299	125,965	0,041	0,038
-458,284	-150,149	0,123	0,007
-457,270	-200,000	0,010	-0,095
-456,255	-68,784	-0,112	-0,031
-455,241	191,840	-0,030	0,032
-454,226	-200,000	0,004	-0,048
-453,211	-74,243	-0,050	-0,013
-452,197	-22,758	0,105	-0,046
-451,182	-200,000	0,014	-0,093
-450,168	10,819	-0,008	0,004
-449,153	-200,000	0,011	-0,132
-448,138	-200,000	-0,001	-0,029
-447,124	52,578	0,031	-0,021
-446,109	-95,840	0,157	0,030
-445,095	-124,210	-0,121	0,014
-444,080	-23,747	0,001	0,000
-443,065	11,371	-0,104	-0,058
-442,051	800,000	0,053	-0,124
-441,036	-200,000	-0,009	-0,129
-440,022	-34,050	-0,056	0,022
-439,007	611,259	0,072	-0,132
-437,992	-8,514	0,165	0,080
-436,978	118,995	0,135	0,121
-435,963	272,226	-0,025	-0,033
-434,949	256,092	-0,055	-0,069
-433,934	-200,000	-0,003	-0,049
-432,919	100,401	-0,021	0,018
-431,905	447,437	0,014	-0,023
-430,890	-200,000	0,013	0,074
-429,876	-109,630	-0,126	0,019
-428,861	-37,666	0,197	0,076
-427,846	439,867	-0,024	0,038
-426,832	-21,241	-0,153	-0,067
-425,817	-114,307	-0,146	0,020
-424,803	71,252	-0,119	0,090
-423,788	-200,000	0,016	-0,154
-422,773	358,591	0,069	0,101
-421,759	800,000	0,018	0,054
-420,744	13,525	0,094	-0,053
-419,730	-40,770	0,017	-0,006
-418,715	-48,966	-0,052	-0,018
-417,701	13,972	0,147	-0,083
-416,686	-2,521	0,104	-0,053
-415,671	202,993	0,090	-0,102
-414,657	-200,000	0,027	0,125
-413,642	-15,968	0,042	0,019
-412,628	497,519	-0,075	0,126
-411,613	254,697	-0,040	-0,049
-410,598	192,033	0,067	-0,073
-409,584	408,760	0,092	0,141
-408,569	-146,360	0,060	-0,004
-407,555	161,731	0,082	0,083
-406,540	335,225	0,083	0,117
-405,525	301,924	0,049	0,066
-404,511	800,000	0,038	-0,109
-403,496	269,462	0,119	0,152
-402,482	800,000	-0,046	-0,136
-401,467	-200,000	0,013	0,062
-400,452	5,023	0,096	0,051
-399,438	682,694	-0,047	0,089
-398,423	-36,341	-0,139	-0,054
-397,409	-200,000	-0,009	0,037
-396,394	-102,967	-0,174	0,030
-395,379	-24,357	0,078	-0,034
-394,365	-5,328	0,145	-0,072
-393,350	691,987	-0,020	0,037
-392,336	173,876	-0,050	0,053
-391,321	289,851	0,049	0,065
-390,306	189,791	-0,114	-0,124
-389,292	74,838	-0,094	-0,072
-388,277	622,609	0,020	0,036
-387,263	328,631	0,053	0,074
-386,248	-59,310	0,184	0,057
-385,233	800,000	-0,048	-0,099
-384,219	-150,603	0,125	0,007
-383,204	155,875	-0,054	-0,054
-382,190	224,063	-0,015	-0,018
-381,175	378,599	0,047	-0,071
-380,160	274,569	-0,021	-0,027
-379,146	-107,950	0,014	-0,002
-378,131	-161,099	-0,044	0,002
-377,117	296,888	0,075	0,100
-376,102	-200,000	0,006	-0,042
-375,088	-200,000	-0,020	0,123
-374,073	379,333	0,049	0,072
-373,058	496,295	-0,050	0,084
-372,044	48,790	-0,029	-0,020
-371,029	-86,550	-0,147	0,032
-370,015	-140,272	0,094	0,007
-369,000	800,000	-0,035	-0,091
-367,985	800,000	0,050	0,138
-366,971	76,632	-0,068	0,052
-365,956	-200,000	0,015	-0,110
-364,942	-140,765	-0,028	-0,002
-363,927	69,995	0,084	0,063
-362,912	-127,356	0,161	0,017
-361,898	-200,000	-0,027	0,116
-360,883	511,675	0,034	-0,057
-359,869	-33,386	-0,141	0,056
-358,854	-200,000	-0,020	-0,077
-357,839	68,957	-0,044	-0,033
-356,825	-90,554	0,023	0,005
-355,810	409,850	0,074	-0,114
-354,796	-17,908	0,065	-0,030
-353,781	-95,150	-0,128	-0,025
-352,766	-200,000	-0,027	0,094
-351,752	448,075	0,032	-0,052
-350,737	307,822	0,116	0,157
-349,723	800,000	0,070	-0,204
-348,708	-130,186	-0,103	0,010
-347,693	263,482	-0,051	-0,065
-346,679	-200,000	-0,010	-0,139
-345,664	800,000	-0,020	-0,050
-344,650	-200,000	-0,003	-0,069
-343,635	800,000	0,067	0,162
-342,620	-200,000	0,003	0,075
-341,606	313,494	0,035	0,048
-340,591	-200,000	-0,025	-0,086
-339,577	199,532	-0,053	-0,059
-338,562	-200,000	0,005	-0,134
-337,548	800,000	-0,034	0,074
-336,533	53,143	0,076	-0,053
-335,518	-85,834	0,241	0,054
-334,504	-200,000	0,001	-0,026
-333,489	25,274	0,053	-0,032
-332,475	800,000	-0,024	-0,051
-331,460	800,000	-0,018	-0,042
-330,445	-8,119	0,102	-0,049
-329,431	-200,000	0,042	0,000
-328,416	-200,000	-0,007	0,099
-327,402	729,695	-0,041	0,079
-326,387	-200,000	0,031	0,172
-325,372	-200,000	-0,011	0,058
-324,358	800,000	-0,028	0,060
-323,343	800,000	-0,052	-0,124
-322,329	-200,000	-0,011	-0,059
-321,314	-149,686	-0,052	-0,003
-320,299	-200,000	0,015	-0,067
-319,285	162,466	0,150	0,153
-318,270	131,181	-0,015	-0,014
-317,256	658,966	0,081	-0,152
-316,241	-200,000	-0,004	0,062
-315,226	260,397	-0,048	0,060
-314,212	195,484	0,028	0,031
-313,197	562,098	0,050	0,088
-312,183	-190,867	-0,075	0,001
-311,168	782,052	0,085	-0,169
-310,153	-200,000	-0,027	-0,119
-309,139	133,232	-0,036	-0,033
-308,124	150,809	-0,128	0,126
-307,110	-192,772	0,153	0,001
-306,095	67,969	0,090	0,067
-305,080	-47,956	-0,169	-0,059
-304,066	-120,251	0,106	0,013
-303,051	-200,000	-0,019	0,103
-302,037	188,874	-0,047	-0,051
-301,022	190,497	0,072	-0,078
-300,008	-200,000	0,007	-0,027
-298,993	484,110	0,049	0,081
-297,978	-200,000	0,007	-0,092
-296,964	170,357	-0,084	-0,087
-295,949	-60,812	-0,121	0,037
-294,935	118,367	0,025	-0,022
-293,920	-122,473	-0,163	-0,019
-292,905	-200,000	0,011	0,076
-291,891	800,000	0,034	0,102
-290,876	-75,928	0,019	0,005
-289,862	-108,302	0,137	-0,021
-288,847	-22,616	-0,065	-0,028
-287,832	453,231	-0,088	-0,141
-286,818	73,629	-0,057	0,043
-285,803	800,000	0,041	0,127
-284,789	-162,679	-0,038	0,001
-283,774	-200,000	0,005	0,045
-282,759	-97,212	0,056	0,010
-281,745	-200,000	-0,009	-0,118
-280,730	-200,000	0,033	0,121
-279,716	-152,695	-0,079	-0,004
-278,701	62,520	-0,244	-0,176
-277,686	-200,000	-0,005	0,121
-276,672	-200,000	0,035	0,118
-275,657	294,534	0,053	0,070
-274,643	12,710	-0,128	-0,071
-273,628	174,000	-0,098	-0,103
-272,613	800,000	-0,051	0,120
-271,599	800,000	0,042	0,103
-270,584	-58,701	0,175	0,054
-269,570	800,000	-0,034	0,097
-268,555	800,000	-0,023	-0,068
-267,540	10,994	-0,071	-0,039
-266,526	-68,395	0,056	0,016
-265,511	116,011	-0,092	-0,081
-264,497	-116,357	0,024	-0,003
-263,482	43,263	-0,071	0,046
-262,467	-63,552	0,087	-0,026
-261,453	-68,911	0,091	0,025
-260,438	127,347	-0,080	0,074
-259,424	367,296	-0,069	0,100
-258,409	-200,000	0,013	0,047
-257,395	208,388	-0,037	0,042
-256,380	17,065	0,111	0,063
-255,365	-133,142	0,061	-0,005
-254,351	494,383	0,071	-0,118
-253,336	-200,000	0,042	-0,164
-252,322	-178,821	-0,041	0,001
-251,307	75,305	-0,076	-0,058
-250,292	-200,000	-0,006	-0,100
-249,278	4,664	0,040	0,021
-248,263	-200,000	-0,015	0,083
-247,249	49,854	-0,070	0,047
-246,234	187,684	0,028	0,031
-245,219	-200,000	-0,003	-0,090
-244,205	325,515	0,049	-0,067
-243,190	233,335	0,056	0,067
-242,176	194,209	0,146	0,160
-241,161	36,343	0,054	-0,034
-240,146	68,314	0,035	0,026
-239,132	41,542	0,046	-0,030
-238,117	800,000	0,013	-0,040
-237,103	645,839	-0,047	-0,087
-236,088	-200,000	0,017	-0,122
-235,073	800,000	0,079	0,171
-234,059	-4,281	0,067	0,033
-233,044	-76,108	-0,047	-0,012
-232,030	-121,155	-0,219	-0,026
-231,015	681,709	-0,032	-0,061
-230,000	-200,000	-0,002	0,075
-228,986	800,000	0,015	-0,037
-227,971	191,780	0,030	0,033
-226,957	-100,546	0,195	0,034
-225,942	800,000	0,043	0,111
-224,927	322,142	0,033	-0,045
-223,913	621,465	-0,050	-0,090
-222,898	-102,350	-0,134	-0,023
-221,884	101,245	0,062	-0,052
-220,869	205,070	0,045	-0,050
-219,855	800,000	-0,061	0,187
-218,840	-200,000	0,017	0,107
-217,825	-200,000	-0,009	0,104
-216,811	147,534	-0,037	-0,036
-215,796	87,362	0,080	-0,064
-214,782	-74,553	-0,089	0,023
-213,767	800,000	-0,033	-0,103
-212,752	-200,000	0,015	0,068
-211,738	196,297	-0,088	-0,097
-210,723	3,960	0,071	0,037
-209,709	213,700	-0,099	-0,113
-208,694	-112,900	0,055	0,008
-207,679	-200,000	-0,005	-0,036
-206,665	-68,950	0,161	0,044
-205,650	-81,070	0,122	0,029
-204,636	-89,290	0,040	0,008
-203,621	-81,987	-0,121	0,028
-202,606	-200,000	0,006	-0,131
-201,592	-87,483	-0,146	-0,032
-200,577	-146,415	0,077	0,005
-199,563	-91,649	-0,082	0,017
-198,548	800,000	0,038	0,083
-197,533	1,369	-0,056	-0,029
-196,519	-49,963	-0,074	0,025
-195,504	-61,273	-0,106	-0,032
-194,490	-116,556	0,070	0,009
-193,475	800,000	-0,035	-0,105
-192,460	-200,000	-0,002	-0,045
-191,446	67,412	0,113	-0,083
-190,431	189,508	0,125	0,135
-189,417	706,222	-0,108	0,205
-188,402	229,565	-0,075	0,088
-187,387	800,000	-0,023	-0,050
-186,373	300,169	0,089	0,118
-185,358	16,942	0,015	-0,009
-184,344	440,837	-0,052	-0,082
-183,329	-47,005	-0,089	0,031
-182,315	-140,810	-0,123	0,009
-181,300	130,831	-0,077	0,071
-180,285	346,466	0,063	-0,089
-179,271	16,772	0,012	0,007
-178,256	-143,712	0,060	0,004
-177,242	-26,681	-0,066	0,028
-176,227	-200,000	-0,020	-0,159
-175,212	-200,000	-0,011	0,047
-174,198	800,000	-0,024	-0,056
-173,183	-200,000	-0,002	-0,089
-172,169	146,979	0,081	0,078
-171,154	392,486	0,053	-0,080
-170,139	-124,787	-0,046	-0,005
-169,125	-200,000	-0,010	0,096
-168,110	185,128	-0,052	-0,056
-167,096	-200,000	0,007	0,075
-166,081	-43,481	0,003	-0,001
-165,066	34,809	-0,097	-0,061
-164,052	-200,000	-0,036	0,118
-163,037	-200,000	-0,013	0,066
-162,023	129,689	-0,049	0,045
-161,008	66,778	-0,023	-0,017
-159,993	318,326	0,045	0,061
-158,979	-130,505	-0,046	0,004
-157,964	-136,244	0,093	0,008
-156,950	63,919	0,080	0,058
-155,935	-77,329	0,076	0,019
-154,920	800,000	-0,042	0,130
-153,906	-200,000	0,042	0,170
-152,891	58,352	-0,069	-0,049
-151,877	-86,098	-0,032	-0,007
-150,862	57,151	-0,104	-0,072
-149,847	-116,364	-0,077	0,010
-148,833	-200,000	0,014	0,062
-147,818	-11,774	-0,031	-0,014
-146,804	-200,000	0,003	-0,066
-145,789	-200,000	-0,003	0,086
-144,775	75,325	-0,083	-0,063
-143,760	55,739	-0,098	0,068
-142,745	-36,779	0,095	0,036
-141,731	-200,000	0,024	-0,084
-140,716	-71,246	0,063	-0,017
-139,702	10,017	0,086	0,047
-138,687	-200,000	-0,001	0,048
-137,672	800,000	-0,059	0,179
-136,658	610,459	0,055	-0,099
-135,643	-32,499	0,141	-0,056
-134,629	108,049	0,053	0,045
-133,614	563,126	-0,066	-0,115
-132,599	129,232	-0,034	0,031
-131,585	130,294	-0,043	0,039
-130,570	198,855	0,058	-0,064
-129,556	800,000	0,047	0,111
-128,541	-77,528	0,077	0,019
-127,526	510,814	-0,031	0,051
-126,512	115,712	0,024	0,021
-125,497	30,740	0,086	0,053
-124,483	277,098	0,036	0,046
-123,468	-63,664	-0,110	-0,032
-122,453	-78,252	0,078	0,019
-121,439	297,593	-0,032	0,043
-120,424	238,958	-0,056	0,066
-119,410	-79,800	0,041	0,010
