DTS Sentinel unit serial number:	SN410029Multiplexer serial number:	ORYXHardware model number:	OX2-SRSoftware version number:	ORYX F/W v4,00 Oryx Data Collector v3.7.2.0data status	okinstallation	B6 Nyhavnadifferential loss correction	single-endedforward channel	channel 2reverse channel	N/Adate	2023/12/08time	15:00:08forward acquisition time	300,00reverse acquisition time	0,00gamma	499,1914k internal	0,3159k external	0,3159temperature offset calibration	1,0000default loss term (dB/km)	0,3820temperature slope calibration	1,0000multiplexer offset coefficient	1,0000multiplexer slope coefficient	1,0000fibre end	0,00T internal ref (°C)	15,06T ext. ref 1 (°C)	-1,48T ext. ref 2 (°C)	-1,48length (m)	temperature (°C)	Stokes	anti-Stokes-744,400	-58,771	0,098	-0,031
-743,385	-99,212	-0,250	-0,046
-742,371	-59,434	0,152	0,048
-741,356	-143,000	-0,267	-0,019
-740,342	95,968	-0,059	0,049
-739,327	-95,349	-0,416	0,082
-738,312	325,755	-0,037	0,052
-737,298	-35,371	-0,179	0,071
-736,283	-32,092	0,234	0,096
-735,269	-178,191	-0,281	0,005
-734,254	-144,106	-0,052	0,004
-733,239	-72,023	-0,527	-0,143
-732,225	158,251	0,020	-0,020
-731,210	-200,000	0,004	-0,038
-730,196	491,232	-0,062	-0,104
-729,181	214,605	0,042	-0,049
-728,167	-129,329	-0,055	-0,006
-727,152	434,708	0,021	0,034
-726,137	21,317	-0,020	0,012
-725,123	136,899	0,055	-0,053
-724,108	44,366	-0,119	-0,081
-723,094	784,103	0,090	-0,181
-722,079	557,743	-0,107	-0,191
-721,064	280,123	0,037	0,048
-720,050	800,000	0,024	0,053
-719,035	78,810	-0,109	0,086
-718,021	800,000	-0,011	-0,026
-717,006	312,737	-0,050	-0,069
-715,991	59,144	-0,036	-0,026
-714,977	-102,251	-0,065	0,011
-713,962	800,000	-0,032	-0,082
-712,948	205,042	0,142	0,162
-711,933	-62,624	-0,107	-0,032
-710,918	211,418	0,087	-0,101
-709,904	-50,165	-0,116	-0,040
-708,889	-106,088	-0,137	-0,022
-707,875	-200,000	-0,011	0,058
-706,860	-122,076	0,063	-0,008
-705,845	800,000	0,020	-0,063
-704,831	-200,000	-0,014	0,167
-703,816	-200,000	0,004	-0,057
-702,802	633,314	-0,037	-0,069
-701,787	-161,523	-0,069	0,003
-700,772	145,541	-0,132	-0,130
-699,758	439,610	0,079	-0,128
-698,743	351,952	-0,101	-0,148
-697,729	-200,000	0,016	0,102
-696,714	-200,000	0,007	0,039
-695,699	-200,000	0,004	-0,058
-694,685	226,090	-0,015	0,018
-693,670	-0,068	0,011	-0,006
-692,656	594,655	-0,040	-0,073
-691,641	-172,005	-0,163	-0,004
-690,627	-200,000	0,003	0,101
-689,612	-149,345	0,061	0,004
-688,597	-128,767	-0,141	-0,014
-687,583	11,985	-0,066	-0,037
-686,568	54,353	-0,123	-0,087
-685,554	702,470	0,010	-0,020
-684,539	800,000	-0,030	-0,070
-683,524	84,864	0,050	-0,040
-682,510	-115,338	-0,084	0,012
-681,495	18,119	-0,089	-0,052
-680,481	-160,733	0,130	0,005
-679,466	-200,000	-0,006	-0,087
-678,451	-200,000	0,001	0,106
-677,437	-14,879	0,087	0,041
-676,422	-143,620	0,067	-0,005
-675,408	644,970	-0,024	-0,046
-674,393	395,527	-0,049	-0,076
-673,378	-41,625	-0,127	-0,048
-672,364	783,632	0,032	-0,065
-671,349	-145,871	-0,184	-0,012
-670,335	-200,000	-0,011	0,049
-669,320	209,863	0,033	-0,038
-668,305	-88,435	0,079	0,017
-667,291	83,272	-0,063	-0,050
-666,276	159,448	-0,010	0,010
-665,262	288,320	-0,028	-0,037
-664,247	-200,000	0,024	-0,106
-663,232	-137,132	-0,036	-0,003
-662,218	-109,777	0,030	-0,005
-661,203	274,529	-0,045	0,058
-660,189	158,655	0,058	0,059
-659,174	800,000	-0,034	-0,100
-658,159	683,014	-0,082	-0,159
-657,145	-46,425	-0,034	-0,012
-656,130	292,342	0,098	-0,131
-655,116	66,709	-0,067	-0,050
-654,101	-142,916	-0,129	0,009
-653,086	-200,000	-0,000	-0,073
-652,072	-121,889	-0,031	0,004
-651,057	800,000	-0,019	-0,041
-650,043	800,000	0,035	0,078
-649,028	-200,000	-0,023	-0,150
-648,014	550,828	-0,013	-0,022
-646,999	-200,000	-0,045	0,234
-645,984	22,449	-0,049	0,029
-644,970	-93,001	-0,111	-0,022
-643,955	800,000	-0,069	-0,167
-642,941	113,456	-0,077	-0,068
-641,926	-200,000	-0,019	-0,091
-640,911	-11,736	0,168	0,081
-639,897	-200,000	-0,026	0,086
-638,882	190,782	-0,064	-0,071
-637,868	-74,735	-0,181	0,048
-636,853	491,200	0,003	-0,005
-635,838	-200,000	-0,040	-0,196
-634,824	-200,000	0,006	-0,024
-633,809	-173,615	-0,036	0,001
-632,795	195,877	-0,073	-0,082
-631,780	186,047	-0,089	-0,097
-630,765	250,022	-0,024	0,029
-629,751	-200,000	-0,015	-0,086
-628,736	448,374	0,020	0,033
-627,722	-69,661	0,110	-0,031
-626,707	189,155	0,032	-0,036
-625,692	-59,362	0,050	-0,016
-624,678	31,648	-0,064	-0,040
-623,663	-49,222	-0,030	-0,011
-622,649	-110,504	-0,052	-0,008
-621,634	-115,698	-0,068	-0,009
-620,619	-200,000	-0,032	0,155
-619,605	-90,519	-0,075	0,016
-618,590	-200,000	0,003	-0,034
-617,576	-200,000	-0,005	0,113
-616,561	696,606	0,038	0,073
-615,546	87,891	-0,092	-0,075
-614,532	61,752	-0,042	0,031
-613,517	-149,101	0,002	-0,000
-612,503	8,146	-0,037	0,020
-611,488	-30,663	-0,061	0,025
-610,474	410,969	-0,024	-0,037
-609,459	438,445	-0,055	0,088
-608,444	48,432	-0,005	0,003
-607,430	-105,568	0,082	-0,013
-606,415	800,000	0,048	-0,148
-605,401	-73,690	0,161	0,043
-604,386	-200,000	0,006	-0,041
-603,371	128,320	-0,102	-0,095
-602,357	-200,000	0,032	-0,115
-601,342	106,872	-0,060	0,052
-600,328	-119,813	-0,081	0,010
-599,313	185,130	-0,089	-0,097
-598,298	800,000	-0,030	0,065
-597,284	-153,198	-0,032	0,002
-596,269	-200,000	0,014	-0,175
-595,255	-200,000	-0,001	0,192
-594,240	419,230	-0,043	0,068
-593,225	-142,970	0,091	-0,006
-592,211	-187,295	-0,127	-0,001
-591,196	-162,998	0,059	0,002
-590,182	554,663	-0,093	-0,165
-589,167	102,316	0,052	-0,044
-588,152	493,258	-0,078	0,132
-587,138	420,984	0,021	-0,032
-586,123	-113,164	-0,072	-0,010
-585,109	68,919	-0,042	0,032
-584,094	800,000	-0,044	0,097
-583,079	-46,757	0,108	-0,039
-582,065	61,936	-0,033	0,024
-581,050	78,435	-0,040	0,031
-580,036	-200,000	-0,001	0,114
-579,021	-200,000	0,004	-0,020
-578,006	110,122	0,083	-0,073
-576,992	273,695	0,065	-0,084
-575,977	-200,000	-0,012	-0,148
-574,963	22,521	0,147	-0,088
-573,948	-16,148	0,039	-0,018
-572,934	5,502	-0,042	0,023
-571,919	322,254	0,018	-0,026
-570,904	-44,274	-0,046	-0,017
-569,890	-51,124	-0,134	-0,046
-568,875	800,000	-0,039	-0,095
-567,861	419,412	0,084	-0,132
-566,846	-90,089	0,094	0,020
-565,831	-7,888	-0,051	0,025
-564,817	-200,000	0,025	-0,137
-563,802	-58,131	-0,134	-0,042
-562,788	-200,000	-0,020	-0,077
-561,773	543,222	0,034	-0,059
-560,758	-200,000	0,009	0,036
-559,744	-102,635	0,163	-0,028
-558,729	800,000	-0,023	0,058
-557,715	-200,000	0,002	-0,080
-556,700	800,000	-0,042	-0,091
-555,685	47,092	-0,004	-0,003
-554,671	413,963	0,037	0,057
-553,656	410,046	0,038	0,058
-552,642	-200,000	0,032	-0,121
-551,627	201,630	-0,056	0,063
-550,612	-156,144	-0,057	-0,003
-549,598	-82,287	-0,178	-0,042
-548,583	-47,386	0,079	0,028
-547,569	-200,000	-0,025	0,083
-546,554	800,000	0,059	0,155
-545,539	-37,344	0,100	0,039
-544,525	-200,000	0,005	-0,048
-543,510	263,317	-0,070	0,089
-542,496	-84,925	-0,094	-0,021
-541,481	-200,000	-0,015	-0,139
-540,466	-55,223	0,091	0,030
-539,452	453,979	0,084	0,137
-538,437	56,071	0,064	0,045
-537,423	-38,311	0,162	-0,062
-536,408	20,863	-0,061	0,036
-535,393	-200,000	-0,021	0,153
-534,379	62,059	-0,013	0,010
-533,364	-200,000	-0,014	-0,138
-532,350	-200,000	-0,013	-0,087
-531,335	-169,532	0,036	0,001
-530,321	134,050	0,076	-0,072
-529,306	-200,000	-0,014	0,074
-528,291	-200,000	-0,008	0,050
-527,277	269,614	0,088	0,113
-526,262	-110,349	0,057	0,009
-525,248	800,000	-0,028	0,087
-524,233	-99,533	0,085	-0,016
-523,218	-200,000	-0,017	0,110
-522,204	114,591	-0,066	-0,059
-521,189	-75,625	0,054	0,014
-520,175	-200,000	0,017	0,064
-519,160	59,896	0,032	-0,023
-518,145	-162,016	0,197	-0,007
-517,131	-61,800	-0,122	0,037
-516,116	-74,652	0,036	0,009
-515,102	-22,076	0,118	0,052
-514,087	111,024	0,118	-0,104
-513,072	-72,795	-0,183	-0,049
-512,058	800,000	0,030	-0,088
-511,043	47,798	0,099	-0,067
-510,029	-162,815	-0,040	0,001
-509,014	9,125	-0,056	0,031
-507,999	197,897	-0,009	0,010
-506,985	231,742	0,085	0,102
-505,970	95,275	-0,087	-0,073
-504,956	779,526	0,049	-0,098
-503,941	63,312	-0,078	-0,057
-502,926	-55,697	0,042	0,014
-501,912	-200,000	0,026	0,140
-500,897	440,040	0,022	-0,035
-499,883	-47,935	0,062	-0,022
-498,868	800,000	-0,049	0,115
-497,853	-88,017	-0,108	-0,023
-496,839	-157,443	0,175	0,008
-495,824	800,000	-0,046	0,117
-494,810	310,805	-0,043	0,058
-493,795	800,000	0,037	0,076
-492,781	-99,281	-0,130	0,024
-491,766	-124,644	0,043	-0,005
-490,751	-200,000	-0,013	0,077
-489,737	800,000	0,034	-0,085
-488,722	800,000	0,006	-0,019
-487,708	84,687	0,044	-0,036
-486,693	-159,651	0,040	0,002
-485,678	694,279	0,052	0,099
-484,664	81,459	-0,051	0,040
-483,649	-5,853	-0,094	-0,047
-482,635	134,363	0,027	0,026
-481,620	133,750	0,145	0,137
-480,605	258,602	0,017	-0,022
-479,591	273,161	-0,010	-0,012
-478,576	-173,208	0,031	-0,001
-477,562	373,702	0,047	-0,070
-476,547	21,178	0,147	-0,087
-475,532	21,009	0,150	0,089
-474,518	-200,000	-0,011	0,068
-473,503	800,000	0,055	0,172
-472,489	0,021	0,026	-0,013
-471,474	247,979	-0,091	0,112
-470,459	-89,990	-0,194	-0,041
-469,445	-200,000	0,026	-0,135
-468,430	151,053	0,036	0,036
-467,416	-89,659	-0,111	0,024
-466,401	299,128	-0,054	0,072
-465,386	263,480	-0,079	0,100
-464,372	226,065	0,018	0,021
-463,357	-142,706	-0,017	0,001
-462,343	198,531	-0,051	-0,057
-461,328	-200,000	0,013	-0,111
-460,313	-80,872	-0,040	0,010
-459,299	-63,808	0,050	0,015
-458,284	57,005	0,087	0,062
-457,270	-33,915	-0,043	-0,017
-456,255	454,454	0,049	-0,079
-455,241	-200,000	0,001	-0,116
-454,226	136,574	0,066	-0,063
-453,211	-200,000	0,027	-0,092
-452,197	-128,009	-0,094	0,010
-451,182	-200,000	-0,006	0,155
-450,168	428,018	-0,048	0,075
-449,153	-151,620	0,029	0,002
-448,138	800,000	0,054	-0,110
-447,124	-200,000	-0,000	-0,098
-446,109	-200,000	0,008	-0,110
-445,095	199,777	0,043	-0,049
-444,080	129,307	-0,013	-0,012
-443,065	599,788	-0,070	0,127
-442,051	800,000	-0,020	-0,065
-441,036	278,795	-0,072	-0,093
-440,022	338,158	0,049	-0,070
-439,007	-162,546	0,098	0,003
-437,992	-99,191	0,056	-0,010
-436,978	-158,773	-0,042	0,002
-435,963	-200,000	-0,019	0,119
-434,949	-38,532	-0,054	0,021
-433,934	-200,000	-0,005	-0,031
-432,919	800,000	-0,037	-0,083
-431,905	3,469	0,092	-0,049
-430,890	-200,000	-0,019	-0,129
-429,876	-46,559	0,033	0,012
-428,861	143,794	0,136	0,132
-427,846	-49,008	-0,058	-0,020
-426,832	-200,000	0,026	-0,103
-425,817	46,536	-0,088	0,059
-424,803	115,121	-0,106	0,094
-423,788	-127,517	0,094	0,010
-422,773	8,378	0,052	0,029
-421,759	-200,000	-0,036	-0,125
-420,744	-20,347	-0,152	0,068
-419,730	260,339	0,080	-0,101
-418,715	78,059	-0,081	0,063
-417,701	-35,512	-0,086	0,034
-416,686	32,116	0,165	0,103
-415,671	41,760	-0,006	0,004
-414,657	254,425	0,052	0,065
-413,642	800,000	-0,033	0,081
-412,628	-77,811	0,079	0,020
-411,613	668,761	-0,060	-0,114
-410,598	114,715	-0,070	-0,062
-409,584	148,855	0,078	0,077
-408,569	7,444	0,050	0,027
-407,555	-200,000	0,022	0,221
-406,540	-167,809	0,127	-0,004
-405,525	304,054	0,029	-0,039
-404,511	25,295	-0,048	0,029
-403,496	-100,428	-0,112	-0,020
-402,482	37,499	0,095	-0,061
-401,467	-200,000	-0,020	-0,075
-400,452	-15,489	0,098	-0,045
-399,438	369,650	0,058	-0,086
-398,423	800,000	-0,081	-0,219
-397,409	-200,000	0,000	-0,091
-396,394	-200,000	0,009	-0,089
-395,379	800,000	0,020	-0,061
-394,365	264,975	0,053	0,068
-393,350	156,938	0,061	-0,061
-392,336	-200,000	-0,031	0,176
-391,321	41,373	0,092	0,061
-390,306	7,434	-0,140	0,076
-389,292	-200,000	-0,017	0,104
-388,277	-200,000	0,036	0,125
-387,263	-101,318	0,126	-0,022
-386,248	-2,999	-0,069	0,035
-385,233	-110,228	0,139	-0,021
-384,219	-200,000	0,010	0,209
-383,204	-73,919	0,180	0,047
-382,190	800,000	0,046	0,147
-381,175	312,307	0,118	0,161
-380,160	-118,993	0,179	-0,023
-379,146	64,073	0,034	0,025
-378,131	-141,758	0,041	0,003
-377,117	156,674	-0,051	0,051
-376,102	612,535	0,015	-0,027
-375,088	-200,000	0,020	-0,096
-374,073	186,168	-0,073	0,079
-373,058	-15,983	0,036	-0,017
-372,044	476,497	-0,024	0,040
-371,029	-35,324	0,050	0,020
-370,015	-38,317	-0,108	0,041
-369,000	-200,000	-0,017	-0,167
-367,985	-200,000	-0,008	-0,068
-366,971	-25,065	-0,013	-0,006
-365,956	-200,000	-0,006	0,103
-364,942	12,807	-0,137	-0,077
-363,927	424,247	0,055	-0,086
-362,912	79,151	0,060	0,047
-361,898	-200,000	0,006	-0,047
-360,883	-50,947	0,081	0,027
-359,869	-200,000	-0,085	0,000
-358,854	-200,000	0,008	0,061
-357,839	-200,000	-0,009	0,030
-356,825	396,030	0,045	0,068
-355,810	303,135	-0,113	0,152
-354,796	242,200	-0,136	-0,166
-353,781	222,795	-0,110	-0,128
-352,766	-198,716	-0,064	-0,000
-351,752	30,846	0,073	-0,045
-350,737	-200,000	-0,005	-0,035
-349,723	139,192	0,091	0,087
-348,708	-72,974	-0,071	-0,019
-347,693	-200,000	0,005	-0,098
-346,679	62,668	-0,124	-0,090
-345,664	-200,000	0,016	-0,054
-344,650	158,981	-0,078	-0,079
-343,635	-200,000	-0,000	0,050
-342,620	-200,000	-0,035	0,162
-341,606	-45,596	0,017	0,006
-340,591	800,000	0,011	0,028
-339,577	-200,000	-0,009	-0,131
-338,562	-84,475	0,109	-0,025
-337,548	-121,458	-0,015	-0,002
-336,533	244,474	0,041	-0,050
-335,518	103,659	0,129	-0,110
-334,504	-7,306	0,057	0,028
-333,489	-200,000	0,001	0,115
-332,475	-104,406	-0,146	-0,024
-331,460	-128,349	-0,041	-0,004
-330,445	-66,847	0,069	-0,020
-329,431	93,258	-0,081	0,067
-328,416	-200,000	0,020	-0,065
-327,402	293,230	-0,087	0,116
-326,387	61,594	-0,120	-0,086
-325,372	-119,620	0,097	-0,012
-324,358	-44,703	-0,068	-0,024
-323,343	86,645	0,012	-0,009
-322,329	308,194	-0,030	0,041
-321,314	-200,000	0,020	-0,065
-320,299	219,457	-0,106	0,123
-319,285	33,113	-0,029	-0,018
-318,270	527,502	0,042	-0,072
-317,256	92,282	0,054	-0,044
-316,241	-12,593	0,035	-0,016
-315,226	800,000	0,024	0,053
-314,212	86,467	0,175	0,140
-313,197	0,602	-0,144	0,074
-312,183	-43,057	-0,039	0,014
-311,168	-129,177	-0,044	-0,004
-310,153	800,000	-0,037	-0,091
-309,139	47,854	0,066	0,044
-308,124	64,426	0,154	0,112
-307,110	800,000	-0,011	-0,024
-306,095	553,846	0,042	-0,074
-305,080	-16,545	0,034	-0,016
-304,066	156,607	-0,059	-0,059
-303,051	51,644	-0,027	-0,019
-302,037	245,543	0,089	0,109
-301,022	800,000	-0,029	0,084
-300,008	-171,858	0,048	-0,001
-298,993	-200,000	-0,010	0,040
-297,978	-200,000	0,012	0,137
-296,964	-116,642	-0,066	0,009
-295,949	-148,624	0,055	-0,003
-294,935	800,000	-0,053	-0,137
-293,920	-59,414	0,044	0,014
-292,905	-122,249	0,142	-0,017
-291,891	538,212	-0,067	0,115
-290,876	800,000	0,026	-0,069
-289,862	-200,000	0,006	-0,066
-288,847	-200,000	0,003	-0,048
-287,832	271,536	-0,105	-0,134
-286,818	290,059	0,045	0,059
-285,803	-139,193	0,013	-0,001
-284,789	-200,000	0,032	-0,224
-283,774	-200,000	-0,034	-0,167
-282,759	-200,000	-0,003	-0,017
-281,745	38,034	-0,105	-0,067
-280,730	-200,000	0,053	-0,171
-279,716	205,342	-0,037	-0,041
-278,701	-50,397	0,043	-0,015
-277,686	-119,779	-0,058	0,007
-276,672	126,268	-0,024	0,022
-275,657	158,254	-0,113	-0,113
-274,643	119,986	-0,138	-0,124
-273,628	800,000	0,028	0,062
-272,613	-101,416	-0,019	0,003
-271,599	542,451	0,020	-0,035
-270,584	43,349	-0,053	-0,035
-269,570	135,444	0,053	0,050
-268,555	-85,565	0,073	0,016
-267,540	187,304	-0,041	-0,045
-266,526	569,882	-0,021	-0,037
-265,511	-48,753	-0,043	0,015
-264,497	10,422	-0,063	-0,035
-263,482	6,907	-0,116	-0,062
-262,467	25,799	-0,169	0,101
-261,453	543,458	0,081	0,141
-260,438	31,162	-0,054	0,033
-259,424	-137,986	0,014	0,001
-258,409	-28,359	-0,102	-0,042
-257,395	440,093	0,054	-0,086
-256,380	-48,205	-0,024	0,008
-255,365	110,046	-0,076	-0,066
-254,351	-148,878	-0,058	-0,003
-253,336	208,975	-0,021	-0,023
-252,322	19,688	-0,220	0,128
-251,307	222,159	0,052	-0,060
-250,292	631,647	0,071	-0,131
-249,278	12,336	0,094	-0,052
-248,263	-200,000	-0,002	0,085
-247,249	-200,000	0,023	0,078
-246,234	208,278	0,121	-0,137
-245,219	-6,487	-0,238	0,117
-244,205	800,000	0,056	0,154
-243,190	17,543	-0,127	-0,073
-242,176	800,000	-0,023	-0,067
-241,161	89,797	0,062	0,050
-240,146	-200,000	-0,000	-0,013
-239,132	64,412	0,117	-0,085
-238,117	-200,000	-0,021	-0,076
-237,103	-200,000	0,009	-0,042
-236,088	333,597	-0,055	-0,077
-235,073	-87,701	0,129	-0,028
-234,059	-106,501	-0,170	-0,027
-233,044	800,000	-0,050	-0,147
-232,030	522,020	-0,029	-0,049
-231,015	-10,890	-0,135	0,064
-230,000	-135,203	0,153	-0,013
-228,986	24,285	-0,142	-0,084
-227,971	20,124	0,080	0,047
-226,957	-6,113	0,203	0,100
-225,942	92,504	-0,105	0,085
-224,927	30,395	0,072	0,045
-223,913	48,459	-0,035	0,023
-222,898	164,544	-0,056	0,057
-221,884	348,607	-0,034	-0,049
-220,869	-170,696	0,034	0,001
-219,855	800,000	0,028	0,069
-218,840	86,753	0,228	0,182
-217,825	-138,458	0,006	0,000
-216,811	-200,000	-0,013	-0,130
-215,796	-27,615	-0,040	0,017
-214,782	-200,000	-0,025	-0,120
-213,767	295,402	0,016	0,021
-212,752	223,884	0,144	0,168
-211,738	162,540	-0,080	-0,081
-210,723	187,095	0,024	-0,026
-209,709	381,234	-0,105	-0,155
-208,694	800,000	-0,045	-0,098
-207,679	46,502	0,045	0,030
-206,665	93,578	-0,058	0,048
-205,650	800,000	0,049	0,111
-204,636	386,951	0,066	0,099
-203,621	-200,000	0,011	0,170
-202,606	-200,000	0,015	0,174
-201,592	-42,345	-0,066	-0,024
-200,577	800,000	-0,043	0,101
-199,563	-200,000	0,008	0,101
-198,548	800,000	-0,027	0,070
-197,533	238,814	-0,078	-0,093
-196,519	-106,290	0,030	-0,005
-195,504	411,687	-0,024	0,037
-194,490	800,000	0,004	0,009
-193,475	-126,023	0,175	-0,019
-192,460	-153,091	-0,149	0,007
-191,446	-200,000	-0,008	-0,053
-190,431	-200,000	0,001	0,072
-189,417	-200,000	-0,015	0,063
-188,402	-50,497	-0,016	0,006
-187,387	800,000	0,028	0,075
-186,373	-200,000	-0,066	0,212
-185,358	706,706	0,030	-0,057
-184,344	-160,098	0,082	-0,003
-183,329	-200,000	-0,010	0,104
-182,315	-200,000	0,014	0,134
-181,300	-200,000	-0,014	0,049
-180,285	-200,000	0,012	0,039
-179,271	800,000	0,042	0,096
-178,256	154,632	-0,064	-0,063
-177,242	-141,412	0,159	0,011
-176,227	172,558	0,086	0,089
-175,212	-118,207	0,045	-0,006
-174,198	460,861	0,046	-0,075
-173,183	55,505	0,047	0,033
-172,169	104,988	-0,047	-0,040
-171,154	3,913	0,086	-0,045
-170,139	105,614	0,124	-0,106
-169,125	800,000	0,073	0,159
-168,110	800,000	-0,021	0,044
-167,096	-35,420	-0,184	-0,072
-166,081	133,928	-0,054	0,050
-165,066	-3,306	-0,041	0,020
-164,052	800,000	-0,022	-0,048
-163,037	800,000	0,049	0,146
-162,023	-200,000	-0,009	-0,035
-161,008	-200,000	0,017	-0,071
-159,993	-85,334	0,110	0,025
-158,979	-51,287	-0,063	0,021
-157,964	-200,000	0,004	-0,111
-156,950	235,069	0,067	0,080
-155,935	0,997	0,020	-0,010
-154,920	688,204	0,042	-0,079
-153,906	-200,000	-0,010	0,152
-152,891	59,268	0,101	0,071
-151,877	76,360	-0,081	0,062
-150,862	-67,240	-0,166	0,047
-149,847	388,081	0,013	0,020
-148,833	379,872	0,033	-0,049
-147,818	322,457	0,021	-0,029
-146,804	81,405	-0,029	0,022
-145,789	-40,384	-0,122	0,046
-144,775	-82,404	-0,133	-0,031
-143,760	333,636	0,017	-0,024
-142,745	347,940	-0,067	-0,096
-141,731	-86,862	-0,038	0,008
-140,716	360,463	0,041	-0,059
-139,702	-121,339	0,081	-0,010
-138,687	800,000	0,034	0,091
-137,672	-166,638	-0,064	-0,002
-136,658	-107,512	-0,212	0,033
-135,643	-200,000	-0,005	-0,140
-134,629	-89,686	-0,189	-0,040
-133,614	434,357	0,056	0,088
-132,599	-200,000	-0,031	-0,105
-131,585	224,341	0,116	0,135
-130,570	66,742	-0,098	0,072
-129,556	-134,390	-0,077	0,007
-128,541	-200,000	-0,010	-0,068
-127,526	567,990	0,038	-0,067
-126,512	-6,167	-0,095	-0,046
-125,497	-47,671	0,204	0,071
-124,483	800,000	-0,036	0,086
-123,468	232,125	0,097	-0,115
-122,453	695,861	-0,044	-0,084
-121,439	-3,275	-0,009	-0,004
-120,424	-137,531	0,139	0,011
