DTS Sentinel unit serial number:	SN410029Multiplexer serial number:	ORYXHardware model number:	OX2-SRSoftware version number:	ORYX F/W v4,00 Oryx Data Collector v3.7.2.0data status	okinstallation	B6 Nyhavnadifferential loss correction	single-endedforward channel	channel 2reverse channel	N/Adate	2023/12/07time	23:55:08forward acquisition time	300,00reverse acquisition time	0,00gamma	499,1914k internal	0,3164k external	0,3164temperature offset calibration	1,0000default loss term (dB/km)	0,3820temperature slope calibration	1,0000multiplexer offset coefficient	1,0000multiplexer slope coefficient	1,0000fibre end	0,00T internal ref (°C)	13,39T ext. ref 1 (°C)	-3,55T ext. ref 2 (°C)	-3,56length (m)	temperature (°C)	Stokes	anti-Stokes-744,400	136,594	0,164	0,158
-743,385	47,487	-0,249	0,171
-742,371	-200,000	-0,008	-0,042
-741,356	-167,881	-0,354	-0,010
-740,342	641,371	0,113	0,213
-739,327	-104,074	-0,250	0,042
-738,312	60,470	0,119	0,086
-737,298	-78,682	-0,325	-0,081
-736,283	-26,163	0,092	0,040
-735,269	-160,843	-0,252	-0,010
-734,254	800,000	-0,019	-0,045
-733,239	-72,866	-0,490	-0,132
-732,225	85,028	0,157	0,126
-731,210	730,139	0,015	0,030
-730,196	-200,000	-0,037	-0,122
-729,181	-200,000	-0,014	-0,089
-728,167	216,966	0,033	-0,038
-727,152	-29,231	-0,104	-0,043
-726,137	497,736	-0,026	-0,044
-725,123	-155,474	0,085	-0,004
-724,108	47,132	-0,074	-0,051
-723,094	-20,185	-0,126	-0,057
-722,079	-200,000	0,017	0,146
-721,064	-200,000	-0,013	-0,053
-720,050	13,356	0,123	0,070
-719,035	47,523	-0,031	-0,021
-718,021	-91,856	0,099	0,020
-717,006	-93,243	-0,159	-0,032
-715,991	345,639	-0,070	-0,101
-714,977	553,916	0,013	0,023
-713,962	467,940	-0,073	-0,121
-712,948	-200,000	0,005	0,112
-711,933	-200,000	0,023	0,141
-710,918	-200,000	-0,013	-0,066
-709,904	134,496	-0,103	-0,098
-708,889	4,832	-0,131	-0,070
-707,875	41,194	-0,020	-0,013
-706,860	774,805	-0,044	0,089
-705,845	-200,000	-0,022	0,157
-704,831	-200,000	0,019	0,065
-703,816	-120,307	0,089	0,011
-702,802	-200,000	0,003	-0,026
-701,787	800,000	-0,022	-0,055
-700,772	87,473	-0,104	-0,085
-699,758	749,093	0,112	-0,223
-698,743	-96,646	-0,171	0,033
-697,729	111,681	0,063	-0,056
-696,714	728,255	0,007	-0,013
-695,699	800,000	-0,069	0,169
-694,685	-117,503	-0,039	-0,005
-693,670	-139,454	-0,057	0,004
-692,656	800,000	-0,062	-0,148
-691,641	139,756	0,096	0,093
-690,627	379,644	-0,015	0,023
-689,612	-200,000	0,019	-0,080
-688,597	-200,000	-0,012	0,119
-687,583	-28,365	0,051	0,022
-686,568	-200,000	0,006	-0,095
-685,554	-200,000	-0,032	0,156
-684,539	800,000	-0,032	0,090
-683,524	188,009	0,108	0,119
-682,510	-131,610	-0,083	-0,008
-681,495	-200,000	0,010	-0,063
-680,481	115,619	-0,080	0,072
-679,466	800,000	-0,029	-0,071
-678,451	800,000	-0,016	0,044
-677,437	53,955	0,032	-0,022
-676,422	765,773	0,002	-0,004
-675,408	-200,000	-0,004	0,057
-674,393	-200,000	0,004	0,066
-673,378	751,356	-0,006	0,012
-672,364	-149,201	-0,144	0,008
-671,349	800,000	0,048	0,115
-670,335	94,446	0,050	-0,042
-669,320	800,000	0,035	0,073
-668,305	78,130	-0,105	-0,082
-667,291	-60,953	0,160	0,049
-666,276	71,278	-0,079	0,060
-665,262	-200,000	-0,000	-0,015
-664,247	4,252	0,073	-0,039
-663,232	-14,606	-0,034	-0,016
-662,218	-200,000	0,001	-0,048
-661,203	6,616	0,058	-0,032
-660,189	169,932	0,028	0,029
-659,174	694,215	-0,048	-0,092
-658,159	449,141	-0,040	0,065
-657,145	-200,000	-0,003	-0,054
-656,130	-200,000	0,001	-0,044
-655,116	-200,000	-0,012	0,106
-654,101	645,032	-0,008	-0,014
-653,086	84,422	0,129	-0,104
-652,072	7,878	-0,096	-0,053
-651,057	-18,296	-0,054	-0,025
-650,043	-53,533	0,153	-0,051
-649,028	800,000	-0,039	-0,098
-648,014	4,778	-0,118	-0,063
-646,999	-82,723	0,095	0,022
-645,984	113,330	-0,129	-0,114
-644,970	64,805	-0,054	-0,040
-643,955	800,000	0,046	0,101
-642,941	-139,811	-0,026	0,002
-641,926	249,223	0,049	0,060
-640,911	-200,000	0,000	0,025
-639,897	-89,042	0,019	-0,004
-638,882	800,000	0,022	0,063
-637,868	87,727	-0,064	0,052
-636,853	-75,648	-0,106	-0,027
-635,838	-71,423	-0,122	-0,033
-634,824	-36,394	-0,131	0,051
-633,809	-161,632	0,126	-0,005
-632,795	-0,822	0,031	0,016
-631,780	-117,933	-0,123	-0,016
-630,765	-200,000	0,017	-0,075
-629,751	-87,265	0,058	-0,013
-628,736	368,782	0,029	-0,043
-627,722	800,000	0,063	0,203
-626,707	-3,856	0,077	-0,039
-625,692	-200,000	-0,016	-0,162
-624,678	202,136	0,053	-0,061
-623,663	76,501	-0,074	0,057
-622,649	80,213	0,111	-0,088
-621,634	64,027	-0,118	0,087
-620,619	-200,000	-0,018	-0,109
-619,605	182,931	-0,040	0,044
-618,590	-43,509	0,110	-0,040
-617,576	-112,736	0,100	0,014
-616,561	28,136	0,077	-0,047
-615,546	-200,000	-0,070	0,000
-614,532	681,271	0,026	-0,050
-613,517	138,566	-0,013	-0,013
-612,503	15,464	-0,018	-0,010
-611,488	-189,673	0,108	0,001
-610,474	-200,000	0,005	0,042
-609,459	-34,954	0,013	-0,005
-608,444	53,305	-0,120	-0,084
-607,430	800,000	0,015	0,039
-606,415	8,557	0,136	-0,075
-605,401	7,736	0,058	0,032
-604,386	286,161	0,057	0,075
-603,371	645,563	-0,015	-0,028
-602,357	-17,279	-0,067	-0,031
-601,342	-50,549	-0,037	-0,013
-600,328	800,000	-0,032	-0,066
-599,313	343,852	0,083	-0,119
-598,298	-159,029	0,137	0,006
-597,284	-63,375	0,008	-0,002
-596,269	162,461	-0,073	0,075
-595,255	168,511	0,082	0,086
-594,240	-116,713	0,137	-0,018
-593,225	296,622	0,079	0,106
-592,211	60,190	0,049	0,036
-591,196	-200,000	0,041	-0,228
-590,182	200,235	0,063	-0,071
-589,167	-200,000	-0,001	0,020
-588,152	23,627	-0,080	-0,048
-587,138	83,606	0,031	0,025
-586,123	69,680	-0,096	-0,072
-585,109	800,000	-0,029	-0,061
-584,094	574,472	0,018	0,033
-583,079	-200,000	0,014	0,156
-582,065	-73,346	-0,086	-0,023
-581,050	800,000	-0,042	0,100
-580,036	800,000	-0,018	-0,042
-579,021	800,000	-0,039	-0,108
-578,006	-79,411	-0,031	-0,007
-576,992	295,840	-0,077	-0,104
-575,977	82,667	-0,042	-0,033
-574,963	4,247	-0,037	-0,020
-573,948	-33,330	0,218	0,088
-572,934	-200,000	-0,002	-0,087
-571,919	-41,124	0,046	0,017
-570,904	675,181	-0,037	-0,071
-569,890	315,323	0,060	-0,083
-568,875	-200,000	-0,019	-0,111
-567,861	-200,000	0,003	0,011
-566,846	800,000	-0,016	0,033
-565,831	268,666	0,041	0,053
-564,817	-116,461	-0,045	0,006
-563,802	800,000	-0,027	-0,060
-562,788	-20,180	-0,124	0,055
-561,773	800,000	-0,028	-0,085
-560,758	162,612	-0,078	0,080
-559,744	-84,005	0,108	0,025
-558,729	-200,000	0,001	0,076
-557,715	-200,000	-0,001	-0,171
-556,700	800,000	-0,049	-0,103
-555,685	-132,254	-0,085	0,008
-554,671	800,000	0,089	-0,189
-553,656	-200,000	0,005	-0,098
-552,642	59,974	-0,062	-0,044
-551,627	-172,667	0,080	0,002
-550,612	-114,122	-0,164	-0,023
-549,598	168,609	-0,058	0,060
-548,583	800,000	-0,018	0,059
-547,569	-107,013	-0,046	-0,007
-546,554	-53,092	0,194	0,065
-545,539	599,026	0,033	0,061
-544,525	8,256	0,045	0,025
-543,510	204,508	-0,066	-0,075
-542,496	800,000	-0,015	-0,035
-541,481	318,204	0,022	0,030
-540,466	305,233	-0,080	0,108
-539,452	746,330	0,028	-0,055
-538,437	-79,234	0,080	-0,020
-537,423	3,266	-0,125	-0,066
-536,408	161,405	0,027	-0,028
-535,393	-48,224	-0,058	0,020
-534,379	-200,000	0,005	0,041
-533,364	70,853	-0,065	0,049
-532,350	800,000	-0,021	0,054
-531,335	800,000	-0,018	0,037
-530,321	-200,000	0,001	0,113
-529,306	-159,222	0,020	-0,001
-528,291	336,661	-0,039	0,056
-527,277	-200,000	-0,007	-0,042
-526,262	104,983	-0,095	0,082
-525,248	31,923	0,083	-0,052
-524,233	192,859	0,087	-0,096
-523,218	800,000	-0,038	0,110
-522,204	-155,504	0,038	0,002
-521,189	600,162	-0,012	0,021
-520,175	800,000	-0,020	0,043
-519,160	53,792	-0,014	0,010
-518,145	800,000	0,044	0,119
-517,131	-54,159	-0,090	-0,030
-516,116	-110,792	0,111	-0,017
-515,102	-200,000	-0,013	-0,125
-514,087	-200,000	0,028	-0,131
-513,072	360,594	-0,090	-0,131
-512,058	-97,060	0,093	-0,018
-511,043	631,696	-0,027	-0,051
-510,029	-87,159	0,112	0,025
-509,014	598,443	0,046	0,084
-507,999	274,863	-0,018	-0,024
-506,985	-82,401	0,124	0,029
-505,970	-75,995	-0,157	0,040
-504,956	-105,641	-0,159	-0,026
-503,941	-114,207	0,103	-0,014
-502,926	23,189	0,061	-0,037
-501,912	-83,392	0,090	0,021
-500,897	29,776	-0,070	0,043
-499,883	-200,000	-0,008	0,095
-498,868	148,760	0,080	0,079
-497,853	-28,227	-0,172	0,072
-496,839	800,000	-0,018	-0,058
-495,824	-67,375	0,065	0,019
-494,810	-200,000	0,017	0,149
-493,795	638,201	-0,036	-0,067
-492,781	89,130	-0,014	-0,012
-491,766	622,972	0,042	-0,077
-490,751	722,604	0,051	-0,099
-489,737	800,000	0,042	-0,113
-488,722	461,662	0,061	-0,100
-487,708	88,906	0,054	0,044
-486,693	772,894	-0,045	-0,089
-485,678	-200,000	-0,023	-0,079
-484,664	115,363	0,058	-0,051
-483,649	-200,000	0,002	-0,041
-482,635	-200,000	-0,012	-0,039
-481,620	-200,000	-0,030	-0,105
-480,605	458,284	-0,009	-0,014
-479,591	-167,042	0,092	-0,003
-478,576	-200,000	-0,000	0,040
-477,562	-200,000	0,007	-0,051
-476,547	261,058	-0,062	-0,079
-475,532	20,465	0,012	0,007
-474,518	559,511	0,032	-0,056
-473,503	800,000	-0,043	0,100
-472,489	-77,054	0,052	-0,013
-471,474	-11,518	-0,075	0,036
-470,459	204,870	-0,117	0,132
-469,445	394,147	0,060	0,091
-468,430	-4,590	0,056	0,028
-467,416	-20,380	-0,112	-0,050
-466,401	800,000	0,028	0,070
-465,386	-126,757	0,170	-0,018
-464,372	53,277	-0,118	-0,082
-463,357	225,874	-0,073	-0,087
-462,343	181,197	-0,070	-0,075
-461,328	-154,724	0,182	0,009
-460,313	81,481	0,140	-0,110
-459,299	-29,167	-0,106	0,044
-458,284	224,760	-0,076	-0,090
-457,270	22,391	0,057	-0,034
-456,255	32,577	-0,148	0,093
-455,241	800,000	-0,030	-0,074
-454,226	-89,359	0,078	0,017
-453,211	81,777	-0,062	0,049
-452,197	800,000	-0,060	0,132
-451,182	-99,552	0,033	-0,006
-450,168	-200,000	-0,011	0,050
-449,153	-200,000	-0,016	-0,067
-448,138	59,954	-0,080	0,057
-447,124	800,000	-0,016	-0,049
-446,109	-200,000	-0,002	-0,055
-445,095	-200,000	-0,004	-0,080
-444,080	365,578	-0,068	0,100
-443,065	-50,970	-0,046	0,016
-442,051	385,772	-0,053	-0,080
-441,036	-200,000	-0,016	0,061
-440,022	-200,000	0,007	0,068
-439,007	-115,361	0,026	0,004
-437,992	212,118	-0,023	0,026
-436,978	-112,985	0,122	0,017
-435,963	9,517	0,126	0,069
-434,949	-62,701	-0,132	0,039
-433,934	99,232	0,104	0,088
-432,919	67,045	-0,152	-0,113
-431,905	-176,072	-0,073	0,001
-430,890	800,000	-0,033	0,079
-429,876	-97,976	0,087	-0,016
-428,861	800,000	0,012	-0,030
-427,846	385,013	-0,017	-0,025
-426,832	-92,446	0,117	-0,024
-425,817	128,248	0,138	-0,128
-424,803	-21,208	-0,124	-0,055
-423,788	800,000	-0,042	0,087
-422,773	370,657	0,061	0,091
-421,759	-46,155	-0,049	0,017
-420,744	446,088	0,034	0,055
-419,730	16,208	0,055	-0,031
-418,715	-61,232	-0,247	-0,075
-417,701	-119,913	-0,148	0,018
-416,686	-189,362	0,093	0,001
-415,671	729,254	0,079	0,153
-414,657	-200,000	0,009	-0,042
-413,642	93,237	-0,034	0,028
-412,628	465,562	-0,070	0,114
-411,613	-200,000	0,010	0,040
-410,598	178,449	-0,100	-0,107
-409,584	223,334	0,093	0,109
-408,569	-200,000	0,006	0,039
-407,555	-8,011	0,111	0,054
-406,540	-183,959	0,101	0,001
-405,525	88,384	-0,104	-0,084
-404,511	-9,259	0,084	-0,041
-403,496	-21,917	-0,038	0,017
-402,482	-91,276	0,048	0,010
-401,467	800,000	-0,018	-0,055
-400,452	-75,474	0,157	-0,040
-399,438	-200,000	0,017	0,071
-398,423	100,245	-0,132	-0,111
-397,409	-135,680	0,114	0,010
-396,394	45,708	0,105	-0,071
-395,379	-28,710	0,080	0,033
-394,365	-17,634	0,050	-0,023
-393,350	442,367	-0,055	-0,088
-392,336	25,315	0,054	-0,032
-391,321	-83,914	-0,052	0,012
-390,306	525,236	-0,053	-0,091
-389,292	298,470	-0,086	-0,115
-388,277	800,000	0,033	0,071
-387,263	800,000	0,024	-0,056
-386,248	-62,902	0,121	0,036
-385,233	-146,554	0,098	-0,006
-384,219	163,527	-0,095	0,097
-383,204	281,671	0,023	-0,030
-382,190	356,837	-0,018	0,026
-381,175	800,000	0,017	-0,044
-380,160	309,479	-0,055	-0,075
-379,146	156,067	0,033	0,033
-378,131	-200,000	-0,002	-0,013
-377,117	-154,204	-0,075	0,004
-376,102	-52,960	0,020	-0,007
-375,088	-45,111	0,130	-0,047
-374,073	-38,734	-0,078	-0,030
-373,058	93,188	0,041	0,033
-372,044	-200,000	-0,031	0,144
-371,029	13,913	0,048	0,027
-370,015	176,610	-0,050	0,053
-369,000	28,427	-0,085	0,052
-367,985	-7,102	-0,127	-0,062
-366,971	-35,615	-0,044	-0,017
-365,956	800,000	0,008	0,022
-364,942	259,178	-0,058	0,073
-363,927	-200,000	-0,008	0,066
-362,912	4,988	0,065	-0,035
-361,898	20,733	-0,096	0,056
-360,883	10,490	-0,196	0,108
-359,869	77,203	0,081	-0,062
-358,854	255,167	-0,020	0,024
-357,839	800,000	-0,020	-0,041
-356,825	665,839	-0,052	0,098
-355,810	455,791	0,015	-0,024
-354,796	-108,669	-0,183	-0,028
-353,781	-68,280	-0,068	0,019
-352,766	54,631	0,178	-0,124
-351,752	165,615	0,057	-0,059
-350,737	800,000	-0,040	0,107
-349,723	800,000	0,056	0,169
-348,708	-159,604	0,042	-0,002
-347,693	60,933	0,118	-0,085
-346,679	-80,850	-0,135	-0,032
-345,664	-89,704	-0,083	0,018
-344,650	-122,375	-0,106	0,012
-343,635	114,836	0,055	0,048
-342,620	-29,091	-0,178	0,074
-341,606	-200,000	-0,003	0,044
-340,591	118,219	0,132	0,118
-339,577	-200,000	0,014	0,047
-338,562	-200,000	0,026	-0,143
-337,548	800,000	0,028	-0,076
-336,533	-91,456	0,083	0,017
-335,518	-200,000	0,036	0,193
-334,504	204,565	0,087	0,098
-333,489	520,929	0,063	0,107
-332,475	-200,000	-0,006	0,035
-331,460	-200,000	0,001	-0,013
-330,445	-122,293	-0,228	-0,027
-329,431	35,589	0,034	-0,021
-328,416	800,000	0,035	0,078
-327,402	-24,670	-0,204	-0,087
-326,387	202,267	0,035	0,039
-325,372	109,879	-0,060	-0,052
-324,358	-16,853	-0,136	-0,062
-323,343	284,779	0,053	-0,069
-322,329	-200,000	0,010	-0,121
-321,314	-72,638	0,040	0,011
-320,299	11,777	-0,043	0,024
-319,285	-94,640	-0,062	-0,012
-318,270	-1,091	0,083	-0,042
-317,256	33,660	-0,093	0,059
-316,241	-76,656	-0,131	-0,033
-315,226	567,262	0,039	-0,068
-314,212	110,314	-0,096	0,084
-313,197	41,061	0,148	0,096
-312,183	-141,297	-0,091	-0,007
-311,168	652,283	0,056	-0,105
-310,153	800,000	-0,019	-0,041
-309,139	800,000	0,047	0,142
-308,124	-200,000	0,015	0,083
-307,110	307,517	-0,010	-0,013
-306,095	-84,953	0,098	0,022
-305,080	-85,100	0,101	0,023
-304,066	-200,000	-0,020	0,075
-303,051	38,805	0,034	-0,022
-302,037	59,912	-0,144	-0,102
-301,022	464,461	0,059	-0,096
-300,008	-139,321	0,047	-0,004
-298,993	165,734	0,057	-0,058
-297,978	127,448	-0,112	-0,103
-296,964	-21,671	0,138	0,060
-295,949	-51,136	-0,094	-0,032
-294,935	-21,987	0,009	0,004
-293,920	207,010	0,010	0,012
-292,905	-138,922	0,125	-0,010
-291,891	-117,867	0,078	-0,010
-290,876	512,785	-0,033	0,056
-289,862	250,809	0,053	0,065
-288,847	285,110	-0,053	-0,069
-287,832	800,000	0,015	-0,034
-286,818	352,643	0,035	-0,050
-285,803	100,552	0,076	0,064
-284,789	-162,012	-0,118	0,004
-283,774	73,355	-0,074	0,056
-282,759	800,000	-0,039	0,109
-281,745	800,000	-0,011	0,034
-280,730	-129,134	-0,096	-0,010
-279,716	-45,590	0,085	0,030
-278,701	-200,000	-0,002	0,159
-277,686	-86,217	0,081	-0,018
-276,672	-3,621	0,149	-0,074
-275,657	-31,024	0,095	0,038
-274,643	0,119	-0,084	0,043
-273,628	34,808	0,097	-0,061
-272,613	-200,000	0,031	-0,177
-271,599	-200,000	-0,005	-0,029
-270,584	569,186	0,048	0,084
-269,570	-200,000	0,013	0,094
-268,555	-91,045	0,143	0,029
-267,540	-200,000	0,002	0,067
-266,526	-36,114	-0,131	-0,051
-265,511	67,651	-0,105	0,078
-264,497	-0,472	0,075	-0,038
-263,482	800,000	0,039	0,104
-262,467	-49,442	0,049	0,017
-261,453	-57,488	-0,146	-0,046
-260,438	-200,000	-0,010	-0,062
-259,424	249,669	0,070	-0,086
-258,409	164,662	-0,037	0,038
-257,395	-163,828	0,073	-0,002
-256,380	800,000	-0,025	-0,080
-255,365	670,852	0,076	0,143
-254,351	-33,018	0,107	0,043
-253,336	150,133	-0,139	0,136
-252,322	-79,273	-0,081	0,020
-251,307	800,000	0,064	-0,151
-250,292	83,759	0,105	-0,083
-249,278	-17,821	0,116	0,052
-248,263	71,110	0,068	-0,051
-247,249	384,005	-0,065	0,097
-246,234	57,747	0,097	-0,068
-245,219	-200,000	0,011	-0,109
-244,205	-200,000	-0,019	0,106
-243,190	800,000	-0,006	0,015
-242,176	-89,718	-0,111	0,023
-241,161	-200,000	-0,000	0,080
-240,146	247,474	0,063	0,077
-239,132	159,933	-0,038	0,038
-238,117	800,000	-0,020	0,051
-237,103	-200,000	-0,002	0,078
-236,088	94,726	-0,091	0,074
-235,073	-142,586	0,091	-0,006
-234,059	351,023	0,160	0,229
-233,044	-42,106	0,025	0,009
-232,030	-143,812	-0,045	0,003
-231,015	-200,000	0,039	-0,152
-230,000	179,911	-0,025	-0,026
-228,986	180,519	0,080	-0,085
-227,971	800,000	0,015	0,039
-226,957	42,008	0,061	0,040
-225,942	96,759	-0,108	-0,089
-224,927	46,511	-0,056	0,037
-223,913	180,728	-0,019	0,020
-222,898	800,000	0,046	-0,104
-221,884	-200,000	-0,018	-0,088
-220,869	800,000	-0,016	0,036
-219,855	189,800	0,125	0,136
-218,840	800,000	0,036	0,107
-217,825	235,643	0,037	-0,044
-216,811	-49,682	0,027	-0,009
-215,796	-200,000	-0,010	-0,158
-214,782	-200,000	-0,026	0,133
-213,767	-87,744	0,123	-0,026
-212,752	-200,000	0,007	0,171
-211,738	143,737	-0,056	0,054
-210,723	-58,101	-0,115	-0,036
-209,709	-112,716	-0,075	-0,011
-208,694	-106,350	-0,062	-0,010
-207,679	-66,426	-0,057	0,016
-206,665	-27,782	0,126	-0,053
-205,650	216,250	-0,122	0,140
-204,636	-94,785	0,150	0,029
-203,621	338,719	0,066	0,093
-202,606	269,116	0,072	0,091
-201,592	-92,303	0,103	-0,021
-200,577	-200,000	-0,006	-0,089
-199,563	73,220	-0,038	-0,028
-198,548	267,500	0,034	-0,043
-197,533	800,000	-0,043	0,090
-196,519	337,329	0,072	-0,101
-195,504	-200,000	-0,005	0,062
-194,490	100,920	-0,106	-0,088
-193,475	800,000	-0,029	-0,078
-192,460	144,310	0,039	-0,038
-191,446	-24,999	-0,069	-0,029
-190,431	-200,000	-0,011	-0,110
-189,417	-200,000	0,007	0,141
-188,402	525,064	-0,033	-0,056
-187,387	15,361	-0,055	-0,031
-186,373	93,531	-0,021	-0,017
-185,358	-133,986	-0,053	0,005
-184,344	-200,000	-0,002	-0,042
-183,329	-77,560	0,134	-0,033
-182,315	290,452	-0,015	-0,019
-181,300	-200,000	-0,001	-0,139
-180,285	172,303	0,033	-0,034
-179,271	50,594	-0,014	-0,010
-178,256	169,323	-0,092	0,095
-177,242	800,000	0,037	-0,091
-176,227	-82,557	-0,088	-0,020
-175,212	29,912	-0,019	-0,012
-174,198	65,692	0,075	0,054
-173,183	166,873	-0,123	0,125
-172,169	-200,000	0,029	0,000
-171,154	-200,000	-0,005	0,044
-170,139	-200,000	0,024	0,178
-169,125	800,000	-0,035	-0,108
-168,110	800,000	0,047	0,142
-167,096	-200,000	-0,009	0,037
-166,081	-73,078	0,041	0,011
-165,066	800,000	-0,039	-0,085
-164,052	195,993	-0,122	0,134
-163,037	-46,879	0,049	-0,017
-162,023	-200,000	-0,012	0,072
-161,008	-200,000	-0,026	0,087
-159,993	366,884	-0,021	-0,030
-158,979	-200,000	0,002	-0,042
-157,964	60,809	-0,061	-0,043
-156,950	165,564	-0,032	-0,033
-155,935	-56,746	0,034	0,011
-154,920	-53,503	-0,144	-0,047
-153,906	-150,503	0,087	0,005
-152,891	-200,000	0,013	-0,046
-151,877	-140,092	0,086	-0,006
-150,862	-128,874	-0,090	0,009
-149,847	479,656	-0,061	0,100
-148,833	204,339	-0,070	0,078
-147,818	-200,000	-0,016	0,126
-146,804	8,283	0,066	0,035
-145,789	-200,000	0,025	0,096
-144,775	-91,990	-0,144	-0,029
-143,760	161,422	0,107	-0,108
-142,745	-103,907	-0,054	-0,009
-141,731	-200,000	0,016	-0,075
-140,716	-105,727	0,119	-0,019
-139,702	398,793	0,044	-0,066
-138,687	800,000	0,009	-0,020
-137,672	800,000	-0,058	0,141
-136,658	166,257	-0,120	0,122
-135,643	-150,954	0,173	0,009
-134,629	16,576	-0,164	-0,093
-133,614	84,116	0,100	-0,079
-132,599	543,371	0,047	0,082
-131,585	-200,000	-0,002	0,085
-130,570	294,480	-0,052	-0,069
-129,556	543,613	-0,075	-0,130
-128,541	220,780	0,047	-0,055
-127,526	-200,000	-0,012	-0,115
-126,512	-2,687	-0,079	-0,040
-125,497	-29,322	0,079	-0,032
-124,483	36,086	-0,136	0,086
-123,468	-200,000	-0,025	-0,079
-122,453	-180,577	-0,111	-0,002
-121,439	-44,655	-0,122	-0,044
-120,424	53,401	0,034	-0,024
-119,410	139,835	-0,060	0,057
-118,395	48,165	-0,041	0,028
