DTS Sentinel unit serial number:	SN410029Multiplexer serial number:	ORYXHardware model number:	OX2-SRSoftware version number:	ORYX F/W v4,00 Oryx Data Collector v3.7.2.0data status	okinstallation	B6 Nyhavnadifferential loss correction	single-endedforward channel	channel 2reverse channel	N/Adate	2023/12/08time	00:10:08forward acquisition time	300,00reverse acquisition time	0,00gamma	499,1914k internal	0,3164k external	0,3164temperature offset calibration	1,0000default loss term (dB/km)	0,3820temperature slope calibration	1,0000multiplexer offset coefficient	1,0000multiplexer slope coefficient	1,0000fibre end	0,00T internal ref (°C)	13,37T ext. ref 1 (°C)	-3,56T ext. ref 2 (°C)	-3,56length (m)	temperature (°C)	Stokes	anti-Stokes-744,400	98,171	0,141	0,120
-743,385	-4,475	-0,341	-0,173
-742,371	-94,719	0,151	-0,030
-741,356	-85,472	-0,349	-0,079
-740,342	27,072	0,081	-0,050
-739,327	-162,115	-0,223	0,008
-738,312	-42,722	0,092	-0,034
-737,298	-168,353	-0,358	0,010
-736,283	29,333	0,126	0,079
-735,269	-158,853	-0,365	-0,015
-734,254	-131,175	0,241	0,023
-733,239	9,511	-0,439	-0,244
-732,225	142,142	0,079	0,077
-731,210	-200,000	0,019	-0,097
-730,196	36,838	0,002	-0,002
-729,181	800,000	0,086	0,212
-728,167	-103,779	0,191	0,033
-727,152	-12,389	-0,052	-0,025
-726,137	329,813	-0,059	-0,084
-725,123	-200,000	-0,051	0,167
-724,108	42,719	-0,124	-0,083
-723,094	800,000	-0,052	-0,129
-722,079	-200,000	-0,005	0,090
-721,064	-200,000	0,003	0,044
-720,050	0,504	-0,067	0,035
-719,035	507,034	-0,066	-0,114
-718,021	9,606	-0,090	-0,050
-717,006	407,440	-0,061	-0,094
-715,991	-89,867	-0,095	0,020
-714,977	261,164	0,041	-0,053
-713,962	-200,000	-0,023	-0,111
-712,948	-200,000	0,003	-0,187
-711,933	-22,291	-0,070	-0,031
-710,918	-30,874	-0,084	0,035
-709,904	81,407	-0,095	-0,076
-708,889	23,038	-0,092	-0,056
-707,875	393,439	0,081	-0,125
-706,860	-39,747	-0,091	-0,035
-705,845	-102,895	0,111	-0,019
-704,831	-77,634	-0,053	0,013
-703,816	76,922	0,086	0,067
-702,802	800,000	-0,078	-0,192
-701,787	118,091	-0,067	-0,060
-700,772	230,704	-0,116	-0,140
-699,758	800,000	-0,036	-0,074
-698,743	308,745	0,057	0,079
-697,729	478,889	0,064	-0,107
-696,714	-111,775	0,123	-0,018
-695,699	-77,285	-0,097	0,025
-694,685	-200,000	-0,009	-0,081
-693,670	800,000	-0,060	-0,165
-692,656	305,144	-0,011	-0,015
-691,641	230,417	-0,060	0,072
-690,627	161,031	-0,109	0,112
-689,612	-35,972	0,103	0,041
-688,597	-98,535	-0,057	0,011
-687,583	-200,000	0,005	0,030
-686,568	324,243	0,011	-0,015
-685,554	-71,920	0,073	0,020
-684,539	68,618	0,100	-0,075
-683,524	28,497	0,063	0,039
-682,510	-35,223	-0,120	-0,048
-681,495	174,769	-0,097	-0,103
-680,481	156,516	0,093	-0,094
-679,466	-50,637	-0,045	0,015
-678,451	-90,902	-0,107	-0,022
-677,437	728,131	-0,051	-0,100
-676,422	-200,000	0,003	-0,013
-675,408	800,000	0,082	0,173
-674,393	-200,000	0,037	0,178
-673,378	-92,966	-0,150	0,031
-672,364	-200,000	-0,029	-0,202
-671,349	-130,461	0,059	-0,006
-670,335	364,191	-0,069	-0,102
-669,320	800,000	-0,023	0,067
-668,305	-77,452	-0,119	0,030
-667,291	473,573	-0,060	-0,100
-666,276	52,362	-0,027	0,019
-665,262	69,170	-0,146	-0,110
-664,247	-200,000	0,025	-0,098
-663,232	160,568	-0,030	0,031
-662,218	75,839	-0,100	-0,077
-661,203	619,417	0,011	0,021
-660,189	-200,000	0,006	-0,070
-659,174	-200,000	0,003	0,040
-658,159	-42,780	-0,068	-0,025
-657,145	41,060	0,106	0,070
-656,130	-86,074	0,028	-0,006
-655,116	760,995	-0,045	0,089
-654,101	-150,740	0,114	-0,006
-653,086	-200,000	-0,008	-0,029
-652,072	-79,535	-0,026	0,006
-651,057	-163,026	0,094	-0,003
-650,043	-118,990	0,092	-0,012
-649,028	-200,000	0,022	-0,164
-648,014	50,042	0,147	0,101
-646,999	-50,458	-0,113	-0,039
-645,984	410,282	0,045	0,070
-644,970	800,000	-0,032	-0,089
-643,955	-200,000	0,011	0,056
-642,941	346,817	0,023	0,033
-641,926	800,000	-0,022	-0,055
-640,911	-64,629	-0,028	-0,008
-639,897	61,342	-0,061	-0,045
-638,882	-6,661	-0,089	-0,044
-637,868	800,000	-0,035	0,109
-636,853	800,000	0,013	0,037
-635,838	-200,000	-0,003	-0,031
-634,824	608,100	0,047	-0,086
-633,809	477,072	0,052	0,086
-632,795	11,665	0,097	0,054
-631,780	-200,000	0,013	-0,058
-630,765	40,416	-0,137	-0,090
-629,751	-65,460	-0,053	0,015
-628,736	-47,015	-0,090	0,032
-627,722	-71,518	-0,061	-0,017
-626,707	268,783	-0,033	0,042
-625,692	-200,000	0,059	0,277
-624,678	-60,934	-0,091	0,028
-623,663	60,176	-0,084	-0,061
-622,649	-96,578	-0,069	-0,013
-621,634	127,102	0,111	0,103
-620,619	-47,662	0,033	-0,011
-619,605	-88,184	0,073	0,016
-618,590	-200,000	0,035	0,152
-617,576	-200,000	-0,009	0,095
-616,561	197,420	-0,052	0,058
-615,546	-7,460	0,037	0,018
-614,532	643,345	0,034	-0,063
-613,517	-200,000	0,009	-0,040
-612,503	129,551	0,041	0,039
-611,488	-49,333	-0,055	-0,019
-610,474	800,000	0,068	-0,197
-609,459	800,000	0,036	-0,075
-608,444	800,000	-0,025	0,055
-607,430	-74,790	-0,195	-0,051
-606,415	-29,928	-0,087	0,036
-605,401	-25,409	-0,076	0,033
-604,386	800,000	0,043	0,114
-603,371	-126,570	0,030	0,003
-602,357	-141,979	-0,107	-0,008
-601,342	626,973	0,030	0,056
-600,328	110,257	-0,135	-0,119
-599,313	800,000	-0,094	0,221
-598,298	800,000	0,005	-0,014
-597,284	-95,330	0,144	0,028
-596,269	-200,000	-0,016	0,159
-595,255	-200,000	-0,015	-0,077
-594,240	102,193	0,064	-0,054
-593,225	110,023	0,091	0,080
-592,211	-200,000	0,025	0,105
-591,196	800,000	-0,038	-0,085
-590,182	-160,551	-0,072	-0,003
-589,167	-42,057	0,085	0,032
-588,152	182,625	0,012	-0,013
-587,138	162,534	0,044	0,045
-586,123	800,000	-0,019	-0,060
-585,109	74,227	-0,043	-0,033
-584,094	-59,461	-0,095	0,030
-583,079	-94,887	-0,055	-0,011
-582,065	284,569	0,080	0,105
-581,050	-200,000	0,004	-0,061
-580,036	-63,926	0,094	-0,028
-579,021	88,631	-0,076	-0,062
-578,006	-60,322	-0,098	0,030
-576,992	-92,034	-0,093	0,019
-575,977	800,000	0,060	0,124
-574,963	800,000	-0,023	0,059
-573,948	-200,000	0,000	-0,037
-572,934	-8,555	-0,073	-0,036
-571,919	512,755	-0,037	0,063
-570,904	-25,708	-0,052	-0,022
-569,890	-200,000	-0,006	0,066
-568,875	-46,993	-0,042	-0,015
-567,861	-200,000	0,021	0,108
-566,846	-200,000	0,017	-0,097
-565,831	800,000	-0,049	0,127
-564,817	211,271	0,054	0,062
-563,802	-83,850	-0,119	0,027
-562,788	532,908	-0,087	-0,151
-561,773	800,000	0,030	0,064
-560,758	-87,304	0,103	0,023
-559,744	50,686	-0,028	-0,020
-558,729	800,000	0,034	-0,076
-557,715	97,398	-0,031	0,026
-556,700	-74,889	-0,036	-0,009
-555,685	-20,264	-0,099	-0,045
-554,671	-200,000	0,009	-0,165
-553,656	800,000	0,014	-0,037
-552,642	-200,000	-0,014	-0,061
-551,627	-200,000	-0,004	0,030
-550,612	615,372	-0,043	-0,079
-549,598	57,584	0,085	-0,061
-548,583	-153,292	-0,200	0,010
-547,569	-48,953	-0,157	0,054
-546,554	800,000	0,014	-0,032
-545,539	-200,000	0,017	0,057
-544,525	-200,000	0,002	0,024
-543,510	223,454	-0,007	-0,008
-542,496	329,805	-0,084	-0,118
-541,481	-52,165	-0,081	-0,027
-540,466	-118,679	-0,082	-0,010
-539,452	-200,000	-0,012	0,069
-538,437	357,833	0,086	0,126
-537,423	-200,000	0,019	-0,063
-536,408	145,467	0,030	0,029
-535,393	511,655	0,072	0,122
-534,379	800,000	-0,054	-0,119
-533,364	84,385	-0,163	-0,130
-532,350	800,000	0,039	0,089
-531,335	-38,644	0,144	0,055
-530,321	44,544	-0,027	0,018
-529,306	800,000	0,025	-0,062
-528,291	800,000	-0,074	0,169
-527,277	322,111	-0,147	-0,204
-526,262	195,089	-0,161	-0,178
-525,248	-191,706	-0,009	0,000
-524,233	485,027	-0,088	0,146
-523,218	-200,000	0,003	0,029
-522,204	-200,000	-0,001	0,121
-521,189	-91,211	-0,164	-0,034
-520,175	-127,466	0,081	-0,008
-519,160	50,402	0,107	0,074
-518,145	-200,000	0,002	0,018
-517,131	94,406	0,081	-0,067
-516,116	331,433	0,038	-0,054
-515,102	-45,899	-0,073	0,026
-514,087	-200,000	-0,012	-0,051
-513,072	70,896	-0,125	-0,094
-512,058	20,744	-0,146	0,086
-511,043	-142,378	0,100	-0,007
-510,029	-200,000	-0,015	-0,057
-509,014	-200,000	0,009	0,051
-507,999	700,293	0,021	-0,040
-506,985	-200,000	0,054	-0,243
-505,970	-140,584	0,207	0,015
-504,956	-169,287	0,093	0,002
-503,941	64,644	0,071	-0,052
-502,926	102,012	0,036	-0,031
-501,912	-200,000	-0,001	0,068
-500,897	-200,000	0,007	-0,068
-499,883	-200,000	0,011	-0,102
-498,868	-200,000	-0,005	-0,143
-497,853	-34,233	-0,076	-0,030
-496,839	628,211	-0,048	-0,089
-495,824	800,000	0,035	0,107
-494,810	107,417	0,079	0,068
-493,795	84,146	0,053	-0,042
-492,781	-200,000	-0,024	-0,122
-491,766	-178,057	-0,039	-0,001
-490,751	65,346	-0,063	-0,046
-489,737	59,538	0,103	-0,074
-488,722	-145,225	0,157	0,010
-487,708	34,809	0,086	-0,055
-486,693	800,000	-0,042	0,105
-485,678	-200,000	0,007	0,136
-484,664	-200,000	-0,010	-0,114
-483,649	181,252	-0,101	-0,108
-482,635	264,714	0,032	-0,040
-481,620	-200,000	0,024	-0,104
-480,605	482,642	-0,057	0,095
-479,591	-113,197	-0,128	0,018
-478,576	117,029	0,107	-0,096
-477,562	-73,861	-0,061	-0,016
-476,547	-200,000	0,011	-0,132
-475,532	-30,579	-0,034	0,014
-474,518	-36,736	-0,172	0,067
-473,503	255,347	-0,032	-0,041
-472,489	-200,000	-0,001	0,009
-471,474	-18,762	-0,067	-0,030
-470,459	55,519	-0,130	-0,091
-469,445	-135,232	0,100	0,009
-468,430	800,000	0,016	-0,049
-467,416	58,809	-0,036	-0,026
-466,401	46,802	-0,011	-0,008
-465,386	-76,855	0,023	-0,006
-464,372	-53,170	-0,049	-0,016
-463,357	90,751	0,048	0,039
-462,343	81,876	-0,138	-0,109
-461,328	-121,455	-0,134	0,016
-460,313	-121,222	0,046	0,006
-459,299	-51,303	-0,058	-0,020
-458,284	800,000	0,059	0,170
-457,270	73,547	0,102	-0,077
-456,255	-200,000	-0,010	0,093
-455,241	93,907	0,108	0,089
-454,226	800,000	0,013	0,040
-453,211	-156,160	0,021	0,001
-452,197	800,000	-0,026	-0,060
-451,182	-200,000	0,010	-0,049
-450,168	-15,954	0,079	0,036
-449,153	46,490	-0,070	-0,047
-448,138	-33,568	0,027	-0,011
-447,124	278,642	-0,057	0,074
-446,109	246,664	0,027	0,033
-445,095	-172,204	0,123	-0,003
-444,080	-3,502	0,086	-0,043
-443,065	-13,933	0,042	-0,020
-442,051	800,000	0,031	-0,087
-441,036	-130,921	0,160	-0,015
-440,022	-200,000	-0,001	-0,227
-439,007	259,277	-0,082	-0,103
-437,992	800,000	0,057	0,148
-436,978	-200,000	-0,009	0,056
-435,963	-68,178	-0,130	-0,037
-434,949	-0,191	-0,133	0,068
-433,934	800,000	-0,022	-0,059
-432,919	-30,978	-0,114	-0,046
-431,905	800,000	-0,073	-0,153
-430,890	240,090	-0,059	-0,071
-429,876	-200,000	0,003	0,015
-428,861	-61,190	0,085	0,026
-427,846	-98,481	-0,102	0,019
-426,832	278,980	-0,017	0,022
-425,817	-200,000	0,006	0,052
-424,803	21,238	0,024	-0,014
-423,788	800,000	-0,007	0,015
-422,773	679,293	0,038	0,072
-421,759	800,000	0,016	0,040
-420,744	88,460	-0,033	0,027
-419,730	-200,000	0,010	0,063
-418,715	-200,000	-0,024	-0,096
-417,701	-200,000	0,012	0,172
-416,686	-200,000	0,004	0,046
-415,671	315,095	0,082	0,112
-414,657	-104,235	0,027	0,005
-413,642	-200,000	-0,009	-0,205
-412,628	-14,643	0,126	-0,059
-411,613	509,634	-0,035	0,059
-410,598	-168,748	0,044	-0,001
-409,584	63,906	0,070	-0,051
-408,569	175,887	-0,073	0,077
-407,555	-180,159	-0,061	-0,001
-406,540	36,177	-0,132	0,084
-405,525	454,130	-0,067	0,109
-404,511	800,000	0,024	-0,076
-403,496	232,610	-0,062	-0,075
-402,482	-90,554	0,124	-0,026
-401,467	578,797	0,039	0,069
-400,452	431,705	0,097	0,153
-399,438	234,056	-0,035	-0,042
-398,423	215,062	-0,071	-0,082
-397,409	-4,009	0,071	0,036
-396,394	800,000	-0,034	0,086
-395,379	219,266	0,068	0,079
-394,365	-130,026	0,099	0,010
-393,350	0,773	0,060	0,031
-392,336	129,352	-0,037	-0,034
-391,321	323,532	-0,056	0,078
-390,306	-99,147	-0,015	-0,003
-389,292	-68,908	0,106	-0,030
-388,277	58,585	-0,090	-0,064
-387,263	800,000	-0,027	-0,073
-386,248	162,221	0,145	0,148
-385,233	-45,558	-0,110	-0,039
-384,219	203,013	0,113	0,126
-383,204	-200,000	-0,010	-0,085
-382,190	-128,855	0,041	-0,004
-381,175	93,678	-0,093	-0,077
-380,160	141,735	0,026	0,025
-379,146	349,927	-0,036	0,052
-378,131	-200,000	-0,006	0,078
-377,117	-126,360	0,089	0,009
-376,102	800,000	-0,019	0,058
-375,088	-200,000	-0,002	-0,068
-374,073	800,000	0,036	-0,075
-373,058	119,890	-0,076	-0,069
-372,044	800,000	0,009	-0,029
-371,029	-88,376	-0,013	0,003
-370,015	800,000	0,008	0,021
-369,000	-47,680	0,136	-0,048
-367,985	108,936	-0,023	0,020
-366,971	84,009	-0,032	0,025
-365,956	-38,930	0,092	0,035
-364,942	-27,442	-0,042	-0,018
-363,927	477,352	0,085	0,140
-362,912	-134,362	0,141	0,012
-361,898	-137,746	-0,051	-0,004
-360,883	591,221	0,055	-0,099
-359,869	-200,000	0,016	-0,200
-358,854	581,073	-0,053	-0,095
-357,839	-200,000	0,010	0,091
-356,825	-75,547	0,053	-0,014
-355,810	162,774	0,065	0,066
-354,796	800,000	0,040	-0,101
-353,781	800,000	0,049	0,104
-352,766	-112,167	-0,029	-0,004
-351,752	19,929	-0,086	0,050
-350,737	-60,409	0,087	0,027
-349,723	-144,494	0,085	0,006
-348,708	63,798	-0,097	-0,071
-347,693	800,000	0,044	-0,102
-346,679	-200,000	-0,026	-0,160
-345,664	-27,251	0,104	-0,044
-344,650	432,986	0,035	0,055
-343,635	800,000	-0,028	0,063
-342,620	32,283	0,027	0,017
-341,606	7,346	0,003	-0,002
-340,591	332,022	0,054	-0,076
-339,577	-15,891	-0,086	-0,039
-338,562	194,860	-0,093	0,103
-337,548	-200,000	-0,017	0,109
-336,533	493,612	-0,054	0,091
-335,518	209,300	-0,106	0,121
-334,504	92,171	0,117	0,095
-333,489	-200,000	0,041	-0,209
-332,475	-138,561	-0,136	0,011
-331,460	142,297	-0,091	-0,088
-330,445	-200,000	-0,002	0,044
-329,431	-144,083	0,050	-0,003
-328,416	-200,000	-0,013	0,046
-327,402	800,000	0,033	0,072
-326,387	800,000	0,013	0,028
-325,372	45,104	-0,107	-0,071
-324,358	127,198	-0,072	0,066
-323,343	-17,040	-0,050	-0,023
-322,329	69,564	0,215	0,160
-321,314	800,000	-0,034	0,089
-320,299	244,800	-0,107	0,130
-319,285	-34,545	0,037	-0,015
-318,270	553,213	0,057	0,099
-317,256	6,652	-0,156	-0,083
-316,241	-64,245	0,045	0,013
-315,226	219,347	-0,087	0,101
-314,212	402,861	0,106	0,161
-313,197	-83,132	-0,151	-0,035
-312,183	-139,916	0,036	-0,003
-311,168	-199,699	-0,093	-0,000
-310,153	-72,554	-0,006	0,002
-309,139	-200,000	-0,020	-0,208
-308,124	165,619	-0,039	-0,040
-307,110	-200,000	0,030	-0,104
-306,095	247,291	0,070	-0,086
-305,080	-0,372	0,118	0,061
-304,066	-50,648	-0,177	-0,060
-303,051	17,218	0,084	-0,048
-302,037	-41,268	0,120	0,045
-301,022	100,592	-0,052	-0,043
-300,008	19,537	0,047	-0,027
-298,993	33,170	0,037	0,023
-297,978	68,640	0,090	0,067
-296,964	638,489	0,050	-0,092
-295,949	227,665	-0,082	-0,097
-294,935	443,820	0,068	-0,108
-293,920	-78,631	-0,169	-0,041
-292,905	-108,661	-0,039	-0,006
-291,891	78,863	0,118	0,091
-290,876	-10,414	-0,071	-0,034
-289,862	17,306	-0,076	-0,043
-288,847	284,290	0,023	0,031
-287,832	-200,000	-0,003	-0,119
-286,818	120,847	-0,103	0,093
-285,803	195,125	0,055	-0,060
-284,789	627,615	0,036	0,066
-283,774	-25,498	-0,011	-0,005
-282,759	683,486	-0,015	-0,028
-281,745	-200,000	0,033	-0,111
-280,730	-104,058	0,145	0,024
-279,716	-108,003	-0,046	-0,007
-278,701	13,105	0,033	0,018
-277,686	-133,566	-0,084	-0,007
-276,672	-200,000	0,004	0,061
-275,657	12,316	-0,084	-0,046
-274,643	800,000	0,049	-0,127
-273,628	-200,000	0,031	0,137
-272,613	-200,000	-0,001	-0,094
-271,599	-120,887	0,042	-0,005
-270,584	303,445	-0,044	0,059
-269,570	325,998	0,045	-0,063
-268,555	21,279	0,152	0,089
-267,540	800,000	0,001	-0,004
-266,526	-143,420	0,099	-0,007
-265,511	-200,000	-0,005	-0,024
-264,497	562,316	0,082	0,143
-263,482	233,748	-0,001	-0,002
-262,467	99,058	0,046	-0,038
-261,453	188,004	0,025	0,027
-260,438	560,655	0,027	-0,048
-259,424	448,769	-0,031	0,050
-258,409	-200,000	0,003	-0,060
-257,395	5,415	0,074	-0,039
-256,380	489,765	0,037	-0,060
-255,365	118,418	-0,104	0,092
-254,351	-76,568	0,102	0,026
-253,336	-13,749	-0,043	-0,020
-252,322	229,062	-0,050	-0,059
-251,307	503,361	0,061	0,102
-250,292	498,319	0,040	-0,067
-249,278	-200,000	0,020	0,134
-248,263	78,660	-0,010	-0,008
-247,249	-73,799	0,097	-0,025
-246,234	-69,710	-0,155	-0,043
-245,219	-53,374	0,057	0,019
-244,205	-200,000	0,001	-0,130
-243,190	-200,000	-0,019	-0,069
-242,176	-71,870	0,121	-0,032
-241,161	800,000	0,062	0,139
-240,146	147,209	0,027	0,026
-239,132	800,000	-0,039	0,124
-238,117	-66,196	0,096	0,027
-237,103	-111,872	-0,073	-0,011
-236,088	11,536	0,151	-0,083
-235,073	194,370	0,121	0,133
-234,059	-200,000	-0,031	-0,171
-233,044	800,000	0,032	0,075
-232,030	162,385	-0,063	0,064
-231,015	13,510	0,081	-0,045
-230,000	534,146	-0,023	-0,039
-228,986	-200,000	0,003	-0,026
-227,971	771,306	0,080	0,157
-226,957	84,846	0,028	-0,022
-225,942	800,000	-0,013	-0,035
-224,927	121,149	0,051	0,046
-223,913	33,584	-0,115	0,072
-222,898	800,000	0,033	0,096
-221,884	-99,384	0,181	-0,033
-220,869	-88,721	0,116	0,025
-219,855	800,000	-0,085	0,174
-218,840	-103,921	-0,063	0,010
-217,825	-15,284	-0,037	-0,017
-216,811	-146,782	-0,071	-0,004
-215,796	-200,000	0,011	-0,061
-214,782	113,192	0,038	0,033
-213,767	-200,000	-0,010	-0,095
-212,752	-60,648	0,092	-0,028
-211,738	-21,932	-0,073	0,032
-210,723	-200,000	-0,001	0,116
-209,709	-38,462	0,056	0,021
-208,694	-200,000	-0,007	-0,067
-207,679	800,000	0,015	-0,040
-206,665	229,350	0,058	0,068
-205,650	-129,234	-0,086	-0,009
-204,636	-200,000	-0,002	0,166
-203,621	39,704	-0,056	-0,036
-202,606	158,030	0,087	0,087
-201,592	800,000	-0,033	-0,080
-200,577	68,389	0,141	0,104
-199,563	115,682	0,011	0,010
-198,548	57,002	-0,080	-0,056
-197,533	800,000	-0,051	0,147
-196,519	176,351	0,044	-0,046
-195,504	197,634	-0,075	-0,082
-194,490	275,386	0,033	-0,043
-193,475	-200,000	0,002	-0,131
-192,460	-103,173	0,096	-0,016
-191,446	-200,000	-0,003	0,116
-190,431	185,611	-0,107	0,114
-189,417	-200,000	-0,012	0,101
-188,402	-200,000	-0,006	-0,022
-187,387	93,549	-0,093	0,075
-186,373	-126,392	-0,081	-0,009
-185,358	441,123	-0,064	0,101
-184,344	-35,315	0,086	0,034
-183,329	244,291	0,025	-0,030
-182,315	-200,000	-0,002	-0,073
-181,300	-65,342	0,074	0,021
-180,285	20,155	-0,037	0,021
-179,271	20,915	-0,112	0,065
-178,256	-137,800	0,068	-0,005
-177,242	-67,697	0,015	-0,004
-176,227	800,000	0,090	0,182
-175,212	-69,566	0,120	-0,033
-174,198	-200,000	0,001	-0,116
-173,183	-200,000	0,003	0,048
-172,169	800,000	-0,100	-0,210
-171,154	-200,000	0,014	-0,057
-170,139	-58,163	0,073	-0,023
-169,125	193,855	-0,052	0,057
-168,110	800,000	0,034	-0,105
-167,096	-200,000	-0,026	-0,101
-166,081	45,105	-0,020	0,013
-165,066	-109,638	-0,017	-0,002
-164,052	-95,018	0,033	-0,006
-163,037	-112,707	-0,037	0,005
-162,023	54,843	0,068	-0,047
-161,008	16,723	0,053	0,030
-159,993	-200,000	0,003	-0,069
-158,979	-158,091	-0,063	-0,003
-157,964	-200,000	0,037	-0,120
-156,950	-129,512	0,074	0,007
-155,935	-200,000	0,011	0,059
-154,920	122,432	0,055	0,049
-153,906	7,641	-0,050	-0,027
-152,891	-73,680	0,055	-0,014
-151,877	12,742	-0,079	-0,044
-150,862	800,000	-0,071	-0,165
-149,847	238,443	0,059	0,070
-148,833	149,898	-0,151	-0,148
-147,818	570,666	-0,089	0,156
-146,804	337,827	-0,050	-0,070
-145,789	286,880	-0,074	-0,096
-144,775	-147,935	-0,068	0,004
-143,760	-84,326	-0,020	0,005
-142,745	271,189	0,005	0,006
-141,731	-18,881	0,117	-0,052
-140,716	-110,513	-0,060	0,009
-139,702	-200,000	-0,040	0,163
-138,687	800,000	-0,045	-0,091
-137,672	268,474	-0,042	-0,053
-136,658	-200,000	-0,009	-0,137
-135,643	-133,294	-0,027	-0,002
-134,629	271,653	0,010	0,013
-133,614	-200,000	0,022	0,123
-132,599	-200,000	-0,000	0,060
-131,585	-19,909	0,038	0,017
-130,570	-100,176	-0,046	-0,008
-129,556	-200,000	0,004	-0,034
-128,541	-200,000	0,022	-0,099
-127,526	428,524	0,013	0,020
-126,512	-200,000	0,006	0,107
-125,497	-140,315	0,093	-0,007
-124,483	191,320	0,076	0,082
-123,468	-120,401	-0,120	0,015
-122,453	800,000	-0,039	-0,119
-121,439	417,201	-0,070	-0,107
-120,424	-200,000	-0,014	-0,091
-119,410	-55,550	0,115	0,037
