DTS Sentinel unit serial number:	SN410029Multiplexer serial number:	ORYXHardware model number:	OX2-SRSoftware version number:	ORYX F/W v4,00 Oryx Data Collector v3.7.2.0data status	okinstallation	B6 Nyhavnadifferential loss correction	single-endedforward channel	channel 2reverse channel	N/Adate	2023/12/07time	11:20:08forward acquisition time	300,00reverse acquisition time	0,00gamma	499,1914k internal	0,3201k external	0,3201temperature offset calibration	1,0000default loss term (dB/km)	0,3820temperature slope calibration	1,0000multiplexer offset coefficient	1,0000multiplexer slope coefficient	1,0000fibre end	0,00T internal ref (°C)	8,24T ext. ref 1 (°C)	-5,77T ext. ref 2 (°C)	-5,80length (m)	temperature (°C)	Stokes	anti-Stokes-744,400	-46,484	0,177	-0,063
-743,385	-151,113	-0,272	-0,015
-742,371	-47,454	0,198	0,070
-741,356	-49,448	-0,377	-0,130
-740,342	-99,935	0,159	0,029
-739,327	-53,324	-0,403	0,134
-738,312	-24,668	0,156	0,067
-737,298	-15,536	-0,431	-0,199
-736,283	456,534	0,126	0,204
-735,269	-99,462	-0,567	-0,103
-734,254	-85,516	0,224	0,050
-733,239	14,079	-0,538	-0,304
-732,225	39,125	0,189	0,123
-731,210	-166,653	-0,032	0,001
-730,196	192,178	0,066	0,072
-729,181	-200,000	-0,003	0,047
-728,167	800,000	-0,061	0,148
-727,152	-200,000	-0,003	-0,109
-726,137	-179,415	-0,122	-0,002
-725,123	322,134	0,091	-0,126
-724,108	40,958	-0,135	-0,088
-723,094	-200,000	-0,060	-0,217
-722,079	501,410	0,045	-0,077
-721,064	-200,000	-0,007	0,203
-720,050	223,198	-0,094	0,110
-719,035	-200,000	-0,012	-0,065
-718,021	-13,844	0,029	-0,014
-717,006	-62,666	-0,016	0,005
-715,991	614,771	-0,053	-0,096
-714,977	659,654	0,050	0,094
-713,962	-72,944	-0,092	-0,024
-712,948	-200,000	0,006	-0,048
-711,933	800,000	0,046	-0,123
-710,918	1,569	0,131	0,068
-709,904	313,456	-0,145	-0,198
-708,889	-70,305	-0,122	0,033
-707,875	800,000	-0,016	-0,049
-706,860	-26,570	0,155	-0,065
-705,845	800,000	-0,052	-0,106
-704,831	-200,000	-0,028	0,102
-703,816	-162,295	-0,121	-0,004
-702,802	75,732	0,198	-0,151
-701,787	-9,479	-0,178	-0,086
-700,772	-200,000	0,042	0,183
-699,758	633,071	-0,036	0,067
-698,743	26,767	0,145	0,088
-697,729	1,963	0,100	0,052
-696,714	-200,000	-0,015	-0,068
-695,699	-47,890	-0,174	0,061
-694,685	-108,009	-0,081	-0,013
-693,670	19,041	0,130	0,076
-692,656	155,032	-0,017	-0,017
-691,641	392,546	0,060	0,091
-690,627	18,533	0,141	0,081
-689,612	-132,903	0,085	0,008
-688,597	270,601	0,050	0,064
-687,583	-200,000	0,040	-0,150
-686,568	735,522	0,040	0,078
-685,554	-142,969	-0,068	-0,005
-684,539	-200,000	-0,003	0,147
-683,524	141,668	0,063	0,061
-682,510	-200,000	0,008	-0,125
-681,495	-75,413	-0,108	0,028
-680,481	58,921	-0,116	-0,082
-679,466	80,309	0,108	-0,084
-678,451	-200,000	-0,132	0,000
-677,437	588,368	-0,007	0,013
-676,422	388,189	0,055	-0,083
-675,408	-6,563	-0,059	0,029
-674,393	800,000	-0,050	0,107
-673,378	-200,000	-0,001	-0,064
-672,364	-28,359	0,078	0,032
-671,349	-200,000	-0,001	-0,011
-670,335	800,000	0,009	0,019
-669,320	-14,054	-0,185	-0,086
-668,305	44,809	-0,127	-0,085
-667,291	-200,000	0,000	-0,108
-666,276	-200,000	0,010	0,052
-665,262	-77,649	-0,021	0,005
-664,247	0,275	0,085	-0,044
-663,232	394,615	-0,102	-0,155
-662,218	800,000	0,017	-0,040
-661,203	-200,000	0,009	-0,184
-660,189	-52,295	0,057	0,019
-659,174	-200,000	0,009	-0,030
-658,159	289,787	0,005	-0,006
-657,145	-25,799	-0,042	0,018
-656,130	-72,740	-0,073	0,019
-655,116	800,000	0,018	-0,042
-654,101	800,000	0,053	0,109
-653,086	45,325	0,029	0,019
-652,072	185,355	-0,077	-0,083
-651,057	155,428	-0,034	-0,034
-650,043	141,717	-0,066	-0,063
-649,028	710,564	0,055	-0,106
-648,014	-189,843	0,016	-0,000
-646,999	-200,000	0,006	0,024
-645,984	-29,846	-0,034	0,014
-644,970	196,842	0,153	-0,169
-643,955	351,369	0,081	-0,117
-642,941	-137,796	-0,059	-0,005
-641,926	30,284	-0,047	-0,029
-640,911	800,000	-0,003	-0,008
-639,897	-11,175	0,009	0,004
-638,882	-200,000	0,005	0,030
-637,868	800,000	-0,036	-0,104
-636,853	800,000	0,032	-0,071
-635,838	101,523	0,036	0,031
-634,824	800,000	0,067	0,148
-633,809	6,147	0,124	0,066
-632,795	82,640	0,050	0,039
-631,780	164,406	0,071	0,073
-630,765	800,000	-0,022	0,050
-629,751	-200,000	0,001	-0,091
-628,736	-200,000	-0,003	-0,047
-627,722	-200,000	0,011	-0,057
-626,707	1,005	0,121	0,062
-625,692	390,452	0,110	0,165
-624,678	-200,000	-0,004	0,023
-623,663	-62,097	0,088	0,026
-622,649	-200,000	-0,022	-0,125
-621,634	-37,133	-0,024	-0,009
-620,619	441,590	-0,116	-0,184
-619,605	-118,299	-0,099	-0,013
-618,590	-143,281	-0,022	-0,001
-617,576	52,142	-0,063	0,044
-616,561	417,269	0,027	-0,041
-615,546	-45,550	-0,164	-0,059
-614,532	-66,159	-0,168	-0,048
-613,517	-200,000	-0,010	-0,058
-612,503	140,670	0,062	0,060
-611,488	11,924	-0,094	0,052
-610,474	-109,543	0,134	-0,020
-609,459	-200,000	0,007	0,054
-608,444	-117,594	-0,060	-0,008
-607,430	117,506	-0,018	-0,016
-606,415	-124,631	-0,151	0,017
-605,401	-48,958	-0,036	-0,012
-604,386	-180,178	-0,010	0,000
-603,371	-58,441	0,033	-0,010
-602,357	70,129	-0,047	-0,035
-601,342	-200,000	-0,030	-0,112
-600,328	-200,000	0,002	0,012
-599,313	-200,000	-0,015	0,090
-598,298	26,237	-0,036	0,021
-597,284	800,000	0,037	-0,093
-596,269	-38,938	-0,033	-0,012
-595,255	44,060	-0,074	-0,049
-594,240	-200,000	-0,006	0,026
-593,225	313,621	-0,022	0,029
-592,211	-3,923	-0,118	0,059
-591,196	-200,000	-0,017	-0,177
-590,182	-200,000	0,014	0,079
-589,167	-16,126	-0,010	0,005
-588,152	-200,000	-0,055	0,191
-587,138	800,000	0,010	0,026
-586,123	-200,000	-0,025	-0,108
-585,109	65,008	-0,015	0,011
-584,094	800,000	0,013	0,028
-583,079	67,442	0,031	-0,023
-582,065	146,606	0,051	0,049
-581,050	212,342	0,056	-0,064
-580,036	800,000	-0,025	-0,054
-579,021	-33,295	0,071	-0,028
-578,006	-89,203	-0,099	0,021
-576,992	-115,775	-0,102	0,014
-575,977	-48,306	0,058	-0,020
-574,963	-22,141	-0,127	0,055
-573,948	349,864	-0,047	0,067
-572,934	-140,876	-0,060	0,004
-571,919	270,402	-0,093	-0,119
-570,904	-24,076	-0,107	0,046
-569,890	593,186	0,068	0,122
-568,875	800,000	0,014	0,043
-567,861	480,794	0,068	0,113
-566,846	113,884	0,061	-0,053
-565,831	-200,000	0,016	-0,057
-564,817	-53,685	-0,092	0,030
-563,802	-200,000	0,027	0,163
-562,788	800,000	-0,029	-0,067
-561,773	197,044	-0,042	0,047
-560,758	604,139	-0,040	0,073
-559,744	547,177	0,039	0,067
-558,729	800,000	0,023	0,061
-557,715	-73,679	-0,057	0,015
-556,700	-14,392	0,082	-0,038
-555,685	611,616	0,045	0,081
-554,671	176,998	0,095	0,100
-553,656	59,729	0,098	0,070
-552,642	-21,831	0,093	-0,041
-551,627	-200,000	0,016	0,054
-550,612	-200,000	0,013	0,062
-549,598	800,000	0,046	-0,095
-548,583	-49,784	-0,090	-0,031
-547,569	800,000	0,024	-0,068
-546,554	-200,000	0,015	0,096
-545,539	800,000	0,024	0,076
-544,525	720,159	-0,092	0,178
-543,510	-5,532	-0,044	0,022
-542,496	-35,095	-0,096	-0,038
-541,481	-147,577	0,109	-0,007
-540,466	-172,199	-0,066	0,001
-539,452	-200,000	-0,006	-0,032
-538,437	-200,000	0,043	0,000
-537,423	-107,679	-0,149	0,023
-536,408	800,000	0,014	0,029
-535,393	800,000	-0,077	-0,160
-534,379	800,000	-0,030	0,093
-533,364	13,238	0,119	-0,066
-532,350	-200,000	0,032	0,110
-531,335	-200,000	-0,016	0,151
-530,321	-200,000	-0,037	0,134
-529,306	271,596	-0,067	0,086
-528,291	16,412	-0,101	-0,057
-527,277	117,742	0,041	-0,036
-526,262	219,390	0,054	0,062
-525,248	-53,679	0,150	0,049
-524,233	42,181	0,127	0,083
-523,218	106,453	-0,088	0,075
-522,204	800,000	-0,031	0,077
-521,189	20,643	0,061	0,035
-520,175	800,000	-0,045	-0,132
-519,160	71,033	-0,212	0,158
-518,145	800,000	0,039	0,098
-517,131	800,000	0,023	0,071
-516,116	-63,129	0,076	-0,022
-515,102	-180,748	-0,110	-0,002
-514,087	-200,000	-0,023	0,092
-513,072	-200,000	-0,034	-0,117
-512,058	-200,000	0,035	-0,123
-511,043	563,695	0,083	0,146
-510,029	92,552	0,085	-0,069
-509,014	22,007	0,058	0,034
-507,999	800,000	0,059	0,118
-506,985	135,222	-0,037	-0,035
-505,970	-200,000	-0,028	-0,103
-504,956	211,211	-0,140	-0,159
-503,941	-117,334	0,097	0,013
-502,926	306,825	-0,084	0,113
-501,912	164,523	0,008	0,008
-500,897	65,556	0,070	-0,051
-499,883	104,139	-0,067	0,057
-498,868	-115,656	-0,172	0,023
-497,853	-79,662	-0,156	0,038
-496,839	-42,489	0,093	-0,034
-495,824	150,285	-0,082	0,080
-494,810	35,492	-0,105	0,066
-493,795	-102,525	0,020	0,003
-492,781	293,764	0,005	-0,007
-491,766	-66,368	-0,064	-0,018
-490,751	-40,132	-0,020	0,007
-489,737	405,670	-0,049	0,074
-488,722	800,000	0,076	0,159
-487,708	492,007	-0,095	0,157
-486,693	-200,000	-0,025	-0,084
-485,678	-200,000	0,012	0,039
-484,664	-200,000	-0,016	0,078
-483,649	139,146	-0,058	0,055
-482,635	-200,000	-0,010	-0,038
-481,620	-5,880	-0,077	-0,038
-480,605	36,279	0,118	0,074
-479,591	800,000	0,007	-0,016
-478,576	-70,292	-0,057	0,016
-477,562	57,432	-0,025	0,018
-476,547	-200,000	-0,010	-0,049
-475,532	72,663	0,090	0,067
-474,518	133,330	0,089	-0,083
-473,503	-93,586	0,117	-0,023
-472,489	800,000	-0,012	0,026
-471,474	311,063	-0,031	-0,042
-470,459	-103,353	-0,064	-0,011
-469,445	72,050	0,008	0,006
-468,430	237,338	-0,086	-0,102
-467,416	-84,939	0,125	-0,028
-466,401	66,719	0,027	0,020
-465,386	-162,033	-0,033	0,001
-464,372	-118,009	-0,091	-0,012
-463,357	212,381	0,066	-0,075
-462,343	-108,799	-0,266	-0,041
-461,328	-37,528	-0,081	-0,031
-460,313	-191,512	0,129	0,001
-459,299	125,365	0,107	0,097
-458,284	-200,000	0,009	0,046
-457,270	800,000	0,077	-0,189
-456,255	275,535	0,094	-0,120
-455,241	11,399	-0,116	0,064
-454,226	118,602	-0,179	-0,159
-453,211	-200,000	-0,000	0,012
-452,197	-123,055	0,084	-0,010
-451,182	-84,748	0,047	-0,011
-450,168	-20,286	-0,121	0,053
-449,153	249,985	-0,037	-0,046
-448,138	-200,000	0,001	-0,110
-447,124	291,845	0,053	0,070
-446,109	-200,000	-0,012	0,039
-445,095	-63,597	0,171	0,050
-444,080	-200,000	-0,002	-0,065
-443,065	-200,000	0,029	-0,107
-442,051	800,000	-0,016	-0,048
-441,036	800,000	-0,016	-0,034
-440,022	-29,216	-0,023	-0,010
-439,007	800,000	0,009	-0,027
-437,992	-48,800	0,080	-0,027
-436,978	20,868	0,106	0,061
-435,963	-200,000	-0,017	-0,146
-434,949	-200,000	0,005	0,087
-433,934	-125,548	-0,096	-0,010
-432,919	323,651	-0,069	-0,095
-431,905	-200,000	-0,033	-0,109
-430,890	624,085	0,056	0,102
-429,876	32,128	-0,101	0,063
-428,861	93,325	0,084	-0,068
-427,846	800,000	0,040	0,087
-426,832	800,000	-0,043	0,086
-425,817	-31,853	0,053	-0,021
-424,803	-119,513	-0,221	0,027
-423,788	43,664	0,112	0,074
-422,773	753,739	-0,071	0,139
-421,759	-200,000	-0,006	0,041
-420,744	800,000	-0,019	-0,048
-419,730	227,889	-0,040	0,047
-418,715	244,115	-0,074	-0,090
-417,701	760,783	-0,044	-0,086
-416,686	309,057	0,056	0,075
-415,671	-200,000	-0,009	-0,048
-414,657	41,490	0,037	0,024
-413,642	800,000	0,047	0,108
-412,628	-200,000	-0,019	-0,164
-411,613	-200,000	-0,018	-0,137
-410,598	-200,000	-0,027	-0,220
-409,584	80,767	0,027	-0,021
-408,569	-13,457	-0,095	-0,044
-407,555	33,954	-0,021	0,013
-406,540	800,000	0,028	-0,060
-405,525	-200,000	0,005	-0,030
-404,511	-52,078	-0,085	-0,028
-403,496	-8,358	-0,042	-0,020
-402,482	800,000	-0,022	-0,069
-401,467	-143,070	0,094	0,006
-400,452	251,164	-0,033	0,041
-399,438	74,754	0,099	-0,074
-398,423	-18,211	0,138	0,062
-397,409	-4,722	-0,072	-0,035
-396,394	513,586	0,050	-0,083
-395,379	381,242	-0,037	0,055
-394,365	14,560	0,072	-0,040
-393,350	39,379	0,068	0,044
-392,336	800,000	-0,030	0,084
-391,321	-200,000	-0,006	-0,160
-390,306	800,000	-0,057	-0,154
-389,292	34,621	-0,062	-0,039
-388,277	-100,042	0,042	0,007
-387,263	135,565	-0,026	0,024
-386,248	-200,000	-0,016	0,065
-385,233	665,181	-0,011	0,020
-384,219	800,000	0,048	-0,104
-383,204	800,000	-0,002	0,006
-382,190	43,376	-0,043	-0,028
-381,175	302,608	0,046	0,062
-380,160	-200,000	0,016	-0,094
-379,146	120,432	-0,132	0,117
-378,131	76,121	-0,066	-0,050
-377,117	-138,078	0,067	-0,005
-376,102	32,954	-0,269	-0,167
-375,088	58,642	0,159	-0,112
-374,073	-133,758	-0,079	-0,007
-373,058	309,242	-0,068	-0,091
-372,044	-51,992	0,184	0,061
-371,029	800,000	-0,015	0,035
-370,015	-138,501	-0,135	-0,010
-369,000	413,894	0,054	-0,082
-367,985	104,081	0,089	0,075
-366,971	-0,902	-0,038	-0,019
-365,956	-200,000	0,002	0,085
-364,942	3,197	0,011	0,006
-363,927	800,000	0,029	-0,087
-362,912	-166,648	-0,069	-0,002
-361,898	-121,093	0,060	0,007
-360,883	-200,000	-0,006	-0,134
-359,869	-145,167	0,064	-0,004
-358,854	-200,000	0,020	0,154
-357,839	-47,188	0,119	0,041
-356,825	182,982	-0,081	0,086
-355,810	-22,290	0,012	0,005
-354,796	-200,000	0,020	-0,209
-353,781	200,943	0,039	-0,043
-352,766	532,807	0,030	-0,052
-351,752	-155,964	0,041	0,002
-350,737	-58,578	0,134	0,041
-349,723	-157,052	0,194	-0,008
-348,708	-143,977	-0,095	-0,006
-347,693	-135,594	0,221	0,019
-346,679	-6,720	-0,156	-0,076
-345,664	407,279	0,020	-0,030
-344,650	-91,344	0,047	-0,009
-343,635	88,470	0,010	0,008
-342,620	-200,000	0,001	0,127
-341,606	74,624	0,080	-0,060
-340,591	24,882	0,047	-0,028
-339,577	800,000	-0,055	-0,158
-338,562	-17,583	0,066	-0,030
-337,548	-20,011	0,031	-0,014
-336,533	-200,000	0,005	-0,096
-335,518	800,000	-0,023	0,054
-334,504	605,808	0,040	0,071
-333,489	-200,000	-0,015	0,125
-332,475	-65,111	-0,090	0,026
-331,460	-133,274	0,200	0,018
-330,445	90,145	0,048	-0,038
-329,431	0,623	0,139	0,071
-328,416	63,859	0,124	0,089
-327,402	727,457	-0,014	-0,027
-326,387	103,706	-0,043	-0,036
-325,372	3,446	0,041	0,021
-324,358	113,439	-0,037	-0,032
-323,343	54,701	0,189	0,130
-322,329	-200,000	-0,022	0,107
-321,314	-200,000	0,008	0,028
-320,299	132,622	0,026	0,024
-319,285	123,199	0,092	0,083
-318,270	-200,000	0,045	-0,181
-317,256	-200,000	0,001	-0,050
-316,241	74,319	0,049	0,037
-315,226	325,331	-0,055	0,076
-314,212	-72,873	0,109	-0,028
-313,197	800,000	-0,040	0,086
-312,183	238,695	0,020	0,024
-311,168	-200,000	0,018	-0,075
-310,153	-103,019	-0,249	-0,042
-309,139	79,797	-0,101	0,078
-308,124	-200,000	0,018	0,095
-307,110	-95,987	0,050	-0,010
-306,095	-200,000	-0,011	0,051
-305,080	71,661	0,053	0,039
-304,066	-200,000	-0,002	-0,100
-303,051	-200,000	-0,007	-0,035
-302,037	-170,303	-0,042	-0,001
-301,022	-25,940	-0,089	-0,037
-300,008	-61,915	0,096	0,028
-298,993	-148,399	-0,025	-0,001
-297,978	145,258	0,066	0,063
-296,964	209,075	0,040	0,044
-295,949	-136,013	0,163	0,014
-294,935	-34,530	-0,082	-0,032
-293,920	-136,335	-0,144	-0,012
-292,905	-200,000	0,002	-0,112
-291,891	-200,000	0,013	0,054
-290,876	-81,524	-0,135	-0,032
-289,862	152,650	0,079	-0,078
-288,847	541,978	0,047	-0,081
-287,832	660,604	-0,066	-0,122
-286,818	-115,227	-0,053	0,007
-285,803	144,668	-0,049	-0,047
-284,789	-200,000	0,091	0,000
-283,774	-53,243	-0,096	0,031
-282,759	185,511	-0,018	0,019
-281,745	-106,561	0,052	0,008
-280,730	-107,965	-0,191	-0,029
-279,716	800,000	-0,086	-0,214
-278,701	650,280	-0,065	0,120
-277,686	800,000	0,087	0,198
-276,672	-61,587	0,038	0,011
-275,657	55,176	-0,074	-0,051
-274,643	-151,002	0,018	0,001
-273,628	294,245	-0,029	0,038
-272,613	-51,339	0,059	-0,019
-271,599	143,963	-0,004	-0,003
-270,584	-200,000	0,004	0,016
-269,570	-129,997	0,047	-0,004
-268,555	800,000	-0,042	0,101
-267,540	-142,481	0,020	-0,001
-266,526	-111,657	0,087	0,012
-265,511	-102,442	0,080	0,014
-264,497	136,343	-0,075	0,070
-263,482	-200,000	0,023	-0,089
-262,467	-200,000	-0,025	-0,092
-261,453	-200,000	0,010	-0,064
-260,438	288,887	-0,050	0,065
-259,424	800,000	-0,058	0,170
-258,409	-152,970	-0,206	-0,010
-257,395	50,940	0,040	0,027
-256,380	117,881	0,085	0,075
-255,365	-72,336	0,094	0,025
-254,351	64,063	-0,023	0,017
-253,336	-137,194	0,045	-0,004
-252,322	-200,000	-0,008	-0,122
-251,307	-200,000	-0,039	0,165
-250,292	-200,000	0,006	-0,065
-249,278	-200,000	0,035	0,127
-248,263	86,379	0,071	-0,056
-247,249	69,083	-0,063	-0,046
-246,234	-200,000	-0,014	0,201
-245,219	-61,597	-0,076	-0,023
-244,205	-200,000	-0,001	0,086
-243,190	97,699	0,046	-0,037
-242,176	800,000	-0,040	-0,122
-241,161	800,000	0,066	0,137
-240,146	34,744	0,099	-0,062
-239,132	800,000	0,060	0,133
-238,117	290,166	0,065	-0,085
-237,103	-128,945	-0,140	-0,014
-236,088	-94,903	-0,048	0,009
-235,073	50,039	0,095	-0,064
-234,059	90,849	-0,026	-0,021
-233,044	-128,229	-0,060	0,006
-232,030	800,000	-0,044	0,125
-231,015	147,103	0,083	-0,080
-230,000	-200,000	0,025	-0,154
-228,986	-200,000	-0,018	-0,062
-227,971	-80,754	0,068	-0,016
-226,957	23,729	0,132	0,078
-225,942	16,295	0,140	0,079
-224,927	800,000	-0,037	-0,105
-223,913	-200,000	0,011	0,071
-222,898	800,000	0,006	-0,016
-221,884	496,796	0,019	0,032
-220,869	-200,000	0,004	0,196
-219,855	-137,493	0,079	0,006
-218,840	33,460	0,109	0,068
-217,825	-200,000	-0,018	-0,102
-216,811	-200,000	-0,010	-0,071
-215,796	684,223	-0,079	-0,147
-214,782	800,000	-0,035	0,095
-213,767	-200,000	-0,002	0,023
-212,752	-200,000	0,024	0,108
-211,738	-10,376	0,115	0,054
-210,723	220,285	0,066	0,075
-209,709	313,329	-0,060	-0,080
-208,694	-200,000	0,003	0,037
-207,679	-32,670	-0,026	0,010
-206,665	421,285	0,016	0,024
-205,650	-19,752	-0,096	0,042
-204,636	-15,521	0,137	0,062
-203,621	223,193	-0,093	-0,107
-202,606	-181,093	-0,081	0,001
-201,592	-200,000	0,026	0,113
-200,577	-60,997	-0,038	0,011
-199,563	607,047	-0,063	-0,112
-198,548	-137,377	-0,044	-0,004
-197,533	348,635	-0,033	0,046
-196,519	385,140	-0,079	-0,116
-195,504	101,343	-0,093	0,077
-194,490	60,284	0,090	-0,063
-193,475	-131,281	-0,016	0,001
-192,460	-2,187	0,117	-0,058
-191,446	-125,484	-0,143	-0,015
-190,431	354,088	0,054	0,077
-189,417	-200,000	-0,001	-0,032
-188,402	-200,000	-0,007	-0,116
-187,387	355,586	0,053	-0,075
-186,373	800,000	0,081	-0,202
-185,358	-200,000	0,003	-0,101
-184,344	11,533	-0,114	-0,062
-183,329	-13,569	0,058	0,027
-182,315	303,616	-0,093	0,123
-181,300	-176,586	0,140	-0,003
-180,285	33,405	0,030	0,018
-179,271	-58,041	0,065	-0,020
-178,256	190,295	-0,020	0,022
-177,242	800,000	0,010	-0,026
-176,227	-200,000	-0,055	0,200
-175,212	-59,009	-0,093	-0,028
-174,198	-93,399	0,163	0,032
-173,183	-156,060	-0,103	-0,005
-172,169	-104,993	-0,104	0,017
-171,154	-200,000	-0,013	-0,099
-170,139	313,173	0,063	-0,085
-169,125	52,988	0,055	-0,037
-168,110	269,584	0,071	0,088
-167,096	291,313	-0,023	0,030
-166,081	-200,000	-0,018	-0,058
-165,066	162,761	0,036	-0,036
-164,052	415,537	0,047	-0,072
-163,037	800,000	-0,025	0,064
-162,023	554,884	0,057	0,099
-161,008	-200,000	-0,018	-0,058
-159,993	5,096	0,047	0,024
-158,979	-127,471	-0,106	-0,011
-157,964	800,000	-0,032	-0,094
-156,950	556,557	0,029	0,050
-155,935	-200,000	0,031	-0,188
-154,920	515,010	0,016	-0,026
-153,906	800,000	0,024	-0,075
-152,891	-200,000	-0,033	0,140
-151,877	800,000	0,021	-0,065
-150,862	-200,000	0,078	-0,246
-149,847	-92,904	-0,171	0,034
-148,833	89,966	0,018	-0,014
-147,818	800,000	0,050	0,106
-146,804	158,993	-0,087	0,086
-145,789	800,000	0,019	-0,047
-144,775	-94,885	-0,084	-0,016
-143,760	-2,964	-0,128	0,063
-142,745	125,741	-0,034	-0,030
-141,731	-200,000	0,007	0,069
-140,716	-200,000	-0,007	0,114
-139,702	-110,182	-0,017	-0,003
-138,687	-200,000	0,002	0,085
-137,672	-56,287	-0,026	0,008
-136,658	-60,630	-0,016	0,005
-135,643	418,546	0,083	0,127
-134,629	106,612	-0,029	-0,024
-133,614	-200,000	0,037	0,175
-132,599	636,814	0,009	0,016
-131,585	40,497	0,074	-0,047
-130,570	-85,811	-0,158	0,035
-129,556	622,008	-0,015	-0,027
-128,541	195,001	-0,068	-0,073
-127,526	800,000	-0,082	-0,225
-126,512	417,030	0,070	-0,106
-125,497	-200,000	-0,018	-0,067
-124,483	127,471	-0,020	0,018
-123,468	-200,000	0,003	-0,047
-122,453	-200,000	-0,031	-0,136
-121,439	-200,000	0,023	-0,127
-120,424	-32,285	-0,049	0,019
-119,410	-200,000	-0,004	0,094
