DTS Sentinel unit serial number:	SN410029Multiplexer serial number:	ORYXHardware model number:	OX2-SRSoftware version number:	ORYX F/W v4,00 Oryx Data Collector v3.7.2.0data status	okinstallation	B6 Nyhavnadifferential loss correction	single-endedforward channel	channel 2reverse channel	N/Adate	2023/12/11time	02:40:08forward acquisition time	300,00reverse acquisition time	0,00gamma	499,1914k internal	0,3123k external	0,3123temperature offset calibration	1,0000default loss term (dB/km)	0,3820temperature slope calibration	1,0000multiplexer offset coefficient	1,0000multiplexer slope coefficient	1,0000fibre end	0,00T internal ref (°C)	21,64T ext. ref 1 (°C)	4,47T ext. ref 2 (°C)	4,50length (m)	temperature (°C)	Stokes	anti-Stokes-744,400	-200,000	-0,011	-0,045
-743,385	-199,546	-0,206	0,001
-742,371	-139,309	0,134	-0,011
-741,356	-137,623	-0,136	0,011
-740,342	-67,612	-0,049	-0,014
-739,327	-113,323	-0,393	0,057
-738,312	184,433	-0,036	0,040
-737,298	-89,481	-0,245	0,053
-736,283	265,548	-0,076	-0,099
-735,269	-2,663	-0,161	0,084
-734,254	-200,000	-0,003	-0,139
-733,239	-84,948	-0,290	-0,067
-732,225	-57,318	0,247	0,081
-731,210	-26,850	-0,198	-0,086
-730,196	-181,724	0,121	0,002
-729,181	-200,000	0,031	-0,186
-728,167	-95,877	-0,026	0,005
-727,152	-200,000	-0,009	0,075
-726,137	155,357	0,023	-0,023
-725,123	-200,000	-0,002	0,054
-724,108	-41,829	-0,139	-0,053
-723,094	-200,000	-0,008	-0,174
-722,079	233,288	-0,131	-0,161
-721,064	275,535	0,034	-0,045
-720,050	208,704	0,050	0,059
-719,035	524,521	-0,039	0,069
-718,021	-7,485	-0,101	0,051
-717,006	-45,639	-0,111	-0,041
-715,991	58,034	-0,034	-0,025
-714,977	-200,000	-0,027	-0,091
-713,962	-11,974	-0,128	0,062
-712,948	-200,000	-0,032	0,108
-711,933	454,562	-0,060	-0,100
-710,918	311,206	-0,079	-0,111
-709,904	340,953	-0,059	-0,086
-708,889	15,390	-0,034	0,020
-707,875	411,474	-0,038	0,060
-706,860	800,000	0,043	0,097
-705,845	800,000	-0,036	0,097
-704,831	15,285	0,048	0,028
-703,816	-191,324	-0,054	0,000
-702,802	-200,000	0,003	-0,060
-701,787	800,000	-0,054	0,126
-700,772	631,204	-0,034	-0,064
-699,758	-200,000	0,005	-0,074
-698,743	101,354	0,100	0,087
-697,729	-200,000	0,034	0,115
-696,714	261,287	-0,064	0,083
-695,699	-128,795	-0,079	-0,008
-694,685	-17,994	-0,125	0,058
-693,670	-51,595	-0,100	0,035
-692,656	-31,743	0,075	-0,031
-691,641	28,753	0,057	-0,036
-690,627	261,884	0,060	-0,078
-689,612	800,000	-0,028	-0,061
-688,597	127,120	-0,160	0,151
-687,583	120,973	-0,021	0,019
-686,568	-200,000	-0,013	0,044
-685,554	-18,653	0,104	0,048
-684,539	-53,653	0,112	-0,038
-683,524	429,993	0,038	-0,062
-682,510	242,313	-0,038	0,047
-681,495	800,000	-0,022	-0,049
-680,481	268,268	-0,079	0,103
-679,466	-144,676	-0,169	-0,011
-678,451	-200,000	0,002	-0,069
-677,437	-200,000	-0,007	0,205
-676,422	642,718	0,115	0,219
-675,408	88,069	-0,031	0,026
-674,393	99,239	0,026	0,022
-673,378	-111,865	-0,215	-0,032
-672,364	-200,000	0,010	0,033
-671,349	475,010	-0,027	-0,046
-670,335	-124,904	0,049	-0,005
-669,320	-57,729	-0,019	0,006
-668,305	800,000	-0,060	0,140
-667,291	-200,000	0,004	0,159
-666,276	-76,279	0,030	0,008
-665,262	713,718	-0,013	0,026
-664,247	-200,000	-0,007	-0,238
-663,232	-134,859	-0,062	-0,006
-662,218	-28,592	0,100	0,043
-661,203	64,307	0,041	0,030
-660,189	138,669	-0,065	0,063
-659,174	-83,302	-0,161	-0,038
-658,159	233,365	-0,030	-0,037
-657,145	219,086	0,163	-0,194
-656,130	-16,499	-0,021	0,010
-655,116	197,165	0,040	-0,045
-654,101	-72,638	-0,125	-0,034
-653,086	-103,470	-0,093	-0,016
-652,072	643,590	-0,107	-0,204
-651,057	-200,000	-0,011	-0,177
-650,043	167,258	-0,047	-0,050
-649,028	800,000	0,045	0,093
-648,014	117,433	-0,063	0,057
-646,999	-200,000	0,013	-0,045
-645,984	-62,306	0,190	-0,059
-644,970	48,464	-0,129	-0,090
-643,955	256,124	-0,109	-0,139
-642,941	-200,000	-0,097	0,000
-641,926	800,000	-0,014	-0,044
-640,911	-33,099	0,122	-0,050
-639,897	800,000	0,042	-0,090
-638,882	-200,000	0,005	-0,016
-637,868	198,033	0,032	-0,036
-636,853	-104,932	-0,018	0,003
-635,838	553,493	0,061	-0,109
-634,824	52,713	0,060	-0,042
-633,809	-200,000	0,014	-0,083
-632,795	119,199	0,101	0,092
-631,780	-200,000	-0,000	-0,171
-630,765	-48,423	-0,146	0,052
-629,751	28,132	-0,151	-0,095
-628,736	511,565	0,034	-0,060
-627,722	-106,800	0,097	0,016
-626,707	-1,122	0,114	0,060
-625,692	127,578	-0,035	-0,033
-624,678	-52,179	0,110	-0,038
-623,663	502,405	0,054	-0,093
-622,649	800,000	0,009	-0,025
-621,634	-33,422	0,037	-0,015
-620,619	800,000	-0,045	-0,109
-619,605	624,096	0,067	-0,125
-618,590	-200,000	-0,010	0,125
-617,576	-132,027	0,034	-0,003
-616,561	558,946	-0,041	-0,074
-615,546	-22,950	-0,159	-0,071
-614,532	-15,789	0,056	-0,026
-613,517	-64,302	0,077	-0,023
-612,503	-13,893	-0,119	0,057
-611,488	-200,000	-0,008	0,088
-610,474	-137,021	-0,051	0,004
-609,459	206,296	0,046	0,053
-608,444	-137,403	0,065	0,005
-607,430	-200,000	0,020	-0,078
-606,415	800,000	-0,035	0,095
-605,401	-200,000	0,013	-0,064
-604,386	-200,000	0,000	0,061
-603,371	127,654	0,083	-0,079
-602,357	-13,970	-0,086	0,041
-601,342	200,810	0,076	-0,087
-600,328	-200,000	0,010	-0,092
-599,313	407,925	-0,073	-0,115
-598,298	800,000	-0,034	0,096
-597,284	187,839	0,033	-0,037
-596,269	-200,000	0,031	0,153
-595,255	82,525	0,115	-0,092
-594,240	-67,485	-0,112	-0,032
-593,225	301,835	0,021	-0,029
-592,211	605,171	-0,027	-0,050
-591,196	-200,000	0,001	0,060
-590,182	232,749	-0,012	-0,015
-589,167	-156,046	-0,040	-0,002
-588,152	174,849	0,048	0,052
-587,138	21,964	-0,033	-0,020
-586,123	-200,000	-0,008	0,064
-585,109	557,519	0,029	0,053
-584,094	83,323	-0,062	-0,050
-583,079	21,139	0,019	0,011
-582,065	729,254	0,071	0,142
-581,050	-18,128	0,049	0,022
-580,036	-129,135	0,017	-0,002
-579,021	-91,188	-0,070	-0,015
-578,006	52,214	0,058	0,041
-576,992	-60,331	-0,129	-0,040
-575,977	-193,164	0,141	-0,001
-574,963	29,864	0,117	0,074
-573,948	280,478	-0,032	0,043
-572,934	240,326	0,015	-0,019
-571,919	-75,805	0,028	0,007
-570,904	-81,522	0,036	0,009
-569,890	-112,493	-0,117	0,017
-568,875	800,000	-0,015	-0,031
-567,861	-16,532	0,068	-0,032
-566,846	-20,703	0,108	0,049
-565,831	-200,000	0,008	0,050
-564,817	408,041	0,037	0,058
-563,802	800,000	-0,020	-0,052
-562,788	800,000	-0,034	-0,080
-561,773	800,000	-0,043	0,094
-560,758	110,988	0,084	0,075
-559,744	-97,382	-0,051	-0,010
-558,729	-200,000	0,006	0,090
-557,715	203,837	0,026	0,030
-556,700	674,974	-0,074	0,142
-555,685	162,122	-0,060	-0,063
-554,671	-45,623	-0,070	-0,026
-553,656	-200,000	-0,035	-0,123
-552,642	87,786	0,064	0,052
-551,627	-48,330	-0,025	-0,009
-550,612	-1,102	-0,122	-0,063
-549,598	219,829	-0,080	0,095
-548,583	-111,692	0,160	0,024
-547,569	-200,000	0,015	-0,058
-546,554	800,000	0,038	0,099
-545,539	755,738	-0,076	0,152
-544,525	-200,000	0,002	0,048
-543,510	-200,000	-0,029	-0,131
-542,496	-200,000	-0,006	0,040
-541,481	-56,426	-0,108	-0,035
-540,466	-69,094	0,043	-0,012
-539,452	-154,127	0,076	0,004
-538,437	478,503	0,019	0,032
-537,423	-200,000	0,002	0,059
-536,408	79,504	-0,018	0,014
-535,393	-132,040	0,014	-0,001
-534,379	-137,249	-0,081	-0,007
-533,364	64,338	-0,033	0,025
-532,350	103,183	-0,102	0,088
-531,335	-31,419	0,077	0,032
-530,321	-200,000	0,009	0,033
-529,306	-200,000	0,014	0,082
-528,291	-108,559	0,160	0,025
-527,277	303,345	0,054	0,074
-526,262	-30,850	-0,075	0,031
-525,248	800,000	-0,064	-0,173
-524,233	75,714	0,068	0,053
-523,218	-75,245	0,138	0,036
-522,204	-200,000	-0,004	0,064
-521,189	-200,000	-0,019	-0,063
-520,175	71,990	0,074	0,057
-519,160	-200,000	0,033	-0,144
-518,145	-200,000	-0,013	0,048
-517,131	146,274	-0,025	-0,025
-516,116	257,536	-0,069	0,088
-515,102	413,909	0,028	0,045
-514,087	156,321	0,055	-0,056
-513,072	5,734	-0,158	-0,086
-512,058	800,000	-0,039	0,080
-511,043	-49,931	0,121	-0,042
-510,029	6,800	-0,083	0,045
-509,014	-30,075	0,025	0,011
-507,999	-15,774	0,166	-0,078
-506,985	-200,000	-0,049	-0,219
-505,970	144,361	-0,026	0,026
-504,956	800,000	-0,047	0,133
-503,941	-200,000	-0,006	-0,050
-502,926	-200,000	0,025	-0,107
-501,912	-114,159	0,007	0,001
-500,897	217,197	-0,087	-0,103
-499,883	256,779	-0,065	0,082
-498,868	448,762	-0,043	-0,071
-497,853	380,054	-0,051	0,077
-496,839	-200,000	0,015	-0,092
-495,824	99,802	0,083	-0,071
-494,810	385,544	0,059	-0,090
-493,795	150,402	-0,053	-0,054
-492,781	800,000	-0,030	-0,069
-491,766	513,615	-0,025	-0,043
-490,751	-12,784	0,076	0,037
-489,737	295,779	-0,071	-0,096
-488,722	570,006	0,059	0,107
-487,708	-17,843	-0,146	-0,067
-486,693	-36,802	-0,048	0,019
-485,678	800,000	-0,041	0,085
-484,664	351,013	-0,069	-0,102
-483,649	-109,985	-0,078	0,012
-482,635	91,373	-0,064	-0,053
-481,620	29,630	-0,071	0,045
-480,605	36,924	-0,012	-0,008
-479,591	452,023	0,036	-0,059
-478,576	-200,000	0,023	-0,076
-477,562	-172,281	0,136	0,003
-476,547	-175,778	-0,119	-0,002
-475,532	754,110	0,021	-0,042
-474,518	91,711	0,109	-0,090
-473,503	800,000	0,037	0,114
-472,489	-46,478	0,090	0,033
-471,474	-26,371	-0,102	0,044
-470,459	130,617	0,014	0,014
-469,445	800,000	0,023	-0,057
-468,430	-200,000	0,008	-0,141
-467,416	-200,000	0,001	0,043
-466,401	-88,000	0,116	-0,026
-465,386	800,000	0,063	-0,141
-464,372	-200,000	-0,012	-0,075
-463,357	-80,671	-0,057	0,014
-462,343	66,292	-0,112	-0,084
-461,328	-200,000	0,010	-0,129
-460,313	800,000	0,023	-0,066
-459,299	13,158	0,055	0,031
-458,284	-200,000	0,001	0,050
-457,270	-152,872	-0,130	-0,007
-456,255	-163,123	0,193	-0,007
-455,241	164,631	-0,055	0,057
-454,226	233,204	-0,057	0,069
-453,211	378,102	-0,023	0,034
-452,197	-200,000	-0,025	0,083
-451,182	397,295	0,071	0,109
-450,168	-185,075	0,112	0,001
-449,153	221,609	0,076	-0,090
-448,138	-200,000	0,065	-0,240
-447,124	477,123	-0,052	-0,087
-446,109	-200,000	0,042	0,158
-445,095	-142,983	0,055	-0,004
-444,080	43,802	-0,052	0,035
-443,065	372,137	-0,071	0,106
-442,051	-168,583	-0,052	-0,001
-441,036	-200,000	0,001	-0,020
-440,022	57,106	-0,037	-0,027
-439,007	800,000	0,010	0,030
-437,992	800,000	0,026	-0,059
-436,978	-51,150	0,054	0,018
-435,963	66,976	0,067	-0,051
-434,949	-59,950	-0,045	-0,014
-433,934	599,226	-0,017	-0,031
-432,919	4,765	-0,082	0,044
-431,905	18,530	0,124	-0,073
-430,890	-136,409	0,144	-0,012
-429,876	-200,000	-0,007	-0,081
-428,861	-36,839	-0,118	0,047
-427,846	-108,264	-0,077	0,012
-426,832	-40,506	-0,109	0,041
-425,817	319,520	-0,039	0,055
-424,803	-200,000	0,002	-0,054
-423,788	-158,550	-0,091	-0,004
-422,773	-147,684	0,151	0,009
-421,759	372,356	-0,047	0,071
-420,744	312,867	0,036	0,051
-419,730	-200,000	-0,004	-0,031
-418,715	800,000	-0,022	0,054
-417,701	-200,000	0,002	-0,014
-416,686	-114,624	0,084	0,012
-415,671	164,715	0,107	0,111
-414,657	265,404	0,072	0,092
-413,642	800,000	0,029	0,070
-412,628	800,000	-0,018	-0,046
-411,613	132,547	-0,022	0,021
-410,598	-41,257	-0,121	0,046
-409,584	-83,478	0,117	-0,027
-408,569	800,000	-0,067	0,168
-407,555	81,851	0,040	0,032
-406,540	-40,862	0,134	-0,051
-405,525	-5,203	0,063	-0,032
-404,511	-94,343	0,131	-0,026
-403,496	800,000	0,019	-0,045
-402,482	800,000	0,013	-0,034
-401,467	-82,232	-0,139	0,033
-400,452	195,534	0,020	-0,023
-399,438	-26,246	0,050	-0,022
-398,423	-88,007	0,077	-0,017
-397,409	90,300	0,088	-0,073
-396,394	115,278	0,086	-0,077
-395,379	239,953	-0,011	0,013
-394,365	-26,082	0,130	-0,056
-393,350	-200,000	-0,028	-0,108
-392,336	137,680	0,060	0,058
-391,321	270,036	-0,086	-0,111
-390,306	-200,000	-0,026	0,104
-389,292	-86,712	-0,129	-0,029
-388,277	800,000	-0,041	-0,117
-387,263	584,983	0,075	0,136
-386,248	-153,747	0,103	0,005
-385,233	-167,746	0,112	0,003
-384,219	726,368	0,083	-0,163
-383,204	-200,000	0,020	0,066
-382,190	273,454	0,039	0,051
-381,175	38,901	-0,186	-0,122
-380,160	800,000	-0,031	-0,078
-379,146	-20,307	-0,067	0,030
-378,131	-200,000	-0,001	-0,005
-377,117	800,000	0,026	0,057
-376,102	-138,113	-0,110	-0,009
-375,088	800,000	0,016	-0,049
-374,073	-9,063	0,091	-0,044
-373,058	64,381	-0,115	0,085
-372,044	524,201	-0,049	0,086
-371,029	800,000	0,024	-0,051
-370,015	388,015	-0,045	-0,069
-369,000	135,280	0,071	0,068
-367,985	217,369	-0,037	-0,043
-366,971	800,000	0,011	-0,028
-365,956	-102,925	0,052	-0,009
-364,942	-2,460	0,073	0,037
-363,927	-9,307	-0,086	-0,042
-362,912	-98,820	0,081	-0,015
-361,898	-200,000	-0,004	0,043
-360,883	49,785	0,102	-0,070
-359,869	-43,923	-0,098	-0,036
-358,854	-200,000	0,007	0,079
-357,839	160,784	0,018	-0,018
-356,825	-72,508	-0,090	0,024
-355,810	-64,556	0,038	0,011
-354,796	-160,998	0,042	0,002
-353,781	40,417	-0,089	-0,059
-352,766	800,000	-0,014	-0,032
-351,752	-17,944	0,193	-0,089
-350,737	-200,000	-0,018	0,063
-349,723	-200,000	0,050	0,164
-348,708	800,000	0,063	0,160
-347,693	800,000	0,031	0,079
-346,679	-122,960	0,173	-0,020
-345,664	-200,000	-0,003	0,057
-344,650	-200,000	-0,012	0,064
-343,635	800,000	0,015	-0,036
-342,620	115,450	0,112	-0,101
-341,606	89,564	-0,048	-0,040
-340,591	392,853	0,046	0,071
-339,577	385,030	-0,060	-0,091
-338,562	-84,316	-0,023	-0,005
-337,548	800,000	0,049	-0,141
-336,533	800,000	0,039	0,098
-335,518	42,373	-0,104	0,070
-334,504	-200,000	-0,010	0,049
-333,489	-39,037	-0,097	-0,037
-332,475	-200,000	-0,006	-0,031
-331,460	89,597	0,096	0,079
-330,445	42,921	-0,031	0,021
-329,431	12,392	-0,082	-0,046
-328,416	-20,284	0,166	0,075
-327,402	223,646	0,072	0,085
-326,387	40,548	-0,041	-0,027
-325,372	477,519	-0,035	-0,059
-324,358	-200,000	-0,026	-0,193
-323,343	347,170	-0,030	-0,043
-322,329	800,000	0,040	0,090
-321,314	800,000	0,064	0,140
-320,299	464,230	0,122	0,201
-319,285	-18,676	-0,046	0,021
-318,270	10,445	-0,099	0,055
-317,256	-114,597	-0,085	0,012
-316,241	800,000	-0,028	-0,066
-315,226	514,208	0,021	0,036
-314,212	24,319	-0,015	0,009
-313,197	180,955	0,078	0,084
-312,183	-1,231	0,056	-0,029
-311,168	271,281	-0,029	0,038
-310,153	84,221	-0,072	0,057
-309,139	-122,298	0,049	-0,006
-308,124	800,000	-0,033	0,079
-307,110	41,667	0,060	-0,040
-306,095	-34,904	-0,090	0,036
-305,080	-200,000	-0,100	0,000
-304,066	67,824	0,114	0,085
-303,051	-2,973	0,077	-0,039
-302,037	800,000	0,028	0,063
-301,022	-200,000	-0,021	0,075
-300,008	42,619	0,028	-0,019
-298,993	129,788	-0,021	0,020
-297,978	378,607	-0,061	-0,091
-296,964	88,400	-0,079	0,064
-295,949	-104,607	-0,139	0,023
-294,935	-200,000	-0,015	0,077
-293,920	-49,543	-0,069	-0,024
-292,905	-200,000	-0,031	0,109
-291,891	53,175	-0,070	0,049
-290,876	-53,427	-0,081	-0,027
-289,862	15,525	-0,012	-0,007
-288,847	-29,655	-0,087	-0,036
-287,832	-51,852	0,060	-0,020
-286,818	154,086	0,054	0,054
-285,803	222,222	0,022	-0,026
-284,789	78,280	-0,088	0,069
-283,774	32,965	0,139	0,088
-282,759	-39,333	-0,206	0,079
-281,745	800,000	-0,036	-0,094
-280,730	-40,018	-0,008	-0,003
-279,716	-12,269	0,054	-0,026
-278,701	16,822	0,142	0,082
-277,686	-200,000	-0,018	0,090
-276,672	-85,356	0,053	-0,012
-275,657	800,000	0,010	0,025
-274,643	625,834	-0,053	0,097
-273,628	126,144	0,105	-0,098
-272,613	800,000	0,064	-0,151
-271,599	38,323	0,035	0,023
-270,584	-200,000	0,010	-0,058
-269,570	-200,000	-0,014	0,083
-268,555	-12,867	0,025	-0,012
-267,540	366,234	0,032	-0,047
-266,526	474,497	0,012	-0,021
-265,511	-4,985	-0,081	0,041
-264,497	-200,000	0,018	-0,089
-263,482	9,677	0,011	0,006
-262,467	-87,706	-0,046	-0,010
-261,453	-200,000	0,013	0,196
-260,438	-109,009	0,042	0,006
-259,424	-133,505	-0,110	-0,010
-258,409	-58,159	-0,057	0,018
-257,395	210,868	0,050	-0,057
-256,380	462,445	0,090	0,147
-255,365	89,651	-0,054	-0,044
-254,351	64,321	-0,110	0,081
-253,336	230,369	0,075	-0,090
-252,322	800,000	0,037	-0,097
-251,307	386,248	-0,121	-0,183
-250,292	239,388	0,017	0,021
-249,278	451,423	0,078	0,126
-248,263	251,366	0,041	0,051
-247,249	-58,821	0,066	0,021
-246,234	-200,000	0,006	-0,033
-245,219	132,930	0,080	-0,076
-244,205	800,000	-0,024	-0,051
-243,190	98,941	-0,042	0,035
-242,176	-144,236	-0,048	0,003
-241,161	-23,421	-0,044	-0,019
-240,146	-27,096	0,169	0,072
-239,132	34,201	0,037	-0,024
-238,117	-200,000	-0,019	-0,075
-237,103	-83,221	-0,093	-0,022
-236,088	-81,917	-0,105	0,025
-235,073	-200,000	-0,003	0,116
-234,059	-200,000	-0,030	-0,129
-233,044	-200,000	-0,001	0,027
-232,030	-200,000	0,004	-0,077
-231,015	800,000	-0,014	0,043
-230,000	-200,000	0,004	0,047
-228,986	613,447	-0,061	0,112
-227,971	650,217	-0,044	0,083
-226,957	255,306	-0,026	0,032
-225,942	800,000	-0,042	0,102
-224,927	73,604	0,044	-0,034
-223,913	-11,595	-0,151	-0,072
-222,898	143,031	-0,083	0,080
-221,884	800,000	-0,032	-0,070
-220,869	-52,838	0,063	0,021
-219,855	-200,000	-0,015	-0,099
-218,840	33,811	-0,092	0,058
-217,825	-165,672	-0,115	0,004
-216,811	800,000	-0,046	-0,143
-215,796	-192,705	-0,135	0,001
-214,782	435,018	0,059	0,094
-213,767	-8,879	0,067	0,033
-212,752	-200,000	-0,014	0,051
-211,738	-12,655	0,184	0,087
-210,723	-68,083	0,035	0,010
-209,709	127,311	-0,065	0,060
-208,694	-12,654	0,073	0,034
-207,679	225,461	-0,081	0,096
-206,665	-200,000	0,018	0,082
-205,650	-38,130	0,067	-0,026
-204,636	-18,127	0,158	-0,072
-203,621	265,621	-0,085	0,108
-202,606	-114,097	0,066	-0,009
-201,592	-105,193	-0,230	0,038
-200,577	-35,122	-0,159	-0,063
-199,563	446,064	-0,041	0,067
-198,548	-151,231	0,061	-0,003
-197,533	-200,000	0,016	-0,094
-196,519	10,202	0,066	0,037
-195,504	-42,408	-0,126	-0,047
-194,490	83,899	0,017	0,013
-193,475	-200,000	-0,000	-0,011
-192,460	100,640	-0,035	-0,030
-191,446	-70,152	0,164	0,045
-190,431	-200,000	-0,008	0,079
-189,417	124,939	0,054	0,050
-188,402	-180,272	-0,084	0,001
-187,387	-106,660	-0,024	-0,004
-186,373	74,514	-0,063	-0,048
-185,358	20,971	0,138	-0,082
-184,344	-75,355	-0,074	-0,019
-183,329	403,244	0,058	-0,089
-182,315	-200,000	-0,011	0,051
-181,300	344,519	-0,033	0,048
-180,285	399,966	-0,058	0,088
-179,271	-67,938	-0,026	0,007
-178,256	37,906	-0,062	-0,040
-177,242	-62,810	-0,125	-0,037
-176,227	-17,384	0,122	0,056
-175,212	-200,000	0,001	0,019
-174,198	-113,304	-0,120	-0,017
-173,183	682,996	-0,031	0,059
-172,169	585,548	-0,047	-0,084
-171,154	91,882	-0,050	0,041
-170,139	-200,000	0,000	-0,134
-169,125	-200,000	-0,003	0,028
-168,110	-200,000	0,022	0,105
-167,096	-200,000	0,004	-0,085
-166,081	800,000	0,049	-0,157
-165,066	20,178	-0,057	0,033
-164,052	-3,050	-0,096	0,049
-163,037	-82,211	0,157	-0,037
-162,023	629,500	0,059	0,108
-161,008	51,280	0,194	0,134
-159,993	-132,421	-0,063	0,006
-158,979	372,994	-0,096	-0,143
-157,964	46,592	-0,147	-0,099
-156,950	14,771	-0,046	0,026
-155,935	-200,000	-0,034	-0,127
-154,920	107,640	0,062	-0,053
-153,906	-36,085	-0,062	0,024
-152,891	-39,484	-0,070	-0,027
-151,877	421,786	-0,098	-0,153
-150,862	800,000	-0,032	-0,081
-149,847	800,000	0,039	0,095
-148,833	45,962	0,129	0,087
-147,818	800,000	0,002	-0,004
-146,804	800,000	-0,058	0,149
-145,789	747,776	-0,022	0,042
-144,775	800,000	0,024	0,071
-143,760	800,000	-0,026	-0,060
-142,745	107,622	-0,122	-0,106
-141,731	-35,916	0,115	0,045
-140,716	800,000	0,032	-0,095
-139,702	-18,077	-0,025	-0,011
-138,687	19,246	0,016	-0,009
-137,672	-100,697	-0,071	0,013
-136,658	-2,281	-0,089	0,045
-135,643	800,000	-0,016	-0,040
-134,629	26,347	-0,100	-0,060
-133,614	128,525	-0,119	-0,110
-132,599	369,364	0,047	0,070
-131,585	264,866	0,146	-0,186
-130,570	800,000	-0,057	-0,133
-129,556	376,265	0,070	0,104
-128,541	112,414	0,047	0,042
-127,526	22,945	-0,147	0,088
-126,512	-106,281	0,035	-0,006
-125,497	-44,747	0,318	0,115
-124,483	-200,000	-0,015	0,089
-123,468	506,919	-0,083	0,141
-122,453	441,336	0,019	-0,031
-121,439	382,698	0,069	0,103
-120,424	-108,798	-0,139	-0,021
-119,410	-155,379	0,160	0,007
