DTS Sentinel unit serial number:	SN410029Multiplexer serial number:	ORYXHardware model number:	OX2-SRSoftware version number:	ORYX F/W v4,00 Oryx Data Collector v3.7.2.0data status	okinstallation	B6 Nyhavnadifferential loss correction	single-endedforward channel	channel 2reverse channel	N/Adate	2023/12/10time	18:35:08forward acquisition time	300,00reverse acquisition time	0,00gamma	499,1914k internal	0,3123k external	0,3123temperature offset calibration	1,0000default loss term (dB/km)	0,3820temperature slope calibration	1,0000multiplexer offset coefficient	1,0000multiplexer slope coefficient	1,0000fibre end	0,00T internal ref (°C)	22,36T ext. ref 1 (°C)	5,97T ext. ref 2 (°C)	5,98length (m)	temperature (°C)	Stokes	anti-Stokes-744,400	-200,000	0,030	0,137
-743,385	-62,158	-0,174	0,054
-742,371	800,000	0,027	-0,069
-741,356	128,117	-0,176	0,167
-740,342	-172,180	0,167	0,004
-739,327	55,695	-0,243	0,175
-738,312	-200,000	0,001	-0,068
-737,298	-104,207	-0,263	0,045
-736,283	145,410	-0,092	-0,092
-735,269	-80,716	-0,101	0,025
-734,254	514,287	0,054	0,094
-733,239	-35,454	-0,363	-0,146
-732,225	800,000	-0,012	0,031
-731,210	217,285	0,094	0,111
-730,196	-81,057	-0,089	0,022
-729,181	800,000	-0,021	-0,064
-728,167	-33,854	-0,092	-0,038
-727,152	-172,440	-0,107	-0,002
-726,137	295,675	-0,036	-0,049
-725,123	121,152	-0,079	-0,073
-724,108	610,723	-0,105	-0,196
-723,094	-200,000	-0,026	-0,231
-722,079	800,000	0,069	-0,177
-721,064	800,000	0,024	0,060
-720,050	800,000	-0,014	-0,035
-719,035	-51,913	0,022	-0,007
-718,021	-40,178	-0,112	-0,043
-717,006	-131,089	0,014	0,001
-715,991	800,000	0,025	-0,081
-714,977	364,422	-0,050	-0,075
-713,962	-181,193	-0,192	-0,003
-712,948	-200,000	0,005	0,033
-711,933	190,388	-0,110	0,123
-710,918	56,260	0,028	-0,020
-709,904	-52,032	-0,055	0,019
-708,889	-200,000	0,034	-0,123
-707,875	-72,725	-0,077	0,021
-706,860	-200,000	-0,008	-0,126
-705,845	-45,391	0,035	0,013
-704,831	143,721	-0,096	0,095
-703,816	-145,674	-0,106	0,007
-702,802	-53,601	-0,110	-0,037
-701,787	-200,000	0,025	0,106
-700,772	-200,000	0,005	0,158
-699,758	-200,000	-0,011	0,122
-698,743	-160,553	-0,055	0,002
-697,729	-96,117	0,052	-0,010
-696,714	515,475	-0,092	0,161
-695,699	800,000	0,039	-0,085
-694,685	800,000	-0,061	-0,143
-693,670	-28,150	-0,062	-0,027
-692,656	450,402	-0,067	-0,110
-691,641	800,000	0,046	0,146
-690,627	54,529	0,139	0,100
-689,612	-50,092	-0,029	-0,010
-688,597	800,000	-0,024	0,063
-687,583	-200,000	0,019	-0,063
-686,568	374,546	-0,090	-0,136
-685,554	-200,000	0,012	-0,162
-684,539	-63,072	-0,085	-0,026
-683,524	-19,783	0,103	0,047
-682,510	-36,588	0,068	0,027
-681,495	63,051	-0,147	-0,110
-680,481	287,188	-0,025	-0,034
-679,466	-200,000	-0,010	0,101
-678,451	-78,644	-0,154	0,039
-677,437	-112,564	0,047	0,007
-676,422	-200,000	0,003	-0,029
-675,408	800,000	-0,027	0,058
-674,393	-180,522	-0,058	0,001
-673,378	-30,052	-0,127	-0,054
-672,364	-57,415	-0,146	0,047
-671,349	15,645	0,032	0,019
-670,335	68,480	0,084	-0,064
-669,320	800,000	0,014	0,041
-668,305	-1,174	0,036	-0,019
-667,291	179,248	-0,033	0,036
-666,276	327,639	-0,048	0,068
-665,262	77,966	-0,037	0,029
-664,247	-200,000	0,008	-0,080
-663,232	-79,167	0,143	-0,036
-662,218	800,000	-0,030	0,073
-661,203	344,624	0,054	0,079
-660,189	-42,885	0,128	0,048
-659,174	800,000	0,024	-0,055
-658,159	-47,965	-0,120	0,043
-657,145	280,873	-0,034	-0,045
-656,130	54,861	-0,040	-0,029
-655,116	-100,579	-0,051	0,009
-654,101	195,844	0,020	-0,023
-653,086	-200,000	0,018	0,106
-652,072	-164,374	-0,081	-0,003
-651,057	-200,000	-0,016	0,054
-650,043	-5,935	0,048	-0,024
-649,028	800,000	0,027	0,065
-648,014	61,418	0,110	0,081
-646,999	800,000	0,034	-0,082
-645,984	800,000	0,008	-0,025
-644,970	-100,834	-0,102	-0,018
-643,955	52,132	-0,124	-0,088
-642,941	-200,000	-0,015	-0,119
-641,926	-200,000	0,011	-0,075
-640,911	800,000	0,020	-0,051
-639,897	-90,888	0,130	0,028
-638,882	373,700	-0,042	0,064
-637,868	-200,000	0,012	-0,097
-636,853	191,133	-0,099	-0,111
-635,838	800,000	-0,041	-0,101
-634,824	154,911	-0,039	-0,040
-633,809	-141,485	-0,026	-0,002
-632,795	800,000	0,032	-0,088
-631,780	-136,801	0,182	-0,015
-630,765	800,000	-0,048	0,147
-629,751	-200,000	-0,034	-0,112
-628,736	-200,000	0,007	-0,045
-627,722	14,460	0,114	-0,066
-626,707	-19,697	-0,125	0,057
-625,692	800,000	-0,023	-0,074
-624,678	-200,000	-0,024	-0,114
-623,663	-113,601	-0,099	0,014
-622,649	800,000	-0,008	-0,024
-621,634	26,308	-0,074	-0,046
-620,619	-200,000	0,016	-0,066
-619,605	-160,542	0,119	0,005
-618,590	11,342	0,062	0,035
-617,576	232,490	-0,088	0,108
-616,561	492,183	0,041	-0,070
-615,546	90,185	-0,108	-0,090
-614,532	-200,000	-0,010	-0,046
-613,517	-28,833	-0,096	-0,041
-612,503	-18,868	-0,069	0,032
-611,488	800,000	-0,033	0,089
-610,474	740,968	-0,030	0,061
-609,459	343,967	-0,056	0,082
-608,444	12,432	0,067	0,038
-607,430	336,916	-0,051	-0,074
-606,415	88,022	-0,064	0,053
-605,401	63,151	0,110	0,081
-604,386	5,658	0,096	0,053
-603,371	570,506	0,007	-0,013
-602,357	-200,000	-0,013	0,055
-601,342	-103,916	-0,072	-0,012
-600,328	605,649	-0,063	-0,118
-599,313	30,614	0,025	0,016
-598,298	-13,596	-0,099	-0,047
-597,284	-99,244	0,132	-0,024
-596,269	508,558	0,016	-0,027
-595,255	-200,000	0,011	0,099
-594,240	99,805	0,108	0,093
-593,225	800,000	-0,007	0,017
-592,211	13,291	-0,100	-0,058
-591,196	-200,000	0,004	-0,023
-590,182	-48,199	0,027	-0,010
-589,167	126,582	-0,061	0,057
-588,152	-17,807	0,105	0,048
-587,138	174,185	0,114	0,122
-586,123	131,149	0,064	0,061
-585,109	-200,000	0,023	-0,120
-584,094	59,859	-0,095	0,070
-583,079	325,288	-0,044	-0,062
-582,065	23,502	-0,130	0,079
-581,050	-200,000	0,019	0,067
-580,036	483,386	-0,071	-0,119
-579,021	800,000	-0,009	0,026
-578,006	800,000	-0,026	-0,056
-576,992	123,408	-0,077	0,071
-575,977	397,072	0,073	0,114
-574,963	-101,691	0,030	-0,005
-573,948	-200,000	-0,027	-0,111
-572,934	-78,416	0,051	-0,013
-571,919	-17,509	-0,142	-0,066
-570,904	367,962	-0,039	-0,058
-569,890	415,741	-0,048	-0,076
-568,875	-200,000	0,005	0,065
-567,861	-200,000	0,013	0,061
-566,846	-17,771	0,178	-0,082
-565,831	-200,000	0,002	-0,016
-564,817	44,968	-0,066	0,045
-563,802	800,000	0,025	-0,078
-562,788	482,715	-0,071	-0,119
-561,773	-16,492	-0,064	-0,030
-560,758	31,211	-0,012	-0,007
-559,744	-71,063	0,075	-0,021
-558,729	5,854	-0,046	0,025
-557,715	0,104	-0,164	-0,086
-556,700	607,039	0,033	0,062
-555,685	-200,000	0,030	-0,108
-554,671	800,000	-0,013	-0,037
-553,656	-14,383	0,067	0,032
-552,642	-109,637	0,097	-0,015
-551,627	155,460	-0,052	0,053
-550,612	548,122	0,023	-0,040
-549,598	-9,284	-0,063	-0,031
-548,583	800,000	-0,037	0,081
-547,569	-200,000	-0,021	0,088
-546,554	286,767	-0,121	0,162
-545,539	524,398	0,023	0,041
-544,525	-118,642	0,093	0,012
-543,510	-200,000	-0,017	0,092
-542,496	-200,000	0,014	-0,106
-541,481	-7,292	-0,069	-0,035
-540,466	90,029	0,038	-0,031
-539,452	800,000	0,011	0,031
-538,437	-113,841	0,100	0,014
-537,423	73,730	0,029	-0,023
-536,408	534,694	-0,039	-0,068
-535,393	-200,000	-0,026	-0,124
-534,379	-5,682	-0,077	-0,039
-533,364	593,783	-0,027	-0,050
-532,350	-200,000	0,008	-0,125
-531,335	-200,000	-0,005	-0,104
-530,321	14,482	-0,114	0,066
-529,306	-120,957	0,055	-0,007
-528,291	15,820	0,028	-0,016
-527,277	251,576	-0,033	-0,041
-526,262	-129,021	-0,139	0,014
-525,248	-109,817	0,048	0,007
-524,233	-200,000	-0,004	0,028
-523,218	15,781	-0,104	-0,060
-522,204	616,329	-0,011	0,020
-521,189	176,073	0,119	0,127
-520,175	-200,000	0,024	-0,131
-519,160	-92,357	-0,169	-0,035
-518,145	-109,698	0,027	0,004
-517,131	-162,364	0,133	0,005
-516,116	-200,000	0,002	0,055
-515,102	800,000	-0,062	0,150
-514,087	418,269	-0,075	0,119
-513,072	-4,855	-0,024	-0,012
-512,058	225,037	0,067	-0,080
-511,043	-200,000	-0,010	-0,061
-510,029	63,060	0,070	-0,052
-509,014	97,727	0,075	-0,063
-507,999	-200,000	-0,015	0,135
-506,985	730,140	-0,041	0,082
-505,970	-63,039	0,098	-0,030
-504,956	-101,684	0,114	0,020
-503,941	477,342	-0,046	-0,078
-502,926	800,000	0,018	0,043
-501,912	-200,000	0,042	0,198
-500,897	800,000	0,037	0,081
-499,883	-141,241	-0,066	-0,005
-498,868	386,055	-0,072	-0,110
-497,853	-200,000	0,004	-0,076
-496,839	-200,000	0,019	0,129
-495,824	800,000	-0,019	-0,053
-494,810	132,332	0,050	-0,048
-493,795	146,972	-0,094	0,094
-492,781	-200,000	-0,013	-0,046
-491,766	-151,428	0,084	0,005
-490,751	-48,408	-0,023	0,008
-489,737	-200,000	0,003	-0,038
-488,722	-47,877	0,098	0,035
-487,708	-200,000	0,003	0,034
-486,693	85,735	-0,042	-0,034
-485,678	-200,000	0,004	0,187
-484,664	-200,000	0,006	-0,101
-483,649	-53,662	0,111	-0,037
-482,635	-200,000	0,001	0,072
-481,620	219,022	0,100	-0,119
-480,605	-46,067	0,058	-0,021
-479,591	-200,000	-0,033	0,187
-478,576	-200,000	0,004	-0,093
-477,562	114,559	-0,094	-0,084
-476,547	-200,000	-0,005	-0,034
-475,532	208,415	-0,096	0,111
-474,518	-162,899	0,103	-0,004
-473,503	800,000	0,017	0,036
-472,489	-200,000	0,001	0,075
-471,474	129,754	0,086	0,081
-470,459	52,722	-0,086	0,061
-469,445	33,704	0,074	-0,047
-468,430	-55,384	-0,065	0,022
-467,416	177,033	-0,053	0,057
-466,401	-167,761	0,067	-0,002
-465,386	800,000	0,028	-0,080
-464,372	800,000	-0,015	0,046
-463,357	-95,582	0,066	0,013
-462,343	265,896	-0,016	-0,020
-461,328	-96,979	-0,037	0,007
-460,313	266,110	-0,021	-0,028
-459,299	-70,347	-0,089	0,025
-458,284	-17,325	0,140	0,065
-457,270	171,210	-0,093	-0,098
-456,255	-200,000	0,006	-0,051
-455,241	800,000	0,044	-0,126
-454,226	-200,000	-0,022	0,117
-453,211	800,000	0,038	-0,077
-452,197	118,604	0,090	-0,082
-451,182	-86,810	-0,064	-0,014
-450,168	-163,489	-0,049	-0,002
-449,153	-53,479	-0,024	0,008
-448,138	-200,000	-0,001	0,117
-447,124	-56,515	-0,104	0,034
-446,109	-200,000	-0,018	0,198
-445,095	302,678	0,061	0,083
-444,080	-85,740	0,036	-0,008
-443,065	18,695	0,092	-0,054
-442,051	-53,684	-0,059	-0,020
-441,036	-15,780	0,072	-0,034
-440,022	-89,284	0,035	-0,008
-439,007	-147,134	0,174	-0,011
-437,992	-200,000	-0,000	0,178
-436,978	341,920	-0,034	0,050
-435,963	-39,449	0,052	-0,020
-434,949	293,896	-0,042	-0,057
-433,934	125,333	-0,085	0,079
-432,919	-200,000	-0,004	-0,045
-431,905	-200,000	0,013	0,053
-430,890	-52,395	0,063	-0,021
-429,876	800,000	0,045	0,130
-428,861	-93,739	0,035	0,007
-427,846	-200,000	0,009	-0,119
-426,832	-200,000	0,025	0,122
-425,817	-200,000	-0,050	-0,164
-424,803	263,525	-0,016	-0,020
-423,788	654,424	-0,038	0,071
-422,773	80,483	0,116	-0,092
-421,759	68,781	0,051	0,038
-420,744	63,533	0,064	-0,048
-419,730	-102,061	-0,024	-0,004
-418,715	336,156	0,040	0,058
-417,701	503,033	-0,067	0,114
-416,686	-133,134	0,060	0,006
-415,671	-9,417	0,143	-0,070
-414,657	800,000	0,034	-0,071
-413,642	-200,000	-0,009	0,177
-412,628	-200,000	0,021	-0,094
-411,613	163,335	0,072	-0,075
-410,598	-84,498	0,104	0,024
-409,584	-200,000	0,001	-0,074
-408,569	-53,924	0,048	0,016
-407,555	-200,000	-0,019	-0,088
-406,540	-200,000	-0,002	-0,058
-405,525	181,363	-0,051	0,055
-404,511	800,000	0,012	-0,033
-403,496	3,998	0,106	-0,057
-402,482	-15,138	0,071	-0,033
-401,467	2,535	0,154	0,082
-400,452	-200,000	0,013	0,061
-399,438	519,248	-0,064	0,111
-398,423	30,683	-0,109	-0,068
-397,409	-1,171	0,031	-0,016
-396,394	8,203	-0,066	0,036
-395,379	-200,000	-0,019	-0,090
-394,365	800,000	-0,012	-0,035
-393,350	48,929	0,093	0,064
-392,336	-200,000	-0,007	0,030
-391,321	-1,380	-0,114	-0,059
-390,306	429,577	-0,074	-0,119
-389,292	15,538	-0,056	-0,032
-388,277	-157,558	-0,132	-0,006
-387,263	122,023	0,055	0,050
-386,248	800,000	0,076	0,189
-385,233	-138,633	0,056	0,004
-384,219	201,748	0,068	-0,077
-383,204	-85,011	0,095	0,022
-382,190	376,246	-0,030	-0,045
-381,175	133,202	0,046	-0,044
-380,160	-200,000	-0,002	0,015
-379,146	438,006	-0,050	0,080
-378,131	237,330	0,053	0,064
-377,117	331,346	0,034	0,048
-376,102	244,977	-0,041	-0,051
-375,088	-16,742	-0,092	0,043
-374,073	324,172	0,041	0,058
-373,058	-200,000	-0,025	-0,092
-372,044	459,498	0,051	0,084
-371,029	147,807	-0,031	0,031
-370,015	800,000	0,064	-0,137
-369,000	-200,000	0,008	0,060
-367,985	72,818	-0,006	0,005
-366,971	-169,524	-0,088	0,002
-365,956	-200,000	-0,016	0,175
-364,942	800,000	-0,019	-0,052
-363,927	-200,000	0,007	0,047
-362,912	231,641	-0,027	0,033
-361,898	-55,426	0,044	0,014
-360,883	114,785	-0,098	-0,088
-359,869	118,750	0,045	-0,040
-358,854	-47,522	0,097	0,034
-357,839	-200,000	-0,018	0,072
-356,825	-141,258	0,098	-0,007
-355,810	563,554	-0,022	-0,040
-354,796	-200,000	0,016	0,114
-353,781	-200,000	-0,028	0,097
-352,766	16,309	0,049	0,028
-351,752	800,000	0,026	0,065
-350,737	44,731	-0,048	-0,033
-349,723	307,681	-0,067	0,092
-348,708	800,000	0,047	-0,097
-347,693	-110,049	-0,089	-0,013
-346,679	136,265	0,024	-0,023
-345,664	203,298	-0,007	0,008
-344,650	555,921	0,018	0,031
-343,635	-92,757	-0,050	0,010
-342,620	409,556	0,080	0,125
-341,606	-154,999	0,071	-0,003
-340,591	202,966	-0,032	0,037
-339,577	-200,000	-0,012	-0,102
-338,562	800,000	0,076	-0,180
-337,548	-173,618	-0,085	-0,002
-336,533	-131,509	-0,142	0,014
-335,518	136,548	0,039	0,037
-334,504	800,000	0,068	0,158
-333,489	152,261	-0,129	0,129
-332,475	-200,000	-0,016	-0,084
-331,460	-60,293	-0,066	-0,020
-330,445	569,901	0,009	0,016
-329,431	68,259	-0,024	-0,018
-328,416	266,396	0,077	0,098
-327,402	166,542	0,034	0,036
-326,387	-144,297	-0,100	0,007
-325,372	800,000	0,043	0,113
-324,358	-171,900	-0,178	-0,004
-323,343	-123,006	-0,046	-0,005
-322,329	-48,309	0,029	-0,010
-321,314	-200,000	0,012	0,047
-320,299	197,349	-0,039	0,044
-319,285	-43,760	-0,083	-0,030
-318,270	-200,000	0,003	-0,130
-317,256	389,158	0,042	0,065
-316,241	800,000	-0,042	-0,088
-315,226	231,979	-0,027	-0,032
-314,212	734,425	-0,018	0,035
-313,197	-115,377	0,088	0,012
-312,183	-151,196	0,103	0,006
-311,168	-76,626	-0,078	-0,020
-310,153	245,507	0,098	0,122
-309,139	564,663	0,051	-0,091
-308,124	106,593	0,020	0,017
-307,110	-200,000	-0,020	0,139
-306,095	-200,000	-0,005	0,083
-305,080	-86,507	0,043	0,010
-304,066	-32,192	-0,139	0,057
-303,051	-126,328	-0,062	-0,007
-302,037	800,000	0,065	-0,168
-301,022	80,784	-0,020	0,016
-300,008	-20,755	0,121	0,054
-298,993	434,381	0,013	0,021
-297,978	-200,000	0,016	0,084
-296,964	800,000	0,052	-0,136
-295,949	-143,689	-0,059	0,004
-294,935	-78,569	0,082	0,020
-293,920	19,639	0,009	-0,005
-292,905	800,000	-0,050	0,106
-291,891	-43,546	0,117	0,043
-290,876	119,321	-0,056	0,051
-289,862	717,491	0,031	-0,061
-288,847	166,251	-0,057	-0,059
-287,832	-154,208	-0,043	0,002
-286,818	800,000	0,025	0,081
-285,803	-200,000	-0,013	-0,073
-284,789	-36,193	0,139	0,055
-283,774	4,631	-0,070	0,038
-282,759	156,293	-0,041	-0,041
-281,745	310,466	-0,048	-0,065
-280,730	-155,683	-0,133	-0,006
-279,716	-200,000	0,017	-0,084
-278,701	-200,000	0,020	0,096
-277,686	148,438	0,037	0,036
-276,672	-61,159	0,020	0,006
-275,657	-52,947	0,089	-0,030
-274,643	800,000	-0,016	-0,042
-273,628	-200,000	0,009	-0,061
-272,613	764,578	-0,027	-0,053
-271,599	-137,090	-0,002	-0,000
-270,584	63,370	0,106	-0,078
-269,570	800,000	0,019	0,044
-268,555	-74,370	-0,042	-0,011
-267,540	-117,392	0,031	0,004
-266,526	-200,000	0,008	-0,085
-265,511	800,000	0,014	-0,030
-264,497	-200,000	0,002	0,143
-263,482	-200,000	0,008	0,159
-262,467	165,828	0,077	0,080
-261,453	142,709	-0,108	0,105
-260,438	800,000	-0,050	-0,147
-259,424	0,965	-0,077	-0,040
-258,409	800,000	0,048	-0,144
-257,395	8,524	-0,147	-0,081
-256,380	-164,797	0,111	0,004
-255,365	-200,000	0,001	0,019
-254,351	-97,892	-0,035	-0,007
-253,336	-1,265	-0,092	-0,047
-252,322	691,126	-0,032	0,062
-251,307	-14,147	-0,106	0,050
-250,292	245,888	0,058	-0,072
-249,278	-8,212	0,076	0,038
-248,263	-88,341	-0,048	0,010
-247,249	-114,158	0,038	-0,005
-246,234	-200,000	-0,010	0,055
-245,219	412,362	-0,077	-0,120
-244,205	-200,000	-0,008	0,039
-243,190	112,138	0,073	-0,064
-242,176	-29,272	0,090	-0,038
-241,161	33,599	0,061	0,038
-240,146	65,103	0,092	-0,068
-239,132	-70,954	-0,018	0,005
-238,117	-133,768	0,133	0,012
-237,103	-4,898	-0,009	-0,005
-236,088	-200,000	0,094	-0,000
-235,073	-191,059	-0,078	0,001
-234,059	800,000	0,029	-0,091
-233,044	-200,000	-0,004	-0,075
-232,030	306,803	-0,028	-0,038
-231,015	-200,000	-0,006	-0,081
-230,000	460,843	0,052	-0,086
-228,986	-153,822	-0,120	-0,006
-227,971	-123,467	-0,043	0,005
-226,957	-97,000	0,099	-0,019
-225,942	32,934	0,099	0,063
-224,927	547,688	-0,050	0,087
-223,913	-200,000	-0,010	-0,201
-222,898	276,423	-0,029	0,038
-221,884	354,832	0,100	0,146
-220,869	326,124	-0,037	-0,052
-219,855	-67,653	0,076	-0,021
-218,840	7,285	0,077	-0,042
-217,825	283,884	-0,112	0,148
-216,811	413,439	0,055	-0,085
-215,796	154,621	-0,036	0,036
-214,782	800,000	-0,053	-0,115
-213,767	800,000	0,023	-0,048
-212,752	800,000	0,028	0,074
-211,738	4,977	-0,062	-0,033
-210,723	187,788	-0,062	-0,068
-209,709	-35,295	-0,161	0,063
-208,694	-200,000	-0,032	-0,127
-207,679	-166,073	-0,124	0,004
-206,665	-200,000	0,017	0,107
-205,650	797,002	-0,088	0,177
-204,636	800,000	0,036	0,076
-203,621	-67,617	-0,036	-0,010
-202,606	-176,123	0,203	0,004
-201,592	-84,842	-0,131	-0,030
-200,577	-85,840	0,089	0,020
-199,563	-200,000	0,002	-0,079
-198,548	-200,000	-0,005	0,022
-197,533	148,794	0,060	-0,060
-196,519	313,421	-0,074	-0,102
-195,504	-175,813	0,068	-0,001
-194,490	-67,885	-0,055	0,016
-193,475	63,447	-0,088	-0,064
-192,460	97,288	0,113	0,095
-191,446	-67,462	-0,065	0,018
-190,431	-76,734	0,239	0,061
-189,417	-200,000	-0,007	0,139
-188,402	-19,993	0,011	-0,005
-187,387	-94,956	-0,200	-0,039
-186,373	-67,892	-0,148	-0,042
-185,358	800,000	-0,072	-0,160
-184,344	800,000	0,048	-0,102
-183,329	-51,566	0,096	-0,032
-182,315	172,444	-0,042	-0,044
-181,300	311,969	-0,035	-0,048
-180,285	146,352	-0,076	-0,074
-179,271	-200,000	-0,013	0,125
-178,256	377,500	-0,033	0,050
-177,242	-70,453	-0,057	0,016
-176,227	343,093	0,071	0,102
-175,212	-200,000	0,043	0,155
-174,198	-106,392	-0,192	-0,031
-173,183	547,393	0,033	-0,058
-172,169	80,914	0,053	0,041
-171,154	523,421	0,038	-0,066
-170,139	-139,853	0,063	0,005
-169,125	-200,000	-0,008	-0,058
-168,110	366,555	-0,041	0,061
-167,096	595,272	-0,047	0,084
-166,081	-52,752	0,134	0,045
-165,066	-47,074	-0,085	0,030
-164,052	-57,157	-0,035	0,011
-163,037	-58,682	-0,135	-0,042
-162,023	-200,000	0,022	-0,134
-161,008	800,000	-0,031	0,071
-159,993	-131,860	0,130	0,012
-158,979	-20,532	0,094	-0,042
-157,964	-200,000	-0,013	-0,078
-156,950	-78,932	-0,063	-0,015
-155,935	225,630	0,073	0,086
-154,920	-95,651	0,019	0,004
-153,906	-70,939	0,040	0,011
-152,891	571,127	-0,042	-0,074
-151,877	-77,322	-0,149	0,038
-150,862	-200,000	-0,005	0,027
-149,847	56,162	-0,101	0,071
-148,833	455,803	-0,036	-0,058
-147,818	529,664	0,053	-0,092
-146,804	165,461	0,074	0,076
-145,789	147,238	-0,054	0,053
-144,775	800,000	0,056	-0,118
-143,760	-200,000	0,011	-0,115
-142,745	-200,000	0,027	-0,238
-141,731	295,649	-0,045	0,061
-140,716	-200,000	-0,012	-0,087
-139,702	-200,000	0,008	0,060
-138,687	-103,613	0,100	0,017
-137,672	-200,000	0,009	0,112
-136,658	-200,000	0,013	0,099
-135,643	115,755	-0,061	-0,055
-134,629	127,054	-0,007	0,006
-133,614	800,000	-0,016	0,033
-132,599	-163,977	0,101	-0,003
-131,585	-177,971	0,004	0,000
-130,570	545,302	-0,033	-0,058
-129,556	-200,000	0,023	0,123
-128,541	-200,000	-0,012	-0,124
-127,526	41,512	-0,023	0,015
-126,512	-200,000	0,005	-0,034
-125,497	-175,993	0,048	0,001
-124,483	12,174	0,122	0,068
-123,468	-200,000	0,006	0,082
-122,453	800,000	0,038	-0,097
-121,439	800,000	0,030	-0,063
-120,424	-101,434	-0,050	0,009
