DTS Sentinel unit serial number:	SN410029Multiplexer serial number:	ORYXHardware model number:	OX2-SRSoftware version number:	ORYX F/W v4,00 Oryx Data Collector v3.7.2.0data status	okinstallation	B6 Nyhavnadifferential loss correction	single-endedforward channel	channel 2reverse channel	N/Adate	2023/12/10time	08:05:08forward acquisition time	300,00reverse acquisition time	0,00gamma	499,1914k internal	0,3123k external	0,3123temperature offset calibration	1,0000default loss term (dB/km)	0,3820temperature slope calibration	1,0000multiplexer offset coefficient	1,0000multiplexer slope coefficient	1,0000fibre end	0,00T internal ref (°C)	22,57T ext. ref 1 (°C)	6,33T ext. ref 2 (°C)	6,33length (m)	temperature (°C)	Stokes	anti-Stokes-744,400	189,689	0,052	0,059
-743,385	360,860	-0,094	0,141
-742,371	-14,426	0,099	0,047
-741,356	-53,845	-0,186	0,063
-740,342	-159,970	0,045	0,002
-739,327	-148,369	-0,305	0,018
-738,312	62,953	-0,048	-0,036
-737,298	-128,100	-0,283	0,030
-736,283	599,237	0,015	-0,028
-735,269	21,627	-0,256	0,155
-734,254	47,269	0,086	0,060
-733,239	-56,193	-0,440	-0,145
-732,225	-31,817	0,219	-0,091
-731,210	92,668	-0,112	0,094
-730,196	-200,000	-0,024	0,093
-729,181	98,721	-0,148	0,127
-728,167	-200,000	0,011	0,130
-727,152	361,344	-0,093	-0,139
-726,137	53,341	-0,026	-0,019
-725,123	560,059	-0,047	-0,084
-724,108	-200,000	0,001	0,022
-723,094	114,749	-0,063	-0,057
-722,079	309,521	-0,067	-0,093
-721,064	-200,000	-0,007	-0,032
-720,050	800,000	0,067	-0,169
-719,035	-200,000	-0,028	0,094
-718,021	-200,000	-0,029	-0,129
-717,006	461,590	-0,011	0,018
-715,991	106,389	-0,039	-0,034
-714,977	-7,167	-0,104	0,052
-713,962	-147,750	0,027	-0,002
-712,948	-72,635	0,095	-0,026
-711,933	-200,000	-0,004	0,021
-710,918	-17,623	-0,087	-0,040
-709,904	213,129	-0,057	-0,067
-708,889	-200,000	-0,019	-0,096
-707,875	48,517	0,142	-0,099
-706,860	-200,000	-0,013	-0,160
-705,845	440,265	0,084	-0,138
-704,831	-46,853	-0,050	-0,018
-703,816	-200,000	0,006	-0,112
-702,802	-200,000	-0,027	0,093
-701,787	288,013	-0,081	-0,110
-700,772	-73,879	0,093	-0,025
-699,758	30,878	-0,088	0,056
-698,743	223,874	-0,033	0,040
-697,729	-116,743	-0,040	0,005
-696,714	-139,409	-0,123	0,010
-695,699	-200,000	0,008	0,033
-694,685	-13,235	-0,161	-0,078
-693,670	16,556	0,023	0,014
-692,656	59,232	-0,119	0,087
-691,641	-200,000	-0,025	0,113
-690,627	-200,000	-0,015	0,057
-689,612	-117,242	0,118	0,016
-688,597	-130,712	-0,115	0,011
-687,583	-95,957	-0,120	-0,023
-686,568	-59,094	-0,153	0,049
-685,554	8,837	-0,022	0,012
-684,539	-88,977	-0,030	-0,007
-683,524	-200,000	-0,002	0,085
-682,510	-25,459	-0,067	0,029
-681,495	412,572	-0,058	0,092
-680,481	800,000	-0,016	-0,043
-679,466	46,804	0,081	-0,056
-678,451	662,141	0,048	-0,092
-677,437	-200,000	0,000	-0,027
-676,422	-174,747	0,064	0,001
-675,408	138,366	0,022	0,022
-674,393	236,247	-0,082	-0,101
-673,378	491,573	0,053	-0,091
-672,364	47,489	-0,061	0,042
-671,349	-200,000	-0,032	-0,105
-670,335	-6,189	-0,049	0,025
-669,320	161,549	-0,032	0,034
-668,305	345,996	-0,062	-0,091
-667,291	524,825	-0,058	-0,102
-666,276	-175,863	-0,060	-0,001
-665,262	68,482	0,060	-0,045
-664,247	41,616	-0,052	0,035
-663,232	-177,817	0,053	0,001
-662,218	754,248	0,033	0,066
-661,203	688,420	-0,018	0,036
-660,189	-200,000	0,038	-0,154
-659,174	131,994	0,065	0,062
-658,159	-28,822	-0,172	-0,073
-657,145	269,338	0,032	-0,042
-656,130	48,895	0,078	-0,054
-655,116	709,449	0,020	-0,039
-654,101	-200,000	-0,006	0,105
-653,086	-168,824	-0,068	-0,002
-652,072	-200,000	-0,009	-0,046
-651,057	103,368	-0,141	-0,122
-650,043	-200,000	-0,014	-0,079
-649,028	-200,000	0,020	-0,081
-648,014	133,552	-0,023	-0,022
-646,999	27,578	-0,099	0,062
-645,984	646,695	-0,038	0,072
-644,970	-180,182	0,024	-0,000
-643,955	-200,000	-0,011	-0,185
-642,941	29,323	-0,126	-0,079
-641,926	-116,618	0,055	-0,007
-640,911	547,800	0,046	-0,082
-639,897	800,000	0,017	0,051
-638,882	-158,015	0,163	0,007
-637,868	63,461	-0,118	0,087
-636,853	319,300	0,022	-0,031
-635,838	-200,000	0,005	-0,053
-634,824	800,000	-0,072	-0,174
-633,809	29,433	0,038	0,024
-632,795	193,913	-0,076	-0,085
-631,780	-17,514	0,119	0,055
-630,765	138,834	0,041	-0,040
-629,751	-129,180	-0,021	-0,002
-628,736	10,553	0,016	-0,009
-627,722	800,000	0,050	0,140
-626,707	13,619	-0,047	0,027
-625,692	196,915	0,011	0,012
-624,678	800,000	0,052	-0,160
-623,663	91,107	0,025	0,021
-622,649	-200,000	-0,165	0,000
-621,634	-85,533	-0,091	-0,021
-620,619	-200,000	0,015	-0,074
-619,605	27,585	-0,042	0,026
-618,590	800,000	0,035	0,112
-617,576	-87,345	0,169	-0,038
-616,561	165,912	0,081	-0,085
-615,546	-147,814	-0,197	0,012
-614,532	-200,000	0,012	-0,120
-613,517	-200,000	0,013	-0,068
-612,503	17,567	-0,087	-0,051
-611,488	76,506	0,054	-0,043
-610,474	24,310	-0,045	0,028
-609,459	-135,980	-0,126	-0,011
-608,444	202,458	-0,011	0,012
-607,430	56,623	-0,095	-0,068
-606,415	350,370	0,043	0,063
-605,401	216,883	-0,015	-0,017
-604,386	36,291	0,090	-0,059
-603,371	-200,000	0,003	0,115
-602,357	800,000	-0,035	-0,078
-601,342	2,507	0,064	-0,034
-600,328	-200,000	0,016	-0,117
-599,313	84,088	-0,031	-0,025
-598,298	288,317	-0,041	-0,056
-597,284	550,699	-0,037	-0,065
-596,269	-200,000	0,021	-0,108
-595,255	-156,071	0,106	0,005
-594,240	39,898	-0,117	0,077
-593,225	138,077	-0,127	0,123
-592,211	397,770	-0,096	-0,149
-591,196	161,140	-0,071	0,074
-590,182	-150,646	-0,098	0,005
-589,167	13,506	-0,102	0,059
-588,152	-78,433	-0,029	0,007
-587,138	140,625	-0,053	-0,052
-586,123	-86,596	-0,139	0,031
-585,109	-80,030	-0,228	-0,056
-584,094	198,563	-0,060	0,068
-583,079	-200,000	0,012	0,044
-582,065	-99,941	0,066	0,012
-581,050	-79,112	0,143	0,036
-580,036	389,479	0,045	-0,069
-579,021	800,000	-0,050	-0,123
-578,006	178,325	-0,041	-0,044
-576,992	261,419	-0,057	0,073
-575,977	-200,000	0,016	0,062
-574,963	800,000	0,035	-0,097
-573,948	800,000	-0,023	0,050
-572,934	97,254	-0,077	0,066
-571,919	-200,000	-0,010	0,073
-570,904	-140,774	-0,091	0,007
-569,890	-25,557	0,022	-0,010
-568,875	134,031	0,076	0,073
-567,861	101,779	-0,070	0,061
-566,846	214,937	0,040	-0,047
-565,831	581,103	0,017	-0,031
-564,817	616,382	-0,028	0,052
-563,802	-200,000	0,035	0,134
-562,788	-66,364	-0,176	-0,052
-561,773	-135,209	0,067	-0,006
-560,758	-200,000	-0,004	-0,117
-559,744	148,614	-0,046	0,046
-558,729	800,000	0,034	-0,098
-557,715	-148,472	0,111	-0,007
-556,700	-23,512	-0,022	-0,010
-555,685	-200,000	0,012	-0,102
-554,671	-200,000	0,012	-0,069
-553,656	-58,927	-0,103	0,033
-552,642	445,478	-0,038	0,063
-551,627	238,598	-0,018	-0,022
-550,612	255,502	-0,029	0,037
-549,598	-30,123	0,051	0,022
-548,583	8,310	0,057	-0,032
-547,569	-106,524	-0,064	-0,011
-546,554	-200,000	0,001	0,141
-545,539	-41,454	0,146	-0,055
-544,525	800,000	0,044	0,130
-543,510	800,000	-0,017	-0,046
-542,496	-154,195	-0,140	-0,007
-541,481	63,369	-0,122	-0,091
-540,466	-200,000	-0,015	-0,074
-539,452	-200,000	-0,033	0,155
-538,437	-200,000	0,014	-0,051
-537,423	-31,224	0,095	-0,039
-536,408	328,845	-0,075	0,107
-535,393	-200,000	0,015	-0,089
-534,379	2,001	0,047	-0,025
-533,364	-119,268	-0,211	-0,027
-532,350	-74,363	0,071	0,019
-531,335	-200,000	-0,038	-0,127
-530,321	-200,000	-0,023	0,076
-529,306	618,304	0,060	-0,113
-528,291	800,000	-0,058	-0,128
-527,277	66,260	-0,098	-0,074
-526,262	-103,724	0,010	-0,002
-525,248	106,041	-0,060	-0,052
-524,233	-200,000	0,028	-0,112
-523,218	-62,393	0,111	0,034
-522,204	50,547	-0,118	-0,082
-521,189	800,000	0,026	-0,064
-520,175	800,000	-0,009	0,020
-519,160	370,587	0,087	-0,130
-518,145	41,983	0,070	0,047
-517,131	-200,000	-0,029	0,182
-516,116	63,222	0,142	-0,105
-515,102	-51,637	-0,100	-0,034
-514,087	-74,300	-0,124	0,033
-513,072	-200,000	-0,023	-0,142
-512,058	174,141	-0,075	-0,080
-511,043	800,000	-0,007	0,020
-510,029	25,432	0,096	0,059
-509,014	-191,512	0,096	-0,001
-507,999	78,364	0,109	-0,086
-506,985	78,755	-0,082	0,065
-505,970	-200,000	0,002	0,137
-504,956	47,001	-0,144	0,098
-503,941	-139,979	0,144	-0,011
-502,926	297,306	0,023	0,031
-501,912	-92,457	-0,076	-0,016
-500,897	-200,000	-0,028	-0,097
-499,883	178,477	0,117	-0,126
-498,868	90,011	0,057	0,047
-497,853	800,000	0,055	-0,123
-496,839	-200,000	-0,005	-0,026
-495,824	97,452	-0,035	-0,030
-494,810	-42,337	0,086	-0,032
-493,795	-14,116	0,077	-0,036
-492,781	38,382	-0,070	0,046
-491,766	-0,790	-0,122	-0,064
-490,751	323,113	-0,056	-0,079
-489,737	1,144	-0,024	0,013
-488,722	78,838	0,124	-0,098
-487,708	-143,756	0,045	-0,003
-486,693	-66,720	-0,090	0,026
-485,678	98,933	0,058	-0,049
-484,664	-178,463	-0,049	0,001
-483,649	800,000	0,053	-0,129
-482,635	-92,488	-0,096	0,020
-481,620	142,154	0,102	0,100
-480,605	-23,598	0,052	-0,023
-479,591	-124,503	-0,049	0,006
-478,576	-200,000	0,004	-0,096
-477,562	-200,000	0,034	-0,172
-476,547	154,516	0,069	-0,070
-475,532	218,007	-0,042	0,050
-474,518	-200,000	0,012	0,101
-473,503	296,258	0,033	0,045
-472,489	-156,122	0,032	-0,001
-471,474	-106,129	0,062	-0,010
-470,459	162,291	-0,060	0,062
-469,445	-98,769	0,087	0,016
-468,430	-200,000	-0,020	0,107
-467,416	-200,000	0,016	0,084
-466,401	-16,000	-0,051	0,024
-465,386	-200,000	-0,007	0,088
-464,372	-200,000	-0,007	0,043
-463,357	800,000	-0,032	-0,087
-462,343	-7,256	0,078	-0,039
-461,328	31,359	-0,083	-0,052
-460,313	-200,000	0,025	-0,108
-459,299	473,831	0,069	0,115
-458,284	-18,210	0,052	0,024
-457,270	-39,113	0,084	-0,032
-456,255	107,053	0,085	0,074
-455,241	-125,714	-0,011	0,001
-454,226	139,227	0,051	-0,050
-453,211	-109,648	-0,143	-0,022
-452,197	285,435	0,101	-0,134
-451,182	156,991	-0,023	0,023
-450,168	-200,000	-0,029	0,111
-449,153	594,392	-0,029	-0,053
-448,138	-200,000	-0,009	0,052
-447,124	152,928	0,065	-0,065
-446,109	314,195	-0,043	0,060
-445,095	-144,741	-0,032	-0,002
-444,080	800,000	0,054	0,113
-443,065	800,000	-0,040	0,092
-442,051	423,193	-0,037	0,058
-441,036	-49,290	-0,077	-0,027
-440,022	800,000	-0,063	-0,147
-439,007	800,000	-0,034	0,100
-437,992	-200,000	0,046	0,148
-436,978	182,193	0,092	0,099
-435,963	194,769	0,026	0,029
-434,949	-132,902	0,024	0,002
-433,934	-200,000	0,054	0,000
-432,919	-104,324	0,066	0,011
-431,905	365,000	-0,069	-0,103
-430,890	-69,723	0,177	-0,049
-429,876	-200,000	0,031	0,156
-428,861	-200,000	-0,011	0,080
-427,846	-74,888	-0,040	0,011
-426,832	-83,950	0,056	0,013
-425,817	800,000	-0,013	-0,027
-424,803	-200,000	0,008	0,151
-423,788	168,170	0,103	-0,108
-422,773	97,432	0,025	0,021
-421,759	290,218	0,025	-0,034
-420,744	-50,791	0,125	0,043
-419,730	59,834	0,187	0,135
-418,715	-126,192	0,089	-0,010
-417,701	-200,000	-0,014	-0,052
-416,686	-33,245	-0,084	0,034
-415,671	488,701	0,051	0,087
-414,657	374,503	-0,017	-0,026
-413,642	-70,422	0,100	0,028
-412,628	630,540	-0,045	-0,083
-411,613	-200,000	-0,023	-0,164
-410,598	28,312	-0,099	0,061
-409,584	-37,368	-0,060	0,023
-408,569	-200,000	-0,008	-0,053
-407,555	39,649	0,173	-0,114
-406,540	800,000	-0,074	-0,172
-405,525	38,806	0,031	0,020
-404,511	570,217	-0,063	-0,113
-403,496	37,354	-0,070	0,045
-402,482	-200,000	-0,002	-0,058
-401,467	-9,835	0,037	0,018
-400,452	86,899	-0,080	0,065
-399,438	-39,649	0,058	0,022
-398,423	800,000	-0,003	0,007
-397,409	-91,643	-0,211	-0,044
-396,394	396,432	0,025	-0,039
-395,379	-200,000	-0,009	-0,062
-394,365	-106,933	0,228	-0,037
-393,350	-94,558	0,128	0,025
-392,336	-200,000	0,005	-0,072
-391,321	338,411	0,033	0,047
-390,306	39,670	0,063	0,042
-389,292	-122,756	0,087	-0,010
-388,277	-200,000	0,005	0,024
-387,263	-0,969	0,044	-0,023
-386,248	274,136	0,065	0,085
-385,233	-200,000	-0,015	0,058
-384,219	-97,649	0,107	0,020
-383,204	-200,000	-0,025	-0,123
-382,190	-20,467	-0,060	-0,027
-381,175	-200,000	-0,015	-0,066
-380,160	-157,937	-0,186	0,008
-379,146	-94,706	0,056	-0,011
-378,131	262,515	0,080	-0,103
-377,117	518,001	-0,086	-0,148
-376,102	800,000	-0,025	-0,051
-375,088	-33,689	-0,115	0,046
-374,073	-200,000	-0,044	-0,145
-373,058	-50,899	0,091	0,031
-372,044	-11,302	0,040	-0,019
-371,029	93,238	-0,109	0,091
-370,015	-200,000	0,028	0,126
-369,000	-200,000	-0,012	0,069
-367,985	800,000	0,039	-0,113
-366,971	800,000	-0,039	-0,119
-365,956	11,406	0,079	0,044
-364,942	56,345	-0,080	0,057
-363,927	800,000	-0,040	0,102
-362,912	2,608	0,094	-0,050
-361,898	-110,059	0,058	0,009
-360,883	-35,007	0,020	-0,008
-359,869	305,068	-0,071	-0,097
-358,854	322,393	-0,072	0,101
-357,839	-177,709	0,014	0,000
-356,825	-200,000	0,000	0,109
-355,810	-97,601	0,046	-0,009
-354,796	-29,713	0,100	-0,042
-353,781	87,614	-0,085	-0,069
-352,766	800,000	-0,012	-0,038
-351,752	34,158	-0,003	0,002
-350,737	-141,394	-0,110	-0,008
-349,723	243,252	0,079	0,097
-348,708	164,568	0,008	-0,009
-347,693	-139,763	-0,057	0,004
-346,679	-65,467	-0,055	-0,016
-345,664	331,582	0,044	0,062
-344,650	-200,000	-0,018	-0,073
-343,635	-200,000	0,001	-0,031
-342,620	-121,523	0,162	0,020
-341,606	44,951	-0,050	-0,034
-340,591	193,094	-0,029	0,032
-339,577	17,166	-0,031	0,018
-338,562	-87,294	-0,079	-0,018
-337,548	-100,473	0,147	0,026
-336,533	572,438	0,064	0,114
-335,518	328,965	-0,055	0,078
-334,504	-200,000	-0,006	0,175
-333,489	-183,315	-0,019	0,000
-332,475	117,559	-0,083	-0,075
-331,460	-82,845	0,085	0,020
-330,445	36,503	-0,101	0,065
-329,431	334,432	0,068	0,096
-328,416	-10,786	-0,117	-0,056
-327,402	-72,545	0,122	-0,033
-326,387	236,181	-0,069	0,084
-325,372	800,000	-0,088	-0,190
-324,358	114,972	-0,036	-0,032
-323,343	800,000	-0,022	0,070
-322,329	-135,462	0,111	0,010
-321,314	87,913	0,069	0,056
-320,299	293,922	0,066	-0,089
-319,285	-200,000	-0,049	-0,247
-318,270	-200,000	-0,014	-0,052
-317,256	124,542	-0,068	-0,062
-316,241	-48,616	0,116	0,041
-315,226	709,453	-0,078	0,152
-314,212	-57,022	0,077	0,025
-313,197	224,348	0,016	0,019
-312,183	-200,000	0,005	0,055
-311,168	-77,119	0,046	-0,012
-310,153	800,000	0,034	0,090
-309,139	-86,046	0,047	-0,010
-308,124	113,975	-0,044	0,040
-307,110	800,000	-0,023	0,050
-306,095	-56,324	0,102	-0,033
-305,080	-63,174	-0,098	0,030
-304,066	213,506	0,027	-0,031
-303,051	-173,261	0,016	0,000
-302,037	-200,000	0,016	-0,055
-301,022	-200,000	-0,043	-0,161
-300,008	123,986	0,104	0,096
-298,993	664,786	-0,010	0,018
-297,978	677,775	0,051	0,097
-296,964	800,000	0,022	0,048
-295,949	800,000	0,007	0,023
-294,935	107,744	0,089	0,078
-293,920	5,341	0,092	0,049
-292,905	-200,000	-0,001	0,007
-291,891	342,382	-0,048	-0,070
-290,876	310,762	-0,016	0,023
-289,862	-200,000	-0,017	-0,139
-288,847	-200,000	-0,013	0,096
-287,832	800,000	-0,012	-0,033
-286,818	800,000	0,018	-0,044
-285,803	505,443	0,065	0,110
-284,789	-106,679	-0,140	0,022
-283,774	285,631	0,087	0,115
-282,759	-200,000	-0,008	0,238
-281,745	-200,000	0,011	0,060
-280,730	-87,319	0,036	-0,008
-279,716	800,000	0,042	-0,087
-278,701	-200,000	-0,010	-0,062
-277,686	7,598	-0,055	0,030
-276,672	19,093	0,043	-0,025
-275,657	-41,456	0,152	0,057
-274,643	260,550	0,037	-0,046
-273,628	68,086	-0,137	0,103
-272,613	126,367	0,092	-0,086
-271,599	81,672	-0,088	0,070
-270,584	115,239	0,080	0,071
-269,570	231,688	0,114	0,137
-268,555	646,357	-0,057	0,107
-267,540	70,649	-0,096	-0,072
-266,526	170,901	-0,134	-0,141
-265,511	-2,381	0,054	-0,027
-264,497	291,209	0,061	-0,082
-263,482	709,634	-0,028	-0,054
-262,467	-120,596	0,026	-0,003
-261,453	-169,789	0,090	0,002
-260,438	-157,850	-0,131	-0,006
-259,424	800,000	-0,014	-0,035
-258,409	2,664	-0,082	-0,043
-257,395	107,616	-0,079	-0,069
-256,380	15,355	0,056	0,032
-255,365	-22,665	0,189	-0,083
-254,351	-113,700	0,031	-0,004
-253,336	229,839	-0,042	0,051
-252,322	38,267	-0,083	0,054
-251,307	4,276	0,055	0,029
-250,292	-200,000	0,008	-0,059
-249,278	-200,000	-0,029	0,137
-248,263	-28,693	-0,037	-0,016
-247,249	63,065	-0,047	0,035
-246,234	-24,802	-0,109	-0,047
-245,219	19,164	-0,040	-0,023
-244,205	800,000	-0,037	-0,092
-243,190	-22,644	0,154	-0,068
-242,176	272,110	0,076	0,099
-241,161	594,621	0,059	0,107
-240,146	-200,000	-0,008	0,093
-239,132	-149,239	-0,123	0,007
-238,117	304,351	-0,022	-0,029
-237,103	-8,350	-0,091	0,045
-236,088	-144,093	0,068	-0,005
-235,073	-200,000	0,006	0,058
-234,059	40,970	0,114	0,075
-233,044	-200,000	-0,006	0,039
-232,030	685,058	-0,046	-0,088
-231,015	115,064	-0,108	-0,096
-230,000	239,365	0,070	-0,086
-228,986	800,000	0,038	0,122
-227,971	-200,000	0,017	0,126
-226,957	179,188	0,111	0,119
-225,942	-70,797	-0,035	0,010
-224,927	14,677	0,115	-0,066
-223,913	272,308	0,038	0,049
-222,898	1,776	-0,116	-0,061
-221,884	-123,121	-0,037	0,004
-220,869	304,991	-0,026	0,036
-219,855	325,018	0,061	0,085
-218,840	95,089	0,090	0,074
-217,825	-145,463	-0,100	-0,006
-216,811	181,460	0,093	0,100
-215,796	-153,461	0,123	-0,006
-214,782	81,412	0,085	0,067
-213,767	133,705	0,056	0,053
-212,752	187,635	0,064	0,070
-211,738	-15,421	0,066	0,031
-210,723	341,647	-0,038	0,055
-209,709	472,792	0,051	0,084
-208,694	323,860	-0,095	-0,133
-207,679	-10,851	-0,060	-0,029
-206,665	133,476	-0,087	0,082
-205,650	70,838	0,034	0,026
-204,636	-79,378	0,156	0,038
-203,621	-94,894	-0,191	-0,037
-202,606	-147,365	0,049	-0,003
-201,592	179,183	0,056	-0,060
-200,577	342,607	-0,055	-0,079
-199,563	-200,000	-0,012	-0,074
-198,548	-118,614	0,103	-0,013
-197,533	800,000	-0,008	0,019
-196,519	-200,000	0,020	0,096
-195,504	-143,926	-0,051	-0,003
-194,490	800,000	-0,072	0,163
-193,475	175,176	0,073	0,078
-192,460	-200,000	0,004	0,069
-191,446	-140,344	0,010	-0,001
-190,431	-115,540	-0,088	0,012
-189,417	53,240	-0,166	0,116
-188,402	169,215	0,059	0,062
-187,387	127,325	-0,113	-0,104
-186,373	34,675	-0,079	0,050
-185,358	-200,000	0,012	-0,118
-184,344	244,996	0,029	0,035
-183,329	39,524	0,113	0,074
-182,315	260,575	-0,123	-0,156
-181,300	-130,473	-0,149	-0,015
-180,285	231,087	-0,056	-0,066
-179,271	-200,000	-0,002	0,137
-178,256	-45,818	-0,101	0,036
-177,242	-3,600	0,100	-0,051
-176,227	-73,382	0,072	0,019
-175,212	-84,580	-0,042	-0,010
-174,198	-49,988	-0,206	0,071
-173,183	164,262	-0,060	-0,062
-172,169	-200,000	-0,020	-0,066
-171,154	800,000	-0,032	0,084
-170,139	145,378	0,069	0,067
-169,125	800,000	0,051	0,108
-168,110	221,357	0,058	0,067
-167,096	144,478	0,087	-0,085
-166,081	-105,026	-0,138	-0,023
-165,066	-82,468	0,032	-0,007
-164,052	23,046	-0,020	-0,012
-163,037	-200,000	0,011	0,091
-162,023	725,118	0,017	0,033
-161,008	-132,639	0,101	0,009
-159,993	91,686	-0,078	-0,064
-158,979	53,912	-0,059	0,041
-157,964	800,000	-0,031	-0,094
-156,950	-200,000	0,017	-0,084
-155,935	25,679	0,055	0,033
-154,920	49,980	0,059	0,041
-153,906	175,688	0,074	-0,079
-152,891	-200,000	-0,016	0,139
-151,877	-48,355	0,122	0,043
-150,862	-200,000	0,032	-0,157
-149,847	128,677	-0,042	-0,039
-148,833	-59,544	0,038	0,012
-147,818	800,000	0,014	-0,034
-146,804	221,597	-0,065	0,076
-145,789	40,135	0,080	0,052
-144,775	-82,428	0,144	-0,034
-143,760	677,000	0,047	-0,089
-142,745	77,922	0,107	-0,083
-141,731	-7,979	-0,079	-0,039
-140,716	345,460	-0,014	0,020
-139,702	-58,384	0,059	0,019
-138,687	538,187	0,032	-0,056
-137,672	800,000	-0,009	-0,021
-136,658	-110,511	-0,168	-0,025
-135,643	-200,000	-0,001	-0,035
-134,629	659,760	-0,011	0,021
-133,614	157,276	-0,143	0,144
-132,599	-200,000	-0,038	0,134
-131,585	800,000	0,064	0,191
-130,570	338,910	-0,038	-0,054
-129,556	-177,972	0,060	-0,001
-128,541	-121,544	-0,084	0,010
-127,526	800,000	-0,013	-0,039
-126,512	-200,000	0,019	0,154
-125,497	215,403	0,063	0,073
-124,483	23,670	-0,090	-0,054
-123,468	490,315	0,061	0,102
-122,453	58,971	0,121	0,086
-121,439	-200,000	0,027	0,124
-120,424	349,542	0,005	-0,007
-119,410	-59,310	0,100	0,031
-118,395	-200,000	0,013	0,128
