DTS Sentinel unit serial number:	SN410029Multiplexer serial number:	ORYXHardware model number:	OX2-SRSoftware version number:	ORYX F/W v4,00 Oryx Data Collector v3.7.2.0data status	okinstallation	B6 Nyhavnadifferential loss correction	single-endedforward channel	channel 2reverse channel	N/Adate	2023/12/07time	15:40:08forward acquisition time	300,00reverse acquisition time	0,00gamma	499,1914k internal	0,3165k external	0,3165temperature offset calibration	1,0000default loss term (dB/km)	0,3820temperature slope calibration	1,0000multiplexer offset coefficient	1,0000multiplexer slope coefficient	1,0000fibre end	0,00T internal ref (°C)	14,42T ext. ref 1 (°C)	-2,00T ext. ref 2 (°C)	-2,00length (m)	temperature (°C)	Stokes	anti-Stokes-744,400	-163,221	0,075	0,003
-743,385	-105,294	-0,356	-0,059
-742,371	-76,226	0,099	0,025
-741,356	-188,337	-0,284	-0,003
-740,342	-126,311	0,154	0,017
-739,327	-148,157	-0,268	0,016
-738,312	-99,029	0,194	0,036
-737,298	-156,302	-0,210	0,010
-736,283	-127,788	0,182	-0,019
-735,269	-106,389	-0,267	-0,043
-734,254	-164,413	0,161	-0,005
-733,239	-48,977	-0,469	-0,164
-732,225	-11,661	0,232	0,112
-731,210	12,425	0,055	-0,031
-730,196	310,464	-0,093	-0,129
-729,181	114,823	-0,156	-0,140
-728,167	537,724	-0,034	-0,060
-727,152	-19,568	-0,158	0,072
-726,137	800,000	-0,018	-0,056
-725,123	299,395	-0,040	-0,054
-724,108	-85,997	0,054	-0,012
-723,094	-49,891	-0,082	-0,029
-722,079	677,732	0,024	-0,046
-721,064	-200,000	0,006	-0,041
-720,050	-200,000	-0,003	0,056
-719,035	188,629	0,073	-0,080
-718,021	-57,283	-0,192	-0,062
-717,006	800,000	-0,029	-0,067
-715,991	131,768	-0,060	-0,057
-714,977	-200,000	-0,026	-0,094
-713,962	-200,000	-0,001	0,046
-712,948	126,562	-0,067	0,062
-711,933	-136,255	-0,032	-0,003
-710,918	-66,262	-0,009	-0,003
-709,904	284,630	0,070	-0,093
-708,889	-71,475	-0,085	-0,023
-707,875	159,383	-0,094	-0,096
-706,860	-3,264	0,073	0,037
-705,845	-109,134	-0,091	0,014
-704,831	-70,133	0,042	-0,012
-703,816	-162,551	-0,155	-0,006
-702,802	532,313	-0,095	-0,166
-701,787	551,953	-0,018	-0,032
-700,772	800,000	0,012	0,028
-699,758	800,000	-0,030	0,074
-698,743	-129,268	0,077	0,008
-697,729	92,581	0,095	0,079
-696,714	-85,240	0,044	0,010
-695,699	-111,727	-0,150	-0,022
-694,685	604,210	-0,055	-0,102
-693,670	800,000	-0,051	-0,128
-692,656	800,000	-0,037	0,078
-691,641	60,046	-0,120	-0,087
-690,627	111,173	0,045	0,040
-689,612	88,712	0,102	-0,083
-688,597	140,677	-0,059	-0,057
-687,583	-113,281	-0,048	-0,007
-686,568	0,467	-0,065	-0,034
-685,554	100,567	0,081	-0,069
-684,539	-200,000	0,009	-0,081
-683,524	800,000	-0,006	-0,016
-682,510	-37,589	-0,125	0,049
-681,495	-200,000	-0,035	-0,130
-680,481	591,270	-0,044	-0,081
-679,466	-200,000	0,005	-0,064
-678,451	-97,827	0,090	-0,017
-677,437	-54,418	0,079	-0,026
-676,422	-184,990	0,084	-0,001
-675,408	-200,000	-0,012	0,116
-674,393	-200,000	-0,001	-0,032
-673,378	100,996	-0,089	0,076
-672,364	-200,000	-0,005	-0,029
-671,349	85,049	0,134	-0,108
-670,335	800,000	0,049	-0,111
-669,320	-17,501	0,102	0,047
-668,305	800,000	0,023	0,056
-667,291	-104,790	0,204	0,034
-666,276	-82,789	-0,064	-0,015
-665,262	-69,572	-0,027	0,008
-664,247	756,902	-0,020	0,041
-663,232	-4,015	-0,071	-0,036
-662,218	194,252	0,060	0,067
-661,203	-200,000	-0,008	-0,107
-660,189	165,451	0,097	0,100
-659,174	-81,332	-0,107	-0,026
-658,159	87,941	-0,114	0,093
-657,145	73,834	0,064	-0,049
-656,130	-85,813	0,037	0,008
-655,116	354,057	0,059	0,086
-654,101	176,985	0,054	-0,058
-653,086	-112,951	0,109	0,016
-652,072	-128,788	-0,198	0,020
-651,057	401,509	0,053	0,082
-650,043	-200,000	-0,003	-0,014
-649,028	163,092	0,043	0,044
-648,014	-200,000	-0,022	0,104
-646,999	398,860	-0,047	0,073
-645,984	-200,000	0,015	0,058
-644,970	-27,999	0,008	0,003
-643,955	-200,000	-0,037	-0,180
-642,941	-45,242	0,018	0,006
-641,926	-84,994	-0,097	-0,022
-640,911	338,987	0,037	-0,053
-639,897	-200,000	0,009	0,121
-638,882	142,432	0,060	-0,058
-637,868	558,963	-0,024	-0,043
-636,853	-95,946	0,091	-0,018
-635,838	260,289	-0,088	-0,112
-634,824	800,000	0,019	0,055
-633,809	66,778	0,023	-0,017
-632,795	-200,000	0,001	0,055
-631,780	12,035	0,081	-0,046
-630,765	446,878	-0,053	-0,086
-629,751	33,957	-0,133	0,084
-628,736	-200,000	0,012	0,040
-627,722	-125,906	0,103	0,011
-626,707	800,000	-0,011	-0,025
-625,692	-13,245	0,111	0,053
-624,678	356,263	-0,034	0,049
-623,663	-84,252	-0,038	0,009
-622,649	-200,000	-0,015	0,108
-621,634	39,165	-0,032	0,021
-620,619	800,000	0,029	-0,086
-619,605	-20,933	0,041	-0,018
-618,590	26,676	0,048	-0,029
-617,576	-156,524	-0,172	0,008
-616,561	800,000	0,035	-0,112
-615,546	521,213	-0,029	-0,050
-614,532	800,000	-0,042	-0,127
-613,517	714,444	-0,050	-0,098
-612,503	-200,000	-0,015	0,071
-611,488	71,913	0,081	0,062
-610,474	-200,000	-0,006	0,152
-609,459	5,868	0,089	0,048
-608,444	395,941	-0,018	0,027
-607,430	649,771	-0,055	-0,103
-606,415	639,274	0,089	-0,166
-605,401	-152,496	0,166	0,009
-604,386	-55,780	0,077	-0,025
-603,371	-200,000	-0,015	-0,104
-602,357	-88,144	-0,044	-0,010
-601,342	800,000	-0,040	-0,128
-600,328	1,712	-0,074	-0,039
-599,313	156,910	0,050	0,051
-598,298	93,964	-0,109	-0,091
-597,284	362,791	-0,040	-0,059
-596,269	-63,959	0,089	-0,026
-595,255	-200,000	-0,005	0,058
-594,240	800,000	0,081	-0,191
-593,225	245,060	0,105	-0,129
-592,211	210,470	-0,114	-0,131
-591,196	259,657	0,113	0,142
-590,182	-200,000	0,030	-0,122
-589,167	800,000	-0,039	-0,125
-588,152	-97,275	-0,033	0,006
-587,138	284,409	0,055	0,073
-586,123	486,769	0,061	-0,102
-585,109	800,000	-0,049	-0,144
-584,094	341,913	-0,044	-0,063
-583,079	119,685	0,111	-0,101
-582,065	-200,000	0,009	-0,043
-581,050	-200,000	0,003	-0,063
-580,036	800,000	0,031	0,079
-579,021	-200,000	-0,009	-0,111
-578,006	541,703	-0,047	-0,083
-576,992	459,484	0,076	-0,124
-575,977	47,639	-0,050	-0,034
-574,963	-200,000	0,004	0,108
-573,948	476,984	0,037	-0,061
-572,934	7,336	0,014	-0,008
-571,919	-103,632	-0,082	0,014
-570,904	184,516	0,055	-0,060
-569,890	-30,392	0,181	-0,075
-568,875	800,000	-0,010	-0,023
-567,861	800,000	0,025	-0,054
-566,846	-200,000	-0,003	-0,071
-565,831	-200,000	-0,006	-0,073
-564,817	800,000	0,062	-0,158
-563,802	-0,837	-0,123	-0,063
-562,788	61,606	0,048	-0,035
-561,773	-200,000	-0,003	-0,144
-560,758	-200,000	-0,002	-0,150
-559,744	47,574	0,085	0,058
-558,729	-200,000	0,000	0,082
-557,715	-150,059	0,108	0,006
-556,700	-166,224	-0,053	-0,002
-555,685	100,541	-0,005	-0,004
-554,671	800,000	-0,015	0,035
-553,656	-200,000	0,014	0,071
-552,642	758,946	-0,035	0,070
-551,627	138,772	-0,032	0,031
-550,612	44,315	-0,076	-0,051
-549,598	313,834	-0,129	-0,178
-548,583	82,901	-0,078	0,062
-547,569	-174,414	0,026	0,001
-546,554	-49,117	0,114	0,040
-545,539	337,894	-0,049	0,070
-544,525	291,693	0,067	-0,090
-543,510	-200,000	0,012	-0,049
-542,496	-62,104	-0,147	-0,044
-541,481	-114,208	-0,033	-0,005
-540,466	-121,405	0,164	0,020
-539,452	189,706	0,051	-0,056
-538,437	27,547	0,094	0,058
-537,423	133,982	0,104	0,099
-536,408	800,000	0,013	0,043
-535,393	-46,173	-0,081	0,029
-534,379	575,893	0,067	-0,119
-533,364	314,910	0,060	0,082
-532,350	-200,000	-0,061	0,000
-531,335	602,210	0,038	0,070
-530,321	-115,807	0,038	-0,005
-529,306	39,702	-0,176	0,115
-528,291	-200,000	-0,003	-0,028
-527,277	-47,068	-0,052	-0,018
-526,262	242,316	-0,084	0,103
-525,248	-200,000	0,022	0,155
-524,233	800,000	-0,051	0,151
-523,218	800,000	0,024	0,065
-522,204	-97,234	0,201	0,038
-521,189	800,000	-0,024	0,076
-520,175	-17,385	-0,032	0,015
-519,160	72,638	0,039	-0,029
-518,145	27,582	0,099	0,061
-517,131	-21,556	0,108	0,048
-516,116	-200,000	0,003	-0,101
-515,102	25,916	-0,065	-0,039
-514,087	175,598	-0,027	-0,029
-513,072	-200,000	-0,020	-0,071
-512,058	-191,222	-0,182	0,001
-511,043	800,000	0,019	-0,062
-510,029	-107,075	0,116	-0,018
-509,014	485,997	-0,109	-0,181
-507,999	800,000	0,032	0,077
-506,985	42,620	-0,101	-0,067
-505,970	-97,485	0,053	-0,010
-504,956	-67,611	-0,131	-0,037
-503,941	-57,468	-0,118	0,038
-502,926	-190,736	0,115	0,001
-501,912	-200,000	-0,018	0,081
-500,897	800,000	0,044	-0,133
-499,883	153,358	-0,024	-0,024
-498,868	11,252	-0,099	0,055
-497,853	-200,000	0,006	-0,107
-496,839	2,685	0,047	-0,025
-495,824	-200,000	-0,002	-0,018
-494,810	-200,000	-0,046	0,239
-493,795	-160,697	-0,123	0,005
-492,781	800,000	-0,021	0,044
-491,766	302,363	0,076	-0,102
-490,751	408,385	-0,096	-0,148
-489,737	-200,000	-0,002	0,043
-488,722	-200,000	-0,009	-0,070
-487,708	36,444	0,084	-0,054
-486,693	379,210	0,048	-0,071
-485,678	800,000	0,018	-0,054
-484,664	-173,886	-0,164	-0,003
-483,649	-200,000	-0,053	-0,185
-482,635	110,487	0,038	0,033
-481,620	-18,610	0,032	0,014
-480,605	85,984	0,116	0,093
-479,591	-112,033	0,136	-0,020
-478,576	49,296	0,054	-0,037
-477,562	-2,693	-0,131	-0,066
-476,547	-200,000	-0,006	-0,048
-475,532	407,784	0,013	-0,021
-474,518	14,052	0,058	-0,033
-473,503	-200,000	-0,002	0,131
-472,489	-200,000	-0,009	0,036
-471,474	800,000	-0,034	-0,077
-470,459	-200,000	0,003	0,037
-469,445	-200,000	0,001	0,076
-468,430	218,355	-0,062	-0,072
-467,416	-200,000	0,024	-0,095
-466,401	-200,000	0,022	0,149
-465,386	581,390	-0,016	0,028
-464,372	396,355	-0,035	-0,053
-463,357	-200,000	0,007	-0,084
-462,343	800,000	-0,051	0,149
-461,328	-37,963	-0,071	-0,027
-460,313	61,947	0,083	0,060
-459,299	-200,000	-0,010	-0,091
-458,284	69,043	0,029	0,022
-457,270	-200,000	0,032	-0,166
-456,255	7,018	0,086	-0,047
-455,241	-172,009	-0,046	-0,001
-454,226	800,000	-0,028	-0,089
-453,211	174,648	-0,090	-0,095
-452,197	-200,000	-0,015	-0,117
-451,182	800,000	0,052	0,142
-450,168	201,410	-0,061	0,069
-449,153	141,697	-0,089	0,086
-448,138	-142,893	-0,121	0,008
-447,124	239,704	0,026	0,031
-446,109	-200,000	0,013	0,120
-445,095	-200,000	0,023	-0,088
-444,080	-200,000	0,004	0,078
-443,065	-200,000	-0,043	0,140
-442,051	336,899	-0,020	0,029
-441,036	-75,258	-0,120	0,031
-440,022	-82,874	-0,112	0,026
-439,007	423,999	0,020	-0,031
-437,992	308,257	0,014	0,020
-436,978	-200,000	-0,021	0,125
-435,963	-200,000	0,028	-0,093
-434,949	624,252	-0,007	-0,013
-433,934	-200,000	-0,014	-0,057
-432,919	327,381	0,029	0,040
-431,905	84,523	0,079	-0,063
-430,890	-91,912	-0,141	-0,029
-429,876	319,530	0,085	-0,117
-428,861	-7,414	0,046	-0,023
-427,846	232,579	-0,066	0,079
-426,832	150,242	-0,133	-0,131
-425,817	-200,000	0,004	0,034
-424,803	-62,113	0,107	0,032
-423,788	231,568	-0,058	0,069
-422,773	-99,331	0,143	-0,026
-421,759	285,860	-0,056	0,074
-420,744	-200,000	0,010	0,200
-419,730	-60,064	-0,124	-0,038
-418,715	-200,000	-0,004	-0,184
-417,701	-81,133	0,155	0,037
-416,686	62,474	0,042	-0,030
-415,671	31,706	-0,019	-0,012
-414,657	-50,389	0,018	0,006
-413,642	-64,675	-0,082	0,024
-412,628	-122,047	0,099	0,012
-411,613	800,000	-0,032	-0,080
-410,598	-94,301	-0,195	0,038
-409,584	645,944	0,073	0,135
-408,569	25,682	-0,026	0,016
-407,555	329,880	0,086	0,120
-406,540	-57,273	-0,098	0,031
-405,525	225,060	0,086	0,101
-404,511	-131,786	-0,043	0,004
-403,496	-100,420	-0,093	0,017
-402,482	-199,091	0,036	0,000
-401,467	82,337	-0,082	0,064
-400,452	37,840	0,038	-0,025
-399,438	-200,000	0,020	0,103
-398,423	1,827	-0,091	0,047
-397,409	-51,800	-0,175	-0,059
-396,394	-130,595	0,102	0,010
-395,379	800,000	0,064	0,140
-394,365	248,159	0,053	0,066
-393,350	-63,069	0,015	0,004
-392,336	-6,584	-0,041	-0,020
-391,321	348,813	-0,004	0,005
-390,306	800,000	-0,010	0,028
-389,292	-133,975	0,032	-0,003
-388,277	-75,410	0,050	0,013
-387,263	-200,000	-0,015	0,087
-386,248	-200,000	-0,000	0,094
-385,233	135,507	-0,079	0,075
-384,219	-64,017	0,042	-0,012
-383,204	-121,186	-0,034	0,004
-382,190	-104,296	-0,106	-0,018
-381,175	-17,564	0,091	-0,041
-380,160	-56,494	-0,094	0,030
-379,146	278,799	0,032	0,042
-378,131	-200,000	0,007	0,067
-377,117	-31,734	-0,065	0,026
-376,102	633,726	0,053	-0,098
-375,088	-200,000	-0,010	-0,080
-374,073	-200,000	0,009	-0,190
-373,058	88,295	0,067	0,054
-372,044	109,761	0,032	0,028
-371,029	800,000	0,034	-0,088
-370,015	-127,659	-0,144	0,015
-369,000	-141,042	-0,028	0,002
-367,985	-82,324	-0,096	0,022
-366,971	-95,452	0,083	0,016
-365,956	16,119	-0,061	-0,035
-364,942	177,961	0,084	-0,089
-363,927	-83,860	-0,062	0,014
-362,912	-93,459	0,118	-0,023
-361,898	88,319	-0,060	0,048
-360,883	-156,347	-0,058	0,003
-359,869	14,834	0,020	-0,012
-358,854	170,503	-0,126	0,131
-357,839	-34,935	0,171	0,067
-356,825	98,935	0,024	0,020
-355,810	800,000	-0,060	0,136
-354,796	43,440	0,099	0,066
-353,781	116,920	-0,057	-0,051
-352,766	-79,251	-0,099	0,024
-351,752	-200,000	0,018	-0,108
-350,737	197,827	0,087	0,096
-349,723	-200,000	-0,024	0,086
-348,708	412,940	0,091	0,140
-347,693	-7,131	-0,066	-0,032
-346,679	240,805	0,098	-0,119
-345,664	360,580	-0,089	-0,130
-344,650	61,095	-0,058	0,042
-343,635	154,532	0,047	-0,046
-342,620	-138,507	-0,072	0,006
-341,606	-112,270	0,020	0,003
-340,591	-200,000	0,065	0,238
-339,577	-24,606	0,151	0,065
-338,562	230,272	0,077	-0,092
-337,548	-200,000	0,004	0,060
-336,533	800,000	-0,024	-0,066
-335,518	-200,000	-0,006	0,027
-334,504	-32,760	0,046	0,018
-333,489	-200,000	0,013	-0,048
-332,475	-134,435	-0,090	0,008
-331,460	-176,883	-0,089	-0,002
-330,445	153,759	-0,090	-0,089
-329,431	217,232	0,048	0,056
-328,416	-200,000	-0,023	0,135
-327,402	-200,000	0,018	0,108
-326,387	115,605	0,088	-0,078
-325,372	-16,523	0,128	-0,058
-324,358	800,000	-0,051	-0,113
-323,343	-97,810	-0,094	-0,017
-322,329	28,751	0,101	-0,062
-321,314	-100,958	0,023	-0,004
-320,299	-65,400	-0,089	0,026
-319,285	-70,789	0,131	-0,036
-318,270	453,361	-0,088	-0,141
-317,256	-200,000	0,008	-0,069
-316,241	218,728	-0,020	0,023
-315,226	-101,507	-0,081	-0,014
-314,212	68,400	0,116	0,086
-313,197	377,717	-0,061	0,091
-312,183	386,296	-0,095	-0,142
-311,168	-33,245	-0,010	-0,004
-310,153	323,107	0,059	-0,082
-309,139	800,000	0,029	-0,070
-308,124	-50,251	0,081	0,028
-307,110	214,418	0,048	-0,055
-306,095	-200,000	-0,031	0,181
-305,080	298,382	-0,092	0,123
-304,066	-181,549	0,071	-0,001
-303,051	-3,803	-0,065	0,032
-302,037	-79,657	-0,124	0,030
-301,022	-200,000	0,011	-0,049
-300,008	-169,995	0,094	-0,002
-298,993	-126,636	-0,096	0,010
-297,978	800,000	0,046	0,138
-296,964	-173,106	-0,066	0,001
-295,949	800,000	-0,024	0,052
-294,935	85,750	-0,033	-0,026
-293,920	800,000	0,039	-0,100
-292,905	104,707	-0,012	0,010
-291,891	364,445	-0,072	0,105
-290,876	-200,000	0,012	0,046
-289,862	-200,000	-0,014	0,055
-288,847	-46,951	0,122	-0,043
-287,832	-103,444	0,127	0,021
-286,818	800,000	-0,024	0,054
-285,803	205,914	-0,017	-0,019
-284,789	800,000	0,051	0,108
-283,774	-200,000	0,004	-0,020
-282,759	800,000	-0,011	-0,032
-281,745	244,301	-0,017	0,021
-280,730	-200,000	-0,018	0,140
-279,716	-200,000	0,016	0,075
-278,701	-200,000	0,008	0,184
-277,686	117,857	0,054	0,048
-276,672	-200,000	0,004	0,108
-275,657	-200,000	-0,017	0,066
-274,643	309,513	-0,041	0,055
-273,628	271,968	0,034	-0,043
-272,613	-111,372	0,061	-0,009
-271,599	-200,000	-0,029	0,101
-270,584	-191,503	0,142	0,001
-269,570	-200,000	-0,011	0,092
-268,555	-80,756	0,083	-0,020
-267,540	-127,226	0,128	-0,013
-266,526	56,885	-0,064	0,045
-265,511	171,202	-0,011	0,012
-264,497	-99,525	-0,050	-0,009
-263,482	-85,040	-0,123	0,028
-262,467	16,205	-0,160	0,091
-261,453	72,261	-0,015	0,011
-260,438	-19,776	0,113	-0,050
-259,424	800,000	-0,070	-0,170
-258,409	-200,000	-0,046	-0,174
-257,395	42,482	0,085	-0,056
-256,380	323,097	-0,034	0,046
-255,365	-179,442	0,035	0,001
-254,351	58,109	-0,056	0,040
-253,336	-122,817	-0,027	0,003
-252,322	-200,000	-0,026	-0,137
-251,307	-149,616	0,035	-0,002
-250,292	-200,000	0,005	-0,169
-249,278	800,000	-0,022	0,057
-248,263	47,225	-0,062	-0,042
-247,249	-49,700	-0,036	-0,012
-246,234	-141,207	-0,190	-0,014
-245,219	800,000	-0,009	-0,024
-244,205	219,330	-0,079	-0,092
-243,190	-138,258	0,051	-0,004
-242,176	800,000	0,073	0,185
-241,161	-200,000	-0,038	0,140
-240,146	31,732	0,101	0,063
-239,132	-130,965	0,058	-0,006
-238,117	-79,327	-0,118	-0,028
-237,103	800,000	0,023	-0,072
-236,088	-69,353	0,102	-0,028
-235,073	-106,085	0,049	-0,008
-234,059	405,630	-0,035	0,054
-233,044	-200,000	0,024	0,089
-232,030	-64,556	-0,129	0,038
-231,015	-200,000	-0,007	-0,154
-230,000	-81,849	0,039	-0,009
-228,986	116,585	-0,027	-0,024
-227,971	66,323	-0,020	0,014
-226,957	97,835	-0,054	0,044
-225,942	283,100	0,042	-0,055
-224,927	196,987	-0,083	-0,092
-223,913	-200,000	0,015	-0,074
-222,898	336,508	0,065	-0,091
-221,884	-73,077	0,020	0,005
-220,869	-200,000	-0,008	-0,119
-219,855	-118,666	0,117	-0,015
-218,840	800,000	0,026	0,076
-217,825	-168,264	0,104	0,003
-216,811	-200,000	-0,007	-0,182
-215,796	-119,641	-0,268	0,033
-214,782	405,065	0,026	0,040
-213,767	-200,000	-0,027	0,100
-212,752	-200,000	0,017	0,137
-211,738	-200,000	0,014	0,084
-210,723	-200,000	0,001	-0,049
-209,709	800,000	-0,052	0,126
-208,694	127,206	0,129	-0,118
-207,679	-200,000	-0,003	-0,066
-206,665	74,155	0,052	0,039
-205,650	225,311	0,078	0,091
-204,636	78,982	-0,033	-0,026
-203,621	-98,388	0,095	0,017
-202,606	-200,000	0,003	0,055
-201,592	53,815	-0,060	0,042
-200,577	-200,000	0,017	-0,103
-199,563	448,023	0,020	-0,031
-198,548	330,361	0,018	-0,025
-197,533	-115,239	0,074	0,010
-196,519	240,539	0,072	0,087
-195,504	497,807	0,048	-0,080
-194,490	-173,811	-0,093	0,002
-193,475	-200,000	-0,014	-0,050
-192,460	-125,946	0,106	-0,011
-191,446	-200,000	0,027	0,180
-190,431	-200,000	-0,057	-0,000
-189,417	-148,624	-0,141	0,008
-188,402	-58,769	-0,051	-0,016
-187,387	107,858	-0,015	-0,013
-186,373	-200,000	0,001	-0,036
-185,358	94,167	0,045	-0,037
-184,344	-19,279	0,032	0,014
-183,329	-200,000	-0,007	0,138
-182,315	-133,797	0,145	0,013
-181,300	800,000	0,080	0,190
-180,285	756,415	-0,075	0,147
-179,271	-200,000	-0,022	-0,123
-178,256	-200,000	-0,020	-0,071
-177,242	-163,635	0,236	-0,008
-176,227	-25,977	0,043	0,018
-175,212	235,247	-0,079	0,093
-174,198	-155,501	0,073	-0,003
-173,183	-34,707	0,139	-0,054
-172,169	800,000	-0,040	0,094
-171,154	-200,000	-0,010	0,092
-170,139	-200,000	0,032	0,108
-169,125	231,928	0,028	-0,033
-168,110	155,044	-0,054	-0,054
-167,096	-140,538	0,059	0,004
-166,081	-30,202	-0,113	0,046
-165,066	-200,000	-0,000	0,020
-164,052	465,269	-0,033	0,054
-163,037	-27,939	0,078	0,032
-162,023	-113,124	-0,059	0,008
-161,008	-107,775	0,157	0,024
-159,993	-71,361	-0,174	-0,047
-158,979	131,878	-0,109	-0,101
-157,964	-200,000	-0,017	-0,148
-156,950	723,206	0,027	0,053
-155,935	-200,000	0,006	-0,026
-154,920	-200,000	0,021	0,087
-153,906	82,468	-0,035	-0,027
-152,891	-200,000	-0,049	0,161
-151,877	-200,000	0,018	-0,107
-150,862	-119,756	-0,110	-0,013
-149,847	170,997	0,059	-0,061
-148,833	-200,000	-0,021	-0,088
-147,818	-200,000	-0,001	-0,152
-146,804	72,225	0,065	0,049
-145,789	635,287	-0,052	0,095
-144,775	-11,447	-0,066	-0,031
-143,760	-200,000	0,009	-0,042
-142,745	120,157	-0,063	-0,056
-141,731	800,000	0,063	-0,155
-140,716	800,000	0,008	0,021
-139,702	290,538	0,109	0,142
-138,687	506,561	-0,065	0,109
-137,672	-113,644	-0,031	-0,004
-136,658	16,239	0,030	-0,017
-135,643	800,000	0,042	-0,090
-134,629	-200,000	-0,040	-0,145
-133,614	800,000	0,044	-0,102
-132,599	-76,633	0,080	-0,020
-131,585	-200,000	-0,003	0,030
-130,570	-200,000	-0,040	-0,143
-129,556	800,000	-0,050	-0,124
-128,541	-200,000	-0,003	-0,092
-127,526	14,801	0,097	-0,054
-126,512	-85,312	-0,051	-0,011
-125,497	-200,000	0,002	0,181
-124,483	-200,000	0,001	-0,030
-123,468	22,923	-0,077	-0,045
-122,453	-86,386	0,124	0,027
-121,439	-200,000	-0,031	-0,115
