DTS Sentinel unit serial number:	SN410029Multiplexer serial number:	ORYXHardware model number:	OX2-SRSoftware version number:	ORYX F/W v4,00 Oryx Data Collector v3.7.2.0data status	okinstallation	B6 Nyhavnadifferential loss correction	single-endedforward channel	channel 2reverse channel	N/Adate	2023/12/11time	04:35:08forward acquisition time	300,00reverse acquisition time	0,00gamma	499,1914k internal	0,3126k external	0,3126temperature offset calibration	1,0000default loss term (dB/km)	0,3820temperature slope calibration	1,0000multiplexer offset coefficient	1,0000multiplexer slope coefficient	1,0000fibre end	0,00T internal ref (°C)	20,48T ext. ref 1 (°C)	3,24T ext. ref 2 (°C)	3,25length (m)	temperature (°C)	Stokes	anti-Stokes-744,400	121,955	0,053	-0,049
-743,385	-81,481	-0,313	0,076
-742,371	-149,944	0,201	0,011
-741,356	231,060	-0,099	0,120
-740,342	-64,162	0,035	-0,011
-739,327	-197,377	-0,181	-0,001
-738,312	-79,686	-0,104	-0,026
-737,298	-191,431	-0,390	0,003
-736,283	-200,000	0,005	0,036
-735,269	-200,000	-0,027	0,094
-734,254	-77,527	-0,149	0,038
-733,239	-70,842	-0,453	-0,126
-732,225	50,074	0,096	-0,067
-731,210	-84,429	-0,072	0,017
-730,196	-126,505	-0,151	-0,016
-729,181	800,000	-0,009	0,029
-728,167	800,000	-0,004	-0,013
-727,152	95,523	-0,052	0,044
-726,137	32,065	-0,025	-0,016
-725,123	800,000	-0,014	-0,031
-724,108	800,000	-0,018	-0,052
-723,094	-126,414	-0,153	0,017
-722,079	313,271	0,065	-0,091
-721,064	-41,137	-0,110	-0,042
-720,050	216,737	0,162	0,192
-719,035	-16,906	-0,129	-0,060
-718,021	-200,000	0,034	-0,114
-717,006	-178,040	0,115	0,002
-715,991	800,000	-0,043	-0,129
-714,977	164,808	-0,023	-0,024
-713,962	-200,000	0,028	-0,117
-712,948	85,007	0,072	0,058
-711,933	66,631	0,092	-0,070
-710,918	-200,000	0,006	-0,063
-709,904	-200,000	-0,042	-0,148
-708,889	800,000	0,041	-0,094
-707,875	-110,989	-0,222	0,034
-706,860	-43,113	-0,095	0,035
-705,845	-72,523	0,083	-0,023
-704,831	95,852	-0,009	0,008
-703,816	800,000	0,022	-0,061
-702,802	-118,918	-0,083	-0,011
-701,787	-12,896	-0,054	-0,026
-700,772	30,838	-0,111	-0,070
-699,758	-25,691	-0,023	-0,010
-698,743	-28,867	-0,038	0,016
-697,729	477,516	0,082	0,138
-696,714	600,099	-0,081	0,151
-695,699	607,774	-0,011	-0,021
-694,685	800,000	-0,016	0,049
-693,670	-200,000	-0,019	0,068
-692,656	99,190	-0,115	0,099
-691,641	0,966	0,041	0,022
-690,627	-200,000	0,012	-0,072
-689,612	-113,777	-0,082	0,012
-688,597	-200,000	-0,142	0,000
-687,583	-58,402	-0,050	0,016
-686,568	422,577	0,030	-0,048
-685,554	283,459	0,017	-0,023
-684,539	80,125	0,064	0,051
-683,524	66,752	-0,046	-0,035
-682,510	114,807	-0,067	-0,061
-681,495	-16,527	0,026	0,012
-680,481	-200,000	-0,016	0,061
-679,466	-111,433	-0,037	0,006
-678,451	105,310	0,066	-0,058
-677,437	44,459	0,062	-0,042
-676,422	-9,848	0,038	0,019
-675,408	-162,455	0,100	0,004
-674,393	-123,638	0,074	-0,009
-673,378	-200,000	-0,035	-0,171
-672,364	800,000	0,031	-0,086
-671,349	752,605	-0,079	-0,158
-670,335	347,468	0,015	-0,022
-669,320	157,748	-0,024	-0,025
-668,305	721,300	0,069	0,137
-667,291	-112,835	0,031	0,005
-666,276	800,000	-0,058	-0,129
-665,262	358,867	-0,046	-0,068
-664,247	-29,269	0,087	0,037
-663,232	569,798	0,002	-0,003
-662,218	-200,000	-0,003	0,045
-661,203	143,643	-0,028	0,028
-660,189	800,000	0,032	0,079
-659,174	31,165	-0,121	-0,077
-658,159	314,610	-0,016	-0,023
-657,145	-200,000	-0,008	-0,142
-656,130	-50,539	-0,081	0,028
-655,116	-200,000	-0,017	-0,056
-654,101	54,502	0,071	0,051
-653,086	800,000	0,021	-0,057
-652,072	-200,000	-0,014	0,057
-651,057	800,000	-0,042	-0,116
-650,043	-200,000	-0,185	0,000
-649,028	-60,989	0,061	0,019
-648,014	-200,000	-0,008	0,078
-646,999	365,837	-0,082	-0,123
-645,984	-135,784	-0,070	0,006
-644,970	800,000	-0,059	-0,126
-643,955	10,365	-0,132	0,075
-642,941	-200,000	0,000	0,054
-641,926	800,000	-0,046	-0,151
-640,911	800,000	-0,072	0,215
-639,897	800,000	0,056	0,116
-638,882	-85,794	-0,038	-0,009
-637,868	-4,110	0,036	-0,019
-636,853	40,573	-0,192	0,128
-635,838	-200,000	0,010	-0,120
-634,824	357,168	0,038	0,057
-633,809	-200,000	0,023	0,092
-632,795	436,988	-0,037	0,060
-631,780	-39,905	-0,009	0,003
-630,765	-200,000	0,011	-0,035
-629,751	-200,000	0,027	-0,157
-628,736	121,781	-0,063	-0,058
-627,722	-1,937	-0,059	-0,030
-626,707	-200,000	0,012	0,118
-625,692	241,383	-0,072	0,090
-624,678	-78,486	0,050	-0,013
-623,663	121,191	-0,048	-0,044
-622,649	106,046	0,076	0,067
-621,634	203,386	0,073	-0,083
-620,619	-110,184	-0,246	-0,038
-619,605	-200,000	-0,009	0,047
-618,590	-200,000	0,014	0,100
-617,576	603,069	0,043	0,080
-616,561	305,531	0,023	-0,032
-615,546	59,131	0,043	0,031
-614,532	-200,000	0,015	-0,089
-613,517	-200,000	0,023	-0,146
-612,503	-104,336	0,010	-0,002
-611,488	67,629	0,138	-0,105
-610,474	-38,476	0,018	-0,007
-609,459	-140,737	-0,007	-0,000
-608,444	-200,000	0,015	-0,081
-607,430	67,010	-0,052	-0,039
-606,415	236,541	0,015	0,018
-605,401	-9,087	-0,140	-0,069
-604,386	4,017	0,122	0,066
-603,371	-200,000	0,009	-0,188
-602,357	-200,000	0,009	0,075
-601,342	800,000	-0,074	0,213
-600,328	609,542	-0,031	-0,057
-599,313	-166,448	-0,126	0,004
-598,298	299,818	0,083	0,114
-597,284	131,256	0,102	0,097
-596,269	32,351	0,085	-0,054
-595,255	-89,135	-0,087	0,019
-594,240	-146,164	-0,102	0,007
-593,225	-73,697	-0,156	0,042
-592,211	5,168	-0,109	-0,059
-591,196	209,051	-0,085	-0,099
-590,182	132,708	-0,055	-0,052
-589,167	-63,064	0,137	0,042
-588,152	-200,000	-0,002	-0,070
-587,138	-200,000	0,023	0,175
-586,123	256,552	0,040	0,051
-585,109	800,000	0,019	-0,061
-584,094	315,758	-0,027	0,038
-583,079	-200,000	-0,015	0,074
-582,065	-16,966	-0,021	0,010
-581,050	-51,692	0,146	0,050
-580,036	-74,656	-0,137	-0,036
-579,021	244,313	0,009	0,012
-578,006	77,129	0,046	-0,036
-576,992	757,616	0,037	-0,075
-575,977	586,564	0,071	-0,130
-574,963	800,000	-0,053	0,138
-573,948	223,023	-0,070	0,083
-572,934	692,305	0,047	0,092
-571,919	-38,678	-0,150	0,058
-570,904	222,181	0,099	-0,118
-569,890	-200,000	0,005	0,033
-568,875	-200,000	-0,014	-0,065
-567,861	44,749	0,134	-0,091
-566,846	800,000	0,043	-0,115
-565,831	696,697	0,059	-0,114
-564,817	-66,489	-0,023	0,007
-563,802	64,441	-0,104	-0,077
-562,788	531,576	0,037	0,065
-561,773	-154,940	0,114	-0,005
-560,758	-200,000	-0,018	0,151
-559,744	-183,103	0,105	0,001
-558,729	8,552	-0,082	0,046
-557,715	800,000	0,012	-0,030
-556,700	-84,366	-0,158	-0,037
-555,685	259,368	-0,067	-0,086
-554,671	800,000	0,017	0,042
-553,656	800,000	0,022	0,070
-552,642	800,000	0,021	0,066
-551,627	127,580	0,052	-0,049
-550,612	-200,000	-0,012	-0,072
-549,598	140,055	-0,077	0,075
-548,583	417,033	-0,055	0,087
-547,569	800,000	0,003	0,006
-546,554	239,919	-0,059	-0,073
-545,539	478,333	-0,041	0,069
-544,525	-107,427	-0,074	0,012
-543,510	-200,000	-0,006	0,123
-542,496	-200,000	-0,004	-0,014
-541,481	-87,784	0,052	-0,012
-540,466	-69,229	0,117	0,033
-539,452	-84,497	-0,171	-0,039
-538,437	-11,154	0,133	0,065
-537,423	-200,000	-0,014	0,203
-536,408	381,035	-0,070	0,106
-535,393	-22,178	-0,156	-0,070
-534,379	66,759	-0,070	-0,052
-533,364	70,805	0,038	-0,029
-532,350	-200,000	-0,006	0,031
-531,335	321,162	-0,060	0,084
-530,321	104,216	0,093	0,080
-529,306	458,641	0,093	-0,153
-528,291	218,353	0,074	-0,088
-527,277	-200,000	0,037	-0,160
-526,262	-148,820	-0,238	-0,014
-525,248	502,309	0,117	0,201
-524,233	-129,496	0,180	-0,018
-523,218	800,000	-0,028	-0,072
-522,204	-200,000	0,031	0,170
-521,189	24,591	-0,053	-0,032
-520,175	353,530	0,052	0,077
-519,160	800,000	-0,080	-0,176
-518,145	-200,000	-0,013	0,120
-517,131	76,307	-0,069	-0,054
-516,116	-138,360	0,114	0,009
-515,102	800,000	-0,033	-0,081
-514,087	800,000	0,010	0,027
-513,072	20,173	0,041	0,024
-512,058	-111,943	-0,076	0,011
-511,043	-134,145	-0,048	-0,004
-510,029	-142,914	-0,091	-0,006
-509,014	800,000	-0,029	0,080
-507,999	11,389	0,082	-0,046
-506,985	-70,622	0,038	0,010
-505,970	800,000	0,008	-0,019
-504,956	-147,083	-0,020	0,001
-503,941	41,033	-0,062	0,041
-502,926	-63,530	0,101	0,030
-501,912	35,634	0,042	-0,027
-500,897	6,724	0,124	0,068
-499,883	800,000	-0,066	0,137
-498,868	41,315	0,093	-0,062
-497,853	164,385	-0,076	-0,079
-496,839	-200,000	0,011	-0,098
-495,824	-200,000	-0,014	0,077
-494,810	-200,000	-0,003	0,054
-493,795	33,591	-0,032	-0,021
-492,781	18,714	-0,064	0,038
-491,766	-53,690	0,075	0,025
-490,751	-200,000	0,007	-0,034
-489,737	-200,000	0,006	0,085
-488,722	120,856	0,053	0,048
-487,708	800,000	-0,051	0,107
-486,693	90,259	-0,128	0,105
-485,678	394,723	0,044	0,067
-484,664	188,711	0,005	0,005
-483,649	800,000	-0,066	-0,146
-482,635	-49,657	0,082	-0,028
-481,620	-200,000	0,006	0,051
-480,605	699,912	0,009	-0,017
-479,591	-92,537	0,091	0,019
-478,576	800,000	-0,069	-0,145
-477,562	800,000	-0,027	0,069
-476,547	-200,000	-0,004	-0,097
-475,532	-200,000	0,005	-0,116
-474,518	753,358	-0,018	0,037
-473,503	-85,539	0,026	-0,006
-472,489	-9,009	-0,031	-0,015
-471,474	800,000	0,013	-0,037
-470,459	128,577	-0,010	0,010
-469,445	-200,000	0,004	-0,041
-468,430	-1,997	-0,161	-0,083
-467,416	277,011	-0,026	0,034
-466,401	89,147	0,039	-0,032
-465,386	558,865	-0,055	-0,098
-464,372	-200,000	0,012	0,043
-463,357	800,000	-0,052	-0,112
-462,343	-200,000	0,007	0,026
-461,328	233,327	-0,088	0,107
-460,313	800,000	-0,058	0,157
-459,299	-55,288	0,104	0,034
-458,284	-200,000	0,025	-0,082
-457,270	-110,857	0,133	-0,020
-456,255	-115,551	-0,064	-0,009
-455,241	800,000	-0,030	0,097
-454,226	800,000	-0,005	-0,011
-453,211	-200,000	0,008	-0,062
-452,197	-104,280	0,061	0,010
-451,182	483,184	-0,019	-0,031
-450,168	45,574	0,133	0,091
-449,153	261,922	-0,061	-0,079
-448,138	343,500	-0,016	-0,024
-447,124	508,514	-0,034	0,058
-446,109	-85,275	0,111	-0,025
-445,095	-154,809	-0,141	-0,007
-444,080	-89,201	0,130	0,028
-443,065	-200,000	-0,006	0,028
-442,051	-105,666	-0,057	-0,009
-441,036	186,650	-0,014	-0,015
-440,022	106,130	0,046	-0,040
-439,007	90,860	-0,083	-0,068
-437,992	-57,520	0,034	0,011
-436,978	17,061	-0,020	-0,012
-435,963	-200,000	-0,011	0,074
-434,949	429,591	-0,038	-0,060
-433,934	30,651	-0,152	-0,096
-432,919	-79,448	0,064	0,016
-431,905	125,898	0,070	0,065
-430,890	-76,556	0,107	-0,027
-429,876	-26,544	-0,069	0,030
-428,861	-200,000	0,020	0,121
-427,846	-200,000	0,002	-0,061
-426,832	800,000	0,044	-0,090
-425,817	-200,000	0,013	-0,161
-424,803	100,277	-0,110	-0,094
-423,788	-36,219	0,084	-0,033
-422,773	-200,000	-0,004	-0,012
-421,759	72,184	0,030	-0,023
-420,744	70,168	-0,092	-0,070
-419,730	-200,000	-0,017	-0,151
-418,715	-146,046	0,114	-0,007
-417,701	-200,000	-0,014	-0,047
-416,686	94,427	0,140	-0,117
-415,671	40,495	-0,064	0,042
-414,657	-135,107	-0,085	-0,007
-413,642	-57,840	-0,162	-0,052
-412,628	128,154	-0,048	0,045
-411,613	165,179	-0,056	0,058
-410,598	271,231	0,075	0,098
-409,584	-200,000	-0,008	0,031
-408,569	-147,601	0,061	0,004
-407,555	7,314	0,059	-0,032
-406,540	-200,000	0,027	-0,094
-405,525	189,348	-0,021	0,023
-404,511	184,332	0,098	-0,107
-403,496	447,471	0,102	-0,165
-402,482	-200,000	0,005	0,116
-401,467	-98,280	0,146	0,027
-400,452	-65,337	0,035	-0,010
-399,438	12,315	-0,026	0,015
-398,423	700,674	-0,080	-0,156
-397,409	-200,000	0,020	-0,066
-396,394	231,172	0,075	0,091
-395,379	-100,577	0,037	0,007
-394,365	-200,000	-0,023	0,087
-393,350	365,389	0,069	0,102
-392,336	-200,000	-0,007	0,129
-391,321	-91,758	-0,047	-0,010
-390,306	-200,000	-0,015	0,077
-389,292	-75,399	-0,073	-0,019
-388,277	-126,551	0,076	-0,008
-387,263	231,233	-0,026	-0,031
-386,248	789,896	0,048	0,097
-385,233	-86,375	0,114	0,026
-384,219	-125,913	0,139	0,015
-383,204	-135,010	-0,047	0,004
-382,190	800,000	0,012	-0,024
-381,175	-175,824	0,025	0,000
-380,160	373,057	0,069	0,103
-379,146	-2,473	-0,064	-0,033
-378,131	111,715	-0,005	-0,004
-377,117	-102,196	-0,186	0,032
-376,102	-19,057	-0,063	0,029
-375,088	71,648	-0,097	-0,074
-374,073	359,395	0,052	-0,077
-373,058	-200,000	-0,008	-0,109
-372,044	122,986	0,118	0,109
-371,029	-200,000	0,041	0,188
-370,015	442,303	0,031	0,050
-369,000	-200,000	-0,030	0,100
-367,985	439,258	-0,074	-0,118
-366,971	-130,233	0,098	0,010
-365,956	-200,000	0,005	0,023
-364,942	-200,000	0,001	0,107
-363,927	-200,000	0,003	0,051
-362,912	-200,000	-0,015	0,063
-361,898	800,000	0,031	0,098
-360,883	800,000	-0,022	-0,047
-359,869	79,068	-0,150	0,117
-358,854	-200,000	0,037	0,195
-357,839	-135,122	0,080	-0,007
-356,825	67,319	0,092	-0,069
-355,810	-200,000	0,032	0,110
-354,796	-131,344	-0,141	0,014
-353,781	800,000	-0,025	-0,082
-352,766	-200,000	0,007	0,069
-351,752	-200,000	0,019	-0,061
-350,737	-200,000	0,049	0,000
-349,723	-7,977	-0,100	0,049
-348,708	-92,161	0,105	0,022
-347,693	156,809	-0,111	0,113
-346,679	-111,114	-0,049	0,007
-345,664	800,000	-0,018	0,040
-344,650	785,042	-0,071	0,144
-343,635	-109,227	-0,140	0,022
-342,620	-200,000	-0,006	0,022
-341,606	-84,218	0,124	0,029
-340,591	-55,287	0,085	-0,028
-339,577	411,521	-0,057	-0,089
-338,562	306,650	0,022	-0,030
-337,548	181,785	-0,076	0,082
-336,533	-200,000	0,002	-0,138
-335,518	514,132	-0,023	0,039
-334,504	-200,000	0,018	0,077
-333,489	-110,923	0,078	0,012
-332,475	800,000	0,036	0,105
-331,460	19,820	-0,067	0,040
-330,445	348,494	-0,089	0,130
-329,431	-7,630	-0,015	-0,007
-328,416	800,000	-0,038	-0,080
-327,402	24,629	0,062	0,038
-326,387	7,730	-0,109	-0,060
-325,372	366,028	-0,018	0,026
-324,358	800,000	-0,037	-0,109
-323,343	800,000	-0,029	-0,077
-322,329	790,842	0,082	-0,167
-321,314	73,841	0,027	-0,020
-320,299	-200,000	-0,019	0,101
-319,285	-26,109	0,083	-0,035
-318,270	-200,000	0,029	-0,232
-317,256	800,000	0,033	-0,097
-316,241	-159,414	-0,130	0,005
-315,226	463,047	-0,030	-0,049
-314,212	800,000	-0,013	0,028
-313,197	-94,966	0,083	-0,016
-312,183	-200,000	-0,020	-0,068
-311,168	-200,000	-0,004	-0,055
-310,153	-50,493	-0,106	0,036
-309,139	800,000	-0,042	-0,090
-308,124	192,295	-0,089	0,098
-307,110	800,000	-0,025	0,062
-306,095	328,091	0,025	0,035
-305,080	67,282	-0,021	0,016
-304,066	-78,692	0,063	0,016
-303,051	140,022	0,005	0,005
-302,037	-200,000	0,000	0,013
-301,022	93,293	0,047	-0,039
-300,008	78,009	-0,063	0,049
-298,993	40,916	0,051	-0,034
-297,978	-200,000	0,021	-0,098
-296,964	-11,912	0,091	-0,043
-295,949	206,461	0,035	-0,040
-294,935	-40,778	0,043	-0,016
-293,920	-200,000	-0,003	-0,079
-292,905	800,000	0,017	-0,044
-291,891	490,644	-0,039	-0,066
-290,876	-200,000	-0,002	0,061
-289,862	517,228	0,046	-0,079
-288,847	243,140	0,040	-0,049
-287,832	800,000	-0,034	-0,075
-286,818	-200,000	0,019	-0,077
-285,803	-200,000	0,014	0,065
-284,789	800,000	0,038	0,084
-283,774	-48,966	0,110	0,038
-282,759	-200,000	-0,006	-0,177
-281,745	-51,226	-0,083	-0,028
-280,730	50,383	-0,171	0,118
-279,716	133,610	0,039	0,037
-278,701	-200,000	0,104	0,000
-277,686	578,234	-0,045	0,080
-276,672	22,943	-0,072	-0,043
-275,657	-200,000	-0,015	0,086
-274,643	-200,000	0,002	-0,032
-273,628	-200,000	-0,027	0,144
-272,613	-153,919	0,098	-0,005
-271,599	-45,006	0,070	-0,025
-270,584	-169,149	0,051	-0,001
-269,570	-94,759	0,173	0,034
-268,555	-200,000	0,016	-0,173
-267,540	28,709	-0,065	-0,040
-266,526	-146,760	-0,050	-0,003
-265,511	-47,924	0,067	0,023
-264,497	-81,293	0,129	0,031
-263,482	560,905	0,039	0,069
-262,467	-38,868	0,120	0,046
-261,453	-191,009	0,049	0,000
-260,438	783,856	-0,059	-0,119
-259,424	-80,686	0,096	-0,023
-258,409	395,964	-0,013	-0,020
-257,395	800,000	0,061	0,139
-256,380	-200,000	0,005	0,091
-255,365	800,000	0,031	0,070
-254,351	-43,786	-0,062	-0,023
-253,336	482,379	-0,049	-0,081
-252,322	-200,000	-0,001	-0,066
-251,307	-8,801	-0,081	-0,040
-250,292	-87,326	0,130	-0,029
-249,278	122,812	0,114	0,104
-248,263	-81,577	-0,104	-0,025
-247,249	389,896	-0,058	0,088
-246,234	-159,419	-0,028	0,001
-245,219	800,000	0,035	-0,107
-244,205	-63,283	-0,075	0,022
-243,190	202,205	0,041	-0,046
-242,176	-159,331	0,058	0,002
-241,161	111,740	0,060	-0,053
-240,146	42,326	-0,115	-0,076
-239,132	574,345	0,051	0,092
-238,117	16,178	-0,077	0,044
-237,103	-91,696	-0,087	0,018
-236,088	800,000	0,018	-0,045
-235,073	424,170	-0,009	0,014
-234,059	115,874	-0,053	0,048
-233,044	-200,000	-0,026	-0,105
-232,030	-67,221	-0,100	-0,029
-231,015	-200,000	-0,004	-0,037
-230,000	70,242	-0,088	-0,066
-228,986	54,536	0,108	-0,076
-227,971	119,390	-0,081	-0,073
-226,957	-48,239	0,154	0,054
-225,942	33,514	-0,090	-0,057
-224,927	358,725	-0,053	0,077
-223,913	800,000	0,055	-0,114
-222,898	84,971	0,016	-0,013
-221,884	-51,916	-0,016	-0,005
-220,869	800,000	0,031	0,074
-219,855	-124,034	0,069	0,008
-218,840	800,000	0,056	-0,149
-217,825	290,944	0,088	0,117
-216,811	520,213	0,037	-0,064
-215,796	800,000	0,015	-0,032
-214,782	16,652	-0,114	-0,066
-213,767	40,196	-0,079	-0,052
-212,752	350,393	0,085	0,122
-211,738	-200,000	0,005	-0,037
-210,723	-200,000	0,033	0,136
-209,709	-200,000	0,013	-0,099
-208,694	-200,000	-0,053	0,000
-207,679	-131,132	-0,126	-0,012
-206,665	70,375	0,089	-0,067
-205,650	-200,000	0,035	0,142
-204,636	-74,711	0,012	0,003
-203,621	536,034	-0,077	0,134
-202,606	-200,000	0,001	-0,005
-201,592	-175,907	-0,100	-0,002
-200,577	-200,000	0,006	-0,049
-199,563	359,460	-0,040	-0,058
-198,548	800,000	0,051	-0,162
-197,533	-98,530	-0,077	-0,014
-196,519	-200,000	0,029	0,131
-195,504	-185,857	-0,067	-0,001
-194,490	81,718	-0,062	-0,049
-193,475	800,000	0,024	0,056
-192,460	-37,533	-0,046	0,018
-191,446	-200,000	0,065	0,000
-190,431	-200,000	-0,016	0,065
-189,417	96,255	0,134	-0,111
-188,402	5,123	0,034	0,018
-187,387	-200,000	0,026	-0,109
-186,373	-186,248	-0,182	0,002
-185,358	800,000	-0,008	-0,018
-184,344	-32,918	0,071	0,029
-183,329	-200,000	0,010	-0,068
-182,315	-28,486	0,042	-0,018
-181,300	-79,124	0,075	0,018
-180,285	-84,249	-0,152	-0,035
-179,271	475,384	-0,072	-0,118
-178,256	-200,000	-0,005	-0,073
-177,242	-200,000	0,032	0,115
-176,227	-200,000	0,030	0,210
-175,212	-150,819	0,091	-0,005
-174,198	456,527	0,014	-0,023
-173,183	-7,675	0,108	-0,053
-172,169	115,095	0,081	-0,072
-171,154	240,580	-0,031	0,038
-170,139	-139,413	0,079	-0,006
-169,125	-200,000	0,012	-0,080
-168,110	154,641	0,052	0,052
-167,096	5,976	-0,148	0,079
-166,081	414,150	0,051	0,079
-165,066	-200,000	0,002	-0,023
-164,052	-105,581	0,138	0,023
-163,037	318,338	0,026	-0,036
-162,023	-33,727	0,101	0,040
-161,008	-22,557	0,062	-0,027
-159,993	-29,058	-0,075	-0,031
-158,979	319,279	0,058	0,081
-157,964	-200,000	0,027	-0,183
-156,950	-20,098	0,085	-0,038
-155,935	-84,768	-0,033	0,007
-154,920	-19,613	0,106	-0,048
-153,906	137,456	-0,118	0,113
-152,891	-200,000	-0,006	0,088
-151,877	21,142	-0,041	0,024
-150,862	415,671	-0,079	-0,124
-149,847	-46,758	0,030	0,011
-148,833	800,000	-0,032	0,072
-147,818	-95,401	0,058	-0,011
-146,804	800,000	0,027	-0,085
-145,789	43,654	0,078	0,052
-144,775	-1,015	-0,096	-0,049
-143,760	-37,660	-0,164	0,063
-142,745	-149,481	0,073	0,004
-141,731	134,255	-0,051	0,048
-140,716	800,000	0,037	-0,089
-139,702	103,256	-0,058	0,050
-138,687	-200,000	0,004	-0,035
-137,672	-200,000	0,024	0,182
-136,658	551,681	0,083	-0,145
-135,643	800,000	-0,043	-0,135
-134,629	-168,741	-0,090	0,002
-133,614	346,578	0,077	-0,111
-132,599	80,402	-0,055	0,043
-131,585	-108,452	0,017	-0,003
-130,570	-200,000	0,027	-0,088
-129,556	79,113	-0,097	-0,075
-128,541	800,000	-0,077	-0,176
-127,526	-78,519	-0,077	0,019
-126,512	800,000	0,069	0,152
-125,497	486,084	-0,049	-0,081
-124,483	141,826	-0,019	-0,018
-123,468	78,368	0,027	-0,021
-122,453	-0,546	-0,126	-0,065
-121,439	277,968	0,023	0,030
-120,424	511,134	0,052	0,089
-119,410	-45,612	-0,071	0,025
