DTS Sentinel unit serial number:	SN410029Multiplexer serial number:	ORYXHardware model number:	OX2-SRSoftware version number:	ORYX F/W v4,00 Oryx Data Collector v3.7.2.0data status	okinstallation	B6 Nyhavnadifferential loss correction	single-endedforward channel	channel 2reverse channel	N/Adate	2023/12/10time	22:25:08forward acquisition time	300,00reverse acquisition time	0,00gamma	499,1914k internal	0,3123k external	0,3123temperature offset calibration	1,0000default loss term (dB/km)	0,3820temperature slope calibration	1,0000multiplexer offset coefficient	1,0000multiplexer slope coefficient	1,0000fibre end	0,00T internal ref (°C)	22,37T ext. ref 1 (°C)	6,14T ext. ref 2 (°C)	6,12length (m)	temperature (°C)	Stokes	anti-Stokes-744,400	-78,607	-0,048	-0,012
-743,385	50,170	-0,193	0,136
-742,371	-200,000	0,019	0,109
-741,356	-200,000	-0,024	0,259
-740,342	-50,010	0,093	0,033
-739,327	250,675	-0,134	0,170
-738,312	-139,052	-0,073	-0,006
-737,298	-139,069	-0,248	-0,020
-736,283	120,811	0,065	0,060
-735,269	-115,992	-0,164	0,023
-734,254	31,020	0,041	-0,026
-733,239	-122,795	-0,422	0,050
-732,225	-131,129	0,141	-0,014
-731,210	-200,000	0,009	0,171
-730,196	800,000	-0,043	0,129
-729,181	-200,000	0,013	-0,082
-728,167	352,021	-0,035	-0,052
-727,152	-56,278	0,078	0,026
-726,137	800,000	-0,041	0,123
-725,123	-69,225	-0,040	0,011
-724,108	800,000	-0,049	0,138
-723,094	-21,219	0,012	-0,005
-722,079	339,823	0,023	-0,033
-721,064	800,000	-0,041	-0,110
-720,050	-13,014	0,123	-0,059
-719,035	-70,789	-0,130	0,036
-718,021	-200,000	0,004	0,017
-717,006	-123,999	-0,139	0,016
-715,991	156,983	-0,118	-0,122
-714,977	-50,776	-0,121	0,042
-713,962	-200,000	0,006	-0,053
-712,948	24,962	-0,005	-0,003
-711,933	-41,934	0,076	0,029
-710,918	-50,759	0,062	0,022
-709,904	-169,527	-0,040	-0,001
-708,889	21,237	0,079	-0,047
-707,875	-200,000	-0,009	-0,032
-706,860	-42,052	0,050	0,019
-705,845	-200,000	-0,032	0,146
-704,831	800,000	-0,047	0,117
-703,816	168,946	-0,058	0,061
-702,802	800,000	-0,051	-0,110
-701,787	68,204	-0,109	-0,083
-700,772	304,779	-0,039	0,054
-699,758	258,174	0,089	0,115
-698,743	756,499	-0,051	-0,104
-697,729	800,000	0,010	0,029
-696,714	25,977	-0,075	-0,047
-695,699	70,786	-0,084	-0,065
-694,685	53,031	-0,068	-0,048
-693,670	-200,000	0,002	-0,100
-692,656	-200,000	0,012	0,072
-691,641	800,000	-0,015	-0,035
-690,627	168,754	0,042	-0,045
-689,612	800,000	0,039	0,091
-688,597	-200,000	0,019	-0,086
-687,583	330,426	-0,071	-0,102
-686,568	389,857	-0,034	-0,053
-685,554	25,396	0,095	0,059
-684,539	125,957	0,057	0,053
-683,524	0,998	0,065	0,035
-682,510	-20,507	-0,063	0,029
-681,495	-200,000	-0,016	0,096
-680,481	-9,278	-0,097	-0,048
-679,466	-133,801	-0,061	-0,006
-678,451	-111,200	-0,143	0,022
-677,437	78,378	0,052	0,041
-676,422	-93,092	0,093	0,019
-675,408	443,662	-0,042	-0,068
-674,393	-200,000	0,027	-0,122
-673,378	800,000	-0,069	0,207
-672,364	7,389	-0,088	-0,049
-671,349	19,496	0,066	-0,040
-670,335	0,278	0,126	-0,066
-669,320	-151,636	-0,177	0,010
-668,305	181,506	-0,044	0,048
-667,291	638,645	0,038	-0,072
-666,276	-156,543	-0,180	-0,008
-665,262	-85,512	0,090	0,021
-664,247	46,335	0,094	-0,065
-663,232	604,576	0,039	0,072
-662,218	800,000	0,019	-0,055
-661,203	-200,000	0,002	0,073
-660,189	-84,963	-0,134	0,031
-659,174	135,705	-0,082	0,079
-658,159	-200,000	0,000	-0,019
-657,145	800,000	-0,030	0,067
-656,130	-11,388	0,022	0,011
-655,116	89,563	0,038	0,031
-654,101	365,250	-0,026	0,039
-653,086	-42,679	-0,023	0,009
-652,072	-15,906	-0,160	0,075
-651,057	154,084	-0,116	-0,119
-650,043	-200,000	-0,033	-0,122
-649,028	800,000	-0,013	0,037
-648,014	363,287	0,037	-0,055
-646,999	-18,378	-0,115	0,053
-645,984	21,499	-0,112	-0,068
-644,970	-78,958	0,130	0,033
-643,955	12,298	-0,044	-0,025
-642,941	800,000	-0,054	-0,113
-641,926	199,815	0,128	0,146
-640,911	-108,571	-0,070	-0,011
-639,897	-63,163	0,103	0,031
-638,882	-42,448	-0,065	0,024
-637,868	-101,804	0,144	-0,026
-636,853	194,524	0,043	-0,048
-635,838	-200,000	0,010	-0,070
-634,824	99,660	-0,087	-0,074
-633,809	207,440	0,072	0,083
-632,795	800,000	0,046	0,128
-631,780	-15,418	-0,117	0,055
-630,765	800,000	0,027	-0,064
-629,751	11,632	-0,054	-0,031
-628,736	101,768	-0,122	-0,105
-627,722	156,732	-0,064	-0,066
-626,707	-200,000	0,004	0,133
-625,692	163,384	0,109	0,114
-624,678	-44,436	0,102	0,038
-623,663	167,485	-0,093	-0,098
-622,649	-146,033	-0,024	0,002
-621,634	416,872	-0,039	-0,062
-620,619	-107,175	-0,072	-0,012
-619,605	-200,000	0,006	0,042
-618,590	-200,000	-0,006	-0,039
-617,576	117,216	-0,080	0,073
-616,561	-51,399	-0,063	0,022
-615,546	31,744	0,067	-0,042
-614,532	-161,520	-0,073	0,003
-613,517	-69,232	-0,139	-0,039
-612,503	99,433	-0,091	-0,078
-611,488	49,102	-0,113	-0,078
-610,474	800,000	0,021	-0,061
-609,459	800,000	0,040	0,110
-608,444	-44,388	0,040	0,015
-607,430	800,000	-0,023	-0,069
-606,415	114,050	-0,020	0,018
-605,401	341,956	-0,034	0,049
-604,386	-200,000	-0,010	0,069
-603,371	132,895	-0,052	-0,050
-602,357	-200,000	0,006	-0,114
-601,342	-18,094	-0,076	0,035
-600,328	-148,396	-0,012	-0,001
-599,313	-200,000	0,003	-0,124
-598,298	84,817	0,059	0,048
-597,284	-200,000	0,002	0,110
-596,269	-200,000	-0,015	0,053
-595,255	800,000	0,079	0,167
-594,240	129,723	0,003	-0,003
-593,225	267,006	-0,036	-0,047
-592,211	800,000	-0,069	-0,161
-591,196	695,647	-0,046	0,090
-590,182	73,800	-0,082	-0,064
-589,167	25,903	0,049	0,030
-588,152	237,444	0,028	0,035
-587,138	-100,251	-0,080	-0,015
-586,123	-117,661	-0,103	0,014
-585,109	108,595	-0,025	-0,022
-584,094	799,580	0,105	-0,215
-583,079	-59,060	0,189	-0,060
-582,065	-68,165	-0,048	0,014
-581,050	317,950	0,018	-0,025
-580,036	-10,468	0,038	0,018
-579,021	-8,380	-0,070	-0,035
-578,006	200,979	0,117	-0,133
-576,992	800,000	-0,045	-0,109
-575,977	-200,000	0,011	-0,094
-574,963	-200,000	-0,014	0,068
-573,948	449,331	0,071	0,116
-572,934	550,204	-0,012	-0,021
-571,919	-200,000	0,009	-0,072
-570,904	-162,361	-0,098	-0,004
-569,890	-200,000	-0,001	-0,007
-568,875	-200,000	-0,003	0,010
-567,861	190,957	0,112	0,125
-566,846	-86,185	0,135	0,030
-565,831	-200,000	0,001	-0,033
-564,817	-43,841	0,075	-0,028
-563,802	258,432	-0,038	0,048
-562,788	306,077	-0,026	0,036
-561,773	38,252	0,062	-0,041
-560,758	266,873	-0,153	0,198
-559,744	-200,000	-0,010	0,079
-558,729	800,000	0,011	-0,029
-557,715	60,218	-0,101	-0,074
-556,700	10,968	-0,035	0,020
-555,685	771,043	-0,043	-0,087
-554,671	480,620	-0,037	0,063
-553,656	800,000	0,053	0,116
-552,642	800,000	-0,027	0,059
-551,627	659,511	0,003	0,005
-550,612	455,969	-0,042	-0,069
-549,598	-105,805	-0,047	0,008
-548,583	-28,255	0,035	-0,015
-547,569	529,291	0,027	-0,048
-546,554	8,198	-0,027	-0,015
-545,539	140,508	0,117	0,115
-544,525	-200,000	0,038	0,151
-543,510	-174,464	-0,051	-0,001
-542,496	-127,800	-0,179	0,019
-541,481	581,182	-0,094	-0,171
-540,466	-200,000	0,023	-0,111
-539,452	289,693	0,049	0,066
-538,437	-99,850	0,075	-0,014
-537,423	14,387	-0,028	-0,016
-536,408	211,749	-0,086	0,101
-535,393	-117,378	-0,089	0,012
-534,379	29,570	0,055	0,034
-533,364	-11,689	-0,044	-0,021
-532,350	-104,397	0,097	-0,016
-531,335	466,699	-0,073	-0,122
-530,321	-113,227	-0,061	-0,009
-529,306	40,506	0,064	0,042
-528,291	555,076	0,083	-0,148
-527,277	-87,778	-0,075	0,017
-526,262	800,000	0,006	-0,014
-525,248	-132,855	-0,045	-0,004
-524,233	48,995	0,069	0,048
-523,218	455,392	0,095	0,156
-522,204	17,836	0,043	0,025
-521,189	-127,904	-0,150	-0,016
-520,175	97,276	-0,031	-0,026
-519,160	-20,228	-0,069	-0,031
-518,145	-200,000	0,004	0,051
-517,131	310,380	0,014	-0,020
-516,116	411,927	-0,058	0,091
-515,102	-200,000	0,015	-0,106
-514,087	-62,415	0,070	-0,021
-513,072	-21,035	-0,031	0,014
-512,058	-31,289	-0,085	0,035
-511,043	-61,026	0,085	-0,026
-510,029	800,000	0,019	0,060
-509,014	-74,573	-0,091	0,024
-507,999	151,874	-0,068	0,069
-506,985	-200,000	-0,008	-0,038
-505,970	82,404	-0,035	-0,028
-504,956	-200,000	0,009	-0,142
-503,941	66,803	0,027	0,021
-502,926	800,000	0,024	0,062
-501,912	800,000	0,017	0,039
-500,897	516,347	-0,070	-0,121
-499,883	40,968	-0,092	-0,062
-498,868	-65,132	0,117	0,034
-497,853	162,475	-0,032	0,033
-496,839	12,591	-0,044	0,025
-495,824	66,772	0,064	-0,048
-494,810	669,794	0,044	-0,084
-493,795	-68,359	0,044	-0,013
-492,781	237,970	0,051	0,063
-491,766	-200,000	-0,000	0,020
-490,751	11,564	0,090	-0,051
-489,737	501,337	0,050	0,086
-488,722	1,992	0,096	0,051
-487,708	718,036	-0,072	0,142
-486,693	800,000	-0,039	0,098
-485,678	-200,000	0,004	0,105
-484,664	-200,000	-0,006	0,033
-483,649	456,973	-0,036	-0,060
-482,635	-200,000	0,001	-0,015
-481,620	-66,905	0,100	0,029
-480,605	558,046	-0,042	0,075
-479,591	208,691	0,116	-0,134
-478,576	-11,318	0,019	-0,009
-477,562	-103,477	-0,095	-0,016
-476,547	800,000	0,016	-0,049
-475,532	-56,988	0,114	-0,037
-474,518	-89,962	0,115	0,025
-473,503	-200,000	0,017	-0,105
-472,489	800,000	0,041	-0,123
-471,474	-37,194	-0,116	-0,046
-470,459	800,000	-0,018	-0,053
-469,445	200,545	-0,019	-0,021
-468,430	800,000	0,017	-0,035
-467,416	311,399	0,055	-0,076
-466,401	321,960	0,020	0,028
-465,386	177,988	0,044	0,048
-464,372	418,211	-0,032	-0,051
-463,357	237,095	0,058	0,071
-462,343	-91,903	-0,057	-0,012
-461,328	-19,598	0,099	-0,045
-460,313	-93,418	0,097	0,020
-459,299	21,426	-0,101	-0,060
-458,284	312,670	0,063	0,087
-457,270	31,628	0,055	-0,035
-456,255	800,000	0,007	0,022
-455,241	-27,832	-0,037	0,016
-454,226	800,000	-0,014	0,032
-453,211	525,473	-0,037	-0,065
-452,197	800,000	-0,036	0,115
-451,182	294,373	0,051	-0,069
-450,168	-200,000	-0,033	0,155
-449,153	-200,000	0,000	-0,058
-448,138	-91,664	-0,067	0,014
-447,124	-29,572	-0,025	-0,011
-446,109	-31,503	-0,089	0,037
-445,095	43,849	-0,077	0,052
-444,080	164,336	0,052	0,054
-443,065	-200,000	-0,037	-0,230
-442,051	-55,896	0,092	0,030
-441,036	-200,000	0,031	-0,105
-440,022	-105,484	-0,076	0,013
-439,007	22,257	-0,087	-0,052
-437,992	-200,000	-0,002	0,078
-436,978	271,758	-0,051	0,067
-435,963	-200,000	-0,023	-0,098
-434,949	159,980	-0,023	0,024
-433,934	-53,790	-0,126	-0,042
-432,919	-119,126	-0,091	-0,012
-431,905	8,598	0,035	0,019
-430,890	-89,721	-0,136	0,029
-429,876	19,937	0,064	0,038
-428,861	-200,000	0,010	-0,144
-427,846	800,000	-0,038	-0,096
-426,832	-200,000	-0,035	-0,130
-425,817	-25,184	-0,103	0,045
-424,803	-92,356	0,115	0,024
-423,788	-79,335	-0,049	-0,012
-422,773	800,000	0,040	-0,098
-421,759	58,921	0,053	0,039
-420,744	-15,197	0,051	-0,024
-419,730	-200,000	0,008	-0,068
-418,715	-106,545	0,044	0,007
-417,701	-12,142	-0,160	-0,077
-416,686	-90,227	0,114	-0,024
-415,671	-200,000	-0,002	0,134
-414,657	-9,785	-0,022	-0,011
-413,642	-95,834	-0,200	-0,039
-412,628	-115,904	0,088	-0,012
-411,613	-200,000	-0,074	-0,000
-410,598	215,878	0,064	0,075
-409,584	389,243	-0,052	-0,080
-408,569	-200,000	-0,008	0,099
-407,555	-200,000	-0,004	-0,071
-406,540	-200,000	-0,025	0,088
-405,525	800,000	0,007	-0,017
-404,511	-87,054	-0,089	-0,020
-403,496	800,000	-0,028	-0,068
-402,482	-200,000	-0,001	0,015
-401,467	184,004	0,025	0,028
-400,452	61,873	0,084	0,061
-399,438	-127,205	-0,146	-0,016
-398,423	-200,000	0,001	-0,159
-397,409	-200,000	-0,002	0,036
-396,394	-22,942	-0,106	-0,047
-395,379	-42,023	0,074	0,028
-394,365	-45,190	0,061	0,022
-393,350	-85,906	0,110	-0,025
-392,336	-197,590	-0,079	0,000
-391,321	800,000	-0,045	-0,129
-390,306	-9,937	-0,012	-0,006
-389,292	-200,000	-0,005	-0,022
-388,277	-200,000	-0,006	-0,024
-387,263	189,775	0,053	0,058
-386,248	162,563	-0,020	0,020
-385,233	-200,000	0,040	-0,136
-384,219	-143,319	0,080	0,006
-383,204	147,892	-0,026	-0,026
-382,190	-200,000	-0,017	-0,174
-381,175	409,431	0,040	-0,063
-380,160	18,115	0,057	-0,034
-379,146	800,000	-0,035	0,090
-378,131	-18,349	0,184	0,084
-377,117	-120,973	0,047	-0,006
-376,102	97,252	0,020	-0,017
-375,088	-200,000	-0,015	-0,055
-374,073	-109,891	-0,013	0,002
-373,058	-200,000	0,040	-0,221
-372,044	-143,045	0,082	0,006
-371,029	-115,703	-0,126	-0,017
-370,015	160,904	0,026	0,027
-369,000	-167,400	-0,139	0,004
-367,985	-84,751	-0,057	0,013
-366,971	800,000	0,034	-0,075
-365,956	354,577	0,046	-0,067
-364,942	528,263	-0,073	0,127
-363,927	186,537	0,063	0,069
-362,912	800,000	-0,031	-0,082
-361,898	800,000	0,006	0,019
-360,883	49,862	-0,102	0,071
-359,869	89,857	0,068	-0,055
-358,854	800,000	-0,010	0,026
-357,839	19,259	-0,069	-0,040
-356,825	-200,000	-0,015	0,128
-355,810	-200,000	0,003	-0,092
-354,796	-82,342	-0,214	0,051
-353,781	800,000	-0,017	-0,050
-352,766	-200,000	-0,039	0,144
-351,752	-94,335	0,167	-0,033
-350,737	800,000	-0,022	-0,052
-349,723	-200,000	-0,020	0,129
-348,708	-200,000	0,020	0,086
-347,693	-50,016	0,093	-0,032
-346,679	156,388	0,059	-0,060
-345,664	-139,537	0,046	0,004
-344,650	139,342	0,032	0,031
-343,635	421,923	0,112	0,176
-342,620	5,036	0,131	0,070
-341,606	38,693	0,068	0,045
-340,591	-200,000	-0,011	-0,047
-339,577	9,489	-0,161	-0,089
-338,562	-200,000	-0,018	-0,068
-337,548	378,044	0,050	-0,076
-336,533	195,747	0,105	-0,117
-335,518	-17,753	0,105	0,048
-334,504	-200,000	-0,028	0,169
-333,489	87,828	0,027	0,022
-332,475	200,070	0,084	0,095
-331,460	-79,176	-0,047	-0,012
-330,445	-200,000	0,021	0,122
-329,431	-200,000	0,027	0,144
-328,416	-113,268	0,082	-0,012
-327,402	-132,850	0,037	-0,003
-326,387	-200,000	-0,016	0,125
-325,372	44,873	-0,118	-0,080
-324,358	-96,510	-0,099	0,019
-323,343	-200,000	0,044	-0,150
-322,329	279,821	0,084	0,110
-321,314	-200,000	-0,008	0,058
-320,299	-28,417	0,133	0,056
-319,285	742,796	0,039	0,077
-318,270	800,000	-0,005	-0,012
-317,256	59,769	-0,049	-0,036
-316,241	800,000	0,112	-0,230
-315,226	171,106	0,110	-0,116
-314,212	-200,000	-0,003	0,034
-313,197	-29,688	0,082	0,034
-312,183	395,404	-0,045	0,069
-311,168	-94,613	0,148	0,029
-310,153	243,288	-0,058	0,071
-309,139	736,110	-0,063	0,124
-308,124	285,229	0,092	0,121
-307,110	393,017	-0,023	-0,035
-306,095	379,361	-0,011	0,017
-305,080	46,966	0,085	-0,058
-304,066	289,101	0,012	-0,016
-303,051	-88,256	-0,068	0,015
-302,037	-73,036	-0,100	0,027
-301,022	187,599	-0,041	-0,045
-300,008	800,000	0,047	0,139
-298,993	800,000	0,041	0,132
-297,978	48,676	-0,014	0,009
-296,964	18,591	-0,133	-0,077
-295,949	132,966	-0,030	-0,028
-294,935	-29,861	-0,133	-0,055
-293,920	14,085	0,068	-0,039
-292,905	3,177	-0,092	0,049
-291,891	216,344	-0,042	-0,049
-290,876	-200,000	-0,030	0,109
-289,862	-200,000	0,009	-0,040
-288,847	-200,000	-0,001	-0,046
-287,832	530,261	-0,038	-0,066
-286,818	800,000	0,032	-0,068
-285,803	-170,249	0,065	0,002
-284,789	-175,427	0,065	-0,001
-283,774	42,769	-0,092	-0,061
-282,759	-27,303	-0,042	-0,018
-281,745	-200,000	-0,032	-0,132
-280,730	249,816	-0,039	0,048
-279,716	149,833	0,092	0,092
-278,701	-200,000	0,009	0,131
-277,686	-65,549	0,081	0,024
-276,672	-48,882	0,023	-0,008
-275,657	197,892	-0,037	-0,041
-274,643	-77,714	-0,061	-0,015
-273,628	-200,000	0,007	-0,108
-272,613	130,106	-0,011	-0,011
-271,599	365,904	0,050	0,075
-270,584	147,751	-0,046	-0,045
-269,570	-122,415	-0,059	-0,007
-268,555	66,257	0,073	0,055
-267,540	21,189	0,037	-0,022
-266,526	-169,543	-0,082	-0,002
-265,511	281,439	-0,035	0,045
-264,497	247,381	-0,075	0,093
-263,482	5,992	0,015	-0,008
-262,467	800,000	-0,044	0,109
-261,453	225,849	0,050	-0,060
-260,438	34,851	0,095	-0,061
-259,424	270,516	-0,045	0,058
-258,409	405,085	-0,042	-0,065
-257,395	138,732	-0,089	-0,085
-256,380	-67,644	0,091	0,026
-255,365	-1,635	0,124	0,064
-254,351	264,333	-0,033	-0,042
-253,336	334,405	-0,046	-0,066
-252,322	99,303	-0,049	-0,041
-251,307	372,863	-0,040	-0,060
-250,292	800,000	-0,042	0,121
-249,278	325,969	0,049	-0,068
-248,263	-169,219	-0,101	-0,003
-247,249	68,840	-0,113	0,085
-246,234	-15,929	0,049	0,023
-245,219	82,508	0,101	-0,080
-244,205	-200,000	-0,020	-0,122
-243,190	-1,840	0,095	0,049
-242,176	800,000	0,017	0,050
-241,161	-133,231	0,061	-0,006
-240,146	-86,650	-0,054	0,012
-239,132	125,207	0,044	0,041
-238,117	-128,496	-0,021	0,002
-237,103	682,195	-0,048	-0,093
-236,088	-200,000	0,001	-0,012
-235,073	16,607	0,133	0,077
-234,059	-74,419	0,033	0,009
-233,044	800,000	0,028	-0,063
-232,030	-146,829	0,143	0,009
-231,015	-200,000	0,001	0,150
-230,000	800,000	-0,055	0,147
-228,986	800,000	0,046	0,119
-227,971	800,000	-0,038	0,112
-226,957	-200,000	-0,008	0,070
-225,942	800,000	0,073	0,172
-224,927	628,512	0,056	0,103
-223,913	-65,864	-0,086	-0,025
-222,898	-31,719	-0,081	0,033
-221,884	122,140	0,015	-0,013
-220,869	6,429	0,138	-0,075
-219,855	-98,246	0,148	-0,028
-218,840	-200,000	-0,016	-0,065
-217,825	177,757	-0,060	-0,064
-216,811	17,682	-0,107	-0,062
-215,796	-200,000	0,026	-0,085
-214,782	-182,985	0,091	-0,001
-213,767	-90,813	-0,104	0,022
-212,752	271,023	0,069	0,088
-211,738	734,933	0,044	-0,087
-210,723	225,670	-0,079	-0,093
-209,709	-80,507	-0,166	-0,040
-208,694	200,242	0,063	-0,071
-207,679	-101,008	0,041	-0,007
-206,665	265,012	0,048	0,061
-205,650	28,533	0,032	0,020
-204,636	54,343	0,059	0,041
-203,621	100,713	0,032	-0,027
-202,606	-67,271	0,036	-0,010
-201,592	189,936	-0,074	-0,081
-200,577	-200,000	0,019	0,113
-199,563	800,000	-0,023	-0,065
-198,548	20,402	0,139	0,082
-197,533	800,000	0,090	0,243
-196,519	-200,000	-0,001	0,008
-195,504	737,720	-0,035	-0,068
-194,490	-113,824	0,066	0,009
-193,475	235,922	-0,036	-0,043
-192,460	-89,969	-0,041	-0,009
-191,446	111,446	0,009	0,008
-190,431	800,000	0,027	0,080
-189,417	-200,000	0,019	-0,094
-188,402	104,130	0,028	-0,024
-187,387	106,295	-0,095	0,083
-186,373	653,878	-0,037	0,070
-185,358	800,000	-0,036	0,108
-184,344	319,153	-0,036	0,051
-183,329	-200,000	0,004	0,120
-182,315	515,904	0,062	0,107
-181,300	193,786	0,076	-0,084
-180,285	-200,000	0,002	-0,058
-179,271	-102,231	-0,111	-0,019
-178,256	800,000	-0,037	-0,117
-177,242	232,860	0,014	-0,017
-176,227	-200,000	-0,007	-0,079
-175,212	-54,233	0,088	-0,029
-174,198	-127,182	0,102	-0,011
-173,183	-115,155	-0,009	-0,001
-172,169	9,707	-0,032	-0,018
-171,154	800,000	-0,070	0,155
-170,139	40,208	0,006	-0,004
-169,125	595,118	0,048	-0,086
-168,110	-200,000	0,046	0,195
-167,096	-200,000	-0,026	0,124
-166,081	-200,000	0,009	-0,148
-165,066	42,907	-0,126	-0,083
-164,052	-67,997	0,022	0,006
-163,037	643,830	0,038	-0,070
-162,023	6,780	-0,098	-0,053
-161,008	29,633	0,082	0,051
-159,993	-200,000	0,010	0,047
-158,979	-137,029	0,047	-0,004
-157,964	247,496	0,063	-0,077
-156,950	-12,927	-0,087	-0,041
-155,935	-76,210	0,101	-0,026
-154,920	-105,274	0,071	-0,012
-153,906	-200,000	-0,022	0,080
-152,891	-54,981	0,092	0,030
-151,877	228,322	-0,076	0,090
-150,862	-28,864	0,097	-0,040
-149,847	-74,604	0,042	0,011
-148,833	-139,215	-0,056	-0,004
-147,818	298,314	-0,058	0,078
-146,804	-200,000	0,034	0,177
-145,789	527,700	-0,052	0,090
-144,775	-200,000	-0,023	0,132
-143,760	49,270	-0,064	0,044
-142,745	-9,056	-0,030	0,014
-141,731	-200,000	0,025	-0,145
-140,716	139,386	-0,006	0,005
-139,702	-123,029	0,053	0,006
-138,687	-59,330	-0,088	0,027
-137,672	153,780	0,095	-0,095
-136,658	199,799	-0,099	-0,110
-135,643	138,857	0,025	0,024
-134,629	-200,000	-0,035	0,148
-133,614	-104,031	0,062	-0,010
-132,599	744,214	0,048	-0,094
-131,585	188,884	0,106	0,115
-130,570	588,069	-0,038	-0,068
-129,556	126,013	0,049	-0,045
-128,541	-2,149	-0,042	-0,021
-127,526	555,705	-0,065	-0,115
-126,512	190,730	0,027	-0,030
-125,497	162,666	-0,012	0,012
-124,483	800,000	0,030	-0,077
-123,468	-200,000	-0,004	0,024
-122,453	44,282	-0,058	0,038
-121,439	-200,000	0,028	-0,125
-120,424	21,292	0,090	0,053
-119,410	382,194	0,020	-0,029
-118,395	-141,840	-0,112	0,008
