DTS Sentinel unit serial number:	SN410029Multiplexer serial number:	ORYXHardware model number:	OX2-SRSoftware version number:	ORYX F/W v4,00 Oryx Data Collector v3.7.2.0data status	okinstallation	B6 Nyhavnadifferential loss correction	single-endedforward channel	channel 2reverse channel	N/Adate	2023/12/07time	23:25:08forward acquisition time	300,00reverse acquisition time	0,00gamma	499,1914k internal	0,3164k external	0,3164temperature offset calibration	1,0000default loss term (dB/km)	0,3820temperature slope calibration	1,0000multiplexer offset coefficient	1,0000multiplexer slope coefficient	1,0000fibre end	0,00T internal ref (°C)	13,46T ext. ref 1 (°C)	-3,50T ext. ref 2 (°C)	-3,50length (m)	temperature (°C)	Stokes	anti-Stokes-744,400	-121,125	0,101	0,012
-743,385	-88,178	-0,312	-0,068
-742,371	433,408	0,078	0,125
-741,356	-58,960	-0,192	-0,061
-740,342	121,431	0,137	0,125
-739,327	-62,179	-0,193	-0,059
-738,312	-123,797	0,077	0,009
-737,298	-104,345	-0,316	-0,053
-736,283	-29,165	0,154	0,065
-735,269	62,519	-0,171	-0,125
-734,254	800,000	0,020	-0,055
-733,239	-20,015	-0,454	-0,205
-732,225	11,605	0,125	0,070
-731,210	287,468	-0,016	0,021
-730,196	-200,000	0,001	0,040
-729,181	800,000	-0,029	0,081
-728,167	1,704	-0,144	0,076
-727,152	-200,000	0,025	-0,123
-726,137	796,231	-0,046	0,094
-725,123	-108,849	-0,068	-0,011
-724,108	-200,000	-0,019	-0,113
-723,094	800,000	-0,011	0,032
-722,079	16,830	-0,085	-0,050
-721,064	48,554	-0,038	0,026
-720,050	20,246	-0,068	0,040
-719,035	81,964	-0,055	0,044
-718,021	212,381	-0,110	0,128
-717,006	212,193	-0,129	0,150
-715,991	423,679	-0,069	-0,110
-714,977	30,645	-0,068	-0,043
-713,962	-200,000	0,005	-0,045
-712,948	276,036	-0,039	-0,051
-711,933	56,376	0,013	-0,009
-710,918	181,944	-0,021	0,023
-709,904	127,508	-0,065	-0,061
-708,889	-3,100	-0,015	0,008
-707,875	145,284	0,040	-0,039
-706,860	-200,000	0,007	-0,057
-705,845	206,782	-0,032	-0,037
-704,831	169,066	-0,023	0,024
-703,816	-200,000	-0,035	-0,114
-702,802	96,024	0,037	-0,031
-701,787	162,566	-0,057	-0,059
-700,772	-41,446	-0,165	0,062
-699,758	308,639	-0,022	0,030
-698,743	547,284	0,038	0,067
-697,729	-194,754	0,091	0,001
-696,714	-76,500	0,003	-0,001
-695,699	-1,475	-0,059	-0,031
-694,685	34,956	-0,107	0,069
-693,670	288,322	-0,053	-0,070
-692,656	-200,000	-0,006	-0,029
-691,641	41,615	0,056	0,037
-690,627	29,511	-0,005	-0,003
-689,612	-133,374	-0,023	0,002
-688,597	-200,000	0,001	-0,026
-687,583	800,000	0,025	-0,055
-686,568	192,776	-0,029	0,032
-685,554	-15,953	0,086	0,040
-684,539	800,000	-0,020	-0,047
-683,524	-200,000	0,013	-0,050
-682,510	-112,182	-0,037	-0,005
-681,495	233,670	0,079	-0,095
-680,481	-75,528	-0,027	-0,007
-679,466	95,821	-0,077	-0,065
-678,451	661,943	-0,016	0,031
-677,437	341,980	0,060	-0,086
-676,422	800,000	0,018	0,053
-675,408	-200,000	-0,025	0,205
-674,393	-73,278	-0,078	-0,021
-673,378	-40,497	-0,061	0,023
-672,364	-200,000	0,031	-0,108
-671,349	-71,966	-0,178	-0,048
-670,335	74,034	0,033	-0,025
-669,320	99,163	0,083	0,070
-668,305	-106,910	0,097	-0,016
-667,291	-51,239	0,074	0,025
-666,276	-97,993	-0,141	-0,026
-665,262	-144,835	0,139	-0,009
-664,247	-200,000	-0,043	-0,150
-663,232	-99,018	-0,020	0,004
-662,218	-200,000	-0,021	0,156
-661,203	56,946	0,118	0,084
-660,189	-144,537	-0,196	-0,013
-659,174	800,000	-0,074	-0,221
-658,159	800,000	0,052	-0,118
-657,145	214,548	-0,065	-0,076
-656,130	89,253	0,151	-0,124
-655,116	800,000	0,025	-0,052
-654,101	480,132	-0,082	0,138
-653,086	-200,000	0,035	0,142
-652,072	-200,000	0,009	-0,137
-651,057	285,163	-0,023	0,030
-650,043	-63,502	-0,103	-0,031
-649,028	175,959	-0,048	0,051
-648,014	-47,230	-0,100	-0,036
-646,999	-90,961	0,211	-0,044
-645,984	-102,255	-0,051	0,009
-644,970	800,000	-0,044	-0,125
-643,955	-23,529	-0,153	-0,067
-642,941	-107,822	-0,058	-0,009
-641,926	387,869	-0,105	-0,160
-640,911	800,000	-0,012	0,040
-639,897	800,000	0,039	-0,092
-638,882	317,157	0,066	-0,091
-637,868	-57,303	0,073	-0,023
-636,853	121,208	-0,146	-0,133
-635,838	-30,636	-0,085	-0,035
-634,824	40,419	-0,063	-0,041
-633,809	-66,659	-0,117	0,034
-632,795	191,810	0,058	0,064
-631,780	-122,571	0,061	-0,007
-630,765	-200,000	0,016	-0,064
-629,751	373,480	-0,050	-0,075
-628,736	73,118	-0,012	0,009
-627,722	800,000	-0,023	-0,073
-626,707	-182,157	-0,046	0,001
-625,692	-200,000	0,009	-0,071
-624,678	428,909	-0,036	0,057
-623,663	-33,656	-0,141	-0,057
-622,649	800,000	-0,016	-0,051
-621,634	26,919	-0,107	-0,065
-620,619	-155,965	-0,115	0,005
-619,605	-19,652	0,062	0,028
-618,590	-160,543	-0,030	0,001
-617,576	-76,050	0,138	-0,035
-616,561	111,533	-0,156	-0,138
-615,546	-112,602	0,195	-0,028
-614,532	-7,456	-0,053	-0,026
-613,517	-137,252	-0,053	0,004
-612,503	-200,000	-0,029	-0,096
-611,488	-23,287	0,139	0,061
-610,474	-84,374	-0,105	0,024
-609,459	14,755	-0,034	0,019
-608,444	-73,390	-0,038	0,010
-607,430	-200,000	0,001	-0,030
-606,415	-168,347	-0,123	-0,003
-605,401	800,000	0,059	-0,132
-604,386	360,578	0,018	0,027
-603,371	800,000	0,017	0,049
-602,357	800,000	-0,049	-0,107
-601,342	339,818	-0,066	-0,094
-600,328	1,439	-0,092	0,048
-599,313	-200,000	-0,050	-0,221
-598,298	-200,000	-0,014	-0,054
-597,284	-200,000	0,008	0,150
-596,269	-200,000	-0,020	0,121
-595,255	800,000	0,026	0,076
-594,240	-200,000	0,005	-0,071
-593,225	6,912	0,110	-0,060
-592,211	15,135	-0,153	0,087
-591,196	800,000	0,029	0,084
-590,182	-67,793	-0,090	0,026
-589,167	151,881	0,095	0,095
-588,152	69,555	0,022	0,017
-587,138	800,000	0,016	-0,051
-586,123	-23,969	-0,092	0,040
-585,109	-66,225	0,079	0,023
-584,094	-57,633	-0,113	-0,036
-583,079	757,796	0,030	-0,060
-582,065	-200,000	-0,008	0,117
-581,050	142,105	0,044	0,042
-580,036	117,588	0,101	0,091
-579,021	305,837	-0,068	-0,093
-578,006	-20,975	0,114	0,051
-576,992	136,633	0,065	-0,062
-575,977	-200,000	0,022	-0,077
-574,963	-56,834	0,266	0,085
-573,948	277,287	-0,031	-0,040
-572,934	-59,629	0,013	-0,004
-571,919	800,000	0,010	-0,021
-570,904	98,876	-0,120	-0,101
-569,890	192,538	-0,051	0,056
-568,875	124,945	-0,018	-0,016
-567,861	658,402	-0,022	0,042
-566,846	118,435	-0,038	0,034
-565,831	126,050	0,062	-0,057
-564,817	-200,000	0,020	-0,105
-563,802	-200,000	0,003	-0,028
-562,788	118,485	-0,031	0,028
-561,773	281,226	-0,061	-0,080
-560,758	386,509	0,017	0,026
-559,744	-58,500	0,082	0,026
-558,729	800,000	-0,025	-0,051
-557,715	800,000	-0,086	-0,182
-556,700	-200,000	0,006	0,107
-555,685	551,702	0,088	-0,156
-554,671	-117,067	-0,099	0,013
-553,656	516,484	-0,052	0,088
-552,642	-116,640	-0,081	0,011
-551,627	309,917	0,026	0,035
-550,612	664,931	0,045	0,086
-549,598	299,479	-0,063	-0,084
-548,583	-200,000	-0,025	-0,120
-547,569	-80,636	0,157	0,038
-546,554	64,602	0,085	0,063
-545,539	-200,000	0,001	0,026
-544,525	-60,150	-0,051	-0,016
-543,510	114,067	0,038	0,034
-542,496	23,754	0,068	-0,041
-541,481	800,000	-0,031	-0,067
-540,466	626,227	0,021	-0,039
-539,452	73,023	-0,057	0,044
-538,437	373,301	0,038	0,056
-537,423	22,153	-0,113	-0,067
-536,408	450,014	-0,007	-0,012
-535,393	673,298	0,059	-0,113
-534,379	-200,000	-0,018	0,110
-533,364	-52,151	0,041	0,014
-532,350	-61,134	0,139	0,042
-531,335	171,076	0,108	0,114
-530,321	-66,019	0,159	0,046
-529,306	-114,697	0,094	0,013
-528,291	368,774	-0,053	0,079
-527,277	-24,828	-0,128	-0,055
-526,262	71,823	-0,065	0,049
-525,248	319,225	0,028	-0,038
-524,233	49,766	-0,172	0,118
-523,218	-200,000	-0,013	-0,106
-522,204	-200,000	-0,017	0,110
-521,189	-200,000	0,021	-0,087
-520,175	245,583	0,098	-0,120
-519,160	-200,000	-0,007	0,024
-518,145	800,000	-0,018	0,056
-517,131	156,170	-0,162	0,163
-516,116	34,877	0,052	0,033
-515,102	-200,000	0,033	-0,105
-514,087	-142,289	-0,023	-0,002
-513,072	92,356	-0,155	-0,127
-512,058	-84,972	-0,072	-0,016
-511,043	-19,261	0,163	0,073
-510,029	800,000	-0,019	0,055
-509,014	-108,591	-0,067	0,010
-507,999	33,319	0,096	-0,061
-506,985	43,692	-0,120	-0,080
-505,970	-78,244	0,005	-0,001
-504,956	-67,991	-0,154	0,043
-503,941	-80,585	-0,067	0,016
-502,926	266,645	0,035	0,045
-501,912	108,297	0,115	0,100
-500,897	-74,404	0,172	0,045
-499,883	91,042	-0,025	-0,020
-498,868	800,000	-0,025	0,055
-497,853	-200,000	0,001	0,101
-496,839	65,415	-0,029	0,021
-495,824	118,186	-0,008	0,007
-494,810	-65,899	0,086	0,025
-493,795	-142,320	-0,016	0,001
-492,781	-22,163	-0,158	-0,070
-491,766	800,000	0,015	0,037
-490,751	-62,960	-0,106	-0,032
-489,737	-119,584	0,128	0,016
-488,722	-105,524	-0,101	-0,017
-487,708	800,000	0,053	0,143
-486,693	800,000	0,046	0,146
-485,678	-138,033	-0,064	-0,005
-484,664	144,079	-0,021	-0,020
-483,649	-90,662	-0,074	-0,015
-482,635	-91,970	-0,086	-0,018
-481,620	-147,259	0,090	0,005
-480,605	-75,405	0,072	-0,019
-479,591	800,000	-0,050	0,114
-478,576	-111,644	0,113	-0,016
-477,562	451,434	-0,103	-0,165
-476,547	-200,000	-0,003	0,048
-475,532	800,000	0,031	-0,099
-474,518	-200,000	-0,020	-0,157
-473,503	-71,736	0,078	0,021
-472,489	-32,663	0,012	0,005
-471,474	145,726	0,036	0,035
-470,459	800,000	-0,051	-0,109
-469,445	457,393	-0,091	-0,148
-468,430	297,655	0,068	-0,091
-467,416	-156,380	0,062	0,003
-466,401	800,000	-0,011	0,030
-465,386	-7,386	0,158	-0,078
-464,372	-189,515	0,110	-0,001
-463,357	-23,418	-0,196	-0,085
-462,343	4,159	0,131	0,069
-461,328	-200,000	-0,018	0,070
-460,313	800,000	-0,032	-0,084
-459,299	-151,718	0,108	0,006
-458,284	-105,504	-0,126	-0,021
-457,270	-200,000	0,004	0,112
-456,255	800,000	-0,036	-0,089
-455,241	-41,987	-0,120	-0,045
-454,226	800,000	0,040	-0,115
-453,211	800,000	-0,058	-0,157
-452,197	-168,895	0,100	0,003
-451,182	391,171	0,059	0,089
-450,168	800,000	0,025	0,076
-449,153	182,697	-0,124	-0,133
-448,138	-51,566	-0,106	-0,036
-447,124	-36,408	-0,134	-0,052
-446,109	508,069	-0,060	0,102
-445,095	28,632	-0,031	0,019
-444,080	-200,000	-0,004	0,079
-443,065	-77,362	0,060	-0,015
-442,051	-69,966	-0,095	-0,026
-441,036	-200,000	-0,046	0,156
-440,022	-13,815	-0,168	0,079
-439,007	-49,901	-0,077	-0,026
-437,992	46,728	0,022	-0,015
-436,978	214,269	-0,027	0,031
-435,963	246,767	-0,027	0,033
-434,949	105,730	-0,131	-0,112
-433,934	-98,306	0,035	-0,006
-432,919	347,578	0,024	-0,034
-431,905	-200,000	-0,001	0,121
-430,890	95,985	0,057	0,047
-429,876	18,351	0,077	-0,045
-428,861	-200,000	0,025	0,196
-427,846	-89,752	-0,083	-0,017
-426,832	742,521	-0,030	-0,058
-425,817	-51,918	-0,112	-0,038
-424,803	-200,000	0,032	-0,142
-423,788	245,886	0,059	-0,072
-422,773	800,000	0,023	0,061
-421,759	-200,000	-0,015	0,051
-420,744	-112,841	0,051	0,007
-419,730	-49,519	-0,037	-0,013
-418,715	800,000	0,012	0,027
-417,701	65,323	-0,166	-0,122
-416,686	-110,225	0,129	-0,019
-415,671	800,000	0,042	0,085
-414,657	86,033	0,061	-0,049
-413,642	-100,980	-0,081	0,014
-412,628	800,000	-0,037	-0,117
-411,613	800,000	-0,020	-0,046
-410,598	-4,192	-0,047	0,024
-409,584	49,348	0,126	-0,086
-408,569	164,693	0,162	0,166
-407,555	327,621	-0,026	0,036
-406,540	-200,000	0,001	0,083
-405,525	-200,000	0,017	-0,143
-404,511	-47,521	0,102	-0,036
-403,496	-100,429	-0,021	-0,004
-402,482	800,000	-0,049	0,124
-401,467	-112,810	0,024	0,003
-400,452	231,975	0,048	-0,057
-399,438	-200,000	-0,041	0,182
-398,423	800,000	-0,041	-0,095
-397,409	-200,000	0,000	-0,011
-396,394	338,842	-0,008	0,011
-395,379	-52,530	-0,052	0,017
-394,365	199,693	0,059	0,066
-393,350	-200,000	0,005	0,101
-392,336	-162,923	-0,142	-0,005
-391,321	-84,645	-0,062	0,014
-390,306	-4,757	-0,089	0,044
-389,292	289,143	-0,044	-0,058
-388,277	344,820	0,083	0,119
-387,263	12,341	0,092	-0,051
-386,248	-200,000	0,014	-0,105
-385,233	-148,613	0,157	0,009
-384,219	-79,687	-0,124	-0,030
-383,204	800,000	0,058	-0,118
-382,190	-200,000	0,006	-0,054
-381,175	133,935	-0,047	-0,044
-380,160	-134,280	0,063	-0,006
-379,146	800,000	0,037	0,111
-378,131	-10,663	-0,143	0,068
-377,117	217,415	0,097	-0,113
-376,102	-200,000	0,012	-0,061
-375,088	641,840	-0,012	0,022
-374,073	-200,000	0,006	-0,138
-373,058	-200,000	0,008	-0,049
-372,044	800,000	0,012	-0,036
-371,029	-176,938	0,111	-0,002
-370,015	121,917	0,072	-0,065
-369,000	-33,907	-0,039	-0,015
-367,985	-200,000	-0,019	-0,074
-366,971	171,022	-0,090	-0,093
-365,956	800,000	0,106	-0,215
-364,942	297,551	-0,082	-0,109
-363,927	342,927	0,076	0,108
-362,912	-200,000	-0,001	0,078
-361,898	6,843	-0,149	0,080
-360,883	274,048	0,048	0,062
-359,869	-119,466	-0,184	-0,023
-358,854	-154,809	0,013	0,001
-357,839	49,401	0,047	0,032
-356,825	482,651	0,019	0,031
-355,810	-77,168	-0,055	-0,014
-354,796	-114,639	0,116	0,016
-353,781	-61,327	0,029	-0,009
-352,766	285,427	0,022	-0,029
-351,752	-143,648	0,066	0,004
-350,737	800,000	-0,032	0,096
-349,723	-200,000	-0,002	-0,008
-348,708	800,000	-0,053	0,133
-347,693	89,920	-0,019	-0,015
-346,679	-200,000	-0,014	0,057
-345,664	-170,282	-0,115	0,003
-344,650	-200,000	-0,045	-0,153
-343,635	-70,958	0,088	-0,024
-342,620	737,885	0,016	-0,031
-341,606	800,000	-0,041	0,126
-340,591	-200,000	0,015	-0,163
-339,577	-23,596	-0,060	-0,026
-338,562	50,454	0,168	-0,115
-337,548	-200,000	0,013	-0,048
-336,533	-200,000	-0,030	0,172
-335,518	-28,163	0,103	0,043
-334,504	65,738	-0,089	0,065
-333,489	344,894	-0,036	-0,052
-332,475	-58,947	-0,097	-0,030
-331,460	367,833	-0,049	-0,073
-330,445	-11,562	-0,046	-0,022
-329,431	-104,869	-0,055	0,009
-328,416	800,000	0,009	-0,021
-327,402	252,077	-0,026	0,032
-326,387	-200,000	-0,000	-0,034
-325,372	-200,000	-0,008	-0,038
-324,358	100,646	-0,065	-0,055
-323,343	7,217	-0,082	-0,044
-322,329	-112,052	0,126	0,018
-321,314	770,752	0,021	0,042
-320,299	270,419	0,042	-0,053
-319,285	-200,000	0,020	-0,100
-318,270	-128,474	-0,054	0,005
-317,256	508,437	-0,067	-0,114
-316,241	-17,622	-0,038	0,017
-315,226	445,053	-0,039	-0,063
-314,212	-37,452	0,074	0,028
-313,197	-200,000	-0,008	0,041
-312,183	152,581	-0,052	-0,052
-311,168	-119,646	0,024	0,003
-310,153	232,453	0,086	0,102
-309,139	800,000	-0,041	0,088
-308,124	-200,000	-0,008	0,161
-307,110	-68,928	0,147	0,041
-306,095	-31,460	0,058	0,023
-305,080	-200,000	-0,007	-0,068
-304,066	-10,603	0,025	-0,012
-303,051	-200,000	-0,005	0,024
-302,037	800,000	-0,016	-0,042
-301,022	-200,000	0,005	-0,023
-300,008	-13,641	0,090	0,042
-298,993	-200,000	-0,011	0,118
-297,978	-200,000	0,003	0,164
-296,964	-38,003	0,130	-0,050
-295,949	250,047	0,034	-0,042
-294,935	-44,118	-0,078	0,028
-293,920	419,151	0,038	0,059
-292,905	-66,697	0,092	0,026
-291,891	800,000	0,018	-0,048
-290,876	436,538	0,073	0,115
-289,862	-121,017	-0,038	0,005
-288,847	-40,033	-0,019	-0,007
-287,832	251,024	-0,022	-0,027
-286,818	-29,809	0,101	0,042
-285,803	-6,436	0,101	0,050
-284,789	800,000	0,046	0,119
-283,774	-127,581	0,042	0,004
-282,759	-200,000	0,001	-0,051
-281,745	96,230	-0,079	-0,065
-280,730	54,419	-0,027	0,019
-279,716	110,943	-0,005	0,004
-278,701	470,290	-0,020	0,033
-277,686	324,913	0,142	0,196
-276,672	21,214	-0,031	-0,018
-275,657	35,713	-0,050	0,031
-274,643	-40,325	-0,071	0,027
-273,628	-47,271	-0,120	0,042
-272,613	-146,910	0,116	0,007
-271,599	-118,226	-0,086	0,011
-270,584	192,768	0,027	0,029
-269,570	-200,000	0,034	0,142
-268,555	-11,662	0,107	0,051
-267,540	117,948	0,072	0,064
-266,526	-200,000	-0,035	0,127
-265,511	-200,000	0,003	0,172
-264,497	-200,000	-0,002	-0,038
-263,482	140,720	0,072	0,069
-262,467	-126,403	-0,079	-0,008
-261,453	-71,235	0,086	0,023
-260,438	-200,000	0,014	-0,055
-259,424	800,000	0,033	-0,082
-258,409	779,932	-0,020	0,040
-257,395	-95,100	-0,039	0,008
-256,380	-200,000	-0,013	0,271
-255,365	-200,000	0,029	0,143
-254,351	-200,000	0,007	0,095
-253,336	-51,561	0,061	0,021
-252,322	41,554	-0,066	-0,043
-251,307	-47,010	0,084	-0,029
-250,292	-200,000	-0,004	-0,084
-249,278	800,000	0,025	-0,072
-248,263	-103,601	0,075	-0,013
-247,249	41,234	0,094	0,061
-246,234	267,466	-0,021	0,027
-245,219	-116,045	0,133	0,018
-244,205	800,000	-0,021	-0,060
-243,190	-150,243	0,080	0,004
-242,176	-133,448	-0,105	0,009
-241,161	-157,231	0,122	0,005
-240,146	-200,000	0,019	-0,070
-239,132	800,000	0,030	0,076
-238,117	552,188	-0,122	-0,212
-237,103	-200,000	0,043	-0,192
-236,088	125,528	0,058	0,053
-235,073	602,575	-0,039	0,070
-234,059	-200,000	0,025	0,079
-233,044	652,081	0,033	0,061
-232,030	-91,806	-0,097	-0,020
-231,015	429,736	0,027	-0,043
-230,000	-72,844	-0,111	0,029
-228,986	-133,635	-0,066	0,006
-227,971	800,000	-0,022	-0,050
-226,957	-200,000	0,013	0,113
-225,942	259,753	-0,043	0,054
-224,927	-140,100	-0,083	0,006
-223,913	180,217	-0,036	0,038
-222,898	-126,155	-0,131	0,014
-221,884	-78,522	0,085	0,021
-220,869	800,000	0,035	0,076
-219,855	800,000	-0,025	-0,062
-218,840	-200,000	0,022	-0,087
-217,825	-200,000	-0,012	-0,051
-216,811	188,277	0,072	-0,077
-215,796	800,000	0,049	0,136
-214,782	148,814	0,128	-0,125
-213,767	-114,294	0,068	0,009
-212,752	47,371	0,084	0,057
-211,738	-200,000	0,001	0,047
-210,723	-69,127	-0,033	0,009
-209,709	537,661	-0,038	0,065
-208,694	44,547	-0,041	-0,027
-207,679	394,446	0,050	-0,076
-206,665	174,991	0,032	-0,033
-205,650	146,232	-0,045	0,044
-204,636	-17,104	-0,077	0,035
-203,621	129,585	0,074	-0,068
-202,606	70,897	0,054	-0,040
-201,592	-200,000	0,006	0,050
-200,577	45,900	-0,110	-0,073
-199,563	-91,508	0,068	0,014
-198,548	-200,000	0,002	-0,038
-197,533	800,000	-0,024	0,058
-196,519	-200,000	-0,015	0,150
-195,504	-78,876	-0,057	-0,014
-194,490	-200,000	0,032	-0,134
-193,475	-75,534	-0,091	0,023
-192,460	800,000	0,030	0,085
-191,446	235,095	0,146	0,173
-190,431	-200,000	0,012	0,100
-189,417	80,283	0,067	0,052
-188,402	58,054	-0,040	0,028
-187,387	234,363	0,042	0,050
-186,373	408,452	0,031	-0,047
-185,358	564,179	0,042	-0,074
-184,344	202,597	0,023	0,026
-183,329	800,000	0,013	0,030
-182,315	229,980	0,104	0,123
-181,300	344,782	0,068	-0,097
-180,285	-146,536	0,106	0,007
-179,271	-200,000	-0,009	-0,092
-178,256	73,979	0,137	-0,103
-177,242	191,408	-0,046	0,050
-176,227	-200,000	0,014	0,180
-175,212	-51,645	-0,077	0,026
-174,198	-200,000	-0,014	-0,069
-173,183	95,839	-0,122	0,101
-172,169	458,160	-0,040	-0,065
-171,154	235,809	-0,084	-0,100
-170,139	140,124	0,054	0,052
-169,125	397,687	0,054	0,082
-168,110	-200,000	-0,010	0,072
-167,096	20,451	-0,099	-0,057
-166,081	-200,000	0,023	-0,108
-165,066	-70,561	0,059	0,016
-164,052	181,353	0,129	-0,136
-163,037	800,000	0,022	0,043
-162,023	164,987	0,076	0,077
-161,008	800,000	0,070	-0,161
-159,993	91,241	-0,037	-0,030
-158,979	423,676	-0,025	0,038
-157,964	-200,000	-0,033	0,146
-156,950	-200,000	-0,017	-0,059
-155,935	232,848	-0,097	0,115
-154,920	-118,419	0,160	0,020
-153,906	-154,289	0,172	0,008
-152,891	330,211	-0,037	0,051
-151,877	-200,000	0,006	0,075
-150,862	244,400	-0,048	-0,059
-149,847	63,720	-0,044	-0,032
-148,833	-200,000	-0,006	0,071
-147,818	58,920	0,018	-0,013
-146,804	-72,396	0,139	0,037
-145,789	-79,338	0,135	0,033
-144,775	-200,000	-0,026	-0,106
-143,760	-200,000	-0,017	0,073
-142,745	-155,525	-0,182	0,008
-141,731	-200,000	-0,009	0,173
-140,716	-189,404	0,044	-0,000
-139,702	800,000	-0,050	0,112
-138,687	-87,010	-0,079	0,017
-137,672	-98,833	0,070	-0,013
-136,658	69,264	-0,132	-0,098
-135,643	-40,405	-0,074	-0,027
-134,629	291,095	0,072	-0,094
-133,614	-75,826	0,074	0,019
-132,599	110,201	0,090	-0,077
-131,585	447,130	-0,050	0,080
-130,570	800,000	-0,042	0,100
-129,556	-104,395	-0,158	-0,026
-128,541	781,626	-0,028	-0,054
-127,526	587,990	0,061	-0,108
-126,512	-127,688	0,064	-0,007
-125,497	-153,648	-0,072	-0,003
-124,483	-200,000	0,008	0,043
-123,468	365,907	0,044	0,064
-122,453	184,042	0,089	0,095
-121,439	-28,584	-0,126	0,052
-120,424	-100,020	0,148	0,026
-119,410	-200,000	0,007	-0,123
