DTS Sentinel unit serial number:	SN410029Multiplexer serial number:	ORYXHardware model number:	OX2-SRSoftware version number:	ORYX F/W v4,00 Oryx Data Collector v3.7.2.0data status	okinstallation	B6 Nyhavnadifferential loss correction	single-endedforward channel	channel 2reverse channel	N/Adate	2023/12/08time	03:40:08forward acquisition time	300,00reverse acquisition time	0,00gamma	499,1914k internal	0,3165k external	0,3165temperature offset calibration	1,0000default loss term (dB/km)	0,3820temperature slope calibration	1,0000multiplexer offset coefficient	1,0000multiplexer slope coefficient	1,0000fibre end	0,00T internal ref (°C)	13,11T ext. ref 1 (°C)	-3,79T ext. ref 2 (°C)	-3,80length (m)	temperature (°C)	Stokes	anti-Stokes-744,400	-12,082	0,167	0,080
-743,385	-66,929	-0,294	-0,085
-742,371	108,943	0,080	0,070
-741,356	-83,405	-0,294	-0,069
-740,342	96,901	0,071	0,060
-739,327	-122,785	-0,193	-0,023
-738,312	33,425	0,157	-0,100
-737,298	-121,327	-0,357	-0,043
-736,283	163,367	0,104	0,108
-735,269	-76,695	-0,219	0,056
-734,254	-200,000	0,034	0,122
-733,239	-66,913	-0,529	-0,153
-732,225	-25,412	0,101	-0,044
-731,210	-200,000	0,001	0,012
-730,196	203,229	0,064	-0,073
-729,181	543,978	-0,016	-0,029
-728,167	-160,512	-0,057	-0,002
-727,152	139,967	0,072	-0,070
-726,137	39,151	-0,096	-0,063
-725,123	800,000	0,005	-0,014
-724,108	-200,000	-0,003	-0,324
-723,094	355,197	-0,037	-0,054
-722,079	-200,000	-0,010	0,052
-721,064	-39,991	0,063	-0,024
-720,050	-180,502	-0,048	0,001
-719,035	-70,170	-0,089	-0,025
-718,021	217,828	-0,071	-0,084
-717,006	333,737	-0,059	-0,084
-715,991	371,088	-0,198	-0,297
-714,977	-119,462	-0,141	-0,018
-713,962	-124,326	0,090	-0,010
-712,948	118,299	-0,092	-0,083
-711,933	-83,054	-0,054	0,013
-710,918	-52,026	-0,106	0,036
-709,904	800,000	-0,047	-0,110
-708,889	-55,896	0,037	-0,012
-707,875	119,981	-0,049	-0,045
-706,860	556,207	0,041	0,074
-705,845	800,000	-0,006	0,017
-704,831	-200,000	0,157	0,000
-703,816	800,000	-0,035	-0,090
-702,802	-99,590	-0,127	-0,023
-701,787	-27,533	-0,172	-0,073
-700,772	-200,000	0,029	-0,172
-699,758	-200,000	-0,005	-0,203
-698,743	121,085	0,047	0,043
-697,729	800,000	0,038	0,098
-696,714	-128,117	0,038	-0,004
-695,699	-200,000	-0,001	-0,059
-694,685	145,687	-0,110	-0,108
-693,670	-200,000	0,000	-0,089
-692,656	800,000	-0,020	-0,046
-691,641	-47,028	0,140	0,050
-690,627	725,846	-0,065	-0,128
-689,612	-200,000	0,001	-0,040
-688,597	-145,977	-0,053	0,003
-687,583	-70,197	-0,185	-0,051
-686,568	-200,000	-0,022	-0,156
-685,554	24,938	-0,043	-0,026
-684,539	800,000	-0,044	0,114
-683,524	102,221	-0,065	0,056
-682,510	800,000	-0,024	-0,057
-681,495	800,000	0,012	-0,031
-680,481	455,899	0,009	0,015
-679,466	-115,502	-0,166	-0,023
-678,451	42,972	0,054	-0,036
-677,437	228,403	0,077	-0,092
-676,422	469,667	0,028	0,046
-675,408	167,817	-0,043	0,045
-674,393	-200,000	-0,023	0,101
-673,378	100,768	-0,101	-0,086
-672,364	91,092	-0,106	-0,087
-671,349	338,427	-0,024	-0,034
-670,335	378,790	0,074	0,112
-669,320	194,999	0,064	0,072
-668,305	-115,378	-0,078	-0,011
-667,291	236,490	0,026	0,032
-666,276	-64,392	0,121	-0,036
-665,262	-23,978	-0,133	-0,058
-664,247	101,541	0,016	0,013
-663,232	483,517	0,009	-0,015
-662,218	-74,943	-0,045	-0,012
-661,203	-200,000	-0,051	0,180
-660,189	-200,000	-0,002	0,043
-659,174	260,252	0,071	-0,091
-658,159	770,855	-0,029	-0,057
-657,145	294,061	-0,030	-0,040
-656,130	40,335	0,121	0,080
-655,116	-200,000	-0,012	-0,079
-654,101	-200,000	0,005	-0,074
-653,086	-83,591	0,030	-0,007
-652,072	452,010	-0,102	-0,165
-651,057	800,000	0,009	0,021
-650,043	346,057	-0,011	0,015
-649,028	307,141	-0,072	-0,099
-648,014	-200,000	0,011	-0,052
-646,999	192,721	-0,085	-0,095
-645,984	5,028	0,151	0,081
-644,970	-33,878	-0,069	-0,028
-643,955	-200,000	-0,019	-0,074
-642,941	800,000	-0,072	-0,199
-641,926	800,000	-0,019	0,057
-640,911	-200,000	0,001	0,163
-639,897	-36,075	-0,073	-0,029
-638,882	-200,000	0,054	-0,199
-637,868	-200,000	-0,008	-0,106
-636,853	-28,702	-0,095	-0,040
-635,838	-115,167	0,053	0,007
-634,824	125,379	0,088	0,081
-633,809	-47,037	0,122	0,043
-632,795	800,000	0,017	-0,041
-631,780	-44,668	-0,038	0,014
-630,765	-200,000	-0,014	-0,097
-629,751	452,853	-0,021	-0,033
-628,736	-37,326	0,025	-0,010
-627,722	-200,000	-0,008	-0,080
-626,707	-109,671	-0,035	-0,005
-625,692	-121,061	-0,083	0,010
-624,678	-200,000	0,025	0,195
-623,663	-135,564	-0,192	0,016
-622,649	690,702	0,022	-0,041
-621,634	-90,596	-0,025	-0,005
-620,619	-160,055	-0,067	-0,003
-619,605	91,014	0,042	0,035
-618,590	-68,568	-0,103	-0,029
-617,576	-200,000	-0,011	-0,190
-616,561	-78,884	-0,097	-0,024
-615,546	-16,584	-0,042	0,020
-614,532	-99,197	-0,058	0,011
-613,517	-200,000	-0,010	-0,088
-612,503	-119,797	0,066	-0,008
-611,488	318,972	-0,026	0,035
-610,474	-93,191	-0,054	-0,011
-609,459	92,892	-0,077	0,063
-608,444	-200,000	0,014	-0,146
-607,430	-200,000	-0,033	-0,133
-606,415	63,632	-0,101	-0,074
-605,401	-92,057	0,152	-0,031
-604,386	-62,141	0,095	0,029
-603,371	68,327	-0,095	0,071
-602,357	-36,814	0,058	-0,023
-601,342	-200,000	-0,000	-0,222
-600,328	-121,582	0,070	0,008
-599,313	46,695	0,075	-0,051
-598,298	-200,000	0,005	-0,059
-597,284	-12,708	-0,052	0,025
-596,269	-200,000	0,002	0,171
-595,255	-93,847	-0,105	-0,021
-594,240	696,085	-0,071	-0,136
-593,225	-200,000	-0,007	-0,081
-592,211	800,000	0,022	0,066
-591,196	-11,540	-0,134	0,064
-590,182	800,000	-0,043	0,117
-589,167	-200,000	-0,001	-0,050
-588,152	602,131	-0,053	0,096
-587,138	-115,132	-0,183	-0,025
-586,123	-116,390	-0,129	-0,017
-585,109	-116,131	-0,112	0,015
-584,094	-33,434	0,103	0,042
-583,079	-4,753	0,024	-0,012
-582,065	-79,298	-0,169	0,041
-581,050	5,505	-0,023	-0,013
-580,036	34,674	0,098	-0,062
-579,021	800,000	0,031	-0,096
-578,006	249,811	0,027	-0,034
-576,992	800,000	0,054	-0,160
-575,977	172,806	-0,080	0,085
-574,963	-37,692	0,040	-0,015
-573,948	-200,000	-0,015	0,113
-572,934	800,000	0,055	-0,120
-571,919	-53,821	-0,144	0,048
-570,904	800,000	0,044	-0,110
-569,890	-78,887	-0,162	-0,040
-568,875	-200,000	0,060	0,000
-567,861	-200,000	-0,008	0,118
-566,846	-200,000	0,006	-0,065
-565,831	92,588	0,015	0,012
-564,817	-179,246	-0,086	0,001
-563,802	-200,000	-0,002	-0,111
-562,788	-200,000	-0,009	-0,185
-561,773	-141,051	0,035	0,003
-560,758	-166,116	0,144	0,004
-559,744	187,530	0,022	-0,024
-558,729	-200,000	0,003	0,033
-557,715	-14,814	-0,106	0,049
-556,700	800,000	0,012	0,035
-555,685	19,311	-0,200	-0,117
-554,671	129,931	0,042	-0,039
-553,656	151,955	-0,067	0,067
-552,642	-155,126	-0,137	0,006
-551,627	389,978	0,078	-0,118
-550,612	71,928	0,051	0,039
-549,598	800,000	-0,072	-0,186
-548,583	-200,000	0,004	0,139
-547,569	110,381	-0,043	0,038
-546,554	-113,500	0,164	-0,023
-545,539	-200,000	0,001	0,063
-544,525	201,382	0,136	-0,153
-543,510	-7,131	-0,107	-0,053
-542,496	38,240	-0,051	0,033
-541,481	-1,591	0,118	-0,061
-540,466	139,836	0,109	-0,105
-539,452	13,781	0,110	0,062
-538,437	-200,000	-0,014	-0,064
-537,423	800,000	0,041	0,094
-536,408	800,000	-0,062	-0,143
-535,393	73,770	0,131	-0,100
-534,379	171,394	-0,018	-0,019
-533,364	232,966	-0,060	-0,072
-532,350	-9,519	0,087	0,042
-531,335	73,571	0,116	0,088
-530,321	119,271	-0,101	0,091
-529,306	800,000	-0,036	-0,106
-528,291	-9,707	-0,017	0,008
-527,277	273,099	-0,049	-0,063
-526,262	267,252	-0,007	0,010
-525,248	-103,973	-0,078	-0,013
-524,233	-75,656	0,064	0,016
-523,218	800,000	-0,070	0,143
-522,204	-81,349	0,080	0,019
-521,189	-66,036	0,077	0,022
-520,175	-200,000	0,002	-0,128
-519,160	800,000	0,023	0,064
-518,145	-200,000	0,013	0,064
-517,131	800,000	0,046	0,116
-516,116	-80,301	-0,069	0,017
-515,102	-200,000	-0,001	-0,059
-514,087	88,297	-0,051	0,041
-513,072	80,990	-0,111	-0,088
-512,058	-110,755	0,075	-0,011
-511,043	213,087	0,073	0,084
-510,029	189,838	0,067	-0,073
-509,014	-200,000	0,004	-0,043
-507,999	-7,628	-0,163	0,080
-506,985	800,000	-0,035	0,071
-505,970	-141,151	0,139	0,010
-504,956	-200,000	0,012	-0,068
-503,941	-94,009	0,071	0,014
-502,926	-200,000	-0,007	-0,111
-501,912	-200,000	-0,027	0,106
-500,897	-136,446	-0,130	0,011
-499,883	-87,638	0,050	-0,011
-498,868	540,605	0,017	-0,029
-497,853	-68,874	-0,094	-0,026
-496,839	0,132	-0,155	-0,080
-495,824	800,000	0,016	0,042
-494,810	-200,000	0,008	0,077
-493,795	800,000	-0,033	0,102
-492,781	18,498	0,054	0,031
-491,766	55,306	-0,104	-0,073
-490,751	332,721	0,048	0,068
-489,737	270,451	-0,084	-0,108
-488,722	-142,361	-0,053	0,004
-487,708	88,733	0,031	0,025
-486,693	342,636	0,057	0,082
-485,678	-70,837	-0,020	0,006
-484,664	-43,476	-0,027	-0,010
-483,649	-43,901	0,049	-0,018
-482,635	171,503	-0,037	0,038
-481,620	800,000	0,022	-0,057
-480,605	-70,009	0,154	0,042
-479,591	363,989	-0,046	-0,068
-478,576	562,828	0,096	0,169
-477,562	14,182	0,139	-0,079
-476,547	-104,240	0,066	0,011
-475,532	-200,000	0,010	-0,110
-474,518	-200,000	0,038	0,133
-473,503	-191,572	0,021	-0,000
-472,489	-200,000	0,024	-0,112
-471,474	119,195	-0,036	-0,032
-470,459	-200,000	-0,022	0,100
-469,445	-3,843	-0,134	-0,068
-468,430	-200,000	0,010	0,115
-467,416	-93,844	0,040	-0,008
-466,401	1,492	0,112	0,058
-465,386	86,952	-0,072	-0,058
-464,372	-200,000	-0,001	-0,093
-463,357	-2,843	0,129	-0,065
-462,343	-54,704	-0,129	0,042
-461,328	-28,591	-0,037	-0,015
-460,313	800,000	-0,039	-0,101
-459,299	186,203	0,071	-0,077
-458,284	676,216	0,057	-0,108
-457,270	-200,000	0,028	0,106
-456,255	9,354	-0,102	-0,056
-455,241	118,763	-0,040	0,036
-454,226	-200,000	0,013	0,096
-453,211	393,378	0,059	0,090
-452,197	-200,000	0,007	0,028
-451,182	265,254	0,025	0,032
-450,168	-153,015	0,040	0,002
-449,153	-135,875	-0,103	-0,009
-448,138	-200,000	0,023	-0,172
-447,124	-83,265	-0,114	-0,026
-446,109	-10,718	0,042	-0,020
-445,095	-200,000	-0,032	0,158
-444,080	-129,281	0,109	-0,011
-443,065	62,446	-0,064	-0,046
-442,051	173,219	-0,039	0,041
-441,036	-98,594	-0,114	-0,021
-440,022	-126,525	-0,047	0,005
-439,007	-113,537	0,073	0,010
-437,992	318,741	0,091	0,125
-436,978	-200,000	0,043	0,167
-435,963	148,845	0,035	0,035
-434,949	5,154	0,079	0,042
-433,934	18,196	-0,030	-0,017
-432,919	-2,605	0,058	0,030
-431,905	114,551	0,029	0,025
-430,890	47,600	0,088	0,060
-429,876	482,808	-0,023	0,038
-428,861	92,063	0,078	0,064
-427,846	210,476	-0,039	-0,045
-426,832	-136,581	-0,089	0,007
-425,817	311,973	0,068	-0,093
-424,803	660,105	-0,038	-0,071
-423,788	800,000	-0,041	-0,101
-422,773	800,000	-0,011	-0,024
-421,759	-118,593	0,054	0,007
-420,744	-200,000	-0,006	0,057
-419,730	68,301	0,051	-0,038
-418,715	-200,000	-0,018	0,070
-417,701	-131,765	-0,133	0,012
-416,686	27,715	-0,066	0,040
-415,671	-200,000	-0,001	-0,062
-414,657	524,158	0,089	0,152
-413,642	800,000	0,044	0,134
-412,628	98,618	-0,149	-0,125
-411,613	-200,000	0,012	-0,062
-410,598	-136,226	-0,087	-0,007
-409,584	-101,175	0,151	0,027
-408,569	-80,426	0,043	0,010
-407,555	-200,000	-0,005	0,021
-406,540	800,000	0,007	0,020
-405,525	289,015	-0,042	0,055
-404,511	321,586	0,115	0,160
-403,496	-200,000	-0,027	-0,104
-402,482	-200,000	-0,020	0,105
-401,467	484,724	0,032	-0,053
-400,452	510,650	-0,082	-0,139
-399,438	-51,533	-0,059	0,020
-398,423	-200,000	0,005	-0,082
-397,409	-95,984	-0,060	-0,011
-396,394	-51,591	0,016	-0,005
-395,379	146,672	0,131	0,127
-394,365	-200,000	0,011	0,123
-393,350	-200,000	-0,001	-0,034
-392,336	172,140	-0,061	-0,064
-391,321	-109,408	0,085	-0,013
-390,306	594,529	0,066	-0,119
-389,292	-70,247	0,024	0,007
-388,277	177,318	-0,063	0,066
-387,263	-3,300	-0,078	0,039
-386,248	-85,439	0,057	0,013
-385,233	-200,000	0,004	0,052
-384,219	8,255	-0,024	0,013
-383,204	227,169	0,006	-0,007
-382,190	457,268	0,047	-0,076
-381,175	-19,270	-0,045	-0,020
-380,160	-51,141	0,055	0,019
-379,146	-200,000	0,021	0,110
-378,131	-200,000	0,006	0,091
-377,117	31,227	-0,043	0,027
-376,102	-76,304	0,075	0,019
-375,088	-149,091	-0,133	-0,008
-374,073	800,000	0,015	-0,031
-373,058	414,997	-0,040	0,061
-372,044	-120,678	0,087	-0,011
-371,029	-90,150	0,157	-0,033
-370,015	665,362	-0,036	0,068
-369,000	616,622	-0,014	0,025
-367,985	42,461	-0,092	0,060
-366,971	134,014	-0,042	-0,039
-365,956	-200,000	0,016	0,068
-364,942	800,000	0,048	0,137
-363,927	105,571	-0,055	0,047
-362,912	129,510	0,070	-0,065
-361,898	-200,000	0,006	-0,063
-360,883	-200,000	0,007	-0,133
-359,869	269,685	0,029	0,036
-358,854	-100,761	0,116	-0,021
-357,839	56,688	0,071	-0,050
-356,825	163,695	-0,036	0,036
-355,810	43,110	-0,042	0,027
-354,796	-200,000	0,011	0,035
-353,781	764,948	-0,049	-0,097
-352,766	-97,773	0,067	0,012
-351,752	99,966	-0,040	0,034
-350,737	550,641	-0,036	0,063
-349,723	470,774	0,036	0,058
-348,708	-200,000	-0,003	0,080
-347,693	227,322	-0,016	-0,019
-346,679	-200,000	0,018	0,057
-345,664	421,117	-0,045	-0,071
-344,650	-200,000	-0,009	0,179
-343,635	-9,420	0,057	0,028
-342,620	-152,809	0,155	-0,008
-341,606	-200,000	-0,015	0,165
-340,591	88,294	0,118	0,095
-339,577	-156,967	-0,053	-0,002
-338,562	152,888	0,076	-0,075
-337,548	190,860	0,018	0,020
-336,533	-200,000	-0,005	0,027
-335,518	800,000	0,021	0,062
-334,504	228,723	0,010	-0,012
-333,489	33,239	-0,134	-0,084
-332,475	-200,000	0,030	-0,106
-331,460	79,574	-0,056	0,044
-330,445	800,000	-0,030	-0,063
-329,431	-12,702	0,024	0,011
-328,416	-122,125	0,017	-0,002
-327,402	800,000	0,024	-0,067
-326,387	-124,930	-0,092	0,010
-325,372	-46,380	0,045	-0,016
-324,358	-133,959	-0,063	0,006
-323,343	-23,201	-0,048	-0,021
-322,329	-162,710	0,147	-0,005
-321,314	45,054	0,044	0,029
-320,299	361,969	0,065	-0,095
-319,285	-200,000	0,016	0,194
-318,270	-3,181	-0,105	0,053
-317,256	-200,000	0,006	0,093
-316,241	-200,000	-0,020	0,124
-315,226	-149,823	0,173	-0,010
-314,212	-50,213	0,156	-0,053
-313,197	156,682	0,033	0,033
-312,183	-200,000	-0,001	-0,053
-311,168	-158,109	-0,074	-0,003
-310,153	-172,153	-0,117	0,003
-309,139	-200,000	-0,016	0,081
-308,124	-200,000	0,002	-0,097
-307,110	-40,288	0,056	0,021
-306,095	-59,136	-0,045	-0,014
-305,080	-83,911	0,081	-0,019
-304,066	69,335	-0,091	-0,068
-303,051	110,025	0,042	0,036
-302,037	266,476	-0,032	0,041
-301,022	560,067	0,077	0,136
-300,008	-200,000	0,036	-0,149
-298,993	692,647	-0,047	0,089
-297,978	-93,863	-0,144	0,028
-296,964	27,983	0,018	-0,011
-295,949	-200,000	-0,001	-0,042
-294,935	10,935	-0,101	0,056
-293,920	203,556	0,035	0,039
-292,905	162,519	0,036	0,037
-291,891	-16,170	-0,118	-0,054
-290,876	201,236	0,027	-0,030
-289,862	-33,131	-0,094	-0,037
-288,847	-31,533	0,106	-0,043
-287,832	629,246	-0,043	0,079
-286,818	123,385	0,039	-0,036
-285,803	-47,056	0,075	-0,026
-284,789	-24,174	0,087	-0,037
-283,774	129,896	0,082	0,076
-282,759	-200,000	0,017	-0,116
-281,745	-200,000	-0,021	-0,122
-280,730	800,000	-0,059	-0,169
-279,716	-26,340	0,080	0,034
-278,701	592,025	-0,057	-0,103
-277,686	54,860	0,035	-0,025
-276,672	266,939	-0,033	0,042
-275,657	-200,000	-0,031	0,166
-274,643	-0,343	-0,109	-0,056
-273,628	-200,000	0,019	-0,062
-272,613	267,231	0,107	0,136
-271,599	-200,000	0,021	0,133
-270,584	56,519	0,043	0,030
-269,570	-20,569	0,118	0,052
-268,555	-41,441	-0,097	-0,036
-267,540	-200,000	-0,004	-0,094
-266,526	-171,543	-0,160	0,004
-265,511	-106,358	-0,051	0,008
-264,497	308,104	-0,004	-0,005
-263,482	81,142	0,082	-0,064
-262,467	-200,000	-0,015	0,181
-261,453	-93,610	0,102	0,020
-260,438	-200,000	0,048	0,181
-259,424	800,000	0,037	0,084
-258,409	800,000	-0,005	0,015
-257,395	194,054	-0,090	0,098
-256,380	412,211	0,062	-0,095
-255,365	690,082	-0,046	-0,087
-254,351	800,000	-0,072	0,172
-253,336	-63,640	0,082	-0,024
-252,322	287,665	-0,083	-0,109
-251,307	783,753	0,054	-0,108
-250,292	148,201	-0,050	-0,049
-249,278	144,683	0,069	0,066
-248,263	407,193	-0,069	0,105
-247,249	187,930	-0,074	0,079
-246,234	79,989	-0,060	-0,047
-245,219	-45,767	-0,010	0,004
-244,205	665,501	0,073	-0,137
-243,190	-200,000	0,001	0,041
-242,176	438,874	0,019	-0,030
-241,161	-200,000	0,009	-0,068
-240,146	30,836	0,079	-0,049
-239,132	52,711	-0,033	0,023
-238,117	786,361	0,033	0,066
-237,103	-58,307	-0,050	0,016
-236,088	107,841	0,028	0,024
-235,073	-200,000	0,014	-0,061
-234,059	317,736	0,058	0,079
-233,044	800,000	-0,025	0,071
-232,030	562,548	-0,020	0,035
-231,015	-35,403	0,108	-0,042
-230,000	19,326	-0,040	0,023
-228,986	-95,865	-0,100	-0,019
-227,971	150,024	0,115	0,113
-226,957	-200,000	-0,006	-0,038
-225,942	77,777	0,116	0,089
-224,927	-23,003	-0,115	-0,050
-223,913	-28,218	-0,066	0,027
-222,898	283,246	0,036	0,046
-221,884	87,378	-0,092	-0,073
-220,869	266,982	-0,023	0,029
-219,855	-200,000	0,014	0,113
-218,840	800,000	0,064	0,135
-217,825	42,022	0,058	0,038
-216,811	-200,000	-0,008	-0,179
-215,796	-200,000	-0,026	-0,157
-214,782	800,000	0,044	-0,109
-213,767	35,371	0,050	-0,032
-212,752	168,994	-0,059	0,061
-211,738	-84,342	0,050	0,011
-210,723	-125,343	-0,158	-0,017
-209,709	161,557	0,048	0,049
-208,694	256,272	0,024	-0,029
-207,679	-51,446	-0,077	-0,026
-206,665	57,866	0,056	0,039
-205,650	205,242	0,081	-0,090
-204,636	-200,000	-0,038	-0,166
-203,621	-125,048	-0,111	-0,012
-202,606	2,344	0,050	0,026
-201,592	800,000	-0,004	0,011
-200,577	334,062	-0,068	-0,096
-199,563	35,466	0,034	-0,022
-198,548	-83,673	0,102	0,023
-197,533	-51,439	-0,142	-0,048
-196,519	-200,000	0,033	0,116
-195,504	-112,655	-0,146	-0,021
-194,490	465,866	0,038	0,062
-193,475	-91,339	-0,078	0,016
-192,460	259,881	0,127	0,158
-191,446	79,785	0,095	0,073
-190,431	800,000	0,035	-0,094
-189,417	61,542	0,083	0,060
-188,402	-49,912	0,081	-0,027
-187,387	-200,000	0,007	0,120
-186,373	-200,000	-0,048	-0,238
-185,358	586,606	0,075	0,133
-184,344	646,777	-0,040	0,073
-183,329	455,023	0,042	0,068
-182,315	800,000	0,016	0,043
-181,300	129,612	-0,034	-0,031
-180,285	21,580	-0,061	0,035
-179,271	-25,279	-0,102	-0,043
-178,256	800,000	-0,036	0,095
-177,242	-200,000	0,003	-0,045
-176,227	600,195	-0,047	-0,084
-175,212	-114,721	0,074	-0,010
-174,198	531,084	0,029	0,050
-173,183	-28,317	0,128	0,053
-172,169	216,419	0,057	0,066
-171,154	455,660	-0,075	-0,120
-170,139	-0,217	0,058	-0,030
-169,125	800,000	0,038	0,090
-168,110	127,935	0,092	-0,084
-167,096	628,101	0,024	-0,044
-166,081	573,816	-0,022	0,038
-165,066	-18,423	0,097	-0,044
-164,052	-200,000	-0,003	-0,038
-163,037	-200,000	-0,016	-0,103
-162,023	-132,704	-0,117	-0,011
-161,008	282,545	-0,077	0,099
-159,993	-200,000	-0,015	-0,082
-158,979	800,000	0,032	0,080
-157,964	11,134	0,072	0,039
-156,950	-173,116	-0,077	-0,002
-155,935	-200,000	0,032	0,000
-154,920	-200,000	0,018	-0,095
-153,906	244,643	0,081	0,098
-152,891	-200,000	-0,003	0,061
-151,877	-200,000	-0,013	0,133
-150,862	-39,947	-0,107	-0,040
-149,847	-143,796	-0,025	0,002
-148,833	800,000	-0,067	-0,170
-147,818	120,526	0,073	-0,065
-146,804	-55,792	0,062	-0,020
-145,789	92,458	-0,112	0,090
-144,775	-24,854	-0,022	-0,009
-143,760	-160,256	-0,154	-0,006
-142,745	800,000	-0,025	0,061
-141,731	-59,329	0,083	0,026
-140,716	61,673	-0,075	0,054
-139,702	-43,665	-0,105	-0,038
-138,687	-200,000	-0,015	0,059
-137,672	368,187	-0,023	-0,034
-136,658	800,000	0,012	0,025
-135,643	-60,618	-0,052	-0,016
-134,629	-22,773	-0,046	-0,020
-133,614	-115,487	-0,018	0,002
-132,599	800,000	-0,087	0,232
-131,585	-184,280	-0,051	-0,001
-130,570	-200,000	-0,006	-0,132
-129,556	-200,000	-0,031	-0,114
-128,541	-129,259	0,064	0,006
-127,526	633,015	0,024	0,043
-126,512	221,801	-0,098	0,114
-125,497	-55,437	0,193	-0,062
-124,483	240,073	0,047	-0,056
-123,468	433,958	0,051	-0,080
-122,453	-84,967	-0,009	-0,002
-121,439	-43,788	-0,203	-0,073
-120,424	318,738	-0,026	0,035
