DTS Sentinel unit serial number:	SN410029Multiplexer serial number:	ORYXHardware model number:	OX2-SRSoftware version number:	ORYX F/W v4,00 Oryx Data Collector v3.7.2.0data status	okinstallation	B6 Nyhavnadifferential loss correction	single-endedforward channel	channel 2reverse channel	N/Adate	2023/12/10time	12:05:08forward acquisition time	300,00reverse acquisition time	0,00gamma	499,1914k internal	0,3123k external	0,3123temperature offset calibration	1,0000default loss term (dB/km)	0,3820temperature slope calibration	1,0000multiplexer offset coefficient	1,0000multiplexer slope coefficient	1,0000fibre end	0,00T internal ref (°C)	22,75T ext. ref 1 (°C)	6,64T ext. ref 2 (°C)	6,66length (m)	temperature (°C)	Stokes	anti-Stokes-744,400	210,198	-0,083	-0,097
-743,385	32,917	-0,163	0,105
-742,371	275,604	0,089	-0,118
-741,356	-91,473	-0,229	0,048
-740,342	17,302	-0,084	0,050
-739,327	24,675	-0,302	0,186
-738,312	800,000	-0,011	-0,025
-737,298	-39,000	-0,151	0,059
-736,283	-200,000	0,007	-0,064
-735,269	21,503	-0,262	0,158
-734,254	800,000	-0,015	0,040
-733,239	-83,945	-0,422	-0,099
-732,225	-129,582	0,098	-0,010
-731,210	595,404	-0,070	0,130
-730,196	449,911	-0,090	0,148
-729,181	-63,175	-0,102	-0,031
-728,167	94,726	0,087	0,073
-727,152	-200,000	-0,003	0,035
-726,137	188,905	-0,089	0,100
-725,123	800,000	0,019	-0,049
-724,108	-1,693	-0,138	-0,072
-723,094	121,110	-0,120	-0,111
-722,079	425,035	-0,011	-0,018
-721,064	-7,414	0,047	-0,024
-720,050	800,000	-0,040	-0,085
-719,035	800,000	0,027	0,070
-718,021	383,055	-0,072	-0,110
-717,006	-200,000	-0,025	-0,099
-715,991	800,000	-0,010	0,026
-714,977	-175,533	-0,028	-0,001
-713,962	590,038	0,029	0,054
-712,948	731,696	0,042	-0,084
-711,933	191,254	0,135	-0,151
-710,918	197,523	-0,049	-0,056
-709,904	800,000	-0,015	-0,041
-708,889	-200,000	0,012	-0,130
-707,875	-200,000	-0,002	-0,024
-706,860	800,000	0,002	-0,006
-705,845	-26,005	-0,085	0,037
-704,831	800,000	0,044	0,140
-703,816	-28,446	0,075	0,032
-702,802	800,000	-0,047	-0,135
-701,787	800,000	-0,043	-0,108
-700,772	-33,879	-0,115	0,047
-699,758	-200,000	-0,032	-0,129
-698,743	-119,621	-0,065	-0,008
-697,729	-84,451	0,035	0,008
-696,714	175,039	-0,055	-0,059
-695,699	800,000	0,048	0,111
-694,685	-200,000	0,013	-0,099
-693,670	-15,419	0,137	-0,065
-692,656	800,000	0,028	-0,069
-691,641	401,656	0,072	-0,113
-690,627	24,119	0,061	0,037
-689,612	-28,922	0,166	0,071
-688,597	800,000	-0,052	0,146
-687,583	529,236	-0,041	-0,072
-686,568	-42,971	-0,133	-0,050
-685,554	-200,000	0,022	-0,074
-684,539	436,706	0,145	0,236
-683,524	58,815	-0,096	0,070
-682,510	33,323	0,042	0,027
-681,495	-114,902	-0,080	-0,011
-680,481	97,025	-0,086	0,073
-679,466	-200,000	0,016	0,058
-678,451	273,580	-0,067	0,089
-677,437	55,243	-0,052	0,038
-676,422	-52,678	0,054	0,018
-675,408	-200,000	0,014	-0,063
-674,393	-200,000	-0,002	-0,025
-673,378	68,377	-0,029	-0,022
-672,364	32,693	-0,094	0,061
-671,349	-157,604	0,125	-0,005
-670,335	184,844	-0,071	-0,078
-669,320	-14,801	0,060	0,029
-668,305	-200,000	-0,025	0,095
-667,291	448,431	0,047	-0,078
-666,276	800,000	0,023	-0,053
-665,262	208,527	0,022	0,025
-664,247	2,912	0,087	-0,047
-663,232	149,644	0,035	-0,035
-662,218	-41,552	0,093	0,035
-661,203	200,979	-0,015	-0,017
-660,189	-65,665	-0,063	-0,019
-659,174	800,000	-0,020	-0,047
-658,159	14,882	-0,111	0,064
-657,145	800,000	-0,067	-0,169
-656,130	434,505	0,080	-0,130
-655,116	37,145	0,040	0,026
-654,101	94,632	0,038	-0,032
-653,086	-179,493	-0,113	-0,002
-652,072	177,548	0,043	-0,046
-651,057	64,523	-0,074	-0,055
-650,043	299,819	-0,073	-0,100
-649,028	-20,076	0,078	-0,035
-648,014	800,000	0,009	0,020
-646,999	134,460	0,008	-0,007
-645,984	185,204	0,070	0,077
-644,970	93,586	-0,108	-0,091
-643,955	-71,527	-0,112	-0,031
-642,941	43,479	0,071	0,048
-641,926	135,421	-0,032	-0,031
-640,911	3,936	0,005	0,003
-639,897	-91,110	0,059	-0,012
-638,882	36,897	0,052	-0,034
-637,868	3,954	-0,150	-0,081
-636,853	-54,030	0,055	0,019
-635,838	-200,000	0,047	-0,181
-634,824	-200,000	0,013	-0,121
-633,809	-167,165	0,110	-0,003
-632,795	-19,139	-0,031	-0,014
-631,780	-200,000	0,005	0,083
-630,765	-1,290	0,129	0,067
-629,751	338,167	-0,068	-0,098
-628,736	-15,094	-0,046	-0,022
-627,722	5,985	-0,100	-0,055
-626,707	475,434	0,035	-0,059
-625,692	162,190	0,056	-0,058
-624,678	751,356	0,087	-0,176
-623,663	-200,000	0,011	-0,077
-622,649	-200,000	-0,025	-0,095
-621,634	-24,276	-0,099	-0,044
-620,619	800,000	0,043	-0,120
-619,605	-200,000	0,019	-0,089
-618,590	-55,026	-0,115	0,038
-617,576	-35,364	-0,054	-0,022
-616,561	-86,620	0,042	-0,010
-615,546	568,874	-0,128	-0,231
-614,532	18,047	-0,115	-0,068
-613,517	-160,552	-0,211	-0,008
-612,503	-33,418	-0,094	-0,038
-611,488	183,905	0,080	0,088
-610,474	-85,183	0,020	0,005
-609,459	158,932	0,059	-0,061
-608,444	241,229	-0,039	-0,048
-607,430	67,441	-0,148	-0,112
-606,415	-132,307	-0,054	0,005
-605,401	-142,819	0,032	-0,002
-604,386	-151,309	-0,048	0,003
-603,371	800,000	-0,043	-0,132
-602,357	-200,000	-0,004	0,101
-601,342	324,665	-0,021	0,029
-600,328	80,874	-0,034	0,027
-599,313	-68,237	-0,060	-0,017
-598,298	800,000	0,064	-0,193
-597,284	-42,370	-0,116	0,044
-596,269	-171,334	0,007	-0,000
-595,255	-155,603	0,136	-0,006
-594,240	245,290	0,110	0,138
-593,225	43,349	-0,122	-0,082
-592,211	800,000	0,034	-0,088
-591,196	-200,000	-0,012	-0,166
-590,182	393,472	-0,011	-0,017
-589,167	-98,039	0,102	0,019
-588,152	-98,223	0,021	0,004
-587,138	800,000	-0,036	0,107
-586,123	-200,000	-0,005	0,017
-585,109	-200,000	-0,001	0,051
-584,094	-200,000	0,004	0,152
-583,079	800,000	-0,020	-0,045
-582,065	800,000	-0,050	0,151
-581,050	238,167	0,040	0,049
-580,036	-116,996	0,089	-0,012
-579,021	800,000	-0,022	-0,066
-578,006	-125,684	0,068	0,007
-576,992	-100,169	-0,025	0,005
-575,977	-105,050	0,062	0,010
-574,963	-200,000	0,001	0,142
-573,948	134,376	-0,105	0,101
-572,934	-74,331	0,102	0,027
-571,919	700,358	-0,037	0,072
-570,904	727,280	-0,045	0,089
-569,890	110,826	-0,028	0,025
-568,875	800,000	-0,094	0,209
-567,861	800,000	-0,047	-0,098
-566,846	-51,265	-0,081	-0,028
-565,831	-10,270	0,064	0,031
-564,817	70,376	-0,181	-0,139
-563,802	116,700	-0,107	-0,098
-562,788	407,794	-0,054	0,084
-561,773	93,406	0,072	-0,060
-560,758	-200,000	-0,017	-0,059
-559,744	800,000	-0,017	-0,035
-558,729	-200,000	-0,045	0,203
-557,715	-26,641	-0,051	-0,022
-556,700	-146,969	-0,126	-0,008
-555,685	54,830	-0,108	-0,077
-554,671	-153,345	0,075	-0,004
-553,656	37,879	0,022	0,014
-552,642	15,338	0,201	0,116
-551,627	800,000	-0,018	0,038
-550,612	-14,222	-0,098	0,047
-549,598	-200,000	-0,029	-0,107
-548,583	30,048	-0,122	-0,077
-547,569	8,378	-0,044	-0,024
-546,554	-108,854	0,101	-0,016
-545,539	800,000	-0,034	-0,094
-544,525	53,984	0,129	-0,091
-543,510	800,000	0,019	0,050
-542,496	-200,000	-0,037	-0,138
-541,481	-200,000	-0,012	-0,143
-540,466	-200,000	-0,003	-0,074
-539,452	249,169	-0,045	-0,057
-538,437	-30,361	-0,024	-0,010
-537,423	48,923	-0,043	-0,030
-536,408	-200,000	-0,004	0,103
-535,393	-4,723	-0,051	0,026
-534,379	75,719	0,112	-0,087
-533,364	-116,591	0,085	0,011
-532,350	-200,000	0,032	0,183
-531,335	-38,665	-0,024	0,009
-530,321	-9,808	0,038	-0,019
-529,306	-200,000	-0,025	0,159
-528,291	-130,806	-0,087	0,009
-527,277	800,000	-0,036	0,085
-526,262	30,261	0,014	-0,009
-525,248	-61,891	0,177	-0,054
-524,233	-200,000	0,030	-0,103
-523,218	654,112	0,046	-0,088
-522,204	-106,710	-0,126	-0,020
-521,189	-119,767	0,041	-0,005
-520,175	-119,660	-0,111	0,014
-519,160	-57,840	-0,141	-0,045
-518,145	800,000	-0,014	0,039
-517,131	177,954	-0,119	-0,128
-516,116	-200,000	0,013	0,105
-515,102	61,926	-0,103	0,076
-514,087	-100,575	0,127	-0,023
-513,072	-66,904	-0,141	-0,041
-512,058	-80,611	0,098	-0,024
-511,043	-25,697	0,073	0,032
-510,029	457,481	-0,003	0,005
-509,014	50,060	-0,147	-0,102
-507,999	800,000	0,003	0,011
-506,985	-200,000	-0,017	0,076
-505,970	399,721	-0,026	0,041
-504,956	-176,700	0,031	0,001
-503,941	-97,392	0,078	0,015
-502,926	192,727	0,039	0,044
-501,912	66,141	-0,012	0,009
-500,897	-54,626	0,142	0,047
-499,883	124,605	-0,079	-0,074
-498,868	-200,000	-0,003	-0,116
-497,853	-145,533	-0,133	-0,009
-496,839	59,217	-0,089	-0,064
-495,824	-200,000	-0,010	-0,082
-494,810	103,491	0,064	0,056
-493,795	800,000	0,028	-0,071
-492,781	-24,652	-0,073	0,032
-491,766	151,757	0,063	0,064
-490,751	-9,543	0,085	-0,042
-489,737	247,626	-0,069	-0,086
-488,722	361,693	0,022	-0,033
-487,708	-67,203	-0,103	-0,030
-486,693	57,296	0,026	-0,018
-485,678	355,544	-0,026	-0,038
-484,664	-200,000	0,005	-0,070
-483,649	674,501	-0,022	0,042
-482,635	800,000	0,072	0,180
-481,620	34,348	-0,109	-0,070
-480,605	605,199	0,081	-0,149
-479,591	456,767	0,024	0,039
-478,576	-65,810	-0,045	0,013
-477,562	-200,000	0,015	0,079
-476,547	24,434	0,076	0,046
-475,532	800,000	-0,081	-0,192
-474,518	187,103	0,059	0,065
-473,503	-79,688	0,044	0,011
-472,489	-5,835	-0,065	0,033
-471,474	800,000	0,016	-0,043
-470,459	800,000	-0,036	0,117
-469,445	-48,076	-0,141	0,050
-468,430	306,567	-0,074	0,102
-467,416	316,264	0,034	0,047
-466,401	-200,000	0,007	0,114
-465,386	-200,000	-0,016	0,093
-464,372	-152,948	0,071	-0,004
-463,357	-140,880	-0,131	0,010
-462,343	-22,590	-0,069	-0,031
-461,328	-155,427	0,099	0,005
-460,313	627,030	0,025	0,046
-459,299	-37,536	0,068	0,026
-458,284	-200,000	-0,022	0,101
-457,270	800,000	0,049	0,129
-456,255	142,923	-0,101	-0,099
-455,241	-77,463	0,080	-0,020
-454,226	187,103	-0,028	-0,031
-453,211	-200,000	-0,005	-0,018
-452,197	14,627	0,047	-0,027
-451,182	800,000	-0,026	0,073
-450,168	-200,000	-0,004	0,014
-449,153	93,656	0,010	0,009
-448,138	22,456	-0,106	-0,064
-447,124	-200,000	0,006	-0,042
-446,109	-200,000	-0,010	0,101
-445,095	-92,646	0,021	0,004
-444,080	429,199	-0,020	0,033
-443,065	508,691	0,025	0,042
-442,051	800,000	0,025	-0,069
-441,036	16,097	0,096	-0,056
-440,022	800,000	-0,032	-0,092
-439,007	-200,000	0,010	-0,204
-437,992	575,871	-0,083	0,151
-436,978	-200,000	-0,017	0,116
-435,963	-65,647	0,239	0,070
-434,949	-22,489	-0,044	0,020
-433,934	800,000	-0,052	-0,155
-432,919	547,791	0,021	0,037
-431,905	800,000	-0,041	0,105
-430,890	-200,000	-0,021	-0,103
-429,876	73,250	-0,047	0,036
-428,861	186,149	0,087	0,096
-427,846	800,000	0,016	-0,032
-426,832	-200,000	-0,008	0,062
-425,817	-200,000	-0,017	-0,089
-424,803	71,414	-0,119	-0,091
-423,788	-200,000	0,034	0,184
-422,773	-7,512	-0,063	0,032
-421,759	261,691	0,094	0,121
-420,744	89,335	0,128	0,105
-419,730	-35,164	0,116	0,046
-418,715	43,221	-0,096	-0,065
-417,701	-200,000	-0,002	-0,061
-416,686	18,648	0,227	0,134
-415,671	298,427	-0,074	-0,101
-414,657	-130,552	0,106	0,010
-413,642	-200,000	0,009	0,061
-412,628	800,000	0,015	0,041
-411,613	-8,823	-0,135	0,066
-410,598	181,528	0,049	0,053
-409,584	800,000	-0,022	-0,053
-408,569	671,395	0,021	-0,041
-407,555	10,176	0,159	0,089
-406,540	800,000	0,046	0,099
-405,525	-46,280	-0,188	-0,068
-404,511	800,000	-0,015	0,037
-403,496	310,040	0,043	0,059
-402,482	-200,000	-0,007	-0,164
-401,467	123,584	0,041	-0,038
-400,452	-200,000	-0,006	0,071
-399,438	-200,000	0,001	0,021
-398,423	64,013	-0,098	-0,073
-397,409	800,000	-0,019	-0,054
-396,394	-10,621	-0,083	0,040
-395,379	800,000	0,028	-0,085
-394,365	800,000	0,025	0,069
-393,350	230,896	-0,065	0,078
-392,336	200,371	-0,048	0,055
-391,321	-45,465	-0,101	-0,037
-390,306	-113,102	-0,030	0,004
-389,292	800,000	-0,055	0,152
-388,277	800,000	0,010	0,022
-387,263	-59,848	0,151	0,047
-386,248	-200,000	0,039	0,166
-385,233	-121,565	-0,214	0,026
-384,219	321,272	-0,062	-0,087
-383,204	240,263	-0,022	-0,027
-382,190	357,747	0,110	0,162
-381,175	-200,000	0,059	0,208
-380,160	-200,000	0,042	0,182
-379,146	303,441	0,074	0,101
-378,131	-56,615	0,115	0,037
-377,117	-200,000	0,046	0,164
-376,102	306,304	0,068	0,093
-375,088	-149,005	-0,066	0,004
-374,073	-98,382	0,101	-0,019
-373,058	-200,000	-0,015	0,067
-372,044	-200,000	0,048	0,159
-371,029	-138,715	0,077	0,006
-370,015	-17,798	-0,049	0,023
-369,000	-200,000	0,015	0,068
-367,985	537,848	0,068	-0,118
-366,971	122,728	0,075	0,068
-365,956	205,427	-0,113	0,129
-364,942	800,000	0,035	0,096
-363,927	800,000	-0,021	-0,066
-362,912	-141,203	0,138	0,010
-361,898	106,675	0,104	-0,090
-360,883	-200,000	0,004	0,062
-359,869	349,881	0,044	-0,064
-358,854	-200,000	0,000	-0,088
-357,839	-200,000	-0,005	-0,080
-356,825	131,666	0,101	-0,095
-355,810	-200,000	0,014	-0,092
-354,796	-92,730	0,074	-0,015
-353,781	34,489	-0,115	-0,074
-352,766	299,309	-0,050	-0,068
-351,752	291,268	0,033	0,045
-350,737	-157,572	0,009	-0,000
-349,723	44,766	0,026	-0,017
-348,708	-137,267	-0,044	-0,004
-347,693	-200,000	-0,004	0,082
-346,679	154,296	0,046	-0,047
-345,664	-58,216	-0,054	0,017
-344,650	529,114	0,035	0,061
-343,635	-200,000	-0,003	-0,050
-342,620	171,488	0,033	-0,034
-341,606	775,760	0,033	0,066
-340,591	-200,000	0,032	0,139
-339,577	331,825	-0,021	0,030
-338,562	187,774	0,031	-0,034
-337,548	1,834	-0,132	-0,070
-336,533	-30,313	0,084	0,035
-335,518	-99,107	0,076	0,014
-334,504	-27,710	-0,113	0,048
-333,489	33,779	-0,082	-0,052
-332,475	-179,457	-0,099	0,002
-331,460	330,604	-0,073	-0,104
-330,445	-6,828	-0,082	-0,041
-329,431	151,226	0,082	-0,082
-328,416	-200,000	-0,039	0,133
-327,402	-105,766	-0,124	0,020
-326,387	-200,000	0,010	0,051
-325,372	-22,644	-0,072	0,032
-324,358	-193,877	-0,115	0,001
-323,343	-200,000	-0,002	-0,067
-322,329	293,764	-0,091	-0,123
-321,314	2,147	0,048	-0,026
-320,299	560,755	0,055	-0,097
-319,285	-128,383	-0,091	0,009
-318,270	-112,354	-0,077	-0,011
-317,256	92,064	-0,053	0,043
-316,241	-79,334	0,094	0,023
-315,226	800,000	-0,007	-0,020
-314,212	-200,000	0,016	0,057
-313,197	-200,000	0,036	0,121
-312,183	164,256	-0,022	-0,023
-311,168	-55,952	0,075	0,024
-310,153	-200,000	0,026	0,156
-309,139	38,278	0,024	0,016
-308,124	-200,000	-0,005	-0,133
-307,110	211,926	0,104	0,121
-306,095	800,000	-0,013	0,039
-305,080	15,134	0,066	0,038
-304,066	-29,037	0,102	0,043
-303,051	-158,300	-0,083	-0,003
-302,037	481,191	0,028	-0,047
-301,022	399,624	0,061	0,094
-300,008	800,000	-0,038	-0,116
-298,993	-41,969	0,080	-0,030
-297,978	800,000	0,013	-0,031
-296,964	-1,046	-0,059	-0,031
-295,949	-200,000	0,016	-0,088
-294,935	-98,923	-0,039	0,007
-293,920	-200,000	-0,030	-0,102
-292,905	157,888	0,048	0,048
-291,891	215,802	0,050	-0,058
-290,876	155,606	0,036	-0,036
-289,862	71,086	-0,100	-0,076
-288,847	800,000	0,023	-0,052
-287,832	-56,891	0,059	-0,019
-286,818	-131,605	-0,057	-0,005
-285,803	21,965	0,104	0,062
-284,789	-200,000	-0,049	0,165
-283,774	488,851	0,020	-0,034
-282,759	800,000	-0,003	0,007
-281,745	-200,000	-0,006	0,065
-280,730	-0,674	-0,149	-0,077
-279,716	800,000	0,046	0,096
-278,701	266,692	-0,081	0,104
-277,686	-40,858	0,068	-0,026
-276,672	194,936	0,095	-0,106
-275,657	800,000	-0,027	0,067
-274,643	106,112	-0,098	0,085
-273,628	-169,189	-0,075	0,002
-272,613	515,316	0,014	-0,023
-271,599	-8,777	0,116	0,057
-270,584	-61,045	0,137	0,042
-269,570	194,983	0,066	-0,073
-268,555	20,712	-0,064	0,038
-267,540	68,522	0,066	0,049
-266,526	141,829	0,079	-0,077
-265,511	-127,263	-0,133	-0,014
-264,497	800,000	0,013	0,028
-263,482	-174,195	0,107	-0,002
-262,467	229,814	0,010	0,012
-261,453	143,871	0,025	-0,024
-260,438	-101,266	0,081	0,014
-259,424	-200,000	-0,019	-0,123
-258,409	118,824	0,055	0,050
-257,395	-149,515	-0,096	-0,005
-256,380	-200,000	-0,039	0,147
-255,365	-89,042	-0,074	0,016
-254,351	-1,696	0,102	-0,052
-253,336	30,857	-0,123	0,077
-252,322	-179,308	-0,042	-0,001
-251,307	89,358	-0,032	0,026
-250,292	-110,436	-0,081	-0,012
-249,278	-129,811	0,089	0,009
-248,263	13,052	0,094	0,053
-247,249	14,051	-0,106	0,060
-246,234	79,790	-0,008	-0,006
-245,219	-112,162	-0,043	0,006
-244,205	-16,063	0,032	0,015
-243,190	-133,873	0,204	-0,018
-242,176	318,604	0,040	-0,055
-241,161	41,028	0,071	0,047
-240,146	-186,599	-0,020	0,000
-239,132	-82,858	0,134	0,031
-238,117	657,221	-0,033	-0,061
-237,103	165,084	-0,075	-0,077
-236,088	-153,680	0,155	-0,008
-235,073	-200,000	-0,049	0,164
-234,059	-54,834	0,160	0,052
-233,044	-101,754	0,099	-0,017
-232,030	343,199	-0,117	0,168
-231,015	42,946	0,028	0,019
-230,000	248,766	-0,033	-0,041
-228,986	47,812	0,134	-0,091
-227,971	-200,000	-0,013	0,171
-226,957	-168,266	0,134	0,004
-225,942	60,700	0,083	0,060
-224,927	-200,000	-0,004	0,134
-223,913	135,726	0,051	-0,048
-222,898	140,726	0,071	-0,068
-221,884	130,301	-0,020	-0,019
-220,869	625,271	-0,047	-0,087
-219,855	9,576	0,170	0,094
-218,840	157,790	0,079	0,080
-217,825	-200,000	0,007	-0,089
-216,811	571,329	-0,011	-0,019
-215,796	800,000	-0,047	-0,135
-214,782	159,077	0,076	0,077
-213,767	-31,344	0,070	0,029
-212,752	-131,532	0,067	0,006
-211,738	-146,513	-0,136	-0,009
-210,723	15,177	-0,060	0,034
-209,709	-62,434	0,093	0,028
-208,694	-37,907	-0,209	-0,081
-207,679	11,271	0,036	-0,020
-206,665	-108,628	-0,051	-0,008
-205,650	545,585	0,089	-0,155
-204,636	-200,000	0,004	0,088
-203,621	-130,103	0,103	0,010
-202,606	800,000	-0,042	-0,102
-201,592	-200,000	-0,033	-0,134
-200,577	5,313	0,024	0,013
-199,563	586,108	0,053	-0,095
-198,548	-200,000	0,006	-0,040
-197,533	431,718	0,032	0,050
-196,519	168,993	0,042	0,044
-195,504	26,523	-0,068	0,041
-194,490	-164,974	0,028	0,001
-193,475	800,000	-0,029	-0,091
-192,460	214,277	0,059	0,068
-191,446	-78,157	0,150	-0,037
-190,431	98,679	-0,057	0,048
-189,417	800,000	0,024	-0,054
-188,402	-51,697	-0,025	0,008
-187,387	-200,000	0,004	0,120
-186,373	21,524	-0,125	-0,074
-185,358	-200,000	0,019	0,084
-184,344	-200,000	-0,008	-0,116
-183,329	-187,361	0,159	-0,002
-182,315	-105,965	-0,051	0,008
-181,300	-128,841	-0,193	0,020
-180,285	203,330	-0,073	-0,083
-179,271	142,945	0,093	-0,090
-178,256	57,659	0,142	-0,101
-177,242	-193,851	-0,111	-0,001
-176,227	-121,518	0,112	0,013
-175,212	-13,333	-0,042	0,020
-174,198	-74,829	-0,035	-0,009
-173,183	153,553	-0,123	-0,123
-172,169	-42,042	-0,176	-0,065
-171,154	-100,002	-0,011	-0,002
-170,139	-116,685	-0,026	0,003
-169,125	-120,344	0,036	-0,004
-168,110	109,807	-0,051	0,045
-167,096	29,879	0,053	-0,033
-166,081	-7,870	-0,077	0,038
-165,066	192,471	0,085	-0,094
-164,052	800,000	-0,046	-0,130
-163,037	165,830	-0,060	0,062
-162,023	175,936	0,084	-0,088
-161,008	50,970	0,056	0,039
-159,993	44,427	0,044	0,029
-158,979	-200,000	-0,002	-0,031
-157,964	349,608	-0,057	-0,083
-156,950	-200,000	-0,019	-0,061
-155,935	253,384	0,049	-0,061
-154,920	-200,000	0,017	-0,065
-153,906	360,231	-0,028	0,041
-152,891	203,448	-0,023	0,025
-151,877	23,740	-0,192	0,115
-150,862	800,000	-0,050	0,135
-149,847	84,357	-0,043	-0,035
-148,833	-126,206	0,055	-0,006
-147,818	574,562	-0,022	0,039
-146,804	6,949	0,022	0,012
-145,789	408,450	-0,051	0,079
-144,775	800,000	-0,026	-0,083
-143,760	-57,888	-0,149	0,047
-142,745	-179,756	0,063	0,001
-141,731	20,583	-0,025	-0,015
-140,716	-200,000	-0,007	-0,031
-139,702	-200,000	0,003	0,024
-138,687	-200,000	-0,039	0,127
-137,672	120,259	-0,041	-0,037
-136,658	-68,665	0,053	-0,015
-135,643	-84,087	-0,049	0,011
-134,629	800,000	0,018	0,038
-133,614	133,829	-0,027	0,026
-132,599	-47,451	0,098	0,035
-131,585	510,893	0,029	0,050
-130,570	800,000	0,010	0,023
-129,556	-200,000	-0,014	-0,058
-128,541	-45,894	-0,024	0,008
-127,526	-25,670	-0,099	-0,042
-126,512	-96,965	0,021	0,004
-125,497	-200,000	0,013	0,087
-124,483	134,038	0,081	0,077
-123,468	-78,030	-0,051	0,013
-122,453	253,553	-0,060	0,074
-121,439	-200,000	-0,007	-0,055
-120,424	13,849	-0,096	0,054
-119,410	800,000	-0,033	0,077
-118,395	197,563	0,036	0,041
