DTS Sentinel unit serial number:	SN410029Multiplexer serial number:	ORYXHardware model number:	OX2-SRSoftware version number:	ORYX F/W v4,00 Oryx Data Collector v3.7.2.0data status	okinstallation	B6 Nyhavnadifferential loss correction	single-endedforward channel	channel 2reverse channel	N/Adate	2023/12/10time	20:25:08forward acquisition time	300,00reverse acquisition time	0,00gamma	499,1914k internal	0,3122k external	0,3122temperature offset calibration	1,0000default loss term (dB/km)	0,3820temperature slope calibration	1,0000multiplexer offset coefficient	1,0000multiplexer slope coefficient	1,0000fibre end	0,00T internal ref (°C)	22,27T ext. ref 1 (°C)	5,81T ext. ref 2 (°C)	5,85length (m)	temperature (°C)	Stokes	anti-Stokes-744,400	-200,000	-0,024	-0,159
-743,385	30,760	-0,111	0,070
-742,371	-200,000	-0,038	0,145
-741,356	42,086	-0,191	0,129
-740,342	-188,396	0,115	-0,001
-739,327	-20,104	-0,240	0,110
-738,312	9,075	-0,093	-0,052
-737,298	-172,637	-0,297	0,007
-736,283	-200,000	-0,002	-0,018
-735,269	-92,227	-0,065	-0,013
-734,254	-200,000	-0,001	-0,093
-733,239	-80,995	-0,383	-0,094
-732,225	10,960	0,111	-0,063
-731,210	163,141	-0,059	0,062
-730,196	79,808	0,024	-0,019
-729,181	40,067	0,041	-0,027
-728,167	737,189	0,035	0,071
-727,152	158,424	-0,019	-0,019
-726,137	-200,000	-0,018	-0,070
-725,123	-200,000	-0,011	-0,075
-724,108	243,886	-0,111	-0,139
-723,094	340,696	-0,095	-0,139
-722,079	800,000	-0,027	-0,076
-721,064	-34,964	-0,070	-0,028
-720,050	207,107	-0,058	0,068
-719,035	-107,407	-0,111	-0,018
-718,021	-87,930	-0,095	-0,021
-717,006	800,000	0,056	-0,155
-715,991	39,098	0,014	-0,009
-714,977	122,295	-0,036	-0,033
-713,962	-20,288	-0,031	0,014
-712,948	-134,015	-0,105	-0,010
-711,933	385,179	-0,082	0,126
-710,918	800,000	0,010	0,031
-709,904	800,000	0,030	0,075
-708,889	211,342	-0,052	-0,061
-707,875	98,445	-0,117	-0,101
-706,860	102,484	-0,085	-0,074
-705,845	-200,000	-0,025	-0,084
-704,831	-200,000	0,004	0,029
-703,816	2,822	-0,037	-0,020
-702,802	-145,200	-0,044	0,003
-701,787	35,811	-0,127	-0,083
-700,772	95,465	-0,098	-0,083
-699,758	800,000	0,033	0,070
-698,743	79,953	0,062	-0,049
-697,729	73,768	0,071	-0,055
-696,714	-82,331	-0,136	-0,033
-695,699	791,926	0,007	-0,015
-694,685	-200,000	-0,003	-0,082
-693,670	-200,000	0,025	-0,128
-692,656	-200,000	0,021	0,071
-691,641	800,000	0,054	0,132
-690,627	-18,000	0,117	0,054
-689,612	800,000	0,022	0,048
-688,597	-38,135	0,057	-0,022
-687,583	800,000	-0,018	-0,041
-686,568	-138,188	-0,093	0,008
-685,554	800,000	-0,049	-0,121
-684,539	-132,057	-0,063	-0,006
-683,524	-200,000	-0,002	0,100
-682,510	259,837	-0,026	-0,034
-681,495	800,000	-0,015	-0,047
-680,481	138,316	-0,066	0,065
-679,466	-70,743	0,096	0,027
-678,451	-200,000	0,017	0,000
-677,437	-200,000	0,001	0,123
-676,422	-200,000	0,003	-0,104
-675,408	233,623	-0,090	0,110
-674,393	800,000	-0,024	-0,074
-673,378	-0,103	-0,180	-0,095
-672,364	-200,000	-0,007	-0,028
-671,349	598,593	0,054	-0,100
-670,335	193,091	0,055	0,062
-669,320	-200,000	-0,039	-0,136
-668,305	85,292	0,049	-0,040
-667,291	345,693	-0,035	-0,052
-666,276	-70,830	-0,121	-0,034
-665,262	-199,932	-0,292	-0,001
-664,247	251,631	-0,056	0,071
-663,232	241,206	-0,032	-0,039
-662,218	-200,000	-0,012	-0,060
-661,203	800,000	0,026	0,062
-660,189	579,659	0,023	0,043
-659,174	-83,703	-0,064	0,015
-658,159	-136,093	0,050	0,004
-657,145	565,794	-0,032	0,058
-656,130	342,736	-0,030	0,044
-655,116	238,017	-0,022	-0,027
-654,101	-200,000	0,024	0,155
-653,086	48,190	0,081	0,056
-652,072	-200,000	-0,006	-0,133
-651,057	-96,514	-0,063	-0,012
-650,043	293,963	-0,078	-0,106
-649,028	-189,481	-0,055	0,000
-648,014	-109,698	0,064	0,010
-646,999	110,830	-0,096	0,086
-645,984	-13,128	-0,146	0,070
-644,970	-143,999	-0,141	-0,010
-643,955	-113,174	-0,107	-0,015
-642,941	117,911	-0,078	-0,071
-641,926	-47,556	0,092	0,033
-640,911	88,771	0,129	0,107
-639,897	177,911	-0,102	0,110
-638,882	693,048	-0,019	0,038
-637,868	130,013	0,020	0,019
-636,853	800,000	-0,049	-0,111
-635,838	-56,660	-0,090	0,029
-634,824	737,359	-0,028	0,055
-633,809	113,716	0,096	0,087
-632,795	-27,142	-0,085	0,037
-631,780	385,011	-0,066	0,101
-630,765	7,343	0,137	0,076
-629,751	-33,317	-0,176	-0,072
-628,736	126,529	-0,056	-0,053
-627,722	-28,550	-0,025	-0,011
-626,707	227,397	0,058	-0,070
-625,692	-200,000	0,010	-0,046
-624,678	-142,211	0,071	-0,005
-623,663	-54,007	-0,109	0,037
-622,649	-200,000	-0,011	0,059
-621,634	-200,000	-0,001	0,013
-620,619	-200,000	0,016	0,116
-619,605	-200,000	-0,016	0,102
-618,590	75,902	-0,056	0,044
-617,576	-200,000	-0,002	-0,027
-616,561	159,582	-0,086	-0,088
-615,546	800,000	-0,044	-0,142
-614,532	-135,743	0,015	0,001
-613,517	-200,000	-0,023	-0,124
-612,503	240,707	0,047	-0,058
-611,488	-200,000	0,002	-0,070
-610,474	732,937	0,039	-0,078
-609,459	263,080	0,096	0,125
-608,444	-200,000	-0,015	0,081
-607,430	6,658	-0,094	0,052
-606,415	475,786	-0,048	-0,080
-605,401	99,826	-0,041	0,035
-604,386	-137,752	0,023	-0,002
-603,371	-200,000	-0,005	0,060
-602,357	-28,750	0,129	0,055
-601,342	-0,983	0,094	0,049
-600,328	-114,747	-0,085	-0,012
-599,313	-3,578	0,088	-0,045
-598,298	800,000	-0,007	0,014
-597,284	37,159	-0,079	-0,051
-596,269	66,114	0,109	0,082
-595,255	-17,679	0,082	0,038
-594,240	401,873	-0,091	-0,142
-593,225	800,000	-0,037	0,079
-592,211	800,000	0,034	0,081
-591,196	403,138	-0,043	0,067
-590,182	800,000	-0,026	0,084
-589,167	-70,856	0,042	0,012
-588,152	-102,785	-0,113	0,020
-587,138	220,979	-0,055	-0,065
-586,123	-200,000	-0,037	-0,131
-585,109	-16,133	-0,114	-0,053
-584,094	39,664	-0,044	-0,029
-583,079	-200,000	-0,022	0,133
-582,065	555,860	-0,011	0,020
-581,050	-200,000	0,023	0,160
-580,036	-85,415	0,094	-0,022
-579,021	481,627	-0,077	-0,130
-578,006	-200,000	-0,016	-0,173
-576,992	237,346	-0,025	-0,031
-575,977	127,335	0,132	0,124
-574,963	8,252	0,069	0,038
-573,948	-200,000	-0,018	-0,094
-572,934	-125,936	0,034	0,004
-571,919	-61,824	0,083	0,026
-570,904	212,681	-0,094	0,110
-569,890	800,000	-0,057	0,181
-568,875	-79,225	0,056	0,014
-567,861	800,000	0,031	-0,085
-566,846	159,557	0,010	0,010
-565,831	-127,088	-0,100	-0,011
-564,817	-128,440	-0,042	0,004
-563,802	-200,000	0,022	-0,099
-562,788	-200,000	0,021	0,091
-561,773	-200,000	-0,003	0,106
-560,758	-92,347	-0,079	-0,016
-559,744	449,371	-0,061	0,100
-558,729	800,000	-0,043	0,119
-557,715	-200,000	0,020	-0,107
-556,700	-200,000	-0,010	-0,150
-555,685	800,000	-0,017	-0,043
-554,671	-100,385	0,079	0,014
-553,656	143,309	-0,051	0,050
-552,642	289,763	0,085	-0,115
-551,627	-62,107	-0,068	0,021
-550,612	398,107	0,029	-0,046
-549,598	375,754	0,030	-0,045
-548,583	11,353	-0,166	-0,094
-547,569	800,000	0,001	-0,003
-546,554	-64,188	0,141	0,042
-545,539	800,000	-0,022	0,053
-544,525	56,686	0,016	0,011
-543,510	507,125	-0,079	-0,135
-542,496	395,188	-0,076	-0,118
-541,481	-39,572	0,066	0,025
-540,466	420,751	0,013	-0,021
-539,452	209,277	0,084	0,097
-538,437	-36,457	0,096	-0,038
-537,423	-200,000	-0,003	0,192
-536,408	439,287	-0,061	0,099
-535,393	800,000	0,036	-0,104
-534,379	-77,862	-0,023	0,006
-533,364	-162,823	0,060	-0,002
-532,350	-100,473	0,109	0,020
-531,335	756,687	0,035	0,069
-530,321	642,198	-0,041	-0,077
-529,306	321,607	0,060	-0,085
-528,291	-92,494	-0,226	-0,047
-527,277	-84,622	-0,131	-0,030
-526,262	-181,005	0,098	0,001
-525,248	194,637	-0,027	-0,030
-524,233	-115,856	0,095	-0,013
-523,218	41,471	-0,020	0,014
-522,204	-60,512	0,052	-0,016
-521,189	135,345	0,041	0,040
-520,175	-200,000	0,039	-0,133
-519,160	-28,863	-0,101	-0,043
-518,145	800,000	0,045	0,129
-517,131	136,702	0,150	-0,145
-516,116	-62,526	0,049	0,015
-515,102	-87,623	0,116	-0,026
-514,087	-200,000	0,019	-0,151
-513,072	-200,000	-0,044	-0,172
-512,058	62,470	0,083	0,061
-511,043	-131,348	0,084	-0,008
-510,029	-200,000	-0,026	0,202
-509,014	212,899	0,155	0,181
-507,999	-36,816	0,075	0,029
-506,985	-200,000	0,003	-0,032
-505,970	-67,749	-0,185	-0,053
-504,956	-0,764	0,086	0,045
-503,941	-200,000	0,002	0,075
-502,926	116,137	0,121	0,109
-501,912	81,060	0,061	0,049
-500,897	-125,296	-0,193	0,022
-499,883	440,519	0,018	-0,028
-498,868	165,597	0,054	-0,057
-497,853	-200,000	-0,013	-0,130
-496,839	63,978	0,065	-0,048
-495,824	-145,878	-0,055	-0,004
-494,810	-200,000	-0,004	-0,088
-493,795	-200,000	-0,014	-0,053
-492,781	-102,954	0,013	0,002
-491,766	-7,483	-0,038	0,019
-490,751	800,000	-0,043	-0,104
-489,737	-103,191	0,139	0,024
-488,722	608,458	-0,037	-0,069
-487,708	800,000	-0,047	-0,112
-486,693	178,298	-0,039	0,042
-485,678	800,000	-0,023	-0,069
-484,664	-47,075	-0,026	0,009
-483,649	-200,000	-0,012	-0,077
-482,635	424,339	-0,016	-0,026
-481,620	768,321	0,022	0,045
-480,605	50,970	0,130	-0,091
-479,591	800,000	0,027	-0,081
-478,576	164,168	-0,038	0,039
-477,562	-200,000	0,011	0,049
-476,547	-200,000	0,012	-0,057
-475,532	527,601	-0,049	-0,086
-474,518	360,784	-0,048	-0,072
-473,503	-111,050	-0,118	-0,018
-472,489	800,000	0,036	0,101
-471,474	-24,880	-0,040	0,018
-470,459	-110,413	0,129	0,020
-469,445	-200,000	0,001	-0,056
-468,430	79,180	0,108	-0,085
-467,416	-200,000	-0,005	0,077
-466,401	123,031	0,061	-0,057
-465,386	-17,066	0,057	-0,027
-464,372	-143,843	0,078	-0,005
-463,357	389,771	0,042	-0,064
-462,343	800,000	-0,044	-0,102
-461,328	800,000	0,038	-0,082
-460,313	598,921	-0,054	0,098
-459,299	-25,450	0,105	0,045
-458,284	-200,000	0,007	-0,033
-457,270	32,528	0,097	-0,062
-456,255	-200,000	0,004	-0,079
-455,241	557,994	-0,090	0,160
-454,226	478,445	-0,084	-0,141
-453,211	-41,122	0,021	0,008
-452,197	-79,053	-0,106	-0,026
-451,182	60,728	-0,039	-0,028
-450,168	-38,601	-0,170	-0,066
-449,153	29,742	0,039	-0,024
-448,138	800,000	0,061	-0,177
-447,124	-200,000	0,019	-0,127
-446,109	800,000	0,018	-0,046
-445,095	265,187	0,047	0,060
-444,080	796,729	-0,031	-0,062
-443,065	87,281	-0,034	-0,028
-442,051	-200,000	-0,030	0,187
-441,036	-153,495	-0,122	-0,006
-440,022	800,000	-0,019	0,044
-439,007	398,125	0,049	-0,075
-437,992	-2,424	0,079	-0,041
-436,978	-200,000	-0,035	0,160
-435,963	-200,000	0,007	0,052
-434,949	-200,000	0,000	-0,031
-433,934	307,761	-0,033	-0,045
-432,919	-8,695	0,069	-0,034
-431,905	75,680	0,035	0,027
-430,890	-132,176	0,180	0,017
-429,876	-200,000	-0,019	0,087
-428,861	-73,433	0,082	-0,022
-427,846	316,656	0,047	0,065
-426,832	-91,792	0,106	-0,022
-425,817	45,388	0,031	0,021
-424,803	-49,031	-0,148	-0,052
-423,788	-119,065	0,127	0,016
-422,773	-200,000	0,008	0,131
-421,759	268,102	-0,062	0,081
-420,744	-92,889	0,126	0,026
-419,730	3,648	-0,104	0,056
-418,715	-56,710	-0,119	0,038
-417,701	195,348	-0,084	-0,094
-416,686	282,332	-0,038	-0,050
-415,671	274,575	0,033	0,043
-414,657	42,310	0,064	-0,042
-413,642	-4,820	0,052	-0,026
-412,628	92,924	0,074	0,062
-411,613	800,000	0,028	-0,066
-410,598	63,699	-0,081	-0,060
-409,584	755,808	-0,023	0,046
-408,569	123,290	0,091	0,084
-407,555	43,880	-0,069	-0,046
-406,540	-200,000	0,028	0,131
-405,525	-110,304	-0,076	0,012
-404,511	551,524	-0,034	-0,061
-403,496	-200,000	-0,004	0,013
-402,482	205,816	-0,059	0,067
-401,467	-25,399	0,099	0,043
-400,452	-14,611	0,042	-0,020
-399,438	-128,455	0,038	0,004
-398,423	800,000	-0,012	0,035
-397,409	-63,452	-0,068	-0,020
-396,394	800,000	-0,029	-0,069
-395,379	12,384	-0,072	-0,041
-394,365	800,000	0,030	-0,069
-393,350	779,472	-0,021	0,042
-392,336	-69,322	-0,049	-0,014
-391,321	92,147	-0,055	-0,045
-390,306	-93,914	-0,175	-0,035
-389,292	-200,000	0,038	0,125
-388,277	-200,000	0,011	0,070
-387,263	-141,183	0,038	-0,003
-386,248	146,849	0,060	0,060
-385,233	273,794	0,073	0,095
-384,219	378,393	0,071	0,107
-383,204	661,629	-0,039	0,074
-382,190	242,930	-0,012	0,015
-381,175	-200,000	0,013	-0,083
-380,160	371,901	0,006	0,009
-379,146	-200,000	-0,012	-0,092
-378,131	13,966	-0,016	0,009
-377,117	-200,000	-0,032	-0,142
-376,102	136,532	0,104	0,100
-375,088	300,086	0,052	0,071
-374,073	642,055	0,036	-0,067
-373,058	-200,000	0,008	-0,101
-372,044	29,835	-0,092	-0,057
-371,029	33,820	0,079	-0,051
-370,015	-200,000	0,026	0,119
-369,000	-26,131	0,056	-0,024
-367,985	-200,000	0,012	-0,057
-366,971	-200,000	0,024	-0,096
-365,956	-23,809	-0,085	-0,037
-364,942	149,228	-0,115	-0,114
-363,927	-55,684	0,074	0,024
-362,912	39,057	0,045	0,030
-361,898	800,000	0,003	0,008
-360,883	155,751	-0,039	-0,039
-359,869	-78,395	-0,151	-0,038
-358,854	-30,969	0,115	0,048
-357,839	-115,580	-0,048	0,006
-356,825	149,988	0,086	0,086
-355,810	537,120	0,023	0,041
-354,796	-200,000	0,003	0,073
-353,781	-200,000	-0,013	-0,053
-352,766	31,245	-0,065	-0,041
-351,752	345,338	-0,019	0,028
-350,737	-200,000	-0,005	0,123
-349,723	800,000	0,029	-0,072
-348,708	-12,027	0,066	0,032
-347,693	-200,000	-0,022	-0,111
-346,679	72,403	0,138	-0,106
-345,664	185,112	-0,018	0,020
-344,650	800,000	0,051	0,120
-343,635	800,000	-0,042	-0,095
-342,620	255,610	0,051	0,064
-341,606	-200,000	-0,006	-0,043
-340,591	315,398	0,040	-0,056
-339,577	144,150	-0,037	-0,036
-338,562	363,107	-0,063	-0,093
-337,548	165,451	-0,021	0,022
-336,533	-70,174	0,053	-0,015
-335,518	-200,000	-0,009	0,120
-334,504	-66,061	0,090	-0,026
-333,489	-147,490	0,075	0,005
-332,475	111,556	-0,102	-0,090
-331,460	143,045	0,125	-0,122
-330,445	-125,660	-0,168	0,018
-329,431	800,000	0,022	0,047
-328,416	-32,221	0,064	0,026
-327,402	-200,000	-0,006	0,104
-326,387	-57,507	-0,070	-0,022
-325,372	-12,617	0,107	0,051
-324,358	58,525	-0,152	0,109
-323,343	-75,928	0,037	0,009
-322,329	800,000	-0,023	-0,064
-321,314	-55,897	0,117	-0,038
-320,299	-43,803	-0,032	0,012
-319,285	409,812	0,039	0,061
-318,270	-200,000	0,003	-0,046
-317,256	800,000	0,010	0,027
-316,241	183,365	0,066	-0,072
-315,226	307,474	0,076	0,105
-314,212	55,765	0,100	0,071
-313,197	800,000	0,022	0,048
-312,183	-200,000	-0,020	0,115
-311,168	-21,935	-0,028	-0,012
-310,153	-2,665	-0,122	-0,062
-309,139	588,168	0,047	-0,084
-308,124	-200,000	0,036	0,156
-307,110	581,241	-0,111	0,200
-306,095	-200,000	0,016	0,089
-305,080	-18,829	0,057	-0,026
-304,066	800,000	0,036	0,089
-303,051	-143,498	0,064	-0,004
-302,037	-200,000	-0,009	0,038
-301,022	800,000	0,044	0,130
-300,008	-200,000	-0,024	0,164
-298,993	137,348	0,079	0,076
-297,978	-200,000	-0,022	0,129
-296,964	800,000	0,020	-0,058
-295,949	492,045	0,037	-0,062
-294,935	-200,000	0,018	0,079
-293,920	371,107	-0,022	-0,033
-292,905	-200,000	0,032	0,165
-291,891	-200,000	-0,006	0,024
-290,876	-200,000	0,021	-0,132
-289,862	-200,000	-0,000	0,005
-288,847	164,482	-0,056	0,058
-287,832	193,620	-0,095	0,106
-286,818	800,000	0,046	0,111
-285,803	225,039	0,059	-0,070
-284,789	-200,000	-0,004	-0,030
-283,774	-154,837	-0,098	0,005
-282,759	-128,547	-0,039	0,004
-281,745	428,431	0,028	-0,045
-280,730	76,369	0,018	-0,014
-279,716	-97,289	-0,131	0,025
-278,701	-30,534	0,088	0,036
-277,686	125,525	-0,092	-0,085
-276,672	144,655	0,021	0,020
-275,657	-7,484	-0,022	0,011
-274,643	753,510	0,058	-0,116
-273,628	198,810	0,029	-0,032
-272,613	344,605	-0,046	-0,066
-271,599	800,000	-0,024	0,077
-270,584	-108,137	-0,129	0,020
-269,570	627,398	0,047	0,087
-268,555	-26,075	-0,086	0,037
-267,540	-111,731	0,061	-0,009
-266,526	342,945	-0,093	-0,134
-265,511	-32,793	0,064	0,026
-264,497	-54,236	0,070	-0,023
-263,482	-166,942	0,087	-0,003
-262,467	-78,475	0,060	-0,015
-261,453	-200,000	-0,003	0,112
-260,438	800,000	0,029	0,070
-259,424	514,087	0,038	-0,065
-258,409	-200,000	0,012	-0,130
-257,395	7,306	0,054	-0,029
-256,380	711,712	-0,057	-0,111
-255,365	1,373	-0,055	0,029
-254,351	-200,000	-0,028	0,102
-253,336	129,993	-0,106	-0,099
-252,322	800,000	-0,066	-0,167
-251,307	-196,384	0,051	0,000
-250,292	800,000	-0,035	-0,085
-249,278	31,194	0,146	0,091
-248,263	-200,000	0,008	-0,025
-247,249	-58,745	-0,058	0,018
-246,234	402,735	0,013	-0,020
-245,219	800,000	-0,056	-0,115
-244,205	50,638	-0,093	-0,064
-243,190	11,270	-0,128	-0,072
-242,176	-155,854	0,184	-0,008
-241,161	800,000	-0,010	-0,027
-240,146	-200,000	0,032	0,190
-239,132	-200,000	0,001	-0,010
-238,117	273,569	-0,144	-0,187
-237,103	-200,000	0,006	-0,085
-236,088	800,000	-0,024	-0,057
-235,073	-200,000	-0,030	-0,135
-234,059	201,015	0,052	-0,058
-233,044	-200,000	-0,017	-0,086
-232,030	800,000	0,039	0,095
-231,015	385,895	0,028	0,043
-230,000	-130,736	-0,078	0,008
-228,986	-188,081	0,027	0,000
-227,971	95,460	0,172	-0,143
-226,957	91,101	-0,048	0,039
-225,942	-79,407	-0,100	-0,025
-224,927	50,324	0,041	0,028
-223,913	-17,668	0,132	0,060
-222,898	40,171	-0,018	0,011
-221,884	70,496	-0,128	0,097
-220,869	235,280	0,087	0,105
-219,855	100,459	-0,051	0,043
-218,840	-200,000	-0,016	0,094
-217,825	95,313	-0,028	-0,023
-216,811	777,263	-0,044	0,087
-215,796	-77,474	-0,045	-0,011
-214,782	39,960	0,103	0,068
-213,767	-172,629	0,121	0,003
-212,752	-64,780	0,149	0,044
-211,738	45,126	-0,068	-0,046
-210,723	15,943	0,144	-0,083
-209,709	304,540	-0,066	-0,089
-208,694	-158,550	-0,091	-0,004
-207,679	-200,000	0,005	-0,066
-206,665	-125,205	-0,042	0,005
-205,650	0,495	0,039	-0,020
-204,636	-43,848	0,035	0,013
-203,621	-200,000	-0,001	0,082
-202,606	2,556	-0,080	0,042
-201,592	-200,000	0,000	-0,236
-200,577	-173,260	-0,177	-0,004
-199,563	150,340	-0,102	-0,101
-198,548	687,012	-0,014	-0,026
-197,533	-42,872	-0,072	0,026
-196,519	-200,000	-0,002	0,131
-195,504	-128,114	-0,143	-0,015
-194,490	-36,977	-0,088	-0,034
-193,475	21,517	0,042	-0,025
-192,460	-8,678	0,029	-0,014
-191,446	69,017	-0,086	-0,065
-190,431	228,328	0,039	0,047
-189,417	280,853	-0,063	0,083
-188,402	166,896	-0,121	-0,126
-187,387	237,743	-0,045	0,054
-186,373	231,530	-0,067	0,080
-185,358	-51,587	-0,019	0,006
-184,344	800,000	0,008	-0,021
-183,329	388,584	0,039	0,059
-182,315	389,173	-0,076	0,116
-181,300	-47,776	0,111	-0,039
-180,285	436,768	0,025	-0,040
-179,271	-127,690	0,101	0,010
-178,256	27,105	-0,127	0,078
-177,242	-2,318	-0,042	0,021
-176,227	179,438	-0,043	-0,046
-175,212	-1,138	0,103	-0,053
-174,198	126,804	-0,041	0,038
-173,183	-93,692	0,074	-0,015
-172,169	261,189	0,060	-0,076
-171,154	-200,000	-0,001	0,060
-170,139	65,734	0,118	0,087
-169,125	794,574	0,043	0,086
-168,110	-33,078	0,077	0,031
-167,096	-130,861	-0,097	0,009
-166,081	-15,269	0,083	-0,039
-165,066	-120,378	-0,100	0,012
-164,052	-200,000	0,011	-0,099
-163,037	-200,000	-0,026	0,093
-162,023	-74,418	0,076	-0,020
-161,008	800,000	-0,020	-0,051
-159,993	-126,208	-0,083	0,009
-158,979	715,801	0,035	-0,068
-157,964	177,501	-0,019	0,020
-156,950	96,131	0,080	-0,066
-155,935	172,448	0,025	0,026
-154,920	260,640	0,043	0,054
-153,906	-200,000	0,003	0,012
-152,891	-200,000	0,012	0,106
-151,877	330,377	0,070	0,099
-150,862	-147,777	-0,153	-0,009
-149,847	-104,295	-0,103	0,017
-148,833	800,000	-0,027	-0,065
-147,818	-37,243	0,035	-0,014
-146,804	-51,514	0,142	0,048
-145,789	-56,905	-0,066	-0,021
-144,775	800,000	0,038	-0,078
-143,760	-200,000	0,005	-0,041
-142,745	76,728	-0,073	-0,057
-141,731	-31,811	0,019	-0,008
-140,716	-62,699	0,079	0,024
-139,702	219,810	-0,047	-0,055
-138,687	227,867	-0,088	-0,105
-137,672	301,055	0,026	-0,035
-136,658	111,757	-0,017	0,015
-135,643	104,490	-0,095	0,082
-134,629	800,000	-0,052	0,143
-133,614	-69,920	-0,160	0,044
-132,599	534,520	0,053	0,091
-131,585	-200,000	-0,010	-0,144
-130,570	-200,000	-0,002	-0,080
-129,556	-91,858	0,184	0,038
-128,541	504,714	-0,067	-0,113
-127,526	-200,000	0,001	0,061
-126,512	800,000	-0,029	0,066
-125,497	-200,000	0,028	-0,159
-124,483	86,441	-0,090	0,072
-123,468	-200,000	-0,001	-0,115
-122,453	-83,526	-0,090	0,021
-121,439	320,689	-0,070	0,097
-120,424	800,000	-0,019	0,058
-119,410	445,221	0,037	-0,060
