DTS Sentinel unit serial number:	SN410029Multiplexer serial number:	ORYXHardware model number:	OX2-SRSoftware version number:	ORYX F/W v4,00 Oryx Data Collector v3.7.2.0data status	okinstallation	B6 Nyhavnadifferential loss correction	single-endedforward channel	channel 2reverse channel	N/Adate	2023/12/09time	18:40:08forward acquisition time	300,00reverse acquisition time	0,00gamma	499,1914k internal	0,3130k external	0,3130temperature offset calibration	1,0000default loss term (dB/km)	0,3820temperature slope calibration	1,0000multiplexer offset coefficient	1,0000multiplexer slope coefficient	1,0000fibre end	0,00T internal ref (°C)	21,06T ext. ref 1 (°C)	4,71T ext. ref 2 (°C)	4,71length (m)	temperature (°C)	Stokes	anti-Stokes-744,400	-158,285	0,085	0,004
-743,385	77,096	-0,230	0,182
-742,371	-134,313	0,077	0,007
-741,356	-84,900	-0,155	-0,036
-740,342	-114,239	0,105	0,015
-739,327	-10,787	-0,127	0,062
-738,312	371,579	0,023	0,034
-737,298	-144,344	-0,305	0,021
-736,283	-142,213	0,065	-0,005
-735,269	-168,851	-0,287	-0,008
-734,254	-200,000	0,031	0,124
-733,239	-61,317	-0,449	-0,140
-732,225	464,116	0,064	0,107
-731,210	-200,000	0,014	0,045
-730,196	1,325	0,146	-0,078
-729,181	-94,675	-0,125	0,025
-728,167	-72,600	0,062	0,017
-727,152	372,887	0,051	-0,078
-726,137	-200,000	-0,007	0,057
-725,123	-196,597	-0,200	-0,001
-724,108	-200,000	-0,025	-0,095
-723,094	800,000	-0,011	-0,027
-722,079	800,000	0,008	-0,016
-721,064	-86,883	-0,083	-0,019
-720,050	-200,000	0,009	-0,088
-719,035	-164,928	0,093	-0,003
-718,021	-13,149	-0,105	0,050
-717,006	133,844	-0,067	-0,064
-715,991	800,000	-0,014	0,036
-714,977	800,000	-0,042	-0,112
-713,962	-147,811	-0,045	0,003
-712,948	58,854	0,053	0,039
-711,933	-200,000	-0,021	-0,068
-710,918	512,203	-0,008	-0,015
-709,904	-2,784	-0,092	-0,048
-708,889	800,000	0,020	-0,062
-707,875	800,000	-0,042	-0,125
-706,860	545,477	-0,012	-0,021
-705,845	-200,000	0,018	0,060
-704,831	-157,477	-0,074	-0,003
-703,816	-200,000	-0,018	0,254
-702,802	33,906	-0,060	-0,039
-701,787	800,000	-0,023	0,066
-700,772	19,088	-0,044	-0,026
-699,758	437,855	-0,037	0,059
-698,743	-56,148	-0,045	0,015
-697,729	52,675	0,059	0,042
-696,714	800,000	0,035	0,075
-695,699	-43,606	-0,158	0,059
-694,685	5,700	-0,059	0,033
-693,670	-200,000	0,003	-0,046
-692,656	302,482	-0,039	-0,054
-691,641	-36,626	-0,075	0,030
-690,627	174,163	0,143	0,153
-689,612	-89,194	-0,031	0,007
-688,597	-200,000	0,011	-0,056
-687,583	8,450	-0,149	0,083
-686,568	634,200	-0,115	-0,217
-685,554	-200,000	0,034	-0,175
-684,539	-43,242	-0,041	0,015
-683,524	25,313	0,121	-0,074
-682,510	2,004	-0,128	-0,069
-681,495	135,118	0,039	-0,037
-680,481	-200,000	0,001	-0,034
-679,466	4,650	-0,081	-0,044
-678,451	68,936	-0,062	-0,047
-677,437	-162,919	-0,099	-0,004
-676,422	800,000	0,010	0,032
-675,408	800,000	-0,042	0,132
-674,393	254,709	0,048	-0,061
-673,378	186,974	-0,024	-0,026
-672,364	-131,874	-0,257	-0,025
-671,349	-143,028	0,095	-0,007
-670,335	-10,589	0,033	0,016
-669,320	-9,202	-0,162	0,080
-668,305	413,056	-0,036	-0,057
-667,291	-73,612	0,052	0,014
-666,276	199,607	0,049	-0,056
-665,262	-200,000	-0,008	-0,073
-664,247	-76,444	-0,063	-0,016
-663,232	53,886	-0,025	0,018
-662,218	9,600	0,052	0,029
-661,203	800,000	-0,020	0,061
-660,189	6,106	-0,172	-0,094
-659,174	-144,862	-0,082	-0,005
-658,159	557,742	-0,061	-0,110
-657,145	295,547	-0,074	-0,100
-656,130	-144,985	0,068	-0,005
-655,116	-200,000	0,023	-0,095
-654,101	620,050	-0,020	0,037
-653,086	14,247	-0,063	0,036
-652,072	626,634	-0,026	-0,050
-651,057	279,990	0,022	0,029
-650,043	-90,183	-0,200	-0,043
-649,028	-200,000	-0,003	0,122
-648,014	-120,842	0,180	0,022
-646,999	-140,046	0,114	-0,009
-645,984	-94,202	-0,108	0,022
-644,970	189,720	-0,040	0,044
-643,955	-200,000	-0,002	-0,008
-642,941	-94,533	-0,086	0,017
-641,926	-200,000	-0,036	-0,147
-640,911	-112,485	0,039	0,006
-639,897	357,723	-0,014	0,021
-638,882	30,568	0,013	-0,008
-637,868	-200,000	-0,084	-0,276
-636,853	-200,000	-0,082	-0,271
-635,838	800,000	0,047	-0,133
-634,824	800,000	-0,040	-0,093
-633,809	800,000	0,043	0,112
-632,795	161,957	0,038	0,039
-631,780	-125,077	0,137	-0,015
-630,765	800,000	-0,049	0,117
-629,751	-141,533	-0,016	0,001
-628,736	-200,000	-0,005	0,094
-627,722	3,639	-0,100	-0,054
-626,707	-33,194	0,052	-0,021
-625,692	23,597	-0,196	0,119
-624,678	405,041	0,052	0,082
-623,663	42,451	-0,081	-0,055
-622,649	-5,548	-0,072	-0,036
-621,634	-200,000	-0,001	-0,048
-620,619	164,439	0,069	-0,072
-619,605	-86,356	-0,108	-0,024
-618,590	141,744	0,021	-0,021
-617,576	-117,676	0,081	-0,011
-616,561	-62,604	-0,081	0,025
-615,546	800,000	-0,027	-0,057
-614,532	329,989	0,096	-0,137
-613,517	12,759	0,073	-0,041
-612,503	-200,000	-0,008	0,144
-611,488	274,907	0,053	0,070
-610,474	758,047	0,043	0,087
-609,459	50,704	-0,107	-0,075
-608,444	-178,793	-0,154	-0,003
-607,430	18,855	-0,092	-0,055
-606,415	278,246	-0,082	-0,108
-605,401	-200,000	0,013	0,151
-604,386	-200,000	-0,005	0,019
-603,371	-200,000	0,006	0,130
-602,357	-172,438	0,068	-0,002
-601,342	430,817	-0,072	0,115
-600,328	137,583	-0,036	-0,035
-599,313	463,331	0,020	-0,034
-598,298	87,254	0,080	-0,065
-597,284	473,564	-0,106	-0,177
-596,269	-200,000	-0,009	0,065
-595,255	48,286	0,093	0,064
-594,240	332,086	-0,070	-0,101
-593,225	-200,000	0,002	0,163
-592,211	178,437	0,071	-0,077
-591,196	427,358	-0,017	-0,028
-590,182	537,316	-0,068	0,119
-589,167	800,000	-0,019	0,056
-588,152	106,695	0,051	0,044
-587,138	-200,000	-0,004	0,073
-586,123	-90,796	-0,059	0,012
-585,109	-51,461	-0,074	-0,025
-584,094	800,000	-0,054	-0,125
-583,079	-200,000	0,020	0,098
-582,065	-200,000	-0,045	0,182
-581,050	334,786	-0,048	0,069
-580,036	-200,000	0,016	0,117
-579,021	800,000	-0,012	0,036
-578,006	-155,208	-0,149	0,007
-576,992	509,674	-0,056	-0,096
-575,977	152,988	0,120	-0,121
-574,963	800,000	-0,041	-0,091
-573,948	91,922	0,080	-0,067
-572,934	800,000	0,064	-0,159
-571,919	-41,110	0,070	-0,027
-570,904	-200,000	0,008	0,037
-569,890	-127,518	-0,018	-0,002
-568,875	-4,926	-0,065	-0,033
-567,861	-33,637	-0,040	-0,016
-566,846	800,000	0,014	-0,047
-565,831	-200,000	-0,010	0,036
-564,817	-200,000	-0,017	-0,072
-563,802	-200,000	0,019	-0,148
-562,788	800,000	-0,030	-0,063
-561,773	-193,649	0,116	0,001
-560,758	800,000	-0,051	0,114
-559,744	-156,040	0,041	-0,002
-558,729	-22,023	0,074	0,033
-557,715	83,173	0,009	0,007
-556,700	92,316	-0,090	-0,075
-555,685	88,115	-0,084	-0,069
-554,671	-200,000	0,000	0,038
-553,656	-142,114	-0,111	-0,008
-552,642	287,755	0,029	0,039
-551,627	-178,931	0,023	-0,000
-550,612	172,204	-0,115	0,123
-549,598	38,298	-0,045	0,030
-548,583	197,263	0,019	0,021
-547,569	311,671	-0,061	-0,084
-546,554	-8,852	0,167	-0,082
-545,539	-24,608	-0,108	0,047
-544,525	528,615	0,039	-0,069
-543,510	-200,000	0,017	-0,100
-542,496	102,602	-0,050	-0,043
-541,481	-200,000	0,025	-0,086
-540,466	36,846	-0,091	-0,059
-539,452	800,000	0,017	0,052
-538,437	800,000	-0,008	0,022
-537,423	-121,990	0,090	-0,011
-536,408	800,000	-0,033	-0,085
-535,393	141,851	-0,037	-0,036
-534,379	165,299	0,023	0,024
-533,364	-94,899	-0,102	-0,020
-532,350	74,282	0,084	0,065
-531,335	-138,633	0,104	0,008
-530,321	250,126	-0,066	0,083
-529,306	160,908	-0,096	0,099
-528,291	-200,000	0,051	-0,174
-527,277	800,000	0,047	-0,145
-526,262	800,000	-0,040	0,111
-525,248	-78,293	0,066	0,017
-524,233	-22,265	0,091	0,041
-523,218	-200,000	-0,016	-0,072
-522,204	800,000	-0,048	-0,121
-521,189	75,928	-0,056	-0,044
-520,175	42,664	-0,119	-0,079
-519,160	444,401	0,019	0,031
-518,145	-200,000	0,139	0,000
-517,131	-200,000	0,008	-0,070
-516,116	161,007	-0,010	0,010
-515,102	758,389	-0,032	0,063
-514,087	-200,000	0,016	-0,108
-513,072	-59,174	-0,050	-0,016
-512,058	-23,297	-0,090	0,040
-511,043	335,206	-0,020	0,028
-510,029	800,000	0,055	0,133
-509,014	-1,357	-0,029	-0,015
-507,999	-200,000	0,002	0,121
-506,985	293,225	-0,080	-0,107
-505,970	658,076	0,066	-0,125
-504,956	-200,000	0,021	-0,071
-503,941	800,000	0,015	-0,036
-502,926	-36,557	-0,035	0,014
-501,912	-31,548	0,172	0,071
-500,897	-120,613	-0,026	-0,003
-499,883	-25,837	0,048	-0,021
-498,868	-10,741	-0,147	-0,072
-497,853	-24,792	0,064	0,028
-496,839	198,972	0,057	0,064
-495,824	-200,000	-0,009	-0,051
-494,810	-19,692	0,105	-0,048
-493,795	-200,000	0,000	-0,062
-492,781	-200,000	-0,034	-0,155
-491,766	-7,587	-0,119	0,059
-490,751	432,109	0,054	-0,087
-489,737	88,909	0,024	0,020
-488,722	-61,969	-0,096	-0,029
-487,708	67,321	0,070	0,053
-486,693	671,218	-0,021	0,040
-485,678	800,000	-0,003	-0,009
-484,664	237,113	0,062	0,076
-483,649	-26,884	-0,095	0,041
-482,635	-200,000	-0,013	-0,173
-481,620	42,622	0,027	0,018
-480,605	-94,959	0,072	-0,014
-479,591	-88,827	0,032	0,007
-478,576	565,018	-0,003	0,006
-477,562	-16,494	0,048	0,022
-476,547	447,398	-0,060	-0,098
-475,532	96,535	0,059	-0,049
-474,518	800,000	0,036	0,084
-473,503	800,000	-0,041	0,091
-472,489	-200,000	0,018	0,078
-471,474	303,813	0,059	-0,081
-470,459	-24,697	0,049	0,021
-469,445	-154,218	0,062	-0,003
-468,430	68,906	-0,077	-0,058
-467,416	79,694	-0,114	-0,090
-466,401	-41,170	0,097	-0,037
-465,386	158,856	0,110	0,113
-464,372	-200,000	0,022	-0,082
-463,357	-72,092	-0,066	0,018
-462,343	-96,632	-0,159	-0,031
-461,328	-132,790	0,052	-0,005
-460,313	248,349	0,040	0,049
-459,299	-73,194	0,034	-0,009
-458,284	593,149	-0,067	0,122
-457,270	-60,437	-0,060	0,019
-456,255	-200,000	0,012	-0,113
-455,241	123,653	-0,046	0,043
-454,226	-200,000	-0,017	-0,082
-453,211	303,405	0,028	0,038
-452,197	62,838	-0,054	0,040
-451,182	185,581	0,071	0,077
-450,168	-200,000	-0,035	0,138
-449,153	800,000	0,034	-0,073
-448,138	-125,425	-0,067	-0,007
-447,124	367,575	0,058	-0,086
-446,109	194,590	0,053	0,059
-445,095	216,830	0,154	0,181
-444,080	265,570	0,036	-0,046
-443,065	-84,156	0,119	0,028
-442,051	-113,884	-0,084	-0,012
-441,036	-200,000	-0,008	0,058
-440,022	-200,000	-0,006	-0,071
-439,007	-119,305	-0,057	0,007
-437,992	263,122	0,066	-0,084
-436,978	9,748	0,052	-0,029
-435,963	106,784	-0,007	-0,006
-434,949	-200,000	-0,030	0,103
-433,934	-200,000	0,019	-0,065
-432,919	800,000	-0,012	-0,030
-431,905	101,752	-0,018	0,015
-430,890	215,950	0,108	0,126
-429,876	151,583	0,105	0,105
-428,861	83,315	0,084	0,067
-427,846	800,000	0,026	0,065
-426,832	800,000	-0,008	0,017
-425,817	800,000	-0,079	-0,170
-424,803	-68,398	0,075	-0,021
-423,788	-117,066	0,120	0,016
-422,773	63,643	-0,119	-0,088
-421,759	80,789	0,180	0,143
-420,744	-27,451	-0,060	0,025
-419,730	800,000	-0,021	-0,061
-418,715	-54,725	0,082	-0,027
-417,701	-200,000	-0,011	0,091
-416,686	-200,000	0,002	0,018
-415,671	-95,340	0,062	0,012
-414,657	800,000	0,010	0,032
-413,642	-200,000	0,003	0,071
-412,628	212,779	-0,042	0,048
-411,613	-200,000	-0,019	-0,145
-410,598	-147,494	0,071	0,004
-409,584	543,237	-0,050	0,088
-408,569	-41,128	-0,019	0,007
-407,555	-45,494	0,044	0,016
-406,540	561,809	-0,030	0,053
-405,525	800,000	-0,029	-0,079
-404,511	-98,096	-0,032	0,006
-403,496	800,000	-0,025	-0,054
-402,482	504,280	0,021	-0,035
-401,467	532,803	0,031	0,054
-400,452	-200,000	-0,007	0,222
-399,438	-200,000	-0,038	0,177
-398,423	184,415	0,058	-0,063
-397,409	129,668	-0,058	0,055
-396,394	786,996	0,058	-0,118
-395,379	164,657	0,046	-0,048
-394,365	325,367	-0,033	0,047
-393,350	-200,000	-0,001	0,046
-392,336	-152,529	0,058	-0,003
-391,321	-38,521	0,105	0,040
-390,306	397,038	-0,079	-0,121
-389,292	800,000	0,029	0,093
-388,277	578,866	0,057	-0,103
-387,263	499,480	0,088	0,150
-386,248	800,000	0,051	0,119
-385,233	-80,874	0,079	0,019
-384,219	-200,000	0,026	-0,083
-383,204	-136,895	-0,124	0,010
-382,190	800,000	-0,005	-0,013
-381,175	20,003	-0,087	0,051
-380,160	16,161	-0,088	0,051
-379,146	334,817	0,065	-0,093
-378,131	1,537	0,102	-0,054
-377,117	18,945	-0,053	-0,031
-376,102	175,257	0,099	-0,105
-375,088	-200,000	0,023	-0,172
-374,073	-200,000	0,002	-0,173
-373,058	151,175	0,038	-0,038
-372,044	397,562	0,059	0,090
-371,029	-105,731	0,112	0,018
-370,015	800,000	0,019	-0,044
-369,000	-200,000	0,000	-0,006
-367,985	-139,887	-0,170	0,013
-366,971	-113,260	0,075	0,011
-365,956	79,032	0,080	0,063
-364,942	-31,276	0,080	-0,033
-363,927	354,661	0,029	0,043
-362,912	800,000	-0,019	0,050
-361,898	47,797	0,084	-0,058
-360,883	-200,000	0,029	-0,175
-359,869	408,544	-0,021	-0,032
-358,854	48,682	-0,041	0,028
-357,839	-86,880	0,166	0,037
-356,825	-200,000	0,045	0,177
-355,810	-200,000	0,026	0,144
-354,796	-200,000	-0,007	-0,088
-353,781	41,529	0,074	-0,049
-352,766	-200,000	0,005	-0,102
-351,752	-53,837	0,043	0,014
-350,737	60,942	-0,040	-0,029
-349,723	798,711	-0,064	0,129
-348,708	660,158	-0,013	0,026
-347,693	-4,252	-0,163	-0,082
-346,679	-200,000	-0,014	-0,068
-345,664	198,341	-0,086	-0,096
-344,650	-153,748	0,084	-0,004
-343,635	-173,962	-0,076	-0,002
-342,620	64,252	-0,021	0,015
-341,606	-85,635	0,049	-0,011
-340,591	800,000	-0,042	0,133
-339,577	11,672	-0,087	-0,049
-338,562	-200,000	0,014	-0,062
-337,548	-200,000	0,031	0,162
-336,533	572,042	0,030	0,054
-335,518	97,524	0,051	0,043
-334,504	-200,000	0,018	0,119
-333,489	105,011	-0,081	-0,070
-332,475	800,000	-0,045	0,127
-331,460	100,856	-0,064	-0,054
-330,445	-184,559	0,126	-0,001
-329,431	-123,884	0,028	0,003
-328,416	-200,000	0,009	0,066
-327,402	3,902	0,062	-0,033
-326,387	800,000	0,067	-0,141
-325,372	-200,000	0,006	-0,075
-324,358	-200,000	-0,007	0,034
-323,343	-190,875	-0,086	-0,001
-322,329	800,000	-0,046	-0,097
-321,314	83,815	0,071	-0,057
-320,299	-200,000	-0,013	0,079
-319,285	-135,744	0,006	-0,001
-318,270	-29,111	0,064	0,027
-317,256	-200,000	0,024	0,095
-316,241	-77,906	0,100	-0,025
-315,226	-164,212	-0,075	0,002
-314,212	54,435	0,075	-0,053
-313,197	-127,623	-0,018	0,002
-312,183	-200,000	0,028	-0,133
-311,168	1,680	-0,105	0,055
-310,153	-200,000	0,005	-0,029
-309,139	-200,000	0,004	0,033
-308,124	-200,000	-0,030	0,108
-307,110	-104,542	-0,082	-0,014
-306,095	800,000	-0,078	0,192
-305,080	275,294	0,041	-0,054
-304,066	-62,927	-0,052	0,015
-303,051	354,567	0,068	0,100
-302,037	105,632	-0,131	0,113
-301,022	63,529	0,098	0,072
-300,008	75,645	-0,035	0,027
-298,993	-200,000	0,035	0,113
-297,978	-42,397	-0,150	-0,056
-296,964	-200,000	0,039	-0,210
-295,949	-21,104	-0,036	-0,016
-294,935	-34,255	-0,145	-0,058
-293,920	-46,012	0,051	-0,018
-292,905	-27,829	0,015	-0,006
-291,891	472,483	0,039	0,064
-290,876	285,222	-0,049	0,065
-289,862	800,000	0,078	0,186
-288,847	189,573	-0,005	-0,006
-287,832	-22,301	-0,115	-0,051
-286,818	148,383	-0,119	-0,118
-285,803	-200,000	-0,010	0,035
-284,789	-200,000	0,005	0,089
-283,774	226,661	0,032	0,038
-282,759	289,960	-0,062	-0,082
-281,745	-125,241	0,051	0,006
-280,730	-3,082	-0,086	-0,044
-279,716	105,331	0,044	0,038
-278,701	551,151	-0,026	0,045
-277,686	755,143	0,061	-0,121
-276,672	-200,000	0,020	-0,079
-275,657	-200,000	0,031	0,099
-274,643	162,316	0,080	-0,082
-273,628	651,679	-0,060	0,113
-272,613	29,789	-0,074	0,046
-271,599	695,775	0,099	-0,190
-270,584	-148,438	0,048	0,003
-269,570	-200,000	0,001	0,045
-268,555	-85,460	-0,105	0,024
-267,540	208,326	-0,017	-0,019
-266,526	-188,618	-0,073	-0,001
-265,511	-66,565	0,117	0,034
-264,497	-157,800	0,117	-0,005
-263,482	436,907	0,052	-0,083
-262,467	800,000	-0,012	0,031
-261,453	-119,597	0,038	-0,005
-260,438	644,611	-0,031	-0,059
-259,424	-61,129	-0,121	0,037
-258,409	-101,531	0,098	0,017
-257,395	39,634	-0,078	0,051
-256,380	90,677	0,047	-0,038
-255,365	182,809	0,086	-0,093
-254,351	32,649	-0,030	0,019
-253,336	723,932	-0,085	0,166
-252,322	-200,000	0,035	-0,150
-251,307	152,103	-0,091	-0,090
-250,292	-53,472	-0,174	-0,058
-249,278	-147,950	0,082	0,005
-248,263	235,395	0,040	0,049
-247,249	33,405	-0,055	0,035
-246,234	301,295	-0,056	-0,075
-245,219	67,989	-0,130	-0,097
-244,205	79,838	-0,011	-0,008
-243,190	-127,757	-0,114	0,012
-242,176	152,007	0,153	0,153
-241,161	-76,014	0,023	0,006
-240,146	-200,000	0,014	0,053
-239,132	-27,925	-0,078	0,033
-238,117	-2,768	0,047	-0,024
-237,103	800,000	-0,034	0,081
-236,088	50,889	-0,094	0,065
-235,073	-200,000	0,003	0,111
-234,059	-200,000	0,031	0,136
-233,044	-200,000	0,013	0,132
-232,030	552,248	0,057	0,100
-231,015	-15,188	-0,050	0,023
-230,000	-118,745	0,012	-0,002
-228,986	224,257	-0,060	-0,071
-227,971	-9,489	0,119	-0,058
-226,957	-200,000	-0,007	0,047
-225,942	-80,052	-0,142	0,034
-224,927	-87,014	0,055	-0,012
-223,913	361,439	-0,036	-0,052
-222,898	-88,161	-0,114	0,025
-221,884	-56,182	-0,125	0,040
-220,869	-200,000	0,015	0,071
-219,855	107,200	0,079	0,068
-218,840	-200,000	0,014	0,151
-217,825	-200,000	0,008	0,034
-216,811	-200,000	-0,008	-0,110
-215,796	192,204	-0,093	-0,103
-214,782	57,994	-0,103	0,073
-213,767	-200,000	-0,017	-0,079
-212,752	800,000	0,019	0,040
-211,738	92,267	0,120	0,098
-210,723	8,698	0,070	-0,038
-209,709	-200,000	-0,001	0,068
-208,694	-164,050	-0,142	-0,005
-207,679	-200,000	-0,011	-0,067
-206,665	-37,022	0,108	0,042
-205,650	168,519	0,040	-0,041
-204,636	800,000	0,044	0,123
-203,621	-200,000	-0,003	0,040
-202,606	4,866	-0,026	-0,014
-201,592	-200,000	0,006	-0,145
-200,577	340,669	0,037	0,053
-199,563	529,680	0,033	0,057
-198,548	4,016	-0,058	-0,031
-197,533	-200,000	0,013	-0,052
-196,519	-22,328	-0,111	0,049
-195,504	-91,998	-0,080	0,016
-194,490	800,000	0,030	-0,094
-193,475	800,000	-0,039	0,116
-192,460	-200,000	0,009	0,033
-191,446	-164,867	0,058	0,002
-190,431	800,000	-0,026	0,076
-189,417	-54,051	0,131	-0,043
-188,402	-138,490	0,127	0,010
-187,387	-10,573	-0,122	0,059
-186,373	-75,787	-0,036	0,009
-185,358	326,126	0,058	-0,081
-184,344	134,470	-0,150	-0,141
-183,329	-188,444	0,121	-0,001
-182,315	-200,000	-0,001	0,059
-181,300	-200,000	-0,016	0,118
-180,285	800,000	0,035	0,110
-179,271	-200,000	-0,026	-0,105
-178,256	-50,234	0,172	-0,059
-177,242	84,471	0,105	0,083
-176,227	442,488	0,050	-0,080
-175,212	-200,000	0,007	-0,027
-174,198	-200,000	-0,027	-0,127
-173,183	-200,000	-0,016	-0,090
-172,169	1,713	0,089	-0,046
-171,154	243,354	0,073	-0,089
-170,139	-200,000	0,102	0,000
-169,125	218,073	-0,107	0,124
-168,110	187,918	0,044	0,048
-167,096	17,443	-0,067	0,038
-166,081	492,712	-0,067	-0,113
-165,066	-40,329	-0,066	0,025
-164,052	-65,910	0,050	0,014
-163,037	-165,682	-0,063	-0,002
-162,023	-200,000	0,030	-0,123
-161,008	193,320	0,031	0,035
-159,993	39,893	0,038	-0,025
-158,979	37,912	0,072	-0,047
-157,964	-149,191	0,033	-0,002
-156,950	12,687	-0,110	-0,062
-155,935	793,919	0,035	0,071
-154,920	154,046	-0,057	-0,057
-153,906	-35,221	-0,024	0,010
-152,891	114,979	-0,102	0,091
-151,877	-83,043	-0,058	-0,013
-150,862	669,174	-0,014	0,027
-149,847	800,000	0,026	0,058
-148,833	-53,346	-0,056	-0,019
-147,818	459,693	0,016	-0,026
-146,804	-200,000	-0,017	-0,076
-145,789	-126,402	0,096	-0,010
-144,775	-200,000	-0,026	0,106
-143,760	463,103	0,032	0,052
-142,745	47,202	-0,087	0,059
-141,731	-43,272	-0,007	-0,003
-140,716	-200,000	-0,023	-0,074
-139,702	41,935	-0,018	-0,012
-138,687	-125,966	0,106	0,011
-137,672	-78,911	-0,194	0,048
-136,658	-150,889	-0,036	0,002
-135,643	800,000	-0,035	-0,071
-134,629	-200,000	-0,005	-0,072
-133,614	-61,980	0,083	0,025
-132,599	-1,648	0,127	0,065
-131,585	15,282	0,069	-0,039
-130,570	178,352	-0,082	-0,087
-129,556	800,000	0,019	-0,045
-128,541	-23,716	-0,048	-0,021
-127,526	-200,000	-0,021	-0,081
-126,512	331,408	0,082	-0,115
-125,497	-30,671	0,042	0,017
-124,483	167,203	-0,074	0,077
-123,468	17,707	0,048	0,027
-122,453	-200,000	0,027	-0,091
-121,439	69,480	0,020	-0,015
-120,424	800,000	0,011	-0,030
-119,410	-200,000	0,016	-0,054
