DTS Sentinel unit serial number:	SN410029Multiplexer serial number:	ORYXHardware model number:	OX2-SRSoftware version number:	ORYX F/W v4,00 Oryx Data Collector v3.7.2.0data status	okinstallation	B6 Nyhavnadifferential loss correction	single-endedforward channel	channel 2reverse channel	N/Adate	2023/12/09time	01:00:08forward acquisition time	300,00reverse acquisition time	0,00gamma	499,1914k internal	0,3156k external	0,3156temperature offset calibration	1,0000default loss term (dB/km)	0,3820temperature slope calibration	1,0000multiplexer offset coefficient	1,0000multiplexer slope coefficient	1,0000fibre end	0,00T internal ref (°C)	15,69T ext. ref 1 (°C)	-0,67T ext. ref 2 (°C)	-0,66length (m)	temperature (°C)	Stokes	anti-Stokes-744,400	-66,702	0,103	0,030
-743,385	-152,650	-0,352	0,018
-742,371	111,022	0,121	0,108
-741,356	-143,198	-0,204	-0,014
-740,342	-16,196	0,110	0,051
-739,327	-57,805	-0,467	-0,150
-738,312	183,360	0,104	0,113
-737,298	-109,601	-0,224	0,034
-736,283	-147,530	0,118	-0,007
-735,269	-173,342	-0,220	0,005
-734,254	409,907	0,054	0,084
-733,239	-58,902	-0,463	-0,147
-732,225	-172,610	0,209	-0,005
-731,210	352,371	-0,055	-0,081
-730,196	-200,000	-0,018	-0,068
-729,181	-200,000	0,039	-0,159
-728,167	45,890	0,045	0,030
-727,152	800,000	0,024	-0,071
-726,137	-200,000	-0,038	-0,247
-725,123	58,583	-0,100	0,072
-724,108	263,820	-0,028	-0,036
-723,094	280,506	-0,107	-0,141
-722,079	-200,000	0,014	-0,050
-721,064	30,448	0,072	0,045
-720,050	3,339	0,083	-0,045
-719,035	51,352	0,020	0,014
-718,021	800,000	0,028	0,072
-717,006	-100,679	0,021	-0,004
-715,991	368,009	0,131	-0,195
-714,977	256,407	-0,092	-0,116
-713,962	365,252	-0,019	0,028
-712,948	-183,939	0,060	0,001
-711,933	-180,153	-0,115	0,002
-710,918	109,945	-0,026	-0,023
-709,904	224,244	-0,028	0,033
-708,889	523,721	-0,024	-0,042
-707,875	159,887	0,016	-0,016
-706,860	26,571	0,027	-0,016
-705,845	800,000	-0,035	0,102
-704,831	800,000	0,016	-0,049
-703,816	-129,185	0,105	0,011
-702,802	18,240	-0,065	0,038
-701,787	211,701	-0,080	-0,093
-700,772	186,429	0,058	-0,064
-699,758	-200,000	-0,012	-0,153
-698,743	-200,000	-0,025	-0,089
-697,729	35,252	-0,083	0,054
-696,714	403,083	-0,019	-0,029
-695,699	-12,440	-0,147	0,070
-694,685	-32,710	-0,102	-0,042
-693,670	85,560	-0,079	-0,064
-692,656	800,000	0,049	-0,105
-691,641	-200,000	0,039	0,147
-690,627	13,431	0,136	0,077
-689,612	-200,000	0,026	0,112
-688,597	271,687	0,033	-0,043
-687,583	-25,436	-0,216	-0,094
-686,568	1,118	0,135	-0,071
-685,554	114,734	0,092	-0,083
-684,539	800,000	0,026	-0,082
-683,524	-26,424	0,119	0,051
-682,510	186,913	-0,026	0,028
-681,495	-59,099	-0,134	0,042
-680,481	330,519	0,060	-0,086
-679,466	800,000	0,021	0,048
-678,451	-200,000	0,023	-0,167
-677,437	58,254	-0,021	-0,015
-676,422	-102,871	0,095	-0,016
-675,408	357,289	0,043	0,063
-674,393	800,000	0,013	-0,040
-673,378	800,000	0,022	0,057
-672,364	-200,000	0,014	-0,066
-671,349	36,502	-0,061	0,039
-670,335	-186,397	0,080	0,001
-669,320	800,000	-0,037	0,104
-668,305	21,358	0,155	-0,092
-667,291	-200,000	-0,001	0,005
-666,276	446,977	-0,043	0,069
-665,262	800,000	-0,017	-0,049
-664,247	800,000	-0,047	-0,123
-663,232	184,589	-0,072	-0,079
-662,218	157,263	0,076	-0,077
-661,203	248,428	-0,134	0,168
-660,189	67,157	-0,127	0,095
-659,174	412,074	-0,075	-0,118
-658,159	800,000	-0,055	-0,171
-657,145	-96,676	-0,015	0,003
-656,130	-200,000	0,006	-0,073
-655,116	393,728	0,042	0,064
-654,101	-200,000	-0,010	-0,051
-653,086	192,088	0,049	0,055
-652,072	800,000	0,035	0,085
-651,057	190,379	-0,182	-0,201
-650,043	-200,000	0,001	-0,184
-649,028	-200,000	-0,000	-0,144
-648,014	-47,537	0,077	0,027
-646,999	800,000	0,034	0,092
-645,984	-139,971	0,052	0,004
-644,970	800,000	-0,031	-0,078
-643,955	70,662	0,020	-0,015
-642,941	497,583	-0,043	-0,072
-641,926	40,575	-0,118	-0,078
-640,911	124,965	0,106	-0,098
-639,897	800,000	0,037	0,086
-638,882	-38,095	-0,078	-0,030
-637,868	35,653	0,101	0,065
-636,853	80,632	-0,040	0,032
-635,838	-84,348	-0,067	0,016
-634,824	-200,000	-0,027	-0,173
-633,809	800,000	0,032	-0,101
-632,795	284,698	0,037	0,049
-631,780	-200,000	0,015	0,106
-630,765	23,146	-0,020	-0,012
-629,751	50,990	-0,046	0,032
-628,736	106,669	-0,093	-0,081
-627,722	26,428	0,071	-0,044
-626,707	-138,767	-0,087	-0,007
-625,692	100,094	-0,025	0,021
-624,678	671,572	-0,062	0,118
-623,663	768,475	0,028	-0,056
-622,649	-46,183	-0,083	0,030
-621,634	476,902	0,032	-0,053
-620,619	-200,000	-0,019	-0,070
-619,605	-146,624	-0,118	0,007
-618,590	-200,000	0,011	0,051
-617,576	252,343	0,078	-0,098
-616,561	-200,000	-0,006	-0,049
-615,546	126,032	-0,067	-0,062
-614,532	-54,947	0,010	-0,003
-613,517	51,102	-0,168	-0,117
-612,503	338,371	0,050	-0,072
-611,488	-200,000	-0,015	0,069
-610,474	-110,027	0,124	0,019
-609,459	120,769	-0,140	-0,128
-608,444	255,118	-0,015	-0,019
-607,430	-200,000	-0,004	-0,052
-606,415	315,779	-0,048	-0,066
-605,401	246,157	0,045	0,056
-604,386	34,125	0,021	0,013
-603,371	-200,000	0,015	0,117
-602,357	122,908	-0,029	0,027
-601,342	-116,621	-0,085	0,011
-600,328	108,365	0,061	-0,053
-599,313	800,000	0,028	-0,061
-598,298	15,780	-0,132	-0,076
-597,284	-74,845	0,105	-0,027
-596,269	-81,619	0,089	-0,021
-595,255	-108,516	0,022	-0,003
-594,240	-194,802	0,076	-0,000
-593,225	800,000	0,050	-0,139
-592,211	800,000	0,057	-0,125
-591,196	-200,000	0,040	0,145
-590,182	-96,121	0,146	0,028
-589,167	-72,234	-0,111	0,030
-588,152	-143,298	0,084	0,006
-587,138	-149,418	-0,027	-0,002
-586,123	800,000	-0,029	0,060
-585,109	80,525	0,073	-0,058
-584,094	31,352	-0,035	0,022
-583,079	800,000	-0,054	-0,134
-582,065	265,853	0,082	-0,106
-581,050	-147,215	0,022	-0,001
-580,036	-200,000	0,070	-0,235
-579,021	-200,000	-0,037	-0,148
-578,006	49,874	0,018	0,012
-576,992	28,290	0,068	-0,042
-575,977	-70,983	-0,092	0,025
-574,963	-62,792	0,089	0,027
-573,948	800,000	-0,061	0,124
-572,934	65,066	-0,100	0,074
-571,919	-6,790	-0,113	-0,056
-570,904	506,446	-0,035	-0,060
-569,890	-200,000	-0,002	-0,085
-568,875	-114,387	-0,138	-0,019
-567,861	1,364	0,048	0,025
-566,846	150,347	-0,042	-0,042
-565,831	481,070	0,054	0,091
-564,817	-200,000	0,014	-0,061
-563,802	55,697	-0,091	-0,065
-562,788	800,000	-0,069	0,148
-561,773	-65,984	0,059	-0,017
-560,758	800,000	0,007	-0,016
-559,744	-200,000	-0,037	0,000
-558,729	273,216	0,035	0,046
-557,715	-200,000	0,008	-0,029
-556,700	155,818	0,029	-0,029
-555,685	509,420	-0,030	-0,051
-554,671	-110,984	0,124	0,018
-553,656	-95,188	-0,076	0,015
-552,642	221,739	0,046	-0,054
-551,627	116,980	0,076	-0,068
-550,612	-200,000	-0,013	-0,064
-549,598	24,840	-0,132	-0,080
-548,583	139,805	-0,008	0,008
-547,569	615,131	0,051	0,093
-546,554	-55,007	0,050	-0,016
-545,539	50,802	0,095	0,066
-544,525	10,989	0,080	-0,045
-543,510	-119,142	-0,095	0,012
-542,496	-109,933	-0,082	0,012
-541,481	-42,009	-0,107	-0,040
-540,466	-200,000	0,001	0,091
-539,452	-200,000	-0,011	0,064
-538,437	109,512	0,102	0,090
-537,423	34,846	0,030	0,019
-536,408	800,000	0,053	0,126
-535,393	172,386	0,105	0,111
-534,379	-65,257	-0,146	0,043
-533,364	278,167	0,069	0,090
-532,350	418,792	0,017	-0,026
-531,335	-1,973	-0,061	0,031
-530,321	-200,000	-0,018	0,099
-529,306	9,181	0,085	-0,047
-528,291	13,302	-0,089	0,051
-527,277	-64,151	-0,178	0,053
-526,262	30,910	0,033	0,020
-525,248	438,409	0,047	-0,074
-524,233	-40,824	-0,158	-0,059
-523,218	81,523	0,100	0,079
-522,204	-62,093	-0,088	-0,027
-521,189	213,943	-0,062	0,072
-520,175	800,000	0,040	-0,097
-519,160	800,000	0,031	0,070
-518,145	71,846	0,077	-0,058
-517,131	491,686	0,046	0,077
-516,116	-200,000	0,011	-0,112
-515,102	497,435	0,020	-0,033
-514,087	253,143	-0,077	0,097
-513,072	-200,000	-0,000	0,050
-512,058	128,462	-0,066	-0,061
-511,043	197,326	0,008	0,008
-510,029	-125,208	0,094	0,010
-509,014	10,301	-0,051	-0,028
-507,999	800,000	0,057	-0,122
-506,985	599,534	0,133	-0,243
-505,970	-45,969	0,006	-0,002
-504,956	-58,844	-0,084	0,026
-503,941	-200,000	0,015	-0,074
-502,926	3,720	0,140	0,075
-501,912	-26,527	0,120	0,051
-500,897	13,820	-0,142	0,081
-499,883	350,560	-0,036	-0,052
-498,868	-40,131	-0,089	-0,034
-497,853	800,000	-0,018	-0,044
-496,839	-109,714	-0,056	0,009
-495,824	-42,664	0,092	-0,034
-494,810	-200,000	0,002	0,039
-493,795	612,831	-0,065	-0,119
-492,781	-114,879	0,125	0,017
-491,766	68,245	-0,172	-0,128
-490,751	-78,289	0,059	0,015
-489,737	224,948	-0,058	0,069
-488,722	-200,000	0,007	-0,067
-487,708	39,355	0,099	0,065
-486,693	196,125	-0,058	-0,065
-485,678	-200,000	0,012	0,040
-484,664	-137,436	0,044	-0,004
-483,649	204,724	-0,069	-0,079
-482,635	742,457	0,042	-0,083
-481,620	-200,000	0,018	0,100
-480,605	-141,063	0,083	-0,006
-479,591	-200,000	-0,009	0,063
-478,576	-200,000	-0,002	0,044
-477,562	297,616	0,047	-0,064
-476,547	-10,005	-0,089	-0,043
-475,532	262,086	-0,018	0,023
-474,518	-200,000	0,013	0,058
-473,503	99,549	0,056	-0,048
-472,489	-200,000	0,011	0,136
-471,474	212,642	0,049	0,057
-470,459	-38,426	-0,085	-0,033
-469,445	-129,340	0,049	-0,005
-468,430	800,000	-0,031	-0,097
-467,416	424,194	0,021	-0,032
-466,401	156,290	0,089	0,090
-465,386	-200,000	-0,005	0,158
-464,372	183,660	-0,039	-0,042
-463,357	-200,000	0,012	-0,083
-462,343	74,381	0,030	0,023
-461,328	532,260	-0,095	-0,164
-460,313	-126,435	-0,096	-0,010
-459,299	-17,537	0,217	0,099
-458,284	-20,278	-0,155	-0,069
-457,270	800,000	0,029	0,059
-456,255	104,767	-0,035	0,030
-455,241	583,480	0,013	0,024
-454,226	197,228	-0,083	-0,093
-453,211	248,102	0,043	0,054
-452,197	-200,000	-0,008	0,104
-451,182	-18,456	0,119	0,054
-450,168	-200,000	-0,002	0,023
-449,153	-200,000	0,031	0,136
-448,138	575,860	-0,088	-0,157
-447,124	800,000	-0,007	0,023
-446,109	800,000	-0,050	-0,111
-445,095	-200,000	0,174	0,000
-444,080	59,036	-0,071	-0,051
-443,065	-200,000	0,002	-0,022
-442,051	-137,956	-0,058	-0,005
-441,036	82,192	-0,103	-0,081
-440,022	-82,803	-0,044	-0,010
-439,007	508,438	-0,076	-0,129
-437,992	-200,000	-0,005	-0,032
-436,978	-91,379	0,045	0,009
-435,963	95,461	-0,078	0,065
-434,949	800,000	-0,013	-0,030
-433,934	800,000	0,043	-0,112
-432,919	-113,804	-0,095	-0,013
-431,905	-200,000	-0,011	-0,116
-430,890	0,068	0,043	-0,022
-429,876	44,086	0,072	0,048
-428,861	91,827	0,043	0,035
-427,846	-200,000	0,001	0,020
-426,832	800,000	-0,023	-0,057
-425,817	-71,638	0,062	0,017
-424,803	-50,498	0,091	-0,031
-423,788	64,051	-0,035	0,026
-422,773	-200,000	0,016	-0,060
-421,759	53,662	0,060	-0,042
-420,744	170,125	0,023	0,024
-419,730	-200,000	-0,028	-0,154
-418,715	100,439	-0,091	-0,077
-417,701	-83,843	0,109	-0,025
-416,686	68,693	-0,050	-0,037
-415,671	261,411	0,039	0,049
-414,657	-200,000	0,035	0,158
-413,642	157,041	-0,058	0,059
-412,628	-97,304	-0,157	0,030
-411,613	-39,235	0,026	-0,010
-410,598	800,000	-0,046	-0,141
-409,584	-77,278	0,214	-0,054
-408,569	42,155	0,083	-0,055
-407,555	-200,000	0,009	0,075
-406,540	-55,783	0,082	-0,026
-405,525	584,729	-0,039	-0,071
-404,511	-200,000	-0,005	-0,094
-403,496	-107,555	-0,086	-0,013
-402,482	-200,000	-0,040	0,176
-401,467	-161,002	0,078	0,003
-400,452	-200,000	-0,039	-0,166
-399,438	215,108	-0,035	-0,041
-398,423	-122,700	-0,138	0,016
-397,409	-117,103	-0,057	0,007
-396,394	-54,546	0,017	0,005
-395,379	-200,000	-0,004	-0,114
-394,365	800,000	0,037	0,087
-393,350	120,122	0,105	0,095
-392,336	800,000	0,004	0,010
-391,321	-200,000	-0,002	0,053
-390,306	597,510	-0,045	0,082
-389,292	-75,426	-0,031	0,008
-388,277	800,000	-0,035	0,080
-387,263	402,297	0,074	0,114
-386,248	800,000	0,031	-0,094
-385,233	-5,034	0,039	0,019
-384,219	78,606	0,080	0,062
-383,204	12,102	-0,038	-0,021
-382,190	-200,000	-0,005	-0,044
-381,175	-200,000	-0,014	-0,064
-380,160	800,000	-0,057	0,120
-379,146	-9,770	-0,015	0,007
-378,131	103,845	0,079	0,068
-377,117	-200,000	0,013	0,115
-376,102	-200,000	-0,037	0,142
-375,088	-36,949	0,074	0,029
-374,073	-200,000	0,013	0,063
-373,058	23,851	0,051	-0,030
-372,044	425,131	0,061	0,095
-371,029	261,386	-0,045	-0,057
-370,015	-176,266	-0,027	0,001
-369,000	623,472	0,050	-0,093
-367,985	-106,875	-0,058	-0,009
-366,971	-69,333	-0,142	-0,039
-365,956	-165,530	0,175	-0,005
-364,942	251,225	0,085	0,106
-363,927	-116,221	-0,118	-0,016
-362,912	-200,000	0,013	0,103
-361,898	-113,348	0,102	-0,014
-360,883	112,770	-0,071	-0,063
-359,869	-116,229	-0,145	-0,019
-358,854	-200,000	-0,006	0,161
-357,839	-66,136	0,038	-0,011
-356,825	-2,041	0,082	0,041
-355,810	-73,162	-0,040	0,011
-354,796	-200,000	0,021	-0,115
-353,781	800,000	-0,015	0,030
-352,766	-17,641	0,043	-0,020
-351,752	161,928	0,059	0,060
-350,737	15,327	-0,028	0,016
-349,723	5,066	-0,045	-0,024
-348,708	395,908	0,087	0,133
-347,693	800,000	0,031	0,081
-346,679	-121,244	-0,136	0,016
-345,664	800,000	-0,035	-0,087
-344,650	-112,743	0,064	-0,009
-343,635	-200,000	-0,025	-0,134
-342,620	242,296	0,113	0,137
-341,606	427,498	-0,050	0,078
-340,591	238,263	-0,118	0,143
-339,577	125,516	0,079	-0,073
-338,562	-200,000	-0,010	0,041
-337,548	-128,737	-0,164	0,017
-336,533	-4,974	0,053	0,027
-335,518	118,602	0,101	0,091
-334,504	319,669	-0,033	0,045
-333,489	800,000	0,024	-0,069
-332,475	800,000	-0,048	-0,148
-331,460	-200,000	-0,007	0,053
-330,445	46,737	0,076	0,051
-329,431	347,573	-0,062	0,089
-328,416	662,982	0,036	0,067
-327,402	10,173	-0,095	0,052
-326,387	-107,072	0,130	0,021
-325,372	-200,000	0,003	-0,038
-324,358	651,281	-0,060	-0,113
-323,343	-73,795	-0,068	-0,018
-322,329	12,954	-0,047	-0,026
-321,314	235,997	0,042	-0,051
-320,299	154,785	0,083	0,083
-319,285	-200,000	0,015	0,124
-318,270	-115,616	-0,039	0,005
-317,256	225,090	-0,091	-0,107
-316,241	-17,915	-0,047	0,021
-315,226	800,000	-0,014	0,036
-314,212	180,649	-0,059	0,063
-313,197	-81,296	0,171	0,041
-312,183	-31,848	-0,058	0,024
-311,168	-200,000	0,001	0,081
-310,153	800,000	0,017	-0,043
-309,139	68,142	0,128	-0,095
-308,124	-20,176	-0,074	0,033
-307,110	178,014	0,073	0,078
-306,095	800,000	0,035	-0,075
-305,080	800,000	-0,028	-0,072
-304,066	53,687	0,098	0,068
-303,051	-169,091	-0,056	0,001
-302,037	-48,513	-0,148	-0,051
-301,022	800,000	-0,045	0,113
-300,008	6,267	0,112	0,060
-298,993	800,000	0,045	0,131
-297,978	-40,626	0,131	0,049
-296,964	-102,433	-0,099	-0,017
-295,949	-89,384	0,111	0,024
-294,935	-200,000	0,041	-0,190
-293,920	123,923	-0,081	0,073
-292,905	157,374	-0,032	-0,032
-291,891	-15,458	0,101	0,047
-290,876	8,739	-0,075	0,041
-289,862	-200,000	-0,003	-0,020
-288,847	-124,836	-0,197	-0,022
-287,832	304,264	0,125	0,168
-286,818	-84,299	0,033	-0,007
-285,803	-200,000	0,023	-0,115
-284,789	21,153	0,110	-0,065
-283,774	134,469	-0,020	-0,019
-282,759	159,095	-0,061	0,061
-281,745	75,352	-0,163	0,125
-280,730	800,000	0,076	-0,169
-279,716	-200,000	-0,008	-0,145
-278,701	800,000	0,081	0,166
-277,686	-157,602	0,109	-0,005
-276,672	-114,440	0,076	-0,010
-275,657	800,000	0,040	0,084
-274,643	13,530	-0,050	0,028
-273,628	-200,000	0,010	-0,066
-272,613	-131,569	-0,025	0,002
-271,599	800,000	0,036	0,114
-270,584	800,000	-0,014	0,041
-269,570	-200,000	-0,026	0,123
-268,555	504,240	0,041	-0,069
-267,540	-40,745	-0,058	-0,021
-266,526	-200,000	0,028	-0,115
-265,511	-200,000	0,047	0,193
-264,497	-200,000	-0,019	0,127
-263,482	-41,025	0,119	-0,044
-262,467	501,895	-0,036	0,060
-261,453	256,660	-0,025	0,031
-260,438	-36,594	0,066	-0,026
-259,424	102,467	0,024	-0,020
-258,409	1,156	-0,080	-0,041
-257,395	-200,000	-0,002	0,084
-256,380	-200,000	0,003	-0,030
-255,365	81,370	0,113	0,088
-254,351	162,962	-0,059	0,060
-253,336	-174,811	0,082	0,002
-252,322	137,529	-0,109	-0,103
-251,307	18,752	0,046	-0,026
-250,292	-28,153	0,020	-0,008
-249,278	-31,822	0,051	0,021
-248,263	-200,000	-0,001	-0,019
-247,249	-200,000	-0,004	0,089
-246,234	-45,061	-0,163	-0,058
-245,219	120,465	-0,121	0,109
-244,205	-125,563	0,076	0,008
-243,190	350,504	-0,050	-0,071
-242,176	596,966	-0,023	-0,042
-241,161	708,910	0,039	0,075
-240,146	800,000	-0,022	0,053
-239,132	47,537	-0,135	-0,091
-238,117	-29,778	-0,157	0,064
-237,103	661,226	-0,077	-0,143
-236,088	-50,608	0,087	-0,030
-235,073	81,821	-0,028	-0,022
-234,059	-42,274	0,056	0,021
-233,044	11,302	0,110	-0,061
-232,030	172,181	-0,052	0,054
-231,015	-76,184	0,023	-0,006
-230,000	-200,000	0,030	-0,180
-228,986	-200,000	0,001	0,052
-227,971	800,000	-0,036	0,085
-226,957	-117,990	0,112	0,014
-225,942	302,463	-0,034	-0,045
-224,927	22,766	-0,055	0,032
-223,913	-68,719	-0,093	0,026
-222,898	23,783	0,091	0,054
-221,884	157,057	0,110	0,110
-220,869	-200,000	-0,015	-0,062
-219,855	483,460	0,051	-0,085
-218,840	-150,424	-0,137	0,007
-217,825	327,361	-0,051	-0,071
-216,811	354,941	-0,101	0,145
-215,796	-200,000	0,005	0,040
-214,782	429,665	-0,036	0,056
-213,767	749,933	0,105	0,207
-212,752	-200,000	-0,000	-0,078
-211,738	-200,000	0,006	0,065
-210,723	461,051	-0,023	0,037
-209,709	-14,786	0,061	-0,028
-208,694	-98,520	-0,070	-0,013
-207,679	-18,153	-0,064	-0,029
-206,665	-200,000	0,004	0,063
-205,650	-200,000	0,003	0,030
-204,636	-200,000	-0,015	0,090
-203,621	53,381	-0,083	-0,057
-202,606	760,906	-0,030	0,059
-201,592	448,212	0,022	-0,035
-200,577	724,394	-0,049	-0,094
-199,563	315,174	-0,015	-0,020
-198,548	-67,054	0,155	-0,044
-197,533	-18,043	0,020	0,009
-196,519	-200,000	0,040	-0,156
-195,504	-10,708	-0,128	-0,061
-194,490	-200,000	0,001	-0,018
-193,475	-147,186	-0,076	0,005
-192,460	-200,000	0,032	-0,120
-191,446	-17,962	-0,066	0,030
-190,431	16,483	-0,104	0,059
-189,417	65,552	-0,063	0,046
-188,402	185,157	-0,060	-0,064
-187,387	-97,138	0,085	0,016
-186,373	-19,633	-0,134	-0,060
-185,358	18,475	0,047	0,027
-184,344	-200,000	-0,004	0,072
-183,329	42,636	0,104	0,068
-182,315	704,404	0,062	0,119
-181,300	-200,000	-0,024	0,102
-180,285	-200,000	0,012	0,038
-179,271	-153,794	0,068	0,003
-178,256	800,000	-0,030	-0,076
-177,242	640,265	-0,025	0,046
-176,227	100,461	0,050	0,042
-175,212	454,807	0,107	0,171
-174,198	-200,000	-0,025	-0,097
-173,183	184,712	-0,031	0,033
-172,169	-200,000	-0,006	0,064
-171,154	68,240	-0,036	0,027
-170,139	14,382	0,081	-0,046
-169,125	-84,329	0,117	0,026
-168,110	64,956	-0,086	-0,062
-167,096	175,005	0,052	0,055
-166,081	334,140	0,040	-0,056
-165,066	-200,000	0,008	-0,096
-164,052	262,821	-0,012	0,015
-163,037	800,000	0,038	0,081
-162,023	775,057	-0,025	-0,049
-161,008	-40,011	0,066	-0,025
-159,993	-2,644	0,063	0,032
-158,979	55,025	0,035	-0,024
-157,964	-44,208	-0,124	-0,045
-156,950	89,439	0,063	-0,051
-155,935	-84,718	-0,025	-0,006
-154,920	-200,000	-0,005	-0,061
-153,906	800,000	-0,030	-0,069
-152,891	615,389	0,050	-0,090
-151,877	294,059	-0,020	-0,027
-150,862	-200,000	0,027	-0,110
-149,847	32,638	-0,118	-0,073
-148,833	155,627	-0,058	0,057
-147,818	800,000	-0,003	-0,006
-146,804	-42,086	0,119	-0,044
-145,789	4,145	-0,058	-0,031
-144,775	503,277	0,015	-0,024
-143,760	15,293	-0,047	-0,027
-142,745	439,215	-0,067	-0,105
-141,731	-19,248	0,164	0,073
-140,716	-18,797	0,070	0,031
-139,702	-200,000	-0,001	-0,021
-138,687	141,728	0,084	0,080
-137,672	-200,000	-0,028	0,098
-136,658	-200,000	-0,016	-0,226
-135,643	-70,157	-0,065	-0,018
-134,629	23,686	-0,053	0,031
-133,614	-83,811	-0,105	-0,024
-132,599	-200,000	0,005	-0,069
-131,585	800,000	0,013	0,037
-130,570	-81,269	0,010	-0,002
-129,556	-51,860	-0,075	-0,025
-128,541	28,960	0,076	0,046
-127,526	-149,221	0,061	0,003
-126,512	331,231	0,028	0,039
-125,497	-46,066	0,113	0,040
-124,483	-200,000	0,013	-0,116
-123,468	-200,000	-0,001	0,042
-122,453	383,977	0,015	-0,022
-121,439	800,000	-0,044	0,116
-120,424	568,076	0,017	0,029
-119,410	800,000	0,049	0,128
-118,395	139,459	0,046	0,043
