DTS Sentinel unit serial number:	SN410029Multiplexer serial number:	ORYXHardware model number:	OX2-SRSoftware version number:	ORYX F/W v4,00 Oryx Data Collector v3.7.2.0data status	okinstallation	B6 Nyhavnadifferential loss correction	single-endedforward channel	channel 2reverse channel	N/Adate	2023/12/07time	13:25:08forward acquisition time	300,00reverse acquisition time	0,00gamma	499,1914k internal	0,3203k external	0,3203temperature offset calibration	1,0000default loss term (dB/km)	0,3820temperature slope calibration	1,0000multiplexer offset coefficient	1,0000multiplexer slope coefficient	1,0000fibre end	0,00T internal ref (°C)	11,96T ext. ref 1 (°C)	-1,68T ext. ref 2 (°C)	-1,68length (m)	temperature (°C)	Stokes	anti-Stokes-744,400	193,773	0,064	0,071
-743,385	-74,941	-0,394	-0,102
-742,371	116,383	0,130	0,116
-741,356	-117,128	-0,257	0,034
-740,342	62,871	0,135	0,098
-739,327	-95,454	-0,447	0,087
-738,312	-92,483	0,155	0,031
-737,298	-88,474	-0,375	0,081
-736,283	220,667	0,094	0,110
-735,269	-43,928	-0,270	-0,098
-734,254	-44,767	0,128	-0,046
-733,239	-1,858	-0,450	-0,229
-732,225	-21,527	0,294	0,130
-731,210	-200,000	-0,008	0,065
-730,196	-91,263	0,107	0,022
-729,181	277,873	0,024	-0,031
-728,167	-166,662	-0,077	0,002
-727,152	340,906	-0,121	0,173
-726,137	99,699	0,071	0,059
-725,123	-161,050	-0,115	-0,004
-724,108	192,826	-0,040	-0,043
-723,094	-122,422	-0,124	-0,014
-722,079	-67,034	-0,082	-0,023
-721,064	167,892	-0,132	-0,137
-720,050	178,670	-0,035	0,037
-719,035	-200,000	-0,007	0,102
-718,021	425,777	0,031	0,048
-717,006	87,546	-0,115	-0,092
-715,991	0,732	-0,093	-0,048
-714,977	-200,000	0,011	0,048
-713,962	-200,000	0,034	0,126
-712,948	223,527	-0,035	0,041
-711,933	55,533	-0,107	-0,075
-710,918	-73,081	0,015	0,004
-709,904	163,539	-0,010	0,011
-708,889	445,418	-0,139	-0,223
-707,875	320,794	0,075	-0,104
-706,860	-176,157	-0,065	0,001
-705,845	183,786	0,014	-0,015
-704,831	84,214	0,126	-0,100
-703,816	-200,000	0,002	0,027
-702,802	680,666	-0,041	0,079
-701,787	-59,160	-0,112	-0,035
-700,772	-151,104	-0,023	0,001
-699,758	-200,000	-0,004	-0,122
-698,743	-22,082	-0,059	0,026
-697,729	299,355	-0,065	-0,087
-696,714	14,947	0,061	0,035
-695,699	76,178	-0,045	-0,035
-694,685	-10,335	0,019	0,009
-693,670	-80,022	0,039	0,009
-692,656	-174,760	-0,069	-0,001
-691,641	793,167	0,053	-0,106
-690,627	-96,561	-0,064	0,012
-689,612	-200,000	0,015	-0,094
-688,597	-4,419	-0,138	0,069
-687,583	23,647	-0,105	0,063
-686,568	62,229	-0,147	-0,106
-685,554	-88,542	-0,160	0,034
-684,539	-127,337	0,031	0,003
-683,524	64,834	-0,157	-0,115
-682,510	800,000	0,012	0,036
-681,495	-200,000	-0,000	-0,077
-680,481	-131,696	-0,124	-0,012
-679,466	800,000	-0,019	0,046
-678,451	49,084	0,076	-0,052
-677,437	-139,436	0,049	0,004
-676,422	168,347	-0,086	-0,089
-675,408	-200,000	-0,017	-0,062
-674,393	-200,000	0,005	0,026
-673,378	800,000	0,062	-0,144
-672,364	800,000	-0,043	-0,112
-671,349	4,258	-0,076	-0,040
-670,335	2,044	0,036	-0,019
-669,320	395,626	-0,048	-0,073
-668,305	784,146	-0,037	-0,074
-667,291	185,740	0,107	-0,116
-666,276	-105,167	-0,219	-0,036
-665,262	800,000	-0,081	-0,169
-664,247	-200,000	0,013	-0,041
-663,232	359,191	0,047	-0,069
-662,218	575,826	-0,068	0,121
-661,203	-200,000	-0,034	0,222
-660,189	-85,187	-0,097	0,022
-659,174	-114,118	-0,156	-0,022
-658,159	431,056	-0,086	-0,136
-657,145	800,000	-0,013	-0,036
-656,130	-200,000	0,026	0,114
-655,116	800,000	0,028	0,086
-654,101	137,310	-0,061	-0,058
-653,086	43,559	-0,072	0,048
-652,072	320,347	-0,042	-0,058
-651,057	180,502	0,042	-0,045
-650,043	-126,836	0,056	-0,006
-649,028	-200,000	0,030	-0,146
-648,014	-121,160	-0,039	-0,005
-646,999	-200,000	0,008	0,124
-645,984	-73,663	0,085	0,022
-644,970	-25,985	-0,056	-0,024
-643,955	-4,020	-0,074	-0,037
-642,941	-200,000	0,005	0,085
-641,926	800,000	0,036	0,112
-640,911	800,000	-0,051	0,103
-639,897	-200,000	-0,006	0,088
-638,882	143,469	-0,067	-0,064
-637,868	340,843	-0,042	-0,059
-636,853	-87,949	-0,093	0,020
-635,838	86,189	0,146	-0,116
-634,824	146,547	-0,059	-0,058
-633,809	-168,736	0,104	-0,003
-632,795	-200,000	0,011	0,106
-631,780	175,053	0,042	0,045
-630,765	-53,316	-0,009	-0,003
-629,751	416,969	-0,062	0,096
-628,736	-168,523	-0,096	-0,003
-627,722	136,816	-0,047	0,045
-626,707	459,392	0,050	0,082
-625,692	569,976	0,040	0,070
-624,678	-36,724	0,125	-0,048
-623,663	-57,262	-0,092	0,029
-622,649	-51,661	-0,054	-0,018
-621,634	220,470	-0,091	0,106
-620,619	331,768	0,081	-0,113
-619,605	4,270	-0,024	-0,012
-618,590	-200,000	0,030	0,193
-617,576	-45,985	-0,035	0,012
-616,561	-95,482	-0,175	0,034
-615,546	-200,000	-0,016	-0,056
-614,532	800,000	0,020	-0,040
-613,517	-54,472	-0,058	0,019
-612,503	28,498	-0,070	-0,043
-611,488	800,000	-0,024	-0,053
-610,474	-182,822	-0,102	0,001
-609,459	97,698	-0,135	0,112
-608,444	39,019	0,116	0,075
-607,430	5,093	-0,165	-0,088
-606,415	193,665	-0,073	0,080
-605,401	46,601	0,004	-0,002
-604,386	-200,000	-0,022	-0,079
-603,371	613,592	0,028	-0,051
-602,357	-200,000	0,012	-0,065
-601,342	-200,000	0,016	0,125
-600,328	-173,174	-0,085	0,002
-599,313	753,238	-0,056	-0,109
-598,298	-200,000	0,015	-0,129
-597,284	142,084	0,053	-0,051
-596,269	-85,314	0,092	0,021
-595,255	-200,000	0,004	0,046
-594,240	-83,557	-0,044	0,010
-593,225	130,043	-0,091	-0,085
-592,211	-126,760	-0,116	-0,012
-591,196	-200,000	0,004	0,038
-590,182	-23,962	0,066	-0,028
-589,167	153,784	0,055	0,055
-588,152	90,083	0,068	0,055
-587,138	-62,615	-0,147	0,044
-586,123	-105,898	-0,066	-0,011
-585,109	-51,555	-0,058	-0,019
-584,094	-151,825	0,066	0,003
-583,079	-200,000	0,003	-0,019
-582,065	67,056	0,032	0,023
-581,050	800,000	-0,006	-0,020
-580,036	85,880	0,078	-0,062
-579,021	325,318	-0,071	-0,099
-578,006	-200,000	-0,012	-0,127
-576,992	-200,000	0,034	-0,179
-575,977	364,694	0,068	-0,100
-574,963	800,000	0,034	0,095
-573,948	427,918	-0,039	-0,061
-572,934	231,746	-0,051	-0,061
-571,919	-200,000	-0,005	-0,146
-570,904	-200,000	0,013	-0,047
-569,890	-87,642	-0,139	-0,030
-568,875	63,185	-0,020	-0,014
-567,861	-200,000	0,030	0,188
-566,846	-42,056	0,096	0,035
-565,831	142,198	-0,126	-0,121
-564,817	285,560	-0,076	0,100
-563,802	325,058	-0,048	0,066
-562,788	182,806	-0,053	-0,057
-561,773	119,581	0,024	0,021
-560,758	-191,972	0,075	-0,001
-559,744	-200,000	0,004	-0,066
-558,729	233,276	-0,062	0,073
-557,715	381,347	0,060	-0,089
-556,700	-200,000	-0,013	-0,124
-555,685	-165,733	-0,110	-0,003
-554,671	142,029	-0,125	-0,120
-553,656	488,896	-0,092	-0,153
-552,642	-60,273	-0,035	-0,011
-551,627	-128,435	-0,074	0,007
-550,612	69,711	0,044	0,033
-549,598	166,305	-0,057	-0,058
-548,583	594,783	-0,027	-0,049
-547,569	-12,726	0,130	0,061
-546,554	-200,000	0,004	0,016
-545,539	-175,952	0,029	-0,001
-544,525	-200,000	0,030	0,109
-543,510	96,314	-0,065	-0,054
-542,496	-200,000	0,002	0,068
-541,481	-8,617	0,074	-0,036
-540,466	365,660	-0,029	-0,042
-539,452	800,000	-0,033	-0,082
-538,437	-200,000	0,016	0,074
-537,423	232,013	-0,056	0,066
-536,408	-82,739	-0,031	-0,007
-535,393	214,988	-0,036	-0,041
-534,379	-148,666	-0,107	0,006
-533,364	387,269	-0,050	-0,074
-532,350	779,989	-0,087	0,173
-531,335	673,866	0,045	0,084
-530,321	-200,000	0,004	-0,076
-529,306	675,757	0,019	0,036
-528,291	-95,728	0,098	-0,019
-527,277	482,623	0,022	-0,036
-526,262	800,000	0,019	-0,058
-525,248	759,043	-0,019	0,038
-524,233	800,000	0,052	0,155
-523,218	800,000	-0,031	0,086
-522,204	-106,419	0,070	0,011
-521,189	50,078	-0,076	-0,051
-520,175	-200,000	-0,048	-0,164
-519,160	-96,106	0,084	-0,016
-518,145	-200,000	0,004	-0,116
-517,131	-200,000	-0,000	0,099
-516,116	800,000	-0,051	-0,160
-515,102	253,927	-0,056	0,069
-514,087	-200,000	0,029	0,096
-513,072	800,000	0,034	0,071
-512,058	108,917	0,105	-0,091
-511,043	57,807	0,080	-0,056
-510,029	34,112	0,047	-0,030
-509,014	76,902	0,047	0,036
-507,999	-106,718	0,119	0,019
-506,985	-200,000	-0,005	-0,118
-505,970	800,000	-0,058	-0,124
-504,956	-200,000	0,022	-0,133
-503,941	137,581	0,108	0,101
-502,926	-21,587	0,128	-0,056
-501,912	800,000	0,009	0,025
-500,897	125,951	0,071	0,065
-499,883	33,156	0,025	0,015
-498,868	7,574	-0,096	-0,052
-497,853	-100,031	0,078	0,014
-496,839	233,829	-0,037	-0,044
-495,824	8,265	-0,047	-0,025
-494,810	-200,000	0,029	0,094
-493,795	69,516	-0,060	0,045
-492,781	86,136	-0,089	0,071
-491,766	65,258	-0,064	0,046
-490,751	48,928	-0,060	-0,040
-489,737	800,000	0,057	0,114
-488,722	800,000	-0,051	0,121
-487,708	37,278	0,089	0,057
-486,693	241,527	-0,072	0,087
-485,678	-6,439	-0,061	-0,030
-484,664	-200,000	-0,015	-0,062
-483,649	575,415	-0,035	0,062
-482,635	-200,000	0,016	0,076
-481,620	196,816	-0,090	-0,099
-480,605	141,126	-0,034	0,032
-479,591	-200,000	-0,004	0,024
-478,576	-200,000	0,002	0,040
-477,562	224,217	0,022	0,026
-476,547	800,000	-0,052	0,123
-475,532	449,391	-0,067	-0,107
-474,518	799,367	-0,069	-0,138
-473,503	-200,000	0,001	0,076
-472,489	-118,280	-0,093	-0,012
-471,474	-51,859	0,073	0,024
-470,459	800,000	-0,062	-0,151
-469,445	-200,000	0,021	0,131
-468,430	-172,155	0,100	-0,002
-467,416	147,949	0,094	0,091
-466,401	-121,951	0,045	-0,005
-465,386	-154,071	0,093	0,004
-464,372	46,719	-0,115	0,077
-463,357	-200,000	-0,023	-0,081
-462,343	-118,949	0,087	0,011
-461,328	-200,000	0,048	-0,162
-460,313	-70,550	0,111	0,030
-459,299	-200,000	-0,017	0,100
-458,284	544,995	-0,074	0,128
-457,270	-200,000	-0,001	0,128
-456,255	132,669	0,058	-0,054
-455,241	-200,000	-0,011	-0,132
-454,226	382,511	0,064	-0,096
-453,211	-200,000	0,023	0,079
-452,197	800,000	-0,049	0,110
-451,182	707,855	0,079	0,151
-450,168	-200,000	0,040	0,130
-449,153	-49,137	0,164	-0,056
-448,138	800,000	-0,052	-0,161
-447,124	534,895	0,071	0,121
-446,109	-141,118	0,109	-0,008
-445,095	77,995	-0,091	-0,070
-444,080	311,189	0,061	0,083
-443,065	407,767	0,033	0,051
-442,051	652,789	-0,052	-0,096
-441,036	491,812	-0,058	-0,095
-440,022	-17,553	-0,054	0,024
-439,007	426,409	0,064	0,099
-437,992	-52,714	0,066	0,022
-436,978	43,511	0,109	-0,072
-435,963	-72,413	-0,061	-0,016
-434,949	-200,000	-0,006	-0,085
-433,934	-10,087	-0,085	-0,041
-432,919	-200,000	0,003	0,062
-431,905	-158,058	-0,102	0,004
-430,890	-200,000	-0,011	-0,092
-429,876	114,273	-0,046	-0,040
-428,861	12,210	-0,203	0,112
-427,846	-86,431	-0,093	-0,020
-426,832	-200,000	0,009	-0,181
-425,817	800,000	0,057	0,134
-424,803	-40,251	-0,091	-0,034
-423,788	-51,667	-0,061	0,020
-422,773	256,911	0,028	0,035
-421,759	104,493	-0,047	0,039
-420,744	209,287	-0,029	0,033
-419,730	-200,000	-0,037	-0,139
-418,715	-200,000	-0,021	-0,078
-417,701	25,226	-0,135	0,080
-416,686	-200,000	-0,017	-0,071
-415,671	82,301	0,132	-0,103
-414,657	-200,000	0,015	0,084
-413,642	143,851	0,068	0,065
-412,628	-200,000	-0,001	-0,014
-411,613	-200,000	-0,013	-0,159
-410,598	-58,552	0,114	-0,035
-409,584	-110,692	0,093	0,014
-408,569	119,717	0,062	0,055
-407,555	-47,915	0,075	0,026
-406,540	-200,000	0,011	-0,043
-405,525	129,537	0,060	-0,055
-404,511	366,057	0,071	0,103
-403,496	-137,709	0,116	-0,009
-402,482	-81,910	-0,046	-0,011
-401,467	577,189	-0,040	0,070
-400,452	-65,542	0,068	-0,020
-399,438	161,972	-0,042	0,042
-398,423	-200,000	-0,028	0,156
-397,409	-200,000	0,003	-0,037
-396,394	-200,000	0,012	-0,117
-395,379	427,140	-0,078	-0,121
-394,365	-16,556	-0,011	-0,005
-393,350	-200,000	0,005	0,043
-392,336	140,925	0,124	-0,117
-391,321	-200,000	-0,017	-0,069
-390,306	-18,116	-0,092	-0,041
-389,292	800,000	0,019	-0,055
-388,277	72,774	-0,084	-0,063
-387,263	544,218	0,056	-0,097
-386,248	-200,000	-0,009	0,060
-385,233	-200,000	-0,015	0,049
-384,219	742,399	-0,099	0,192
-383,204	-142,072	0,045	-0,003
-382,190	-54,564	0,092	-0,030
-381,175	49,518	-0,100	-0,067
-380,160	-76,551	0,119	-0,030
-379,146	-200,000	-0,003	0,104
-378,131	215,715	-0,071	0,081
-377,117	-200,000	0,008	0,105
-376,102	-200,000	0,001	0,024
-375,088	637,729	-0,076	-0,139
-374,073	573,222	0,016	-0,029
-373,058	-200,000	-0,001	-0,034
-372,044	-200,000	0,014	0,056
-371,029	84,896	-0,060	0,047
-370,015	580,687	-0,029	0,050
-369,000	121,704	0,110	0,098
-367,985	-50,762	-0,182	-0,061
-366,971	299,819	-0,020	-0,027
-365,956	420,270	-0,047	-0,072
-364,942	53,327	0,116	0,080
-363,927	800,000	-0,081	0,178
-362,912	164,040	0,090	0,090
-361,898	-26,183	-0,071	0,030
-360,883	359,944	0,011	-0,015
-359,869	494,267	0,063	-0,104
-358,854	800,000	-0,021	0,060
-357,839	80,059	0,091	0,070
-356,825	800,000	-0,024	0,062
-355,810	53,112	-0,058	0,040
-354,796	-200,000	0,016	-0,144
-353,781	-200,000	0,003	0,017
-352,766	-200,000	0,002	0,010
-351,752	-27,815	-0,072	0,030
-350,737	193,415	-0,055	-0,060
-349,723	-23,491	0,141	-0,060
-348,708	114,458	0,114	-0,099
-347,693	-176,900	-0,041	-0,001
-346,679	-200,000	0,027	-0,112
-345,664	20,209	-0,072	-0,041
-344,650	3,203	-0,029	-0,015
-343,635	-200,000	0,011	-0,091
-342,620	-10,679	0,057	0,027
-341,606	800,000	-0,046	0,101
-340,591	800,000	0,038	0,081
-339,577	-200,000	-0,002	-0,043
-338,562	800,000	-0,050	-0,151
-337,548	671,999	-0,049	-0,092
-336,533	-200,000	-0,012	-0,135
-335,518	152,603	0,067	0,065
-334,504	-200,000	0,023	0,081
-333,489	136,923	-0,104	-0,097
-332,475	-192,042	-0,048	-0,000
-331,460	2,670	-0,087	-0,045
-330,445	-89,432	-0,110	0,023
-329,431	-29,851	-0,102	-0,041
-328,416	-200,000	0,009	0,126
-327,402	157,147	0,028	0,028
-326,387	800,000	0,051	-0,108
-325,372	-200,000	0,039	-0,173
-324,358	584,080	0,093	-0,164
-323,343	316,715	0,121	-0,165
-322,329	30,969	0,093	-0,057
-321,314	800,000	0,039	0,087
-320,299	800,000	-0,008	0,022
-319,285	-120,271	0,054	0,007
-318,270	8,738	-0,028	-0,015
-317,256	156,189	-0,027	-0,027
-316,241	4,890	0,053	0,028
-315,226	800,000	-0,055	0,123
-314,212	-200,000	-0,014	0,166
-313,197	-71,043	-0,087	0,023
-312,183	176,469	0,043	0,045
-311,168	-200,000	0,009	-0,068
-310,153	-76,578	-0,132	-0,033
-309,139	-200,000	0,011	0,083
-308,124	-200,000	-0,045	0,144
-307,110	-111,497	0,045	0,007
-306,095	87,711	0,086	0,068
-305,080	-39,204	-0,085	-0,032
-304,066	800,000	-0,023	0,060
-303,051	800,000	-0,055	-0,138
-302,037	126,873	0,059	-0,053
-301,022	-200,000	0,003	-0,119
-300,008	-200,000	0,006	0,064
-298,993	-107,724	-0,026	-0,004
-297,978	288,072	0,009	-0,012
-296,964	-8,101	-0,055	-0,026
-295,949	-114,050	0,039	-0,005
-294,935	-95,766	0,019	0,004
-293,920	-88,648	0,040	-0,008
-292,905	296,804	-0,091	-0,119
-291,891	-32,399	-0,105	0,042
-290,876	-163,608	0,100	-0,003
-289,862	-200,000	-0,008	-0,059
-288,847	-200,000	-0,019	-0,103
-287,832	-91,643	-0,073	0,015
-286,818	538,425	-0,023	0,040
-285,803	658,160	-0,039	0,071
-284,789	-148,919	0,091	-0,005
-283,774	-22,685	0,144	0,062
-282,759	800,000	-0,006	-0,016
-281,745	-200,000	-0,016	0,132
-280,730	50,638	0,054	0,037
-279,716	30,497	0,192	-0,117
-278,701	239,990	0,071	0,085
-277,686	356,488	0,049	0,070
-276,672	147,658	0,013	0,013
-275,657	800,000	-0,031	-0,079
-274,643	394,222	-0,069	-0,102
-273,628	-200,000	0,008	-0,061
-272,613	800,000	-0,011	-0,035
-271,599	800,000	-0,036	-0,079
-270,584	-6,839	0,014	0,007
-269,570	59,254	0,032	0,022
-268,555	-25,909	-0,064	0,027
-267,540	-27,700	0,104	0,043
-266,526	-200,000	-0,019	-0,096
-265,511	-200,000	-0,003	0,077
-264,497	-200,000	-0,005	0,114
-263,482	-111,481	0,036	0,005
-262,467	-29,731	0,170	-0,069
-261,453	184,637	-0,098	-0,104
-260,438	239,088	0,071	-0,085
-259,424	-123,894	0,106	-0,012
-258,409	-200,000	0,014	0,079
-257,395	-123,826	0,068	0,008
-256,380	687,924	-0,033	-0,061
-255,365	317,582	0,081	-0,110
-254,351	-200,000	0,008	-0,081
-253,336	-93,020	0,118	-0,023
-252,322	210,097	0,039	-0,044
-251,307	-3,887	0,071	-0,035
-250,292	-200,000	0,017	0,063
-249,278	-200,000	0,006	0,057
-248,263	-200,000	0,041	0,139
-247,249	800,000	0,026	-0,075
-246,234	603,205	-0,036	0,065
-245,219	-120,670	-0,113	-0,013
-244,205	-200,000	0,005	0,028
-243,190	-158,235	0,069	0,003
-242,176	-118,294	-0,181	0,023
-241,161	-106,662	0,187	-0,029
-240,146	128,614	-0,056	0,051
-239,132	-200,000	-0,004	0,187
-238,117	-54,287	0,114	0,037
-237,103	-200,000	-0,144	-0,000
-236,088	800,000	0,028	0,058
-235,073	-14,714	0,058	0,026
-234,059	800,000	0,056	0,149
-233,044	763,339	-0,025	0,048
-232,030	-85,781	-0,026	0,006
-231,015	-183,667	-0,100	-0,001
-230,000	-147,415	0,090	0,005
-228,986	-200,000	-0,004	-0,028
-227,971	543,453	-0,052	0,089
-226,957	392,785	0,085	0,126
-225,942	800,000	0,036	0,101
-224,927	-200,000	0,034	-0,117
-223,913	-23,394	-0,078	-0,033
-222,898	-80,756	-0,135	0,032
-221,884	-81,552	0,111	-0,026
-220,869	800,000	0,060	0,139
-219,855	-200,000	0,035	0,128
-218,840	45,788	-0,154	0,101
-217,825	290,698	0,097	0,126
-216,811	-200,000	0,003	-0,166
-215,796	800,000	-0,020	0,049
-214,782	659,225	-0,053	0,097
-213,767	17,131	0,074	0,042
-212,752	-200,000	-0,017	0,134
-211,738	-57,490	0,101	-0,031
-210,723	-200,000	0,032	0,227
-209,709	-62,578	-0,066	0,019
-208,694	468,163	0,038	-0,060
-207,679	104,100	0,049	-0,041
-206,665	-68,044	0,134	0,037
-205,650	800,000	0,012	0,031
-204,636	179,638	0,062	-0,064
-203,621	800,000	-0,039	0,087
-202,606	100,828	-0,088	-0,073
-201,592	684,669	-0,051	-0,095
-200,577	254,193	0,034	-0,041
-199,563	-200,000	0,009	0,053
-198,548	4,178	0,030	0,016
-197,533	80,138	0,160	0,122
-196,519	800,000	-0,042	0,122
-195,504	151,188	-0,121	0,117
-194,490	-28,883	-0,075	-0,030
-193,475	-200,000	0,001	0,056
-192,460	34,377	-0,076	-0,047
-191,446	-118,241	0,139	-0,017
-190,431	389,422	0,082	0,121
-189,417	-8,977	0,073	-0,035
-188,402	-165,788	-0,075	0,002
-187,387	-200,000	0,032	-0,151
-186,373	-169,478	-0,076	0,002
-185,358	800,000	-0,007	-0,018
-184,344	-200,000	-0,011	0,095
-183,329	-200,000	0,006	0,117
-182,315	-28,295	-0,084	-0,034
-181,300	198,012	0,039	-0,042
-180,285	-8,501	0,012	0,006
-179,271	-200,000	-0,020	-0,138
-178,256	-116,252	-0,081	-0,011
-177,242	48,710	0,039	0,026
-176,227	-97,285	0,041	-0,008
-175,212	59,890	-0,044	-0,031
-174,198	526,290	0,078	0,132
-173,183	89,760	-0,027	-0,022
-172,169	608,213	0,070	-0,124
-171,154	-200,000	-0,018	-0,062
-170,139	-68,204	0,072	0,020
-169,125	108,313	-0,068	0,058
-168,110	493,103	0,021	0,034
-167,096	-200,000	0,037	-0,170
-166,081	64,385	-0,069	0,049
-165,066	-200,000	0,029	-0,105
-164,052	509,654	0,037	-0,061
-163,037	-78,610	-0,173	-0,042
-162,023	-200,000	0,010	-0,075
-161,008	24,724	-0,077	0,045
-159,993	128,398	0,089	0,080
-158,979	49,710	0,111	-0,074
-157,964	283,326	0,037	-0,048
-156,950	-200,000	0,016	-0,103
-155,935	-200,000	-0,002	-0,027
-154,920	77,819	0,055	-0,042
-153,906	298,973	0,061	-0,080
-152,891	207,735	0,055	0,061
-151,877	800,000	0,038	-0,084
-150,862	422,140	-0,022	-0,034
-149,847	-194,462	-0,157	0,001
-148,833	348,587	0,014	-0,019
-147,818	800,000	-0,023	-0,053
-146,804	451,696	0,067	0,105
-145,789	-200,000	-0,021	0,114
-144,775	228,813	0,082	-0,095
-143,760	800,000	0,024	-0,060
-142,745	-9,955	-0,061	-0,029
-141,731	15,318	-0,113	0,063
-140,716	-200,000	-0,001	0,142
-139,702	115,654	0,084	0,073
-138,687	-2,718	0,047	0,023
-137,672	551,678	-0,101	-0,173
-136,658	-200,000	0,001	-0,038
-135,643	114,733	-0,115	0,100
-134,629	-45,692	0,048	-0,017
-133,614	-200,000	-0,034	0,153
-132,599	800,000	-0,051	0,149
-131,585	-162,024	0,092	-0,003
-130,570	800,000	-0,040	0,088
-129,556	800,000	0,026	-0,071
-128,541	740,472	-0,018	-0,035
-127,526	358,741	-0,066	0,093
-126,512	-135,252	0,035	0,003
-125,497	352,753	0,029	0,041
-124,483	-37,191	0,062	0,023
-123,468	31,999	-0,147	-0,090
-122,453	800,000	0,016	-0,034
-121,439	-200,000	-0,020	-0,115
-120,424	-2,061	-0,110	-0,055
-119,410	-74,536	0,204	0,052
