DTS Sentinel unit serial number:	SN410029Multiplexer serial number:	ORYXHardware model number:	OX2-SRSoftware version number:	ORYX F/W v4,00 Oryx Data Collector v3.7.2.0data status	okinstallation	B6 Nyhavnadifferential loss correction	single-endedforward channel	channel 2reverse channel	N/Adate	2023/12/10time	09:05:08forward acquisition time	300,00reverse acquisition time	0,00gamma	499,1914k internal	0,3123k external	0,3123temperature offset calibration	1,0000default loss term (dB/km)	0,3820temperature slope calibration	1,0000multiplexer offset coefficient	1,0000multiplexer slope coefficient	1,0000fibre end	0,00T internal ref (°C)	22,56T ext. ref 1 (°C)	6,30T ext. ref 2 (°C)	6,29length (m)	temperature (°C)	Stokes	anti-Stokes-744,400	77,798	0,094	-0,075
-743,385	-28,700	-0,099	0,042
-742,371	-200,000	0,019	-0,066
-741,356	230,898	-0,104	0,128
-740,342	50,598	-0,027	0,019
-739,327	91,479	-0,140	0,117
-738,312	50,585	-0,072	0,051
-737,298	33,273	-0,160	0,103
-736,283	-32,242	-0,044	-0,018
-735,269	170,067	-0,213	0,227
-734,254	800,000	0,046	-0,110
-733,239	12,165	-0,290	-0,166
-732,225	114,242	0,097	0,088
-731,210	-77,145	0,052	0,013
-730,196	-191,144	-0,184	-0,001
-729,181	46,911	-0,076	-0,052
-728,167	-75,652	-0,039	0,010
-727,152	-4,486	-0,122	-0,063
-726,137	-107,703	-0,204	-0,033
-725,123	-200,000	-0,028	0,101
-724,108	47,131	-0,113	-0,078
-723,094	129,510	0,115	-0,109
-722,079	-13,711	-0,088	-0,042
-721,064	429,388	0,062	-0,099
-720,050	275,795	-0,009	0,012
-719,035	-200,000	-0,002	0,040
-718,021	20,619	-0,099	-0,059
-717,006	-196,793	-0,110	-0,001
-715,991	-140,932	-0,124	0,009
-714,977	-38,326	-0,099	-0,039
-713,962	-200,000	0,010	-0,069
-712,948	-8,520	0,091	0,045
-711,933	-75,234	-0,140	-0,037
-710,918	264,496	-0,060	-0,078
-709,904	241,280	-0,099	-0,124
-708,889	415,700	-0,035	-0,055
-707,875	74,535	-0,054	0,042
-706,860	36,027	-0,031	0,020
-705,845	800,000	0,008	0,026
-704,831	-84,164	-0,123	-0,029
-703,816	800,000	-0,041	-0,121
-702,802	-200,000	-0,010	-0,205
-701,787	75,258	-0,138	-0,108
-700,772	139,492	0,120	-0,117
-699,758	-200,000	0,013	0,106
-698,743	-200,000	-0,015	-0,059
-697,729	33,959	0,046	-0,030
-696,714	166,117	-0,038	0,040
-695,699	193,858	-0,132	-0,149
-694,685	-200,000	0,045	-0,256
-693,670	25,488	-0,145	-0,090
-692,656	-69,800	-0,087	-0,024
-691,641	-200,000	0,002	-0,116
-690,627	478,245	0,029	0,049
-689,612	-83,275	-0,090	0,021
-688,597	-200,000	0,024	-0,155
-687,583	277,429	0,022	0,029
-686,568	49,562	-0,139	-0,097
-685,554	80,967	-0,047	0,037
-684,539	-200,000	0,023	-0,077
-683,524	-12,266	0,030	0,015
-682,510	178,499	0,136	-0,148
-681,495	-122,486	0,053	-0,006
-680,481	52,977	-0,109	-0,078
-679,466	139,701	0,048	0,047
-678,451	18,993	0,067	0,040
-677,437	-133,382	-0,043	-0,004
-676,422	-200,000	-0,002	0,061
-675,408	-170,584	-0,037	-0,001
-674,393	800,000	0,008	-0,027
-673,378	-165,484	-0,108	-0,003
-672,364	-45,173	-0,102	-0,037
-671,349	-113,316	-0,050	0,007
-670,335	540,055	-0,044	-0,078
-669,320	-200,000	0,038	0,186
-668,305	161,821	0,084	0,087
-667,291	264,777	-0,092	0,120
-666,276	800,000	-0,036	-0,083
-665,262	-131,461	-0,115	0,011
-664,247	-200,000	0,033	-0,120
-663,232	800,000	0,015	-0,035
-662,218	168,687	0,060	0,063
-661,203	768,791	0,041	-0,084
-660,189	101,583	0,035	0,030
-659,174	409,591	-0,069	0,109
-658,159	390,613	-0,028	-0,044
-657,145	-200,000	0,000	-0,031
-656,130	289,760	0,050	0,067
-655,116	281,616	-0,057	0,076
-654,101	38,009	0,105	-0,069
-653,086	-155,023	-0,172	0,008
-652,072	71,649	-0,042	0,033
-651,057	-200,000	0,002	-0,056
-650,043	-200,000	0,010	-0,033
-649,028	16,634	0,083	-0,049
-648,014	707,961	0,010	0,019
-646,999	-200,000	0,007	0,069
-645,984	62,633	0,117	0,087
-644,970	-120,814	-0,114	0,014
-643,955	-109,285	-0,095	-0,015
-642,941	167,449	-0,037	-0,039
-641,926	-200,000	0,009	-0,064
-640,911	84,398	-0,051	0,042
-639,897	-200,000	0,001	0,085
-638,882	-200,000	0,004	0,055
-637,868	650,076	-0,031	0,059
-636,853	-200,000	-0,039	-0,131
-635,838	-200,000	-0,030	-0,107
-634,824	-189,452	-0,145	0,001
-633,809	-154,872	0,108	0,005
-632,795	-108,425	-0,078	-0,012
-631,780	-1,485	0,016	0,008
-630,765	82,834	0,119	0,096
-629,751	-190,693	-0,100	0,001
-628,736	800,000	0,029	-0,070
-627,722	-200,000	0,012	-0,059
-626,707	-200,000	-0,005	-0,040
-625,692	-70,540	-0,043	0,012
-624,678	-200,000	0,007	-0,027
-623,663	-97,110	-0,068	0,013
-622,649	-56,608	-0,216	-0,070
-621,634	31,010	0,067	0,042
-620,619	-87,186	-0,138	0,031
-619,605	800,000	-0,049	-0,132
-618,590	-200,000	0,009	0,045
-617,576	-48,919	0,058	0,021
-616,561	21,832	-0,111	-0,067
-615,546	800,000	-0,062	-0,146
-614,532	800,000	0,015	-0,037
-613,517	17,817	-0,026	-0,015
-612,503	-134,355	-0,083	0,007
-611,488	-66,606	0,163	0,048
-610,474	800,000	0,093	0,216
-609,459	176,313	0,028	0,030
-608,444	647,572	-0,049	0,092
-607,430	-200,000	-0,006	0,128
-606,415	-200,000	-0,004	0,053
-605,401	-113,888	0,036	-0,005
-604,386	70,852	-0,104	-0,080
-603,371	-200,000	-0,001	-0,016
-602,357	-33,912	-0,096	0,039
-601,342	35,396	0,040	0,026
-600,328	29,908	0,021	-0,013
-599,313	-200,000	-0,010	-0,239
-598,298	-151,439	0,086	0,005
-597,284	-200,000	0,006	-0,070
-596,269	252,395	0,027	-0,034
-595,255	250,142	-0,043	0,054
-594,240	-34,423	0,055	-0,022
-593,225	-48,702	-0,118	-0,042
-592,211	78,722	0,063	0,050
-591,196	-157,693	-0,115	0,005
-590,182	81,204	0,063	0,050
-589,167	288,566	0,075	0,101
-588,152	800,000	-0,029	0,075
-587,138	-200,000	0,007	0,103
-586,123	-1,175	0,084	-0,044
-585,109	-1,169	-0,062	0,032
-584,094	-157,626	0,125	0,005
-583,079	17,918	0,015	0,009
-582,065	-200,000	-0,010	0,097
-581,050	-76,931	-0,083	-0,021
-580,036	-54,856	0,071	-0,024
-579,021	14,655	-0,044	-0,025
-578,006	-114,962	-0,161	0,022
-576,992	195,989	-0,075	0,084
-575,977	-17,867	0,048	-0,022
-574,963	38,091	0,085	0,056
-573,948	18,220	0,115	0,068
-572,934	116,145	0,094	0,085
-571,919	351,700	-0,051	0,075
-570,904	358,968	-0,014	0,021
-569,890	-200,000	0,002	-0,120
-568,875	-200,000	-0,024	-0,086
-567,861	-128,023	0,166	0,017
-566,846	-200,000	-0,005	-0,032
-565,831	800,000	0,058	-0,154
-564,817	800,000	-0,087	-0,201
-563,802	486,879	-0,024	0,041
-562,788	24,902	0,133	-0,081
-561,773	-92,150	-0,050	-0,010
-560,758	-66,928	-0,081	-0,024
-559,744	102,759	-0,115	0,099
-558,729	-144,971	0,080	0,005
-557,715	266,222	0,088	-0,114
-556,700	363,776	0,090	-0,134
-555,685	150,377	-0,111	0,112
-554,671	45,879	0,075	0,051
-553,656	-200,000	-0,002	-0,037
-552,642	146,278	0,012	0,012
-551,627	-65,316	0,167	0,049
-550,612	-82,177	-0,075	-0,018
-549,598	-4,629	-0,089	0,045
-548,583	-133,943	-0,093	-0,008
-547,569	171,314	-0,052	-0,055
-546,554	376,010	0,046	0,069
-545,539	-152,156	0,059	-0,003
-544,525	518,558	-0,022	0,039
-543,510	491,129	0,080	-0,135
-542,496	-29,756	0,039	0,016
-541,481	103,729	0,071	0,061
-540,466	-139,818	-0,049	-0,004
-539,452	-200,000	0,015	0,054
-538,437	-119,353	0,122	0,015
-537,423	800,000	0,037	0,081
-536,408	-114,585	-0,052	0,007
-535,393	0,622	-0,083	-0,044
-534,379	-200,000	-0,029	-0,129
-533,364	800,000	-0,043	0,095
-532,350	109,334	0,059	0,052
-531,335	442,558	0,056	-0,090
-530,321	-58,819	0,120	-0,038
-529,306	-58,282	-0,086	-0,028
-528,291	-136,280	0,046	0,004
-527,277	-3,742	-0,170	0,087
-526,262	800,000	-0,041	0,121
-525,248	-20,565	0,030	0,014
-524,233	127,123	0,111	-0,104
-523,218	-64,163	0,053	0,016
-522,204	800,000	0,029	0,073
-521,189	-200,000	0,001	-0,025
-520,175	800,000	-0,081	-0,184
-519,160	-46,454	0,093	0,033
-518,145	-200,000	-0,014	0,054
-517,131	-108,303	-0,067	-0,011
-516,116	-76,737	0,097	0,025
-515,102	800,000	0,033	-0,100
-514,087	29,393	-0,147	0,092
-513,072	-101,379	-0,145	-0,026
-512,058	603,343	0,048	0,088
-511,043	675,207	0,066	-0,127
-510,029	-200,000	0,023	0,126
-509,014	-155,655	0,101	-0,005
-507,999	79,303	-0,024	0,019
-506,985	279,262	0,033	0,043
-505,970	-141,807	-0,125	0,009
-504,956	-59,915	0,054	0,017
-503,941	800,000	-0,043	0,099
-502,926	28,844	0,061	0,038
-501,912	33,894	0,121	0,077
-500,897	-200,000	-0,026	0,110
-499,883	-32,405	-0,093	-0,038
-498,868	-116,037	-0,066	-0,009
-497,853	-142,030	0,072	0,005
-496,839	430,355	0,029	-0,047
-495,824	93,926	0,084	-0,070
-494,810	-82,620	0,053	0,013
-493,795	-80,924	0,099	0,024
-492,781	254,693	0,024	0,030
-491,766	-119,897	0,059	-0,007
-490,751	-200,000	-0,008	0,069
-489,737	-200,000	0,001	0,064
-488,722	-43,491	0,124	-0,046
-487,708	-200,000	-0,008	-0,036
-486,693	598,497	0,067	0,124
-485,678	-200,000	0,007	0,056
-484,664	-3,947	0,082	0,042
-483,649	-48,066	-0,117	-0,042
-482,635	1,719	-0,108	-0,057
-481,620	-52,756	0,077	0,026
-480,605	-200,000	-0,003	0,143
-479,591	102,338	-0,050	-0,043
-478,576	-200,000	0,007	-0,127
-477,562	45,380	-0,059	-0,040
-476,547	72,718	0,132	-0,102
-475,532	-30,323	0,074	-0,031
-474,518	349,295	0,048	-0,071
-473,503	-200,000	0,001	-0,028
-472,489	79,560	0,077	-0,061
-471,474	-41,861	-0,074	0,028
-470,459	-127,987	-0,032	-0,003
-469,445	151,572	0,081	-0,082
-468,430	85,874	0,080	-0,065
-467,416	-200,000	-0,006	0,073
-466,401	-123,229	0,187	-0,022
-465,386	-27,005	0,077	0,033
-464,372	-110,721	-0,072	0,011
-463,357	-200,000	-0,005	0,167
-462,343	-200,000	-0,026	-0,251
-461,328	99,143	-0,056	-0,048
-460,313	196,415	-0,050	0,056
-459,299	314,074	0,095	-0,132
-458,284	-200,000	-0,025	0,149
-457,270	154,488	-0,017	0,017
-456,255	-149,913	-0,043	-0,002
-455,241	-4,786	-0,058	0,030
-454,226	-153,944	0,120	-0,006
-453,211	-91,349	-0,121	-0,025
-452,197	7,155	0,181	0,099
-451,182	-147,365	-0,084	-0,005
-450,168	69,625	-0,111	0,084
-449,153	115,815	0,058	0,052
-448,138	-64,461	-0,062	-0,018
-447,124	-200,000	-0,007	-0,037
-446,109	-200,000	-0,025	0,115
-445,095	-200,000	0,004	0,070
-444,080	800,000	0,032	0,082
-443,065	-116,351	-0,077	-0,010
-442,051	-200,000	0,010	0,100
-441,036	10,993	-0,010	-0,006
-440,022	-200,000	-0,035	-0,122
-439,007	-200,000	0,008	-0,034
-437,992	-200,000	0,011	-0,153
-436,978	182,929	-0,089	-0,097
-435,963	447,489	-0,021	-0,035
-434,949	767,356	0,043	-0,088
-433,934	-200,000	-0,006	0,033
-432,919	286,591	-0,016	0,021
-431,905	-200,000	-0,038	-0,160
-430,890	-200,000	-0,001	-0,071
-429,876	13,672	0,094	0,053
-428,861	-119,319	0,098	0,012
-427,846	-200,000	0,023	-0,134
-426,832	-5,699	0,055	-0,028
-425,817	-200,000	0,006	-0,054
-424,803	764,293	-0,042	-0,084
-423,788	800,000	-0,040	-0,086
-422,773	191,357	0,016	-0,017
-421,759	800,000	0,031	-0,065
-420,744	121,457	0,047	0,043
-419,730	-200,000	0,009	-0,092
-418,715	-190,929	0,084	-0,001
-417,701	-200,000	0,003	-0,025
-416,686	-56,967	-0,037	0,012
-415,671	-24,607	0,095	0,041
-414,657	13,565	0,086	-0,049
-413,642	24,419	-0,089	0,054
-412,628	273,804	-0,119	-0,156
-411,613	-200,000	-0,012	-0,044
-410,598	-52,795	-0,058	0,020
-409,584	442,140	-0,030	0,049
-408,569	-200,000	0,027	0,231
-407,555	-173,241	0,087	-0,002
-406,540	52,339	0,086	-0,060
-405,525	480,645	0,041	0,069
-404,511	-130,167	-0,016	-0,002
-403,496	765,911	-0,026	-0,053
-402,482	800,000	-0,061	-0,130
-401,467	-156,963	0,082	-0,004
-400,452	75,796	0,090	0,070
-399,438	-88,584	0,087	-0,019
-398,423	-200,000	0,005	-0,101
-397,409	11,440	0,021	0,012
-396,394	222,650	-0,091	0,108
-395,379	800,000	0,007	-0,017
-394,365	16,892	0,122	-0,071
-393,350	-126,853	-0,045	0,005
-392,336	257,446	0,051	-0,064
-391,321	-200,000	-0,024	0,081
-390,306	132,737	-0,151	-0,143
-389,292	629,362	-0,053	0,099
-388,277	-97,121	0,069	-0,013
-387,263	254,213	-0,045	-0,057
-386,248	335,659	-0,092	0,132
-385,233	-200,000	0,013	0,055
-384,219	502,936	-0,055	0,093
-383,204	67,632	0,037	-0,027
-382,190	323,452	-0,029	0,041
-381,175	-200,000	0,013	-0,048
-380,160	-200,000	0,035	0,192
-379,146	418,072	-0,049	0,078
-378,131	-200,000	0,002	0,078
-377,117	-119,842	0,024	0,003
-376,102	-145,395	-0,166	0,011
-375,088	-200,000	0,005	0,144
-374,073	-0,483	-0,064	-0,033
-373,058	-31,738	0,063	0,026
-372,044	-200,000	0,008	0,073
-371,029	292,093	-0,023	-0,031
-370,015	139,670	-0,035	-0,034
-369,000	95,515	-0,065	0,054
-367,985	10,410	-0,067	0,038
-366,971	785,036	-0,026	0,053
-365,956	-61,954	0,008	0,002
-364,942	9,748	0,059	0,033
-363,927	800,000	0,019	-0,050
-362,912	-36,589	-0,116	0,045
-361,898	-200,000	0,000	0,078
-360,883	170,168	0,094	0,099
-359,869	-40,802	0,096	-0,036
-358,854	278,314	-0,052	-0,069
-357,839	-200,000	-0,016	-0,080
-356,825	450,025	-0,028	0,046
-355,810	559,312	0,041	-0,073
-354,796	90,616	-0,104	0,085
-353,781	240,156	0,053	0,065
-352,766	283,884	0,032	0,042
-351,752	-200,000	0,010	0,114
-350,737	-103,067	0,088	-0,015
-349,723	620,695	-0,042	0,079
-348,708	-176,597	0,080	-0,001
-347,693	217,679	-0,055	0,065
-346,679	800,000	-0,027	0,062
-345,664	44,727	-0,055	0,037
-344,650	15,419	0,083	-0,048
-343,635	23,222	0,225	-0,135
-342,620	215,115	0,018	0,021
-341,606	546,774	0,039	-0,070
-340,591	63,954	0,054	-0,039
-339,577	-87,509	0,052	-0,011
-338,562	-200,000	-0,007	0,066
-337,548	800,000	-0,065	-0,153
-336,533	800,000	-0,027	0,077
-335,518	444,226	-0,004	-0,007
-334,504	800,000	-0,012	0,036
-333,489	73,163	-0,041	-0,032
-332,475	135,955	-0,044	-0,042
-331,460	-37,891	0,045	0,018
-330,445	-200,000	-0,006	-0,027
-329,431	83,002	-0,076	-0,060
-328,416	800,000	0,026	-0,059
-327,402	326,111	-0,082	0,115
-326,387	800,000	0,031	0,072
-325,372	-200,000	-0,042	0,176
-324,358	168,245	-0,032	0,034
-323,343	170,787	-0,037	-0,039
-322,329	744,132	0,041	-0,081
-321,314	88,038	0,097	-0,079
-320,299	800,000	0,042	0,116
-319,285	407,137	0,046	-0,071
-318,270	-197,357	-0,152	0,001
-317,256	-200,000	0,045	0,146
-316,241	-128,003	-0,090	-0,009
-315,226	-92,056	-0,020	-0,004
-314,212	-135,440	0,127	0,011
-313,197	44,075	0,024	-0,016
-312,183	-60,278	0,041	-0,013
-311,168	443,969	-0,079	-0,128
-310,153	-21,886	-0,051	-0,023
-309,139	-200,000	0,009	-0,046
-308,124	-156,459	0,181	0,008
-307,110	-200,000	0,001	-0,005
-306,095	-200,000	0,019	-0,070
-305,080	142,627	-0,174	0,169
-304,066	-200,000	-0,004	-0,016
-303,051	800,000	0,039	-0,100
-302,037	-21,272	-0,158	-0,070
-301,022	98,587	-0,053	-0,045
-300,008	-32,689	0,049	0,020
-298,993	-191,783	0,044	-0,000
-297,978	-96,401	-0,079	0,015
-296,964	158,696	-0,082	-0,083
-295,949	207,879	-0,021	-0,024
-294,935	-130,858	0,108	0,010
-293,920	-84,831	0,010	0,002
-292,905	-200,000	-0,004	0,162
-291,891	-200,000	0,017	0,149
-290,876	-200,000	0,000	-0,073
-289,862	100,007	0,086	-0,073
-288,847	20,793	-0,031	0,018
-287,832	-99,296	-0,056	-0,010
-286,818	29,956	0,051	0,032
-285,803	46,027	-0,085	-0,057
-284,789	110,154	0,100	-0,088
-283,774	800,000	0,010	-0,028
-282,759	81,284	-0,105	-0,083
-281,745	119,836	0,070	-0,063
-280,730	-200,000	-0,031	-0,150
-279,716	-200,000	0,062	-0,262
-278,701	12,149	-0,062	0,035
-277,686	-200,000	0,014	-0,085
-276,672	18,489	-0,025	0,014
-275,657	800,000	-0,046	-0,101
-274,643	-200,000	0,034	-0,129
-273,628	657,201	0,022	0,041
-272,613	-200,000	0,004	0,034
-271,599	-82,740	0,013	-0,003
-270,584	38,083	-0,115	-0,075
-269,570	190,682	0,049	-0,054
-268,555	261,513	-0,142	0,180
-267,540	190,361	0,048	0,053
-266,526	460,455	0,042	0,069
-265,511	-200,000	0,030	-0,102
-264,497	25,066	0,053	0,032
-263,482	-114,476	-0,122	0,017
-262,467	170,199	0,026	0,027
-261,453	210,170	-0,053	-0,060
-260,438	180,655	-0,066	0,071
-259,424	-45,947	-0,075	-0,027
-258,409	-42,269	-0,139	0,052
-257,395	-200,000	0,030	-0,130
-256,380	0,176	0,100	-0,052
-255,365	-200,000	0,025	0,134
-254,351	129,919	-0,027	-0,026
-253,336	-72,501	-0,056	-0,015
-252,322	-154,773	-0,056	-0,003
-251,307	-200,000	-0,004	-0,035
-250,292	800,000	-0,031	-0,076
-249,278	-75,604	0,101	0,026
-248,263	66,175	0,086	-0,063
-247,249	347,539	-0,046	0,067
-246,234	-200,000	0,035	-0,169
-245,219	-41,023	-0,149	0,056
-244,205	-99,685	-0,040	-0,007
-243,190	-200,000	-0,001	0,023
-242,176	800,000	0,029	-0,081
-241,161	-200,000	-0,007	0,091
-240,146	181,288	0,050	0,054
-239,132	-14,405	-0,111	-0,052
-238,117	155,987	0,090	-0,091
-237,103	94,377	0,022	0,018
-236,088	800,000	0,036	-0,082
-235,073	170,145	-0,012	-0,012
-234,059	-200,000	0,010	0,059
-233,044	800,000	0,044	0,118
-232,030	50,075	-0,055	-0,038
-231,015	-152,615	-0,039	-0,002
-230,000	51,528	-0,062	-0,043
-228,986	-110,618	0,055	-0,008
-227,971	-190,625	0,215	0,002
-226,957	42,944	0,069	-0,046
-225,942	800,000	0,027	0,058
-224,927	141,989	0,072	-0,069
-223,913	-31,154	0,060	-0,025
-222,898	-113,807	-0,094	-0,013
-221,884	800,000	-0,057	-0,151
-220,869	-61,346	0,155	-0,047
-219,855	65,091	0,111	0,082
-218,840	88,457	0,126	0,102
-217,825	800,000	-0,068	0,141
-216,811	71,258	0,036	-0,027
-215,796	108,128	-0,037	0,032
-214,782	427,353	-0,061	-0,096
-213,767	11,485	0,056	0,031
-212,752	800,000	0,026	0,070
-211,738	125,631	0,068	-0,062
-210,723	800,000	0,032	-0,064
-209,709	162,752	-0,034	0,035
-208,694	-200,000	0,017	-0,072
-207,679	-200,000	0,011	-0,051
-206,665	800,000	-0,078	-0,178
-205,650	263,866	0,043	0,055
-204,636	-200,000	-0,029	0,095
-203,621	-200,000	-0,020	0,256
-202,606	-200,000	0,004	0,114
-201,592	-62,421	0,027	0,008
-200,577	-77,567	-0,029	-0,007
-199,563	-106,893	0,035	0,006
-198,548	53,481	0,056	0,039
-197,533	220,910	0,031	0,036
-196,519	-200,000	-0,007	0,031
-195,504	-84,756	0,155	0,035
-194,490	800,000	0,016	0,038
-193,475	67,620	-0,019	0,014
-192,460	-41,804	-0,121	0,045
-191,446	336,468	-0,070	-0,100
-190,431	-159,674	0,083	0,003
-189,417	-200,000	0,007	0,086
-188,402	800,000	-0,044	-0,112
-187,387	5,841	-0,022	-0,012
-186,373	-200,000	0,017	0,088
-185,358	17,155	-0,141	0,081
-184,344	33,182	-0,073	0,046
-183,329	-200,000	-0,004	-0,085
-182,315	591,429	-0,067	0,121
-181,300	-161,929	-0,039	0,001
-180,285	271,966	-0,059	-0,077
-179,271	-54,292	-0,130	-0,043
-178,256	-200,000	-0,003	-0,136
-177,242	-200,000	-0,026	0,157
-176,227	-200,000	-0,002	-0,019
-175,212	-177,883	-0,151	-0,003
-174,198	93,874	-0,060	0,049
-173,183	-87,640	0,080	-0,017
-172,169	800,000	-0,035	-0,113
-171,154	16,420	0,061	-0,035
-170,139	-92,492	-0,034	-0,007
-169,125	-64,379	0,030	0,009
-168,110	452,205	-0,026	-0,042
-167,096	-81,283	-0,134	0,032
-166,081	339,150	-0,094	-0,133
-165,066	63,267	0,060	0,044
-164,052	-108,955	-0,054	0,008
-163,037	-200,000	0,007	0,022
-162,023	320,893	-0,126	0,175
-161,008	156,034	0,026	0,026
-159,993	238,067	-0,114	0,138
-158,979	-121,597	0,051	-0,006
-157,964	11,588	0,127	-0,071
-156,950	204,470	0,021	0,024
-155,935	-200,000	-0,021	0,077
-154,920	-157,586	0,066	0,003
-153,906	55,967	-0,108	-0,076
-152,891	-139,862	0,054	0,004
-151,877	-0,942	-0,154	0,079
-150,862	-138,202	-0,018	0,001
-149,847	-50,073	-0,031	-0,011
-148,833	73,372	0,068	-0,052
-147,818	68,348	-0,066	0,049
-146,804	207,124	0,038	0,043
-145,789	85,111	-0,067	0,053
-144,775	-132,890	0,027	0,002
-143,760	43,261	-0,055	-0,036
-142,745	80,010	-0,034	-0,027
-141,731	-29,477	-0,082	-0,034
-140,716	-200,000	0,012	0,050
-139,702	-102,304	0,106	0,018
-138,687	800,000	0,041	0,090
-137,672	347,923	-0,044	0,063
-136,658	72,551	-0,168	-0,127
-135,643	-200,000	-0,023	-0,076
-134,629	-28,114	0,045	-0,019
-133,614	800,000	0,060	0,171
-132,599	-137,597	0,111	-0,009
-131,585	261,611	-0,034	-0,043
-130,570	800,000	0,059	0,126
-129,556	-200,000	-0,006	-0,078
-128,541	800,000	-0,032	0,066
-127,526	64,342	-0,023	0,017
-126,512	-20,131	-0,076	0,034
-125,497	-200,000	0,020	0,086
-124,483	154,034	-0,022	-0,022
-123,468	246,001	0,068	0,084
-122,453	-130,389	-0,100	0,010
-121,439	-141,987	-0,107	-0,008
-120,424	409,115	-0,094	-0,146
-119,410	-54,917	0,047	0,015
