DTS Sentinel unit serial number:	SN410029Multiplexer serial number:	ORYXHardware model number:	OX2-SRSoftware version number:	ORYX F/W v4,00 Oryx Data Collector v3.7.2.0data status	okinstallation	B6 Nyhavnadifferential loss correction	single-endedforward channel	channel 2reverse channel	N/Adate	2023/12/07time	18:25:08forward acquisition time	300,00reverse acquisition time	0,00gamma	499,1914k internal	0,3163k external	0,3163temperature offset calibration	1,0000default loss term (dB/km)	0,3820temperature slope calibration	1,0000multiplexer offset coefficient	1,0000multiplexer slope coefficient	1,0000fibre end	0,00T internal ref (°C)	14,25T ext. ref 1 (°C)	-2,70T ext. ref 2 (°C)	-2,70length (m)	temperature (°C)	Stokes	anti-Stokes-744,400	132,671	0,074	-0,070
-743,385	-120,788	-0,174	-0,021
-742,371	158,986	0,128	0,131
-741,356	-97,145	-0,208	0,040
-740,342	44,278	0,109	0,073
-739,327	-54,002	-0,345	0,115
-738,312	800,000	0,017	-0,040
-737,298	-99,611	-0,411	-0,075
-736,283	-112,519	0,144	-0,021
-735,269	358,442	-0,154	0,228
-734,254	-79,067	0,237	-0,059
-733,239	-90,520	-0,565	-0,119
-732,225	-162,691	0,228	0,008
-731,210	-200,000	0,005	0,113
-730,196	-200,000	-0,004	0,144
-729,181	-200,000	-0,029	-0,146
-728,167	434,632	-0,103	-0,165
-727,152	107,149	-0,028	-0,024
-726,137	-47,840	-0,182	-0,064
-725,123	-45,442	-0,136	-0,049
-724,108	332,374	-0,046	-0,066
-723,094	-143,366	-0,203	-0,014
-722,079	569,352	-0,041	0,074
-721,064	698,861	-0,038	-0,074
-720,050	513,794	0,048	-0,082
-719,035	-200,000	-0,002	-0,008
-718,021	-200,000	0,021	-0,106
-717,006	655,260	0,051	0,096
-715,991	-26,240	-0,161	-0,069
-714,977	-84,647	0,105	-0,024
-713,962	800,000	-0,052	0,126
-712,948	148,999	-0,070	-0,070
-711,933	120,493	-0,029	-0,026
-710,918	508,906	-0,060	-0,103
-709,904	-52,774	-0,046	-0,016
-708,889	131,904	0,036	-0,034
-707,875	-43,277	-0,078	-0,029
-706,860	-9,631	0,097	-0,047
-705,845	-138,896	-0,164	0,013
-704,831	188,493	0,104	-0,114
-703,816	-200,000	0,000	-0,061
-702,802	-200,000	-0,038	-0,148
-701,787	206,385	-0,071	-0,081
-700,772	165,023	-0,095	-0,099
-699,758	156,841	0,067	0,069
-698,743	-34,015	-0,151	-0,061
-697,729	21,327	0,055	0,033
-696,714	-111,072	0,094	-0,014
-695,699	129,480	0,111	0,104
-694,685	-170,634	0,141	0,004
-693,670	510,404	-0,034	0,058
-692,656	800,000	-0,067	-0,160
-691,641	800,000	0,020	-0,042
-690,627	118,625	0,132	-0,120
-689,612	-135,685	0,186	0,016
-688,597	-175,393	-0,229	0,004
-687,583	-200,000	-0,033	-0,138
-686,568	521,606	-0,090	-0,156
-685,554	328,661	-0,082	-0,116
-684,539	-140,322	-0,072	0,005
-683,524	-3,472	0,110	-0,056
-682,510	-56,431	-0,058	0,019
-681,495	-200,000	-0,004	-0,020
-680,481	-107,396	-0,094	-0,015
-679,466	-200,000	0,002	-0,047
-678,451	668,074	-0,085	0,162
-677,437	553,635	-0,058	-0,103
-676,422	-102,928	0,152	0,026
-675,408	100,932	-0,022	-0,019
-674,393	42,572	-0,048	0,032
-673,378	377,244	0,015	-0,023
-672,364	-200,000	-0,052	-0,213
-671,349	626,025	0,067	-0,125
-670,335	25,550	-0,027	0,016
-669,320	770,017	0,010	-0,019
-668,305	-200,000	0,013	0,097
-667,291	800,000	-0,028	-0,083
-666,276	-70,529	-0,136	0,037
-665,262	800,000	0,016	0,038
-664,247	-2,959	-0,163	-0,083
-663,232	-70,744	0,064	0,018
-662,218	243,837	0,034	-0,042
-661,203	443,166	0,067	0,108
-660,189	-90,333	-0,084	0,018
-659,174	-90,499	-0,202	-0,043
-658,159	-200,000	0,007	0,035
-657,145	250,348	-0,068	0,085
-656,130	379,634	-0,062	-0,094
-655,116	-200,000	0,037	-0,121
-654,101	-200,000	-0,009	-0,032
-653,086	-200,000	-0,016	-0,104
-652,072	147,372	-0,127	0,125
-651,057	43,665	-0,120	-0,080
-650,043	-114,537	0,017	-0,002
-649,028	22,792	0,122	-0,073
-648,014	56,003	0,132	-0,094
-646,999	800,000	-0,012	0,028
-645,984	-200,000	0,018	-0,105
-644,970	418,224	0,109	0,171
-643,955	143,572	-0,147	-0,144
-642,941	-3,401	-0,033	-0,017
-641,926	275,970	0,017	0,022
-640,911	-200,000	-0,011	0,173
-639,897	-200,000	-0,012	-0,106
-638,882	757,119	-0,052	-0,104
-637,868	406,897	0,029	-0,045
-636,853	-200,000	-0,020	-0,079
-635,838	-200,000	-0,007	-0,077
-634,824	9,188	-0,009	0,005
-633,809	54,252	0,026	0,018
-632,795	-40,784	-0,029	0,011
-631,780	262,047	0,040	-0,050
-630,765	800,000	-0,035	-0,081
-629,751	326,462	-0,026	-0,036
-628,736	402,868	-0,033	-0,051
-627,722	-64,166	-0,033	0,010
-626,707	220,744	-0,017	-0,020
-625,692	-200,000	-0,008	0,059
-624,678	151,955	0,122	-0,122
-623,663	-200,000	0,007	0,037
-622,649	25,321	0,080	-0,049
-621,634	-200,000	0,024	-0,137
-620,619	-200,000	0,002	0,039
-619,605	800,000	-0,059	0,146
-618,590	774,166	-0,040	-0,081
-617,576	22,763	-0,046	-0,028
-616,561	800,000	0,012	0,033
-615,546	321,753	0,038	-0,053
-614,532	95,129	-0,031	0,026
-613,517	-124,784	-0,096	0,011
-612,503	-200,000	-0,001	0,125
-611,488	-89,346	0,126	0,027
-610,474	111,397	-0,034	0,030
-609,459	411,275	-0,017	-0,026
-608,444	-35,284	0,112	0,044
-607,430	290,077	0,047	-0,062
-606,415	3,439	-0,052	-0,027
-605,401	5,734	-0,129	0,069
-604,386	-200,000	0,009	0,047
-603,371	-200,000	-0,022	0,136
-602,357	-200,000	-0,009	0,049
-601,342	352,836	-0,024	-0,035
-600,328	-152,382	0,052	0,003
-599,313	-114,220	-0,088	-0,012
-598,298	800,000	0,062	-0,181
-597,284	50,031	0,076	-0,052
-596,269	586,405	-0,040	0,072
-595,255	45,500	0,037	-0,025
-594,240	268,265	-0,036	-0,047
-593,225	2,013	0,128	-0,067
-592,211	-200,000	0,001	-0,027
-591,196	347,946	-0,050	-0,072
-590,182	345,087	-0,029	-0,042
-589,167	-200,000	-0,015	-0,144
-588,152	-77,136	-0,115	-0,029
-587,138	-200,000	-0,015	-0,140
-586,123	-137,567	-0,024	0,002
-585,109	800,000	0,012	-0,030
-584,094	124,282	0,103	-0,095
-583,079	-27,408	-0,020	0,008
-582,065	229,275	-0,065	0,078
-581,050	457,865	0,032	0,051
-580,036	188,349	0,118	-0,129
-579,021	-159,721	-0,048	0,002
-578,006	398,626	-0,051	-0,079
-576,992	-32,622	0,019	0,008
-575,977	-119,075	0,067	0,009
-574,963	-1,241	-0,157	-0,081
-573,948	-200,000	-0,023	0,082
-572,934	-167,499	0,130	-0,004
-571,919	-54,418	-0,050	-0,016
-570,904	800,000	-0,021	-0,060
-569,890	670,116	0,034	0,064
-568,875	-200,000	-0,006	-0,069
-567,861	184,864	0,050	-0,054
-566,846	-200,000	0,000	-0,023
-565,831	626,119	-0,032	-0,058
-564,817	-5,009	0,072	0,036
-563,802	181,007	0,047	0,051
-562,788	401,805	-0,065	-0,101
-561,773	-158,672	0,103	-0,004
-560,758	213,973	-0,057	-0,066
-559,744	-200,000	0,003	0,054
-558,729	70,008	-0,186	0,140
-557,715	-104,404	-0,097	0,016
-556,700	-200,000	0,033	-0,135
-555,685	192,948	-0,066	-0,073
-554,671	800,000	0,075	-0,157
-553,656	29,485	0,018	0,011
-552,642	149,988	0,094	0,094
-551,627	-27,790	-0,070	0,030
-550,612	367,004	0,024	0,035
-549,598	-15,163	-0,053	-0,025
-548,583	-49,271	0,051	-0,018
-547,569	305,283	-0,074	-0,101
-546,554	80,097	0,024	0,019
-545,539	-44,505	0,037	-0,014
-544,525	-200,000	0,026	0,105
-543,510	800,000	0,023	-0,059
-542,496	120,192	-0,052	-0,047
-541,481	-126,484	-0,143	0,015
-540,466	800,000	-0,042	0,115
-539,452	732,135	-0,039	0,076
-538,437	92,299	0,095	0,078
-537,423	-130,961	0,097	-0,009
-536,408	35,077	-0,077	-0,049
-535,393	30,898	0,101	0,063
-534,379	-200,000	-0,002	-0,042
-533,364	-200,000	-0,004	0,022
-532,350	-200,000	-0,006	-0,043
-531,335	84,014	0,080	-0,064
-530,321	-200,000	-0,002	-0,035
-529,306	-83,035	-0,076	-0,018
-528,291	293,537	0,028	-0,038
-527,277	-39,601	-0,035	0,013
-526,262	764,469	-0,026	0,052
-525,248	-200,000	0,033	-0,146
-524,233	-200,000	-0,016	-0,069
-523,218	190,786	-0,100	0,110
-522,204	800,000	0,026	0,079
-521,189	-200,000	0,004	0,071
-520,175	-115,547	0,084	-0,011
-519,160	57,751	0,095	0,068
-518,145	69,641	-0,097	0,073
-517,131	222,168	0,044	0,052
-516,116	557,598	-0,071	0,125
-515,102	12,570	-0,086	0,048
-514,087	-126,021	-0,142	-0,015
-513,072	-21,677	-0,105	0,046
-512,058	88,209	0,020	-0,016
-511,043	49,241	0,036	0,024
-510,029	800,000	-0,021	0,063
-509,014	-118,503	0,104	-0,013
-507,999	800,000	-0,035	0,089
-506,985	800,000	-0,036	-0,105
-505,970	619,852	0,093	0,172
-504,956	-200,000	-0,007	0,032
-503,941	156,931	0,067	-0,068
-502,926	91,501	0,144	0,118
-501,912	-200,000	-0,033	0,146
-500,897	-200,000	0,016	0,079
-499,883	800,000	0,016	-0,039
-498,868	131,088	-0,069	-0,065
-497,853	272,837	0,027	-0,035
-496,839	231,350	0,015	-0,017
-495,824	800,000	-0,051	0,157
-494,810	74,186	0,062	0,048
-493,795	-200,000	0,005	-0,023
-492,781	197,222	-0,081	-0,090
-491,766	191,163	-0,149	-0,164
-490,751	233,971	-0,057	-0,069
-489,737	-158,785	-0,083	0,003
-488,722	739,019	-0,095	-0,187
-487,708	800,000	-0,003	-0,009
-486,693	800,000	-0,038	0,110
-485,678	87,320	0,073	0,059
-484,664	-118,800	0,057	-0,007
-483,649	213,428	0,033	0,038
-482,635	-16,452	0,084	0,039
-481,620	-74,676	-0,040	-0,010
-480,605	800,000	0,021	0,068
-479,591	800,000	-0,040	0,124
-478,576	-123,873	0,075	0,009
-477,562	322,578	0,042	0,059
-476,547	-69,908	0,086	0,024
-475,532	-200,000	-0,018	0,065
-474,518	-86,224	0,064	-0,014
-473,503	111,299	0,053	0,047
-472,489	-79,581	0,092	-0,022
-471,474	-200,000	0,010	0,033
-470,459	375,350	-0,006	0,008
-469,445	2,168	0,039	-0,020
-468,430	-200,000	0,001	0,109
-467,416	344,683	-0,057	-0,081
-466,401	800,000	-0,050	0,105
-465,386	-28,384	-0,139	-0,058
-464,372	-19,262	-0,094	0,042
-463,357	-83,128	-0,190	-0,044
-462,343	-34,719	0,098	0,039
-461,328	276,266	-0,063	0,082
-460,313	192,608	0,033	-0,036
-459,299	121,475	0,098	-0,089
-458,284	-163,884	0,088	-0,003
-457,270	76,573	-0,127	0,098
-456,255	-67,620	-0,158	-0,045
-455,241	35,875	0,016	0,010
-454,226	800,000	0,029	-0,068
-453,211	-200,000	-0,005	0,045
-452,197	-200,000	0,012	0,071
-451,182	55,504	0,192	-0,135
-450,168	800,000	0,016	0,037
-449,153	52,895	0,086	-0,059
-448,138	-142,565	0,093	0,007
-447,124	-68,099	-0,068	0,019
-446,109	-45,418	-0,134	-0,048
-445,095	281,480	0,124	0,162
-444,080	-79,278	0,074	-0,018
-443,065	800,000	0,020	0,042
-442,051	434,782	-0,060	-0,095
-441,036	-54,359	0,043	0,014
-440,022	-200,000	0,006	-0,111
-439,007	318,576	0,041	0,056
-437,992	-200,000	-0,008	-0,036
-436,978	-64,741	-0,025	-0,007
-435,963	7,907	-0,088	-0,048
-434,949	263,596	-0,124	0,157
-433,934	-20,310	-0,160	-0,071
-432,919	-200,000	-0,021	0,106
-431,905	764,559	-0,029	-0,057
-430,890	-200,000	0,002	0,159
-429,876	-74,422	0,068	0,018
-428,861	-50,747	-0,082	-0,028
-427,846	-200,000	0,001	-0,012
-426,832	186,709	-0,040	0,043
-425,817	241,249	-0,097	-0,118
-424,803	-111,415	0,142	0,021
-423,788	-200,000	0,014	0,152
-422,773	-82,871	0,102	0,024
-421,759	43,274	0,067	-0,045
-420,744	-5,296	0,054	-0,027
-419,730	-30,648	0,126	-0,052
-418,715	-131,523	-0,118	0,011
-417,701	800,000	-0,059	-0,151
-416,686	-48,811	0,107	0,037
-415,671	-200,000	-0,004	0,112
-414,657	-46,339	-0,114	0,040
-413,642	-170,468	0,023	-0,001
-412,628	-0,681	0,091	-0,047
-411,613	800,000	0,030	-0,086
-410,598	-200,000	0,015	-0,069
-409,584	308,627	0,025	0,033
-408,569	-179,148	-0,031	0,000
-407,555	800,000	0,044	0,101
-406,540	-111,616	0,020	0,003
-405,525	-62,874	-0,197	-0,059
-404,511	-200,000	0,014	0,107
-403,496	44,568	0,077	-0,051
-402,482	47,316	-0,036	-0,024
-401,467	525,219	-0,018	0,030
-400,452	99,001	-0,059	0,049
-399,438	-16,261	0,180	-0,083
-398,423	306,833	0,058	0,079
-397,409	-25,968	-0,121	0,051
-396,394	305,893	-0,058	0,078
-395,379	-177,274	-0,038	-0,001
-394,365	-13,102	0,152	0,071
-393,350	-148,637	0,040	0,002
-392,336	-56,061	0,077	0,025
-391,321	-14,855	0,051	0,024
-390,306	-200,000	0,003	-0,079
-389,292	-17,538	-0,122	-0,056
-388,277	28,366	-0,005	-0,003
-387,263	478,936	0,107	0,177
-386,248	-44,245	-0,023	0,008
-385,233	-200,000	0,034	-0,116
-384,219	10,590	0,102	0,057
-383,204	-131,993	-0,192	-0,018
-382,190	15,766	0,096	0,055
-381,175	-12,179	0,137	-0,065
-380,160	-83,897	0,046	-0,011
-379,146	-200,000	-0,020	0,097
-378,131	30,866	-0,135	-0,084
-377,117	-26,569	0,071	-0,030
-376,102	-144,167	-0,143	-0,010
-375,088	224,885	-0,079	0,093
-374,073	-14,663	0,112	0,052
-373,058	-200,000	-0,008	0,111
-372,044	-19,425	0,127	-0,057
-371,029	-3,688	-0,079	0,039
-370,015	273,446	-0,101	0,130
-369,000	-200,000	-0,012	-0,107
-367,985	-200,000	-0,015	-0,101
-366,971	-141,593	-0,145	0,010
-365,956	-74,854	0,077	-0,020
-364,942	-200,000	0,031	0,195
-363,927	-200,000	-0,015	-0,075
-362,912	292,620	0,046	0,061
-361,898	-200,000	-0,003	-0,048
-360,883	39,824	-0,011	0,007
-359,869	125,713	0,082	-0,075
-358,854	800,000	0,095	-0,206
-357,839	95,837	-0,014	0,012
-356,825	800,000	0,046	0,123
-355,810	6,364	-0,104	0,056
-354,796	-46,569	-0,050	0,018
-353,781	341,961	-0,015	0,022
-352,766	48,965	0,020	-0,014
-351,752	188,808	0,078	0,085
-350,737	-114,654	0,072	0,010
-349,723	-129,845	0,144	0,014
-348,708	92,996	-0,085	0,070
-347,693	142,130	-0,088	0,085
-346,679	-200,000	0,025	0,079
-345,664	-78,209	-0,123	-0,030
-344,650	217,220	0,043	-0,050
-343,635	-120,243	-0,250	-0,031
-342,620	37,089	0,077	0,050
-341,606	29,438	0,108	0,066
-340,591	60,260	-0,086	-0,062
-339,577	800,000	-0,029	-0,076
-338,562	393,920	-0,032	-0,048
-337,548	-166,996	-0,035	-0,001
-336,533	-134,379	0,045	-0,004
-335,518	-48,712	0,142	0,049
-334,504	222,749	-0,064	0,075
-333,489	-200,000	-0,008	0,046
-332,475	72,637	-0,013	0,010
-331,460	-136,893	-0,111	-0,009
-330,445	-46,485	0,114	0,040
-329,431	0,700	-0,050	0,026
-328,416	-151,998	0,055	-0,003
-327,402	401,295	0,096	0,147
-326,387	-200,000	0,022	-0,086
-325,372	424,030	-0,107	0,166
-324,358	800,000	-0,018	0,042
-323,343	345,912	0,052	-0,074
-322,329	-61,969	-0,080	0,024
-321,314	293,336	0,062	0,083
-320,299	709,958	-0,112	0,216
-319,285	-24,232	-0,064	0,027
-318,270	66,153	-0,036	0,027
-317,256	-84,004	-0,039	0,009
-316,241	-0,778	-0,112	-0,057
-315,226	-115,095	-0,032	0,004
-314,212	-25,576	0,201	0,086
-313,197	-68,627	-0,076	0,021
-312,183	-20,993	0,194	0,086
-311,168	-23,906	0,044	-0,019
-310,153	236,824	0,033	-0,039
-309,139	45,098	0,054	0,036
-308,124	48,633	0,121	-0,082
-307,110	114,472	0,051	0,045
-306,095	452,170	-0,087	0,139
-305,080	96,711	0,077	-0,063
-304,066	-200,000	0,005	0,044
-303,051	170,841	-0,108	-0,112
-302,037	-200,000	-0,001	-0,051
-301,022	-107,084	0,087	0,014
-300,008	800,000	-0,032	-0,096
-298,993	-110,985	-0,034	0,005
-297,978	-105,948	0,058	-0,009
-296,964	-62,090	0,055	-0,016
-295,949	-200,000	0,005	-0,027
-294,935	-61,111	-0,053	-0,016
-293,920	800,000	-0,056	0,138
-292,905	800,000	0,037	-0,100
-291,891	457,829	-0,106	0,171
-290,876	-139,108	0,092	-0,007
-289,862	-200,000	-0,012	0,051
-288,847	325,355	-0,091	0,126
-287,832	-127,440	-0,072	-0,007
-286,818	32,949	0,032	0,020
-285,803	274,424	-0,083	0,107
-284,789	800,000	-0,049	0,131
-283,774	-200,000	0,019	0,086
-282,759	800,000	0,026	0,073
-281,745	100,545	-0,076	-0,064
-280,730	800,000	-0,070	-0,155
-279,716	248,030	0,043	0,053
-278,701	800,000	0,024	-0,050
-277,686	52,781	0,101	0,069
-276,672	548,959	0,078	-0,136
-275,657	104,991	0,064	0,054
-274,643	52,489	0,139	0,096
-273,628	739,997	-0,066	-0,129
-272,613	-187,332	-0,052	0,000
-271,599	100,578	0,038	-0,032
-270,584	-25,940	0,149	0,063
-269,570	-45,719	-0,051	0,018
-268,555	-37,162	-0,164	-0,063
-267,540	-124,312	0,053	-0,006
-266,526	800,000	0,033	-0,085
-265,511	27,407	0,048	-0,029
-264,497	-200,000	0,032	-0,122
-263,482	-200,000	-0,002	0,054
-262,467	9,932	-0,057	0,031
-261,453	800,000	-0,029	0,068
-260,438	239,457	0,030	0,037
-259,424	-113,753	-0,143	-0,020
-258,409	-200,000	-0,018	-0,153
-257,395	3,563	-0,020	0,011
-256,380	465,062	-0,018	0,029
-255,365	-52,293	-0,116	-0,038
-254,351	-25,850	0,041	-0,017
-253,336	-83,751	-0,104	0,024
-252,322	558,591	-0,055	-0,096
-251,307	800,000	0,014	-0,037
-250,292	800,000	-0,029	0,058
-249,278	-87,533	-0,041	0,009
-248,263	-200,000	0,011	0,107
-247,249	-65,345	-0,041	-0,012
-246,234	-103,382	0,077	-0,013
-245,219	-142,690	0,039	-0,003
-244,205	231,370	0,068	0,081
-243,190	-98,467	0,042	0,008
-242,176	-76,884	-0,031	0,008
-241,161	-14,114	0,094	-0,044
-240,146	-200,000	-0,002	0,085
-239,132	-200,000	-0,005	0,089
-238,117	-149,997	-0,054	-0,003
-237,103	-200,000	-0,020	-0,202
-236,088	800,000	-0,026	-0,077
-235,073	-200,000	0,022	0,123
-234,059	43,084	0,058	0,038
-233,044	-200,000	0,028	-0,113
-232,030	304,332	0,025	0,034
-231,015	412,253	0,023	0,036
-230,000	800,000	-0,042	-0,118
-228,986	-61,895	-0,064	0,019
-227,971	800,000	0,029	-0,061
-226,957	-200,000	-0,028	-0,112
-225,942	-11,812	-0,123	-0,058
-224,927	-73,568	-0,065	-0,017
-223,913	181,250	0,050	-0,053
-222,898	39,997	-0,111	-0,072
-221,884	261,056	0,037	-0,046
-220,869	800,000	0,023	-0,067
-219,855	335,637	-0,043	0,060
-218,840	-114,262	0,063	0,009
-217,825	450,631	0,047	-0,076
-216,811	-200,000	-0,014	0,069
-215,796	800,000	-0,065	-0,142
-214,782	-115,740	-0,095	-0,013
-213,767	325,366	0,048	0,066
-212,752	-173,080	0,188	0,004
-211,738	-200,000	0,004	0,117
-210,723	-46,683	-0,041	0,014
-209,709	282,349	-0,037	-0,048
-208,694	800,000	0,030	-0,072
-207,679	267,051	-0,052	-0,065
-206,665	135,497	0,058	-0,055
-205,650	198,923	0,086	0,095
-204,636	-38,172	0,087	0,033
-203,621	-200,000	0,007	-0,068
-202,606	91,193	-0,122	0,099
-201,592	-124,016	-0,095	0,011
-200,577	-123,783	0,135	-0,015
-199,563	726,925	-0,058	-0,112
-198,548	-38,591	0,065	-0,025
-197,533	105,688	0,051	0,043
-196,519	-133,941	-0,093	-0,008
-195,504	-25,604	-0,060	0,026
-194,490	664,928	0,034	-0,063
-193,475	14,653	-0,123	-0,069
-192,460	-200,000	0,011	-0,047
-191,446	498,552	-0,034	0,057
-190,431	275,273	-0,018	-0,023
-189,417	65,345	0,105	0,077
-188,402	79,080	0,086	0,066
-187,387	103,932	0,069	-0,058
-186,373	-47,705	-0,112	-0,039
-185,358	-200,000	0,016	-0,063
-184,344	134,683	0,049	-0,046
-183,329	45,014	0,032	-0,021
-182,315	593,165	0,048	-0,085
-181,300	31,834	0,104	0,064
-180,285	-3,469	0,022	0,011
-179,271	90,132	0,080	0,065
-178,256	139,263	0,110	-0,104
-177,242	800,000	0,051	-0,104
-176,227	-200,000	0,023	-0,148
-175,212	800,000	-0,012	0,028
-174,198	75,696	-0,040	0,030
-173,183	-8,094	0,095	-0,046
-172,169	85,766	-0,047	0,037
-171,154	62,383	0,032	0,023
-170,139	800,000	-0,041	-0,093
-169,125	-200,000	-0,008	0,027
-168,110	-200,000	-0,007	0,039
-167,096	-122,032	-0,028	0,003
-166,081	800,000	-0,057	0,135
-165,066	-0,552	0,048	0,024
-164,052	338,506	-0,067	-0,094
-163,037	10,473	-0,054	0,029
-162,023	-89,224	-0,083	0,018
-161,008	119,933	0,136	-0,121
-159,993	414,020	0,035	-0,053
-158,979	-28,613	-0,118	-0,049
-157,964	141,843	-0,038	0,037
-156,950	112,349	-0,166	-0,145
-155,935	7,416	0,027	-0,014
-154,920	800,000	0,030	0,075
-153,906	198,412	0,032	0,035
-152,891	-200,000	0,029	-0,109
-151,877	257,240	-0,068	0,084
-150,862	-124,370	-0,025	0,003
-149,847	800,000	0,043	-0,112
-148,833	800,000	0,016	0,045
-147,818	800,000	-0,029	0,060
-146,804	800,000	0,049	0,156
-145,789	-56,155	-0,066	0,021
-144,775	-200,000	0,001	-0,091
-143,760	800,000	0,031	0,095
-142,745	361,923	-0,081	0,118
-141,731	1,985	0,084	-0,044
-140,716	395,493	-0,060	0,090
-139,702	30,276	-0,015	-0,009
-138,687	418,337	0,053	-0,082
-137,672	-200,000	-0,002	-0,115
-136,658	119,416	-0,036	-0,032
-135,643	-185,779	-0,106	-0,001
-134,629	65,073	0,033	-0,024
-133,614	-17,607	-0,094	-0,042
-132,599	5,762	0,112	0,059
-131,585	227,258	0,072	-0,084
-130,570	-58,263	-0,075	0,023
-129,556	-103,599	-0,121	0,020
-128,541	117,453	0,122	-0,108
-127,526	-46,122	-0,070	0,025
-126,512	-45,030	-0,075	-0,027
-125,497	-200,000	-0,003	0,058
-124,483	31,283	-0,089	0,055
-123,468	217,675	-0,009	0,011
-122,453	-200,000	0,013	-0,154
-121,439	460,603	-0,023	-0,037
-120,424	22,251	-0,065	-0,038
-119,410	538,311	0,013	0,023
