DTS Sentinel unit serial number:	SN410029Multiplexer serial number:	ORYXHardware model number:	OX2-SRSoftware version number:	ORYX F/W v4,00 Oryx Data Collector v3.7.2.0data status	okinstallation	B6 Nyhavnadifferential loss correction	single-endedforward channel	channel 2reverse channel	N/Adate	2023/12/09time	10:15:08forward acquisition time	300,00reverse acquisition time	0,00gamma	499,1914k internal	0,3139k external	0,3139temperature offset calibration	1,0000default loss term (dB/km)	0,3820temperature slope calibration	1,0000multiplexer offset coefficient	1,0000multiplexer slope coefficient	1,0000fibre end	0,00T internal ref (°C)	18,52T ext. ref 1 (°C)	2,18T ext. ref 2 (°C)	2,17length (m)	temperature (°C)	Stokes	anti-Stokes-744,400	77,780	0,135	-0,107
-743,385	-107,297	-0,252	-0,041
-742,371	-200,000	-0,009	-0,053
-741,356	-5,525	-0,178	0,090
-740,342	-200,000	0,032	0,152
-739,327	-26,834	-0,240	0,104
-738,312	220,841	0,133	-0,158
-737,298	94,029	-0,145	-0,122
-736,283	47,036	0,087	-0,060
-735,269	-141,870	-0,273	-0,020
-734,254	-5,890	0,053	0,027
-733,239	-126,198	-0,463	-0,051
-732,225	180,983	0,068	0,074
-731,210	194,005	-0,022	-0,025
-730,196	58,432	-0,091	-0,066
-729,181	800,000	-0,029	-0,074
-728,167	92,493	0,025	-0,021
-727,152	514,339	-0,033	-0,057
-726,137	-200,000	0,013	-0,058
-725,123	75,019	-0,054	0,042
-724,108	800,000	-0,067	-0,203
-723,094	69,768	-0,047	0,036
-722,079	45,156	-0,075	-0,051
-721,064	224,249	0,046	-0,056
-720,050	-200,000	0,002	0,029
-719,035	388,367	0,045	0,069
-718,021	-176,741	-0,088	0,002
-717,006	295,988	-0,123	-0,168
-715,991	-134,831	-0,100	-0,009
-714,977	-60,000	0,165	0,052
-713,962	62,614	-0,136	0,101
-712,948	-200,000	0,035	0,000
-711,933	-69,463	0,142	-0,040
-710,918	800,000	-0,060	-0,125
-709,904	800,000	-0,041	-0,087
-708,889	-200,000	-0,014	0,154
-707,875	105,019	-0,045	-0,039
-706,860	-200,000	0,019	-0,123
-705,845	84,438	-0,070	-0,057
-704,831	-200,000	0,031	0,139
-703,816	181,074	0,002	-0,002
-702,802	579,432	-0,025	-0,045
-701,787	-200,000	-0,015	-0,053
-700,772	12,145	-0,060	0,034
-699,758	-91,181	0,076	-0,016
-698,743	800,000	0,069	-0,168
-697,729	-168,845	-0,103	0,003
-696,714	800,000	0,007	0,021
-695,699	208,487	-0,034	-0,040
-694,685	-200,000	-0,005	-0,064
-693,670	800,000	-0,042	-0,103
-692,656	-59,365	-0,053	-0,017
-691,641	44,945	-0,049	-0,033
-690,627	-200,000	-0,002	0,062
-689,612	-200,000	0,015	-0,141
-688,597	141,117	-0,096	-0,094
-687,583	-200,000	0,018	-0,073
-686,568	30,865	-0,154	-0,098
-685,554	92,205	0,042	0,035
-684,539	19,689	0,138	0,082
-683,524	272,458	0,007	0,009
-682,510	309,598	0,075	-0,104
-681,495	-123,806	-0,136	-0,016
-680,481	360,944	-0,077	-0,114
-679,466	-105,606	-0,073	-0,012
-678,451	167,318	-0,093	-0,098
-677,437	-9,653	0,064	-0,032
-676,422	-89,396	-0,119	0,026
-675,408	534,575	0,009	-0,016
-674,393	3,412	-0,109	-0,059
-673,378	253,748	0,083	-0,105
-672,364	800,000	-0,040	-0,088
-671,349	33,719	0,099	-0,063
-670,335	88,319	0,088	-0,072
-669,320	-137,641	0,009	-0,001
-668,305	591,210	-0,073	0,134
-667,291	800,000	0,022	-0,069
-666,276	0,205	-0,080	-0,042
-665,262	3,028	0,040	-0,022
-664,247	87,626	-0,054	-0,044
-663,232	-200,000	0,002	-0,034
-662,218	-48,074	-0,079	-0,028
-661,203	-96,307	0,056	-0,011
-660,189	-192,369	-0,123	-0,001
-659,174	-200,000	-0,026	-0,112
-658,159	-67,993	0,106	-0,030
-657,145	217,407	-0,061	-0,072
-656,130	800,000	-0,046	0,144
-655,116	117,313	-0,059	-0,053
-654,101	800,000	0,050	0,113
-653,086	34,648	-0,153	0,098
-652,072	-188,812	0,102	0,001
-651,057	-90,329	-0,203	0,043
-650,043	145,306	-0,014	-0,014
-649,028	-122,481	-0,134	-0,016
-648,014	17,707	0,155	-0,091
-646,999	-75,755	0,121	0,031
-645,984	-147,476	-0,034	0,002
-644,970	-200,000	0,008	-0,044
-643,955	-200,000	0,016	-0,127
-642,941	-100,793	-0,043	-0,008
-641,926	800,000	0,010	0,030
-640,911	800,000	-0,059	-0,140
-639,897	13,179	-0,075	0,043
-638,882	188,996	-0,055	0,060
-637,868	-85,017	-0,120	-0,028
-636,853	192,396	-0,065	-0,073
-635,838	-152,771	-0,106	-0,005
-634,824	-200,000	-0,058	-0,222
-633,809	136,481	0,094	-0,091
-632,795	75,902	-0,041	-0,032
-631,780	-200,000	0,006	-0,084
-630,765	-96,984	-0,244	0,047
-629,751	213,620	0,101	-0,118
-628,736	145,065	-0,043	-0,042
-627,722	-146,171	-0,222	-0,014
-626,707	-200,000	-0,013	0,097
-625,692	-200,000	-0,011	0,148
-624,678	-8,562	0,086	0,043
-623,663	-24,599	0,101	-0,044
-622,649	-97,036	-0,162	0,031
-621,634	361,130	0,031	0,045
-620,619	64,366	-0,074	0,055
-619,605	800,000	0,029	-0,071
-618,590	-68,732	-0,107	0,030
-617,576	-131,001	0,106	-0,010
-616,561	-128,519	-0,102	0,011
-615,546	495,584	-0,019	0,032
-614,532	429,728	-0,097	-0,156
-613,517	15,310	0,024	0,014
-612,503	-128,030	-0,121	0,013
-611,488	-200,000	0,031	0,191
-610,474	386,325	0,087	0,134
-609,459	-200,000	-0,017	0,059
-608,444	-200,000	-0,013	-0,065
-607,430	568,721	0,041	0,075
-606,415	-148,736	0,092	0,005
-605,401	77,796	-0,047	0,037
-604,386	365,898	0,064	0,095
-603,371	75,459	0,112	-0,087
-602,357	800,000	-0,042	-0,125
-601,342	67,125	-0,016	-0,012
-600,328	-53,039	-0,078	-0,026
-599,313	345,188	-0,053	-0,077
-598,298	416,257	0,081	0,128
-597,284	271,798	0,010	-0,013
-596,269	-131,545	0,035	-0,003
-595,255	800,000	0,024	0,078
-594,240	100,920	-0,119	-0,102
-593,225	800,000	-0,054	-0,152
-592,211	92,984	-0,171	-0,142
-591,196	-95,452	0,070	0,014
-590,182	101,063	-0,004	0,004
-589,167	167,192	-0,144	-0,151
-588,152	25,964	0,125	-0,077
-587,138	-30,530	0,146	0,061
-586,123	-200,000	-0,017	0,096
-585,109	-2,210	0,068	0,035
-584,094	-200,000	-0,013	-0,059
-583,079	35,846	0,032	-0,021
-582,065	144,563	0,053	-0,052
-581,050	-200,000	-0,046	0,000
-580,036	-75,378	-0,279	0,073
-579,021	68,758	0,024	-0,018
-578,006	658,004	0,015	-0,029
-576,992	30,121	0,105	0,066
-575,977	-200,000	-0,043	0,147
-574,963	-21,098	-0,051	0,023
-573,948	25,309	-0,191	0,116
-572,934	128,827	0,067	-0,063
-571,919	-10,327	-0,052	0,025
-570,904	-41,846	-0,134	-0,050
-569,890	339,663	0,065	-0,094
-568,875	800,000	0,037	0,109
-567,861	-79,647	-0,091	0,022
-566,846	-117,964	0,147	-0,019
-565,831	662,253	0,038	0,073
-564,817	195,435	-0,107	0,119
-563,802	105,345	-0,035	-0,030
-562,788	-200,000	0,005	-0,059
-561,773	-200,000	0,032	-0,106
-560,758	-39,923	-0,104	-0,040
-559,744	177,273	0,063	0,067
-558,729	716,704	0,029	0,056
-557,715	-62,107	-0,048	0,015
-556,700	188,433	0,033	0,036
-555,685	-200,000	-0,017	0,128
-554,671	162,569	0,047	-0,049
-553,656	800,000	0,029	0,071
-552,642	800,000	-0,015	0,040
-551,627	-200,000	0,008	0,030
-550,612	-200,000	-0,001	-0,098
-549,598	-200,000	-0,033	-0,137
-548,583	28,975	0,075	0,047
-547,569	-116,446	0,123	-0,017
-546,554	800,000	0,031	0,084
-545,539	17,951	0,030	0,018
-544,525	-200,000	-0,003	0,038
-543,510	194,167	0,081	0,091
-542,496	-200,000	0,007	-0,152
-541,481	584,990	-0,028	-0,052
-540,466	168,684	-0,110	-0,115
-539,452	800,000	0,052	0,127
-538,437	208,685	-0,055	0,063
-537,423	-61,749	0,150	-0,046
-536,408	35,463	-0,073	0,047
-535,393	-8,988	-0,039	-0,019
-534,379	-200,000	0,000	-0,060
-533,364	-13,241	0,147	0,070
-532,350	-26,439	0,130	0,056
-531,335	-200,000	0,029	0,120
-530,321	-106,358	0,060	-0,010
-529,306	800,000	-0,021	-0,055
-528,291	-97,178	-0,133	0,025
-527,277	-41,334	0,019	0,007
-526,262	-46,894	-0,147	0,053
-525,248	-200,000	0,001	0,059
-524,233	800,000	0,061	0,127
-523,218	37,207	-0,066	0,043
-522,204	352,782	0,074	0,108
-521,189	-200,000	-0,005	-0,064
-520,175	-166,486	0,112	0,003
-519,160	-57,389	-0,052	-0,017
-518,145	-200,000	-0,007	-0,101
-517,131	-200,000	-0,007	0,077
-516,116	270,576	0,062	0,080
-515,102	255,288	0,045	-0,057
-514,087	800,000	-0,007	-0,015
-513,072	726,032	0,038	-0,075
-512,058	46,046	0,057	-0,039
-511,043	545,897	0,048	-0,085
-510,029	-183,537	0,085	-0,001
-509,014	191,829	0,084	0,093
-507,999	241,712	-0,004	0,005
-506,985	-35,101	0,131	0,052
-505,970	800,000	0,079	-0,191
-504,956	-200,000	0,005	0,059
-503,941	800,000	-0,044	0,120
-502,926	-25,499	0,025	-0,011
-501,912	18,773	0,067	-0,040
-500,897	-37,138	-0,098	0,038
-499,883	122,053	-0,094	-0,087
-498,868	-200,000	-0,030	-0,105
-497,853	155,911	-0,070	-0,071
-496,839	129,087	-0,051	-0,048
-495,824	129,019	0,060	0,056
-494,810	97,221	-0,059	-0,050
-493,795	-200,000	-0,009	-0,082
-492,781	-134,317	-0,034	-0,003
-491,766	-119,851	-0,127	-0,016
-490,751	443,522	-0,053	-0,085
-489,737	-28,431	0,035	0,015
-488,722	43,949	-0,048	-0,032
-487,708	-141,401	-0,132	-0,010
-486,693	131,464	0,068	-0,065
-485,678	-200,000	0,003	0,030
-484,664	273,352	0,045	-0,059
-483,649	54,092	-0,090	0,064
-482,635	626,312	0,095	-0,178
-481,620	800,000	-0,043	0,088
-480,605	-145,822	-0,077	-0,005
-479,591	-64,885	0,092	0,027
-478,576	529,247	-0,031	-0,054
-477,562	-36,283	-0,109	-0,043
-476,547	-200,000	0,001	-0,160
-475,532	800,000	-0,054	0,113
-474,518	81,006	0,053	-0,042
-473,503	89,499	-0,053	0,043
-472,489	-34,711	0,095	-0,038
-471,474	-200,000	-0,002	-0,034
-470,459	0,303	-0,135	0,071
-469,445	7,937	-0,186	-0,102
-468,430	-56,323	0,076	0,025
-467,416	-84,495	-0,018	-0,004
-466,401	117,950	0,079	0,072
-465,386	351,781	-0,079	0,116
-464,372	35,283	0,013	0,008
-463,357	90,888	-0,130	-0,107
-462,343	-200,000	0,001	-0,083
-461,328	-75,381	0,074	0,019
-460,313	211,798	0,112	0,129
-459,299	-132,441	0,022	0,002
-458,284	69,488	0,060	0,045
-457,270	44,458	0,062	-0,042
-456,255	-200,000	0,013	-0,116
-455,241	-200,000	-0,002	-0,157
-454,226	-200,000	0,002	-0,022
-453,211	800,000	-0,024	0,065
-452,197	148,755	0,044	-0,044
-451,182	-32,783	-0,102	-0,041
-450,168	-200,000	-0,017	0,082
-449,153	800,000	-0,045	-0,125
-448,138	-187,083	-0,022	0,000
-447,124	-200,000	0,012	-0,078
-446,109	800,000	0,011	0,024
-445,095	-80,333	-0,032	-0,008
-444,080	-141,487	0,018	-0,001
-443,065	-39,351	0,158	-0,060
-442,051	176,173	-0,099	-0,106
-441,036	-4,264	-0,111	0,056
-440,022	19,733	0,053	-0,031
-439,007	-66,887	-0,115	0,033
-437,992	-200,000	-0,012	-0,046
-436,978	-200,000	-0,007	0,038
-435,963	-50,749	-0,106	-0,036
-434,949	15,570	0,067	-0,038
-433,934	-200,000	-0,030	-0,165
-432,919	-200,000	0,008	-0,109
-431,905	-7,680	-0,072	0,035
-430,890	267,117	-0,056	0,072
-429,876	-83,194	0,025	0,006
-428,861	-200,000	-0,008	-0,047
-427,846	-48,452	0,156	0,055
-426,832	38,055	-0,064	-0,042
-425,817	-102,218	0,116	-0,020
-424,803	390,791	0,025	0,039
-423,788	233,684	0,029	0,036
-422,773	640,687	0,093	0,175
-421,759	-22,872	-0,145	0,064
-420,744	-200,000	0,109	0,000
-419,730	-200,000	0,012	-0,084
-418,715	142,891	-0,068	-0,066
-417,701	11,763	0,005	0,003
-416,686	51,079	-0,060	0,042
-415,671	-58,196	0,074	-0,023
-414,657	-116,972	0,119	0,016
-413,642	-24,281	0,053	-0,023
-412,628	235,622	-0,103	-0,125
-411,613	-200,000	-0,004	-0,063
-410,598	800,000	-0,040	-0,095
-409,584	40,024	0,081	0,053
-408,569	403,066	0,039	0,061
-407,555	-200,000	0,002	-0,092
-406,540	-200,000	-0,011	0,069
-405,525	-29,920	-0,163	-0,067
-404,511	-49,923	-0,075	-0,026
-403,496	184,259	0,072	-0,078
-402,482	216,832	0,046	0,053
-401,467	359,580	0,010	-0,015
-400,452	46,835	-0,029	0,019
-399,438	478,285	-0,050	0,083
-398,423	800,000	-0,010	-0,023
-397,409	-101,155	-0,086	-0,015
-396,394	-200,000	-0,012	-0,100
-395,379	-68,741	0,114	0,032
-394,365	-119,011	0,146	0,018
-393,350	-18,384	-0,099	0,045
-392,336	99,981	-0,120	0,101
-391,321	-93,660	-0,049	-0,010
-390,306	62,633	0,064	0,047
-389,292	-200,000	0,006	-0,119
-388,277	427,790	0,042	-0,066
-387,263	-200,000	-0,011	0,067
-386,248	-113,252	-0,034	-0,005
-385,233	-200,000	0,037	-0,184
-384,219	448,976	0,048	-0,077
-383,204	-147,079	-0,042	0,003
-382,190	64,693	0,076	-0,056
-381,175	-61,147	-0,040	0,012
-380,160	-200,000	0,022	-0,094
-379,146	238,863	0,017	0,020
-378,131	363,452	-0,020	-0,030
-377,117	-46,824	0,123	-0,044
-376,102	742,212	-0,044	-0,087
-375,088	65,564	-0,061	-0,045
-374,073	25,104	0,050	-0,031
-373,058	-200,000	0,001	0,069
-372,044	800,000	-0,041	0,125
-371,029	31,864	0,092	0,058
-370,015	94,256	0,021	-0,017
-369,000	-200,000	-0,029	-0,112
-367,985	200,738	-0,047	0,053
-366,971	170,586	0,047	-0,049
-365,956	-200,000	-0,001	-0,055
-364,942	-19,079	0,045	0,020
-363,927	-82,704	0,135	0,032
-362,912	748,244	0,025	-0,049
-361,898	-160,310	-0,080	-0,003
-360,883	731,661	-0,048	0,094
-359,869	-44,266	-0,234	0,085
-358,854	-105,561	0,100	-0,016
-357,839	285,435	-0,027	-0,036
-356,825	14,227	0,089	-0,050
-355,810	-33,759	-0,131	-0,053
-354,796	800,000	-0,031	0,076
-353,781	34,387	-0,102	-0,065
-352,766	27,200	-0,052	-0,032
-351,752	-16,420	0,046	-0,021
-350,737	222,647	0,039	0,046
-349,723	-45,191	0,026	-0,009
-348,708	-120,316	-0,066	-0,008
-347,693	211,894	0,032	0,037
-346,679	-6,751	-0,073	0,036
-345,664	-89,890	0,113	0,024
-344,650	-47,678	-0,078	-0,028
-343,635	128,524	-0,086	-0,080
-342,620	363,518	-0,009	-0,014
-341,606	336,209	-0,022	0,031
-340,591	371,619	-0,047	-0,070
-339,577	-36,644	-0,047	-0,018
-338,562	567,997	-0,051	-0,091
-337,548	800,000	0,036	0,094
-336,533	-140,835	0,169	0,013
-335,518	-200,000	0,031	0,150
-334,504	800,000	-0,028	0,077
-333,489	127,551	0,031	0,028
-332,475	61,854	0,097	0,070
-331,460	-200,000	-0,045	-0,168
-330,445	-3,528	0,042	0,021
-329,431	87,504	0,020	-0,016
-328,416	220,319	-0,069	0,081
-327,402	-200,000	-0,009	0,042
-326,387	141,074	-0,077	0,075
-325,372	117,808	-0,029	0,026
-324,358	264,624	-0,029	0,036
-323,343	-38,450	-0,074	-0,028
-322,329	387,221	0,084	0,127
-321,314	-64,983	0,116	0,034
-320,299	44,828	-0,117	0,079
-319,285	-21,104	0,115	-0,051
-318,270	-200,000	0,007	-0,135
-317,256	87,339	-0,068	-0,055
-316,241	-163,246	0,094	0,003
-315,226	-200,000	0,009	-0,046
-314,212	-159,561	0,073	-0,003
-313,197	-60,271	-0,022	0,007
-312,183	-200,000	0,029	-0,115
-311,168	366,929	-0,108	0,160
-310,153	-200,000	0,018	0,143
-309,139	-200,000	0,003	0,096
-308,124	98,815	-0,056	-0,047
-307,110	-190,483	0,075	0,001
-306,095	45,186	0,109	-0,073
-305,080	-10,179	0,090	-0,044
-304,066	-140,357	-0,125	0,009
-303,051	93,932	0,065	-0,054
-302,037	61,201	-0,054	-0,039
-301,022	505,171	-0,021	-0,036
-300,008	-200,000	-0,033	0,116
-298,993	800,000	-0,039	0,111
-297,978	376,111	-0,073	0,109
-296,964	-135,409	0,091	-0,008
-295,949	544,787	-0,036	0,062
-294,935	420,023	-0,081	0,127
-293,920	-200,000	0,027	0,093
-292,905	124,844	0,141	-0,130
-291,891	467,749	0,028	-0,047
-290,876	392,361	0,043	0,065
-289,862	-200,000	-0,003	-0,110
-288,847	800,000	-0,042	-0,088
-287,832	100,224	0,028	0,024
-286,818	-107,753	0,152	0,024
-285,803	167,095	0,106	0,110
-284,789	-200,000	-0,034	0,000
-283,774	368,266	0,109	0,161
-282,759	-7,531	-0,076	0,037
-281,745	800,000	-0,038	-0,120
-280,730	82,090	-0,104	-0,082
-279,716	800,000	-0,064	0,137
-278,701	103,788	0,123	-0,105
-277,686	299,592	-0,059	0,079
-276,672	-200,000	0,005	0,035
-275,657	-200,000	0,007	-0,041
-274,643	56,473	-0,035	0,025
-273,628	399,694	-0,019	-0,029
-272,613	800,000	0,034	-0,087
-271,599	-200,000	0,023	0,192
-270,584	-45,816	-0,047	-0,017
-269,570	120,476	0,052	-0,047
-268,555	-200,000	0,009	-0,041
-267,540	-34,119	-0,028	0,011
-266,526	-116,403	-0,042	0,006
-265,511	-200,000	-0,021	-0,134
-264,497	800,000	0,016	-0,036
-263,482	92,300	0,067	-0,055
-262,467	428,082	0,031	0,049
-261,453	-101,390	0,154	0,027
-260,438	-138,536	-0,124	-0,010
-259,424	65,516	-0,090	0,066
-258,409	-200,000	-0,010	0,080
-257,395	-200,000	-0,031	0,101
-256,380	10,513	0,112	-0,062
-255,365	292,761	-0,017	0,022
-254,351	-78,674	0,058	-0,014
-253,336	546,776	0,055	0,096
-252,322	201,350	-0,107	-0,120
-251,307	130,327	-0,027	-0,025
-250,292	-148,992	0,165	0,010
-249,278	-84,263	-0,084	0,019
-248,263	82,870	0,050	0,040
-247,249	800,000	-0,062	0,139
-246,234	-114,478	0,013	0,002
-245,219	-200,000	-0,001	-0,101
-244,205	800,000	-0,032	0,070
-243,190	-6,311	0,014	-0,007
-242,176	486,852	0,043	0,071
-241,161	36,232	0,049	0,031
-240,146	800,000	-0,034	0,086
-239,132	-200,000	0,000	0,070
-238,117	83,622	-0,114	0,090
-237,103	-95,819	0,012	0,002
-236,088	-51,733	-0,140	0,047
-235,073	305,116	0,049	0,067
-234,059	-9,924	0,151	-0,073
-233,044	11,680	-0,025	-0,014
-232,030	38,550	0,038	-0,025
-231,015	98,357	-0,095	-0,080
-230,000	596,355	0,058	0,104
-228,986	568,676	0,062	-0,111
-227,971	800,000	-0,031	0,080
-226,957	-50,133	0,083	0,029
-225,942	79,565	0,080	0,062
-224,927	-200,000	0,011	-0,126
-223,913	800,000	-0,037	0,095
-222,898	-200,000	-0,015	-0,134
-221,884	800,000	0,027	-0,078
-220,869	74,278	0,049	-0,037
-219,855	120,785	0,115	-0,104
-218,840	-200,000	-0,024	0,098
-217,825	800,000	0,032	-0,082
-216,811	800,000	0,045	-0,094
-215,796	-200,000	-0,013	0,077
-214,782	800,000	-0,004	-0,012
-213,767	-67,859	-0,058	0,016
-212,752	-200,000	-0,034	0,133
-211,738	800,000	0,046	0,101
-210,723	-99,760	-0,125	-0,023
-209,709	53,074	-0,006	-0,005
-208,694	800,000	0,009	0,028
-207,679	226,391	-0,034	-0,041
-206,665	5,138	-0,078	-0,042
-205,650	-58,830	0,116	0,036
-204,636	149,652	0,031	0,030
-203,621	353,618	0,019	0,028
-202,606	-95,253	0,036	0,007
-201,592	38,916	-0,029	0,019
-200,577	30,096	-0,063	-0,039
-199,563	-81,893	-0,052	-0,012
-198,548	-104,726	0,052	0,009
-197,533	-200,000	0,003	0,168
-196,519	-64,406	0,104	0,030
-195,504	-9,746	-0,081	0,039
-194,490	800,000	0,056	0,123
-193,475	-43,600	-0,144	-0,053
-192,460	-200,000	0,000	-0,102
-191,446	404,512	0,062	-0,095
-190,431	-175,855	0,085	0,002
-189,417	-110,317	0,073	0,011
-188,402	55,189	-0,187	-0,131
-187,387	-104,707	-0,124	0,021
-186,373	-5,880	0,036	-0,018
-185,358	35,424	0,079	0,050
-184,344	-200,000	0,018	0,100
-183,329	20,627	0,102	0,060
-182,315	-71,542	0,105	-0,028
-181,300	-200,000	-0,006	0,057
-180,285	115,790	-0,030	-0,027
-179,271	313,617	0,067	-0,092
-178,256	-154,249	0,047	0,002
-177,242	-200,000	-0,001	-0,030
-176,227	800,000	-0,035	-0,110
-175,212	-200,000	-0,000	0,046
-174,198	54,908	0,042	-0,029
-173,183	334,878	-0,031	0,043
-172,169	66,839	-0,125	-0,092
-171,154	-200,000	0,000	-0,077
-170,139	-200,000	-0,027	0,119
-169,125	81,318	0,125	0,098
-168,110	28,951	0,123	-0,075
-167,096	63,423	0,182	0,132
-166,081	-200,000	-0,044	0,142
-165,066	48,001	0,167	-0,113
-164,052	-145,816	0,044	0,003
-163,037	-200,000	0,014	0,056
-162,023	91,435	0,066	0,054
-161,008	800,000	-0,029	0,060
-159,993	-29,734	0,153	0,063
-158,979	32,302	-0,183	-0,114
-157,964	-36,134	0,074	0,029
-156,950	505,911	-0,074	-0,125
-155,935	-200,000	0,000	0,193
-154,920	-193,911	-0,061	0,000
-153,906	132,840	0,187	0,175
-152,891	704,823	-0,083	0,160
-151,877	-59,182	-0,053	0,016
-150,862	-132,780	-0,060	-0,005
-149,847	-182,601	-0,042	-0,001
-148,833	800,000	-0,013	-0,028
-147,818	-65,718	0,100	-0,029
-146,804	208,795	-0,020	0,023
-145,789	-151,732	0,035	-0,002
-144,775	-52,139	0,044	-0,015
-143,760	120,602	0,021	-0,019
-142,745	-200,000	-0,009	-0,129
-141,731	-58,631	0,055	-0,017
-140,716	-73,373	-0,080	0,021
-139,702	336,782	0,046	0,065
-138,687	-121,968	0,069	-0,008
-137,672	800,000	0,020	0,044
-136,658	388,029	-0,021	-0,031
-135,643	7,566	-0,081	0,044
-134,629	297,081	0,041	0,055
-133,614	-64,390	0,056	0,016
-132,599	-14,450	0,040	-0,019
-131,585	-11,682	0,102	0,048
-130,570	-200,000	0,022	0,135
-129,556	-85,703	-0,109	0,024
-128,541	800,000	-0,035	-0,084
-127,526	-200,000	-0,003	0,109
-126,512	-113,543	-0,033	0,005
-125,497	8,791	0,194	0,105
-124,483	116,974	0,045	0,040
-123,468	59,871	0,091	-0,065
-122,453	48,384	0,112	-0,076
-121,439	74,979	0,081	0,062
-120,424	-36,175	-0,007	0,003
-119,410	-24,485	0,060	0,026
-118,395	4,385	0,131	-0,069
