DTS Sentinel unit serial number:	SN410029Multiplexer serial number:	ORYXHardware model number:	OX2-SRSoftware version number:	ORYX F/W v4,00 Oryx Data Collector v3.7.2.0data status	okinstallation	B6 Nyhavnadifferential loss correction	single-endedforward channel	channel 2reverse channel	N/Adate	2023/12/08time	20:45:08forward acquisition time	300,00reverse acquisition time	0,00gamma	499,1914k internal	0,3158k external	0,3158temperature offset calibration	1,0000default loss term (dB/km)	0,3820temperature slope calibration	1,0000multiplexer offset coefficient	1,0000multiplexer slope coefficient	1,0000fibre end	0,00T internal ref (°C)	15,19T ext. ref 1 (°C)	-1,40T ext. ref 2 (°C)	-1,41length (m)	temperature (°C)	Stokes	anti-Stokes-744,400	-135,184	0,190	-0,017
-743,385	-107,467	-0,347	-0,056
-742,371	437,805	0,084	0,135
-741,356	-113,875	-0,372	0,053
-740,342	140,247	0,126	0,123
-739,327	-50,925	-0,283	0,098
-738,312	317,858	-0,042	0,059
-737,298	-161,700	-0,385	-0,014
-736,283	377,728	0,107	0,162
-735,269	-18,598	-0,272	0,124
-734,254	55,889	0,061	-0,043
-733,239	-79,120	-0,501	-0,124
-732,225	-90,557	0,145	-0,031
-731,210	-200,000	0,011	-0,153
-730,196	235,623	0,023	-0,028
-729,181	-56,809	-0,076	-0,025
-728,167	-105,576	-0,056	-0,009
-727,152	698,267	0,050	0,097
-726,137	77,987	-0,063	0,049
-725,123	800,000	-0,029	-0,088
-724,108	37,614	-0,075	0,049
-723,094	-93,041	-0,043	0,009
-722,079	-200,000	-0,034	-0,115
-721,064	238,367	-0,032	-0,040
-720,050	-200,000	-0,005	-0,043
-719,035	223,829	-0,106	-0,126
-718,021	114,977	-0,156	-0,140
-717,006	110,215	-0,090	0,079
-715,991	507,962	-0,089	-0,152
-714,977	-200,000	-0,025	-0,198
-713,962	21,273	0,053	-0,032
-712,948	-200,000	-0,009	0,065
-711,933	-153,634	-0,105	0,005
-710,918	475,630	-0,061	-0,101
-709,904	594,971	-0,045	0,083
-708,889	485,921	0,031	-0,053
-707,875	262,181	0,029	-0,038
-706,860	283,309	0,003	0,004
-705,845	-27,157	-0,039	0,017
-704,831	-106,268	-0,057	0,009
-703,816	-200,000	0,019	0,103
-702,802	-104,375	0,066	-0,011
-701,787	26,768	-0,000	-0,000
-700,772	-200,000	-0,015	-0,063
-699,758	-200,000	0,013	-0,159
-698,743	-200,000	0,029	0,108
-697,729	42,889	-0,042	-0,028
-696,714	290,867	-0,060	-0,080
-695,699	-21,751	-0,064	-0,029
-694,685	-200,000	-0,017	-0,147
-693,670	59,137	-0,056	-0,040
-692,656	54,279	-0,035	-0,025
-691,641	-45,161	-0,140	0,051
-690,627	-106,795	0,043	0,007
-689,612	-200,000	0,009	-0,034
-688,597	396,992	0,094	-0,145
-687,583	84,615	-0,056	0,045
-686,568	47,912	-0,012	-0,008
-685,554	191,897	-0,095	-0,105
-684,539	433,683	0,136	0,219
-683,524	-116,028	0,021	-0,003
-682,510	487,479	0,054	-0,091
-681,495	-65,546	0,033	0,010
-680,481	668,567	0,059	-0,113
-679,466	-200,000	-0,025	-0,130
-678,451	-144,869	0,105	-0,007
-677,437	457,951	-0,037	-0,060
-676,422	203,288	0,022	0,025
-675,408	-200,000	-0,023	0,098
-674,393	215,192	0,030	0,035
-673,378	-200,000	-0,037	-0,132
-672,364	-18,107	-0,074	0,034
-671,349	29,945	-0,122	-0,076
-670,335	-76,440	-0,031	-0,008
-669,320	0,207	-0,095	-0,050
-668,305	-200,000	-0,010	0,036
-667,291	77,730	-0,100	-0,078
-666,276	-59,018	0,007	-0,002
-665,262	-36,503	-0,133	-0,052
-664,247	126,480	0,038	0,035
-663,232	220,281	0,067	-0,079
-662,218	800,000	0,035	0,078
-661,203	86,773	-0,092	0,074
-660,189	-200,000	0,020	-0,089
-659,174	574,332	0,018	0,033
-658,159	800,000	0,028	-0,077
-657,145	189,363	-0,188	-0,207
-656,130	251,279	0,024	0,030
-655,116	800,000	-0,063	0,198
-654,101	800,000	0,020	0,062
-653,086	162,243	-0,046	0,047
-652,072	225,395	-0,015	-0,018
-651,057	567,523	-0,018	-0,032
-650,043	-153,586	0,108	-0,005
-649,028	415,380	0,044	0,069
-648,014	125,290	-0,082	-0,076
-646,999	-33,735	0,105	-0,042
-645,984	170,431	-0,084	0,089
-644,970	271,389	-0,053	0,068
-643,955	-188,430	-0,100	0,001
-642,941	160,145	-0,064	-0,066
-641,926	49,492	0,037	-0,025
-640,911	800,000	0,059	-0,135
-639,897	-200,000	0,015	0,073
-638,882	-33,487	-0,005	0,002
-637,868	-200,000	-0,005	-0,061
-636,853	514,451	-0,052	-0,090
-635,838	264,737	-0,085	-0,109
-634,824	-153,236	-0,171	0,009
-633,809	-170,083	0,160	-0,004
-632,795	-22,347	-0,037	0,016
-631,780	800,000	0,014	0,032
-630,765	-3,971	-0,073	-0,037
-629,751	-200,000	-0,031	-0,146
-628,736	770,344	0,010	-0,021
-627,722	-12,619	-0,049	0,023
-626,707	-59,483	0,040	-0,013
-625,692	51,450	0,061	0,042
-624,678	83,100	-0,039	0,031
-623,663	343,150	-0,078	0,112
-622,649	564,136	0,022	0,040
-621,634	-200,000	-0,028	-0,104
-620,619	-137,744	-0,165	0,013
-619,605	-68,884	0,150	-0,042
-618,590	90,327	0,060	0,049
-617,576	800,000	0,026	-0,071
-616,561	-88,790	0,182	0,039
-615,546	21,481	-0,090	-0,054
-614,532	84,435	-0,120	-0,096
-613,517	311,280	-0,067	-0,092
-612,503	-62,570	0,034	0,010
-611,488	11,965	-0,049	0,027
-610,474	-29,085	-0,029	-0,012
-609,459	-60,225	-0,090	-0,028
-608,444	-68,551	-0,046	-0,013
-607,430	-200,000	0,013	-0,074
-606,415	-51,729	-0,102	-0,035
-605,401	-61,641	0,156	0,048
-604,386	-10,789	-0,131	0,063
-603,371	800,000	0,036	-0,083
-602,357	-200,000	-0,022	-0,083
-601,342	-200,000	-0,011	-0,162
-600,328	-97,571	-0,179	-0,034
-599,313	-64,597	-0,074	-0,022
-598,298	-87,200	-0,132	0,029
-597,284	-128,154	0,145	-0,015
-596,269	208,907	-0,072	-0,083
-595,255	-200,000	0,014	0,084
-594,240	296,416	0,073	-0,098
-593,225	-61,813	0,047	-0,014
-592,211	-126,659	0,073	0,008
-591,196	-76,046	-0,101	0,026
-590,182	-60,082	0,120	0,037
-589,167	308,201	-0,056	0,076
-588,152	-70,495	0,100	-0,028
-587,138	-200,000	-0,001	0,020
-586,123	432,844	-0,039	-0,062
-585,109	282,788	-0,046	-0,060
-584,094	-127,091	-0,074	-0,008
-583,079	-200,000	-0,012	0,097
-582,065	-4,003	0,062	0,031
-581,050	41,644	0,054	0,036
-580,036	-45,926	-0,113	-0,041
-579,021	7,185	-0,089	0,048
-578,006	-30,954	-0,162	-0,067
-576,992	117,121	0,071	0,064
-575,977	-123,724	0,225	0,026
-574,963	32,239	0,112	0,070
-573,948	203,295	-0,022	0,025
-572,934	-200,000	0,006	0,020
-571,919	13,972	-0,174	-0,099
-570,904	800,000	-0,033	-0,069
-569,890	267,869	-0,107	-0,137
-568,875	-200,000	-0,003	-0,092
-567,861	51,895	0,024	0,017
-566,846	-200,000	-0,005	0,031
-565,831	-200,000	-0,101	0,000
-564,817	-52,938	0,056	-0,019
-563,802	-200,000	0,009	-0,144
-562,788	81,393	0,035	0,028
-561,773	-200,000	-0,000	0,178
-560,758	-99,731	-0,161	0,029
-559,744	-200,000	0,010	0,051
-558,729	800,000	-0,016	0,050
-557,715	98,230	0,050	0,042
-556,700	109,026	-0,056	-0,049
-555,685	408,743	0,021	-0,032
-554,671	332,211	0,046	-0,065
-553,656	800,000	0,046	-0,101
-552,642	-53,415	-0,050	-0,016
-551,627	502,915	-0,039	-0,066
-550,612	-138,818	-0,041	-0,003
-549,598	-143,893	0,081	0,005
-548,583	-97,127	-0,160	-0,030
-547,569	-200,000	-0,017	-0,126
-546,554	104,236	0,057	-0,049
-545,539	186,837	-0,016	0,018
-544,525	-200,000	-0,007	-0,047
-543,510	-200,000	-0,008	-0,065
-542,496	-200,000	-0,030	0,147
-541,481	-200,000	0,016	0,075
-540,466	128,832	-0,073	0,068
-539,452	-78,671	-0,046	-0,011
-538,437	58,837	-0,022	-0,016
-537,423	-44,053	-0,136	0,050
-536,408	-200,000	-0,017	-0,066
-535,393	26,728	0,027	-0,016
-534,379	800,000	0,043	-0,116
-533,364	-200,000	-0,002	0,027
-532,350	615,895	0,080	0,148
-531,335	800,000	-0,012	0,025
-530,321	-200,000	-0,015	-0,075
-529,306	328,243	-0,090	-0,126
-528,291	693,498	-0,010	0,018
-527,277	-200,000	0,032	0,125
-526,262	793,494	-0,002	0,005
-525,248	-200,000	0,021	0,106
-524,233	542,348	0,050	0,088
-523,218	-200,000	-0,009	0,217
-522,204	-68,085	-0,058	-0,016
-521,189	800,000	0,033	-0,081
-520,175	-103,896	0,084	-0,014
-519,160	-200,000	-0,016	-0,061
-518,145	-44,890	0,064	-0,023
-517,131	-60,434	-0,089	0,027
-516,116	-200,000	-0,001	-0,017
-515,102	73,625	0,059	0,045
-514,087	-21,267	-0,076	-0,034
-513,072	-200,000	0,025	-0,096
-512,058	-106,875	-0,118	-0,019
-511,043	800,000	0,036	-0,107
-510,029	-40,623	0,051	0,019
-509,014	-108,536	-0,008	-0,001
-507,999	-84,923	-0,085	-0,019
-506,985	239,565	0,030	-0,036
-505,970	-187,359	0,110	-0,001
-504,956	-144,868	-0,045	-0,003
-503,941	800,000	0,021	0,051
-502,926	-43,069	0,179	-0,066
-501,912	-88,597	-0,103	0,022
-500,897	-35,153	-0,042	-0,016
-499,883	-95,468	0,069	0,013
-498,868	416,319	-0,100	-0,157
-497,853	143,404	-0,129	-0,125
-496,839	-200,000	-0,011	0,163
-495,824	800,000	0,037	-0,116
-494,810	3,349	0,191	-0,101
-493,795	-200,000	0,013	0,183
-492,781	-200,000	-0,003	0,050
-491,766	267,210	-0,057	-0,073
-490,751	79,240	-0,054	0,042
-489,737	87,780	0,116	0,094
-488,722	292,440	-0,068	0,091
-487,708	400,195	-0,038	-0,059
-486,693	800,000	0,030	0,084
-485,678	-200,000	-0,009	0,045
-484,664	-91,483	-0,113	-0,023
-483,649	-200,000	0,005	0,031
-482,635	-200,000	0,017	0,110
-481,620	-70,078	0,100	0,028
-480,605	-200,000	-0,011	0,080
-479,591	121,859	0,063	0,057
-478,576	-200,000	-0,011	0,155
-477,562	800,000	0,031	0,069
-476,547	61,832	-0,082	-0,059
-475,532	185,250	0,089	-0,096
-474,518	3,953	-0,160	0,085
-473,503	-200,000	0,010	0,084
-472,489	-102,484	0,107	0,019
-471,474	-200,000	-0,009	0,083
-470,459	800,000	0,009	-0,023
-469,445	-67,503	-0,064	0,018
-468,430	-200,000	-0,001	-0,016
-467,416	-158,358	0,136	0,006
-466,401	95,429	0,094	-0,078
-465,386	800,000	0,004	0,011
-464,372	279,647	-0,055	-0,072
-463,357	800,000	-0,028	-0,058
-462,343	-113,874	-0,101	-0,014
-461,328	313,511	-0,036	-0,050
-460,313	742,631	0,036	-0,071
-459,299	800,000	0,025	0,073
-458,284	-200,000	0,012	0,073
-457,270	-158,429	-0,006	0,000
-456,255	4,931	-0,045	0,024
-455,241	59,924	0,151	-0,109
-454,226	41,062	-0,085	0,056
-453,211	161,817	0,079	0,080
-452,197	-185,293	0,076	0,001
-451,182	-16,382	0,085	-0,039
-450,168	-140,491	-0,119	-0,009
-449,153	-200,000	0,015	0,176
-448,138	76,085	-0,099	-0,076
-447,124	-158,353	0,089	0,004
-446,109	-75,328	-0,127	-0,033
-445,095	108,018	0,038	-0,033
-444,080	494,195	-0,039	-0,066
-443,065	128,899	0,138	0,129
-442,051	-200,000	0,034	-0,183
-441,036	800,000	-0,027	-0,070
-440,022	800,000	0,008	0,026
-439,007	71,340	0,022	0,016
-437,992	269,384	-0,057	-0,073
-436,978	610,545	0,050	0,092
-435,963	800,000	0,019	-0,059
-434,949	75,606	0,009	0,007
-433,934	27,279	-0,132	0,080
-432,919	-200,000	0,033	-0,128
-431,905	-169,558	0,215	0,006
-430,890	58,270	0,137	-0,097
-429,876	108,165	0,019	-0,016
-428,861	202,486	-0,063	0,071
-427,846	684,180	0,054	0,104
-426,832	-200,000	-0,006	0,173
-425,817	-102,995	-0,026	0,005
-424,803	800,000	0,026	0,064
-423,788	-104,781	0,124	0,020
-422,773	-131,187	0,043	0,004
-421,759	132,406	0,056	0,052
-420,744	-157,871	0,099	-0,004
-419,730	114,018	-0,030	0,027
-418,715	800,000	-0,027	0,068
-417,701	800,000	-0,058	-0,137
-416,686	8,000	-0,052	0,029
-415,671	-34,912	0,038	0,015
-414,657	-92,947	0,115	-0,023
-413,642	-200,000	0,020	0,095
-412,628	-91,715	-0,106	-0,022
-411,613	518,692	-0,067	-0,115
-410,598	16,067	-0,070	0,040
-409,584	-200,000	-0,008	0,072
-408,569	338,623	-0,115	0,163
-407,555	800,000	0,032	0,077
-406,540	-3,293	-0,084	0,042
-405,525	800,000	-0,027	-0,061
-404,511	-200,000	0,020	-0,109
-403,496	424,557	0,017	0,027
-402,482	429,002	0,097	-0,153
-401,467	-200,000	0,019	-0,100
-400,452	59,696	0,096	0,069
-399,438	-76,547	-0,069	0,017
-398,423	225,802	0,065	0,077
-397,409	-132,493	0,035	-0,003
-396,394	-89,116	-0,098	0,021
-395,379	-77,344	0,122	-0,031
-394,365	210,287	0,039	-0,044
-393,350	-200,000	-0,025	0,107
-392,336	688,561	-0,033	0,064
-391,321	-197,163	0,041	0,000
-390,306	249,961	0,048	-0,059
-389,292	295,113	-0,088	-0,118
-388,277	800,000	-0,021	0,059
-387,263	783,626	0,054	-0,109
-386,248	-12,719	-0,035	-0,016
-385,233	-200,000	0,011	-0,100
-384,219	-200,000	-0,012	-0,187
-383,204	641,391	0,064	-0,119
-382,190	-200,000	0,004	-0,029
-381,175	61,657	0,115	-0,083
-380,160	-200,000	0,000	0,165
-379,146	-27,967	0,016	0,007
-378,131	610,729	0,096	0,175
-377,117	-200,000	0,011	0,145
-376,102	-200,000	0,020	0,169
-375,088	-26,985	0,063	-0,027
-374,073	-200,000	-0,003	0,055
-373,058	174,573	0,055	0,058
-372,044	-200,000	0,016	0,184
-371,029	-73,322	0,072	-0,019
-370,015	-135,571	0,041	0,003
-369,000	800,000	0,041	0,107
-367,985	-126,194	-0,135	-0,014
-366,971	-200,000	0,004	-0,114
-365,956	800,000	0,061	-0,181
-364,942	-26,695	0,078	-0,033
-363,927	514,891	-0,085	0,144
-362,912	17,285	0,135	-0,078
-361,898	397,910	-0,025	-0,038
-360,883	96,152	-0,116	-0,096
-359,869	800,000	0,022	-0,068
-358,854	-23,438	-0,143	-0,062
-357,839	211,941	0,068	0,078
-356,825	-104,589	-0,038	0,006
-355,810	-74,786	-0,038	-0,010
-354,796	-107,285	-0,075	-0,012
-353,781	160,401	0,080	-0,081
-352,766	-200,000	0,015	0,054
-351,752	-200,000	-0,003	0,062
-350,737	130,953	0,070	-0,065
-349,723	-200,000	-0,016	-0,168
-348,708	800,000	0,052	-0,107
-347,693	-200,000	-0,034	-0,115
-346,679	-200,000	-0,015	0,121
-345,664	620,332	-0,062	0,115
-344,650	-29,535	-0,075	-0,031
-343,635	167,435	0,027	-0,028
-342,620	280,267	0,070	0,090
-341,606	-200,000	-0,007	0,090
-340,591	-168,967	0,147	-0,004
-339,577	3,655	-0,085	-0,045
-338,562	286,974	0,040	-0,052
-337,548	334,506	-0,060	-0,084
-336,533	-70,998	0,115	-0,031
-335,518	-200,000	0,001	0,080
-334,504	-32,032	-0,079	-0,032
-333,489	800,000	-0,038	0,103
-332,475	800,000	-0,063	0,151
-331,460	142,330	-0,056	0,054
-330,445	-43,860	-0,069	-0,025
-329,431	12,163	0,042	0,023
-328,416	107,399	0,113	0,097
-327,402	-33,048	-0,157	0,063
-326,387	166,778	-0,038	-0,040
-325,372	444,988	-0,028	-0,044
-324,358	340,812	-0,071	-0,101
-323,343	450,929	0,067	-0,108
-322,329	137,391	0,093	0,088
-321,314	-46,363	-0,049	0,017
-320,299	179,101	-0,115	0,122
-319,285	421,427	0,060	-0,093
-318,270	492,231	0,062	-0,104
-317,256	-174,131	0,098	-0,002
-316,241	-200,000	0,034	-0,162
-315,226	19,983	-0,066	-0,038
-314,212	-40,099	0,198	0,074
-313,197	-200,000	0,022	0,108
-312,183	-200,000	-0,014	0,111
-311,168	229,529	0,068	-0,080
-310,153	77,440	-0,020	0,016
-309,139	738,154	-0,065	-0,128
-308,124	800,000	0,045	-0,109
-307,110	231,621	0,058	-0,069
-306,095	131,260	-0,043	0,040
-305,080	-104,521	0,141	0,023
-304,066	-101,328	-0,143	-0,025
-303,051	-158,288	-0,071	0,003
-302,037	-200,000	-0,024	0,091
-301,022	-200,000	-0,008	-0,080
-300,008	-53,535	0,088	-0,029
-298,993	-146,067	0,193	-0,012
-297,978	-60,827	0,037	0,011
-296,964	-200,000	0,005	-0,086
-295,949	166,638	-0,050	0,051
-294,935	80,391	0,016	0,012
-293,920	79,908	0,014	-0,011
-292,905	-97,253	0,130	-0,024
-291,891	-200,000	0,007	-0,058
-290,876	252,069	-0,083	0,102
-289,862	336,973	0,109	0,154
-288,847	-107,795	-0,120	0,019
-287,832	-90,833	-0,159	0,033
-286,818	4,650	0,066	0,035
-285,803	-200,000	0,002	0,033
-284,789	-74,075	0,068	0,018
-283,774	597,853	0,063	0,114
-282,759	-200,000	0,001	0,024
-281,745	800,000	-0,042	-0,112
-280,730	-200,000	-0,009	-0,111
-279,716	700,931	-0,033	-0,064
-278,701	-200,000	-0,005	-0,040
-277,686	-200,000	0,004	0,085
-276,672	800,000	-0,060	0,129
-275,657	-200,000	0,018	0,115
-274,643	-107,699	-0,147	0,023
-273,628	-38,728	-0,090	0,034
-272,613	-200,000	0,037	-0,284
-271,599	21,630	0,072	0,042
-270,584	445,589	0,039	-0,063
-269,570	134,414	0,121	0,114
-268,555	18,540	-0,055	0,032
-267,540	172,783	0,026	0,027
-266,526	-2,078	0,007	-0,004
-265,511	-200,000	0,024	-0,130
-264,497	730,171	0,007	0,014
-263,482	706,655	0,032	0,061
-262,467	-158,901	0,086	0,003
-261,453	438,293	0,028	-0,045
-260,438	-200,000	0,003	-0,019
-259,424	20,517	-0,066	0,038
-258,409	800,000	-0,045	0,107
-257,395	800,000	0,072	0,161
-256,380	226,614	0,111	-0,131
-255,365	800,000	0,040	0,109
-254,351	355,738	0,034	0,049
-253,336	-126,390	-0,100	-0,011
-252,322	800,000	0,024	-0,074
-251,307	173,779	0,080	0,084
-250,292	53,481	-0,115	0,080
-249,278	-200,000	-0,004	0,044
-248,263	49,194	0,082	-0,055
-247,249	280,688	0,018	0,024
-246,234	-200,000	-0,004	0,123
-245,219	-200,000	0,006	-0,032
-244,205	-200,000	0,042	-0,185
-243,190	-14,399	0,044	0,021
-242,176	125,205	0,129	0,117
-241,161	65,603	0,055	-0,041
-240,146	126,307	-0,034	0,031
-239,132	-76,958	0,178	-0,045
-238,117	800,000	0,030	0,091
-237,103	24,059	-0,060	-0,035
-236,088	581,033	-0,045	-0,080
-235,073	-200,000	-0,002	0,007
-234,059	4,175	-0,069	0,036
-233,044	-121,207	-0,015	0,002
-232,030	-70,867	0,033	-0,009
-231,015	-141,442	-0,030	-0,002
-230,000	800,000	-0,023	-0,058
-228,986	-108,089	0,081	0,012
-227,971	-200,000	-0,001	-0,132
-226,957	-182,926	0,122	-0,002
-225,942	-200,000	0,009	0,035
-224,927	-200,000	-0,007	0,034
-223,913	-105,330	-0,147	0,024
-222,898	-200,000	0,000	-0,080
-221,884	-31,748	0,072	0,029
-220,869	800,000	0,025	-0,068
-219,855	136,407	-0,113	0,107
-218,840	306,883	-0,031	0,041
-217,825	-200,000	-0,026	0,104
-216,811	194,442	-0,068	0,075
-215,796	717,091	-0,064	0,123
-214,782	165,086	-0,019	-0,019
-213,767	800,000	-0,091	-0,197
-212,752	-200,000	-0,002	-0,031
-211,738	117,839	0,104	-0,093
-210,723	139,379	-0,040	0,038
-209,709	159,924	-0,086	-0,086
-208,694	17,872	-0,237	-0,136
-207,679	-57,687	-0,049	-0,016
-206,665	-117,744	0,069	-0,009
-205,650	556,764	0,034	0,060
-204,636	-121,488	0,033	-0,004
-203,621	800,000	0,022	0,052
-202,606	225,932	0,059	-0,069
-201,592	150,208	-0,085	-0,083
-200,577	250,536	-0,015	0,019
-199,563	110,454	0,015	-0,013
-198,548	800,000	-0,024	0,066
-197,533	292,987	0,051	0,067
-196,519	40,824	-0,063	0,041
-195,504	67,997	-0,044	0,032
-194,490	-200,000	-0,011	0,046
-193,475	685,453	-0,009	-0,017
-192,460	-111,611	-0,082	0,012
-191,446	240,276	-0,057	0,068
-190,431	124,909	0,073	0,066
-189,417	-200,000	0,015	0,123
-188,402	-77,379	-0,076	-0,019
-187,387	238,265	-0,064	-0,077
-186,373	-78,120	0,018	0,005
-185,358	-189,267	0,010	0,000
-184,344	227,984	0,046	0,054
-183,329	100,031	0,047	0,039
-182,315	-114,215	0,210	-0,029
-181,300	-200,000	-0,012	0,141
-180,285	1,075	-0,088	0,045
-179,271	800,000	-0,110	-0,256
-178,256	342,368	-0,079	0,112
-177,242	-200,000	0,009	-0,099
-176,227	800,000	-0,017	0,054
-175,212	336,032	0,047	-0,067
-174,198	-53,138	-0,069	-0,023
-173,183	-200,000	-0,003	-0,226
-172,169	-15,726	-0,086	0,039
-171,154	-105,041	-0,104	-0,017
-170,139	63,764	0,153	-0,110
-169,125	-81,865	0,120	0,028
-168,110	510,550	0,064	0,108
-167,096	636,723	-0,037	-0,068
-166,081	88,060	0,033	-0,026
-165,066	-68,775	-0,047	-0,013
-164,052	213,614	-0,036	-0,041
-163,037	786,540	-0,021	0,041
-162,023	9,597	0,106	0,058
-161,008	-73,047	0,097	-0,026
-159,993	-88,972	0,052	0,011
-158,979	-13,109	-0,116	0,054
-157,964	207,629	0,031	0,035
-156,950	800,000	0,006	0,018
-155,935	318,991	0,054	0,074
-154,920	-30,534	-0,052	0,021
-153,906	-15,585	0,092	0,042
-152,891	800,000	-0,057	0,125
-151,877	137,571	-0,041	-0,039
-150,862	490,280	0,014	-0,022
-149,847	-66,587	0,090	-0,025
-148,833	75,903	0,079	-0,060
-147,818	-200,000	0,019	0,187
-146,804	-200,000	-0,019	0,120
-145,789	-200,000	0,024	0,139
-144,775	-22,908	0,158	0,068
-143,760	-30,146	-0,222	-0,090
-142,745	213,413	-0,076	0,087
-141,731	800,000	0,045	0,123
-140,716	47,053	0,112	0,075
-139,702	-22,358	0,043	0,019
-138,687	264,471	0,030	-0,038
-137,672	-200,000	0,006	-0,058
-136,658	84,765	-0,100	0,079
-135,643	258,763	-0,032	-0,039
-134,629	134,724	-0,072	-0,068
-133,614	141,852	0,059	-0,057
-132,599	-200,000	-0,012	-0,075
-131,585	93,392	0,056	0,045
-130,570	73,633	-0,055	0,041
-129,556	65,660	0,118	0,086
-128,541	-200,000	0,011	-0,102
-127,526	-200,000	-0,022	-0,083
-126,512	790,297	0,050	0,099
-125,497	29,402	0,088	0,054
-124,483	-78,942	-0,166	-0,040
-123,468	800,000	-0,029	-0,070
-122,453	800,000	-0,049	-0,121
-121,439	800,000	-0,044	-0,117
-120,424	800,000	-0,047	-0,107
-119,410	-200,000	0,009	-0,087
