DTS Sentinel unit serial number:	SN410029Multiplexer serial number:	ORYXHardware model number:	OX2-SRSoftware version number:	ORYX F/W v4,00 Oryx Data Collector v3.7.2.0data status	okinstallation	B6 Nyhavnadifferential loss correction	single-endedforward channel	channel 2reverse channel	N/Adate	2023/12/09time	00:05:08forward acquisition time	300,00reverse acquisition time	0,00gamma	499,1914k internal	0,3157k external	0,3157temperature offset calibration	1,0000default loss term (dB/km)	0,3820temperature slope calibration	1,0000multiplexer offset coefficient	1,0000multiplexer slope coefficient	1,0000fibre end	0,00T internal ref (°C)	15,55T ext. ref 1 (°C)	-0,85T ext. ref 2 (°C)	-0,85length (m)	temperature (°C)	Stokes	anti-Stokes-744,400	800,000	0,033	-0,092
-743,385	-67,848	-0,219	-0,063
-742,371	61,395	0,198	0,145
-741,356	-12,795	-0,181	0,087
-740,342	74,828	0,102	0,079
-739,327	-65,175	-0,260	0,077
-738,312	-102,911	0,017	0,003
-737,298	-141,199	-0,374	-0,028
-736,283	-200,000	0,008	-0,031
-735,269	-71,485	-0,318	0,087
-734,254	-176,679	0,179	0,003
-733,239	-52,940	-0,487	-0,164
-732,225	-80,580	0,092	-0,022
-731,210	-200,000	0,027	0,125
-730,196	-200,000	0,002	0,072
-729,181	45,174	-0,112	-0,076
-728,167	-200,000	-0,035	0,119
-727,152	58,290	-0,051	-0,037
-726,137	87,896	-0,080	-0,065
-725,123	-200,000	0,010	0,098
-724,108	255,798	0,061	-0,077
-723,094	-118,013	-0,152	-0,020
-722,079	225,704	0,005	0,006
-721,064	-200,000	-0,008	0,038
-720,050	-200,000	0,014	-0,095
-719,035	280,284	0,009	0,012
-718,021	-94,635	-0,042	-0,008
-717,006	78,907	-0,029	-0,023
-715,991	48,716	0,058	-0,040
-714,977	-200,000	0,007	0,023
-713,962	-64,091	-0,097	0,029
-712,948	-98,135	0,021	0,004
-711,933	260,909	-0,075	-0,096
-710,918	-200,000	0,012	0,067
-709,904	-200,000	0,009	-0,141
-708,889	-2,805	-0,119	-0,061
-707,875	-51,633	-0,049	-0,017
-706,860	324,325	0,070	-0,099
-705,845	-125,803	0,172	-0,019
-704,831	69,584	0,124	0,094
-703,816	-200,000	-0,014	0,090
-702,802	658,160	0,024	0,046
-701,787	800,000	-0,024	-0,071
-700,772	-200,000	0,033	-0,146
-699,758	800,000	-0,035	-0,077
-698,743	-200,000	0,011	-0,139
-697,729	133,802	-0,101	0,096
-696,714	90,070	0,118	-0,097
-695,699	-200,000	0,007	-0,038
-694,685	-200,000	0,017	-0,116
-693,670	-75,243	-0,061	-0,016
-692,656	133,145	-0,063	0,060
-691,641	800,000	0,024	0,070
-690,627	-121,994	0,198	0,024
-689,612	8,061	-0,082	0,045
-688,597	236,957	0,060	-0,074
-687,583	800,000	-0,012	-0,027
-686,568	243,502	-0,135	-0,166
-685,554	400,582	-0,052	-0,080
-684,539	140,169	0,049	0,047
-683,524	-65,751	0,037	-0,011
-682,510	-39,571	-0,083	0,032
-681,495	-12,372	0,073	0,035
-680,481	800,000	0,021	0,045
-679,466	277,076	-0,073	-0,095
-678,451	-200,000	0,003	-0,152
-677,437	-95,938	0,127	-0,025
-676,422	-200,000	0,151	0,000
-675,408	-200,000	-0,011	0,071
-674,393	13,617	0,048	0,028
-673,378	133,968	-0,143	-0,136
-672,364	-117,346	0,113	-0,015
-671,349	-102,509	0,023	0,004
-670,335	800,000	0,049	-0,142
-669,320	-200,000	0,004	0,061
-668,305	100,022	-0,087	0,074
-667,291	654,591	0,018	-0,033
-666,276	800,000	-0,022	-0,064
-665,262	190,334	-0,051	-0,057
-664,247	800,000	0,023	-0,073
-663,232	371,725	-0,043	-0,065
-662,218	800,000	-0,060	0,145
-661,203	53,804	-0,073	0,052
-660,189	143,737	0,066	-0,065
-659,174	-200,000	0,016	-0,127
-658,159	131,021	-0,099	0,093
-657,145	248,809	0,085	-0,106
-656,130	-58,728	-0,082	-0,026
-655,116	692,676	0,045	-0,087
-654,101	-69,860	0,058	0,016
-653,086	800,000	-0,063	0,148
-652,072	31,289	0,159	0,100
-651,057	-200,000	0,012	-0,050
-650,043	-76,845	0,075	-0,019
-649,028	-87,509	-0,070	0,016
-648,014	783,328	-0,019	-0,039
-646,999	-163,226	0,230	0,008
-645,984	-58,558	-0,037	-0,012
-644,970	540,226	-0,022	0,038
-643,955	417,290	-0,010	-0,016
-642,941	-142,819	-0,123	-0,009
-641,926	-200,000	-0,015	-0,075
-640,911	-77,210	-0,135	0,034
-639,897	800,000	0,025	0,079
-638,882	-200,000	-0,011	0,104
-637,868	-179,157	0,070	-0,001
-636,853	186,061	-0,055	0,060
-635,838	46,194	-0,053	0,036
-634,824	-200,000	-0,007	-0,034
-633,809	546,278	-0,035	0,062
-632,795	20,201	0,117	-0,069
-631,780	165,483	-0,060	0,062
-630,765	800,000	0,029	0,061
-629,751	464,785	-0,034	-0,056
-628,736	-78,329	-0,101	0,025
-627,722	-29,104	-0,083	0,035
-626,707	-55,494	0,047	0,015
-625,692	-130,355	0,095	-0,009
-624,678	-188,560	-0,104	0,001
-623,663	-11,660	0,128	-0,062
-622,649	-77,398	-0,069	-0,018
-621,634	32,614	-0,095	-0,060
-620,619	-44,238	-0,126	-0,046
-619,605	-34,531	-0,065	-0,026
-618,590	524,803	0,023	-0,040
-617,576	-72,429	-0,064	0,017
-616,561	522,248	0,016	-0,028
-615,546	194,568	-0,070	-0,078
-614,532	-38,728	-0,045	-0,017
-613,517	54,740	0,024	0,017
-612,503	378,217	-0,046	0,069
-611,488	-115,359	-0,091	-0,012
-610,474	116,311	0,071	-0,064
-609,459	542,019	-0,055	-0,096
-608,444	4,205	-0,129	-0,069
-607,430	27,435	-0,081	-0,050
-606,415	-83,281	-0,071	-0,017
-605,401	120,501	0,106	0,096
-604,386	158,641	0,049	-0,050
-603,371	-200,000	-0,023	0,122
-602,357	169,558	-0,070	-0,073
-601,342	47,194	0,212	0,144
-600,328	42,026	-0,028	0,019
-599,313	103,745	-0,136	0,117
-598,298	-200,000	-0,035	-0,144
-597,284	800,000	0,044	-0,127
-596,269	-200,000	-0,023	0,152
-595,255	-200,000	-0,030	0,162
-594,240	366,784	-0,082	-0,121
-593,225	-200,000	0,004	-0,198
-592,211	-140,152	-0,197	0,015
-591,196	-75,547	-0,129	0,033
-590,182	-200,000	0,014	-0,155
-589,167	405,590	0,046	-0,072
-588,152	-200,000	0,019	-0,079
-587,138	-139,169	-0,045	-0,004
-586,123	800,000	-0,038	-0,092
-585,109	363,903	0,077	-0,113
-584,094	-200,000	0,021	-0,146
-583,079	108,610	0,020	0,018
-582,065	800,000	0,021	-0,044
-581,050	-35,114	0,034	-0,014
-580,036	-5,082	-0,018	0,009
-579,021	-47,379	-0,113	-0,040
-578,006	145,700	-0,041	-0,040
-576,992	-200,000	0,003	-0,120
-575,977	-11,236	-0,046	0,022
-574,963	-200,000	-0,012	0,060
-573,948	148,906	-0,057	0,056
-572,934	800,000	-0,028	-0,064
-571,919	754,246	0,051	-0,102
-570,904	236,330	-0,061	0,074
-569,890	138,180	0,081	-0,077
-568,875	-61,612	-0,096	-0,029
-567,861	552,349	0,023	-0,040
-566,846	-163,485	-0,119	0,004
-565,831	104,924	-0,103	0,089
-564,817	800,000	-0,027	0,057
-563,802	-99,783	0,140	-0,025
-562,788	386,439	0,071	0,107
-561,773	409,132	0,052	-0,082
-560,758	474,909	0,040	0,067
-559,744	113,959	-0,112	0,100
-558,729	723,933	0,024	0,046
-557,715	-199,814	0,075	-0,000
-556,700	-18,235	-0,132	0,060
-555,685	371,322	-0,050	-0,075
-554,671	-200,000	-0,004	0,016
-553,656	630,543	0,035	-0,065
-552,642	-200,000	-0,000	0,033
-551,627	98,682	-0,074	-0,062
-550,612	-200,000	-0,003	0,044
-549,598	-200,000	-0,009	0,031
-548,583	-180,530	-0,136	0,002
-547,569	-200,000	-0,016	0,085
-546,554	800,000	0,073	0,170
-545,539	-200,000	0,003	0,089
-544,525	108,831	0,063	0,055
-543,510	102,368	-0,021	-0,018
-542,496	-200,000	-0,020	-0,141
-541,481	138,773	0,034	0,033
-540,466	-86,831	0,089	-0,020
-539,452	194,312	-0,053	-0,059
-538,437	-200,000	-0,024	-0,098
-537,423	-67,350	-0,119	-0,034
-536,408	180,598	-0,013	-0,014
-535,393	193,851	-0,080	-0,088
-534,379	177,183	-0,092	0,099
-533,364	-68,280	0,027	0,008
-532,350	-11,903	-0,143	0,069
-531,335	79,489	0,017	0,013
-530,321	-143,036	0,092	-0,006
-529,306	-135,278	-0,071	0,006
-528,291	532,521	-0,020	0,035
-527,277	-126,087	-0,097	0,011
-526,262	800,000	-0,018	-0,055
-525,248	-118,115	0,041	-0,005
-524,233	-200,000	0,006	0,066
-523,218	17,620	0,043	0,025
-522,204	-0,916	-0,057	-0,029
-521,189	-40,182	0,046	-0,017
-520,175	800,000	0,034	-0,108
-519,160	75,307	0,011	-0,009
-518,145	-58,232	-0,025	-0,008
-517,131	576,739	0,078	-0,140
-516,116	54,657	-0,150	0,105
-515,102	800,000	0,004	-0,009
-514,087	67,478	-0,146	-0,109
-513,072	116,396	0,103	0,092
-512,058	231,856	-0,048	0,057
-511,043	5,085	0,091	0,049
-510,029	82,109	0,046	0,037
-509,014	-90,232	0,092	0,019
-507,999	38,092	0,056	0,036
-506,985	34,942	0,015	-0,010
-505,970	-30,079	0,052	0,022
-504,956	-155,377	-0,078	-0,004
-503,941	70,267	0,032	-0,024
-502,926	24,183	0,141	0,085
-501,912	-95,596	-0,072	0,014
-500,897	388,954	-0,054	0,082
-499,883	-200,000	0,010	0,068
-498,868	424,894	0,046	0,073
-497,853	800,000	-0,036	0,075
-496,839	20,056	-0,013	-0,008
-495,824	32,959	0,127	-0,080
-494,810	169,228	-0,046	0,048
-493,795	71,220	-0,058	-0,044
-492,781	-119,849	-0,034	0,004
-491,766	-122,136	-0,131	-0,015
-490,751	800,000	-0,051	0,132
-489,737	-88,613	-0,087	0,019
-488,722	-50,863	0,122	-0,042
-487,708	-4,983	-0,089	-0,045
-486,693	-167,865	0,140	0,004
-485,678	39,199	-0,141	0,092
-484,664	-137,636	-0,034	0,003
-483,649	-129,287	-0,084	-0,008
-482,635	-7,195	-0,106	-0,052
-481,620	101,524	0,080	0,068
-480,605	-116,827	-0,114	0,015
-479,591	62,118	0,097	0,071
-478,576	-67,157	-0,018	-0,005
-477,562	297,727	0,053	0,072
-476,547	-81,833	-0,099	-0,023
-475,532	-52,366	0,070	0,023
-474,518	197,156	-0,028	-0,031
-473,503	800,000	0,038	-0,086
-472,489	-200,000	0,014	-0,071
-471,474	532,443	0,044	0,077
-470,459	-45,080	-0,066	0,024
-469,445	95,158	-0,041	-0,034
-468,430	800,000	0,033	-0,086
-467,416	-68,066	0,179	0,050
-466,401	-200,000	-0,008	0,108
-465,386	-200,000	-0,013	0,133
-464,372	-200,000	-0,024	0,204
-463,357	-42,979	-0,040	0,015
-462,343	280,273	0,056	-0,073
-461,328	-200,000	-0,002	0,079
-460,313	237,933	0,014	-0,016
-459,299	-200,000	-0,025	-0,092
-458,284	140,810	-0,110	0,106
-457,270	-200,000	-0,001	-0,117
-456,255	-28,986	-0,086	-0,036
-455,241	-19,471	-0,064	0,029
-454,226	-9,909	0,022	0,010
-453,211	100,491	-0,050	-0,042
-452,197	-200,000	-0,031	-0,112
-451,182	635,864	0,047	-0,087
-450,168	-97,227	0,028	0,005
-449,153	-34,354	0,090	0,036
-448,138	179,626	-0,054	0,058
-447,124	-200,000	0,000	-0,030
-446,109	369,995	-0,044	-0,066
-445,095	800,000	0,039	-0,096
-444,080	-200,000	-0,002	-0,059
-443,065	-200,000	0,011	0,080
-442,051	-200,000	0,010	-0,196
-441,036	-200,000	0,015	-0,063
-440,022	452,449	-0,049	-0,079
-439,007	-200,000	-0,036	0,171
-437,992	-43,266	0,192	0,070
-436,978	-105,065	-0,073	-0,012
-435,963	800,000	-0,051	0,124
-434,949	124,855	0,036	-0,033
-433,934	-200,000	-0,017	-0,081
-432,919	-114,485	-0,117	-0,016
-431,905	-27,812	0,124	0,052
-430,890	-123,652	0,025	0,003
-429,876	658,354	-0,038	-0,072
-428,861	800,000	0,058	-0,118
-427,846	-18,096	-0,071	0,032
-426,832	800,000	0,022	0,060
-425,817	800,000	0,061	-0,140
-424,803	-200,000	0,004	0,050
-423,788	-21,135	0,025	-0,011
-422,773	-200,000	0,017	-0,064
-421,759	513,067	0,009	0,016
-420,744	800,000	0,031	-0,071
-419,730	800,000	-0,025	0,059
-418,715	-41,716	0,188	0,070
-417,701	-200,000	0,010	-0,034
-416,686	-136,024	-0,072	-0,006
-415,671	-44,129	0,149	-0,054
-414,657	-200,000	0,028	0,150
-413,642	-146,664	0,070	0,004
-412,628	22,194	0,055	-0,032
-411,613	-200,000	0,014	0,058
-410,598	-9,570	-0,017	0,008
-409,584	800,000	-0,023	0,070
-408,569	-200,000	-0,011	-0,102
-407,555	-200,000	-0,017	0,059
-406,540	-55,528	0,064	-0,021
-405,525	107,386	-0,033	0,028
-404,511	-200,000	-0,008	-0,119
-403,496	-200,000	0,001	-0,107
-402,482	789,993	0,049	-0,098
-401,467	-200,000	-0,038	0,123
-400,452	147,850	0,083	-0,082
-399,438	-200,000	0,010	0,077
-398,423	800,000	0,009	-0,024
-397,409	-200,000	-0,002	-0,038
-396,394	340,943	0,103	-0,147
-395,379	47,474	-0,011	0,007
-394,365	691,707	0,053	0,101
-393,350	239,727	0,060	0,073
-392,336	-200,000	0,017	0,060
-391,321	-200,000	0,013	0,141
-390,306	30,931	-0,165	0,103
-389,292	800,000	-0,059	-0,131
-388,277	-200,000	0,011	-0,099
-387,263	-39,843	0,098	0,037
-386,248	147,093	-0,024	-0,024
-385,233	362,076	0,041	0,060
-384,219	-200,000	-0,007	-0,062
-383,204	800,000	0,050	-0,112
-382,190	617,305	0,042	0,077
-381,175	-3,895	0,064	-0,032
-380,160	-0,336	0,119	-0,061
-379,146	12,370	0,097	0,054
-378,131	211,364	0,004	0,005
-377,117	-18,241	-0,114	-0,051
-376,102	-111,935	-0,067	0,010
-375,088	-200,000	-0,024	-0,133
-374,073	-26,175	-0,088	-0,038
-373,058	-200,000	0,076	0,000
-372,044	-200,000	-0,003	-0,047
-371,029	-22,769	0,073	0,032
-370,015	401,068	0,049	-0,076
-369,000	-200,000	-0,012	-0,081
-367,985	132,183	-0,088	-0,082
-366,971	99,655	-0,062	-0,052
-365,956	293,137	0,048	0,064
-364,942	800,000	-0,013	-0,027
-363,927	300,794	-0,045	-0,060
-362,912	-200,000	-0,001	-0,042
-361,898	800,000	-0,054	0,138
-360,883	161,602	0,067	-0,068
-359,869	257,500	0,020	0,025
-358,854	57,044	0,024	0,017
-357,839	99,213	0,116	-0,098
-356,825	-53,754	-0,073	0,024
-355,810	142,536	0,115	0,111
-354,796	-200,000	0,002	0,017
-353,781	-92,990	-0,173	-0,035
-352,766	-133,312	0,078	0,007
-351,752	800,000	0,012	-0,031
-350,737	212,893	0,089	-0,102
-349,723	509,286	0,044	-0,075
-348,708	95,594	-0,030	0,025
-347,693	-200,000	0,014	-0,121
-346,679	122,378	0,049	0,045
-345,664	-77,856	-0,096	-0,024
-344,650	288,611	0,088	0,116
-343,635	-200,000	0,019	-0,065
-342,620	104,628	-0,149	-0,128
-341,606	-20,096	-0,010	-0,005
-340,591	-116,122	0,147	0,020
-339,577	-98,411	-0,020	0,004
-338,562	166,645	0,046	-0,047
-337,548	5,930	0,010	0,005
-336,533	63,084	0,041	0,030
-335,518	328,969	-0,040	0,055
-334,504	-47,948	0,182	0,063
-333,489	-153,405	0,084	0,004
-332,475	-115,743	0,078	0,011
-331,460	-200,000	0,009	-0,067
-330,445	490,290	0,010	0,017
-329,431	762,191	0,049	-0,097
-328,416	800,000	0,014	0,036
-327,402	-200,000	0,024	0,096
-326,387	800,000	0,035	-0,099
-325,372	251,717	-0,075	-0,093
-324,358	-49,694	-0,090	-0,031
-323,343	-0,414	-0,011	-0,005
-322,329	-14,009	-0,087	0,041
-321,314	219,228	0,015	0,018
-320,299	605,884	-0,011	0,020
-319,285	-97,036	0,065	-0,012
-318,270	-68,791	0,040	-0,011
-317,256	208,248	-0,058	0,066
-316,241	15,972	-0,067	0,038
-315,226	-200,000	-0,012	-0,044
-314,212	2,796	0,087	-0,045
-313,197	-110,095	0,099	0,015
-312,183	-200,000	-0,016	0,000
-311,168	285,435	0,091	-0,119
-310,153	-200,000	-0,021	-0,102
-309,139	-200,000	-0,045	-0,146
-308,124	-13,059	0,081	-0,038
-307,110	336,452	0,086	0,121
-306,095	608,741	-0,040	-0,072
-305,080	-16,235	0,120	-0,055
-304,066	-200,000	-0,014	-0,078
-303,051	800,000	-0,055	-0,112
-302,037	-59,754	-0,043	0,013
-301,022	651,056	0,070	0,131
-300,008	21,413	0,038	0,022
-298,993	-139,249	-0,056	0,004
-297,978	106,278	0,046	-0,039
-296,964	434,865	0,094	0,149
-295,949	800,000	-0,047	-0,103
-294,935	73,646	0,093	0,071
-293,920	800,000	-0,079	0,179
-292,905	-200,000	-0,002	0,056
-291,891	-200,000	0,014	0,121
-290,876	-200,000	-0,018	0,076
-289,862	120,999	0,085	0,076
-288,847	466,150	-0,078	0,127
-287,832	35,756	0,037	0,023
-286,818	152,853	0,097	-0,096
-285,803	800,000	0,109	0,263
-284,789	-200,000	0,004	-0,058
-283,774	-200,000	-0,012	0,154
-282,759	-200,000	0,013	-0,116
-281,745	-200,000	-0,007	-0,088
-280,730	-20,543	0,082	-0,037
-279,716	67,453	0,082	-0,060
-278,701	-168,637	0,138	-0,004
-277,686	-200,000	-0,020	0,085
-276,672	273,949	0,006	-0,007
-275,657	123,658	0,042	-0,038
-274,643	64,885	0,043	-0,031
-273,628	26,638	0,047	-0,028
-272,613	-200,000	-0,001	-0,084
-271,599	-62,758	0,053	0,016
-270,584	-130,430	-0,049	0,005
-269,570	92,553	-0,092	0,075
-268,555	-200,000	-0,001	-0,129
-267,540	740,755	0,078	-0,153
-266,526	33,976	0,074	-0,046
-265,511	99,601	-0,027	0,023
-264,497	185,224	-0,048	-0,051
-263,482	326,167	0,013	0,018
-262,467	-169,273	-0,106	0,003
-261,453	800,000	0,023	0,063
-260,438	82,584	-0,136	0,107
-259,424	214,399	0,041	-0,047
-258,409	12,724	-0,179	0,100
-257,395	-72,391	-0,102	-0,027
-256,380	338,172	0,088	0,124
-255,365	260,668	0,125	0,156
-254,351	157,127	0,079	0,079
-253,336	26,718	-0,072	-0,043
-252,322	86,805	0,095	-0,076
-251,307	-73,584	-0,066	0,017
-250,292	-157,695	-0,129	-0,005
-249,278	-200,000	0,004	0,129
-248,263	-200,000	0,013	0,115
-247,249	73,696	-0,077	-0,058
-246,234	-200,000	0,037	-0,140
-245,219	462,716	0,028	-0,046
-244,205	800,000	0,005	0,011
-243,190	26,964	0,015	0,009
-242,176	56,889	0,069	-0,049
-241,161	-41,228	-0,048	0,018
-240,146	-134,050	0,072	0,006
-239,132	800,000	-0,014	-0,034
-238,117	800,000	0,033	-0,082
-237,103	-147,652	-0,099	0,006
-236,088	101,436	-0,077	-0,065
-235,073	46,009	0,147	0,098
-234,059	-88,872	-0,076	0,016
-233,044	53,998	-0,005	-0,004
-232,030	41,479	0,097	0,063
-231,015	800,000	-0,011	-0,036
-230,000	289,128	0,048	-0,063
-228,986	-132,930	0,052	0,005
-227,971	515,470	0,044	-0,074
-226,957	-52,603	0,144	0,048
-225,942	88,294	0,058	0,047
-224,927	-3,277	-0,052	-0,026
-223,913	-52,236	-0,062	0,021
-222,898	180,078	-0,083	0,088
-221,884	-72,757	-0,107	0,028
-220,869	137,854	0,070	0,066
-219,855	170,639	-0,104	0,108
-218,840	-136,454	0,067	0,006
-217,825	34,783	-0,073	-0,046
-216,811	75,362	-0,079	0,060
-215,796	800,000	-0,055	0,113
-214,782	-200,000	0,003	-0,043
-213,767	-200,000	0,004	0,088
-212,752	-200,000	0,002	0,043
-211,738	278,710	-0,019	0,024
-210,723	17,704	0,016	0,009
-209,709	57,338	-0,078	-0,055
-208,694	800,000	-0,028	-0,087
-207,679	-200,000	-0,013	-0,207
-206,665	648,562	-0,005	-0,010
-205,650	-61,568	0,165	0,050
-204,636	52,056	-0,040	0,027
-203,621	-10,408	-0,054	0,026
-202,606	131,266	-0,068	-0,063
-201,592	800,000	0,026	-0,072
-200,577	291,991	0,068	-0,089
-199,563	424,614	0,035	-0,054
-198,548	79,573	0,114	-0,088
-197,533	-176,717	0,111	0,002
-196,519	-130,182	-0,064	-0,006
-195,504	-108,155	0,003	-0,000
-194,490	800,000	-0,020	0,056
-193,475	-20,143	-0,058	0,026
-192,460	317,106	0,051	-0,069
-191,446	-126,640	0,019	-0,002
-190,431	568,398	-0,040	0,071
-189,417	-23,480	0,070	-0,030
-188,402	-156,649	-0,174	0,008
-187,387	-105,227	-0,214	0,035
-186,373	800,000	0,014	0,034
-185,358	295,644	-0,049	0,065
-184,344	-200,000	-0,018	0,183
-183,329	-12,973	0,143	0,067
-182,315	-93,120	0,024	0,005
-181,300	330,471	0,063	0,087
-180,285	245,256	-0,084	0,102
-179,271	-200,000	0,007	-0,037
-178,256	-200,000	0,009	0,100
-177,242	-200,000	0,021	0,114
-176,227	35,365	0,109	0,069
-175,212	161,923	0,088	0,089
-174,198	209,539	-0,066	-0,074
-173,183	362,106	0,075	0,109
-172,169	-168,271	-0,121	0,003
-171,154	-56,905	0,105	0,033
-170,139	-200,000	-0,027	0,087
-169,125	800,000	0,011	0,028
-168,110	436,600	-0,037	-0,059
-167,096	668,706	0,062	-0,117
-166,081	800,000	0,028	-0,056
-165,066	706,345	-0,098	-0,188
-164,052	42,652	0,069	-0,045
-163,037	-147,600	0,042	-0,003
-162,023	97,287	0,050	0,041
-161,008	198,516	-0,110	0,122
-159,993	665,325	0,049	0,091
-158,979	56,904	0,153	0,108
-157,964	-200,000	0,015	-0,096
-156,950	800,000	-0,010	-0,021
-155,935	-200,000	0,025	0,106
-154,920	-7,204	-0,058	0,028
-153,906	-200,000	-0,006	-0,020
-152,891	-11,169	0,005	0,003
-151,877	73,942	-0,126	0,095
-150,862	-200,000	0,001	-0,136
-149,847	-200,000	-0,075	0,000
-148,833	57,887	0,122	-0,086
-147,818	289,356	0,032	0,042
-146,804	-132,609	-0,098	-0,009
-145,789	223,334	-0,029	-0,033
-144,775	-94,837	0,035	-0,007
-143,760	111,115	-0,045	-0,039
-142,745	-200,000	0,037	-0,153
-141,731	52,547	0,067	0,046
-140,716	-200,000	0,001	0,067
-139,702	259,200	0,047	-0,059
-138,687	800,000	-0,017	-0,041
-137,672	214,277	-0,035	-0,040
-136,658	-24,261	-0,114	-0,049
-135,643	417,587	-0,013	-0,020
-134,629	342,580	-0,060	-0,085
-133,614	199,614	0,020	0,022
-132,599	75,064	0,091	0,069
-131,585	-27,255	0,055	0,023
-130,570	800,000	0,047	-0,129
-129,556	-93,966	-0,081	-0,016
-128,541	-116,155	-0,130	0,017
-127,526	85,646	0,082	-0,065
-126,512	200,980	-0,099	-0,110
-125,497	-200,000	0,037	0,134
-124,483	800,000	0,053	0,144
-123,468	450,725	-0,051	0,081
-122,453	777,341	-0,075	0,148
-121,439	-84,475	-0,010	-0,002
-120,424	-19,876	-0,074	0,033
-119,410	164,595	-0,078	0,079
-118,395	-200,000	-0,003	-0,216
