DTS Sentinel unit serial number:	SN410029Multiplexer serial number:	ORYXHardware model number:	OX2-SRSoftware version number:	ORYX F/W v4,00 Oryx Data Collector v3.7.2.0data status	okinstallation	B6 Nyhavnadifferential loss correction	single-endedforward channel	channel 2reverse channel	N/Adate	2023/12/08time	05:40:08forward acquisition time	300,00reverse acquisition time	0,00gamma	499,1914k internal	0,3165k external	0,3165temperature offset calibration	1,0000default loss term (dB/km)	0,3820temperature slope calibration	1,0000multiplexer offset coefficient	1,0000multiplexer slope coefficient	1,0000fibre end	0,00T internal ref (°C)	13,00T ext. ref 1 (°C)	-3,89T ext. ref 2 (°C)	-3,89length (m)	temperature (°C)	Stokes	anti-Stokes-744,400	-63,452	0,105	0,031
-743,385	-168,035	-0,298	-0,008
-742,371	51,925	0,120	0,084
-741,356	-143,800	-0,199	0,014
-740,342	800,000	0,034	0,096
-739,327	-135,583	-0,325	0,028
-738,312	50,170	0,088	-0,061
-737,298	285,381	-0,171	-0,227
-736,283	-200,000	0,017	-0,081
-735,269	-38,833	-0,209	0,081
-734,254	-30,252	0,184	0,077
-733,239	-28,419	-0,527	-0,223
-732,225	57,908	0,189	0,136
-731,210	-67,303	-0,044	0,013
-730,196	-200,000	-0,007	0,040
-729,181	-177,814	-0,080	-0,001
-728,167	800,000	0,028	-0,058
-727,152	17,011	0,069	0,040
-726,137	-64,795	-0,176	0,052
-725,123	-65,490	0,044	-0,013
-724,108	141,983	-0,084	-0,082
-723,094	800,000	-0,052	-0,131
-722,079	-21,230	-0,078	-0,035
-721,064	-28,872	0,129	-0,054
-720,050	31,976	0,060	-0,038
-719,035	-122,657	-0,051	-0,006
-718,021	226,922	0,023	-0,028
-717,006	800,000	-0,012	-0,031
-715,991	214,109	-0,083	-0,097
-714,977	800,000	-0,059	-0,124
-713,962	-200,000	-0,025	-0,141
-712,948	280,095	-0,125	0,164
-711,933	135,779	0,060	-0,057
-710,918	-200,000	0,028	-0,140
-709,904	-110,688	-0,102	-0,015
-708,889	800,000	-0,031	0,097
-707,875	-68,480	0,078	0,022
-706,860	556,703	-0,084	-0,149
-705,845	-50,571	-0,192	0,066
-704,831	-4,444	0,092	0,047
-703,816	-82,959	-0,149	-0,035
-702,802	-200,000	-0,011	0,051
-701,787	687,119	0,076	-0,147
-700,772	-200,000	-0,008	-0,041
-699,758	-145,624	-0,151	-0,010
-698,743	243,970	-0,055	0,068
-697,729	800,000	0,019	0,058
-696,714	116,644	0,068	0,061
-695,699	800,000	-0,023	0,073
-694,685	-200,000	-0,009	0,036
-693,670	-200,000	0,018	0,147
-692,656	346,208	0,028	0,041
-691,641	77,677	-0,154	-0,120
-690,627	-39,076	0,037	0,014
-689,612	-165,965	-0,026	0,001
-688,597	800,000	-0,018	-0,044
-687,583	359,101	-0,062	-0,091
-686,568	106,042	0,050	-0,043
-685,554	-95,371	-0,146	-0,029
-684,539	-200,000	0,017	0,106
-683,524	-200,000	0,006	-0,142
-682,510	-122,377	0,098	0,012
-681,495	-125,700	-0,080	0,009
-680,481	-200,000	0,003	0,023
-679,466	568,064	-0,087	0,157
-678,451	800,000	0,044	0,112
-677,437	67,104	0,050	0,038
-676,422	37,803	0,075	0,049
-675,408	-200,000	-0,021	0,115
-674,393	-18,682	-0,042	0,019
-673,378	-200,000	0,008	-0,058
-672,364	1,715	0,111	0,059
-671,349	-200,000	-0,000	-0,078
-670,335	800,000	-0,075	0,157
-669,320	-200,000	0,020	-0,078
-668,305	17,775	-0,047	-0,027
-667,291	168,710	0,038	0,040
-666,276	-90,048	-0,066	0,014
-665,262	-200,000	-0,017	-0,098
-664,247	-180,888	0,106	0,002
-663,232	103,326	-0,095	0,082
-662,218	-200,000	0,035	0,126
-661,203	-200,000	-0,016	-0,059
-660,189	800,000	0,041	0,122
-659,174	1,917	-0,149	-0,078
-658,159	800,000	-0,016	-0,045
-657,145	-200,000	0,027	-0,097
-656,130	17,582	-0,194	-0,113
-655,116	90,216	-0,040	-0,033
-654,101	153,982	0,055	0,056
-653,086	-200,000	-0,014	0,052
-652,072	23,150	0,061	-0,037
-651,057	-75,843	-0,094	0,024
-650,043	-200,000	0,015	-0,144
-649,028	800,000	0,021	0,048
-648,014	-113,851	0,125	0,018
-646,999	800,000	0,042	-0,129
-645,984	-175,641	-0,105	-0,002
-644,970	44,998	0,082	-0,055
-643,955	-22,951	0,071	-0,031
-642,941	800,000	-0,054	-0,114
-641,926	523,665	0,064	0,111
-640,911	222,655	0,063	-0,075
-639,897	24,535	-0,050	0,030
-638,882	52,520	-0,134	0,094
-637,868	185,874	0,044	-0,048
-636,853	-31,270	-0,145	-0,060
-635,838	228,565	-0,099	-0,118
-634,824	-156,515	-0,078	-0,004
-633,809	587,367	0,066	-0,120
-632,795	666,045	0,073	-0,138
-631,780	163,773	-0,048	-0,049
-630,765	-200,000	0,009	-0,075
-629,751	179,271	0,056	-0,060
-628,736	-200,000	-0,005	-0,062
-627,722	-134,988	-0,066	0,006
-626,707	-108,754	0,080	-0,012
-625,692	299,272	0,023	0,031
-624,678	-56,850	0,054	-0,017
-623,663	731,250	-0,020	0,040
-622,649	136,920	-0,119	-0,114
-621,634	-200,000	-0,004	0,033
-620,619	-160,874	-0,110	-0,004
-619,605	15,699	0,051	0,029
-618,590	-200,000	-0,024	0,085
-617,576	-117,948	0,073	0,009
-616,561	315,159	-0,089	0,123
-615,546	101,273	-0,071	0,061
-614,532	-60,458	-0,203	-0,063
-613,517	248,845	0,078	-0,097
-612,503	800,000	0,035	-0,096
-611,488	90,252	-0,083	-0,068
-610,474	-200,000	0,002	-0,061
-609,459	-200,000	-0,010	-0,089
-608,444	-200,000	-0,014	-0,059
-607,430	751,040	0,061	-0,121
-606,415	-11,407	-0,098	-0,047
-605,401	-36,829	-0,142	-0,055
-604,386	-200,000	-0,002	0,107
-603,371	-126,828	-0,080	0,009
-602,357	-200,000	0,000	0,050
-601,342	63,985	-0,062	0,046
-600,328	-34,095	0,110	0,044
-599,313	359,271	-0,078	-0,114
-598,298	115,678	0,066	0,059
-597,284	39,194	0,101	0,066
-596,269	-200,000	-0,048	0,210
-595,255	-200,000	0,011	-0,068
-594,240	-88,206	-0,192	0,042
-593,225	156,001	-0,096	-0,097
-592,211	170,579	0,052	-0,055
-591,196	14,433	-0,087	0,050
-590,182	419,150	-0,087	0,136
-589,167	-107,459	0,038	-0,006
-588,152	-132,450	-0,105	-0,010
-587,138	-88,000	0,101	0,022
-586,123	-27,514	0,067	-0,028
-585,109	135,992	-0,136	0,130
-584,094	261,008	-0,054	-0,069
-583,079	-42,361	0,034	-0,013
-582,065	800,000	-0,029	-0,059
-581,050	-200,000	0,006	-0,029
-580,036	-200,000	0,003	0,060
-579,021	73,482	-0,079	-0,061
-578,006	-82,508	-0,150	0,035
-576,992	-200,000	-0,015	-0,094
-575,977	800,000	-0,013	-0,036
-574,963	299,022	-0,005	-0,007
-573,948	146,945	0,082	0,080
-572,934	35,637	0,074	-0,047
-571,919	49,856	-0,064	0,044
-570,904	594,341	0,025	0,046
-569,890	88,180	0,089	0,072
-568,875	57,080	0,088	-0,063
-567,861	-159,409	0,112	-0,004
-566,846	-121,310	0,063	0,008
-565,831	-200,000	-0,002	0,069
-564,817	308,561	-0,054	-0,074
-563,802	-50,175	-0,185	0,064
-562,788	-200,000	0,023	0,129
-561,773	7,198	0,028	-0,015
-560,758	-78,292	0,052	0,013
-559,744	800,000	0,029	0,081
-558,729	-83,219	-0,033	0,008
-557,715	800,000	0,024	-0,050
-556,700	-88,042	-0,127	-0,028
-555,685	670,782	-0,038	-0,072
-554,671	324,976	-0,039	0,055
-553,656	-80,147	0,045	0,011
-552,642	134,948	-0,022	0,021
-551,627	-200,000	0,027	0,102
-550,612	204,558	-0,034	0,039
-549,598	-30,223	0,060	-0,025
-548,583	187,619	0,039	-0,042
-547,569	-76,166	-0,100	-0,026
-546,554	800,000	-0,020	0,041
-545,539	800,000	-0,037	-0,075
-544,525	-200,000	0,029	0,124
-543,510	58,653	-0,032	-0,023
-542,496	139,432	-0,071	0,068
-541,481	177,198	0,012	-0,013
-540,466	777,434	0,022	0,045
-539,452	-200,000	0,126	0,000
-538,437	800,000	0,037	0,075
-537,423	-83,548	-0,061	-0,014
-536,408	207,915	-0,085	-0,097
-535,393	-150,076	0,073	0,004
-534,379	10,698	-0,075	0,042
-533,364	97,813	0,067	0,056
-532,350	38,841	0,038	-0,025
-531,335	90,048	-0,009	0,007
-530,321	50,127	0,052	0,036
-529,306	295,050	-0,048	0,064
-528,291	12,042	0,059	-0,033
-527,277	187,349	0,048	-0,052
-526,262	45,199	-0,052	-0,035
-525,248	536,461	0,082	-0,142
-524,233	-200,000	0,002	0,059
-523,218	116,198	0,006	0,005
-522,204	241,932	-0,047	0,057
-521,189	-64,703	0,069	0,020
-520,175	108,702	0,090	-0,078
-519,160	317,237	0,074	-0,102
-518,145	158,662	0,053	-0,053
-517,131	-102,002	-0,082	-0,014
-516,116	-200,000	0,005	-0,076
-515,102	-152,118	0,086	0,004
-514,087	-165,983	-0,125	0,004
-513,072	144,901	-0,076	0,074
-512,058	9,094	0,016	-0,009
-511,043	21,379	-0,055	0,033
-510,029	17,250	0,162	0,094
-509,014	-200,000	0,017	0,084
-507,999	-200,000	-0,013	0,114
-506,985	750,102	0,030	0,060
-505,970	348,118	0,046	-0,066
-504,956	297,005	-0,074	0,099
-503,941	800,000	0,023	0,073
-502,926	676,686	0,018	0,033
-501,912	-200,000	0,003	-0,073
-500,897	236,092	-0,052	0,063
-499,883	-119,385	0,121	-0,015
-498,868	-71,911	-0,040	0,011
-497,853	-93,564	-0,150	0,030
-496,839	22,344	0,104	-0,062
-495,824	154,084	-0,018	-0,018
-494,810	-200,000	0,006	0,101
-493,795	-200,000	-0,006	0,099
-492,781	83,865	0,084	-0,067
-491,766	248,282	-0,072	-0,089
-490,751	47,205	-0,052	-0,035
-489,737	164,385	0,016	0,016
-488,722	-200,000	-0,012	0,075
-487,708	238,092	0,075	0,090
-486,693	-60,352	-0,070	-0,022
-485,678	800,000	-0,021	0,062
-484,664	-5,817	-0,049	-0,025
-483,649	-200,000	-0,003	-0,073
-482,635	-109,070	-0,064	-0,010
-481,620	114,287	-0,032	0,028
-480,605	-63,846	0,045	0,013
-479,591	67,750	0,117	0,087
-478,576	25,288	-0,080	0,048
-477,562	260,759	-0,043	-0,055
-476,547	177,725	0,032	0,034
-475,532	-85,857	-0,010	-0,002
-474,518	162,609	0,075	0,076
-473,503	-200,000	0,029	0,110
-472,489	296,139	0,054	-0,072
-471,474	-200,000	-0,009	0,039
-470,459	-66,892	-0,107	0,031
-469,445	-54,280	-0,059	0,019
-468,430	37,123	-0,070	0,045
-467,416	-200,000	-0,006	-0,166
-466,401	337,693	-0,040	-0,057
-465,386	-200,000	-0,006	0,117
-464,372	-134,342	0,090	0,008
-463,357	-121,441	-0,055	-0,007
-462,343	-119,967	0,072	0,009
-461,328	-110,344	0,034	-0,005
-460,313	-200,000	0,030	0,115
-459,299	65,292	-0,036	-0,027
-458,284	-100,898	-0,052	0,009
-457,270	-52,182	0,118	-0,040
-456,255	272,107	-0,060	-0,077
-455,241	-200,000	-0,023	-0,161
-454,226	6,741	-0,066	-0,035
-453,211	-7,279	0,097	0,048
-452,197	800,000	-0,026	0,065
-451,182	-200,000	0,010	0,076
-450,168	-200,000	-0,011	0,037
-449,153	10,875	0,078	-0,043
-448,138	-43,486	-0,060	0,022
-447,124	40,696	-0,096	0,063
-446,109	471,299	0,024	0,039
-445,095	37,895	0,023	0,015
-444,080	800,000	0,024	0,067
-443,065	47,043	-0,142	-0,096
-442,051	800,000	-0,018	-0,051
-441,036	647,538	0,071	0,132
-440,022	-200,000	-0,011	-0,092
-439,007	-101,130	0,126	-0,022
-437,992	800,000	-0,031	-0,073
-436,978	800,000	0,051	0,105
-435,963	-67,070	0,089	0,025
-434,949	-200,000	-0,005	-0,169
-433,934	-200,000	0,003	-0,044
-432,919	-93,727	0,040	-0,008
-431,905	-53,589	0,044	0,014
-430,890	148,816	0,051	0,050
-429,876	-200,000	-0,013	0,086
-428,861	-144,728	-0,064	0,004
-427,846	40,115	0,122	0,079
-426,832	-135,403	-0,121	-0,010
-425,817	11,805	0,076	-0,042
-424,803	-200,000	-0,008	0,052
-423,788	125,985	-0,082	0,076
-422,773	-200,000	0,024	0,193
-421,759	-11,200	0,111	0,053
-420,744	232,555	-0,055	0,066
-419,730	613,346	-0,057	0,103
-418,715	-200,000	-0,010	0,036
-417,701	-46,334	0,047	-0,017
-416,686	-200,000	0,010	-0,044
-415,671	-200,000	0,002	0,074
-414,657	112,407	0,020	-0,018
-413,642	29,797	0,094	0,058
-412,628	-200,000	-0,014	-0,108
-411,613	648,663	0,039	0,073
-410,598	-200,000	0,015	-0,150
-409,584	137,393	-0,033	-0,032
-408,569	95,167	0,018	0,015
-407,555	252,964	-0,010	0,012
-406,540	-99,719	0,085	0,015
-405,525	-200,000	-0,006	-0,206
-404,511	339,289	-0,010	0,015
-403,496	-200,000	0,031	-0,107
-402,482	-200,000	-0,042	0,155
-401,467	-186,958	0,270	0,003
-400,452	94,196	0,058	-0,048
-399,438	-200,000	-0,010	-0,104
-398,423	27,295	-0,037	-0,023
-397,409	298,349	-0,041	0,055
-396,394	-0,523	-0,059	-0,030
-395,379	130,742	-0,074	0,069
-394,365	379,471	-0,029	0,043
-393,350	800,000	-0,009	-0,020
-392,336	-200,000	-0,020	0,065
-391,321	-200,000	-0,001	-0,006
-390,306	0,174	0,056	0,029
-389,292	770,329	0,021	-0,042
-388,277	21,563	0,035	-0,020
-387,263	-200,000	0,009	0,074
-386,248	-152,448	-0,067	-0,003
-385,233	-106,250	0,094	0,015
-384,219	578,187	-0,023	-0,040
-383,204	-200,000	-0,025	-0,084
-382,190	800,000	-0,034	-0,073
-381,175	-200,000	-0,032	-0,166
-380,160	-200,000	0,139	-0,000
-379,146	194,842	0,065	-0,072
-378,131	-32,349	0,124	-0,050
-377,117	-11,723	0,091	0,043
-376,102	262,125	-0,030	-0,038
-375,088	800,000	0,014	-0,041
-374,073	245,280	-0,010	0,013
-373,058	-20,571	-0,185	0,082
-372,044	436,226	-0,054	0,086
-371,029	525,640	0,113	0,193
-370,015	800,000	-0,027	-0,060
-369,000	-82,954	0,063	0,015
-367,985	-155,533	0,036	0,002
-366,971	-148,400	-0,180	0,011
-365,956	-200,000	0,011	0,052
-364,942	120,423	0,118	0,106
-363,927	153,282	0,102	0,102
-362,912	10,798	-0,033	0,018
-361,898	-200,000	-0,004	-0,031
-360,883	-200,000	0,047	-0,162
-359,869	-82,661	0,093	-0,022
-358,854	800,000	-0,054	0,161
-357,839	-91,941	0,130	-0,027
-356,825	800,000	0,027	-0,074
-355,810	-137,950	-0,106	0,008
-354,796	-200,000	0,032	-0,121
-353,781	220,269	0,047	-0,055
-352,766	350,252	-0,033	0,047
-351,752	323,948	-0,036	0,051
-350,737	113,373	0,032	-0,028
-349,723	-200,000	0,011	0,091
-348,708	-200,000	-0,017	-0,109
-347,693	-200,000	0,011	0,074
-346,679	-200,000	0,008	-0,086
-345,664	-67,669	-0,018	0,005
-344,650	146,478	-0,066	0,064
-343,635	-155,050	0,036	-0,002
-342,620	-80,031	-0,060	-0,015
-341,606	-119,049	0,120	-0,015
-340,591	-5,058	-0,014	-0,007
-339,577	50,840	-0,078	-0,054
-338,562	-77,235	-0,240	-0,060
-337,548	74,350	-0,069	0,053
-336,533	-200,000	-0,046	0,149
-335,518	-200,000	-0,031	0,245
-334,504	794,187	0,052	0,104
-333,489	-52,719	-0,069	-0,023
-332,475	445,566	-0,017	-0,027
-331,460	121,571	-0,135	-0,122
-330,445	100,748	-0,049	0,041
-329,431	718,570	0,015	-0,030
-328,416	-56,078	0,103	0,033
-327,402	800,000	0,027	0,061
-326,387	726,604	0,057	0,110
-325,372	21,645	-0,158	-0,093
-324,358	158,296	0,077	0,078
-323,343	-27,916	-0,132	0,055
-322,329	800,000	-0,036	0,076
-321,314	64,766	0,083	0,060
-320,299	-81,479	-0,035	0,008
-319,285	-25,287	-0,028	-0,012
-318,270	33,286	-0,079	-0,050
-317,256	-200,000	0,009	0,044
-316,241	302,894	-0,035	0,047
-315,226	186,050	0,082	-0,088
-314,212	-200,000	0,017	0,068
-313,197	-200,000	0,029	0,120
-312,183	-23,106	0,104	-0,045
-311,168	386,446	0,040	-0,060
-310,153	-200,000	0,027	-0,118
-309,139	-200,000	0,001	-0,055
-308,124	285,304	0,116	0,151
-307,110	294,374	0,104	0,138
-306,095	-61,656	0,090	0,027
-305,080	-38,392	0,085	0,032
-304,066	146,966	-0,037	0,036
-303,051	-96,573	-0,035	-0,007
-302,037	-61,878	-0,082	-0,025
-301,022	-200,000	-0,003	0,133
-300,008	-65,926	0,133	-0,038
-298,993	28,203	0,094	0,057
-297,978	38,967	0,099	-0,064
-296,964	-200,000	0,006	-0,098
-295,949	68,069	-0,129	-0,096
-294,935	179,083	0,023	-0,024
-293,920	-200,000	-0,039	-0,153
-292,905	-200,000	0,002	-0,036
-291,891	-200,000	-0,009	0,162
-290,876	-130,932	0,068	-0,006
-289,862	-70,886	-0,039	0,010
-288,847	-116,545	-0,063	-0,008
-287,832	71,937	-0,013	-0,010
-286,818	800,000	-0,033	-0,078
-285,803	-87,051	-0,070	-0,015
-284,789	250,838	0,045	-0,055
-283,774	800,000	0,019	0,058
-282,759	800,000	0,003	-0,008
-281,745	-200,000	0,000	-0,079
-280,730	74,737	0,023	-0,018
-279,716	69,201	0,125	-0,093
-278,701	205,507	-0,012	-0,014
-277,686	-200,000	0,002	0,120
-276,672	112,305	0,034	-0,029
-275,657	-120,269	-0,058	0,007
-274,643	179,845	-0,022	-0,023
-273,628	282,938	-0,019	-0,025
-272,613	-200,000	-0,009	0,081
-271,599	-33,231	0,055	0,022
-270,584	-17,303	0,072	0,033
-269,570	-200,000	0,009	-0,050
-268,555	-79,069	0,047	0,011
-267,540	-2,752	-0,069	-0,035
-266,526	-200,000	-0,014	-0,104
-265,511	385,008	-0,107	-0,159
-264,497	-39,505	-0,066	-0,025
-263,482	230,968	0,072	-0,085
-262,467	-104,801	0,144	-0,024
-261,453	42,921	0,081	0,053
-260,438	263,141	-0,084	-0,105
-259,424	426,097	0,025	-0,039
-258,409	-147,599	0,132	0,008
-257,395	-200,000	0,002	0,035
-256,380	-54,897	-0,076	-0,025
-255,365	288,056	-0,039	-0,051
-254,351	-161,174	0,072	-0,003
-253,336	-200,000	-0,022	-0,130
-252,322	-44,360	-0,029	0,010
-251,307	800,000	-0,023	0,064
-250,292	724,068	0,054	0,104
-249,278	-150,753	0,131	0,007
-248,263	-95,824	-0,068	-0,013
-247,249	-200,000	-0,043	0,144
-246,234	7,852	-0,031	-0,017
-245,219	-158,918	-0,052	-0,002
-244,205	232,978	0,065	0,077
-243,190	391,447	0,085	-0,128
-242,176	-88,456	-0,082	-0,017
-241,161	-73,630	0,044	-0,011
-240,146	-116,935	-0,041	0,005
-239,132	800,000	0,018	-0,044
-238,117	800,000	0,125	-0,263
-237,103	-200,000	-0,029	-0,150
-236,088	800,000	0,003	0,009
-235,073	341,670	0,092	0,130
-234,059	-200,000	0,113	0,000
-233,044	-47,204	0,099	0,034
-232,030	-200,000	-0,046	-0,164
-231,015	800,000	-0,048	-0,143
-230,000	372,951	-0,019	0,029
-228,986	214,564	0,081	0,092
-227,971	14,023	0,120	0,067
-226,957	800,000	0,029	0,068
-225,942	307,406	0,063	-0,085
-224,927	555,385	0,104	-0,181
-223,913	-102,448	-0,164	0,028
-222,898	77,853	-0,081	-0,062
-221,884	-6,741	-0,077	0,038
-220,869	348,075	-0,074	-0,105
-219,855	-200,000	0,002	-0,027
-218,840	107,818	0,059	-0,051
-217,825	-34,812	-0,105	-0,041
-216,811	-38,973	0,166	-0,063
-215,796	133,667	-0,051	-0,048
-214,782	-99,408	0,044	-0,008
-213,767	-200,000	-0,001	0,025
-212,752	-105,751	-0,076	-0,012
-211,738	-200,000	0,015	0,098
-210,723	31,994	-0,073	-0,045
-209,709	167,388	-0,089	-0,091
-208,694	-200,000	0,006	0,152
-207,679	47,910	0,068	-0,045
-206,665	-200,000	0,018	-0,063
-205,650	-23,275	-0,049	-0,021
-204,636	18,334	0,086	0,050
-203,621	173,091	-0,084	0,088
-202,606	-200,000	0,006	0,123
-201,592	-41,348	-0,065	-0,024
-200,577	-200,000	-0,023	-0,082
-199,563	-200,000	0,014	-0,078
-198,548	-66,767	0,093	-0,026
-197,533	-200,000	-0,028	0,108
-196,519	199,422	0,104	0,115
-195,504	-200,000	0,013	0,050
-194,490	-200,000	-0,017	-0,084
-193,475	348,986	-0,080	0,115
-192,460	-32,991	-0,076	-0,030
-191,446	70,790	0,038	0,029
-190,431	331,751	0,116	0,161
-189,417	-141,784	-0,122	0,009
-188,402	-89,494	0,054	0,011
-187,387	-87,009	-0,082	0,018
-186,373	800,000	-0,045	-0,133
-185,358	-78,777	-0,076	-0,018
-184,344	-200,000	0,026	0,152
-183,329	-200,000	-0,007	0,055
-182,315	157,065	0,094	0,093
-181,300	85,077	0,115	0,091
-180,285	-65,244	-0,117	-0,034
-179,271	-200,000	-0,025	-0,100
-178,256	-200,000	0,027	-0,099
-177,242	178,836	0,090	0,095
-176,227	800,000	0,016	0,033
-175,212	-153,978	-0,082	-0,004
-174,198	-200,000	-0,011	-0,105
-173,183	534,942	-0,053	-0,091
-172,169	-146,613	-0,038	0,002
-171,154	-51,644	-0,079	-0,026
-170,139	23,723	-0,046	0,027
-169,125	180,449	0,084	0,089
-168,110	-107,248	-0,066	0,010
-167,096	21,912	0,059	0,035
-166,081	2,203	-0,084	-0,043
-165,066	-200,000	0,003	-0,060
-164,052	115,112	0,018	-0,016
-163,037	101,680	-0,050	0,042
-162,023	131,973	0,078	0,073
-161,008	571,656	0,017	0,030
-159,993	198,875	0,075	-0,083
-158,979	-200,000	0,010	0,037
-157,964	-154,442	-0,243	-0,011
-156,950	-200,000	0,040	-0,130
-155,935	-170,676	-0,095	-0,002
-154,920	414,114	0,032	-0,049
-153,906	-88,508	-0,051	0,011
-152,891	-200,000	-0,012	-0,059
-151,877	800,000	0,046	0,095
-150,862	145,816	0,065	-0,062
-149,847	187,557	0,104	-0,112
-148,833	-40,386	0,055	0,020
-147,818	313,197	0,049	0,067
-146,804	-88,157	-0,161	0,034
-145,789	800,000	0,023	0,066
-144,775	227,384	0,018	-0,021
-143,760	800,000	0,055	-0,111
-142,745	73,666	0,065	-0,049
-141,731	-200,000	-0,016	-0,070
-140,716	-200,000	-0,028	-0,159
-139,702	-45,392	0,098	0,035
-138,687	347,014	0,043	0,061
-137,672	-54,877	0,028	-0,009
-136,658	-83,070	0,081	0,018
-135,643	150,578	-0,093	0,091
-134,629	-158,910	0,068	0,003
-133,614	533,412	-0,069	0,118
-132,599	-200,000	0,146	-0,000
-131,585	800,000	-0,011	0,031
-130,570	90,167	-0,011	0,009
-129,556	800,000	0,030	-0,062
-128,541	696,318	0,058	-0,110
-127,526	-200,000	-0,001	-0,024
-126,512	-134,463	0,128	-0,011
-125,497	-38,176	-0,065	-0,024
-124,483	800,000	0,038	0,093
-123,468	-75,131	-0,185	-0,047
-122,453	0,152	-0,062	-0,031
-121,439	2,790	0,033	0,017
-120,424	208,663	0,021	-0,024
-119,410	800,000	0,030	0,088
