DTS Sentinel unit serial number:	SN410029Multiplexer serial number:	ORYXHardware model number:	OX2-SRSoftware version number:	ORYX F/W v4,00 Oryx Data Collector v3.7.2.0data status	okinstallation	B6 Nyhavnadifferential loss correction	single-endedforward channel	channel 2reverse channel	N/Adate	2023/12/10time	21:45:08forward acquisition time	300,00reverse acquisition time	0,00gamma	499,1914k internal	0,3122k external	0,3122temperature offset calibration	1,0000default loss term (dB/km)	0,3820temperature slope calibration	1,0000multiplexer offset coefficient	1,0000multiplexer slope coefficient	1,0000fibre end	0,00T internal ref (°C)	22,30T ext. ref 1 (°C)	6,07T ext. ref 2 (°C)	6,07length (m)	temperature (°C)	Stokes	anti-Stokes-744,400	-200,000	-0,002	0,077
-743,385	-3,716	-0,159	0,082
-742,371	-138,254	-0,123	0,010
-741,356	112,426	-0,225	0,203
-740,342	84,869	0,129	0,106
-739,327	164,679	-0,264	0,278
-738,312	38,028	0,125	-0,083
-737,298	-170,849	-0,389	-0,010
-736,283	800,000	0,055	-0,145
-735,269	57,439	-0,218	0,159
-734,254	249,931	-0,044	0,055
-733,239	-106,159	-0,288	-0,048
-732,225	-54,221	0,135	0,045
-731,210	195,577	-0,070	0,080
-730,196	800,000	0,028	-0,073
-729,181	676,389	-0,039	-0,075
-728,167	-200,000	0,008	-0,086
-727,152	229,593	-0,027	-0,033
-726,137	655,706	-0,090	-0,172
-725,123	171,265	-0,038	0,041
-724,108	-200,000	0,004	-0,104
-723,094	72,141	-0,110	-0,085
-722,079	-200,000	0,007	-0,080
-721,064	-42,661	-0,023	0,009
-720,050	-166,966	-0,081	-0,002
-719,035	-200,000	0,006	-0,042
-718,021	800,000	-0,009	-0,025
-717,006	110,783	-0,049	-0,044
-715,991	4,937	-0,177	-0,097
-714,977	314,152	-0,038	-0,053
-713,962	241,994	0,021	-0,026
-712,948	732,891	-0,018	-0,035
-711,933	135,367	0,038	0,037
-710,918	-15,866	-0,063	0,030
-709,904	-17,983	-0,139	-0,065
-708,889	-111,022	-0,045	0,007
-707,875	800,000	-0,042	-0,118
-706,860	7,029	-0,059	-0,033
-705,845	-54,569	-0,039	0,013
-704,831	-33,534	-0,034	-0,014
-703,816	793,265	-0,084	-0,173
-702,802	-200,000	0,027	-0,090
-701,787	-200,000	-0,011	-0,168
-700,772	800,000	-0,046	-0,137
-699,758	-200,000	0,029	0,133
-698,743	-200,000	0,027	0,121
-697,729	62,061	-0,048	-0,036
-696,714	70,502	0,033	0,025
-695,699	-200,000	-0,014	0,052
-694,685	-200,000	-0,011	-0,143
-693,670	153,507	-0,054	-0,055
-692,656	800,000	0,037	0,091
-691,641	104,200	-0,013	-0,011
-690,627	-86,021	-0,081	-0,019
-689,612	133,410	0,060	-0,057
-688,597	52,693	-0,153	-0,108
-687,583	-200,000	-0,048	-0,228
-686,568	-84,756	0,139	0,032
-685,554	800,000	-0,083	-0,243
-684,539	-200,000	0,006	-0,030
-683,524	82,096	0,077	-0,062
-682,510	17,522	-0,027	-0,016
-681,495	-87,954	0,066	-0,015
-680,481	-200,000	-0,024	-0,138
-679,466	800,000	-0,027	0,079
-678,451	-73,338	-0,110	-0,030
-677,437	339,567	-0,037	-0,054
-676,422	-140,557	-0,027	0,002
-675,408	417,942	0,137	-0,218
-674,393	299,471	0,029	0,040
-673,378	117,272	-0,035	-0,032
-672,364	-200,000	-0,037	-0,122
-671,349	154,552	-0,059	-0,061
-670,335	-200,000	-0,003	-0,029
-669,320	800,000	0,017	0,054
-668,305	719,871	-0,006	0,011
-667,291	80,713	-0,092	-0,074
-666,276	800,000	0,020	-0,044
-665,262	800,000	-0,020	-0,043
-664,247	75,701	-0,051	0,040
-663,232	53,458	-0,098	-0,070
-662,218	648,606	0,081	-0,155
-661,203	784,429	0,055	-0,112
-660,189	-200,000	0,013	-0,083
-659,174	800,000	-0,014	-0,036
-658,159	124,462	0,003	0,003
-657,145	5,642	0,052	0,028
-656,130	-86,453	0,208	0,047
-655,116	17,399	-0,061	-0,036
-654,101	-200,000	0,027	0,091
-653,086	-123,286	0,009	-0,001
-652,072	80,953	-0,029	0,023
-651,057	-9,529	-0,170	0,084
-650,043	-37,338	0,145	-0,057
-649,028	800,000	-0,092	-0,224
-648,014	-169,467	0,053	0,001
-646,999	-115,223	0,018	-0,003
-645,984	800,000	-0,027	0,065
-644,970	609,838	0,043	-0,080
-643,955	-69,706	-0,108	-0,030
-642,941	79,380	0,070	-0,056
-641,926	-18,597	-0,080	0,037
-640,911	-193,141	0,178	-0,001
-639,897	-200,000	-0,025	0,104
-638,882	-58,281	0,053	0,017
-637,868	537,653	-0,021	-0,037
-636,853	-59,966	0,055	-0,017
-635,838	-200,000	-0,019	0,063
-634,824	-31,777	0,049	-0,020
-633,809	-178,009	0,100	0,002
-632,795	800,000	0,016	0,038
-631,780	800,000	0,026	-0,068
-630,765	-200,000	0,009	-0,087
-629,751	-200,000	0,007	-0,042
-628,736	800,000	-0,041	0,095
-627,722	-200,000	0,044	-0,178
-626,707	196,485	0,088	-0,100
-625,692	570,804	0,049	0,089
-624,678	800,000	0,041	0,110
-623,663	-200,000	-0,018	-0,081
-622,649	-12,474	-0,183	-0,088
-621,634	-131,150	-0,117	-0,011
-620,619	-200,000	-0,027	-0,114
-619,605	188,737	0,018	-0,020
-618,590	-200,000	-0,022	0,098
-617,576	311,833	0,031	0,044
-616,561	-41,847	-0,186	0,071
-615,546	800,000	-0,037	0,117
-614,532	211,562	-0,019	-0,022
-613,517	-200,000	-0,008	-0,123
-612,503	-30,267	-0,067	-0,028
-611,488	698,515	0,049	0,095
-610,474	-200,000	0,012	0,117
-609,459	-18,999	-0,064	-0,029
-608,444	-200,000	-0,005	-0,101
-607,430	-200,000	-0,014	-0,069
-606,415	12,079	-0,059	-0,034
-605,401	-200,000	-0,006	0,080
-604,386	-29,024	-0,068	0,029
-603,371	202,433	-0,142	0,163
-602,357	250,573	-0,028	0,036
-601,342	-108,648	-0,174	-0,027
-600,328	-200,000	0,002	-0,032
-599,313	-200,000	-0,018	-0,139
-598,298	-200,000	0,001	-0,070
-597,284	91,167	0,034	0,029
-596,269	465,301	0,071	0,118
-595,255	800,000	0,038	-0,079
-594,240	62,863	-0,088	0,065
-593,225	-200,000	0,013	-0,063
-592,211	-200,000	0,010	-0,080
-591,196	-128,705	-0,089	-0,009
-590,182	4,621	0,050	0,027
-589,167	-144,330	0,081	0,006
-588,152	-24,742	-0,155	-0,068
-587,138	35,454	0,052	0,034
-586,123	77,520	-0,043	-0,034
-585,109	800,000	-0,077	-0,226
-584,094	22,400	-0,071	-0,043
-583,079	-200,000	0,006	-0,045
-582,065	-200,000	0,004	-0,021
-581,050	-107,529	-0,043	0,007
-580,036	249,087	-0,077	0,097
-579,021	-165,499	-0,092	0,003
-578,006	241,222	0,093	0,116
-576,992	382,801	0,095	-0,145
-575,977	106,776	-0,038	-0,033
-574,963	-200,000	-0,002	-0,023
-573,948	384,847	-0,065	0,100
-572,934	800,000	-0,005	-0,014
-571,919	613,470	0,097	-0,181
-570,904	236,494	0,027	0,033
-569,890	800,000	-0,012	0,035
-568,875	396,527	0,030	0,047
-567,861	32,823	0,079	0,051
-566,846	115,735	-0,026	0,023
-565,831	800,000	-0,027	0,077
-564,817	-200,000	0,056	-0,200
-563,802	660,380	-0,063	0,121
-562,788	456,682	-0,070	-0,116
-561,773	-2,500	-0,075	-0,039
-560,758	-200,000	-0,026	-0,091
-559,744	85,950	0,090	-0,073
-558,729	-173,798	0,065	0,001
-557,715	-86,350	-0,090	0,020
-556,700	110,559	-0,140	-0,125
-555,685	-93,461	0,023	-0,005
-554,671	0,482	-0,059	-0,031
-553,656	563,559	0,079	0,142
-552,642	-149,696	0,055	-0,003
-551,627	-52,777	0,137	-0,046
-550,612	800,000	-0,035	0,077
-549,598	800,000	-0,029	0,066
-548,583	704,874	0,034	0,067
-547,569	-200,000	0,030	-0,103
-546,554	-35,075	0,063	-0,025
-545,539	362,407	0,015	-0,023
-544,525	-200,000	-0,010	0,091
-543,510	67,458	-0,071	-0,053
-542,496	800,000	-0,041	-0,124
-541,481	800,000	0,025	-0,055
-540,466	-200,000	-0,008	0,134
-539,452	800,000	0,021	0,058
-538,437	3,165	0,016	-0,008
-537,423	171,835	0,046	-0,049
-536,408	24,912	0,050	-0,031
-535,393	642,550	-0,059	0,112
-534,379	203,749	0,047	0,054
-533,364	800,000	-0,067	-0,182
-532,350	361,457	0,028	-0,042
-531,335	800,000	-0,038	-0,114
-530,321	-200,000	0,004	-0,080
-529,306	-170,309	0,074	-0,002
-528,291	800,000	0,023	0,063
-527,277	-200,000	-0,001	0,076
-526,262	209,831	-0,051	0,060
-525,248	4,552	0,126	0,068
-524,233	-23,376	0,042	-0,018
-523,218	800,000	-0,026	0,058
-522,204	0,473	0,037	0,020
-521,189	87,316	-0,108	-0,088
-520,175	-64,843	-0,044	-0,013
-519,160	-200,000	0,032	-0,157
-518,145	83,215	-0,034	0,028
-517,131	120,521	0,068	0,063
-516,116	800,000	-0,031	0,086
-515,102	800,000	-0,044	0,098
-514,087	-23,005	0,010	0,005
-513,072	140,707	0,105	-0,103
-512,058	197,320	-0,043	-0,049
-511,043	-62,649	-0,095	-0,029
-510,029	800,000	0,023	-0,068
-509,014	12,981	-0,093	0,053
-507,999	-200,000	-0,008	0,078
-506,985	67,525	-0,042	-0,031
-505,970	8,142	0,053	0,029
-504,956	58,088	-0,050	0,036
-503,941	-110,867	0,051	0,008
-502,926	179,145	0,033	0,036
-501,912	29,979	-0,020	0,013
-500,897	124,740	-0,048	-0,045
-499,883	-11,901	0,054	-0,026
-498,868	227,918	-0,030	0,036
-497,853	55,757	-0,083	-0,060
-496,839	800,000	-0,022	0,063
-495,824	-200,000	-0,039	0,159
-494,810	318,579	-0,083	0,116
-493,795	116,726	0,057	0,052
-492,781	-200,000	0,018	-0,138
-491,766	-200,000	-0,020	-0,146
-490,751	393,377	0,021	0,032
-489,737	306,412	-0,029	-0,040
-488,722	172,335	0,050	0,053
-487,708	572,226	0,019	0,034
-486,693	-102,360	0,024	0,004
-485,678	49,468	0,031	-0,021
-484,664	213,736	-0,103	-0,121
-483,649	-200,000	-0,003	0,010
-482,635	31,618	-0,044	-0,028
-481,620	-64,003	-0,054	0,016
-480,605	-167,802	0,142	0,004
-479,591	126,392	0,068	0,064
-478,576	-200,000	-0,016	0,056
-477,562	146,534	0,073	0,073
-476,547	16,856	-0,143	0,084
-475,532	557,697	0,019	0,034
-474,518	332,847	0,019	-0,027
-473,503	48,309	0,049	0,033
-472,489	-33,740	-0,067	0,027
-471,474	-186,948	-0,055	-0,001
-470,459	-200,000	0,013	0,051
-469,445	-200,000	0,008	0,039
-468,430	800,000	-0,045	0,125
-467,416	67,757	0,097	0,073
-466,401	-200,000	0,001	0,068
-465,386	-200,000	-0,025	-0,109
-464,372	-1,438	-0,068	-0,035
-463,357	800,000	0,038	0,088
-462,343	-200,000	0,006	-0,147
-461,328	-185,326	0,117	-0,001
-460,313	399,058	0,060	0,093
-459,299	-134,535	0,042	0,004
-458,284	-200,000	0,071	0,241
-457,270	-200,000	-0,012	-0,116
-456,255	-27,807	0,083	-0,035
-455,241	120,083	-0,170	-0,155
-454,226	-200,000	-0,007	-0,080
-453,211	800,000	-0,004	0,012
-452,197	-128,895	-0,062	-0,006
-451,182	63,135	-0,042	0,031
-450,168	-200,000	-0,000	0,066
-449,153	800,000	0,043	-0,103
-448,138	28,715	-0,106	0,066
-447,124	-69,029	0,132	0,037
-446,109	33,896	-0,068	0,043
-445,095	317,964	-0,058	-0,082
-444,080	588,420	-0,055	0,100
-443,065	90,234	0,027	0,022
-442,051	-21,418	0,111	-0,050
-441,036	142,851	-0,039	-0,039
-440,022	-200,000	-0,013	-0,046
-439,007	151,728	-0,085	-0,085
-437,992	235,100	-0,067	0,082
-436,978	-109,940	0,183	0,028
-435,963	-200,000	-0,011	0,065
-434,949	21,915	-0,028	0,017
-433,934	-200,000	-0,018	-0,130
-432,919	-42,629	-0,049	0,018
-431,905	800,000	0,049	-0,108
-430,890	-58,135	-0,180	0,057
-429,876	-106,185	-0,115	0,019
-428,861	32,678	0,179	0,114
-427,846	277,135	0,011	0,014
-426,832	-58,821	-0,035	0,011
-425,817	-200,000	0,013	-0,072
-424,803	91,732	0,039	-0,032
-423,788	-200,000	-0,031	0,114
-422,773	-200,000	-0,016	0,176
-421,759	113,205	0,049	0,044
-420,744	-200,000	-0,024	-0,159
-419,730	271,699	-0,083	-0,107
-418,715	800,000	-0,029	0,094
-417,701	-81,585	0,126	0,030
-416,686	800,000	0,021	0,044
-415,671	-200,000	-0,003	0,010
-414,657	97,299	-0,070	0,059
-413,642	296,319	-0,109	-0,147
-412,628	-24,945	0,085	0,037
-411,613	-200,000	-0,014	-0,064
-410,598	235,466	0,023	-0,029
-409,584	-9,491	0,062	-0,030
-408,569	32,285	-0,059	-0,037
-407,555	306,262	0,047	-0,064
-406,540	800,000	-0,025	-0,058
-405,525	456,705	-0,023	-0,038
-404,511	-29,224	0,073	0,031
-403,496	-142,640	-0,116	0,008
-402,482	60,980	-0,075	-0,055
-401,467	-200,000	-0,072	-0,305
-400,452	460,828	-0,035	0,058
-399,438	197,158	-0,030	0,033
-398,423	-153,330	-0,101	0,005
-397,409	-200,000	0,123	0,000
-396,394	271,201	0,020	0,026
-395,379	368,662	0,042	0,063
-394,365	20,495	0,121	-0,072
-393,350	-5,579	0,072	0,036
-392,336	-200,000	-0,018	0,075
-391,321	-78,895	0,067	0,017
-390,306	179,769	-0,064	0,069
-389,292	-200,000	0,020	-0,083
-388,277	21,580	0,055	0,033
-387,263	695,758	0,082	0,160
-386,248	58,311	0,064	0,046
-385,233	-0,728	0,166	-0,086
-384,219	-200,000	-0,004	0,030
-383,204	-116,701	0,051	-0,007
-382,190	-200,000	0,033	-0,111
-381,175	-37,960	0,144	-0,056
-380,160	147,660	0,092	0,092
-379,146	371,576	-0,042	0,063
-378,131	-91,617	-0,050	0,010
-377,117	800,000	-0,051	0,104
-376,102	-9,952	0,015	-0,007
-375,088	107,900	0,025	0,022
-374,073	80,586	-0,104	-0,082
-373,058	-200,000	0,015	-0,166
-372,044	-200,000	0,011	-0,097
-371,029	-200,000	-0,013	0,083
-370,015	76,601	0,089	0,069
-369,000	178,342	-0,054	-0,058
-367,985	224,662	-0,099	0,117
-366,971	-4,506	-0,039	0,020
-365,956	443,750	0,045	0,073
-364,942	598,256	0,036	0,066
-363,927	118,039	-0,097	-0,088
-362,912	-117,848	-0,053	-0,007
-361,898	-83,111	-0,171	-0,040
-360,883	87,480	-0,092	0,074
-359,869	760,455	-0,037	0,075
-358,854	-200,000	-0,004	0,058
-357,839	125,299	0,085	0,078
-356,825	-156,542	0,131	-0,006
-355,810	-140,492	-0,110	-0,008
-354,796	-56,253	0,122	-0,040
-353,781	108,879	-0,046	0,041
-352,766	3,115	0,152	-0,081
-351,752	-19,961	-0,072	0,032
-350,737	-113,479	0,080	0,011
-349,723	-39,900	-0,061	0,023
-348,708	800,000	-0,037	0,075
-347,693	-200,000	0,021	0,068
-346,679	204,681	-0,095	-0,109
-345,664	-123,300	-0,036	0,004
-344,650	29,373	0,120	0,075
-343,635	-102,544	-0,116	0,020
-342,620	800,000	-0,036	0,082
-341,606	136,993	0,031	-0,030
-340,591	146,856	-0,102	-0,101
-339,577	210,490	-0,089	0,102
-338,562	-186,730	-0,112	0,001
-337,548	800,000	0,044	0,107
-336,533	-7,394	-0,129	-0,064
-335,518	800,000	0,035	-0,074
-334,504	131,702	-0,087	0,082
-333,489	239,273	-0,063	0,077
-332,475	93,090	0,093	-0,077
-331,460	-50,653	-0,052	-0,018
-330,445	-89,859	0,021	-0,004
-329,431	12,961	0,133	-0,075
-328,416	-200,000	-0,001	0,098
-327,402	-76,936	-0,079	-0,020
-326,387	277,458	0,057	-0,074
-325,372	486,836	-0,067	-0,113
-324,358	382,069	0,078	-0,118
-323,343	-150,604	-0,092	0,005
-322,329	-200,000	-0,011	0,074
-321,314	-10,658	0,117	0,056
-320,299	94,940	-0,133	0,111
-319,285	-200,000	0,003	-0,014
-318,270	-200,000	0,007	0,030
-317,256	225,901	-0,090	-0,108
-316,241	-200,000	-0,014	0,054
-315,226	800,000	0,049	-0,133
-314,212	-115,695	0,090	-0,012
-313,197	-37,886	0,096	-0,037
-312,183	-200,000	-0,002	-0,095
-311,168	78,459	0,026	0,020
-310,153	36,111	-0,096	0,062
-309,139	800,000	0,019	0,055
-308,124	-200,000	0,023	-0,079
-307,110	528,424	0,020	-0,035
-306,095	-126,420	0,081	-0,009
-305,080	-180,394	0,181	0,003
-304,066	169,016	-0,086	-0,090
-303,051	-94,902	-0,098	-0,019
-302,037	135,641	-0,062	0,059
-301,022	800,000	0,036	-0,093
-300,008	-87,103	0,042	-0,009
-298,993	112,494	0,076	0,067
-297,978	92,622	0,020	-0,016
-296,964	85,775	-0,069	0,056
-295,949	-200,000	-0,012	-0,122
-294,935	-200,000	-0,004	0,018
-293,920	200,587	-0,030	-0,033
-292,905	1,006	0,186	0,097
-291,891	-55,503	0,081	-0,027
-290,876	179,090	0,142	0,152
-289,862	-36,436	0,057	0,022
-288,847	-99,620	-0,121	0,022
-287,832	-30,537	0,009	0,004
-286,818	-200,000	0,008	-0,044
-285,803	130,894	-0,092	-0,086
-284,789	-200,000	0,004	0,041
-283,774	379,369	0,033	0,049
-282,759	-44,389	0,053	-0,019
-281,745	2,779	-0,078	-0,041
-280,730	-69,745	-0,112	-0,031
-279,716	17,113	-0,070	-0,041
-278,701	194,745	0,045	0,050
-277,686	173,009	-0,038	-0,041
-276,672	-200,000	-0,011	0,067
-275,657	18,634	0,031	0,018
-274,643	-100,324	-0,093	0,017
-273,628	7,884	-0,038	-0,021
-272,613	-200,000	0,028	-0,096
-271,599	-200,000	0,008	0,047
-270,584	-41,022	0,101	-0,038
-269,570	-15,771	0,016	-0,007
-268,555	103,219	0,074	0,064
-267,540	145,462	-0,056	0,055
-266,526	38,801	0,008	-0,005
-265,511	-200,000	-0,018	-0,059
-264,497	641,541	0,017	0,032
-263,482	-126,191	0,115	0,012
-262,467	77,082	-0,066	0,052
-261,453	-200,000	-0,002	0,038
-260,438	522,437	0,084	-0,145
-259,424	-200,000	0,010	-0,081
-258,409	450,432	-0,087	-0,142
-257,395	96,041	0,068	-0,056
-256,380	-40,303	0,093	-0,035
-255,365	302,948	0,045	0,061
-254,351	-58,971	-0,053	-0,017
-253,336	800,000	-0,026	-0,054
-252,322	658,474	0,012	0,023
-251,307	230,043	0,097	-0,117
-250,292	156,222	-0,041	0,041
-249,278	-16,818	0,029	0,014
-248,263	-103,407	0,080	0,014
-247,249	77,159	0,054	0,042
-246,234	-200,000	0,010	-0,086
-245,219	-118,793	-0,061	0,008
-244,205	202,723	0,084	-0,096
-243,190	-169,417	0,101	-0,003
-242,176	-94,070	0,153	0,030
-241,161	46,785	-0,073	0,049
-240,146	800,000	-0,007	-0,021
-239,132	-6,582	0,146	0,073
-238,117	-81,520	-0,138	0,033
-237,103	-200,000	0,019	0,098
-236,088	1,166	-0,114	0,060
-235,073	-24,328	0,166	-0,072
-234,059	294,776	0,024	0,032
-233,044	39,036	0,046	0,030
-232,030	158,281	0,077	0,078
-231,015	-116,398	-0,049	0,007
-230,000	428,148	0,020	-0,031
-228,986	157,757	0,085	-0,086
-227,971	73,706	0,047	0,036
-226,957	-36,544	0,042	-0,016
-225,942	6,519	0,023	-0,012
-224,927	-132,743	-0,073	-0,007
-223,913	-200,000	-0,010	-0,039
-222,898	800,000	0,039	0,111
-221,884	239,314	0,065	0,079
-220,869	-131,924	-0,069	-0,007
-219,855	768,952	0,012	-0,023
-218,840	-200,000	0,004	0,025
-217,825	-200,000	0,017	0,091
-216,811	133,428	-0,045	0,043
-215,796	-200,000	0,006	-0,073
-214,782	-76,753	-0,120	0,030
-213,767	-101,081	0,073	-0,013
-212,752	12,683	-0,091	-0,051
-211,738	79,877	0,047	0,037
-210,723	421,905	-0,031	0,049
-209,709	-200,000	0,012	-0,058
-208,694	-155,966	-0,089	-0,004
-207,679	131,709	0,017	0,016
-206,665	-53,673	0,176	-0,058
-205,650	-22,011	0,334	-0,148
-204,636	470,151	0,046	0,076
-203,621	-120,945	-0,149	0,018
-202,606	50,311	0,065	-0,045
-201,592	800,000	0,010	-0,029
-200,577	-200,000	0,002	-0,028
-199,563	29,975	0,090	0,056
-198,548	-200,000	-0,014	0,064
-197,533	800,000	-0,032	0,084
-196,519	-200,000	-0,029	0,100
-195,504	800,000	-0,018	0,047
-194,490	-148,271	-0,076	0,004
-193,475	138,577	-0,131	-0,125
-192,460	-200,000	0,014	0,107
-191,446	244,241	0,062	0,076
-190,431	-184,223	0,097	-0,001
-189,417	-81,879	-0,232	-0,055
-188,402	800,000	0,037	-0,097
-187,387	-117,345	0,050	-0,007
-186,373	204,541	-0,073	0,083
-185,358	-121,514	0,122	-0,015
-184,344	-16,670	0,059	0,027
-183,329	-200,000	-0,028	0,126
-182,315	179,321	0,117	-0,125
-181,300	120,979	0,031	-0,028
-180,285	-15,192	-0,080	0,037
-179,271	206,368	0,037	-0,042
-178,256	-69,281	-0,073	-0,020
-177,242	-200,000	0,017	-0,074
-176,227	196,882	0,081	0,090
-175,212	-200,000	-0,001	0,092
-174,198	318,941	0,045	-0,062
-173,183	327,900	-0,045	0,063
-172,169	782,454	-0,056	0,113
-171,154	800,000	0,026	-0,057
-170,139	-178,727	-0,083	-0,001
-169,125	-198,973	0,140	0,001
-168,110	210,156	0,037	0,042
-167,096	-200,000	-0,020	0,077
-166,081	51,149	0,154	-0,106
-165,066	-107,924	-0,250	-0,039
-164,052	-12,714	0,064	0,030
-163,037	42,765	0,049	0,033
-162,023	800,000	0,081	0,183
-161,008	-20,645	0,103	0,046
-159,993	125,804	-0,040	-0,036
-158,979	30,388	-0,098	0,061
-157,964	-127,088	0,089	-0,009
-156,950	800,000	0,050	-0,139
-155,935	-7,818	-0,142	0,070
-154,920	-39,207	-0,117	0,045
-153,906	-84,677	-0,167	0,038
-152,891	-79,612	-0,099	-0,024
-151,877	-200,000	-0,023	-0,125
-150,862	-200,000	-0,022	-0,077
-149,847	-200,000	0,008	-0,057
-148,833	-200,000	-0,018	-0,068
-147,818	68,560	-0,120	-0,090
-146,804	158,280	-0,093	0,094
-145,789	-200,000	-0,012	0,047
-144,775	-110,944	0,063	-0,009
-143,760	-97,320	-0,085	-0,016
-142,745	577,763	-0,030	0,055
-141,731	-200,000	-0,010	-0,055
-140,716	-200,000	0,049	-0,185
-139,702	-200,000	0,011	-0,075
-138,687	-200,000	-0,023	0,087
-137,672	106,648	-0,116	-0,101
-136,658	151,307	-0,043	-0,043
-135,643	391,973	-0,105	-0,159
-134,629	-200,000	-0,002	0,027
-133,614	-75,627	-0,090	-0,023
-132,599	800,000	0,033	0,083
-131,585	47,221	0,191	-0,129
-130,570	-12,831	-0,061	0,029
-129,556	-200,000	-0,009	-0,210
-128,541	532,558	-0,060	0,104
-127,526	800,000	0,041	-0,096
-126,512	47,082	0,153	-0,103
-125,497	-200,000	0,007	-0,133
-124,483	800,000	0,027	0,071
-123,468	-122,599	-0,063	-0,007
-122,453	800,000	-0,060	-0,144
-121,439	-200,000	-0,015	-0,103
-120,424	-108,049	-0,097	0,015
-119,410	63,738	0,100	0,073
