DTS Sentinel unit serial number:	SN410029Multiplexer serial number:	ORYXHardware model number:	OX2-SRSoftware version number:	ORYX F/W v4,00 Oryx Data Collector v3.7.2.0data status	okinstallation	B6 Nyhavnadifferential loss correction	single-endedforward channel	channel 2reverse channel	N/Adate	2023/12/09time	17:10:08forward acquisition time	300,00reverse acquisition time	0,00gamma	499,1914k internal	0,3130k external	0,3130temperature offset calibration	1,0000default loss term (dB/km)	0,3820temperature slope calibration	1,0000multiplexer offset coefficient	1,0000multiplexer slope coefficient	1,0000fibre end	0,00T internal ref (°C)	20,96T ext. ref 1 (°C)	4,70T ext. ref 2 (°C)	4,69length (m)	temperature (°C)	Stokes	anti-Stokes-744,400	-200,000	0,021	-0,140
-743,385	-0,966	-0,214	-0,112
-742,371	155,006	0,039	0,040
-741,356	-26,719	-0,230	0,100
-740,342	-53,637	0,144	0,049
-739,327	-107,678	-0,297	-0,048
-738,312	-200,000	0,016	-0,073
-737,298	-97,944	-0,278	0,053
-736,283	-132,435	0,094	-0,009
-735,269	-8,311	-0,169	0,084
-734,254	174,603	0,002	-0,003
-733,239	-5,790	-0,365	-0,185
-732,225	-157,004	0,091	-0,004
-731,210	800,000	0,049	0,126
-730,196	-200,000	-0,015	-0,109
-729,181	800,000	-0,060	-0,129
-728,167	-200,000	0,008	0,055
-727,152	51,532	0,102	-0,072
-726,137	-200,000	-0,056	-0,191
-725,123	800,000	-0,010	-0,031
-724,108	-200,000	-0,018	-0,138
-723,094	432,336	-0,063	-0,102
-722,079	333,639	-0,069	-0,100
-721,064	406,334	-0,054	-0,085
-720,050	-7,733	-0,102	-0,051
-719,035	-54,333	0,026	0,009
-718,021	-151,660	-0,139	0,007
-717,006	37,046	-0,051	-0,033
-715,991	2,221	-0,118	-0,063
-714,977	257,898	-0,058	-0,075
-713,962	-200,000	0,014	-0,197
-712,948	-200,000	-0,002	0,027
-711,933	-83,505	0,025	-0,006
-710,918	-200,000	-0,002	-0,012
-709,904	-157,535	-0,083	-0,004
-708,889	95,040	0,018	-0,015
-707,875	-181,119	0,114	0,002
-706,860	54,836	-0,031	0,022
-705,845	-123,363	-0,043	-0,005
-704,831	-19,525	-0,017	-0,008
-703,816	86,098	-0,082	0,067
-702,802	800,000	-0,023	0,058
-701,787	-114,786	-0,087	-0,012
-700,772	-59,539	-0,093	0,030
-699,758	-38,815	-0,079	-0,031
-698,743	-85,001	0,139	0,032
-697,729	-200,000	0,007	-0,091
-696,714	-99,150	0,051	0,009
-695,699	-200,000	-0,015	-0,102
-694,685	-84,713	-0,124	-0,029
-693,670	-200,000	0,011	-0,042
-692,656	800,000	0,064	-0,197
-691,641	-200,000	0,021	0,114
-690,627	-91,374	-0,050	-0,011
-689,612	65,156	-0,067	0,050
-688,597	250,533	-0,019	-0,024
-687,583	737,533	0,033	-0,066
-686,568	-200,000	0,014	0,046
-685,554	-200,000	0,003	0,017
-684,539	-150,581	0,023	-0,001
-683,524	-111,869	0,060	0,009
-682,510	-12,851	-0,027	-0,013
-681,495	-114,874	0,035	0,005
-680,481	93,147	-0,036	0,030
-679,466	-131,884	-0,119	0,011
-678,451	45,618	-0,070	-0,048
-677,437	-75,012	-0,102	-0,027
-676,422	-97,657	-0,054	-0,010
-675,408	599,350	0,072	-0,133
-674,393	773,751	-0,026	-0,052
-673,378	352,133	0,048	0,071
-672,364	362,827	-0,006	-0,009
-671,349	299,097	0,067	0,092
-670,335	-48,308	0,036	0,013
-669,320	-128,424	-0,153	0,016
-668,305	-200,000	0,013	0,115
-667,291	695,930	-0,035	-0,069
-666,276	-11,139	0,015	0,007
-665,262	-38,238	0,073	-0,028
-664,247	201,458	-0,045	-0,051
-663,232	-65,967	0,038	-0,011
-662,218	668,279	-0,036	0,069
-661,203	-47,006	-0,027	0,010
-660,189	-200,000	0,042	0,153
-659,174	57,590	0,088	-0,063
-658,159	-146,360	-0,017	-0,001
-657,145	238,966	0,049	-0,061
-656,130	-65,475	0,168	-0,050
-655,116	234,488	-0,042	0,051
-654,101	24,066	-0,196	-0,120
-653,086	-57,981	0,086	0,028
-652,072	256,123	0,072	-0,091
-651,057	-34,032	-0,151	-0,061
-650,043	-200,000	-0,004	0,055
-649,028	-200,000	-0,037	-0,151
-648,014	-10,551	0,126	-0,062
-646,999	-8,131	0,048	0,024
-645,984	10,541	0,098	-0,055
-644,970	52,892	0,095	-0,067
-643,955	-200,000	0,003	-0,190
-642,941	89,005	-0,084	-0,070
-641,926	198,230	0,032	-0,036
-640,911	208,263	-0,058	-0,067
-639,897	56,060	-0,089	0,064
-638,882	1,571	0,075	0,040
-637,868	-44,717	-0,157	0,058
-636,853	255,140	-0,055	0,070
-635,838	315,286	-0,035	0,048
-634,824	-27,495	-0,071	-0,030
-633,809	41,201	0,050	0,033
-632,795	630,885	-0,050	0,095
-631,780	210,003	0,020	-0,024
-630,765	800,000	0,035	-0,076
-629,751	57,764	-0,089	-0,064
-628,736	525,939	-0,060	-0,105
-627,722	197,054	0,053	-0,060
-626,707	800,000	-0,049	-0,132
-625,692	-200,000	-0,026	0,111
-624,678	800,000	-0,040	-0,106
-623,663	5,721	-0,026	-0,014
-622,649	44,276	-0,050	0,034
-621,634	-40,899	-0,103	0,039
-620,619	21,543	0,060	-0,036
-619,605	-118,648	-0,044	-0,006
-618,590	-200,000	0,011	-0,104
-617,576	-200,000	0,008	-0,108
-616,561	800,000	0,031	0,079
-615,546	-107,165	0,007	0,001
-614,532	800,000	-0,035	-0,099
-613,517	-200,000	0,014	-0,053
-612,503	-200,000	0,029	0,106
-611,488	-200,000	-0,002	0,079
-610,474	800,000	0,018	0,041
-609,459	-200,000	-0,009	0,136
-608,444	-154,755	0,044	-0,002
-607,430	161,440	0,017	0,017
-606,415	203,269	-0,112	-0,128
-605,401	9,280	-0,129	-0,072
-604,386	312,605	-0,035	-0,049
-603,371	-12,034	0,155	0,075
-602,357	63,591	-0,020	-0,015
-601,342	800,000	-0,034	-0,098
-600,328	-141,866	-0,080	0,006
-599,313	444,271	-0,015	-0,024
-598,298	49,897	0,106	-0,074
-597,284	800,000	0,059	0,134
-596,269	800,000	-0,037	0,108
-595,255	171,218	-0,030	0,032
-594,240	-98,807	0,032	-0,006
-593,225	393,236	0,030	-0,047
-592,211	23,395	-0,110	0,067
-591,196	36,565	0,038	0,024
-590,182	31,344	0,036	0,023
-589,167	-25,008	-0,134	0,058
-588,152	800,000	0,036	0,092
-587,138	-200,000	0,005	0,052
-586,123	-200,000	0,005	0,076
-585,109	-200,000	0,030	-0,145
-584,094	645,638	-0,007	-0,012
-583,079	256,877	-0,012	0,016
-582,065	442,189	0,113	0,184
-581,050	-200,000	0,006	-0,083
-580,036	278,154	-0,051	-0,068
-579,021	-200,000	0,018	0,135
-578,006	-200,000	-0,077	-0,288
-576,992	-200,000	0,029	-0,099
-575,977	38,016	0,026	-0,017
-574,963	227,774	0,079	0,095
-573,948	-200,000	-0,019	0,138
-572,934	-52,518	0,031	0,010
-571,919	761,509	-0,054	-0,108
-570,904	-174,417	0,053	-0,001
-569,890	800,000	0,088	-0,203
-568,875	-73,577	0,069	-0,018
-567,861	-156,471	-0,114	-0,005
-566,846	-162,031	0,118	0,004
-565,831	-113,389	0,036	0,005
-564,817	204,980	-0,064	-0,073
-563,802	237,087	0,068	-0,083
-562,788	-200,000	-0,010	0,041
-561,773	-200,000	0,015	-0,061
-560,758	644,026	0,067	0,126
-559,744	31,169	0,039	-0,025
-558,729	17,762	-0,029	0,017
-557,715	125,178	-0,115	-0,107
-556,700	56,274	-0,076	-0,054
-555,685	-70,145	-0,086	0,024
-554,671	-105,799	0,176	-0,029
-553,656	486,272	0,056	0,095
-552,642	377,605	0,116	0,175
-551,627	328,186	0,009	-0,013
-550,612	800,000	-0,012	-0,028
-549,598	193,907	0,073	-0,082
-548,583	-103,352	-0,103	-0,018
-547,569	34,433	-0,120	-0,077
-546,554	44,142	0,187	-0,126
-545,539	-81,667	-0,136	0,033
-544,525	800,000	0,038	0,082
-543,510	272,067	0,025	-0,033
-542,496	-200,000	-0,050	-0,187
-541,481	-15,968	-0,123	-0,058
-540,466	251,922	-0,046	0,058
-539,452	107,145	0,048	0,042
-538,437	159,529	0,073	0,075
-537,423	484,420	-0,032	0,054
-536,408	-200,000	0,036	0,124
-535,393	-43,031	-0,103	0,038
-534,379	32,107	-0,173	0,110
-533,364	-200,000	-0,018	0,145
-532,350	-49,711	0,038	0,013
-531,335	-200,000	0,015	0,201
-530,321	526,982	0,037	0,064
-529,306	148,694	-0,052	-0,052
-528,291	-90,774	0,040	0,008
-527,277	-200,000	0,004	-0,017
-526,262	800,000	0,011	-0,035
-525,248	398,380	0,021	-0,032
-524,233	110,982	0,057	0,051
-523,218	-114,703	0,116	0,016
-522,204	-200,000	-0,009	0,094
-521,189	800,000	-0,032	-0,079
-520,175	-100,926	-0,059	0,011
-519,160	141,234	-0,073	-0,071
-518,145	411,628	-0,104	0,163
-517,131	-200,000	-0,018	0,083
-516,116	-40,942	-0,074	-0,028
-515,102	-200,000	0,005	-0,033
-514,087	16,442	-0,020	0,011
-513,072	7,830	-0,082	-0,045
-512,058	-200,000	0,010	-0,105
-511,043	-120,553	0,048	-0,006
-510,029	-200,000	0,040	-0,192
-509,014	187,133	-0,053	-0,058
-507,999	800,000	-0,040	-0,121
-506,985	578,872	0,028	0,050
-505,970	-200,000	-0,004	0,019
-504,956	68,389	-0,099	-0,075
-503,941	324,187	0,066	0,094
-502,926	41,563	0,035	-0,024
-501,912	-89,966	-0,085	-0,018
-500,897	-200,000	-0,001	0,075
-499,883	117,461	-0,026	0,024
-498,868	558,917	-0,055	0,098
-497,853	-13,776	-0,090	-0,043
-496,839	800,000	-0,027	0,086
-495,824	51,473	-0,066	0,046
-494,810	-131,664	0,157	-0,015
-493,795	75,709	0,087	0,068
-492,781	147,957	0,021	-0,021
-491,766	-27,584	-0,072	0,031
-490,751	800,000	-0,037	-0,104
-489,737	99,141	-0,023	0,020
-488,722	544,391	-0,044	0,077
-487,708	-108,066	0,063	0,010
-486,693	800,000	0,024	0,071
-485,678	193,806	-0,045	-0,050
-484,664	390,274	-0,025	0,038
-483,649	622,427	0,027	0,051
-482,635	-55,089	-0,084	0,028
-481,620	-200,000	-0,003	-0,025
-480,605	-200,000	-0,003	-0,011
-479,591	16,539	0,094	-0,054
-478,576	400,076	0,028	-0,043
-477,562	-200,000	0,018	-0,168
-476,547	40,224	-0,025	0,017
-475,532	299,921	-0,027	-0,037
-474,518	72,710	-0,031	-0,024
-473,503	-134,646	0,105	0,009
-472,489	-86,871	-0,047	-0,010
-471,474	-114,479	-0,094	-0,013
-470,459	-200,000	-0,015	0,142
-469,445	230,030	0,083	-0,100
-468,430	3,727	0,088	-0,047
-467,416	-62,444	0,090	0,027
-466,401	300,748	0,053	0,073
-465,386	-5,427	0,055	0,028
-464,372	20,095	-0,069	-0,041
-463,357	168,320	-0,063	0,066
-462,343	36,362	0,061	-0,039
-461,328	-200,000	-0,010	-0,131
-460,313	691,432	0,055	0,106
-459,299	57,504	-0,023	0,016
-458,284	800,000	0,047	0,121
-457,270	800,000	0,037	0,076
-456,255	150,536	0,051	-0,051
-455,241	-136,325	-0,120	0,010
-454,226	-200,000	0,008	-0,079
-453,211	782,667	0,029	0,058
-452,197	800,000	-0,028	0,072
-451,182	770,376	-0,068	0,137
-450,168	-200,000	0,001	-0,081
-449,153	-200,000	0,010	-0,076
-448,138	-163,584	0,080	0,003
-447,124	90,529	0,041	0,034
-446,109	-200,000	-0,023	-0,079
-445,095	475,214	0,074	0,123
-444,080	-171,294	0,042	0,001
-443,065	-200,000	0,036	0,132
-442,051	-200,000	0,009	0,086
-441,036	-42,584	-0,076	0,028
-440,022	132,058	-0,068	0,065
-439,007	171,146	-0,076	-0,080
-437,992	-200,000	0,015	-0,079
-436,978	800,000	-0,047	0,114
-435,963	-63,151	0,058	0,018
-434,949	-200,000	0,001	-0,011
-433,934	-49,293	0,096	-0,033
-432,919	-49,959	-0,033	0,011
-431,905	154,093	-0,047	-0,048
-430,890	-96,660	0,080	-0,015
-429,876	-7,589	0,049	-0,024
-428,861	365,709	0,081	-0,120
-427,846	-189,081	-0,072	-0,001
-426,832	152,547	0,049	-0,049
-425,817	25,101	-0,072	-0,044
-424,803	800,000	0,044	-0,102
-423,788	-6,765	0,157	0,078
-422,773	800,000	0,020	0,043
-421,759	-11,326	-0,058	-0,028
-420,744	26,517	-0,103	-0,063
-419,730	35,882	0,119	-0,077
-418,715	-137,424	0,077	-0,006
-417,701	-164,731	0,072	-0,002
-416,686	193,719	0,066	0,073
-415,671	266,268	0,122	0,156
-414,657	800,000	0,030	0,076
-413,642	-76,150	0,185	0,048
-412,628	-200,000	-0,004	-0,050
-411,613	-71,326	0,086	0,024
-410,598	-66,379	0,031	0,009
-409,584	-123,773	-0,066	-0,008
-408,569	-45,379	0,154	-0,056
-407,555	-128,171	-0,066	-0,007
-406,540	-33,358	0,083	-0,034
-405,525	-43,455	0,029	-0,011
-404,511	-200,000	0,000	-0,094
-403,496	-200,000	0,007	0,042
-402,482	396,193	-0,020	0,031
-401,467	-200,000	-0,025	0,091
-400,452	-62,093	0,047	0,014
-399,438	71,534	0,063	0,048
-398,423	129,212	-0,092	-0,086
-397,409	188,429	0,025	0,027
-396,394	252,276	-0,043	-0,054
-395,379	800,000	-0,063	0,136
-394,365	-200,000	0,028	0,092
-393,350	-27,121	-0,090	0,038
-392,336	-119,913	-0,059	-0,007
-391,321	-200,000	-0,003	0,111
-390,306	-108,032	0,116	0,018
-389,292	16,244	0,050	-0,029
-388,277	-105,873	0,116	-0,019
-387,263	-159,225	0,030	0,001
-386,248	57,463	0,059	-0,042
-385,233	39,431	0,055	-0,036
-384,219	293,366	0,010	0,013
-383,204	67,211	-0,125	-0,093
-382,190	389,465	0,025	-0,038
-381,175	-52,748	-0,103	-0,035
-380,160	302,131	-0,071	0,096
-379,146	-135,954	0,033	0,003
-378,131	200,099	-0,089	0,101
-377,117	-43,661	-0,072	-0,027
-376,102	800,000	-0,044	-0,110
-375,088	97,178	-0,060	0,050
-374,073	545,970	-0,045	0,079
-373,058	114,990	0,010	-0,009
-372,044	-41,228	-0,065	-0,024
-371,029	800,000	0,017	-0,039
-370,015	-22,792	0,142	0,063
-369,000	-200,000	0,032	-0,141
-367,985	-200,000	0,011	-0,062
-366,971	-78,012	-0,052	0,013
-365,956	100,840	0,092	0,078
-364,942	-200,000	0,027	0,111
-363,927	439,463	-0,051	-0,081
-362,912	-200,000	-0,009	-0,035
-361,898	-42,337	-0,045	-0,017
-360,883	-1,694	-0,149	-0,077
-359,869	192,324	0,048	-0,053
-358,854	-200,000	0,022	0,205
-357,839	-200,000	-0,009	0,065
-356,825	-122,366	0,202	0,024
-355,810	198,667	-0,081	-0,091
-354,796	800,000	0,012	0,028
-353,781	-200,000	0,002	-0,027
-352,766	-170,986	0,010	0,000
-351,752	375,993	0,033	-0,049
-350,737	-91,258	-0,117	0,024
-349,723	800,000	0,049	0,101
-348,708	29,439	-0,068	-0,042
-347,693	251,593	-0,038	0,047
-346,679	-200,000	-0,011	-0,073
-345,664	-33,421	-0,046	-0,019
-344,650	7,994	-0,046	0,025
-343,635	-200,000	-0,027	0,091
-342,620	-98,632	0,076	-0,014
-341,606	-200,000	0,020	0,117
-340,591	-200,000	0,001	0,022
-339,577	136,035	-0,110	-0,105
-338,562	800,000	0,028	-0,074
-337,548	-120,092	0,016	0,002
-336,533	-73,587	0,159	-0,042
-335,518	-11,282	-0,055	0,026
-334,504	-200,000	0,000	0,011
-333,489	-128,239	-0,129	0,013
-332,475	-46,685	0,043	0,015
-331,460	-200,000	0,024	-0,089
-330,445	-101,687	0,062	-0,011
-329,431	-52,800	-0,105	-0,035
-328,416	293,226	0,040	-0,053
-327,402	-200,000	0,014	0,121
-326,387	-200,000	-0,037	0,205
-325,372	800,000	-0,005	-0,010
-324,358	-200,000	-0,007	-0,038
-323,343	800,000	0,009	0,026
-322,329	56,368	0,082	-0,058
-321,314	800,000	-0,015	-0,047
-320,299	-200,000	-0,013	0,099
-319,285	-164,732	-0,124	-0,004
-318,270	-152,449	-0,112	-0,006
-317,256	-200,000	-0,001	-0,064
-316,241	66,028	0,078	0,058
-315,226	407,885	0,029	0,045
-314,212	-200,000	0,004	-0,063
-313,197	-200,000	0,010	-0,036
-312,183	752,225	0,072	0,144
-311,168	33,269	-0,043	-0,027
-310,153	347,072	-0,067	0,097
-309,139	179,109	-0,060	-0,065
-308,124	-200,000	-0,006	0,078
-307,110	-78,322	0,182	0,045
-306,095	-117,568	0,088	-0,012
-305,080	195,723	-0,078	-0,087
-304,066	368,153	-0,037	0,056
-303,051	-111,406	-0,032	0,005
-302,037	-200,000	-0,011	0,087
-301,022	800,000	-0,016	-0,049
-300,008	-39,065	0,048	0,018
-298,993	1,687	0,040	0,021
-297,978	-170,201	-0,091	0,002
-296,964	55,891	-0,032	-0,022
-295,949	-200,000	0,001	0,030
-294,935	-87,749	-0,090	-0,020
-293,920	-200,000	-0,001	-0,034
-292,905	-200,000	0,028	0,233
-291,891	324,169	0,069	0,096
-290,876	-200,000	0,009	0,032
-289,862	-40,381	0,081	-0,031
-288,847	-25,194	0,061	-0,026
-287,832	800,000	0,060	-0,167
-286,818	309,547	0,062	0,085
-285,803	800,000	-0,047	0,130
-284,789	-200,000	-0,005	0,101
-283,774	-200,000	-0,026	0,111
-282,759	701,113	-0,046	-0,089
-281,745	85,894	-0,157	-0,126
-280,730	-180,396	0,167	0,002
-279,716	-1,638	0,065	-0,033
-278,701	216,087	0,064	-0,075
-277,686	800,000	0,013	-0,039
-276,672	-137,292	-0,053	-0,004
-275,657	-70,297	-0,153	-0,042
-274,643	-25,946	-0,002	-0,001
-273,628	-148,133	0,150	-0,009
-272,613	-133,569	-0,014	0,001
-271,599	-200,000	-0,000	-0,086
-270,584	-110,454	0,131	0,020
-269,570	-200,000	-0,025	-0,092
-268,555	181,781	0,045	-0,049
-267,540	392,831	-0,005	-0,008
-266,526	-200,000	-0,001	-0,018
-265,511	-200,000	-0,008	0,161
-264,497	-200,000	0,021	0,147
-263,482	-44,718	0,088	0,032
-262,467	142,018	0,090	0,087
-261,453	-200,000	-0,021	0,103
-260,438	-2,979	-0,087	-0,044
-259,424	-200,000	-0,018	-0,096
-258,409	149,850	0,194	-0,192
-257,395	119,748	-0,060	0,054
-256,380	68,127	0,150	0,112
-255,365	800,000	-0,057	0,129
-254,351	800,000	-0,028	-0,082
-253,336	-159,219	-0,065	0,003
-252,322	-4,580	-0,042	-0,021
-251,307	693,668	0,027	-0,051
-250,292	-200,000	-0,005	0,056
-249,278	-46,343	0,107	0,038
-248,263	-200,000	-0,011	-0,038
-247,249	99,368	0,151	0,128
-246,234	800,000	-0,024	-0,067
-245,219	800,000	0,043	-0,131
-244,205	-200,000	0,013	0,086
-243,190	-200,000	-0,000	0,042
-242,176	800,000	0,021	0,046
-241,161	-200,000	0,006	-0,111
-240,146	800,000	-0,029	0,077
-239,132	-20,254	-0,050	0,022
-238,117	408,327	0,065	-0,101
-237,103	415,767	0,038	-0,059
-236,088	-20,280	-0,115	0,051
-235,073	800,000	0,054	0,144
-234,059	73,653	-0,022	0,017
-233,044	459,155	0,020	-0,033
-232,030	76,012	0,076	-0,058
-231,015	-200,000	-0,014	-0,062
-230,000	479,102	-0,049	0,081
-228,986	153,063	-0,015	-0,015
-227,971	-200,000	0,015	0,086
-226,957	237,428	0,032	0,039
-225,942	-200,000	-0,005	0,036
-224,927	-200,000	-0,000	-0,062
-223,913	255,803	-0,179	-0,224
-222,898	14,547	0,081	-0,046
-221,884	-200,000	0,004	-0,020
-220,869	754,722	-0,018	-0,035
-219,855	-115,040	0,101	0,014
-218,840	409,499	0,046	0,071
-217,825	712,941	-0,013	0,025
-216,811	800,000	-0,016	0,041
-215,796	-125,354	-0,043	0,005
-214,782	59,119	-0,053	-0,038
-213,767	-200,000	0,010	-0,143
-212,752	-0,101	0,105	0,054
-211,738	-200,000	0,025	-0,108
-210,723	195,944	0,029	0,032
-209,709	163,360	0,064	-0,066
-208,694	270,058	0,019	-0,024
-207,679	800,000	0,044	0,117
-206,665	-73,600	-0,052	-0,014
-205,650	800,000	-0,056	0,174
-204,636	24,324	-0,153	-0,092
-203,621	-200,000	0,038	-0,169
-202,606	10,590	0,069	0,038
-201,592	716,098	-0,075	-0,146
-200,577	800,000	-0,032	0,068
-199,563	137,738	-0,027	-0,026
-198,548	-20,275	-0,075	0,034
-197,533	-200,000	0,020	0,084
-196,519	-5,765	-0,080	-0,040
-195,504	452,973	-0,070	-0,114
-194,490	-200,000	-0,017	-0,105
-193,475	-200,000	-0,009	-0,162
-192,460	800,000	0,047	-0,100
-191,446	85,491	-0,024	0,019
-190,431	800,000	-0,009	0,021
-189,417	-113,613	-0,197	-0,028
-188,402	800,000	-0,052	0,134
-187,387	389,473	-0,059	0,090
-186,373	800,000	-0,064	-0,146
-185,358	-200,000	0,025	0,101
-184,344	800,000	0,043	0,120
-183,329	-120,796	0,030	-0,004
-182,315	9,399	-0,058	-0,032
-181,300	513,333	0,058	-0,098
-180,285	-35,874	-0,094	0,037
-179,271	361,620	0,011	0,016
-178,256	800,000	-0,050	-0,122
-177,242	-71,398	-0,103	0,028
-176,227	401,510	0,048	0,073
-175,212	-106,491	-0,177	0,028
-174,198	-77,248	0,110	-0,028
-173,183	-17,905	-0,126	-0,057
-172,169	35,564	-0,064	-0,041
-171,154	101,485	-0,046	0,039
-170,139	-172,946	0,141	-0,003
-169,125	68,291	-0,048	-0,036
-168,110	-200,000	0,017	0,058
-167,096	-200,000	-0,016	0,078
-166,081	-200,000	-0,001	-0,069
-165,066	-200,000	-0,009	-0,032
-164,052	155,450	0,053	-0,053
-163,037	419,746	0,039	0,061
-162,023	52,321	0,105	0,073
-161,008	800,000	0,054	0,122
-159,993	16,676	-0,055	-0,031
-158,979	174,767	-0,029	0,031
-157,964	-97,150	-0,021	-0,004
-156,950	800,000	-0,035	-0,094
-155,935	-150,754	-0,125	-0,007
-154,920	56,927	-0,044	0,031
-153,906	206,601	0,054	-0,061
-152,891	-200,000	0,038	-0,128
-151,877	35,236	-0,082	0,052
-150,862	521,220	0,059	0,102
-149,847	-200,000	-0,010	-0,080
-148,833	33,949	0,049	-0,031
-147,818	185,979	-0,035	-0,038
-146,804	43,991	0,110	0,073
-145,789	346,924	0,010	0,014
-144,775	-30,113	-0,115	0,047
-143,760	800,000	-0,017	-0,053
-142,745	-118,964	-0,168	0,021
-141,731	-200,000	-0,011	-0,042
-140,716	-87,463	0,109	0,024
-139,702	-200,000	-0,001	-0,064
-138,687	-178,248	-0,014	-0,000
-137,672	-125,678	-0,065	0,007
-136,658	-200,000	-0,009	-0,109
-135,643	181,391	0,032	-0,035
-134,629	-82,792	-0,057	0,013
-133,614	-38,830	0,137	0,052
-132,599	-200,000	0,010	0,089
-131,585	800,000	0,013	-0,032
-130,570	142,122	-0,130	0,125
-129,556	356,919	-0,098	-0,142
-128,541	-200,000	-0,010	-0,072
-127,526	99,772	0,048	0,040
-126,512	-36,959	0,100	0,039
-125,497	274,449	0,049	0,063
-124,483	-200,000	-0,003	0,064
-123,468	-200,000	0,004	0,033
-122,453	-200,000	-0,019	0,096
-121,439	-116,644	-0,068	0,009
-120,424	4,214	-0,094	0,050
