DTS Sentinel unit serial number:	SN410029Multiplexer serial number:	ORYXHardware model number:	OX2-SRSoftware version number:	ORYX F/W v4,00 Oryx Data Collector v3.7.2.0data status	okinstallation	B6 Nyhavnadifferential loss correction	single-endedforward channel	channel 2reverse channel	N/Adate	2023/12/09time	17:35:08forward acquisition time	300,00reverse acquisition time	0,00gamma	499,1914k internal	0,3130k external	0,3130temperature offset calibration	1,0000default loss term (dB/km)	0,3820temperature slope calibration	1,0000multiplexer offset coefficient	1,0000multiplexer slope coefficient	1,0000fibre end	0,00T internal ref (°C)	21,00T ext. ref 1 (°C)	4,72T ext. ref 2 (°C)	4,74length (m)	temperature (°C)	Stokes	anti-Stokes-744,400	-156,795	0,030	0,001
-743,385	-33,382	-0,152	0,062
-742,371	-98,828	0,050	0,009
-741,356	-13,526	-0,126	0,061
-740,342	800,000	0,050	0,108
-739,327	214,757	-0,236	0,279
-738,312	93,297	0,004	-0,004
-737,298	-119,726	-0,303	0,038
-736,283	-76,334	0,145	-0,038
-735,269	-62,291	-0,143	0,044
-734,254	487,325	-0,055	-0,094
-733,239	-28,232	-0,524	-0,224
-732,225	-91,879	0,087	-0,018
-731,210	-181,701	0,128	0,002
-730,196	24,231	-0,039	0,024
-729,181	-2,813	-0,112	-0,058
-728,167	800,000	0,016	0,050
-727,152	34,118	0,059	-0,038
-726,137	-62,777	0,108	0,033
-725,123	-91,187	-0,126	0,027
-724,108	-57,124	-0,185	0,060
-723,094	78,861	-0,123	-0,098
-722,079	-115,018	0,085	-0,012
-721,064	48,684	0,096	0,067
-720,050	340,816	-0,031	-0,045
-719,035	-200,000	0,030	0,103
-718,021	-81,075	-0,031	-0,008
-717,006	800,000	-0,094	0,216
-715,991	-63,418	-0,045	-0,014
-714,977	800,000	0,042	0,094
-713,962	236,534	0,116	0,143
-712,948	92,668	-0,129	0,108
-711,933	-200,000	0,013	-0,046
-710,918	800,000	0,007	-0,016
-709,904	69,801	0,061	-0,047
-708,889	-10,215	-0,179	-0,088
-707,875	50,968	-0,074	-0,052
-706,860	678,915	-0,040	0,079
-705,845	-86,761	0,113	-0,026
-704,831	-135,636	0,148	-0,013
-703,816	81,536	0,138	0,111
-702,802	28,670	0,087	0,055
-701,787	-200,000	0,004	-0,183
-700,772	-200,000	0,005	-0,016
-699,758	800,000	0,018	-0,040
-698,743	442,137	0,019	-0,031
-697,729	-84,346	-0,114	0,027
-696,714	800,000	-0,016	-0,046
-695,699	-154,095	-0,073	0,004
-694,685	158,239	0,090	-0,092
-693,670	-40,420	-0,181	-0,069
-692,656	34,962	0,124	0,080
-691,641	-10,040	0,108	0,053
-690,627	188,656	-0,016	-0,018
-689,612	-120,550	-0,153	0,019
-688,597	-200,000	-0,011	0,157
-687,583	800,000	-0,035	0,090
-686,568	800,000	-0,023	-0,061
-685,554	404,904	-0,036	0,056
-684,539	-157,553	0,118	0,005
-683,524	290,571	-0,005	-0,007
-682,510	800,000	-0,034	0,103
-681,495	-191,508	-0,112	0,001
-680,481	-80,307	0,060	0,015
-679,466	-44,358	0,007	0,003
-678,451	-200,000	0,012	-0,042
-677,437	246,249	-0,078	-0,098
-676,422	-200,000	0,028	0,097
-675,408	167,156	-0,051	-0,054
-674,393	-200,000	0,004	-0,063
-673,378	113,103	-0,129	-0,116
-672,364	800,000	0,089	-0,195
-671,349	-200,000	-0,012	0,102
-670,335	39,132	0,064	-0,043
-669,320	-13,306	-0,116	0,056
-668,305	-200,000	0,014	0,151
-667,291	-68,442	0,078	-0,022
-666,276	-49,350	-0,045	-0,016
-665,262	155,140	-0,102	0,104
-664,247	-200,000	-0,016	-0,061
-663,232	-200,000	-0,011	-0,041
-662,218	-200,000	-0,003	-0,046
-661,203	-200,000	-0,022	0,089
-660,189	-38,933	-0,024	0,009
-659,174	-200,000	0,032	-0,119
-658,159	-152,471	-0,067	0,004
-657,145	-70,285	0,077	0,022
-656,130	-200,000	0,003	-0,020
-655,116	742,248	-0,101	-0,203
-654,101	54,377	0,043	-0,030
-653,086	346,574	0,044	-0,065
-652,072	-200,000	-0,007	-0,092
-651,057	-128,866	-0,065	0,007
-650,043	-153,367	-0,107	-0,005
-649,028	95,420	-0,094	0,079
-648,014	35,607	0,043	0,028
-646,999	-200,000	-0,025	-0,082
-645,984	-100,490	0,109	0,020
-644,970	-74,531	-0,105	-0,028
-643,955	115,889	-0,122	-0,111
-642,941	-200,000	-0,024	-0,088
-641,926	800,000	0,010	-0,030
-640,911	-200,000	-0,007	-0,023
-639,897	-200,000	-0,021	0,210
-638,882	137,046	0,040	-0,038
-637,868	165,993	-0,076	-0,079
-636,853	-13,285	-0,098	0,047
-635,838	-13,428	0,015	0,007
-634,824	-58,625	-0,151	-0,048
-633,809	-32,545	0,060	0,025
-632,795	-116,037	-0,044	-0,006
-631,780	-170,967	0,095	0,002
-630,765	-168,583	0,088	0,002
-629,751	-200,000	-0,008	-0,030
-628,736	93,389	-0,035	-0,029
-627,722	-200,000	-0,003	-0,020
-626,707	12,946	-0,156	0,089
-625,692	-63,670	-0,128	-0,039
-624,678	-200,000	0,014	0,052
-623,663	108,803	0,045	-0,040
-622,649	244,553	-0,084	-0,105
-621,634	-200,000	-0,004	-0,016
-620,619	-112,069	0,033	0,005
-619,605	81,905	-0,088	-0,071
-618,590	-200,000	0,003	-0,064
-617,576	800,000	-0,060	-0,124
-616,561	-200,000	0,052	-0,177
-615,546	-30,270	-0,068	-0,029
-614,532	23,805	0,071	0,043
-613,517	800,000	-0,016	0,048
-612,503	284,235	0,101	-0,135
-611,488	-200,000	0,003	0,054
-610,474	33,514	-0,094	0,060
-609,459	29,169	-0,056	0,035
-608,444	574,139	-0,019	-0,034
-607,430	-200,000	-0,033	0,130
-606,415	800,000	-0,047	-0,130
-605,401	-93,905	0,026	0,005
-604,386	-167,534	-0,189	0,005
-603,371	800,000	-0,045	-0,125
-602,357	800,000	-0,059	0,123
-601,342	-145,365	0,042	0,003
-600,328	800,000	-0,056	-0,134
-599,313	80,774	-0,045	-0,036
-598,298	10,453	-0,058	-0,032
-597,284	800,000	0,017	-0,042
-596,269	243,206	-0,019	-0,024
-595,255	-200,000	-0,041	0,279
-594,240	-10,926	-0,116	0,056
-593,225	450,911	0,087	-0,143
-592,211	-27,039	-0,180	-0,077
-591,196	-5,688	0,116	-0,058
-590,182	-200,000	0,001	0,031
-589,167	343,237	0,090	0,130
-588,152	36,589	0,070	-0,045
-587,138	360,242	-0,011	0,016
-586,123	234,522	-0,031	-0,037
-585,109	270,667	-0,075	-0,097
-584,094	196,339	-0,084	0,094
-583,079	465,049	0,055	0,091
-582,065	-105,494	-0,146	-0,024
-581,050	-63,653	-0,180	-0,054
-580,036	55,366	-0,069	0,049
-579,021	122,268	-0,122	-0,112
-578,006	454,295	-0,080	-0,132
-576,992	-62,146	0,087	-0,026
-575,977	-65,794	0,083	0,024
-574,963	35,615	0,016	-0,010
-573,948	61,648	0,064	-0,047
-572,934	-4,693	0,091	-0,046
-571,919	0,484	0,045	0,024
-570,904	428,578	-0,050	0,081
-569,890	-200,000	0,012	-0,069
-568,875	-25,625	-0,047	0,020
-567,861	575,330	-0,035	0,064
-566,846	-37,316	0,082	-0,032
-565,831	203,853	-0,005	0,006
-564,817	635,762	-0,052	0,097
-563,802	6,144	0,033	0,018
-562,788	-200,000	-0,002	-0,072
-561,773	55,119	0,149	-0,106
-560,758	77,348	0,083	0,065
-559,744	-200,000	0,007	0,123
-558,729	-200,000	0,018	0,108
-557,715	-62,837	-0,088	-0,027
-556,700	-200,000	-0,030	0,122
-555,685	-29,618	-0,144	0,060
-554,671	-8,298	-0,099	-0,049
-553,656	800,000	0,045	0,108
-552,642	159,692	0,118	-0,121
-551,627	800,000	0,053	0,145
-550,612	-63,863	0,038	-0,011
-549,598	-82,130	0,097	0,023
-548,583	-92,602	0,151	-0,031
-547,569	-200,000	-0,005	0,051
-546,554	248,160	-0,080	0,100
-545,539	93,354	0,081	0,068
-544,525	-63,058	0,085	0,026
-543,510	-200,000	0,002	0,011
-542,496	-200,000	-0,001	-0,138
-541,481	-122,865	-0,079	-0,009
-540,466	287,967	-0,034	-0,046
-539,452	149,754	0,079	0,079
-538,437	47,498	0,033	0,023
-537,423	309,404	-0,037	-0,051
-536,408	169,469	-0,083	0,087
-535,393	800,000	-0,012	-0,034
-534,379	124,602	-0,023	0,021
-533,364	589,871	0,017	-0,030
-532,350	800,000	0,037	-0,108
-531,335	389,028	0,032	0,048
-530,321	-80,074	0,116	0,028
-529,306	-200,000	-0,010	-0,144
-528,291	-20,697	-0,108	0,049
-527,277	-200,000	0,016	-0,083
-526,262	-86,064	0,062	-0,014
-525,248	-148,288	-0,093	0,006
-524,233	755,876	-0,023	0,046
-523,218	-132,111	0,045	0,004
-522,204	-200,000	0,000	-0,009
-521,189	-52,237	0,108	-0,037
-520,175	-161,962	-0,110	-0,004
-519,160	471,558	-0,035	-0,058
-518,145	-65,955	0,034	-0,010
-517,131	-200,000	0,018	0,195
-516,116	-200,000	-0,006	0,029
-515,102	-44,492	0,039	0,014
-514,087	-200,000	0,001	-0,079
-513,072	113,963	0,073	-0,066
-512,058	800,000	-0,047	-0,113
-511,043	18,472	0,062	-0,036
-510,029	-48,004	0,093	0,033
-509,014	-24,209	-0,016	0,007
-507,999	-200,000	-0,006	-0,069
-506,985	-14,487	-0,117	0,055
-505,970	792,289	-0,049	-0,101
-504,956	800,000	0,072	-0,150
-503,941	303,958	0,044	0,060
-502,926	-200,000	-0,004	0,033
-501,912	800,000	0,052	0,121
-500,897	800,000	-0,074	0,212
-499,883	781,510	0,067	0,136
-498,868	56,192	0,033	-0,023
-497,853	-109,346	-0,032	-0,005
-496,839	-200,000	-0,005	-0,030
-495,824	564,216	0,051	0,091
-494,810	800,000	0,025	0,057
-493,795	-134,727	0,084	0,007
-492,781	-200,000	-0,003	0,053
-491,766	30,501	-0,185	0,116
-490,751	7,539	-0,067	-0,037
-489,737	266,339	0,049	-0,063
-488,722	159,335	0,049	0,051
-487,708	384,525	-0,019	0,029
-486,693	-76,101	0,110	0,028
-485,678	16,841	-0,131	-0,076
-484,664	13,586	-0,026	0,015
-483,649	327,631	0,023	0,032
-482,635	-145,096	-0,022	0,001
-481,620	69,893	0,083	0,063
-480,605	-2,009	0,045	-0,023
-479,591	-30,860	0,022	-0,009
-478,576	186,664	-0,043	-0,047
-477,562	-151,258	0,041	0,002
-476,547	-200,000	-0,008	-0,065
-475,532	-200,000	0,004	-0,042
-474,518	255,573	-0,035	-0,044
-473,503	-200,000	0,027	0,172
-472,489	118,234	0,037	-0,033
-471,474	668,585	0,002	-0,005
-470,459	203,643	0,105	-0,120
-469,445	-200,000	-0,017	-0,069
-468,430	800,000	-0,014	0,032
-467,416	363,485	-0,054	-0,079
-466,401	-200,000	-0,012	0,091
-465,386	-2,998	-0,036	-0,018
-464,372	118,763	-0,042	0,038
-463,357	475,850	-0,047	0,078
-462,343	142,794	0,047	0,046
-461,328	-200,000	-0,004	0,047
-460,313	-50,154	-0,066	0,023
-459,299	62,640	-0,028	0,020
-458,284	125,582	-0,084	0,078
-457,270	152,933	0,090	-0,090
-456,255	800,000	0,047	-0,110
-455,241	493,766	-0,017	0,029
-454,226	-6,099	-0,135	-0,068
-453,211	-107,451	0,057	0,009
-452,197	131,501	-0,025	0,023
-451,182	-92,225	0,064	-0,013
-450,168	-200,000	-0,000	-0,048
-449,153	-19,623	0,105	-0,048
-448,138	-200,000	0,001	0,104
-447,124	-200,000	0,011	0,078
-446,109	800,000	0,050	-0,127
-445,095	-15,235	-0,026	-0,012
-444,080	-64,412	-0,014	-0,004
-443,065	-10,483	-0,075	0,036
-442,051	-200,000	-0,012	0,140
-441,036	150,687	-0,040	0,040
-440,022	-44,342	-0,135	-0,050
-439,007	800,000	-0,051	-0,107
-437,992	96,137	0,064	-0,054
-436,978	-200,000	-0,009	-0,051
-435,963	-200,000	0,014	-0,124
-434,949	29,268	-0,054	0,034
-433,934	800,000	-0,062	-0,174
-432,919	277,279	-0,054	-0,071
-431,905	-47,962	0,085	-0,030
-430,890	65,779	0,017	-0,013
-429,876	800,000	-0,037	-0,085
-428,861	-14,270	0,063	0,030
-427,846	800,000	0,026	-0,059
-426,832	-65,474	-0,124	-0,036
-425,817	342,395	-0,068	0,098
-424,803	-8,291	-0,109	-0,054
-423,788	800,000	-0,066	0,161
-422,773	32,980	0,058	0,037
-421,759	139,549	-0,045	-0,043
-420,744	-146,011	0,131	0,008
-419,730	120,054	-0,095	0,087
-418,715	153,009	0,054	0,054
-417,701	545,264	-0,028	0,049
-416,686	22,169	-0,095	-0,057
-415,671	26,605	0,006	0,004
-414,657	-99,346	-0,027	-0,005
-413,642	83,203	-0,025	-0,020
-412,628	-200,000	-0,006	-0,040
-411,613	800,000	0,039	-0,095
-410,598	396,411	0,001	0,002
-409,584	-27,982	0,092	-0,039
-408,569	-161,212	0,094	0,004
-407,555	243,560	-0,055	-0,068
-406,540	-76,067	-0,148	0,038
-405,525	-16,786	-0,057	0,027
-404,511	-34,602	0,019	0,008
-403,496	-24,033	0,021	0,009
-402,482	352,459	-0,030	-0,044
-401,467	-200,000	0,001	0,123
-400,452	290,699	0,106	0,142
-399,438	-200,000	0,029	-0,155
-398,423	-200,000	-0,003	0,119
-397,409	-200,000	0,020	0,103
-396,394	-200,000	-0,026	0,087
-395,379	50,773	0,072	0,050
-394,365	-200,000	-0,001	0,036
-393,350	523,341	0,025	0,044
-392,336	-163,341	0,033	0,001
-391,321	-115,439	0,119	0,016
-390,306	-90,033	0,042	-0,009
-389,292	697,504	-0,038	-0,074
-388,277	800,000	0,020	0,047
-387,263	-200,000	-0,007	0,040
-386,248	-51,682	-0,023	-0,008
-385,233	-200,000	0,017	0,090
-384,219	-66,631	0,087	0,025
-383,204	190,321	-0,131	-0,144
-382,190	-42,007	-0,087	-0,033
-381,175	-200,000	0,039	0,136
-380,160	-200,000	-0,015	0,093
-379,146	-156,003	0,169	0,008
-378,131	-153,717	0,067	0,003
-377,117	-200,000	-0,006	-0,061
-376,102	-76,026	0,109	-0,028
-375,088	247,541	0,024	-0,030
-374,073	219,537	-0,031	-0,036
-373,058	40,064	0,101	0,066
-372,044	-167,092	-0,157	0,005
-371,029	-140,716	0,105	-0,008
-370,015	267,448	-0,170	0,218
-369,000	692,298	-0,018	-0,034
-367,985	-32,354	-0,139	0,056
-366,971	-95,962	0,031	0,006
-365,956	-200,000	0,001	-0,044
-364,942	28,342	0,062	0,039
-363,927	118,831	0,036	-0,033
-362,912	-146,055	-0,159	0,010
-361,898	237,075	-0,119	0,144
-360,883	-3,867	0,151	-0,077
-359,869	332,074	-0,029	0,041
-358,854	-164,922	0,200	0,006
-357,839	800,000	0,027	-0,074
-356,825	800,000	-0,064	0,179
-355,810	-69,541	0,087	0,024
-354,796	-200,000	-0,013	0,059
-353,781	398,042	-0,020	0,031
-352,766	291,251	-0,044	0,059
-351,752	432,002	-0,041	-0,066
-350,737	-200,000	-0,001	0,078
-349,723	-200,000	0,023	0,106
-348,708	133,691	-0,055	0,052
-347,693	-200,000	-0,045	-0,166
-346,679	498,167	-0,106	-0,179
-345,664	513,522	-0,048	-0,082
-344,650	117,495	0,064	0,057
-343,635	169,495	0,075	0,079
-342,620	298,494	-0,103	0,139
-341,606	172,546	-0,049	0,052
-340,591	-31,678	-0,063	-0,026
-339,577	-57,562	-0,136	-0,043
-338,562	-65,397	0,031	0,009
-337,548	619,178	-0,041	-0,076
-336,533	60,849	-0,006	-0,005
-335,518	-200,000	-0,008	-0,084
-334,504	8,589	0,155	0,085
-333,489	64,366	0,061	-0,045
-332,475	183,495	-0,059	-0,064
-331,460	357,719	-0,068	-0,100
-330,445	-121,268	-0,083	0,010
-329,431	-26,768	0,072	-0,031
-328,416	-14,328	0,062	-0,029
-327,402	305,362	0,081	-0,111
-326,387	219,953	-0,045	0,053
-325,372	-200,000	-0,016	-0,145
-324,358	800,000	0,026	-0,076
-323,343	799,901	0,049	-0,100
-322,329	-30,449	0,094	0,039
-321,314	-200,000	0,005	0,134
-320,299	438,148	0,048	0,077
-319,285	403,823	-0,004	-0,006
-318,270	574,360	-0,058	-0,105
-317,256	154,207	0,056	-0,056
-316,241	451,258	-0,093	0,151
-315,226	722,556	0,029	0,056
-314,212	67,217	0,092	0,068
-313,197	-102,754	0,107	0,018
-312,183	-200,000	0,020	-0,099
-311,168	65,339	-0,029	-0,022
-310,153	343,538	0,021	0,030
-309,139	-43,314	0,170	0,063
-308,124	-200,000	-0,009	-0,049
-307,110	-89,895	0,166	-0,035
-306,095	-200,000	-0,015	-0,106
-305,080	-83,943	-0,127	0,029
-304,066	-192,831	-0,075	0,000
-303,051	-200,000	-0,096	0,000
-302,037	291,222	-0,025	0,033
-301,022	-39,024	-0,032	-0,012
-300,008	549,809	0,019	-0,034
-298,993	-200,000	-0,010	-0,075
-297,978	19,529	-0,010	0,006
-296,964	708,486	-0,030	-0,058
-295,949	642,166	-0,046	-0,086
-294,935	229,258	-0,078	-0,093
-293,920	800,000	0,043	-0,094
-292,905	-200,000	0,023	-0,145
-291,891	-174,033	0,095	0,002
-290,876	-200,000	0,000	0,090
-289,862	15,468	-0,117	0,067
-288,847	-165,709	-0,128	0,004
-287,832	800,000	0,042	-0,100
-286,818	-151,754	0,083	0,004
-285,803	-4,263	0,069	-0,035
-284,789	-200,000	-0,004	-0,033
-283,774	-200,000	-0,016	0,093
-282,759	96,034	-0,101	0,084
-281,745	800,000	0,033	-0,073
-280,730	-200,000	0,010	0,034
-279,716	-200,000	-0,010	-0,046
-278,701	-200,000	0,019	-0,166
-277,686	31,870	0,112	0,070
-276,672	11,613	-0,040	-0,022
-275,657	-200,000	0,012	-0,118
-274,643	800,000	-0,008	0,020
-273,628	-125,488	-0,064	-0,007
-272,613	-147,763	-0,188	0,011
-271,599	-122,950	-0,015	-0,002
-270,584	159,385	-0,031	0,032
-269,570	43,378	0,024	0,016
-268,555	74,531	-0,024	-0,018
-267,540	-132,835	-0,097	0,009
-266,526	-22,096	-0,004	-0,002
-265,511	319,922	0,080	-0,112
-264,497	-25,535	0,071	-0,031
-263,482	800,000	0,056	-0,126
-262,467	207,358	-0,080	-0,092
-261,453	800,000	-0,037	-0,092
-260,438	596,484	0,041	-0,074
-259,424	-200,000	-0,022	-0,108
-258,409	-19,543	-0,115	0,052
-257,395	108,619	0,069	0,060
-256,380	-151,162	0,215	-0,012
-255,365	746,406	-0,027	0,054
-254,351	103,819	-0,042	-0,036
-253,336	-200,000	-0,018	-0,091
-252,322	800,000	-0,026	0,074
-251,307	-200,000	0,024	0,125
-250,292	-76,863	0,061	0,016
-249,278	-98,968	0,105	0,019
-248,263	523,611	-0,064	0,109
-247,249	-127,979	-0,121	0,012
-246,234	-35,495	0,132	-0,052
-245,219	-200,000	0,002	-0,032
-244,205	26,079	0,105	-0,064
-243,190	-78,974	0,137	0,034
-242,176	-73,582	0,078	0,021
-241,161	800,000	-0,011	0,024
-240,146	-76,918	0,122	0,031
-239,132	-1,030	0,076	-0,039
-238,117	-111,734	-0,079	-0,012
-237,103	702,949	0,041	0,080
-236,088	6,134	0,075	0,040
-235,073	800,000	0,016	0,047
-234,059	138,777	-0,060	0,057
-233,044	-145,377	-0,086	0,006
-232,030	-22,049	0,092	-0,040
-231,015	195,854	0,041	-0,045
-230,000	7,385	-0,136	-0,074
-228,986	-29,527	0,125	0,052
-227,971	-28,819	-0,127	-0,053
-226,957	-97,897	-0,020	-0,004
-225,942	254,654	0,042	-0,053
-224,927	800,000	-0,045	-0,137
-223,913	-78,943	0,061	-0,015
-222,898	66,896	-0,189	-0,140
-221,884	162,356	0,050	0,051
-220,869	-186,987	0,204	0,002
-219,855	309,869	-0,068	-0,093
-218,840	759,576	-0,044	0,087
-217,825	-65,648	0,125	0,036
-216,811	800,000	-0,028	-0,073
-215,796	52,605	-0,115	0,080
-214,782	725,278	0,043	0,084
-213,767	97,830	0,133	0,111
-212,752	800,000	0,034	0,102
-211,738	800,000	-0,013	-0,036
-210,723	800,000	0,014	0,041
-209,709	-80,321	0,041	0,010
-208,694	135,980	0,067	-0,064
-207,679	14,503	0,025	-0,014
-206,665	-200,000	-0,008	0,146
-205,650	442,440	-0,048	0,077
-204,636	-200,000	-0,003	0,050
-203,621	-200,000	-0,018	0,071
-202,606	54,409	0,053	0,037
-201,592	-200,000	0,006	-0,109
-200,577	-200,000	-0,004	-0,059
-199,563	800,000	0,054	0,143
-198,548	-98,840	0,122	0,022
-197,533	-22,733	0,134	0,059
-196,519	216,880	0,080	0,093
-195,504	96,682	-0,086	0,071
-194,490	-200,000	-0,011	0,067
-193,475	-200,000	-0,025	-0,086
-192,460	-200,000	0,012	0,069
-191,446	800,000	-0,035	0,100
-190,431	-48,069	-0,017	0,006
-189,417	1,983	0,125	-0,065
-188,402	-200,000	0,013	0,131
-187,387	-139,943	-0,027	0,002
-186,373	-200,000	-0,020	0,078
-185,358	800,000	0,016	0,047
-184,344	48,451	0,035	0,024
-183,329	-98,815	0,042	0,008
-182,315	800,000	0,040	0,089
-181,300	113,317	-0,052	-0,046
-180,285	-49,203	0,060	0,021
-179,271	800,000	0,022	0,055
-178,256	-113,040	0,100	-0,014
-177,242	191,711	-0,009	0,009
-176,227	-200,000	0,002	0,063
-175,212	800,000	-0,032	-0,066
-174,198	-126,280	-0,105	0,011
-173,183	-200,000	-0,005	0,026
-172,169	449,633	-0,022	0,035
-171,154	133,741	0,094	-0,088
-170,139	98,501	0,112	-0,094
-169,125	153,604	0,086	0,086
-168,110	-200,000	-0,021	-0,068
-167,096	238,435	-0,030	-0,036
-166,081	-200,000	-0,002	0,135
-165,066	-99,345	-0,098	0,018
-164,052	63,746	-0,072	-0,053
-163,037	242,828	0,034	-0,042
-162,023	-52,812	-0,071	0,024
-161,008	47,094	-0,042	0,029
-159,993	-82,622	0,076	0,018
-158,979	800,000	0,025	-0,069
-157,964	120,650	-0,121	-0,110
-156,950	-200,000	0,006	0,092
-155,935	800,000	0,067	-0,151
-154,920	275,932	0,041	-0,053
-153,906	107,324	0,145	0,125
-152,891	370,252	0,035	-0,051
-151,877	-200,000	0,011	0,067
-150,862	76,690	0,077	-0,060
-149,847	800,000	-0,013	0,033
-148,833	-51,614	0,104	0,035
-147,818	-18,913	0,107	-0,048
-146,804	-200,000	0,003	-0,053
-145,789	194,333	-0,025	0,027
-144,775	800,000	-0,043	-0,104
-143,760	237,424	0,047	0,056
-142,745	780,499	-0,051	-0,101
-141,731	138,455	-0,088	0,084
-140,716	800,000	0,048	-0,119
-139,702	566,007	0,050	-0,089
-138,687	-200,000	-0,029	-0,136
-137,672	192,283	0,098	0,108
-136,658	-117,028	-0,107	-0,014
-135,643	1,433	0,010	0,005
-134,629	113,060	0,079	0,070
-133,614	-200,000	0,023	0,104
-132,599	221,830	0,094	-0,110
-131,585	-162,188	-0,020	-0,001
-130,570	-34,410	0,052	0,021
-129,556	-140,944	-0,045	-0,003
-128,541	-200,000	0,002	0,069
-127,526	5,276	-0,039	0,021
-126,512	-200,000	0,013	-0,086
-125,497	342,430	0,105	0,149
-124,483	-200,000	0,017	-0,061
-123,468	163,434	-0,093	-0,095
-122,453	-158,293	-0,089	-0,004
-121,439	517,181	-0,051	0,086
-120,424	-200,000	-0,033	-0,139
-119,410	-122,443	-0,012	-0,001
