DTS Sentinel unit serial number:	SN410029Multiplexer serial number:	ORYXHardware model number:	OX2-SRSoftware version number:	ORYX F/W v4,00 Oryx Data Collector v3.7.2.0data status	okinstallation	B6 Nyhavnadifferential loss correction	single-endedforward channel	channel 2reverse channel	N/Adate	2023/12/07time	10:20:08forward acquisition time	300,00reverse acquisition time	0,00gamma	499,1914k internal	0,3199k external	0,3199temperature offset calibration	1,0000default loss term (dB/km)	0,3820temperature slope calibration	1,0000multiplexer offset coefficient	1,0000multiplexer slope coefficient	1,0000fibre end	0,00T internal ref (°C)	7,02T ext. ref 1 (°C)	-7,15T ext. ref 2 (°C)	-7,19length (m)	temperature (°C)	Stokes	anti-Stokes-744,400	12,869	0,214	0,120
-743,385	-51,749	-0,366	-0,123
-742,371	-32,812	0,213	0,086
-741,356	-5,211	-0,455	-0,227
-740,342	-64,896	0,335	0,098
-739,327	-27,299	-0,532	-0,224
-738,312	679,972	0,035	-0,066
-737,298	-16,027	-0,408	-0,188
-736,283	223,891	0,171	0,201
-735,269	-66,154	-0,561	-0,162
-734,254	142,864	0,213	0,206
-733,239	-34,799	-0,716	-0,283
-732,225	-72,491	0,260	0,069
-731,210	-200,000	0,014	0,155
-730,196	99,172	-0,044	-0,037
-729,181	-153,193	-0,194	-0,010
-728,167	800,000	0,029	0,080
-727,152	0,734	-0,077	-0,040
-726,137	412,215	-0,036	-0,055
-725,123	-200,000	-0,015	-0,094
-724,108	182,392	0,071	-0,076
-723,094	-96,680	-0,225	-0,043
-722,079	-88,651	-0,206	0,044
-721,064	-147,208	0,023	0,001
-720,050	217,831	-0,143	0,166
-719,035	-200,000	-0,014	0,063
-718,021	733,981	-0,047	-0,092
-717,006	356,053	-0,045	-0,066
-715,991	277,853	-0,074	-0,096
-714,977	-4,213	0,050	-0,025
-713,962	-109,717	-0,085	0,013
-712,948	135,247	0,051	0,048
-711,933	-200,000	0,002	-0,034
-710,918	428,073	0,058	0,091
-709,904	158,085	-0,122	-0,123
-708,889	-108,343	-0,100	-0,016
-707,875	-78,153	-0,180	0,045
-706,860	800,000	0,030	-0,070
-705,845	-138,034	-0,069	-0,006
-704,831	800,000	0,010	0,032
-703,816	800,000	0,036	0,082
-702,802	-200,000	0,030	-0,135
-701,787	-7,647	-0,140	-0,068
-700,772	-94,312	-0,158	0,031
-699,758	-200,000	-0,037	-0,191
-698,743	264,555	0,053	-0,067
-697,729	135,414	0,044	0,041
-696,714	-123,504	-0,012	0,001
-695,699	579,083	0,038	-0,068
-694,685	288,034	0,019	-0,025
-693,670	174,151	0,077	-0,081
-692,656	242,772	-0,127	-0,155
-691,641	393,960	0,029	0,044
-690,627	-34,913	-0,138	0,055
-689,612	12,054	0,145	-0,081
-688,597	498,316	-0,087	-0,146
-687,583	800,000	-0,050	-0,111
-686,568	578,192	-0,053	-0,095
-685,554	-200,000	0,001	-0,056
-684,539	800,000	0,022	-0,049
-683,524	800,000	0,041	0,128
-682,510	-111,448	-0,036	-0,005
-681,495	-61,150	-0,196	0,059
-680,481	-200,000	0,019	-0,151
-679,466	800,000	-0,082	-0,245
-678,451	226,360	-0,081	0,096
-677,437	-200,000	0,002	-0,058
-676,422	-49,195	0,181	0,063
-675,408	800,000	-0,045	0,102
-674,393	21,873	-0,038	0,022
-673,378	-200,000	0,007	-0,062
-672,364	-200,000	0,022	-0,162
-671,349	-200,000	0,005	0,018
-670,335	-78,469	-0,104	0,026
-669,320	-153,450	0,065	0,003
-668,305	-200,000	0,019	-0,081
-667,291	80,399	-0,028	0,022
-666,276	-200,000	-0,011	-0,236
-665,262	17,818	-0,060	0,035
-664,247	204,504	-0,100	-0,113
-663,232	37,624	0,140	-0,090
-662,218	533,234	0,068	0,116
-661,203	-200,000	-0,006	0,131
-660,189	-200,000	-0,011	0,099
-659,174	800,000	0,058	-0,126
-658,159	110,879	-0,072	0,063
-657,145	-200,000	-0,019	-0,207
-656,130	557,409	-0,027	0,048
-655,116	-37,608	0,053	0,020
-654,101	-200,000	0,025	-0,208
-653,086	800,000	-0,052	-0,150
-652,072	-200,000	0,002	0,059
-651,057	-200,000	0,016	-0,073
-650,043	-59,732	0,293	-0,090
-649,028	800,000	-0,050	-0,107
-648,014	506,128	0,069	0,116
-646,999	-200,000	-0,044	-0,161
-645,984	262,171	-0,056	0,070
-644,970	-30,693	-0,046	-0,019
-643,955	-200,000	0,004	-0,164
-642,941	-101,836	-0,063	0,011
-641,926	238,156	0,058	-0,070
-640,911	447,811	-0,059	-0,095
-639,897	-200,000	-0,024	0,155
-638,882	195,640	0,074	-0,082
-637,868	483,767	-0,013	0,021
-636,853	-200,000	-0,011	0,104
-635,838	-106,782	0,077	0,012
-634,824	315,040	-0,050	0,068
-633,809	-200,000	0,006	-0,034
-632,795	-48,664	0,062	-0,021
-631,780	800,000	0,047	0,136
-630,765	-42,901	0,079	-0,029
-629,751	-76,693	-0,087	-0,022
-628,736	198,571	-0,080	-0,089
-627,722	-34,170	0,062	-0,025
-626,707	447,231	0,073	0,117
-625,692	-134,374	0,037	-0,003
-624,678	-59,030	-0,120	0,037
-623,663	-91,960	0,100	0,020
-622,649	-143,129	-0,265	-0,018
-621,634	-200,000	-0,013	-0,114
-620,619	108,228	-0,062	-0,053
-619,605	41,410	0,125	-0,082
-618,590	-152,800	0,231	-0,012
-617,576	146,486	-0,046	0,045
-616,561	800,000	0,024	0,049
-615,546	-200,000	-0,005	-0,030
-614,532	-200,000	0,010	-0,139
-613,517	-17,353	-0,189	0,086
-612,503	6,759	0,099	-0,053
-611,488	107,142	0,093	0,080
-610,474	800,000	0,024	0,058
-609,459	591,767	-0,050	-0,090
-608,444	81,073	0,105	0,082
-607,430	32,882	0,044	0,027
-606,415	-88,448	0,089	-0,019
-605,401	-124,871	-0,073	0,008
-604,386	193,935	0,034	-0,038
-603,371	203,375	0,015	0,017
-602,357	-70,975	-0,050	-0,013
-601,342	-94,603	0,036	-0,007
-600,328	800,000	0,046	0,100
-599,313	800,000	-0,067	0,147
-598,298	388,253	-0,012	0,018
-597,284	-4,478	0,059	0,029
-596,269	662,347	0,041	0,078
-595,255	5,190	-0,128	0,068
-594,240	86,823	-0,032	0,025
-593,225	531,962	0,074	0,128
-592,211	71,605	-0,039	-0,029
-591,196	64,575	0,010	0,007
-590,182	-200,000	0,038	0,129
-589,167	-34,139	-0,026	-0,010
-588,152	800,000	0,013	0,034
-587,138	800,000	0,030	-0,095
-586,123	637,565	0,038	0,070
-585,109	47,133	-0,110	0,074
-584,094	-11,573	-0,052	-0,025
-583,079	-200,000	0,026	0,102
-582,065	150,152	0,024	-0,024
-581,050	-28,144	0,113	-0,047
-580,036	-200,000	-0,000	0,060
-579,021	124,680	-0,136	-0,124
-578,006	-200,000	0,026	-0,103
-576,992	-200,000	-0,002	-0,147
-575,977	112,563	-0,061	0,054
-574,963	-163,543	0,136	0,005
-573,948	150,956	-0,057	-0,056
-572,934	214,195	-0,094	0,107
-571,919	-200,000	-0,003	0,038
-570,904	-87,457	0,076	-0,016
-569,890	-87,500	0,081	0,018
-568,875	21,073	-0,162	0,095
-567,861	-94,946	0,086	-0,017
-566,846	246,010	0,128	0,156
-565,831	-136,197	0,022	-0,002
-564,817	800,000	0,019	0,039
-563,802	409,269	-0,090	-0,139
-562,788	800,000	0,051	-0,104
-561,773	22,314	0,088	0,052
-560,758	215,394	-0,036	-0,042
-559,744	357,380	0,039	0,057
-558,729	88,667	-0,032	-0,026
-557,715	800,000	-0,089	-0,196
-556,700	800,000	-0,044	-0,097
-555,685	202,706	0,108	-0,120
-554,671	414,097	-0,036	-0,056
-553,656	-200,000	0,002	0,169
-552,642	-200,000	-0,017	0,103
-551,627	-200,000	0,012	0,044
-550,612	800,000	0,052	0,121
-549,598	-144,873	-0,179	-0,012
-548,583	-163,925	0,088	-0,003
-547,569	-200,000	-0,008	0,159
-546,554	289,313	-0,023	0,031
-545,539	57,234	-0,031	0,022
-544,525	266,610	0,045	0,056
-543,510	24,330	-0,050	-0,029
-542,496	-173,756	-0,045	-0,001
-541,481	582,812	-0,073	-0,129
-540,466	325,302	-0,070	0,097
-539,452	-62,788	-0,093	-0,028
-538,437	-200,000	0,001	-0,029
-537,423	212,340	-0,026	0,029
-536,408	27,358	-0,065	-0,039
-535,393	-200,000	-0,001	0,159
-534,379	-200,000	-0,019	0,071
-533,364	800,000	0,052	0,146
-532,350	-59,529	0,017	0,005
-531,335	-200,000	-0,018	0,101
-530,321	-66,044	-0,077	0,022
-529,306	-0,818	-0,065	-0,033
-528,291	106,089	-0,125	-0,107
-527,277	-63,752	-0,054	0,016
-526,262	104,438	0,089	-0,076
-525,248	800,000	0,027	-0,085
-524,233	-43,016	0,029	0,010
-523,218	103,903	0,018	-0,016
-522,204	-200,000	0,035	-0,192
-521,189	-108,679	-0,069	-0,011
-520,175	247,587	0,090	-0,109
-519,160	249,895	0,032	0,040
-518,145	-200,000	0,033	0,161
-517,131	-7,198	0,030	-0,015
-516,116	46,836	-0,045	0,030
-515,102	73,448	0,134	0,101
-514,087	-116,390	0,032	0,004
-513,072	188,998	-0,096	-0,104
-512,058	800,000	0,043	-0,125
-511,043	279,779	-0,035	-0,046
-510,029	51,846	0,091	0,063
-509,014	719,637	-0,024	0,047
-507,999	4,236	-0,138	0,073
-506,985	800,000	0,028	0,073
-505,970	381,993	-0,014	-0,020
-504,956	72,268	-0,025	0,018
-503,941	-200,000	-0,002	-0,023
-502,926	259,681	0,061	0,076
-501,912	-200,000	-0,051	0,165
-500,897	-59,066	-0,078	-0,024
-499,883	59,573	0,047	-0,033
-498,868	-150,231	-0,238	-0,013
-497,853	-199,273	0,082	-0,000
-496,839	800,000	-0,018	-0,041
-495,824	-72,330	-0,154	0,041
-494,810	-200,000	0,048	0,219
-493,795	-200,000	-0,002	-0,057
-492,781	-58,286	-0,172	-0,053
-491,766	-144,350	-0,136	0,009
-490,751	-111,572	0,122	-0,018
-489,737	31,194	0,123	-0,076
-488,722	-200,000	-0,009	0,108
-487,708	-68,285	-0,039	0,011
-486,693	171,547	0,027	-0,028
-485,678	631,455	0,029	-0,052
-484,664	141,266	-0,032	-0,030
-483,649	-1,950	-0,078	-0,039
-482,635	54,889	-0,054	-0,038
-481,620	-128,038	-0,022	0,002
-480,605	-106,461	-0,079	-0,013
-479,591	42,483	-0,039	0,026
-478,576	-200,000	-0,004	0,019
-477,562	116,541	0,043	-0,038
-476,547	800,000	0,025	0,058
-475,532	135,298	-0,083	-0,078
-474,518	798,406	-0,016	0,031
-473,503	-200,000	-0,013	0,046
-472,489	249,526	-0,104	0,127
-471,474	-200,000	0,011	-0,185
-470,459	647,086	-0,018	0,034
-469,445	484,603	-0,066	-0,109
-468,430	-26,398	0,062	-0,026
-467,416	-3,354	-0,018	-0,009
-466,401	-151,527	0,066	-0,003
-465,386	209,886	-0,071	0,080
-464,372	518,071	0,026	-0,043
-463,357	-200,000	-0,011	-0,042
-462,343	12,436	0,027	-0,015
-461,328	-121,548	-0,117	-0,014
-460,313	-89,167	-0,054	0,011
-459,299	8,467	0,056	-0,030
-458,284	102,393	0,016	-0,013
-457,270	-200,000	0,017	0,066
-456,255	728,350	-0,036	0,070
-455,241	800,000	0,063	-0,171
-454,226	128,625	-0,096	-0,088
-453,211	-93,418	0,065	0,013
-452,197	-200,000	0,019	0,117
-451,182	-200,000	0,032	-0,112
-450,168	800,000	-0,039	-0,109
-449,153	-83,871	0,040	-0,009
-448,138	-170,691	0,147	-0,004
-447,124	800,000	0,035	-0,080
-446,109	-186,487	-0,087	-0,001
-445,095	800,000	0,011	0,035
-444,080	-200,000	0,031	0,119
-443,065	722,668	-0,062	0,120
-442,051	-200,000	0,017	-0,073
-441,036	269,435	-0,090	0,114
-440,022	6,854	0,100	0,053
-439,007	800,000	-0,038	0,083
-437,992	-73,691	0,168	0,044
-436,978	800,000	-0,017	0,046
-435,963	550,366	-0,052	-0,091
-434,949	-200,000	0,037	0,125
-433,934	-200,000	-0,005	0,052
-432,919	800,000	0,036	0,079
-431,905	65,104	0,144	-0,104
-430,890	357,051	0,019	0,028
-429,876	-81,545	0,123	-0,029
-428,861	13,938	-0,054	-0,030
-427,846	-136,901	0,167	-0,014
-426,832	88,101	0,040	-0,032
-425,817	-200,000	-0,002	0,018
-424,803	-106,464	0,163	0,026
-423,788	-200,000	-0,011	-0,121
-422,773	0,298	0,007	-0,003
-421,759	308,753	0,013	-0,018
-420,744	-89,665	-0,032	-0,007
-419,730	221,483	-0,038	-0,044
-418,715	-132,742	-0,028	-0,003
-417,701	13,479	-0,073	-0,041
-416,686	800,000	-0,051	0,103
-415,671	-200,000	0,026	0,131
-414,657	273,090	0,044	-0,055
-413,642	-180,733	0,060	0,001
-412,628	-24,762	-0,138	-0,059
-411,613	65,032	0,049	0,036
-410,598	18,040	0,120	0,069
-409,584	16,389	0,064	0,036
-408,569	800,000	0,028	-0,073
-407,555	145,355	-0,153	0,147
-406,540	-20,041	0,079	-0,035
-405,525	-113,018	-0,078	0,011
-404,511	102,645	-0,094	-0,079
-403,496	-87,179	-0,036	0,008
-402,482	333,814	0,020	0,028
-401,467	-54,510	0,202	-0,065
-400,452	-200,000	0,015	-0,138
-399,438	-200,000	-0,003	0,122
-398,423	162,894	-0,054	0,054
-397,409	183,709	0,087	-0,093
-396,394	800,000	-0,019	-0,047
-395,379	-200,000	0,026	-0,096
-394,365	90,850	-0,078	-0,062
-393,350	-45,169	0,107	-0,038
-392,336	304,309	0,035	0,046
-391,321	479,237	0,017	-0,028
-390,306	-96,779	-0,122	0,023
-389,292	-200,000	-0,023	-0,115
-388,277	-69,109	0,098	-0,027
-387,263	-200,000	-0,005	0,055
-386,248	800,000	-0,010	-0,030
-385,233	-26,638	-0,044	-0,018
-384,219	434,681	0,050	0,079
-383,204	-104,814	-0,138	-0,023
-382,190	800,000	-0,058	-0,161
-381,175	122,054	-0,093	-0,083
-380,160	-200,000	0,009	-0,083
-379,146	800,000	0,075	0,159
-378,131	163,002	-0,091	-0,092
-377,117	129,149	-0,052	-0,048
-376,102	285,516	0,105	-0,136
-375,088	757,978	-0,055	-0,106
-374,073	-66,130	0,025	-0,007
-373,058	-74,452	0,033	-0,008
-372,044	-200,000	-0,005	0,130
-371,029	-115,919	-0,023	0,003
-370,015	-55,543	0,069	-0,022
-369,000	-58,749	0,104	0,032
-367,985	40,442	0,047	0,030
-366,971	-200,000	-0,002	-0,083
-365,956	-45,573	-0,018	-0,006
-364,942	272,150	0,054	0,068
-363,927	76,155	-0,053	-0,040
-362,912	379,682	-0,026	0,038
-361,898	800,000	-0,089	-0,250
-360,883	-20,414	0,062	0,027
-359,869	8,344	-0,033	-0,018
-358,854	-17,394	-0,041	0,018
-357,839	-163,232	0,221	0,007
-356,825	263,283	-0,020	-0,025
-355,810	-200,000	0,001	-0,015
-354,796	-150,204	-0,109	-0,006
-353,781	-39,769	-0,039	-0,015
-352,766	-101,485	0,073	-0,013
-351,752	302,155	-0,034	0,045
-350,737	424,378	0,022	-0,033
-349,723	-175,848	0,059	0,001
-348,708	120,650	0,068	-0,061
-347,693	361,980	0,058	0,084
-346,679	61,770	-0,074	-0,053
-345,664	390,674	-0,055	0,081
-344,650	243,715	0,049	-0,059
-343,635	-131,313	-0,090	-0,008
-342,620	-200,000	0,003	0,072
-341,606	631,308	0,073	0,133
-340,591	668,330	-0,084	-0,157
-339,577	-200,000	0,024	-0,119
-338,562	-200,000	-0,039	0,136
-337,548	-60,387	0,084	0,026
-336,533	-110,172	-0,085	0,013
-335,518	-200,000	0,036	0,120
-334,504	800,000	0,044	-0,113
-333,489	-72,225	0,071	0,019
-332,475	-48,296	0,013	0,004
-331,460	77,443	-0,075	-0,057
-330,445	319,235	-0,042	-0,057
-329,431	800,000	0,011	0,025
-328,416	-200,000	-0,001	0,165
-327,402	113,792	0,095	-0,083
-326,387	-200,000	0,032	-0,120
-325,372	-159,010	-0,094	-0,004
-324,358	238,765	0,109	-0,130
-323,343	428,533	-0,072	0,112
-322,329	130,652	0,007	-0,006
-321,314	14,162	0,125	0,070
-320,299	-85,162	-0,112	-0,025
-319,285	110,441	-0,145	0,124
-318,270	259,268	0,050	-0,062
-317,256	-118,142	-0,087	0,011
-316,241	-13,928	0,055	0,025
-315,226	-67,139	-0,096	0,027
-314,212	87,888	0,113	0,090
-313,197	-200,000	-0,003	-0,030
-312,183	-200,000	-0,020	0,144
-311,168	-36,386	-0,066	-0,025
-310,153	341,886	-0,075	-0,105
-309,139	800,000	0,041	0,111
-308,124	-144,517	0,018	0,001
-307,110	-12,573	0,131	0,061
-306,095	649,524	-0,037	0,067
-305,080	800,000	0,023	0,056
-304,066	367,589	-0,057	-0,083
-303,051	-200,000	0,005	0,045
-302,037	-55,341	0,111	0,035
-301,022	648,466	-0,057	0,104
-300,008	-200,000	0,029	0,116
-298,993	89,838	0,104	0,083
-297,978	-1,622	0,186	0,094
-296,964	-200,000	-0,034	0,129
-295,949	800,000	-0,033	-0,070
-294,935	65,657	0,068	0,049
-293,920	800,000	-0,018	0,040
-292,905	-166,990	0,091	0,003
-291,891	65,757	-0,034	0,024
-290,876	-146,316	0,064	-0,004
-289,862	-115,411	-0,148	-0,020
-288,847	-200,000	0,011	0,050
-287,832	-116,768	-0,059	0,008
-286,818	112,625	-0,059	-0,051
-285,803	561,035	-0,026	0,046
-284,789	-109,609	0,056	-0,008
-283,774	-20,410	-0,067	-0,029
-282,759	800,000	0,084	-0,223
-281,745	-148,406	-0,090	-0,005
-280,730	-67,165	0,043	0,012
-279,716	385,907	0,036	0,053
-278,701	-147,057	0,053	-0,003
-277,686	119,583	-0,066	0,058
-276,672	-200,000	0,005	0,136
-275,657	-200,000	-0,004	0,016
-274,643	800,000	-0,014	-0,031
-273,628	-128,329	-0,104	-0,010
-272,613	11,601	0,068	0,037
-271,599	103,052	0,072	-0,060
-270,584	-200,000	-0,008	-0,126
-269,570	461,855	0,095	0,152
-268,555	-113,175	-0,055	-0,008
-267,540	-200,000	-0,042	-0,154
-266,526	800,000	-0,055	-0,111
-265,511	41,997	0,097	-0,063
-264,497	163,130	-0,037	0,037
-263,482	253,164	0,089	0,108
-262,467	800,000	-0,047	0,097
-261,453	-87,400	0,112	0,024
-260,438	288,095	-0,067	-0,087
-259,424	-66,985	-0,096	-0,027
-258,409	-200,000	0,018	-0,120
-257,395	-80,545	0,104	0,024
-256,380	800,000	0,024	0,050
-255,365	-200,000	-0,012	0,121
-254,351	53,300	0,072	-0,049
-253,336	-57,578	-0,111	-0,034
-252,322	267,488	-0,067	-0,084
-251,307	46,619	-0,142	-0,094
-250,292	72,672	0,045	0,034
-249,278	1,846	0,137	-0,070
-248,263	101,551	-0,039	-0,032
-247,249	414,054	-0,027	-0,041
-246,234	800,000	-0,008	-0,023
-245,219	-200,000	-0,002	-0,115
-244,205	-12,848	-0,123	0,057
-243,190	674,247	-0,051	0,096
-242,176	366,535	0,067	-0,097
-241,161	800,000	-0,031	-0,070
-240,146	152,350	-0,015	0,015
-239,132	-200,000	-0,012	-0,119
-238,117	800,000	-0,044	-0,090
-237,103	215,332	0,086	-0,098
-236,088	-36,085	-0,120	-0,046
-235,073	5,978	0,173	0,091
-234,059	27,940	0,107	0,064
-233,044	800,000	0,064	0,186
-232,030	-200,000	-0,000	-0,021
-231,015	-200,000	-0,026	0,090
-230,000	-200,000	-0,001	-0,093
-228,986	-67,604	-0,120	0,033
-227,971	17,078	0,041	-0,023
-226,957	488,481	-0,026	-0,042
-225,942	-158,514	0,069	-0,003
-224,927	7,532	-0,186	0,099
-223,913	-200,000	-0,026	-0,133
-222,898	70,366	-0,060	0,044
-221,884	800,000	-0,051	-0,134
-220,869	-77,381	0,121	-0,030
-219,855	-23,543	0,117	0,050
-218,840	-74,333	-0,023	0,006
-217,825	-157,064	0,066	0,003
-216,811	142,573	0,023	-0,021
-215,796	-200,000	0,016	-0,075
-214,782	-200,000	0,059	-0,224
-213,767	-129,322	-0,013	-0,001
-212,752	313,113	0,142	0,190
-211,738	-200,000	0,009	0,046
-210,723	168,888	0,100	-0,102
-209,709	800,000	-0,025	-0,061
-208,694	37,388	-0,160	-0,101
-207,679	800,000	0,015	-0,045
-206,665	81,494	-0,021	0,016
-205,650	-29,799	-0,051	0,020
-204,636	-200,000	0,018	-0,070
-203,621	-155,322	-0,067	0,003
-202,606	204,971	-0,038	-0,042
-201,592	-71,275	-0,033	0,009
-200,577	-200,000	-0,001	0,011
-199,563	782,590	0,029	-0,057
-198,548	268,919	-0,042	-0,053
-197,533	-150,418	0,081	0,004
-196,519	800,000	-0,048	0,112
-195,504	389,432	-0,066	0,097
-194,490	116,396	-0,016	0,014
-193,475	-106,457	0,047	0,007
-192,460	-12,030	0,088	0,041
-191,446	-200,000	-0,004	0,118
-190,431	-144,561	0,060	-0,004
-189,417	549,135	-0,049	-0,084
-188,402	219,579	-0,007	-0,008
-187,387	-6,711	0,080	-0,039
-186,373	-200,000	-0,012	-0,045
-185,358	306,980	0,052	-0,069
-184,344	-200,000	-0,006	0,120
-183,329	-200,000	0,022	0,178
-182,315	-200,000	0,027	0,092
-181,300	-164,450	-0,140	0,004
-180,285	-200,000	-0,026	-0,150
-179,271	-185,092	-0,201	0,002
-178,256	117,416	0,028	0,024
-177,242	162,789	0,046	0,046
-176,227	-91,652	0,035	0,007
-175,212	103,217	0,043	-0,036
-174,198	-41,508	0,099	-0,036
-173,183	800,000	-0,051	-0,113
-172,169	-126,394	0,043	0,005
-171,154	-200,000	0,019	-0,098
-170,139	-117,946	-0,074	0,009
-169,125	800,000	0,019	0,039
-168,110	-200,000	0,004	0,086
-167,096	514,454	-0,089	0,148
-166,081	-200,000	-0,001	-0,060
-165,066	103,930	-0,037	-0,031
-164,052	-200,000	-0,029	-0,145
-163,037	-200,000	-0,008	-0,026
-162,023	-27,143	0,125	-0,052
-161,008	80,159	0,134	0,103
-159,993	-200,000	0,016	0,079
-158,979	43,536	-0,074	0,048
-157,964	800,000	-0,022	0,065
-156,950	63,830	0,027	0,019
-155,935	292,908	-0,106	-0,138
-154,920	20,737	-0,022	0,013
-153,906	-96,135	-0,049	-0,009
-152,891	143,345	0,112	0,106
-151,877	-52,360	-0,048	0,016
-150,862	170,237	-0,136	-0,139
-149,847	298,018	0,119	-0,156
-148,833	383,553	-0,058	-0,085
-147,818	183,867	0,089	0,094
-146,804	73,599	0,066	0,049
-145,789	350,555	-0,058	0,081
-144,775	-106,341	-0,198	0,031
-143,760	-200,000	-0,020	-0,135
-142,745	-137,109	0,058	-0,005
-141,731	-27,065	0,117	0,048
-140,716	-108,331	0,102	0,015
-139,702	594,133	0,047	0,082
-138,687	-74,310	-0,058	-0,015
-137,672	-116,940	0,125	0,016
-136,658	32,073	-0,135	0,082
-135,643	-200,000	-0,004	0,021
-134,629	-110,636	0,049	0,007
-133,614	272,142	-0,068	0,085
-132,599	-181,035	0,084	-0,001
-131,585	309,594	0,075	0,100
-130,570	-32,711	-0,067	0,026
-129,556	75,445	-0,088	-0,066
-128,541	234,792	-0,062	-0,072
-127,526	800,000	-0,043	0,106
-126,512	35,963	0,153	-0,095
-125,497	-18,284	0,089	0,040
-124,483	46,928	0,077	0,051
-123,468	800,000	-0,028	0,080
-122,453	-200,000	0,000	-0,188
-121,439	168,668	-0,110	-0,112
-120,424	80,419	0,109	-0,083
-119,410	800,000	0,041	0,119
