DTS Sentinel unit serial number:	SN410029Multiplexer serial number:	ORYXHardware model number:	OX2-SRSoftware version number:	ORYX F/W v4,00 Oryx Data Collector v3.7.2.0data status	okinstallation	B6 Nyhavnadifferential loss correction	single-endedforward channel	channel 2reverse channel	N/Adate	2023/12/11time	05:10:08forward acquisition time	300,00reverse acquisition time	0,00gamma	499,1914k internal	0,3126k external	0,3126temperature offset calibration	1,0000default loss term (dB/km)	0,3820temperature slope calibration	1,0000multiplexer offset coefficient	1,0000multiplexer slope coefficient	1,0000fibre end	0,00T internal ref (°C)	20,12T ext. ref 1 (°C)	3,14T ext. ref 2 (°C)	3,16length (m)	temperature (°C)	Stokes	anti-Stokes-744,400	-185,011	0,034	0,000
-743,385	-101,515	-0,228	0,041
-742,371	23,545	0,065	0,040
-741,356	44,620	-0,217	0,148
-740,342	-40,552	0,082	-0,031
-739,327	-73,020	-0,245	0,067
-738,312	496,085	0,053	-0,091
-737,298	-101,880	-0,276	0,049
-736,283	42,303	0,046	0,031
-735,269	17,017	-0,145	0,085
-734,254	302,855	0,053	0,074
-733,239	-126,732	-0,440	-0,048
-732,225	-115,596	0,222	0,031
-731,210	72,845	-0,118	0,091
-730,196	109,796	-0,130	-0,116
-729,181	-200,000	-0,003	0,067
-728,167	-200,000	0,003	0,110
-727,152	157,209	0,045	0,046
-726,137	-200,000	0,007	-0,107
-725,123	-200,000	0,001	0,046
-724,108	-19,339	-0,095	-0,044
-723,094	10,374	0,051	-0,029
-722,079	-24,470	-0,145	0,064
-721,064	-84,564	-0,017	0,004
-720,050	40,578	-0,166	0,111
-719,035	-200,000	0,005	-0,027
-718,021	79,172	-0,048	-0,039
-717,006	112,868	0,094	-0,084
-715,991	65,279	-0,103	-0,077
-714,977	191,398	0,056	0,062
-713,962	-51,047	0,059	0,021
-712,948	514,345	0,056	-0,097
-711,933	800,000	0,026	0,072
-710,918	800,000	-0,016	0,046
-709,904	248,132	-0,029	-0,036
-708,889	-200,000	-0,028	-0,149
-707,875	-128,994	-0,076	0,008
-706,860	-130,417	0,168	-0,017
-705,845	78,103	0,039	0,031
-704,831	-200,000	0,010	0,037
-703,816	-57,603	-0,025	-0,008
-702,802	-153,893	-0,087	-0,004
-701,787	-200,000	0,038	-0,145
-700,772	241,582	0,049	-0,061
-699,758	725,036	0,047	0,093
-698,743	800,000	0,052	-0,136
-697,729	205,983	0,151	-0,175
-696,714	351,066	-0,059	-0,087
-695,699	-146,375	-0,047	0,003
-694,685	-125,267	0,112	-0,013
-693,670	-113,014	-0,088	-0,013
-692,656	687,083	0,079	0,153
-691,641	-200,000	-0,017	-0,069
-690,627	291,920	-0,018	-0,024
-689,612	-200,000	-0,014	-0,151
-688,597	-81,455	-0,017	0,004
-687,583	339,520	-0,035	-0,050
-686,568	-42,432	-0,090	-0,034
-685,554	32,370	-0,099	-0,063
-684,539	800,000	-0,021	0,059
-683,524	-200,000	0,007	0,110
-682,510	-200,000	0,040	0,150
-681,495	580,277	-0,041	-0,076
-680,481	558,641	0,087	-0,157
-679,466	771,079	0,073	-0,149
-678,451	800,000	0,079	-0,164
-677,437	332,434	-0,065	-0,093
-676,422	132,599	-0,089	-0,086
-675,408	284,071	0,056	0,075
-674,393	-120,307	0,113	-0,014
-673,378	-49,669	-0,161	-0,057
-672,364	800,000	0,061	-0,188
-671,349	17,961	0,068	-0,040
-670,335	-15,984	0,035	-0,017
-669,320	800,000	0,012	-0,027
-668,305	800,000	0,063	-0,158
-667,291	33,451	-0,075	0,049
-666,276	800,000	0,023	0,052
-665,262	-161,446	-0,151	0,006
-664,247	31,898	-0,131	-0,083
-663,232	43,690	-0,102	-0,069
-662,218	-175,489	0,085	0,002
-661,203	-76,222	0,119	0,031
-660,189	-200,000	0,001	0,093
-659,174	258,386	-0,041	0,053
-658,159	-5,867	-0,097	0,049
-657,145	-124,605	-0,098	-0,011
-656,130	-200,000	0,022	0,110
-655,116	-200,000	-0,013	-0,083
-654,101	-90,859	0,096	0,020
-653,086	117,655	-0,089	-0,081
-652,072	-12,366	0,036	-0,017
-651,057	93,736	-0,116	0,097
-650,043	410,216	-0,089	-0,141
-649,028	214,642	-0,064	0,075
-648,014	-39,049	0,062	-0,024
-646,999	-132,838	-0,026	-0,002
-645,984	143,662	0,133	-0,132
-644,970	-151,462	-0,098	-0,005
-643,955	-200,000	-0,009	-0,153
-642,941	-39,441	0,095	-0,037
-641,926	102,248	-0,068	-0,059
-640,911	73,888	-0,065	-0,051
-639,897	179,964	0,103	0,113
-638,882	102,796	0,025	-0,022
-637,868	78,175	-0,157	0,124
-636,853	390,181	0,045	-0,070
-635,838	-200,000	-0,040	-0,146
-634,824	37,802	-0,049	0,032
-633,809	-200,000	0,022	-0,130
-632,795	-200,000	0,023	-0,079
-631,780	800,000	0,022	0,057
-630,765	106,553	-0,056	-0,049
-629,751	505,339	-0,039	-0,066
-628,736	-200,000	0,021	0,142
-627,722	478,555	0,033	0,055
-626,707	-200,000	0,007	-0,147
-625,692	35,732	0,114	-0,074
-624,678	33,086	-0,063	0,040
-623,663	229,107	-0,092	-0,111
-622,649	-200,000	-0,038	-0,202
-621,634	-200,000	0,006	-0,021
-620,619	-200,000	0,017	0,099
-619,605	-200,000	0,008	-0,072
-618,590	-111,496	-0,149	-0,022
-617,576	800,000	0,069	0,157
-616,561	19,333	-0,141	-0,084
-615,546	-13,409	-0,061	-0,029
-614,532	-200,000	-0,003	-0,047
-613,517	-26,779	-0,098	0,042
-612,503	800,000	-0,024	-0,075
-611,488	-143,564	0,065	0,004
-610,474	394,740	0,039	-0,061
-609,459	-200,000	0,010	0,047
-608,444	-84,308	-0,185	0,043
-607,430	-60,918	-0,061	0,019
-606,415	-59,429	0,120	0,038
-605,401	-136,668	-0,204	0,017
-604,386	595,055	0,016	0,030
-603,371	45,133	0,093	-0,063
-602,357	260,450	0,037	-0,047
-601,342	-200,000	0,004	0,075
-600,328	-20,422	-0,045	-0,021
-599,313	614,219	0,037	0,068
-598,298	-200,000	-0,045	-0,202
-597,284	-41,115	0,045	0,017
-596,269	800,000	0,025	0,058
-595,255	800,000	0,021	0,055
-594,240	800,000	0,012	0,035
-593,225	-13,090	-0,014	-0,007
-592,211	-45,144	-0,106	0,039
-591,196	-200,000	0,009	0,031
-590,182	-200,000	0,017	0,059
-589,167	65,941	-0,062	-0,047
-588,152	240,579	0,041	0,051
-587,138	-32,829	-0,110	0,045
-586,123	-99,991	-0,122	-0,022
-585,109	201,764	-0,128	-0,146
-584,094	336,729	-0,041	-0,059
-583,079	800,000	-0,065	0,174
-582,065	170,206	-0,067	0,071
-581,050	-41,022	-0,051	-0,019
-580,036	787,324	-0,061	-0,125
-579,021	800,000	-0,050	-0,113
-578,006	539,778	-0,073	-0,130
-576,992	527,488	0,046	0,081
-575,977	-66,077	0,055	0,016
-574,963	-162,936	0,131	0,005
-573,948	-6,838	-0,070	0,035
-572,934	624,030	-0,044	-0,082
-571,919	-200,000	0,028	-0,147
-570,904	12,398	-0,079	0,045
-569,890	-53,318	-0,099	-0,033
-568,875	800,000	0,021	-0,053
-567,861	-68,796	-0,083	0,023
-566,846	145,621	-0,092	0,092
-565,831	-82,050	0,036	-0,009
-564,817	-116,765	-0,037	0,005
-563,802	-54,882	-0,054	-0,018
-562,788	-59,959	-0,143	-0,045
-561,773	-109,713	-0,124	-0,019
-560,758	-105,831	0,034	-0,006
-559,744	323,035	-0,078	0,110
-558,729	629,962	-0,039	0,074
-557,715	800,000	0,023	0,071
-556,700	800,000	-0,024	0,052
-555,685	-200,000	0,033	-0,132
-554,671	-200,000	-0,009	0,091
-553,656	-200,000	-0,024	0,110
-552,642	554,174	0,085	0,151
-551,627	-143,993	0,072	-0,005
-550,612	208,017	-0,087	-0,100
-549,598	-200,000	0,016	-0,146
-548,583	-200,000	-0,031	-0,153
-547,569	-15,560	0,072	0,034
-546,554	-72,403	-0,153	0,042
-545,539	-14,802	0,052	-0,025
-544,525	21,739	-0,075	0,045
-543,510	301,713	-0,051	0,070
-542,496	152,797	-0,076	-0,077
-541,481	-18,288	-0,137	-0,063
-540,466	-170,703	0,055	0,001
-539,452	-200,000	0,031	-0,102
-538,437	149,512	0,136	0,136
-537,423	-153,750	-0,049	0,002
-536,408	-200,000	-0,012	0,075
-535,393	120,319	-0,076	0,069
-534,379	-69,831	0,079	-0,022
-533,364	169,212	-0,095	-0,101
-532,350	80,855	-0,027	-0,021
-531,335	-200,000	-0,000	0,035
-530,321	-74,215	0,132	-0,035
-529,306	25,336	-0,138	-0,084
-528,291	-127,235	-0,083	0,009
-527,277	260,548	-0,065	0,083
-526,262	-85,945	-0,037	0,008
-525,248	-200,000	-0,009	-0,044
-524,233	-200,000	-0,013	0,113
-523,218	-72,798	0,072	0,020
-522,204	-200,000	0,007	0,056
-521,189	71,349	-0,083	0,064
-520,175	112,882	-0,054	0,048
-519,160	445,973	-0,040	-0,066
-518,145	800,000	-0,027	-0,060
-517,131	-30,878	0,056	0,023
-516,116	-41,119	0,085	0,032
-515,102	201,142	0,035	-0,039
-514,087	30,966	-0,078	0,049
-513,072	-101,122	-0,123	0,022
-512,058	96,173	-0,097	0,082
-511,043	111,076	0,064	0,057
-510,029	283,859	0,084	0,112
-509,014	-76,145	0,035	0,009
-507,999	-95,538	-0,174	0,034
-506,985	-200,000	-0,009	-0,046
-505,970	248,810	0,089	0,111
-504,956	-200,000	-0,003	-0,105
-503,941	657,925	0,044	-0,084
-502,926	800,000	-0,017	0,043
-501,912	-200,000	-0,007	0,069
-500,897	-200,000	0,011	0,091
-499,883	376,364	0,019	-0,029
-498,868	-12,042	0,064	0,031
-497,853	-200,000	0,027	0,127
-496,839	212,597	0,020	0,023
-495,824	-200,000	0,012	-0,075
-494,810	-53,065	0,181	0,061
-493,795	-13,318	-0,073	-0,035
-492,781	63,048	0,067	0,049
-491,766	800,000	-0,034	-0,103
-490,751	316,616	-0,062	-0,087
-489,737	51,093	-0,061	-0,042
-488,722	-92,370	0,093	0,019
-487,708	-149,626	-0,163	-0,009
-486,693	448,923	-0,043	0,071
-485,678	-59,028	-0,065	-0,021
-484,664	800,000	0,014	-0,035
-483,649	-1,395	-0,018	0,009
-482,635	-43,706	0,052	-0,019
-481,620	-200,000	0,016	0,067
-480,605	-110,534	-0,040	0,006
-479,591	93,439	0,087	0,072
-478,576	-82,292	-0,111	0,026
-477,562	465,526	-0,005	-0,009
-476,547	49,698	0,140	0,097
-475,532	-200,000	0,014	-0,058
-474,518	-200,000	0,075	0,271
-473,503	-18,456	0,194	0,089
-472,489	-78,085	-0,075	-0,019
-471,474	-124,404	-0,049	-0,006
-470,459	-200,000	0,020	0,072
-469,445	-200,000	0,043	-0,152
-468,430	800,000	-0,053	-0,116
-467,416	273,815	0,027	0,035
-466,401	-200,000	-0,002	-0,010
-465,386	-200,000	-0,016	-0,085
-464,372	800,000	0,013	-0,032
-463,357	-168,894	-0,078	0,002
-462,343	-174,237	0,070	0,001
-461,328	382,107	-0,092	-0,140
-460,313	52,082	-0,080	0,056
-459,299	-200,000	-0,003	-0,087
-458,284	2,227	0,163	0,087
-457,270	151,228	0,021	0,021
-456,255	73,325	0,094	0,072
-455,241	51,134	-0,067	-0,047
-454,226	-97,965	-0,081	0,015
-453,211	-200,000	-0,003	0,105
-452,197	88,758	0,044	0,036
-451,182	-189,096	0,109	0,001
-450,168	502,528	-0,035	-0,061
-449,153	-125,615	-0,122	-0,013
-448,138	-9,755	0,106	-0,052
-447,124	-200,000	0,013	-0,049
-446,109	-157,919	0,128	0,005
-445,095	67,070	0,144	0,108
-444,080	-29,129	0,102	0,043
-443,065	574,028	-0,003	0,006
-442,051	-200,000	0,017	0,061
-441,036	-139,507	-0,118	0,009
-440,022	171,801	0,061	-0,065
-439,007	237,940	0,125	-0,153
-437,992	116,137	-0,133	-0,120
-436,978	198,877	-0,098	-0,110
-435,963	67,213	0,077	-0,057
-434,949	-200,000	0,023	0,114
-433,934	14,706	-0,137	0,079
-432,919	-200,000	-0,004	-0,042
-431,905	-85,779	0,050	-0,011
-430,890	260,364	-0,038	0,049
-429,876	550,204	-0,020	-0,035
-428,861	39,474	-0,081	-0,053
-427,846	64,128	0,109	-0,081
-426,832	-77,419	0,026	0,007
-425,817	-200,000	-0,005	0,046
-424,803	141,879	0,033	0,032
-423,788	800,000	-0,054	0,151
-422,773	-44,344	-0,118	-0,043
-421,759	406,459	0,062	-0,096
-420,744	523,082	0,017	0,030
-419,730	-35,440	-0,049	-0,019
-418,715	800,000	0,010	0,028
-417,701	-124,522	-0,079	0,009
-416,686	-200,000	0,036	0,130
-415,671	81,368	0,038	-0,030
-414,657	554,004	-0,008	-0,015
-413,642	73,096	0,062	0,047
-412,628	66,889	-0,102	0,076
-411,613	221,991	-0,072	-0,085
-410,598	-200,000	0,010	-0,098
-409,584	3,383	0,054	0,029
-408,569	-200,000	0,004	-0,034
-407,555	405,437	0,049	0,077
-406,540	-27,142	-0,077	-0,033
-405,525	800,000	-0,071	-0,171
-404,511	-200,000	0,023	-0,172
-403,496	20,452	0,038	-0,023
-402,482	778,446	0,038	0,077
-401,467	-200,000	0,027	-0,116
-400,452	-154,759	0,037	0,002
-399,438	513,620	0,042	-0,072
-398,423	-91,462	0,027	0,006
-397,409	563,484	0,078	-0,140
-396,394	667,955	0,043	-0,083
-395,379	726,429	0,017	0,034
-394,365	90,027	0,025	-0,021
-393,350	149,129	0,053	0,053
-392,336	-73,045	0,101	0,027
-391,321	-200,000	0,021	0,147
-390,306	-200,000	-0,006	0,093
-389,292	168,809	-0,053	-0,056
-388,277	5,888	-0,089	-0,048
-387,263	133,396	-0,017	0,016
-386,248	-42,384	0,044	0,016
-385,233	-200,000	-0,038	0,154
-384,219	800,000	0,028	-0,069
-383,204	-117,972	0,021	-0,003
-382,190	-200,000	0,002	-0,094
-381,175	-200,000	0,008	-0,043
-380,160	253,325	-0,017	-0,021
-379,146	261,745	0,064	-0,082
-378,131	235,898	-0,058	0,070
-377,117	-200,000	0,000	0,116
-376,102	239,498	-0,045	-0,055
-375,088	44,961	-0,108	0,073
-374,073	156,326	0,066	-0,067
-373,058	-81,310	0,209	0,050
-372,044	-74,086	-0,082	0,022
-371,029	5,210	-0,065	-0,035
-370,015	-113,683	0,029	-0,004
-369,000	-0,024	0,085	0,044
-367,985	340,139	0,072	-0,103
-366,971	74,086	0,056	-0,043
-365,956	-138,221	0,103	0,008
-364,942	800,000	-0,058	0,129
-363,927	134,166	-0,047	0,045
-362,912	-67,605	0,123	-0,035
-361,898	-200,000	-0,014	0,050
-360,883	460,923	-0,110	0,181
-359,869	-99,483	0,130	0,024
-358,854	457,842	0,030	-0,049
-357,839	-148,644	0,045	-0,003
-356,825	800,000	0,031	0,075
-355,810	99,581	0,082	0,069
-354,796	-200,000	0,024	-0,090
-353,781	74,681	-0,106	-0,082
-352,766	-200,000	-0,009	0,108
-351,752	-200,000	-0,000	-0,003
-350,737	-200,000	-0,036	-0,129
-349,723	-200,000	0,000	-0,063
-348,708	-80,731	-0,040	0,010
-347,693	14,905	-0,089	-0,051
-346,679	800,000	0,052	-0,168
-345,664	-200,000	0,010	-0,079
-344,650	98,808	-0,016	0,014
-343,635	800,000	-0,030	0,064
-342,620	167,930	0,104	0,109
-341,606	84,556	0,072	0,057
-340,591	800,000	0,011	-0,032
-339,577	473,782	-0,031	-0,051
-338,562	85,836	0,090	-0,072
-337,548	172,409	0,124	0,130
-336,533	-110,358	0,118	-0,018
-335,518	800,000	-0,028	-0,070
-334,504	151,414	0,052	0,052
-333,489	-200,000	0,020	0,098
-332,475	191,184	0,027	0,030
-331,460	182,697	-0,033	-0,036
-330,445	-200,000	0,027	-0,158
-329,431	87,680	0,093	0,075
-328,416	457,616	0,062	-0,101
-327,402	-123,963	-0,091	-0,010
-326,387	-2,856	0,113	-0,058
-325,372	-200,000	-0,024	-0,096
-324,358	800,000	0,027	-0,066
-323,343	158,440	-0,028	-0,028
-322,329	-200,000	-0,000	-0,010
-321,314	-65,066	-0,068	0,020
-320,299	141,069	-0,098	0,095
-319,285	-144,923	-0,037	0,002
-318,270	-158,703	0,045	-0,002
-317,256	139,217	0,076	-0,074
-316,241	207,778	-0,031	0,036
-315,226	-109,936	-0,103	-0,016
-314,212	579,458	0,107	0,193
-313,197	571,358	0,068	-0,121
-312,183	-200,000	-0,008	0,098
-311,168	-200,000	0,031	-0,131
-310,153	280,923	0,089	-0,117
-309,139	-200,000	0,005	-0,206
-308,124	292,899	-0,088	0,117
-307,110	190,071	0,122	0,134
-306,095	312,574	-0,053	0,073
-305,080	-200,000	-0,005	0,027
-304,066	90,503	-0,077	-0,063
-303,051	16,711	0,109	-0,063
-302,037	35,726	0,109	-0,070
-301,022	89,857	-0,016	0,013
-300,008	133,387	-0,083	-0,079
-298,993	800,000	0,027	0,062
-297,978	-39,434	-0,036	0,014
-296,964	554,824	-0,070	-0,123
-295,949	77,004	-0,055	-0,043
-294,935	-66,399	0,013	-0,004
-293,920	16,368	0,053	0,031
-292,905	452,907	0,058	-0,094
-291,891	55,013	0,053	0,037
-290,876	175,451	0,057	0,061
-289,862	696,971	-0,058	-0,112
-288,847	800,000	0,004	0,011
-287,832	-200,000	-0,001	-0,017
-286,818	100,208	-0,009	0,008
-285,803	800,000	-0,014	0,035
-284,789	-133,872	0,076	-0,007
-283,774	156,244	-0,054	0,055
-282,759	133,639	-0,142	0,135
-281,745	570,120	-0,042	0,075
-280,730	-200,000	-0,060	-0,228
-279,716	800,000	-0,053	0,115
-278,701	-200,000	0,000	-0,100
-277,686	72,566	0,136	0,104
-276,672	226,772	0,064	0,076
-275,657	800,000	-0,010	0,031
-274,643	-200,000	0,014	-0,049
-273,628	-18,749	-0,031	0,014
-272,613	50,941	-0,119	-0,082
-271,599	127,049	0,020	0,019
-270,584	800,000	0,028	-0,075
-269,570	158,728	0,048	-0,048
-268,555	800,000	0,021	-0,051
-267,540	-36,576	-0,048	-0,019
-266,526	-200,000	-0,001	0,028
-265,511	-200,000	-0,023	-0,097
-264,497	-24,843	-0,069	0,030
-263,482	-200,000	-0,001	-0,011
-262,467	-122,370	0,164	-0,019
-261,453	712,471	-0,038	0,075
-260,438	317,806	0,043	-0,060
-259,424	531,820	-0,038	-0,065
-258,409	100,179	0,042	0,036
-257,395	294,127	0,019	0,026
-256,380	177,607	0,110	-0,118
-255,365	800,000	-0,034	-0,089
-254,351	-108,454	0,066	0,010
-253,336	-52,657	-0,059	0,020
-252,322	704,671	0,026	-0,051
-251,307	800,000	0,061	-0,167
-250,292	395,054	0,085	0,130
-249,278	765,355	-0,071	0,142
-248,263	-45,015	-0,070	-0,025
-247,249	20,395	0,081	-0,048
-246,234	218,736	-0,022	-0,026
-245,219	112,774	0,025	-0,022
-244,205	-200,000	0,026	-0,140
-243,190	98,717	-0,106	-0,090
-242,176	800,000	0,057	0,170
-241,161	119,239	-0,008	-0,007
-240,146	217,197	0,046	0,054
-239,132	800,000	0,020	-0,061
-238,117	-89,825	-0,055	0,012
-237,103	-82,925	0,031	-0,007
-236,088	-48,478	-0,044	0,016
-235,073	-200,000	0,012	0,045
-234,059	214,428	0,067	0,077
-233,044	800,000	0,027	0,077
-232,030	-200,000	0,022	0,073
-231,015	-200,000	-0,012	0,067
-230,000	-160,442	0,128	-0,005
-228,986	-87,031	0,056	0,012
-227,971	-145,085	-0,082	0,005
-226,957	8,058	0,132	0,072
-225,942	17,566	0,039	0,022
-224,927	-48,522	-0,090	-0,031
-223,913	101,154	0,022	-0,019
-222,898	93,695	-0,053	0,044
-221,884	-200,000	-0,003	-0,024
-220,869	-132,694	-0,051	-0,005
-219,855	-75,829	-0,075	-0,019
-218,840	-88,637	0,073	0,016
-217,825	-12,317	0,122	-0,058
-216,811	-37,043	-0,191	-0,074
-215,796	800,000	0,022	-0,057
-214,782	334,953	0,062	-0,088
-213,767	-98,698	-0,060	-0,011
-212,752	-200,000	0,008	0,119
-211,738	800,000	0,022	0,068
-210,723	453,770	0,091	-0,147
-209,709	-200,000	-0,012	0,064
-208,694	-200,000	0,012	0,087
-207,679	240,743	0,094	-0,115
-206,665	800,000	-0,049	0,155
-205,650	-154,178	-0,053	0,003
-204,636	-120,181	0,084	-0,010
-203,621	800,000	0,072	0,165
-202,606	-200,000	-0,026	0,090
-201,592	-200,000	0,012	0,057
-200,577	70,220	0,080	-0,060
-199,563	130,744	-0,084	0,079
-198,548	-7,605	0,022	-0,011
-197,533	-200,000	0,005	0,195
-196,519	800,000	-0,029	0,094
-195,504	756,266	-0,061	0,120
-194,490	-25,449	0,073	-0,031
-193,475	-109,924	0,028	0,004
-192,460	-200,000	0,000	0,069
-191,446	-200,000	-0,002	0,043
-190,431	800,000	-0,024	0,070
-189,417	26,239	0,100	-0,061
-188,402	740,562	-0,009	0,017
-187,387	-62,284	-0,104	-0,031
-186,373	800,000	-0,063	-0,133
-185,358	56,808	0,071	0,050
-184,344	563,427	-0,029	0,051
-183,329	54,596	0,139	0,097
-182,315	-117,421	-0,108	0,014
-181,300	-200,000	-0,023	0,090
-180,285	138,033	-0,048	0,046
-179,271	-67,690	0,156	0,044
-178,256	-124,526	0,053	0,006
-177,242	61,014	-0,107	-0,078
-176,227	-112,226	-0,080	-0,012
-175,212	2,097	-0,056	0,029
-174,198	270,641	-0,085	0,109
-173,183	800,000	0,043	0,089
-172,169	-200,000	-0,018	0,074
-171,154	800,000	-0,040	-0,098
-170,139	164,791	0,107	-0,110
-169,125	122,287	0,072	0,066
-168,110	45,239	0,065	-0,043
-167,096	193,851	-0,068	0,075
-166,081	36,277	0,041	-0,026
-165,066	404,250	-0,071	0,109
-164,052	-54,595	0,101	0,033
-163,037	-99,530	-0,050	-0,009
-162,023	-200,000	-0,005	0,024
-161,008	-48,738	0,101	0,035
-159,993	-21,208	0,070	0,031
-158,979	-200,000	-0,001	-0,047
-157,964	204,902	0,060	-0,068
-156,950	31,956	0,050	-0,031
-155,935	-149,299	-0,084	0,005
-154,920	800,000	0,027	-0,062
-153,906	-200,000	-0,017	0,059
-152,891	-200,000	0,009	0,121
-151,877	-200,000	0,002	0,011
-150,862	-7,138	-0,112	0,055
-149,847	-200,000	-0,003	-0,029
-148,833	38,701	-0,085	-0,055
-147,818	-200,000	-0,011	0,127
-146,804	-30,067	-0,170	0,070
-145,789	-109,996	0,054	-0,008
-144,775	505,794	-0,084	-0,142
-143,760	-200,000	-0,013	-0,080
-142,745	181,160	-0,021	0,022
-141,731	-31,947	0,041	-0,017
-140,716	-127,467	-0,104	0,011
-139,702	-200,000	0,004	0,070
-138,687	-13,680	-0,082	-0,038
-137,672	-80,757	0,047	0,011
-136,658	20,639	0,066	-0,038
-135,643	-200,000	-0,041	-0,138
-134,629	800,000	-0,014	0,040
-133,614	576,842	-0,090	0,160
-132,599	682,343	0,057	0,108
-131,585	-78,861	-0,027	0,007
-130,570	-200,000	-0,012	0,092
-129,556	-200,000	0,001	-0,056
-128,541	318,054	-0,053	-0,073
-127,526	418,554	-0,042	-0,066
-126,512	82,122	0,035	-0,027
-125,497	800,000	-0,010	0,023
-124,483	310,914	0,114	0,156
-123,468	800,000	0,053	0,131
-122,453	5,703	0,156	0,084
-121,439	800,000	0,011	-0,025
-120,424	-52,155	-0,117	-0,039
-119,410	-77,576	-0,073	-0,018
-118,395	-55,052	-0,113	0,037
