DTS Sentinel unit serial number:	SN410029Multiplexer serial number:	ORYXHardware model number:	OX2-SRSoftware version number:	ORYX F/W v4,00 Oryx Data Collector v3.7.2.0data status	okinstallation	B6 Nyhavnadifferential loss correction	single-endedforward channel	channel 2reverse channel	N/Adate	2023/12/09time	21:00:08forward acquisition time	300,00reverse acquisition time	0,00gamma	499,1914k internal	0,3128k external	0,3128temperature offset calibration	1,0000default loss term (dB/km)	0,3820temperature slope calibration	1,0000multiplexer offset coefficient	1,0000multiplexer slope coefficient	1,0000fibre end	0,00T internal ref (°C)	21,44T ext. ref 1 (°C)	5,40T ext. ref 2 (°C)	5,39length (m)	temperature (°C)	Stokes	anti-Stokes-744,400	473,157	-0,006	-0,010
-743,385	-71,074	-0,066	0,018
-742,371	-200,000	-0,012	0,102
-741,356	187,189	-0,106	0,117
-740,342	720,814	0,048	0,096
-739,327	-17,620	-0,375	0,175
-738,312	-70,544	0,148	-0,041
-737,298	-170,552	-0,313	-0,008
-736,283	-158,181	0,134	-0,006
-735,269	204,758	-0,078	0,090
-734,254	800,000	-0,030	-0,093
-733,239	-45,416	-0,462	-0,170
-732,225	-200,000	-0,003	-0,011
-731,210	32,190	0,104	0,067
-730,196	140,900	-0,144	-0,141
-729,181	-200,000	0,008	-0,044
-728,167	-73,444	-0,025	-0,007
-727,152	-200,000	0,009	-0,128
-726,137	464,239	0,011	-0,019
-725,123	93,757	-0,059	0,050
-724,108	-200,000	0,002	0,032
-723,094	-98,803	-0,182	0,034
-722,079	-200,000	0,001	0,011
-721,064	-101,260	-0,149	-0,027
-720,050	-14,113	-0,014	-0,007
-719,035	-200,000	0,001	0,072
-718,021	-76,033	-0,025	-0,006
-717,006	-200,000	0,025	-0,142
-715,991	-200,000	-0,014	-0,225
-714,977	-54,269	-0,060	-0,020
-713,962	-108,534	0,173	0,027
-712,948	68,351	-0,057	0,043
-711,933	800,000	0,051	0,162
-710,918	-27,327	-0,060	-0,026
-709,904	619,340	-0,049	-0,093
-708,889	-79,831	-0,058	-0,014
-707,875	800,000	-0,011	-0,026
-706,860	800,000	0,045	0,095
-705,845	-200,000	0,051	0,200
-704,831	-123,856	-0,017	0,002
-703,816	-71,593	-0,071	-0,020
-702,802	-12,517	-0,076	-0,037
-701,787	29,603	-0,174	0,110
-700,772	-141,018	0,047	0,004
-699,758	-124,219	-0,102	0,012
-698,743	-131,234	0,010	-0,001
-697,729	800,000	-0,026	-0,078
-696,714	449,449	-0,081	0,133
-695,699	-9,487	0,146	-0,072
-694,685	177,367	-0,102	-0,110
-693,670	-200,000	-0,009	0,063
-692,656	-109,378	-0,034	0,005
-691,641	-94,334	0,041	-0,008
-690,627	-118,650	0,038	-0,005
-689,612	249,602	0,059	-0,074
-688,597	-64,697	-0,056	0,017
-687,583	-200,000	0,005	-0,093
-686,568	-72,311	-0,050	0,014
-685,554	143,256	-0,055	-0,054
-684,539	19,994	0,103	-0,062
-683,524	21,937	0,111	-0,067
-682,510	753,710	-0,048	0,096
-681,495	505,162	0,036	0,062
-680,481	800,000	0,078	-0,206
-679,466	378,559	-0,026	0,040
-678,451	-200,000	0,001	0,069
-677,437	370,312	0,015	-0,022
-676,422	-14,294	-0,091	0,044
-675,408	-52,489	-0,053	-0,018
-674,393	-200,000	0,012	0,044
-673,378	-133,165	-0,076	-0,007
-672,364	197,169	-0,071	-0,081
-671,349	756,715	0,047	0,094
-670,335	800,000	-0,022	-0,047
-669,320	0,044	-0,119	0,063
-668,305	-60,657	0,019	-0,006
-667,291	-82,209	0,022	-0,005
-666,276	362,913	-0,042	-0,063
-665,262	800,000	-0,018	0,047
-664,247	-78,314	-0,134	0,034
-663,232	69,454	0,075	-0,057
-662,218	-200,000	-0,010	0,052
-661,203	-7,879	0,069	0,034
-660,189	6,947	0,115	-0,063
-659,174	-200,000	-0,034	-0,168
-658,159	38,199	-0,135	-0,089
-657,145	-131,072	0,156	0,015
-656,130	800,000	0,057	0,146
-655,116	-200,000	0,007	0,077
-654,101	47,007	-0,070	0,048
-653,086	-87,103	0,024	0,005
-652,072	-73,409	0,078	-0,021
-651,057	260,824	-0,124	-0,159
-650,043	-200,000	0,001	-0,014
-649,028	-62,313	-0,152	-0,047
-648,014	97,606	-0,076	-0,064
-646,999	-162,426	-0,056	0,002
-645,984	-15,898	0,060	0,028
-644,970	-25,665	-0,157	-0,068
-643,955	462,819	0,035	0,058
-642,941	-154,814	-0,096	0,005
-641,926	-40,063	0,064	-0,024
-640,911	534,762	0,012	0,020
-639,897	518,763	0,044	-0,077
-638,882	-87,222	0,057	0,013
-637,868	15,042	-0,038	0,022
-636,853	-84,066	0,094	-0,022
-635,838	11,714	-0,094	0,053
-634,824	800,000	-0,008	0,022
-633,809	-63,450	-0,101	0,031
-632,795	-17,632	0,101	0,047
-631,780	-200,000	-0,027	0,202
-630,765	147,052	-0,008	0,008
-629,751	-130,948	-0,141	-0,014
-628,736	370,081	-0,103	-0,156
-627,722	40,240	-0,060	0,040
-626,707	-200,000	-0,011	0,075
-625,692	135,450	0,099	0,095
-624,678	-89,651	0,086	0,018
-623,663	800,000	-0,059	-0,130
-622,649	323,402	0,124	-0,175
-621,634	-82,295	-0,152	-0,036
-620,619	145,657	0,012	-0,012
-619,605	-83,946	0,114	0,027
-618,590	11,261	0,069	0,039
-617,576	-83,368	0,115	-0,027
-616,561	297,743	0,016	-0,022
-615,546	157,820	-0,105	-0,108
-614,532	58,876	-0,053	-0,038
-613,517	363,378	-0,074	0,110
-612,503	-200,000	0,024	0,097
-611,488	-10,531	0,105	0,051
-610,474	506,113	-0,034	0,059
-609,459	-200,000	0,008	0,096
-608,444	203,007	0,068	-0,078
-607,430	-4,038	-0,054	-0,027
-606,415	157,569	-0,050	0,051
-605,401	165,872	0,016	0,016
-604,386	-24,158	-0,109	0,048
-603,371	-130,840	0,061	0,006
-602,357	388,552	-0,097	-0,150
-601,342	-58,950	-0,098	0,031
-600,328	43,639	-0,128	-0,086
-599,313	402,574	-0,082	-0,128
-598,298	71,250	-0,037	0,028
-597,284	460,959	-0,036	-0,060
-596,269	800,000	0,028	-0,075
-595,255	-126,369	-0,091	-0,010
-594,240	84,655	-0,093	-0,076
-593,225	-200,000	0,030	-0,226
-592,211	-138,613	-0,125	0,010
-591,196	209,345	-0,052	0,060
-590,182	419,205	0,055	0,088
-589,167	196,816	0,096	0,109
-588,152	316,254	-0,009	-0,013
-587,138	165,538	-0,141	-0,148
-586,123	109,532	-0,119	-0,106
-585,109	-200,000	0,014	0,070
-584,094	187,804	0,040	0,044
-583,079	800,000	-0,051	0,148
-582,065	365,844	-0,080	0,119
-581,050	-200,000	0,033	0,199
-580,036	154,102	-0,066	-0,067
-579,021	119,939	0,102	-0,093
-578,006	303,280	-0,036	0,049
-576,992	-24,301	-0,137	0,060
-575,977	-200,000	0,016	0,134
-574,963	-62,300	-0,033	-0,010
-573,948	321,919	-0,016	0,023
-572,934	-200,000	0,002	-0,017
-571,919	50,794	0,145	-0,102
-570,904	800,000	0,044	0,095
-569,890	-145,006	-0,097	0,006
-568,875	487,378	0,052	0,087
-567,861	800,000	-0,024	0,060
-566,846	-200,000	-0,002	0,022
-565,831	72,196	0,046	0,035
-564,817	641,918	-0,048	-0,091
-563,802	-200,000	0,014	-0,108
-562,788	-200,000	-0,009	-0,133
-561,773	671,325	-0,052	-0,099
-560,758	380,977	0,007	-0,010
-559,744	-200,000	-0,006	0,027
-558,729	800,000	0,054	0,137
-557,715	-200,000	-0,018	-0,113
-556,700	-200,000	-0,026	-0,225
-555,685	-10,179	-0,060	-0,029
-554,671	329,216	-0,111	0,159
-553,656	552,955	-0,055	0,098
-552,642	52,703	-0,051	-0,036
-551,627	242,377	-0,075	-0,093
-550,612	-90,859	-0,101	0,021
-549,598	800,000	-0,017	0,034
-548,583	-133,825	0,080	-0,007
-547,569	-61,747	-0,107	0,033
-546,554	22,891	0,101	0,061
-545,539	-200,000	-0,028	0,136
-544,525	800,000	-0,025	0,057
-543,510	800,000	0,059	0,133
-542,496	159,160	-0,063	-0,065
-541,481	100,351	-0,071	0,061
-540,466	-124,978	0,103	0,012
-539,452	-198,202	-0,124	0,001
-538,437	18,256	0,127	0,074
-537,423	698,059	0,028	0,055
-536,408	311,268	0,060	-0,083
-535,393	105,279	-0,020	-0,017
-534,379	-8,072	-0,075	0,037
-533,364	-200,000	0,006	0,134
-532,350	-200,000	-0,028	0,097
-531,335	620,814	0,039	0,073
-530,321	-87,001	-0,110	0,024
-529,306	-71,132	0,155	-0,043
-528,291	82,911	-0,070	0,056
-527,277	17,913	0,065	-0,038
-526,262	-200,000	-0,043	-0,170
-525,248	143,248	0,152	-0,150
-524,233	-56,661	-0,034	0,011
-523,218	800,000	-0,039	-0,110
-522,204	-76,364	-0,122	-0,031
-521,189	-47,815	0,014	0,005
-520,175	754,967	-0,026	0,052
-519,160	171,795	-0,032	0,034
-518,145	-200,000	0,024	-0,084
-517,131	-200,000	0,005	-0,037
-516,116	119,855	0,074	0,068
-515,102	36,664	-0,047	-0,030
-514,087	31,334	0,058	0,036
-513,072	800,000	0,061	-0,161
-512,058	39,305	0,077	-0,051
-511,043	800,000	0,042	-0,117
-510,029	-103,069	-0,107	-0,018
-509,014	707,821	0,037	-0,073
-507,999	-200,000	0,023	0,163
-506,985	-200,000	-0,012	-0,055
-505,970	-1,473	-0,069	-0,036
-504,956	800,000	-0,026	0,072
-503,941	73,876	-0,055	-0,042
-502,926	-200,000	0,004	0,092
-501,912	24,411	0,145	-0,088
-500,897	225,003	0,068	-0,081
-499,883	423,722	-0,011	-0,017
-498,868	278,442	0,027	-0,035
-497,853	-200,000	-0,010	0,043
-496,839	19,295	0,166	-0,098
-495,824	250,470	0,111	-0,139
-494,810	-200,000	-0,012	-0,188
-493,795	8,082	-0,016	0,009
-492,781	-200,000	-0,003	0,115
-491,766	-179,976	-0,059	-0,001
-490,751	-200,000	0,030	-0,163
-489,737	-73,775	-0,046	0,012
-488,722	800,000	0,041	0,099
-487,708	422,756	-0,034	0,053
-486,693	34,370	0,065	-0,042
-485,678	244,224	-0,020	0,025
-484,664	238,262	-0,022	0,027
-483,649	-200,000	-0,004	-0,078
-482,635	-200,000	-0,010	-0,123
-481,620	93,217	-0,089	0,074
-480,605	65,500	0,061	0,045
-479,591	800,000	0,031	0,094
-478,576	-200,000	0,024	0,169
-477,562	-145,921	-0,036	0,002
-476,547	800,000	-0,010	-0,032
-475,532	418,968	-0,065	0,103
-474,518	541,516	-0,030	0,053
-473,503	-31,001	0,107	0,044
-472,489	601,920	0,031	0,057
-471,474	-200,000	0,015	0,058
-470,459	45,667	-0,065	-0,044
-469,445	-129,498	-0,092	0,009
-468,430	-159,966	0,054	0,002
-467,416	-174,215	-0,040	0,001
-466,401	-16,668	0,102	0,047
-465,386	-90,046	0,064	0,014
-464,372	-200,000	-0,001	0,011
-463,357	-121,825	-0,059	0,007
-462,343	-6,873	-0,133	-0,066
-461,328	683,268	-0,031	-0,059
-460,313	115,495	0,027	0,024
-459,299	14,716	0,056	-0,032
-458,284	-61,729	-0,087	0,027
-457,270	-200,000	0,001	-0,115
-456,255	800,000	-0,017	-0,034
-455,241	147,249	0,088	-0,088
-454,226	800,000	0,017	0,048
-453,211	-200,000	0,014	0,048
-452,197	2,443	0,048	-0,025
-451,182	322,155	0,037	0,051
-450,168	-57,969	0,070	-0,022
-449,153	63,290	-0,008	0,006
-448,138	68,590	-0,072	0,055
-447,124	-38,228	-0,074	-0,029
-446,109	-200,000	0,015	0,061
-445,095	-74,623	0,065	-0,017
-444,080	4,389	0,119	0,064
-443,065	-23,406	0,086	0,038
-442,051	208,411	0,015	0,017
-441,036	573,942	-0,063	-0,114
-440,022	-200,000	0,001	-0,123
-439,007	-200,000	-0,005	0,020
-437,992	-8,509	0,046	-0,023
-436,978	-81,073	0,033	-0,008
-435,963	-200,000	-0,013	-0,089
-434,949	800,000	-0,057	-0,133
-433,934	103,763	0,028	-0,024
-432,919	-200,000	-0,015	-0,086
-431,905	-200,000	-0,034	-0,143
-430,890	96,198	0,054	-0,045
-429,876	9,013	-0,033	-0,018
-428,861	278,834	0,051	0,067
-427,846	-200,000	-0,005	0,131
-426,832	-200,000	-0,012	0,061
-425,817	197,750	-0,049	0,055
-424,803	800,000	-0,017	0,043
-423,788	-163,194	0,147	-0,005
-422,773	-200,000	-0,024	0,083
-421,759	800,000	0,054	0,155
-420,744	800,000	0,025	-0,057
-419,730	304,381	-0,104	0,142
-418,715	-200,000	0,006	-0,124
-417,701	-200,000	-0,007	-0,115
-416,686	-86,430	-0,098	0,022
-415,671	63,881	0,153	-0,113
-414,657	-200,000	0,029	-0,116
-413,642	800,000	0,066	-0,146
-412,628	398,239	0,054	-0,084
-411,613	800,000	-0,042	-0,127
-410,598	-129,283	0,097	-0,010
-409,584	17,459	0,033	0,019
-408,569	-200,000	-0,005	-0,043
-407,555	-200,000	-0,023	0,097
-406,540	-200,000	-0,002	0,136
-405,525	-5,895	0,089	-0,045
-404,511	122,666	-0,083	0,076
-403,496	-2,827	0,176	0,090
-402,482	55,898	0,067	-0,047
-401,467	-200,000	-0,028	0,115
-400,452	-168,351	0,103	-0,003
-399,438	728,414	-0,042	-0,082
-398,423	101,775	0,068	0,058
-397,409	-10,366	-0,052	0,025
-396,394	237,147	-0,025	0,030
-395,379	114,144	0,069	-0,061
-394,365	467,217	0,049	-0,081
-393,350	-200,000	0,000	0,039
-392,336	141,725	0,060	0,058
-391,321	522,473	0,014	0,024
-390,306	-87,270	0,092	-0,020
-389,292	64,743	0,127	0,094
-388,277	-200,000	-0,021	-0,078
-387,263	-70,978	0,219	0,060
-386,248	800,000	0,008	0,024
-385,233	-87,861	0,071	0,016
-384,219	-168,522	-0,100	-0,003
-383,204	264,943	0,019	0,024
-382,190	179,156	0,061	0,065
-381,175	15,149	-0,132	0,076
-380,160	800,000	0,023	-0,065
-379,146	513,286	0,041	0,070
-378,131	-13,886	0,051	0,024
-377,117	-200,000	0,018	-0,070
-376,102	-200,000	-0,004	-0,083
-375,088	405,998	-0,023	0,036
-374,073	800,000	-0,018	-0,042
-373,058	62,475	0,044	0,032
-372,044	-136,753	0,047	-0,004
-371,029	-66,353	-0,233	-0,068
-370,015	231,234	0,002	0,002
-369,000	105,386	-0,035	-0,031
-367,985	17,259	0,021	0,012
-366,971	800,000	-0,031	0,082
-365,956	800,000	0,030	0,068
-364,942	-200,000	0,032	0,105
-363,927	-89,416	0,159	0,034
-362,912	-51,824	0,140	0,047
-361,898	-200,000	-0,012	-0,051
-360,883	-200,000	0,011	-0,092
-359,869	-200,000	-0,016	-0,138
-358,854	800,000	0,023	0,063
-357,839	-73,888	0,087	0,023
-356,825	106,100	0,035	0,031
-355,810	529,125	0,054	-0,094
-354,796	58,911	-0,123	-0,089
-353,781	-7,436	0,052	0,026
-352,766	-200,000	-0,001	-0,059
-351,752	159,104	0,047	-0,048
-350,737	-129,744	0,135	0,013
-349,723	800,000	-0,027	-0,059
-348,708	-132,734	-0,185	-0,017
-347,693	800,000	-0,055	0,127
-346,679	-200,000	-0,010	0,082
-345,664	222,300	-0,038	0,045
-344,650	32,653	0,038	-0,024
-343,635	62,631	-0,093	-0,068
-342,620	90,436	0,113	0,092
-341,606	-3,269	-0,057	-0,029
-340,591	219,440	-0,059	-0,069
-339,577	7,853	-0,045	0,024
-338,562	44,796	-0,103	-0,069
-337,548	-200,000	-0,009	0,092
-336,533	800,000	0,050	0,118
-335,518	-137,317	-0,087	0,007
-334,504	386,693	0,075	0,115
-333,489	297,351	0,043	0,057
-332,475	800,000	0,063	-0,197
-331,460	114,872	0,043	-0,038
-330,445	101,309	-0,054	0,046
-329,431	127,182	-0,146	0,135
-328,416	-200,000	0,025	-0,186
-327,402	2,995	-0,063	-0,033
-326,387	17,281	-0,082	0,048
-325,372	28,151	0,031	-0,019
-324,358	-174,039	-0,017	-0,000
-323,343	-200,000	-0,003	0,022
-322,329	-123,329	-0,075	0,009
-321,314	172,842	0,064	-0,067
-320,299	-114,463	0,190	0,026
-319,285	800,000	-0,037	0,087
-318,270	-73,261	-0,064	0,017
-317,256	112,258	0,044	-0,039
-316,241	30,766	0,015	0,010
-315,226	99,978	0,062	0,053
-314,212	-85,106	-0,136	-0,031
-313,197	55,302	0,021	-0,015
-312,183	151,391	-0,148	0,148
-311,168	800,000	0,081	0,165
-310,153	324,065	-0,048	-0,067
-309,139	25,930	-0,096	-0,058
-308,124	392,911	0,037	0,057
-307,110	-171,775	0,054	0,001
-306,095	193,016	-0,029	0,032
-305,080	-200,000	0,069	-0,240
-304,066	660,576	-0,021	0,040
-303,051	254,038	0,062	-0,077
-302,037	800,000	-0,093	-0,203
-301,022	-200,000	0,025	0,091
-300,008	-63,091	0,028	0,008
-298,993	-22,298	0,086	0,038
-297,978	-64,988	-0,140	0,041
-296,964	-200,000	0,009	-0,035
-295,949	-3,012	-0,101	-0,052
-294,935	485,801	0,064	-0,107
-293,920	-200,000	0,004	-0,045
-292,905	73,836	0,063	-0,048
-291,891	800,000	-0,006	0,020
-290,876	362,843	-0,040	-0,059
-289,862	-46,879	0,153	0,055
-288,847	273,138	0,064	-0,082
-287,832	-32,832	-0,074	-0,030
-286,818	281,445	-0,028	-0,036
-285,803	659,020	0,023	-0,044
-284,789	-200,000	0,027	0,127
-283,774	8,587	0,089	0,049
-282,759	-56,456	-0,112	0,036
-281,745	800,000	0,036	-0,108
-280,730	800,000	0,014	-0,039
-279,716	31,965	-0,098	-0,062
-278,701	157,715	0,017	0,017
-277,686	-162,496	0,086	-0,003
-276,672	-9,677	0,027	0,013
-275,657	0,015	0,059	0,031
-274,643	-65,952	0,081	0,024
-273,628	800,000	0,019	0,054
-272,613	-116,680	0,034	-0,005
-271,599	296,049	-0,026	0,035
-270,584	217,101	0,022	0,025
-269,570	-5,015	-0,067	0,034
-268,555	13,312	-0,114	-0,064
-267,540	800,000	0,038	0,103
-266,526	42,506	0,058	0,038
-265,511	800,000	0,033	-0,095
-264,497	800,000	0,063	-0,151
-263,482	356,129	-0,128	0,186
-262,467	178,479	0,043	0,046
-261,453	-200,000	-0,027	0,093
-260,438	251,309	-0,081	0,101
-259,424	71,456	0,019	0,014
-258,409	-200,000	0,037	0,195
-257,395	289,532	-0,053	-0,071
-256,380	71,286	0,035	0,026
-255,365	160,959	-0,035	0,036
-254,351	713,212	-0,084	0,163
-253,336	-33,409	-0,011	0,005
-252,322	-200,000	-0,019	0,177
-251,307	-200,000	-0,027	0,116
-250,292	469,886	0,031	0,051
-249,278	800,000	0,056	0,174
-248,263	245,291	0,033	0,040
-247,249	216,129	-0,045	0,053
-246,234	228,422	-0,059	-0,071
-245,219	290,181	0,017	-0,023
-244,205	338,671	-0,091	-0,130
-243,190	-200,000	-0,022	-0,077
-242,176	29,786	0,116	-0,072
-241,161	800,000	0,069	0,146
-240,146	-18,007	-0,149	0,068
-239,132	-200,000	-0,043	-0,206
-238,117	-97,900	-0,132	-0,025
-237,103	117,854	0,135	-0,121
-236,088	-36,918	0,146	0,057
-235,073	-40,623	0,026	-0,010
-234,059	800,000	0,049	-0,110
-233,044	800,000	0,015	-0,038
-232,030	23,280	-0,086	0,051
-231,015	149,756	-0,008	-0,008
-230,000	-200,000	0,007	-0,154
-228,986	-200,000	-0,011	0,063
-227,971	-200,000	-0,005	0,055
-226,957	-200,000	0,006	0,034
-225,942	-5,649	-0,088	0,044
-224,927	800,000	-0,052	-0,156
-223,913	71,290	0,131	-0,099
-222,898	-17,285	-0,068	-0,031
-221,884	302,124	0,039	-0,053
-220,869	800,000	0,023	-0,070
-219,855	800,000	0,020	-0,044
-218,840	201,045	0,020	-0,023
-217,825	-200,000	-0,006	-0,052
-216,811	348,678	-0,044	0,064
-215,796	6,262	-0,040	0,022
-214,782	-200,000	0,013	0,045
-213,767	99,208	-0,054	0,045
-212,752	-200,000	-0,033	0,119
-211,738	238,616	0,044	0,053
-210,723	503,386	0,064	0,109
-209,709	-200,000	-0,001	-0,047
-208,694	800,000	0,022	-0,056
-207,679	-76,872	-0,128	-0,032
-206,665	50,288	-0,089	-0,061
-205,650	-200,000	-0,005	-0,033
-204,636	76,333	0,060	0,046
-203,621	-200,000	0,001	0,127
-202,606	-70,332	0,057	-0,016
-201,592	100,005	0,064	0,054
-200,577	175,036	0,062	-0,065
-199,563	2,382	0,021	-0,011
-198,548	-13,196	0,056	0,026
-197,533	63,538	0,082	0,060
-196,519	-123,884	-0,071	0,008
-195,504	-135,047	-0,032	-0,003
-194,490	-5,908	0,091	-0,045
-193,475	136,999	0,037	-0,035
-192,460	59,302	0,089	-0,064
-191,446	800,000	-0,005	-0,011
-190,431	137,970	-0,110	0,105
-189,417	530,674	-0,038	-0,065
-188,402	-25,948	-0,100	0,043
-187,387	800,000	0,037	0,084
-186,373	-200,000	-0,009	-0,098
-185,358	-5,723	-0,051	-0,025
-184,344	-65,150	0,035	0,010
-183,329	256,689	0,060	-0,076
-182,315	622,864	0,010	0,019
-181,300	615,933	0,062	-0,113
-180,285	115,261	-0,151	-0,134
-179,271	-200,000	0,015	-0,074
-178,256	91,950	0,034	0,028
-177,242	-200,000	0,001	0,104
-176,227	541,726	0,077	0,135
-175,212	255,058	0,073	0,092
-174,198	630,563	0,065	0,120
-173,183	65,837	-0,049	-0,036
-172,169	219,678	0,086	-0,101
-171,154	174,703	0,131	-0,138
-170,139	603,462	0,026	0,048
-169,125	800,000	-0,022	0,055
-168,110	-107,489	-0,091	-0,014
-167,096	-200,000	-0,047	0,151
-166,081	-86,909	-0,029	0,006
-165,066	112,918	-0,062	-0,055
-164,052	67,534	0,035	-0,026
-163,037	-39,946	-0,098	-0,037
-162,023	35,150	0,070	0,045
-161,008	194,156	0,132	-0,146
-159,993	800,000	-0,027	-0,081
-158,979	7,571	-0,058	0,032
-157,964	263,309	-0,033	0,042
-156,950	11,069	-0,031	-0,017
-155,935	-19,377	0,077	0,035
-154,920	551,463	0,046	0,081
-153,906	112,686	-0,054	0,048
-152,891	-126,253	-0,132	-0,014
-151,877	-85,936	-0,066	0,015
-150,862	-200,000	-0,017	0,064
-149,847	60,227	0,060	-0,043
-148,833	-108,308	-0,148	0,023
-147,818	-194,154	0,172	-0,001
-146,804	-200,000	-0,007	0,051
-145,789	-200,000	-0,023	-0,125
-144,775	521,767	-0,017	-0,030
-143,760	177,334	-0,058	-0,062
-142,745	325,598	-0,022	0,030
-141,731	-50,208	-0,107	-0,037
-140,716	-200,000	-0,000	0,122
-139,702	-141,866	0,081	0,006
-138,687	-43,759	-0,044	0,016
-137,672	652,685	-0,010	0,019
-136,658	-125,896	-0,177	-0,019
-135,643	-200,000	-0,009	0,081
-134,629	-70,514	0,097	-0,027
-133,614	800,000	0,009	0,025
-132,599	-17,136	0,090	0,041
-131,585	31,829	0,084	-0,053
-130,570	2,149	-0,107	-0,056
-129,556	535,551	-0,014	-0,024
-128,541	800,000	0,055	-0,120
-127,526	90,131	-0,076	-0,061
-126,512	-200,000	0,005	-0,076
-125,497	800,000	0,065	0,163
-124,483	728,659	-0,034	-0,067
-123,468	174,842	0,083	-0,087
-122,453	-9,346	-0,106	-0,051
-121,439	-200,000	0,006	0,058
-120,424	-200,000	-0,013	-0,106
-119,410	-127,551	0,086	0,009
-118,395	-27,990	0,139	0,058
-117,380	90,225	-0,138	0,112
