DTS Sentinel unit serial number:	SN410029Multiplexer serial number:	ORYXHardware model number:	OX2-SRSoftware version number:	ORYX F/W v4,00 Oryx Data Collector v3.7.2.0data status	okinstallation	B6 Nyhavnadifferential loss correction	single-endedforward channel	channel 2reverse channel	N/Adate	2023/12/08time	20:20:08forward acquisition time	300,00reverse acquisition time	0,00gamma	499,1914k internal	0,3158k external	0,3158temperature offset calibration	1,0000default loss term (dB/km)	0,3820temperature slope calibration	1,0000multiplexer offset coefficient	1,0000multiplexer slope coefficient	1,0000fibre end	0,00T internal ref (°C)	15,19T ext. ref 1 (°C)	-1,37T ext. ref 2 (°C)	-1,39length (m)	temperature (°C)	Stokes	anti-Stokes-744,400	45,594	0,098	0,067
-743,385	-130,991	-0,347	0,034
-742,371	263,736	0,118	0,151
-741,356	-119,364	-0,245	-0,031
-740,342	-200,000	-0,020	0,228
-739,327	-112,598	-0,374	0,054
-738,312	2,581	0,119	0,063
-737,298	26,640	-0,179	-0,110
-736,283	472,877	0,104	0,174
-735,269	-141,038	-0,340	0,025
-734,254	377,734	0,043	0,065
-733,239	24,040	-0,487	-0,295
-732,225	-84,703	0,274	-0,063
-731,210	502,513	-0,036	0,061
-730,196	-200,000	0,005	-0,063
-729,181	800,000	-0,040	0,086
-728,167	-30,929	0,053	0,022
-727,152	-200,000	0,004	-0,067
-726,137	731,488	-0,044	-0,087
-725,123	134,015	-0,049	-0,047
-724,108	-200,000	0,026	-0,160
-723,094	34,039	-0,139	-0,089
-722,079	-200,000	-0,043	-0,157
-721,064	267,325	0,058	-0,075
-720,050	-200,000	-0,024	-0,080
-719,035	800,000	-0,006	0,020
-718,021	-186,812	-0,045	-0,000
-717,006	27,524	-0,157	-0,097
-715,991	118,747	-0,040	-0,037
-714,977	-43,893	-0,066	-0,024
-713,962	8,131	-0,051	0,028
-712,948	111,427	-0,064	-0,057
-711,933	-123,641	0,038	0,004
-710,918	-200,000	0,012	-0,044
-709,904	-200,000	0,003	-0,067
-708,889	-200,000	-0,003	0,012
-707,875	396,870	-0,029	-0,044
-706,860	18,965	-0,096	-0,057
-705,845	-200,000	0,006	-0,060
-704,831	216,899	0,060	0,070
-703,816	189,294	-0,049	-0,054
-702,802	800,000	0,050	-0,115
-701,787	-51,124	-0,080	0,028
-700,772	36,905	0,088	-0,057
-699,758	178,289	-0,072	-0,077
-698,743	-150,835	-0,067	-0,004
-697,729	-32,452	-0,082	-0,034
-696,714	-200,000	-0,005	0,032
-695,699	28,426	0,042	0,026
-694,685	-200,000	0,012	-0,099
-693,670	-89,846	0,111	-0,024
-692,656	399,176	-0,028	-0,043
-691,641	89,893	0,101	0,083
-690,627	-108,783	0,129	-0,020
-689,612	311,774	0,085	0,118
-688,597	800,000	0,024	0,056
-687,583	-69,681	0,089	-0,025
-686,568	143,831	-0,146	-0,143
-685,554	796,052	0,014	-0,028
-684,539	267,059	0,051	0,066
-683,524	-200,000	0,007	-0,140
-682,510	22,298	0,047	0,028
-681,495	-81,338	-0,064	-0,015
-680,481	800,000	0,070	-0,151
-679,466	125,630	-0,138	0,128
-678,451	800,000	-0,054	-0,126
-677,437	800,000	-0,013	0,029
-676,422	511,247	0,044	0,076
-675,408	-135,694	-0,086	-0,007
-674,393	-200,000	-0,006	-0,057
-673,378	300,706	-0,070	-0,095
-672,364	-83,316	0,087	-0,020
-671,349	-35,614	0,117	-0,047
-670,335	-53,046	-0,201	-0,068
-669,320	493,819	0,063	0,107
-668,305	53,332	-0,030	-0,021
-667,291	800,000	-0,033	-0,094
-666,276	-200,000	0,028	-0,091
-665,262	141,914	-0,084	-0,082
-664,247	-200,000	-0,007	-0,096
-663,232	-200,000	-0,009	-0,082
-662,218	-200,000	0,040	-0,184
-661,203	568,117	-0,034	0,061
-660,189	-141,259	-0,031	0,002
-659,174	-200,000	-0,009	-0,119
-658,159	-74,274	-0,186	0,049
-657,145	-104,204	-0,162	-0,027
-656,130	800,000	-0,037	0,108
-655,116	-88,707	-0,022	-0,005
-654,101	384,347	0,007	0,011
-653,086	-200,000	0,027	-0,129
-652,072	-34,329	-0,124	-0,050
-651,057	-125,910	-0,053	0,006
-650,043	461,957	-0,068	0,111
-649,028	-107,933	-0,143	0,023
-648,014	-200,000	0,007	0,105
-646,999	77,064	0,103	-0,081
-645,984	-200,000	-0,004	0,102
-644,970	123,927	-0,087	-0,080
-643,955	-168,398	-0,157	0,004
-642,941	800,000	0,041	0,120
-641,926	-11,298	0,031	0,015
-640,911	800,000	0,022	-0,065
-639,897	-200,000	-0,039	0,142
-638,882	139,578	0,064	0,062
-637,868	-184,819	-0,106	0,001
-636,853	139,585	0,070	0,068
-635,838	-63,778	-0,068	-0,020
-634,824	-55,908	0,145	-0,047
-633,809	-135,690	0,055	-0,005
-632,795	-200,000	0,013	0,098
-631,780	574,829	-0,021	-0,039
-630,765	800,000	-0,060	-0,133
-629,751	-200,000	-0,006	-0,036
-628,736	-53,635	-0,184	-0,061
-627,722	-124,650	0,074	0,008
-626,707	115,230	-0,101	0,090
-625,692	800,000	0,047	-0,115
-624,678	36,546	-0,045	-0,029
-623,663	800,000	0,046	-0,132
-622,649	262,939	-0,054	-0,069
-621,634	800,000	-0,048	-0,140
-620,619	185,730	0,036	0,039
-619,605	76,126	0,089	0,069
-618,590	800,000	-0,008	0,026
-617,576	800,000	-0,014	0,029
-616,561	-200,000	-0,011	0,061
-615,546	-6,606	0,050	-0,025
-614,532	32,973	-0,031	0,020
-613,517	-200,000	0,002	-0,058
-612,503	679,359	0,046	-0,089
-611,488	236,448	0,090	0,110
-610,474	800,000	-0,013	0,028
-609,459	76,878	-0,013	0,010
-608,444	-200,000	-0,022	-0,124
-607,430	-132,595	-0,079	-0,007
-606,415	578,392	-0,036	-0,064
-605,401	233,635	-0,104	0,125
-604,386	-200,000	0,003	0,139
-603,371	49,402	0,018	0,013
-602,357	-175,030	0,172	0,003
-601,342	-32,211	0,058	-0,024
-600,328	800,000	0,027	0,057
-599,313	48,563	-0,084	-0,057
-598,298	526,359	-0,079	-0,137
-597,284	-192,759	0,020	0,000
-596,269	556,212	-0,061	0,109
-595,255	-93,616	0,076	-0,015
-594,240	279,186	0,132	-0,173
-593,225	338,903	-0,067	-0,095
-592,211	349,744	0,065	-0,094
-591,196	-9,604	0,074	-0,036
-590,182	-200,000	0,022	0,091
-589,167	-200,000	-0,005	0,143
-588,152	148,370	-0,021	0,020
-587,138	800,000	-0,045	0,091
-586,123	150,919	-0,023	-0,023
-585,109	800,000	0,048	-0,115
-584,094	-162,488	-0,113	-0,004
-583,079	-93,226	0,062	0,013
-582,065	232,669	0,011	0,013
-581,050	202,946	0,030	0,034
-580,036	-200,000	0,003	0,018
-579,021	-11,410	-0,115	0,055
-578,006	122,256	-0,077	-0,071
-576,992	6,870	-0,072	-0,039
-575,977	236,728	0,056	0,068
-574,963	-114,326	0,074	-0,010
-573,948	-8,365	-0,044	-0,022
-572,934	156,401	-0,051	-0,052
-571,919	800,000	-0,032	-0,086
-570,904	-73,726	0,104	0,027
-569,890	-137,879	-0,114	-0,009
-568,875	800,000	0,074	-0,165
-567,861	-200,000	-0,063	0,229
-566,846	-200,000	0,005	0,050
-565,831	-89,499	0,047	0,010
-564,817	-74,286	0,160	0,042
-563,802	-96,619	0,050	-0,010
-562,788	590,470	-0,074	-0,134
-561,773	800,000	-0,032	-0,082
-560,758	-147,929	-0,068	-0,004
-559,744	-38,271	-0,048	0,018
-558,729	-47,212	-0,049	-0,017
-557,715	260,835	-0,029	0,037
-556,700	356,355	-0,056	-0,082
-555,685	-151,435	-0,079	-0,004
-554,671	800,000	0,032	0,098
-553,656	-81,894	0,115	0,027
-552,642	-70,865	0,041	0,011
-551,627	209,809	-0,023	-0,027
-550,612	207,687	-0,102	-0,116
-549,598	90,201	0,177	-0,144
-548,583	519,690	-0,017	-0,029
-547,569	-67,592	-0,097	0,028
-546,554	-34,041	-0,111	-0,044
-545,539	367,495	-0,047	0,069
-544,525	-50,847	0,028	-0,010
-543,510	-72,291	-0,045	-0,012
-542,496	-129,372	-0,067	-0,007
-541,481	48,185	-0,122	-0,083
-540,466	-200,000	-0,019	-0,135
-539,452	0,280	-0,049	-0,026
-538,437	-200,000	0,007	0,064
-537,423	-200,000	-0,039	0,131
-536,408	-82,440	-0,113	-0,027
-535,393	-96,417	-0,143	0,027
-534,379	-52,910	-0,057	0,019
-533,364	-120,368	-0,144	0,018
-532,350	0,588	0,083	0,043
-531,335	501,070	-0,044	0,075
-530,321	-85,899	0,090	-0,020
-529,306	-200,000	-0,003	0,038
-528,291	-200,000	0,015	-0,169
-527,277	800,000	-0,049	0,103
-526,262	800,000	0,034	0,085
-525,248	-57,156	-0,074	0,024
-524,233	-200,000	-0,016	0,096
-523,218	211,185	0,023	-0,027
-522,204	-118,684	-0,090	-0,011
-521,189	551,998	-0,088	-0,155
-520,175	661,365	-0,030	-0,056
-519,160	-121,163	-0,035	-0,004
-518,145	193,018	-0,014	-0,015
-517,131	-200,000	-0,003	-0,105
-516,116	-85,383	0,098	-0,022
-515,102	-105,180	-0,094	0,016
-514,087	3,554	-0,135	0,072
-513,072	166,242	0,096	-0,100
-512,058	800,000	-0,038	-0,112
-511,043	800,000	0,034	-0,080
-510,029	-68,116	0,099	-0,028
-509,014	-0,173	-0,019	-0,010
-507,999	-89,078	-0,140	-0,030
-506,985	-200,000	-0,014	-0,057
-505,970	800,000	-0,070	0,150
-504,956	18,471	0,017	-0,010
-503,941	124,893	0,053	-0,048
-502,926	-200,000	0,016	0,059
-501,912	-200,000	-0,015	0,116
-500,897	489,899	0,061	0,102
-499,883	-16,704	-0,079	-0,036
-498,868	82,760	0,076	-0,060
-497,853	800,000	-0,039	0,099
-496,839	800,000	0,065	0,144
-495,824	-121,757	0,071	0,008
-494,810	-200,000	-0,004	0,056
-493,795	-152,639	0,102	0,005
-492,781	2,258	-0,057	-0,030
-491,766	-24,026	0,121	0,052
-490,751	604,347	-0,057	-0,104
-489,737	0,308	0,066	0,034
-488,722	300,735	-0,066	0,089
-487,708	-21,429	0,073	0,032
-486,693	730,151	0,060	0,118
-485,678	86,770	0,019	-0,015
-484,664	160,801	0,080	-0,082
-483,649	-200,000	0,004	0,072
-482,635	-200,000	-0,016	0,115
-481,620	58,933	0,051	0,037
-480,605	-200,000	0,002	0,076
-479,591	339,300	0,064	0,091
-478,576	742,023	-0,043	0,084
-477,562	222,468	-0,035	0,042
-476,547	-124,050	-0,233	-0,026
-475,532	-200,000	0,010	0,037
-474,518	-200,000	0,005	-0,036
-473,503	-106,656	0,125	-0,020
-472,489	250,177	-0,043	0,053
-471,474	-200,000	-0,039	-0,165
-470,459	-71,025	-0,035	-0,009
-469,445	40,293	0,024	-0,016
-468,430	-1,306	0,075	0,038
-467,416	-91,893	-0,028	0,006
-466,401	-200,000	-0,015	0,075
-465,386	-3,483	0,103	-0,052
-464,372	17,650	0,033	0,019
-463,357	-200,000	-0,028	-0,119
-462,343	-200,000	-0,022	-0,121
-461,328	-200,000	0,031	0,152
-460,313	800,000	0,050	0,125
-459,299	236,994	0,047	0,057
-458,284	800,000	0,010	0,028
-457,270	-200,000	0,008	-0,037
-456,255	140,479	-0,011	-0,010
-455,241	342,282	-0,047	-0,067
-454,226	66,922	0,020	0,015
-453,211	800,000	0,030	-0,066
-452,197	-25,906	0,061	-0,026
-451,182	315,584	-0,038	-0,053
-450,168	800,000	0,020	0,042
-449,153	800,000	0,010	0,030
-448,138	6,741	-0,099	-0,053
-447,124	-71,933	-0,020	-0,005
-446,109	800,000	0,029	0,074
-445,095	-72,735	0,019	-0,005
-444,080	800,000	0,053	-0,110
-443,065	78,638	-0,093	0,072
-442,051	-53,044	0,086	0,028
-441,036	123,045	-0,103	-0,094
-440,022	800,000	-0,084	0,247
-439,007	277,053	0,126	0,163
-437,992	800,000	0,018	0,055
-436,978	106,987	0,056	0,049
-435,963	-82,561	0,058	-0,014
-434,949	349,601	-0,038	0,054
-433,934	115,417	-0,090	0,080
-432,919	756,449	0,039	0,078
-431,905	800,000	0,025	0,054
-430,890	-154,465	-0,065	-0,003
-429,876	248,411	0,060	0,074
-428,861	-200,000	0,021	0,116
-427,846	182,817	0,042	0,045
-426,832	100,378	0,014	0,011
-425,817	-200,000	-0,001	0,103
-424,803	4,343	0,120	-0,064
-423,788	101,576	-0,093	0,079
-422,773	-3,929	0,016	-0,008
-421,759	-67,574	0,122	0,035
-420,744	800,000	0,078	-0,188
-419,730	46,998	-0,047	0,032
-418,715	155,729	-0,132	-0,132
-417,701	2,022	-0,181	0,095
-416,686	-135,923	0,111	-0,009
-415,671	-154,329	-0,081	-0,004
-414,657	-200,000	-0,012	-0,042
-413,642	144,610	-0,123	0,120
-412,628	555,144	0,055	0,096
-411,613	-200,000	-0,002	-0,083
-410,598	-56,519	0,086	-0,028
-409,584	800,000	0,053	0,119
-408,569	-200,000	-0,020	0,095
-407,555	9,224	0,194	-0,106
-406,540	-200,000	-0,000	-0,039
-405,525	-10,653	0,047	0,022
-404,511	98,878	-0,058	-0,048
-403,496	356,945	0,067	-0,098
-402,482	-200,000	-0,002	0,109
-401,467	-60,978	0,174	-0,053
-400,452	-200,000	-0,014	0,098
-399,438	-74,068	0,056	-0,015
-398,423	368,930	-0,026	0,039
-397,409	41,726	0,112	-0,074
-396,394	-48,493	-0,127	-0,044
-395,379	202,575	-0,022	-0,025
-394,365	-131,692	0,025	-0,002
-393,350	-200,000	0,012	-0,061
-392,336	42,989	-0,095	-0,063
-391,321	88,414	0,064	0,051
-390,306	-200,000	0,000	-0,165
-389,292	-200,000	-0,010	-0,075
-388,277	-117,003	0,118	-0,016
-387,263	148,987	0,050	0,049
-386,248	-81,499	-0,093	0,022
-385,233	217,523	0,055	0,064
-384,219	-110,459	0,062	0,009
-383,204	-200,000	0,008	0,124
-382,190	-103,097	0,063	-0,011
-381,175	-200,000	-0,016	0,144
-380,160	220,614	0,087	0,102
-379,146	-28,165	-0,069	0,029
-378,131	-200,000	0,002	-0,071
-377,117	21,818	0,034	0,020
-376,102	-200,000	0,007	-0,066
-375,088	-92,187	-0,070	-0,014
-374,073	462,305	-0,053	-0,086
-373,058	-11,149	0,143	-0,068
-372,044	-31,205	0,050	0,020
-371,029	395,750	0,047	-0,072
-370,015	388,760	0,079	0,119
-369,000	243,349	-0,008	-0,009
-367,985	-200,000	-0,018	-0,123
-366,971	-200,000	0,005	-0,033
-365,956	-51,759	0,159	0,054
-364,942	-200,000	-0,006	0,077
-363,927	800,000	0,073	0,174
-362,912	-122,527	-0,051	-0,006
-361,898	197,038	-0,084	-0,094
-360,883	-200,000	0,042	-0,171
-359,869	-158,395	0,040	0,002
-358,854	340,774	-0,064	-0,091
-357,839	-200,000	-0,003	0,064
-356,825	-53,628	0,094	-0,031
-355,810	238,550	0,064	0,077
-354,796	-200,000	0,026	-0,183
-353,781	23,229	0,107	-0,064
-352,766	-200,000	0,001	-0,137
-351,752	231,775	0,085	0,101
-350,737	294,913	-0,045	0,059
-349,723	-94,486	0,125	-0,024
-348,708	-59,046	0,049	-0,015
-347,693	-200,000	-0,021	-0,135
-346,679	-29,437	0,056	0,023
-345,664	-66,237	0,027	-0,008
-344,650	-200,000	-0,034	-0,155
-343,635	168,219	-0,047	0,048
-342,620	83,036	0,049	0,039
-341,606	800,000	0,065	0,166
-340,591	-20,414	0,065	0,029
-339,577	800,000	-0,038	-0,117
-338,562	-122,729	-0,061	0,007
-337,548	13,838	-0,098	-0,055
-336,533	-172,615	-0,019	0,000
-335,518	-200,000	-0,028	0,126
-334,504	325,656	0,065	0,090
-333,489	-159,757	-0,022	0,001
-332,475	358,700	-0,143	-0,207
-331,460	31,719	-0,109	-0,068
-330,445	180,397	0,044	-0,047
-329,431	-196,109	0,062	-0,000
-328,416	-200,000	0,002	-0,059
-327,402	800,000	0,048	0,146
-326,387	-200,000	-0,033	0,145
-325,372	133,415	0,014	-0,013
-324,358	77,469	-0,124	-0,096
-323,343	-7,555	0,083	-0,040
-322,329	-6,388	0,083	-0,041
-321,314	-42,267	-0,086	-0,032
-320,299	528,854	-0,019	-0,032
-319,285	45,010	0,043	-0,029
-318,270	-56,810	0,104	0,033
-317,256	262,561	-0,071	-0,089
-316,241	-98,667	0,066	-0,012
-315,226	-200,000	0,015	0,238
-314,212	-2,637	0,033	0,017
-313,197	-55,886	0,028	0,009
-312,183	-200,000	0,002	-0,031
-311,168	127,771	-0,137	-0,126
-310,153	231,160	-0,108	-0,129
-309,139	-113,124	0,095	-0,013
-308,124	-200,000	-0,008	-0,048
-307,110	105,351	0,131	0,113
-306,095	-47,178	-0,089	0,031
-305,080	-17,128	-0,086	0,039
-304,066	800,000	0,021	0,055
-303,051	9,635	-0,100	-0,055
-302,037	-200,000	-0,033	-0,206
-301,022	61,242	-0,007	-0,005
-300,008	-11,497	-0,065	-0,031
-298,993	159,979	-0,029	0,030
-297,978	101,216	0,092	-0,078
-296,964	76,823	-0,099	-0,076
-295,949	-128,534	-0,110	0,011
-294,935	-200,000	-0,015	-0,056
-293,920	242,887	-0,074	0,090
-292,905	7,669	-0,082	0,045
-291,891	48,078	-0,050	0,034
-290,876	-200,000	0,007	-0,049
-289,862	800,000	0,031	0,071
-288,847	800,000	-0,027	0,083
-287,832	582,182	-0,032	0,057
-286,818	8,353	-0,049	-0,027
-285,803	92,087	0,028	-0,023
-284,789	163,215	0,100	-0,102
-283,774	54,204	0,154	0,107
-282,759	216,249	-0,068	0,079
-281,745	-51,657	-0,086	-0,029
-280,730	-138,135	0,068	-0,005
-279,716	623,377	-0,058	-0,106
-278,701	681,970	0,086	0,163
-277,686	2,318	-0,081	0,042
-276,672	46,793	-0,043	-0,029
-275,657	592,582	-0,056	-0,101
-274,643	-49,254	-0,066	-0,023
-273,628	-112,555	-0,154	-0,022
-272,613	-70,856	-0,122	-0,033
-271,599	-200,000	0,013	0,076
-270,584	167,678	0,063	0,065
-269,570	-26,302	-0,127	-0,054
-268,555	800,000	-0,031	-0,063
-267,540	-200,000	-0,012	-0,048
-266,526	3,266	0,084	-0,044
-265,511	27,161	-0,051	-0,031
-264,497	-200,000	0,009	-0,070
-263,482	689,382	-0,038	0,073
-262,467	-200,000	0,045	0,151
-261,453	-49,767	0,081	-0,028
-260,438	51,245	-0,045	-0,031
-259,424	265,363	0,050	0,063
-258,409	-44,708	0,083	-0,030
-257,395	-92,364	0,186	-0,038
-256,380	-21,640	0,134	-0,059
-255,365	328,861	0,122	0,171
-254,351	-144,871	0,149	-0,010
-253,336	269,768	-0,057	-0,073
-252,322	344,364	-0,077	0,109
-251,307	80,035	0,044	0,034
-250,292	-19,999	-0,044	-0,020
-249,278	-37,431	0,034	0,013
-248,263	800,000	-0,027	-0,075
-247,249	-200,000	0,015	0,058
-246,234	-53,888	0,020	0,006
-245,219	47,396	0,042	-0,028
-244,205	232,211	0,031	0,037
-243,190	-126,323	0,032	-0,003
-242,176	472,908	-0,041	-0,067
-241,161	-87,897	0,119	0,026
-240,146	60,673	-0,120	0,086
-239,132	-200,000	-0,001	0,010
-238,117	-200,000	-0,015	-0,120
-237,103	-200,000	-0,008	-0,069
-236,088	670,650	0,011	0,021
-235,073	800,000	0,055	0,134
-234,059	319,379	-0,078	0,107
-233,044	800,000	0,054	0,111
-232,030	66,022	0,115	0,084
-231,015	-200,000	-0,024	-0,148
-230,000	800,000	-0,065	-0,174
-228,986	199,995	0,053	-0,059
-227,971	233,325	-0,072	-0,085
-226,957	-57,582	-0,092	-0,029
-225,942	-73,689	0,099	0,026
-224,927	59,470	0,127	0,090
-223,913	-9,078	-0,103	0,050
-222,898	171,538	0,056	0,058
-221,884	404,310	-0,036	-0,055
-220,869	421,137	0,104	-0,162
-219,855	200,013	-0,096	0,106
-218,840	-143,810	0,112	0,008
-217,825	414,429	0,029	0,045
-216,811	-200,000	-0,013	-0,054
-215,796	-73,140	-0,099	0,026
-214,782	-109,241	0,137	-0,021
-213,767	79,529	0,027	0,021
-212,752	-27,749	0,056	0,023
-211,738	-8,988	0,033	-0,016
-210,723	172,284	0,034	0,036
-209,709	574,031	-0,060	0,106
-208,694	63,027	0,051	0,037
-207,679	-34,236	-0,086	0,034
-206,665	-96,779	-0,231	-0,044
-205,650	186,958	0,087	-0,094
-204,636	-6,888	0,066	0,032
-203,621	-200,000	-0,006	0,102
-202,606	330,029	-0,030	-0,042
-201,592	85,208	-0,056	-0,044
-200,577	-200,000	0,000	0,011
-199,563	56,224	-0,104	-0,073
-198,548	36,428	-0,019	-0,012
-197,533	800,000	0,070	0,159
-196,519	800,000	-0,044	0,134
-195,504	-123,989	-0,117	0,013
-194,490	121,682	-0,026	0,023
-193,475	800,000	-0,030	0,075
-192,460	-200,000	0,011	0,044
-191,446	208,638	0,061	0,069
-190,431	-167,864	0,093	0,003
-189,417	13,198	0,105	-0,058
-188,402	-127,035	-0,134	0,014
-187,387	-200,000	0,018	-0,147
-186,373	-200,000	0,043	-0,206
-185,358	43,008	0,058	-0,038
-184,344	-46,481	-0,082	0,029
-183,329	250,836	0,061	0,075
-182,315	-200,000	-0,032	0,145
-181,300	800,000	-0,022	0,064
-180,285	-171,156	-0,158	0,004
-179,271	800,000	-0,012	-0,031
-178,256	800,000	0,091	0,223
-177,242	273,956	0,089	-0,114
-176,227	173,527	-0,092	-0,096
-175,212	7,202	0,058	-0,031
-174,198	-200,000	-0,004	-0,039
-173,183	-144,769	0,098	0,006
-172,169	-83,037	0,087	0,020
-171,154	142,616	-0,081	-0,078
-170,139	632,239	0,056	-0,103
-169,125	-61,552	-0,206	-0,062
-168,110	107,399	0,053	-0,045
-167,096	-109,974	-0,137	0,021
-166,081	150,461	0,034	0,033
-165,066	-61,428	-0,136	0,041
-164,052	-99,189	-0,038	-0,007
-163,037	-200,000	-0,015	0,109
-162,023	-136,033	0,083	-0,007
-161,008	-200,000	-0,020	-0,129
-159,993	376,225	0,066	-0,098
-158,979	-128,255	0,076	-0,008
-157,964	800,000	-0,025	-0,053
-156,950	-200,000	0,012	0,062
-155,935	-200,000	-0,012	-0,095
-154,920	517,742	0,051	-0,086
-153,906	168,702	0,085	-0,087
-152,891	-38,336	-0,114	-0,043
-151,877	800,000	-0,046	0,101
-150,862	-97,335	0,061	-0,011
-149,847	44,684	-0,067	0,044
-148,833	769,202	0,027	-0,054
-147,818	-200,000	0,016	0,087
-146,804	353,594	0,049	-0,070
-145,789	422,555	-0,054	0,083
-144,775	-125,719	0,056	-0,006
-143,760	-47,565	-0,041	-0,014
-142,745	-179,731	-0,122	0,002
-141,731	800,000	-0,029	0,069
-140,716	-200,000	0,009	0,048
-139,702	-200,000	-0,069	0,225
-138,687	-200,000	-0,043	0,143
-137,672	81,112	-0,014	-0,011
-136,658	-134,431	0,107	-0,009
-135,643	160,744	0,029	0,029
-134,629	208,393	0,015	-0,017
-133,614	-106,163	0,105	0,017
-132,599	39,904	0,015	0,010
-131,585	-29,501	-0,044	0,018
-130,570	-200,000	-0,038	0,127
-129,556	366,886	-0,046	0,067
-128,541	328,676	-0,060	-0,083
-127,526	-11,390	-0,141	0,066
-126,512	800,000	0,067	0,197
-125,497	182,294	-0,032	-0,034
-124,483	137,489	0,091	0,085
-123,468	-177,354	-0,044	-0,001
-122,453	191,571	-0,072	-0,078
-121,439	-200,000	0,002	-0,026
-120,424	800,000	0,055	-0,116
-119,410	-200,000	0,015	-0,051
