DTS Sentinel unit serial number:	SN410029Multiplexer serial number:	ORYXHardware model number:	OX2-SRSoftware version number:	ORYX F/W v4,00 Oryx Data Collector v3.7.2.0data status	okinstallation	B6 Nyhavnadifferential loss correction	single-endedforward channel	channel 2reverse channel	N/Adate	2023/12/10time	13:45:08forward acquisition time	300,00reverse acquisition time	0,00gamma	499,1914k internal	0,3122k external	0,3122temperature offset calibration	1,0000default loss term (dB/km)	0,3820temperature slope calibration	1,0000multiplexer offset coefficient	1,0000multiplexer slope coefficient	1,0000fibre end	0,00T internal ref (°C)	22,75T ext. ref 1 (°C)	6,27T ext. ref 2 (°C)	6,28length (m)	temperature (°C)	Stokes	anti-Stokes-744,400	-61,064	0,200	0,062
-743,385	44,817	-0,267	0,183
-742,371	-35,461	0,119	0,048
-741,356	59,261	-0,257	0,188
-740,342	-200,000	-0,023	-0,100
-739,327	-200,000	-0,046	0,161
-738,312	599,205	-0,038	-0,070
-737,298	-3,850	-0,278	0,143
-736,283	-200,000	-0,001	-0,056
-735,269	45,488	-0,213	0,147
-734,254	147,268	0,032	0,032
-733,239	-26,161	-0,255	-0,111
-732,225	313,698	0,088	-0,124
-731,210	800,000	0,029	0,069
-730,196	192,578	-0,054	-0,061
-729,181	71,494	-0,071	0,055
-728,167	-83,783	-0,060	-0,014
-727,152	-146,589	0,066	-0,004
-726,137	500,594	-0,063	0,109
-725,123	-122,481	0,086	-0,010
-724,108	162,553	-0,018	-0,019
-723,094	127,951	-0,095	-0,090
-722,079	663,173	0,010	-0,019
-721,064	-74,626	-0,104	0,028
-720,050	218,567	-0,032	0,038
-719,035	659,819	-0,038	-0,074
-718,021	-115,932	-0,188	-0,026
-717,006	119,898	0,064	-0,059
-715,991	-44,705	0,047	-0,018
-714,977	151,758	-0,022	0,022
-713,962	800,000	-0,042	-0,136
-712,948	130,991	-0,084	-0,081
-711,933	800,000	0,030	-0,076
-710,918	-24,831	-0,050	-0,022
-709,904	-43,886	-0,097	-0,036
-708,889	-3,017	-0,083	-0,043
-707,875	-108,664	0,114	0,018
-706,860	-200,000	0,018	0,103
-705,845	65,466	0,110	-0,083
-704,831	41,144	-0,161	0,108
-703,816	93,114	-0,066	-0,056
-702,802	-200,000	-0,025	-0,117
-701,787	8,593	-0,162	-0,090
-700,772	103,417	-0,060	-0,052
-699,758	-69,022	0,079	0,022
-698,743	730,190	-0,050	0,099
-697,729	4,249	0,078	-0,042
-696,714	200,252	-0,011	0,012
-695,699	-51,368	0,065	-0,023
-694,685	-107,303	-0,057	0,009
-693,670	-200,000	0,001	-0,013
-692,656	-24,987	-0,088	-0,039
-691,641	67,737	-0,042	0,032
-690,627	13,490	-0,152	-0,087
-689,612	85,788	0,035	-0,029
-688,597	-200,000	-0,004	0,062
-687,583	42,699	0,122	-0,083
-686,568	178,198	-0,095	0,103
-685,554	-143,264	-0,056	-0,004
-684,539	585,317	-0,041	-0,075
-683,524	800,000	-0,049	-0,135
-682,510	69,599	0,038	0,029
-681,495	128,056	-0,073	0,069
-680,481	-200,000	0,027	-0,171
-679,466	88,903	0,023	-0,019
-678,451	126,935	-0,047	0,044
-677,437	72,851	0,075	0,058
-676,422	-68,814	0,057	-0,016
-675,408	-200,000	0,060	0,000
-674,393	207,430	0,075	0,088
-673,378	-200,000	-0,025	0,122
-672,364	300,139	0,029	0,039
-671,349	-96,524	0,046	-0,009
-670,335	27,539	-0,050	0,031
-669,320	800,000	0,001	0,002
-668,305	-200,000	-0,003	-0,011
-667,291	138,210	-0,075	0,073
-666,276	-200,000	-0,006	0,156
-665,262	162,394	-0,057	-0,060
-664,247	800,000	-0,027	-0,064
-663,232	-22,742	0,125	-0,056
-662,218	293,004	-0,035	0,047
-661,203	482,618	0,041	0,070
-660,189	-200,000	-0,019	0,151
-659,174	800,000	0,037	0,112
-658,159	800,000	-0,075	-0,193
-657,145	-200,000	-0,009	-0,093
-656,130	-114,714	0,102	0,014
-655,116	19,501	-0,023	-0,014
-654,101	-200,000	0,025	0,095
-653,086	800,000	-0,018	-0,045
-652,072	347,070	-0,084	0,123
-651,057	-200,000	-0,013	-0,076
-650,043	209,492	-0,062	-0,073
-649,028	-200,000	-0,010	-0,165
-648,014	44,954	-0,054	-0,037
-646,999	209,361	-0,055	-0,065
-645,984	-200,000	-0,010	0,137
-644,970	800,000	0,022	-0,052
-643,955	236,185	-0,145	-0,178
-642,941	-200,000	0,004	0,068
-641,926	134,892	-0,191	-0,184
-640,911	-77,960	0,135	-0,034
-639,897	-3,242	-0,026	-0,013
-638,882	-17,434	0,019	-0,009
-637,868	778,541	0,038	-0,077
-636,853	-104,755	-0,214	0,036
-635,838	259,685	0,033	-0,042
-634,824	203,872	-0,066	0,076
-633,809	-200,000	0,045	0,216
-632,795	800,000	0,021	-0,045
-631,780	-91,181	0,162	-0,034
-630,765	-24,748	0,068	0,030
-629,751	125,570	-0,107	-0,100
-628,736	386,209	0,072	-0,111
-627,722	300,185	0,021	-0,029
-626,707	44,828	-0,046	-0,031
-625,692	-64,688	-0,048	0,014
-624,678	111,182	0,092	0,082
-623,663	-91,156	0,049	0,010
-622,649	474,982	-0,077	-0,130
-621,634	800,000	0,111	-0,240
-620,619	-87,080	-0,021	-0,005
-619,605	267,040	-0,033	-0,043
-618,590	-106,034	0,092	-0,015
-617,576	347,476	0,006	0,008
-616,561	19,247	0,124	-0,073
-615,546	-162,073	0,041	-0,001
-614,532	-200,000	0,001	0,055
-613,517	431,500	-0,052	0,084
-612,503	-6,814	0,095	0,048
-611,488	63,472	-0,066	0,049
-610,474	-200,000	0,043	0,145
-609,459	195,729	-0,060	-0,068
-608,444	208,583	0,081	-0,094
-607,430	232,631	-0,061	-0,075
-606,415	147,614	-0,060	0,060
-605,401	20,830	-0,034	-0,020
-604,386	91,269	-0,032	0,027
-603,371	134,698	-0,020	0,019
-602,357	-89,045	-0,112	-0,024
-601,342	-200,000	-0,006	-0,036
-600,328	74,696	-0,115	-0,089
-599,313	-65,698	0,055	-0,016
-598,298	-200,000	-0,004	-0,019
-597,284	-81,347	-0,017	-0,004
-596,269	-47,312	-0,004	0,001
-595,255	-75,106	-0,122	0,032
-594,240	-128,222	-0,107	0,011
-593,225	121,639	-0,089	-0,082
-592,211	-67,088	-0,190	-0,055
-591,196	78,310	0,035	0,028
-590,182	-200,000	-0,018	-0,158
-589,167	374,903	0,035	0,053
-588,152	375,806	-0,054	-0,081
-587,138	-200,000	0,025	-0,083
-586,123	-200,000	-0,027	-0,111
-585,109	-200,000	0,013	-0,155
-584,094	-200,000	0,014	-0,050
-583,079	54,624	0,131	0,094
-582,065	-149,331	-0,068	-0,004
-581,050	187,820	-0,066	-0,073
-580,036	-123,717	-0,073	0,008
-579,021	419,839	0,054	-0,086
-578,006	-200,000	0,005	0,025
-576,992	-9,821	-0,096	-0,047
-575,977	-81,504	0,093	-0,023
-574,963	-110,868	-0,072	0,011
-573,948	38,320	-0,087	0,057
-572,934	47,470	0,061	0,042
-571,919	419,466	-0,045	-0,071
-570,904	-81,123	-0,105	0,025
-569,890	137,111	0,048	-0,046
-568,875	-18,484	0,050	0,023
-567,861	-200,000	-0,001	-0,041
-566,846	304,228	-0,059	0,081
-565,831	33,278	0,074	0,047
-564,817	-73,178	-0,027	-0,007
-563,802	-200,000	0,011	-0,192
-562,788	-200,000	0,005	-0,045
-561,773	800,000	0,015	-0,037
-560,758	101,391	-0,030	-0,026
-559,744	-200,000	0,030	0,181
-558,729	597,110	-0,044	-0,082
-557,715	-20,007	-0,099	0,045
-556,700	155,913	0,092	-0,093
-555,685	-200,000	-0,058	-0,218
-554,671	-200,000	0,001	0,023
-553,656	800,000	0,050	-0,117
-552,642	301,334	0,042	0,058
-551,627	-8,336	-0,063	0,031
-550,612	800,000	0,027	-0,066
-549,598	110,813	-0,078	-0,069
-548,583	-17,365	0,081	0,037
-547,569	-200,000	0,012	0,084
-546,554	124,426	0,067	0,062
-545,539	-93,619	0,111	0,023
-544,525	-41,466	0,161	0,061
-543,510	800,000	0,024	-0,077
-542,496	117,884	-0,166	-0,151
-541,481	-64,248	-0,125	-0,038
-540,466	198,894	0,042	-0,048
-539,452	-67,567	-0,081	0,023
-538,437	479,753	0,079	0,133
-537,423	656,171	0,020	0,039
-536,408	-8,940	-0,105	-0,052
-535,393	-200,000	-0,028	-0,107
-534,379	-200,000	-0,012	-0,161
-533,364	-200,000	0,034	-0,135
-532,350	103,731	-0,085	0,074
-531,335	-200,000	-0,005	0,023
-530,321	-97,935	0,142	0,027
-529,306	-139,349	-0,141	-0,011
-528,291	140,305	-0,064	-0,063
-527,277	280,039	-0,016	-0,021
-526,262	-42,384	0,077	-0,029
-525,248	-88,135	0,184	-0,040
-524,233	682,694	-0,022	-0,043
-523,218	-91,476	0,130	-0,027
-522,204	-100,544	-0,034	0,006
-521,189	-200,000	-0,012	-0,072
-520,175	-124,518	-0,218	0,025
-519,160	-121,685	0,050	-0,006
-518,145	-20,072	0,145	0,066
-517,131	109,460	-0,027	-0,024
-516,116	-200,000	-0,018	-0,118
-515,102	800,000	-0,002	0,008
-514,087	-102,835	-0,048	-0,008
-513,072	-200,000	-0,023	-0,081
-512,058	645,506	0,041	0,077
-511,043	-200,000	0,008	-0,047
-510,029	800,000	0,035	0,080
-509,014	34,589	-0,065	-0,042
-507,999	-127,505	0,130	0,014
-506,985	39,097	-0,108	-0,071
-505,970	-46,542	0,060	-0,022
-504,956	90,193	-0,102	0,084
-503,941	-200,000	0,016	-0,095
-502,926	57,080	-0,035	-0,025
-501,912	-131,714	0,084	0,008
-500,897	32,232	0,051	0,032
-499,883	22,998	-0,104	-0,063
-498,868	-89,498	0,076	0,016
-497,853	106,691	0,043	-0,038
-496,839	-55,572	-0,040	0,013
-495,824	-200,000	0,028	0,239
-494,810	65,365	0,057	0,042
-493,795	800,000	-0,014	0,030
-492,781	647,350	0,035	-0,067
-491,766	-200,000	0,002	0,008
-490,751	114,594	0,069	-0,062
-489,737	-200,000	-0,002	0,083
-488,722	-52,509	0,067	0,023
-487,708	64,762	-0,135	0,101
-486,693	-6,652	-0,028	0,014
-485,678	166,868	0,070	0,073
-484,664	-200,000	-0,011	0,088
-483,649	161,550	-0,091	0,094
-482,635	5,096	-0,061	-0,033
-481,620	410,877	0,031	0,049
-480,605	-2,765	0,048	0,025
-479,591	-200,000	-0,043	-0,250
-478,576	-65,699	-0,072	0,021
-477,562	-150,651	-0,104	0,006
-476,547	-64,314	-0,101	0,030
-475,532	390,337	-0,045	0,069
-474,518	-200,000	-0,003	0,135
-473,503	-57,255	0,113	-0,036
-472,489	800,000	0,015	0,036
-471,474	-17,150	-0,098	0,046
-470,459	-148,009	-0,067	-0,004
-469,445	-70,306	-0,125	0,035
-468,430	-200,000	0,003	0,080
-467,416	-22,790	-0,136	0,060
-466,401	-200,000	0,006	0,049
-465,386	518,735	0,060	0,104
-464,372	238,120	-0,128	0,157
-463,357	-111,124	-0,101	0,015
-462,343	-108,985	-0,136	0,021
-461,328	82,343	-0,048	-0,038
-460,313	37,870	0,095	0,062
-459,299	7,842	0,046	-0,025
-458,284	370,413	0,053	-0,080
-457,270	800,000	-0,008	0,022
-456,255	-45,201	-0,136	-0,049
-455,241	62,228	-0,094	0,069
-454,226	-200,000	-0,009	0,136
-453,211	-106,030	0,085	0,014
-452,197	254,429	0,020	-0,025
-451,182	35,299	-0,173	-0,112
-450,168	208,231	0,026	-0,030
-449,153	-200,000	0,038	-0,137
-448,138	-200,000	0,001	0,019
-447,124	350,392	0,020	-0,029
-446,109	-200,000	-0,010	-0,119
-445,095	113,422	0,043	-0,039
-444,080	86,165	0,122	0,099
-443,065	-200,000	-0,007	0,104
-442,051	-200,000	0,009	0,153
-441,036	206,814	0,069	0,080
-440,022	800,000	-0,039	0,086
-439,007	-176,600	0,051	-0,001
-437,992	193,328	0,060	-0,067
-436,978	-9,635	-0,109	0,053
-435,963	-200,000	0,018	0,112
-434,949	213,394	-0,096	-0,112
-433,934	-200,000	0,006	-0,041
-432,919	-32,300	-0,199	-0,082
-431,905	-185,440	-0,143	0,002
-430,890	-73,805	0,096	-0,025
-429,876	-200,000	-0,000	0,165
-428,861	-199,848	0,054	-0,000
-427,846	800,000	0,018	-0,038
-426,832	56,521	-0,024	-0,017
-425,817	50,115	0,042	-0,029
-424,803	672,364	-0,058	-0,111
-423,788	-84,457	0,156	-0,036
-422,773	664,544	0,051	-0,098
-421,759	-200,000	0,000	0,064
-420,744	50,190	0,120	0,083
-419,730	324,946	-0,077	0,109
-418,715	-126,706	-0,064	0,007
-417,701	484,933	-0,053	-0,089
-416,686	-159,556	-0,104	-0,004
-415,671	31,437	-0,039	0,025
-414,657	-200,000	-0,020	0,229
-413,642	-12,613	0,058	-0,028
-412,628	173,338	-0,078	0,083
-411,613	-135,058	-0,112	0,010
-410,598	800,000	-0,007	-0,019
-409,584	141,665	0,078	0,076
-408,569	-52,098	0,106	0,036
-407,555	-82,905	-0,061	0,014
-406,540	-200,000	0,009	0,100
-405,525	800,000	0,044	0,143
-404,511	95,747	0,043	-0,036
-403,496	-107,640	0,061	0,010
-402,482	288,073	-0,062	-0,082
-401,467	-200,000	-0,002	-0,014
-400,452	70,795	0,131	0,100
-399,438	-200,000	-0,008	-0,047
-398,423	105,577	-0,068	0,059
-397,409	800,000	-0,030	-0,090
-396,394	125,875	-0,057	-0,053
-395,379	-200,000	0,017	0,164
-394,365	59,121	-0,031	0,022
-393,350	243,285	-0,048	-0,059
-392,336	501,434	0,111	0,189
-391,321	-41,032	-0,032	0,012
-390,306	-21,837	-0,032	0,014
-389,292	-38,705	-0,112	0,043
-388,277	127,791	0,015	-0,014
-387,263	-156,245	-0,058	-0,003
-386,248	302,586	0,088	0,121
-385,233	800,000	-0,038	0,092
-384,219	-200,000	-0,001	0,013
-383,204	-80,042	0,048	0,012
-382,190	-200,000	0,007	-0,036
-381,175	195,423	0,026	0,029
-380,160	-63,111	0,186	0,056
-379,146	-24,692	-0,025	0,011
-378,131	-200,000	-0,019	0,116
-377,117	4,814	0,086	0,046
-376,102	-200,000	0,004	0,012
-375,088	-129,406	0,026	0,003
-374,073	800,000	-0,074	-0,152
-373,058	-13,103	0,119	0,057
-372,044	800,000	-0,052	-0,147
-371,029	800,000	0,004	-0,011
-370,015	-89,946	0,088	0,019
-369,000	-129,194	0,070	0,007
-367,985	325,426	0,007	-0,010
-366,971	-21,600	0,058	0,026
-365,956	800,000	0,010	-0,028
-364,942	31,188	0,130	0,082
-363,927	-8,976	-0,020	0,010
-362,912	374,107	0,057	0,086
-361,898	151,280	0,049	0,049
-360,883	130,939	0,028	0,027
-359,869	-140,954	0,046	-0,003
-358,854	-200,000	0,004	-0,066
-357,839	-79,765	0,142	0,035
-356,825	-200,000	0,033	0,157
-355,810	113,016	-0,053	0,047
-354,796	-200,000	0,005	0,032
-353,781	-200,000	0,002	-0,036
-352,766	-120,720	-0,044	-0,005
-351,752	-200,000	-0,032	0,134
-350,737	-121,744	0,166	-0,020
-349,723	-41,673	0,056	0,021
-348,708	82,492	-0,067	0,054
-347,693	301,059	-0,065	-0,089
-346,679	800,000	-0,037	-0,108
-345,664	-77,491	-0,047	0,012
-344,650	202,020	-0,027	0,031
-343,635	416,497	0,074	0,116
-342,620	29,038	0,167	-0,104
-341,606	-124,727	0,058	-0,006
-340,591	-136,541	-0,123	0,010
-339,577	800,000	0,036	-0,110
-338,562	110,720	0,030	-0,027
-337,548	48,027	-0,076	-0,052
-336,533	166,855	-0,038	0,040
-335,518	36,314	0,141	0,091
-334,504	-28,402	-0,005	-0,002
-333,489	308,918	0,059	-0,082
-332,475	-94,026	-0,171	0,034
-331,460	5,631	0,050	-0,027
-330,445	-200,000	0,027	-0,093
-329,431	279,263	0,013	0,016
-328,416	-200,000	0,004	0,059
-327,402	-118,005	0,102	0,013
-326,387	-200,000	0,063	-0,294
-325,372	-95,239	-0,082	0,016
-324,358	-119,888	-0,025	0,003
-323,343	490,346	-0,057	0,095
-322,329	-67,154	0,057	0,016
-321,314	-141,131	0,071	0,005
-320,299	-136,312	-0,040	0,003
-319,285	-200,000	0,030	-0,166
-318,270	-200,000	0,011	-0,108
-317,256	533,743	0,062	-0,108
-316,241	800,000	-0,044	-0,100
-315,226	504,639	-0,032	-0,055
-314,212	-4,500	0,106	0,054
-313,197	-149,148	0,163	0,009
-312,183	-117,719	-0,071	0,009
-311,168	18,751	0,007	-0,004
-310,153	800,000	-0,021	-0,068
-309,139	-42,759	-0,094	0,035
-308,124	-52,052	-0,174	0,059
-307,110	800,000	-0,019	-0,041
-306,095	-132,679	0,064	-0,006
-305,080	-200,000	0,005	-0,164
-304,066	162,625	0,067	0,069
-303,051	339,036	-0,065	0,094
-302,037	-200,000	0,003	0,140
-301,022	-200,000	0,043	0,141
-300,008	490,381	-0,043	-0,073
-298,993	-24,203	0,085	-0,037
-297,978	401,836	0,065	-0,100
-296,964	-34,528	-0,167	0,067
-295,949	-159,211	0,076	0,003
-294,935	-200,000	-0,022	-0,098
-293,920	800,000	-0,016	0,046
-292,905	800,000	0,022	0,055
-291,891	-60,083	0,114	-0,035
-290,876	109,899	-0,035	0,031
-289,862	-200,000	-0,005	0,100
-288,847	173,938	0,099	-0,105
-287,832	800,000	0,017	-0,052
-286,818	-127,967	-0,020	-0,002
-285,803	-106,818	-0,042	-0,007
-284,789	-137,893	0,087	0,007
-283,774	100,793	0,044	0,038
-282,759	321,135	0,073	0,102
-281,745	800,000	-0,053	-0,141
-280,730	509,349	0,032	-0,054
-279,716	3,393	0,076	-0,040
-278,701	141,012	-0,047	0,046
-277,686	-200,000	0,038	0,162
-276,672	-200,000	0,026	0,086
-275,657	484,641	-0,061	-0,102
-274,643	365,555	-0,009	-0,013
-273,628	-54,047	0,030	0,010
-272,613	6,541	0,043	-0,023
-271,599	57,952	-0,027	-0,019
-270,584	800,000	0,042	-0,098
-269,570	130,398	0,076	0,072
-268,555	-67,989	-0,083	-0,024
-267,540	-15,928	-0,205	-0,095
-266,526	276,547	-0,048	-0,063
-265,511	-200,000	-0,007	-0,031
-264,497	-20,390	-0,033	0,015
-263,482	-57,231	-0,071	-0,023
-262,467	454,542	0,053	0,086
-261,453	800,000	-0,041	0,131
-260,438	-200,000	0,005	-0,017
-259,424	395,835	-0,063	-0,097
-258,409	108,457	0,071	0,062
-257,395	-171,092	0,118	0,003
-256,380	194,696	-0,011	-0,013
-255,365	-37,731	0,199	-0,077
-254,351	-24,556	0,174	0,075
-253,336	-64,191	-0,049	-0,014
-252,322	35,974	0,029	-0,019
-251,307	-200,000	-0,048	-0,177
-250,292	-200,000	0,006	0,054
-249,278	503,598	0,065	0,110
-248,263	263,280	-0,039	0,050
-247,249	523,666	0,022	0,038
-246,234	-200,000	-0,002	0,023
-245,219	-200,000	-0,007	0,099
-244,205	800,000	-0,020	-0,048
-243,190	-200,000	0,001	0,039
-242,176	271,118	-0,044	-0,057
-241,161	-200,000	0,005	-0,096
-240,146	406,131	0,056	0,086
-239,132	-75,496	-0,083	0,021
-238,117	31,428	-0,010	-0,007
-237,103	178,715	-0,062	0,066
-236,088	-200,000	0,030	-0,157
-235,073	11,155	0,052	0,029
-234,059	800,000	0,023	0,060
-233,044	-106,894	0,083	-0,013
-232,030	-54,954	-0,089	0,029
-231,015	-138,861	-0,067	0,005
-230,000	-200,000	0,001	-0,135
-228,986	-200,000	0,006	0,107
-227,971	92,399	0,147	0,121
-226,957	-138,638	0,124	0,010
-225,942	-19,903	0,104	0,047
-224,927	9,520	0,048	0,026
-223,913	191,043	-0,018	-0,020
-222,898	-147,624	-0,085	0,005
-221,884	800,000	-0,069	-0,156
-220,869	-200,000	0,019	0,115
-219,855	800,000	0,028	0,070
-218,840	415,272	0,065	0,102
-217,825	138,757	-0,045	0,043
-216,811	137,340	-0,057	0,054
-215,796	-47,197	0,168	-0,059
-214,782	372,529	-0,051	-0,076
-213,767	167,046	-0,113	0,117
-212,752	32,046	0,064	0,040
-211,738	550,828	-0,090	0,158
-210,723	-200,000	0,068	0,247
-209,709	-80,810	-0,097	-0,023
-208,694	568,880	0,038	0,068
-207,679	-71,460	-0,029	-0,008
-206,665	-77,382	0,088	0,022
-205,650	-91,145	0,034	-0,007
-204,636	-200,000	-0,019	0,138
-203,621	572,323	-0,043	0,077
-202,606	159,315	-0,066	0,067
-201,592	800,000	-0,042	-0,094
-200,577	-200,000	-0,048	-0,162
-199,563	166,916	-0,104	0,108
-198,548	129,837	-0,059	-0,055
-197,533	-74,808	0,022	-0,006
-196,519	-81,757	0,125	0,030
-195,504	54,158	-0,009	0,006
-194,490	-77,050	0,016	-0,004
-193,475	-200,000	0,001	-0,036
-192,460	-26,857	-0,032	-0,014
-191,446	-159,681	0,164	0,007
-190,431	-47,635	0,153	-0,054
-189,417	748,087	-0,050	-0,099
-188,402	-200,000	-0,004	-0,021
-187,387	-200,000	0,014	0,082
-186,373	-56,320	-0,049	-0,016
-185,358	-58,049	0,064	0,020
-184,344	800,000	-0,023	0,063
-183,329	800,000	-0,033	0,072
-182,315	-52,808	0,006	0,002
-181,300	-200,000	0,015	-0,067
-180,285	-165,368	0,071	-0,002
-179,271	-200,000	0,037	-0,212
-178,256	-120,064	-0,097	-0,012
-177,242	-10,924	-0,031	-0,015
-176,227	800,000	0,039	0,110
-175,212	-115,530	-0,084	-0,011
-174,198	-200,000	-0,020	-0,086
-173,183	-71,821	0,119	-0,032
-172,169	95,349	-0,138	-0,115
-171,154	-95,654	-0,101	0,019
-170,139	-192,805	0,176	0,001
-169,125	800,000	0,057	0,156
-168,110	-47,645	0,135	-0,047
-167,096	-200,000	0,038	0,129
-166,081	677,747	0,078	0,148
-165,066	140,758	-0,066	-0,063
-164,052	-200,000	0,005	-0,077
-163,037	800,000	-0,023	0,061
-162,023	-116,348	-0,085	-0,011
-161,008	-200,000	0,017	0,105
-159,993	-61,625	-0,065	-0,020
-158,979	-200,000	0,005	-0,106
-157,964	199,549	-0,041	0,046
-156,950	-102,919	-0,140	-0,024
-155,935	-200,000	0,010	-0,122
-154,920	-175,359	0,104	-0,002
-153,906	295,450	0,038	-0,051
-152,891	546,401	-0,013	0,023
-151,877	-200,000	0,010	-0,052
-150,862	613,962	0,021	-0,039
-149,847	-200,000	-0,047	0,177
-148,833	-165,785	0,117	0,004
-147,818	800,000	0,058	0,146
-146,804	-200,000	0,009	0,049
-145,789	513,649	0,058	0,098
-144,775	543,914	0,076	0,133
-143,760	778,437	-0,060	-0,120
-142,745	29,922	0,066	-0,041
-141,731	-200,000	0,013	-0,104
-140,716	-28,110	0,071	0,030
-139,702	255,642	0,063	0,079
-138,687	-65,699	-0,159	-0,046
-137,672	800,000	-0,013	-0,040
-136,658	-130,102	0,141	0,014
-135,643	-200,000	-0,016	-0,124
-134,629	-200,000	0,029	-0,106
-133,614	-11,932	-0,015	-0,007
-132,599	-200,000	-0,008	0,035
-131,585	-148,825	0,059	0,003
-130,570	800,000	-0,007	-0,016
-129,556	-102,164	0,108	-0,019
-128,541	-200,000	0,016	-0,056
-127,526	-200,000	0,026	-0,135
-126,512	-93,836	0,031	0,006
-125,497	82,142	0,174	0,137
-124,483	251,381	0,022	-0,028
-123,468	-115,073	-0,060	-0,008
-122,453	299,867	-0,063	0,084
-121,439	11,564	0,072	-0,040
-120,424	800,000	0,030	-0,092
-119,410	-94,306	-0,075	-0,015
