DTS Sentinel unit serial number:	SN410029Multiplexer serial number:	ORYXHardware model number:	OX2-SRSoftware version number:	ORYX F/W v4,00 Oryx Data Collector v3.7.2.0data status	okinstallation	B6 Nyhavnadifferential loss correction	single-endedforward channel	channel 2reverse channel	N/Adate	2023/12/09time	08:55:08forward acquisition time	300,00reverse acquisition time	0,00gamma	499,1914k internal	0,3138k external	0,3138temperature offset calibration	1,0000default loss term (dB/km)	0,3820temperature slope calibration	1,0000multiplexer offset coefficient	1,0000multiplexer slope coefficient	1,0000fibre end	0,00T internal ref (°C)	18,45T ext. ref 1 (°C)	1,95T ext. ref 2 (°C)	1,96length (m)	temperature (°C)	Stokes	anti-Stokes-744,400	216,471	0,102	-0,121
-743,385	-58,970	-0,156	-0,050
-742,371	-160,524	0,139	-0,005
-741,356	62,887	-0,185	0,137
-740,342	-10,403	0,138	0,068
-739,327	-169,347	-0,321	0,009
-738,312	-200,000	0,074	0,000
-737,298	-153,902	-0,424	-0,021
-736,283	800,000	0,077	0,232
-735,269	34,579	-0,139	0,090
-734,254	84,540	0,061	0,050
-733,239	-126,694	-0,441	-0,048
-732,225	-54,272	0,286	-0,096
-731,210	-121,809	-0,015	0,002
-730,196	131,887	-0,044	-0,042
-729,181	-65,981	-0,075	-0,022
-728,167	-200,000	-0,003	-0,034
-727,152	118,374	0,046	-0,042
-726,137	-100,460	-0,101	-0,018
-725,123	-132,325	-0,149	0,014
-724,108	160,208	-0,033	-0,034
-723,094	800,000	-0,064	-0,150
-722,079	-200,000	0,025	-0,120
-721,064	-99,043	0,057	-0,011
-720,050	-105,686	0,050	-0,008
-719,035	24,655	-0,063	-0,038
-718,021	150,855	-0,061	-0,061
-717,006	86,231	-0,171	-0,139
-715,991	800,000	-0,085	-0,195
-714,977	-1,663	0,028	-0,015
-713,962	-18,938	-0,110	0,051
-712,948	800,000	0,056	0,138
-711,933	-74,833	0,049	0,013
-710,918	27,913	-0,040	-0,025
-709,904	-200,000	-0,009	-0,036
-708,889	-50,990	0,032	-0,011
-707,875	139,324	-0,167	-0,163
-706,860	133,831	0,035	0,034
-705,845	-135,368	-0,139	-0,012
-704,831	-146,025	0,143	-0,009
-703,816	37,986	0,069	-0,045
-702,802	-84,844	0,090	0,021
-701,787	66,708	-0,069	-0,052
-700,772	-69,666	-0,132	0,037
-699,758	-200,000	0,015	0,074
-698,743	33,880	0,014	0,009
-697,729	-60,006	0,118	-0,037
-696,714	19,145	-0,141	0,083
-695,699	-187,096	-0,058	-0,001
-694,685	-200,000	-0,028	0,135
-693,670	69,317	-0,096	-0,073
-692,656	-109,257	0,107	-0,017
-691,641	434,497	0,058	-0,093
-690,627	-69,423	0,107	0,030
-689,612	403,514	0,128	-0,200
-688,597	-200,000	0,026	-0,124
-687,583	34,528	-0,081	-0,053
-686,568	-200,000	-0,032	-0,132
-685,554	205,765	-0,101	-0,116
-684,539	163,630	-0,026	-0,028
-683,524	132,088	-0,063	-0,060
-682,510	-148,974	0,113	-0,007
-681,495	65,238	-0,040	-0,030
-680,481	216,427	-0,012	0,014
-679,466	-200,000	0,021	-0,081
-678,451	98,934	0,085	-0,073
-677,437	597,356	-0,107	0,197
-676,422	-200,000	0,031	0,106
-675,408	54,270	-0,067	-0,047
-674,393	-200,000	0,002	-0,013
-673,378	493,223	0,024	0,041
-672,364	-92,991	0,017	-0,003
-671,349	-200,000	0,025	-0,152
-670,335	54,156	-0,081	-0,058
-669,320	-68,148	0,017	0,005
-668,305	-200,000	0,001	-0,039
-667,291	-136,511	-0,097	-0,008
-666,276	-7,752	0,061	-0,030
-665,262	800,000	-0,046	-0,115
-664,247	800,000	-0,033	-0,096
-663,232	800,000	-0,058	-0,134
-662,218	800,000	0,051	0,142
-661,203	800,000	0,007	0,021
-660,189	360,941	-0,080	0,120
-659,174	113,049	0,030	-0,027
-658,159	-200,000	-0,001	-0,081
-657,145	-37,234	-0,079	-0,031
-656,130	-200,000	-0,007	0,069
-655,116	-47,268	0,116	-0,041
-654,101	-83,866	-0,156	-0,036
-653,086	-200,000	0,029	-0,120
-652,072	285,246	-0,019	0,026
-651,057	-200,000	-0,006	-0,063
-650,043	73,969	-0,042	0,033
-649,028	-200,000	0,028	-0,179
-648,014	275,081	-0,039	-0,051
-646,999	-89,831	0,083	0,018
-645,984	-28,677	0,144	0,061
-644,970	-111,883	-0,248	-0,037
-643,955	118,804	0,088	-0,081
-642,941	-70,329	-0,094	-0,026
-641,926	800,000	-0,069	-0,177
-640,911	50,822	0,067	-0,047
-639,897	-200,000	0,006	0,043
-638,882	800,000	-0,015	-0,041
-637,868	14,769	-0,153	0,088
-636,853	-200,000	0,000	-0,158
-635,838	203,451	0,009	-0,010
-634,824	800,000	-0,041	-0,118
-633,809	145,366	0,103	-0,102
-632,795	513,509	0,083	-0,143
-631,780	-200,000	-0,006	-0,078
-630,765	-191,800	0,088	0,001
-629,751	-101,473	-0,129	-0,023
-628,736	89,852	-0,043	-0,036
-627,722	-200,000	0,001	0,016
-626,707	316,535	-0,059	-0,083
-625,692	-63,202	0,051	0,015
-624,678	-200,000	0,027	0,198
-623,663	-136,538	0,031	0,003
-622,649	-198,955	-0,146	-0,001
-621,634	-8,039	-0,067	-0,033
-620,619	-200,000	0,029	-0,115
-619,605	-56,334	-0,080	0,026
-618,590	93,978	0,148	0,124
-617,576	8,766	-0,035	0,019
-616,561	-55,652	-0,115	-0,038
-615,546	-200,000	-0,018	-0,157
-614,532	-54,367	-0,099	0,033
-613,517	-153,425	-0,112	0,006
-612,503	-200,000	0,024	-0,086
-611,488	68,020	0,027	0,020
-610,474	130,178	0,046	0,044
-609,459	-183,310	0,037	0,000
-608,444	644,799	0,050	-0,095
-607,430	-130,179	-0,161	0,016
-606,415	78,473	0,035	-0,028
-605,401	7,817	0,027	-0,015
-604,386	800,000	-0,012	-0,029
-603,371	260,086	0,087	0,111
-602,357	680,164	-0,060	-0,116
-601,342	-26,053	-0,097	-0,042
-600,328	-200,000	-0,018	-0,097
-599,313	136,433	0,082	0,079
-598,298	800,000	-0,007	0,022
-597,284	37,268	0,105	0,069
-596,269	-50,323	0,081	0,028
-595,255	226,911	-0,085	-0,103
-594,240	-55,700	-0,089	0,029
-593,225	-200,000	-0,002	0,035
-592,211	-30,708	0,060	-0,025
-591,196	471,807	0,021	0,034
-590,182	800,000	-0,049	0,130
-589,167	-200,000	-0,015	-0,052
-588,152	6,273	-0,066	-0,036
-587,138	138,669	0,049	0,048
-586,123	71,461	-0,096	-0,073
-585,109	-200,000	-0,003	-0,085
-584,094	105,797	0,044	-0,038
-583,079	23,468	0,147	-0,089
-582,065	-71,662	-0,057	-0,016
-581,050	70,800	0,070	-0,054
-580,036	-200,000	0,015	-0,056
-579,021	-64,175	-0,078	0,023
-578,006	-82,165	-0,125	-0,030
-576,992	-2,192	0,180	0,093
-575,977	800,000	0,019	0,055
-574,963	-0,340	-0,052	0,027
-573,948	38,118	0,170	0,111
-572,934	654,087	0,061	0,116
-571,919	-45,272	-0,124	-0,045
-570,904	800,000	-0,018	-0,040
-569,890	29,571	0,051	-0,032
-568,875	-200,000	-0,031	-0,114
-567,861	568,111	0,026	0,046
-566,846	-108,716	0,122	0,019
-565,831	-141,429	0,066	0,005
-564,817	-118,148	-0,079	-0,010
-563,802	-10,564	-0,143	-0,069
-562,788	-23,423	-0,190	-0,084
-561,773	800,000	0,015	-0,045
-560,758	28,057	0,096	-0,060
-559,744	-12,409	0,078	-0,037
-558,729	319,069	-0,029	0,041
-557,715	800,000	-0,004	0,012
-556,700	-200,000	-0,047	-0,241
-555,685	9,341	0,122	-0,068
-554,671	78,542	-0,136	-0,107
-553,656	-23,671	0,284	0,125
-552,642	251,050	-0,084	0,106
-551,627	-137,302	-0,111	0,009
-550,612	26,358	0,108	-0,066
-549,598	-200,000	-0,020	-0,166
-548,583	-33,691	-0,124	0,050
-547,569	-50,075	0,106	0,037
-546,554	800,000	-0,045	0,126
-545,539	-16,609	-0,108	0,050
-544,525	-200,000	0,010	0,069
-543,510	-130,913	-0,061	-0,006
-542,496	8,326	0,027	-0,015
-541,481	19,469	0,073	0,043
-540,466	-200,000	-0,008	-0,028
-539,452	800,000	-0,027	0,087
-538,437	221,524	0,029	-0,035
-537,423	-90,455	-0,062	-0,013
-536,408	-9,029	-0,080	0,039
-535,393	-4,704	-0,079	0,040
-534,379	75,114	-0,120	-0,093
-533,364	72,925	-0,065	-0,050
-532,350	342,589	-0,056	0,081
-531,335	-200,000	0,020	-0,071
-530,321	-123,830	0,036	-0,004
-529,306	-46,362	0,051	0,018
-528,291	-176,335	-0,042	0,001
-527,277	394,239	0,051	0,079
-526,262	26,924	-0,099	0,061
-525,248	-60,016	0,082	0,026
-524,233	-11,255	0,114	-0,055
-523,218	-54,788	-0,039	0,013
-522,204	92,401	0,070	-0,058
-521,189	-200,000	-0,033	-0,111
-520,175	45,222	-0,071	-0,048
-519,160	111,552	-0,075	-0,066
-518,145	205,307	0,085	-0,097
-517,131	395,312	-0,124	0,191
-516,116	-91,213	0,140	-0,029
-515,102	603,479	-0,055	0,102
-514,087	87,417	-0,074	0,060
-513,072	-158,304	-0,073	-0,003
-512,058	-200,000	0,004	0,042
-511,043	211,902	-0,081	-0,094
-510,029	26,967	0,051	0,031
-509,014	-51,259	-0,031	0,010
-507,999	75,298	0,016	-0,012
-506,985	-200,000	0,014	-0,057
-505,970	24,103	-0,058	0,035
-504,956	-128,880	-0,069	0,007
-503,941	-200,000	-0,011	0,108
-502,926	800,000	0,035	0,107
-501,912	56,855	-0,055	0,039
-500,897	65,728	-0,086	0,064
-499,883	-31,534	-0,093	0,038
-498,868	103,406	-0,043	-0,037
-497,853	-200,000	-0,011	-0,035
-496,839	800,000	0,011	0,035
-495,824	-200,000	-0,002	-0,050
-494,810	-200,000	0,011	0,059
-493,795	268,411	0,107	0,138
-492,781	-165,094	-0,025	-0,001
-491,766	-142,151	-0,124	0,009
-490,751	173,624	0,033	0,035
-489,737	-200,000	-0,015	0,075
-488,722	37,865	-0,029	0,019
-487,708	72,164	0,091	0,070
-486,693	800,000	0,019	0,056
-485,678	161,435	0,068	0,070
-484,664	87,565	-0,094	0,077
-483,649	-127,858	-0,010	-0,001
-482,635	-200,000	-0,003	0,103
-481,620	18,195	0,072	0,042
-480,605	73,826	-0,021	0,016
-479,591	800,000	-0,001	-0,003
-478,576	-77,564	-0,066	0,017
-477,562	422,543	0,126	-0,199
-476,547	-200,000	-0,014	-0,172
-475,532	673,559	0,013	-0,026
-474,518	449,819	0,092	0,149
-473,503	121,718	0,023	-0,021
-472,489	95,917	-0,100	0,084
-471,474	46,892	0,079	0,054
-470,459	170,209	-0,036	0,038
-469,445	492,238	-0,072	-0,121
-468,430	-200,000	0,010	-0,048
-467,416	-103,578	-0,183	-0,031
-466,401	800,000	0,011	-0,033
-465,386	436,513	0,066	-0,106
-464,372	-200,000	-0,046	-0,000
-463,357	-60,825	-0,145	0,045
-462,343	513,844	0,041	-0,071
-461,328	-70,495	-0,057	-0,016
-460,313	800,000	0,033	-0,074
-459,299	393,574	0,026	-0,039
-458,284	800,000	-0,015	-0,047
-457,270	74,174	-0,049	0,038
-456,255	142,124	-0,114	0,111
-455,241	47,859	0,045	0,031
-454,226	-79,277	-0,071	0,018
-453,211	-114,877	-0,042	0,006
-452,197	107,095	0,037	-0,032
-451,182	-200,000	0,003	0,072
-450,168	449,266	0,052	0,084
-449,153	125,112	0,097	-0,090
-448,138	-139,125	0,072	-0,006
-447,124	2,599	-0,113	-0,060
-446,109	121,447	-0,052	-0,047
-445,095	-7,283	0,134	0,067
-444,080	-61,624	-0,062	-0,019
-443,065	-200,000	0,014	0,054
-442,051	128,476	-0,100	0,093
-441,036	-200,000	-0,000	0,100
-440,022	112,128	0,025	0,022
-439,007	-66,338	-0,110	0,032
-437,992	800,000	0,057	0,150
-436,978	800,000	0,034	-0,103
-435,963	97,824	0,015	0,012
-434,949	0,167	-0,058	0,030
-433,934	-200,000	-0,004	-0,064
-432,919	-200,000	-0,004	-0,045
-431,905	-200,000	0,025	-0,097
-430,890	800,000	0,030	0,096
-429,876	241,609	0,086	-0,105
-428,861	230,504	0,016	0,020
-427,846	-65,128	-0,107	0,031
-426,832	-160,024	0,082	-0,003
-425,817	-200,000	-0,006	-0,137
-424,803	-200,000	-0,017	0,060
-423,788	-200,000	0,026	-0,202
-422,773	-11,771	0,094	-0,045
-421,759	-200,000	-0,011	0,056
-420,744	61,950	0,100	-0,073
-419,730	417,292	0,096	-0,151
-418,715	318,343	0,030	0,042
-417,701	-200,000	-0,013	0,108
-416,686	242,411	0,084	0,103
-415,671	-10,996	0,132	0,064
-414,657	-66,068	0,027	-0,008
-413,642	-66,541	-0,041	0,012
-412,628	216,212	-0,113	-0,132
-411,613	-200,000	-0,029	-0,105
-410,598	-200,000	0,010	-0,159
-409,584	-200,000	0,003	-0,080
-408,569	800,000	-0,040	0,106
-407,555	110,186	0,020	-0,017
-406,540	381,313	-0,024	-0,036
-405,525	-200,000	-0,027	-0,121
-404,511	459,508	-0,139	-0,227
-403,496	-200,000	0,010	0,062
-402,482	-200,000	-0,001	0,074
-401,467	-32,658	-0,084	0,034
-400,452	-200,000	0,033	-0,148
-399,438	-38,138	0,064	-0,025
-398,423	21,124	0,092	-0,054
-397,409	-200,000	0,000	-0,082
-396,394	-34,703	0,094	0,038
-395,379	-47,450	-0,115	0,041
-394,365	-4,897	0,055	-0,028
-393,350	89,027	0,128	0,104
-392,336	385,685	-0,041	0,061
-391,321	-118,918	0,061	-0,008
-390,306	31,489	-0,100	-0,063
-389,292	-200,000	0,023	-0,112
-388,277	-170,384	0,079	0,002
-387,263	-198,617	0,089	-0,000
-386,248	231,850	0,043	-0,052
-385,233	-200,000	0,021	-0,179
-384,219	-99,051	-0,062	-0,011
-383,204	117,557	-0,154	-0,138
-382,190	-118,795	0,045	-0,006
-381,175	-27,904	0,075	0,032
-380,160	172,446	0,056	0,059
-379,146	499,871	-0,067	0,113
-378,131	-200,000	0,003	-0,016
-377,117	596,002	-0,041	0,075
-376,102	-130,632	-0,058	-0,006
-375,088	-200,000	-0,027	0,089
-374,073	-200,000	-0,001	-0,086
-373,058	172,194	-0,037	0,039
-372,044	-200,000	0,006	0,024
-371,029	-19,160	0,033	-0,015
-370,015	-9,240	0,103	0,050
-369,000	26,243	-0,036	0,022
-367,985	-158,437	-0,035	0,001
-366,971	-92,446	0,098	-0,020
-365,956	131,935	-0,042	-0,039
-364,942	625,649	0,034	-0,063
-363,927	468,186	-0,049	-0,081
-362,912	800,000	0,026	0,059
-361,898	-200,000	-0,048	0,259
-360,883	86,436	0,039	0,031
-359,869	-200,000	0,003	0,019
-358,854	-200,000	0,027	0,108
-357,839	25,545	0,048	0,029
-356,825	-54,646	-0,108	0,035
-355,810	-200,000	0,003	-0,013
-354,796	56,452	-0,049	0,035
-353,781	-200,000	-0,004	-0,160
-352,766	110,724	-0,090	0,079
-351,752	389,551	0,025	0,038
-350,737	-200,000	-0,001	0,047
-349,723	-60,699	-0,081	-0,025
-348,708	0,483	-0,098	0,051
-347,693	800,000	0,053	0,122
-346,679	442,766	-0,115	-0,184
-345,664	112,227	0,103	-0,091
-344,650	45,890	0,185	-0,125
-343,635	75,929	0,059	-0,046
-342,620	-159,474	0,025	-0,001
-341,606	-125,646	-0,107	0,012
-340,591	-200,000	0,017	0,064
-339,577	-35,230	-0,149	0,059
-338,562	-200,000	0,036	0,117
-337,548	-200,000	-0,022	-0,114
-336,533	246,292	-0,103	0,127
-335,518	25,016	-0,110	0,067
-334,504	624,291	0,063	0,116
-333,489	30,314	-0,041	0,025
-332,475	-113,070	-0,032	0,005
-331,460	17,174	-0,174	-0,101
-330,445	-169,843	-0,010	-0,000
-329,431	-74,010	-0,024	0,006
-328,416	13,117	0,038	0,021
-327,402	107,852	0,133	0,116
-326,387	145,266	0,117	0,115
-325,372	659,068	-0,096	0,181
-324,358	126,824	-0,121	-0,112
-323,343	-101,295	0,089	-0,016
-322,329	-125,430	-0,163	0,018
-321,314	314,025	0,077	-0,106
-320,299	-75,567	0,053	-0,014
-319,285	-57,818	-0,034	0,011
-318,270	359,487	0,046	-0,068
-317,256	-200,000	-0,000	-0,183
-316,241	-23,516	0,089	0,039
-315,226	-62,183	0,054	-0,016
-314,212	-107,953	0,179	0,028
-313,197	-200,000	-0,041	0,159
-312,183	800,000	-0,029	-0,058
-311,168	-200,000	-0,006	0,027
-310,153	-35,157	-0,124	0,049
-309,139	800,000	-0,026	0,072
-308,124	-41,396	0,167	0,062
-307,110	118,422	0,080	0,072
-306,095	-117,738	0,072	-0,009
-305,080	-150,625	0,122	-0,007
-304,066	231,499	-0,045	-0,054
-303,051	-53,930	0,066	0,022
-302,037	198,854	0,023	-0,026
-301,022	214,176	0,039	0,045
-300,008	12,704	0,075	-0,042
-298,993	-200,000	0,002	0,035
-297,978	-200,000	0,004	-0,086
-296,964	38,284	-0,038	-0,025
-295,949	-137,642	-0,197	0,016
-294,935	-114,139	-0,057	0,008
-293,920	-85,017	-0,039	-0,009
-292,905	-101,006	0,111	0,020
-291,891	-12,005	-0,112	0,053
-290,876	-200,000	-0,005	0,043
-289,862	-1,000	-0,103	0,053
-288,847	701,856	0,110	0,212
-287,832	168,261	0,043	0,045
-286,818	-21,696	-0,171	0,075
-285,803	36,752	0,060	-0,038
-284,789	-200,000	-0,022	0,178
-283,774	-15,734	0,152	0,070
-282,759	-39,176	-0,030	-0,011
-281,745	800,000	0,007	0,017
-280,730	373,779	-0,019	-0,028
-279,716	-200,000	-0,005	-0,087
-278,701	286,987	-0,046	0,061
-277,686	-110,850	0,134	0,020
-276,672	800,000	-0,046	0,107
-275,657	41,897	0,042	0,028
-274,643	-159,572	-0,151	-0,006
-273,628	-200,000	-0,002	-0,052
-272,613	31,511	0,108	-0,068
-271,599	96,702	-0,035	0,029
-270,584	800,000	-0,022	0,060
-269,570	50,716	0,108	-0,074
-268,555	-200,000	0,001	-0,124
-267,540	-14,513	-0,071	-0,033
-266,526	-200,000	-0,010	-0,115
-265,511	800,000	0,026	0,057
-264,497	10,531	-0,061	-0,034
-263,482	800,000	0,028	-0,066
-262,467	73,143	0,029	0,022
-261,453	-200,000	0,004	0,031
-260,438	800,000	0,049	-0,154
-259,424	506,139	0,031	-0,052
-258,409	611,623	-0,055	0,101
-257,395	790,838	-0,036	0,072
-256,380	-110,572	-0,052	0,008
-255,365	89,174	0,038	0,031
-254,351	-88,815	0,122	0,026
-253,336	-107,982	-0,048	0,008
-252,322	800,000	-0,019	-0,059
-251,307	-200,000	-0,002	0,015
-250,292	312,068	0,049	-0,068
-249,278	-38,811	0,112	0,043
-248,263	-200,000	0,001	0,080
-247,249	-123,893	-0,080	-0,009
-246,234	8,669	0,107	0,058
-245,219	113,094	0,016	0,014
-244,205	47,664	-0,158	-0,107
-243,190	800,000	0,025	0,078
-242,176	-200,000	0,017	-0,106
-241,161	-200,000	0,004	-0,172
-240,146	196,886	0,021	-0,024
-239,132	76,876	0,042	-0,032
-238,117	36,173	-0,006	0,004
-237,103	195,567	0,023	0,025
-236,088	631,342	0,039	0,073
-235,073	-164,364	0,057	-0,002
-234,059	-200,000	-0,040	0,152
-233,044	48,716	-0,045	0,031
-232,030	294,450	0,064	0,086
-231,015	-110,445	-0,146	-0,022
-230,000	-50,689	0,062	-0,021
-228,986	800,000	0,029	0,081
-227,971	800,000	0,035	-0,112
-226,957	-200,000	0,026	0,165
-225,942	-200,000	0,030	0,147
-224,927	-130,683	0,052	-0,005
-223,913	-18,866	-0,052	0,023
-222,898	86,286	-0,113	-0,090
-221,884	141,500	-0,069	-0,066
-220,869	-39,793	0,064	0,024
-219,855	45,981	0,087	0,059
-218,840	-200,000	-0,004	0,037
-217,825	244,929	-0,049	-0,060
-216,811	-200,000	0,032	-0,116
-215,796	-89,536	-0,055	0,012
-214,782	-200,000	0,003	0,046
-213,767	337,493	0,051	0,072
-212,752	800,000	0,018	-0,041
-211,738	-104,586	0,077	-0,013
-210,723	800,000	-0,003	0,010
-209,709	-200,000	0,006	0,139
-208,694	3,419	-0,047	-0,025
-207,679	6,203	0,039	0,021
-206,665	-200,000	0,018	0,097
-205,650	133,088	0,066	0,062
-204,636	350,685	0,006	-0,008
-203,621	-86,258	-0,045	0,010
-202,606	-200,000	-0,014	0,164
-201,592	800,000	-0,039	0,105
-200,577	-78,029	-0,056	-0,014
-199,563	-99,788	0,014	-0,002
-198,548	243,142	-0,065	0,079
-197,533	-68,309	0,059	0,017
-196,519	241,501	0,037	0,045
-195,504	-98,487	-0,061	0,011
-194,490	-83,583	0,078	-0,018
-193,475	-126,947	-0,044	-0,005
-192,460	-42,772	0,041	-0,015
-191,446	-200,000	-0,010	-0,047
-190,431	-9,692	0,161	0,078
-189,417	-50,424	-0,110	0,038
-188,402	58,776	0,006	-0,004
-187,387	-200,000	0,007	-0,063
-186,373	-124,730	-0,085	-0,009
-185,358	-200,000	-0,010	0,052
-184,344	456,445	0,048	0,077
-183,329	78,083	0,086	-0,067
-182,315	-47,624	0,111	-0,039
-181,300	-45,390	0,052	0,019
-180,285	-15,070	0,089	-0,041
-179,271	-68,910	0,056	0,016
-178,256	-90,862	0,129	-0,027
-177,242	-200,000	0,012	-0,050
-176,227	544,053	0,053	0,093
-175,212	82,852	0,069	-0,054
-174,198	53,178	0,068	0,047
-173,183	474,621	0,037	0,061
-172,169	-100,469	-0,058	-0,010
-171,154	-30,272	0,031	-0,013
-170,139	-115,882	-0,156	-0,021
-169,125	-200,000	-0,017	-0,174
-168,110	29,715	-0,014	-0,009
-167,096	800,000	0,063	0,145
-166,081	19,667	0,061	0,036
-165,066	27,786	0,087	0,053
-164,052	99,961	-0,047	0,040
-163,037	82,979	0,084	-0,066
-162,023	337,520	0,060	-0,084
-161,008	-200,000	-0,009	-0,047
-159,993	68,696	0,061	0,045
-158,979	-131,303	-0,177	0,017
-157,964	203,576	0,051	-0,057
-156,950	738,223	-0,054	-0,106
-155,935	103,275	-0,038	0,032
-154,920	-55,468	0,129	0,042
-153,906	-96,658	0,062	-0,012
-152,891	123,490	-0,101	-0,092
-151,877	259,792	0,040	-0,050
-150,862	800,000	-0,013	0,033
-149,847	311,746	0,016	-0,022
-148,833	-98,870	0,098	-0,018
-147,818	-62,731	0,084	-0,025
-146,804	-104,025	0,037	-0,006
-145,789	143,287	0,030	0,029
-144,775	188,275	0,062	-0,068
-143,760	-146,821	-0,103	0,006
-142,745	74,183	0,054	-0,041
-141,731	-7,543	0,074	0,036
-140,716	489,996	0,056	0,093
-139,702	-200,000	-0,027	0,090
-138,687	7,977	0,065	0,035
-137,672	-200,000	0,021	-0,102
-136,658	800,000	-0,061	-0,127
-135,643	-44,964	0,039	0,014
-134,629	-200,000	0,025	-0,165
-133,614	133,139	0,035	0,033
-132,599	-36,550	0,111	0,043
-131,585	363,058	0,048	-0,070
-130,570	183,912	-0,063	-0,067
-129,556	-200,000	0,026	-0,149
-128,541	800,000	-0,027	-0,085
-127,526	344,592	-0,062	-0,088
-126,512	169,149	0,122	0,126
-125,497	-200,000	0,023	0,090
-124,483	721,111	-0,072	0,139
-123,468	193,440	0,039	-0,043
-122,453	800,000	-0,020	-0,040
-121,439	14,733	0,078	0,044
-120,424	-200,000	-0,028	0,145
-119,410	-200,000	-0,006	0,056
-118,395	-168,710	-0,078	0,002
