DTS Sentinel unit serial number:	SN410029Multiplexer serial number:	ORYXHardware model number:	OX2-SRSoftware version number:	ORYX F/W v4,00 Oryx Data Collector v3.7.2.0data status	okinstallation	B6 Nyhavnadifferential loss correction	single-endedforward channel	channel 2reverse channel	N/Adate	2023/12/07time	14:00:08forward acquisition time	300,00reverse acquisition time	0,00gamma	499,1914k internal	0,3199k external	0,3199temperature offset calibration	1,0000default loss term (dB/km)	0,3820temperature slope calibration	1,0000multiplexer offset coefficient	1,0000multiplexer slope coefficient	1,0000fibre end	0,00T internal ref (°C)	13,08T ext. ref 1 (°C)	-1,69T ext. ref 2 (°C)	-1,66length (m)	temperature (°C)	Stokes	anti-Stokes-744,400	-86,455	0,057	-0,013
-743,385	-155,941	-0,246	0,011
-742,371	34,279	0,114	0,073
-741,356	-186,458	-0,249	-0,003
-740,342	800,000	0,068	0,215
-739,327	-136,761	-0,297	0,025
-738,312	419,211	0,043	-0,067
-737,298	-163,068	-0,421	-0,015
-736,283	54,442	0,075	-0,053
-735,269	-80,401	-0,244	-0,059
-734,254	13,917	0,085	0,048
-733,239	-33,134	-0,485	-0,195
-732,225	463,842	0,007	0,011
-731,210	117,971	-0,033	0,030
-730,196	481,825	0,007	-0,011
-729,181	-7,126	-0,052	-0,026
-728,167	-70,083	-0,023	0,006
-727,152	-200,000	-0,008	0,078
-726,137	119,385	-0,081	0,073
-725,123	-200,000	-0,005	0,054
-724,108	-85,930	-0,067	-0,015
-723,094	-32,531	-0,124	0,050
-722,079	92,422	-0,057	-0,046
-721,064	-200,000	0,015	0,062
-720,050	505,381	-0,031	0,052
-719,035	800,000	0,028	0,070
-718,021	-176,931	0,014	0,000
-717,006	157,975	-0,086	-0,087
-715,991	-81,141	0,153	0,036
-714,977	740,193	-0,028	-0,054
-713,962	-46,008	-0,096	0,034
-712,948	760,124	-0,025	0,049
-711,933	-200,000	-0,004	0,038
-710,918	420,951	-0,042	-0,065
-709,904	-97,943	-0,092	0,017
-708,889	-106,280	-0,094	0,015
-707,875	-114,965	0,141	-0,019
-706,860	-83,188	0,093	0,022
-705,845	137,280	0,234	0,222
-704,831	559,592	-0,032	0,056
-703,816	-144,008	-0,046	-0,003
-702,802	-56,450	-0,145	-0,046
-701,787	-200,000	-0,010	0,049
-700,772	800,000	0,047	-0,102
-699,758	78,410	0,026	0,020
-698,743	0,977	0,085	-0,044
-697,729	306,013	0,067	0,091
-696,714	800,000	0,058	0,122
-695,699	-162,537	-0,090	0,003
-694,685	-154,077	-0,090	-0,004
-693,670	-118,417	-0,094	0,012
-692,656	186,193	0,127	-0,137
-691,641	-63,289	-0,090	0,027
-690,627	-200,000	0,004	0,024
-689,612	110,868	0,024	-0,021
-688,597	-200,000	0,015	-0,068
-687,583	800,000	-0,039	-0,095
-686,568	-200,000	0,022	-0,198
-685,554	-94,260	-0,048	-0,009
-684,539	560,056	-0,049	0,086
-683,524	0,757	0,026	-0,013
-682,510	-200,000	0,000	0,039
-681,495	263,638	-0,095	-0,120
-680,481	-4,796	0,101	0,051
-679,466	-119,203	0,101	-0,013
-678,451	112,051	-0,030	0,026
-677,437	-45,944	0,043	-0,015
-676,422	155,667	0,054	0,054
-675,408	800,000	0,015	-0,039
-674,393	235,402	0,094	-0,113
-673,378	-9,575	0,077	-0,037
-672,364	189,144	0,107	-0,117
-671,349	137,740	0,058	0,055
-670,335	-200,000	0,003	-0,044
-669,320	-130,162	0,100	-0,010
-668,305	78,538	-0,022	-0,017
-667,291	-31,275	0,055	0,022
-666,276	124,890	-0,019	0,017
-665,262	65,186	-0,095	0,070
-664,247	-21,621	-0,068	0,030
-663,232	38,485	0,047	0,030
-662,218	-75,186	-0,051	0,013
-661,203	-200,000	0,016	0,111
-660,189	181,983	-0,053	0,056
-659,174	-150,901	0,093	0,005
-658,159	159,023	-0,069	-0,069
-657,145	-138,492	-0,119	0,009
-656,130	326,970	-0,026	0,036
-655,116	364,148	0,067	-0,098
-654,101	-200,000	-0,005	0,065
-653,086	-86,290	0,050	0,011
-652,072	-108,091	-0,043	0,007
-651,057	290,992	-0,031	-0,041
-650,043	99,710	-0,029	0,024
-649,028	800,000	-0,018	-0,037
-648,014	356,480	0,116	0,168
-646,999	-53,798	0,038	0,012
-645,984	273,568	-0,032	-0,041
-644,970	-200,000	0,012	-0,079
-643,955	388,434	-0,092	-0,139
-642,941	-114,847	-0,145	0,020
-641,926	6,696	-0,067	0,036
-640,911	-200,000	-0,043	0,151
-639,897	-200,000	-0,017	0,131
-638,882	-200,000	-0,012	0,040
-637,868	-0,275	-0,075	-0,039
-636,853	712,298	0,049	-0,095
-635,838	273,574	-0,022	-0,029
-634,824	-67,555	-0,009	-0,002
-633,809	-66,706	0,076	0,022
-632,795	-5,656	0,065	0,032
-631,780	-200,000	0,033	-0,140
-630,765	-200,000	0,020	-0,143
-629,751	268,939	-0,028	0,035
-628,736	97,038	-0,028	0,023
-627,722	396,509	0,034	0,051
-626,707	-125,069	0,106	-0,012
-625,692	316,600	0,075	0,103
-624,678	96,762	-0,054	0,045
-623,663	-56,969	0,070	0,022
-622,649	60,814	-0,035	0,025
-621,634	-69,488	-0,050	0,014
-620,619	-200,000	0,009	0,096
-619,605	74,599	-0,080	0,061
-618,590	-200,000	0,021	-0,170
-617,576	652,807	-0,051	0,095
-616,561	-200,000	0,011	0,061
-615,546	15,118	-0,067	0,038
-614,532	359,357	-0,046	-0,066
-613,517	167,824	0,042	-0,044
-612,503	-200,000	0,016	0,055
-611,488	800,000	-0,011	0,032
-610,474	800,000	-0,024	0,060
-609,459	-200,000	0,018	-0,123
-608,444	-200,000	-0,019	0,120
-607,430	-8,710	-0,010	-0,005
-606,415	-136,545	-0,094	-0,008
-605,401	800,000	-0,029	-0,069
-604,386	-162,978	-0,071	-0,002
-603,371	800,000	-0,054	0,120
-602,357	-52,904	0,119	0,039
-601,342	143,208	-0,066	-0,064
-600,328	372,409	-0,016	-0,024
-599,313	-10,121	0,099	-0,047
-598,298	168,175	-0,053	0,054
-597,284	262,373	0,160	0,201
-596,269	22,078	0,163	-0,096
-595,255	149,668	-0,064	-0,063
-594,240	-13,645	-0,104	-0,048
-593,225	-11,752	0,142	-0,067
-592,211	535,222	-0,032	-0,055
-591,196	297,862	-0,076	-0,101
-590,182	466,929	-0,014	0,023
-589,167	-200,000	0,000	-0,076
-588,152	-24,086	0,062	-0,027
-587,138	-71,106	-0,116	0,031
-586,123	-200,000	0,024	-0,171
-585,109	-200,000	0,001	-0,064
-584,094	471,506	-0,021	0,034
-583,079	-200,000	-0,003	0,062
-582,065	69,879	0,115	0,085
-581,050	96,054	-0,050	0,042
-580,036	-69,866	0,118	-0,032
-579,021	-131,099	0,091	-0,009
-578,006	269,014	0,021	-0,027
-576,992	-25,499	-0,159	-0,068
-575,977	-200,000	-0,014	-0,090
-574,963	800,000	0,062	-0,159
-573,948	81,931	0,025	0,020
-572,934	-65,177	0,093	-0,027
-571,919	-174,769	-0,159	0,003
-570,904	-30,811	-0,068	-0,028
-569,890	524,986	0,060	-0,103
-568,875	-88,366	0,135	-0,029
-567,861	130,106	-0,119	0,110
-566,846	219,122	0,038	-0,044
-565,831	-58,218	-0,093	-0,029
-564,817	-200,000	0,014	-0,063
-563,802	4,747	-0,085	-0,045
-562,788	-40,138	-0,060	-0,022
-561,773	186,570	-0,055	-0,059
-560,758	-88,543	0,073	0,016
-559,744	800,000	-0,087	0,185
-558,729	138,283	-0,021	-0,020
-557,715	-88,451	-0,042	-0,009
-556,700	-200,000	-0,001	0,070
-555,685	-101,609	-0,038	0,007
-554,671	-162,532	-0,020	-0,001
-553,656	800,000	-0,004	0,011
-552,642	-98,311	0,064	-0,012
-551,627	-20,963	0,077	0,034
-550,612	200,484	-0,089	-0,099
-549,598	147,610	-0,097	-0,094
-548,583	-200,000	-0,030	-0,130
-547,569	50,257	-0,093	0,063
-546,554	-100,772	0,085	-0,015
-545,539	128,109	0,047	0,043
-544,525	505,846	-0,005	0,008
-543,510	444,413	0,031	0,049
-542,496	800,000	-0,046	-0,102
-541,481	-200,000	-0,036	-0,230
-540,466	800,000	-0,016	0,043
-539,452	-25,227	0,050	-0,021
-538,437	356,068	0,114	-0,164
-537,423	-85,466	0,097	-0,022
-536,408	-200,000	0,024	0,213
-535,393	111,508	-0,140	-0,122
-534,379	-83,424	-0,111	-0,025
-533,364	73,522	0,086	-0,065
-532,350	-144,895	0,051	0,003
-531,335	779,055	0,058	0,115
-530,321	-200,000	0,008	-0,085
-529,306	-145,676	0,054	-0,003
-528,291	88,967	0,045	0,036
-527,277	28,498	0,092	-0,056
-526,262	-200,000	-0,015	-0,071
-525,248	-167,626	0,097	0,003
-524,233	190,307	-0,085	0,092
-523,218	800,000	0,036	0,100
-522,204	256,117	-0,016	-0,020
-521,189	-12,095	0,027	-0,012
-520,175	62,235	-0,066	0,047
-519,160	-1,239	0,051	-0,026
-518,145	-94,522	-0,053	-0,010
-517,131	734,593	-0,055	0,107
-516,116	400,958	0,019	-0,029
-515,102	-200,000	-0,001	-0,010
-514,087	186,108	-0,022	0,024
-513,072	-200,000	-0,025	-0,116
-512,058	-200,000	0,026	0,182
-511,043	294,730	0,022	-0,029
-510,029	-37,402	0,174	0,067
-509,014	12,465	-0,192	-0,107
-507,999	-45,482	-0,169	-0,060
-506,985	304,560	-0,072	-0,097
-505,970	60,453	-0,112	0,080
-504,956	-94,953	0,063	-0,012
-503,941	66,452	-0,085	-0,062
-502,926	164,225	-0,039	0,040
-501,912	-90,308	-0,004	0,001
-500,897	-200,000	0,000	0,034
-499,883	-34,344	-0,107	0,042
-498,868	392,200	-0,015	0,023
-497,853	-106,604	-0,057	-0,009
-496,839	33,725	-0,097	0,061
-495,824	443,730	0,058	0,093
-494,810	-200,000	-0,011	0,088
-493,795	-200,000	0,031	-0,153
-492,781	-142,489	-0,137	-0,010
-491,766	-35,629	-0,111	-0,043
-490,751	-27,748	-0,059	-0,024
-489,737	800,000	0,074	0,224
-488,722	56,306	0,140	0,098
-487,708	-13,615	-0,126	-0,058
-486,693	-28,296	-0,113	0,047
-485,678	532,074	0,067	-0,115
-484,664	-200,000	-0,012	-0,072
-483,649	800,000	0,050	-0,123
-482,635	-19,311	-0,144	-0,064
-481,620	94,509	0,053	0,044
-480,605	-200,000	-0,002	-0,058
-479,591	-200,000	0,004	0,050
-478,576	800,000	-0,012	0,030
-477,562	135,233	-0,064	-0,060
-476,547	-200,000	-0,011	-0,081
-475,532	-200,000	0,010	0,081
-474,518	-155,673	0,089	0,004
-473,503	-200,000	-0,006	-0,032
-472,489	-29,299	-0,035	0,015
-471,474	24,495	-0,034	-0,020
-470,459	800,000	-0,003	-0,009
-469,445	323,271	0,101	-0,139
-468,430	-200,000	0,011	-0,091
-467,416	104,330	-0,045	0,038
-466,401	0,009	0,106	0,054
-465,386	-164,352	-0,018	-0,001
-464,372	22,902	-0,093	-0,055
-463,357	594,192	-0,073	-0,130
-462,343	800,000	0,009	-0,021
-461,328	46,265	-0,068	0,045
-460,313	798,145	-0,023	0,045
-459,299	-200,000	0,010	-0,082
-458,284	207,547	-0,025	-0,028
-457,270	182,222	-0,132	-0,141
-456,255	701,527	-0,047	0,090
-455,241	-110,823	0,084	0,012
-454,226	-94,754	0,092	-0,018
-453,211	-200,000	-0,022	-0,111
-452,197	-37,113	0,045	0,017
-451,182	800,000	-0,006	0,016
-450,168	541,117	0,018	0,031
-449,153	78,538	-0,113	0,087
-448,138	-70,487	-0,080	0,022
-447,124	-41,430	0,076	0,028
-446,109	800,000	-0,051	-0,144
-445,095	-200,000	-0,021	0,088
-444,080	-200,000	0,005	0,017
-443,065	-200,000	0,008	0,112
-442,051	115,189	0,043	-0,038
-441,036	-200,000	-0,019	-0,093
-440,022	15,997	0,063	-0,035
-439,007	800,000	0,034	0,083
-437,992	800,000	-0,029	0,084
-436,978	-20,396	0,085	0,038
-435,963	163,160	-0,013	-0,013
-434,949	498,327	0,089	0,147
-433,934	65,641	-0,038	0,027
-432,919	80,943	-0,100	-0,078
-431,905	-0,905	-0,047	0,024
-430,890	586,393	-0,017	0,030
-429,876	79,924	-0,060	0,046
-428,861	437,079	0,038	-0,060
-427,846	-200,000	0,000	-0,040
-426,832	-57,508	0,052	0,016
-425,817	462,492	0,044	-0,070
-424,803	265,807	0,069	-0,087
-423,788	-200,000	0,010	-0,061
-422,773	-85,840	0,226	0,050
-421,759	369,479	0,038	0,055
-420,744	-200,000	-0,004	0,021
-419,730	-136,675	-0,019	0,002
-418,715	238,898	0,023	-0,028
-417,701	-200,000	-0,020	-0,104
-416,686	-200,000	0,029	-0,127
-415,671	63,399	0,078	0,056
-414,657	800,000	-0,049	0,112
-413,642	-8,902	0,027	0,013
-412,628	78,992	0,027	0,021
-411,613	193,142	0,077	-0,083
-410,598	800,000	0,011	-0,023
-409,584	99,494	0,048	-0,040
-408,569	406,691	-0,043	0,065
-407,555	-200,000	-0,006	0,064
-406,540	75,593	-0,085	0,064
-405,525	94,425	-0,013	0,011
-404,511	-40,142	0,064	-0,024
-403,496	-200,000	0,004	-0,028
-402,482	-45,562	0,079	-0,028
-401,467	-200,000	-0,001	0,115
-400,452	-19,436	0,012	-0,005
-399,438	-46,932	-0,138	-0,048
-398,423	97,550	0,041	-0,034
-397,409	-200,000	-0,001	-0,109
-396,394	-126,536	-0,110	-0,012
-395,379	-46,131	-0,023	0,008
-394,365	102,836	0,060	0,050
-393,350	-74,600	0,164	0,042
-392,336	470,493	-0,024	0,039
-391,321	188,144	0,039	0,042
-390,306	177,916	-0,056	0,059
-389,292	1,989	-0,089	-0,046
-388,277	0,097	0,092	0,047
-387,263	203,486	-0,052	0,058
-386,248	483,781	0,020	-0,033
-385,233	185,450	0,089	-0,095
-384,219	800,000	-0,007	0,017
-383,204	154,319	-0,052	0,051
-382,190	800,000	-0,072	-0,149
-381,175	30,418	-0,072	-0,044
-380,160	-135,087	0,126	0,011
-379,146	265,532	0,078	0,098
-378,131	282,146	0,045	0,058
-377,117	-89,513	-0,066	0,014
-376,102	-79,576	0,083	-0,020
-375,088	20,959	-0,025	0,015
-374,073	-200,000	-0,001	0,026
-373,058	74,325	0,113	0,085
-372,044	-23,719	0,131	0,056
-371,029	129,992	0,040	0,037
-370,015	468,033	0,051	-0,083
-369,000	-200,000	-0,015	0,053
-367,985	232,660	0,029	-0,034
-366,971	-48,613	-0,014	-0,005
-365,956	-144,990	0,118	-0,008
-364,942	800,000	-0,037	-0,095
-363,927	800,000	-0,030	0,082
-362,912	187,692	-0,037	-0,039
-361,898	-127,069	-0,072	0,008
-360,883	-73,542	-0,026	0,007
-359,869	800,000	-0,029	0,089
-358,854	-200,000	0,011	0,058
-357,839	-200,000	-0,018	-0,070
-356,825	342,201	0,028	-0,040
-355,810	-123,665	-0,017	-0,002
-354,796	-200,000	-0,001	-0,066
-353,781	64,974	0,065	-0,047
-352,766	9,994	-0,070	0,038
-351,752	63,377	0,143	0,102
-350,737	240,158	0,023	0,027
-349,723	-142,977	-0,127	0,009
-348,708	-200,000	0,011	0,147
-347,693	-200,000	0,005	0,082
-346,679	88,542	0,029	-0,023
-345,664	800,000	-0,063	0,146
-344,650	-103,345	-0,049	-0,008
-343,635	-200,000	-0,006	0,126
-342,620	-61,321	-0,046	-0,014
-341,606	-200,000	0,009	0,146
-340,591	-17,832	0,023	0,010
-339,577	184,243	0,042	-0,044
-338,562	-200,000	-0,006	-0,064
-337,548	800,000	-0,036	0,086
-336,533	-23,838	0,066	-0,028
-335,518	168,224	0,068	-0,070
-334,504	-15,064	-0,067	0,031
-333,489	120,046	0,068	-0,060
-332,475	-71,545	-0,089	-0,024
-331,460	-94,999	0,015	-0,003
-330,445	-115,248	0,089	0,012
-329,431	-200,000	-0,011	0,075
-328,416	23,431	0,053	-0,031
-327,402	-128,063	0,174	0,018
-326,387	800,000	-0,027	0,064
-325,372	-24,367	-0,133	0,056
-324,358	126,605	-0,086	0,078
-323,343	-200,000	-0,002	0,102
-322,329	-151,260	0,136	0,007
-321,314	-200,000	0,025	0,114
-320,299	682,831	-0,086	0,161
-319,285	10,014	0,081	-0,044
-318,270	167,337	-0,088	-0,090
-317,256	463,622	0,074	-0,119
-316,241	159,104	-0,041	-0,041
-315,226	800,000	0,009	0,018
-314,212	-200,000	-0,004	-0,050
-313,197	800,000	-0,028	0,058
-312,183	-200,000	-0,015	-0,068
-311,168	-46,814	-0,132	-0,046
-310,153	-85,835	0,156	0,034
-309,139	100,472	-0,120	-0,100
-308,124	225,287	-0,071	0,083
-307,110	-2,562	0,122	-0,061
-306,095	30,640	-0,095	-0,058
-305,080	75,227	0,077	0,058
-304,066	57,505	0,056	-0,039
-303,051	800,000	0,049	-0,130
-302,037	468,875	0,017	-0,028
-301,022	17,333	-0,055	-0,031
-300,008	-200,000	0,025	0,128
-298,993	800,000	0,046	0,097
-297,978	-41,521	0,084	0,031
-296,964	-188,881	-0,085	0,001
-295,949	800,000	-0,022	-0,064
-294,935	59,982	0,070	-0,049
-293,920	641,318	0,047	0,086
-292,905	26,890	-0,035	-0,021
-291,891	151,735	0,035	-0,034
-290,876	191,535	-0,070	0,076
-289,862	83,547	0,044	0,034
-288,847	800,000	0,007	-0,022
-287,832	217,296	-0,040	-0,046
-286,818	-16,140	-0,070	-0,032
-285,803	-126,463	-0,091	-0,010
-284,789	-200,000	-0,019	0,097
-283,774	-38,901	-0,023	-0,009
-282,759	-66,611	-0,021	-0,006
-281,745	-200,000	-0,003	0,053
-280,730	-34,524	-0,177	-0,069
-279,716	-125,381	0,168	0,018
-278,701	17,317	0,063	0,036
-277,686	4,647	0,064	-0,034
-276,672	-200,000	0,001	-0,009
-275,657	58,996	0,036	-0,025
-274,643	-200,000	-0,014	0,051
-273,628	74,526	-0,068	0,051
-272,613	-180,649	0,111	0,002
-271,599	293,573	0,071	-0,092
-270,584	-65,613	-0,098	0,028
-269,570	73,482	-0,090	-0,068
-268,555	-102,554	-0,011	-0,002
-267,540	18,829	-0,033	0,019
-266,526	287,131	-0,011	0,014
-265,511	372,196	0,079	-0,115
-264,497	350,789	0,009	-0,013
-263,482	215,912	-0,087	0,099
-262,467	-181,102	0,059	0,001
-261,453	-62,571	-0,097	0,029
-260,438	-100,538	-0,121	0,021
-259,424	238,220	0,029	-0,034
-258,409	-146,734	0,067	0,004
-257,395	-200,000	0,015	0,066
-256,380	78,526	-0,030	0,023
-255,365	5,048	0,110	0,058
-254,351	-111,678	0,132	0,019
-253,336	-14,127	0,174	0,080
-252,322	800,000	0,061	-0,152
-251,307	-51,932	-0,014	-0,005
-250,292	-200,000	-0,019	-0,063
-249,278	-8,550	0,105	-0,050
-248,263	-46,506	0,124	-0,043
-247,249	356,484	0,026	0,037
-246,234	-26,560	0,031	-0,013
-245,219	6,261	-0,076	0,040
-244,205	-200,000	-0,001	0,059
-243,190	-136,473	-0,051	0,004
-242,176	800,000	0,059	-0,121
-241,161	587,292	0,067	0,118
-240,146	25,423	-0,134	0,079
-239,132	-17,547	-0,126	-0,056
-238,117	-200,000	-0,018	-0,121
-237,103	-89,569	-0,057	0,012
-236,088	800,000	0,055	0,115
-235,073	-200,000	0,048	0,169
-234,059	-46,822	0,041	-0,014
-233,044	-6,090	0,015	0,007
-232,030	44,920	0,032	0,021
-231,015	-106,978	-0,057	-0,009
-230,000	-76,184	-0,129	0,032
-228,986	-48,244	-0,076	-0,026
-227,971	-200,000	0,021	-0,133
-226,957	-200,000	-0,019	0,129
-225,942	260,932	-0,135	0,166
-224,927	-200,000	0,010	0,140
-223,913	282,155	-0,064	-0,081
-222,898	-200,000	0,009	-0,047
-221,884	-200,000	0,020	-0,068
-220,869	-200,000	0,036	0,189
-219,855	-200,000	-0,005	0,054
-218,840	-58,324	0,195	0,060
-217,825	-200,000	-0,032	0,116
-216,811	8,157	-0,099	-0,053
-215,796	-200,000	0,012	-0,084
-214,782	-181,205	0,099	-0,001
-213,767	-1,745	0,087	-0,043
-212,752	125,585	0,041	0,037
-211,738	800,000	0,070	0,143
-210,723	-200,000	-0,010	-0,076
-209,709	-115,434	-0,080	0,011
-208,694	173,271	-0,062	-0,064
-207,679	-200,000	-0,010	-0,058
-206,665	101,658	-0,123	-0,103
-205,650	-15,560	0,092	0,042
-204,636	71,880	0,077	-0,057
-203,621	-14,853	-0,114	-0,052
-202,606	-59,128	-0,084	0,026
-201,592	800,000	-0,024	0,052
-200,577	-127,889	-0,063	0,006
-199,563	-200,000	-0,014	-0,058
-198,548	800,000	0,057	0,126
-197,533	61,137	0,082	0,058
-196,519	-131,978	0,021	-0,002
-195,504	800,000	-0,037	0,108
-194,490	549,398	0,021	-0,037
-193,475	-200,000	0,013	0,151
-192,460	800,000	0,076	-0,190
-191,446	134,011	0,085	-0,079
-190,431	800,000	0,020	0,043
-189,417	-38,400	-0,187	-0,070
-188,402	66,599	0,052	0,037
-187,387	-200,000	0,020	-0,105
-186,373	666,602	-0,037	-0,068
-185,358	7,071	-0,036	0,019
-184,344	31,787	0,098	-0,060
-183,329	-62,317	-0,027	-0,008
-182,315	211,260	-0,119	-0,134
-181,300	8,673	-0,114	-0,061
-180,285	25,523	0,026	-0,015
-179,271	-16,170	0,019	-0,009
-178,256	-142,458	0,109	0,007
-177,242	-200,000	0,106	-0,000
-176,227	23,850	0,078	-0,045
-175,212	-200,000	-0,030	0,133
-174,198	310,166	0,122	0,163
-173,183	-133,288	0,081	-0,007
-172,169	-200,000	-0,011	0,041
-171,154	249,416	0,003	0,003
-170,139	800,000	0,029	-0,090
-169,125	-136,489	-0,092	-0,007
-168,110	-106,621	0,071	-0,011
-167,096	-99,226	-0,117	-0,021
-166,081	-61,848	0,041	-0,012
-165,066	-45,324	-0,156	0,055
-164,052	190,506	-0,028	-0,030
-163,037	277,454	0,078	-0,098
-162,023	155,044	0,031	-0,031
-161,008	234,223	-0,008	-0,010
-159,993	259,749	0,130	0,160
-158,979	63,135	-0,004	0,003
-157,964	-122,901	-0,115	-0,013
-156,950	-72,750	-0,042	-0,011
-155,935	-200,000	-0,022	-0,094
-154,920	252,317	0,049	-0,059
-153,906	-200,000	-0,009	0,104
-152,891	82,008	0,096	-0,074
-151,877	436,325	0,019	0,029
-150,862	-200,000	-0,025	-0,087
-149,847	800,000	-0,056	0,121
-148,833	463,629	0,078	-0,124
-147,818	-159,730	0,047	-0,002
-146,804	-60,300	0,046	0,014
-145,789	736,905	0,051	0,098
-144,775	-135,202	-0,092	-0,008
-143,760	-151,757	-0,054	-0,003
-142,745	-11,127	-0,034	-0,016
-141,731	630,228	0,043	0,078
-140,716	800,000	-0,040	0,099
-139,702	58,175	0,083	0,058
-138,687	44,675	-0,023	-0,015
-137,672	396,510	-0,062	-0,092
-136,658	-200,000	0,038	-0,122
-135,643	170,469	-0,055	-0,056
-134,629	109,020	-0,037	0,031
-133,614	592,490	-0,016	0,028
-132,599	-18,734	0,061	0,027
-131,585	-200,000	0,004	-0,083
-130,570	-106,077	0,117	0,018
-129,556	-33,996	0,039	0,015
-128,541	-71,313	-0,067	-0,018
-127,526	-17,543	0,050	0,022
-126,512	524,832	-0,097	0,164
-125,497	264,579	-0,099	0,122
-124,483	800,000	0,059	0,134
-123,468	92,903	-0,035	-0,028
-122,453	-7,505	-0,052	0,025
-121,439	-135,657	0,024	0,002
-120,424	194,320	-0,084	-0,091
-119,410	-87,161	0,076	0,016
-118,395	800,000	0,080	0,176
