DTS Sentinel unit serial number:	SN410029Multiplexer serial number:	ORYXHardware model number:	OX2-SRSoftware version number:	ORYX F/W v4,00 Oryx Data Collector v3.7.2.0data status	okinstallation	B6 Nyhavnadifferential loss correction	single-endedforward channel	channel 2reverse channel	N/Adate	2023/12/11time	04:25:08forward acquisition time	300,00reverse acquisition time	0,00gamma	499,1914k internal	0,3126k external	0,3126temperature offset calibration	1,0000default loss term (dB/km)	0,3820temperature slope calibration	1,0000multiplexer offset coefficient	1,0000multiplexer slope coefficient	1,0000fibre end	0,00T internal ref (°C)	20,58T ext. ref 1 (°C)	3,34T ext. ref 2 (°C)	3,35length (m)	temperature (°C)	Stokes	anti-Stokes-744,400	-111,572	0,110	-0,016
-743,385	-38,302	-0,242	0,095
-742,371	578,075	0,034	0,062
-741,356	78,920	-0,151	0,120
-740,342	308,268	0,069	-0,096
-739,327	-51,689	-0,246	0,085
-738,312	416,385	-0,016	-0,025
-737,298	-82,398	-0,267	0,064
-736,283	-70,508	-0,062	-0,017
-735,269	-129,118	-0,352	-0,036
-734,254	420,349	0,068	0,109
-733,239	5,719	-0,305	-0,168
-732,225	-150,784	0,204	0,011
-731,210	-200,000	0,001	0,044
-730,196	-8,073	-0,095	-0,047
-729,181	-200,000	-0,017	-0,120
-728,167	-200,000	-0,027	-0,117
-727,152	-200,000	0,027	-0,112
-726,137	-143,680	-0,104	0,007
-725,123	800,000	-0,024	0,071
-724,108	-3,422	-0,175	0,091
-723,094	-97,567	0,091	-0,017
-722,079	-200,000	0,007	-0,078
-721,064	283,135	0,099	0,133
-720,050	-200,000	-0,005	-0,088
-719,035	-200,000	-0,014	-0,119
-718,021	-15,780	-0,045	-0,021
-717,006	-35,422	0,100	-0,040
-715,991	800,000	-0,035	0,106
-714,977	800,000	0,046	-0,146
-713,962	390,808	-0,090	-0,139
-712,948	-200,000	-0,016	-0,106
-711,933	115,950	-0,089	0,081
-710,918	-200,000	0,021	0,076
-709,904	-199,480	-0,260	0,001
-708,889	-200,000	-0,006	-0,090
-707,875	180,887	-0,070	-0,077
-706,860	679,854	0,019	-0,038
-705,845	-29,716	-0,097	-0,041
-704,831	-65,098	-0,009	-0,003
-703,816	-55,633	-0,235	-0,078
-702,802	-200,000	-0,019	0,065
-701,787	364,096	-0,017	0,026
-700,772	-200,000	0,034	-0,119
-699,758	223,596	0,052	0,062
-698,743	241,449	0,025	-0,031
-697,729	-200,000	0,006	0,035
-696,714	-24,053	-0,070	-0,031
-695,699	-200,000	-0,026	0,191
-694,685	436,787	-0,011	0,018
-693,670	650,835	-0,054	-0,104
-692,656	-57,206	0,044	0,014
-691,641	331,397	-0,094	-0,135
-690,627	-200,000	0,005	0,072
-689,612	800,000	0,066	0,159
-688,597	-200,000	0,004	-0,083
-687,583	110,925	-0,075	0,067
-686,568	800,000	0,063	-0,130
-685,554	-200,000	-0,007	0,109
-684,539	132,392	0,066	0,063
-683,524	-200,000	-0,006	0,083
-682,510	800,000	0,007	0,017
-681,495	800,000	0,058	0,125
-680,481	-21,861	0,040	0,018
-679,466	-172,511	-0,084	-0,002
-678,451	-85,090	0,076	-0,017
-677,437	-151,885	-0,077	-0,004
-676,422	151,103	0,047	-0,047
-675,408	12,618	-0,151	0,086
-674,393	-87,148	0,152	-0,034
-673,378	-200,000	-0,002	0,158
-672,364	70,925	-0,041	0,032
-671,349	800,000	0,029	-0,091
-670,335	-200,000	-0,012	-0,089
-669,320	-82,841	0,083	-0,020
-668,305	-200,000	0,003	-0,049
-667,291	-200,000	0,020	-0,090
-666,276	-127,824	0,080	-0,008
-665,262	329,048	-0,052	-0,074
-664,247	800,000	0,028	-0,086
-663,232	626,739	0,060	-0,112
-662,218	200,141	-0,024	-0,027
-661,203	7,857	-0,037	-0,021
-660,189	-200,000	-0,013	0,052
-659,174	314,720	-0,071	0,099
-658,159	84,632	-0,060	-0,049
-657,145	236,809	0,023	0,028
-656,130	310,282	-0,067	-0,094
-655,116	800,000	-0,003	0,007
-654,101	13,368	0,069	0,039
-653,086	127,626	-0,042	0,039
-652,072	-200,000	-0,006	-0,087
-651,057	-26,836	-0,008	-0,003
-650,043	-200,000	-0,024	-0,120
-649,028	179,085	-0,026	0,029
-648,014	145,387	0,038	-0,038
-646,999	800,000	0,023	0,073
-645,984	670,212	-0,051	0,098
-644,970	21,119	-0,004	0,002
-643,955	-148,820	-0,173	-0,010
-642,941	-88,117	-0,065	0,014
-641,926	-68,171	0,059	-0,017
-640,911	-61,812	-0,065	0,020
-639,897	594,227	0,021	0,038
-638,882	218,494	0,087	0,104
-637,868	-76,549	0,032	-0,008
-636,853	114,703	-0,079	0,071
-635,838	-92,951	-0,131	0,027
-634,824	-25,517	0,017	0,007
-633,809	785,834	-0,012	0,025
-632,795	413,031	0,025	-0,040
-631,780	-200,000	0,001	0,034
-630,765	24,750	-0,032	-0,019
-629,751	314,185	-0,075	-0,105
-628,736	-200,000	0,011	0,040
-627,722	-111,928	0,048	-0,007
-626,707	182,202	-0,025	-0,028
-625,692	-55,773	0,144	0,047
-624,678	-69,899	0,097	-0,027
-623,663	-62,955	-0,054	-0,016
-622,649	54,285	-0,045	0,032
-621,634	751,517	-0,043	-0,087
-620,619	92,714	-0,180	-0,151
-619,605	443,350	0,059	0,096
-618,590	-105,494	-0,184	-0,031
-617,576	800,000	0,032	-0,085
-616,561	611,184	-0,057	-0,105
-615,546	-14,707	-0,121	-0,057
-614,532	-200,000	0,018	-0,106
-613,517	-200,000	0,004	-0,044
-612,503	154,459	-0,113	-0,115
-611,488	-200,000	0,028	-0,138
-610,474	-136,725	0,131	0,011
-609,459	274,615	0,046	-0,060
-608,444	-200,000	0,009	-0,087
-607,430	-66,356	-0,102	0,030
-606,415	-16,773	-0,149	-0,070
-605,401	115,682	-0,089	0,081
-604,386	-200,000	-0,005	0,079
-603,371	233,401	0,042	0,052
-602,357	-200,000	-0,015	0,128
-601,342	-200,000	-0,011	-0,131
-600,328	-56,299	0,018	-0,006
-599,313	800,000	-0,013	0,040
-598,298	335,858	-0,015	-0,021
-597,284	673,035	0,012	-0,023
-596,269	-133,177	0,143	-0,013
-595,255	5,083	0,115	0,062
-594,240	-200,000	-0,016	0,107
-593,225	-200,000	-0,000	0,039
-592,211	-200,000	-0,002	-0,113
-591,196	800,000	-0,037	-0,092
-590,182	610,632	-0,078	-0,144
-589,167	102,577	0,061	-0,053
-588,152	-200,000	0,002	0,027
-587,138	-14,225	0,068	0,033
-586,123	-129,266	-0,126	-0,013
-585,109	-45,664	0,045	-0,016
-584,094	-200,000	-0,001	0,040
-583,079	-200,000	0,004	0,073
-582,065	69,320	-0,003	0,002
-581,050	104,874	-0,058	0,051
-580,036	-200,000	0,002	-0,056
-579,021	63,480	-0,225	-0,167
-578,006	-200,000	0,013	0,086
-576,992	21,143	-0,075	0,045
-575,977	-200,000	-0,013	-0,062
-574,963	-18,869	0,168	-0,077
-573,948	-37,267	-0,098	-0,039
-572,934	-200,000	0,037	-0,172
-571,919	6,130	-0,031	0,017
-570,904	-200,000	-0,052	-0,233
-569,890	0,671	0,051	-0,027
-568,875	51,960	0,071	-0,050
-567,861	-200,000	0,006	0,049
-566,846	-145,835	0,076	-0,005
-565,831	-200,000	0,010	0,095
-564,817	-200,000	0,017	0,146
-563,802	-16,187	0,083	-0,039
-562,788	800,000	-0,047	-0,153
-561,773	-66,112	-0,042	-0,012
-560,758	-117,175	0,005	-0,001
-559,744	283,213	-0,068	-0,091
-558,729	-124,897	-0,174	0,020
-557,715	206,023	-0,033	-0,038
-556,700	297,704	-0,065	-0,089
-555,685	-200,000	-0,013	-0,112
-554,671	-200,000	-0,050	-0,178
-553,656	0,782	0,154	-0,081
-552,642	-200,000	0,007	0,037
-551,627	338,355	0,077	0,112
-550,612	-200,000	-0,014	-0,109
-549,598	800,000	-0,043	0,129
-548,583	70,145	-0,097	0,074
-547,569	800,000	0,068	0,144
-546,554	-24,076	0,031	-0,014
-545,539	800,000	0,033	-0,072
-544,525	167,437	0,042	-0,044
-543,510	406,699	-0,020	-0,032
-542,496	551,802	-0,010	-0,017
-541,481	800,000	0,057	-0,153
-540,466	800,000	0,056	0,120
-539,452	2,741	0,101	0,054
-538,437	-200,000	-0,015	0,057
-537,423	800,000	0,051	0,146
-536,408	-200,000	0,002	-0,026
-535,393	-76,620	-0,060	0,015
-534,379	105,230	-0,022	-0,019
-533,364	-200,000	0,017	-0,118
-532,350	557,964	0,106	-0,189
-531,335	-120,792	-0,167	0,021
-530,321	-200,000	0,003	0,071
-529,306	198,722	0,065	0,073
-528,291	251,452	0,112	0,141
-527,277	-58,149	-0,145	-0,046
-526,262	-200,000	0,010	-0,041
-525,248	800,000	0,033	0,073
-524,233	9,924	0,089	0,050
-523,218	211,433	0,019	-0,022
-522,204	-48,777	0,114	-0,040
-521,189	-200,000	-0,022	-0,098
-520,175	-96,723	-0,235	0,045
-519,160	149,289	0,088	-0,088
-518,145	-108,142	0,029	-0,005
-517,131	169,411	0,090	0,095
-516,116	335,910	0,041	-0,058
-515,102	-200,000	-0,025	-0,096
-514,087	-6,524	-0,145	-0,073
-513,072	-25,909	-0,056	0,024
-512,058	800,000	0,013	0,035
-511,043	65,702	0,120	0,090
-510,029	468,372	0,063	-0,105
-509,014	800,000	-0,031	0,086
-507,999	290,541	-0,008	-0,010
-506,985	-15,350	0,043	-0,020
-505,970	800,000	0,021	0,051
-504,956	199,207	-0,074	-0,084
-503,941	-31,600	0,124	-0,051
-502,926	339,366	-0,060	0,086
-501,912	90,974	0,086	0,071
-500,897	-100,095	-0,113	0,021
-499,883	495,472	0,033	-0,057
-498,868	-124,567	-0,153	0,017
-497,853	257,275	0,031	0,040
-496,839	-200,000	0,005	-0,031
-495,824	800,000	-0,020	0,041
-494,810	328,035	0,046	0,065
-493,795	494,164	-0,029	0,049
-492,781	-127,775	-0,124	0,013
-491,766	626,393	0,026	-0,048
-490,751	800,000	-0,009	-0,022
-489,737	54,282	-0,129	-0,092
-488,722	694,256	0,017	-0,033
-487,708	600,748	-0,038	-0,070
-486,693	-90,613	-0,101	-0,021
-485,678	-200,000	-0,008	0,107
-484,664	148,445	-0,089	-0,088
-483,649	384,197	-0,030	0,046
-482,635	-81,890	-0,124	0,030
-481,620	163,763	-0,073	0,076
-480,605	800,000	-0,019	0,057
-479,591	800,000	-0,084	0,213
-478,576	-65,384	0,135	-0,040
-477,562	73,532	0,117	-0,090
-476,547	473,339	0,047	-0,079
-475,532	562,479	0,027	0,048
-474,518	55,279	0,093	-0,066
-473,503	695,243	0,019	-0,037
-472,489	-0,317	0,071	0,037
-471,474	268,121	0,049	-0,064
-470,459	-200,000	0,012	-0,131
-469,445	-173,277	-0,082	-0,002
-468,430	244,743	0,065	-0,081
-467,416	-200,000	-0,030	0,106
-466,401	175,507	-0,064	-0,068
-465,386	3,643	-0,131	-0,070
-464,372	-55,531	-0,063	-0,021
-463,357	150,661	-0,007	0,007
-462,343	-30,393	-0,192	0,080
-461,328	341,239	0,047	0,068
-460,313	-200,000	0,013	-0,068
-459,299	800,000	0,054	-0,159
-458,284	-165,954	-0,063	0,002
-457,270	-42,330	0,012	-0,004
-456,255	-200,000	0,008	-0,044
-455,241	-40,004	-0,128	0,049
-454,226	111,791	0,061	0,054
-453,211	-174,243	-0,004	0,000
-452,197	800,000	-0,064	-0,177
-451,182	66,617	0,066	-0,049
-450,168	-30,513	0,100	0,041
-449,153	-57,283	-0,048	-0,015
-448,138	485,429	0,043	-0,072
-447,124	-200,000	-0,022	-0,156
-446,109	-150,212	0,191	-0,011
-445,095	9,844	0,073	0,041
-444,080	-200,000	-0,004	0,061
-443,065	-200,000	0,044	0,229
-442,051	-200,000	-0,004	-0,055
-441,036	544,388	-0,099	-0,176
-440,022	22,367	0,050	0,030
-439,007	-200,000	0,025	0,108
-437,992	153,376	-0,066	0,067
-436,978	800,000	-0,037	0,098
-435,963	-56,202	-0,109	0,036
-434,949	-181,131	-0,073	-0,001
-433,934	-200,000	0,007	-0,029
-432,919	800,000	-0,063	-0,135
-431,905	-100,086	-0,131	-0,024
-430,890	-200,000	0,006	0,097
-429,876	-198,047	0,052	0,000
-428,861	4,337	-0,029	-0,016
-427,846	-32,655	0,089	0,036
-426,832	337,042	-0,033	0,048
-425,817	800,000	0,024	-0,072
-424,803	-200,000	0,005	-0,030
-423,788	77,450	0,140	0,110
-422,773	-36,747	-0,137	0,054
-421,759	-200,000	0,014	0,080
-420,744	-90,111	-0,126	0,027
-419,730	-200,000	-0,023	-0,117
-418,715	-18,348	-0,084	-0,039
-417,701	800,000	0,034	-0,078
-416,686	62,417	0,120	-0,088
-415,671	-33,448	0,042	-0,017
-414,657	47,749	0,059	0,040
-413,642	0,164	0,091	0,048
-412,628	3,877	-0,110	-0,059
-411,613	-76,834	-0,057	0,014
-410,598	361,763	0,048	0,071
-409,584	-159,370	0,086	-0,003
-408,569	800,000	-0,040	0,089
-407,555	32,813	-0,053	0,034
-406,540	-24,738	-0,051	0,022
-405,525	68,790	-0,091	-0,069
-404,511	-200,000	0,003	-0,045
-403,496	187,917	0,117	-0,128
-402,482	147,143	0,107	0,106
-401,467	800,000	-0,026	0,077
-400,452	-52,020	0,090	-0,031
-399,438	32,703	-0,072	0,046
-398,423	-200,000	0,001	0,012
-397,409	800,000	-0,007	0,018
-396,394	-200,000	0,003	-0,028
-395,379	-200,000	0,010	-0,103
-394,365	-64,146	0,077	-0,023
-393,350	-76,795	0,164	-0,042
-392,336	-200,000	0,026	0,108
-391,321	800,000	0,015	0,041
-390,306	-160,394	0,060	-0,002
-389,292	58,614	0,060	0,043
-388,277	91,331	0,035	0,029
-387,263	-189,873	0,201	0,002
-386,248	78,012	-0,053	0,041
-385,233	-200,000	0,004	0,068
-384,219	102,756	0,119	-0,102
-383,204	-200,000	-0,036	-0,137
-382,190	650,301	0,035	-0,066
-381,175	119,722	-0,080	0,073
-380,160	225,931	-0,051	0,060
-379,146	39,411	0,045	0,030
-378,131	108,820	0,076	0,067
-377,117	33,500	0,056	-0,036
-376,102	-200,000	0,005	-0,139
-375,088	-113,668	0,056	-0,008
-374,073	-42,424	0,085	-0,032
-373,058	800,000	0,027	0,075
-372,044	-200,000	0,013	0,102
-371,029	-9,306	-0,195	0,095
-370,015	-20,819	0,212	0,095
-369,000	-200,000	-0,018	-0,117
-367,985	376,241	-0,063	-0,095
-366,971	-200,000	0,000	0,072
-365,956	800,000	0,057	-0,146
-364,942	-31,917	0,194	0,079
-363,927	-85,732	-0,111	0,025
-362,912	-45,011	-0,043	-0,016
-361,898	-112,668	-0,177	0,026
-360,883	5,092	0,061	-0,033
-359,869	800,000	-0,022	0,056
-358,854	56,367	-0,134	0,095
-357,839	22,109	0,087	0,052
-356,825	93,465	0,085	0,071
-355,810	-200,000	-0,002	-0,030
-354,796	-78,680	-0,104	-0,026
-353,781	-69,883	0,037	-0,010
-352,766	79,176	-0,071	-0,056
-351,752	800,000	0,025	-0,071
-350,737	-200,000	-0,011	0,042
-349,723	73,636	-0,110	0,084
-348,708	-8,560	0,105	0,052
-347,693	-200,000	-0,003	0,036
-346,679	181,366	-0,043	-0,047
-345,664	357,098	0,035	-0,052
-344,650	700,231	-0,011	0,021
-343,635	-123,525	0,098	0,011
-342,620	-200,000	0,012	0,150
-341,606	-75,141	-0,098	0,026
-340,591	-200,000	0,023	0,118
-339,577	-37,794	-0,023	0,009
-338,562	-200,000	0,021	-0,111
-337,548	-200,000	0,012	-0,141
-336,533	-200,000	0,018	-0,062
-335,518	800,000	0,045	0,096
-334,504	-68,604	0,060	0,017
-333,489	34,514	-0,033	-0,021
-332,475	720,329	-0,059	-0,116
-331,460	800,000	-0,029	-0,085
-330,445	403,924	0,041	0,063
-329,431	-9,121	0,048	0,023
-328,416	277,861	0,059	0,077
-327,402	-55,727	-0,043	-0,014
-326,387	800,000	-0,026	0,061
-325,372	800,000	0,013	-0,031
-324,358	48,032	-0,048	-0,033
-323,343	-22,337	0,083	0,037
-322,329	-200,000	-0,010	0,063
-321,314	-121,265	-0,062	0,007
-320,299	76,215	0,087	0,067
-319,285	-110,321	0,094	0,014
-318,270	-200,000	0,027	-0,139
-317,256	-200,000	-0,046	0,157
-316,241	-200,000	-0,047	0,173
-315,226	258,599	-0,063	-0,080
-314,212	-47,351	-0,106	0,037
-313,197	90,177	0,183	0,150
-312,183	104,296	-0,035	0,030
-311,168	86,382	0,011	0,009
-310,153	800,000	-0,018	-0,047
-309,139	-200,000	-0,021	-0,146
-308,124	-42,556	0,054	0,020
-307,110	-153,454	-0,025	-0,001
-306,095	595,831	0,031	0,056
-305,080	-33,251	0,073	-0,029
-304,066	-200,000	0,015	0,096
-303,051	800,000	-0,025	-0,054
-302,037	573,744	-0,043	-0,077
-301,022	-70,882	0,032	0,009
-300,008	800,000	-0,072	0,170
-298,993	343,713	0,044	0,063
-297,978	-173,751	0,076	0,002
-296,964	-170,659	-0,055	-0,001
-295,949	-200,000	-0,001	-0,029
-294,935	-40,239	-0,041	-0,016
-293,920	575,236	-0,084	-0,151
-292,905	800,000	0,034	0,080
-291,891	182,046	0,064	0,069
-290,876	-104,826	-0,127	0,021
-289,862	-200,000	-0,001	0,021
-288,847	800,000	0,052	-0,131
-287,832	800,000	-0,033	-0,095
-286,818	198,154	0,046	-0,051
-285,803	800,000	0,073	-0,206
-284,789	-61,822	0,107	0,032
-283,774	-85,941	0,148	-0,033
-282,759	177,276	-0,064	0,068
-281,745	-200,000	-0,001	0,103
-280,730	288,327	-0,073	0,097
-279,716	-200,000	-0,032	-0,120
-278,701	800,000	0,027	0,066
-277,686	-33,290	0,109	-0,044
-276,672	-200,000	-0,020	-0,077
-275,657	-132,902	0,195	0,018
-274,643	735,746	-0,068	-0,133
-273,628	517,372	0,062	-0,107
-272,613	800,000	-0,049	0,131
-271,599	800,000	0,045	-0,093
-270,584	170,165	0,017	0,018
-269,570	714,094	-0,016	0,032
-268,555	-95,624	-0,078	0,015
-267,540	-200,000	-0,009	-0,085
-266,526	800,000	0,051	0,122
-265,511	26,730	0,103	-0,063
-264,497	-11,771	-0,004	-0,002
-263,482	-200,000	-0,012	-0,111
-262,467	381,231	0,046	0,069
-261,453	222,159	-0,075	0,089
-260,438	-105,190	0,057	-0,009
-259,424	112,355	0,109	-0,096
-258,409	360,770	0,092	-0,134
-257,395	800,000	-0,084	0,215
-256,380	73,639	-0,098	-0,075
-255,365	-200,000	0,003	0,071
-254,351	602,988	0,027	-0,049
-253,336	647,760	0,073	-0,137
-252,322	-130,419	0,110	0,011
-251,307	-103,351	-0,054	-0,009
-250,292	289,072	-0,036	0,048
-249,278	-200,000	-0,004	-0,046
-248,263	-65,946	0,123	0,036
-247,249	41,384	-0,016	-0,011
-246,234	800,000	0,053	-0,163
-245,219	-35,167	-0,109	0,043
-244,205	-106,078	0,089	-0,015
-243,190	-3,937	-0,043	-0,022
-242,176	-200,000	-0,020	0,138
-241,161	-200,000	-0,026	0,110
-240,146	9,408	0,115	0,063
-239,132	-83,092	0,056	-0,013
-238,117	-19,276	-0,158	-0,071
-237,103	-166,603	0,152	-0,005
-236,088	54,336	-0,050	0,035
-235,073	56,938	0,040	0,028
-234,059	-151,282	0,125	0,007
-233,044	-200,000	-0,004	0,050
-232,030	800,000	0,011	0,027
-231,015	461,224	-0,095	0,155
-230,000	21,035	-0,107	-0,063
-228,986	132,784	0,056	0,053
-227,971	258,720	0,055	-0,069
-226,957	85,655	-0,065	0,052
-225,942	564,405	-0,046	-0,081
-224,927	-38,942	0,081	0,031
-223,913	-200,000	-0,000	0,103
-222,898	737,954	0,023	-0,045
-221,884	57,497	-0,148	-0,106
-220,869	427,805	0,023	-0,037
-219,855	488,089	0,044	0,074
-218,840	-200,000	0,016	0,130
-217,825	59,859	0,047	-0,034
-216,811	47,073	0,029	-0,020
-215,796	-27,769	0,054	-0,023
-214,782	800,000	-0,064	0,150
-213,767	132,353	0,074	0,069
-212,752	139,336	0,068	0,065
-211,738	-92,286	0,150	-0,031
-210,723	33,665	-0,125	0,079
-209,709	137,029	-0,083	-0,079
-208,694	-105,798	0,077	-0,013
-207,679	761,493	-0,068	-0,135
-206,665	800,000	-0,008	0,026
-205,650	344,800	0,027	0,038
-204,636	-200,000	0,003	-0,052
-203,621	506,861	0,067	0,114
-202,606	-127,565	-0,129	-0,013
-201,592	800,000	-0,036	-0,093
-200,577	-43,247	0,067	-0,025
-199,563	800,000	-0,062	0,127
-198,548	-83,660	0,020	-0,005
-197,533	-103,345	0,071	0,012
-196,519	-200,000	-0,002	-0,079
-195,504	28,061	0,104	-0,064
-194,490	-200,000	-0,001	-0,006
-193,475	139,494	0,081	-0,078
-192,460	4,574	-0,061	-0,033
-191,446	-200,000	-0,014	0,155
-190,431	800,000	0,028	-0,078
-189,417	-200,000	0,063	0,000
-188,402	-39,837	-0,124	-0,047
-187,387	-4,837	-0,033	0,016
-186,373	183,138	-0,032	0,035
-185,358	748,480	0,041	-0,081
-184,344	12,155	0,015	-0,009
-183,329	800,000	-0,122	0,248
-182,315	221,605	0,076	0,089
-181,300	32,841	0,145	0,091
-180,285	-84,407	-0,067	-0,015
-179,271	211,499	-0,099	0,114
-178,256	-110,934	-0,094	-0,014
-177,242	-11,701	-0,067	-0,032
-176,227	-15,901	0,031	0,014
-175,212	800,000	0,013	0,035
-174,198	1,022	0,068	0,035
-173,183	-62,276	-0,166	0,050
-172,169	-200,000	-0,003	-0,114
-171,154	-200,000	0,035	0,131
-170,139	800,000	0,026	0,069
-169,125	800,000	0,020	0,058
-168,110	800,000	0,030	0,090
-167,096	267,561	0,020	0,026
-166,081	800,000	0,022	0,053
-165,066	800,000	0,006	-0,015
-164,052	184,309	-0,064	-0,069
-163,037	277,622	-0,081	0,105
-162,023	-200,000	-0,032	-0,106
-161,008	800,000	0,018	-0,038
-159,993	-23,678	0,091	0,039
-158,979	-21,723	-0,086	0,038
-157,964	-55,606	-0,096	0,031
-156,950	64,277	-0,027	-0,020
-155,935	-200,000	0,048	0,174
-154,920	342,865	-0,032	0,046
-153,906	-61,983	-0,166	0,050
-152,891	-142,705	-0,053	0,004
-151,877	582,606	0,028	-0,051
-150,862	383,061	-0,026	-0,040
-149,847	80,599	0,072	0,056
-148,833	-200,000	-0,010	-0,041
-147,818	-3,183	0,030	0,015
-146,804	160,233	0,081	0,082
-145,789	-154,437	0,079	0,004
-144,775	800,000	-0,055	-0,165
-143,760	259,299	-0,044	-0,055
-142,745	800,000	0,035	-0,083
-141,731	-144,524	0,046	-0,003
-140,716	746,537	0,041	-0,081
-139,702	-142,826	0,087	0,006
-138,687	-64,348	0,024	-0,007
-137,672	136,537	0,056	-0,053
-136,658	60,771	-0,092	0,066
-135,643	-200,000	0,074	0,270
-134,629	48,976	0,085	-0,058
-133,614	-35,057	-0,096	-0,038
-132,599	800,000	-0,020	-0,055
-131,585	393,756	0,063	0,096
-130,570	-79,297	0,034	-0,008
-129,556	155,273	0,092	0,092
-128,541	-128,882	-0,046	-0,005
-127,526	116,495	-0,105	0,093
-126,512	39,104	0,076	-0,050
-125,497	-168,556	0,040	-0,001
-124,483	-200,000	-0,014	0,121
-123,468	-139,517	0,037	0,003
-122,453	54,174	-0,106	-0,074
-121,439	-124,975	0,148	0,016
-120,424	462,422	-0,034	-0,056
-119,410	194,566	0,045	0,049
-118,395	111,957	-0,085	0,074
