DTS Sentinel unit serial number:	SN410029Multiplexer serial number:	ORYXHardware model number:	OX2-SRSoftware version number:	ORYX F/W v4,00 Oryx Data Collector v3.7.2.0data status	okinstallation	B6 Nyhavnadifferential loss correction	single-endedforward channel	channel 2reverse channel	N/Adate	2023/12/08time	03:55:08forward acquisition time	300,00reverse acquisition time	0,00gamma	499,1914k internal	0,3165k external	0,3165temperature offset calibration	1,0000default loss term (dB/km)	0,3820temperature slope calibration	1,0000multiplexer offset coefficient	1,0000multiplexer slope coefficient	1,0000fibre end	0,00T internal ref (°C)	13,07T ext. ref 1 (°C)	-3,83T ext. ref 2 (°C)	-3,82length (m)	temperature (°C)	Stokes	anti-Stokes-744,400	109,142	0,114	0,100
-743,385	13,074	-0,252	-0,143
-742,371	-88,809	0,064	0,014
-741,356	-136,395	-0,312	-0,026
-740,342	-57,368	0,202	0,065
-739,327	-163,857	-0,284	-0,010
-738,312	225,751	0,026	-0,031
-737,298	-112,397	-0,389	-0,057
-736,283	-102,374	0,164	0,029
-735,269	-187,643	-0,313	0,003
-734,254	1,219	0,069	-0,037
-733,239	13,296	-0,441	-0,251
-732,225	-25,010	0,224	0,097
-731,210	-200,000	0,007	0,049
-730,196	-26,921	-0,093	-0,040
-729,181	-200,000	-0,003	-0,110
-728,167	584,914	-0,053	-0,096
-727,152	150,488	0,050	0,050
-726,137	616,726	-0,109	-0,202
-725,123	166,285	0,089	-0,092
-724,108	355,348	-0,100	-0,147
-723,094	768,900	-0,067	-0,135
-722,079	-132,825	-0,050	-0,005
-721,064	471,996	0,016	-0,027
-720,050	87,328	0,092	-0,075
-719,035	58,895	-0,207	-0,150
-718,021	-175,160	0,033	-0,001
-717,006	167,752	0,006	-0,007
-715,991	-200,000	0,003	-0,135
-714,977	800,000	0,012	-0,035
-713,962	35,535	-0,144	-0,093
-712,948	-108,576	0,096	-0,015
-711,933	-196,551	-0,092	-0,000
-710,918	656,291	-0,063	-0,119
-709,904	-200,000	0,021	0,103
-708,889	-200,000	-0,203	0,000
-707,875	242,887	0,043	-0,052
-706,860	-67,773	0,035	-0,010
-705,845	-200,000	-0,001	0,011
-704,831	-200,000	0,025	0,083
-703,816	306,433	-0,079	-0,108
-702,802	-56,679	0,059	0,019
-701,787	-77,963	0,064	-0,016
-700,772	-108,687	0,069	-0,011
-699,758	551,639	0,084	0,148
-698,743	-160,827	-0,126	-0,005
-697,729	207,747	-0,028	0,032
-696,714	-200,000	-0,003	-0,114
-695,699	-142,308	0,095	-0,007
-694,685	10,978	0,088	-0,049
-693,670	800,000	0,030	-0,079
-692,656	-200,000	-0,011	-0,061
-691,641	394,898	0,072	-0,111
-690,627	375,062	0,024	0,036
-689,612	407,689	-0,070	0,109
-688,597	-200,000	-0,008	0,072
-687,583	-200,000	0,012	-0,048
-686,568	3,815	-0,022	-0,012
-685,554	-19,231	-0,082	-0,037
-684,539	-35,349	0,042	0,017
-683,524	-68,061	0,012	0,003
-682,510	-180,103	-0,011	-0,000
-681,495	-94,887	0,127	-0,025
-680,481	-124,730	0,116	-0,013
-679,466	494,047	-0,026	-0,043
-678,451	229,655	0,030	-0,036
-677,437	502,445	-0,037	0,063
-676,422	-200,000	0,010	-0,146
-675,408	79,972	0,035	0,028
-674,393	-200,000	0,019	-0,079
-673,378	800,000	0,012	0,029
-672,364	-200,000	-0,017	-0,094
-671,349	217,992	-0,061	-0,072
-670,335	119,666	-0,150	-0,136
-669,320	-50,369	0,133	0,046
-668,305	-23,016	-0,035	0,016
-667,291	475,242	-0,025	-0,042
-666,276	800,000	0,008	0,019
-665,262	238,938	0,008	-0,009
-664,247	220,980	-0,071	0,083
-663,232	81,099	0,085	-0,067
-662,218	-149,581	-0,020	0,001
-661,203	604,262	0,074	0,136
-660,189	-185,785	-0,176	0,002
-659,174	-200,000	-0,000	-0,082
-658,159	-200,000	0,012	-0,091
-657,145	-157,561	-0,075	0,003
-656,130	-200,000	-0,009	-0,063
-655,116	110,453	0,008	-0,007
-654,101	800,000	0,072	0,167
-653,086	-110,476	-0,130	-0,020
-652,072	-90,624	-0,128	-0,027
-651,057	800,000	0,040	-0,112
-650,043	367,159	-0,075	-0,112
-649,028	-153,295	-0,067	-0,003
-648,014	-200,000	-0,017	-0,136
-646,999	-78,961	0,064	-0,016
-645,984	697,970	0,005	-0,010
-644,970	14,478	-0,049	-0,028
-643,955	800,000	0,032	-0,082
-642,941	286,522	-0,027	-0,036
-641,926	800,000	0,035	-0,106
-640,911	12,852	0,141	0,079
-639,897	610,468	-0,057	0,106
-638,882	-200,000	-0,009	0,116
-637,868	30,332	0,064	-0,040
-636,853	118,362	-0,082	0,074
-635,838	-64,105	-0,111	0,033
-634,824	-36,857	0,034	-0,013
-633,809	259,014	0,017	-0,021
-632,795	-200,000	-0,008	0,092
-631,780	-200,000	0,041	0,142
-630,765	-200,000	-0,002	0,053
-629,751	-80,541	-0,044	-0,011
-628,736	72,443	-0,082	0,062
-627,722	42,425	0,027	0,018
-626,707	-16,057	-0,111	-0,052
-625,692	223,128	0,047	-0,056
-624,678	800,000	-0,045	-0,098
-623,663	-149,498	-0,056	-0,003
-622,649	134,085	-0,046	-0,043
-621,634	249,503	0,033	0,041
-620,619	171,308	-0,051	-0,054
-619,605	-25,321	0,014	0,006
-618,590	-17,806	0,092	0,042
-617,576	-145,057	0,085	-0,006
-616,561	800,000	-0,058	0,125
-615,546	-21,587	-0,113	0,050
-614,532	286,717	-0,114	-0,151
-613,517	510,227	-0,024	-0,041
-612,503	-13,512	0,093	0,044
-611,488	-200,000	-0,038	0,149
-610,474	-47,610	-0,076	0,027
-609,459	-96,362	-0,072	0,014
-608,444	30,393	-0,076	0,048
-607,430	94,998	0,094	-0,079
-606,415	443,580	-0,097	-0,157
-605,401	-115,014	0,081	-0,011
-604,386	-200,000	-0,001	-0,081
-603,371	138,746	0,068	0,066
-602,357	-200,000	0,040	0,143
-601,342	800,000	-0,048	0,139
-600,328	-200,000	-0,031	-0,179
-599,313	231,495	0,093	-0,111
-598,298	387,508	-0,078	0,119
-597,284	-100,712	0,051	-0,009
-596,269	800,000	-0,013	-0,041
-595,255	-51,365	-0,129	0,044
-594,240	-200,000	0,009	-0,181
-593,225	648,711	-0,092	-0,174
-592,211	301,404	-0,052	-0,071
-591,196	195,208	0,087	0,097
-590,182	-78,826	-0,055	-0,014
-589,167	-37,540	0,167	0,065
-588,152	-136,331	0,033	0,003
-587,138	202,442	-0,051	-0,058
-586,123	-200,000	-0,006	-0,117
-585,109	-200,000	0,036	-0,142
-584,094	-200,000	-0,005	-0,044
-583,079	517,286	-0,068	0,118
-582,065	-125,915	-0,094	0,010
-581,050	-200,000	-0,008	-0,028
-580,036	-122,833	0,013	0,002
-579,021	-8,568	0,129	0,063
-578,006	-23,592	-0,132	-0,057
-576,992	-43,358	0,077	-0,028
-575,977	-200,000	0,014	0,103
-574,963	0,109	-0,005	0,003
-573,948	800,000	-0,026	0,078
-572,934	-43,208	-0,054	0,020
-571,919	-75,086	-0,042	0,011
-570,904	-53,949	-0,124	-0,041
-569,890	-200,000	0,001	0,007
-568,875	604,378	0,052	0,095
-567,861	800,000	0,062	0,160
-566,846	-98,338	-0,112	0,021
-565,831	-200,000	0,003	0,045
-564,817	178,014	-0,038	0,040
-563,802	-145,919	-0,020	0,001
-562,788	221,977	-0,080	0,094
-561,773	-200,000	0,003	0,054
-560,758	43,844	0,121	0,081
-559,744	241,207	-0,049	0,060
-558,729	-95,574	0,116	0,023
-557,715	-200,000	-0,040	-0,133
-556,700	-200,000	-0,021	-0,126
-555,685	-89,630	-0,028	-0,006
-554,671	490,866	0,110	0,184
-553,656	156,437	-0,017	-0,018
-552,642	30,764	-0,091	0,057
-551,627	-200,000	-0,001	0,147
-550,612	-200,000	-0,008	0,031
-549,598	-96,273	-0,034	0,007
-548,583	-200,000	0,008	-0,088
-547,569	-200,000	0,011	-0,092
-546,554	41,001	-0,136	0,089
-545,539	28,894	0,067	0,041
-544,525	311,429	-0,079	0,108
-543,510	-200,000	-0,016	-0,121
-542,496	800,000	-0,025	-0,057
-541,481	104,305	0,070	-0,060
-540,466	-200,000	0,007	0,093
-539,452	-102,608	-0,045	0,008
-538,437	800,000	0,058	0,167
-537,423	167,905	0,052	0,054
-536,408	71,583	-0,089	-0,068
-535,393	-23,805	-0,064	0,028
-534,379	208,541	0,041	-0,046
-533,364	235,062	-0,042	0,051
-532,350	50,733	0,087	0,060
-531,335	461,103	0,022	0,035
-530,321	59,452	-0,119	-0,085
-529,306	-200,000	0,012	-0,144
-528,291	-122,066	0,073	0,009
-527,277	384,862	0,048	-0,072
-526,262	164,542	-0,063	0,065
-525,248	30,414	0,045	0,028
-524,233	-133,870	0,070	-0,006
-523,218	-59,427	-0,077	-0,024
-522,204	-120,362	0,067	-0,008
-521,189	-200,000	-0,003	-0,040
-520,175	-86,753	-0,071	-0,016
-519,160	-55,449	0,083	-0,027
-518,145	-200,000	0,019	-0,116
-517,131	100,120	-0,098	0,083
-516,116	235,963	-0,115	0,138
-515,102	149,114	-0,088	-0,087
-514,087	-1,598	-0,092	0,047
-513,072	2,090	-0,060	-0,031
-512,058	738,851	0,060	-0,118
-511,043	-82,866	-0,077	0,018
-510,029	800,000	0,028	-0,058
-509,014	-92,451	0,070	0,014
-507,999	-23,650	-0,062	-0,027
-506,985	-200,000	-0,002	-0,068
-505,970	-56,681	0,070	0,022
-504,956	800,000	0,046	-0,098
-503,941	117,080	0,056	-0,050
-502,926	56,997	-0,060	0,043
-501,912	56,601	0,050	-0,036
-500,897	-48,744	0,058	0,020
-499,883	-4,876	-0,117	-0,058
-498,868	-200,000	-0,003	0,023
-497,853	-117,610	-0,012	0,002
-496,839	315,883	0,062	-0,085
-495,824	-200,000	0,022	0,088
-494,810	501,890	0,047	0,079
-493,795	-66,579	0,099	-0,028
-492,781	34,998	-0,128	-0,081
-491,766	200,708	0,005	-0,006
-490,751	-164,169	0,118	0,004
-489,737	269,106	0,022	-0,028
-488,722	-105,412	0,134	0,022
-487,708	-109,848	0,061	0,009
-486,693	-70,445	0,071	-0,019
-485,678	800,000	-0,079	0,225
-484,664	172,663	-0,066	0,069
-483,649	-200,000	0,021	0,095
-482,635	-148,935	-0,063	0,004
-481,620	800,000	-0,058	-0,119
-480,605	-43,624	0,083	0,030
-479,591	98,929	0,031	0,026
-478,576	-35,470	-0,130	-0,051
-477,562	96,512	0,035	0,029
-476,547	12,919	-0,082	0,046
-475,532	-200,000	-0,050	0,181
-474,518	-4,757	0,129	-0,065
-473,503	-95,916	0,099	0,019
-472,489	-200,000	-0,014	0,081
-471,474	-60,570	-0,060	0,018
-470,459	559,255	0,025	-0,045
-469,445	528,446	-0,060	0,104
-468,430	-93,110	0,111	-0,022
-467,416	71,193	0,128	-0,096
-466,401	-64,974	0,137	0,040
-465,386	-87,190	0,077	-0,017
-464,372	164,793	-0,041	-0,042
-463,357	407,938	0,058	-0,089
-462,343	-200,000	-0,021	-0,155
-461,328	154,335	-0,085	-0,085
-460,313	-42,158	0,095	0,035
-459,299	339,339	0,085	0,121
-458,284	174,890	-0,136	0,143
-457,270	122,817	0,004	-0,004
-456,255	800,000	-0,037	-0,078
-455,241	112,922	-0,024	0,021
-454,226	-200,000	-0,183	-0,000
-453,211	34,606	-0,049	-0,031
-452,197	-200,000	-0,001	-0,122
-451,182	-28,634	-0,044	-0,018
-450,168	-72,037	-0,034	0,009
-449,153	-200,000	0,031	-0,113
-448,138	800,000	-0,007	0,018
-447,124	-200,000	-0,005	0,028
-446,109	48,106	0,107	0,073
-445,095	800,000	-0,041	0,105
-444,080	95,927	0,045	0,037
-443,065	-59,452	0,107	-0,033
-442,051	442,408	-0,061	-0,097
-441,036	593,711	-0,075	0,134
-440,022	-65,758	-0,167	-0,048
-439,007	800,000	-0,041	-0,110
-437,992	-200,000	-0,020	-0,101
-436,978	777,420	-0,041	-0,082
-435,963	139,730	-0,015	0,014
-434,949	131,850	-0,021	-0,020
-433,934	-85,772	-0,158	-0,035
-432,919	250,477	-0,056	-0,070
-431,905	-89,969	-0,073	-0,015
-430,890	-200,000	0,003	-0,089
-429,876	-200,000	-0,007	-0,054
-428,861	-13,471	-0,046	0,022
-427,846	15,874	-0,061	-0,035
-426,832	800,000	-0,047	-0,096
-425,817	219,218	0,107	-0,124
-424,803	288,885	-0,035	0,046
-423,788	-103,552	0,133	-0,022
-422,773	-36,099	-0,071	0,028
-421,759	730,225	-0,031	-0,061
-420,744	-114,684	-0,088	-0,012
-419,730	-78,335	0,068	0,017
-418,715	762,273	0,018	0,036
-417,701	214,443	-0,026	0,030
-416,686	60,345	-0,046	0,033
-415,671	14,390	0,026	0,015
-414,657	194,260	-0,010	0,011
-413,642	-24,708	0,085	0,037
-412,628	-121,658	-0,141	-0,017
-411,613	197,837	0,006	-0,006
-410,598	800,000	-0,031	-0,070
-409,584	-200,000	-0,027	-0,092
-408,569	-53,886	0,068	-0,022
-407,555	800,000	-0,042	-0,113
-406,540	553,270	-0,023	0,040
-405,525	800,000	-0,003	-0,009
-404,511	143,891	0,107	-0,103
-403,496	-96,591	-0,080	-0,015
-402,482	196,051	-0,057	-0,064
-401,467	-200,000	-0,018	0,075
-400,452	-200,000	-0,001	0,086
-399,438	240,782	0,067	0,081
-398,423	800,000	-0,003	-0,010
-397,409	22,710	0,065	-0,039
-396,394	-41,707	-0,081	0,030
-395,379	-200,000	0,008	0,048
-394,365	-22,633	0,049	-0,022
-393,350	800,000	0,034	-0,079
-392,336	11,485	0,094	0,052
-391,321	44,843	-0,085	-0,057
-390,306	-200,000	-0,015	-0,048
-389,292	-200,000	-0,030	0,162
-388,277	-200,000	0,012	0,041
-387,263	509,357	-0,077	0,130
-386,248	-135,255	0,055	-0,005
-385,233	-200,000	0,004	0,027
-384,219	12,524	-0,105	0,059
-383,204	-200,000	-0,010	-0,080
-382,190	800,000	-0,010	0,022
-381,175	229,308	0,008	-0,010
-380,160	33,413	-0,086	0,054
-379,146	-200,000	0,024	0,088
-378,131	-200,000	0,001	0,029
-377,117	800,000	0,014	0,039
-376,102	-200,000	-0,013	-0,121
-375,088	-200,000	0,014	-0,111
-374,073	-200,000	-0,006	0,123
-373,058	-200,000	0,020	0,103
-372,044	-52,629	0,246	0,082
-371,029	-105,047	0,007	0,001
-370,015	-200,000	0,005	0,054
-369,000	-2,146	0,110	-0,056
-367,985	-200,000	0,017	-0,111
-366,971	800,000	0,022	-0,067
-365,956	-20,705	-0,014	0,006
-364,942	19,873	0,104	0,061
-363,927	11,396	0,027	-0,015
-362,912	-18,161	0,055	-0,025
-361,898	-200,000	-0,006	0,061
-360,883	-200,000	0,004	-0,039
-359,869	162,858	0,081	-0,082
-358,854	200,994	-0,027	0,030
-357,839	98,550	-0,016	-0,013
-356,825	369,822	-0,068	0,100
-355,810	-200,000	-0,015	0,137
-354,796	-32,010	-0,108	-0,044
-353,781	-26,474	0,071	-0,030
-352,766	-109,990	0,024	0,004
-351,752	-90,128	0,130	-0,027
-350,737	-200,000	-0,005	-0,102
-349,723	-43,374	0,199	-0,072
-348,708	800,000	0,046	0,099
-347,693	-81,947	-0,102	-0,024
-346,679	-14,020	-0,109	0,051
-345,664	-158,605	0,102	-0,004
-344,650	800,000	-0,035	0,106
-343,635	103,351	0,107	0,091
-342,620	142,764	0,070	-0,068
-341,606	-111,488	-0,173	0,025
-340,591	-200,000	0,038	0,177
-339,577	-43,500	-0,052	0,019
-338,562	44,507	0,112	0,074
-337,548	499,203	0,030	0,050
-336,533	118,515	0,010	0,009
-335,518	-109,757	-0,145	0,022
-334,504	-200,000	-0,004	0,105
-333,489	-200,000	0,001	0,034
-332,475	800,000	0,085	-0,183
-331,460	43,130	-0,040	0,026
-330,445	190,060	0,034	0,037
-329,431	-200,000	-0,027	0,122
-328,416	66,706	0,098	0,072
-327,402	-200,000	0,000	-0,027
-326,387	0,997	-0,060	0,031
-325,372	27,111	-0,024	0,015
-324,358	261,009	0,044	0,056
-323,343	-35,586	-0,061	0,024
-322,329	-161,044	0,098	0,004
-321,314	219,979	0,119	-0,138
-320,299	419,974	0,084	0,130
-319,285	-120,733	0,062	0,007
-318,270	-200,000	0,004	0,031
-317,256	-200,000	0,052	-0,181
-316,241	-200,000	-0,002	0,072
-315,226	-59,742	0,107	0,033
-314,212	-13,175	-0,045	-0,021
-313,197	18,310	0,124	-0,072
-312,183	-200,000	-0,007	0,046
-311,168	-81,286	0,047	0,011
-310,153	-36,171	-0,038	-0,015
-309,139	800,000	-0,011	-0,023
-308,124	365,232	-0,021	0,031
-307,110	-200,000	0,005	0,023
-306,095	-101,456	0,147	0,026
-305,080	410,191	0,026	-0,041
-304,066	-122,956	0,080	0,009
-303,051	-200,000	0,008	-0,052
-302,037	89,485	0,085	-0,069
-301,022	44,022	0,144	0,095
-300,008	800,000	-0,061	0,133
-298,993	800,000	-0,019	-0,050
-297,978	-84,461	-0,075	0,017
-296,964	-200,000	0,046	-0,177
-295,949	1,679	0,085	-0,044
-294,935	-104,098	-0,088	0,015
-293,920	800,000	-0,012	-0,031
-292,905	36,977	0,099	0,063
-291,891	-195,362	-0,064	-0,000
-290,876	432,010	-0,010	-0,016
-289,862	12,135	-0,143	0,080
-288,847	-57,209	0,065	-0,021
-287,832	2,127	0,089	0,046
-286,818	531,555	-0,046	-0,079
-285,803	22,190	0,129	0,076
-284,789	-77,504	0,045	0,011
-283,774	550,831	-0,050	0,087
-282,759	171,253	-0,068	-0,070
-281,745	-200,000	0,033	0,116
-280,730	109,264	0,131	0,113
-279,716	58,463	0,082	-0,058
-278,701	73,617	0,115	-0,087
-277,686	175,287	0,103	0,108
-276,672	187,217	0,093	-0,101
-275,657	-200,000	-0,018	-0,069
-274,643	-173,243	-0,148	-0,003
-273,628	236,099	0,058	-0,069
-272,613	776,815	-0,060	0,118
-271,599	703,434	-0,029	0,055
-270,584	253,465	0,054	0,067
-269,570	26,746	-0,164	-0,099
-268,555	185,011	-0,024	0,026
-267,540	-200,000	0,015	0,111
-266,526	198,051	-0,107	-0,119
-265,511	319,224	0,027	0,037
-264,497	-200,000	-0,034	-0,137
-263,482	-92,746	0,210	-0,042
-262,467	210,474	0,071	0,080
-261,453	79,412	-0,022	0,017
-260,438	-134,437	-0,133	0,012
-259,424	364,261	0,087	-0,127
-258,409	602,627	-0,034	-0,061
-257,395	90,685	-0,060	0,049
-256,380	3,543	0,154	-0,081
-255,365	-116,754	-0,045	-0,006
-254,351	-200,000	0,041	-0,175
-253,336	-113,436	-0,063	-0,009
-252,322	800,000	0,005	-0,012
-251,307	-137,348	0,206	0,017
-250,292	800,000	-0,016	0,036
-249,278	-200,000	-0,013	0,053
-248,263	-200,000	-0,020	-0,125
-247,249	-200,000	0,022	0,073
-246,234	-200,000	-0,002	0,025
-245,219	-147,059	-0,178	-0,011
-244,205	13,665	-0,068	-0,038
-243,190	162,557	0,099	-0,100
-242,176	-200,000	0,004	-0,090
-241,161	-200,000	0,009	0,102
-240,146	-200,000	0,021	-0,105
-239,132	-200,000	0,010	0,043
-238,117	-125,379	0,072	0,008
-237,103	-200,000	-0,044	0,178
-236,088	35,094	0,052	0,033
-235,073	192,492	-0,045	0,049
-234,059	-165,779	-0,065	0,002
-233,044	800,000	-0,014	0,040
-232,030	-140,056	-0,120	0,009
-231,015	267,742	-0,048	-0,061
-230,000	-151,706	-0,146	0,008
-228,986	240,951	0,186	-0,225
-227,971	-107,398	-0,046	0,007
-226,957	-108,468	0,128	0,020
-225,942	-200,000	-0,042	0,151
-224,927	-200,000	-0,005	-0,066
-223,913	-79,278	0,093	0,023
-222,898	0,577	-0,061	-0,031
-221,884	800,000	0,028	0,068
-220,869	245,736	-0,079	-0,096
-219,855	710,547	-0,065	0,125
-218,840	-75,938	0,165	0,042
-217,825	800,000	-0,026	0,073
-216,811	-200,000	0,013	-0,041
-215,796	305,739	-0,037	-0,050
-214,782	270,808	-0,061	-0,077
-213,767	241,586	0,023	-0,028
-212,752	202,550	0,089	-0,099
-211,738	-200,000	-0,015	0,060
-210,723	-153,220	-0,079	-0,004
-209,709	313,924	0,002	-0,002
-208,694	-60,785	0,110	-0,033
-207,679	-200,000	0,011	0,047
-206,665	499,866	-0,058	0,096
-205,650	-200,000	0,008	0,078
-204,636	68,914	0,107	-0,079
-203,621	800,000	0,008	-0,021
-202,606	-200,000	-0,018	-0,067
-201,592	-30,576	-0,086	-0,035
-200,577	800,000	-0,015	-0,041
-199,563	-200,000	0,048	-0,169
-198,548	-200,000	-0,027	0,130
-197,533	800,000	0,030	-0,089
-196,519	-5,433	-0,048	-0,024
-195,504	14,700	-0,119	-0,067
-194,490	237,586	-0,090	0,107
-193,475	164,973	0,067	-0,068
-192,460	84,271	0,158	-0,124
-191,446	-200,000	-0,022	-0,086
-190,431	800,000	0,009	-0,023
-189,417	-143,569	-0,022	0,001
-188,402	288,275	-0,048	0,063
-187,387	-200,000	0,025	-0,136
-186,373	-200,000	-0,140	0,000
-185,358	800,000	-0,020	0,041
-184,344	800,000	0,070	-0,154
-183,329	-81,440	-0,068	0,016
-182,315	158,872	-0,035	0,035
-181,300	345,900	-0,093	0,132
-180,285	-101,517	0,151	0,026
-179,271	-200,000	0,017	0,074
-178,256	800,000	0,022	0,055
-177,242	148,937	-0,015	-0,014
-176,227	593,026	-0,045	0,080
-175,212	-200,000	0,013	0,222
-174,198	-117,881	-0,035	0,004
-173,183	-200,000	0,004	0,044
-172,169	337,658	-0,083	0,117
-171,154	800,000	0,001	-0,003
-170,139	12,470	-0,086	0,048
-169,125	189,455	0,095	-0,102
-168,110	154,618	0,068	-0,068
-167,096	800,000	0,010	-0,022
-166,081	472,238	0,067	-0,109
-165,066	44,995	-0,103	-0,068
-164,052	31,415	0,028	-0,017
-163,037	-200,000	-0,005	-0,034
-162,023	800,000	0,028	-0,069
-161,008	80,469	-0,073	0,056
-159,993	-106,969	-0,024	0,004
-158,979	-77,861	-0,095	-0,023
-157,964	-200,000	0,027	-0,109
-156,950	1,636	-0,026	0,013
-155,935	-74,293	-0,126	0,033
-154,920	577,300	0,029	0,050
-153,906	-21,786	0,056	-0,025
-152,891	479,893	0,060	-0,098
-151,877	-200,000	0,033	0,163
-150,862	174,731	0,075	0,078
-149,847	19,817	-0,160	0,092
-148,833	334,290	-0,003	0,005
-147,818	-28,105	0,133	0,055
-146,804	786,958	0,060	0,119
-145,789	-41,533	0,092	-0,034
-144,775	74,871	-0,110	0,083
-143,760	-200,000	0,010	-0,123
-142,745	-125,497	-0,076	-0,008
-141,731	173,145	0,067	0,069
-140,716	86,897	0,060	-0,048
-139,702	-200,000	0,038	0,153
-138,687	-200,000	0,027	-0,123
-137,672	117,999	-0,092	-0,081
-136,658	-53,399	-0,090	-0,029
-135,643	198,133	-0,068	-0,074
-134,629	-95,525	0,061	0,012
-133,614	396,024	0,043	-0,065
-132,599	284,482	0,090	0,116
-131,585	110,501	-0,056	0,048
-130,570	-200,000	0,037	-0,117
-129,556	-30,550	-0,094	-0,038
-128,541	-200,000	0,029	-0,133
-127,526	800,000	-0,024	0,056
-126,512	-200,000	-0,012	0,106
-125,497	800,000	0,015	-0,033
-124,483	-29,500	0,147	0,060
-123,468	473,896	0,063	0,102
-122,453	-6,241	0,069	-0,034
-121,439	-200,000	-0,014	0,070
-120,424	-200,000	-0,010	-0,037
