DTS Sentinel unit serial number:	SN410029Multiplexer serial number:	ORYXHardware model number:	OX2-SRSoftware version number:	ORYX F/W v4,00 Oryx Data Collector v3.7.2.0data status	okinstallation	B6 Nyhavnadifferential loss correction	single-endedforward channel	channel 2reverse channel	N/Adate	2023/12/07time	22:20:08forward acquisition time	300,00reverse acquisition time	0,00gamma	499,1914k internal	0,3165k external	0,3165temperature offset calibration	1,0000default loss term (dB/km)	0,3820temperature slope calibration	1,0000multiplexer offset coefficient	1,0000multiplexer slope coefficient	1,0000fibre end	0,00T internal ref (°C)	13,59T ext. ref 1 (°C)	-3,33T ext. ref 2 (°C)	-3,32length (m)	temperature (°C)	Stokes	anti-Stokes-744,400	53,564	0,131	0,092
-743,385	-56,769	-0,229	0,074
-742,371	-200,000	0,049	0,173
-741,356	-99,218	-0,310	0,057
-740,342	17,426	0,088	0,052
-739,327	-186,052	-0,296	0,003
-738,312	7,701	0,088	0,048
-737,298	-132,502	-0,275	0,026
-736,283	-91,154	0,136	0,028
-735,269	-158,788	-0,324	0,013
-734,254	-200,000	-0,057	0,192
-733,239	-73,339	-0,470	-0,126
-732,225	10,572	0,197	0,110
-731,210	415,099	-0,054	-0,085
-730,196	-127,998	0,122	-0,013
-729,181	12,107	-0,155	0,087
-728,167	74,275	-0,055	-0,043
-727,152	189,972	0,039	-0,044
-726,137	-19,552	-0,226	-0,103
-725,123	-26,197	-0,055	-0,023
-724,108	59,107	-0,117	0,084
-723,094	77,031	-0,111	-0,087
-722,079	184,767	-0,114	-0,124
-721,064	14,774	-0,008	-0,004
-720,050	-200,000	0,066	0,000
-719,035	43,171	-0,174	-0,117
-718,021	294,018	0,022	-0,029
-717,006	415,945	-0,153	-0,241
-715,991	-200,000	0,044	-0,182
-714,977	249,402	-0,012	0,015
-713,962	-148,374	0,037	0,002
-712,948	278,665	-0,044	-0,057
-711,933	-200,000	-0,005	-0,089
-710,918	-2,450	0,073	0,038
-709,904	-200,000	0,027	-0,130
-708,889	800,000	-0,055	-0,145
-707,875	-200,000	0,009	-0,103
-706,860	800,000	0,039	-0,100
-705,845	-200,000	-0,023	-0,077
-704,831	-200,000	0,011	0,055
-703,816	-15,877	0,091	-0,042
-702,802	-41,180	-0,115	-0,043
-701,787	-200,000	0,025	-0,102
-700,772	-200,000	0,032	-0,121
-699,758	0,009	0,098	-0,051
-698,743	-200,000	-0,018	0,093
-697,729	-200,000	-0,034	0,110
-696,714	75,909	-0,102	-0,079
-695,699	-10,378	-0,110	-0,054
-694,685	-180,090	0,051	-0,001
-693,670	-78,511	-0,069	-0,017
-692,656	-200,000	0,006	-0,043
-691,641	-58,476	0,063	-0,020
-690,627	112,072	0,067	-0,059
-689,612	-138,094	-0,162	-0,013
-688,597	415,040	0,037	-0,058
-687,583	561,022	-0,055	-0,098
-686,568	284,862	0,031	-0,041
-685,554	123,469	-0,078	-0,071
-684,539	-3,723	0,098	0,050
-683,524	-62,196	-0,124	0,038
-682,510	-41,942	-0,126	-0,047
-681,495	2,302	-0,051	-0,027
-680,481	-200,000	-0,016	-0,055
-679,466	-200,000	-0,028	-0,163
-678,451	-64,157	0,021	-0,006
-677,437	-200,000	-0,006	0,046
-676,422	194,029	0,061	-0,068
-675,408	436,139	0,036	-0,058
-674,393	-200,000	0,008	-0,057
-673,378	149,105	-0,112	-0,111
-672,364	27,350	-0,108	-0,066
-671,349	129,436	-0,054	-0,050
-670,335	-133,127	-0,129	-0,012
-669,320	800,000	-0,019	0,053
-668,305	-17,418	0,057	-0,026
-667,291	-30,953	-0,130	0,053
-666,276	-64,331	0,083	0,024
-665,262	128,129	0,006	-0,006
-664,247	169,844	0,082	-0,086
-663,232	135,583	0,057	0,054
-662,218	-200,000	-0,044	0,160
-661,203	-200,000	-0,015	-0,064
-660,189	336,384	-0,056	-0,079
-659,174	-15,824	-0,074	-0,034
-658,159	-170,038	0,025	0,001
-657,145	-185,570	-0,024	0,000
-656,130	800,000	0,024	-0,060
-655,116	-148,677	0,036	-0,002
-654,101	127,715	-0,122	-0,113
-653,086	262,156	0,045	-0,057
-652,072	0,224	-0,147	0,076
-651,057	-200,000	-0,004	0,147
-650,043	-83,572	0,058	0,013
-649,028	-200,000	-0,014	-0,066
-648,014	-110,397	-0,075	0,011
-646,999	-200,000	-0,019	0,083
-645,984	-200,000	-0,031	0,129
-644,970	424,964	-0,054	0,086
-643,955	-200,000	0,012	0,108
-642,941	-200,000	-0,009	-0,104
-641,926	377,221	0,048	-0,073
-640,911	-56,577	0,114	-0,037
-639,897	69,178	0,068	0,051
-638,882	72,678	-0,043	-0,033
-637,868	-12,081	0,019	-0,009
-636,853	-200,000	-0,015	0,107
-635,838	59,144	-0,064	-0,046
-634,824	-13,129	-0,093	-0,044
-633,809	101,751	0,113	0,097
-632,795	166,445	-0,008	-0,008
-631,780	63,110	-0,051	0,038
-630,765	-49,797	0,084	-0,029
-629,751	-84,253	-0,119	0,027
-628,736	-81,519	-0,046	0,011
-627,722	7,985	-0,082	-0,045
-626,707	800,000	-0,053	-0,123
-625,692	-200,000	0,003	0,097
-624,678	625,179	0,013	-0,025
-623,663	-68,756	0,053	-0,015
-622,649	-57,251	0,054	-0,017
-621,634	-200,000	0,005	-0,109
-620,619	-94,956	0,061	-0,012
-619,605	-127,997	0,062	0,006
-618,590	-200,000	-0,014	0,105
-617,576	252,293	0,066	-0,082
-616,561	-109,740	-0,058	0,009
-615,546	800,000	-0,031	-0,089
-614,532	10,546	-0,083	0,046
-613,517	-200,000	0,040	-0,149
-612,503	171,463	0,028	0,029
-611,488	-51,603	-0,038	0,013
-610,474	20,234	0,046	0,027
-609,459	361,781	-0,034	-0,051
-608,444	800,000	-0,070	-0,151
-607,430	800,000	-0,037	-0,106
-606,415	-28,013	-0,082	0,034
-605,401	-200,000	-0,005	-0,028
-604,386	-73,564	0,160	-0,042
-603,371	188,262	-0,032	-0,035
-602,357	-200,000	-0,014	0,086
-601,342	325,459	0,030	-0,042
-600,328	-54,461	-0,041	0,013
-599,313	330,755	0,036	0,050
-598,298	-161,137	-0,030	-0,001
-597,284	365,379	-0,060	-0,089
-596,269	-72,221	0,067	-0,018
-595,255	22,824	-0,142	0,085
-594,240	83,780	-0,080	0,064
-593,225	800,000	0,041	-0,087
-592,211	-163,019	0,057	0,002
-591,196	-200,000	-0,013	0,065
-590,182	304,433	0,051	0,069
-589,167	23,328	0,144	0,086
-588,152	1,805	0,073	0,039
-587,138	-45,154	-0,103	-0,037
-586,123	-200,000	0,003	-0,018
-585,109	-36,661	-0,079	0,031
-584,094	-200,000	0,010	-0,039
-583,079	-47,010	-0,022	0,008
-582,065	89,443	-0,150	-0,123
-581,050	237,602	-0,048	-0,059
-580,036	800,000	0,040	-0,082
-579,021	-63,038	-0,088	0,026
-578,006	-41,698	-0,129	-0,048
-576,992	177,057	-0,078	0,083
-575,977	-200,000	0,013	-0,180
-574,963	266,784	0,051	0,065
-573,948	-180,893	0,093	0,001
-572,934	48,821	-0,023	-0,016
-571,919	461,669	-0,081	0,133
-570,904	222,631	0,047	-0,055
-569,890	-200,000	0,018	-0,193
-568,875	587,026	-0,063	-0,114
-567,861	800,000	-0,022	0,052
-566,846	-200,000	-0,031	0,118
-565,831	-83,969	-0,094	0,022
-564,817	65,392	0,072	0,053
-563,802	-158,054	-0,180	0,008
-562,788	800,000	0,027	0,078
-561,773	-26,934	-0,063	-0,027
-560,758	149,740	-0,025	0,025
-559,744	-200,000	-0,027	0,104
-558,729	78,523	0,064	0,050
-557,715	20,449	0,115	-0,068
-556,700	-44,832	0,083	0,030
-555,685	-108,669	0,058	0,009
-554,671	-34,702	0,030	0,012
-553,656	309,164	-0,077	0,106
-552,642	-2,854	0,167	-0,085
-551,627	-200,000	0,004	0,028
-550,612	-200,000	-0,021	-0,114
-549,598	773,142	-0,046	-0,091
-548,583	-200,000	0,009	0,168
-547,569	-200,000	0,005	0,025
-546,554	171,008	0,063	0,066
-545,539	350,785	0,053	-0,077
-544,525	-29,412	0,186	-0,077
-543,510	-8,768	-0,131	-0,064
-542,496	338,239	-0,074	-0,106
-541,481	-32,748	-0,143	-0,058
-540,466	168,711	-0,006	-0,006
-539,452	800,000	-0,045	-0,092
-538,437	-130,664	0,176	0,017
-537,423	-90,097	0,128	0,027
-536,408	156,656	-0,090	-0,091
-535,393	-102,500	-0,040	-0,007
-534,379	85,755	-0,014	0,011
-533,364	-113,321	-0,051	0,007
-532,350	-200,000	0,016	0,105
-531,335	79,181	0,039	-0,031
-530,321	-106,496	-0,205	-0,033
-529,306	800,000	0,049	-0,113
-528,291	21,793	0,193	-0,114
-527,277	350,931	-0,046	0,067
-526,262	-200,000	-0,000	-0,018
-525,248	800,000	-0,039	-0,119
-524,233	324,319	0,052	0,072
-523,218	800,000	-0,016	0,047
-522,204	-200,000	0,012	0,096
-521,189	109,724	0,029	-0,025
-520,175	-151,851	-0,017	-0,001
-519,160	63,324	0,038	-0,028
-518,145	2,319	0,054	0,028
-517,131	800,000	0,048	-0,129
-516,116	-45,216	-0,081	0,029
-515,102	155,677	-0,081	0,081
-514,087	205,679	-0,078	0,089
-513,072	583,361	-0,053	0,096
-512,058	271,983	0,076	0,098
-511,043	87,258	-0,075	0,060
-510,029	-53,736	-0,023	-0,008
-509,014	-200,000	0,010	0,149
-507,999	55,424	0,076	0,054
-506,985	800,000	-0,065	0,133
-505,970	-200,000	0,024	-0,100
-504,956	-200,000	0,016	-0,090
-503,941	-182,463	-0,166	-0,002
-502,926	218,044	0,033	-0,038
-501,912	800,000	0,036	-0,089
-500,897	-85,974	-0,082	-0,018
-499,883	-168,284	-0,070	0,002
-498,868	100,829	0,052	-0,044
-497,853	348,135	0,051	-0,074
-496,839	-200,000	0,007	0,065
-495,824	23,620	0,070	0,042
-494,810	-78,934	-0,083	0,020
-493,795	159,545	-0,072	0,073
-492,781	700,783	-0,016	0,031
-491,766	88,464	-0,105	-0,085
-490,751	-200,000	-0,031	-0,152
-489,737	800,000	-0,027	-0,079
-488,722	181,394	-0,032	0,035
-487,708	800,000	0,008	0,016
-486,693	-55,345	0,111	-0,036
-485,678	800,000	-0,031	0,067
-484,664	-200,000	0,038	-0,141
-483,649	203,314	0,078	-0,088
-482,635	133,466	0,013	-0,012
-481,620	-200,000	0,006	0,117
-480,605	595,581	0,072	-0,129
-479,591	800,000	0,034	-0,087
-478,576	800,000	-0,021	-0,049
-477,562	29,511	-0,076	-0,047
-476,547	-48,168	0,023	-0,008
-475,532	-200,000	-0,018	-0,096
-474,518	26,848	-0,122	0,074
-473,503	158,747	0,082	0,083
-472,489	800,000	-0,033	-0,098
-471,474	-37,619	0,089	0,034
-470,459	800,000	0,017	-0,035
-469,445	180,767	-0,105	-0,113
-468,430	347,850	0,016	-0,022
-467,416	-200,000	-0,019	-0,061
-466,401	-200,000	-0,023	-0,103
-465,386	-159,376	0,116	0,005
-464,372	-200,000	-0,010	0,073
-463,357	623,245	-0,023	0,043
-462,343	-200,000	-0,024	-0,095
-461,328	-200,000	-0,017	0,060
-460,313	800,000	-0,019	-0,054
-459,299	313,895	0,040	0,055
-458,284	-41,106	0,155	0,058
-457,270	-117,668	0,108	-0,014
-456,255	-101,897	0,025	0,004
-455,241	210,986	-0,048	-0,055
-454,226	128,447	0,137	0,126
-453,211	-4,580	0,071	0,036
-452,197	-200,000	0,002	-0,030
-451,182	5,458	0,151	0,081
-450,168	557,303	-0,059	-0,104
-449,153	-112,821	-0,098	-0,014
-448,138	76,822	-0,065	0,050
-447,124	536,937	0,022	0,038
-446,109	292,532	-0,090	0,120
-445,095	63,798	0,084	0,062
-444,080	800,000	0,040	-0,103
-443,065	-200,000	-0,003	0,035
-442,051	2,110	-0,019	0,010
-441,036	359,400	0,047	-0,068
-440,022	111,993	-0,114	-0,100
-439,007	364,185	0,036	-0,053
-437,992	53,534	0,066	0,046
-436,978	-146,729	0,170	-0,010
-435,963	-137,076	-0,107	0,009
-434,949	187,691	-0,019	-0,021
-433,934	479,776	-0,032	-0,054
-432,919	194,669	-0,042	-0,046
-431,905	-200,000	0,046	-0,171
-430,890	-136,164	0,167	0,014
-429,876	-200,000	0,023	0,124
-428,861	800,000	0,036	-0,081
-427,846	76,281	0,089	0,068
-426,832	44,637	-0,067	-0,045
-425,817	620,247	0,080	-0,147
-424,803	-31,691	0,070	-0,028
-423,788	-200,000	0,031	0,103
-422,773	-128,794	0,060	0,006
-421,759	-200,000	-0,007	0,025
-420,744	399,595	-0,024	-0,037
-419,730	126,162	-0,016	0,015
-418,715	800,000	-0,030	0,081
-417,701	669,644	0,047	0,088
-416,686	-106,849	0,177	0,028
-415,671	75,535	0,042	-0,032
-414,657	400,325	-0,030	0,046
-413,642	-157,533	0,135	0,006
-412,628	-50,208	-0,036	-0,012
-411,613	-119,582	-0,075	-0,009
-410,598	800,000	0,020	0,041
-409,584	-200,000	-0,045	0,169
-408,569	146,486	0,097	-0,094
-407,555	94,054	0,018	-0,015
-406,540	-200,000	-0,092	-0,000
-405,525	170,777	0,048	-0,050
-404,511	-60,223	-0,116	-0,036
-403,496	476,006	-0,019	-0,031
-402,482	-200,000	-0,010	-0,057
-401,467	-142,651	-0,050	-0,004
-400,452	120,085	0,044	0,039
-399,438	-36,825	0,067	0,026
-398,423	6,227	-0,074	-0,040
-397,409	58,281	-0,073	-0,052
-396,394	800,000	-0,039	-0,079
-395,379	-200,000	0,001	0,116
-394,365	-117,437	-0,083	0,011
-393,350	174,835	0,080	-0,085
-392,336	437,355	0,037	0,058
-391,321	-34,675	-0,155	0,061
-390,306	22,453	-0,134	-0,079
-389,292	800,000	0,007	0,018
-388,277	380,265	-0,051	0,076
-387,263	476,260	0,101	-0,167
-386,248	-200,000	0,021	0,092
-385,233	-37,964	0,168	-0,065
-384,219	385,160	-0,025	-0,038
-383,204	-82,278	-0,105	-0,025
-382,190	100,881	0,069	-0,058
-381,175	800,000	0,018	-0,045
-380,160	-56,976	0,089	-0,028
-379,146	151,872	0,129	-0,128
-378,131	-80,558	0,072	0,017
-377,117	273,216	-0,098	-0,126
-376,102	52,222	-0,066	-0,045
-375,088	-200,000	0,025	-0,148
-374,073	800,000	-0,010	-0,026
-373,058	800,000	0,045	0,108
-372,044	-200,000	0,008	0,088
-371,029	800,000	0,026	-0,052
-370,015	-85,579	-0,107	-0,024
-369,000	183,929	0,073	-0,079
-367,985	800,000	0,012	0,036
-366,971	-38,701	-0,113	-0,043
-365,956	-191,468	0,059	0,000
-364,942	279,608	0,069	0,090
-363,927	589,854	-0,016	0,029
-362,912	-177,013	-0,070	-0,001
-361,898	719,840	-0,034	0,066
-360,883	55,361	-0,058	-0,041
-359,869	-200,000	-0,026	-0,148
-358,854	324,680	0,048	-0,067
-357,839	70,799	0,173	0,130
-356,825	288,621	0,045	0,059
-355,810	44,446	0,023	-0,015
-354,796	-200,000	-0,030	0,119
-353,781	-62,157	0,026	-0,008
-352,766	-121,568	0,106	0,013
-351,752	-23,853	-0,136	0,059
-350,737	327,618	0,080	-0,111
-349,723	-200,000	0,006	0,208
-348,708	800,000	-0,026	0,080
-347,693	-200,000	-0,033	0,121
-346,679	-200,000	-0,023	0,086
-345,664	-77,605	0,068	0,017
-344,650	364,293	0,038	0,055
-343,635	-200,000	-0,001	0,084
-342,620	-200,000	-0,026	0,131
-341,606	25,660	0,069	-0,041
-340,591	87,343	-0,019	0,015
-339,577	75,518	-0,069	-0,053
-338,562	-200,000	0,013	0,085
-337,548	-30,933	-0,065	0,026
-336,533	74,661	0,047	-0,036
-335,518	193,235	0,085	0,093
-334,504	-200,000	0,046	0,163
-333,489	-157,368	-0,013	-0,001
-332,475	-25,591	-0,060	0,026
-331,460	-179,141	0,026	0,000
-330,445	-131,725	-0,093	0,009
-329,431	284,879	0,047	-0,062
-328,416	800,000	-0,052	0,112
-327,402	800,000	-0,045	0,116
-326,387	249,269	-0,113	0,138
-325,372	-200,000	0,014	-0,093
-324,358	134,713	-0,047	0,044
-323,343	-200,000	-0,029	0,181
-322,329	5,853	0,210	0,112
-321,314	8,389	0,038	0,021
-320,299	800,000	-0,034	0,093
-319,285	-200,000	0,015	0,110
-318,270	-200,000	0,034	-0,134
-317,256	78,095	-0,101	0,078
-316,241	-86,714	0,097	-0,021
-315,226	-177,579	0,101	-0,002
-314,212	-79,232	0,166	0,040
-313,197	193,390	-0,017	0,018
-312,183	-94,363	-0,132	-0,026
-311,168	244,137	-0,102	-0,124
-310,153	-80,109	0,134	-0,032
-309,139	16,769	-0,142	-0,081
-308,124	-190,729	0,196	-0,001
-307,110	-71,580	-0,037	0,010
-306,095	407,189	0,064	0,098
-305,080	-25,952	-0,071	-0,030
-304,066	480,189	-0,069	-0,113
-303,051	-200,000	0,002	0,018
-302,037	7,356	0,082	-0,044
-301,022	800,000	0,045	0,101
-300,008	226,634	0,073	0,085
-298,993	-200,000	0,003	0,049
-297,978	421,239	-0,044	0,068
-296,964	-31,648	0,084	0,034
-295,949	-52,951	-0,028	-0,009
-294,935	161,975	-0,098	-0,099
-293,920	89,388	0,028	0,023
-292,905	-200,000	0,001	-0,078
-291,891	800,000	0,067	0,161
-290,876	-34,963	-0,201	0,079
-289,862	8,623	-0,036	0,019
-288,847	-200,000	0,027	-0,088
-287,832	-200,000	0,023	-0,138
-286,818	34,852	0,046	0,029
-285,803	800,000	0,052	0,119
-284,789	125,267	0,079	-0,072
-283,774	456,805	0,035	-0,057
-282,759	-47,201	0,007	-0,003
-281,745	264,026	0,048	-0,060
-280,730	254,820	-0,124	-0,153
-279,716	362,579	0,019	0,028
-278,701	-13,567	0,101	0,047
-277,686	29,859	0,151	0,093
-276,672	800,000	-0,043	0,105
-275,657	-21,893	0,174	0,076
-274,643	-119,009	0,040	-0,005
-273,628	70,823	-0,174	-0,130
-272,613	124,109	-0,079	0,071
-271,599	-200,000	0,023	-0,077
-270,584	-73,101	0,053	-0,014
-269,570	122,273	-0,105	-0,095
-268,555	309,854	-0,052	0,071
-267,540	507,329	-0,017	-0,029
-266,526	91,131	-0,152	0,123
-265,511	271,519	-0,076	-0,097
-264,497	-152,462	-0,057	0,003
-263,482	-114,594	0,172	0,023
-262,467	-200,000	-0,035	-0,142
-261,453	-200,000	0,002	0,138
-260,438	141,240	-0,022	-0,021
-259,424	-136,692	0,105	-0,009
-258,409	177,292	0,027	-0,029
-257,395	-98,858	0,081	-0,015
-256,380	47,626	-0,101	0,068
-255,365	224,865	0,111	0,130
-254,351	206,344	0,067	0,076
-253,336	800,000	0,030	0,096
-252,322	-148,766	-0,054	0,003
-251,307	-39,919	-0,076	0,029
-250,292	442,831	0,118	-0,188
-249,278	207,948	0,082	0,093
-248,263	-94,555	0,021	-0,004
-247,249	-48,249	0,138	0,048
-246,234	-200,000	0,003	0,023
-245,219	48,584	-0,030	0,020
-244,205	157,802	0,129	-0,129
-243,190	-93,816	-0,114	0,023
-242,176	800,000	0,049	0,135
-241,161	310,844	-0,084	-0,114
-240,146	800,000	0,020	0,040
-239,132	-89,795	0,030	0,006
-238,117	-200,000	0,013	-0,158
-237,103	183,122	-0,085	-0,090
-236,088	150,958	-0,057	-0,056
-235,073	-122,318	0,038	0,004
-234,059	11,658	0,078	-0,043
-233,044	241,511	-0,115	0,138
-232,030	-200,000	0,010	0,061
-231,015	-25,617	-0,166	-0,070
-230,000	-200,000	0,005	-0,143
-228,986	800,000	0,051	0,136
-227,971	138,040	0,059	-0,056
-226,957	-200,000	0,006	0,055
-225,942	-200,000	-0,033	0,124
-224,927	-103,359	-0,079	0,013
-223,913	800,000	0,018	0,048
-222,898	49,233	-0,100	-0,067
-221,884	124,434	-0,029	0,026
-220,869	-175,460	-0,053	0,001
-219,855	-52,678	0,128	-0,042
-218,840	-28,151	-0,037	-0,015
-217,825	364,605	0,014	0,021
-216,811	-72,083	-0,142	-0,038
-215,796	-200,000	-0,005	0,147
-214,782	483,759	-0,026	-0,043
-213,767	607,939	-0,038	-0,068
-212,752	-200,000	-0,013	0,070
-211,738	10,629	-0,126	0,069
-210,723	143,846	0,038	0,037
-209,709	452,414	-0,033	0,053
-208,694	800,000	-0,034	0,092
-207,679	-198,563	0,086	-0,000
-206,665	277,282	-0,024	-0,030
-205,650	-200,000	-0,017	0,063
-204,636	-200,000	-0,021	0,186
-203,621	-167,371	0,064	0,002
-202,606	800,000	-0,059	0,127
-201,592	-71,078	-0,098	-0,026
-200,577	13,030	-0,129	-0,072
-199,563	-200,000	-0,020	-0,120
-198,548	-114,739	0,012	-0,002
-197,533	-200,000	-0,005	-0,129
-196,519	-200,000	-0,013	-0,198
-195,504	-200,000	-0,030	0,104
-194,490	-200,000	0,019	0,131
-193,475	-68,420	-0,170	-0,047
-192,460	377,138	0,068	0,100
-191,446	236,672	0,041	0,049
-190,431	44,190	0,162	0,107
-189,417	800,000	-0,027	-0,078
-188,402	356,387	0,048	-0,069
-187,387	800,000	0,030	0,064
-186,373	-32,407	-0,062	0,025
-185,358	-109,655	0,039	-0,006
-184,344	105,686	0,056	0,047
-183,329	80,143	-0,097	0,075
-182,315	-72,760	0,118	0,031
-181,300	-200,000	-0,021	0,069
-180,285	546,396	-0,048	-0,084
-179,271	696,441	-0,072	-0,137
-178,256	-82,338	-0,095	-0,022
-177,242	419,402	0,071	-0,110
-176,227	207,835	0,044	0,050
-175,212	-29,984	-0,096	-0,039
-174,198	150,273	-0,043	-0,042
-173,183	156,290	0,094	-0,093
-172,169	-161,730	-0,067	0,002
-171,154	-160,421	0,046	-0,002
-170,139	18,126	-0,045	0,026
-169,125	452,689	-0,044	0,070
-168,110	-107,105	-0,198	-0,031
-167,096	248,341	-0,056	0,068
-166,081	-85,712	0,024	-0,005
-165,066	800,000	-0,025	0,063
-164,052	199,139	0,083	-0,091
-163,037	61,091	0,060	-0,043
-162,023	133,848	-0,093	0,087
-161,008	-5,958	-0,081	-0,040
-159,993	512,139	-0,045	-0,076
-158,979	-200,000	-0,014	-0,136
-157,964	-140,244	0,100	0,007
-156,950	-200,000	0,003	-0,044
-155,935	-125,892	0,127	0,014
-154,920	663,837	0,027	-0,051
-153,906	800,000	0,045	-0,131
-152,891	800,000	0,011	-0,033
-151,877	-200,000	0,008	-0,047
-150,862	71,061	-0,143	-0,106
-149,847	800,000	0,072	-0,189
-148,833	161,516	-0,087	-0,087
-147,818	-82,927	0,093	0,021
-146,804	-200,000	0,018	0,187
-145,789	-1,817	0,182	0,092
-144,775	5,059	-0,052	-0,027
-143,760	32,594	0,131	-0,081
-142,745	169,557	-0,070	0,072
-141,731	11,659	-0,138	-0,076
-140,716	146,557	0,059	-0,057
-139,702	-62,480	-0,080	0,024
-138,687	-152,013	0,080	-0,004
-137,672	800,000	0,030	0,090
-136,658	-59,758	-0,068	0,021
-135,643	49,030	0,077	0,052
-134,629	-72,881	0,083	-0,022
-133,614	-200,000	-0,000	0,088
-132,599	133,368	0,076	0,071
-131,585	31,078	0,090	-0,055
-130,570	-200,000	-0,003	-0,136
-129,556	-9,814	-0,016	0,007
-128,541	54,290	-0,052	0,036
-127,526	184,942	0,077	-0,082
-126,512	209,786	0,071	-0,080
-125,497	79,545	-0,086	0,067
-124,483	-25,783	0,053	-0,022
-123,468	-200,000	0,008	-0,062
-122,453	-200,000	0,001	-0,009
-121,439	784,086	-0,023	0,046
-120,424	-24,123	-0,082	0,035
-119,410	-200,000	-0,029	-0,098
