DTS Sentinel unit serial number:	SN410029Multiplexer serial number:	ORYXHardware model number:	OX2-SRSoftware version number:	ORYX F/W v4,00 Oryx Data Collector v3.7.2.0data status	okinstallation	B6 Nyhavnadifferential loss correction	single-endedforward channel	channel 2reverse channel	N/Adate	2023/12/10time	20:35:08forward acquisition time	300,00reverse acquisition time	0,00gamma	499,1914k internal	0,3122k external	0,3122temperature offset calibration	1,0000default loss term (dB/km)	0,3820temperature slope calibration	1,0000multiplexer offset coefficient	1,0000multiplexer slope coefficient	1,0000fibre end	0,00T internal ref (°C)	22,27T ext. ref 1 (°C)	5,78T ext. ref 2 (°C)	5,82length (m)	temperature (°C)	Stokes	anti-Stokes-744,400	348,341	0,045	-0,067
-743,385	-125,441	-0,179	0,020
-742,371	-85,556	0,194	-0,045
-741,356	-188,357	-0,119	0,001
-740,342	-200,000	0,013	0,102
-739,327	71,473	-0,181	0,140
-738,312	435,491	0,063	0,102
-737,298	-168,408	-0,158	0,004
-736,283	-37,172	0,095	-0,038
-735,269	-47,811	-0,151	0,054
-734,254	-83,272	-0,120	0,029
-733,239	-36,431	-0,449	-0,179
-732,225	-101,512	0,083	-0,015
-731,210	-126,627	0,061	-0,007
-730,196	169,951	0,029	0,031
-729,181	800,000	-0,096	0,284
-728,167	-200,000	0,015	-0,172
-727,152	-94,080	-0,062	0,013
-726,137	-93,410	-0,033	-0,007
-725,123	315,623	-0,082	-0,116
-724,108	78,908	-0,200	-0,159
-723,094	74,574	-0,085	-0,067
-722,079	800,000	-0,039	0,101
-721,064	19,113	-0,063	0,038
-720,050	-200,000	0,030	0,150
-719,035	-200,000	0,010	-0,035
-718,021	-167,153	-0,099	0,003
-717,006	152,273	-0,082	-0,083
-715,991	-200,000	0,004	0,082
-714,977	150,041	-0,051	-0,051
-713,962	800,000	-0,034	0,108
-712,948	-200,000	0,021	0,113
-711,933	97,490	-0,101	-0,086
-710,918	800,000	-0,036	-0,081
-709,904	800,000	-0,033	-0,069
-708,889	4,779	-0,094	0,051
-707,875	-106,126	0,074	-0,012
-706,860	62,427	0,062	-0,046
-705,845	85,216	0,089	-0,073
-704,831	64,517	0,029	0,022
-703,816	-20,751	-0,055	0,025
-702,802	-200,000	-0,017	0,135
-701,787	162,056	-0,108	-0,113
-700,772	-200,000	0,003	-0,163
-699,758	-59,927	-0,101	0,032
-698,743	440,889	0,025	0,041
-697,729	184,948	-0,027	0,030
-696,714	-43,563	-0,109	0,041
-695,699	-200,000	0,002	0,014
-694,685	800,000	-0,018	0,046
-693,670	-3,230	0,084	-0,043
-692,656	624,450	0,047	-0,089
-691,641	-71,924	-0,099	-0,027
-690,627	-140,957	-0,098	0,007
-689,612	438,796	0,059	0,096
-688,597	134,619	-0,104	-0,100
-687,583	-47,465	-0,133	-0,048
-686,568	-200,000	0,013	0,155
-685,554	800,000	0,052	-0,128
-684,539	147,447	0,079	-0,079
-683,524	800,000	0,029	0,075
-682,510	-185,975	-0,131	-0,001
-681,495	-168,138	0,037	-0,001
-680,481	800,000	-0,036	-0,074
-679,466	-200,000	-0,002	0,014
-678,451	-80,339	-0,143	-0,035
-677,437	-58,388	0,120	-0,038
-676,422	93,931	0,061	0,051
-675,408	303,933	-0,095	-0,132
-674,393	-200,000	0,003	-0,072
-673,378	800,000	-0,035	-0,099
-672,364	-91,034	-0,119	-0,025
-671,349	-122,735	-0,002	0,000
-670,335	229,882	0,020	0,025
-669,320	-200,000	0,021	0,102
-668,305	384,838	-0,082	0,126
-667,291	769,434	0,018	0,037
-666,276	-65,482	-0,026	0,008
-665,262	-200,000	0,014	-0,136
-664,247	-135,505	-0,116	0,010
-663,232	109,025	-0,054	0,048
-662,218	-11,639	-0,024	-0,011
-661,203	116,668	0,030	-0,027
-660,189	96,739	-0,018	-0,015
-659,174	-39,460	-0,166	-0,064
-658,159	-200,000	0,007	-0,099
-657,145	730,984	0,021	-0,041
-656,130	800,000	-0,011	0,028
-655,116	3,979	0,011	-0,006
-654,101	800,000	0,035	0,086
-653,086	-87,382	0,188	-0,042
-652,072	133,793	-0,019	0,019
-651,057	306,753	-0,127	-0,176
-650,043	800,000	-0,043	-0,106
-649,028	-200,000	-0,009	0,037
-648,014	180,982	0,112	-0,122
-646,999	14,849	-0,035	-0,020
-645,984	38,035	-0,023	-0,015
-644,970	800,000	-0,071	-0,147
-643,955	-200,000	-0,004	-0,047
-642,941	800,000	0,027	-0,071
-641,926	786,394	-0,044	0,091
-640,911	-180,312	-0,044	0,001
-639,897	-200,000	0,023	0,085
-638,882	-200,000	-0,009	0,036
-637,868	-200,000	0,031	-0,121
-636,853	461,032	-0,074	-0,122
-635,838	445,047	-0,053	0,087
-634,824	732,218	0,008	0,016
-633,809	54,789	0,011	-0,008
-632,795	-200,000	-0,006	0,037
-631,780	306,811	0,040	-0,055
-630,765	-200,000	0,010	0,056
-629,751	-63,827	0,137	-0,041
-628,736	455,856	-0,016	-0,027
-627,722	353,368	-0,018	-0,026
-626,707	800,000	0,046	0,095
-625,692	-156,582	0,045	-0,002
-624,678	129,295	0,063	-0,060
-623,663	-47,514	0,055	-0,020
-622,649	-32,645	-0,086	-0,035
-621,634	-200,000	-0,008	-0,092
-620,619	-24,585	-0,087	-0,038
-619,605	205,204	-0,018	0,020
-618,590	55,309	0,051	-0,036
-617,576	-115,526	-0,098	0,014
-616,561	249,622	0,024	-0,031
-615,546	-200,000	-0,048	-0,190
-614,532	-144,743	-0,167	-0,011
-613,517	105,013	-0,142	-0,125
-612,503	723,485	0,024	0,048
-611,488	471,708	-0,036	0,060
-610,474	-200,000	0,002	-0,021
-609,459	70,687	0,047	0,036
-608,444	-75,825	0,076	-0,020
-607,430	374,756	0,046	-0,070
-606,415	800,000	-0,002	0,004
-605,401	598,117	-0,007	-0,013
-604,386	-129,032	0,030	0,003
-603,371	800,000	0,027	0,058
-602,357	-153,211	-0,080	-0,004
-601,342	-136,034	-0,111	0,010
-600,328	-70,040	-0,167	-0,047
-599,313	-102,711	-0,087	0,015
-598,298	-200,000	0,020	0,074
-597,284	-29,290	-0,095	0,040
-596,269	800,000	0,027	0,057
-595,255	800,000	0,044	0,141
-594,240	-81,507	-0,140	0,034
-593,225	248,191	-0,089	-0,111
-592,211	800,000	-0,024	0,064
-591,196	624,928	-0,073	0,136
-590,182	-100,331	0,056	0,010
-589,167	-200,000	-0,007	0,103
-588,152	313,436	-0,049	-0,068
-587,138	-66,027	0,138	0,040
-586,123	419,931	-0,031	-0,049
-585,109	800,000	-0,019	-0,044
-584,094	800,000	-0,035	0,076
-583,079	-46,858	0,152	0,055
-582,065	389,872	-0,032	0,049
-581,050	-127,871	0,018	0,002
-580,036	81,879	0,117	0,094
-579,021	-44,997	-0,019	0,007
-578,006	371,951	-0,027	-0,041
-576,992	207,558	0,037	0,043
-575,977	800,000	-0,061	0,181
-574,963	800,000	0,081	0,173
-573,948	-75,581	-0,131	0,034
-572,934	413,931	-0,040	0,063
-571,919	3,873	-0,056	-0,030
-570,904	6,324	-0,114	0,062
-569,890	800,000	0,004	-0,009
-568,875	-111,186	0,025	-0,004
-567,861	-49,963	0,018	-0,006
-566,846	800,000	-0,012	0,031
-565,831	451,283	0,047	-0,078
-564,817	110,052	0,061	0,054
-563,802	-195,538	-0,160	-0,001
-562,788	-200,000	0,006	-0,078
-561,773	-200,000	0,018	-0,090
-560,758	131,680	0,053	-0,050
-559,744	217,568	-0,016	-0,019
-558,729	83,557	0,008	0,006
-557,715	258,702	0,102	0,130
-556,700	-200,000	-0,011	-0,188
-555,685	-200,000	-0,027	-0,111
-554,671	377,155	-0,047	0,071
-553,656	-200,000	0,007	0,029
-552,642	800,000	0,087	0,239
-551,627	-68,458	0,090	-0,026
-550,612	126,290	-0,023	0,022
-549,598	196,991	-0,084	0,095
-548,583	-200,000	-0,019	0,097
-547,569	33,570	0,005	-0,003
-546,554	98,179	0,061	-0,052
-545,539	-87,236	-0,161	0,036
-544,525	-27,751	-0,101	-0,043
-543,510	384,050	0,032	-0,049
-542,496	-200,000	-0,015	-0,056
-541,481	800,000	-0,039	-0,098
-540,466	-200,000	0,000	-0,093
-539,452	-109,250	0,079	0,012
-538,437	-200,000	-0,015	0,165
-537,423	-200,000	-0,016	0,064
-536,408	-200,000	0,005	-0,096
-535,393	-56,949	0,080	0,026
-534,379	-3,615	-0,118	-0,060
-533,364	-200,000	-0,002	0,053
-532,350	800,000	-0,018	-0,052
-531,335	346,934	-0,068	-0,099
-530,321	38,189	0,064	0,042
-529,306	800,000	0,064	-0,169
-528,291	44,913	-0,051	0,035
-527,277	800,000	-0,028	-0,059
-526,262	266,882	0,018	-0,023
-525,248	800,000	-0,055	-0,131
-524,233	-200,000	-0,003	0,093
-523,218	271,628	0,047	0,062
-522,204	-200,000	-0,040	-0,142
-521,189	-9,919	0,004	-0,002
-520,175	-26,956	-0,189	-0,081
-519,160	194,784	-0,032	0,036
-518,145	-62,963	0,081	0,025
-517,131	45,918	0,123	-0,084
-516,116	-200,000	-0,028	0,109
-515,102	250,663	-0,054	-0,068
-514,087	161,087	0,093	0,096
-513,072	-200,000	-0,016	-0,096
-512,058	-200,000	0,003	-0,024
-511,043	592,347	-0,031	-0,058
-510,029	53,761	0,088	0,063
-509,014	236,234	0,088	-0,108
-507,999	75,028	0,075	0,059
-506,985	-157,195	-0,068	-0,003
-505,970	54,636	-0,004	0,003
-504,956	-100,444	-0,174	-0,032
-503,941	-27,607	0,170	0,072
-502,926	500,000	0,062	0,105
-501,912	-200,000	0,003	0,025
-500,897	800,000	0,020	-0,045
-499,883	38,921	-0,080	-0,052
-498,868	240,403	0,024	0,030
-497,853	800,000	0,023	-0,069
-496,839	-97,526	0,079	0,015
-495,824	800,000	-0,021	0,044
-494,810	-200,000	0,006	-0,038
-493,795	-47,811	-0,134	0,048
-492,781	58,904	-0,018	-0,013
-491,766	-200,000	0,032	-0,167
-490,751	-136,163	-0,064	-0,005
-489,737	115,212	0,029	-0,026
-488,722	-83,654	-0,151	0,035
-487,708	-200,000	0,019	0,143
-486,693	83,209	-0,055	-0,044
-485,678	287,908	0,021	-0,028
-484,664	277,522	-0,063	-0,083
-483,649	800,000	0,062	-0,143
-482,635	797,866	0,052	0,107
-481,620	44,006	-0,048	0,032
-480,605	-200,000	0,011	0,084
-479,591	-64,726	-0,100	0,030
-478,576	102,613	0,085	0,074
-477,562	-200,000	0,009	-0,079
-476,547	279,370	-0,110	-0,145
-475,532	80,354	-0,074	-0,059
-474,518	-200,000	0,018	0,090
-473,503	36,102	-0,102	0,066
-472,489	20,929	-0,019	0,012
-471,474	-200,000	-0,022	0,073
-470,459	53,124	0,091	0,064
-469,445	-200,000	0,024	-0,120
-468,430	5,470	0,090	0,049
-467,416	121,795	0,077	-0,071
-466,401	445,275	0,023	0,037
-465,386	-187,794	0,057	-0,001
-464,372	-200,000	-0,029	0,106
-463,357	-30,001	0,026	-0,011
-462,343	290,747	0,090	0,120
-461,328	-200,000	0,007	0,059
-460,313	-90,337	0,074	0,016
-459,299	159,740	0,085	0,087
-458,284	800,000	0,034	0,077
-457,270	-200,000	0,006	0,024
-456,255	-85,452	0,050	-0,011
-455,241	464,135	0,000	-0,000
-454,226	800,000	0,040	-0,093
-453,211	-3,273	-0,118	-0,060
-452,197	-62,867	0,120	0,036
-451,182	-200,000	0,012	-0,147
-450,168	-200,000	0,003	0,023
-449,153	-200,000	-0,007	-0,049
-448,138	-200,000	0,003	-0,159
-447,124	-83,066	-0,079	0,019
-446,109	800,000	-0,052	-0,139
-445,095	75,706	0,070	-0,054
-444,080	14,633	0,079	0,046
-443,065	-34,266	0,062	-0,025
-442,051	-155,609	-0,072	0,003
-441,036	-200,000	0,023	-0,075
-440,022	-200,000	-0,042	-0,153
-439,007	-200,000	-0,013	-0,080
-437,992	-200,000	0,005	-0,066
-436,978	-200,000	0,005	0,108
-435,963	-162,191	0,020	-0,001
-434,949	-200,000	0,017	0,071
-433,934	119,560	-0,078	-0,071
-432,919	83,480	-0,100	-0,081
-431,905	22,341	0,011	0,007
-430,890	-24,604	-0,092	0,040
-429,876	279,396	0,107	0,141
-428,861	-79,310	-0,109	0,027
-427,846	13,980	-0,143	0,082
-426,832	-200,000	0,016	0,090
-425,817	293,292	-0,062	-0,083
-424,803	-74,105	0,078	0,021
-423,788	456,854	0,050	0,082
-422,773	-134,727	0,093	0,008
-421,759	-200,000	0,009	-0,038
-420,744	-200,000	0,013	0,044
-419,730	-14,714	-0,101	-0,048
-418,715	81,782	-0,070	-0,056
-417,701	49,608	0,095	-0,066
-416,686	205,252	0,053	-0,061
-415,671	-162,489	0,067	0,002
-414,657	411,021	0,126	0,198
-413,642	-200,000	0,000	0,096
-412,628	-75,618	-0,065	0,017
-411,613	-200,000	-0,009	-0,084
-410,598	127,947	-0,093	-0,087
-409,584	-120,612	0,138	0,017
-408,569	54,009	0,131	0,093
-407,555	171,416	0,066	0,070
-406,540	7,244	0,023	-0,013
-405,525	479,498	-0,134	-0,224
-404,511	800,000	0,042	-0,114
-403,496	-61,470	0,110	0,034
-402,482	88,748	-0,099	-0,081
-401,467	-200,000	-0,016	0,115
-400,452	488,699	0,076	0,129
-399,438	136,819	0,117	0,113
-398,423	-200,000	-0,009	0,040
-397,409	-200,000	-0,003	-0,119
-396,394	-200,000	-0,009	-0,051
-395,379	67,683	-0,094	0,071
-394,365	1,714	-0,004	0,002
-393,350	-200,000	0,007	-0,077
-392,336	9,025	0,128	-0,071
-391,321	-200,000	-0,022	-0,086
-390,306	-10,529	-0,113	0,055
-389,292	529,516	0,040	-0,070
-388,277	-200,000	-0,012	-0,067
-387,263	12,452	0,081	0,046
-386,248	-200,000	-0,011	0,141
-385,233	-121,686	-0,042	0,005
-384,219	214,419	0,018	-0,021
-383,204	800,000	-0,034	-0,102
-382,190	-64,503	-0,198	-0,059
-381,175	-127,590	-0,086	0,009
-380,160	-200,000	-0,024	0,186
-379,146	-69,197	0,166	-0,047
-378,131	103,583	-0,070	-0,060
-377,117	-168,171	-0,061	-0,002
-376,102	-200,000	0,004	-0,094
-375,088	-106,978	-0,136	0,022
-374,073	-200,000	0,003	-0,109
-373,058	182,302	-0,011	0,012
-372,044	16,972	0,142	0,083
-371,029	137,718	-0,120	0,116
-370,015	800,000	-0,035	0,083
-369,000	178,036	0,124	0,133
-367,985	43,105	0,106	0,071
-366,971	9,007	-0,093	0,052
-365,956	28,225	0,029	0,018
-364,942	-200,000	-0,019	0,154
-363,927	-200,000	0,009	-0,054
-362,912	800,000	-0,031	-0,088
-361,898	-200,000	0,015	-0,097
-360,883	96,253	-0,068	-0,057
-359,869	800,000	0,046	-0,104
-358,854	-200,000	-0,005	-0,028
-357,839	141,079	-0,068	-0,066
-356,825	800,000	0,021	0,054
-355,810	-200,000	-0,040	-0,149
-354,796	-200,000	0,007	-0,026
-353,781	454,131	-0,036	-0,058
-352,766	-200,000	-0,029	-0,148
-351,752	-76,279	0,046	-0,012
-350,737	800,000	-0,017	0,055
-349,723	800,000	0,030	0,063
-348,708	366,809	-0,069	0,102
-347,693	-73,676	0,054	0,014
-346,679	800,000	-0,025	-0,054
-345,664	-190,528	0,070	-0,001
-344,650	563,043	0,006	-0,011
-343,635	215,362	0,052	0,061
-342,620	107,309	0,081	-0,071
-341,606	-108,775	0,036	-0,006
-340,591	426,195	-0,045	0,072
-339,577	574,340	0,058	-0,104
-338,562	-39,090	0,066	0,025
-337,548	87,680	0,096	0,078
-336,533	49,642	-0,100	0,069
-335,518	302,387	0,111	0,151
-334,504	481,207	0,009	0,015
-333,489	76,172	-0,114	-0,089
-332,475	771,541	-0,051	-0,103
-331,460	-17,194	0,028	-0,013
-330,445	240,376	0,033	0,040
-329,431	-49,721	-0,152	-0,053
-328,416	51,578	0,069	-0,048
-327,402	-200,000	-0,034	0,169
-326,387	427,703	-0,058	-0,092
-325,372	399,231	-0,041	-0,063
-324,358	-21,983	-0,078	-0,035
-323,343	83,984	-0,081	-0,065
-322,329	3,717	0,044	-0,023
-321,314	-157,355	-0,119	-0,005
-320,299	-63,427	0,091	-0,027
-319,285	-50,189	-0,077	0,027
-318,270	-58,213	0,019	0,006
-317,256	-200,000	0,029	-0,139
-316,241	43,404	0,076	-0,051
-315,226	71,544	0,059	0,045
-314,212	-200,000	0,006	0,076
-313,197	-149,164	0,028	-0,002
-312,183	800,000	-0,018	0,047
-311,168	348,651	-0,073	0,106
-310,153	-200,000	0,001	-0,209
-309,139	-190,168	-0,123	-0,001
-308,124	-76,406	0,089	0,023
-307,110	-200,000	0,012	0,086
-306,095	-146,324	0,030	-0,002
-305,080	12,501	0,079	-0,044
-304,066	190,826	0,069	-0,077
-303,051	-168,989	-0,056	0,002
-302,037	301,025	0,069	-0,093
-301,022	132,471	0,134	-0,127
-300,008	576,553	-0,063	0,113
-298,993	148,826	-0,035	-0,035
-297,978	166,067	0,203	0,210
-296,964	59,743	0,055	0,040
-295,949	-21,990	-0,138	-0,061
-294,935	-200,000	0,017	-0,166
-293,920	228,669	-0,085	-0,101
-292,905	-44,536	0,066	-0,024
-291,891	314,446	0,081	-0,112
-290,876	-35,951	0,084	0,033
-289,862	-88,554	-0,049	-0,011
-288,847	-200,000	0,000	0,031
-287,832	-139,084	0,069	-0,005
-286,818	-48,852	-0,116	0,040
-285,803	44,523	0,084	0,056
-284,789	-200,000	-0,010	0,174
-283,774	800,000	-0,037	0,103
-282,759	-197,532	0,098	-0,000
-281,745	-91,538	0,080	0,017
-280,730	800,000	-0,072	-0,164
-279,716	21,703	0,070	-0,042
-278,701	-200,000	0,016	0,150
-277,686	94,559	0,093	0,077
-276,672	-16,934	-0,105	0,049
-275,657	85,386	0,039	0,031
-274,643	-200,000	-0,033	-0,136
-273,628	800,000	0,015	0,031
-272,613	-200,000	-0,042	-0,143
-271,599	155,614	-0,006	0,006
-270,584	-200,000	0,002	-0,031
-269,570	67,769	0,092	0,069
-268,555	-200,000	-0,002	0,074
-267,540	-47,051	-0,057	-0,020
-266,526	-54,851	-0,098	0,032
-265,511	-200,000	-0,031	-0,107
-264,497	66,166	0,094	-0,070
-263,482	-122,673	0,105	0,012
-262,467	-119,956	0,144	-0,018
-261,453	-200,000	-0,049	0,179
-260,438	800,000	-0,035	-0,075
-259,424	203,211	-0,068	-0,077
-258,409	565,325	0,034	-0,061
-257,395	-67,032	-0,049	0,014
-256,380	461,557	0,047	0,076
-255,365	75,431	0,036	-0,028
-254,351	-95,805	0,044	0,008
-253,336	-200,000	-0,003	-0,106
-252,322	315,557	-0,042	-0,059
-251,307	-34,432	-0,034	-0,013
-250,292	366,264	-0,048	0,071
-249,278	286,406	-0,073	0,096
-248,263	36,509	0,077	-0,050
-247,249	213,460	-0,074	-0,086
-246,234	-200,000	-0,004	0,043
-245,219	-89,092	-0,062	-0,013
-244,205	-151,369	-0,103	0,006
-243,190	53,351	-0,058	0,040
-242,176	-10,593	-0,112	-0,054
-241,161	92,248	-0,035	0,029
-240,146	-126,956	0,095	0,010
-239,132	298,683	-0,033	0,045
-238,117	130,374	0,055	0,052
-237,103	157,638	0,074	0,075
-236,088	-81,501	0,119	0,028
-235,073	-113,820	0,195	0,027
-234,059	549,303	-0,086	0,151
-233,044	-16,390	0,097	-0,045
-232,030	3,617	-0,098	0,052
-231,015	800,000	-0,023	0,056
-230,000	332,853	-0,060	-0,085
-228,986	800,000	-0,029	0,062
-227,971	508,133	-0,056	0,096
-226,957	-61,146	-0,058	-0,018
-225,942	87,413	0,094	-0,076
-224,927	-200,000	0,000	0,033
-223,913	800,000	0,045	-0,113
-222,898	800,000	-0,030	0,071
-221,884	-200,000	0,006	0,039
-220,869	800,000	0,074	0,159
-219,855	11,635	0,080	0,044
-218,840	-19,017	0,109	-0,049
-217,825	-79,435	-0,059	0,015
-216,811	-37,467	0,030	-0,012
-215,796	266,692	0,066	-0,085
-214,782	-59,579	0,079	-0,025
-213,767	43,235	0,092	-0,061
-212,752	-143,099	-0,025	0,002
-211,738	800,000	0,024	0,051
-210,723	800,000	-0,036	0,094
-209,709	-121,642	0,121	0,014
-208,694	-178,068	-0,027	0,000
-207,679	-200,000	0,011	-0,037
-206,665	280,001	0,039	-0,051
-205,650	800,000	0,020	0,058
-204,636	-38,791	0,144	0,055
-203,621	455,712	-0,074	0,121
-202,606	77,768	-0,100	-0,078
-201,592	80,300	0,032	-0,025
-200,577	691,463	0,008	-0,015
-199,563	-200,000	0,026	0,129
-198,548	24,141	0,110	-0,066
-197,533	-200,000	0,013	0,125
-196,519	-16,187	0,178	0,082
-195,504	800,000	-0,018	0,054
-194,490	17,827	-0,102	0,059
-193,475	-58,405	-0,133	-0,042
-192,460	-200,000	-0,009	0,000
-191,446	-111,707	-0,051	0,007
-190,431	15,602	0,084	0,048
-189,417	556,811	-0,025	-0,044
-188,402	-161,192	0,072	-0,003
-187,387	-126,001	-0,024	0,003
-186,373	-0,069	-0,087	0,045
-185,358	120,381	-0,085	0,077
-184,344	769,188	-0,028	0,056
-183,329	164,511	0,094	-0,097
-182,315	-57,897	-0,072	0,023
-181,300	207,725	-0,029	0,033
-180,285	206,578	-0,048	0,055
-179,271	-100,218	-0,041	0,007
-178,256	800,000	0,035	0,085
-177,242	-200,000	-0,022	0,150
-176,227	-166,797	-0,087	-0,003
-175,212	240,150	0,061	0,075
-174,198	42,846	-0,052	0,035
-173,183	-200,000	0,014	-0,171
-172,169	311,523	0,060	0,082
-171,154	-100,133	0,071	-0,013
-170,139	800,000	0,043	0,104
-169,125	-131,762	0,047	0,004
-168,110	263,156	-0,071	-0,091
-167,096	-51,487	0,080	-0,027
-166,081	-200,000	-0,035	-0,148
-165,066	521,452	-0,067	-0,116
-164,052	-200,000	-0,011	-0,038
-163,037	81,989	0,030	-0,024
-162,023	-127,485	0,121	0,013
-161,008	-123,251	-0,108	0,012
-159,993	12,832	0,044	-0,025
-158,979	800,000	-0,025	-0,057
-157,964	691,618	0,008	0,016
-156,950	-1,206	-0,094	-0,048
-155,935	800,000	0,030	-0,089
-154,920	165,030	-0,033	-0,034
-153,906	25,712	-0,103	0,062
-152,891	800,000	0,059	0,142
-151,877	681,847	0,025	-0,048
-150,862	800,000	-0,062	-0,168
-149,847	800,000	-0,065	-0,156
-148,833	323,036	0,070	-0,097
-147,818	-38,509	0,115	0,044
-146,804	-115,561	-0,073	-0,010
-145,789	-65,887	-0,125	-0,036
-144,775	45,145	0,046	-0,031
-143,760	-200,000	0,003	-0,082
-142,745	31,917	-0,082	-0,052
-141,731	-200,000	-0,061	0,242
-140,716	-6,812	0,035	-0,017
-139,702	260,663	0,035	-0,044
-138,687	-46,259	0,080	0,029
-137,672	155,174	-0,091	-0,091
-136,658	395,214	0,036	0,054
-135,643	-200,000	0,021	0,075
-134,629	-200,000	-0,011	0,052
-133,614	223,065	-0,050	-0,059
-132,599	800,000	0,043	0,098
-131,585	-200,000	0,002	0,058
-130,570	-200,000	0,007	0,056
-129,556	-81,334	-0,070	-0,017
-128,541	-51,843	0,120	-0,040
-127,526	-200,000	0,026	-0,151
-126,512	224,003	0,049	-0,058
-125,497	800,000	0,070	-0,173
-124,483	-107,108	0,073	-0,012
-123,468	800,000	-0,048	-0,100
-122,453	800,000	0,018	0,040
-121,439	56,180	0,094	-0,066
-120,424	-200,000	0,008	0,078
-119,410	-108,968	0,023	0,004
-118,395	281,312	-0,024	0,031
