DTS Sentinel unit serial number:	SN410029Multiplexer serial number:	ORYXHardware model number:	OX2-SRSoftware version number:	ORYX F/W v4,00 Oryx Data Collector v3.7.2.0data status	okinstallation	B6 Nyhavnadifferential loss correction	single-endedforward channel	channel 2reverse channel	N/Adate	2023/12/09time	20:05:08forward acquisition time	300,00reverse acquisition time	0,00gamma	499,1914k internal	0,3129k external	0,3129temperature offset calibration	1,0000default loss term (dB/km)	0,3820temperature slope calibration	1,0000multiplexer offset coefficient	1,0000multiplexer slope coefficient	1,0000fibre end	0,00T internal ref (°C)	21,22T ext. ref 1 (°C)	5,26T ext. ref 2 (°C)	5,22length (m)	temperature (°C)	Stokes	anti-Stokes-744,400	-32,640	-0,076	0,031
-743,385	28,449	-0,090	0,056
-742,371	-123,136	-0,043	-0,005
-741,356	-147,957	-0,183	-0,011
-740,342	751,315	0,060	-0,120
-739,327	-4,390	-0,225	0,115
-738,312	99,998	0,051	-0,044
-737,298	-54,911	-0,298	-0,099
-736,283	-200,000	0,003	-0,129
-735,269	-115,895	-0,382	0,052
-734,254	75,915	-0,043	-0,033
-733,239	-101,430	-0,395	-0,071
-732,225	300,133	0,091	0,125
-731,210	-200,000	0,003	0,046
-730,196	787,494	0,004	0,009
-729,181	-178,882	0,082	0,001
-728,167	186,444	-0,077	-0,085
-727,152	800,000	-0,047	-0,104
-726,137	800,000	-0,072	-0,157
-725,123	-34,153	-0,087	-0,035
-724,108	246,858	-0,063	-0,079
-723,094	80,893	-0,166	0,133
-722,079	-108,290	-0,099	0,016
-721,064	-200,000	-0,009	-0,041
-720,050	-200,000	0,006	0,080
-719,035	-22,187	0,089	0,040
-718,021	-47,231	0,119	-0,043
-717,006	135,281	-0,065	-0,063
-715,991	416,432	0,062	-0,098
-714,977	-122,689	-0,050	0,006
-713,962	-200,000	0,013	-0,049
-712,948	-9,708	-0,037	-0,018
-711,933	172,901	-0,090	-0,097
-710,918	800,000	-0,038	0,109
-709,904	155,493	-0,127	0,131
-708,889	800,000	-0,060	-0,197
-707,875	415,843	0,004	0,007
-706,860	156,246	0,055	0,056
-705,845	-54,358	0,103	0,035
-704,831	-200,000	0,018	-0,072
-703,816	-200,000	-0,040	0,170
-702,802	73,721	0,076	0,059
-701,787	-128,463	-0,097	-0,010
-700,772	335,403	0,010	-0,014
-699,758	-192,977	0,028	0,000
-698,743	-109,837	-0,092	0,014
-697,729	-12,802	-0,040	0,019
-696,714	26,567	-0,021	-0,013
-695,699	559,937	-0,056	0,100
-694,685	-97,205	-0,158	0,030
-693,670	219,787	-0,065	-0,077
-692,656	-165,120	-0,126	0,004
-691,641	-200,000	0,019	0,062
-690,627	800,000	0,025	0,073
-689,612	-170,172	-0,070	0,002
-688,597	800,000	0,016	-0,051
-687,583	-98,660	-0,052	-0,010
-686,568	-200,000	0,014	-0,137
-685,554	-151,033	-0,092	0,005
-684,539	230,427	0,017	-0,021
-683,524	-200,000	0,002	-0,072
-682,510	164,351	-0,009	-0,009
-681,495	728,962	0,012	0,024
-680,481	246,154	-0,081	-0,102
-679,466	19,934	-0,131	-0,078
-678,451	342,491	-0,054	0,079
-677,437	-89,925	-0,089	-0,019
-676,422	261,638	-0,060	0,077
-675,408	-100,930	0,018	0,003
-674,393	-200,000	0,011	-0,040
-673,378	-200,000	-0,028	-0,193
-672,364	-200,000	0,015	-0,106
-671,349	-62,794	-0,130	0,040
-670,335	428,636	0,055	-0,088
-669,320	-36,511	0,066	0,026
-668,305	-47,771	-0,049	0,018
-667,291	-44,787	-0,089	0,033
-666,276	415,297	-0,103	-0,164
-665,262	-75,120	-0,093	-0,024
-664,247	-77,596	-0,029	-0,007
-663,232	42,024	0,037	0,025
-662,218	800,000	-0,024	-0,072
-661,203	-200,000	-0,018	-0,070
-660,189	-28,373	0,100	0,043
-659,174	49,074	-0,030	-0,021
-658,159	62,200	-0,170	-0,125
-657,145	-27,080	-0,183	-0,079
-656,130	278,225	0,054	-0,072
-655,116	317,090	-0,101	-0,142
-654,101	226,151	-0,050	0,060
-653,086	525,404	-0,086	0,151
-652,072	800,000	-0,039	-0,096
-651,057	800,000	-0,056	-0,118
-650,043	-200,000	-0,010	0,078
-649,028	173,074	0,071	0,076
-648,014	-101,152	-0,106	0,019
-646,999	800,000	0,033	-0,099
-645,984	689,112	-0,030	-0,059
-644,970	0,477	0,129	-0,068
-643,955	-103,608	-0,056	-0,010
-642,941	51,509	-0,133	-0,093
-641,926	-200,000	-0,020	-0,102
-640,911	216,431	-0,050	-0,058
-639,897	-71,370	0,025	0,007
-638,882	-77,189	-0,078	-0,020
-637,868	16,373	-0,170	-0,099
-636,853	-200,000	0,007	-0,039
-635,838	-200,000	0,001	0,046
-634,824	399,132	-0,036	0,057
-633,809	-200,000	-0,050	0,221
-632,795	-11,668	0,117	0,057
-631,780	-200,000	0,002	0,086
-630,765	31,166	-0,087	0,055
-629,751	255,097	-0,018	0,023
-628,736	-41,590	-0,041	0,015
-627,722	125,571	0,051	-0,048
-626,707	791,944	-0,035	-0,071
-625,692	-101,372	-0,026	-0,005
-624,678	-116,127	0,079	0,011
-623,663	700,925	-0,020	-0,039
-622,649	-98,134	-0,054	0,010
-621,634	-200,000	0,003	-0,068
-620,619	-103,294	0,166	0,029
-619,605	56,165	0,036	0,026
-618,590	130,555	0,103	0,098
-617,576	264,768	0,098	0,127
-616,561	50,518	0,034	-0,024
-615,546	-96,416	-0,043	0,008
-614,532	-118,559	-0,045	0,006
-613,517	-34,065	-0,053	0,022
-612,503	149,069	0,077	0,077
-611,488	800,000	-0,046	0,145
-610,474	-68,771	-0,046	0,013
-609,459	218,332	-0,022	0,026
-608,444	-54,888	-0,137	-0,045
-607,430	75,345	-0,125	-0,098
-606,415	579,921	0,049	-0,089
-605,401	-200,000	-0,037	-0,127
-604,386	6,538	-0,120	-0,066
-603,371	99,361	-0,008	-0,007
-602,357	-200,000	0,021	-0,100
-601,342	107,611	0,127	-0,112
-600,328	-23,768	0,139	-0,061
-599,313	-140,110	0,036	-0,003
-598,298	208,248	-0,029	0,033
-597,284	239,702	-0,052	0,064
-596,269	-31,161	-0,082	0,034
-595,255	-93,473	0,160	-0,033
-594,240	263,814	0,012	-0,016
-593,225	252,787	-0,066	-0,083
-592,211	-200,000	-0,003	-0,095
-591,196	800,000	-0,012	0,029
-590,182	546,785	0,038	-0,068
-589,167	-200,000	-0,010	0,086
-588,152	120,499	0,040	-0,037
-587,138	-106,509	-0,013	0,002
-586,123	800,000	-0,039	-0,085
-585,109	371,532	-0,046	-0,070
-584,094	462,026	0,018	0,030
-583,079	-31,634	-0,096	-0,039
-582,065	382,185	-0,071	-0,109
-581,050	764,891	-0,050	-0,102
-580,036	-189,013	-0,096	0,001
-579,021	9,471	0,056	0,031
-578,006	155,378	-0,099	-0,101
-576,992	800,000	-0,013	-0,038
-575,977	42,154	0,068	0,046
-574,963	-85,880	0,080	0,018
-573,948	-79,322	-0,106	-0,026
-572,934	-200,000	0,000	-0,041
-571,919	-200,000	0,053	-0,215
-570,904	800,000	-0,031	-0,084
-569,890	33,951	0,058	0,037
-568,875	-38,508	0,142	0,055
-567,861	-200,000	-0,016	0,083
-566,846	-200,000	0,003	0,140
-565,831	655,302	-0,073	0,139
-564,817	197,100	0,109	0,123
-563,802	416,464	-0,056	-0,089
-562,788	800,000	0,041	-0,093
-561,773	654,079	0,059	0,113
-560,758	20,092	0,011	0,006
-559,744	44,293	-0,049	-0,033
-558,729	-70,373	-0,062	0,017
-557,715	318,644	-0,079	0,111
-556,700	-102,548	-0,129	0,023
-555,685	-200,000	-0,002	-0,061
-554,671	-86,775	-0,068	0,015
-553,656	800,000	-0,047	0,105
-552,642	-200,000	-0,005	0,085
-551,627	-100,183	0,011	-0,002
-550,612	-200,000	-0,029	-0,122
-549,598	-87,235	-0,112	0,025
-548,583	-82,989	-0,038	-0,009
-547,569	-23,606	-0,093	0,041
-546,554	44,984	-0,022	0,015
-545,539	-65,929	-0,105	-0,031
-544,525	392,952	0,081	0,125
-543,510	-200,000	-0,007	-0,042
-542,496	39,658	-0,028	-0,019
-541,481	-200,000	-0,016	0,082
-540,466	-127,805	0,080	-0,008
-539,452	144,327	-0,086	-0,084
-538,437	-200,000	-0,009	0,074
-537,423	800,000	0,023	0,071
-536,408	-200,000	0,022	0,077
-535,393	160,728	-0,062	0,064
-534,379	-200,000	-0,003	-0,045
-533,364	164,533	-0,051	-0,053
-532,350	-200,000	-0,018	-0,115
-531,335	73,030	0,104	-0,080
-530,321	-159,054	-0,028	0,001
-529,306	176,670	0,076	-0,082
-528,291	285,937	-0,027	0,035
-527,277	33,958	-0,086	0,055
-526,262	28,467	0,073	-0,046
-525,248	800,000	0,015	0,043
-524,233	-200,000	-0,009	0,053
-523,218	-200,000	-0,029	0,109
-522,204	561,548	-0,025	-0,044
-521,189	106,859	0,034	0,029
-520,175	-40,930	0,062	-0,024
-519,160	-200,000	-0,018	-0,061
-518,145	-50,495	0,086	0,030
-517,131	-200,000	0,000	0,043
-516,116	95,876	0,087	-0,073
-515,102	-200,000	0,015	0,082
-514,087	-156,369	-0,073	0,003
-513,072	94,446	-0,068	-0,057
-512,058	800,000	-0,062	-0,139
-511,043	91,686	0,101	0,083
-510,029	211,806	0,084	0,097
-509,014	800,000	0,006	0,013
-507,999	9,997	0,051	0,028
-506,985	-200,000	0,003	-0,035
-505,970	-43,835	0,025	0,009
-504,956	-30,570	0,068	-0,028
-503,941	-189,560	-0,033	0,000
-502,926	242,965	0,023	-0,029
-501,912	351,668	-0,072	0,106
-500,897	-12,279	-0,046	-0,022
-499,883	-50,110	0,092	0,032
-498,868	-73,311	0,121	-0,032
-497,853	-94,668	-0,154	0,031
-496,839	-66,618	0,107	-0,031
-495,824	-200,000	-0,014	-0,065
-494,810	-164,350	0,080	0,003
-493,795	-38,138	-0,080	0,031
-492,781	800,000	0,058	-0,155
-491,766	441,672	-0,065	-0,105
-490,751	-200,000	0,008	-0,032
-489,737	8,754	0,071	-0,039
-488,722	82,588	-0,037	-0,030
-487,708	800,000	0,014	0,037
-486,693	69,404	0,117	0,089
-485,678	-110,693	-0,050	-0,008
-484,664	-4,250	-0,159	0,081
-483,649	52,817	0,055	-0,039
-482,635	800,000	0,037	0,096
-481,620	290,150	0,056	0,075
-480,605	481,594	-0,049	0,083
-479,591	10,621	-0,064	-0,036
-478,576	-200,000	-0,024	-0,137
-477,562	-200,000	0,050	0,209
-476,547	-77,506	0,097	0,025
-475,532	-200,000	0,004	0,021
-474,518	800,000	-0,032	-0,095
-473,503	141,456	0,104	-0,101
-472,489	-156,146	0,103	-0,005
-471,474	-200,000	0,009	-0,037
-470,459	-200,000	-0,007	-0,064
-469,445	661,651	0,110	0,209
-468,430	-200,000	0,061	0,000
-467,416	-200,000	0,001	0,040
-466,401	242,278	0,051	0,063
-465,386	632,007	0,055	-0,103
-464,372	-200,000	0,018	-0,105
-463,357	-200,000	0,011	-0,079
-462,343	736,969	-0,126	-0,251
-461,328	800,000	0,048	-0,114
-460,313	800,000	-0,021	0,046
-459,299	-200,000	-0,004	-0,086
-458,284	-19,579	-0,066	0,030
-457,270	106,611	0,146	0,128
-456,255	51,349	-0,057	0,040
-455,241	-179,618	0,149	0,002
-454,226	-131,518	-0,096	0,009
-453,211	-134,944	0,046	-0,004
-452,197	-88,906	0,017	0,004
-451,182	347,058	-0,060	0,088
-450,168	-200,000	-0,016	0,112
-449,153	48,835	-0,044	-0,030
-448,138	217,925	0,110	-0,130
-447,124	228,906	-0,037	0,044
-446,109	-200,000	0,022	-0,082
-445,095	-22,804	0,115	0,051
-444,080	3,018	0,044	-0,023
-443,065	-130,433	-0,126	0,012
-442,051	-116,353	-0,060	-0,008
-441,036	200,159	0,033	-0,037
-440,022	800,000	-0,012	-0,037
-439,007	-80,803	0,113	-0,027
-437,992	10,299	-0,051	0,028
-436,978	800,000	-0,054	0,138
-435,963	-200,000	0,007	0,040
-434,949	-200,000	-0,031	0,101
-433,934	725,416	0,038	0,074
-432,919	28,070	-0,101	-0,063
-431,905	-200,000	0,015	-0,103
-430,890	800,000	0,046	0,120
-429,876	-39,503	-0,071	-0,027
-428,861	-130,913	0,125	0,012
-427,846	-156,442	0,092	-0,004
-426,832	800,000	0,016	-0,040
-425,817	34,967	0,064	0,041
-424,803	19,573	-0,044	-0,026
-423,788	214,305	-0,085	0,099
-422,773	645,464	0,060	0,113
-421,759	257,680	0,085	0,107
-420,744	-200,000	0,004	0,080
-419,730	-171,779	-0,214	0,005
-418,715	800,000	0,019	-0,046
-417,701	800,000	-0,027	-0,064
-416,686	-200,000	-0,006	0,046
-415,671	-19,535	0,092	0,042
-414,657	237,895	-0,052	0,063
-413,642	800,000	-0,015	0,037
-412,628	71,670	0,099	-0,076
-411,613	-57,810	-0,101	0,032
-410,598	-200,000	-0,030	-0,170
-409,584	-117,086	0,091	-0,012
-408,569	179,728	0,137	-0,147
-407,555	215,299	-0,091	0,107
-406,540	-7,512	0,037	0,018
-405,525	171,879	-0,036	-0,038
-404,511	-66,040	-0,047	-0,014
-403,496	800,000	0,035	0,079
-402,482	-106,132	-0,028	0,005
-401,467	16,954	-0,045	0,026
-400,452	-200,000	-0,009	0,132
-399,438	680,170	-0,032	0,061
-398,423	-4,655	0,095	0,048
-397,409	104,887	-0,061	-0,053
-396,394	800,000	0,071	-0,197
-395,379	-116,032	0,158	-0,021
-394,365	-200,000	0,016	0,254
-393,350	-156,125	-0,206	0,009
-392,336	12,085	0,077	0,043
-391,321	-200,000	-0,001	-0,004
-390,306	-159,340	-0,071	0,003
-389,292	4,036	0,050	-0,027
-388,277	-200,000	0,020	-0,070
-387,263	541,997	0,080	0,141
-386,248	537,333	-0,062	0,108
-385,233	242,266	-0,036	-0,044
-384,219	-23,096	0,088	0,039
-383,204	230,208	-0,024	-0,029
-382,190	4,991	-0,047	-0,025
-381,175	522,029	0,037	0,065
-380,160	-200,000	0,015	0,075
-379,146	151,696	0,051	-0,051
-378,131	84,230	0,016	0,013
-377,117	165,131	-0,088	0,092
-376,102	392,855	-0,022	-0,034
-375,088	-4,610	-0,023	-0,012
-374,073	258,792	-0,110	-0,139
-373,058	670,360	0,030	0,058
-372,044	1,549	0,059	-0,031
-371,029	-200,000	0,000	0,165
-370,015	-200,000	-0,018	0,095
-369,000	-164,200	-0,142	0,005
-367,985	275,001	-0,146	-0,190
-366,971	-73,950	-0,073	0,019
-365,956	610,674	0,027	-0,050
-364,942	-100,371	0,136	-0,024
-363,927	280,114	0,087	-0,114
-362,912	-44,814	-0,208	0,075
-361,898	-131,527	-0,154	0,015
-360,883	-31,628	0,062	0,025
-359,869	800,000	0,052	0,154
-358,854	-142,715	0,190	0,013
-357,839	-200,000	0,004	0,075
-356,825	-25,184	0,037	0,016
-355,810	-17,117	0,067	0,031
-354,796	-19,636	-0,148	-0,067
-353,781	177,079	0,093	0,099
-352,766	800,000	0,030	0,065
-351,752	-85,109	-0,088	0,020
-350,737	-93,499	0,137	0,028
-349,723	-200,000	0,016	0,110
-348,708	-166,197	-0,077	0,002
-347,693	69,007	0,010	0,008
-346,679	-113,727	-0,189	0,027
-345,664	-74,501	-0,062	0,016
-344,650	0,867	0,071	-0,037
-343,635	323,949	0,030	-0,043
-342,620	499,024	0,027	0,045
-341,606	-200,000	0,017	0,078
-340,591	800,000	-0,046	0,097
-339,577	30,227	-0,066	-0,041
-338,562	37,575	0,043	0,028
-337,548	800,000	-0,043	0,130
-336,533	800,000	-0,027	0,082
-335,518	208,738	0,038	0,044
-334,504	-200,000	-0,007	-0,119
-333,489	216,859	0,032	-0,037
-332,475	183,753	0,065	0,070
-331,460	-111,821	0,061	0,009
-330,445	-165,141	0,028	-0,001
-329,431	284,622	0,015	0,020
-328,416	-100,058	0,056	0,010
-327,402	-200,000	-0,028	0,219
-326,387	-129,880	-0,029	-0,003
-325,372	-200,000	-0,010	-0,047
-324,358	-200,000	-0,028	0,108
-323,343	-200,000	0,002	-0,012
-322,329	565,837	-0,049	-0,088
-321,314	-200,000	0,007	0,038
-320,299	256,222	-0,053	0,066
-319,285	-200,000	-0,014	-0,141
-318,270	-45,733	0,105	-0,038
-317,256	525,210	-0,057	0,098
-316,241	179,479	0,075	0,081
-315,226	-43,279	-0,059	0,022
-314,212	800,000	-0,033	0,075
-313,197	343,197	0,060	-0,087
-312,183	800,000	0,065	-0,146
-311,168	659,785	-0,063	0,120
-310,153	-130,496	-0,096	-0,009
-309,139	52,157	-0,031	-0,022
-308,124	-200,000	0,038	0,151
-307,110	-138,887	0,133	-0,010
-306,095	800,000	-0,054	0,119
-305,080	-200,000	0,007	-0,118
-304,066	115,200	-0,043	0,039
-303,051	584,216	-0,062	0,112
-302,037	-16,270	0,070	-0,032
-301,022	-149,977	0,115	-0,006
-300,008	585,301	-0,043	-0,077
-298,993	-80,762	-0,086	0,021
-297,978	-200,000	0,016	0,060
-296,964	-200,000	-0,026	0,139
-295,949	-111,063	0,079	0,012
-294,935	131,853	0,049	0,046
-293,920	-200,000	0,002	0,054
-292,905	-48,615	-0,101	-0,035
-291,891	-82,330	0,155	-0,037
-290,876	291,528	0,081	-0,108
-289,862	259,596	0,092	-0,116
-288,847	451,084	-0,046	0,075
-287,832	317,171	-0,056	-0,077
-286,818	-27,189	0,200	0,085
-285,803	-200,000	0,004	-0,055
-284,789	136,390	-0,030	-0,029
-283,774	10,730	0,080	0,045
-282,759	67,182	-0,049	0,036
-281,745	-106,092	0,123	0,020
-280,730	800,000	-0,041	-0,084
-279,716	108,077	-0,038	0,033
-278,701	122,447	-0,029	0,026
-277,686	-200,000	0,036	-0,120
-276,672	159,704	-0,096	0,098
-275,657	191,008	0,044	-0,049
-274,643	327,886	-0,096	-0,135
-273,628	800,000	0,024	-0,073
-272,613	800,000	-0,031	-0,080
-271,599	800,000	-0,030	0,073
-270,584	-200,000	0,032	0,111
-269,570	800,000	0,017	-0,053
-268,555	-200,000	0,021	-0,106
-267,540	-93,858	-0,026	-0,005
-266,526	-200,000	0,046	-0,168
-265,511	23,812	-0,133	-0,080
-264,497	-84,634	0,059	-0,013
-263,482	552,372	-0,034	0,060
-262,467	-114,313	0,103	0,014
-261,453	36,020	0,059	0,038
-260,438	-34,507	-0,071	-0,028
-259,424	727,371	-0,019	0,038
-258,409	228,279	-0,081	-0,097
-257,395	-78,268	-0,045	0,011
-256,380	-200,000	-0,007	0,061
-255,365	-200,000	0,013	-0,073
-254,351	-200,000	0,006	0,068
-253,336	-200,000	-0,007	-0,032
-252,322	-130,920	-0,072	0,007
-251,307	-150,789	0,052	-0,003
-250,292	-137,881	0,052	-0,004
-249,278	290,724	0,083	0,111
-248,263	363,049	-0,019	-0,028
-247,249	-200,000	-0,022	0,087
-246,234	8,710	-0,051	-0,028
-245,219	524,284	-0,030	-0,052
-244,205	800,000	0,034	-0,093
-243,190	72,776	0,044	0,034
-242,176	-182,802	0,189	-0,002
-241,161	-200,000	-0,002	0,023
-240,146	144,855	-0,067	0,065
-239,132	800,000	-0,011	0,027
-238,117	83,809	0,029	0,023
-237,103	334,291	0,065	-0,092
-236,088	-53,986	-0,125	-0,041
-235,073	-53,275	-0,033	0,011
-234,059	349,751	0,062	0,089
-233,044	447,301	0,048	0,077
-232,030	-10,493	0,134	0,065
-231,015	-147,812	-0,044	-0,003
-230,000	800,000	-0,035	-0,085
-228,986	800,000	0,029	-0,061
-227,971	-149,558	-0,056	0,003
-226,957	157,777	-0,130	0,132
-225,942	-59,291	-0,185	-0,058
-224,927	472,473	0,059	-0,097
-223,913	-200,000	0,001	-0,043
-222,898	-200,000	-0,018	-0,146
-221,884	202,869	0,083	-0,093
-220,869	48,222	0,070	0,047
-219,855	28,007	0,018	-0,011
-218,840	15,611	-0,089	0,051
-217,825	-84,288	-0,212	-0,049
-216,811	564,920	0,017	-0,031
-215,796	-200,000	0,009	-0,050
-214,782	62,736	-0,095	-0,069
-213,767	44,260	-0,018	0,012
-212,752	-148,930	0,094	-0,005
-211,738	-200,000	-0,029	0,181
-210,723	-58,031	0,050	0,016
-209,709	243,714	-0,127	-0,156
-208,694	-200,000	-0,009	0,108
-207,679	-200,000	0,009	-0,132
-206,665	174,596	-0,028	0,029
-205,650	-24,255	0,054	-0,023
-204,636	800,000	-0,006	0,014
-203,621	-60,046	0,040	-0,012
-202,606	-124,446	-0,081	-0,009
-201,592	800,000	0,018	-0,044
-200,577	4,297	-0,035	0,019
-199,563	-98,087	0,094	-0,017
-198,548	-90,393	0,065	-0,014
-197,533	-128,025	0,167	-0,017
-196,519	105,272	-0,089	0,077
-195,504	-200,000	-0,009	0,081
-194,490	800,000	0,011	-0,025
-193,475	28,224	-0,051	0,031
-192,460	777,824	0,040	-0,080
-191,446	200,284	0,059	-0,067
-190,431	-32,304	-0,077	-0,031
-189,417	105,200	-0,077	0,067
-188,402	-200,000	0,017	0,079
-187,387	84,909	0,040	0,032
-186,373	-200,000	0,005	-0,081
-185,358	410,834	0,114	-0,177
-184,344	94,291	0,080	-0,066
-183,329	307,057	-0,041	0,055
-182,315	-76,419	0,020	-0,005
-181,300	49,369	-0,003	0,002
-180,285	800,000	0,020	-0,059
-179,271	64,175	-0,071	-0,052
-178,256	46,704	0,060	-0,041
-177,242	-200,000	-0,020	-0,103
-176,227	-20,142	0,025	0,011
-175,212	-55,825	0,112	-0,036
-174,198	42,006	-0,016	-0,011
-173,183	800,000	-0,025	-0,061
-172,169	-200,000	0,038	-0,132
-171,154	-101,001	-0,093	-0,016
-170,139	-145,249	0,044	-0,003
-169,125	-200,000	-0,039	-0,148
-168,110	-200,000	-0,005	0,062
-167,096	130,811	-0,007	0,006
-166,081	-21,970	-0,060	-0,027
-165,066	-76,017	-0,054	-0,014
-164,052	631,342	0,030	-0,056
-163,037	796,500	0,037	-0,074
-162,023	-119,315	0,105	0,013
-161,008	-200,000	-0,005	-0,028
-159,993	45,789	0,043	0,029
-158,979	-50,660	-0,110	0,037
-157,964	216,039	-0,051	-0,059
-156,950	-127,504	-0,138	-0,014
-155,935	99,722	0,049	0,041
-154,920	-35,869	0,065	-0,026
-153,906	-137,457	0,048	-0,004
-152,891	-200,000	-0,006	0,023
-151,877	-200,000	-0,028	0,117
-150,862	91,068	0,018	-0,015
-149,847	-200,000	0,043	-0,137
-148,833	-40,230	-0,168	-0,063
-147,818	-90,328	0,029	-0,006
-146,804	-58,420	0,153	0,048
-145,789	411,960	-0,011	0,018
-144,775	800,000	-0,086	-0,221
-143,760	-89,260	0,098	0,021
-142,745	551,025	0,056	-0,098
-141,731	800,000	-0,024	-0,061
-140,716	-64,500	-0,048	-0,014
-139,702	-200,000	0,035	0,134
-138,687	25,797	0,039	0,024
-137,672	404,258	0,007	0,010
-136,658	-19,480	0,065	0,029
-135,643	-200,000	0,013	0,048
-134,629	116,712	0,084	-0,075
-133,614	80,799	0,088	-0,069
-132,599	-200,000	-0,024	-0,157
-131,585	-200,000	0,005	-0,112
-130,570	-200,000	-0,002	-0,051
-129,556	258,881	0,073	0,092
-128,541	800,000	0,056	-0,127
-127,526	-69,340	-0,030	-0,008
-126,512	-200,000	-0,013	0,084
-125,497	-200,000	0,011	0,038
-124,483	32,507	-0,046	-0,029
-123,468	2,844	0,118	-0,062
-122,453	-120,030	-0,204	0,025
-121,439	800,000	-0,031	-0,075
-120,424	-126,089	0,116	-0,012
-119,410	800,000	-0,022	-0,057
