DTS Sentinel unit serial number:	SN410029Multiplexer serial number:	ORYXHardware model number:	OX2-SRSoftware version number:	ORYX F/W v4,00 Oryx Data Collector v3.7.2.0data status	okinstallation	B6 Nyhavnadifferential loss correction	single-endedforward channel	channel 2reverse channel	N/Adate	2023/12/08time	14:00:08forward acquisition time	300,00reverse acquisition time	0,00gamma	499,1914k internal	0,3159k external	0,3159temperature offset calibration	1,0000default loss term (dB/km)	0,3820temperature slope calibration	1,0000multiplexer offset coefficient	1,0000multiplexer slope coefficient	1,0000fibre end	0,00T internal ref (°C)	15,05T ext. ref 1 (°C)	-1,55T ext. ref 2 (°C)	-1,55length (m)	temperature (°C)	Stokes	anti-Stokes-744,400	-34,295	0,189	-0,076
-743,385	-94,218	-0,374	-0,075
-742,371	-130,347	0,192	0,019
-741,356	-3,918	-0,136	0,070
-740,342	-11,205	0,149	0,072
-739,327	-124,596	-0,309	-0,035
-738,312	32,401	0,068	-0,043
-737,298	-79,842	-0,216	-0,053
-736,283	-34,586	0,114	-0,046
-735,269	-112,580	-0,228	0,033
-734,254	394,515	0,048	-0,075
-733,239	-90,048	-0,508	-0,108
-732,225	696,407	0,069	0,134
-731,210	147,290	-0,097	0,096
-730,196	14,505	-0,032	0,018
-729,181	143,190	0,073	-0,071
-728,167	-200,000	0,007	-0,071
-727,152	-200,000	-0,014	-0,067
-726,137	273,043	0,014	-0,018
-725,123	-200,000	-0,027	0,094
-724,108	77,777	-0,075	-0,058
-723,094	22,931	-0,102	-0,062
-722,079	708,201	-0,046	-0,090
-721,064	91,925	-0,043	0,035
-720,050	800,000	-0,016	0,038
-719,035	145,084	0,060	-0,059
-718,021	168,644	-0,079	-0,083
-717,006	249,451	-0,086	-0,108
-715,991	-200,000	-0,047	-0,190
-714,977	46,371	0,127	0,087
-713,962	-200,000	0,009	0,040
-712,948	277,251	-0,028	-0,037
-711,933	-200,000	0,003	0,050
-710,918	-15,578	0,010	0,005
-709,904	800,000	-0,059	0,140
-708,889	-2,235	-0,072	-0,037
-707,875	-106,827	-0,054	0,009
-706,860	220,330	-0,071	0,084
-705,845	28,305	-0,137	-0,085
-704,831	800,000	-0,057	0,142
-703,816	82,319	0,047	-0,038
-702,802	171,288	0,038	-0,040
-701,787	797,481	-0,013	0,026
-700,772	-200,000	-0,018	-0,076
-699,758	55,959	0,099	0,070
-698,743	800,000	-0,038	0,094
-697,729	800,000	-0,054	0,111
-696,714	770,142	-0,016	0,033
-695,699	166,206	-0,080	-0,084
-694,685	265,439	-0,104	0,134
-693,670	800,000	-0,017	-0,052
-692,656	-84,447	-0,080	-0,018
-691,641	165,515	0,092	-0,095
-690,627	35,446	0,067	0,043
-689,612	800,000	0,029	-0,071
-688,597	-200,000	-0,009	0,127
-687,583	630,011	-0,039	-0,072
-686,568	-200,000	-0,016	-0,285
-685,554	-200,000	-0,024	-0,119
-684,539	170,673	-0,032	0,034
-683,524	-10,223	0,041	0,020
-682,510	569,563	-0,019	-0,033
-681,495	-200,000	-0,007	-0,114
-680,481	406,174	-0,096	-0,149
-679,466	61,558	-0,205	-0,150
-678,451	-33,552	0,108	-0,044
-677,437	-200,000	0,017	-0,116
-676,422	51,246	0,057	0,040
-675,408	-200,000	-0,013	-0,096
-674,393	-108,811	0,046	-0,007
-673,378	49,381	-0,134	-0,093
-672,364	80,501	-0,038	0,030
-671,349	276,988	-0,059	-0,077
-670,335	-200,000	0,029	-0,216
-669,320	-77,627	-0,114	-0,029
-668,305	-200,000	0,024	0,293
-667,291	-76,393	-0,127	0,033
-666,276	93,762	-0,014	-0,012
-665,262	87,922	-0,125	-0,102
-664,247	-200,000	-0,014	0,000
-663,232	-131,800	-0,110	-0,010
-662,218	-200,000	-0,004	-0,069
-661,203	17,663	-0,115	0,067
-660,189	207,592	0,100	-0,115
-659,174	137,605	-0,079	0,076
-658,159	-30,909	-0,039	-0,016
-657,145	-111,186	0,039	-0,006
-656,130	800,000	0,042	-0,116
-655,116	-140,875	0,111	-0,008
-654,101	-135,592	0,101	-0,009
-653,086	-51,920	-0,074	0,025
-652,072	-163,730	0,086	-0,003
-651,057	457,654	-0,073	0,119
-650,043	-73,044	-0,035	-0,009
-649,028	-200,000	-0,008	0,032
-648,014	-112,691	0,103	0,015
-646,999	-200,000	-0,020	0,157
-645,984	-5,496	0,073	-0,037
-644,970	176,527	-0,166	-0,177
-643,955	524,385	0,079	-0,136
-642,941	-200,000	-0,002	-0,037
-641,926	-200,000	-0,030	0,100
-640,911	-200,000	-0,015	-0,121
-639,897	82,645	-0,025	-0,020
-638,882	-87,465	-0,106	-0,023
-637,868	92,168	-0,078	0,064
-636,853	213,291	-0,068	-0,079
-635,838	2,883	-0,080	0,042
-634,824	-30,533	0,054	-0,023
-633,809	-107,563	0,207	-0,033
-632,795	-200,000	0,140	0,000
-631,780	-200,000	0,032	0,126
-630,765	26,380	-0,086	-0,053
-629,751	90,820	-0,211	-0,174
-628,736	800,000	0,053	-0,136
-627,722	35,517	-0,100	-0,065
-626,707	800,000	0,015	0,034
-625,692	-200,000	-0,016	0,071
-624,678	-200,000	0,020	0,085
-623,663	469,219	0,012	0,020
-622,649	770,033	-0,074	-0,148
-621,634	329,284	0,015	-0,021
-620,619	284,395	-0,085	-0,112
-619,605	-190,118	0,110	0,001
-618,590	306,894	-0,091	0,124
-617,576	6,522	0,056	0,031
-616,561	-60,148	-0,084	-0,026
-615,546	59,415	-0,056	-0,040
-614,532	318,270	0,089	-0,123
-613,517	800,000	-0,057	-0,117
-612,503	800,000	-0,062	0,171
-611,488	545,560	0,028	-0,050
-610,474	-200,000	-0,032	-0,104
-609,459	102,733	0,021	0,018
-608,444	-90,271	0,018	0,004
-607,430	-23,928	-0,037	0,016
-606,415	48,671	-0,103	0,071
-605,401	9,665	0,036	-0,020
-604,386	-200,000	-0,002	0,016
-603,371	20,134	0,057	0,034
-602,357	-59,407	-0,130	-0,041
-601,342	85,169	-0,075	-0,061
-600,328	-200,000	0,008	-0,061
-599,313	-85,013	0,010	0,002
-598,298	82,204	-0,130	0,103
-597,284	-200,000	0,034	-0,187
-596,269	-123,506	0,096	-0,011
-595,255	407,772	-0,020	0,031
-594,240	-200,000	0,000	0,029
-593,225	49,835	-0,121	-0,084
-592,211	-52,985	-0,060	0,020
-591,196	-200,000	0,007	0,061
-590,182	-177,042	0,044	0,001
-589,167	-200,000	0,010	0,041
-588,152	-110,953	0,105	0,016
-587,138	164,440	-0,084	0,086
-586,123	240,375	-0,071	0,087
-585,109	144,312	-0,044	0,044
-584,094	432,254	-0,013	0,021
-583,079	-200,000	0,002	-0,027
-582,065	98,358	0,093	0,079
-581,050	509,581	-0,060	0,103
-580,036	170,207	0,005	0,005
-579,021	-12,904	0,043	0,020
-578,006	-79,475	0,069	-0,017
-576,992	800,000	-0,033	-0,079
-575,977	402,527	0,084	0,130
-574,963	56,404	-0,105	0,074
-573,948	-14,884	0,075	0,035
-572,934	649,121	0,039	0,073
-571,919	23,933	0,060	-0,036
-570,904	117,177	-0,023	0,020
-569,890	-118,912	-0,036	0,005
-568,875	-83,622	0,083	-0,019
-567,861	40,129	-0,116	-0,076
-566,846	-154,303	-0,067	0,003
-565,831	-166,266	-0,060	-0,002
-564,817	-200,000	-0,005	0,051
-563,802	-24,867	-0,075	-0,032
-562,788	800,000	-0,016	0,049
-561,773	-200,000	-0,029	0,111
-560,758	-200,000	-0,001	-0,025
-559,744	-200,000	0,029	0,114
-558,729	19,089	0,049	0,029
-557,715	-82,742	-0,124	-0,029
-556,700	297,538	-0,088	-0,118
-555,685	-11,483	0,070	0,033
-554,671	800,000	0,022	0,066
-553,656	63,407	-0,025	-0,018
-552,642	800,000	0,012	0,033
-551,627	-64,432	0,150	-0,044
-550,612	173,068	-0,058	-0,062
-549,598	-28,465	-0,033	0,014
-548,583	-33,352	-0,158	0,064
-547,569	298,918	0,026	0,035
-546,554	9,832	0,162	0,090
-545,539	269,885	0,067	-0,086
-544,525	800,000	0,028	-0,087
-543,510	-95,519	0,090	-0,017
-542,496	-200,000	0,065	-0,212
-541,481	800,000	-0,013	-0,034
-540,466	-200,000	0,018	-0,145
-539,452	-200,000	0,015	-0,093
-538,437	260,212	0,099	0,126
-537,423	-110,005	0,076	0,011
-536,408	75,119	-0,028	-0,021
-535,393	-6,493	-0,069	-0,034
-534,379	100,065	-0,100	-0,085
-533,364	-200,000	-0,036	-0,121
-532,350	-200,000	-0,017	0,098
-531,335	800,000	-0,032	0,069
-530,321	-78,390	0,054	0,013
-529,306	326,594	-0,073	0,102
-528,291	67,180	0,055	0,041
-527,277	-200,000	0,002	-0,146
-526,262	-78,084	-0,057	0,014
-525,248	568,672	0,070	-0,125
-524,233	-200,000	-0,005	-0,017
-523,218	166,215	-0,067	0,070
-522,204	126,838	0,048	0,044
-521,189	-86,430	-0,196	0,044
-520,175	-164,416	-0,016	-0,001
-519,160	-164,410	-0,126	0,004
-518,145	800,000	0,045	0,106
-517,131	-126,782	-0,080	-0,008
-516,116	-200,000	0,004	0,137
-515,102	527,976	0,039	0,068
-514,087	-200,000	0,004	-0,069
-513,072	800,000	0,032	-0,077
-512,058	800,000	0,058	-0,181
-511,043	-115,952	0,059	0,008
-510,029	186,252	0,033	0,036
-509,014	517,624	-0,036	0,061
-507,999	62,009	0,034	-0,025
-506,985	800,000	0,013	0,029
-505,970	82,823	0,055	-0,044
-504,956	545,163	-0,074	0,130
-503,941	86,795	0,120	0,097
-502,926	57,217	0,089	0,063
-501,912	221,780	0,065	-0,077
-500,897	519,437	-0,082	-0,140
-499,883	-116,395	-0,015	0,002
-498,868	-200,000	-0,028	0,093
-497,853	-39,965	-0,040	0,015
-496,839	-111,372	0,101	0,015
-495,824	-172,116	-0,196	-0,005
-494,810	800,000	0,023	0,064
-493,795	800,000	0,037	0,100
-492,781	-113,927	0,138	-0,019
-491,766	488,409	0,014	0,024
-490,751	-61,807	-0,126	-0,038
-489,737	127,479	-0,058	-0,054
-488,722	-64,189	-0,077	0,023
-487,708	465,087	0,028	-0,046
-486,693	55,915	-0,052	-0,037
-485,678	620,893	0,018	0,034
-484,664	-152,025	-0,114	0,006
-483,649	156,230	-0,057	-0,058
-482,635	-200,000	0,012	-0,134
-481,620	800,000	0,021	0,043
-480,605	427,510	0,045	-0,071
-479,591	718,619	0,010	-0,020
-478,576	-200,000	-0,037	-0,158
-477,562	800,000	0,025	-0,070
-476,547	143,665	0,015	0,014
-475,532	31,764	-0,097	0,060
-474,518	-176,533	-0,043	0,001
-473,503	-68,148	0,129	-0,036
-472,489	276,597	-0,048	0,062
-471,474	-200,000	0,002	-0,020
-470,459	-200,000	0,013	-0,045
-469,445	-200,000	0,014	0,081
-468,430	-200,000	-0,015	-0,049
-467,416	-10,339	0,109	0,052
-466,401	-200,000	0,008	0,033
-465,386	800,000	0,026	0,065
-464,372	-134,236	0,061	0,005
-463,357	-137,545	-0,060	0,005
-462,343	86,306	-0,094	0,076
-461,328	-125,437	0,058	0,006
-460,313	97,747	-0,039	-0,033
-459,299	118,983	0,105	0,094
-458,284	-140,031	-0,038	-0,003
-457,270	217,425	0,100	0,116
-456,255	36,485	-0,120	-0,077
-455,241	387,904	-0,127	-0,192
-454,226	-200,000	0,059	-0,207
-453,211	-104,956	-0,037	-0,006
-452,197	-200,000	-0,016	0,123
-451,182	-95,989	-0,118	0,023
-450,168	289,798	0,084	0,112
-449,153	800,000	-0,051	0,153
-448,138	-93,267	-0,142	-0,028
-447,124	275,274	-0,019	-0,025
-446,109	698,214	-0,021	-0,041
-445,095	4,812	0,150	-0,080
-444,080	-200,000	-0,030	-0,099
-443,065	-31,568	0,049	0,020
-442,051	6,878	0,129	0,070
-441,036	14,785	-0,077	-0,044
-440,022	800,000	-0,045	0,095
-439,007	78,909	0,034	0,027
-437,992	66,004	0,097	-0,072
-436,978	-200,000	0,061	0,224
-435,963	-21,223	-0,013	-0,006
-434,949	35,809	0,072	-0,046
-433,934	797,802	0,051	0,102
-432,919	-74,880	-0,155	0,040
-431,905	19,885	0,066	0,038
-430,890	499,159	-0,081	0,137
-429,876	-122,901	0,168	0,019
-428,861	180,110	0,036	-0,039
-427,846	23,763	0,036	0,022
-426,832	349,308	0,057	0,082
-425,817	800,000	-0,017	-0,046
-424,803	47,468	0,065	0,044
-423,788	800,000	-0,036	0,107
-422,773	135,614	0,130	0,123
-421,759	308,163	0,026	-0,036
-420,744	20,223	0,111	0,065
-419,730	400,892	0,017	0,026
-418,715	-108,677	-0,123	0,019
-417,701	-80,714	0,046	0,011
-416,686	-66,972	0,055	0,016
-415,671	-200,000	-0,006	0,218
-414,657	-200,000	0,035	0,151
-413,642	104,986	-0,025	-0,022
-412,628	53,920	0,027	-0,019
-411,613	-119,087	-0,099	-0,012
-410,598	-137,320	0,103	-0,008
-409,584	93,248	-0,004	-0,003
-408,569	-49,183	0,076	0,026
-407,555	119,311	-0,088	0,080
-406,540	-91,112	-0,011	-0,002
-405,525	-200,000	0,009	-0,100
-404,511	163,357	-0,036	-0,037
-403,496	59,383	-0,049	-0,035
-402,482	-29,164	-0,047	-0,019
-401,467	-200,000	-0,012	-0,102
-400,452	-80,666	0,082	-0,020
-399,438	-200,000	0,005	0,049
-398,423	191,963	-0,115	0,126
-397,409	-124,492	-0,123	-0,014
-396,394	316,700	-0,034	-0,047
-395,379	39,717	-0,038	-0,025
-394,365	209,264	0,048	-0,055
-393,350	-14,471	0,060	0,028
-392,336	103,814	0,034	-0,029
-391,321	-135,573	-0,182	-0,016
-390,306	-160,008	-0,147	-0,006
-389,292	114,534	0,037	0,032
-388,277	-139,448	0,046	-0,004
-387,263	-15,492	0,022	0,010
-386,248	-95,340	0,084	-0,016
-385,233	427,654	-0,030	0,047
-384,219	689,878	0,068	0,129
-383,204	800,000	-0,034	0,075
-382,190	111,348	-0,143	-0,125
-381,175	170,787	-0,070	0,073
-380,160	-185,763	0,142	-0,002
-379,146	40,082	0,105	0,068
-378,131	36,843	-0,012	-0,008
-377,117	727,847	0,046	0,089
-376,102	-200,000	-0,007	0,047
-375,088	-105,589	-0,038	-0,006
-374,073	744,952	0,018	-0,036
-373,058	-119,338	-0,118	0,015
-372,044	-126,685	-0,128	-0,014
-371,029	-200,000	-0,005	0,049
-370,015	-19,333	0,116	0,052
-369,000	-200,000	-0,024	-0,120
-367,985	-80,490	-0,113	-0,027
-366,971	-200,000	-0,028	-0,163
-365,956	-200,000	-0,004	-0,055
-364,942	800,000	0,025	0,068
-363,927	17,852	-0,070	0,041
-362,912	43,495	0,073	-0,048
-361,898	-200,000	-0,005	0,070
-360,883	-124,027	-0,100	0,011
-359,869	-85,512	-0,073	0,016
-358,854	185,537	0,094	0,101
-357,839	70,358	0,081	0,060
-356,825	51,908	-0,078	0,054
-355,810	-200,000	-0,008	0,094
-354,796	-200,000	0,044	0,165
-353,781	-22,757	-0,179	-0,078
-352,766	493,516	0,037	-0,062
-351,752	-200,000	-0,005	-0,040
-350,737	64,822	-0,033	0,024
-349,723	255,662	0,059	-0,074
-348,708	-200,000	0,021	-0,091
-347,693	152,385	-0,103	-0,102
-346,679	33,432	0,077	-0,049
-345,664	344,886	-0,032	0,045
-344,650	397,873	0,077	0,117
-343,635	53,512	0,159	0,111
-342,620	714,187	-0,005	-0,010
-341,606	-164,705	0,047	0,002
-340,591	-11,188	-0,097	0,046
-339,577	800,000	0,019	0,051
-338,562	67,117	-0,040	-0,030
-337,548	-23,834	-0,071	-0,031
-336,533	180,206	0,016	-0,017
-335,518	524,358	0,065	0,111
-334,504	-87,912	0,108	-0,023
-333,489	-27,665	0,023	0,010
-332,475	-97,660	0,134	-0,025
-331,460	800,000	0,026	-0,062
-330,445	800,000	-0,032	-0,082
-329,431	121,199	0,002	-0,002
-328,416	-95,027	0,200	0,039
-327,402	100,641	0,026	-0,022
-326,387	-12,105	0,087	0,041
-325,372	389,634	-0,058	0,087
-324,358	-200,000	-0,009	0,041
-323,343	-200,000	0,017	0,076
-322,329	-102,392	-0,086	0,015
-321,314	187,882	0,022	-0,024
-320,299	-200,000	-0,032	0,137
-319,285	733,785	-0,039	-0,076
-318,270	458,643	-0,039	-0,063
-317,256	684,510	0,032	0,061
-316,241	-200,000	-0,014	-0,082
-315,226	1,284	0,063	0,033
-314,212	312,638	0,050	0,068
-313,197	-187,508	0,022	-0,000
-312,183	-200,000	-0,007	0,081
-311,168	149,171	-0,058	-0,057
-310,153	-65,199	-0,067	0,020
-309,139	252,715	0,055	-0,068
-308,124	-104,286	0,098	0,016
-307,110	572,022	0,132	-0,234
-306,095	-190,006	0,215	-0,002
-305,080	-95,932	-0,063	-0,012
-304,066	465,069	-0,051	0,083
-303,051	800,000	-0,027	0,075
-302,037	-65,668	-0,069	0,020
-301,022	-38,775	0,091	-0,034
-300,008	-138,380	0,078	-0,006
-298,993	698,596	0,051	0,097
-297,978	-44,141	0,141	-0,051
-296,964	-110,067	0,043	-0,006
-295,949	297,762	-0,033	-0,044
-294,935	43,079	0,049	0,032
-293,920	51,153	0,148	0,102
-292,905	118,895	0,031	-0,028
-291,891	487,953	-0,013	0,022
-290,876	15,563	-0,082	0,046
-289,862	57,212	0,069	-0,049
-288,847	-200,000	0,004	-0,050
-287,832	155,980	0,036	-0,036
-286,818	363,170	-0,042	0,061
-285,803	-148,897	0,104	0,006
-284,789	50,680	-0,019	0,013
-283,774	336,083	0,063	-0,088
-282,759	742,874	-0,047	-0,091
-281,745	-200,000	-0,029	-0,102
-280,730	-85,089	-0,106	0,024
-279,716	-118,247	-0,014	0,002
-278,701	18,381	0,141	-0,081
-277,686	634,246	0,037	0,068
-276,672	-52,659	-0,068	-0,023
-275,657	65,370	-0,142	0,104
-274,643	-85,603	-0,122	-0,027
-273,628	5,288	0,063	0,034
-272,613	295,417	-0,013	0,017
-271,599	-169,754	-0,045	-0,001
-270,584	-200,000	-0,002	0,117
-269,570	-119,429	0,112	0,014
-268,555	175,067	0,075	-0,079
-267,540	-52,549	-0,103	-0,034
-266,526	-200,000	-0,009	-0,082
-265,511	-53,890	-0,050	-0,016
-264,497	-200,000	-0,019	0,136
-263,482	-82,994	0,168	-0,039
-262,467	104,784	0,107	0,092
-261,453	-55,125	0,037	0,012
-260,438	800,000	0,065	-0,157
-259,424	167,340	0,081	0,084
-258,409	-200,000	0,000	0,003
-257,395	199,165	-0,061	0,068
-256,380	46,008	0,091	-0,061
-255,365	-7,076	-0,071	0,035
-254,351	41,833	0,117	0,076
-253,336	-200,000	-0,032	-0,147
-252,322	55,228	-0,020	0,014
-251,307	-200,000	0,028	0,152
-250,292	486,974	0,020	0,034
-249,278	-119,010	0,088	0,011
-248,263	-85,826	-0,085	0,019
-247,249	800,000	-0,067	0,208
-246,234	57,273	-0,047	-0,033
-245,219	-200,000	-0,007	-0,112
-244,205	-150,923	0,014	0,001
-243,190	-137,798	-0,153	0,012
-242,176	62,912	0,149	0,107
-241,161	-30,019	0,099	-0,040
-240,146	-136,182	0,025	0,002
-239,132	192,833	-0,096	-0,105
-238,117	-99,041	-0,152	0,028
-237,103	30,620	0,014	-0,009
-236,088	-114,576	-0,086	-0,012
-235,073	-20,734	0,251	0,111
-234,059	800,000	0,023	0,069
-233,044	321,984	0,044	0,061
-232,030	-72,855	0,077	-0,020
-231,015	405,743	0,080	-0,123
-230,000	-200,000	-0,014	-0,051
-228,986	800,000	-0,021	0,045
-227,971	34,368	0,025	-0,016
-226,957	633,019	0,110	0,202
-225,942	19,314	-0,039	-0,023
-224,927	-65,650	0,111	0,032
-223,913	-53,961	-0,155	-0,051
-222,898	-21,074	0,144	-0,063
-221,884	33,594	-0,109	-0,068
-220,869	-38,214	-0,092	-0,035
-219,855	534,107	0,031	0,054
-218,840	621,582	-0,041	0,075
-217,825	-72,752	0,124	-0,033
-216,811	800,000	0,059	-0,135
-215,796	-33,766	-0,054	0,021
-214,782	-200,000	0,017	-0,063
-213,767	-108,708	-0,050	-0,008
-212,752	9,952	0,082	-0,045
-211,738	57,899	-0,065	-0,046
-210,723	-49,090	0,093	-0,032
-209,709	569,238	-0,126	-0,222
-208,694	233,325	0,122	-0,145
-207,679	-200,000	0,018	-0,060
-206,665	-200,000	-0,003	-0,108
-205,650	148,511	0,110	-0,107
-204,636	121,538	-0,137	-0,123
-203,621	247,027	-0,032	0,039
-202,606	172,466	-0,076	-0,079
-201,592	800,000	-0,019	-0,039
-200,577	128,163	0,035	-0,032
-199,563	-77,436	0,063	-0,016
-198,548	-123,741	-0,091	-0,010
-197,533	606,903	-0,003	-0,006
-196,519	-166,457	-0,121	0,004
-195,504	-198,425	0,106	-0,000
-194,490	-200,000	-0,011	0,114
-193,475	300,946	0,021	-0,028
-192,460	530,630	-0,054	0,093
-191,446	-200,000	-0,029	0,159
-190,431	-200,000	-0,024	0,085
-189,417	800,000	0,020	0,044
-188,402	135,145	-0,044	0,042
-187,387	457,591	-0,085	-0,137
-186,373	-63,083	0,098	0,029
-185,358	495,983	-0,044	-0,074
-184,344	-32,929	-0,092	-0,037
-183,329	-200,000	-0,000	-0,115
-182,315	559,354	-0,028	0,048
-181,300	260,736	-0,073	-0,091
-180,285	-2,890	-0,045	0,023
-179,271	117,533	0,011	0,010
-178,256	-200,000	-0,025	0,000
-177,242	-116,219	-0,036	-0,005
-176,227	-60,353	0,062	0,019
-175,212	-52,331	-0,109	-0,036
-174,198	411,312	0,047	0,072
-173,183	-72,780	-0,057	0,015
-172,169	-111,847	-0,014	0,002
-171,154	793,741	-0,034	-0,068
-170,139	800,000	-0,027	-0,068
-169,125	-146,028	0,050	0,003
-168,110	-20,476	-0,011	0,005
-167,096	149,206	-0,090	-0,088
-166,081	314,400	-0,045	-0,061
-165,066	-32,582	-0,100	0,040
-164,052	355,935	0,040	-0,057
-163,037	-87,464	0,029	0,006
-162,023	-44,399	0,125	-0,045
-161,008	-98,985	-0,128	0,023
-159,993	-200,000	0,034	-0,111
-158,979	-25,987	0,060	-0,025
-157,964	-200,000	-0,011	-0,053
-156,950	-200,000	0,011	-0,083
-155,935	-200,000	-0,021	-0,152
-154,920	-200,000	0,033	0,123
-153,906	51,050	0,016	-0,011
-152,891	233,516	-0,082	-0,098
-151,877	140,058	0,023	0,022
-150,862	96,584	-0,074	-0,061
-149,847	689,440	-0,023	-0,044
-148,833	-159,306	-0,115	0,005
-147,818	-188,725	0,072	-0,001
-146,804	385,105	-0,085	0,127
-145,789	207,035	-0,044	0,049
-144,775	-174,583	-0,091	-0,002
-143,760	173,681	-0,048	-0,050
-142,745	361,036	-0,044	-0,064
-141,731	-200,000	-0,023	-0,097
-140,716	-200,000	-0,007	0,068
-139,702	155,012	0,089	0,088
-138,687	420,441	0,030	0,046
-137,672	-200,000	-0,009	-0,040
-136,658	22,259	-0,073	-0,043
-135,643	1,003	-0,074	0,038
-134,629	-22,433	-0,084	-0,037
-133,614	-50,458	0,088	0,030
-132,599	546,472	0,062	0,107
-131,585	196,254	0,050	-0,054
-130,570	-148,764	0,025	0,001
-129,556	800,000	-0,037	-0,091
-128,541	67,729	-0,156	-0,115
-127,526	-156,259	-0,177	-0,008
-126,512	91,415	-0,139	0,113
-125,497	21,171	0,156	0,091
-124,483	66,895	-0,034	0,025
-123,468	351,969	0,047	-0,067
-122,453	800,000	-0,023	0,053
-121,439	50,195	-0,069	-0,047
-120,424	-69,448	0,027	-0,007
-119,410	-200,000	-0,001	0,084
