DTS Sentinel unit serial number:	SN410029Multiplexer serial number:	ORYXHardware model number:	OX2-SRSoftware version number:	ORYX F/W v4,00 Oryx Data Collector v3.7.2.0data status	okinstallation	B6 Nyhavnadifferential loss correction	single-endedforward channel	channel 2reverse channel	N/Adate	2023/12/10time	10:35:08forward acquisition time	300,00reverse acquisition time	0,00gamma	499,1914k internal	0,3123k external	0,3123temperature offset calibration	1,0000default loss term (dB/km)	0,3820temperature slope calibration	1,0000multiplexer offset coefficient	1,0000multiplexer slope coefficient	1,0000fibre end	0,00T internal ref (°C)	22,57T ext. ref 1 (°C)	6,42T ext. ref 2 (°C)	6,41length (m)	temperature (°C)	Stokes	anti-Stokes-744,400	738,198	-0,064	-0,129
-743,385	-10,004	-0,265	0,131
-742,371	-200,000	-0,014	-0,131
-741,356	800,000	-0,029	0,081
-740,342	139,650	0,028	-0,028
-739,327	352,430	-0,107	0,159
-738,312	-200,000	0,018	-0,134
-737,298	-109,690	-0,345	0,054
-736,283	333,856	0,035	-0,051
-735,269	-114,102	-0,111	0,016
-734,254	147,424	0,111	-0,111
-733,239	-52,998	-0,400	-0,136
-732,225	-152,731	0,083	-0,004
-731,210	444,035	-0,068	0,112
-730,196	800,000	-0,005	0,014
-729,181	298,280	-0,118	0,162
-728,167	-200,000	-0,016	-0,157
-727,152	213,459	-0,040	0,047
-726,137	-81,702	0,077	-0,019
-725,123	-50,033	0,062	0,022
-724,108	-200,000	0,031	-0,157
-723,094	-34,280	-0,120	-0,049
-722,079	-70,993	-0,326	-0,091
-721,064	317,356	-0,017	0,024
-720,050	-133,124	-0,071	0,007
-719,035	800,000	0,034	-0,096
-718,021	-33,476	0,153	-0,063
-717,006	-200,000	-0,015	-0,083
-715,991	-200,000	-0,028	-0,160
-714,977	-109,329	-0,099	0,015
-713,962	181,023	-0,036	-0,040
-712,948	12,168	0,032	0,018
-711,933	130,096	0,081	0,077
-710,918	-200,000	-0,001	0,056
-709,904	44,539	-0,104	0,071
-708,889	-200,000	0,044	-0,147
-707,875	159,194	-0,131	-0,136
-706,860	594,586	0,065	0,119
-705,845	248,153	-0,029	-0,036
-704,831	-58,067	-0,136	0,044
-703,816	-200,000	0,000	0,003
-702,802	3,951	-0,154	-0,084
-701,787	-83,236	-0,088	-0,021
-700,772	800,000	0,042	-0,118
-699,758	-200,000	-0,004	-0,082
-698,743	-49,300	-0,089	-0,031
-697,729	229,915	0,056	0,069
-696,714	-23,471	0,012	-0,005
-695,699	-65,465	-0,132	-0,039
-694,685	-139,622	0,026	-0,002
-693,670	-148,307	-0,088	0,005
-692,656	-200,000	-0,017	-0,072
-691,641	-53,905	-0,021	-0,007
-690,627	-200,000	0,024	0,101
-689,612	800,000	0,033	0,083
-688,597	-59,963	0,183	0,058
-687,583	126,703	-0,072	-0,067
-686,568	-22,843	0,090	-0,040
-685,554	264,378	0,088	-0,114
-684,539	800,000	-0,046	0,105
-683,524	-200,000	0,016	0,110
-682,510	214,609	0,075	0,089
-681,495	75,669	-0,122	0,096
-680,481	155,888	-0,086	-0,088
-679,466	326,851	-0,095	-0,136
-678,451	-59,051	-0,098	0,031
-677,437	800,000	0,056	-0,121
-676,422	800,000	-0,018	-0,049
-675,408	578,357	0,018	0,033
-674,393	-69,723	0,033	0,009
-673,378	51,853	-0,154	-0,109
-672,364	61,163	-0,049	0,036
-671,349	667,588	-0,049	-0,094
-670,335	800,000	0,024	0,072
-669,320	-200,000	-0,001	0,061
-668,305	275,301	0,014	-0,018
-667,291	-76,946	-0,102	-0,026
-666,276	-200,000	0,004	0,017
-665,262	-200,000	-0,076	0,000
-664,247	106,011	-0,052	0,046
-663,232	-200,000	-0,008	-0,044
-662,218	793,522	0,043	0,088
-661,203	18,667	0,047	0,028
-660,189	119,763	0,072	-0,066
-659,174	109,896	-0,076	-0,067
-658,159	188,725	-0,103	-0,115
-657,145	-200,000	-0,028	-0,097
-656,130	800,000	0,011	0,025
-655,116	-200,000	-0,013	0,145
-654,101	-200,000	0,011	-0,053
-653,086	800,000	-0,044	-0,113
-652,072	-200,000	-0,002	-0,054
-651,057	-200,000	-0,010	-0,098
-650,043	201,994	0,089	-0,102
-649,028	273,919	-0,099	0,130
-648,014	405,564	0,078	0,123
-646,999	171,485	-0,073	0,078
-645,984	-20,375	0,046	-0,021
-644,970	274,460	-0,094	-0,124
-643,955	89,899	-0,096	-0,080
-642,941	12,054	-0,147	-0,083
-641,926	-200,000	0,000	0,041
-640,911	249,856	0,069	0,087
-639,897	310,125	-0,035	0,049
-638,882	149,715	0,036	-0,036
-637,868	-119,073	-0,062	-0,008
-636,853	510,930	-0,045	-0,078
-635,838	-200,000	0,002	0,032
-634,824	-53,865	0,033	0,011
-633,809	-200,000	-0,002	0,049
-632,795	-28,658	-0,108	-0,046
-631,780	-200,000	-0,025	0,136
-630,765	217,667	0,071	0,084
-629,751	47,090	-0,030	-0,021
-628,736	-200,000	-0,022	-0,192
-627,722	-25,115	-0,105	0,046
-626,707	800,000	0,038	-0,092
-625,692	280,557	0,047	0,062
-624,678	-200,000	-0,034	0,140
-623,663	-110,311	0,083	-0,013
-622,649	-200,000	0,012	-0,149
-621,634	17,111	-0,109	-0,064
-620,619	133,859	0,088	-0,084
-619,605	-200,000	-0,021	-0,076
-618,590	142,275	-0,109	-0,107
-617,576	-200,000	-0,018	0,177
-616,561	800,000	0,015	-0,047
-615,546	-63,227	0,070	0,021
-614,532	406,301	-0,095	-0,149
-613,517	-200,000	-0,002	-0,095
-612,503	547,136	0,070	0,124
-611,488	-200,000	0,006	0,068
-610,474	-10,126	0,095	0,046
-609,459	-75,806	0,041	0,011
-608,444	2,027	-0,058	-0,031
-607,430	-107,147	0,039	-0,006
-606,415	8,153	-0,161	-0,090
-605,401	800,000	-0,018	0,057
-604,386	285,528	0,014	0,018
-603,371	-200,000	-0,003	0,147
-602,357	-200,000	-0,007	0,022
-601,342	24,152	-0,134	0,082
-600,328	554,713	-0,003	0,006
-599,313	-107,109	-0,014	0,002
-598,298	205,543	-0,030	-0,035
-597,284	800,000	0,030	0,088
-596,269	133,605	0,066	-0,063
-595,255	38,552	0,078	0,051
-594,240	-200,000	-0,004	-0,044
-593,225	-112,686	-0,139	-0,020
-592,211	-200,000	-0,009	0,032
-591,196	130,339	-0,018	0,017
-590,182	-1,247	0,179	-0,094
-589,167	-57,001	-0,132	-0,043
-588,152	800,000	0,016	-0,040
-587,138	-86,938	0,042	-0,009
-586,123	125,358	-0,025	0,024
-585,109	306,877	-0,074	-0,102
-584,094	-200,000	-0,005	-0,030
-583,079	287,245	0,028	0,037
-582,065	648,132	0,030	0,056
-581,050	-155,438	0,051	0,002
-580,036	-5,768	-0,029	-0,015
-579,021	28,427	0,093	-0,058
-578,006	-67,522	-0,129	-0,037
-576,992	296,981	-0,086	-0,117
-575,977	140,153	0,038	0,037
-574,963	-200,000	0,003	-0,023
-573,948	-68,959	-0,085	0,024
-572,934	-200,000	-0,002	0,082
-571,919	173,385	-0,048	-0,052
-570,904	71,890	0,013	0,010
-569,890	-200,000	-0,002	-0,070
-568,875	94,226	0,131	0,110
-567,861	-200,000	-0,023	-0,107
-566,846	-91,778	0,103	-0,022
-565,831	271,049	0,044	-0,057
-564,817	-61,066	-0,148	-0,046
-563,802	474,735	-0,044	0,074
-562,788	584,574	0,009	-0,016
-561,773	800,000	0,023	0,049
-560,758	197,170	0,092	-0,104
-559,744	-1,958	-0,094	0,049
-558,729	-200,000	-0,020	0,076
-557,715	26,632	0,107	-0,066
-556,700	800,000	0,006	0,020
-555,685	-39,289	0,087	-0,034
-554,671	-39,125	0,021	0,008
-553,656	326,960	0,037	-0,052
-552,642	-15,519	0,016	-0,008
-551,627	82,734	0,056	0,045
-550,612	-200,000	-0,023	0,180
-549,598	-200,000	-0,011	0,083
-548,583	81,949	0,044	-0,036
-547,569	-161,058	-0,039	0,001
-546,554	17,718	0,191	-0,112
-545,539	792,088	-0,026	-0,053
-544,525	-57,782	0,034	-0,011
-543,510	71,907	0,169	-0,130
-542,496	800,000	-0,042	-0,119
-541,481	-22,863	-0,154	0,068
-540,466	369,379	0,013	0,019
-539,452	-83,359	0,120	0,028
-538,437	-200,000	0,019	0,103
-537,423	800,000	-0,057	0,187
-536,408	800,000	0,044	0,098
-535,393	40,141	0,070	0,047
-534,379	717,285	0,021	-0,041
-533,364	-149,101	-0,074	-0,004
-532,350	-28,054	0,073	-0,031
-531,335	-33,410	-0,081	-0,033
-530,321	-22,237	-0,103	-0,046
-529,306	-200,000	-0,033	0,126
-528,291	-200,000	0,017	-0,081
-527,277	800,000	-0,043	-0,135
-526,262	18,365	0,161	-0,095
-525,248	165,992	-0,091	-0,095
-524,233	47,117	-0,114	0,078
-523,218	22,205	0,081	0,049
-522,204	62,982	-0,071	0,053
-521,189	-134,509	0,063	-0,006
-520,175	29,088	-0,062	-0,039
-519,160	100,395	0,110	-0,095
-518,145	-200,000	0,000	-0,012
-517,131	313,680	-0,041	0,057
-516,116	482,199	0,022	0,038
-515,102	223,880	0,037	0,044
-514,087	-169,985	-0,150	-0,004
-513,072	800,000	-0,052	-0,109
-512,058	477,371	-0,056	-0,093
-511,043	80,206	-0,072	-0,058
-510,029	258,955	0,082	-0,104
-509,014	800,000	0,055	0,145
-507,999	800,000	-0,033	0,099
-506,985	-166,696	0,140	0,004
-505,970	-173,655	0,091	0,002
-504,956	-120,234	-0,190	0,024
-503,941	-200,000	-0,001	-0,082
-502,926	-200,000	0,028	-0,103
-501,912	-200,000	0,019	0,154
-500,897	787,383	-0,046	-0,094
-499,883	-130,256	-0,088	0,009
-498,868	-37,927	0,064	0,025
-497,853	-63,971	0,120	-0,036
-496,839	-116,628	0,084	0,011
-495,824	-66,189	0,104	-0,030
-494,810	-29,501	-0,025	0,010
-493,795	273,448	-0,031	-0,041
-492,781	-200,000	-0,010	0,092
-491,766	-68,647	-0,065	0,019
-490,751	-200,000	-0,010	-0,071
-489,737	-200,000	0,036	-0,163
-488,722	312,509	-0,006	0,009
-487,708	-141,828	0,115	-0,008
-486,693	244,604	0,101	0,126
-485,678	122,992	0,105	-0,097
-484,664	92,784	0,059	-0,049
-483,649	-95,854	-0,043	0,008
-482,635	296,234	-0,051	0,069
-481,620	215,854	-0,056	-0,065
-480,605	-22,849	0,123	0,055
-479,591	-67,870	-0,060	-0,017
-478,576	384,402	-0,029	0,043
-477,562	800,000	0,004	0,013
-476,547	-150,738	0,146	0,008
-475,532	-200,000	-0,025	-0,162
-474,518	-16,598	-0,148	-0,069
-473,503	-200,000	-0,020	-0,103
-472,489	482,481	-0,024	0,041
-471,474	-200,000	0,000	0,008
-470,459	182,956	-0,108	-0,117
-469,445	-18,362	-0,064	-0,029
-468,430	-200,000	-0,004	0,077
-467,416	-143,336	-0,037	0,003
-466,401	77,014	0,071	0,056
-465,386	142,274	-0,034	-0,033
-464,372	-78,605	0,088	0,022
-463,357	-200,000	0,006	0,024
-462,343	66,980	-0,131	-0,098
-461,328	-200,000	-0,003	-0,044
-460,313	-92,876	-0,027	0,005
-459,299	256,119	-0,013	-0,017
-458,284	563,894	-0,054	-0,097
-457,270	-86,277	-0,149	0,033
-456,255	151,265	0,055	0,056
-455,241	134,574	-0,136	-0,130
-454,226	288,531	0,047	0,062
-453,211	800,000	0,026	-0,054
-452,197	-118,203	0,076	0,010
-451,182	539,925	0,058	0,101
-450,168	-39,813	-0,054	-0,021
-449,153	-139,405	-0,053	-0,004
-448,138	426,897	0,042	-0,067
-447,124	65,913	-0,135	-0,101
-446,109	-61,476	0,181	-0,056
-445,095	-23,649	0,071	0,031
-444,080	800,000	-0,020	0,045
-443,065	-200,000	0,017	-0,094
-442,051	-152,642	0,042	0,002
-441,036	40,501	0,064	-0,042
-440,022	-75,378	0,103	-0,027
-439,007	284,414	0,072	0,095
-437,992	125,539	0,092	-0,086
-436,978	23,529	-0,057	-0,034
-435,963	-200,000	0,049	0,212
-434,949	-37,548	-0,031	0,012
-433,934	-200,000	-0,010	-0,128
-432,919	-200,000	-0,005	-0,047
-431,905	-200,000	0,003	0,126
-430,890	800,000	-0,033	0,070
-429,876	-163,747	-0,026	-0,001
-428,861	-200,000	-0,016	0,057
-427,846	50,465	0,084	0,059
-426,832	19,853	-0,115	-0,068
-425,817	-105,818	-0,121	0,020
-424,803	-200,000	0,001	-0,015
-423,788	53,009	0,080	-0,056
-422,773	3,831	0,096	0,052
-421,759	32,879	0,065	-0,041
-420,744	-142,504	0,007	-0,001
-419,730	-52,581	-0,122	-0,041
-418,715	166,147	-0,027	0,028
-417,701	216,474	-0,013	-0,015
-416,686	52,768	0,094	-0,066
-415,671	-28,069	0,021	0,009
-414,657	-161,485	0,093	0,003
-413,642	-200,000	-0,023	-0,097
-412,628	-52,847	-0,038	0,013
-411,613	-41,919	0,051	0,019
-410,598	-195,397	-0,059	-0,000
-409,584	-186,536	0,020	0,000
-408,569	-86,670	-0,100	0,022
-407,555	-75,228	0,034	-0,009
-406,540	-200,000	0,012	-0,135
-405,525	-150,033	-0,159	0,009
-404,511	94,024	-0,082	0,068
-403,496	-106,181	-0,113	-0,018
-402,482	800,000	0,053	0,152
-401,467	-64,915	0,060	-0,018
-400,452	-114,873	0,073	0,010
-399,438	177,734	0,052	-0,056
-398,423	37,036	0,105	-0,068
-397,409	800,000	0,042	0,100
-396,394	800,000	0,086	-0,197
-395,379	-140,514	0,080	0,006
-394,365	-78,838	0,046	-0,011
-393,350	-139,105	-0,070	-0,006
-392,336	-200,000	0,001	0,024
-391,321	7,420	-0,130	0,071
-390,306	-136,299	-0,036	0,003
-389,292	294,748	-0,078	-0,105
-388,277	59,622	-0,043	0,031
-387,263	-147,556	-0,046	-0,003
-386,248	-163,032	0,099	0,003
-385,233	-124,140	-0,060	0,007
-384,219	-41,323	0,095	0,036
-383,204	-200,000	0,052	-0,176
-382,190	-71,296	-0,096	-0,026
-381,175	-4,743	0,116	-0,058
-380,160	247,715	0,054	0,067
-379,146	367,870	-0,092	0,137
-378,131	-8,452	0,055	-0,027
-377,117	-55,220	0,055	-0,018
-376,102	-140,214	-0,174	0,013
-375,088	-151,142	0,026	-0,001
-374,073	800,000	0,029	0,066
-373,058	-200,000	-0,005	-0,026
-372,044	800,000	0,044	0,124
-371,029	40,817	0,088	-0,058
-370,015	212,993	0,052	-0,061
-369,000	-200,000	0,022	0,109
-367,985	-200,000	-0,004	0,015
-366,971	219,102	0,045	0,053
-365,956	197,368	-0,039	0,044
-364,942	800,000	0,059	0,190
-363,927	29,437	-0,035	0,022
-362,912	-200,000	0,011	0,050
-361,898	-71,085	-0,077	-0,021
-360,883	74,876	0,042	0,032
-359,869	194,259	0,090	0,100
-358,854	664,079	-0,042	-0,080
-357,839	36,882	0,089	0,058
-356,825	800,000	-0,063	0,200
-355,810	-200,000	0,006	0,025
-354,796	798,357	-0,036	0,073
-353,781	-24,652	-0,088	-0,038
-352,766	-98,359	-0,084	0,016
-351,752	800,000	-0,037	0,088
-350,737	-131,873	0,201	0,019
-349,723	-51,945	-0,061	-0,021
-348,708	-82,999	0,096	0,023
-347,693	-123,080	0,017	-0,002
-346,679	33,759	0,051	-0,032
-345,664	-200,000	-0,021	-0,180
-344,650	-200,000	0,019	-0,186
-343,635	-10,297	-0,124	0,060
-342,620	-42,632	0,095	0,035
-341,606	186,614	-0,032	0,035
-340,591	-58,057	-0,044	0,014
-339,577	105,263	0,055	-0,047
-338,562	800,000	0,052	-0,135
-337,548	-200,000	-0,005	-0,071
-336,533	800,000	0,011	0,029
-335,518	-200,000	0,008	0,049
-334,504	49,540	0,101	-0,070
-333,489	-148,025	0,058	0,003
-332,475	96,350	0,025	-0,021
-331,460	-14,578	-0,010	-0,005
-330,445	190,649	-0,026	0,028
-329,431	-92,028	-0,075	0,015
-328,416	-86,102	0,068	0,015
-327,402	12,365	0,079	0,045
-326,387	800,000	-0,019	0,055
-325,372	92,621	-0,045	0,037
-324,358	-200,000	0,018	-0,133
-323,343	-200,000	0,048	-0,241
-322,329	85,627	0,077	-0,062
-321,314	-200,000	0,011	0,059
-320,299	120,740	-0,023	-0,021
-319,285	116,842	-0,133	0,120
-318,270	73,225	-0,067	-0,051
-317,256	-200,000	0,023	-0,173
-316,241	-152,695	0,109	0,006
-315,226	107,736	0,028	0,025
-314,212	-200,000	-0,008	0,081
-313,197	-200,000	0,002	0,069
-312,183	325,986	-0,072	-0,101
-311,168	-84,702	-0,043	0,010
-310,153	-110,954	0,147	0,022
-309,139	-200,000	0,014	-0,079
-308,124	-200,000	-0,027	-0,101
-307,110	-200,000	-0,005	0,065
-306,095	0,170	0,008	0,004
-305,080	-5,759	-0,072	-0,036
-304,066	800,000	-0,034	0,110
-303,051	61,949	0,046	0,034
-302,037	-89,647	0,051	0,011
-301,022	-42,174	-0,025	0,009
-300,008	-132,614	0,144	0,013
-298,993	800,000	-0,053	0,155
-297,978	97,308	0,042	0,035
-296,964	140,186	0,054	0,052
-295,949	800,000	-0,065	0,158
-294,935	800,000	0,047	-0,123
-293,920	219,498	0,062	-0,073
-292,905	-40,074	0,039	-0,015
-291,891	-200,000	-0,030	0,119
-290,876	-200,000	0,012	0,047
-289,862	-30,831	-0,135	-0,056
-288,847	-20,038	-0,126	0,057
-287,832	-200,000	-0,035	0,191
-286,818	72,670	-0,047	0,036
-285,803	147,500	-0,083	-0,082
-284,789	-200,000	0,001	-0,034
-283,774	800,000	0,030	0,079
-282,759	-200,000	-0,002	0,070
-281,745	-18,419	-0,072	-0,033
-280,730	461,429	0,024	0,039
-279,716	-121,017	-0,100	0,012
-278,701	-72,728	0,107	0,029
-277,686	10,923	0,171	0,096
-276,672	786,195	0,042	0,085
-275,657	-200,000	0,016	0,134
-274,643	-94,263	-0,081	-0,016
-273,628	192,956	-0,113	0,125
-272,613	431,242	0,061	-0,097
-271,599	559,437	0,031	-0,055
-270,584	-34,470	0,068	-0,027
-269,570	-200,000	-0,050	0,215
-268,555	-200,000	0,013	0,048
-267,540	62,905	-0,054	-0,040
-266,526	-135,684	-0,082	-0,007
-265,511	58,198	-0,090	0,064
-264,497	169,276	-0,097	0,101
-263,482	800,000	-0,026	0,070
-262,467	-173,838	-0,081	-0,002
-261,453	352,822	-0,031	-0,044
-260,438	-4,323	0,088	-0,044
-259,424	-68,901	0,048	0,013
-258,409	125,358	-0,173	-0,160
-257,395	-110,241	0,036	0,005
-256,380	-200,000	-0,028	0,132
-255,365	-135,273	0,028	-0,002
-254,351	502,867	0,086	0,146
-253,336	517,042	-0,031	-0,053
-252,322	-74,456	-0,160	0,042
-251,307	422,015	0,066	0,104
-250,292	800,000	0,009	-0,028
-249,278	-200,000	0,005	0,098
-248,263	199,326	-0,040	-0,045
-247,249	-200,000	0,016	0,193
-246,234	-200,000	0,001	-0,027
-245,219	-200,000	-0,013	-0,124
-244,205	-200,000	0,016	-0,133
-243,190	102,349	0,038	-0,032
-242,176	413,850	0,058	-0,090
-241,161	287,569	-0,027	0,036
-240,146	-125,396	-0,005	-0,001
-239,132	-110,509	-0,195	-0,029
-238,117	-31,158	-0,224	-0,092
-237,103	761,832	-0,061	-0,121
-236,088	800,000	-0,029	0,085
-235,073	12,747	-0,108	-0,061
-234,059	298,647	0,101	0,137
-233,044	483,327	-0,037	-0,061
-232,030	-160,145	0,047	0,002
-231,015	-82,724	-0,164	-0,038
-230,000	-200,000	-0,019	-0,090
-228,986	-200,000	0,022	0,081
-227,971	-200,000	-0,003	0,120
-226,957	32,704	0,134	0,085
-225,942	78,678	-0,093	-0,072
-224,927	-52,535	-0,170	-0,057
-223,913	-111,467	-0,078	-0,012
-222,898	12,648	-0,061	-0,035
-221,884	-29,180	0,082	-0,034
-220,869	800,000	0,048	0,104
-219,855	800,000	0,006	-0,014
-218,840	103,506	-0,032	-0,027
-217,825	234,264	0,022	-0,026
-216,811	263,426	-0,007	-0,009
-215,796	-44,327	-0,037	-0,013
-214,782	23,597	-0,121	-0,073
-213,767	-8,941	-0,071	-0,035
-212,752	24,063	0,092	0,055
-211,738	-200,000	-0,002	0,072
-210,723	-84,453	-0,107	-0,024
-209,709	-200,000	0,007	-0,150
-208,694	-200,000	-0,005	-0,026
-207,679	773,232	-0,019	-0,037
-206,665	-148,387	0,011	0,001
-205,650	800,000	0,037	0,086
-204,636	800,000	0,043	0,097
-203,621	-69,505	0,133	0,037
-202,606	-200,000	-0,016	-0,063
-201,592	450,935	-0,025	-0,041
-200,577	327,662	0,101	-0,142
-199,563	86,513	0,080	-0,064
-198,548	-4,733	-0,078	0,039
-197,533	800,000	-0,043	0,130
-196,519	132,569	0,003	-0,003
-195,504	-156,781	0,176	0,008
-194,490	717,339	-0,051	-0,099
-193,475	-46,100	-0,076	-0,027
-192,460	-200,000	-0,008	0,037
-191,446	18,651	0,049	0,029
-190,431	55,504	0,056	-0,039
-189,417	759,044	0,094	0,187
-188,402	23,407	-0,080	-0,048
-187,387	198,442	0,083	-0,093
-186,373	292,765	-0,037	0,050
-185,358	434,772	0,021	-0,033
-184,344	269,888	0,098	0,126
-183,329	69,286	0,087	-0,066
-182,315	532,180	0,037	0,065
-181,300	-200,000	0,031	-0,105
-180,285	-76,199	-0,027	0,007
-179,271	613,529	0,072	0,132
-178,256	-200,000	0,015	0,154
-177,242	800,000	-0,008	0,019
-176,227	137,666	0,043	0,041
-175,212	404,683	0,065	0,101
-174,198	153,097	0,038	-0,038
-173,183	800,000	0,049	-0,122
-172,169	800,000	-0,049	0,143
-171,154	800,000	-0,016	-0,050
-170,139	-60,843	0,157	-0,048
-169,125	30,559	0,196	0,122
-168,110	416,404	0,062	-0,097
-167,096	114,984	-0,092	0,082
-166,081	170,231	-0,059	-0,061
-165,066	137,101	-0,089	-0,085
-164,052	136,368	-0,088	-0,084
-163,037	-98,878	0,056	-0,010
-162,023	25,999	0,067	-0,040
-161,008	800,000	0,037	-0,093
-159,993	-200,000	-0,004	0,015
-158,979	-200,000	0,012	0,042
-157,964	-113,756	-0,144	0,020
-156,950	-86,443	-0,041	-0,009
-155,935	-35,276	0,036	-0,014
-154,920	-51,145	0,122	-0,041
-153,906	106,202	0,030	-0,026
-152,891	-79,266	-0,076	0,019
-151,877	-200,000	-0,006	0,026
-150,862	-137,975	-0,103	0,008
-149,847	-91,425	-0,102	-0,021
-148,833	21,947	-0,091	0,054
-147,818	9,119	0,012	0,007
-146,804	-71,139	-0,151	-0,041
-145,789	462,606	-0,053	-0,087
-144,775	-200,000	0,033	-0,120
-143,760	109,123	-0,041	-0,036
-142,745	425,866	-0,058	-0,091
-141,731	800,000	0,036	-0,110
-140,716	204,061	0,055	0,062
-139,702	160,753	0,136	0,138
-138,687	-101,122	-0,053	-0,009
-137,672	291,213	-0,070	-0,093
-136,658	119,079	-0,010	-0,009
-135,643	800,000	-0,039	0,086
-134,629	-146,867	0,021	-0,001
-133,614	-10,334	-0,090	0,043
-132,599	-22,768	0,085	-0,037
-131,585	800,000	0,019	-0,044
-130,570	-200,000	-0,028	-0,170
-129,556	-109,164	0,035	-0,005
-128,541	624,698	0,051	-0,094
-127,526	89,473	-0,028	0,023
-126,512	-10,127	0,031	0,015
-125,497	800,000	-0,039	0,116
-124,483	-141,912	-0,050	0,004
-123,468	-200,000	0,003	0,057
-122,453	-57,805	0,063	-0,020
-121,439	-200,000	-0,026	-0,151
-120,424	161,657	-0,055	0,056
-119,410	-52,962	0,109	-0,036
