DTS Sentinel unit serial number:	SN410029Multiplexer serial number:	ORYXHardware model number:	OX2-SRSoftware version number:	ORYX F/W v4,00 Oryx Data Collector v3.7.2.0data status	okinstallation	B6 Nyhavnadifferential loss correction	single-endedforward channel	channel 2reverse channel	N/Adate	2023/12/10time	14:20:08forward acquisition time	300,00reverse acquisition time	0,00gamma	499,1914k internal	0,3122k external	0,3122temperature offset calibration	1,0000default loss term (dB/km)	0,3820temperature slope calibration	1,0000multiplexer offset coefficient	1,0000multiplexer slope coefficient	1,0000fibre end	0,00T internal ref (°C)	22,63T ext. ref 1 (°C)	6,13T ext. ref 2 (°C)	6,15length (m)	temperature (°C)	Stokes	anti-Stokes-744,400	-200,000	0,016	-0,118
-743,385	168,737	-0,210	0,224
-742,371	800,000	-0,032	-0,088
-741,356	371,693	-0,149	0,226
-740,342	108,422	0,080	-0,071
-739,327	77,120	-0,172	0,136
-738,312	8,363	-0,058	0,032
-737,298	30,572	-0,189	0,120
-736,283	-200,000	-0,018	0,060
-735,269	70,704	-0,228	0,175
-734,254	95,092	0,201	-0,170
-733,239	-76,865	-0,292	-0,076
-732,225	-60,374	0,084	-0,026
-731,210	-200,000	0,027	0,103
-730,196	-5,311	-0,041	0,021
-729,181	241,863	-0,033	-0,041
-728,167	800,000	0,020	-0,065
-727,152	800,000	0,020	0,056
-726,137	436,651	-0,036	-0,058
-725,123	-53,482	-0,032	0,011
-724,108	-26,718	-0,131	0,057
-723,094	-172,080	-0,186	-0,004
-722,079	41,075	-0,069	-0,046
-721,064	-200,000	-0,018	-0,068
-720,050	-148,116	-0,027	-0,002
-719,035	-200,000	0,010	0,056
-718,021	-142,361	-0,089	0,006
-717,006	149,070	-0,033	-0,033
-715,991	-29,947	-0,105	-0,044
-714,977	241,591	-0,043	0,053
-713,962	-200,000	-0,012	0,057
-712,948	577,739	-0,027	0,049
-711,933	800,000	-0,014	0,042
-710,918	-200,000	-0,002	0,038
-709,904	97,747	-0,113	-0,097
-708,889	82,688	-0,106	-0,086
-707,875	110,559	-0,127	-0,114
-706,860	-200,000	-0,005	-0,167
-705,845	-200,000	-0,011	0,050
-704,831	-200,000	0,024	0,093
-703,816	-200,000	0,009	0,157
-702,802	-90,450	-0,050	0,011
-701,787	-57,608	-0,177	0,057
-700,772	74,975	0,063	-0,050
-699,758	-200,000	-0,005	0,050
-698,743	101,634	0,063	0,055
-697,729	-14,437	-0,045	-0,022
-696,714	-180,271	-0,089	-0,001
-695,699	432,663	-0,088	0,142
-694,685	766,418	-0,017	0,035
-693,670	-69,946	-0,199	0,056
-692,656	-58,006	0,171	-0,055
-691,641	189,663	0,040	-0,045
-690,627	-98,642	0,034	-0,006
-689,612	-200,000	-0,016	0,131
-688,597	82,356	-0,069	-0,056
-687,583	49,544	-0,089	-0,062
-686,568	107,347	-0,077	-0,068
-685,554	389,029	-0,038	0,058
-684,539	-63,866	0,082	-0,025
-683,524	150,876	-0,042	-0,043
-682,510	-200,000	-0,004	-0,077
-681,495	-84,419	0,089	0,021
-680,481	-73,396	-0,101	0,027
-679,466	122,063	-0,069	-0,064
-678,451	25,762	-0,109	0,067
-677,437	-135,605	-0,046	0,004
-676,422	800,000	-0,026	-0,056
-675,408	660,865	-0,023	0,045
-674,393	800,000	0,033	0,074
-673,378	-163,438	-0,128	-0,004
-672,364	-136,136	0,116	-0,010
-671,349	-172,562	0,109	-0,003
-670,335	-200,000	-0,007	-0,133
-669,320	215,133	0,056	0,066
-668,305	16,178	-0,091	-0,053
-667,291	800,000	0,005	-0,013
-666,276	70,735	-0,081	-0,062
-665,262	763,077	-0,028	-0,057
-664,247	-124,751	-0,159	0,018
-663,232	-200,000	0,038	-0,152
-662,218	146,774	0,088	-0,088
-661,203	800,000	-0,013	0,041
-660,189	-200,000	-0,018	0,062
-659,174	-200,000	-0,005	-0,100
-658,159	800,000	-0,060	0,132
-657,145	638,967	-0,036	0,069
-656,130	33,398	-0,026	-0,017
-655,116	772,554	0,042	0,086
-654,101	-149,118	0,157	0,009
-653,086	9,050	-0,093	-0,052
-652,072	-161,696	-0,042	0,002
-651,057	-110,559	-0,060	0,009
-650,043	-119,247	0,049	-0,006
-649,028	-200,000	-0,011	-0,078
-648,014	401,573	0,061	-0,095
-646,999	-55,761	-0,085	-0,028
-645,984	196,814	0,089	-0,100
-644,970	228,341	-0,077	-0,094
-643,955	-200,000	-0,014	-0,109
-642,941	274,190	-0,056	0,074
-641,926	352,378	0,124	-0,184
-640,911	709,278	-0,041	0,081
-639,897	-109,017	0,049	0,008
-638,882	21,578	-0,100	-0,060
-637,868	335,994	0,025	-0,036
-636,853	185,105	-0,093	0,103
-635,838	-135,051	-0,077	-0,007
-634,824	800,000	-0,039	-0,109
-633,809	274,402	-0,034	0,045
-632,795	-106,304	-0,102	0,017
-631,780	-75,200	0,042	-0,011
-630,765	-200,000	0,012	0,097
-629,751	-139,537	-0,122	0,010
-628,736	-200,000	0,006	-0,054
-627,722	783,658	0,014	0,028
-626,707	800,000	-0,050	-0,126
-625,692	-93,967	0,021	-0,004
-624,678	156,532	-0,039	0,040
-623,663	1,025	-0,111	-0,059
-622,649	-64,320	0,086	0,026
-621,634	173,180	-0,060	-0,065
-620,619	-200,000	0,010	-0,084
-619,605	-31,804	0,065	-0,027
-618,590	-39,894	0,116	0,045
-617,576	-200,000	0,026	0,138
-616,561	-200,000	0,007	0,060
-615,546	-107,011	0,076	-0,012
-614,532	-80,400	0,003	0,001
-613,517	-200,000	-0,012	0,134
-612,503	302,991	0,031	0,042
-611,488	-200,000	-0,003	0,051
-610,474	178,532	-0,092	0,100
-609,459	-200,000	0,025	0,159
-608,444	-25,710	0,002	0,001
-607,430	367,940	-0,026	0,038
-606,415	50,036	-0,100	-0,070
-605,401	-98,115	0,004	0,001
-604,386	463,420	-0,089	-0,147
-603,371	-200,000	-0,003	-0,032
-602,357	-200,000	-0,001	0,083
-601,342	-78,755	0,159	-0,040
-600,328	-120,771	-0,107	-0,013
-599,313	320,315	-0,030	-0,042
-598,298	-200,000	-0,030	0,133
-597,284	-200,000	-0,021	0,095
-596,269	-107,005	-0,163	0,026
-595,255	131,901	0,077	0,073
-594,240	208,486	0,044	0,051
-593,225	-48,265	-0,035	-0,012
-592,211	189,453	-0,027	-0,030
-591,196	-200,000	0,002	0,016
-590,182	-200,000	0,011	0,192
-589,167	-195,284	0,052	-0,000
-588,152	-200,000	0,021	-0,131
-587,138	-68,225	0,050	0,014
-586,123	-32,667	-0,087	-0,036
-585,109	153,222	-0,092	-0,093
-584,094	-59,989	-0,057	-0,018
-583,079	-76,828	-0,057	0,015
-582,065	-200,000	0,013	-0,067
-581,050	118,483	-0,008	-0,008
-580,036	-148,066	0,047	-0,003
-579,021	95,970	-0,124	-0,105
-578,006	800,000	-0,041	-0,086
-576,992	35,793	0,114	0,074
-575,977	-114,785	-0,079	0,011
-574,963	276,822	-0,042	0,056
-573,948	166,646	0,126	-0,133
-572,934	16,974	0,040	0,024
-571,919	-102,866	-0,096	-0,017
-570,904	-200,000	0,003	0,088
-569,890	-66,091	-0,134	0,039
-568,875	-61,512	0,050	0,015
-567,861	-200,000	-0,014	-0,047
-566,846	44,160	0,070	-0,047
-565,831	-81,838	-0,148	0,036
-564,817	-200,000	-0,021	0,111
-563,802	5,885	-0,190	0,104
-562,788	-185,260	-0,062	0,001
-561,773	-185,031	0,140	0,002
-560,758	5,510	-0,067	0,036
-559,744	800,000	0,063	0,164
-558,729	-50,232	-0,140	-0,049
-557,715	142,672	0,028	-0,028
-556,700	34,993	-0,121	0,078
-555,685	-22,987	-0,052	0,023
-554,671	408,148	0,058	0,091
-553,656	-39,121	0,196	0,076
-552,642	800,000	0,065	0,137
-551,627	-200,000	0,015	-0,123
-550,612	-25,700	0,062	-0,027
-549,598	76,084	-0,098	-0,077
-548,583	114,546	0,083	-0,074
-547,569	178,143	-0,054	-0,059
-546,554	-95,175	-0,048	-0,010
-545,539	-61,703	0,093	0,029
-544,525	83,218	-0,016	0,013
-543,510	172,559	0,071	0,076
-542,496	-200,000	0,001	-0,028
-541,481	-200,000	0,018	-0,079
-540,466	-26,997	0,030	-0,013
-539,452	-200,000	0,027	0,144
-538,437	704,277	0,071	0,139
-537,423	-139,839	0,029	0,002
-536,408	-70,730	-0,166	0,046
-535,393	-34,008	-0,160	0,065
-534,379	-84,085	-0,042	0,010
-533,364	-200,000	-0,003	0,070
-532,350	64,383	-0,036	-0,027
-531,335	-16,349	-0,063	-0,029
-530,321	-173,162	0,104	0,002
-529,306	-200,000	0,006	0,079
-528,291	208,112	-0,042	-0,048
-527,277	800,000	0,026	-0,082
-526,262	-74,519	0,012	-0,003
-525,248	66,060	0,090	-0,067
-524,233	-27,471	0,035	-0,015
-523,218	472,832	-0,076	0,128
-522,204	-200,000	-0,001	0,054
-521,189	113,354	-0,024	0,021
-520,175	-200,000	-0,028	-0,135
-519,160	-96,602	0,053	-0,010
-518,145	622,510	0,008	-0,016
-517,131	460,276	0,006	-0,010
-516,116	86,917	0,073	-0,060
-515,102	271,913	-0,051	0,066
-514,087	-174,105	-0,191	0,004
-513,072	-105,133	0,105	-0,018
-512,058	-200,000	0,012	-0,090
-511,043	-200,000	0,032	0,129
-510,029	-200,000	-0,015	0,067
-509,014	-84,188	0,057	-0,013
-507,999	-24,285	0,074	-0,032
-506,985	-200,000	0,046	-0,211
-505,970	175,060	-0,075	0,080
-504,956	-119,376	0,026	-0,003
-503,941	-36,207	-0,054	-0,021
-502,926	-200,000	-0,004	-0,028
-501,912	-200,000	0,005	-0,019
-500,897	-88,902	-0,063	-0,014
-499,883	292,096	0,057	0,076
-498,868	212,485	-0,048	-0,056
-497,853	-110,417	0,116	0,018
-496,839	-200,000	-0,036	0,138
-495,824	-26,053	0,101	0,044
-494,810	30,482	0,049	0,031
-493,795	-200,000	-0,015	-0,061
-492,781	377,421	0,088	-0,134
-491,766	106,311	-0,111	-0,097
-490,751	800,000	-0,058	-0,188
-489,737	-200,000	0,003	0,044
-488,722	-26,768	-0,032	0,014
-487,708	367,504	0,080	0,120
-486,693	800,000	0,041	0,118
-485,678	14,099	-0,029	0,016
-484,664	-200,000	-0,007	-0,092
-483,649	800,000	-0,045	0,096
-482,635	343,336	-0,046	0,066
-481,620	265,288	0,049	0,063
-480,605	160,823	0,049	0,050
-479,591	-200,000	-0,005	0,123
-478,576	150,359	0,055	0,055
-477,562	-111,384	0,047	-0,007
-476,547	285,971	0,086	-0,115
-475,532	-200,000	0,011	-0,136
-474,518	-200,000	-0,006	-0,060
-473,503	-200,000	-0,001	0,111
-472,489	147,148	0,067	-0,067
-471,474	-200,000	0,020	-0,128
-470,459	-33,095	-0,070	-0,029
-469,445	-200,000	-0,004	0,063
-468,430	-79,230	0,067	-0,017
-467,416	135,195	0,080	-0,077
-466,401	-200,000	0,030	-0,117
-465,386	-173,181	-0,062	-0,001
-464,372	800,000	0,008	-0,025
-463,357	25,287	-0,062	-0,038
-462,343	-200,000	0,027	-0,101
-461,328	-200,000	0,006	-0,083
-460,313	180,401	0,006	0,006
-459,299	107,389	0,212	0,186
-458,284	800,000	0,026	0,059
-457,270	-157,152	0,041	-0,002
-456,255	258,507	0,023	0,029
-455,241	149,644	0,081	-0,081
-454,226	-200,000	0,000	0,082
-453,211	800,000	0,019	-0,061
-452,197	-43,210	0,157	-0,058
-451,182	-56,776	-0,166	0,054
-450,168	-49,437	0,100	0,035
-449,153	114,469	-0,054	-0,049
-448,138	-127,164	-0,044	0,005
-447,124	66,261	0,070	0,053
-446,109	-57,574	0,027	0,009
-445,095	84,535	0,106	-0,086
-444,080	-200,000	0,001	0,042
-443,065	-200,000	0,010	0,092
-442,051	102,732	0,046	-0,040
-441,036	-1,375	-0,041	-0,021
-440,022	100,936	-0,166	-0,142
-439,007	-130,070	0,032	-0,003
-437,992	114,467	0,062	0,055
-436,978	-200,000	-0,017	0,067
-435,963	-200,000	0,010	-0,056
-434,949	800,000	-0,024	-0,068
-433,934	598,794	-0,031	-0,057
-432,919	800,000	0,041	-0,126
-431,905	117,414	0,093	0,084
-430,890	800,000	-0,045	-0,099
-429,876	269,138	0,075	0,098
-428,861	-133,661	0,165	-0,015
-427,846	181,402	-0,061	-0,066
-426,832	175,122	-0,098	-0,105
-425,817	800,000	0,044	-0,104
-424,803	-13,919	-0,034	0,016
-423,788	93,079	0,060	-0,050
-422,773	-200,000	-0,008	0,156
-421,759	800,000	-0,023	0,049
-420,744	-180,963	0,040	0,001
-419,730	15,305	0,021	0,012
-418,715	523,681	0,006	-0,011
-417,701	85,107	-0,111	0,090
-416,686	-130,206	0,160	-0,016
-415,671	607,301	-0,049	0,091
-414,657	-148,107	0,120	-0,007
-413,642	-123,949	-0,088	0,010
-412,628	-200,000	0,026	-0,135
-411,613	141,003	0,036	0,035
-410,598	111,880	0,066	-0,059
-409,584	-57,391	-0,106	0,034
-408,569	12,300	-0,011	-0,006
-407,555	254,260	0,031	-0,040
-406,540	-200,000	0,002	-0,012
-405,525	-31,361	0,090	0,037
-404,511	406,825	0,114	-0,178
-403,496	800,000	0,034	-0,100
-402,482	542,671	0,081	0,142
-401,467	140,074	0,113	0,109
-400,452	78,658	-0,146	0,114
-399,438	3,103	0,119	-0,063
-398,423	800,000	-0,030	0,093
-397,409	134,210	-0,118	0,113
-396,394	204,320	-0,009	-0,010
-395,379	-33,061	0,063	0,026
-394,365	170,475	0,035	0,037
-393,350	-200,000	0,016	0,123
-392,336	-82,521	0,015	-0,004
-391,321	-200,000	-0,017	-0,065
-390,306	17,402	-0,033	0,019
-389,292	-200,000	-0,014	0,097
-388,277	167,591	-0,123	-0,129
-387,263	196,838	0,106	0,119
-386,248	-200,000	0,001	0,064
-385,233	539,131	0,085	0,150
-384,219	-200,000	0,003	-0,040
-383,204	-38,851	-0,114	0,044
-382,190	-200,000	-0,015	0,052
-381,175	-200,000	-0,011	0,102
-380,160	94,222	0,100	0,083
-379,146	800,000	0,053	0,134
-378,131	346,198	0,037	0,054
-377,117	-200,000	0,013	0,080
-376,102	-66,235	-0,057	0,017
-375,088	44,737	-0,108	-0,073
-374,073	-105,232	-0,045	0,007
-373,058	-200,000	-0,004	-0,135
-372,044	34,313	-0,073	-0,047
-371,029	800,000	-0,016	0,038
-370,015	240,112	-0,073	0,090
-369,000	-200,000	0,012	-0,082
-367,985	236,127	-0,029	-0,035
-366,971	184,963	-0,027	0,030
-365,956	-73,388	-0,020	0,005
-364,942	-105,286	0,063	0,010
-363,927	-43,306	0,023	-0,008
-362,912	-200,000	0,049	0,238
-361,898	67,705	0,057	-0,042
-360,883	221,688	0,045	-0,054
-359,869	-200,000	-0,032	-0,129
-358,854	163,143	0,057	0,059
-357,839	102,979	-0,043	0,037
-356,825	589,806	0,039	0,072
-355,810	-200,000	0,002	-0,010
-354,796	800,000	-0,040	-0,111
-353,781	-200,000	0,009	-0,108
-352,766	99,649	0,115	-0,098
-351,752	276,837	-0,057	-0,074
-350,737	-200,000	0,015	0,060
-349,723	-200,000	-0,015	0,096
-348,708	198,671	-0,045	-0,051
-347,693	800,000	-0,033	-0,076
-346,679	51,216	-0,121	-0,084
-345,664	-200,000	-0,015	-0,054
-344,650	114,055	-0,113	-0,101
-343,635	53,747	-0,068	0,048
-342,620	32,518	0,068	0,043
-341,606	-154,912	-0,115	-0,005
-340,591	424,664	0,064	0,101
-339,577	-159,919	-0,166	-0,007
-338,562	158,763	0,034	0,034
-337,548	800,000	-0,009	-0,019
-336,533	402,048	-0,049	0,076
-335,518	181,727	-0,010	-0,011
-334,504	58,360	-0,122	0,088
-333,489	-200,000	0,006	-0,083
-332,475	23,384	0,066	0,040
-331,460	-77,745	-0,069	0,017
-330,445	-196,499	0,129	0,001
-329,431	106,847	-0,079	0,069
-328,416	242,662	0,055	0,068
-327,402	-200,000	-0,005	-0,020
-326,387	-200,000	0,007	-0,108
-325,372	-200,000	0,017	-0,140
-324,358	800,000	0,062	-0,143
-323,343	479,230	-0,033	-0,056
-322,329	-200,000	0,063	-0,219
-321,314	-172,628	0,046	-0,001
-320,299	163,726	-0,015	-0,016
-319,285	149,786	-0,092	-0,091
-318,270	800,000	-0,012	-0,040
-317,256	800,000	-0,012	0,032
-316,241	224,561	0,019	0,023
-315,226	515,250	0,078	0,135
-314,212	781,807	-0,052	-0,105
-313,197	-37,245	-0,092	0,036
-312,183	-200,000	-0,001	0,088
-311,168	-200,000	-0,023	0,129
-310,153	-70,843	-0,097	0,027
-309,139	-65,347	-0,059	0,017
-308,124	-84,096	0,102	0,024
-307,110	7,497	0,010	0,006
-306,095	-200,000	-0,011	-0,109
-305,080	637,273	0,055	0,103
-304,066	278,753	0,121	-0,158
-303,051	800,000	-0,042	-0,107
-302,037	-91,162	-0,077	-0,016
-301,022	-53,968	0,049	-0,016
-300,008	-73,091	0,113	0,030
-298,993	49,091	0,054	-0,037
-297,978	143,962	0,054	-0,053
-296,964	46,146	-0,042	-0,028
-295,949	-200,000	-0,000	-0,141
-294,935	-200,000	-0,011	-0,048
-293,920	800,000	0,087	-0,194
-292,905	-200,000	-0,033	-0,141
-291,891	589,046	-0,085	0,154
-290,876	-195,414	0,049	0,000
-289,862	277,402	0,089	-0,116
-288,847	151,872	-0,075	-0,075
-287,832	92,758	-0,125	-0,103
-286,818	800,000	0,063	-0,157
-285,803	324,687	0,046	0,064
-284,789	212,262	0,050	0,058
-283,774	-200,000	-0,014	0,048
-282,759	14,743	-0,077	-0,044
-281,745	-200,000	0,036	-0,141
-280,730	121,429	-0,093	-0,085
-279,716	222,488	-0,063	0,074
-278,701	-159,484	0,063	0,003
-277,686	344,976	0,035	0,050
-276,672	-128,573	-0,092	0,009
-275,657	800,000	0,044	-0,111
-274,643	154,082	0,038	-0,038
-273,628	219,959	-0,043	-0,051
-272,613	800,000	-0,027	-0,068
-271,599	797,748	0,052	-0,105
-270,584	201,366	0,032	-0,036
-269,570	110,971	0,070	0,061
-268,555	-200,000	-0,014	0,161
-267,540	-200,000	0,010	-0,059
-266,526	-200,000	-0,008	0,030
-265,511	-15,056	-0,093	-0,044
-264,497	-125,377	0,097	0,011
-263,482	33,721	0,049	0,031
-262,467	-77,608	-0,062	0,015
-261,453	-102,205	0,079	0,014
-260,438	800,000	0,026	0,061
-259,424	274,835	0,043	0,055
-258,409	457,743	-0,042	0,069
-257,395	-59,451	0,049	0,015
-256,380	13,678	-0,063	-0,036
-255,365	148,951	-0,083	0,083
-254,351	472,484	-0,046	-0,076
-253,336	-200,000	-0,024	0,137
-252,322	800,000	-0,015	0,047
-251,307	800,000	-0,074	0,158
-250,292	520,014	0,046	0,080
-249,278	115,474	-0,111	0,099
-248,263	800,000	-0,028	0,071
-247,249	20,396	0,068	-0,040
-246,234	-200,000	-0,053	-0,192
-245,219	375,516	-0,063	0,094
-244,205	433,917	0,062	-0,099
-243,190	88,414	0,059	0,048
-242,176	-156,795	0,160	-0,007
-241,161	-63,324	-0,105	0,031
-240,146	-200,000	0,024	0,105
-239,132	20,646	0,084	-0,049
-238,117	592,991	0,062	-0,113
-237,103	-200,000	-0,033	0,142
-236,088	412,886	0,023	-0,036
-235,073	-105,005	0,062	0,010
-234,059	-146,866	-0,107	-0,007
-233,044	267,265	-0,084	-0,108
-232,030	800,000	0,004	0,011
-231,015	800,000	0,040	-0,093
-230,000	-58,417	-0,061	0,019
-228,986	21,895	-0,009	-0,005
-227,971	182,131	0,029	-0,031
-226,957	800,000	-0,061	-0,176
-225,942	-200,000	-0,012	-0,120
-224,927	674,449	-0,040	-0,075
-223,913	800,000	0,006	-0,017
-222,898	-35,908	0,083	0,032
-221,884	-200,000	0,011	0,045
-220,869	800,000	0,007	0,018
-219,855	-200,000	-0,049	0,170
-218,840	537,480	-0,041	-0,072
-217,825	-200,000	0,056	0,219
-216,811	-144,634	0,092	0,006
-215,796	-58,326	-0,052	-0,016
-214,782	-200,000	0,033	-0,144
-213,767	800,000	0,029	-0,082
-212,752	-200,000	0,020	-0,107
-211,738	800,000	-0,046	0,144
-210,723	42,789	0,086	-0,057
-209,709	-171,186	-0,060	0,001
-208,694	-128,261	-0,087	0,009
-207,679	163,233	-0,022	-0,023
-206,665	316,434	0,014	0,020
-205,650	-200,000	-0,008	-0,043
-204,636	240,446	-0,075	0,092
-203,621	-200,000	0,019	0,076
-202,606	-200,000	0,015	0,067
-201,592	240,818	-0,022	0,026
-200,577	-160,861	-0,219	0,008
-199,563	568,212	0,077	0,137
-198,548	241,174	-0,035	-0,043
-197,533	-114,922	0,057	0,008
-196,519	-124,956	0,085	0,009
-195,504	800,000	-0,027	0,083
-194,490	223,031	-0,074	-0,088
-193,475	-104,507	0,102	-0,017
-192,460	-30,559	-0,014	0,006
-191,446	-200,000	0,001	0,077
-190,431	-57,220	0,161	0,051
-189,417	287,826	-0,055	-0,073
-188,402	-200,000	0,006	-0,077
-187,387	-200,000	0,007	0,037
-186,373	116,780	-0,015	-0,013
-185,358	-200,000	-0,001	0,049
-184,344	-116,986	0,085	-0,011
-183,329	-200,000	-0,006	-0,137
-182,315	-200,000	0,009	0,086
-181,300	800,000	-0,058	0,123
-180,285	20,091	0,070	-0,041
-179,271	-200,000	-0,002	-0,013
-178,256	10,664	0,038	-0,021
-177,242	800,000	0,037	-0,114
-176,227	508,820	0,080	0,137
-175,212	307,470	0,074	0,101
-174,198	-19,575	-0,063	0,028
-173,183	80,241	0,112	-0,088
-172,169	99,241	-0,099	0,083
-171,154	389,043	-0,075	0,113
-170,139	-200,000	-0,015	0,063
-169,125	800,000	0,020	0,062
-168,110	74,871	-0,102	0,078
-167,096	48,261	-0,074	-0,050
-166,081	702,157	-0,049	0,095
-165,066	151,670	-0,097	-0,097
-164,052	579,994	0,044	-0,079
-163,037	101,940	0,081	-0,069
-162,023	-147,549	0,097	-0,006
-161,008	-109,272	0,060	-0,009
-159,993	717,237	0,055	-0,107
-158,979	800,000	0,025	-0,073
-157,964	-14,023	-0,114	-0,053
-156,950	-200,000	0,006	-0,071
-155,935	88,438	-0,066	0,053
-154,920	271,435	0,037	0,048
-153,906	-200,000	-0,021	0,084
-152,891	-200,000	0,025	0,193
-151,877	-200,000	0,005	0,036
-150,862	254,558	-0,063	-0,079
-149,847	-147,783	-0,076	-0,005
-148,833	55,861	0,081	0,057
-147,818	30,995	-0,078	0,048
-146,804	-110,538	-0,036	-0,005
-145,789	424,599	-0,079	0,124
-144,775	-200,000	-0,010	-0,141
-143,760	-62,221	0,085	0,026
-142,745	-74,803	-0,192	-0,050
-141,731	800,000	0,047	0,119
-140,716	200,514	-0,020	-0,023
-139,702	-200,000	-0,001	0,064
-138,687	105,044	-0,079	0,068
-137,672	194,844	-0,080	0,089
-136,658	167,403	-0,105	0,109
-135,643	-200,000	0,002	-0,011
-134,629	28,144	0,077	-0,047
-133,614	800,000	0,029	-0,083
-132,599	533,115	0,041	0,072
-131,585	106,295	0,065	0,056
-130,570	-200,000	0,024	-0,196
-129,556	573,082	-0,032	-0,056
-128,541	-55,290	-0,118	-0,038
-127,526	233,839	-0,071	-0,086
-126,512	41,820	0,118	-0,078
-125,497	94,423	0,056	-0,046
-124,483	-81,500	-0,086	-0,020
-123,468	-200,000	0,017	-0,087
-122,453	537,119	0,049	-0,086
-121,439	10,553	-0,086	0,048
-120,424	58,688	-0,174	-0,124
