DTS Sentinel unit serial number:	SN410029Multiplexer serial number:	ORYXHardware model number:	OX2-SRSoftware version number:	ORYX F/W v4,00 Oryx Data Collector v3.7.2.0data status	okinstallation	B6 Nyhavnadifferential loss correction	single-endedforward channel	channel 2reverse channel	N/Adate	2023/12/10time	18:50:08forward acquisition time	300,00reverse acquisition time	0,00gamma	499,1914k internal	0,3123k external	0,3123temperature offset calibration	1,0000default loss term (dB/km)	0,3820temperature slope calibration	1,0000multiplexer offset coefficient	1,0000multiplexer slope coefficient	1,0000fibre end	0,00T internal ref (°C)	22,35T ext. ref 1 (°C)	6,02T ext. ref 2 (°C)	6,02length (m)	temperature (°C)	Stokes	anti-Stokes-744,400	123,124	0,028	-0,026
-743,385	-140,443	-0,139	-0,011
-742,371	-124,518	-0,114	-0,013
-741,356	130,812	-0,188	0,180
-740,342	-49,929	0,095	0,033
-739,327	-18,189	-0,220	0,102
-738,312	-200,000	0,058	-0,196
-737,298	-115,509	-0,426	-0,059
-736,283	628,903	-0,049	-0,092
-735,269	33,760	-0,269	0,174
-734,254	800,000	0,026	0,069
-733,239	-41,657	-0,381	-0,145
-732,225	-17,037	0,147	-0,069
-731,210	800,000	0,015	0,042
-730,196	576,691	-0,021	0,038
-729,181	760,228	-0,035	-0,070
-728,167	-19,158	-0,013	0,006
-727,152	-49,294	-0,113	-0,040
-726,137	-145,387	-0,043	0,003
-725,123	143,319	-0,039	-0,039
-724,108	-89,854	0,028	-0,006
-723,094	145,235	0,148	-0,148
-722,079	296,894	-0,003	-0,004
-721,064	-200,000	0,035	0,154
-720,050	186,316	0,022	-0,024
-719,035	-200,000	0,045	-0,149
-718,021	-17,638	0,007	0,003
-717,006	-92,685	-0,062	-0,013
-715,991	-37,669	-0,160	-0,063
-714,977	204,916	-0,052	-0,060
-713,962	35,050	-0,105	0,068
-712,948	-200,000	-0,003	0,018
-711,933	4,693	-0,129	-0,070
-710,918	285,043	0,080	-0,108
-709,904	-158,178	-0,150	0,006
-708,889	74,572	-0,141	-0,110
-707,875	468,953	-0,003	-0,004
-706,860	65,114	-0,081	-0,061
-705,845	-130,646	-0,128	0,013
-704,831	-200,000	-0,009	0,155
-703,816	-182,777	-0,201	-0,003
-702,802	205,162	-0,036	-0,042
-701,787	-51,294	-0,114	0,040
-700,772	800,000	0,009	-0,022
-699,758	188,745	-0,017	0,019
-698,743	800,000	0,012	-0,029
-697,729	800,000	-0,046	0,140
-696,714	76,630	-0,087	0,068
-695,699	420,874	-0,109	-0,175
-694,685	-200,000	-0,003	0,100
-693,670	-33,756	-0,078	-0,032
-692,656	800,000	0,024	0,074
-691,641	178,282	0,130	0,142
-690,627	-0,086	0,073	0,039
-689,612	442,321	-0,040	0,066
-688,597	-200,000	-0,022	0,107
-687,583	-40,272	-0,140	0,054
-686,568	-163,239	0,074	-0,003
-685,554	-200,000	-0,030	0,113
-684,539	96,250	-0,099	-0,084
-683,524	800,000	0,026	-0,077
-682,510	114,425	-0,079	-0,071
-681,495	-200,000	-0,010	0,074
-680,481	625,571	-0,049	-0,092
-679,466	-200,000	-0,010	-0,129
-678,451	9,559	-0,077	0,043
-677,437	119,661	-0,026	-0,024
-676,422	800,000	-0,031	0,093
-675,408	110,612	-0,091	0,081
-674,393	-63,252	0,113	-0,034
-673,378	-200,000	-0,007	-0,063
-672,364	75,371	-0,054	-0,042
-671,349	38,571	-0,212	-0,140
-670,335	-200,000	0,008	0,034
-669,320	21,983	0,092	-0,056
-668,305	341,201	-0,037	0,054
-667,291	-57,283	0,085	0,027
-666,276	-200,000	0,003	0,119
-665,262	-200,000	-0,003	-0,012
-664,247	288,856	-0,069	0,093
-663,232	-58,317	0,083	0,027
-662,218	-35,325	0,089	0,036
-661,203	51,105	-0,030	-0,021
-660,189	331,895	-0,037	-0,053
-659,174	800,000	0,011	0,036
-658,159	-200,000	0,010	-0,115
-657,145	-200,000	-0,000	-0,071
-656,130	-52,764	0,080	-0,027
-655,116	-200,000	0,001	0,020
-654,101	800,000	0,016	-0,041
-653,086	163,932	-0,120	-0,125
-652,072	-200,000	0,016	0,101
-651,057	-162,673	-0,114	0,004
-650,043	-111,636	-0,067	0,010
-649,028	-50,758	0,140	0,049
-648,014	48,064	0,011	-0,007
-646,999	79,571	-0,084	0,067
-645,984	-102,965	-0,065	-0,011
-644,970	-200,000	-0,011	0,079
-643,955	-200,000	0,005	-0,090
-642,941	582,699	-0,025	-0,046
-641,926	-64,885	0,102	-0,030
-640,911	-200,000	0,004	0,017
-639,897	290,816	-0,016	0,022
-638,882	-49,359	-0,041	-0,015
-637,868	-200,000	0,019	-0,110
-636,853	192,356	-0,083	-0,093
-635,838	-16,621	-0,171	0,080
-634,824	255,809	0,027	-0,035
-633,809	-200,000	0,014	-0,051
-632,795	-112,596	-0,113	-0,017
-631,780	-96,944	0,091	-0,017
-630,765	-118,152	-0,073	-0,010
-629,751	-200,000	-0,012	-0,069
-628,736	1,782	0,082	0,044
-627,722	105,093	-0,106	0,093
-626,707	-116,707	0,093	-0,013
-625,692	-52,623	0,089	-0,030
-624,678	800,000	0,028	-0,078
-623,663	-137,161	-0,186	-0,016
-622,649	216,391	0,039	-0,046
-621,634	800,000	-0,017	0,039
-620,619	-155,916	-0,176	-0,008
-619,605	92,927	0,035	-0,029
-618,590	-200,000	0,004	-0,053
-617,576	270,856	-0,034	-0,044
-616,561	182,209	-0,123	-0,135
-615,546	-35,126	-0,073	0,029
-614,532	-200,000	0,005	0,020
-613,517	-157,397	0,093	-0,004
-612,503	-3,065	-0,097	-0,050
-611,488	-46,775	0,089	-0,032
-610,474	249,894	-0,070	0,088
-609,459	-200,000	-0,034	0,240
-608,444	800,000	-0,039	-0,096
-607,430	800,000	0,051	-0,136
-606,415	131,991	0,046	-0,044
-605,401	196,407	-0,062	-0,070
-604,386	-53,089	-0,162	0,055
-603,371	-170,804	0,079	0,002
-602,357	-200,000	0,017	0,090
-601,342	788,873	-0,056	0,115
-600,328	447,404	-0,034	0,055
-599,313	31,302	-0,087	-0,055
-598,298	-200,000	-0,001	-0,034
-597,284	142,374	-0,011	0,010
-596,269	-200,000	0,006	0,129
-595,255	251,028	0,044	-0,056
-594,240	372,442	0,064	-0,096
-593,225	-30,120	-0,141	-0,059
-592,211	-66,252	-0,098	-0,029
-591,196	129,418	-0,089	0,084
-590,182	-73,052	0,105	-0,028
-589,167	248,062	-0,062	-0,078
-588,152	438,736	-0,050	0,081
-587,138	-200,000	-0,016	0,125
-586,123	86,439	-0,029	0,024
-585,109	69,813	-0,140	-0,107
-584,094	-200,000	-0,001	-0,005
-583,079	-166,797	0,050	-0,001
-582,065	-200,000	-0,008	0,114
-581,050	265,284	-0,021	0,028
-580,036	-200,000	0,018	-0,075
-579,021	-200,000	0,001	-0,014
-578,006	-96,851	-0,066	0,013
-576,992	102,697	-0,062	-0,054
-575,977	-200,000	0,025	0,133
-574,963	-55,625	-0,021	0,007
-573,948	-200,000	-0,029	-0,130
-572,934	800,000	-0,021	0,046
-571,919	302,841	0,059	-0,081
-570,904	105,775	-0,036	-0,032
-569,890	-200,000	-0,013	-0,236
-568,875	-48,492	0,083	-0,029
-567,861	136,147	0,076	-0,073
-566,846	800,000	0,015	0,036
-565,831	31,523	0,069	0,044
-564,817	498,005	-0,029	0,050
-563,802	87,527	0,032	-0,026
-562,788	-200,000	0,009	0,073
-561,773	-19,024	-0,105	-0,048
-560,758	800,000	-0,034	0,095
-559,744	97,261	0,047	-0,040
-558,729	-17,526	0,044	-0,020
-557,715	-146,387	-0,076	0,005
-556,700	419,784	0,041	-0,066
-555,685	73,600	-0,058	-0,045
-554,671	-32,415	0,073	-0,030
-553,656	200,948	0,086	0,099
-552,642	171,031	0,162	0,172
-551,627	110,653	-0,166	-0,147
-550,612	371,638	0,055	0,083
-549,598	361,266	0,050	-0,074
-548,583	800,000	-0,055	-0,132
-547,569	2,123	-0,037	-0,020
-546,554	277,655	0,073	0,097
-545,539	8,660	-0,020	0,011
-544,525	-87,917	0,030	-0,007
-543,510	56,435	0,056	-0,040
-542,496	-121,341	0,072	-0,009
-541,481	-117,340	-0,150	-0,020
-540,466	-144,544	-0,029	0,002
-539,452	297,098	0,068	0,093
-538,437	32,535	0,096	0,061
-537,423	36,096	0,048	0,031
-536,408	286,932	-0,110	0,147
-535,393	800,000	0,009	-0,027
-534,379	32,358	-0,105	-0,067
-533,364	-200,000	-0,002	-0,023
-532,350	800,000	-0,044	0,119
-531,335	724,976	0,034	0,068
-530,321	96,518	0,086	0,073
-529,306	420,486	-0,059	-0,093
-528,291	265,258	0,040	-0,052
-527,277	206,297	-0,028	-0,032
-526,262	-157,004	-0,078	0,003
-525,248	-123,987	0,082	0,009
-524,233	-35,585	0,020	0,008
-523,218	105,223	0,071	0,062
-522,204	-197,707	-0,046	-0,000
-521,189	-200,000	-0,012	-0,115
-520,175	-200,000	0,014	-0,071
-519,160	-7,508	-0,072	0,036
-518,145	355,597	-0,029	-0,043
-517,131	-23,378	-0,135	0,060
-516,116	111,643	0,036	0,032
-515,102	-200,000	0,023	-0,124
-514,087	800,000	-0,033	-0,095
-513,072	-200,000	0,015	-0,116
-512,058	-200,000	-0,000	-0,072
-511,043	-200,000	-0,034	-0,167
-510,029	-200,000	0,009	0,069
-509,014	-15,775	0,034	0,016
-507,999	-200,000	-0,003	0,076
-506,985	-200,000	0,005	0,031
-505,970	-200,000	-0,003	-0,128
-504,956	453,009	0,056	-0,091
-503,941	-35,108	0,138	0,055
-502,926	772,531	-0,049	-0,099
-501,912	1,431	0,078	-0,041
-500,897	-56,282	0,045	0,015
-499,883	-126,978	0,152	0,016
-498,868	-145,834	-0,126	-0,008
-497,853	163,270	-0,112	-0,116
-496,839	176,008	0,035	-0,038
-495,824	339,839	0,054	-0,078
-494,810	800,000	0,034	-0,107
-493,795	415,732	-0,002	-0,004
-492,781	-200,000	0,012	0,067
-491,766	-200,000	-0,035	-0,117
-490,751	-200,000	-0,001	-0,119
-489,737	-85,451	0,018	0,004
-488,722	-44,484	0,071	-0,026
-487,708	619,756	-0,078	0,146
-486,693	800,000	0,025	0,073
-485,678	124,695	-0,063	0,059
-484,664	-104,509	-0,181	-0,031
-483,649	-60,166	-0,114	0,036
-482,635	-45,470	-0,074	0,027
-481,620	162,755	-0,069	0,072
-480,605	-36,670	-0,056	0,022
-479,591	-63,615	-0,101	0,030
-478,576	9,440	0,073	0,041
-477,562	-200,000	-0,013	-0,074
-476,547	285,233	-0,041	0,055
-475,532	-0,793	-0,104	0,054
-474,518	-75,565	0,021	0,005
-473,503	-200,000	-0,008	0,155
-472,489	-200,000	0,005	0,105
-471,474	-99,017	-0,041	0,008
-470,459	-59,761	-0,125	0,039
-469,445	520,434	-0,053	-0,093
-468,430	-101,932	0,026	0,005
-467,416	-94,094	0,096	-0,019
-466,401	-104,626	0,167	-0,028
-465,386	120,573	0,013	0,012
-464,372	-107,284	-0,111	0,018
-463,357	800,000	-0,034	-0,096
-462,343	639,723	0,058	-0,110
-461,328	61,979	0,043	-0,032
-460,313	172,063	0,025	0,027
-459,299	51,154	0,085	-0,059
-458,284	200,004	0,171	0,194
-457,270	234,441	-0,023	0,028
-456,255	195,829	0,127	-0,142
-455,241	37,324	-0,100	0,065
-454,226	-200,000	-0,001	-0,069
-453,211	16,987	-0,049	-0,029
-452,197	499,213	0,044	0,075
-451,182	-142,311	0,085	0,006
-450,168	-79,914	-0,064	0,016
-449,153	800,000	0,010	-0,026
-448,138	800,000	-0,030	-0,066
-447,124	-200,000	0,005	0,044
-446,109	-41,914	0,092	-0,034
-445,095	-179,687	0,050	0,001
-444,080	-21,149	0,073	0,033
-443,065	279,919	0,035	0,046
-442,051	-200,000	0,014	0,060
-441,036	800,000	0,026	0,066
-440,022	-66,114	-0,116	-0,034
-439,007	-200,000	0,038	-0,155
-437,992	800,000	-0,019	-0,056
-436,978	-200,000	0,007	0,092
-435,963	452,844	-0,054	-0,088
-434,949	-200,000	-0,006	-0,142
-433,934	-200,000	0,104	0,000
-432,919	800,000	-0,023	0,048
-431,905	28,219	-0,136	-0,085
-430,890	441,510	0,092	-0,148
-429,876	-56,254	0,003	0,001
-428,861	85,929	0,131	0,106
-427,846	-22,414	0,047	0,021
-426,832	-174,152	0,015	-0,000
-425,817	293,304	-0,049	-0,066
-424,803	-111,507	0,008	0,001
-423,788	-46,297	0,043	-0,015
-422,773	-18,412	0,057	0,026
-421,759	249,503	-0,040	0,050
-420,744	-200,000	0,006	0,040
-419,730	461,296	0,010	-0,016
-418,715	-31,006	-0,072	0,030
-417,701	219,727	-0,068	-0,080
-416,686	800,000	-0,014	0,041
-415,671	129,379	-0,022	-0,021
-414,657	434,634	0,026	0,042
-413,642	-200,000	-0,008	0,061
-412,628	-40,533	0,021	-0,008
-411,613	-77,524	0,009	-0,002
-410,598	103,153	-0,138	0,119
-409,584	-75,593	0,137	0,036
-408,569	-53,726	0,126	-0,042
-407,555	-200,000	-0,016	0,063
-406,540	82,187	0,132	-0,105
-405,525	-82,211	0,091	0,022
-404,511	17,622	0,042	-0,024
-403,496	800,000	-0,039	-0,109
-402,482	505,651	-0,053	0,090
-401,467	14,831	0,145	-0,083
-400,452	-43,177	0,042	0,015
-399,438	-6,313	0,091	-0,045
-398,423	800,000	0,030	0,090
-397,409	-200,000	-0,009	0,140
-396,394	420,391	0,083	-0,132
-395,379	239,184	-0,075	0,092
-394,365	800,000	-0,006	0,013
-393,350	800,000	-0,027	0,057
-392,336	271,270	-0,034	-0,044
-391,321	176,185	-0,039	0,042
-390,306	-101,089	-0,048	0,009
-389,292	800,000	-0,046	-0,116
-388,277	-99,394	0,050	-0,009
-387,263	163,403	-0,057	0,059
-386,248	-200,000	0,023	0,119
-385,233	800,000	0,064	0,185
-384,219	-200,000	-0,043	0,140
-383,204	127,144	0,064	-0,060
-382,190	107,266	-0,023	-0,020
-381,175	-112,320	-0,123	-0,018
-380,160	173,744	0,036	0,039
-379,146	-200,000	-0,022	0,121
-378,131	162,853	0,041	-0,043
-377,117	-200,000	0,010	-0,039
-376,102	58,439	-0,119	0,086
-375,088	34,180	0,150	-0,096
-374,073	256,659	-0,078	-0,098
-373,058	171,294	0,031	0,033
-372,044	-114,540	0,104	-0,015
-371,029	20,072	-0,075	-0,044
-370,015	-200,000	-0,024	-0,137
-369,000	-200,000	0,001	-0,038
-367,985	-97,184	0,110	0,021
-366,971	800,000	0,024	-0,077
-365,956	38,984	0,080	0,052
-364,942	650,588	0,054	0,102
-363,927	-70,819	-0,059	-0,016
-362,912	-200,000	-0,001	0,059
-361,898	79,541	0,139	0,109
-360,883	-90,506	0,009	0,002
-359,869	-41,730	-0,168	-0,063
-358,854	800,000	0,025	0,060
-357,839	-160,401	0,028	0,001
-356,825	0,211	0,108	-0,056
-355,810	451,359	-0,016	0,026
-354,796	-200,000	-0,024	-0,140
-353,781	223,041	-0,058	-0,068
-352,766	-200,000	-0,007	-0,027
-351,752	-57,511	0,109	0,035
-350,737	-200,000	0,001	0,050
-349,723	-200,000	0,046	0,159
-348,708	177,247	-0,103	-0,111
-347,693	73,202	0,087	-0,067
-346,679	800,000	-0,014	-0,033
-345,664	402,041	-0,064	0,099
-344,650	-200,000	0,007	0,054
-343,635	-200,000	-0,011	-0,058
-342,620	213,074	0,046	-0,054
-341,606	800,000	0,045	0,103
-340,591	-200,000	0,024	0,101
-339,577	-200,000	-0,003	-0,070
-338,562	-200,000	-0,014	-0,063
-337,548	205,229	-0,041	-0,047
-336,533	-200,000	-0,000	-0,075
-335,518	-200,000	-0,003	-0,063
-334,504	525,887	0,045	0,079
-333,489	-132,506	0,026	-0,002
-332,475	-31,105	-0,066	0,027
-331,460	255,266	-0,112	-0,142
-330,445	66,552	0,093	-0,069
-329,431	-200,000	-0,034	0,284
-328,416	-200,000	-0,018	0,085
-327,402	103,120	-0,047	-0,040
-326,387	366,853	-0,037	-0,055
-325,372	97,150	-0,103	0,087
-324,358	-101,755	0,027	0,005
-323,343	5,526	0,033	-0,018
-322,329	82,224	-0,126	0,100
-321,314	800,000	-0,025	0,063
-320,299	31,840	-0,020	0,012
-319,285	279,401	0,026	0,034
-318,270	29,231	0,044	-0,027
-317,256	-200,000	0,014	-0,058
-316,241	165,136	0,035	-0,037
-315,226	132,920	0,113	-0,107
-314,212	-65,965	0,117	0,034
-313,197	140,120	0,093	0,090
-312,183	-69,079	0,135	0,038
-311,168	137,145	0,064	-0,061
-310,153	800,000	0,023	0,052
-309,139	616,156	0,067	-0,124
-308,124	400,998	-0,082	0,127
-307,110	355,361	0,070	0,102
-306,095	232,509	0,011	0,013
-305,080	-146,347	0,034	0,002
-304,066	230,274	-0,071	0,085
-303,051	-105,009	-0,100	0,017
-302,037	126,501	-0,067	0,062
-301,022	-187,962	0,103	-0,001
-300,008	800,000	0,035	-0,092
-298,993	-200,000	0,023	0,079
-297,978	-200,000	-0,015	-0,057
-296,964	-89,643	0,013	-0,003
-295,949	-200,000	0,003	0,030
-294,935	-200,000	0,002	-0,092
-293,920	-200,000	-0,017	-0,058
-292,905	-200,000	0,015	0,052
-291,891	-200,000	-0,019	-0,062
-290,876	800,000	0,025	0,064
-289,862	800,000	-0,006	-0,013
-288,847	-28,815	-0,181	-0,076
-287,832	-200,000	0,004	-0,029
-286,818	-170,434	-0,172	-0,004
-285,803	129,772	0,089	0,083
-284,789	443,351	-0,046	0,075
-283,774	800,000	0,065	0,199
-282,759	-200,000	-0,009	-0,059
-281,745	-173,807	0,083	-0,002
-280,730	-44,432	-0,086	-0,032
-279,716	-25,775	0,086	-0,037
-278,701	-102,420	0,053	-0,009
-277,686	800,000	-0,020	0,055
-276,672	-18,311	-0,065	0,030
-275,657	408,418	0,092	0,143
-274,643	85,500	-0,083	-0,067
-273,628	-90,064	0,072	-0,015
-272,613	800,000	-0,029	0,062
-271,599	-111,758	0,063	-0,009
-270,584	696,151	0,009	-0,017
-269,570	-38,053	0,130	0,050
-268,555	317,875	0,025	0,035
-267,540	-1,869	-0,076	-0,039
-266,526	54,470	0,063	-0,044
-265,511	304,359	-0,088	0,120
-264,497	179,470	0,132	-0,142
-263,482	-200,000	0,007	-0,098
-262,467	602,608	0,023	-0,042
-261,453	-35,826	-0,045	-0,018
-260,438	800,000	0,035	0,077
-259,424	-200,000	-0,012	0,062
-258,409	-0,232	0,073	0,038
-257,395	120,161	-0,086	0,078
-256,380	66,319	0,056	0,042
-255,365	-200,000	-0,021	0,093
-254,351	800,000	0,031	0,081
-253,336	-3,520	-0,102	-0,052
-252,322	-83,958	-0,014	0,003
-251,307	61,562	-0,109	-0,079
-250,292	-18,517	0,039	0,018
-249,278	800,000	0,046	0,096
-248,263	14,516	0,118	0,067
-247,249	192,580	0,068	0,075
-246,234	-200,000	-0,017	0,105
-245,219	-200,000	-0,003	0,086
-244,205	94,178	-0,066	0,054
-243,190	0,334	0,094	-0,049
-242,176	-200,000	0,042	-0,138
-241,161	800,000	-0,006	0,015
-240,146	571,581	-0,048	-0,086
-239,132	800,000	0,034	0,087
-238,117	54,800	-0,227	-0,160
-237,103	800,000	-0,026	-0,057
-236,088	-200,000	-0,002	-0,063
-235,073	-153,504	-0,036	-0,002
-234,059	800,000	0,040	-0,089
-233,044	0,243	-0,164	0,085
-232,030	165,927	0,020	-0,021
-231,015	385,989	0,102	-0,154
-230,000	96,372	0,115	-0,096
-228,986	57,089	-0,046	0,032
-227,971	99,327	0,084	-0,071
-226,957	-200,000	0,018	0,091
-225,942	66,553	-0,063	0,046
-224,927	291,948	0,051	-0,068
-223,913	-200,000	0,028	-0,104
-222,898	185,729	-0,086	-0,093
-221,884	-127,516	-0,094	-0,010
-220,869	-76,753	0,069	-0,018
-219,855	-200,000	-0,011	-0,079
-218,840	178,319	0,050	-0,053
-217,825	258,927	0,070	0,089
-216,811	-200,000	0,048	0,184
-215,796	-200,000	-0,058	0,186
-214,782	-18,371	0,137	0,062
-213,767	-200,000	-0,006	0,122
-212,752	739,690	-0,006	-0,011
-211,738	-101,329	0,067	0,012
-210,723	-200,000	0,045	0,156
-209,709	54,522	-0,077	0,054
-208,694	522,543	0,137	-0,235
-207,679	400,584	-0,033	-0,051
-206,665	24,797	-0,084	0,051
-205,650	-151,127	0,124	-0,007
-204,636	246,881	-0,092	-0,113
-203,621	492,260	-0,048	-0,080
-202,606	31,622	-0,060	0,038
-201,592	31,681	-0,052	-0,033
-200,577	-200,000	-0,007	-0,068
-199,563	-145,819	-0,071	-0,005
-198,548	-200,000	-0,011	0,174
-197,533	-163,218	0,119	-0,004
-196,519	704,542	0,046	0,089
-195,504	267,321	0,062	-0,080
-194,490	192,590	-0,136	-0,150
-193,475	-129,139	0,075	0,008
-192,460	-96,399	-0,134	0,026
-191,446	313,880	-0,006	0,009
-190,431	136,321	0,092	0,087
-189,417	74,407	0,075	-0,057
-188,402	-3,461	-0,157	-0,079
-187,387	39,080	-0,055	-0,036
-186,373	800,000	0,016	0,033
-185,358	800,000	-0,005	-0,009
-184,344	62,705	0,103	0,075
-183,329	622,454	0,037	0,068
-182,315	-70,399	0,049	0,014
-181,300	800,000	-0,070	-0,142
-180,285	15,995	0,066	0,038
-179,271	99,191	-0,068	-0,057
-178,256	-200,000	-0,017	0,077
-177,242	103,733	-0,064	0,055
-176,227	95,418	-0,036	0,030
-175,212	-10,646	0,081	0,039
-174,198	546,432	0,034	-0,060
-173,183	107,419	-0,096	-0,083
-172,169	-88,450	0,090	0,019
-171,154	-95,394	-0,042	-0,008
-170,139	86,107	0,176	0,141
-169,125	-77,735	-0,104	-0,026
-168,110	398,759	-0,062	0,095
-167,096	-182,680	-0,051	0,001
-166,081	-200,000	-0,049	0,199
-165,066	-200,000	-0,003	0,015
-164,052	-89,167	-0,123	0,026
-163,037	-65,299	0,096	0,028
-162,023	-200,000	-0,024	-0,081
-161,008	-200,000	0,004	0,034
-159,993	81,915	-0,013	-0,011
-158,979	-200,000	-0,002	-0,085
-157,964	800,000	0,065	-0,138
-156,950	800,000	-0,021	-0,060
-155,935	721,485	0,018	-0,035
-154,920	-200,000	-0,023	0,204
-153,906	-122,368	-0,031	-0,004
-152,891	24,157	-0,063	-0,038
-151,877	333,286	0,040	-0,056
-150,862	-117,589	-0,044	-0,006
-149,847	-200,000	-0,001	-0,133
-148,833	-81,731	0,099	0,023
-147,818	800,000	-0,008	0,022
-146,804	334,450	0,038	-0,054
-145,789	800,000	0,062	0,189
-144,775	-121,339	-0,151	-0,018
-143,760	372,570	0,059	0,088
-142,745	58,881	0,032	-0,023
-141,731	-39,611	0,088	-0,034
-140,716	240,483	-0,009	0,011
-139,702	17,205	0,058	-0,034
-138,687	-200,000	0,009	0,123
-137,672	497,041	0,079	0,134
-136,658	800,000	-0,070	-0,148
-135,643	13,650	-0,108	-0,061
-134,629	-121,773	0,106	-0,013
-133,614	40,447	0,058	-0,038
-132,599	800,000	-0,006	0,016
-131,585	4,895	0,115	0,061
-130,570	163,867	-0,077	-0,079
-129,556	124,851	-0,029	-0,026
-128,541	305,655	0,035	-0,047
-127,526	-190,445	-0,062	-0,000
-126,512	585,210	0,009	-0,016
-125,497	113,947	0,064	-0,057
-124,483	-151,609	-0,104	-0,005
-123,468	800,000	0,036	0,091
-122,453	800,000	-0,051	-0,133
-121,439	-100,946	-0,105	-0,019
-120,424	-20,920	0,088	0,039
-119,410	-200,000	0,001	-0,063
