DTS Sentinel unit serial number:	SN410029Multiplexer serial number:	ORYXHardware model number:	OX2-SRSoftware version number:	ORYX F/W v4,00 Oryx Data Collector v3.7.2.0data status	okinstallation	B6 Nyhavnadifferential loss correction	single-endedforward channel	channel 2reverse channel	N/Adate	2023/12/10time	15:45:08forward acquisition time	300,00reverse acquisition time	0,00gamma	499,1914k internal	0,3122k external	0,3122temperature offset calibration	1,0000default loss term (dB/km)	0,3820temperature slope calibration	1,0000multiplexer offset coefficient	1,0000multiplexer slope coefficient	1,0000fibre end	0,00T internal ref (°C)	22,38T ext. ref 1 (°C)	5,98T ext. ref 2 (°C)	5,99length (m)	temperature (°C)	Stokes	anti-Stokes-744,400	16,887	-0,069	-0,041
-743,385	35,911	-0,201	0,132
-742,371	-157,662	0,021	0,001
-741,356	105,103	-0,205	0,180
-740,342	-151,390	0,118	0,006
-739,327	9,073	-0,199	0,111
-738,312	171,449	0,049	-0,053
-737,298	-32,763	-0,220	-0,091
-736,283	250,308	0,044	-0,055
-735,269	-34,301	-0,231	0,094
-734,254	110,462	0,136	0,122
-733,239	-89,063	-0,449	-0,098
-732,225	17,919	0,137	0,081
-731,210	-38,728	-0,075	0,029
-730,196	354,859	-0,091	-0,135
-729,181	65,824	0,035	-0,026
-728,167	63,318	-0,050	-0,037
-727,152	114,097	0,043	0,039
-726,137	48,351	-0,145	0,101
-725,123	576,157	0,043	-0,079
-724,108	378,176	0,045	-0,068
-723,094	800,000	-0,013	0,037
-722,079	46,331	0,049	0,034
-721,064	-24,034	-0,222	-0,099
-720,050	565,222	0,085	-0,155
-719,035	800,000	0,018	0,044
-718,021	-110,568	-0,142	0,022
-717,006	-1,835	-0,117	0,061
-715,991	-34,099	-0,212	-0,086
-714,977	-63,520	-0,050	-0,015
-713,962	-9,974	-0,069	-0,034
-712,948	111,613	0,064	0,058
-711,933	800,000	-0,025	0,052
-710,918	122,761	-0,053	0,050
-709,904	-158,090	0,009	0,000
-708,889	300,131	-0,046	-0,063
-707,875	89,718	-0,021	0,017
-706,860	-53,550	-0,070	0,024
-705,845	-200,000	0,006	0,103
-704,831	-148,603	0,109	0,007
-703,816	413,505	0,041	0,065
-702,802	25,069	-0,088	0,054
-701,787	800,000	0,036	-0,087
-700,772	235,720	-0,051	-0,063
-699,758	410,933	-0,055	0,087
-698,743	-200,000	-0,001	0,023
-697,729	89,071	0,095	0,079
-696,714	178,301	0,058	-0,063
-695,699	-200,000	0,014	-0,118
-694,685	-200,000	-0,020	-0,157
-693,670	-29,520	-0,224	-0,095
-692,656	244,988	0,045	-0,056
-691,641	7,522	-0,024	-0,013
-690,627	800,000	0,053	0,128
-689,612	800,000	-0,035	-0,108
-688,597	-47,402	0,083	0,030
-687,583	-193,619	-0,093	-0,001
-686,568	112,014	0,044	0,040
-685,554	-200,000	0,008	-0,087
-684,539	-40,919	-0,024	0,009
-683,524	-67,850	-0,222	-0,064
-682,510	-37,837	0,176	0,069
-681,495	-151,925	-0,096	0,005
-680,481	-200,000	0,003	0,063
-679,466	-152,275	-0,120	0,006
-678,451	46,926	-0,021	0,015
-677,437	800,000	0,022	0,052
-676,422	386,431	-0,062	0,095
-675,408	-13,350	0,040	-0,019
-674,393	800,000	-0,021	-0,045
-673,378	-33,406	-0,134	0,055
-672,364	170,668	-0,066	-0,070
-671,349	-47,067	-0,182	0,066
-670,335	-116,124	0,104	0,014
-669,320	800,000	-0,017	-0,050
-668,305	-200,000	-0,002	-0,046
-667,291	-100,857	0,034	-0,006
-666,276	-138,184	-0,169	0,014
-665,262	-200,000	-0,007	0,067
-664,247	489,069	-0,020	0,034
-663,232	16,590	-0,072	0,042
-662,218	295,466	0,060	0,082
-661,203	212,449	-0,062	0,073
-660,189	-200,000	0,008	0,080
-659,174	800,000	0,035	-0,083
-658,159	-184,232	0,222	-0,003
-657,145	75,145	-0,020	0,015
-656,130	-200,000	-0,008	-0,038
-655,116	221,133	-0,029	-0,035
-654,101	375,947	0,038	0,058
-653,086	635,371	-0,020	-0,038
-652,072	-0,726	-0,117	-0,061
-651,057	103,519	-0,088	-0,077
-650,043	31,704	0,097	0,062
-649,028	-69,089	0,064	-0,018
-648,014	-200,000	-0,006	-0,039
-646,999	37,642	-0,172	0,113
-645,984	-200,000	0,017	-0,101
-644,970	-60,824	-0,110	0,034
-643,955	147,590	-0,035	-0,035
-642,941	784,491	-0,017	-0,035
-641,926	-200,000	0,009	-0,032
-640,911	99,247	0,016	0,014
-639,897	589,457	0,036	0,065
-638,882	800,000	0,010	-0,033
-637,868	-112,437	-0,164	-0,024
-636,853	-27,451	-0,123	-0,053
-635,838	-39,009	0,068	0,027
-634,824	-81,489	0,165	-0,040
-633,809	-26,607	0,075	-0,033
-632,795	-44,132	-0,142	-0,053
-631,780	-200,000	0,010	0,047
-630,765	-63,929	-0,056	-0,017
-629,751	-104,541	-0,107	-0,018
-628,736	-6,891	-0,007	0,003
-627,722	800,000	0,060	-0,150
-626,707	38,427	0,134	-0,088
-625,692	657,550	-0,019	0,037
-624,678	1,540	0,023	-0,012
-623,663	669,822	0,040	0,078
-622,649	664,908	0,012	0,023
-621,634	475,771	0,069	0,116
-620,619	-177,435	-0,087	-0,002
-619,605	-8,811	0,075	0,037
-618,590	66,625	0,180	0,136
-617,576	-63,167	0,092	-0,028
-616,561	17,836	-0,031	-0,018
-615,546	135,226	-0,085	0,082
-614,532	-4,134	-0,078	-0,040
-613,517	800,000	-0,068	-0,155
-612,503	-200,000	0,023	-0,147
-611,488	-200,000	-0,004	0,064
-610,474	336,234	-0,078	0,113
-609,459	-108,613	0,026	0,004
-608,444	88,404	0,077	0,063
-607,430	-61,548	-0,069	-0,021
-606,415	157,330	0,078	-0,080
-605,401	113,562	0,018	0,016
-604,386	800,000	-0,048	-0,126
-603,371	61,641	-0,052	0,038
-602,357	14,668	-0,114	0,066
-601,342	129,721	-0,066	-0,063
-600,328	-1,447	-0,153	0,080
-599,313	800,000	-0,006	0,015
-598,298	800,000	0,014	-0,037
-597,284	63,374	-0,038	-0,028
-596,269	-200,000	-0,001	0,021
-595,255	-200,000	0,011	0,069
-594,240	36,279	-0,084	-0,055
-593,225	-109,671	-0,113	0,017
-592,211	154,637	-0,047	-0,048
-591,196	-200,000	0,017	-0,127
-590,182	259,637	-0,095	0,122
-589,167	120,552	-0,047	0,044
-588,152	514,819	0,040	0,070
-587,138	-200,000	0,003	-0,015
-586,123	642,275	-0,047	-0,089
-585,109	109,556	-0,050	0,044
-584,094	800,000	0,090	-0,195
-583,079	67,133	-0,095	-0,072
-582,065	800,000	0,020	-0,042
-581,050	5,209	-0,114	-0,062
-580,036	312,051	0,118	-0,164
-579,021	68,806	-0,087	-0,066
-578,006	-200,000	-0,025	-0,085
-576,992	-134,442	0,103	0,009
-575,977	-77,635	-0,084	-0,021
-574,963	-200,000	0,005	0,075
-573,948	245,445	-0,025	-0,032
-572,934	-200,000	-0,000	-0,056
-571,919	-104,025	-0,115	-0,020
-570,904	198,994	0,075	-0,085
-569,890	-21,523	-0,142	-0,064
-568,875	800,000	-0,018	-0,045
-567,861	661,626	0,018	0,035
-566,846	-42,884	0,116	-0,044
-565,831	64,563	0,010	-0,007
-564,817	323,207	-0,092	0,130
-563,802	91,087	-0,071	0,059
-562,788	-64,789	0,104	0,031
-561,773	-24,386	0,102	0,045
-560,758	176,692	-0,134	0,144
-559,744	-159,883	0,142	-0,006
-558,729	199,233	-0,080	0,091
-557,715	-22,216	-0,127	-0,057
-556,700	129,060	-0,052	-0,049
-555,685	124,778	0,011	-0,010
-554,671	-200,000	0,008	0,033
-553,656	134,359	0,023	-0,022
-552,642	-200,000	0,017	0,091
-551,627	33,247	0,043	0,027
-550,612	-137,263	-0,031	-0,003
-549,598	154,240	0,076	-0,077
-548,583	41,013	0,084	0,056
-547,569	-200,000	0,010	-0,088
-546,554	181,223	-0,017	0,019
-545,539	-153,412	-0,073	-0,004
-544,525	-200,000	-0,136	0,000
-543,510	-164,010	0,134	0,005
-542,496	-58,112	-0,134	-0,043
-541,481	-35,399	-0,088	-0,035
-540,466	1,110	0,078	-0,042
-539,452	800,000	-0,023	-0,057
-538,437	800,000	0,034	0,070
-537,423	128,618	0,048	0,045
-536,408	74,242	0,004	-0,003
-535,393	453,331	0,037	0,061
-534,379	-92,705	-0,069	0,014
-533,364	-200,000	-0,012	-0,086
-532,350	430,480	0,082	-0,132
-531,335	-100,792	-0,102	0,018
-530,321	126,392	-0,086	0,080
-529,306	708,725	0,073	-0,143
-528,291	6,380	0,060	-0,033
-527,277	485,535	-0,049	-0,083
-526,262	-61,963	0,088	0,027
-525,248	144,036	0,042	0,042
-524,233	57,442	0,064	-0,046
-523,218	800,000	-0,033	-0,086
-522,204	-200,000	-0,002	0,016
-521,189	211,578	-0,069	0,080
-520,175	800,000	-0,025	-0,069
-519,160	-143,972	-0,168	-0,011
-518,145	416,298	-0,031	-0,049
-517,131	800,000	0,082	0,215
-516,116	161,210	-0,042	0,044
-515,102	81,809	-0,028	-0,022
-514,087	-200,000	-0,007	-0,025
-513,072	-200,000	-0,001	-0,079
-512,058	48,339	0,047	-0,032
-511,043	800,000	0,048	0,111
-510,029	800,000	0,031	0,094
-509,014	-200,000	-0,000	0,095
-507,999	-200,000	-0,004	-0,026
-506,985	-120,871	-0,077	-0,009
-505,970	-119,005	-0,033	0,004
-504,956	18,511	-0,103	0,061
-503,941	-144,231	-0,096	0,007
-502,926	-200,000	0,001	-0,033
-501,912	-43,693	-0,015	0,005
-500,897	3,566	0,089	-0,048
-499,883	-200,000	0,004	0,028
-498,868	139,022	0,032	-0,032
-497,853	50,051	0,068	-0,047
-496,839	-200,000	0,028	0,122
-495,824	-76,306	0,104	-0,027
-494,810	-200,000	0,000	0,076
-493,795	800,000	-0,025	0,072
-492,781	-1,142	0,014	0,008
-491,766	800,000	-0,006	-0,014
-490,751	-47,653	-0,147	-0,053
-489,737	-200,000	0,030	-0,115
-488,722	194,853	0,047	0,052
-487,708	800,000	-0,019	-0,055
-486,693	605,529	-0,033	0,062
-485,678	52,885	0,117	0,083
-484,664	-117,652	0,091	-0,012
-483,649	-141,015	-0,054	0,004
-482,635	183,387	-0,062	0,068
-481,620	-106,491	0,046	-0,008
-480,605	800,000	-0,008	-0,021
-479,591	25,456	-0,059	0,036
-478,576	-171,112	0,032	-0,001
-477,562	-129,680	-0,113	-0,011
-476,547	-30,351	-0,095	-0,040
-475,532	509,674	-0,014	0,024
-474,518	-117,174	0,195	-0,026
-473,503	483,489	-0,034	0,057
-472,489	-200,000	-0,025	0,104
-471,474	-153,812	-0,047	-0,002
-470,459	-200,000	-0,002	-0,046
-469,445	-200,000	-0,004	-0,043
-468,430	-49,283	-0,040	-0,014
-467,416	-200,000	-0,008	0,081
-466,401	800,000	-0,012	-0,034
-465,386	104,963	-0,040	-0,035
-464,372	22,181	0,080	0,048
-463,357	-200,000	0,004	-0,085
-462,343	-200,000	0,009	-0,059
-461,328	-82,855	0,181	0,043
-460,313	72,526	-0,054	0,042
-459,299	-200,000	-0,010	0,106
-458,284	-200,000	0,019	0,071
-457,270	-114,675	0,142	0,020
-456,255	-200,000	0,007	-0,042
-455,241	-176,911	0,139	0,003
-454,226	-200,000	-0,001	-0,244
-453,211	-200,000	0,002	-0,092
-452,197	7,921	0,104	-0,057
-451,182	-82,166	0,091	0,022
-450,168	800,000	0,060	0,138
-449,153	-130,474	-0,100	0,010
-448,138	-200,000	0,020	0,068
-447,124	500,125	0,062	-0,106
-446,109	285,404	-0,058	-0,077
-445,095	-200,000	0,030	0,115
-444,080	-200,000	-0,018	0,136
-443,065	8,300	0,051	0,028
-442,051	800,000	0,026	-0,053
-441,036	-200,000	0,004	-0,135
-440,022	-51,269	0,075	-0,026
-439,007	305,653	-0,081	0,111
-437,992	174,330	0,130	0,139
-436,978	-200,000	-0,013	0,051
-435,963	40,649	0,046	-0,031
-434,949	-41,849	0,036	-0,014
-433,934	800,000	0,025	-0,057
-432,919	-110,151	0,087	-0,013
-431,905	-200,000	0,003	0,055
-430,890	272,538	-0,038	0,050
-429,876	276,762	0,025	0,033
-428,861	127,162	0,109	-0,102
-427,846	134,307	-0,045	-0,043
-426,832	101,972	-0,020	-0,018
-425,817	-160,133	-0,073	0,003
-424,803	74,083	-0,118	-0,091
-423,788	478,797	0,051	0,085
-422,773	539,991	0,034	0,059
-421,759	339,597	0,058	0,084
-420,744	-200,000	-0,017	-0,069
-419,730	800,000	0,053	0,115
-418,715	-121,305	-0,055	-0,007
-417,701	413,368	-0,038	-0,059
-416,686	584,987	-0,043	-0,078
-415,671	436,822	-0,075	0,121
-414,657	800,000	0,040	0,112
-413,642	288,230	0,066	0,088
-412,628	93,576	0,036	0,030
-411,613	-165,627	0,063	-0,002
-410,598	51,593	-0,100	0,070
-409,584	108,443	0,076	0,066
-408,569	-49,156	0,102	-0,036
-407,555	485,460	0,095	0,160
-406,540	800,000	-0,037	0,080
-405,525	-200,000	0,003	-0,142
-404,511	36,707	-0,033	-0,022
-403,496	199,704	-0,071	0,080
-402,482	-4,037	0,041	-0,021
-401,467	535,826	0,063	0,111
-400,452	-200,000	0,013	0,088
-399,438	-129,036	0,070	0,007
-398,423	-56,292	0,061	-0,020
-397,409	28,447	0,031	0,019
-396,394	-200,000	-0,179	-0,000
-395,379	-101,823	-0,088	-0,015
-394,365	22,093	-0,076	0,046
-393,350	-179,360	-0,036	-0,001
-392,336	-193,406	-0,027	-0,000
-391,321	-200,000	-0,038	0,182
-390,306	-200,000	0,024	-0,095
-389,292	800,000	-0,034	-0,081
-388,277	-56,500	0,157	-0,051
-387,263	285,614	0,093	-0,123
-386,248	-3,229	0,045	0,023
-385,233	50,305	-0,053	0,037
-384,219	-73,880	-0,103	0,027
-383,204	218,010	-0,004	0,005
-382,190	-200,000	0,008	-0,029
-381,175	-136,981	0,049	0,004
-380,160	54,023	0,031	0,022
-379,146	-200,000	0,033	-0,117
-378,131	-70,692	0,169	0,047
-377,117	725,180	0,018	0,035
-376,102	769,607	-0,052	0,104
-375,088	80,088	0,078	-0,062
-374,073	800,000	-0,085	-0,200
-373,058	347,351	0,028	-0,041
-372,044	-101,267	0,136	0,024
-371,029	82,723	0,097	0,077
-370,015	-90,580	-0,070	-0,015
-369,000	526,862	-0,014	-0,024
-367,985	31,715	0,049	0,031
-366,971	57,524	0,102	-0,073
-365,956	-101,981	-0,045	0,008
-364,942	-200,000	0,012	0,087
-363,927	-128,604	0,062	-0,006
-362,912	800,000	0,031	-0,097
-361,898	-5,693	0,043	-0,022
-360,883	-40,721	-0,075	-0,029
-359,869	-9,104	0,098	-0,048
-358,854	-70,540	-0,117	-0,032
-357,839	180,117	0,061	-0,065
-356,825	-185,879	0,037	0,000
-355,810	194,582	-0,086	0,096
-354,796	-200,000	0,012	0,049
-353,781	-200,000	-0,015	-0,080
-352,766	800,000	0,043	-0,108
-351,752	56,034	0,127	-0,090
-350,737	-200,000	-0,024	0,150
-349,723	37,532	0,164	0,106
-348,708	-200,000	0,022	0,088
-347,693	-31,779	0,023	-0,009
-346,679	-200,000	0,001	0,014
-345,664	57,805	-0,074	0,053
-344,650	477,445	0,070	-0,116
-343,635	46,602	0,153	0,104
-342,620	85,601	0,070	-0,057
-341,606	134,782	-0,057	-0,054
-340,591	800,000	-0,071	-0,152
-339,577	800,000	0,042	0,125
-338,562	-200,000	0,012	0,071
-337,548	-200,000	0,015	-0,058
-336,533	-200,000	0,015	0,082
-335,518	800,000	-0,021	-0,056
-334,504	307,517	0,049	-0,068
-333,489	800,000	0,022	-0,046
-332,475	367,885	-0,027	-0,040
-331,460	87,075	-0,026	0,021
-330,445	10,641	0,088	-0,049
-329,431	800,000	-0,022	-0,045
-328,416	-200,000	-0,021	-0,088
-327,402	800,000	-0,016	0,047
-326,387	7,188	0,044	-0,024
-325,372	-149,852	-0,136	0,008
-324,358	-147,247	0,076	-0,005
-323,343	687,414	-0,032	0,062
-322,329	198,461	0,070	0,079
-321,314	800,000	-0,007	-0,016
-320,299	-200,000	0,006	0,034
-319,285	-200,000	0,004	0,017
-318,270	194,214	-0,040	-0,045
-317,256	0,282	0,085	0,044
-316,241	-23,050	-0,158	-0,069
-315,226	-0,363	0,068	-0,035
-314,212	-200,000	0,002	0,094
-313,197	-200,000	-0,016	-0,055
-312,183	94,440	0,082	-0,068
-311,168	177,906	0,041	-0,044
-310,153	-122,328	-0,118	0,014
-309,139	-200,000	0,003	-0,172
-308,124	-200,000	-0,013	0,166
-307,110	800,000	0,046	0,113
-306,095	-136,284	0,181	0,015
-305,080	-155,713	-0,045	0,002
-304,066	242,754	-0,094	-0,116
-303,051	-66,996	0,119	0,034
-302,037	800,000	-0,062	0,149
-301,022	-101,614	0,060	0,011
-300,008	-200,000	0,047	0,166
-298,993	-99,528	0,096	-0,018
-297,978	477,126	0,051	-0,085
-296,964	800,000	-0,050	-0,140
-295,949	157,083	-0,018	-0,018
-294,935	-92,539	0,066	-0,013
-293,920	-200,000	0,029	-0,123
-292,905	576,342	0,041	0,074
-291,891	-200,000	0,006	0,117
-290,876	181,522	0,026	-0,028
-289,862	-194,633	0,110	0,001
-288,847	-200,000	-0,037	-0,129
-287,832	673,693	0,063	-0,121
-286,818	-42,164	-0,115	0,043
-285,803	-200,000	-0,020	-0,100
-284,789	144,012	-0,041	0,041
-283,774	48,147	0,082	0,056
-282,759	99,260	-0,123	0,104
-281,745	-59,349	-0,144	0,045
-280,730	106,507	0,059	-0,051
-279,716	20,723	-0,074	-0,044
-278,701	800,000	0,015	-0,033
-277,686	-119,491	-0,173	0,022
-276,672	800,000	0,029	0,066
-275,657	-200,000	-0,002	0,065
-274,643	-76,449	-0,232	-0,059
-273,628	-43,774	0,050	-0,018
-272,613	580,074	0,024	-0,043
-271,599	52,730	0,123	-0,086
-270,584	111,165	0,060	0,053
-269,570	377,016	-0,068	-0,102
-268,555	-92,209	0,051	0,011
-267,540	-25,358	0,053	-0,023
-266,526	-76,276	-0,106	0,027
-265,511	800,000	0,062	-0,141
-264,497	-87,806	-0,078	0,017
-263,482	96,540	0,063	-0,053
-262,467	-72,284	-0,075	-0,020
-261,453	-200,000	-0,017	-0,093
-260,438	-162,606	-0,081	-0,003
-259,424	-101,782	-0,168	-0,029
-258,409	-200,000	0,026	-0,118
-257,395	64,863	0,150	-0,110
-256,380	-118,024	0,099	0,013
-255,365	92,551	0,075	0,062
-254,351	-94,725	0,061	-0,012
-253,336	10,999	-0,077	0,043
-252,322	62,147	-0,043	0,031
-251,307	277,408	-0,066	0,085
-250,292	-6,014	-0,109	0,054
-249,278	-200,000	0,007	0,134
-248,263	-134,829	0,176	0,015
-247,249	-80,587	-0,130	0,031
-246,234	167,726	-0,056	0,059
-245,219	145,857	-0,092	0,090
-244,205	-200,000	-0,020	-0,092
-243,190	-200,000	-0,011	-0,110
-242,176	295,150	-0,014	-0,018
-241,161	-2,884	0,104	0,053
-240,146	635,857	0,053	0,099
-239,132	-200,000	-0,000	-0,150
-238,117	88,527	0,076	-0,062
-237,103	191,286	-0,079	-0,087
-236,088	-200,000	-0,010	-0,041
-235,073	346,791	-0,068	-0,098
-234,059	-200,000	0,009	-0,063
-233,044	-84,151	0,031	-0,007
-232,030	9,975	-0,062	0,034
-231,015	248,977	0,083	-0,103
-230,000	-200,000	-0,006	-0,088
-228,986	10,673	0,024	0,013
-227,971	67,018	-0,089	0,066
-226,957	-200,000	0,008	0,094
-225,942	-200,000	-0,017	0,117
-224,927	334,269	0,008	-0,011
-223,913	-141,839	-0,047	-0,003
-222,898	131,671	-0,071	0,066
-221,884	-96,686	0,040	0,008
-220,869	-131,009	-0,038	0,004
-219,855	800,000	-0,013	-0,040
-218,840	-74,619	0,177	0,046
-217,825	430,037	-0,084	0,133
-216,811	4,842	-0,103	-0,055
-215,796	99,785	-0,010	-0,008
-214,782	-30,769	0,123	0,050
-213,767	43,169	-0,119	0,079
-212,752	-200,000	0,025	0,170
-211,738	-140,847	0,131	-0,010
-210,723	98,727	-0,093	0,078
-209,709	-121,361	-0,085	0,010
-208,694	-98,845	-0,096	0,018
-207,679	-200,000	0,006	-0,090
-206,665	49,006	-0,078	0,054
-205,650	-22,278	0,097	-0,043
-204,636	166,070	0,165	0,171
-203,621	94,069	0,031	0,026
-202,606	27,817	-0,065	-0,040
-201,592	-11,291	-0,044	-0,021
-200,577	294,309	-0,082	0,110
-199,563	467,939	-0,059	0,097
-198,548	-160,578	0,106	0,004
-197,533	-200,000	0,004	-0,015
-196,519	-18,196	0,091	-0,041
-195,504	-147,312	0,103	0,006
-194,490	-14,096	-0,154	-0,072
-193,475	-200,000	-0,013	0,045
-192,460	-200,000	0,010	0,046
-191,446	800,000	-0,027	0,056
-190,431	106,294	-0,032	-0,027
-189,417	-116,070	0,078	-0,011
-188,402	-200,000	0,041	-0,157
-187,387	-43,962	-0,127	-0,046
-186,373	1,328	-0,046	0,024
-185,358	74,018	0,094	0,072
-184,344	800,000	0,028	-0,084
-183,329	-40,679	-0,035	-0,013
-182,315	131,831	0,032	0,030
-181,300	264,647	-0,056	0,072
-180,285	416,161	-0,101	0,158
-179,271	-200,000	0,015	-0,072
-178,256	169,764	0,041	-0,043
-177,242	-146,331	0,025	-0,002
-176,227	559,587	0,014	-0,025
-175,212	-200,000	0,025	-0,090
-174,198	314,596	-0,034	-0,046
-173,183	709,636	0,035	-0,067
-172,169	-26,066	-0,130	-0,056
-171,154	89,566	-0,060	-0,049
-170,139	800,000	0,045	0,112
-169,125	-190,626	0,106	0,001
-168,110	-200,000	0,006	0,027
-167,096	-200,000	0,000	-0,067
-166,081	227,895	0,041	-0,049
-165,066	9,960	-0,083	0,046
-164,052	183,626	-0,095	0,103
-163,037	-200,000	0,025	0,143
-162,023	53,446	-0,074	0,051
-161,008	-200,000	-0,015	0,120
-159,993	-200,000	-0,001	0,066
-158,979	75,727	-0,037	-0,029
-157,964	-144,725	-0,077	-0,005
-156,950	299,586	0,079	-0,107
-155,935	54,529	0,072	-0,050
-154,920	-21,123	-0,161	-0,071
-153,906	-200,000	0,009	0,094
-152,891	69,824	0,073	0,055
-151,877	-200,000	0,021	0,085
-150,862	-78,629	-0,139	-0,034
-149,847	59,026	0,037	-0,026
-148,833	-4,979	-0,075	-0,038
-147,818	-200,000	0,009	-0,062
-146,804	5,952	-0,021	-0,012
-145,789	800,000	0,053	0,132
-144,775	770,711	-0,065	0,130
-143,760	149,547	-0,065	-0,064
-142,745	-200,000	-0,012	-0,071
-141,731	178,326	0,059	-0,063
-140,716	-106,680	0,167	0,027
-139,702	126,321	-0,035	0,032
-138,687	17,318	0,099	0,057
-137,672	-200,000	0,005	-0,049
-136,658	8,988	-0,049	0,027
-135,643	-200,000	0,000	-0,078
-134,629	-200,000	0,002	-0,035
-133,614	272,851	0,013	0,016
-132,599	150,646	0,066	-0,065
-131,585	294,475	0,063	-0,084
-130,570	-200,000	0,010	0,108
-129,556	-200,000	0,001	0,059
-128,541	-96,315	-0,051	-0,010
-127,526	-112,843	0,022	0,003
-126,512	610,662	0,043	0,078
-125,497	-57,225	-0,099	0,031
-124,483	-200,000	0,021	-0,115
-123,468	-20,027	-0,111	0,050
-122,453	-51,162	-0,072	-0,024
-121,439	-200,000	-0,014	-0,055
-120,424	-200,000	-0,001	-0,076
-119,410	-109,262	0,038	-0,006
-118,395	494,654	-0,026	0,044
