DTS Sentinel unit serial number:	SN410029Multiplexer serial number:	ORYXHardware model number:	OX2-SRSoftware version number:	ORYX F/W v4,00 Oryx Data Collector v3.7.2.0data status	okinstallation	B6 Nyhavnadifferential loss correction	single-endedforward channel	channel 2reverse channel	N/Adate	2023/12/08time	01:20:09forward acquisition time	300,00reverse acquisition time	0,00gamma	499,1914k internal	0,3165k external	0,3165temperature offset calibration	1,0000default loss term (dB/km)	0,3820temperature slope calibration	1,0000multiplexer offset coefficient	1,0000multiplexer slope coefficient	1,0000fibre end	0,00T internal ref (°C)	13,26T ext. ref 1 (°C)	-3,63T ext. ref 2 (°C)	-3,63length (m)	temperature (°C)	Stokes	anti-Stokes-744,400	152,443	0,074	0,075
-743,385	-48,235	-0,411	-0,145
-742,371	-93,262	0,082	0,017
-741,356	-24,274	-0,193	0,084
-740,342	456,564	0,059	0,096
-739,327	-169,354	-0,206	-0,005
-738,312	-116,387	0,077	0,010
-737,298	-76,756	-0,462	-0,118
-736,283	-200,000	0,020	0,121
-735,269	-159,522	-0,292	-0,012
-734,254	29,091	0,170	0,106
-733,239	-99,042	-0,565	-0,104
-732,225	-54,302	0,333	0,111
-731,210	-200,000	0,034	0,124
-730,196	-92,325	-0,101	0,021
-729,181	102,706	0,027	0,023
-728,167	47,422	-0,081	-0,055
-727,152	721,725	-0,010	-0,020
-726,137	-47,054	-0,133	0,047
-725,123	-26,498	-0,044	-0,019
-724,108	-94,653	-0,058	-0,012
-723,094	-200,000	0,007	-0,098
-722,079	-125,912	-0,009	-0,001
-721,064	-122,965	0,159	0,019
-720,050	800,000	-0,019	-0,044
-719,035	-200,000	-0,003	0,023
-718,021	-77,305	-0,209	-0,053
-717,006	189,968	-0,109	-0,120
-715,991	440,549	-0,065	-0,105
-714,977	151,657	-0,100	-0,100
-713,962	298,453	-0,044	0,059
-712,948	80,568	-0,098	0,078
-711,933	-123,008	-0,079	0,009
-710,918	-102,615	-0,128	0,022
-709,904	-33,869	-0,043	-0,017
-708,889	334,342	-0,093	-0,133
-707,875	-200,000	0,003	-0,023
-706,860	800,000	0,018	0,041
-705,845	800,000	-0,050	0,141
-704,831	-72,383	0,076	-0,021
-703,816	28,874	-0,148	-0,092
-702,802	800,000	-0,034	-0,099
-701,787	147,584	0,042	-0,042
-700,772	-75,547	-0,085	0,022
-699,758	-103,079	-0,092	-0,016
-698,743	-200,000	0,018	-0,094
-697,729	-18,507	0,014	0,006
-696,714	295,771	0,032	-0,044
-695,699	-17,794	-0,094	-0,043
-694,685	47,743	-0,094	-0,064
-693,670	192,090	0,085	-0,094
-692,656	-57,352	-0,172	-0,055
-691,641	-57,166	0,097	-0,031
-690,627	-200,000	-0,004	-0,016
-689,612	-200,000	0,007	0,050
-688,597	-64,441	-0,197	-0,058
-687,583	60,677	-0,041	-0,030
-686,568	59,391	0,043	0,031
-685,554	353,683	0,058	-0,085
-684,539	71,654	0,082	-0,063
-683,524	-200,000	0,026	-0,157
-682,510	276,555	-0,047	-0,062
-681,495	800,000	0,044	0,099
-680,481	800,000	-0,034	-0,090
-679,466	800,000	-0,022	-0,056
-678,451	198,760	-0,074	-0,083
-677,437	-15,429	0,090	0,042
-676,422	52,077	-0,018	-0,013
-675,408	301,252	0,012	-0,016
-674,393	-136,088	-0,160	0,014
-673,378	-121,036	0,063	-0,008
-672,364	240,988	-0,131	-0,161
-671,349	-98,107	-0,123	-0,023
-670,335	41,757	-0,039	0,026
-669,320	-3,684	0,033	-0,017
-668,305	800,000	-0,047	0,114
-667,291	127,282	-0,149	-0,139
-666,276	67,938	-0,106	-0,079
-665,262	103,769	-0,147	-0,127
-664,247	281,774	-0,044	-0,058
-663,232	277,674	-0,013	0,017
-662,218	-2,553	0,055	-0,028
-661,203	-34,573	0,054	0,022
-660,189	-29,288	-0,113	0,047
-659,174	800,000	-0,065	-0,148
-658,159	98,433	-0,064	-0,054
-657,145	223,870	-0,080	-0,095
-656,130	521,310	0,026	-0,045
-655,116	-200,000	0,013	0,092
-654,101	-200,000	-0,000	0,011
-653,086	89,914	-0,015	0,013
-652,072	216,008	0,021	-0,025
-651,057	237,444	0,037	0,045
-650,043	-156,176	-0,035	-0,002
-649,028	-200,000	0,001	0,065
-648,014	-79,010	-0,029	-0,007
-646,999	-8,302	-0,142	0,070
-645,984	118,058	0,092	-0,083
-644,970	-200,000	0,034	-0,144
-643,955	-200,000	-0,000	-0,223
-642,941	43,939	-0,040	-0,027
-641,926	201,848	0,049	-0,055
-640,911	-200,000	0,009	0,161
-639,897	-200,000	0,030	0,109
-638,882	-30,048	-0,037	-0,015
-637,868	800,000	-0,016	-0,045
-636,853	-150,332	-0,065	0,004
-635,838	-67,354	-0,170	0,049
-634,824	-200,000	-0,010	-0,072
-633,809	-114,331	0,100	0,014
-632,795	-155,638	-0,127	0,006
-631,780	199,113	-0,099	-0,111
-630,765	800,000	0,038	-0,102
-629,751	-200,000	-0,001	-0,049
-628,736	-128,558	0,027	-0,003
-627,722	134,076	-0,009	0,009
-626,707	800,000	-0,031	-0,064
-625,692	-51,112	-0,038	0,013
-624,678	-200,000	-0,001	-0,005
-623,663	51,643	-0,039	0,027
-622,649	167,463	-0,059	-0,062
-621,634	-155,398	-0,031	-0,001
-620,619	38,234	0,009	-0,006
-619,605	-145,437	-0,144	-0,009
-618,590	-25,317	-0,063	0,027
-617,576	-200,000	0,002	0,054
-616,561	-46,754	0,078	0,028
-615,546	21,294	-0,041	-0,024
-614,532	-74,056	-0,132	-0,035
-613,517	42,836	0,024	0,016
-612,503	800,000	0,027	0,078
-611,488	399,090	0,043	-0,066
-610,474	-155,348	0,070	0,003
-609,459	-200,000	-0,034	-0,152
-608,444	25,773	-0,024	-0,015
-607,430	-151,058	-0,133	0,007
-606,415	-200,000	-0,003	-0,053
-605,401	800,000	0,029	-0,073
-604,386	800,000	-0,066	0,142
-603,371	-200,000	-0,031	-0,162
-602,357	131,277	0,009	-0,008
-601,342	260,191	0,029	0,036
-600,328	279,327	-0,059	-0,077
-599,313	-200,000	-0,021	-0,070
-598,298	-64,629	-0,079	0,023
-597,284	-44,855	0,064	-0,023
-596,269	254,398	0,102	0,128
-595,255	-200,000	-0,008	-0,067
-594,240	-200,000	-0,008	0,054
-593,225	173,923	-0,047	-0,049
-592,211	576,548	0,047	-0,084
-591,196	296,491	-0,009	0,012
-590,182	2,103	0,016	-0,008
-589,167	800,000	0,080	0,174
-588,152	-36,888	-0,050	-0,020
-587,138	85,402	0,022	0,017
-586,123	-200,000	-0,011	-0,058
-585,109	800,000	0,026	-0,063
-584,094	-200,000	-0,013	-0,049
-583,079	800,000	-0,046	-0,125
-582,065	-13,964	-0,041	-0,019
-581,050	-20,005	0,031	0,014
-580,036	-156,650	-0,162	-0,007
-579,021	-42,771	0,020	-0,008
-578,006	78,084	0,039	0,030
-576,992	124,090	-0,116	-0,106
-575,977	766,092	0,058	0,115
-574,963	-130,302	-0,095	0,009
-573,948	35,886	-0,028	0,018
-572,934	200,118	0,106	-0,119
-571,919	-154,386	-0,069	-0,003
-570,904	86,333	-0,056	-0,045
-569,890	-200,000	0,002	-0,047
-568,875	-200,000	0,000	0,071
-567,861	-200,000	0,003	-0,043
-566,846	-67,592	-0,017	0,005
-565,831	-72,340	0,013	0,004
-564,817	49,957	-0,148	-0,102
-563,802	-12,319	-0,184	-0,087
-562,788	-14,938	-0,186	0,087
-561,773	106,182	0,125	-0,109
-560,758	-200,000	0,002	0,103
-559,744	800,000	0,056	-0,130
-558,729	-89,176	0,146	-0,031
-557,715	-145,704	-0,066	0,004
-556,700	-63,312	-0,122	-0,036
-555,685	-200,000	-0,023	-0,103
-554,671	-86,799	0,192	0,042
-553,656	-200,000	0,005	0,025
-552,642	800,000	-0,029	0,065
-551,627	395,313	-0,070	0,107
-550,612	-31,336	0,104	-0,042
-549,598	100,404	-0,112	0,095
-548,583	-5,420	-0,095	0,047
-547,569	-75,387	0,197	0,051
-546,554	-200,000	-0,013	0,085
-545,539	800,000	-0,013	-0,042
-544,525	-50,837	-0,048	0,016
-543,510	388,374	0,055	-0,083
-542,496	-11,513	-0,150	-0,072
-541,481	-46,169	0,123	-0,044
-540,466	-200,000	-0,009	-0,040
-539,452	800,000	-0,055	-0,126
-538,437	-200,000	0,007	0,134
-537,423	800,000	-0,026	-0,060
-536,408	60,755	0,033	0,023
-535,393	509,002	0,062	-0,106
-534,379	-36,422	-0,097	-0,038
-533,364	800,000	0,059	0,139
-532,350	-35,891	0,023	0,009
-531,335	-168,324	0,032	0,001
-530,321	548,269	0,038	-0,067
-529,306	151,484	0,017	-0,017
-528,291	-200,000	0,013	-0,063
-527,277	389,290	0,035	0,053
-526,262	-23,826	-0,068	0,030
-525,248	-14,750	0,073	-0,034
-524,233	263,918	0,020	-0,026
-523,218	800,000	0,021	0,060
-522,204	36,301	0,040	0,025
-521,189	165,412	-0,036	-0,037
-520,175	28,116	-0,088	-0,054
-519,160	266,048	-0,095	-0,121
-518,145	-187,470	0,051	-0,000
-517,131	-200,000	0,010	0,068
-516,116	625,431	0,100	0,184
-515,102	39,399	-0,010	-0,007
-514,087	-134,915	0,054	0,005
-513,072	351,506	-0,043	0,063
-512,058	800,000	0,004	-0,011
-511,043	83,176	0,024	-0,019
-510,029	-200,000	-0,016	0,115
-509,014	342,536	0,035	0,050
-507,999	152,446	0,014	-0,014
-506,985	-63,296	-0,015	0,004
-505,970	8,670	-0,035	0,019
-504,956	-200,000	-0,035	-0,169
-503,941	-11,848	0,002	-0,001
-502,926	-86,746	-0,025	-0,006
-501,912	800,000	0,031	-0,088
-500,897	50,173	0,033	-0,023
-499,883	49,030	-0,132	-0,090
-498,868	-135,743	0,092	-0,008
-497,853	-200,000	-0,003	0,017
-496,839	800,000	-0,054	-0,126
-495,824	114,292	0,107	0,095
-494,810	7,232	0,080	0,044
-493,795	16,277	-0,042	0,024
-492,781	-200,000	0,006	0,085
-491,766	116,063	-0,074	-0,066
-490,751	-138,392	-0,133	0,010
-489,737	-200,000	-0,012	0,041
-488,722	443,029	0,032	0,050
-487,708	-200,000	0,000	-0,012
-486,693	-94,898	0,122	-0,024
-485,678	-200,000	-0,004	0,021
-484,664	-127,119	-0,138	0,014
-483,649	-79,247	0,086	-0,021
-482,635	322,463	-0,053	0,074
-481,620	-2,597	0,081	-0,041
-480,605	-76,735	0,089	-0,023
-479,591	139,264	-0,151	-0,144
-478,576	-98,094	-0,034	-0,006
-477,562	127,650	-0,011	-0,010
-476,547	17,122	-0,166	0,096
-475,532	-200,000	0,012	-0,143
-474,518	-81,832	-0,015	0,003
-473,503	454,889	0,024	0,039
-472,489	28,744	0,039	0,024
-471,474	-75,226	-0,115	-0,030
-470,459	89,695	-0,035	0,028
-469,445	124,151	0,025	-0,023
-468,430	-168,927	0,126	0,003
-467,416	-200,000	-0,001	-0,099
-466,401	-200,000	0,004	0,019
-465,386	-70,486	0,093	0,025
-464,372	231,007	-0,097	0,116
-463,357	109,867	0,095	-0,083
-462,343	230,153	-0,087	-0,103
-461,328	192,583	-0,005	-0,005
-460,313	-39,002	0,133	0,051
-459,299	292,564	-0,027	0,036
-458,284	-114,785	0,040	-0,005
-457,270	504,669	0,034	-0,057
-456,255	-51,560	0,034	0,011
-455,241	407,173	-0,092	-0,142
-454,226	-10,342	-0,082	-0,040
-453,211	-200,000	-0,000	0,005
-452,197	-200,000	-0,030	-0,111
-451,182	-76,753	-0,098	0,025
-450,168	-200,000	0,008	0,119
-449,153	800,000	-0,040	0,115
-448,138	-7,133	-0,095	0,047
-447,124	23,434	0,034	-0,020
-446,109	22,073	-0,020	0,012
-445,095	56,906	0,042	-0,030
-444,080	-127,622	-0,082	0,009
-443,065	662,322	0,016	0,031
-442,051	617,326	-0,085	-0,157
-441,036	220,953	-0,079	0,092
-440,022	-200,000	0,011	-0,123
-439,007	-200,000	-0,004	0,132
-437,992	-200,000	0,008	0,152
-436,978	-96,823	0,077	-0,015
-435,963	800,000	0,024	0,065
-434,949	-200,000	-0,013	0,081
-433,934	-34,075	-0,004	0,001
-432,919	41,098	-0,030	0,019
-431,905	-200,000	0,009	-0,079
-430,890	119,208	0,064	-0,057
-429,876	460,460	0,076	0,123
-428,861	-66,763	-0,046	-0,013
-427,846	261,424	0,035	0,045
-426,832	237,536	0,072	0,087
-425,817	800,000	-0,013	-0,029
-424,803	-200,000	-0,000	0,112
-423,788	122,685	-0,057	-0,052
-422,773	-62,524	0,110	-0,033
-421,759	31,037	-0,025	0,015
-420,744	606,803	0,033	0,059
-419,730	-140,043	-0,029	0,002
-418,715	377,922	-0,030	-0,045
-417,701	793,284	0,004	-0,008
-416,686	-178,288	0,133	-0,002
-415,671	-128,021	0,047	0,005
-414,657	20,767	0,135	-0,079
-413,642	-61,279	-0,068	0,021
-412,628	-85,817	0,155	-0,035
-411,613	-200,000	0,013	-0,103
-410,598	93,041	0,065	0,053
-409,584	-183,721	-0,007	0,000
-408,569	-4,040	-0,038	0,019
-407,555	-72,292	-0,095	0,025
-406,540	-200,000	0,017	-0,105
-405,525	-200,000	0,016	0,173
-404,511	-102,488	0,105	0,018
-403,496	-160,322	0,103	-0,004
-402,482	115,817	-0,038	-0,034
-401,467	-35,094	0,032	0,012
-400,452	800,000	0,019	-0,047
-399,438	-151,521	0,091	-0,005
-398,423	234,553	-0,048	-0,058
-397,409	123,146	0,023	-0,020
-396,394	161,590	0,063	-0,064
-395,379	800,000	0,025	-0,078
-394,365	573,424	0,051	0,090
-393,350	50,382	0,012	-0,008
-392,336	8,441	-0,142	0,077
-391,321	120,608	-0,072	-0,065
-390,306	800,000	-0,074	-0,186
-389,292	200,517	-0,064	-0,071
-388,277	72,289	-0,061	0,046
-387,263	481,448	0,047	0,077
-386,248	116,937	-0,080	-0,072
-385,233	144,202	-0,121	-0,117
-384,219	800,000	0,032	0,091
-383,204	135,322	-0,071	0,067
-382,190	200,113	-0,051	-0,057
-381,175	82,209	-0,064	-0,051
-380,160	-200,000	-0,031	0,138
-379,146	214,806	0,077	0,088
-378,131	95,450	0,071	0,059
-377,117	-200,000	-0,002	0,092
-376,102	800,000	0,030	0,080
-375,088	541,702	-0,044	-0,076
-374,073	-2,622	0,066	-0,033
-373,058	-161,382	0,056	0,002
-372,044	-200,000	0,020	0,097
-371,029	2,664	0,058	0,030
-370,015	-14,773	-0,019	0,009
-369,000	-200,000	-0,004	-0,030
-367,985	-200,000	-0,010	-0,033
-366,971	444,363	-0,070	-0,112
-365,956	13,877	-0,040	-0,023
-364,942	99,097	-0,074	0,062
-363,927	800,000	0,047	0,116
-362,912	99,038	0,150	0,125
-361,898	265,419	-0,102	-0,129
-360,883	110,682	-0,037	-0,032
-359,869	79,697	-0,121	0,094
-358,854	-142,126	0,022	0,002
-357,839	-9,391	0,036	-0,017
-356,825	412,593	-0,065	0,100
-355,810	800,000	0,037	-0,095
-354,796	200,778	0,047	-0,052
-353,781	-200,000	0,020	0,121
-352,766	-200,000	0,005	-0,036
-351,752	800,000	0,023	0,051
-350,737	27,855	0,090	0,055
-349,723	-200,000	0,036	-0,133
-348,708	9,156	-0,051	-0,028
-347,693	369,410	0,017	0,025
-346,679	-1,554	-0,032	0,016
-345,664	387,683	-0,005	-0,008
-344,650	-36,386	-0,122	0,047
-343,635	199,009	0,041	0,046
-342,620	-130,531	-0,151	-0,015
-341,606	773,150	0,058	-0,115
-340,591	272,890	-0,028	-0,036
-339,577	-85,613	-0,058	-0,013
-338,562	800,000	-0,045	-0,098
-337,548	-200,000	0,024	0,109
-336,533	427,630	-0,073	0,114
-335,518	-200,000	-0,004	-0,147
-334,504	-144,743	0,118	-0,008
-333,489	-91,177	-0,032	0,007
-332,475	371,673	0,104	-0,153
-331,460	132,750	-0,061	-0,057
-330,445	-30,812	0,155	0,063
-329,431	-200,000	0,008	0,108
-328,416	-26,471	0,061	-0,026
-327,402	773,888	0,057	0,112
-326,387	40,001	0,010	-0,007
-325,372	-200,000	-0,019	0,086
-324,358	28,097	0,042	0,026
-323,343	157,470	0,020	0,020
-322,329	-200,000	0,018	-0,065
-321,314	800,000	0,006	0,015
-320,299	-55,520	0,167	-0,054
-319,285	-18,334	-0,080	0,036
-318,270	746,867	0,015	-0,029
-317,256	800,000	0,031	0,090
-316,241	7,648	0,085	0,046
-315,226	-200,000	-0,008	0,128
-314,212	369,014	-0,019	-0,028
-313,197	-44,373	-0,088	-0,032
-312,183	45,447	-0,031	-0,020
-311,168	10,379	-0,030	0,016
-310,153	-200,000	0,011	0,069
-309,139	121,167	-0,101	-0,091
-308,124	148,772	0,024	-0,024
-307,110	82,388	0,062	0,049
-306,095	-200,000	0,017	-0,055
-305,080	-68,757	0,077	-0,021
-304,066	80,937	0,012	0,010
-303,051	-74,432	-0,024	0,006
-302,037	800,000	0,013	-0,037
-301,022	-81,884	0,078	0,018
-300,008	-200,000	0,003	0,158
-298,993	56,572	0,046	-0,032
-297,978	800,000	-0,112	0,240
-296,964	-81,173	-0,093	0,022
-295,949	-74,499	-0,059	-0,015
-294,935	-39,938	0,045	-0,017
-293,920	-200,000	-0,009	0,071
-292,905	-43,701	-0,103	-0,037
-291,891	-102,019	0,075	0,013
-290,876	-200,000	-0,006	0,099
-289,862	263,894	0,043	0,055
-288,847	-137,033	-0,043	-0,004
-287,832	-26,634	0,041	0,017
-286,818	507,530	-0,030	-0,051
-285,803	64,970	0,074	0,054
-284,789	186,305	0,104	-0,112
-283,774	195,054	0,050	0,055
-282,759	-200,000	-0,028	0,112
-281,745	180,709	0,107	0,114
-280,730	1,909	-0,048	-0,025
-279,716	-200,000	0,005	0,043
-278,701	18,457	0,015	0,009
-277,686	-200,000	-0,012	0,051
-276,672	-200,000	0,005	0,064
-275,657	61,605	-0,023	0,017
-274,643	-14,340	0,168	-0,078
-273,628	-200,000	0,010	-0,071
-272,613	377,600	0,109	-0,161
-271,599	457,728	0,036	0,058
-270,584	16,272	-0,058	0,033
-269,570	558,923	0,097	-0,170
-268,555	136,815	0,030	0,028
-267,540	-200,000	0,010	-0,117
-266,526	-200,000	-0,002	-0,110
-265,511	-200,000	-0,003	-0,091
-264,497	34,357	0,154	-0,097
-263,482	-143,928	0,199	0,013
-262,467	-200,000	-0,018	0,118
-261,453	26,982	0,134	0,081
-260,438	800,000	-0,035	0,072
-259,424	-200,000	-0,021	-0,069
-258,409	692,549	-0,014	-0,027
-257,395	-30,895	0,071	-0,029
-256,380	31,626	-0,095	0,059
-255,365	800,000	-0,011	-0,022
-254,351	61,698	-0,105	0,076
-253,336	217,916	-0,047	0,055
-252,322	-76,022	0,016	0,004
-251,307	248,876	-0,052	-0,063
-250,292	-36,830	0,073	0,028
-249,278	-200,000	-0,011	-0,085
-248,263	15,813	0,092	0,052
-247,249	-16,077	0,024	0,011
-246,234	-127,281	-0,090	0,009
-245,219	197,755	0,012	-0,013
-244,205	148,091	0,039	0,038
-243,190	-200,000	0,015	-0,110
-242,176	10,908	-0,081	-0,045
-241,161	144,972	0,060	0,058
-240,146	13,287	-0,118	0,066
-239,132	-93,127	0,140	-0,028
-238,117	102,144	-0,059	-0,050
-237,103	-200,000	0,029	-0,124
-236,088	39,620	0,128	0,082
-235,073	422,004	0,022	0,034
-234,059	-45,092	0,055	-0,019
-233,044	-151,690	0,144	-0,008
-232,030	-200,000	0,024	0,079
-231,015	74,911	-0,187	-0,142
-230,000	-82,883	0,098	-0,023
-228,986	53,702	-0,092	0,063
-227,971	-200,000	-0,030	0,112
-226,957	766,555	-0,018	0,036
-225,942	-148,329	0,186	-0,011
-224,927	-200,000	0,006	-0,039
-223,913	-200,000	-0,025	-0,108
-222,898	-200,000	0,005	-0,100
-221,884	-1,321	0,157	0,080
-220,869	757,669	0,061	0,119
-219,855	-36,037	-0,056	-0,022
-218,840	27,854	0,090	-0,055
-217,825	800,000	0,018	-0,049
-216,811	-200,000	0,004	-0,022
-215,796	26,434	0,086	-0,052
-214,782	120,331	-0,101	0,091
-213,767	-200,000	0,015	-0,115
-212,752	-87,201	0,062	-0,013
-211,738	-200,000	-0,000	0,141
-210,723	-141,606	-0,051	-0,004
-209,709	6,627	-0,057	0,031
-208,694	103,108	0,074	0,063
-207,679	47,875	0,125	0,084
-206,665	-200,000	-0,006	0,030
-205,650	224,735	-0,064	0,075
-204,636	168,167	-0,025	0,025
-203,621	-200,000	0,003	-0,031
-202,606	-200,000	-0,005	0,085
-201,592	800,000	0,013	-0,038
-200,577	32,724	0,035	-0,021
-199,563	-14,300	0,003	-0,001
-198,548	-46,730	0,021	0,007
-197,533	57,589	-0,139	0,098
-196,519	189,010	-0,110	-0,118
-195,504	-200,000	-0,009	0,030
-194,490	-53,797	0,174	0,057
-193,475	-0,988	-0,091	0,046
-192,460	-121,916	0,120	0,014
-191,446	537,860	-0,017	-0,029
-190,431	44,852	-0,053	0,035
-189,417	232,914	0,043	0,051
-188,402	800,000	0,034	0,082
-187,387	800,000	0,016	0,046
-186,373	-63,698	-0,154	0,045
-185,358	-99,152	-0,075	-0,014
-184,344	194,222	0,005	0,006
-183,329	-115,407	0,124	-0,017
-182,315	20,709	-0,139	0,081
-181,300	-200,000	0,020	0,073
-180,285	-200,000	-0,015	-0,151
-179,271	314,600	-0,031	0,042
-178,256	-22,543	-0,092	0,040
-177,242	-200,000	-0,006	0,187
-176,227	481,259	0,058	0,096
-175,212	800,000	-0,030	0,082
-174,198	6,840	-0,102	0,054
-173,183	305,607	0,101	-0,135
-172,169	48,298	0,105	-0,071
-171,154	-43,850	-0,105	-0,038
-170,139	36,795	-0,017	0,010
-169,125	121,291	0,052	0,047
-168,110	12,004	-0,092	-0,051
-167,096	-200,000	0,014	-0,053
-166,081	-21,736	0,165	-0,072
-165,066	-200,000	0,005	-0,072
-164,052	3,797	-0,106	-0,056
-163,037	-200,000	0,034	0,153
-162,023	337,489	0,076	0,106
-161,008	387,845	-0,031	0,047
-159,993	800,000	0,022	0,066
-158,979	-200,000	-0,036	-0,206
-157,964	-66,053	-0,083	-0,024
-156,950	-200,000	-0,008	-0,194
-155,935	26,345	-0,094	0,056
-154,920	136,295	0,114	0,107
-153,906	324,884	-0,035	0,048
-152,891	239,558	-0,049	0,059
-151,877	-200,000	-0,015	-0,049
-150,862	494,387	0,040	0,066
-149,847	-200,000	-0,011	-0,057
-148,833	-75,544	-0,189	0,048
-147,818	-200,000	0,008	0,051
-146,804	372,206	0,018	0,027
-145,789	-33,186	-0,106	0,042
-144,775	-60,797	-0,071	-0,022
-143,760	800,000	0,007	0,023
-142,745	-200,000	0,001	0,015
-141,731	800,000	0,060	-0,129
-140,716	-200,000	-0,003	0,049
-139,702	2,387	-0,093	0,048
-138,687	163,454	-0,094	0,095
-137,672	800,000	0,026	0,069
-136,658	72,059	-0,102	0,076
-135,643	779,706	-0,044	-0,088
-134,629	121,409	0,024	-0,022
-133,614	13,937	-0,027	0,015
-132,599	-200,000	-0,038	0,175
-131,585	117,497	0,049	0,043
-130,570	800,000	0,037	-0,074
-129,556	55,221	-0,134	-0,093
-128,541	35,349	0,048	-0,030
-127,526	51,170	0,022	0,015
-126,512	-81,650	0,065	-0,015
-125,497	-200,000	0,035	0,142
-124,483	-200,000	-0,005	0,167
-123,468	266,567	-0,030	-0,038
-122,453	189,454	-0,025	0,026
-121,439	366,499	-0,012	0,017
-120,424	394,637	-0,012	0,019
-119,410	49,590	0,065	-0,044
-118,395	-98,986	0,058	-0,010
