DTS Sentinel unit serial number:	SN410029Multiplexer serial number:	ORYXHardware model number:	OX2-SRSoftware version number:	ORYX F/W v4,00 Oryx Data Collector v3.7.2.0data status	okinstallation	B6 Nyhavnadifferential loss correction	single-endedforward channel	channel 2reverse channel	N/Adate	2023/12/10time	15:35:08forward acquisition time	300,00reverse acquisition time	0,00gamma	499,1914k internal	0,3122k external	0,3122temperature offset calibration	1,0000default loss term (dB/km)	0,3820temperature slope calibration	1,0000multiplexer offset coefficient	1,0000multiplexer slope coefficient	1,0000fibre end	0,00T internal ref (°C)	22,41T ext. ref 1 (°C)	5,91T ext. ref 2 (°C)	5,93length (m)	temperature (°C)	Stokes	anti-Stokes-744,400	-200,000	0,037	-0,178
-743,385	-6,143	-0,241	0,122
-742,371	168,809	-0,032	0,034
-741,356	-14,826	-0,261	0,125
-740,342	-200,000	-0,013	0,280
-739,327	242,696	-0,186	0,233
-738,312	320,708	0,024	0,033
-737,298	-106,608	-0,211	0,035
-736,283	255,067	0,131	-0,167
-735,269	-15,613	-0,148	0,070
-734,254	-4,107	0,079	-0,040
-733,239	-108,818	-0,485	-0,076
-732,225	148,737	0,077	0,078
-731,210	24,331	-0,052	-0,032
-730,196	-134,219	-0,033	0,003
-729,181	275,759	-0,028	-0,038
-728,167	47,945	0,026	-0,018
-727,152	161,969	-0,091	0,095
-726,137	-58,349	-0,061	-0,020
-725,123	244,266	-0,133	-0,167
-724,108	413,171	0,125	-0,199
-723,094	443,639	0,037	-0,060
-722,079	277,362	-0,063	-0,084
-721,064	-76,477	0,061	0,016
-720,050	800,000	0,015	0,039
-719,035	-200,000	-0,025	-0,118
-718,021	219,856	-0,083	-0,100
-717,006	-200,000	0,022	-0,200
-715,991	-143,604	-0,105	0,007
-714,977	-200,000	0,007	-0,118
-713,962	-57,239	-0,181	-0,059
-712,948	276,346	-0,025	-0,034
-711,933	64,999	-0,095	0,071
-710,918	-24,085	-0,077	-0,034
-709,904	-200,000	-0,028	-0,150
-708,889	69,967	-0,084	-0,064
-707,875	53,344	-0,090	-0,064
-706,860	242,915	-0,071	-0,088
-705,845	448,695	-0,089	-0,147
-704,831	-38,374	0,062	0,024
-703,816	-200,000	-0,003	-0,090
-702,802	-200,000	0,055	-0,250
-701,787	-200,000	-0,002	-0,035
-700,772	224,111	-0,099	-0,119
-699,758	-200,000	-0,007	-0,181
-698,743	-81,715	0,104	-0,025
-697,729	800,000	-0,026	-0,084
-696,714	87,404	0,058	-0,048
-695,699	800,000	-0,037	0,094
-694,685	321,854	-0,019	-0,027
-693,670	355,235	0,039	-0,057
-692,656	-119,962	-0,035	-0,004
-691,641	-43,179	0,018	0,007
-690,627	-24,554	-0,041	0,018
-689,612	653,947	-0,056	0,108
-688,597	800,000	-0,028	0,060
-687,583	14,914	-0,062	-0,036
-686,568	800,000	0,018	-0,058
-685,554	800,000	-0,020	-0,044
-684,539	-33,532	0,046	0,019
-683,524	800,000	0,024	-0,057
-682,510	-119,988	0,066	0,008
-681,495	-118,746	-0,039	-0,005
-680,481	86,275	-0,071	-0,058
-679,466	-56,546	-0,020	-0,007
-678,451	-63,656	-0,109	-0,033
-677,437	-200,000	-0,004	-0,088
-676,422	-200,000	0,037	0,125
-675,408	-135,510	0,071	-0,006
-674,393	800,000	-0,041	-0,085
-673,378	800,000	-0,029	0,061
-672,364	129,330	-0,083	-0,079
-671,349	25,884	-0,028	-0,017
-670,335	-102,853	-0,108	0,019
-669,320	99,922	0,060	-0,052
-668,305	161,312	-0,071	0,073
-667,291	-185,800	-0,147	0,002
-666,276	-33,891	-0,054	0,022
-665,262	-90,144	0,077	0,016
-664,247	-45,062	-0,066	-0,024
-663,232	371,790	0,048	-0,073
-662,218	685,229	0,066	0,129
-661,203	-43,825	-0,037	-0,014
-660,189	205,303	0,014	-0,016
-659,174	-113,282	-0,089	0,013
-658,159	-101,676	-0,067	-0,012
-657,145	379,463	-0,042	-0,064
-656,130	9,022	0,133	0,074
-655,116	800,000	-0,004	0,012
-654,101	-180,004	0,095	0,001
-653,086	800,000	0,041	0,095
-652,072	-16,566	-0,089	-0,042
-651,057	403,970	-0,075	-0,117
-650,043	45,622	-0,121	-0,083
-649,028	-200,000	-0,007	0,044
-648,014	-200,000	0,003	0,076
-646,999	-200,000	0,021	-0,119
-645,984	16,209	-0,075	0,044
-644,970	-200,000	0,002	-0,110
-643,955	192,972	0,031	-0,035
-642,941	-157,204	0,169	-0,007
-641,926	-129,017	-0,062	0,006
-640,911	800,000	0,037	0,086
-639,897	285,063	-0,008	-0,010
-638,882	237,482	-0,066	0,081
-637,868	-200,000	-0,010	-0,038
-636,853	-200,000	0,022	-0,087
-635,838	-200,000	-0,007	0,029
-634,824	-200,000	0,001	0,061
-633,809	701,624	0,027	0,054
-632,795	-200,000	0,007	0,029
-631,780	-105,117	0,193	0,032
-630,765	36,033	-0,023	0,015
-629,751	800,000	-0,038	-0,117
-628,736	800,000	0,051	-0,129
-627,722	92,723	0,071	0,060
-626,707	159,182	-0,008	-0,008
-625,692	-49,209	0,056	0,020
-624,678	241,536	0,090	0,112
-623,663	-55,697	-0,218	0,072
-622,649	535,961	-0,019	-0,034
-621,634	-200,000	-0,011	-0,041
-620,619	-99,688	-0,223	-0,041
-619,605	130,550	0,063	0,060
-618,590	-200,000	0,006	0,096
-617,576	-200,000	-0,016	0,184
-616,561	-63,127	-0,068	0,021
-615,546	-11,345	0,044	-0,022
-614,532	-29,927	0,092	0,039
-613,517	34,550	0,058	0,037
-612,503	-200,000	-0,017	-0,095
-611,488	-162,560	-0,071	-0,003
-610,474	118,255	0,049	0,044
-609,459	205,669	-0,064	0,074
-608,444	324,913	-0,100	-0,141
-607,430	5,137	-0,163	-0,089
-606,415	800,000	0,016	-0,044
-605,401	-93,342	-0,075	0,015
-604,386	60,816	-0,019	-0,014
-603,371	-156,106	-0,091	0,004
-602,357	-182,633	0,006	0,000
-601,342	122,814	-0,096	-0,089
-600,328	800,000	-0,027	-0,078
-599,313	-73,378	0,064	0,017
-598,298	350,298	0,064	-0,095
-597,284	800,000	0,006	-0,013
-596,269	800,000	0,038	0,080
-595,255	-123,567	0,058	-0,007
-594,240	795,248	0,052	0,106
-593,225	-7,753	0,098	-0,049
-592,211	800,000	-0,048	-0,120
-591,196	-133,704	-0,077	-0,007
-590,182	-200,000	-0,014	-0,123
-589,167	-200,000	0,001	-0,012
-588,152	113,707	-0,097	-0,087
-587,138	343,421	-0,037	-0,053
-586,123	38,846	-0,168	0,111
-585,109	41,002	0,021	-0,014
-584,094	319,203	-0,089	-0,125
-583,079	64,181	0,056	-0,042
-582,065	82,043	-0,070	-0,056
-581,050	26,214	-0,082	-0,050
-580,036	51,923	0,053	-0,037
-579,021	237,413	0,057	-0,070
-578,006	377,737	-0,104	-0,158
-576,992	527,337	-0,056	-0,098
-575,977	510,858	0,049	-0,085
-574,963	119,383	-0,033	0,031
-573,948	124,238	0,089	-0,083
-572,934	-36,385	-0,143	-0,057
-571,919	-120,556	0,014	0,002
-570,904	309,478	-0,055	-0,076
-569,890	86,235	0,039	0,032
-568,875	-177,324	-0,058	0,001
-567,861	-92,508	-0,143	-0,030
-566,846	800,000	0,048	0,118
-565,831	228,610	-0,019	-0,023
-564,817	800,000	0,039	-0,090
-563,802	-200,000	-0,015	-0,158
-562,788	-200,000	-0,016	0,082
-561,773	-200,000	0,008	0,086
-560,758	-200,000	-0,015	0,094
-559,744	161,472	-0,071	0,074
-558,729	-86,218	0,078	-0,018
-557,715	800,000	0,042	0,112
-556,700	-200,000	-0,008	-0,120
-555,685	-49,533	-0,135	-0,047
-554,671	172,008	0,078	0,083
-553,656	-76,428	-0,049	-0,013
-552,642	-200,000	0,011	0,036
-551,627	-200,000	0,002	0,057
-550,612	-200,000	-0,007	-0,169
-549,598	17,165	0,043	-0,025
-548,583	-3,549	-0,141	-0,072
-547,569	-200,000	-0,005	-0,140
-546,554	800,000	-0,019	0,050
-545,539	-200,000	-0,025	0,098
-544,525	161,673	-0,058	0,060
-543,510	606,563	0,040	0,074
-542,496	47,247	-0,031	-0,021
-541,481	-2,019	-0,052	-0,027
-540,466	42,440	-0,044	-0,030
-539,452	800,000	0,031	0,095
-538,437	-23,730	-0,038	-0,017
-537,423	800,000	0,052	0,148
-536,408	248,778	0,097	0,121
-535,393	-200,000	0,001	0,006
-534,379	44,117	0,190	-0,129
-533,364	539,631	-0,076	-0,134
-532,350	18,637	-0,062	-0,036
-531,335	222,987	0,113	0,135
-530,321	800,000	-0,019	0,054
-529,306	-59,542	0,048	0,015
-528,291	166,369	-0,067	-0,071
-527,277	-200,000	0,004	-0,114
-526,262	-183,094	0,088	-0,001
-525,248	118,782	-0,090	-0,083
-524,233	-200,000	-0,010	-0,042
-523,218	-51,268	0,068	0,023
-522,204	264,072	-0,048	0,061
-521,189	-200,000	-0,003	-0,018
-520,175	322,696	0,024	-0,034
-519,160	800,000	-0,044	-0,091
-518,145	206,766	0,046	-0,053
-517,131	118,222	0,044	0,040
-516,116	-75,345	0,067	-0,018
-515,102	100,609	0,090	-0,078
-514,087	473,610	-0,069	-0,116
-513,072	270,219	-0,021	0,027
-512,058	-146,054	0,063	-0,004
-511,043	250,810	-0,059	0,074
-510,029	-200,000	0,005	0,060
-509,014	800,000	0,041	0,103
-507,999	216,633	0,049	0,058
-506,985	80,660	0,052	0,042
-505,970	71,511	-0,047	0,036
-504,956	800,000	0,022	-0,061
-503,941	-26,602	-0,064	0,027
-502,926	-198,318	0,110	-0,000
-501,912	73,388	-0,059	0,046
-500,897	-73,990	-0,127	0,034
-499,883	186,432	0,033	0,036
-498,868	271,995	-0,075	-0,098
-497,853	-6,817	0,154	-0,077
-496,839	-16,271	0,016	0,007
-495,824	-200,000	0,030	-0,134
-494,810	800,000	-0,020	0,057
-493,795	-200,000	0,006	-0,115
-492,781	99,191	-0,104	0,088
-491,766	-55,005	-0,052	-0,017
-490,751	-57,736	0,071	0,023
-489,737	98,566	-0,063	-0,053
-488,722	-165,376	0,069	-0,002
-487,708	31,249	-0,133	0,084
-486,693	-141,896	0,098	0,007
-485,678	-200,000	0,001	0,086
-484,664	-21,114	-0,038	-0,017
-483,649	-152,480	0,044	-0,002
-482,635	-107,017	0,029	0,005
-481,620	-107,483	0,078	0,012
-480,605	147,994	0,115	0,115
-479,591	-200,000	0,021	-0,114
-478,576	145,451	0,028	-0,028
-477,562	-131,651	-0,114	-0,011
-476,547	-68,870	-0,172	-0,049
-475,532	-200,000	0,031	-0,159
-474,518	800,000	-0,008	-0,024
-473,503	108,232	0,123	0,109
-472,489	-200,000	0,083	0,311
-471,474	-50,767	-0,061	-0,021
-470,459	800,000	0,023	-0,064
-469,445	800,000	0,027	-0,085
-468,430	334,975	0,034	0,048
-467,416	-200,000	-0,001	-0,063
-466,401	296,670	0,088	0,120
-465,386	82,364	-0,069	0,055
-464,372	800,000	-0,014	-0,038
-463,357	-144,107	0,051	-0,004
-462,343	-200,000	-0,022	-0,089
-461,328	-200,000	-0,001	0,101
-460,313	-134,443	-0,119	-0,011
-459,299	-200,000	0,030	0,156
-458,284	-57,498	0,087	-0,028
-457,270	479,173	0,093	0,155
-456,255	-200,000	-0,013	0,101
-455,241	-106,128	-0,109	0,018
-454,226	1,193	-0,171	0,090
-453,211	-200,000	0,002	-0,016
-452,197	121,848	0,096	0,088
-451,182	523,059	0,099	0,172
-450,168	275,796	0,030	-0,040
-449,153	800,000	-0,031	-0,096
-448,138	389,790	0,038	-0,058
-447,124	31,061	-0,054	-0,034
-446,109	111,507	0,014	0,012
-445,095	800,000	-0,019	0,046
-444,080	80,837	0,055	0,043
-443,065	-59,386	-0,118	0,037
-442,051	-114,359	-0,129	0,018
-441,036	-34,864	-0,042	-0,017
-440,022	191,928	0,065	0,072
-439,007	-113,394	0,167	-0,024
-437,992	-106,916	0,064	0,010
-436,978	-50,393	0,119	0,041
-435,963	34,581	-0,125	0,080
-434,949	543,623	-0,064	0,113
-433,934	-200,000	0,005	0,046
-432,919	-56,499	0,082	-0,027
-431,905	54,334	-0,096	-0,068
-430,890	-28,769	0,186	0,078
-429,876	-68,647	-0,128	-0,036
-428,861	31,644	-0,010	-0,007
-427,846	-200,000	0,017	0,153
-426,832	-59,650	-0,052	0,016
-425,817	455,693	-0,014	0,024
-424,803	-200,000	-0,001	-0,011
-423,788	24,668	0,106	-0,065
-422,773	800,000	-0,022	0,058
-421,759	-133,501	0,063	-0,006
-420,744	68,598	-0,062	-0,047
-419,730	292,650	-0,061	-0,082
-418,715	-200,000	0,012	-0,054
-417,701	800,000	-0,042	0,091
-416,686	213,600	0,084	0,098
-415,671	662,374	-0,066	0,125
-414,657	-200,000	-0,003	-0,083
-413,642	135,868	0,030	0,029
-412,628	230,516	-0,014	-0,017
-411,613	42,593	-0,107	-0,072
-410,598	-67,935	-0,098	-0,028
-409,584	800,000	-0,020	-0,046
-408,569	478,639	0,028	0,046
-407,555	800,000	-0,039	0,118
-406,540	772,465	0,020	0,041
-405,525	-169,250	-0,036	0,001
-404,511	-200,000	0,005	-0,076
-403,496	800,000	-0,010	-0,024
-402,482	58,906	0,040	-0,029
-401,467	800,000	-0,054	-0,110
-400,452	-110,536	-0,101	-0,015
-399,438	-128,122	0,030	-0,003
-398,423	800,000	0,020	0,060
-397,409	-116,652	-0,051	0,007
-396,394	-200,000	0,006	0,087
-395,379	34,096	0,157	-0,100
-394,365	-9,209	0,053	-0,026
-393,350	-48,636	-0,086	0,030
-392,336	-1,148	-0,064	-0,033
-391,321	544,335	-0,010	0,018
-390,306	505,074	0,029	0,050
-389,292	-118,167	0,075	-0,010
-388,277	-200,000	0,014	-0,055
-387,263	-93,576	0,147	0,030
-386,248	800,000	0,042	0,111
-385,233	800,000	0,051	0,152
-384,219	139,201	-0,042	0,040
-383,204	41,212	-0,175	0,116
-382,190	-55,645	-0,108	-0,035
-381,175	-200,000	-0,001	-0,018
-380,160	-71,305	0,175	0,048
-379,146	81,883	-0,078	-0,062
-378,131	309,238	-0,057	0,079
-377,117	-200,000	-0,006	0,028
-376,102	148,230	0,063	-0,063
-375,088	68,213	0,199	-0,149
-374,073	436,092	-0,022	0,036
-373,058	800,000	-0,016	0,044
-372,044	628,242	0,041	-0,076
-371,029	-50,915	-0,031	0,011
-370,015	288,242	0,068	-0,090
-369,000	800,000	0,015	-0,048
-367,985	-200,000	0,035	-0,133
-366,971	-200,000	-0,023	0,162
-365,956	-20,658	0,080	0,036
-364,942	20,759	0,071	0,042
-363,927	800,000	0,062	0,198
-362,912	12,618	-0,123	-0,069
-361,898	800,000	0,038	0,092
-360,883	-44,636	0,059	0,022
-359,869	450,073	-0,023	-0,037
-358,854	800,000	-0,064	-0,150
-357,839	-104,801	0,066	-0,011
-356,825	800,000	0,035	0,093
-355,810	-38,767	0,013	0,005
-354,796	58,887	0,043	0,031
-353,781	49,956	-0,085	-0,059
-352,766	-161,251	-0,099	-0,004
-351,752	16,974	-0,080	-0,046
-350,737	5,696	0,106	0,057
-349,723	49,994	0,075	0,052
-348,708	800,000	0,089	0,182
-347,693	176,418	-0,040	-0,043
-346,679	-6,576	-0,137	-0,068
-345,664	-200,000	0,021	-0,142
-344,650	-200,000	0,014	-0,070
-343,635	1,191	-0,047	0,025
-342,620	-119,303	0,149	-0,019
-341,606	-151,922	-0,112	0,006
-340,591	5,490	-0,085	0,046
-339,577	-141,025	0,039	-0,003
-338,562	47,992	-0,068	-0,046
-337,548	-132,309	0,100	0,009
-336,533	755,390	-0,047	-0,093
-335,518	800,000	0,040	0,120
-334,504	-200,000	-0,015	0,127
-333,489	-91,433	-0,039	-0,008
-332,475	-20,569	0,028	0,013
-331,460	312,244	0,015	-0,021
-330,445	-200,000	-0,005	0,057
-329,431	170,699	0,062	0,065
-328,416	-73,340	0,060	0,016
-327,402	50,947	-0,038	0,027
-326,387	194,459	-0,044	-0,049
-325,372	590,247	-0,044	-0,079
-324,358	-200,000	0,003	-0,021
-323,343	-200,000	0,006	0,093
-322,329	323,527	-0,032	-0,045
-321,314	-131,917	0,050	-0,005
-320,299	225,064	0,074	0,087
-319,285	-144,718	-0,158	-0,011
-318,270	13,752	-0,054	-0,031
-317,256	-3,378	-0,061	0,031
-316,241	-16,854	-0,046	-0,021
-315,226	-200,000	0,007	0,046
-314,212	146,802	0,085	-0,084
-313,197	73,271	0,068	0,052
-312,183	130,071	0,039	0,037
-311,168	800,000	-0,059	-0,124
-310,153	-125,816	-0,152	0,017
-309,139	169,654	0,135	-0,142
-308,124	338,775	0,032	0,046
-307,110	-200,000	0,036	0,258
-306,095	13,169	0,115	-0,065
-305,080	-200,000	0,001	0,032
-304,066	800,000	-0,046	0,107
-303,051	-200,000	0,009	-0,098
-302,037	-200,000	0,012	0,091
-301,022	280,901	0,039	-0,052
-300,008	-200,000	0,000	-0,045
-298,993	127,612	0,065	-0,060
-297,978	543,940	-0,030	-0,052
-296,964	226,540	-0,045	0,054
-295,949	-200,000	0,003	-0,053
-294,935	-188,100	-0,101	0,001
-293,920	-200,000	0,211	0,000
-292,905	-200,000	0,006	0,104
-291,891	30,094	-0,005	-0,003
-290,876	-200,000	0,002	-0,011
-289,862	-200,000	0,015	-0,093
-288,847	583,698	-0,048	-0,087
-287,832	30,218	0,095	-0,059
-286,818	-119,642	-0,029	0,004
-285,803	381,329	0,127	0,192
-284,789	-200,000	-0,015	-0,064
-283,774	685,790	0,042	0,080
-282,759	712,917	-0,080	0,156
-281,745	-200,000	-0,023	-0,095
-280,730	163,348	-0,037	-0,038
-279,716	-9,597	0,058	0,028
-278,701	800,000	-0,059	-0,175
-277,686	306,410	0,034	0,046
-276,672	11,864	0,065	-0,036
-275,657	-200,000	-0,019	-0,075
-274,643	72,201	0,131	-0,099
-273,628	99,723	-0,086	-0,073
-272,613	800,000	-0,011	-0,028
-271,599	800,000	0,056	-0,146
-270,584	-29,406	-0,131	0,055
-269,570	555,407	-0,057	0,100
-268,555	137,513	0,016	-0,016
-267,540	36,462	-0,076	-0,049
-266,526	-200,000	0,007	-0,064
-265,511	105,885	0,039	0,034
-264,497	391,458	0,050	0,076
-263,482	800,000	0,055	0,112
-262,467	66,553	0,046	-0,034
-261,453	-200,000	-0,004	-0,083
-260,438	-78,844	0,081	0,020
-259,424	657,086	0,055	-0,105
-258,409	63,200	0,077	-0,057
-257,395	55,135	0,094	-0,066
-256,380	-200,000	-0,002	-0,032
-255,365	98,311	0,010	0,008
-254,351	-116,485	0,054	-0,007
-253,336	-181,938	-0,118	0,002
-252,322	-65,679	0,133	0,039
-251,307	-39,344	-0,058	-0,022
-250,292	61,232	0,124	0,090
-249,278	299,806	-0,026	0,035
-248,263	800,000	0,017	0,046
-247,249	193,716	0,066	0,074
-246,234	-9,945	0,170	0,082
-245,219	11,656	-0,039	-0,022
-244,205	311,027	-0,074	0,102
-243,190	19,674	-0,064	-0,037
-242,176	535,776	0,035	-0,061
-241,161	233,458	0,056	0,068
-240,146	138,105	-0,036	-0,035
-239,132	123,828	-0,029	0,027
-238,117	800,000	-0,084	0,194
-237,103	-200,000	-0,034	-0,129
-236,088	-122,196	-0,079	-0,009
-235,073	-108,004	-0,078	-0,012
-234,059	-200,000	0,037	0,128
-233,044	-65,394	0,142	-0,041
-232,030	-6,058	-0,107	-0,053
-231,015	21,301	-0,118	-0,070
-230,000	800,000	-0,015	-0,035
-228,986	-200,000	0,033	0,127
-227,971	800,000	0,046	-0,100
-226,957	-110,499	0,163	-0,024
-225,942	96,063	0,036	-0,030
-224,927	-148,227	0,103	0,006
-223,913	800,000	-0,044	-0,104
-222,898	-200,000	0,023	0,109
-221,884	-200,000	0,011	-0,053
-220,869	-83,914	0,038	-0,009
-219,855	121,904	-0,031	-0,029
-218,840	387,286	-0,033	-0,050
-217,825	-73,387	0,047	-0,012
-216,811	800,000	0,027	-0,063
-215,796	-127,509	-0,081	-0,008
-214,782	-117,015	-0,073	-0,010
-213,767	-200,000	0,027	-0,092
-212,752	102,382	-0,040	-0,034
-211,738	-200,000	-0,010	0,093
-210,723	-69,856	-0,052	-0,014
-209,709	-200,000	0,013	0,110
-208,694	514,293	-0,072	-0,123
-207,679	-49,490	0,095	-0,033
-206,665	-200,000	0,001	0,105
-205,650	117,649	-0,081	-0,072
-204,636	-5,450	0,065	-0,032
-203,621	401,142	-0,025	0,039
-202,606	800,000	-0,028	0,061
-201,592	-31,580	-0,126	0,051
-200,577	7,986	-0,029	-0,016
-199,563	16,927	-0,025	0,014
-198,548	-98,778	0,072	0,013
-197,533	-116,271	0,210	0,028
-196,519	-145,251	0,108	0,007
-195,504	249,215	0,115	-0,143
-194,490	28,774	0,067	-0,041
-193,475	800,000	0,023	-0,063
-192,460	-200,000	0,018	-0,140
-191,446	-200,000	0,007	0,134
-190,431	-200,000	0,029	-0,111
-189,417	106,251	-0,113	0,097
-188,402	333,142	-0,065	-0,092
-187,387	124,799	-0,068	-0,062
-186,373	209,462	-0,145	-0,166
-185,358	-200,000	0,018	-0,088
-184,344	-33,447	-0,051	0,020
-183,329	50,984	0,047	-0,032
-182,315	800,000	0,057	0,127
-181,300	367,626	-0,059	0,087
-180,285	26,714	0,027	-0,016
-179,271	38,647	-0,101	-0,065
-178,256	724,087	0,062	0,121
-177,242	-149,867	-0,149	-0,008
-176,227	-7,694	0,118	0,058
-175,212	670,758	-0,047	0,089
-174,198	-52,581	0,074	0,025
-173,183	713,802	-0,068	-0,132
-172,169	126,481	0,061	0,056
-171,154	550,825	-0,052	-0,092
-170,139	-26,091	0,104	0,044
-169,125	-200,000	-0,024	0,077
-168,110	-97,076	-0,150	-0,028
-167,096	-200,000	0,000	0,069
-166,081	2,288	-0,071	-0,037
-165,066	800,000	-0,032	-0,088
-164,052	5,868	-0,078	-0,042
-163,037	29,548	0,157	-0,097
-162,023	800,000	-0,040	0,102
-161,008	-22,409	-0,043	-0,019
-159,993	455,262	0,045	0,073
-158,979	614,140	-0,066	0,121
-157,964	-5,938	-0,143	-0,071
-156,950	147,679	0,014	0,014
-155,935	124,916	-0,106	-0,098
-154,920	-200,000	0,050	0,000
-153,906	655,929	0,074	0,139
-152,891	800,000	0,041	0,090
-151,877	384,198	-0,029	-0,044
-150,862	-200,000	0,009	-0,054
-149,847	-48,023	0,156	-0,055
-148,833	59,072	-0,112	0,080
-147,818	-36,685	0,135	0,052
-146,804	800,000	0,068	-0,175
-145,789	-134,624	0,154	0,013
-144,775	-71,473	0,044	-0,012
-143,760	158,756	0,032	0,032
-142,745	800,000	0,040	-0,118
-141,731	-200,000	-0,004	0,013
-140,716	-200,000	-0,025	-0,080
-139,702	-3,008	0,109	-0,055
-138,687	800,000	0,031	-0,088
-137,672	-158,337	-0,062	0,003
-136,658	800,000	-0,007	-0,020
-135,643	206,044	-0,089	-0,101
-134,629	61,876	-0,039	0,029
-133,614	-200,000	0,009	0,030
-132,599	20,421	0,058	-0,034
-131,585	128,428	0,034	-0,032
-130,570	574,621	-0,061	0,108
-129,556	-200,000	0,005	-0,088
-128,541	800,000	0,029	-0,087
-127,526	-200,000	-0,001	-0,059
-126,512	165,145	-0,013	0,013
-125,497	152,488	0,047	0,046
-124,483	397,141	0,123	0,187
-123,468	-87,077	0,053	0,012
-122,453	-166,145	-0,059	-0,002
-121,439	505,837	-0,036	-0,062
-120,424	14,788	-0,093	-0,053
-119,410	461,178	-0,058	-0,095
