DTS Sentinel unit serial number:	SN410029Multiplexer serial number:	ORYXHardware model number:	OX2-SRSoftware version number:	ORYX F/W v4,00 Oryx Data Collector v3.7.2.0data status	okinstallation	B6 Nyhavnadifferential loss correction	single-endedforward channel	channel 2reverse channel	N/Adate	2023/12/07time	23:40:08forward acquisition time	300,00reverse acquisition time	0,00gamma	499,1914k internal	0,3165k external	0,3165temperature offset calibration	1,0000default loss term (dB/km)	0,3820temperature slope calibration	1,0000multiplexer offset coefficient	1,0000multiplexer slope coefficient	1,0000fibre end	0,00T internal ref (°C)	13,44T ext. ref 1 (°C)	-3,49T ext. ref 2 (°C)	-3,48length (m)	temperature (°C)	Stokes	anti-Stokes-744,400	-25,150	-0,011	0,005
-743,385	12,784	-0,250	0,141
-742,371	59,434	0,123	0,089
-741,356	-119,397	-0,253	0,032
-740,342	800,000	-0,060	0,130
-739,327	-48,575	-0,220	-0,078
-738,312	-33,279	0,134	0,054
-737,298	-29,839	-0,286	-0,119
-736,283	-141,724	0,236	0,017
-735,269	97,345	-0,248	-0,210
-734,254	-82,081	0,022	0,005
-733,239	-70,445	-0,586	-0,162
-732,225	-88,572	0,225	0,049
-731,210	32,514	0,083	0,052
-730,196	551,917	-0,037	-0,066
-729,181	263,135	0,056	0,072
-728,167	800,000	0,025	0,064
-727,152	195,607	0,089	-0,100
-726,137	21,103	-0,098	0,058
-725,123	-155,628	-0,144	-0,007
-724,108	-118,975	-0,098	-0,013
-723,094	91,925	0,075	-0,062
-722,079	12,478	-0,160	-0,091
-721,064	205,134	-0,030	0,034
-720,050	-194,892	0,040	0,000
-719,035	-127,915	0,080	0,008
-718,021	-200,000	0,003	-0,030
-717,006	61,327	-0,109	-0,080
-715,991	-200,000	-0,043	-0,200
-714,977	-200,000	-0,020	-0,120
-713,962	-72,145	0,043	0,012
-712,948	-200,000	-0,005	-0,125
-711,933	32,496	0,056	-0,036
-710,918	-200,000	0,013	-0,145
-709,904	25,868	-0,102	0,062
-708,889	-200,000	-0,026	-0,091
-707,875	135,290	-0,020	0,019
-706,860	9,388	0,109	0,060
-705,845	800,000	0,042	-0,104
-704,831	-200,000	-0,006	0,031
-703,816	-64,426	-0,052	-0,016
-702,802	-177,616	0,060	-0,001
-701,787	612,280	-0,064	-0,118
-700,772	-45,900	-0,057	0,021
-699,758	-91,457	0,132	-0,028
-698,743	800,000	-0,051	-0,104
-697,729	143,172	-0,035	-0,034
-696,714	147,620	-0,043	-0,042
-695,699	-29,236	-0,037	0,015
-694,685	-200,000	0,005	-0,151
-693,670	305,519	-0,047	0,064
-692,656	-83,215	-0,045	0,011
-691,641	-200,000	0,005	0,028
-690,627	96,081	0,130	0,109
-689,612	-49,999	0,031	-0,011
-688,597	119,396	-0,038	0,035
-687,583	-200,000	-0,001	-0,069
-686,568	-200,000	0,005	0,042
-685,554	-193,482	-0,034	-0,000
-684,539	67,398	0,071	-0,053
-683,524	45,762	-0,030	0,020
-682,510	-200,000	-0,030	-0,162
-681,495	49,343	-0,265	-0,183
-680,481	163,574	0,080	-0,083
-679,466	92,767	-0,083	-0,069
-678,451	226,586	0,011	0,013
-677,437	-148,550	-0,079	0,005
-676,422	-200,000	-0,005	0,030
-675,408	-200,000	-0,008	-0,032
-674,393	-200,000	-0,043	-0,174
-673,378	-107,706	-0,041	-0,006
-672,364	18,789	-0,085	-0,050
-671,349	-111,518	0,086	0,013
-670,335	-38,095	-0,108	-0,042
-669,320	-200,000	-0,001	0,098
-668,305	-132,616	0,021	-0,002
-667,291	-187,900	-0,036	0,000
-666,276	289,602	0,019	-0,025
-665,262	460,809	-0,070	-0,114
-664,247	172,412	-0,082	0,086
-663,232	-30,253	-0,038	0,016
-662,218	106,322	0,218	0,190
-661,203	137,652	0,071	-0,068
-660,189	640,832	-0,019	-0,035
-659,174	99,741	-0,144	0,122
-658,159	-200,000	-0,000	0,011
-657,145	-157,472	-0,125	0,005
-656,130	-200,000	-0,006	0,074
-655,116	-38,381	0,061	0,024
-654,101	-148,154	0,095	-0,006
-653,086	241,462	0,028	0,034
-652,072	800,000	-0,049	-0,130
-651,057	-50,839	0,040	0,014
-650,043	-98,381	-0,033	0,006
-649,028	443,819	-0,076	0,122
-648,014	21,373	0,039	0,023
-646,999	-78,620	-0,058	0,014
-645,984	-200,000	-0,012	0,156
-644,970	-183,456	-0,017	-0,000
-643,955	-76,426	0,064	-0,016
-642,941	-126,312	-0,150	-0,016
-641,926	800,000	0,034	-0,102
-640,911	29,142	-0,004	-0,003
-639,897	800,000	-0,024	0,077
-638,882	800,000	0,047	0,146
-637,868	-101,292	0,069	0,012
-636,853	108,074	0,068	-0,059
-635,838	58,620	-0,034	0,025
-634,824	-200,000	0,020	0,115
-633,809	206,170	0,103	0,118
-632,795	-200,000	0,003	0,152
-631,780	73,559	0,065	0,050
-630,765	-72,169	-0,084	-0,023
-629,751	-193,161	-0,073	0,000
-628,736	583,042	-0,074	-0,133
-627,722	-126,323	-0,173	-0,019
-626,707	800,000	0,010	0,022
-625,692	-200,000	0,014	0,115
-624,678	800,000	0,036	0,103
-623,663	800,000	-0,003	0,008
-622,649	495,053	-0,056	-0,094
-621,634	800,000	-0,048	-0,144
-620,619	117,474	-0,084	0,075
-619,605	103,648	0,033	-0,029
-618,590	105,928	-0,035	-0,030
-617,576	507,503	-0,067	-0,114
-616,561	6,798	0,047	0,025
-615,546	-200,000	-0,022	0,143
-614,532	13,290	0,061	0,035
-613,517	-105,798	-0,061	-0,010
-612,503	638,514	0,038	-0,072
-611,488	190,620	0,071	-0,078
-610,474	103,874	-0,039	-0,033
-609,459	17,943	-0,056	0,033
-608,444	544,127	-0,048	-0,084
-607,430	800,000	-0,042	0,099
-606,415	-163,915	0,071	-0,002
-605,401	290,509	0,073	-0,097
-604,386	353,149	-0,057	0,083
-603,371	800,000	-0,079	0,174
-602,357	51,323	0,109	-0,075
-601,342	-16,180	-0,040	0,018
-600,328	-200,000	0,024	-0,110
-599,313	-200,000	0,028	-0,122
-598,298	800,000	-0,030	-0,072
-597,284	628,247	0,045	0,083
-596,269	402,917	0,081	0,125
-595,255	800,000	-0,033	0,095
-594,240	286,434	-0,107	0,141
-593,225	-200,000	0,020	-0,125
-592,211	413,408	-0,052	-0,081
-591,196	321,033	0,110	-0,153
-590,182	-200,000	-0,026	-0,087
-589,167	-156,038	0,068	-0,003
-588,152	800,000	-0,017	0,044
-587,138	-82,313	-0,135	0,032
-586,123	-179,054	-0,027	-0,000
-585,109	-200,000	-0,003	-0,027
-584,094	-200,000	0,013	0,044
-583,079	-153,318	0,114	-0,006
-582,065	26,118	-0,116	-0,071
-581,050	-109,827	0,099	-0,015
-580,036	-200,000	-0,028	-0,099
-579,021	32,882	-0,135	-0,085
-578,006	-200,000	-0,036	-0,214
-576,992	-200,000	0,017	-0,078
-575,977	-121,234	0,180	0,022
-574,963	-200,000	-0,028	0,124
-573,948	23,752	-0,065	0,039
-572,934	63,992	0,072	-0,053
-571,919	-48,702	-0,156	-0,054
-570,904	-200,000	-0,029	-0,169
-569,890	-200,000	0,011	0,059
-568,875	800,000	-0,032	-0,101
-567,861	129,072	-0,023	-0,021
-566,846	388,041	-0,021	-0,032
-565,831	-200,000	0,002	-0,038
-564,817	187,555	0,080	0,088
-563,802	-55,112	0,086	0,028
-562,788	41,909	-0,123	-0,082
-561,773	89,413	0,027	0,022
-560,758	65,063	0,073	0,054
-559,744	80,266	-0,076	0,060
-558,729	714,404	0,018	0,036
-557,715	92,132	-0,046	-0,038
-556,700	-200,000	-0,022	0,087
-555,685	16,502	-0,085	-0,049
-554,671	-200,000	0,010	0,049
-553,656	-29,529	-0,100	-0,041
-552,642	800,000	0,043	0,122
-551,627	800,000	0,020	0,046
-550,612	796,900	-0,016	-0,033
-549,598	800,000	-0,050	-0,160
-548,583	-100,068	-0,095	0,017
-547,569	800,000	-0,015	0,043
-546,554	-200,000	0,011	-0,074
-545,539	528,285	-0,017	0,029
-544,525	753,662	-0,037	0,074
-543,510	-200,000	-0,007	0,094
-542,496	205,480	-0,104	-0,118
-541,481	407,823	-0,064	-0,099
-540,466	-200,000	0,040	0,195
-539,452	-73,197	0,109	-0,029
-538,437	800,000	0,013	0,037
-537,423	-162,522	-0,061	0,002
-536,408	215,107	-0,079	-0,091
-535,393	2,219	-0,073	-0,038
-534,379	152,929	0,064	0,064
-533,364	-200,000	0,004	0,065
-532,350	-200,000	-0,001	-0,048
-531,335	-94,390	0,074	-0,015
-530,321	164,711	-0,131	0,135
-529,306	-95,305	0,097	0,019
-528,291	-200,000	0,037	-0,188
-527,277	800,000	-0,031	-0,092
-526,262	219,813	0,065	-0,076
-525,248	-200,000	0,017	-0,119
-524,233	800,000	-0,049	0,126
-523,218	-200,000	-0,001	0,076
-522,204	126,418	0,089	0,082
-521,189	21,060	-0,042	0,025
-520,175	-103,952	0,013	-0,002
-519,160	-200,000	0,011	-0,042
-518,145	-66,704	0,078	-0,022
-517,131	276,342	0,106	0,137
-516,116	7,798	0,034	0,019
-515,102	800,000	-0,051	-0,120
-514,087	800,000	-0,025	-0,077
-513,072	498,177	-0,070	-0,118
-512,058	29,871	0,073	-0,045
-511,043	800,000	-0,053	-0,144
-510,029	-32,359	-0,139	-0,056
-509,014	-65,375	0,103	0,030
-507,999	238,635	-0,062	0,076
-506,985	-200,000	-0,003	-0,025
-505,970	800,000	0,028	0,059
-504,956	546,922	0,068	0,119
-503,941	436,029	0,080	0,127
-502,926	147,102	0,079	-0,077
-501,912	-119,436	-0,049	0,006
-500,897	148,801	-0,106	0,105
-499,883	129,021	-0,065	0,061
-498,868	242,181	0,024	-0,030
-497,853	304,010	0,044	-0,060
-496,839	-200,000	-0,002	-0,137
-495,824	-200,000	0,015	0,134
-494,810	-78,427	0,007	0,002
-493,795	-182,984	0,087	0,001
-492,781	-88,057	0,062	0,014
-491,766	-64,565	-0,169	-0,050
-490,751	49,002	0,045	-0,031
-489,737	74,044	-0,114	0,087
-488,722	-6,195	0,133	0,066
-487,708	-116,663	-0,063	-0,008
-486,693	53,921	-0,019	-0,014
-485,678	384,837	-0,012	0,018
-484,664	143,967	-0,069	-0,067
-483,649	403,061	-0,100	-0,154
-482,635	333,653	0,041	-0,058
-481,620	-106,904	0,138	0,022
-480,605	800,000	0,019	0,060
-479,591	84,378	0,037	-0,029
-478,576	-200,000	-0,035	0,161
-477,562	-108,724	0,051	-0,008
-476,547	109,215	-0,056	0,049
-475,532	-98,986	-0,037	0,007
-474,518	-200,000	0,007	0,028
-473,503	800,000	0,041	0,094
-472,489	201,695	0,102	0,114
-471,474	-200,000	-0,027	-0,218
-470,459	-200,000	-0,039	-0,141
-469,445	-200,000	0,003	-0,054
-468,430	-129,328	0,133	0,013
-467,416	161,704	-0,028	-0,028
-466,401	53,966	-0,092	0,065
-465,386	626,236	0,052	0,095
-464,372	-37,929	-0,224	-0,086
-463,357	286,546	0,039	-0,051
-462,343	-137,486	0,056	0,005
-461,328	-200,000	0,024	0,080
-460,313	656,655	0,017	0,032
-459,299	356,513	0,139	0,202
-458,284	-35,700	0,020	-0,008
-457,270	-119,603	0,097	0,012
-456,255	31,157	-0,159	-0,099
-455,241	-102,287	-0,065	-0,011
-454,226	-88,270	0,096	-0,021
-453,211	-44,021	-0,124	-0,045
-452,197	-15,138	0,017	0,008
-451,182	-200,000	0,020	0,071
-450,168	-5,425	0,042	-0,021
-449,153	246,441	0,073	0,090
-448,138	-150,576	-0,168	0,009
-447,124	12,027	-0,058	-0,032
-446,109	99,023	-0,108	0,091
-445,095	800,000	0,076	0,160
-444,080	72,264	0,152	-0,115
-443,065	-200,000	-0,020	0,075
-442,051	211,971	-0,065	-0,075
-441,036	31,344	0,030	0,018
-440,022	-27,458	-0,147	0,062
-439,007	364,548	0,027	0,039
-437,992	-127,936	0,150	0,015
-436,978	614,239	-0,043	-0,079
-435,963	800,000	-0,014	-0,041
-434,949	516,731	0,074	-0,126
-433,934	-200,000	-0,023	-0,111
-432,919	-142,379	-0,186	-0,013
-431,905	800,000	0,003	0,008
-430,890	2,298	-0,004	0,002
-429,876	611,501	0,045	0,083
-428,861	800,000	0,008	0,018
-427,846	800,000	-0,012	-0,028
-426,832	276,749	-0,089	-0,115
-425,817	800,000	-0,016	-0,038
-424,803	800,000	0,033	-0,092
-423,788	89,901	0,057	0,046
-422,773	-137,585	0,070	0,006
-421,759	-200,000	0,001	0,021
-420,744	-200,000	-0,002	0,012
-419,730	-200,000	0,002	0,020
-418,715	99,314	-0,078	0,065
-417,701	-200,000	-0,011	-0,119
-416,686	12,134	-0,103	0,058
-415,671	-200,000	0,008	-0,135
-414,657	74,366	0,068	-0,052
-413,642	88,272	0,042	0,034
-412,628	100,845	-0,088	-0,074
-411,613	-165,209	0,062	-0,002
-410,598	-2,734	-0,131	-0,066
-409,584	-111,820	0,113	0,016
-408,569	292,643	0,034	0,045
-407,555	-200,000	0,003	0,053
-406,540	800,000	0,011	-0,031
-405,525	28,459	-0,096	0,059
-404,511	-200,000	0,017	-0,122
-403,496	5,046	0,119	-0,063
-402,482	-200,000	-0,016	0,057
-401,467	83,052	0,112	0,088
-400,452	144,014	-0,075	-0,073
-399,438	-200,000	-0,001	-0,039
-398,423	-56,985	-0,093	0,030
-397,409	537,639	-0,031	-0,054
-396,394	-200,000	0,024	-0,102
-395,379	-95,106	0,086	0,017
-394,365	-200,000	-0,003	0,127
-393,350	126,427	0,024	0,022
-392,336	-152,717	0,069	0,003
-391,321	800,000	0,014	-0,033
-390,306	-63,571	0,072	-0,021
-389,292	319,565	0,061	-0,084
-388,277	-100,492	0,164	0,029
-387,263	372,494	-0,032	-0,047
-386,248	-200,000	-0,005	0,060
-385,233	-108,072	0,175	-0,027
-384,219	14,755	-0,086	-0,049
-383,204	78,089	0,055	0,042
-382,190	-56,538	0,081	-0,026
-381,175	-121,049	0,032	0,004
-380,160	107,881	-0,078	0,068
-379,146	-200,000	0,040	0,141
-378,131	48,018	0,039	-0,026
-377,117	193,878	-0,037	0,040
-376,102	95,125	0,018	0,015
-375,088	-121,906	-0,199	0,023
-374,073	14,528	0,021	0,012
-373,058	-200,000	0,132	-0,000
-372,044	367,649	0,065	0,095
-371,029	800,000	0,036	0,106
-370,015	-99,574	0,041	0,007
-369,000	-99,205	-0,128	-0,023
-367,985	800,000	0,032	-0,072
-366,971	-14,500	-0,127	-0,059
-365,956	-200,000	0,007	0,063
-364,942	742,910	0,035	-0,069
-363,927	20,653	0,104	0,061
-362,912	-102,730	-0,092	0,016
-361,898	-46,943	-0,107	0,038
-360,883	135,641	-0,102	0,096
-359,869	703,903	-0,012	0,024
-358,854	107,134	0,059	0,051
-357,839	175,006	0,060	0,063
-356,825	800,000	0,020	-0,055
-355,810	140,595	-0,068	-0,065
-354,796	-200,000	0,016	-0,064
-353,781	800,000	-0,031	0,081
-352,766	320,068	0,010	-0,014
-351,752	-200,000	0,005	-0,107
-350,737	-43,148	0,043	-0,016
-349,723	91,565	0,025	-0,020
-348,708	800,000	-0,013	0,036
-347,693	401,757	-0,070	-0,107
-346,679	800,000	0,063	-0,151
-345,664	-200,000	0,030	-0,112
-344,650	30,932	0,124	-0,077
-343,635	-139,490	-0,072	-0,005
-342,620	-200,000	0,012	0,053
-341,606	-59,308	0,050	0,015
-340,591	192,398	0,069	0,076
-339,577	7,140	-0,088	-0,047
-338,562	88,234	-0,067	-0,053
-337,548	-200,000	0,015	0,124
-336,533	-5,446	0,125	-0,062
-335,518	-200,000	-0,020	0,114
-334,504	411,343	-0,064	0,099
-333,489	-113,836	0,084	0,012
-332,475	55,894	0,030	0,021
-331,460	-73,107	0,043	-0,011
-330,445	800,000	0,003	0,011
-329,431	-200,000	0,005	-0,087
-328,416	-200,000	0,028	0,136
-327,402	3,408	0,062	0,032
-326,387	-200,000	0,025	-0,174
-325,372	-200,000	0,003	0,104
-324,358	-200,000	-0,017	0,062
-323,343	-200,000	0,007	-0,108
-322,329	800,000	0,029	0,068
-321,314	539,329	0,076	0,131
-320,299	81,412	-0,051	-0,040
-319,285	800,000	0,017	0,039
-318,270	161,798	-0,069	0,070
-317,256	800,000	0,025	-0,065
-316,241	13,398	0,094	-0,052
-315,226	-200,000	0,003	0,026
-314,212	-120,944	0,026	-0,003
-313,197	800,000	-0,030	0,076
-312,183	283,819	0,092	0,120
-311,168	39,826	-0,139	-0,090
-310,153	36,012	-0,068	-0,044
-309,139	91,406	-0,099	-0,080
-308,124	36,962	-0,048	0,030
-307,110	156,823	0,145	0,145
-306,095	145,826	0,089	0,086
-305,080	479,280	0,043	0,071
-304,066	-12,085	0,068	0,032
-303,051	-200,000	0,071	-0,230
-302,037	111,299	-0,078	0,068
-301,022	-17,848	-0,050	0,022
-300,008	-172,568	0,145	-0,003
-298,993	-82,256	0,076	0,018
-297,978	122,173	0,050	0,045
-296,964	600,080	0,062	0,112
-295,949	245,675	0,040	0,048
-294,935	-200,000	-0,008	-0,085
-293,920	161,178	-0,065	-0,066
-292,905	726,355	0,052	0,100
-291,891	542,045	-0,025	-0,043
-290,876	648,123	0,056	0,103
-289,862	-200,000	-0,029	0,104
-288,847	-200,000	0,036	0,194
-287,832	-149,369	0,044	-0,002
-286,818	265,216	0,105	0,132
-285,803	-200,000	-0,002	-0,062
-284,789	452,572	-0,068	0,110
-283,774	-200,000	0,028	0,126
-282,759	-200,000	-0,007	0,063
-281,745	338,956	-0,112	-0,159
-280,730	-154,080	0,097	0,005
-279,716	108,476	-0,073	-0,063
-278,701	119,470	0,015	0,014
-277,686	-47,650	0,180	0,063
-276,672	-46,450	0,089	-0,032
-275,657	191,986	-0,075	-0,082
-274,643	12,867	-0,201	-0,112
-273,628	800,000	-0,034	-0,093
-272,613	312,912	-0,054	0,074
-271,599	-85,692	0,144	0,032
-270,584	800,000	-0,037	-0,102
-269,570	79,098	0,064	0,049
-268,555	-99,727	0,073	-0,013
-267,540	-138,564	-0,151	0,012
-266,526	-127,031	0,047	0,005
-265,511	800,000	-0,019	-0,040
-264,497	149,977	0,048	0,047
-263,482	-200,000	0,006	-0,085
-262,467	-167,235	0,099	0,003
-261,453	-200,000	-0,001	0,105
-260,438	-200,000	-0,025	-0,133
-259,424	-200,000	-0,018	0,115
-258,409	800,000	0,028	-0,061
-257,395	247,217	0,074	0,091
-256,380	102,363	-0,039	-0,033
-255,365	589,358	0,060	0,107
-254,351	671,929	-0,055	-0,103
-253,336	419,772	0,097	-0,151
-252,322	305,394	-0,076	-0,102
-251,307	-200,000	0,021	-0,088
-250,292	248,822	-0,067	-0,082
-249,278	-128,688	-0,079	-0,008
-248,263	-55,243	0,114	-0,037
-247,249	33,324	-0,069	0,043
-246,234	446,791	0,045	0,071
-245,219	-13,216	0,044	-0,020
-244,205	272,475	-0,057	-0,072
-243,190	-0,513	-0,093	0,047
-242,176	164,297	0,071	-0,072
-241,161	-200,000	-0,009	0,053
-240,146	327,882	0,062	0,086
-239,132	800,000	-0,031	0,062
-238,117	515,794	-0,105	0,178
-237,103	212,722	-0,040	-0,046
-236,088	-200,000	-0,002	0,034
-235,073	463,985	-0,042	0,069
-234,059	-150,918	0,198	0,011
-233,044	-200,000	0,005	0,032
-232,030	-40,118	-0,100	-0,037
-231,015	-179,885	0,143	-0,002
-230,000	-200,000	-0,000	-0,072
-228,986	271,009	-0,117	0,149
-227,971	-68,075	-0,092	0,026
-226,957	-200,000	0,049	0,195
-225,942	-83,463	-0,103	-0,024
-224,927	-93,209	0,085	0,017
-223,913	800,000	-0,022	-0,047
-222,898	100,764	-0,075	0,063
-221,884	50,433	-0,124	0,084
-220,869	-85,564	0,089	0,020
-219,855	800,000	0,044	0,133
-218,840	231,927	0,064	0,076
-217,825	47,314	-0,091	-0,061
-216,811	789,241	-0,034	-0,067
-215,796	-46,224	0,071	-0,025
-214,782	309,812	-0,056	-0,076
-213,767	-111,699	0,076	-0,011
-212,752	-31,589	0,150	0,061
-211,738	-200,000	-0,005	-0,075
-210,723	6,489	-0,051	-0,027
-209,709	-200,000	-0,002	-0,035
-208,694	301,526	-0,138	-0,184
-207,679	-200,000	-0,029	-0,112
-206,665	-28,754	0,072	0,030
-205,650	-200,000	-0,049	0,184
-204,636	10,111	0,038	-0,021
-203,621	19,243	0,063	0,036
-202,606	-106,650	0,068	0,011
-201,592	-21,679	-0,030	-0,013
-200,577	184,986	-0,135	-0,144
-199,563	46,695	0,099	-0,066
-198,548	45,988	-0,034	0,023
-197,533	-200,000	-0,002	-0,118
-196,519	-174,992	-0,094	0,002
-195,504	800,000	0,037	-0,085
-194,490	1,835	0,057	0,029
-193,475	-200,000	0,014	-0,080
-192,460	-200,000	-0,029	-0,113
-191,446	27,922	0,041	0,025
-190,431	260,896	0,061	-0,076
-189,417	45,158	0,128	-0,085
-188,402	-64,822	-0,018	-0,005
-187,387	132,384	0,043	-0,040
-186,373	33,373	-0,023	-0,014
-185,358	206,483	-0,054	-0,060
-184,344	273,731	-0,037	-0,047
-183,329	-31,304	-0,079	-0,032
-182,315	163,587	0,010	0,010
-181,300	-200,000	0,003	-0,118
-180,285	127,991	-0,041	-0,038
-179,271	-31,959	-0,058	0,023
-178,256	365,111	0,048	-0,070
-177,242	800,000	0,013	0,041
-176,227	730,174	-0,060	0,117
-175,212	800,000	0,005	-0,012
-174,198	385,204	-0,017	-0,025
-173,183	46,912	-0,080	0,054
-172,169	800,000	-0,026	0,062
-171,154	800,000	0,034	-0,082
-170,139	28,191	0,061	0,037
-169,125	-7,316	-0,091	0,044
-168,110	29,563	0,128	0,078
-167,096	-105,996	0,050	0,008
-166,081	216,356	-0,125	0,143
-165,066	-63,567	-0,121	-0,036
-164,052	-30,967	-0,141	-0,057
-163,037	-122,196	-0,102	-0,012
-162,023	468,917	-0,054	-0,088
-161,008	-36,539	-0,067	-0,026
-159,993	-75,826	0,114	0,029
-158,979	272,246	0,075	-0,095
-157,964	19,513	-0,106	-0,061
-156,950	160,895	-0,065	-0,065
-155,935	-200,000	0,001	0,135
-154,920	290,915	0,034	-0,044
-153,906	-90,751	0,104	-0,021
-152,891	-200,000	0,005	0,055
-151,877	800,000	0,003	-0,007
-150,862	800,000	0,044	-0,113
-149,847	33,257	-0,107	0,067
-148,833	-112,441	-0,059	0,008
-147,818	-23,855	0,095	0,041
-146,804	-200,000	0,027	0,203
-145,789	547,922	-0,027	0,046
-144,775	-80,269	-0,056	-0,013
-143,760	-77,827	0,070	0,017
-142,745	-200,000	-0,011	-0,078
-141,731	141,186	-0,069	-0,065
-140,716	-24,591	-0,079	0,034
-139,702	150,636	-0,103	0,101
-138,687	-200,000	-0,038	0,143
-137,672	10,309	-0,080	0,044
-136,658	-200,000	0,035	-0,126
-135,643	-104,799	-0,073	0,012
-134,629	-200,000	-0,037	-0,125
-133,614	-200,000	0,048	0,186
-132,599	473,195	0,015	-0,025
-131,585	761,923	0,050	0,098
-130,570	475,697	0,020	-0,032
-129,556	800,000	0,026	-0,062
-128,541	-112,397	-0,199	0,028
-127,526	-60,524	-0,060	0,018
-126,512	800,000	-0,025	-0,071
-125,497	401,531	-0,040	0,060
-124,483	593,537	0,050	-0,090
-123,468	-200,000	0,014	-0,200
-122,453	-105,055	-0,155	-0,025
-121,439	0,086	-0,052	-0,027
-120,424	-200,000	0,014	0,045
-119,410	320,451	0,019	0,026
-118,395	-200,000	0,015	-0,054
