DTS Sentinel unit serial number:	SN410029Multiplexer serial number:	ORYXHardware model number:	OX2-SRSoftware version number:	ORYX F/W v4,00 Oryx Data Collector v3.7.2.0data status	okinstallation	B6 Nyhavnadifferential loss correction	single-endedforward channel	channel 2reverse channel	N/Adate	2023/12/09time	22:35:08forward acquisition time	300,00reverse acquisition time	0,00gamma	499,1914k internal	0,3127k external	0,3127temperature offset calibration	1,0000default loss term (dB/km)	0,3820temperature slope calibration	1,0000multiplexer offset coefficient	1,0000multiplexer slope coefficient	1,0000fibre end	0,00T internal ref (°C)	21,68T ext. ref 1 (°C)	5,42T ext. ref 2 (°C)	5,41length (m)	temperature (°C)	Stokes	anti-Stokes-744,400	-108,104	-0,007	-0,001
-743,385	103,226	-0,205	0,179
-742,371	12,260	0,084	0,048
-741,356	-1,593	-0,206	0,108
-740,342	33,511	-0,054	-0,035
-739,327	-49,448	-0,410	0,145
-738,312	800,000	-0,022	0,056
-737,298	45,976	-0,148	0,102
-736,283	-200,000	0,000	0,033
-735,269	38,285	-0,201	0,133
-734,254	800,000	-0,049	0,111
-733,239	-64,526	-0,288	-0,087
-732,225	-24,072	0,143	0,063
-731,210	684,588	-0,058	0,113
-730,196	-149,140	0,083	0,005
-729,181	-200,000	-0,030	0,171
-728,167	-104,450	-0,074	-0,013
-727,152	800,000	-0,037	-0,085
-726,137	132,206	-0,059	-0,056
-725,123	182,818	-0,023	0,025
-724,108	68,876	-0,120	-0,091
-723,094	800,000	0,041	-0,126
-722,079	47,904	-0,187	-0,130
-721,064	-30,187	-0,019	-0,008
-720,050	-200,000	-0,009	-0,325
-719,035	-4,400	-0,110	0,056
-718,021	-200,000	-0,012	0,126
-717,006	800,000	0,030	-0,076
-715,991	104,733	-0,204	-0,179
-714,977	-200,000	-0,010	-0,039
-713,962	-3,059	0,080	0,041
-712,948	-114,271	-0,076	0,011
-711,933	-31,965	0,121	0,050
-710,918	531,348	-0,042	0,075
-709,904	-200,000	0,003	-0,120
-708,889	65,936	-0,058	-0,043
-707,875	-79,535	-0,083	-0,021
-706,860	-58,686	0,098	-0,031
-705,845	214,816	-0,049	-0,058
-704,831	-200,000	-0,008	-0,081
-703,816	-5,845	-0,111	0,056
-702,802	177,186	-0,044	-0,048
-701,787	83,035	0,125	0,101
-700,772	800,000	0,010	-0,022
-699,758	-127,729	-0,092	0,010
-698,743	800,000	-0,063	-0,196
-697,729	-142,919	-0,091	-0,006
-696,714	85,737	0,162	-0,133
-695,699	800,000	-0,041	0,088
-694,685	335,725	-0,013	0,019
-693,670	403,491	-0,059	-0,093
-692,656	211,508	0,055	-0,064
-691,641	-51,844	-0,063	-0,022
-690,627	-91,400	0,068	0,014
-689,612	438,138	-0,025	0,040
-688,597	800,000	-0,018	-0,056
-687,583	25,181	-0,034	-0,021
-686,568	33,099	-0,138	0,089
-685,554	-38,972	-0,014	-0,005
-684,539	-160,920	0,063	-0,002
-683,524	-200,000	0,023	0,079
-682,510	800,000	-0,012	-0,031
-681,495	-98,292	0,168	0,032
-680,481	800,000	0,024	-0,078
-679,466	-42,920	-0,112	-0,042
-678,451	-200,000	0,000	-0,082
-677,437	800,000	-0,015	-0,041
-676,422	134,369	0,091	0,088
-675,408	-105,657	-0,144	-0,024
-674,393	-200,000	-0,011	-0,186
-673,378	-200,000	-0,011	-0,079
-672,364	23,913	0,090	-0,055
-671,349	158,758	0,045	-0,047
-670,335	155,617	0,046	0,047
-669,320	-121,003	-0,103	-0,013
-668,305	352,839	-0,067	0,099
-667,291	-200,000	-0,002	0,062
-666,276	-33,866	-0,096	-0,039
-665,262	800,000	-0,086	-0,193
-664,247	-76,090	-0,012	-0,003
-663,232	800,000	0,023	-0,048
-662,218	-99,392	-0,233	0,043
-661,203	800,000	-0,037	0,107
-660,189	169,994	-0,073	0,078
-659,174	633,532	-0,052	-0,097
-658,159	81,823	-0,013	0,011
-657,145	-137,304	-0,105	0,009
-656,130	31,626	0,048	0,030
-655,116	318,756	0,064	0,090
-654,101	-106,435	0,085	-0,014
-653,086	91,352	-0,073	-0,061
-652,072	307,202	-0,057	0,080
-651,057	112,831	-0,032	-0,029
-650,043	36,886	0,062	-0,040
-649,028	-200,000	0,018	0,059
-648,014	-200,000	0,009	0,051
-646,999	800,000	-0,050	-0,132
-645,984	-103,381	0,077	0,013
-644,970	-200,000	0,010	-0,209
-643,955	-50,277	-0,021	0,007
-642,941	-2,122	-0,109	0,057
-641,926	154,137	-0,054	0,055
-640,911	-200,000	0,003	-0,076
-639,897	73,617	0,079	-0,061
-638,882	40,663	0,055	-0,037
-637,868	800,000	0,062	-0,130
-636,853	78,022	-0,114	0,090
-635,838	656,253	-0,017	-0,032
-634,824	42,286	-0,056	-0,038
-633,809	165,941	-0,088	0,093
-632,795	104,112	-0,028	-0,025
-631,780	1,722	-0,144	0,077
-630,765	40,024	0,134	0,089
-629,751	59,044	-0,072	-0,053
-628,736	-51,161	-0,116	0,040
-627,722	-63,984	0,103	-0,031
-626,707	-52,242	0,085	0,029
-625,692	93,258	-0,051	0,043
-624,678	-200,000	-0,009	-0,052
-623,663	207,885	-0,048	0,055
-622,649	-200,000	0,002	-0,207
-621,634	-112,348	-0,016	0,002
-620,619	292,509	-0,029	-0,039
-619,605	409,506	0,036	-0,056
-618,590	-145,971	-0,068	-0,004
-617,576	800,000	-0,051	-0,117
-616,561	-200,000	0,050	-0,190
-615,546	331,222	-0,118	-0,169
-614,532	-103,461	-0,080	-0,014
-613,517	159,165	-0,130	0,134
-612,503	-200,000	0,013	0,075
-611,488	800,000	0,041	0,104
-610,474	29,158	-0,091	0,057
-609,459	-200,000	-0,019	-0,127
-608,444	273,412	-0,077	-0,101
-607,430	480,456	-0,027	-0,045
-606,415	800,000	-0,055	-0,168
-605,401	-139,357	-0,121	0,009
-604,386	94,001	0,098	0,082
-603,371	-21,633	0,077	0,035
-602,357	58,418	-0,079	0,057
-601,342	-200,000	0,003	-0,119
-600,328	65,000	0,052	-0,039
-599,313	-128,086	-0,149	-0,016
-598,298	-4,824	-0,159	-0,081
-597,284	-15,519	0,084	-0,040
-596,269	-97,482	0,094	-0,018
-595,255	800,000	0,032	0,103
-594,240	643,841	-0,038	0,073
-593,225	-200,000	-0,017	-0,072
-592,211	-200,000	0,006	-0,126
-591,196	23,606	-0,029	-0,018
-590,182	-200,000	0,029	0,168
-589,167	440,025	0,073	0,119
-588,152	800,000	0,030	-0,081
-587,138	-8,182	0,057	0,028
-586,123	-63,366	-0,069	0,021
-585,109	-49,370	-0,108	0,038
-584,094	-200,000	-0,008	-0,060
-583,079	-200,000	-0,007	-0,041
-582,065	-200,000	-0,002	0,072
-581,050	-34,081	-0,016	0,007
-580,036	-57,881	-0,161	-0,052
-579,021	-19,431	-0,011	0,005
-578,006	-53,245	-0,103	0,035
-576,992	146,587	-0,168	-0,167
-575,977	-148,676	-0,035	-0,002
-574,963	800,000	-0,091	0,190
-573,948	158,017	0,131	0,134
-572,934	757,437	-0,070	0,141
-571,919	167,135	-0,080	0,084
-570,904	521,030	0,019	-0,033
-569,890	800,000	0,053	-0,113
-568,875	31,091	0,046	0,029
-567,861	-200,000	-0,043	0,143
-566,846	-147,978	0,040	0,002
-565,831	-158,409	-0,059	-0,002
-564,817	-200,000	-0,006	0,113
-563,802	308,288	-0,038	0,053
-562,788	800,000	-0,059	-0,138
-561,773	-59,727	-0,071	-0,022
-560,758	-200,000	0,031	-0,131
-559,744	-200,000	0,013	-0,044
-558,729	-200,000	-0,016	-0,084
-557,715	407,209	0,043	-0,067
-556,700	-200,000	0,012	-0,109
-555,685	264,849	0,095	0,122
-554,671	-200,000	0,016	0,134
-553,656	-200,000	0,012	0,122
-552,642	-170,478	0,135	0,003
-551,627	-72,567	0,059	-0,016
-550,612	193,988	-0,083	0,093
-549,598	-200,000	-0,027	-0,125
-548,583	218,858	0,044	-0,052
-547,569	-200,000	0,000	-0,062
-546,554	356,442	0,061	0,090
-545,539	-171,227	-0,044	-0,001
-544,525	-101,694	-0,083	-0,015
-543,510	679,376	0,036	-0,070
-542,496	306,572	-0,068	-0,094
-541,481	136,114	-0,077	0,074
-540,466	-152,952	0,111	-0,006
-539,452	473,456	-0,008	0,014
-538,437	41,853	0,025	0,017
-537,423	29,667	-0,108	-0,068
-536,408	2,222	-0,061	0,033
-535,393	-72,770	-0,082	-0,022
-534,379	722,795	0,055	0,109
-533,364	-200,000	-0,001	-0,153
-532,350	-114,763	0,096	0,013
-531,335	107,330	0,120	-0,105
-530,321	140,410	0,026	0,026
-529,306	161,070	-0,042	0,043
-528,291	-145,232	-0,078	0,005
-527,277	157,253	-0,076	-0,078
-526,262	-200,000	-0,009	-0,103
-525,248	-121,895	-0,122	-0,015
-524,233	63,510	0,143	0,106
-523,218	279,330	0,017	0,023
-522,204	-64,166	0,076	0,023
-521,189	175,879	-0,068	0,073
-520,175	766,541	-0,091	-0,184
-519,160	220,010	0,087	-0,103
-518,145	-59,696	0,106	-0,033
-517,131	72,709	0,078	-0,060
-516,116	-32,467	-0,129	0,053
-515,102	800,000	0,023	-0,064
-514,087	113,645	0,058	-0,052
-513,072	90,497	0,067	0,055
-512,058	800,000	0,025	-0,052
-511,043	-150,858	0,053	-0,003
-510,029	-88,705	-0,069	-0,015
-509,014	752,654	0,042	0,084
-507,999	800,000	-0,047	-0,124
-506,985	800,000	-0,069	0,170
-505,970	800,000	-0,064	-0,149
-504,956	211,475	0,055	-0,064
-503,941	-80,154	-0,052	-0,013
-502,926	-200,000	-0,000	-0,049
-501,912	413,416	0,064	0,100
-500,897	-117,988	0,074	-0,010
-499,883	-200,000	-0,009	0,153
-498,868	-200,000	-0,000	-0,030
-497,853	152,185	-0,080	-0,081
-496,839	369,281	0,012	0,018
-495,824	800,000	0,020	0,061
-494,810	394,851	0,057	-0,088
-493,795	-200,000	0,011	0,112
-492,781	-120,148	-0,152	0,019
-491,766	36,303	-0,074	-0,048
-490,751	143,549	0,022	0,021
-489,737	184,058	0,026	-0,028
-488,722	-97,390	0,131	-0,025
-487,708	-200,000	-0,002	0,072
-486,693	183,650	0,057	0,063
-485,678	800,000	-0,053	0,127
-484,664	14,436	0,042	0,024
-483,649	800,000	0,014	-0,034
-482,635	244,719	0,111	-0,138
-481,620	-200,000	-0,006	-0,125
-480,605	-14,271	-0,057	0,027
-479,591	-200,000	0,022	-0,091
-478,576	411,955	0,056	0,088
-477,562	-37,279	0,085	0,033
-476,547	-52,046	-0,076	-0,026
-475,532	126,686	0,016	0,015
-474,518	-200,000	-0,001	0,033
-473,503	-31,173	-0,041	0,017
-472,489	19,141	-0,060	0,035
-471,474	-200,000	-0,003	0,114
-470,459	39,064	-0,100	0,066
-469,445	800,000	0,046	-0,102
-468,430	131,892	0,026	0,025
-467,416	-200,000	-0,021	-0,071
-466,401	192,178	0,103	0,115
-465,386	-117,530	0,018	-0,002
-464,372	-169,820	0,117	0,003
-463,357	0,169	-0,151	0,079
-462,343	55,842	-0,154	0,110
-461,328	51,581	-0,078	-0,054
-460,313	800,000	0,036	0,093
-459,299	470,262	0,035	0,058
-458,284	800,000	0,008	0,024
-457,270	-200,000	0,013	0,067
-456,255	678,706	0,026	0,050
-455,241	213,438	-0,049	0,057
-454,226	-200,000	0,031	-0,107
-453,211	28,842	0,044	-0,028
-452,197	483,155	0,136	0,228
-451,182	-70,944	0,046	-0,013
-450,168	121,284	-0,094	-0,086
-449,153	-23,143	-0,105	-0,046
-448,138	-105,882	0,152	-0,025
-447,124	800,000	0,033	-0,076
-446,109	800,000	-0,027	-0,085
-445,095	171,335	-0,029	-0,030
-444,080	-24,798	0,021	-0,009
-443,065	-200,000	-0,026	0,130
-442,051	-200,000	-0,004	-0,029
-441,036	543,303	-0,037	-0,064
-440,022	-133,150	-0,136	-0,013
-439,007	800,000	0,100	-0,250
-437,992	9,166	-0,050	-0,028
-436,978	800,000	0,026	0,078
-435,963	800,000	-0,042	-0,101
-434,949	-200,000	0,064	0,211
-433,934	24,516	-0,091	0,055
-432,919	20,388	0,071	0,042
-431,905	-24,867	-0,086	0,037
-430,890	-57,233	-0,037	-0,012
-429,876	-200,000	0,010	0,049
-428,861	800,000	-0,036	-0,105
-427,846	800,000	-0,046	-0,101
-426,832	-200,000	0,034	-0,150
-425,817	51,664	-0,019	-0,014
-424,803	43,784	0,049	0,033
-423,788	223,392	0,036	0,043
-422,773	-200,000	-0,029	0,134
-421,759	678,760	-0,024	0,047
-420,744	27,075	-0,020	-0,012
-419,730	-137,306	-0,121	-0,010
-418,715	38,871	0,034	0,022
-417,701	-17,098	-0,040	-0,019
-416,686	67,620	0,114	0,086
-415,671	132,729	0,060	0,057
-414,657	52,809	0,107	0,075
-413,642	140,208	-0,009	-0,009
-412,628	260,316	-0,029	-0,037
-411,613	-75,239	-0,099	-0,026
-410,598	32,739	0,129	-0,082
-409,584	800,000	-0,019	0,045
-408,569	-200,000	-0,008	0,045
-407,555	227,131	0,030	0,036
-406,540	697,668	-0,011	-0,022
-405,525	15,794	-0,086	-0,049
-404,511	39,568	0,022	0,015
-403,496	-32,580	-0,042	-0,017
-402,482	301,316	-0,101	-0,137
-401,467	-97,039	0,095	0,018
-400,452	-200,000	0,008	0,099
-399,438	475,834	0,061	-0,102
-398,423	-200,000	-0,029	-0,155
-397,409	800,000	0,016	0,041
-396,394	525,356	0,004	0,007
-395,379	319,769	-0,053	0,074
-394,365	287,880	0,124	0,165
-393,350	-200,000	0,020	0,082
-392,336	-200,000	-0,014	-0,057
-391,321	800,000	0,010	-0,022
-390,306	-90,383	-0,031	0,007
-389,292	-21,897	-0,088	-0,039
-388,277	216,823	-0,073	-0,085
-387,263	65,617	0,033	-0,025
-386,248	800,000	-0,009	0,024
-385,233	800,000	-0,009	0,020
-384,219	28,508	-0,037	-0,023
-383,204	7,071	-0,076	0,042
-382,190	113,602	-0,083	-0,074
-381,175	90,624	-0,036	-0,030
-380,160	-23,014	0,100	0,044
-379,146	116,261	-0,033	-0,029
-378,131	-200,000	-0,015	0,092
-377,117	-200,000	0,017	0,055
-376,102	399,185	-0,032	-0,049
-375,088	800,000	0,012	0,025
-374,073	50,947	0,039	0,027
-373,058	-178,557	0,098	0,002
-372,044	188,526	0,071	0,078
-371,029	-10,165	0,025	-0,012
-370,015	-200,000	-0,007	-0,131
-369,000	800,000	0,021	-0,061
-367,985	-69,332	0,092	-0,026
-366,971	256,067	-0,068	0,085
-365,956	28,596	0,100	-0,062
-364,942	52,992	0,146	-0,102
-363,927	-200,000	0,034	0,114
-362,912	-101,896	-0,076	-0,013
-361,898	-126,040	-0,098	-0,011
-360,883	167,881	0,104	-0,108
-359,869	-6,258	-0,121	0,060
-358,854	159,360	-0,024	0,024
-357,839	23,863	-0,036	0,022
-356,825	800,000	0,021	0,054
-355,810	92,214	0,065	0,053
-354,796	-200,000	-0,005	0,037
-353,781	269,384	-0,127	-0,163
-352,766	-200,000	0,012	0,090
-351,752	359,286	-0,093	0,137
-350,737	-200,000	0,020	0,135
-349,723	720,401	0,025	0,049
-348,708	-121,707	0,015	-0,002
-347,693	-45,623	-0,178	0,064
-346,679	630,330	-0,078	0,145
-345,664	15,236	-0,068	-0,039
-344,650	-109,783	0,074	0,011
-343,635	-200,000	0,028	0,294
-342,620	34,665	-0,085	-0,055
-341,606	-151,479	0,082	-0,004
-340,591	-200,000	-0,023	0,082
-339,577	-50,717	-0,152	0,052
-338,562	-150,559	-0,071	0,004
-337,548	518,499	0,081	0,139
-336,533	684,263	-0,043	0,083
-335,518	57,261	0,129	0,092
-334,504	-129,596	0,039	0,004
-333,489	-200,000	0,008	0,028
-332,475	-67,218	-0,169	0,048
-331,460	24,930	0,081	-0,049
-330,445	-200,000	0,009	0,046
-329,431	-200,000	0,023	-0,101
-328,416	12,310	0,032	0,018
-327,402	800,000	-0,028	0,075
-326,387	-119,544	0,069	-0,009
-325,372	-70,038	-0,209	-0,058
-324,358	-116,873	0,139	-0,018
-323,343	-59,733	-0,032	0,010
-322,329	30,352	-0,079	-0,049
-321,314	-30,942	-0,020	-0,008
-320,299	128,252	0,039	-0,037
-319,285	113,801	0,057	-0,051
-318,270	-120,451	0,083	0,010
-317,256	800,000	-0,041	-0,093
-316,241	-97,020	0,133	-0,025
-315,226	194,950	0,103	0,115
-314,212	-63,804	-0,099	0,029
-313,197	110,784	0,065	0,057
-312,183	155,848	0,016	-0,016
-311,168	-48,234	0,133	-0,047
-310,153	-200,000	-0,004	-0,050
-309,139	-55,738	0,045	-0,015
-308,124	-17,819	-0,072	0,033
-307,110	-50,803	0,016	-0,005
-306,095	265,882	-0,021	-0,027
-305,080	-131,456	0,088	0,008
-304,066	-68,047	0,085	0,024
-303,051	-200,000	-0,005	0,088
-302,037	342,517	0,051	-0,073
-301,022	-200,000	0,010	-0,136
-300,008	173,552	0,132	0,140
-298,993	220,538	-0,060	0,071
-297,978	211,010	-0,070	0,081
-296,964	-157,236	0,113	0,005
-295,949	-200,000	0,001	-0,155
-294,935	-200,000	-0,004	-0,032
-293,920	-36,498	-0,111	-0,044
-292,905	213,014	0,116	-0,135
-291,891	211,148	-0,058	0,067
-290,876	-200,000	0,002	0,050
-289,862	271,176	0,020	-0,026
-288,847	212,178	0,024	-0,027
-287,832	314,029	0,068	-0,094
-286,818	133,391	0,028	-0,027
-285,803	317,607	0,090	0,124
-284,789	-39,711	-0,024	0,009
-283,774	118,497	-0,097	-0,087
-282,759	-200,000	-0,005	-0,018
-281,745	576,474	0,076	0,136
-280,730	800,000	-0,018	0,045
-279,716	-200,000	0,010	-0,094
-278,701	78,222	-0,040	0,031
-277,686	800,000	0,025	0,059
-276,672	-200,000	0,003	0,017
-275,657	137,809	-0,057	0,055
-274,643	-92,748	-0,077	-0,016
-273,628	577,718	0,031	0,055
-272,613	-178,295	0,042	-0,001
-271,599	94,898	0,034	0,028
-270,584	-200,000	0,009	-0,049
-269,570	176,713	-0,028	-0,030
-268,555	-26,706	-0,200	-0,085
-267,540	800,000	-0,017	0,053
-266,526	-200,000	0,044	0,189
-265,511	201,839	0,050	0,057
-264,497	55,476	0,072	-0,051
-263,482	-200,000	-0,006	0,125
-262,467	800,000	-0,029	-0,076
-261,453	486,542	0,019	-0,033
-260,438	23,919	0,064	-0,038
-259,424	-169,528	0,054	0,001
-258,409	-200,000	0,009	-0,067
-257,395	67,349	0,057	0,043
-256,380	-200,000	0,015	0,093
-255,365	-54,889	0,073	-0,024
-254,351	80,234	0,060	-0,047
-253,336	-200,000	-0,013	-0,101
-252,322	10,872	-0,031	-0,017
-251,307	-53,773	0,137	-0,045
-250,292	-200,000	-0,018	0,092
-249,278	97,118	0,046	0,038
-248,263	733,674	-0,004	0,008
-247,249	301,148	0,104	-0,141
-246,234	-74,064	-0,040	-0,010
-245,219	-200,000	-0,003	0,029
-244,205	-90,082	0,101	0,021
-243,190	314,602	-0,073	-0,101
-242,176	65,792	-0,090	0,066
-241,161	227,235	0,075	0,089
-240,146	714,583	0,042	-0,082
-239,132	800,000	-0,052	-0,134
-238,117	57,800	-0,050	0,036
-237,103	28,485	0,065	-0,040
-236,088	722,618	0,026	0,051
-235,073	-41,202	0,062	-0,023
-234,059	-39,713	0,158	-0,060
-233,044	-200,000	-0,011	-0,047
-232,030	270,144	-0,024	-0,031
-231,015	-200,000	0,027	0,101
-230,000	800,000	-0,021	-0,046
-228,986	800,000	-0,048	-0,114
-227,971	-200,000	0,016	-0,077
-226,957	324,679	0,066	0,092
-225,942	-200,000	0,043	0,147
-224,927	-54,778	-0,058	0,019
-223,913	-200,000	0,024	-0,082
-222,898	-118,287	-0,039	-0,005
-221,884	-73,699	-0,084	0,022
-220,869	-185,383	0,070	0,001
-219,855	-61,362	0,015	0,005
-218,840	756,762	0,047	0,092
-217,825	294,960	0,071	-0,095
-216,811	375,608	0,064	0,095
-215,796	-200,000	0,004	-0,150
-214,782	624,896	-0,039	0,073
-213,767	-110,696	-0,100	0,015
-212,752	-200,000	-0,009	0,080
-211,738	800,000	0,035	0,082
-210,723	724,548	0,070	-0,137
-209,709	-187,586	-0,063	-0,001
-208,694	-6,359	-0,041	0,020
-207,679	-48,775	0,128	-0,045
-206,665	-137,132	0,096	0,008
-205,650	-161,984	0,058	-0,002
-204,636	-200,000	0,005	-0,027
-203,621	800,000	-0,008	-0,023
-202,606	800,000	0,023	-0,068
-201,592	-200,000	-0,033	-0,119
-200,577	-200,000	0,037	0,137
-199,563	289,107	0,032	0,042
-198,548	-0,509	-0,030	0,015
-197,533	340,896	0,072	-0,102
-196,519	447,028	0,017	-0,028
-195,504	39,889	-0,064	-0,042
-194,490	67,664	-0,126	-0,093
-193,475	126,137	-0,107	-0,099
-192,460	-124,075	0,107	-0,012
-191,446	280,162	0,018	0,023
-190,431	-50,877	-0,049	0,017
-189,417	-200,000	0,001	0,095
-188,402	-9,009	0,033	0,016
-187,387	-67,939	-0,087	0,025
-186,373	-200,000	0,025	-0,082
-185,358	1,970	0,084	-0,044
-184,344	800,000	0,032	-0,095
-183,329	72,997	0,092	0,070
-182,315	50,862	-0,138	0,095
-181,300	149,720	0,149	0,148
-180,285	-142,679	-0,011	-0,001
-179,271	-200,000	0,019	-0,096
-178,256	-200,000	-0,009	-0,069
-177,242	-200,000	-0,017	-0,059
-176,227	-112,055	0,065	-0,009
-175,212	800,000	0,014	0,035
-174,198	174,583	0,064	-0,068
-173,183	302,523	0,009	0,012
-172,169	800,000	0,056	-0,117
-171,154	436,039	-0,078	-0,124
-170,139	-94,160	0,114	0,022
-169,125	728,429	0,029	0,056
-168,110	-200,000	0,004	0,047
-167,096	200,041	0,091	0,101
-166,081	224,092	-0,107	0,126
-165,066	800,000	0,031	-0,084
-164,052	116,050	-0,076	-0,068
-163,037	-120,732	0,053	0,006
-162,023	-43,615	0,111	0,041
-161,008	477,590	-0,119	0,197
-159,993	359,016	-0,037	0,054
-158,979	250,576	-0,038	0,048
-157,964	-134,805	-0,133	0,012
-156,950	-200,000	0,019	-0,076
-155,935	-163,865	0,091	0,003
-154,920	201,792	-0,046	0,051
-153,906	800,000	-0,019	-0,061
-152,891	-173,383	-0,038	-0,001
-151,877	164,536	-0,099	-0,102
-150,862	-85,013	0,105	-0,024
-149,847	268,727	0,059	0,076
-148,833	-24,407	0,102	0,044
-147,818	-200,000	-0,025	0,116
-146,804	670,027	-0,005	0,010
-145,789	236,247	0,031	0,038
-144,775	407,623	-0,034	-0,053
-143,760	373,910	0,066	-0,098
-142,745	-200,000	-0,010	-0,151
-141,731	445,221	-0,055	-0,087
-140,716	131,679	0,065	0,061
-139,702	800,000	-0,028	0,073
-138,687	90,897	0,078	0,063
-137,672	-12,041	-0,045	-0,022
-136,658	161,949	-0,136	-0,138
-135,643	-59,127	0,076	-0,024
-134,629	-200,000	-0,008	0,149
-133,614	800,000	-0,041	0,109
-132,599	-7,009	-0,043	0,021
-131,585	-10,009	0,089	-0,043
-130,570	800,000	0,022	-0,057
-129,556	-76,013	-0,062	0,016
-128,541	575,539	-0,072	-0,127
-127,526	40,628	0,079	-0,052
-126,512	656,646	0,024	-0,045
-125,497	-82,903	0,107	-0,025
-124,483	-171,249	0,115	-0,003
-123,468	800,000	0,020	-0,050
-122,453	-200,000	-0,009	0,030
-121,439	145,569	0,044	-0,043
-120,424	531,401	0,079	-0,136
-119,410	73,366	-0,076	0,057
