DTS Sentinel unit serial number:	SN410029Multiplexer serial number:	ORYXHardware model number:	OX2-SRSoftware version number:	ORYX F/W v4,00 Oryx Data Collector v3.7.2.0data status	okinstallation	B6 Nyhavnadifferential loss correction	single-endedforward channel	channel 2reverse channel	N/Adate	2023/12/10time	01:30:08forward acquisition time	300,00reverse acquisition time	0,00gamma	499,1914k internal	0,3125k external	0,3125temperature offset calibration	1,0000default loss term (dB/km)	0,3820temperature slope calibration	1,0000multiplexer offset coefficient	1,0000multiplexer slope coefficient	1,0000fibre end	0,00T internal ref (°C)	21,92T ext. ref 1 (°C)	5,69T ext. ref 2 (°C)	5,70length (m)	temperature (°C)	Stokes	anti-Stokes-744,400	-200,000	0,037	-0,196
-743,385	-78,567	-0,263	-0,066
-742,371	-97,237	0,155	-0,030
-741,356	-77,089	-0,205	0,053
-740,342	-124,788	0,099	0,011
-739,327	88,553	-0,164	0,135
-738,312	800,000	0,062	-0,134
-737,298	-86,294	-0,260	-0,059
-736,283	-200,000	0,002	-0,101
-735,269	-48,719	-0,181	0,064
-734,254	0,305	-0,082	-0,044
-733,239	-198,957	-0,428	-0,002
-732,225	-200,000	0,010	0,077
-731,210	492,404	-0,031	-0,054
-730,196	93,157	-0,053	-0,044
-729,181	-137,839	-0,085	-0,007
-728,167	419,831	-0,048	-0,077
-727,152	234,545	-0,067	-0,082
-726,137	-91,699	-0,145	0,030
-725,123	-19,466	-0,139	0,064
-724,108	800,000	0,038	0,097
-723,094	174,138	-0,100	-0,108
-722,079	577,416	-0,034	-0,063
-721,064	690,688	-0,049	-0,096
-720,050	482,003	-0,040	0,069
-719,035	18,470	-0,071	0,042
-718,021	-24,420	-0,099	-0,044
-717,006	616,576	-0,056	-0,105
-715,991	57,278	-0,127	-0,092
-714,977	-16,076	-0,068	-0,032
-713,962	256,512	-0,069	-0,088
-712,948	800,000	-0,008	-0,024
-711,933	-88,208	0,098	-0,022
-710,918	-118,841	-0,083	-0,011
-709,904	-60,573	0,054	0,017
-708,889	-200,000	0,012	0,047
-707,875	271,536	-0,052	-0,069
-706,860	787,904	0,007	-0,014
-705,845	-118,506	0,081	0,011
-704,831	-59,637	-0,049	0,015
-703,816	175,230	0,043	0,047
-702,802	-200,000	-0,017	-0,159
-701,787	800,000	0,084	-0,261
-700,772	34,012	-0,009	-0,006
-699,758	147,870	-0,093	0,093
-698,743	70,741	0,062	0,048
-697,729	800,000	-0,007	0,021
-696,714	516,495	-0,068	-0,118
-695,699	50,486	-0,060	-0,042
-694,685	-15,587	-0,167	0,079
-693,670	315,846	-0,063	-0,089
-692,656	14,525	-0,161	-0,093
-691,641	277,333	-0,027	0,036
-690,627	800,000	0,052	0,123
-689,612	-18,129	-0,036	0,017
-688,597	-124,223	-0,170	0,020
-687,583	-94,526	-0,071	-0,014
-686,568	-171,895	-0,047	0,001
-685,554	-200,000	0,013	-0,098
-684,539	-132,757	0,237	-0,022
-683,524	-66,320	0,075	-0,022
-682,510	-121,527	0,064	0,008
-681,495	31,975	-0,083	-0,053
-680,481	471,168	0,081	0,136
-679,466	-38,445	-0,083	-0,032
-678,451	-66,299	0,118	-0,035
-677,437	-200,000	-0,023	0,077
-676,422	-194,875	-0,027	0,000
-675,408	-145,329	-0,066	0,004
-674,393	320,408	-0,061	0,086
-673,378	143,715	0,054	-0,053
-672,364	-200,000	-0,007	-0,051
-671,349	156,629	-0,019	0,020
-670,335	-200,000	0,002	-0,050
-669,320	-95,493	-0,196	-0,039
-668,305	-200,000	0,004	0,135
-667,291	-200,000	0,003	0,067
-666,276	-124,812	-0,138	0,016
-665,262	50,103	-0,074	0,052
-664,247	-47,410	0,113	0,041
-663,232	-137,640	-0,158	-0,013
-662,218	74,310	-0,090	0,070
-661,203	-200,000	0,009	0,113
-660,189	356,591	-0,108	0,161
-659,174	564,456	-0,012	-0,021
-658,159	800,000	0,085	-0,213
-657,145	10,223	-0,178	0,100
-656,130	84,567	0,057	-0,046
-655,116	-102,533	-0,044	-0,008
-654,101	98,593	-0,080	-0,068
-653,086	62,399	-0,071	-0,053
-652,072	27,289	-0,047	0,029
-651,057	37,908	-0,067	0,044
-650,043	-200,000	-0,018	0,070
-649,028	-200,000	-0,013	0,052
-648,014	-200,000	0,004	-0,114
-646,999	800,000	0,024	-0,071
-645,984	-145,882	0,066	-0,004
-644,970	-200,000	-0,022	-0,076
-643,955	298,789	-0,128	-0,176
-642,941	-165,750	0,045	0,001
-641,926	800,000	0,046	-0,118
-640,911	133,538	0,026	0,025
-639,897	-200,000	0,013	0,052
-638,882	-80,816	0,078	-0,019
-637,868	-28,504	0,074	-0,031
-636,853	131,789	-0,065	-0,063
-635,838	442,205	0,007	-0,012
-634,824	589,114	0,031	-0,056
-633,809	-26,896	0,088	0,038
-632,795	-60,002	-0,029	0,009
-631,780	-102,828	0,161	-0,028
-630,765	-84,915	0,035	-0,008
-629,751	159,943	-0,096	-0,099
-628,736	79,191	-0,079	-0,063
-627,722	133,314	-0,138	-0,133
-626,707	299,875	-0,051	-0,070
-625,692	800,000	0,059	-0,171
-624,678	467,632	-0,051	-0,085
-623,663	-200,000	0,000	-0,044
-622,649	481,732	-0,042	-0,071
-621,634	65,667	-0,058	-0,043
-620,619	-105,310	0,086	-0,014
-619,605	80,221	0,054	0,043
-618,590	44,984	0,116	0,079
-617,576	800,000	0,053	0,159
-616,561	-200,000	-0,000	0,155
-615,546	68,446	-0,022	0,017
-614,532	-200,000	0,005	0,024
-613,517	-104,757	-0,042	0,007
-612,503	-200,000	-0,007	0,126
-611,488	-200,000	0,016	0,098
-610,474	-95,032	-0,067	0,013
-609,459	449,568	0,039	-0,065
-608,444	197,664	0,056	-0,064
-607,430	-47,350	-0,076	-0,027
-606,415	203,001	-0,103	-0,119
-605,401	-200,000	0,017	-0,121
-604,386	779,951	0,082	-0,167
-603,371	-91,375	-0,073	0,015
-602,357	-74,931	-0,119	0,031
-601,342	800,000	-0,081	-0,166
-600,328	-200,000	-0,029	-0,171
-599,313	99,893	-0,131	-0,113
-598,298	406,957	0,048	-0,075
-597,284	37,200	0,042	0,028
-596,269	607,625	-0,018	-0,034
-595,255	-200,000	-0,004	0,257
-594,240	-200,000	-0,000	-0,026
-593,225	48,255	-0,089	0,062
-592,211	800,000	0,040	0,083
-591,196	-200,000	-0,001	0,037
-590,182	800,000	0,041	-0,096
-589,167	-47,188	0,087	-0,031
-588,152	-28,640	-0,060	0,025
-587,138	191,194	-0,068	0,076
-586,123	-134,721	-0,152	0,014
-585,109	88,737	-0,059	0,049
-584,094	-200,000	-0,010	-0,039
-583,079	304,033	-0,069	0,095
-582,065	-10,892	0,107	0,052
-581,050	-200,000	-0,018	-0,150
-580,036	-61,147	-0,177	-0,055
-579,021	-78,956	0,045	0,011
-578,006	209,034	0,100	-0,116
-576,992	48,524	-0,065	0,045
-575,977	-48,504	-0,080	-0,028
-574,963	800,000	0,013	-0,038
-573,948	-200,000	0,003	-0,057
-572,934	-97,464	0,041	-0,008
-571,919	-200,000	-0,022	-0,080
-570,904	-200,000	-0,009	-0,147
-569,890	314,931	-0,030	-0,042
-568,875	-134,943	0,127	-0,011
-567,861	-15,476	-0,029	-0,013
-566,846	16,018	0,041	0,024
-565,831	146,854	-0,143	-0,142
-564,817	112,356	-0,092	0,083
-563,802	-19,676	-0,045	0,021
-562,788	-200,000	-0,045	-0,201
-561,773	-200,000	-0,005	-0,063
-560,758	321,421	0,055	-0,078
-559,744	800,000	0,027	0,089
-558,729	267,867	0,095	-0,123
-557,715	-11,053	-0,183	0,089
-556,700	800,000	0,023	0,072
-555,685	-86,547	-0,125	-0,028
-554,671	-81,618	0,081	0,019
-553,656	40,281	-0,054	-0,036
-552,642	-120,678	0,112	-0,014
-551,627	738,186	0,063	0,125
-550,612	800,000	-0,042	0,099
-549,598	785,875	-0,070	-0,143
-548,583	172,205	0,050	0,053
-547,569	725,507	0,094	-0,186
-546,554	-132,795	0,149	0,014
-545,539	-200,000	0,005	0,058
-544,525	-38,355	0,047	0,018
-543,510	-77,105	-0,085	0,022
-542,496	0,264	-0,112	0,059
-541,481	-200,000	0,028	0,112
-540,466	-14,613	-0,136	0,065
-539,452	800,000	0,043	-0,110
-538,437	-102,322	0,167	0,029
-537,423	-103,590	0,027	-0,005
-536,408	-151,599	-0,314	0,017
-535,393	364,826	-0,048	-0,071
-534,379	-25,528	-0,140	-0,061
-533,364	-155,447	0,072	0,003
-532,350	-200,000	0,008	-0,143
-531,335	-93,620	-0,039	-0,008
-530,321	192,544	-0,021	0,024
-529,306	-118,334	-0,098	0,013
-528,291	800,000	0,018	-0,053
-527,277	-121,482	-0,142	0,017
-526,262	-200,000	-0,015	-0,110
-525,248	255,154	0,034	-0,043
-524,233	-101,362	0,063	0,011
-523,218	489,413	-0,081	0,137
-522,204	-88,269	-0,082	0,018
-521,189	-112,084	0,027	0,004
-520,175	457,567	0,033	-0,054
-519,160	-40,256	-0,050	-0,019
-518,145	373,229	-0,042	0,063
-517,131	800,000	0,014	-0,043
-516,116	534,407	-0,093	-0,163
-515,102	-200,000	-0,014	0,205
-514,087	-200,000	-0,002	0,032
-513,072	143,162	-0,127	-0,125
-512,058	74,413	-0,082	0,064
-511,043	666,088	0,050	0,096
-510,029	347,343	-0,052	0,075
-509,014	172,109	-0,059	0,062
-507,999	-200,000	0,029	0,110
-506,985	26,437	0,186	-0,114
-505,970	215,290	-0,105	-0,123
-504,956	-40,532	-0,036	-0,014
-503,941	671,385	-0,085	-0,163
-502,926	179,718	0,109	-0,118
-501,912	93,115	0,048	0,040
-500,897	800,000	-0,052	-0,146
-499,883	45,582	-0,032	-0,022
-498,868	390,115	-0,066	-0,102
-497,853	233,964	0,030	-0,037
-496,839	-109,762	-0,027	0,004
-495,824	-113,741	0,101	-0,014
-494,810	4,714	-0,019	0,010
-493,795	-200,000	-0,000	0,030
-492,781	497,110	-0,065	0,111
-491,766	800,000	0,062	-0,141
-490,751	93,605	-0,108	-0,090
-489,737	200,188	0,052	-0,059
-488,722	-87,794	-0,126	-0,028
-487,708	194,719	0,039	0,044
-486,693	95,119	0,071	0,060
-485,678	-110,598	0,130	-0,020
-484,664	120,297	-0,085	-0,078
-483,649	530,566	-0,056	0,098
-482,635	-200,000	0,014	0,114
-481,620	82,717	0,123	0,099
-480,605	505,876	-0,113	0,194
-479,591	-1,233	0,130	0,068
-478,576	52,928	-0,112	0,079
-477,562	-101,228	-0,032	-0,006
-476,547	-187,768	0,036	0,000
-475,532	-200,000	-0,012	0,066
-474,518	62,609	-0,053	-0,039
-473,503	143,588	-0,110	0,108
-472,489	787,649	0,065	0,132
-471,474	-200,000	-0,017	0,061
-470,459	686,825	0,019	0,036
-469,445	-200,000	-0,008	-0,142
-468,430	-65,519	-0,100	0,029
-467,416	238,699	0,019	0,024
-466,401	800,000	0,029	0,085
-465,386	72,230	-0,068	0,053
-464,372	-200,000	0,007	0,116
-463,357	-91,100	-0,158	-0,033
-462,343	-200,000	0,038	-0,192
-461,328	-200,000	0,006	-0,037
-460,313	246,958	0,120	0,150
-459,299	-200,000	0,010	0,196
-458,284	-200,000	0,001	0,136
-457,270	800,000	-0,044	0,118
-456,255	74,256	-0,061	0,047
-455,241	21,077	-0,096	0,057
-454,226	-200,000	-0,006	-0,123
-453,211	224,719	-0,073	0,087
-452,197	800,000	0,019	0,059
-451,182	198,127	-0,060	0,068
-450,168	-107,292	0,131	-0,021
-449,153	343,684	-0,019	0,027
-448,138	57,191	0,068	-0,049
-447,124	-9,649	-0,113	-0,055
-446,109	800,000	0,030	0,073
-445,095	-200,000	0,013	0,085
-444,080	8,159	-0,016	0,009
-443,065	-200,000	-0,014	-0,055
-442,051	60,049	-0,140	0,102
-441,036	38,706	0,035	-0,023
-440,022	-31,654	-0,051	0,021
-439,007	-20,830	-0,122	-0,055
-437,992	-200,000	0,001	0,118
-436,978	190,754	0,103	0,114
-435,963	635,286	0,045	0,085
-434,949	-200,000	0,015	-0,101
-433,934	-200,000	0,018	-0,139
-432,919	-100,524	-0,197	-0,036
-431,905	800,000	0,038	-0,083
-430,890	362,471	0,086	-0,128
-429,876	-101,336	0,166	0,030
-428,861	800,000	0,047	0,138
-427,846	203,500	0,132	-0,151
-426,832	800,000	-0,033	-0,077
-425,817	-17,736	-0,102	-0,047
-424,803	-200,000	-0,023	-0,090
-423,788	-71,320	0,046	0,013
-422,773	-97,110	0,080	0,015
-421,759	36,970	0,071	0,046
-420,744	-55,251	0,082	-0,027
-419,730	98,965	0,031	0,026
-418,715	-70,773	-0,099	0,027
-417,701	-200,000	-0,005	0,078
-416,686	-114,314	0,134	-0,019
-415,671	-15,736	0,047	0,022
-414,657	-148,749	0,054	0,003
-413,642	800,000	0,044	0,140
-412,628	-200,000	0,018	-0,079
-411,613	34,710	0,074	-0,047
-410,598	800,000	-0,035	0,076
-409,584	77,923	-0,043	0,034
-408,569	-200,000	0,010	0,090
-407,555	303,306	-0,049	0,067
-406,540	-169,121	-0,050	0,001
-405,525	800,000	-0,024	-0,070
-404,511	-104,380	0,112	0,019
-403,496	-76,941	0,087	0,022
-402,482	633,569	0,052	-0,097
-401,467	368,361	0,109	-0,162
-400,452	-94,819	0,040	-0,008
-399,438	800,000	-0,032	0,102
-398,423	-94,538	-0,110	0,022
-397,409	-106,773	-0,048	0,008
-396,394	-200,000	-0,033	-0,155
-395,379	76,047	-0,091	-0,071
-394,365	79,156	-0,103	-0,081
-393,350	-200,000	-0,002	-0,075
-392,336	-187,887	-0,086	0,001
-391,321	-1,190	0,069	0,036
-390,306	200,253	0,064	-0,072
-389,292	20,825	0,033	-0,020
-388,277	147,790	0,036	-0,035
-387,263	390,243	0,044	0,068
-386,248	800,000	-0,043	-0,123
-385,233	800,000	0,006	0,017
-384,219	126,999	0,109	0,102
-383,204	-6,994	-0,084	-0,042
-382,190	-178,939	-0,069	0,001
-381,175	-200,000	0,007	-0,174
-380,160	6,563	-0,030	-0,016
-379,146	-113,808	0,153	0,022
-378,131	72,302	0,097	0,074
-377,117	84,115	0,160	-0,128
-376,102	-200,000	-0,007	0,108
-375,088	-83,700	-0,083	-0,019
-374,073	144,945	0,080	-0,078
-373,058	23,079	0,009	-0,005
-372,044	-137,442	0,143	0,012
-371,029	-61,308	-0,012	-0,004
-370,015	117,332	0,070	0,063
-369,000	-78,766	0,095	-0,024
-367,985	-111,588	-0,139	-0,020
-366,971	189,129	-0,085	-0,094
-365,956	335,341	-0,022	-0,031
-364,942	-200,000	0,022	0,086
-363,927	576,412	0,104	0,188
-362,912	77,371	0,044	0,035
-361,898	-200,000	-0,026	0,094
-360,883	-65,957	0,115	-0,033
-359,869	-200,000	-0,016	-0,092
-358,854	800,000	0,044	0,125
-357,839	297,830	-0,063	0,085
-356,825	-101,407	-0,178	-0,032
-355,810	-15,307	0,235	0,110
-354,796	554,971	-0,013	0,023
-353,781	573,629	0,016	-0,029
-352,766	-161,375	0,029	-0,001
-351,752	-200,000	-0,043	0,157
-350,737	743,147	-0,015	0,030
-349,723	-57,727	0,037	0,012
-348,708	43,714	-0,176	-0,118
-347,693	11,312	-0,069	0,038
-346,679	-200,000	0,001	-0,155
-345,664	-200,000	0,001	0,035
-344,650	800,000	-0,030	-0,076
-343,635	86,172	0,074	-0,060
-342,620	-82,773	0,051	-0,012
-341,606	81,938	-0,082	0,065
-340,591	397,701	0,081	0,124
-339,577	81,194	0,086	-0,068
-338,562	77,111	0,076	-0,059
-337,548	254,630	0,110	0,139
-336,533	-138,345	0,104	-0,008
-335,518	800,000	0,050	0,118
-334,504	445,114	-0,063	0,101
-333,489	232,876	0,091	-0,110
-332,475	-68,217	-0,066	-0,019
-331,460	49,978	-0,106	-0,073
-330,445	593,414	0,058	0,106
-329,431	-173,959	-0,104	0,002
-328,416	47,285	0,049	-0,034
-327,402	-200,000	-0,034	0,120
-326,387	392,326	-0,043	-0,066
-325,372	800,000	0,031	-0,065
-324,358	272,683	0,079	-0,103
-323,343	93,615	-0,195	-0,162
-322,329	300,175	-0,058	0,078
-321,314	73,577	0,030	0,023
-320,299	-200,000	-0,012	0,126
-319,285	95,626	-0,054	-0,045
-318,270	-59,791	-0,050	0,016
-317,256	106,142	0,017	-0,015
-316,241	172,689	0,124	-0,131
-315,226	-78,069	-0,105	0,026
-314,212	460,346	0,041	0,067
-313,197	800,000	-0,010	-0,031
-312,183	517,948	0,030	-0,051
-311,168	-95,521	-0,026	0,005
-310,153	-114,347	-0,083	-0,012
-309,139	-200,000	0,006	0,083
-308,124	-42,943	0,124	0,046
-307,110	375,794	0,082	-0,123
-306,095	1,055	0,142	-0,074
-305,080	-0,376	-0,065	0,034
-304,066	105,292	0,023	0,020
-303,051	564,921	-0,016	0,029
-302,037	-67,009	-0,115	-0,033
-301,022	-200,000	-0,011	-0,123
-300,008	51,723	0,083	0,058
-298,993	800,000	0,065	0,133
-297,978	47,838	0,068	0,047
-296,964	-144,649	0,082	0,005
-295,949	800,000	-0,011	0,028
-294,935	-200,000	-0,030	-0,137
-293,920	621,906	-0,038	-0,070
-292,905	-128,996	-0,056	0,006
-291,891	32,884	0,158	-0,100
-290,876	-145,240	0,049	0,003
-289,862	289,962	-0,041	0,055
-288,847	-200,000	-0,001	-0,079
-287,832	-126,205	0,140	0,015
-286,818	-103,645	-0,099	0,017
-285,803	-200,000	0,009	0,086
-284,789	-200,000	-0,013	-0,081
-283,774	337,449	0,043	-0,062
-282,759	-71,068	0,033	0,009
-281,745	259,455	-0,092	-0,116
-280,730	108,766	-0,041	-0,036
-279,716	256,852	-0,028	0,036
-278,701	-78,331	-0,058	-0,015
-277,686	26,985	0,058	0,036
-276,672	157,318	0,108	0,109
-275,657	-151,804	-0,057	-0,003
-274,643	13,286	0,158	-0,089
-273,628	457,133	0,077	-0,126
-272,613	-67,916	-0,110	0,031
-271,599	-190,942	-0,074	0,001
-270,584	-59,479	-0,075	0,023
-269,570	-8,592	0,113	0,055
-268,555	-66,447	-0,110	0,032
-267,540	313,922	-0,071	-0,098
-266,526	-200,000	-0,017	-0,062
-265,511	157,977	-0,136	0,138
-264,497	-200,000	-0,021	0,084
-263,482	-200,000	0,003	0,059
-262,467	-200,000	-0,010	-0,061
-261,453	11,968	-0,095	0,053
-260,438	-200,000	0,025	-0,108
-259,424	800,000	-0,030	0,097
-258,409	-157,717	0,122	0,005
-257,395	226,509	-0,058	-0,069
-256,380	-200,000	0,039	-0,158
-255,365	-200,000	0,003	0,187
-254,351	-200,000	0,008	0,144
-253,336	206,302	-0,095	0,108
-252,322	135,203	0,024	0,023
-251,307	-13,248	0,084	0,040
-250,292	-90,405	0,087	0,018
-249,278	46,679	0,092	-0,062
-248,263	-7,097	0,090	0,044
-247,249	6,751	0,099	0,054
-246,234	800,000	0,011	-0,031
-245,219	-200,000	-0,037	-0,119
-244,205	-200,000	-0,033	0,116
-243,190	185,788	0,075	0,082
-242,176	-44,199	-0,098	-0,036
-241,161	-200,000	-0,012	0,134
-240,146	800,000	-0,086	0,216
-239,132	359,975	0,042	0,062
-238,117	-200,000	0,027	0,130
-237,103	438,585	-0,072	0,115
-236,088	15,680	0,083	0,047
-235,073	-200,000	-0,010	0,140
-234,059	65,577	0,079	0,058
-233,044	27,449	-0,021	-0,013
-232,030	72,063	0,028	0,022
-231,015	-200,000	-0,019	-0,079
-230,000	-200,000	-0,008	-0,077
-228,986	-73,703	-0,137	0,036
-227,971	292,257	0,064	0,085
-226,957	-17,395	-0,054	0,025
-225,942	137,337	-0,019	0,018
-224,927	460,307	0,073	0,120
-223,913	8,744	-0,076	-0,041
-222,898	-200,000	0,006	0,056
-221,884	-16,517	0,088	0,040
-220,869	14,405	0,065	0,037
-219,855	-200,000	-0,000	-0,162
-218,840	248,621	0,093	0,115
-217,825	8,843	0,159	0,087
-216,811	-30,261	-0,036	-0,015
-215,796	-87,434	-0,122	-0,027
-214,782	-15,718	0,097	-0,045
-213,767	47,098	0,147	-0,100
-212,752	-183,649	0,072	0,001
-211,738	-35,002	-0,107	0,042
-210,723	198,275	-0,035	-0,039
-209,709	-66,601	-0,109	-0,031
-208,694	-8,407	-0,060	-0,029
-207,679	101,218	-0,041	-0,035
-206,665	252,304	0,030	0,037
-205,650	127,339	0,130	0,121
-204,636	208,020	-0,032	-0,036
-203,621	39,421	0,088	-0,057
-202,606	238,975	-0,057	0,069
-201,592	-78,820	0,191	0,047
-200,577	9,401	-0,094	0,052
-199,563	800,000	0,028	0,077
-198,548	41,635	-0,088	-0,058
-197,533	800,000	0,027	0,076
-196,519	143,075	0,032	-0,031
-195,504	-200,000	-0,002	-0,074
-194,490	573,147	0,080	-0,143
-193,475	309,976	-0,008	-0,011
-192,460	-11,772	0,076	-0,036
-191,446	800,000	0,071	0,218
-190,431	-200,000	-0,003	0,119
-189,417	48,559	0,040	0,027
-188,402	-200,000	0,022	0,074
-187,387	800,000	0,041	-0,091
-186,373	153,759	-0,094	-0,094
-185,358	-35,297	-0,043	-0,017
-184,344	104,986	0,077	0,066
-183,329	10,178	-0,029	0,016
-182,315	-58,380	-0,072	0,023
-181,300	44,018	-0,022	-0,015
-180,285	-125,979	-0,119	-0,013
-179,271	368,354	-0,043	-0,064
-178,256	-153,029	0,128	-0,006
-177,242	29,803	-0,119	-0,074
-176,227	544,432	0,097	0,170
-175,212	-6,488	0,071	0,035
-174,198	-200,000	-0,007	-0,097
-173,183	-200,000	0,017	0,100
-172,169	33,695	0,077	-0,049
-171,154	148,141	-0,090	-0,088
-170,139	611,265	-0,045	0,083
-169,125	-25,478	0,039	0,017
-168,110	103,023	0,099	0,084
-167,096	751,151	0,074	0,145
-166,081	-81,784	-0,075	-0,018
-165,066	216,913	-0,106	-0,123
-164,052	66,834	0,007	0,005
-163,037	800,000	-0,062	-0,163
-162,023	800,000	0,047	-0,146
-161,008	-200,000	-0,014	0,071
-159,993	-70,067	-0,027	-0,007
-158,979	-95,657	-0,079	0,015
-157,964	39,725	-0,050	0,032
-156,950	800,000	0,036	0,093
-155,935	160,873	0,106	-0,107
-154,920	-118,851	0,041	0,005
-153,906	-200,000	-0,002	0,065
-152,891	-28,042	0,090	0,038
-151,877	352,847	0,045	-0,065
-150,862	-97,386	-0,129	-0,024
-149,847	-68,333	-0,119	-0,033
-148,833	-7,932	0,093	-0,045
-147,818	-157,948	0,141	0,006
-146,804	-124,701	0,118	0,013
-145,789	285,612	-0,003	-0,004
-144,775	-200,000	0,002	-0,062
-143,760	8,068	0,051	-0,028
-142,745	-15,180	-0,089	0,041
-141,731	-64,147	-0,121	-0,036
-140,716	-143,186	0,079	-0,005
-139,702	800,000	0,012	-0,033
-138,687	-200,000	0,024	0,118
-137,672	349,448	0,021	-0,030
-136,658	70,570	-0,040	0,030
-135,643	-101,860	-0,113	0,020
-134,629	-200,000	0,006	-0,076
-133,614	585,619	0,079	0,143
-132,599	-3,285	-0,041	-0,021
-131,585	-200,000	-0,035	0,121
-130,570	394,310	0,047	-0,071
-129,556	-16,232	-0,159	-0,073
-128,541	-200,000	0,002	0,024
-127,526	-94,541	-0,016	0,003
-126,512	-79,404	0,180	-0,044
-125,497	-200,000	0,011	0,072
-124,483	83,650	-0,021	0,017
-123,468	800,000	0,050	0,135
-122,453	733,238	0,014	0,027
-121,439	-23,065	-0,116	0,051
-120,424	-200,000	0,012	-0,046
-119,410	18,375	0,119	-0,069
-118,395	275,182	-0,062	-0,080
