DTS Sentinel unit serial number:	SN410029Multiplexer serial number:	ORYXHardware model number:	OX2-SRSoftware version number:	ORYX F/W v4,00 Oryx Data Collector v3.7.2.0data status	okinstallation	B6 Nyhavnadifferential loss correction	single-endedforward channel	channel 2reverse channel	N/Adate	2023/12/09time	05:35:08forward acquisition time	300,00reverse acquisition time	0,00gamma	499,1914k internal	0,3143k external	0,3143temperature offset calibration	1,0000default loss term (dB/km)	0,3820temperature slope calibration	1,0000multiplexer offset coefficient	1,0000multiplexer slope coefficient	1,0000fibre end	0,00T internal ref (°C)	17,99T ext. ref 1 (°C)	2,27T ext. ref 2 (°C)	2,29length (m)	temperature (°C)	Stokes	anti-Stokes-744,400	-145,679	0,055	0,004
-743,385	-123,067	-0,315	0,037
-742,371	241,496	0,092	0,114
-741,356	49,914	-0,163	0,113
-740,342	146,476	0,134	-0,133
-739,327	-31,320	-0,366	0,152
-738,312	-139,025	0,123	0,010
-737,298	-117,812	-0,368	-0,048
-736,283	55,827	0,196	-0,141
-735,269	-39,963	-0,241	0,093
-734,254	50,537	-0,061	0,043
-733,239	-156,379	-0,485	-0,022
-732,225	-172,430	0,202	0,005
-731,210	-18,668	-0,195	0,090
-730,196	-130,274	0,088	-0,009
-729,181	54,598	0,015	-0,011
-728,167	-16,492	-0,036	-0,017
-727,152	221,520	-0,083	0,099
-726,137	800,000	0,011	0,024
-725,123	306,734	0,058	0,080
-724,108	-66,613	-0,239	-0,070
-723,094	-112,078	-0,106	-0,016
-722,079	476,672	-0,051	-0,086
-721,064	534,159	0,064	0,113
-720,050	-49,455	0,023	-0,008
-719,035	27,111	-0,016	-0,010
-718,021	26,960	0,046	0,029
-717,006	-200,000	-0,023	-0,145
-715,991	-200,000	0,001	-0,083
-714,977	-200,000	0,013	-0,095
-713,962	148,435	-0,131	0,131
-712,948	205,870	0,084	0,097
-711,933	-26,896	-0,086	-0,037
-710,918	-99,613	-0,117	0,022
-709,904	-50,630	-0,127	0,044
-708,889	-57,424	-0,033	0,011
-707,875	218,216	-0,024	0,029
-706,860	-200,000	-0,019	-0,090
-705,845	-21,375	0,037	-0,017
-704,831	-200,000	0,011	0,187
-703,816	-200,000	-0,005	-0,035
-702,802	-0,380	0,139	-0,073
-701,787	770,116	0,025	-0,051
-700,772	-187,232	0,109	0,001
-699,758	-200,000	-0,004	0,047
-698,743	-200,000	0,031	-0,157
-697,729	111,814	0,024	-0,021
-696,714	-200,000	-0,007	0,029
-695,699	20,472	0,098	-0,058
-694,685	31,290	-0,052	0,033
-693,670	-139,302	-0,068	0,005
-692,656	-105,670	0,037	-0,006
-691,641	800,000	0,023	0,066
-690,627	109,073	0,110	0,097
-689,612	601,974	-0,063	0,116
-688,597	-33,186	0,080	0,033
-687,583	-200,000	0,016	-0,076
-686,568	568,591	-0,036	-0,065
-685,554	-200,000	-0,013	-0,151
-684,539	489,689	-0,087	0,147
-683,524	407,246	-0,009	0,014
-682,510	125,906	0,047	-0,044
-681,495	166,996	-0,078	0,082
-680,481	56,060	0,058	0,041
-679,466	436,780	0,021	0,034
-678,451	73,653	0,102	0,079
-677,437	800,000	-0,012	-0,030
-676,422	-200,000	0,023	0,187
-675,408	-16,433	-0,127	0,059
-674,393	-200,000	-0,010	0,071
-673,378	-51,727	0,014	0,005
-672,364	-131,783	-0,056	0,005
-671,349	-200,000	0,018	0,124
-670,335	-200,000	-0,048	0,176
-669,320	175,112	0,041	-0,044
-668,305	-200,000	0,016	0,066
-667,291	21,386	-0,042	-0,025
-666,276	-200,000	-0,031	-0,105
-665,262	377,781	-0,049	0,075
-664,247	65,444	-0,038	0,028
-663,232	-200,000	-0,019	0,092
-662,218	-200,000	0,002	-0,012
-661,203	-72,881	-0,076	0,020
-660,189	56,903	-0,076	0,055
-659,174	462,289	-0,039	0,065
-658,159	455,168	-0,064	-0,106
-657,145	-200,000	0,028	-0,179
-656,130	-105,973	-0,200	-0,033
-655,116	-54,215	0,057	-0,019
-654,101	-200,000	0,027	0,153
-653,086	-146,087	-0,094	-0,006
-652,072	57,398	-0,074	-0,053
-651,057	-36,734	-0,048	0,019
-650,043	429,294	-0,020	-0,033
-649,028	-200,000	0,002	-0,013
-648,014	-33,127	0,057	-0,023
-646,999	-139,188	0,131	0,010
-645,984	173,956	-0,045	0,048
-644,970	800,000	-0,029	0,070
-643,955	498,155	-0,059	0,101
-642,941	287,799	-0,073	-0,098
-641,926	800,000	0,023	-0,061
-640,911	-200,000	0,037	-0,158
-639,897	-55,124	0,059	0,019
-638,882	65,466	-0,036	0,027
-637,868	-200,000	0,003	-0,030
-636,853	-26,011	-0,158	-0,068
-635,838	192,712	-0,138	-0,154
-634,824	94,901	-0,063	-0,053
-633,809	-83,571	0,026	0,006
-632,795	329,347	0,069	-0,098
-631,780	-200,000	0,010	-0,052
-630,765	575,000	-0,081	-0,146
-629,751	155,369	-0,062	-0,063
-628,736	-13,568	-0,050	-0,024
-627,722	-200,000	-0,024	0,120
-626,707	-200,000	0,004	-0,080
-625,692	800,000	-0,029	-0,091
-624,678	492,043	0,047	0,080
-623,663	585,294	0,037	0,067
-622,649	800,000	0,057	-0,146
-621,634	-200,000	-0,025	-0,158
-620,619	-200,000	0,014	-0,049
-619,605	516,956	0,019	-0,033
-618,590	800,000	-0,047	0,101
-617,576	-200,000	0,028	0,093
-616,561	243,102	0,072	0,089
-615,546	93,651	-0,055	0,046
-614,532	-19,194	-0,080	0,036
-613,517	58,244	0,063	-0,045
-612,503	536,344	-0,043	0,076
-611,488	-105,458	0,146	-0,024
-610,474	-99,985	-0,104	-0,019
-609,459	-200,000	0,046	0,169
-608,444	-197,720	-0,172	-0,001
-607,430	780,826	-0,029	-0,059
-606,415	346,699	-0,037	0,054
-605,401	800,000	0,034	0,090
-604,386	-57,555	0,094	-0,030
-603,371	-200,000	-0,005	-0,076
-602,357	800,000	0,048	0,144
-601,342	-200,000	-0,003	0,063
-600,328	11,705	-0,079	0,044
-599,313	-9,491	-0,172	-0,084
-598,298	-82,868	0,014	0,003
-597,284	-1,381	-0,152	-0,079
-596,269	-200,000	0,020	-0,095
-595,255	-37,896	-0,135	0,052
-594,240	18,775	-0,021	-0,012
-593,225	147,015	0,058	-0,057
-592,211	181,210	-0,139	0,151
-591,196	-88,085	-0,075	0,016
-590,182	800,000	0,035	0,105
-589,167	-200,000	-0,014	0,128
-588,152	-200,000	-0,001	0,054
-587,138	121,576	0,038	0,035
-586,123	-148,827	-0,136	0,008
-585,109	-72,174	-0,035	-0,010
-584,094	59,338	0,062	0,045
-583,079	-131,485	0,066	0,006
-582,065	-57,550	0,030	0,010
-581,050	-200,000	0,012	0,114
-580,036	76,527	-0,027	-0,021
-579,021	164,122	0,054	0,056
-578,006	121,163	0,016	-0,015
-576,992	91,374	-0,072	-0,060
-575,977	-111,552	0,096	0,014
-574,963	213,643	0,047	-0,054
-573,948	-31,172	0,082	-0,034
-572,934	-97,252	0,168	-0,032
-571,919	-57,377	-0,119	-0,038
-570,904	142,466	0,066	-0,064
-569,890	-153,215	-0,002	0,000
-568,875	270,467	0,029	-0,037
-567,861	217,560	0,038	-0,044
-566,846	141,535	-0,068	-0,066
-565,831	800,000	-0,066	-0,179
-564,817	225,693	-0,048	0,058
-563,802	352,941	0,026	0,039
-562,788	156,674	-0,224	0,228
-561,773	327,302	0,081	0,115
-560,758	-34,301	0,115	-0,046
-559,744	-200,000	-0,009	0,109
-558,729	800,000	0,052	-0,121
-557,715	-108,197	0,049	0,008
-556,700	632,717	-0,020	0,038
-555,685	277,425	-0,057	0,075
-554,671	566,377	0,033	0,059
-553,656	52,642	0,040	-0,028
-552,642	-67,826	0,168	-0,048
-551,627	-53,746	-0,054	-0,018
-550,612	-92,180	-0,094	0,019
-549,598	-200,000	-0,011	-0,099
-548,583	-200,000	0,017	-0,100
-547,569	-30,115	0,066	-0,027
-546,554	73,970	-0,034	0,027
-545,539	1,755	0,136	0,072
-544,525	800,000	0,055	0,112
-543,510	788,821	-0,036	-0,072
-542,496	-178,276	0,091	-0,002
-541,481	398,101	-0,072	-0,111
-540,466	36,576	-0,159	0,103
-539,452	223,183	0,033	0,039
-538,437	-78,044	0,033	0,008
-537,423	120,612	0,049	0,045
-536,408	800,000	-0,096	0,200
-535,393	-106,933	-0,047	-0,008
-534,379	-6,093	-0,083	0,042
-533,364	-159,222	-0,074	-0,003
-532,350	145,126	-0,047	0,047
-531,335	285,838	0,048	-0,064
-530,321	-82,589	-0,060	0,014
-529,306	-48,331	-0,075	0,026
-528,291	94,978	-0,108	0,090
-527,277	446,714	-0,030	-0,048
-526,262	54,601	0,033	-0,024
-525,248	197,421	-0,081	0,091
-524,233	800,000	0,027	0,055
-523,218	-152,839	0,055	0,003
-522,204	-200,000	-0,015	-0,060
-521,189	-22,101	-0,045	-0,020
-520,175	616,640	-0,111	-0,205
-519,160	28,303	-0,101	0,062
-518,145	-200,000	-0,031	0,133
-517,131	9,744	0,078	-0,044
-516,116	-168,129	0,092	0,003
-515,102	-138,366	0,040	-0,003
-514,087	-200,000	-0,014	0,095
-513,072	-200,000	0,007	0,095
-512,058	-200,000	-0,022	-0,081
-511,043	-148,398	0,078	0,005
-510,029	-62,403	0,044	0,013
-509,014	-88,162	0,212	-0,046
-507,999	426,293	-0,079	-0,125
-506,985	291,561	0,078	-0,104
-505,970	60,731	0,075	0,055
-504,956	311,651	0,083	0,114
-503,941	-115,964	0,090	0,012
-502,926	740,155	-0,019	0,037
-501,912	1,035	-0,064	-0,034
-500,897	798,242	-0,034	0,069
-499,883	-4,784	-0,045	0,023
-498,868	25,126	0,035	-0,021
-497,853	-121,931	0,117	0,014
-496,839	800,000	-0,083	0,199
-495,824	-200,000	0,001	0,015
-494,810	-43,067	0,053	-0,020
-493,795	-200,000	0,038	-0,137
-492,781	32,555	-0,058	0,037
-491,766	76,204	-0,124	-0,096
-490,751	-200,000	-0,022	-0,117
-489,737	800,000	0,054	0,128
-488,722	-136,345	0,023	-0,002
-487,708	-113,780	0,086	0,012
-486,693	-55,876	0,087	-0,028
-485,678	8,091	-0,064	0,035
-484,664	-88,203	-0,020	-0,004
-483,649	-200,000	-0,024	-0,094
-482,635	278,528	0,092	-0,121
-481,620	-123,155	0,018	0,002
-480,605	114,238	-0,123	-0,110
-479,591	800,000	0,032	0,091
-478,576	71,410	-0,073	-0,056
-477,562	148,596	-0,047	-0,047
-476,547	561,060	0,020	0,035
-475,532	-39,843	-0,112	0,043
-474,518	33,289	0,100	0,063
-473,503	-77,765	-0,065	-0,016
-472,489	-55,349	0,026	0,008
-471,474	218,770	-0,032	0,038
-470,459	261,792	0,064	-0,082
-469,445	800,000	0,036	0,094
-468,430	-52,160	-0,053	0,018
-467,416	-141,953	0,037	0,003
-466,401	800,000	0,032	0,076
-465,386	800,000	-0,040	0,092
-464,372	515,903	0,036	-0,062
-463,357	-103,254	0,031	0,005
-462,343	-150,963	-0,055	-0,003
-461,328	-200,000	0,002	-0,040
-460,313	296,670	0,085	0,115
-459,299	-33,788	0,102	-0,041
-458,284	157,950	-0,059	0,060
-457,270	310,538	-0,113	0,155
-456,255	800,000	0,044	0,142
-455,241	-200,000	0,000	0,007
-454,226	89,097	-0,036	0,029
-453,211	111,869	0,120	0,106
-452,197	597,214	0,048	-0,087
-451,182	-26,352	0,079	0,034
-450,168	-200,000	0,005	-0,032
-449,153	-200,000	0,047	0,184
-448,138	215,481	-0,031	0,037
-447,124	-200,000	-0,012	-0,048
-446,109	-84,186	-0,198	-0,046
-445,095	623,361	0,057	0,106
-444,080	337,434	0,030	0,042
-443,065	646,524	0,015	0,028
-442,051	-122,366	-0,136	0,016
-441,036	-200,000	0,011	-0,077
-440,022	314,207	0,044	-0,061
-439,007	139,003	0,147	-0,141
-437,992	-77,636	0,035	-0,009
-436,978	-141,321	-0,030	-0,002
-435,963	-46,010	0,108	0,039
-434,949	-200,000	-0,033	0,149
-433,934	-200,000	-0,008	-0,098
-432,919	34,923	-0,047	0,030
-431,905	-200,000	-0,033	-0,197
-430,890	516,772	-0,058	-0,100
-429,876	-171,784	0,023	-0,001
-428,861	23,941	0,120	-0,072
-427,846	800,000	-0,023	0,059
-426,832	273,008	-0,017	-0,022
-425,817	-127,148	-0,166	-0,018
-424,803	542,486	-0,030	0,052
-423,788	167,331	0,085	0,088
-422,773	322,673	0,062	0,087
-421,759	69,664	-0,202	0,152
-420,744	-200,000	0,013	0,166
-419,730	-200,000	0,023	0,087
-418,715	-37,172	-0,113	-0,044
-417,701	-144,776	0,157	-0,010
-416,686	800,000	0,032	0,089
-415,671	340,628	0,036	-0,051
-414,657	800,000	0,030	0,078
-413,642	240,702	-0,045	-0,056
-412,628	800,000	-0,006	0,012
-411,613	54,829	-0,045	0,032
-410,598	118,882	0,084	-0,076
-409,584	-200,000	-0,038	-0,134
-408,569	-3,391	0,131	0,066
-407,555	381,124	0,018	-0,027
-406,540	800,000	0,008	-0,019
-405,525	-98,223	-0,078	-0,015
-404,511	-200,000	0,007	-0,150
-403,496	45,489	-0,041	-0,028
-402,482	-41,126	0,067	0,025
-401,467	583,501	-0,061	-0,111
-400,452	521,557	0,044	-0,076
-399,438	571,820	0,015	0,028
-398,423	10,377	0,053	-0,029
-397,409	296,120	-0,101	0,136
-396,394	129,013	0,069	0,064
-395,379	-60,863	-0,080	0,025
-394,365	-200,000	-0,003	0,069
-393,350	52,539	0,073	0,051
-392,336	-200,000	0,015	-0,110
-391,321	106,829	-0,078	-0,067
-390,306	-200,000	0,006	-0,065
-389,292	-87,025	0,078	0,017
-388,277	-200,000	0,003	-0,039
-387,263	-44,856	0,131	0,048
-386,248	101,606	-0,028	-0,023
-385,233	-200,000	-0,010	0,146
-384,219	50,014	-0,036	-0,025
-383,204	-200,000	-0,008	-0,056
-382,190	-200,000	0,039	-0,159
-381,175	-200,000	-0,007	0,033
-380,160	30,039	0,121	-0,075
-379,146	-200,000	0,013	-0,063
-378,131	-200,000	0,016	0,088
-377,117	-200,000	0,002	0,087
-376,102	-200,000	-0,180	0,000
-375,088	-68,729	0,020	-0,006
-374,073	53,838	0,027	-0,019
-373,058	234,505	-0,068	0,082
-372,044	403,391	-0,018	-0,028
-371,029	-200,000	-0,002	-0,026
-370,015	-200,000	-0,001	0,010
-369,000	-82,629	0,049	-0,012
-367,985	800,000	-0,010	0,029
-366,971	800,000	0,099	-0,202
-365,956	800,000	0,021	-0,066
-364,942	95,259	-0,009	0,008
-363,927	-112,043	0,061	0,009
-362,912	800,000	0,016	0,047
-361,898	107,322	-0,053	0,046
-360,883	-28,322	0,168	-0,071
-359,869	135,189	-0,091	0,087
-358,854	-200,000	-0,025	-0,115
-357,839	165,086	0,058	0,060
-356,825	-200,000	0,022	0,133
-355,810	261,675	-0,101	0,128
-354,796	35,079	0,040	0,026
-353,781	296,014	-0,075	-0,101
-352,766	313,542	0,058	-0,080
-351,752	321,921	0,051	-0,071
-350,737	-7,648	0,098	0,048
-349,723	-22,253	0,097	-0,043
-348,708	-200,000	0,033	-0,169
-347,693	800,000	0,052	-0,128
-346,679	130,889	0,059	-0,055
-345,664	-16,156	-0,111	-0,051
-344,650	-159,119	-0,099	-0,004
-343,635	-200,000	0,014	0,123
-342,620	-54,896	0,071	0,023
-341,606	-60,024	0,105	-0,032
-340,591	110,507	-0,069	0,061
-339,577	271,524	-0,112	-0,144
-338,562	-200,000	-0,009	-0,050
-337,548	138,123	-0,039	-0,038
-336,533	-70,845	-0,091	-0,025
-335,518	-200,000	-0,015	0,049
-334,504	295,009	-0,147	0,197
-333,489	100,673	-0,058	-0,049
-332,475	800,000	-0,062	-0,131
-331,460	-200,000	-0,009	0,108
-330,445	154,164	0,059	0,060
-329,431	-100,853	0,207	0,037
-328,416	-200,000	0,005	0,177
-327,402	8,482	0,069	-0,037
-326,387	-102,018	-0,192	0,033
-325,372	-43,505	0,103	-0,038
-324,358	80,089	-0,167	0,131
-323,343	66,760	-0,120	-0,089
-322,329	800,000	0,040	0,110
-321,314	-150,435	0,045	0,002
-320,299	85,518	-0,136	0,109
-319,285	-200,000	0,017	0,185
-318,270	-82,419	-0,110	0,026
-317,256	215,125	-0,123	0,142
-316,241	80,620	0,074	-0,058
-315,226	-200,000	-0,044	-0,237
-314,212	326,691	0,055	0,077
-313,197	117,067	-0,062	0,055
-312,183	238,102	-0,064	0,077
-311,168	110,618	0,074	0,065
-310,153	-200,000	-0,013	0,102
-309,139	-200,000	0,001	-0,081
-308,124	-119,163	-0,039	-0,005
-307,110	379,221	0,041	0,062
-306,095	-200,000	-0,023	0,173
-305,080	-200,000	-0,016	0,138
-304,066	65,938	0,034	-0,025
-303,051	-64,202	-0,104	-0,031
-302,037	-200,000	0,015	-0,088
-301,022	-200,000	-0,007	-0,038
-300,008	164,597	-0,054	0,055
-298,993	-200,000	0,001	0,049
-297,978	800,000	-0,015	-0,030
-296,964	62,788	0,073	-0,053
-295,949	-200,000	-0,005	0,026
-294,935	29,318	-0,090	-0,055
-293,920	800,000	0,022	0,053
-292,905	-200,000	0,048	-0,198
-291,891	14,553	0,128	0,073
-290,876	-166,812	-0,055	0,002
-289,862	800,000	-0,035	-0,098
-288,847	-200,000	0,008	-0,031
-287,832	-200,000	-0,023	0,142
-286,818	1,559	0,051	0,027
-285,803	-200,000	0,044	0,196
-284,789	250,226	0,034	0,042
-283,774	-144,959	-0,093	0,006
-282,759	-200,000	-0,002	0,028
-281,745	-200,000	-0,006	-0,078
-280,730	-144,401	0,172	-0,011
-279,716	-48,237	-0,104	-0,036
-278,701	343,947	-0,035	0,051
-277,686	800,000	-0,033	0,068
-276,672	800,000	0,010	-0,020
-275,657	26,109	0,062	-0,038
-274,643	190,950	-0,131	-0,144
-273,628	800,000	-0,015	-0,036
-272,613	98,605	-0,019	-0,016
-271,599	-200,000	0,003	-0,073
-270,584	-200,000	0,014	-0,089
-269,570	-25,302	0,068	0,029
-268,555	-155,681	-0,099	-0,005
-267,540	-22,422	0,035	-0,015
-266,526	-85,203	-0,083	0,019
-265,511	124,493	-0,045	-0,041
-264,497	305,753	0,042	-0,057
-263,482	5,886	0,033	0,018
-262,467	137,347	0,057	-0,054
-261,453	72,089	0,066	-0,050
-260,438	-200,000	-0,013	-0,112
-259,424	332,292	0,053	-0,075
-258,409	-200,000	0,004	-0,079
-257,395	-178,307	0,111	0,002
-256,380	-68,345	0,096	0,027
-255,365	800,000	-0,044	-0,106
-254,351	800,000	-0,034	0,079
-253,336	800,000	0,043	0,134
-252,322	-108,267	-0,090	-0,014
-251,307	486,270	-0,043	-0,072
-250,292	-29,951	-0,072	-0,029
-249,278	-55,858	-0,077	0,025
-248,263	141,858	0,017	-0,016
-247,249	76,664	-0,078	0,060
-246,234	-200,000	0,015	0,049
-245,219	205,567	-0,024	0,027
-244,205	-200,000	0,018	-0,129
-243,190	313,154	0,077	-0,105
-242,176	73,000	-0,037	-0,028
-241,161	79,333	0,056	0,043
-240,146	293,257	0,090	0,119
-239,132	-36,226	0,135	-0,053
-238,117	37,747	-0,053	-0,034
-237,103	-54,731	-0,106	0,035
-236,088	493,320	-0,099	0,165
-235,073	-200,000	0,002	0,007
-234,059	-86,141	0,159	-0,035
-233,044	72,694	-0,038	-0,028
-232,030	-99,047	0,094	0,017
-231,015	412,277	-0,013	0,020
-230,000	-200,000	-0,014	0,104
-228,986	-200,000	0,010	-0,075
-227,971	-200,000	-0,007	0,105
-226,957	800,000	0,013	-0,033
-225,942	-200,000	0,012	0,092
-224,927	747,748	-0,115	-0,226
-223,913	-100,512	0,058	0,010
-222,898	-167,529	0,035	0,001
-221,884	81,344	-0,087	0,068
-220,869	-101,526	0,044	-0,008
-219,855	785,727	-0,019	-0,038
-218,840	-200,000	-0,010	0,135
-217,825	34,943	0,098	0,062
-216,811	800,000	0,034	-0,088
-215,796	-200,000	-0,011	-0,062
-214,782	-155,421	0,091	0,004
-213,767	613,590	0,058	0,106
-212,752	-18,383	0,089	-0,040
-211,738	153,532	-0,075	-0,074
-210,723	115,768	0,142	-0,126
-209,709	251,917	-0,154	-0,191
-208,694	-76,285	0,114	0,029
-207,679	-200,000	-0,005	0,094
-206,665	-200,000	0,039	-0,172
-205,650	-200,000	-0,006	0,062
-204,636	53,679	0,085	0,059
-203,621	191,525	-0,018	0,020
-202,606	-107,448	0,082	-0,013
-201,592	258,492	-0,052	-0,065
-200,577	-200,000	-0,001	-0,194
-199,563	-200,000	0,016	-0,096
-198,548	800,000	0,036	-0,089
-197,533	-200,000	0,008	-0,044
-196,519	648,886	-0,045	-0,085
-195,504	-200,000	-0,013	-0,049
-194,490	-140,081	0,070	-0,005
-193,475	-200,000	-0,026	-0,204
-192,460	268,088	0,019	0,024
-191,446	-200,000	-0,028	-0,114
-190,431	246,302	-0,081	0,099
-189,417	800,000	-0,013	-0,028
-188,402	-84,001	-0,053	0,012
-187,387	31,435	0,074	-0,046
-186,373	30,572	0,071	0,044
-185,358	-200,000	0,038	0,152
-184,344	42,388	-0,042	0,028
-183,329	9,923	0,047	-0,026
-182,315	-200,000	0,014	-0,067
-181,300	800,000	-0,046	0,114
-180,285	-200,000	-0,008	-0,127
-179,271	192,278	-0,057	-0,063
-178,256	-200,000	0,025	-0,110
-177,242	-158,237	0,076	-0,003
-176,227	-200,000	0,035	0,126
-175,212	800,000	0,026	0,062
-174,198	800,000	0,035	0,078
-173,183	129,163	-0,137	0,127
-172,169	800,000	0,057	-0,143
-171,154	-39,158	0,094	-0,036
-170,139	800,000	-0,011	-0,033
-169,125	-126,993	0,099	-0,010
-168,110	50,452	0,051	-0,035
-167,096	800,000	0,034	-0,093
-166,081	31,511	-0,103	0,064
-165,066	175,455	-0,134	-0,141
-164,052	-200,000	0,027	0,113
-163,037	549,818	-0,065	0,113
-162,023	19,388	-0,009	-0,005
-161,008	279,644	0,067	0,087
-159,993	34,010	0,107	0,068
-158,979	-55,592	-0,057	-0,018
-157,964	113,248	-0,054	-0,048
-156,950	573,788	-0,020	-0,035
-155,935	-16,069	-0,063	-0,029
-154,920	800,000	0,057	-0,117
-153,906	-200,000	0,022	0,086
-152,891	800,000	0,021	-0,049
-151,877	104,703	-0,115	0,098
-150,862	-200,000	0,014	-0,126
-149,847	-135,100	-0,162	-0,014
-148,833	116,033	0,082	0,072
-147,818	-111,727	-0,058	0,008
-146,804	-200,000	0,002	-0,024
-145,789	26,875	0,067	0,041
-144,775	-200,000	0,004	-0,072
-143,760	-81,535	-0,158	-0,037
-142,745	-3,523	0,079	-0,040
-141,731	800,000	-0,011	0,029
-140,716	535,438	0,060	-0,103
-139,702	-92,193	0,087	-0,018
-138,687	-200,000	-0,007	0,049
-137,672	575,070	-0,019	0,033
-136,658	-144,641	-0,099	-0,006
-135,643	48,218	0,103	0,070
-134,629	69,985	-0,114	-0,085
-133,614	-172,879	0,074	0,002
-132,599	-151,890	-0,050	-0,003
-131,585	208,196	0,083	0,094
-130,570	66,491	-0,063	-0,047
-129,556	193,680	-0,145	-0,159
-128,541	-200,000	-0,012	-0,116
-127,526	483,659	0,025	-0,041
-126,512	435,179	-0,002	0,004
-125,497	37,973	0,123	0,079
-124,483	800,000	-0,009	0,019
-123,468	-101,171	0,044	0,008
-122,453	-200,000	-0,013	0,075
-121,439	361,816	-0,070	-0,101
-120,424	-54,392	0,113	-0,037
-119,410	106,328	0,046	-0,039
