DTS Sentinel unit serial number:	SN410029Multiplexer serial number:	ORYXHardware model number:	OX2-SRSoftware version number:	ORYX F/W v4,00 Oryx Data Collector v3.7.2.0data status	okinstallation	B6 Nyhavnadifferential loss correction	single-endedforward channel	channel 2reverse channel	N/Adate	2023/12/08time	22:25:08forward acquisition time	300,00reverse acquisition time	0,00gamma	499,1914k internal	0,3157k external	0,3157temperature offset calibration	1,0000default loss term (dB/km)	0,3820temperature slope calibration	1,0000multiplexer offset coefficient	1,0000multiplexer slope coefficient	1,0000fibre end	0,00T internal ref (°C)	15,32T ext. ref 1 (°C)	-1,11T ext. ref 2 (°C)	-1,12length (m)	temperature (°C)	Stokes	anti-Stokes-744,400	136,486	0,118	0,114
-743,385	-100,226	-0,294	-0,053
-742,371	-136,346	0,125	0,011
-741,356	15,333	-0,213	0,123
-740,342	308,104	-0,059	0,081
-739,327	-132,141	-0,240	-0,023
-738,312	-44,913	0,124	0,045
-737,298	-66,363	-0,311	-0,091
-736,283	-22,403	0,128	0,057
-735,269	-67,184	-0,213	0,061
-734,254	-159,947	0,150	-0,006
-733,239	-86,582	-0,546	-0,122
-732,225	-131,604	0,178	-0,017
-731,210	-200,000	-0,034	0,132
-730,196	-200,000	0,002	-0,104
-729,181	-64,870	-0,201	-0,059
-728,167	162,946	-0,122	0,126
-727,152	106,186	-0,029	0,025
-726,137	442,852	-0,082	-0,132
-725,123	800,000	-0,068	-0,144
-724,108	1,714	0,134	-0,071
-723,094	557,909	-0,007	-0,013
-722,079	-111,083	-0,120	-0,018
-721,064	217,164	-0,115	-0,135
-720,050	221,572	0,076	-0,090
-719,035	145,071	0,056	-0,055
-718,021	165,416	-0,070	-0,073
-717,006	678,307	0,058	-0,111
-715,991	-200,000	0,021	-0,095
-714,977	800,000	-0,043	-0,110
-713,962	-121,685	-0,248	-0,030
-712,948	1,745	-0,034	0,018
-711,933	13,385	0,133	-0,075
-710,918	71,480	0,046	0,035
-709,904	-101,938	-0,159	0,028
-708,889	-9,455	-0,017	-0,008
-707,875	52,261	-0,069	-0,048
-706,860	-200,000	0,004	-0,108
-705,845	800,000	0,013	-0,041
-704,831	-37,859	-0,099	-0,039
-703,816	-155,986	0,083	0,004
-702,802	9,072	-0,071	-0,040
-701,787	-200,000	-0,027	-0,126
-700,772	-49,984	0,101	0,035
-699,758	800,000	0,033	-0,091
-698,743	74,455	-0,023	-0,018
-697,729	-200,000	-0,001	0,017
-696,714	378,101	-0,037	-0,057
-695,699	-200,000	0,004	-0,117
-694,685	26,240	-0,036	0,022
-693,670	800,000	-0,035	-0,073
-692,656	-60,865	-0,115	0,036
-691,641	-143,996	0,062	0,004
-690,627	800,000	-0,034	0,081
-689,612	1,900	-0,152	-0,081
-688,597	-200,000	0,027	-0,122
-687,583	-200,000	0,007	-0,037
-686,568	356,644	0,010	-0,015
-685,554	800,000	-0,013	0,039
-684,539	231,821	-0,036	0,043
-683,524	-118,995	-0,078	0,010
-682,510	-24,158	-0,035	-0,015
-681,495	-200,000	0,007	-0,043
-680,481	121,240	-0,048	0,044
-679,466	348,956	-0,062	-0,090
-678,451	41,519	0,101	-0,067
-677,437	108,193	-0,077	-0,068
-676,422	-200,000	-0,003	0,048
-675,408	800,000	0,055	0,123
-674,393	-200,000	-0,021	-0,110
-673,378	-200,000	-0,002	0,026
-672,364	-200,000	-0,002	0,045
-671,349	-95,629	-0,224	0,044
-670,335	274,409	0,130	-0,170
-669,320	295,859	0,051	-0,069
-668,305	800,000	-0,041	-0,124
-667,291	-161,657	0,161	-0,006
-666,276	559,133	0,015	-0,027
-665,262	-101,342	-0,016	-0,003
-664,247	-200,000	0,011	-0,039
-663,232	258,638	0,030	-0,038
-662,218	-8,865	-0,061	-0,030
-661,203	182,172	-0,031	0,034
-660,189	-152,845	-0,108	0,006
-659,174	-200,000	-0,006	0,118
-658,159	345,902	-0,052	-0,075
-657,145	346,896	-0,039	-0,056
-656,130	-5,762	-0,024	-0,012
-655,116	-64,131	-0,110	0,033
-654,101	58,643	-0,123	0,089
-653,086	-200,000	-0,016	-0,128
-652,072	56,725	-0,119	-0,085
-651,057	-200,000	-0,010	-0,068
-650,043	-18,794	-0,045	0,020
-649,028	-200,000	0,023	-0,169
-648,014	-74,727	-0,079	-0,021
-646,999	800,000	-0,031	-0,076
-645,984	-200,000	0,018	-0,138
-644,970	-134,501	-0,104	0,009
-643,955	176,711	-0,115	-0,123
-642,941	114,656	0,033	0,030
-641,926	800,000	0,010	-0,025
-640,911	46,510	0,149	-0,101
-639,897	180,144	-0,084	-0,091
-638,882	-123,219	0,072	-0,008
-637,868	-200,000	0,006	-0,091
-636,853	800,000	-0,015	0,031
-635,838	-2,213	-0,050	-0,026
-634,824	104,709	0,051	-0,044
-633,809	-10,354	0,064	0,031
-632,795	800,000	0,019	0,049
-631,780	-200,000	-0,001	0,130
-630,765	46,776	-0,172	-0,117
-629,751	3,808	-0,081	-0,043
-628,736	-200,000	-0,023	0,092
-627,722	-200,000	0,011	-0,038
-626,707	31,640	-0,134	0,084
-625,692	-50,545	-0,035	-0,012
-624,678	-79,692	-0,127	0,031
-623,663	259,800	0,030	0,038
-622,649	-103,260	-0,086	-0,015
-621,634	-147,759	-0,126	-0,008
-620,619	-43,042	0,025	0,009
-619,605	800,000	0,026	-0,065
-618,590	536,991	-0,054	-0,094
-617,576	609,476	0,060	-0,110
-616,561	427,456	0,069	0,110
-615,546	-87,546	-0,105	-0,023
-614,532	134,681	-0,079	-0,076
-613,517	137,555	-0,095	0,092
-612,503	62,130	0,028	-0,021
-611,488	163,034	0,011	0,011
-610,474	-83,229	-0,161	0,038
-609,459	4,947	0,115	0,062
-608,444	800,000	-0,086	0,199
-607,430	800,000	-0,044	0,101
-606,415	51,724	-0,097	-0,068
-605,401	-200,000	-0,021	0,069
-604,386	5,824	-0,036	0,020
-603,371	10,392	0,079	-0,044
-602,357	-71,710	-0,087	-0,024
-601,342	-51,761	0,031	-0,010
-600,328	800,000	0,020	0,059
-599,313	415,563	0,066	0,103
-598,298	596,332	-0,086	-0,157
-597,284	800,000	-0,020	-0,060
-596,269	800,000	-0,045	-0,113
-595,255	207,801	0,077	-0,089
-594,240	642,108	-0,043	-0,081
-593,225	164,866	-0,091	-0,094
-592,211	-200,000	-0,007	-0,088
-591,196	800,000	-0,032	-0,088
-590,182	229,759	0,059	0,071
-589,167	-200,000	-0,017	0,095
-588,152	389,045	-0,028	0,043
-587,138	-24,666	0,044	-0,019
-586,123	253,238	-0,083	-0,104
-585,109	800,000	-0,038	-0,081
-584,094	290,862	0,124	0,166
-583,079	400,399	0,029	0,044
-582,065	800,000	0,039	0,099
-581,050	-132,505	0,018	-0,002
-580,036	-27,922	-0,090	0,038
-579,021	387,575	-0,058	-0,087
-578,006	-4,339	-0,026	0,013
-576,992	321,682	-0,029	-0,040
-575,977	461,110	-0,038	-0,062
-574,963	-200,000	0,004	0,081
-573,948	150,674	0,109	0,109
-572,934	-39,300	-0,164	0,063
-571,919	-200,000	-0,003	0,096
-570,904	139,655	-0,044	-0,042
-569,890	156,787	0,057	-0,058
-568,875	166,654	-0,033	-0,034
-567,861	-200,000	-0,015	-0,069
-566,846	-19,576	-0,057	-0,026
-565,831	-200,000	0,022	0,086
-564,817	327,020	-0,025	0,036
-563,802	-4,420	-0,181	-0,091
-562,788	-200,000	-0,009	0,179
-561,773	-9,943	0,118	-0,057
-560,758	36,791	0,101	0,065
-559,744	67,665	0,135	0,101
-558,729	51,378	-0,126	-0,088
-557,715	291,111	0,065	-0,086
-556,700	-30,799	-0,043	0,018
-555,685	-108,334	0,200	0,031
-554,671	130,796	0,024	-0,022
-553,656	800,000	0,054	0,144
-552,642	800,000	0,020	0,042
-551,627	147,758	-0,024	-0,024
-550,612	763,671	-0,020	0,040
-549,598	-77,624	-0,067	-0,017
-548,583	57,184	-0,066	-0,047
-547,569	-65,665	0,058	0,017
-546,554	649,066	-0,043	-0,081
-545,539	-200,000	-0,023	-0,103
-544,525	692,655	-0,063	0,121
-543,510	760,413	-0,132	-0,264
-542,496	800,000	0,057	-0,163
-541,481	-200,000	0,005	-0,244
-540,466	-82,455	-0,086	-0,020
-539,452	-4,160	0,022	0,011
-538,437	800,000	-0,038	0,104
-537,423	5,594	0,086	0,047
-536,408	800,000	-0,023	-0,046
-535,393	-127,071	-0,080	-0,009
-534,379	-81,080	-0,006	0,001
-533,364	45,797	0,107	0,072
-532,350	800,000	-0,017	0,038
-531,335	220,493	0,023	-0,027
-530,321	83,861	0,101	0,081
-529,306	-200,000	-0,024	-0,107
-528,291	67,340	0,025	0,019
-527,277	-200,000	-0,019	-0,105
-526,262	800,000	-0,056	-0,134
-525,248	146,361	0,091	0,089
-524,233	162,877	0,083	0,086
-523,218	50,792	0,036	0,025
-522,204	10,617	-0,045	-0,025
-521,189	-200,000	0,010	0,146
-520,175	-101,338	-0,051	-0,009
-519,160	-0,534	0,060	0,031
-518,145	800,000	-0,085	0,212
-517,131	-200,000	-0,018	0,092
-516,116	800,000	-0,026	0,058
-515,102	-142,795	-0,111	0,008
-514,087	-123,207	-0,052	-0,006
-513,072	-200,000	-0,030	-0,152
-512,058	129,958	0,091	0,086
-511,043	-32,720	0,081	0,033
-510,029	-200,000	0,007	0,053
-509,014	40,748	0,075	-0,049
-507,999	281,462	0,074	-0,097
-506,985	-13,899	-0,071	-0,033
-505,970	-41,681	-0,125	-0,047
-504,956	244,328	-0,062	0,076
-503,941	800,000	0,034	0,082
-502,926	502,217	-0,054	0,092
-501,912	1,865	-0,077	-0,040
-500,897	-175,390	-0,072	0,001
-499,883	209,895	0,033	0,038
-498,868	746,534	-0,034	0,068
-497,853	-139,424	-0,066	-0,005
-496,839	-63,787	-0,100	-0,030
-495,824	243,096	0,085	0,104
-494,810	-19,714	0,140	-0,063
-493,795	140,621	-0,037	-0,036
-492,781	257,649	0,008	-0,010
-491,766	10,137	-0,104	-0,057
-490,751	184,753	-0,094	-0,102
-489,737	-200,000	0,030	0,119
-488,722	800,000	-0,028	-0,084
-487,708	800,000	0,035	0,079
-486,693	459,111	0,059	-0,097
-485,678	-200,000	-0,001	0,002
-484,664	-200,000	0,018	-0,109
-483,649	-200,000	0,016	-0,076
-482,635	-200,000	0,044	0,148
-481,620	-200,000	0,010	-0,255
-480,605	77,618	-0,077	-0,060
-479,591	-100,692	0,045	-0,008
-478,576	-200,000	-0,003	0,038
-477,562	-90,099	-0,121	-0,025
-476,547	-200,000	0,008	0,037
-475,532	18,427	0,063	-0,037
-474,518	95,930	-0,086	0,072
-473,503	155,904	0,063	-0,063
-472,489	100,370	-0,114	0,097
-471,474	244,748	0,087	-0,107
-470,459	800,000	-0,058	-0,129
-469,445	-20,765	-0,186	-0,083
-468,430	-138,293	0,084	0,007
-467,416	-13,596	-0,072	-0,034
-466,401	-32,596	-0,176	0,071
-465,386	-200,000	0,041	0,211
-464,372	-200,000	-0,019	0,069
-463,357	494,901	0,062	0,105
-462,343	800,000	0,038	-0,103
-461,328	213,206	-0,060	-0,070
-460,313	-200,000	-0,008	0,071
-459,299	-200,000	-0,020	0,075
-458,284	52,331	0,086	0,060
-457,270	-200,000	-0,028	0,162
-456,255	-200,000	-0,008	-0,071
-455,241	-85,934	-0,086	0,019
-454,226	10,987	-0,041	0,023
-453,211	800,000	0,022	-0,050
-452,197	304,520	0,048	-0,065
-451,182	800,000	0,031	0,080
-450,168	402,093	-0,050	0,076
-449,153	800,000	-0,026	-0,062
-448,138	303,843	-0,072	0,098
-447,124	627,133	0,086	0,159
-446,109	99,702	0,048	0,041
-445,095	-200,000	0,007	0,139
-444,080	800,000	0,075	0,154
-443,065	800,000	0,015	0,031
-442,051	110,296	0,093	-0,081
-441,036	-111,191	0,101	-0,015
-440,022	42,125	0,035	0,023
-439,007	-200,000	0,040	0,139
-437,992	341,035	0,041	-0,059
-436,978	-91,709	-0,101	-0,021
-435,963	-135,157	0,048	0,004
-434,949	-200,000	-0,016	-0,081
-433,934	-139,159	-0,138	-0,011
-432,919	-63,900	-0,031	-0,009
-431,905	-200,000	-0,036	-0,121
-430,890	-105,919	0,092	-0,015
-429,876	287,548	0,098	0,129
-428,861	-200,000	-0,039	0,187
-427,846	-109,166	-0,066	0,010
-426,832	-47,652	0,138	-0,048
-425,817	-200,000	-0,001	-0,126
-424,803	-153,134	-0,069	0,003
-423,788	239,166	0,069	0,084
-422,773	-73,251	0,104	-0,027
-421,759	67,282	0,124	-0,092
-420,744	336,375	-0,069	-0,098
-419,730	485,836	-0,034	-0,057
-418,715	429,019	-0,046	-0,073
-417,701	198,462	0,039	0,044
-416,686	-200,000	0,008	-0,095
-415,671	-200,000	0,022	0,089
-414,657	-104,063	-0,034	0,006
-413,642	83,825	0,120	-0,095
-412,628	53,327	0,025	0,017
-411,613	800,000	0,037	0,119
-410,598	-12,098	0,055	-0,026
-409,584	-57,740	0,046	-0,015
-408,569	-200,000	-0,037	0,145
-407,555	281,084	-0,015	0,020
-406,540	-70,066	-0,039	-0,011
-405,525	-88,312	-0,115	0,025
-404,511	399,748	-0,032	-0,049
-403,496	-12,847	0,045	-0,021
-402,482	-153,965	-0,084	-0,004
-401,467	-165,862	0,113	0,003
-400,452	-200,000	0,015	0,129
-399,438	-95,230	-0,098	-0,019
-398,423	11,545	0,072	0,040
-397,409	206,691	0,078	-0,089
-396,394	713,453	0,048	-0,093
-395,379	250,791	-0,067	-0,084
-394,365	-135,813	-0,148	0,013
-393,350	-144,216	0,084	0,006
-392,336	-101,730	-0,137	-0,024
-391,321	500,718	0,005	0,008
-390,306	42,719	-0,113	-0,075
-389,292	800,000	0,032	-0,068
-388,277	226,078	0,071	0,084
-387,263	169,349	0,024	-0,025
-386,248	-60,593	0,037	-0,011
-385,233	-200,000	0,011	0,063
-384,219	-79,783	0,047	0,011
-383,204	0,486	-0,155	0,080
-382,190	-184,699	-0,103	-0,001
-381,175	147,945	0,046	0,045
-380,160	800,000	-0,028	0,088
-379,146	152,433	0,145	0,144
-378,131	-53,092	-0,068	0,023
-377,117	-114,107	0,033	-0,005
-376,102	40,700	-0,081	-0,053
-375,088	-82,122	-0,094	-0,022
-374,073	-1,565	-0,048	0,025
-373,058	-73,786	0,029	-0,008
-372,044	57,791	-0,019	0,013
-371,029	-200,000	-0,013	-0,116
-370,015	217,724	0,054	0,063
-369,000	-104,136	0,012	0,002
-367,985	441,217	0,038	-0,060
-366,971	-187,076	0,090	0,001
-365,956	111,777	-0,148	-0,129
-364,942	-98,297	-0,036	-0,007
-363,927	726,604	0,008	0,016
-362,912	-38,093	-0,140	-0,054
-361,898	800,000	-0,078	0,178
-360,883	-200,000	0,003	-0,036
-359,869	800,000	-0,014	-0,029
-358,854	800,000	0,036	-0,093
-357,839	-88,731	0,057	0,012
-356,825	-40,801	-0,115	0,043
-355,810	-200,000	-0,006	-0,079
-354,796	-40,526	0,078	0,029
-353,781	383,415	-0,064	-0,096
-352,766	-200,000	-0,020	-0,079
-351,752	-99,168	0,165	0,030
-350,737	-119,583	0,094	0,012
-349,723	-132,291	-0,119	-0,011
-348,708	-10,899	0,187	0,090
-347,693	-87,520	0,118	0,026
-346,679	6,522	-0,137	-0,074
-345,664	51,921	0,033	0,023
-344,650	-80,663	0,130	0,031
-343,635	-200,000	-0,045	0,195
-342,620	800,000	0,047	0,140
-341,606	-99,408	0,118	-0,021
-340,591	316,478	-0,086	0,118
-339,577	-97,307	0,026	-0,005
-338,562	-129,058	-0,128	0,013
-337,548	-200,000	0,119	0,000
-336,533	309,739	0,107	0,145
-335,518	776,878	0,052	0,104
-334,504	800,000	0,020	0,047
-333,489	-112,861	-0,150	0,021
-332,475	214,834	-0,046	-0,053
-331,460	-5,165	-0,067	-0,033
-330,445	-58,111	0,102	-0,032
-329,431	800,000	-0,040	0,114
-328,416	67,551	-0,081	0,060
-327,402	800,000	0,026	-0,064
-326,387	207,139	0,100	0,113
-325,372	800,000	0,039	0,084
-324,358	-148,647	-0,106	0,006
-323,343	-200,000	0,013	-0,098
-322,329	-200,000	-0,043	0,274
-321,314	-200,000	0,013	0,123
-320,299	-200,000	0,005	0,183
-319,285	800,000	-0,051	0,105
-318,270	700,129	0,025	0,048
-317,256	28,829	0,074	-0,046
-316,241	800,000	0,052	0,109
-315,226	-34,947	0,074	0,029
-314,212	267,041	0,027	0,034
-313,197	800,000	0,024	0,064
-312,183	-120,786	0,077	0,009
-311,168	-149,481	0,053	-0,003
-310,153	509,986	-0,052	-0,088
-309,139	-200,000	0,015	-0,090
-308,124	785,462	-0,019	0,039
-307,110	-149,490	0,211	0,012
-306,095	-81,189	0,095	-0,023
-305,080	792,411	-0,045	0,090
-304,066	-200,000	-0,013	-0,123
-303,051	341,657	0,040	-0,057
-302,037	-200,000	-0,018	-0,117
-301,022	-200,000	0,027	-0,113
-300,008	-104,881	0,090	-0,015
-298,993	-71,265	-0,066	-0,018
-297,978	227,000	0,113	0,133
-296,964	-158,121	-0,042	0,002
-295,949	-73,886	-0,110	-0,029
-294,935	800,000	0,009	0,022
-293,920	-194,942	0,058	-0,000
-292,905	-38,036	0,039	-0,015
-291,891	491,570	0,009	-0,015
-290,876	800,000	0,040	-0,104
-289,862	-1,042	0,043	-0,022
-288,847	-53,896	-0,066	0,022
-287,832	125,118	0,003	0,002
-286,818	32,952	0,101	-0,063
-285,803	406,795	0,015	0,023
-284,789	-96,050	0,116	0,022
-283,774	-200,000	-0,011	0,186
-282,759	-29,190	-0,064	-0,027
-281,745	-74,980	-0,067	-0,017
-280,730	-200,000	0,009	-0,191
-279,716	-147,579	-0,039	-0,002
-278,701	181,606	0,109	0,116
-277,686	34,304	0,138	0,087
-276,672	86,468	0,156	0,125
-275,657	603,980	-0,010	-0,018
-274,643	683,222	-0,052	-0,099
-273,628	385,105	-0,091	-0,137
-272,613	-49,129	0,028	-0,009
-271,599	800,000	0,025	-0,076
-270,584	6,796	0,174	0,094
-269,570	110,937	-0,066	-0,058
-268,555	-163,398	0,076	-0,003
-267,540	-200,000	-0,015	-0,128
-266,526	431,249	-0,097	-0,153
-265,511	-200,000	-0,011	-0,039
-264,497	-200,000	-0,023	-0,150
-263,482	800,000	0,057	0,147
-262,467	-93,525	0,014	-0,003
-261,453	42,200	0,156	-0,102
-260,438	199,732	-0,076	0,084
-259,424	-200,000	0,003	-0,012
-258,409	292,055	0,043	-0,056
-257,395	-94,288	-0,018	0,003
-256,380	171,518	0,030	0,032
-255,365	-24,447	-0,073	-0,031
-254,351	-173,422	0,171	-0,004
-253,336	800,000	-0,029	-0,062
-252,322	47,122	0,042	-0,028
-251,307	224,366	-0,089	-0,104
-250,292	-200,000	0,019	0,133
-249,278	421,765	-0,096	-0,150
-248,263	-85,537	-0,056	-0,013
-247,249	408,013	0,026	0,040
-246,234	182,887	-0,046	0,049
-245,219	-8,432	-0,045	-0,022
-244,205	-8,932	-0,113	-0,055
-243,190	-20,281	0,089	-0,040
-242,176	-88,541	0,047	0,010
-241,161	514,687	-0,071	0,121
-240,146	265,989	0,055	-0,070
-239,132	355,661	0,034	0,049
-238,117	800,000	-0,027	-0,077
-237,103	31,895	-0,044	-0,027
-236,088	114,335	0,090	0,079
-235,073	11,518	0,082	0,045
-234,059	-34,419	-0,026	0,010
-233,044	-200,000	-0,003	-0,017
-232,030	-188,096	-0,062	0,001
-231,015	84,394	-0,040	0,032
-230,000	467,919	0,023	0,038
-228,986	-200,000	-0,027	-0,179
-227,971	-83,602	0,127	-0,029
-226,957	-106,107	0,108	-0,017
-225,942	-200,000	0,005	0,067
-224,927	321,846	0,044	-0,060
-223,913	-200,000	-0,014	-0,142
-222,898	-104,530	-0,055	-0,009
-221,884	527,521	0,045	-0,077
-220,869	-200,000	-0,005	-0,039
-219,855	-118,759	-0,064	-0,008
-218,840	-147,825	0,011	-0,001
-217,825	380,134	0,022	0,032
-216,811	78,566	-0,154	-0,119
-215,796	-108,872	0,065	-0,010
-214,782	-23,717	0,007	0,003
-213,767	-7,166	0,108	0,053
-212,752	-200,000	0,003	0,073
-211,738	47,849	0,104	-0,070
-210,723	123,621	0,043	0,039
-209,709	-36,494	-0,103	-0,040
-208,694	-200,000	0,003	0,014
-207,679	800,000	0,045	-0,105
-206,665	296,152	0,024	0,032
-205,650	800,000	-0,031	0,080
-204,636	800,000	0,062	0,132
-203,621	-70,385	0,078	0,021
-202,606	99,513	-0,039	0,033
-201,592	-200,000	0,003	0,015
-200,577	-82,581	0,036	-0,008
-199,563	800,000	-0,025	-0,067
-198,548	423,298	0,049	0,077
-197,533	800,000	-0,032	0,100
-196,519	-200,000	-0,024	-0,083
-195,504	344,907	0,027	0,039
-194,490	-200,000	0,012	-0,109
-193,475	-95,275	-0,052	-0,010
-192,460	-98,218	0,067	-0,012
-191,446	-7,010	0,172	-0,084
-190,431	264,366	0,035	0,045
-189,417	-200,000	-0,008	0,092
-188,402	-200,000	-0,014	0,072
-187,387	-200,000	-0,018	-0,072
-186,373	-106,734	0,093	0,015
-185,358	58,329	-0,157	-0,111
-184,344	16,568	-0,069	0,039
-183,329	-99,064	0,104	-0,019
-182,315	28,546	-0,044	-0,027
-181,300	34,413	0,004	-0,003
-180,285	341,206	0,008	0,012
-179,271	79,611	0,100	-0,077
-178,256	116,858	-0,043	0,038
-177,242	134,962	0,114	-0,107
-176,227	800,000	-0,058	-0,150
-175,212	14,549	0,111	-0,062
-174,198	-128,827	-0,189	0,019
-173,183	-118,621	-0,144	0,018
-172,169	-31,485	0,105	-0,043
-171,154	-30,768	-0,088	-0,036
-170,139	-200,000	-0,008	0,044
-169,125	-80,387	0,054	0,013
-168,110	800,000	0,016	-0,042
-167,096	-200,000	0,007	-0,026
-166,081	-115,318	0,092	-0,012
-165,066	-31,293	-0,055	-0,022
-164,052	374,519	0,028	0,042
-163,037	-63,048	0,041	-0,012
-162,023	-200,000	0,027	0,119
-161,008	128,815	0,055	0,050
-159,993	-200,000	0,011	-0,153
-158,979	171,046	-0,080	0,082
-157,964	411,880	-0,079	0,122
-156,950	800,000	0,031	-0,087
-155,935	176,734	-0,018	0,019
-154,920	654,764	0,027	0,051
-153,906	14,317	0,018	-0,010
-152,891	-200,000	0,027	0,174
-151,877	-152,401	-0,121	0,006
-150,862	231,940	0,036	-0,042
-149,847	729,198	0,023	-0,045
-148,833	340,195	-0,065	-0,092
-147,818	73,409	0,073	0,055
-146,804	-67,756	0,159	0,044
-145,789	409,037	-0,102	0,157
-144,775	-29,724	-0,097	0,040
-143,760	-200,000	0,006	-0,028
-142,745	308,910	-0,086	0,115
-141,731	-200,000	-0,004	-0,043
-140,716	-200,000	-0,008	0,097
-139,702	-10,976	0,176	0,083
-138,687	259,917	-0,085	-0,106
-137,672	800,000	-0,027	-0,065
-136,658	-21,686	-0,132	0,058
-135,643	-59,529	-0,119	0,037
-134,629	41,664	-0,056	-0,037
-133,614	351,753	0,044	-0,063
-132,599	-89,064	0,076	-0,016
-131,585	-98,928	0,128	-0,023
-130,570	611,262	-0,057	-0,102
-129,556	200,086	-0,062	-0,068
-128,541	21,155	-0,066	-0,039
-127,526	83,931	-0,023	0,018
-126,512	-200,000	-0,006	-0,037
-125,497	10,861	0,080	0,044
-124,483	-200,000	0,010	0,183
-123,468	-200,000	0,003	0,067
-122,453	461,861	-0,069	-0,112
-121,439	-200,000	-0,012	0,152
-120,424	-200,000	0,006	-0,051
-119,410	10,225	0,055	-0,030
