DTS Sentinel unit serial number:	SN410029Multiplexer serial number:	ORYXHardware model number:	OX2-SRSoftware version number:	ORYX F/W v4,00 Oryx Data Collector v3.7.2.0data status	okinstallation	B6 Nyhavnadifferential loss correction	single-endedforward channel	channel 2reverse channel	N/Adate	2023/12/09time	18:15:08forward acquisition time	300,00reverse acquisition time	0,00gamma	499,1914k internal	0,3130k external	0,3130temperature offset calibration	1,0000default loss term (dB/km)	0,3820temperature slope calibration	1,0000multiplexer offset coefficient	1,0000multiplexer slope coefficient	1,0000fibre end	0,00T internal ref (°C)	21,04T ext. ref 1 (°C)	4,74T ext. ref 2 (°C)	4,76length (m)	temperature (°C)	Stokes	anti-Stokes-744,400	-200,000	-0,026	-0,086
-743,385	-5,661	-0,144	0,073
-742,371	-200,000	0,008	-0,042
-741,356	-83,144	-0,140	0,033
-740,342	-25,468	0,022	-0,010
-739,327	33,151	-0,088	0,057
-738,312	800,000	0,036	-0,117
-737,298	-15,402	-0,333	0,158
-736,283	-7,461	0,125	0,063
-735,269	7,078	-0,258	0,142
-734,254	557,877	0,034	0,061
-733,239	-121,234	-0,406	-0,050
-732,225	-90,702	0,164	-0,035
-731,210	-11,501	0,059	0,029
-730,196	222,784	0,097	0,116
-729,181	-1,360	0,104	-0,054
-728,167	-1,068	-0,111	0,058
-727,152	800,000	0,032	0,098
-726,137	217,393	-0,042	0,050
-725,123	-181,370	-0,105	0,002
-724,108	-82,846	-0,076	-0,018
-723,094	-138,037	-0,130	0,011
-722,079	117,126	0,037	-0,034
-721,064	-163,104	-0,110	0,004
-720,050	477,565	0,086	0,145
-719,035	-159,014	-0,052	0,002
-718,021	-200,000	-0,001	-0,125
-717,006	-130,806	-0,048	-0,005
-715,991	800,000	-0,050	-0,152
-714,977	417,586	-0,087	0,139
-713,962	294,467	-0,107	-0,145
-712,948	800,000	-0,041	-0,124
-711,933	45,031	-0,095	-0,065
-710,918	46,848	-0,089	-0,061
-709,904	-200,000	0,048	-0,222
-708,889	224,184	-0,055	-0,066
-707,875	105,820	-0,115	-0,101
-706,860	45,255	-0,049	0,033
-705,845	-200,000	-0,008	0,116
-704,831	-101,941	-0,114	0,020
-703,816	309,669	-0,071	0,099
-702,802	246,364	0,059	0,074
-701,787	-166,187	0,080	0,002
-700,772	-200,000	-0,013	0,072
-699,758	410,927	0,060	-0,094
-698,743	-200,000	0,007	-0,080
-697,729	223,353	0,102	-0,123
-696,714	140,175	-0,102	-0,100
-695,699	800,000	0,038	-0,090
-694,685	8,091	-0,045	0,025
-693,670	208,981	0,030	0,035
-692,656	-114,332	-0,177	-0,025
-691,641	-200,000	0,006	-0,158
-690,627	800,000	-0,023	0,064
-689,612	165,179	0,036	-0,037
-688,597	-132,378	-0,052	-0,005
-687,583	181,802	0,096	-0,105
-686,568	-200,000	0,034	-0,112
-685,554	-200,000	0,022	-0,138
-684,539	-200,000	0,010	0,076
-683,524	182,042	0,066	-0,072
-682,510	101,750	0,078	-0,068
-681,495	444,292	0,106	-0,173
-680,481	-200,000	0,016	-0,097
-679,466	-200,000	-0,010	-0,170
-678,451	-113,572	-0,087	-0,013
-677,437	467,338	-0,052	0,086
-676,422	17,081	0,024	-0,014
-675,408	-200,000	0,014	0,110
-674,393	-200,000	-0,004	-0,069
-673,378	160,007	0,067	-0,069
-672,364	92,531	-0,076	-0,063
-671,349	300,039	0,036	-0,049
-670,335	-200,000	0,015	-0,205
-669,320	44,651	-0,050	-0,034
-668,305	194,113	-0,149	-0,168
-667,291	3,533	-0,096	-0,052
-666,276	44,103	-0,063	0,043
-665,262	67,573	0,096	-0,073
-664,247	-37,645	-0,088	0,034
-663,232	800,000	0,007	0,016
-662,218	205,403	0,084	0,097
-661,203	273,336	-0,100	0,132
-660,189	-26,675	0,061	-0,026
-659,174	-200,000	-0,001	-0,137
-658,159	-20,128	-0,049	-0,022
-657,145	498,587	-0,074	-0,128
-656,130	22,295	0,146	-0,088
-655,116	195,168	-0,042	-0,047
-654,101	-200,000	0,007	-0,114
-653,086	-200,000	-0,025	-0,177
-652,072	124,223	0,044	0,041
-651,057	106,462	-0,103	-0,090
-650,043	800,000	-0,077	-0,169
-649,028	-133,214	0,138	0,013
-648,014	800,000	-0,051	-0,118
-646,999	-98,725	0,073	0,014
-645,984	621,943	-0,050	0,093
-644,970	-86,698	-0,182	-0,041
-643,955	226,780	-0,111	-0,134
-642,941	-200,000	0,001	-0,167
-641,926	-200,000	-0,006	-0,105
-640,911	41,203	0,102	-0,068
-639,897	650,317	-0,049	-0,094
-638,882	-200,000	-0,014	0,175
-637,868	-149,290	0,022	0,001
-636,853	204,146	-0,055	-0,063
-635,838	160,087	-0,074	0,076
-634,824	223,479	0,045	0,054
-633,809	420,414	-0,020	-0,031
-632,795	671,784	0,020	0,038
-631,780	-200,000	-0,004	0,032
-630,765	-19,699	-0,144	0,066
-629,751	-86,893	-0,098	0,022
-628,736	29,651	-0,100	-0,063
-627,722	200,258	0,090	-0,103
-626,707	580,175	-0,082	-0,150
-625,692	-200,000	-0,011	0,057
-624,678	-111,749	-0,109	-0,016
-623,663	756,627	0,012	-0,025
-622,649	53,264	0,066	-0,047
-621,634	-113,669	-0,072	0,010
-620,619	-111,863	-0,170	0,025
-619,605	-68,262	-0,023	-0,007
-618,590	346,254	0,019	0,028
-617,576	-200,000	0,001	0,038
-616,561	-200,000	-0,056	0,275
-615,546	-90,277	-0,035	0,007
-614,532	93,731	-0,055	-0,046
-613,517	566,755	0,015	-0,026
-612,503	-200,000	0,007	-0,092
-611,488	800,000	0,026	0,059
-610,474	295,033	0,024	0,032
-609,459	10,174	0,062	0,035
-608,444	-176,769	-0,166	-0,003
-607,430	-117,488	-0,139	-0,018
-606,415	289,750	-0,026	0,035
-605,401	-34,799	-0,029	0,012
-604,386	-200,000	0,013	-0,057
-603,371	105,608	0,105	0,092
-602,357	800,000	0,038	-0,115
-601,342	-200,000	0,015	0,068
-600,328	-100,442	-0,043	0,008
-599,313	-200,000	-0,013	-0,044
-598,298	-60,405	-0,109	0,034
-597,284	-200,000	0,147	-0,000
-596,269	-29,170	-0,144	0,061
-595,255	26,995	-0,082	-0,051
-594,240	-200,000	0,000	-0,090
-593,225	-200,000	-0,034	0,158
-592,211	-93,407	-0,084	-0,017
-591,196	-200,000	0,003	-0,045
-590,182	37,691	-0,053	0,035
-589,167	3,626	0,178	0,096
-588,152	687,481	-0,051	0,098
-587,138	800,000	-0,036	-0,108
-586,123	751,559	-0,041	-0,081
-585,109	-31,936	-0,047	-0,019
-584,094	-129,469	-0,069	-0,007
-583,079	800,000	0,027	-0,063
-582,065	250,160	-0,099	0,125
-581,050	169,707	0,018	-0,019
-580,036	149,198	0,045	-0,045
-579,021	134,916	-0,036	0,035
-578,006	-200,000	0,009	-0,115
-576,992	-200,000	-0,017	0,070
-575,977	-38,881	-0,064	0,025
-574,963	800,000	-0,024	-0,054
-573,948	248,338	0,058	0,072
-572,934	16,476	-0,097	-0,056
-571,919	411,614	-0,092	-0,144
-570,904	122,735	-0,026	0,024
-569,890	49,521	-0,139	-0,097
-568,875	-138,491	0,049	-0,004
-567,861	-1,530	0,067	0,035
-566,846	-132,359	-0,070	0,007
-565,831	-115,620	0,095	-0,013
-564,817	-200,000	0,002	0,077
-563,802	283,750	-0,029	0,039
-562,788	800,000	0,037	-0,083
-561,773	-116,554	0,097	-0,013
-560,758	800,000	-0,036	0,084
-559,744	148,788	-0,083	-0,083
-558,729	-200,000	0,011	-0,091
-557,715	9,401	-0,026	-0,014
-556,700	692,664	0,018	-0,036
-555,685	358,983	-0,029	0,043
-554,671	252,140	-0,017	-0,021
-553,656	800,000	-0,039	0,104
-552,642	-200,000	-0,011	-0,064
-551,627	21,787	-0,082	-0,049
-550,612	381,799	-0,077	0,118
-549,598	-200,000	0,011	-0,078
-548,583	800,000	0,024	-0,067
-547,569	8,334	0,158	-0,087
-546,554	277,882	0,044	-0,058
-545,539	-200,000	-0,000	0,147
-544,525	165,176	0,082	0,086
-543,510	-200,000	0,002	0,114
-542,496	466,825	-0,066	-0,110
-541,481	135,625	0,089	0,085
-540,466	76,450	-0,106	0,083
-539,452	89,288	0,041	-0,034
-538,437	302,272	0,031	0,043
-537,423	139,124	0,072	-0,070
-536,408	-146,382	-0,015	0,001
-535,393	-85,214	0,019	0,004
-534,379	33,565	-0,016	0,010
-533,364	-200,000	-0,009	-0,065
-532,350	-89,779	0,064	0,014
-531,335	204,626	-0,025	0,029
-530,321	-200,000	-0,036	0,192
-529,306	800,000	-0,032	0,071
-528,291	-166,298	0,099	0,003
-527,277	798,264	0,004	-0,007
-526,262	-200,000	-0,005	-0,054
-525,248	800,000	0,061	-0,135
-524,233	-81,125	0,055	-0,013
-523,218	191,769	0,076	0,084
-522,204	-200,000	0,002	0,112
-521,189	486,110	-0,101	-0,170
-520,175	-133,635	0,060	0,005
-519,160	-22,651	-0,097	0,043
-518,145	31,147	-0,118	0,075
-517,131	-200,000	-0,013	0,075
-516,116	483,311	0,060	0,102
-515,102	-51,610	-0,072	0,025
-514,087	588,780	0,031	-0,056
-513,072	-200,000	0,023	0,082
-512,058	-48,348	0,106	0,038
-511,043	7,096	-0,054	-0,030
-510,029	68,992	0,033	-0,025
-509,014	-200,000	0,041	0,137
-507,999	95,406	-0,020	0,017
-506,985	169,027	-0,058	-0,061
-505,970	-82,639	-0,089	0,021
-504,956	0,886	-0,109	-0,058
-503,941	-82,504	-0,067	0,016
-502,926	-92,344	0,095	-0,020
-501,912	99,783	-0,048	-0,041
-500,897	-6,402	0,043	-0,022
-499,883	-101,826	0,072	0,013
-498,868	-200,000	-0,018	0,062
-497,853	-20,202	-0,138	0,062
-496,839	-200,000	-0,004	-0,105
-495,824	-142,443	0,068	-0,005
-494,810	800,000	0,062	0,170
-493,795	800,000	-0,005	0,013
-492,781	-200,000	-0,005	-0,038
-491,766	-78,258	-0,164	0,041
-490,751	800,000	0,089	-0,226
-489,737	-200,000	-0,013	-0,111
-488,722	246,395	0,093	-0,115
-487,708	569,524	0,042	0,075
-486,693	-99,740	-0,149	-0,027
-485,678	800,000	0,020	-0,059
-484,664	-200,000	-0,028	-0,133
-483,649	-200,000	-0,021	-0,078
-482,635	37,908	0,078	-0,051
-481,620	-69,539	-0,100	-0,028
-480,605	54,352	-0,005	-0,003
-479,591	-86,418	0,103	-0,023
-478,576	-200,000	-0,007	-0,172
-477,562	285,075	-0,047	-0,062
-476,547	174,111	0,027	-0,029
-475,532	-67,672	-0,089	-0,025
-474,518	800,000	0,032	0,069
-473,503	-128,434	-0,056	0,006
-472,489	-5,200	0,045	0,023
-471,474	-200,000	0,003	0,099
-470,459	-200,000	-0,006	0,111
-469,445	-116,981	0,086	0,011
-468,430	1,702	0,130	-0,069
-467,416	24,300	-0,088	-0,053
-466,401	353,708	0,044	-0,064
-465,386	-77,328	0,123	-0,031
-464,372	-118,941	-0,042	0,005
-463,357	-200,000	-0,032	-0,151
-462,343	272,582	0,069	-0,089
-461,328	-200,000	-0,003	0,158
-460,313	800,000	0,028	0,077
-459,299	15,678	0,010	-0,006
-458,284	-16,092	-0,051	0,024
-457,270	-54,747	-0,101	0,033
-456,255	399,243	0,092	0,142
-455,241	394,513	0,011	0,016
-454,226	377,744	-0,015	0,022
-453,211	678,238	-0,047	0,091
-452,197	-200,000	-0,002	0,131
-451,182	383,565	-0,040	-0,061
-450,168	800,000	0,009	-0,026
-449,153	-200,000	-0,007	-0,051
-448,138	-67,254	-0,066	0,019
-447,124	-200,000	-0,014	-0,082
-446,109	-142,693	-0,068	0,005
-445,095	800,000	-0,008	0,022
-444,080	-17,488	0,069	-0,032
-443,065	172,623	-0,010	0,011
-442,051	-38,997	-0,055	-0,021
-441,036	-200,000	0,013	-0,077
-440,022	-200,000	0,021	-0,076
-439,007	378,713	-0,070	-0,105
-437,992	-200,000	0,016	0,096
-436,978	450,662	-0,018	-0,029
-435,963	800,000	0,071	0,146
-434,949	-200,000	-0,029	0,158
-433,934	-55,871	-0,092	-0,030
-432,919	129,597	-0,050	0,047
-431,905	-117,669	-0,141	0,018
-430,890	655,165	0,047	-0,089
-429,876	9,455	0,030	-0,017
-428,861	-200,000	0,016	-0,106
-427,846	16,506	-0,060	0,035
-426,832	-200,000	0,027	-0,099
-425,817	-200,000	0,020	-0,067
-424,803	-15,262	0,059	0,028
-423,788	-78,188	0,132	-0,033
-422,773	-88,625	0,092	0,020
-421,759	256,433	-0,075	0,095
-420,744	143,164	0,082	0,080
-419,730	-200,000	-0,013	0,051
-418,715	-200,000	0,000	-0,013
-417,701	-200,000	0,016	-0,075
-416,686	-63,185	0,071	-0,021
-415,671	-125,364	0,099	0,011
-414,657	44,704	0,058	0,039
-413,642	46,416	0,049	-0,033
-412,628	480,434	-0,046	-0,077
-411,613	313,737	0,034	-0,048
-410,598	800,000	-0,043	0,118
-409,584	-200,000	-0,054	0,000
-408,569	38,294	0,139	-0,091
-407,555	-36,522	-0,044	-0,017
-406,540	-200,000	0,008	0,096
-405,525	-3,687	0,140	-0,071
-404,511	82,471	0,056	0,044
-403,496	-200,000	0,007	0,042
-402,482	800,000	-0,042	0,099
-401,467	187,568	-0,037	0,040
-400,452	49,742	-0,141	0,097
-399,438	-150,926	-0,085	0,005
-398,423	-200,000	-0,002	-0,171
-397,409	-86,573	-0,063	-0,014
-396,394	-25,148	-0,020	0,009
-395,379	-200,000	0,034	-0,146
-394,365	-48,402	0,105	0,037
-393,350	-86,276	0,158	0,035
-392,336	66,187	0,040	0,029
-391,321	92,067	0,024	-0,020
-390,306	634,543	-0,025	-0,047
-389,292	-42,329	0,126	-0,047
-388,277	800,000	-0,049	-0,151
-387,263	800,000	0,018	-0,049
-386,248	258,440	0,031	0,039
-385,233	-169,182	0,139	-0,004
-384,219	-120,444	0,042	0,005
-383,204	-160,041	-0,036	-0,001
-382,190	-40,176	-0,132	0,050
-381,175	-78,811	-0,061	-0,015
-380,160	43,720	-0,031	-0,021
-379,146	-117,385	0,124	0,016
-378,131	-200,000	0,008	0,099
-377,117	603,830	-0,067	-0,123
-376,102	-58,576	-0,034	0,011
-375,088	-78,150	-0,103	0,026
-374,073	-200,000	-0,017	-0,089
-373,058	-200,000	0,017	0,091
-372,044	800,000	-0,030	-0,090
-371,029	-200,000	0,017	0,096
-370,015	-55,564	0,070	-0,023
-369,000	-200,000	-0,012	0,041
-367,985	-95,663	-0,148	-0,029
-366,971	379,176	0,067	0,101
-365,956	-200,000	-0,017	0,080
-364,942	522,824	0,032	-0,055
-363,927	-83,297	0,036	0,008
-362,912	-62,386	0,050	-0,015
-361,898	273,409	0,079	-0,103
-360,883	17,910	-0,092	0,053
-359,869	-80,788	-0,120	-0,029
-358,854	60,801	0,152	0,111
-357,839	-159,854	0,028	-0,001
-356,825	-152,032	-0,064	-0,003
-355,810	153,269	-0,023	0,023
-354,796	106,661	-0,034	-0,029
-353,781	-144,317	0,055	-0,004
-352,766	274,024	-0,086	0,111
-351,752	-200,000	-0,010	0,146
-350,737	108,987	-0,102	0,089
-349,723	-200,000	0,027	0,156
-348,708	-77,133	0,018	0,005
-347,693	-200,000	0,018	0,092
-346,679	-17,433	-0,117	0,054
-345,664	359,533	-0,025	-0,037
-344,650	-53,881	-0,035	-0,011
-343,635	288,119	0,049	0,065
-342,620	426,793	-0,042	0,066
-341,606	800,000	0,039	0,123
-340,591	-200,000	0,030	-0,121
-339,577	115,559	-0,073	0,066
-338,562	-54,350	-0,050	-0,017
-337,548	-9,309	-0,070	0,034
-336,533	-28,646	-0,051	0,022
-335,518	-85,508	-0,043	0,010
-334,504	800,000	0,021	-0,045
-333,489	110,627	0,131	-0,116
-332,475	-60,163	0,029	0,009
-331,460	-200,000	0,004	-0,073
-330,445	360,293	0,094	-0,138
-329,431	800,000	-0,015	-0,030
-328,416	232,227	0,061	0,073
-327,402	422,594	-0,039	-0,062
-326,387	15,050	-0,085	0,048
-325,372	-3,507	-0,051	-0,026
-324,358	83,528	-0,046	-0,037
-323,343	-9,118	-0,048	-0,024
-322,329	105,138	-0,097	-0,084
-321,314	113,835	-0,015	0,013
-320,299	-27,777	0,078	-0,033
-319,285	800,000	-0,033	-0,105
-318,270	-73,994	0,153	-0,040
-317,256	-200,000	-0,019	-0,087
-316,241	-64,780	0,104	-0,031
-315,226	-200,000	0,021	-0,133
-314,212	86,174	0,075	0,060
-313,197	5,980	0,116	0,063
-312,183	106,055	0,047	0,040
-311,168	325,665	-0,030	-0,042
-310,153	122,584	-0,129	-0,118
-309,139	24,075	0,147	0,089
-308,124	-200,000	0,001	0,014
-307,110	800,000	0,063	0,159
-306,095	-108,977	-0,100	0,015
-305,080	197,301	0,145	0,162
-304,066	-200,000	-0,015	-0,074
-303,051	-200,000	0,011	-0,092
-302,037	148,649	0,044	-0,043
-301,022	79,248	0,022	0,017
-300,008	151,271	0,052	0,052
-298,993	-200,000	-0,005	0,175
-297,978	-200,000	0,003	0,224
-296,964	-43,521	0,086	-0,032
-295,949	-200,000	-0,006	-0,073
-294,935	800,000	0,012	-0,026
-293,920	800,000	-0,047	0,121
-292,905	72,560	0,136	-0,104
-291,891	-123,769	0,060	-0,007
-290,876	800,000	0,010	-0,025
-289,862	64,589	-0,041	0,030
-288,847	-200,000	-0,009	0,052
-287,832	-200,000	-0,007	0,040
-286,818	-200,000	-0,010	0,070
-285,803	-200,000	-0,193	-0,001
-284,789	225,962	-0,064	-0,075
-283,774	-46,544	-0,027	0,010
-282,759	65,871	0,063	0,047
-281,745	511,039	-0,089	-0,153
-280,730	-200,000	-0,011	0,064
-279,716	800,000	-0,018	0,051
-278,701	272,241	-0,081	0,105
-277,686	-15,204	0,062	-0,029
-276,672	395,641	0,051	0,079
-275,657	800,000	0,065	0,152
-274,643	364,507	-0,058	0,085
-273,628	-33,976	-0,155	0,062
-272,613	-200,000	-0,006	0,048
-271,599	105,347	0,046	0,039
-270,584	-173,182	0,070	-0,002
-269,570	41,380	0,069	-0,046
-268,555	317,708	0,022	-0,030
-267,540	-123,454	-0,019	-0,002
-266,526	-124,554	-0,090	0,010
-265,511	-200,000	0,027	-0,129
-264,497	-200,000	-0,005	-0,016
-263,482	-200,000	0,000	0,083
-262,467	462,754	0,016	0,027
-261,453	-151,137	0,075	-0,004
-260,438	26,488	-0,118	-0,072
-259,424	9,949	-0,059	-0,033
-258,409	-8,072	-0,143	-0,070
-257,395	69,730	-0,034	0,025
-256,380	421,295	0,079	-0,124
-255,365	800,000	0,062	0,127
-254,351	-200,000	0,003	0,029
-253,336	122,258	-0,068	0,062
-252,322	-200,000	0,000	0,024
-251,307	800,000	-0,040	-0,095
-250,292	189,462	0,051	0,056
-249,278	266,569	0,050	0,064
-248,263	93,665	-0,045	-0,037
-247,249	-93,228	0,115	0,023
-246,234	8,672	-0,071	0,039
-245,219	62,203	0,046	0,034
-244,205	800,000	0,039	-0,099
-243,190	-67,674	0,170	0,048
-242,176	360,588	-0,087	0,128
-241,161	238,659	0,066	0,080
-240,146	609,766	0,119	0,217
-239,132	-126,917	0,061	0,006
-238,117	-200,000	-0,018	-0,145
-237,103	-200,000	-0,023	0,094
-236,088	168,896	-0,044	0,046
-235,073	-59,488	0,169	0,053
-234,059	-200,000	-0,019	-0,068
-233,044	800,000	0,044	0,117
-232,030	-200,000	0,013	0,085
-231,015	-200,000	0,010	-0,050
-230,000	-200,000	0,005	-0,111
-228,986	-144,110	-0,066	-0,004
-227,971	115,655	0,093	-0,083
-226,957	-132,219	0,154	0,014
-225,942	800,000	-0,019	0,057
-224,927	123,506	-0,035	-0,032
-223,913	101,682	-0,061	0,052
-222,898	173,114	0,093	-0,098
-221,884	-200,000	-0,022	0,138
-220,869	167,526	0,041	0,043
-219,855	-146,465	0,084	0,005
-218,840	644,984	0,076	0,142
-217,825	-114,426	0,077	0,011
-216,811	-106,254	-0,037	0,006
-215,796	16,901	0,067	-0,038
-214,782	299,078	-0,038	0,051
-213,767	-142,977	0,053	0,004
-212,752	-100,819	-0,143	0,025
-211,738	189,241	0,066	-0,072
-210,723	165,836	-0,024	-0,025
-209,709	-200,000	-0,038	-0,183
-208,694	800,000	-0,010	-0,030
-207,679	-200,000	0,012	-0,187
-206,665	-200,000	-0,009	0,060
-205,650	-26,778	0,120	-0,051
-204,636	800,000	0,021	0,051
-203,621	62,297	0,044	0,032
-202,606	-200,000	-0,014	-0,049
-201,592	-7,859	-0,113	0,055
-200,577	-200,000	0,004	-0,064
-199,563	41,952	-0,140	-0,092
-198,548	-43,076	0,094	0,035
-197,533	-200,000	-0,011	0,111
-196,519	-200,000	0,043	0,000
-195,504	800,000	0,079	-0,175
-194,490	469,871	-0,019	0,031
-193,475	42,448	0,058	-0,038
-192,460	91,345	-0,078	-0,064
-191,446	-102,010	0,089	0,015
-190,431	460,877	-0,025	0,041
-189,417	-106,200	-0,123	-0,020
-188,402	550,988	0,042	-0,073
-187,387	800,000	-0,011	0,027
-186,373	704,799	-0,092	-0,178
-185,358	491,427	0,010	0,017
-184,344	-158,067	-0,007	0,000
-183,329	231,465	0,030	0,036
-182,315	800,000	0,056	0,115
-181,300	1,343	0,075	-0,039
-180,285	800,000	-0,052	-0,129
-179,271	-200,000	-0,028	-0,164
-178,256	16,238	-0,050	0,028
-177,242	154,805	0,064	-0,064
-176,227	-196,874	0,158	0,001
-175,212	-1,393	0,078	0,040
-174,198	-200,000	0,038	-0,143
-173,183	-7,958	-0,083	-0,040
-172,169	56,139	0,026	0,018
-171,154	618,552	0,023	-0,043
-170,139	96,605	-0,004	-0,003
-169,125	343,620	0,112	0,160
-168,110	-79,645	0,069	-0,017
-167,096	-200,000	-0,004	0,138
-166,081	321,240	0,070	-0,097
-165,066	-200,000	-0,002	-0,045
-164,052	67,207	-0,050	-0,037
-163,037	-146,020	0,137	-0,009
-162,023	800,000	0,015	0,046
-161,008	800,000	0,005	0,012
-159,993	-200,000	0,005	0,055
-158,979	800,000	0,078	-0,170
-157,964	-200,000	0,006	-0,094
-156,950	90,487	-0,111	-0,090
-155,935	-55,828	-0,059	-0,019
-154,920	-200,000	0,031	0,173
-153,906	-83,613	0,123	0,028
-152,891	-109,536	-0,107	-0,016
-151,877	61,007	0,025	-0,018
-150,862	800,000	-0,019	-0,061
-149,847	-124,732	-0,046	0,005
-148,833	-38,046	0,087	-0,033
-147,818	-99,485	0,088	-0,016
-146,804	8,217	-0,114	0,062
-145,789	-105,979	0,075	-0,012
-144,775	19,399	-0,067	-0,039
-143,760	-106,656	-0,042	0,007
-142,745	-71,678	0,182	-0,049
-141,731	-200,000	-0,016	-0,062
-140,716	-189,168	-0,024	0,000
-139,702	-103,874	0,136	-0,023
-138,687	72,512	0,029	0,022
-137,672	-190,379	-0,039	0,000
-136,658	164,348	-0,091	0,093
-135,643	-200,000	-0,004	0,132
-134,629	-19,740	-0,022	-0,010
-133,614	-35,751	0,105	0,041
-132,599	119,241	0,047	-0,042
-131,585	-200,000	-0,001	0,009
-130,570	-200,000	-0,016	-0,148
-129,556	97,589	-0,064	-0,054
-128,541	-99,940	0,101	0,018
-127,526	-200,000	0,005	-0,022
-126,512	-162,356	0,097	0,003
-125,497	-90,763	0,057	-0,012
-124,483	800,000	-0,035	0,110
-123,468	-72,045	0,087	0,023
-122,453	92,331	-0,128	-0,104
-121,439	140,892	0,166	-0,160
-120,424	-83,803	-0,091	-0,021
-119,410	-47,862	0,094	0,033
