DTS Sentinel unit serial number:	SN410029Multiplexer serial number:	ORYXHardware model number:	OX2-SRSoftware version number:	ORYX F/W v4,00 Oryx Data Collector v3.7.2.0data status	okinstallation	B6 Nyhavnadifferential loss correction	single-endedforward channel	channel 2reverse channel	N/Adate	2023/12/10time	05:40:08forward acquisition time	300,00reverse acquisition time	0,00gamma	499,1914k internal	0,3124k external	0,3124temperature offset calibration	1,0000default loss term (dB/km)	0,3820temperature slope calibration	1,0000multiplexer offset coefficient	1,0000multiplexer slope coefficient	1,0000fibre end	0,00T internal ref (°C)	22,47T ext. ref 1 (°C)	6,48T ext. ref 2 (°C)	6,45length (m)	temperature (°C)	Stokes	anti-Stokes-744,400	800,000	-0,068	-0,151
-743,385	-109,437	-0,186	0,029
-742,371	-14,061	0,126	0,060
-741,356	-54,610	-0,124	0,042
-740,342	800,000	-0,036	-0,107
-739,327	-124,936	-0,317	0,036
-738,312	166,868	0,080	-0,085
-737,298	9,080	-0,178	0,100
-736,283	-200,000	-0,047	-0,155
-735,269	44,893	-0,119	0,081
-734,254	405,760	0,083	-0,130
-733,239	-105,610	-0,481	-0,080
-732,225	296,377	0,076	0,104
-731,210	-38,005	0,042	0,017
-730,196	-200,000	-0,016	0,124
-729,181	-20,157	-0,117	-0,053
-728,167	-6,111	-0,050	-0,025
-727,152	-200,000	-0,019	-0,197
-726,137	-200,000	0,001	-0,073
-725,123	-41,594	-0,187	-0,071
-724,108	766,518	-0,059	-0,120
-723,094	-200,000	0,006	-0,223
-722,079	440,760	-0,024	-0,039
-721,064	800,000	-0,053	0,112
-720,050	519,844	0,075	0,132
-719,035	800,000	-0,028	0,062
-718,021	147,863	-0,027	-0,027
-717,006	288,059	-0,077	-0,105
-715,991	-31,703	-0,132	-0,055
-714,977	272,709	-0,033	-0,044
-713,962	-88,593	0,045	0,010
-712,948	204,841	-0,091	-0,106
-711,933	-200,000	-0,010	0,053
-710,918	-200,000	-0,015	-0,090
-709,904	-29,109	-0,235	0,100
-708,889	-200,000	0,004	-0,018
-707,875	-200,000	0,000	0,001
-706,860	69,237	-0,047	-0,036
-705,845	-78,143	0,115	0,029
-704,831	-151,335	0,072	-0,004
-703,816	-200,000	-0,002	-0,057
-702,802	788,768	-0,104	-0,214
-701,787	-21,772	0,040	-0,018
-700,772	-200,000	0,023	-0,093
-699,758	-200,000	0,003	0,024
-698,743	77,294	0,087	0,069
-697,729	-200,000	-0,017	-0,111
-696,714	-34,460	-0,094	0,038
-695,699	207,395	0,015	-0,017
-694,685	-79,369	-0,140	-0,035
-693,670	-71,974	-0,045	-0,012
-692,656	-200,000	-0,006	-0,038
-691,641	8,678	-0,124	0,069
-690,627	774,161	0,032	0,066
-689,612	287,636	0,081	-0,109
-688,597	606,796	0,047	-0,087
-687,583	52,741	-0,024	0,017
-686,568	-41,882	0,078	-0,029
-685,554	800,000	-0,006	-0,018
-684,539	-72,402	-0,052	0,014
-683,524	256,893	-0,044	-0,056
-682,510	-121,397	0,053	0,006
-681,495	24,222	0,040	0,025
-680,481	-200,000	-0,029	-0,167
-679,466	-67,178	-0,084	-0,025
-678,451	222,755	-0,092	-0,110
-677,437	142,235	0,042	0,041
-676,422	-200,000	0,004	0,092
-675,408	157,873	-0,032	0,033
-674,393	-200,000	-0,011	0,059
-673,378	-90,920	-0,135	-0,029
-672,364	33,176	-0,060	-0,038
-671,349	417,941	-0,055	-0,088
-670,335	800,000	-0,035	-0,079
-669,320	-80,984	0,138	-0,034
-668,305	365,505	-0,061	-0,092
-667,291	582,151	0,025	0,046
-666,276	-151,588	-0,105	-0,006
-665,262	106,406	-0,040	-0,035
-664,247	-173,708	-0,026	-0,001
-663,232	-200,000	-0,004	0,021
-662,218	325,655	-0,086	-0,122
-661,203	314,921	-0,016	-0,023
-660,189	-82,617	-0,106	0,025
-659,174	227,441	-0,107	-0,130
-658,159	-14,636	-0,076	-0,036
-657,145	800,000	-0,054	-0,135
-656,130	-200,000	-0,013	-0,071
-655,116	121,232	-0,047	-0,044
-654,101	-157,977	0,112	0,005
-653,086	38,237	0,088	-0,058
-652,072	281,895	0,044	-0,059
-651,057	-104,273	0,077	-0,013
-650,043	516,317	0,065	-0,114
-649,028	-150,455	0,041	0,002
-648,014	193,767	-0,153	0,172
-646,999	-200,000	0,011	0,037
-645,984	248,604	0,075	0,095
-644,970	-95,340	0,023	0,005
-643,955	71,792	0,064	0,049
-642,941	-123,987	-0,013	-0,001
-641,926	69,595	0,077	0,059
-640,911	-159,436	-0,089	-0,004
-639,897	-54,320	-0,071	-0,024
-638,882	-149,390	-0,049	-0,003
-637,868	800,000	-0,026	-0,072
-636,853	113,792	0,025	-0,023
-635,838	10,833	-0,071	-0,040
-634,824	-70,415	0,053	0,015
-633,809	-113,802	0,096	-0,014
-632,795	-127,730	-0,099	-0,010
-631,780	800,000	0,039	0,093
-630,765	16,201	-0,047	0,028
-629,751	-200,000	-0,002	-0,051
-628,736	-200,000	0,013	-0,157
-627,722	64,137	-0,079	-0,059
-626,707	257,608	-0,107	0,137
-625,692	-46,490	0,114	0,041
-624,678	-94,081	-0,077	0,015
-623,663	559,650	0,054	0,098
-622,649	174,445	-0,051	0,055
-621,634	-200,000	-0,013	0,091
-620,619	-43,493	-0,126	-0,047
-619,605	-52,262	-0,072	-0,025
-618,590	491,495	0,012	0,020
-617,576	-113,259	0,075	-0,011
-616,561	-200,000	0,014	0,112
-615,546	-142,450	-0,151	0,011
-614,532	-200,000	-0,002	0,040
-613,517	-200,000	0,019	-0,113
-612,503	-29,650	-0,015	0,007
-611,488	-179,642	0,115	0,002
-610,474	-200,000	-0,011	0,063
-609,459	-193,783	0,005	0,000
-608,444	-200,000	0,008	-0,158
-607,430	519,882	-0,031	0,055
-606,415	496,998	-0,045	-0,077
-605,401	-0,743	0,133	0,070
-604,386	19,038	0,073	0,044
-603,371	371,637	-0,059	-0,089
-602,357	314,317	-0,019	0,027
-601,342	118,084	-0,066	-0,060
-600,328	438,209	-0,025	-0,040
-599,313	-166,769	-0,168	0,005
-598,298	129,914	-0,048	-0,045
-597,284	166,710	-0,129	0,136
-596,269	-200,000	0,012	0,087
-595,255	-132,905	0,094	0,009
-594,240	-16,146	-0,076	0,036
-593,225	291,416	0,071	0,095
-592,211	-67,866	-0,104	-0,030
-591,196	800,000	-0,068	0,173
-590,182	-200,000	0,022	-0,098
-589,167	800,000	-0,022	0,051
-588,152	29,084	-0,160	0,100
-587,138	97,816	0,094	0,080
-586,123	800,000	0,036	0,080
-585,109	-129,521	0,037	0,004
-584,094	289,837	-0,067	-0,090
-583,079	800,000	0,026	0,071
-582,065	25,736	-0,064	0,040
-581,050	48,098	0,109	-0,076
-580,036	-59,312	0,070	0,022
-579,021	643,898	-0,033	-0,063
-578,006	-200,000	0,006	-0,022
-576,992	800,000	-0,065	-0,142
-575,977	306,743	0,057	-0,079
-574,963	-8,422	0,048	0,024
-573,948	-37,364	-0,047	-0,018
-572,934	488,125	0,038	-0,064
-571,919	-200,000	0,005	-0,053
-570,904	449,210	-0,023	-0,038
-569,890	135,421	-0,181	-0,175
-568,875	-34,648	0,075	0,030
-567,861	25,940	0,015	-0,009
-566,846	-95,155	-0,055	-0,011
-565,831	-21,434	0,085	-0,038
-564,817	-94,320	0,080	0,016
-563,802	16,227	-0,156	0,091
-562,788	306,696	-0,042	-0,058
-561,773	252,937	0,063	0,080
-560,758	335,055	0,029	0,042
-559,744	53,390	0,107	0,076
-558,729	-186,752	-0,072	0,001
-557,715	10,865	-0,141	-0,080
-556,700	52,061	-0,081	0,057
-555,685	116,359	-0,060	-0,054
-554,671	-112,797	0,058	-0,008
-553,656	-174,561	0,128	-0,003
-552,642	-200,000	0,007	0,051
-551,627	399,942	0,024	-0,037
-550,612	-96,519	0,094	-0,018
-549,598	-169,097	-0,134	0,004
-548,583	183,522	-0,056	-0,062
-547,569	117,438	-0,008	0,008
-546,554	60,446	0,074	0,054
-545,539	-89,945	-0,196	-0,042
-544,525	-60,380	0,115	-0,036
-543,510	800,000	-0,025	0,065
-542,496	-73,398	-0,089	-0,024
-541,481	80,682	0,092	-0,073
-540,466	800,000	-0,027	-0,059
-539,452	-60,030	-0,031	-0,010
-538,437	599,178	-0,043	-0,079
-537,423	173,194	-0,026	-0,028
-536,408	-200,000	0,015	-0,153
-535,393	-200,000	0,006	-0,068
-534,379	621,325	-0,056	0,104
-533,364	300,943	0,089	0,121
-532,350	52,151	-0,074	0,052
-531,335	-65,107	0,023	-0,007
-530,321	-51,325	-0,152	0,052
-529,306	445,011	-0,036	0,058
-528,291	-14,327	-0,093	-0,044
-527,277	183,311	-0,091	-0,099
-526,262	-200,000	0,000	0,019
-525,248	213,391	0,064	0,075
-524,233	231,050	0,075	-0,091
-523,218	-53,630	-0,019	-0,006
-522,204	-179,213	-0,123	-0,002
-521,189	713,530	0,018	0,036
-520,175	179,725	0,007	0,008
-519,160	-200,000	-0,023	-0,163
-518,145	-167,181	-0,084	0,002
-517,131	-11,051	-0,043	0,021
-516,116	114,891	-0,037	-0,033
-515,102	-102,320	0,022	-0,004
-514,087	800,000	0,111	-0,233
-513,072	-200,000	0,024	-0,080
-512,058	166,247	-0,040	-0,042
-511,043	-200,000	0,011	-0,082
-510,029	82,665	0,069	0,056
-509,014	253,022	0,131	0,166
-507,999	-46,383	0,038	-0,014
-506,985	800,000	0,012	-0,036
-505,970	-200,000	-0,008	0,057
-504,956	800,000	-0,022	0,068
-503,941	495,188	-0,019	0,032
-502,926	466,925	0,072	0,120
-501,912	-200,000	0,018	0,093
-500,897	-200,000	0,032	0,204
-499,883	120,366	0,029	-0,027
-498,868	-42,449	-0,114	0,043
-497,853	-200,000	-0,017	0,146
-496,839	-200,000	0,024	0,118
-495,824	-200,000	-0,041	-0,141
-494,810	-49,934	0,080	0,028
-493,795	-91,153	-0,081	0,017
-492,781	-200,000	-0,004	0,183
-491,766	-200,000	-0,021	0,076
-490,751	-200,000	-0,026	-0,090
-489,737	800,000	-0,080	-0,170
-488,722	200,929	0,036	-0,041
-487,708	-5,706	-0,161	0,081
-486,693	-32,820	0,022	0,009
-485,678	2,963	0,032	-0,017
-484,664	800,000	-0,014	-0,038
-483,649	-86,692	-0,046	-0,010
-482,635	-200,000	0,005	-0,046
-481,620	456,346	0,076	-0,126
-480,605	-200,000	-0,036	0,116
-479,591	270,686	-0,051	0,067
-478,576	-200,000	-0,022	-0,118
-477,562	-200,000	0,020	0,088
-476,547	40,193	-0,040	-0,027
-475,532	133,433	-0,065	-0,062
-474,518	33,733	0,040	-0,026
-473,503	-200,000	0,032	0,129
-472,489	-53,506	0,133	0,045
-471,474	-19,832	0,038	-0,017
-470,459	-107,022	0,067	0,011
-469,445	172,758	-0,103	0,109
-468,430	-200,000	-0,026	-0,119
-467,416	-41,401	0,145	0,055
-466,401	-4,188	0,065	-0,033
-465,386	-200,000	-0,015	0,135
-464,372	-200,000	0,018	0,061
-463,357	57,977	-0,110	-0,080
-462,343	-200,000	-0,017	-0,084
-461,328	333,885	0,039	0,056
-460,313	38,187	0,036	0,023
-459,299	-200,000	-0,018	0,108
-458,284	-145,023	0,097	-0,006
-457,270	89,782	-0,051	-0,042
-456,255	-200,000	-0,010	0,055
-455,241	800,000	-0,035	0,076
-454,226	-101,983	-0,034	-0,006
-453,211	231,725	0,098	0,119
-452,197	800,000	-0,053	0,109
-451,182	800,000	0,052	0,139
-450,168	-200,000	-0,004	0,047
-449,153	-86,802	0,050	-0,011
-448,138	-119,794	-0,141	-0,018
-447,124	85,727	-0,089	-0,072
-446,109	-72,293	-0,111	-0,030
-445,095	800,000	-0,032	0,071
-444,080	146,701	0,011	-0,011
-443,065	-38,989	-0,043	-0,017
-442,051	316,804	-0,013	0,018
-441,036	510,359	0,039	-0,067
-440,022	252,706	-0,015	0,018
-439,007	8,048	-0,090	0,049
-437,992	234,685	-0,062	-0,076
-436,978	72,260	-0,066	0,051
-435,963	-200,000	0,001	0,018
-434,949	82,395	0,051	0,041
-433,934	-149,033	-0,186	0,011
-432,919	223,584	-0,072	-0,085
-431,905	-200,000	-0,023	0,086
-430,890	800,000	0,058	0,151
-429,876	229,460	0,132	0,159
-428,861	458,364	0,041	-0,067
-427,846	-73,493	0,143	-0,038
-426,832	-143,240	-0,031	0,002
-425,817	273,185	-0,061	-0,080
-424,803	6,580	-0,127	0,070
-423,788	-126,688	0,066	0,007
-422,773	-200,000	-0,028	-0,097
-421,759	800,000	0,011	-0,029
-420,744	-80,641	0,086	0,021
-419,730	800,000	-0,051	-0,131
-418,715	800,000	-0,048	-0,146
-417,701	609,118	0,016	-0,029
-416,686	-200,000	0,016	0,168
-415,671	-57,618	0,089	-0,029
-414,657	-17,225	0,022	0,010
-413,642	-75,850	-0,075	0,019
-412,628	-200,000	0,008	0,091
-411,613	7,368	-0,040	-0,022
-410,598	800,000	-0,070	-0,183
-409,584	800,000	-0,033	0,082
-408,569	-163,547	0,137	-0,005
-407,555	-138,453	0,097	-0,008
-406,540	-200,000	-0,010	-0,057
-405,525	207,963	-0,077	-0,088
-404,511	-13,062	-0,067	0,032
-403,496	-47,789	-0,038	-0,013
-402,482	-84,789	0,093	0,021
-401,467	105,472	-0,059	-0,051
-400,452	-200,000	-0,002	0,080
-399,438	502,494	-0,094	0,161
-398,423	141,405	0,085	-0,083
-397,409	740,992	-0,050	-0,100
-396,394	205,991	0,108	-0,124
-395,379	-54,931	-0,114	0,038
-394,365	-200,000	-0,008	-0,097
-393,350	52,767	0,089	0,062
-392,336	-70,135	-0,030	0,008
-391,321	800,000	0,018	0,058
-390,306	-200,000	0,005	0,022
-389,292	158,727	-0,015	0,015
-388,277	-123,589	0,085	0,010
-387,263	-1,609	-0,042	0,021
-386,248	-200,000	0,063	0,000
-385,233	75,264	-0,074	0,057
-384,219	712,979	-0,050	-0,098
-383,204	800,000	-0,045	-0,117
-382,190	-26,244	-0,032	0,014
-381,175	205,383	0,119	-0,136
-380,160	-200,000	-0,025	-0,115
-379,146	706,005	-0,036	-0,071
-378,131	-200,000	0,002	-0,031
-377,117	-54,339	-0,091	0,030
-376,102	-200,000	-0,005	0,030
-375,088	313,449	-0,033	-0,046
-374,073	771,485	-0,033	-0,066
-373,058	251,853	-0,076	-0,095
-372,044	120,429	0,116	0,106
-371,029	76,501	0,025	0,020
-370,015	84,275	-0,025	0,020
-369,000	179,418	-0,084	-0,090
-367,985	800,000	0,030	-0,080
-366,971	-149,925	-0,100	0,006
-365,956	-49,146	0,036	-0,013
-364,942	800,000	0,038	0,079
-363,927	170,019	-0,066	-0,070
-362,912	-131,318	0,159	-0,015
-361,898	800,000	0,022	0,052
-360,883	102,441	-0,103	0,088
-359,869	-109,498	0,017	0,003
-358,854	800,000	0,005	0,013
-357,839	454,881	0,068	0,111
-356,825	-50,372	-0,034	0,012
-355,810	800,000	0,022	0,060
-354,796	569,446	0,073	0,131
-353,781	508,020	0,030	0,052
-352,766	36,082	0,075	-0,049
-351,752	37,896	0,088	-0,057
-350,737	98,257	-0,020	-0,017
-349,723	-4,614	0,082	-0,041
-348,708	-200,000	0,117	-0,000
-347,693	26,472	0,023	-0,014
-346,679	-200,000	-0,001	-0,034
-345,664	110,253	0,057	-0,050
-344,650	-40,473	-0,080	0,030
-343,635	68,738	-0,024	0,018
-342,620	103,506	0,111	0,096
-341,606	-68,825	0,127	0,036
-340,591	-94,252	-0,032	-0,006
-339,577	65,608	-0,067	-0,050
-338,562	401,290	0,076	-0,118
-337,548	-83,109	-0,062	0,014
-336,533	-118,639	0,032	0,004
-335,518	800,000	0,033	0,080
-334,504	-78,236	0,109	0,027
-333,489	-200,000	0,007	0,052
-332,475	-200,000	0,016	-0,088
-331,460	306,584	0,094	-0,129
-330,445	-200,000	-0,008	-0,118
-329,431	800,000	0,063	-0,157
-328,416	-65,749	0,113	-0,033
-327,402	-63,707	0,130	0,039
-326,387	307,331	0,042	-0,057
-325,372	-28,520	-0,074	0,031
-324,358	-2,112	0,042	0,022
-323,343	-76,703	-0,136	-0,035
-322,329	-200,000	-0,017	0,059
-321,314	-18,661	0,074	-0,034
-320,299	-64,935	0,052	0,015
-319,285	335,214	0,021	-0,030
-318,270	-108,212	0,081	0,013
-317,256	-200,000	-0,014	-0,120
-316,241	2,653	0,047	-0,025
-315,226	-36,648	0,113	-0,044
-314,212	800,000	-0,067	0,140
-313,197	393,939	-0,055	0,084
-312,183	41,224	0,134	-0,089
-311,168	-65,246	0,153	-0,045
-310,153	-76,413	-0,127	0,032
-309,139	-9,055	-0,140	-0,068
-308,124	-200,000	0,002	0,076
-307,110	2,510	0,105	0,056
-306,095	-101,226	0,121	-0,021
-305,080	523,892	0,084	-0,145
-304,066	-11,172	-0,019	0,009
-303,051	-143,837	0,096	-0,007
-302,037	146,656	0,058	0,057
-301,022	-200,000	-0,015	-0,133
-300,008	-83,616	0,130	-0,030
-298,993	-200,000	0,022	0,113
-297,978	364,941	-0,039	0,058
-296,964	476,610	0,038	-0,063
-295,949	800,000	0,019	0,059
-294,935	-87,342	-0,056	-0,012
-293,920	800,000	0,027	0,073
-292,905	-200,000	-0,011	0,073
-291,891	62,876	0,059	0,043
-290,876	-85,883	0,052	-0,012
-289,862	-19,143	-0,125	0,056
-288,847	526,574	-0,002	-0,004
-287,832	800,000	-0,045	-0,103
-286,818	-80,196	-0,107	0,026
-285,803	-200,000	0,006	0,051
-284,789	-200,000	0,033	0,147
-283,774	-108,581	0,106	0,016
-282,759	800,000	-0,009	-0,021
-281,745	-101,506	0,065	-0,011
-280,730	168,660	0,060	-0,062
-279,716	-200,000	-0,032	-0,124
-278,701	-14,650	0,095	-0,045
-277,686	-76,794	0,055	-0,014
-276,672	800,000	0,010	0,033
-275,657	25,223	0,048	-0,029
-274,643	-130,382	0,087	0,009
-273,628	-98,287	-0,050	0,009
-272,613	30,252	0,072	-0,045
-271,599	243,633	0,018	-0,022
-270,584	286,648	0,013	-0,017
-269,570	223,110	0,056	-0,066
-268,555	273,767	0,011	0,014
-267,540	123,494	0,094	-0,086
-266,526	-200,000	0,026	0,086
-265,511	334,888	-0,037	0,053
-264,497	627,969	-0,063	0,117
-263,482	-200,000	-0,014	0,155
-262,467	800,000	-0,044	0,100
-261,453	-200,000	-0,022	0,119
-260,438	-80,520	-0,019	-0,005
-259,424	-10,320	-0,020	-0,010
-258,409	-200,000	0,009	0,047
-257,395	-61,599	-0,116	-0,035
-256,380	277,832	0,070	-0,091
-255,365	533,985	-0,018	0,032
-254,351	-80,411	-0,068	-0,017
-253,336	800,000	-0,010	0,024
-252,322	-132,020	-0,136	0,013
-251,307	5,220	0,087	-0,046
-250,292	800,000	-0,049	-0,106
-249,278	3,425	0,045	-0,024
-248,263	20,125	-0,178	0,105
-247,249	23,551	-0,103	0,062
-246,234	259,736	0,055	0,069
-245,219	800,000	0,004	-0,010
-244,205	-200,000	0,008	-0,030
-243,190	-200,000	-0,000	-0,033
-242,176	74,956	-0,175	-0,134
-241,161	-200,000	-0,009	0,049
-240,146	-200,000	0,001	-0,027
-239,132	-200,000	0,018	-0,179
-238,117	102,341	-0,079	-0,068
-237,103	409,189	0,045	-0,070
-236,088	143,901	0,020	-0,020
-235,073	-200,000	-0,029	-0,118
-234,059	-78,501	0,119	-0,030
-233,044	-57,182	0,068	-0,022
-232,030	26,041	0,063	0,038
-231,015	258,141	0,134	-0,169
-230,000	800,000	-0,079	-0,192
-228,986	-34,425	0,124	0,049
-227,971	-200,000	-0,008	0,133
-226,957	-45,506	0,024	0,009
-225,942	-200,000	0,001	-0,170
-224,927	-200,000	-0,025	-0,207
-223,913	-200,000	0,028	-0,148
-222,898	800,000	0,034	-0,105
-221,884	29,773	-0,097	-0,060
-220,869	14,873	-0,018	-0,010
-219,855	276,941	-0,032	0,041
-218,840	341,519	0,061	0,087
-217,825	800,000	0,011	-0,035
-216,811	-200,000	-0,002	0,170
-215,796	-130,659	-0,122	0,012
-214,782	-159,745	-0,045	0,002
-213,767	331,970	0,087	0,123
-212,752	-200,000	0,003	-0,071
-211,738	281,512	0,022	-0,029
-210,723	-200,000	0,011	-0,045
-209,709	800,000	0,010	0,026
-208,694	21,221	0,113	0,067
-207,679	-200,000	-0,013	-0,080
-206,665	246,104	-0,105	-0,130
-205,650	-44,550	0,103	-0,038
-204,636	-109,168	0,133	-0,020
-203,621	237,696	-0,041	0,050
-202,606	252,704	-0,025	-0,032
-201,592	-108,435	0,055	0,009
-200,577	-5,749	0,040	-0,020
-199,563	-200,000	0,004	0,057
-198,548	-126,673	0,101	0,011
-197,533	-161,502	-0,159	-0,006
-196,519	-200,000	-0,025	0,148
-195,504	-200,000	0,028	0,213
-194,490	800,000	-0,049	0,124
-193,475	170,658	-0,109	-0,114
-192,460	800,000	0,032	-0,065
-191,446	800,000	-0,029	0,060
-190,431	50,986	0,078	0,054
-189,417	-200,000	-0,011	0,061
-188,402	-200,000	-0,002	0,057
-187,387	-122,790	-0,051	-0,006
-186,373	-200,000	-0,002	0,054
-185,358	371,345	-0,038	-0,056
-184,344	-200,000	0,003	0,041
-183,329	102,483	-0,069	-0,059
-182,315	-97,218	0,128	-0,024
-181,300	800,000	-0,026	0,082
-180,285	800,000	-0,024	0,067
-179,271	234,103	-0,005	-0,006
-178,256	-200,000	-0,020	0,072
-177,242	-200,000	-0,018	-0,138
-176,227	800,000	-0,040	-0,124
-175,212	-147,157	0,088	0,005
-174,198	-200,000	0,009	0,100
-173,183	-200,000	-0,002	-0,025
-172,169	800,000	0,042	-0,091
-171,154	-200,000	-0,003	-0,057
-170,139	-131,643	-0,116	0,011
-169,125	313,455	0,087	0,120
-168,110	800,000	-0,016	0,042
-167,096	106,210	0,047	-0,041
-166,081	308,572	-0,018	-0,024
-165,066	-200,000	0,019	-0,123
-164,052	279,364	-0,029	-0,038
-163,037	15,626	-0,108	0,061
-162,023	-127,478	0,012	0,001
-161,008	233,611	-0,059	0,071
-159,993	377,405	-0,043	0,064
-158,979	800,000	0,005	0,012
-157,964	255,432	0,038	0,047
-156,950	-88,315	-0,024	-0,005
-155,935	-200,000	0,020	-0,099
-154,920	-200,000	0,016	0,089
-153,906	469,856	0,021	0,035
-152,891	-56,513	0,152	-0,049
-151,877	-121,696	-0,155	-0,018
-150,862	-200,000	0,001	-0,093
-149,847	-200,000	-0,000	-0,064
-148,833	675,566	0,037	0,070
-147,818	732,396	0,054	-0,105
-146,804	-200,000	-0,017	-0,122
-145,789	-200,000	-0,004	-0,047
-144,775	659,689	-0,030	0,057
-143,760	-44,147	-0,033	0,012
-142,745	800,000	-0,018	-0,051
-141,731	99,616	0,060	0,051
-140,716	-200,000	-0,029	0,115
-139,702	800,000	-0,068	0,141
-138,687	172,190	-0,133	0,140
-137,672	800,000	0,010	0,031
-136,658	800,000	-0,026	0,067
-135,643	-59,079	-0,093	-0,029
-134,629	-55,625	-0,027	-0,009
-133,614	-200,000	0,011	-0,060
-132,599	540,385	-0,027	-0,047
-131,585	800,000	0,077	-0,160
-130,570	138,592	-0,036	-0,034
-129,556	37,694	-0,040	-0,026
-128,541	800,000	-0,055	-0,159
-127,526	-200,000	0,027	0,139
-126,512	-38,207	0,046	0,018
-125,497	-83,023	0,092	-0,021
-124,483	-57,869	-0,146	-0,046
-123,468	334,632	0,002	0,003
-122,453	298,562	-0,079	0,106
-121,439	800,000	0,079	0,188
-120,424	-200,000	-0,011	-0,219
