DTS Sentinel unit serial number:	SN410029Multiplexer serial number:	ORYXHardware model number:	OX2-SRSoftware version number:	ORYX F/W v4,00 Oryx Data Collector v3.7.2.0data status	okinstallation	B6 Nyhavnadifferential loss correction	single-endedforward channel	channel 2reverse channel	N/Adate	2023/12/09time	19:30:08forward acquisition time	300,00reverse acquisition time	0,00gamma	499,1914k internal	0,3131k external	0,3131temperature offset calibration	1,0000default loss term (dB/km)	0,3820temperature slope calibration	1,0000multiplexer offset coefficient	1,0000multiplexer slope coefficient	1,0000fibre end	0,00T internal ref (°C)	21,12T ext. ref 1 (°C)	5,03T ext. ref 2 (°C)	4,99length (m)	temperature (°C)	Stokes	anti-Stokes-744,400	800,000	0,017	-0,036
-743,385	-131,320	-0,268	0,026
-742,371	286,151	0,104	0,140
-741,356	17,147	-0,209	0,123
-740,342	-22,180	0,090	0,040
-739,327	6,692	-0,222	0,122
-738,312	-64,259	0,081	-0,025
-737,298	-32,270	-0,273	-0,113
-736,283	800,000	0,042	0,090
-735,269	-104,913	-0,163	0,028
-734,254	31,233	0,065	-0,041
-733,239	-22,924	-0,294	-0,131
-732,225	-14,102	0,059	0,028
-731,210	-200,000	-0,003	-0,024
-730,196	-200,000	0,030	-0,135
-729,181	-200,000	-0,006	0,027
-728,167	251,151	0,104	-0,131
-727,152	-28,128	0,135	-0,058
-726,137	-129,194	0,036	0,004
-725,123	-200,000	-0,007	0,070
-724,108	8,833	-0,090	-0,051
-723,094	338,137	-0,057	-0,082
-722,079	800,000	0,049	-0,104
-721,064	-42,453	0,046	-0,017
-720,050	800,000	0,013	0,031
-719,035	-173,131	-0,063	-0,001
-718,021	-12,048	-0,095	0,046
-717,006	-200,000	0,014	0,109
-715,991	-200,000	0,029	-0,125
-714,977	205,762	-0,022	0,025
-713,962	-200,000	0,017	-0,062
-712,948	-15,188	0,102	-0,048
-711,933	115,272	-0,109	0,099
-710,918	295,502	-0,096	0,130
-709,904	1,071	-0,072	-0,038
-708,889	73,589	-0,023	0,018
-707,875	98,212	-0,041	-0,035
-706,860	73,583	0,030	-0,024
-705,845	-200,000	0,018	-0,138
-704,831	-40,095	0,014	-0,005
-703,816	-200,000	0,020	-0,168
-702,802	-200,000	-0,014	0,059
-701,787	-64,505	-0,020	0,006
-700,772	636,249	-0,065	-0,124
-699,758	796,796	-0,079	-0,162
-698,743	-175,077	0,118	0,002
-697,729	-106,028	0,073	-0,012
-696,714	-200,000	-0,127	-0,000
-695,699	-41,349	-0,150	0,057
-694,685	-4,182	-0,096	0,049
-693,670	-30,175	-0,124	-0,052
-692,656	179,418	0,014	-0,015
-691,641	119,256	-0,035	0,032
-690,627	648,405	0,052	0,100
-689,612	800,000	-0,023	0,063
-688,597	89,592	-0,010	-0,008
-687,583	800,000	-0,093	-0,193
-686,568	-200,000	-0,002	0,022
-685,554	80,855	-0,046	-0,037
-684,539	-34,013	0,032	-0,013
-683,524	-27,695	-0,071	0,030
-682,510	361,687	-0,052	0,078
-681,495	-121,657	-0,122	0,015
-680,481	-200,000	-0,014	-0,071
-679,466	800,000	0,063	-0,142
-678,451	-111,583	-0,087	0,013
-677,437	-200,000	0,003	-0,017
-676,422	77,091	0,018	-0,014
-675,408	-93,883	-0,090	-0,018
-674,393	-200,000	-0,009	0,088
-673,378	-107,422	-0,041	-0,007
-672,364	-200,000	0,002	0,070
-671,349	800,000	0,017	-0,046
-670,335	800,000	-0,013	0,030
-669,320	-56,257	0,086	-0,028
-668,305	-45,689	-0,151	0,055
-667,291	800,000	0,017	-0,051
-666,276	-31,928	-0,061	-0,025
-665,262	459,171	-0,082	0,136
-664,247	90,532	0,015	-0,013
-663,232	-48,790	0,043	-0,015
-662,218	-57,079	0,021	-0,007
-661,203	152,288	-0,151	0,153
-660,189	-51,612	-0,089	0,031
-659,174	80,889	-0,100	-0,080
-658,159	-131,179	-0,101	0,010
-657,145	-19,260	-0,091	0,042
-656,130	408,462	-0,016	0,025
-655,116	130,093	0,127	0,121
-654,101	72,768	-0,088	0,068
-653,086	80,546	-0,052	0,041
-652,072	800,000	-0,035	-0,077
-651,057	-147,536	-0,104	0,006
-650,043	379,501	-0,060	-0,092
-649,028	110,046	0,053	0,047
-648,014	800,000	0,042	-0,098
-646,999	800,000	-0,034	0,105
-645,984	-200,000	-0,005	-0,053
-644,970	-149,092	-0,103	0,006
-643,955	-200,000	-0,007	0,080
-642,941	-200,000	-0,012	-0,045
-641,926	-125,267	0,113	-0,013
-640,911	800,000	0,043	0,100
-639,897	470,999	-0,012	-0,020
-638,882	-200,000	-0,018	-0,141
-637,868	-200,000	-0,014	-0,083
-636,853	450,687	-0,100	-0,164
-635,838	-200,000	-0,020	-0,111
-634,824	-200,000	0,020	-0,087
-633,809	-146,408	-0,122	-0,008
-632,795	734,507	-0,058	0,115
-631,780	25,385	0,082	0,051
-630,765	750,075	-0,043	0,086
-629,751	800,000	0,032	-0,078
-628,736	-95,406	-0,064	0,013
-627,722	90,336	0,038	0,032
-626,707	26,335	0,035	-0,021
-625,692	218,687	0,091	0,108
-624,678	-200,000	-0,013	0,126
-623,663	726,376	-0,061	0,121
-622,649	-125,250	-0,056	-0,006
-621,634	55,005	0,042	-0,030
-620,619	121,624	-0,120	-0,110
-619,605	127,959	0,038	-0,036
-618,590	172,528	-0,077	0,083
-617,576	-200,000	-0,020	0,192
-616,561	-200,000	0,025	0,084
-615,546	189,055	0,018	0,020
-614,532	160,752	-0,030	-0,031
-613,517	672,031	0,057	-0,109
-612,503	486,252	-0,007	0,011
-611,488	34,034	0,057	0,037
-610,474	84,240	0,108	-0,087
-609,459	-200,000	0,009	0,090
-608,444	134,727	-0,076	-0,073
-607,430	524,254	-0,118	-0,206
-606,415	-200,000	0,003	-0,152
-605,401	194,550	0,040	-0,044
-604,386	-103,080	0,083	-0,014
-603,371	-118,756	-0,102	-0,013
-602,357	-94,465	-0,191	0,038
-601,342	-126,666	-0,143	-0,015
-600,328	197,590	-0,065	0,073
-599,313	-200,000	0,007	0,101
-598,298	668,199	-0,043	-0,082
-597,284	-200,000	-0,007	0,033
-596,269	-200,000	0,002	-0,009
-595,255	281,285	-0,032	0,042
-594,240	59,464	0,041	0,030
-593,225	-200,000	-0,024	-0,087
-592,211	800,000	0,029	-0,083
-591,196	-19,700	-0,136	-0,062
-590,182	-200,000	0,002	-0,183
-589,167	39,893	0,081	0,054
-588,152	733,409	-0,045	0,090
-587,138	68,402	0,168	0,127
-586,123	50,216	-0,016	-0,011
-585,109	206,307	-0,041	0,047
-584,094	156,906	-0,036	0,037
-583,079	60,428	0,086	-0,063
-582,065	-54,348	0,131	0,044
-581,050	621,706	0,075	0,140
-580,036	-200,000	-0,014	0,048
-579,021	177,209	-0,068	-0,074
-578,006	-14,559	-0,153	-0,072
-576,992	-144,518	-0,103	-0,007
-575,977	-41,261	-0,014	-0,005
-574,963	145,955	-0,077	-0,077
-573,948	-200,000	0,011	-0,094
-572,934	61,969	-0,060	0,044
-571,919	-97,998	-0,087	-0,016
-570,904	386,662	0,042	-0,064
-569,890	-120,937	-0,065	-0,008
-568,875	-105,395	0,204	0,034
-567,861	-14,958	0,083	-0,039
-566,846	-200,000	0,027	0,162
-565,831	204,445	-0,089	0,102
-564,817	-17,917	-0,121	0,056
-563,802	89,220	-0,037	0,031
-562,788	267,993	0,069	0,089
-561,773	-31,485	0,025	0,010
-560,758	50,034	0,040	0,028
-559,744	44,639	0,066	-0,045
-558,729	800,000	0,019	0,049
-557,715	-75,495	0,059	-0,015
-556,700	115,999	0,021	0,019
-555,685	-21,518	-0,126	0,056
-554,671	98,271	0,085	0,073
-553,656	132,419	-0,055	-0,053
-552,642	348,611	0,021	0,030
-551,627	-48,569	0,005	0,002
-550,612	46,768	-0,084	0,057
-549,598	90,125	0,035	0,029
-548,583	779,904	-0,006	0,012
-547,569	129,146	0,118	-0,111
-546,554	800,000	-0,015	-0,046
-545,539	571,427	0,035	0,062
-544,525	167,626	-0,023	0,025
-543,510	-167,377	0,108	-0,003
-542,496	-25,361	-0,092	0,040
-541,481	83,530	0,120	-0,096
-540,466	800,000	0,076	-0,192
-539,452	-200,000	0,003	0,121
-538,437	-200,000	0,035	0,116
-537,423	-200,000	-0,002	0,021
-536,408	46,708	-0,026	0,018
-535,393	800,000	-0,004	0,009
-534,379	-86,852	-0,013	-0,003
-533,364	-121,379	-0,060	-0,007
-532,350	-38,155	0,108	-0,042
-531,335	118,511	-0,086	0,078
-530,321	-187,990	0,140	0,001
-529,306	-30,567	-0,023	0,010
-528,291	-200,000	0,024	-0,159
-527,277	-176,975	-0,143	-0,003
-526,262	-200,000	0,011	-0,083
-525,248	121,767	-0,145	0,133
-524,233	-200,000	0,065	0,240
-523,218	-28,125	0,130	0,055
-522,204	800,000	0,045	0,119
-521,189	-200,000	-0,003	0,033
-520,175	171,343	0,052	0,055
-519,160	-119,109	-0,093	0,012
-518,145	-116,171	0,061	0,008
-517,131	-57,807	0,113	0,036
-516,116	538,835	-0,024	0,041
-515,102	17,261	-0,128	-0,075
-514,087	-142,187	-0,137	-0,010
-513,072	-39,614	-0,084	-0,032
-512,058	76,858	-0,056	-0,044
-511,043	198,488	0,035	-0,039
-510,029	80,702	0,067	-0,053
-509,014	34,879	0,135	0,087
-507,999	81,622	0,059	-0,047
-506,985	356,880	0,068	-0,101
-505,970	749,841	-0,053	-0,106
-504,956	-200,000	-0,004	0,110
-503,941	50,578	-0,083	0,058
-502,926	-200,000	-0,011	0,156
-501,912	51,255	-0,059	0,041
-500,897	-3,100	0,162	-0,083
-499,883	-200,000	-0,009	0,109
-498,868	286,986	-0,086	-0,114
-497,853	-48,923	0,039	0,014
-496,839	-170,389	0,107	0,003
-495,824	-115,886	0,021	0,003
-494,810	111,819	0,061	0,054
-493,795	800,000	0,040	0,090
-492,781	-64,841	0,068	0,020
-491,766	-200,000	-0,003	0,037
-490,751	187,085	-0,018	0,020
-489,737	-109,347	0,082	-0,013
-488,722	-163,406	0,038	-0,001
-487,708	-33,152	0,149	-0,060
-486,693	800,000	-0,054	-0,124
-485,678	800,000	0,042	0,094
-484,664	-139,890	-0,135	-0,010
-483,649	254,139	-0,045	-0,057
-482,635	102,511	0,048	-0,041
-481,620	69,124	0,061	-0,046
-480,605	240,549	0,028	-0,034
-479,591	19,147	-0,110	-0,065
-478,576	-129,314	0,096	-0,010
-477,562	-200,000	0,000	-0,127
-476,547	800,000	-0,009	-0,027
-475,532	489,224	-0,077	-0,129
-474,518	515,854	-0,054	-0,093
-473,503	800,000	-0,077	0,228
-472,489	-31,626	0,129	0,053
-471,474	800,000	0,026	0,082
-470,459	91,945	-0,090	0,075
-469,445	195,142	0,027	-0,030
-468,430	349,124	0,042	-0,062
-467,416	-200,000	0,010	0,066
-466,401	-200,000	0,025	0,144
-465,386	36,273	0,212	0,137
-464,372	-200,000	-0,016	-0,066
-463,357	227,983	-0,077	0,092
-462,343	80,944	0,083	-0,066
-461,328	112,188	-0,041	0,036
-460,313	-200,000	0,013	-0,151
-459,299	-200,000	-0,010	0,064
-458,284	530,031	0,021	-0,037
-457,270	-200,000	-0,002	0,094
-456,255	586,645	-0,069	-0,124
-455,241	115,517	-0,066	0,060
-454,226	-200,000	0,020	-0,072
-453,211	0,328	-0,107	0,056
-452,197	760,488	0,048	0,097
-451,182	800,000	-0,037	0,078
-450,168	-116,378	-0,092	0,012
-449,153	113,110	-0,038	-0,034
-448,138	93,800	0,054	0,045
-447,124	90,399	-0,102	-0,084
-446,109	800,000	0,020	-0,044
-445,095	108,828	-0,032	-0,028
-444,080	445,461	0,094	0,153
-443,065	-127,846	0,106	0,011
-442,051	800,000	-0,030	0,092
-441,036	-200,000	0,021	-0,165
-440,022	-200,000	0,008	-0,134
-439,007	767,435	0,006	0,013
-437,992	160,777	0,135	0,139
-436,978	7,786	-0,058	0,032
-435,963	353,281	0,007	-0,011
-434,949	-109,201	-0,155	-0,024
-433,934	396,743	-0,102	0,157
-432,919	289,597	0,010	-0,014
-431,905	-13,111	-0,133	-0,063
-430,890	800,000	0,039	-0,104
-429,876	6,427	0,108	-0,059
-428,861	216,989	0,100	0,117
-427,846	800,000	0,043	0,110
-426,832	220,223	-0,037	-0,043
-425,817	-200,000	-0,028	-0,128
-424,803	-88,887	-0,068	-0,015
-423,788	8,030	0,105	0,057
-422,773	5,304	0,087	-0,047
-421,759	-14,575	-0,038	-0,018
-420,744	371,373	0,062	-0,093
-419,730	-200,000	-0,003	0,019
-418,715	40,522	-0,047	-0,031
-417,701	-200,000	0,010	0,050
-416,686	800,000	-0,087	-0,177
-415,671	800,000	0,025	0,054
-414,657	86,183	0,059	0,048
-413,642	-200,000	-0,014	0,068
-412,628	6,240	-0,096	-0,052
-411,613	-47,462	0,024	-0,009
-410,598	800,000	-0,048	-0,125
-409,584	591,208	0,019	0,034
-408,569	-200,000	0,019	-0,094
-407,555	-58,200	0,077	0,024
-406,540	-200,000	0,023	0,191
-405,525	-16,834	-0,028	-0,013
-404,511	-200,000	-0,027	-0,123
-403,496	4,650	-0,064	-0,035
-402,482	-200,000	0,008	0,108
-401,467	122,953	0,039	0,036
-400,452	-82,168	-0,156	0,037
-399,438	-200,000	0,028	0,157
-398,423	-200,000	-0,017	-0,058
-397,409	-58,330	-0,046	-0,015
-396,394	-6,692	-0,072	-0,036
-395,379	-200,000	-0,017	0,074
-394,365	160,596	0,124	0,127
-393,350	-200,000	0,002	0,065
-392,336	-200,000	-0,041	0,135
-391,321	163,889	0,025	-0,025
-390,306	193,608	-0,066	-0,073
-389,292	-41,996	0,059	0,022
-388,277	-121,297	0,012	0,001
-387,263	-24,120	-0,017	0,007
-386,248	304,589	0,056	0,077
-385,233	340,171	0,084	0,120
-384,219	800,000	-0,026	0,062
-383,204	673,368	-0,057	-0,109
-382,190	176,138	-0,049	-0,052
-381,175	-97,193	-0,114	0,022
-380,160	-44,051	0,140	0,051
-379,146	-125,011	0,075	-0,008
-378,131	146,519	0,094	-0,092
-377,117	-200,000	-0,014	0,054
-376,102	154,497	-0,130	-0,131
-375,088	-132,296	0,084	-0,008
-374,073	129,385	0,008	-0,008
-373,058	-200,000	-0,009	0,096
-372,044	800,000	-0,013	-0,029
-371,029	-122,583	0,132	0,016
-370,015	628,137	-0,044	0,082
-369,000	-108,362	-0,126	-0,020
-367,985	-200,000	0,035	-0,171
-366,971	202,338	-0,105	-0,119
-365,956	136,795	-0,033	0,032
-364,942	-92,097	0,043	-0,009
-363,927	207,295	0,036	0,041
-362,912	800,000	0,050	-0,105
-361,898	-200,000	-0,015	-0,063
-360,883	-64,143	0,031	0,009
-359,869	-200,000	0,009	-0,099
-358,854	155,411	-0,052	-0,052
-357,839	-200,000	0,005	0,051
-356,825	800,000	-0,021	-0,051
-355,810	74,367	-0,052	-0,040
-354,796	-55,264	-0,166	0,054
-353,781	-123,703	-0,136	0,016
-352,766	231,520	-0,010	-0,012
-351,752	98,572	0,065	0,055
-350,737	800,000	0,036	0,081
-349,723	800,000	-0,051	0,130
-348,708	-200,000	-0,018	0,230
-347,693	-100,436	0,081	-0,014
-346,679	-92,837	-0,144	-0,029
-345,664	83,860	0,050	-0,040
-344,650	-71,122	-0,084	-0,023
-343,635	-162,797	0,185	0,006
-342,620	-146,003	-0,152	-0,010
-341,606	-147,033	0,063	0,004
-340,591	25,751	0,100	-0,061
-339,577	41,785	-0,069	0,046
-338,562	-17,863	0,123	-0,056
-337,548	267,216	0,019	-0,024
-336,533	394,170	-0,096	0,146
-335,518	-42,289	-0,055	-0,020
-334,504	-35,176	0,062	0,025
-333,489	368,395	-0,063	-0,094
-332,475	109,984	-0,087	-0,077
-331,460	366,313	0,061	0,090
-330,445	-200,000	-0,001	0,006
-329,431	-79,115	-0,082	-0,020
-328,416	-157,741	0,101	0,004
-327,402	-200,000	-0,006	0,048
-326,387	34,939	0,069	-0,044
-325,372	633,776	0,063	-0,118
-324,358	502,140	0,058	0,098
-323,343	345,182	0,035	0,050
-322,329	-200,000	-0,022	0,101
-321,314	800,000	0,055	0,121
-320,299	-200,000	0,016	-0,067
-319,285	422,735	0,030	-0,048
-318,270	-200,000	0,011	-0,065
-317,256	17,360	0,092	0,053
-316,241	-103,847	-0,066	0,011
-315,226	-200,000	0,002	-0,121
-314,212	-200,000	0,006	0,072
-313,197	115,294	0,097	0,086
-312,183	46,047	0,076	-0,051
-311,168	645,531	0,048	-0,090
-310,153	800,000	0,016	0,044
-309,139	-200,000	0,014	0,055
-308,124	-45,223	-0,117	-0,042
-307,110	-17,630	0,009	-0,004
-306,095	115,845	0,097	0,086
-305,080	-200,000	0,012	0,055
-304,066	-95,255	-0,192	-0,037
-303,051	-3,135	-0,071	-0,036
-302,037	306,108	-0,085	-0,116
-301,022	-60,129	0,076	0,024
-300,008	800,000	0,024	-0,053
-298,993	-200,000	-0,000	-0,014
-297,978	19,566	0,074	0,044
-296,964	-170,678	-0,066	0,002
-295,949	-16,710	-0,115	-0,053
-294,935	-151,983	0,093	-0,005
-293,920	-103,523	0,083	0,014
-292,905	-200,000	-0,009	-0,046
-291,891	130,062	0,046	0,043
-290,876	239,743	0,026	0,031
-289,862	-18,809	0,071	-0,032
-288,847	-200,000	0,001	0,028
-287,832	59,174	-0,098	-0,071
-286,818	-110,398	-0,040	0,006
-285,803	-9,502	0,046	-0,023
-284,789	-200,000	0,043	0,148
-283,774	89,700	-0,036	0,029
-282,759	227,524	0,027	-0,033
-281,745	186,106	-0,050	0,054
-280,730	116,534	-0,060	-0,054
-279,716	800,000	-0,022	0,053
-278,701	376,020	-0,132	0,197
-277,686	-77,506	0,073	0,018
-276,672	800,000	-0,063	0,175
-275,657	800,000	-0,050	0,160
-274,643	800,000	-0,013	-0,031
-273,628	-200,000	-0,011	-0,050
-272,613	757,673	-0,058	-0,116
-271,599	23,153	-0,145	-0,087
-270,584	800,000	-0,051	0,112
-269,570	-200,000	0,002	-0,077
-268,555	371,469	0,013	-0,019
-267,540	800,000	-0,057	-0,116
-266,526	-200,000	0,015	-0,209
-265,511	-74,551	-0,080	0,021
-264,497	-110,468	0,091	-0,014
-263,482	800,000	-0,046	0,110
-262,467	-200,000	0,021	0,073
-261,453	74,459	0,088	-0,068
-260,438	231,597	0,039	-0,047
-259,424	570,745	0,136	-0,242
-258,409	-174,101	-0,130	0,003
-257,395	463,372	0,043	0,070
-256,380	800,000	0,056	0,119
-255,365	800,000	0,033	0,107
-254,351	800,000	-0,055	-0,115
-253,336	282,332	0,119	-0,156
-252,322	800,000	-0,103	-0,209
-251,307	800,000	0,014	0,040
-250,292	-200,000	-0,006	0,057
-249,278	107,072	-0,068	0,059
-248,263	-48,782	0,056	-0,020
-247,249	-134,311	-0,073	-0,006
-246,234	139,225	-0,038	-0,037
-245,219	-5,296	-0,160	-0,080
-244,205	800,000	0,021	-0,069
-243,190	-200,000	0,018	0,083
-242,176	18,126	0,112	0,065
-241,161	330,965	0,065	0,092
-240,146	-200,000	-0,033	-0,124
-239,132	-102,808	0,083	0,014
-238,117	158,948	0,017	0,018
-237,103	439,167	0,064	-0,102
-236,088	-200,000	0,017	-0,080
-235,073	527,981	-0,112	0,194
-234,059	-109,051	0,004	0,001
-233,044	-78,363	-0,039	-0,010
-232,030	111,889	0,076	-0,067
-231,015	-200,000	-0,007	-0,070
-230,000	-129,697	-0,072	-0,007
-228,986	189,357	0,053	-0,058
-227,971	668,084	0,012	-0,022
-226,957	-200,000	0,156	-0,000
-225,942	670,389	-0,032	-0,060
-224,927	315,362	-0,071	-0,098
-223,913	-150,320	-0,117	0,006
-222,898	690,992	0,039	0,074
-221,884	800,000	-0,040	0,120
-220,869	800,000	-0,025	-0,069
-219,855	-48,028	0,053	-0,019
-218,840	187,706	-0,043	-0,047
-217,825	135,866	-0,168	-0,160
-216,811	800,000	-0,009	0,021
-215,796	161,444	-0,108	0,110
-214,782	38,732	-0,039	-0,025
-213,767	162,960	0,042	0,043
-212,752	-127,459	0,094	-0,010
-211,738	109,161	-0,037	-0,032
-210,723	-200,000	-0,008	-0,148
-209,709	-200,000	-0,010	-0,105
-208,694	490,608	0,025	0,042
-207,679	64,007	-0,106	0,077
-206,665	800,000	0,023	-0,052
-205,650	800,000	-0,041	-0,117
-204,636	-200,000	-0,028	0,098
-203,621	342,109	-0,020	-0,029
-202,606	29,947	0,165	-0,102
-201,592	9,924	-0,132	-0,073
-200,577	95,598	0,086	-0,071
-199,563	800,000	-0,003	0,006
-198,548	112,849	-0,087	0,077
-197,533	151,782	-0,064	-0,063
-196,519	100,064	0,098	0,083
-195,504	800,000	0,022	0,060
-194,490	-200,000	-0,020	-0,130
-193,475	5,225	-0,150	-0,080
-192,460	-173,507	0,131	0,003
-191,446	-200,000	-0,019	-0,062
-190,431	-15,755	0,163	-0,075
-189,417	120,125	0,024	-0,022
-188,402	244,416	-0,060	0,073
-187,387	341,496	0,026	-0,037
-186,373	-127,636	-0,120	0,013
-185,358	-133,809	0,094	-0,008
-184,344	800,000	-0,034	-0,074
-183,329	24,144	0,125	-0,075
-182,315	800,000	0,023	0,064
-181,300	-8,605	-0,082	0,040
-180,285	293,283	0,044	0,059
-179,271	-127,461	0,093	-0,010
-178,256	-200,000	-0,015	0,079
-177,242	49,226	0,046	0,032
-176,227	-200,000	-0,011	0,041
-175,212	-90,327	0,095	-0,020
-174,198	-105,103	-0,174	0,029
-173,183	-127,228	-0,091	-0,009
-172,169	795,750	0,053	-0,106
-171,154	800,000	0,014	0,032
-170,139	-74,945	0,080	0,021
-169,125	234,566	-0,057	0,069
-168,110	305,860	0,077	-0,104
-167,096	108,640	0,057	0,050
-166,081	75,193	-0,104	0,080
-165,066	285,353	-0,027	-0,035
-164,052	2,649	0,080	-0,042
-163,037	9,003	0,063	-0,035
-162,023	264,615	-0,081	0,103
-161,008	800,000	0,070	0,184
-159,993	-147,858	0,045	-0,003
-158,979	-200,000	-0,018	-0,108
-157,964	-200,000	0,001	-0,121
-156,950	-200,000	0,017	-0,112
-155,935	-73,006	0,151	0,040
-154,920	-111,927	0,055	-0,008
-153,906	-49,040	0,079	-0,027
-152,891	31,635	0,112	0,070
-151,877	7,642	0,068	-0,037
-150,862	-200,000	0,013	-0,111
-149,847	-69,014	0,007	0,002
-148,833	-200,000	-0,021	0,074
-147,818	-172,108	0,061	0,001
-146,804	800,000	0,015	0,037
-145,789	-200,000	0,002	-0,020
-144,775	22,305	-0,084	-0,050
-143,760	565,638	0,055	-0,097
-142,745	800,000	0,012	-0,028
-141,731	-57,934	0,099	0,031
-140,716	-200,000	-0,015	0,106
-139,702	-30,328	0,083	0,034
-138,687	398,490	-0,051	0,077
-137,672	-200,000	0,010	-0,034
-136,658	-67,352	-0,093	0,026
-135,643	-200,000	0,013	-0,061
-134,629	468,991	-0,064	-0,105
-133,614	80,148	0,111	0,086
-132,599	800,000	-0,058	0,131
-131,585	143,492	-0,068	0,066
-130,570	-200,000	0,025	-0,093
-129,556	51,550	0,057	-0,039
-128,541	399,708	-0,056	0,085
-127,526	-88,143	-0,046	-0,010
-126,512	-68,040	-0,068	0,019
-125,497	63,111	0,051	-0,037
-124,483	-86,830	-0,103	-0,023
-123,468	-75,925	-0,077	-0,020
-122,453	71,694	0,121	0,091
-121,439	-200,000	-0,004	-0,123
-120,424	-200,000	-0,002	-0,100
-119,410	-189,481	0,079	-0,001
