DTS Sentinel unit serial number:	SN410029Multiplexer serial number:	ORYXHardware model number:	OX2-SRSoftware version number:	ORYX F/W v4,00 Oryx Data Collector v3.7.2.0data status	okinstallation	B6 Nyhavnadifferential loss correction	single-endedforward channel	channel 2reverse channel	N/Adate	2023/12/08time	03:15:08forward acquisition time	300,00reverse acquisition time	0,00gamma	499,1914k internal	0,3165k external	0,3165temperature offset calibration	1,0000default loss term (dB/km)	0,3820temperature slope calibration	1,0000multiplexer offset coefficient	1,0000multiplexer slope coefficient	1,0000fibre end	0,00T internal ref (°C)	13,12T ext. ref 1 (°C)	-3,72T ext. ref 2 (°C)	-3,71length (m)	temperature (°C)	Stokes	anti-Stokes-744,400	-67,278	0,062	-0,018
-743,385	-56,647	-0,405	-0,131
-742,371	112,650	0,173	0,154
-741,356	-0,524	-0,260	-0,136
-740,342	-167,656	0,079	0,002
-739,327	-88,017	-0,424	-0,093
-738,312	29,629	0,162	0,101
-737,298	-105,847	-0,377	-0,062
-736,283	800,000	0,049	0,101
-735,269	-151,964	-0,368	0,019
-734,254	-47,575	0,163	0,058
-733,239	7,193	-0,552	-0,302
-732,225	94,661	0,140	0,117
-731,210	800,000	-0,039	0,081
-730,196	32,110	-0,113	-0,071
-729,181	543,334	-0,007	0,012
-728,167	364,339	0,050	-0,075
-727,152	-200,000	0,042	-0,000
-726,137	441,455	-0,038	-0,061
-725,123	800,000	0,035	-0,090
-724,108	-200,000	0,005	-0,185
-723,094	-83,635	-0,151	-0,035
-722,079	800,000	-0,036	-0,080
-721,064	-20,462	-0,054	0,024
-720,050	175,173	-0,041	-0,044
-719,035	69,091	0,075	-0,057
-718,021	-164,769	-0,053	0,002
-717,006	-23,775	0,054	0,024
-715,991	621,287	-0,063	-0,117
-714,977	333,923	-0,027	-0,038
-713,962	800,000	-0,025	0,056
-712,948	74,660	0,036	-0,028
-711,933	6,861	-0,061	-0,033
-710,918	269,999	-0,009	0,011
-709,904	-200,000	-0,006	-0,128
-708,889	26,594	-0,138	-0,085
-707,875	131,001	0,038	-0,036
-706,860	-200,000	-0,080	-0,290
-705,845	263,172	0,068	0,087
-704,831	-200,000	0,003	-0,065
-703,816	800,000	0,038	-0,103
-702,802	-23,602	0,011	-0,005
-701,787	-128,700	0,084	-0,009
-700,772	-80,930	-0,042	-0,010
-699,758	-200,000	-0,008	-0,056
-698,743	-200,000	0,023	-0,084
-697,729	-12,266	0,105	-0,050
-696,714	-16,404	-0,101	0,047
-695,699	800,000	-0,028	-0,075
-694,685	361,011	0,047	-0,069
-693,670	-200,000	0,007	-0,066
-692,656	157,415	0,055	-0,056
-691,641	284,339	0,113	-0,150
-690,627	15,792	-0,076	0,044
-689,612	-165,944	-0,053	-0,002
-688,597	-67,889	-0,124	-0,035
-687,583	38,757	-0,099	0,065
-686,568	-200,000	0,008	-0,045
-685,554	-22,445	-0,072	-0,032
-684,539	-200,000	0,004	0,100
-683,524	800,000	-0,022	-0,047
-682,510	751,182	0,066	-0,131
-681,495	-39,074	-0,115	0,044
-680,481	29,796	-0,121	0,075
-679,466	487,750	-0,055	-0,092
-678,451	219,501	-0,058	0,069
-677,437	800,000	0,005	-0,011
-676,422	-200,000	-0,010	-0,076
-675,408	-119,096	0,040	0,005
-674,393	800,000	-0,020	0,048
-673,378	-200,000	-0,002	-0,006
-672,364	284,760	-0,110	-0,145
-671,349	290,241	0,020	0,027
-670,335	68,995	0,096	0,073
-669,320	39,545	-0,085	0,056
-668,305	102,640	0,057	-0,048
-667,291	264,952	-0,048	0,062
-666,276	-200,000	-0,032	0,139
-665,262	800,000	-0,021	-0,051
-664,247	-153,733	-0,070	-0,003
-663,232	800,000	-0,044	-0,102
-662,218	616,328	-0,072	-0,133
-661,203	505,067	-0,077	0,132
-660,189	-107,743	-0,082	0,013
-659,174	-40,382	0,078	-0,029
-658,159	266,027	-0,155	-0,198
-657,145	-53,903	0,041	0,013
-656,130	531,857	-0,037	0,064
-655,116	-162,918	0,059	0,002
-654,101	28,708	0,118	0,073
-653,086	-129,730	-0,131	-0,013
-652,072	-145,442	-0,106	0,007
-651,057	40,116	-0,042	-0,028
-650,043	136,209	0,150	-0,144
-649,028	-200,000	-0,004	0,029
-648,014	3,833	0,128	-0,068
-646,999	-200,000	-0,010	0,038
-645,984	44,262	-0,039	-0,026
-644,970	159,687	-0,139	0,142
-643,955	-200,000	0,041	-0,187
-642,941	232,939	-0,013	0,015
-641,926	800,000	0,019	0,046
-640,911	-200,000	-0,022	-0,133
-639,897	800,000	0,059	0,168
-638,882	106,130	0,032	-0,028
-637,868	-85,140	-0,043	-0,010
-636,853	-74,182	-0,094	0,025
-635,838	529,620	-0,067	0,117
-634,824	-200,000	-0,027	0,099
-633,809	-103,534	-0,091	0,015
-632,795	3,647	-0,028	0,015
-631,780	-63,845	-0,100	0,030
-630,765	731,476	-0,072	0,142
-629,751	-42,190	-0,042	-0,016
-628,736	-200,000	-0,021	-0,095
-627,722	800,000	-0,037	0,112
-626,707	-48,603	-0,015	0,005
-625,692	136,951	-0,125	-0,119
-624,678	800,000	-0,029	-0,065
-623,663	-136,318	0,072	0,006
-622,649	-200,000	-0,009	-0,047
-621,634	129,755	-0,125	-0,117
-620,619	104,500	-0,077	0,066
-619,605	279,253	0,027	0,035
-618,590	800,000	-0,050	-0,121
-617,576	-66,390	0,072	-0,021
-616,561	34,074	-0,114	0,073
-615,546	-200,000	0,004	0,088
-614,532	800,000	0,019	-0,051
-613,517	-17,498	0,072	-0,033
-612,503	-17,100	-0,055	0,025
-611,488	800,000	0,016	-0,039
-610,474	53,763	0,068	0,048
-609,459	-166,454	-0,021	0,001
-608,444	-147,946	-0,047	0,003
-607,430	245,384	-0,035	0,043
-606,415	-200,000	0,002	-0,134
-605,401	187,072	-0,058	-0,063
-604,386	-113,910	-0,101	0,014
-603,371	-87,434	0,107	-0,024
-602,357	-107,667	-0,051	0,008
-601,342	800,000	-0,077	-0,193
-600,328	800,000	-0,063	-0,144
-599,313	168,332	-0,060	-0,062
-598,298	-109,354	0,079	0,012
-597,284	46,257	0,089	0,060
-596,269	-58,442	0,094	-0,030
-595,255	703,551	0,058	0,113
-594,240	145,590	-0,032	0,032
-593,225	54,177	-0,051	0,036
-592,211	-115,160	0,039	0,005
-591,196	-200,000	-0,014	0,099
-590,182	800,000	-0,003	-0,008
-589,167	-135,156	0,143	-0,012
-588,152	-111,418	-0,074	0,011
-587,138	489,379	-0,037	0,062
-586,123	-200,000	-0,009	0,171
-585,109	267,979	-0,156	-0,200
-584,094	800,000	0,033	0,086
-583,079	170,206	0,068	-0,071
-582,065	-45,958	0,075	0,027
-581,050	-200,000	0,005	0,143
-580,036	-52,315	0,073	0,025
-579,021	615,863	-0,053	-0,097
-578,006	-80,370	-0,090	0,022
-576,992	65,846	0,064	0,048
-575,977	-45,506	0,156	-0,056
-574,963	-200,000	0,021	0,106
-573,948	-78,447	0,148	0,037
-572,934	-200,000	0,013	0,093
-571,919	-200,000	-0,005	0,049
-570,904	800,000	-0,039	-0,103
-569,890	-17,242	-0,056	-0,026
-568,875	-200,000	-0,004	-0,035
-567,861	-200,000	0,021	-0,165
-566,846	215,270	0,057	0,066
-565,831	294,075	0,060	-0,080
-564,817	-118,318	-0,129	0,017
-563,802	-200,000	0,003	-0,031
-562,788	-34,801	-0,143	-0,057
-561,773	-200,000	0,023	-0,090
-560,758	-64,763	0,116	0,034
-559,744	115,242	-0,044	-0,039
-558,729	-200,000	0,005	0,110
-557,715	-200,000	-0,003	0,023
-556,700	643,335	-0,042	0,078
-555,685	-91,192	-0,062	-0,013
-554,671	49,363	-0,080	0,055
-553,656	387,537	-0,025	-0,038
-552,642	85,840	-0,063	0,051
-551,627	294,008	0,064	-0,086
-550,612	-98,681	-0,134	0,025
-549,598	144,693	-0,134	-0,131
-548,583	5,862	-0,099	-0,053
-547,569	576,185	0,079	0,142
-546,554	9,480	0,149	0,082
-545,539	800,000	-0,026	-0,083
-544,525	800,000	0,037	0,098
-543,510	195,911	-0,057	0,063
-542,496	64,230	-0,094	0,069
-541,481	-124,617	-0,142	-0,016
-540,466	306,242	-0,026	0,036
-539,452	-200,000	0,053	-0,233
-538,437	-57,801	0,046	0,015
-537,423	129,565	-0,043	0,040
-536,408	-200,000	-0,016	-0,071
-535,393	-200,000	0,008	-0,081
-534,379	5,890	0,022	0,012
-533,364	-84,763	0,151	-0,034
-532,350	800,000	0,046	-0,114
-531,335	-146,571	0,081	0,005
-530,321	-200,000	0,026	0,113
-529,306	-139,583	0,175	-0,013
-528,291	-200,000	0,000	-0,056
-527,277	168,606	-0,035	-0,037
-526,262	4,887	-0,106	0,057
-525,248	-15,555	0,028	-0,013
-524,233	-200,000	0,007	0,032
-523,218	-200,000	0,013	0,101
-522,204	800,000	-0,025	-0,061
-521,189	215,710	-0,064	-0,074
-520,175	552,709	0,044	-0,078
-519,160	578,028	0,010	-0,019
-518,145	-200,000	-0,006	-0,031
-517,131	-105,972	0,144	-0,023
-516,116	25,925	-0,132	0,080
-515,102	106,547	0,087	0,075
-514,087	725,314	-0,005	0,010
-513,072	30,539	-0,081	-0,050
-512,058	524,488	0,033	0,056
-511,043	-44,801	-0,014	0,005
-510,029	440,558	-0,019	0,030
-509,014	428,572	-0,051	0,080
-507,999	800,000	-0,004	-0,012
-506,985	106,094	-0,069	0,060
-505,970	4,676	0,056	-0,030
-504,956	800,000	-0,046	-0,145
-503,941	-69,716	-0,023	-0,006
-502,926	800,000	-0,045	-0,115
-501,912	-87,540	0,080	0,017
-500,897	45,734	-0,035	-0,023
-499,883	-96,755	0,188	-0,036
-498,868	-200,000	-0,019	-0,108
-497,853	129,970	-0,023	0,022
-496,839	26,363	-0,014	-0,008
-495,824	460,147	0,105	0,171
-494,810	-200,000	-0,020	-0,103
-493,795	-103,780	0,010	0,002
-492,781	42,600	0,049	0,032
-491,766	-137,144	-0,116	0,009
-490,751	-200,000	0,034	-0,135
-489,737	87,461	-0,047	-0,038
-488,722	474,703	0,031	-0,052
-487,708	-200,000	0,018	0,102
-486,693	800,000	-0,033	-0,079
-485,678	316,744	-0,062	-0,085
-484,664	745,780	-0,006	-0,011
-483,649	800,000	0,043	-0,137
-482,635	-143,169	-0,069	-0,005
-481,620	-124,971	0,023	-0,003
-480,605	498,376	0,011	0,018
-479,591	105,074	0,068	-0,059
-478,576	-46,431	-0,071	0,025
-477,562	-40,774	0,164	-0,062
-476,547	-200,000	-0,007	-0,089
-475,532	103,099	-0,121	0,103
-474,518	372,866	0,086	-0,128
-473,503	-200,000	0,011	0,039
-472,489	-200,000	0,002	0,104
-471,474	-0,113	-0,080	0,041
-470,459	332,849	-0,051	-0,071
-469,445	74,250	-0,043	-0,033
-468,430	800,000	0,023	-0,062
-467,416	110,546	-0,026	0,022
-466,401	-49,532	-0,118	-0,041
-465,386	14,874	0,281	0,160
-464,372	260,274	-0,015	0,019
-463,357	404,810	-0,019	-0,029
-462,343	466,593	-0,009	0,014
-461,328	-180,052	0,021	0,000
-460,313	800,000	0,037	-0,077
-459,299	-200,000	0,032	0,159
-458,284	14,597	0,052	0,030
-457,270	93,202	-0,041	-0,034
-456,255	783,769	0,063	0,127
-455,241	-92,378	-0,095	0,019
-454,226	110,590	0,099	-0,087
-453,211	-140,505	-0,036	0,003
-452,197	-116,642	0,157	0,021
-451,182	-113,721	0,099	-0,014
-450,168	-200,000	0,003	0,068
-449,153	800,000	-0,061	-0,131
-448,138	-200,000	-0,025	-0,099
-447,124	-64,786	-0,135	-0,040
-446,109	253,031	0,039	-0,048
-445,095	235,486	0,054	0,066
-444,080	-65,422	-0,054	0,016
-443,065	8,870	0,110	0,060
-442,051	-200,000	0,023	0,087
-441,036	800,000	-0,049	-0,154
-440,022	269,487	-0,059	-0,076
-439,007	120,612	-0,089	-0,080
-437,992	-200,000	0,029	0,181
-436,978	53,302	0,061	-0,043
-435,963	-200,000	0,012	0,059
-434,949	-200,000	0,031	0,133
-433,934	-137,297	-0,024	-0,002
-432,919	-200,000	0,001	-0,091
-431,905	800,000	0,063	-0,130
-430,890	-200,000	0,003	-0,083
-429,876	-200,000	-0,011	-0,066
-428,861	-200,000	0,011	0,164
-427,846	-83,506	-0,024	0,006
-426,832	71,634	-0,141	-0,106
-425,817	151,280	0,023	0,023
-424,803	-37,704	0,092	0,036
-423,788	-200,000	-0,003	0,120
-422,773	-200,000	0,000	0,064
-421,759	46,257	-0,068	0,046
-420,744	145,926	-0,045	0,044
-419,730	59,715	-0,075	0,054
-418,715	-200,000	-0,009	-0,048
-417,701	-39,721	-0,094	-0,036
-416,686	-200,000	0,006	0,052
-415,671	-200,000	0,034	0,123
-414,657	-110,084	0,045	0,007
-413,642	-104,034	-0,115	-0,019
-412,628	-200,000	-0,005	-0,149
-411,613	83,350	-0,095	-0,075
-410,598	-200,000	-0,008	0,041
-409,584	-24,371	0,125	-0,054
-408,569	-94,411	-0,106	0,021
-407,555	-200,000	-0,000	0,161
-406,540	7,351	-0,073	0,040
-405,525	-91,813	-0,092	-0,019
-404,511	-79,997	-0,019	0,005
-403,496	-200,000	0,000	-0,165
-402,482	56,226	0,059	0,041
-401,467	-79,168	0,087	-0,021
-400,452	-0,044	0,042	-0,021
-399,438	173,693	-0,031	0,033
-398,423	-114,369	-0,079	-0,011
-397,409	63,099	0,057	-0,041
-396,394	800,000	-0,044	-0,109
-395,379	-200,000	0,003	-0,087
-394,365	-109,363	0,121	0,018
-393,350	800,000	-0,061	0,145
-392,336	42,721	0,093	0,061
-391,321	-200,000	-0,006	-0,147
-390,306	-57,531	-0,062	-0,020
-389,292	-149,636	0,040	0,002
-388,277	-145,408	0,097	0,006
-387,263	-32,315	0,013	-0,005
-386,248	155,816	-0,115	0,116
-385,233	773,409	0,066	0,131
-384,219	229,971	-0,031	-0,037
-383,204	-200,000	0,012	0,054
-382,190	179,133	-0,032	-0,034
-381,175	486,258	0,020	0,034
-380,160	500,538	0,070	0,118
-379,146	-200,000	0,026	0,163
-378,131	800,000	-0,031	-0,090
-377,117	127,906	0,075	0,069
-376,102	209,482	-0,087	0,099
-375,088	-140,305	-0,098	-0,007
-374,073	16,783	0,012	-0,007
-373,058	98,339	0,079	0,066
-372,044	-106,693	0,096	-0,015
-371,029	242,362	0,044	-0,053
-370,015	800,000	0,042	0,099
-369,000	-200,000	0,006	0,029
-367,985	32,911	-0,081	-0,051
-366,971	760,956	-0,024	-0,048
-365,956	-200,000	0,007	0,045
-364,942	5,456	0,111	0,059
-363,927	1,481	-0,102	0,053
-362,912	-132,492	-0,121	0,011
-361,898	-133,529	0,074	-0,007
-360,883	4,193	-0,107	-0,056
-359,869	163,315	0,064	-0,066
-358,854	-200,000	-0,017	-0,086
-357,839	-200,000	-0,044	0,185
-356,825	-88,464	0,099	-0,021
-355,810	-130,475	0,033	0,003
-354,796	486,834	0,045	0,075
-353,781	-200,000	-0,008	-0,109
-352,766	713,754	-0,015	-0,028
-351,752	-200,000	0,004	-0,016
-350,737	-69,074	-0,070	0,019
-349,723	395,220	-0,026	-0,040
-348,708	-28,830	0,052	-0,021
-347,693	-38,863	0,085	0,032
-346,679	39,033	-0,114	0,074
-345,664	135,940	0,124	0,117
-344,650	800,000	0,020	0,047
-343,635	254,717	0,076	0,094
-342,620	-69,640	-0,086	0,024
-341,606	800,000	0,017	-0,045
-340,591	800,000	0,026	-0,070
-339,577	263,990	0,022	-0,028
-338,562	224,284	-0,043	-0,050
-337,548	194,620	-0,071	-0,078
-336,533	65,039	0,093	0,068
-335,518	-24,434	-0,060	0,026
-334,504	216,187	-0,040	-0,046
-333,489	112,897	-0,055	-0,048
-332,475	23,719	-0,078	0,046
-331,460	-126,770	0,171	-0,018
-330,445	122,308	0,075	0,068
-329,431	151,319	0,111	0,110
-328,416	274,056	0,048	0,061
-327,402	-39,162	0,114	-0,043
-326,387	-132,108	0,055	-0,005
-325,372	-200,000	-0,031	-0,131
-324,358	-200,000	-0,032	-0,121
-323,343	800,000	0,015	0,039
-322,329	6,960	-0,102	-0,055
-321,314	16,079	0,137	0,078
-320,299	438,863	0,046	0,073
-319,285	32,263	-0,066	0,041
-318,270	439,416	0,022	-0,036
-317,256	-7,049	-0,043	-0,021
-316,241	-200,000	0,006	0,045
-315,226	-200,000	0,001	-0,147
-314,212	-194,394	0,056	0,000
-313,197	568,354	0,071	0,125
-312,183	-192,084	-0,063	0,000
-311,168	-53,462	0,054	-0,018
-310,153	186,553	0,084	0,091
-309,139	226,539	0,003	0,003
-308,124	191,515	-0,072	0,078
-307,110	800,000	0,034	-0,091
-306,095	797,622	0,020	0,040
-305,080	431,594	0,077	0,121
-304,066	-0,616	-0,010	0,005
-303,051	-200,000	-0,012	-0,073
-302,037	-200,000	-0,008	-0,053
-301,022	40,274	0,094	-0,061
-300,008	-169,202	0,111	-0,003
-298,993	63,125	0,150	0,108
-297,978	42,678	-0,116	0,076
-296,964	42,131	-0,085	-0,056
-295,949	-61,580	0,213	0,064
-294,935	63,114	-0,063	0,046
-293,920	-19,671	0,063	-0,028
-292,905	156,412	-0,040	0,040
-291,891	-200,000	-0,030	0,117
-290,876	163,117	0,064	-0,065
-289,862	68,214	-0,077	0,057
-288,847	185,053	-0,051	-0,055
-287,832	-200,000	0,006	-0,041
-286,818	106,326	-0,185	-0,158
-285,803	317,810	0,076	0,104
-284,789	-107,576	-0,088	0,014
-283,774	-83,961	0,121	-0,028
-282,759	-200,000	-0,016	-0,085
-281,745	800,000	-0,045	-0,125
-280,730	800,000	0,037	-0,100
-279,716	-50,134	-0,087	-0,029
-278,701	800,000	0,042	-0,135
-277,686	86,170	0,096	-0,077
-276,672	-63,233	0,069	0,020
-275,657	-157,921	-0,085	-0,004
-274,643	171,585	0,044	-0,046
-273,628	431,950	0,053	-0,083
-272,613	696,011	0,020	0,039
-271,599	21,641	0,054	-0,032
-270,584	575,902	0,052	0,092
-269,570	114,344	0,082	0,072
-268,555	181,492	-0,043	-0,046
-267,540	-200,000	0,003	0,138
-266,526	294,290	-0,052	0,069
-265,511	-63,946	0,013	0,004
-264,497	-103,288	-0,044	0,007
-263,482	138,670	0,101	0,096
-262,467	-75,861	-0,029	0,007
-261,453	-107,139	-0,192	0,030
-260,438	-1,063	-0,087	0,044
-259,424	-104,348	0,042	0,007
-258,409	584,453	-0,029	-0,051
-257,395	144,337	0,043	0,041
-256,380	-147,155	0,059	-0,004
-255,365	-200,000	-0,012	-0,081
-254,351	152,382	-0,035	0,035
-253,336	-8,281	-0,057	0,028
-252,322	-124,515	-0,052	0,006
-251,307	-94,117	0,190	-0,037
-250,292	-71,345	-0,089	0,024
-249,278	-200,000	-0,001	-0,091
-248,263	116,589	0,084	0,074
-247,249	-152,224	0,031	0,002
-246,234	-156,763	0,106	0,005
-245,219	376,389	0,086	-0,126
-244,205	271,421	0,136	0,173
-243,190	-43,702	-0,073	0,026
-242,176	-96,295	0,138	-0,026
-241,161	41,089	0,050	0,032
-240,146	142,508	-0,020	0,019
-239,132	2,582	0,102	0,053
-238,117	35,896	-0,201	-0,127
-237,103	-90,931	0,046	-0,009
-236,088	159,199	0,019	-0,019
-235,073	728,906	-0,047	0,092
-234,059	-74,862	0,138	-0,035
-233,044	800,000	0,006	0,015
-232,030	213,719	0,086	-0,098
-231,015	579,599	-0,028	0,050
-230,000	-144,714	0,023	-0,002
-228,986	-200,000	-0,002	-0,067
-227,971	800,000	0,017	0,046
-226,957	-78,543	-0,029	-0,007
-225,942	800,000	-0,057	0,146
-224,927	352,620	-0,029	-0,042
-223,913	-181,401	-0,093	0,001
-222,898	525,872	-0,054	-0,092
-221,884	-81,870	0,183	0,043
-220,869	57,653	-0,023	-0,016
-219,855	800,000	0,079	-0,164
-218,840	56,806	-0,128	0,090
-217,825	-182,010	-0,065	-0,001
-216,811	-42,538	-0,026	-0,010
-215,796	44,664	-0,103	-0,068
-214,782	-200,000	-0,010	0,054
-213,767	800,000	0,070	0,143
-212,752	39,300	-0,020	-0,013
-211,738	-160,071	0,101	0,004
-210,723	537,978	-0,048	0,082
-209,709	-200,000	0,001	-0,113
-208,694	705,331	0,042	0,081
-207,679	509,660	0,055	-0,093
-206,665	-54,577	-0,031	0,010
-205,650	-28,929	-0,106	0,044
-204,636	-24,323	0,111	0,047
-203,621	6,588	0,044	0,023
-202,606	-200,000	-0,028	-0,146
-201,592	800,000	-0,049	-0,122
-200,577	-131,430	-0,075	-0,007
-199,563	-200,000	0,034	-0,110
-198,548	-105,871	0,113	-0,018
-197,533	33,354	0,107	0,067
-196,519	800,000	-0,052	0,136
-195,504	77,520	-0,063	-0,048
-194,490	362,577	0,115	-0,167
-193,475	-162,544	-0,025	-0,001
-192,460	-200,000	-0,009	-0,029
-191,446	-200,000	0,026	-0,094
-190,431	800,000	0,026	0,081
-189,417	180,815	-0,043	0,046
-188,402	55,042	-0,028	0,019
-187,387	324,468	-0,076	-0,104
-186,373	-47,353	-0,065	0,023
-185,358	357,060	0,042	-0,060
-184,344	-200,000	-0,027	0,158
-183,329	-200,000	-0,020	0,110
-182,315	-200,000	-0,001	-0,092
-181,300	340,873	0,014	-0,020
-180,285	103,758	-0,045	-0,038
-179,271	-9,023	-0,083	0,040
-178,256	-57,415	-0,109	0,034
-177,242	-200,000	-0,008	0,040
-176,227	-59,901	-0,102	0,031
-175,212	800,000	-0,013	-0,040
-174,198	-115,210	0,083	-0,011
-173,183	-99,526	-0,111	0,020
-172,169	36,549	-0,097	-0,061
-171,154	217,885	-0,052	0,059
-170,139	5,054	0,059	0,031
-169,125	552,445	0,039	-0,068
-168,110	344,532	0,085	0,121
-167,096	-200,000	-0,036	-0,148
-166,081	-38,327	0,106	-0,040
-165,066	607,195	-0,029	-0,053
-164,052	-200,000	0,043	0,179
-163,037	-20,875	-0,071	0,031
-162,023	56,788	0,071	-0,050
-161,008	-99,198	-0,022	0,004
-159,993	65,853	-0,152	0,111
-158,979	302,297	-0,101	-0,135
-157,964	-171,964	0,118	0,003
-156,950	-200,000	-0,000	0,002
-155,935	800,000	0,019	-0,050
-154,920	-68,313	-0,100	0,028
-153,906	82,609	-0,088	0,069
-152,891	-127,071	0,099	0,010
-151,877	156,112	0,098	0,097
-150,862	-56,030	-0,069	-0,022
-149,847	12,139	0,062	-0,034
-148,833	225,522	0,022	0,025
-147,818	98,071	0,077	0,064
-146,804	-53,342	0,145	0,048
-145,789	57,518	-0,052	0,037
-144,775	-130,841	-0,078	-0,007
-143,760	255,843	-0,069	-0,085
-142,745	-200,000	0,000	0,013
-141,731	-200,000	-0,009	-0,042
-140,716	165,382	-0,029	0,030
-139,702	-200,000	-0,002	0,049
-138,687	-200,000	-0,000	0,032
-137,672	178,057	0,070	0,073
-136,658	13,218	-0,066	0,037
-135,643	13,369	0,139	-0,077
-134,629	-200,000	-0,025	-0,087
-133,614	-140,735	-0,013	-0,001
-132,599	42,702	0,055	0,036
-131,585	-161,921	-0,085	0,003
-130,570	-150,761	0,169	0,009
-129,556	120,478	0,067	0,060
-128,541	-67,297	-0,058	0,016
-127,526	-200,000	0,009	0,058
-126,512	-200,000	0,009	0,158
-125,497	-85,067	-0,152	-0,034
-124,483	-200,000	-0,014	-0,072
-123,468	-111,666	-0,049	0,007
-122,453	-24,907	0,088	0,037
-121,439	159,994	-0,021	-0,021
-120,424	24,620	0,111	0,066
-119,410	332,714	-0,031	-0,043
