DTS Sentinel unit serial number:	SN410029Multiplexer serial number:	ORYXHardware model number:	OX2-SRSoftware version number:	ORYX F/W v4,00 Oryx Data Collector v3.7.2.0data status	okinstallation	B6 Nyhavnadifferential loss correction	single-endedforward channel	channel 2reverse channel	N/Adate	2023/12/07time	13:10:08forward acquisition time	300,00reverse acquisition time	0,00gamma	499,1914k internal	0,3203k external	0,3203temperature offset calibration	1,0000default loss term (dB/km)	0,3820temperature slope calibration	1,0000multiplexer offset coefficient	1,0000multiplexer slope coefficient	1,0000fibre end	0,00T internal ref (°C)	11,41T ext. ref 1 (°C)	-2,11T ext. ref 2 (°C)	-2,13length (m)	temperature (°C)	Stokes	anti-Stokes-744,400	-57,540	0,264	-0,084
-743,385	-152,078	-0,335	-0,017
-742,371	372,648	0,113	0,167
-741,356	-124,626	-0,334	0,037
-740,342	-16,042	0,204	0,094
-739,327	-156,958	-0,462	0,020
-738,312	467,769	0,121	0,197
-737,298	-170,582	-0,481	-0,012
-736,283	800,000	0,041	0,091
-735,269	-190,847	-0,305	0,002
-734,254	157,651	0,112	0,113
-733,239	-25,456	-0,546	-0,233
-732,225	67,626	0,190	0,141
-731,210	-183,021	-0,034	-0,000
-730,196	-200,000	0,003	-0,043
-729,181	-200,000	-0,034	-0,201
-728,167	800,000	-0,076	-0,193
-727,152	800,000	-0,024	0,056
-726,137	749,719	-0,107	-0,210
-725,123	244,267	-0,083	-0,101
-724,108	-99,859	-0,067	0,012
-723,094	-200,000	-0,003	-0,046
-722,079	27,726	-0,149	-0,091
-721,064	612,890	0,041	-0,074
-720,050	-200,000	0,048	0,200
-719,035	800,000	0,023	0,066
-718,021	173,027	-0,084	-0,088
-717,006	-200,000	0,006	0,024
-715,991	74,377	-0,222	-0,169
-714,977	-39,298	-0,099	0,037
-713,962	800,000	0,021	0,053
-712,948	-36,147	0,017	-0,007
-711,933	800,000	0,057	-0,133
-710,918	308,076	-0,022	0,030
-709,904	-129,891	-0,283	-0,028
-708,889	0,467	-0,039	-0,020
-707,875	48,314	0,090	0,061
-706,860	-98,471	-0,119	-0,022
-705,845	800,000	-0,023	0,050
-704,831	297,474	-0,064	-0,085
-703,816	-31,456	-0,158	-0,064
-702,802	800,000	-0,039	-0,083
-701,787	800,000	-0,076	-0,180
-700,772	-155,385	-0,077	0,004
-699,758	-200,000	-0,016	0,224
-698,743	43,761	0,149	-0,099
-697,729	800,000	0,019	-0,055
-696,714	-50,854	0,085	0,029
-695,699	-200,000	-0,009	-0,121
-694,685	-200,000	-0,007	-0,039
-693,670	-200,000	0,015	-0,063
-692,656	-81,758	0,038	-0,009
-691,641	-200,000	0,029	0,127
-690,627	-200,000	0,021	0,084
-689,612	361,158	-0,026	-0,038
-688,597	-200,000	-0,008	0,112
-687,583	800,000	0,013	-0,035
-686,568	581,876	-0,062	-0,110
-685,554	-32,960	0,051	-0,020
-684,539	800,000	-0,031	0,078
-683,524	-114,821	0,014	0,002
-682,510	-170,229	-0,030	-0,001
-681,495	165,995	-0,019	-0,020
-680,481	156,099	-0,076	-0,076
-679,466	800,000	-0,037	-0,118
-678,451	81,535	0,047	-0,037
-677,437	-12,365	-0,108	0,051
-676,422	126,373	0,044	0,040
-675,408	-200,000	-0,003	0,096
-674,393	800,000	-0,021	-0,047
-673,378	-200,000	0,021	-0,109
-672,364	800,000	-0,047	-0,097
-671,349	-161,047	0,071	-0,003
-670,335	335,559	0,085	-0,120
-669,320	-200,000	-0,006	0,104
-668,305	-149,475	0,057	-0,003
-667,291	59,322	-0,099	-0,071
-666,276	171,832	-0,047	-0,049
-665,262	115,915	-0,106	-0,094
-664,247	-62,356	-0,070	0,021
-663,232	-154,808	-0,123	-0,006
-662,218	800,000	0,010	0,023
-661,203	800,000	0,052	0,140
-660,189	-122,667	-0,165	0,019
-659,174	-200,000	0,007	-0,060
-658,159	82,797	-0,058	0,045
-657,145	-200,000	-0,007	-0,025
-656,130	82,088	-0,035	-0,028
-655,116	-133,253	0,108	0,010
-654,101	248,728	0,011	-0,013
-653,086	271,584	0,057	0,073
-652,072	-87,790	-0,095	-0,021
-651,057	16,098	0,057	0,032
-650,043	84,501	-0,078	-0,061
-649,028	105,912	-0,028	-0,024
-648,014	13,045	0,109	-0,061
-646,999	-200,000	0,013	0,111
-645,984	800,000	0,082	-0,194
-644,970	-200,000	0,040	-0,166
-643,955	800,000	-0,031	-0,094
-642,941	166,806	-0,072	0,074
-641,926	301,307	-0,094	0,126
-640,911	-60,467	0,044	0,014
-639,897	-87,248	-0,145	0,032
-638,882	-132,188	0,187	-0,017
-637,868	800,000	-0,050	0,104
-636,853	-200,000	0,010	0,038
-635,838	-81,761	-0,195	-0,046
-634,824	800,000	-0,006	-0,018
-633,809	-200,000	0,029	0,103
-632,795	-200,000	-0,008	0,151
-631,780	-85,160	0,057	-0,013
-630,765	-0,924	-0,043	-0,022
-629,751	163,820	-0,108	-0,110
-628,736	-200,000	-0,003	-0,067
-627,722	84,693	-0,113	-0,090
-626,707	-160,184	0,075	-0,003
-625,692	800,000	0,055	0,115
-624,678	553,629	-0,040	-0,071
-623,663	37,794	-0,009	0,006
-622,649	161,308	-0,075	0,076
-621,634	-154,992	-0,081	0,004
-620,619	-200,000	-0,013	-0,130
-619,605	12,440	0,081	0,045
-618,590	-18,282	0,121	0,055
-617,576	-200,000	0,026	0,114
-616,561	383,879	-0,080	-0,119
-615,546	-200,000	-0,008	-0,108
-614,532	106,597	0,020	0,017
-613,517	-200,000	-0,038	-0,149
-612,503	-78,694	0,092	-0,023
-611,488	800,000	-0,020	0,051
-610,474	69,374	0,049	-0,037
-609,459	-168,430	-0,016	-0,000
-608,444	-141,530	-0,190	-0,014
-607,430	-200,000	-0,008	-0,061
-606,415	-200,000	0,003	-0,169
-605,401	-10,282	-0,067	-0,032
-604,386	800,000	-0,032	0,087
-603,371	321,798	0,086	-0,119
-602,357	537,550	0,020	0,034
-601,342	-200,000	0,035	0,146
-600,328	72,919	0,057	0,043
-599,313	-133,873	-0,088	-0,008
-598,298	113,780	-0,128	-0,112
-597,284	-200,000	-0,033	0,113
-596,269	538,865	-0,050	0,086
-595,255	-95,259	0,065	-0,013
-594,240	800,000	-0,041	-0,107
-593,225	126,311	-0,032	-0,029
-592,211	800,000	-0,021	0,066
-591,196	171,445	-0,035	-0,037
-590,182	800,000	0,039	-0,117
-589,167	-88,050	0,090	0,019
-588,152	458,595	0,006	-0,010
-587,138	-58,221	-0,137	-0,043
-586,123	-200,000	-0,017	-0,169
-585,109	-157,698	0,069	-0,003
-584,094	800,000	0,057	-0,144
-583,079	230,485	-0,056	0,066
-582,065	-200,000	0,011	0,056
-581,050	-146,049	0,141	-0,009
-580,036	225,722	-0,044	0,051
-579,021	80,155	-0,077	-0,059
-578,006	-200,000	-0,029	0,134
-576,992	556,154	0,032	-0,056
-575,977	-200,000	-0,015	-0,060
-574,963	526,243	0,039	-0,067
-573,948	-133,200	0,097	-0,009
-572,934	-20,292	-0,085	-0,038
-571,919	-200,000	0,007	-0,042
-570,904	55,912	-0,101	-0,071
-569,890	255,860	-0,027	0,034
-568,875	800,000	0,051	0,104
-567,861	6,910	0,075	-0,040
-566,846	182,462	0,050	0,054
-565,831	243,585	0,048	0,059
-564,817	78,393	-0,022	0,017
-563,802	-200,000	-0,014	0,111
-562,788	170,494	-0,115	-0,119
-561,773	-200,000	-0,011	0,100
-560,758	23,374	0,109	0,064
-559,744	399,579	0,042	0,063
-558,729	-141,100	0,097	0,007
-557,715	100,541	0,060	-0,050
-556,700	488,237	-0,106	-0,175
-555,685	-200,000	0,030	-0,143
-554,671	768,562	0,043	-0,086
-553,656	-155,820	0,118	0,005
-552,642	800,000	-0,031	-0,091
-551,627	547,719	-0,011	-0,018
-550,612	-52,385	0,169	0,056
-549,598	28,492	-0,126	-0,077
-548,583	-200,000	0,003	-0,091
-547,569	84,173	-0,053	-0,042
-546,554	238,416	0,015	-0,018
-545,539	-116,184	0,057	0,007
-544,525	-74,742	-0,058	0,015
-543,510	-35,465	0,069	0,027
-542,496	-200,000	-0,025	-0,098
-541,481	50,439	0,193	-0,131
-540,466	-200,000	0,001	0,064
-539,452	-200,000	-0,005	0,028
-538,437	-52,953	0,129	0,043
-537,423	88,395	0,086	0,069
-536,408	-96,350	-0,128	-0,024
-535,393	-102,691	0,052	0,009
-534,379	-101,612	-0,156	-0,027
-533,364	133,458	-0,080	-0,075
-532,350	504,889	0,035	-0,059
-531,335	359,439	0,058	0,084
-530,321	48,594	-0,060	0,040
-529,306	174,863	-0,130	0,136
-528,291	-1,845	-0,035	0,018
-527,277	-23,113	-0,061	0,027
-526,262	365,070	0,070	0,101
-525,248	-118,388	-0,032	0,004
-524,233	-91,193	-0,015	-0,003
-523,218	-200,000	-0,003	0,053
-522,204	-200,000	-0,006	0,038
-521,189	-200,000	0,026	-0,105
-520,175	311,408	-0,008	0,011
-519,160	94,440	-0,118	0,096
-518,145	26,245	0,140	0,084
-517,131	-135,491	0,244	-0,021
-516,116	373,340	-0,070	0,103
-515,102	29,068	-0,178	0,109
-514,087	75,220	0,005	-0,004
-513,072	406,258	0,049	0,075
-512,058	800,000	0,028	-0,062
-511,043	312,183	-0,039	0,053
-510,029	-114,032	0,066	-0,009
-509,014	157,416	0,076	0,076
-507,999	306,159	-0,035	-0,048
-506,985	-49,949	-0,040	-0,013
-505,970	-31,960	0,097	-0,039
-504,956	160,672	0,043	-0,043
-503,941	-200,000	0,011	-0,118
-502,926	800,000	0,043	-0,105
-501,912	192,066	0,055	0,060
-500,897	225,648	-0,094	0,110
-499,883	-200,000	-0,035	-0,147
-498,868	143,190	0,030	-0,029
-497,853	30,410	-0,083	-0,051
-496,839	-200,000	0,009	-0,045
-495,824	-200,000	0,004	0,052
-494,810	424,601	0,090	-0,139
-493,795	-200,000	0,008	0,079
-492,781	40,690	-0,103	0,067
-491,766	-200,000	0,008	-0,040
-490,751	90,394	-0,078	-0,062
-489,737	214,827	0,049	0,056
-488,722	181,164	0,123	0,130
-487,708	214,715	-0,041	0,046
-486,693	-104,552	0,222	0,037
-485,678	167,153	-0,045	-0,046
-484,664	162,043	0,078	-0,079
-483,649	41,068	-0,120	-0,078
-482,635	-150,648	-0,133	-0,007
-481,620	-200,000	-0,007	-0,098
-480,605	-189,255	0,112	-0,001
-479,591	43,620	0,040	0,026
-478,576	356,737	-0,091	0,131
-477,562	-99,581	-0,145	0,026
-476,547	-200,000	-0,047	-0,167
-475,532	-50,081	0,115	-0,039
-474,518	-26,688	0,178	0,075
-473,503	-200,000	-0,004	0,056
-472,489	433,648	0,060	0,094
-471,474	667,099	-0,038	0,071
-470,459	-200,000	-0,025	0,127
-469,445	800,000	-0,018	0,038
-468,430	431,875	0,037	-0,058
-467,416	-200,000	0,017	-0,065
-466,401	800,000	-0,049	0,105
-465,386	25,196	-0,074	-0,044
-464,372	800,000	-0,011	0,023
-463,357	-200,000	0,032	0,119
-462,343	800,000	0,027	-0,083
-461,328	220,379	0,060	0,069
-460,313	71,054	0,057	0,042
-459,299	-78,583	-0,079	-0,019
-458,284	-200,000	0,007	-0,041
-457,270	261,605	-0,069	-0,086
-456,255	-200,000	0,006	-0,045
-455,241	194,349	-0,046	0,050
-454,226	800,000	-0,015	0,045
-453,211	-118,313	-0,092	0,012
-452,197	-200,000	0,013	-0,093
-451,182	800,000	-0,021	0,053
-450,168	153,003	-0,048	0,047
-449,153	254,174	-0,018	0,022
-448,138	-96,274	-0,036	-0,007
-447,124	-138,691	0,131	-0,010
-446,109	91,600	0,094	-0,076
-445,095	234,140	0,015	-0,018
-444,080	-39,017	0,149	0,056
-443,065	37,227	0,029	0,019
-442,051	101,259	-0,048	0,040
-441,036	-37,251	-0,091	-0,035
-440,022	-91,852	-0,108	-0,022
-439,007	-200,000	0,001	0,086
-437,992	262,705	0,044	0,055
-436,978	800,000	-0,058	0,143
-435,963	-200,000	-0,016	-0,117
-434,949	-47,151	-0,047	0,016
-433,934	-200,000	-0,044	-0,193
-432,919	-200,000	-0,012	-0,044
-431,905	-200,000	0,006	0,019
-430,890	-200,000	0,019	-0,102
-429,876	-117,529	0,096	0,012
-428,861	178,695	-0,038	0,040
-427,846	33,849	-0,026	0,016
-426,832	-98,414	-0,074	0,014
-425,817	-8,896	-0,041	-0,020
-424,803	147,766	-0,076	-0,074
-423,788	-18,253	-0,068	0,031
-422,773	267,762	-0,082	0,103
-421,759	645,085	-0,055	0,101
-420,744	-200,000	0,031	-0,125
-419,730	532,906	-0,047	-0,080
-418,715	800,000	-0,018	0,042
-417,701	-48,589	-0,099	-0,034
-416,686	-200,000	-0,014	0,062
-415,671	444,273	0,029	0,045
-414,657	57,626	-0,136	-0,095
-413,642	484,475	-0,013	0,021
-412,628	109,022	-0,045	-0,039
-411,613	-200,000	-0,027	-0,096
-410,598	-175,879	0,069	-0,001
-409,584	-200,000	-0,009	-0,088
-408,569	232,928	0,074	0,088
-407,555	408,181	-0,015	0,023
-406,540	658,012	-0,029	0,053
-405,525	800,000	0,028	-0,078
-404,511	-200,000	-0,016	-0,094
-403,496	81,434	-0,120	-0,093
-402,482	-200,000	-0,004	0,126
-401,467	-89,646	-0,059	0,012
-400,452	-138,682	0,141	0,011
-399,438	-200,000	-0,012	-0,085
-398,423	281,669	0,055	-0,071
-397,409	133,505	-0,105	-0,097
-396,394	383,056	0,067	0,099
-395,379	74,898	-0,044	0,033
-394,365	19,808	-0,017	0,010
-393,350	299,721	0,103	0,136
-392,336	129,044	-0,067	0,061
-391,321	104,100	-0,044	0,037
-390,306	800,000	-0,093	-0,225
-389,292	40,133	0,056	-0,036
-388,277	-200,000	0,010	-0,049
-387,263	-200,000	-0,001	-0,041
-386,248	800,000	0,000	0,001
-385,233	239,282	-0,084	0,100
-384,219	85,475	0,061	0,048
-383,204	-35,591	0,045	-0,018
-382,190	-82,525	-0,140	-0,032
-381,175	129,119	-0,065	-0,059
-380,160	-126,713	0,115	-0,012
-379,146	416,548	0,015	0,022
-378,131	285,824	-0,083	0,108
-377,117	28,302	-0,080	-0,048
-376,102	-200,000	0,019	0,086
-375,088	-63,913	-0,047	0,014
-374,073	-200,000	0,036	0,136
-373,058	-200,000	0,006	0,127
-372,044	116,085	0,128	0,112
-371,029	335,491	-0,050	0,069
-370,015	23,747	-0,036	-0,021
-369,000	-200,000	0,000	0,014
-367,985	-160,523	0,000	0,000
-366,971	385,350	-0,042	-0,062
-365,956	-117,830	0,028	-0,004
-364,942	-62,729	0,236	0,070
-363,927	-158,469	-0,037	-0,002
-362,912	-200,000	0,003	0,090
-361,898	800,000	-0,044	-0,131
-360,883	-122,430	0,118	-0,014
-359,869	-41,861	-0,016	-0,006
-358,854	663,006	-0,034	-0,063
-357,839	419,956	0,064	0,099
-356,825	800,000	0,018	0,052
-355,810	46,356	0,034	0,023
-354,796	96,976	-0,131	-0,107
-353,781	-200,000	0,001	0,006
-352,766	800,000	-0,022	0,060
-351,752	-46,329	0,136	-0,048
-350,737	381,672	0,072	0,105
-349,723	-114,730	-0,064	0,009
-348,708	98,443	0,009	-0,007
-347,693	-200,000	0,015	-0,103
-346,679	-200,000	-0,020	-0,092
-345,664	8,675	-0,139	-0,075
-344,650	-169,172	-0,064	0,002
-343,635	-115,585	-0,089	0,012
-342,620	280,148	-0,077	0,099
-341,606	11,805	0,162	0,089
-340,591	89,184	-0,020	0,016
-339,577	-200,000	0,014	-0,206
-338,562	-200,000	-0,039	-0,242
-337,548	-91,154	-0,066	-0,013
-336,533	4,625	-0,014	0,007
-335,518	-100,840	0,155	0,027
-334,504	-200,000	0,001	0,060
-333,489	-200,000	0,006	-0,141
-332,475	364,258	0,062	-0,089
-331,460	-200,000	0,001	-0,106
-330,445	800,000	0,011	0,024
-329,431	800,000	0,052	0,139
-328,416	-200,000	-0,048	0,194
-327,402	-171,126	0,091	0,002
-326,387	324,552	-0,030	-0,042
-325,372	-154,989	0,014	-0,001
-324,358	-28,082	0,075	-0,031
-323,343	238,473	0,091	0,109
-322,329	-200,000	0,024	0,118
-321,314	43,641	0,120	0,079
-320,299	-200,000	0,051	0,230
-319,285	488,807	-0,068	0,111
-318,270	-13,532	-0,088	-0,040
-317,256	800,000	0,036	-0,105
-316,241	-42,030	-0,083	0,030
-315,226	-200,000	0,012	0,132
-314,212	583,581	0,118	0,208
-313,197	602,701	-0,039	0,070
-312,183	800,000	-0,012	-0,033
-311,168	-53,662	-0,096	0,031
-310,153	-120,712	0,091	0,011
-309,139	442,241	-0,037	0,058
-308,124	59,229	-0,119	-0,084
-307,110	-58,652	0,034	0,011
-306,095	800,000	0,058	-0,157
-305,080	23,146	-0,080	-0,047
-304,066	38,328	0,040	-0,025
-303,051	-73,344	-0,172	0,045
-302,037	36,218	-0,017	0,011
-301,022	-200,000	-0,008	-0,039
-300,008	-12,465	0,152	-0,070
-298,993	-94,713	0,057	0,011
-297,978	-63,150	0,179	0,052
-296,964	621,250	-0,046	0,084
-295,949	800,000	-0,045	-0,103
-294,935	299,404	-0,062	-0,082
-293,920	-21,927	0,019	-0,008
-292,905	800,000	-0,013	-0,038
-291,891	-200,000	-0,021	0,108
-290,876	740,742	0,044	0,085
-289,862	183,484	0,100	0,105
-288,847	276,871	0,009	-0,012
-287,832	-200,000	-0,011	0,040
-286,818	-25,158	0,046	0,019
-285,803	203,924	-0,044	-0,049
-284,789	800,000	-0,032	0,071
-283,774	-200,000	0,029	-0,112
-282,759	-125,213	0,110	0,012
-281,745	-20,677	-0,096	-0,042
-280,730	800,000	0,021	-0,047
-279,716	75,534	0,028	0,021
-278,701	-200,000	0,052	0,178
-277,686	98,687	0,132	-0,109
-276,672	-90,885	0,039	0,008
-275,657	-200,000	0,002	-0,053
-274,643	-180,261	0,155	-0,002
-273,628	-45,257	-0,093	0,033
-272,613	53,339	-0,064	-0,044
-271,599	-200,000	-0,001	0,033
-270,584	800,000	0,060	0,161
-269,570	800,000	-0,032	-0,094
-268,555	-62,870	0,134	0,039
-267,540	18,829	0,101	0,057
-266,526	579,870	-0,080	-0,140
-265,511	-200,000	-0,010	-0,044
-264,497	-1,833	-0,099	0,050
-263,482	800,000	0,020	-0,044
-262,467	-200,000	0,009	0,068
-261,453	800,000	-0,063	-0,156
-260,438	-119,671	0,094	0,011
-259,424	5,853	-0,186	0,098
-258,409	251,605	-0,068	0,082
-257,395	210,160	-0,020	0,023
-256,380	172,563	0,077	0,079
-255,365	-160,612	0,117	0,004
-254,351	58,695	0,042	0,029
-253,336	463,344	-0,035	0,056
-252,322	800,000	-0,023	-0,060
-251,307	-200,000	-0,003	-0,146
-250,292	-78,033	-0,050	-0,012
-249,278	800,000	-0,044	0,119
-248,263	365,049	-0,049	-0,071
-247,249	-200,000	0,012	-0,050
-246,234	64,709	-0,047	-0,034
-245,219	151,097	-0,088	-0,085
-244,205	-200,000	-0,013	0,052
-243,190	140,677	-0,105	-0,098
-242,176	-200,000	-0,019	0,077
-241,161	-200,000	-0,017	-0,072
-240,146	-91,669	-0,096	0,019
-239,132	-94,727	-0,041	-0,008
-238,117	306,257	0,008	-0,011
-237,103	-94,027	-0,112	-0,022
-236,088	-88,232	0,123	-0,026
-235,073	-200,000	0,007	0,106
-234,059	-171,774	0,113	0,003
-233,044	800,000	0,019	-0,038
-232,030	-115,701	-0,101	0,013
-231,015	-200,000	0,005	-0,059
-230,000	347,183	-0,033	-0,046
-228,986	88,950	0,107	0,085
-227,971	62,132	-0,099	-0,070
-226,957	41,802	0,180	0,116
-225,942	54,405	0,108	0,074
-224,927	800,000	0,057	-0,144
-223,913	800,000	0,042	-0,117
-222,898	800,000	-0,104	-0,209
-221,884	-200,000	0,018	-0,171
-220,869	-200,000	0,022	0,171
-219,855	-189,820	0,110	0,001
-218,840	643,546	-0,056	0,102
-217,825	264,110	0,033	-0,041
-216,811	-200,000	0,001	-0,058
-215,796	800,000	0,058	-0,183
-214,782	800,000	-0,039	-0,089
-213,767	800,000	0,008	0,018
-212,752	759,093	0,117	0,226
-211,738	511,157	0,054	0,090
-210,723	-66,630	-0,163	-0,046
-209,709	9,342	0,113	-0,061
-208,694	800,000	0,016	-0,036
-207,679	-200,000	-0,007	0,137
-206,665	138,794	0,036	-0,034
-205,650	-200,000	0,016	-0,070
-204,636	-200,000	0,003	0,082
-203,621	163,511	-0,030	0,030
-202,606	50,120	-0,063	-0,042
-201,592	-114,343	-0,100	-0,014
-200,577	-151,769	-0,188	0,010
-199,563	-200,000	0,016	0,055
-198,548	800,000	0,034	0,074
-197,533	-45,984	0,087	0,030
-196,519	-1,524	-0,059	0,030
-195,504	-141,890	0,057	0,004
-194,490	152,513	-0,114	0,111
-193,475	24,974	0,143	-0,084
-192,460	-200,000	-0,005	-0,043
-191,446	-200,000	0,019	0,077
-190,431	-200,000	-0,016	0,168
-189,417	153,166	-0,031	0,030
-188,402	-200,000	0,005	-0,056
-187,387	-200,000	0,004	0,100
-186,373	160,163	0,039	0,038
-185,358	-44,480	-0,016	-0,006
-184,344	-171,189	-0,039	0,001
-183,329	-200,000	-0,010	-0,036
-182,315	-1,079	-0,177	0,089
-181,300	-200,000	0,025	-0,140
-180,285	276,894	0,054	-0,068
-179,271	-12,265	0,068	-0,032
-178,256	-200,000	-0,001	0,051
-177,242	-70,420	0,029	0,008
-176,227	800,000	0,054	0,118
-175,212	-200,000	-0,005	-0,063
-174,198	-200,000	0,005	0,089
-173,183	35,162	0,073	0,045
-172,169	-200,000	0,006	0,064
-171,154	-200,000	0,043	-0,145
-170,139	155,548	0,140	0,137
-169,125	343,270	-0,060	0,084
-168,110	-200,000	0,018	-0,075
-167,096	-65,799	-0,078	-0,022
-166,081	286,282	0,029	-0,037
-165,066	-41,772	0,083	0,030
-164,052	26,459	0,062	-0,037
-163,037	-23,543	-0,061	-0,026
-162,023	-200,000	0,026	-0,159
-161,008	-15,004	0,026	-0,012
-159,993	-34,505	0,075	0,029
-158,979	-154,792	-0,168	-0,008
-157,964	-200,000	-0,022	-0,171
-156,950	-69,969	0,025	0,007
-155,935	-200,000	-0,002	0,068
-154,920	-126,706	0,099	-0,010
-153,906	-13,451	-0,136	0,062
-152,891	-200,000	0,000	0,114
-151,877	5,694	-0,035	0,018
-150,862	-0,986	-0,030	0,015
-149,847	43,598	0,050	0,032
-148,833	-98,052	0,097	-0,018
-147,818	800,000	0,060	0,119
-146,804	-161,632	0,076	-0,003
-145,789	-200,000	0,018	-0,085
-144,775	-84,861	-0,106	0,024
-143,760	-22,470	0,057	-0,024
-142,745	-37,891	-0,104	-0,039
-141,731	-200,000	0,017	-0,113
-140,716	609,344	0,085	0,152
-139,702	-200,000	0,005	0,020
-138,687	385,637	-0,033	-0,048
-137,672	67,206	-0,041	-0,030
-136,658	-33,293	-0,025	-0,010
-135,643	-44,176	-0,193	-0,068
-134,629	580,609	-0,049	0,086
-133,614	21,296	0,069	-0,040
-132,599	373,499	-0,048	0,070
-131,585	-189,292	-0,074	-0,001
-130,570	95,899	0,069	0,056
-129,556	-200,000	-0,046	-0,147
-128,541	584,936	-0,059	0,104
-127,526	324,005	-0,058	-0,079
-126,512	-200,000	-0,002	-0,075
-125,497	183,743	0,077	0,081
-124,483	-52,590	-0,137	-0,044
-123,468	800,000	0,031	0,073
-122,453	99,318	0,078	0,064
-121,439	233,663	0,068	-0,079
-120,424	-29,552	-0,142	0,057
