DTS Sentinel unit serial number:	SN410029Multiplexer serial number:	ORYXHardware model number:	OX2-SRSoftware version number:	ORYX F/W v4,00 Oryx Data Collector v3.7.2.0data status	okinstallation	B6 Nyhavnadifferential loss correction	single-endedforward channel	channel 2reverse channel	N/Adate	2023/12/11time	03:15:08forward acquisition time	300,00reverse acquisition time	0,00gamma	499,1914k internal	0,3123k external	0,3123temperature offset calibration	1,0000default loss term (dB/km)	0,3820temperature slope calibration	1,0000multiplexer offset coefficient	1,0000multiplexer slope coefficient	1,0000fibre end	0,00T internal ref (°C)	21,29T ext. ref 1 (°C)	4,09T ext. ref 2 (°C)	4,11length (m)	temperature (°C)	Stokes	anti-Stokes-744,400	612,438	0,040	-0,075
-743,385	791,169	-0,072	0,149
-742,371	800,000	0,022	0,055
-741,356	-73,069	-0,288	0,078
-740,342	59,471	0,120	0,088
-739,327	241,584	-0,161	0,201
-738,312	275,277	0,082	0,108
-737,298	17,016	-0,299	0,176
-736,283	-111,570	0,102	0,015
-735,269	-53,156	-0,349	0,119
-734,254	800,000	0,008	0,025
-733,239	-90,191	-0,426	-0,092
-732,225	-164,080	0,093	0,003
-731,210	-25,431	-0,087	0,038
-730,196	-99,871	0,139	0,026
-729,181	-70,051	-0,117	0,033
-728,167	-200,000	-0,011	0,053
-727,152	64,021	0,053	-0,039
-726,137	-200,000	-0,003	-0,047
-725,123	-200,000	-0,008	0,048
-724,108	-93,614	-0,124	-0,025
-723,094	-130,790	-0,116	0,011
-722,079	-200,000	-0,004	0,064
-721,064	259,312	-0,053	0,068
-720,050	184,338	0,122	0,134
-719,035	210,671	0,086	0,101
-718,021	-171,376	-0,045	0,001
-717,006	452,914	-0,050	-0,083
-715,991	-128,807	-0,048	-0,005
-714,977	-127,669	-0,206	0,022
-713,962	655,147	-0,019	0,037
-712,948	-200,000	0,002	0,009
-711,933	-140,766	-0,098	-0,007
-710,918	283,506	-0,021	-0,028
-709,904	26,172	-0,055	0,034
-708,889	-90,493	0,154	0,033
-707,875	-77,178	-0,151	-0,039
-706,860	-122,019	0,011	0,001
-705,845	800,000	-0,014	-0,042
-704,831	-91,993	-0,088	-0,018
-703,816	-103,452	-0,070	-0,012
-702,802	-59,247	0,122	0,039
-701,787	28,721	-0,109	-0,069
-700,772	128,139	-0,095	-0,090
-699,758	63,324	-0,088	0,066
-698,743	-200,000	0,071	0,000
-697,729	210,156	-0,047	-0,055
-696,714	800,000	-0,031	0,088
-695,699	552,646	0,045	-0,080
-694,685	800,000	-0,050	-0,161
-693,670	-105,228	0,113	-0,019
-692,656	-25,918	-0,127	0,055
-691,641	598,124	0,028	0,052
-690,627	-52,804	0,042	0,014
-689,612	72,273	0,052	0,040
-688,597	800,000	0,015	0,033
-687,583	-200,000	-0,019	-0,089
-686,568	-200,000	0,001	-0,055
-685,554	72,743	0,038	-0,029
-684,539	-114,653	0,148	0,021
-683,524	300,377	0,114	-0,156
-682,510	-56,401	0,086	0,028
-681,495	-183,410	0,053	0,001
-680,481	170,056	-0,068	-0,072
-679,466	-85,686	-0,123	-0,028
-678,451	800,000	0,050	-0,130
-677,437	-64,721	-0,043	-0,013
-676,422	776,010	-0,023	0,047
-675,408	277,221	0,023	-0,030
-674,393	-200,000	-0,030	-0,117
-673,378	800,000	-0,024	0,056
-672,364	-200,000	-0,003	-0,030
-671,349	176,555	0,059	-0,064
-670,335	667,880	0,015	-0,029
-669,320	134,909	0,043	0,041
-668,305	-200,000	0,002	0,045
-667,291	800,000	-0,045	0,141
-666,276	162,063	-0,117	-0,121
-665,262	513,795	-0,052	0,090
-664,247	-113,976	-0,104	-0,015
-663,232	800,000	0,038	-0,103
-662,218	363,085	-0,075	-0,113
-661,203	800,000	0,062	-0,147
-660,189	-41,174	0,071	-0,027
-659,174	-200,000	-0,019	-0,069
-658,159	-200,000	0,001	-0,066
-657,145	638,628	-0,013	-0,025
-656,130	-200,000	-0,042	-0,170
-655,116	200,726	-0,017	-0,019
-654,101	42,681	-0,041	0,028
-653,086	73,929	0,099	-0,077
-652,072	91,006	-0,038	-0,032
-651,057	800,000	0,060	-0,128
-650,043	315,712	-0,040	0,056
-649,028	379,681	0,008	0,012
-648,014	85,462	0,087	0,071
-646,999	-1,391	-0,095	0,050
-645,984	-47,100	0,091	-0,033
-644,970	138,149	-0,039	-0,038
-643,955	391,579	-0,033	-0,051
-642,941	800,000	0,034	0,070
-641,926	-200,000	0,029	0,141
-640,911	31,213	-0,026	0,017
-639,897	89,496	0,134	-0,111
-638,882	284,773	0,085	-0,113
-637,868	-15,623	-0,115	-0,054
-636,853	-96,907	-0,015	0,003
-635,838	-98,836	0,065	0,012
-634,824	277,803	-0,094	-0,125
-633,809	775,925	-0,031	-0,063
-632,795	-127,043	-0,112	0,012
-631,780	-117,388	-0,062	0,008
-630,765	-200,000	0,009	0,064
-629,751	800,000	0,021	-0,045
-628,736	800,000	0,040	-0,089
-627,722	-200,000	-0,016	-0,102
-626,707	292,817	0,070	0,095
-625,692	-74,092	0,064	-0,017
-624,678	-45,601	-0,053	-0,019
-623,663	-33,500	-0,095	-0,039
-622,649	-55,058	-0,140	-0,047
-621,634	-200,000	0,025	-0,084
-620,619	13,516	0,076	0,044
-619,605	-19,836	0,045	-0,020
-618,590	-7,696	0,040	0,020
-617,576	-200,000	-0,027	-0,103
-616,561	-200,000	0,019	-0,107
-615,546	-41,551	-0,139	-0,053
-614,532	800,000	0,047	-0,149
-613,517	-115,461	0,062	0,009
-612,503	-84,583	0,073	0,017
-611,488	-52,200	0,081	-0,028
-610,474	-200,000	-0,020	-0,083
-609,459	-200,000	-0,001	-0,073
-608,444	-200,000	0,015	-0,059
-607,430	-98,768	-0,068	-0,013
-606,415	-200,000	-0,010	0,143
-605,401	190,588	0,054	0,060
-604,386	615,819	0,031	0,058
-603,371	-200,000	0,012	-0,041
-602,357	45,526	0,078	0,053
-601,342	-66,559	-0,077	0,023
-600,328	38,526	-0,060	0,040
-599,313	78,024	0,019	-0,015
-598,298	-36,145	0,060	-0,024
-597,284	800,000	0,019	-0,043
-596,269	800,000	0,019	0,041
-595,255	87,612	0,093	-0,077
-594,240	-92,245	0,103	0,021
-593,225	-113,549	0,030	0,004
-592,211	-149,188	-0,182	0,011
-591,196	-145,521	0,143	0,009
-590,182	162,080	0,058	-0,060
-589,167	496,432	0,022	-0,037
-588,152	311,152	-0,064	-0,089
-587,138	-200,000	0,002	-0,032
-586,123	10,709	-0,075	-0,042
-585,109	-77,210	-0,132	0,034
-584,094	800,000	-0,035	-0,081
-583,079	453,849	-0,039	0,064
-582,065	239,505	-0,069	-0,085
-581,050	-125,908	0,094	-0,010
-580,036	-104,001	0,120	-0,021
-579,021	800,000	-0,025	-0,081
-578,006	-62,042	0,078	-0,024
-576,992	-68,964	-0,023	0,006
-575,977	170,576	-0,052	-0,055
-574,963	132,881	0,073	0,069
-573,948	-88,372	0,057	0,013
-572,934	-200,000	0,001	-0,054
-571,919	-166,872	-0,122	-0,004
-570,904	-200,000	0,009	-0,041
-569,890	3,775	-0,052	0,028
-568,875	-100,782	-0,092	0,017
-567,861	261,691	-0,048	-0,062
-566,846	-200,000	-0,013	0,043
-565,831	597,278	-0,033	0,060
-564,817	232,385	0,045	0,055
-563,802	5,299	-0,010	0,006
-562,788	391,376	-0,076	0,118
-561,773	-178,501	0,034	0,001
-560,758	66,549	0,209	0,157
-559,744	-200,000	0,007	0,043
-558,729	201,388	0,056	0,063
-557,715	211,229	-0,116	-0,135
-556,700	50,008	-0,050	0,035
-555,685	48,015	-0,079	-0,054
-554,671	-58,238	0,006	0,002
-553,656	-48,061	0,140	0,050
-552,642	-200,000	0,034	0,163
-551,627	46,972	-0,042	0,029
-550,612	549,152	0,047	-0,084
-549,598	-63,629	0,099	-0,030
-548,583	19,224	-0,061	-0,036
-547,569	78,665	0,053	-0,042
-546,554	11,531	-0,013	0,008
-545,539	-200,000	-0,002	0,119
-544,525	-54,862	0,188	0,062
-543,510	-75,825	-0,106	-0,028
-542,496	800,000	0,013	0,042
-541,481	-44,587	0,096	-0,035
-540,466	800,000	0,062	-0,128
-539,452	-106,451	0,147	0,024
-538,437	-90,283	0,030	0,006
-537,423	-102,007	-0,092	0,016
-536,408	-175,389	-0,134	0,003
-535,393	751,150	0,063	-0,127
-534,379	39,726	-0,084	-0,055
-533,364	-90,485	0,074	0,016
-532,350	800,000	0,053	0,108
-531,335	800,000	-0,060	0,136
-530,321	515,579	0,035	0,061
-529,306	320,053	0,004	0,006
-528,291	-200,000	0,007	0,027
-527,277	-94,578	-0,133	0,027
-526,262	-107,633	-0,127	0,020
-525,248	293,027	0,084	-0,114
-524,233	-198,921	0,067	-0,000
-523,218	182,994	0,074	-0,080
-522,204	-200,000	-0,000	-0,061
-521,189	-109,915	0,054	-0,008
-520,175	800,000	0,055	-0,159
-519,160	800,000	-0,047	-0,128
-518,145	800,000	-0,012	-0,036
-517,131	-200,000	0,018	-0,199
-516,116	397,771	-0,055	0,085
-515,102	-16,221	0,146	0,068
-514,087	800,000	-0,053	-0,115
-513,072	800,000	-0,043	-0,114
-512,058	-70,396	0,036	-0,010
-511,043	-22,201	-0,073	0,033
-510,029	-200,000	-0,003	0,016
-509,014	-138,458	0,112	-0,009
-507,999	222,784	-0,030	0,035
-506,985	-147,166	-0,117	0,007
-505,970	-200,000	-0,017	-0,161
-504,956	-200,000	0,003	-0,228
-503,941	152,683	0,061	-0,061
-502,926	215,560	-0,079	0,093
-501,912	-200,000	0,010	0,123
-500,897	-103,929	0,049	-0,008
-499,883	-200,000	0,027	-0,132
-498,868	-200,000	0,001	-0,047
-497,853	205,048	-0,086	0,099
-496,839	288,677	-0,065	0,087
-495,824	800,000	0,016	0,048
-494,810	19,446	-0,036	-0,021
-493,795	-200,000	0,011	0,041
-492,781	-200,000	0,017	-0,103
-491,766	65,315	-0,042	0,031
-490,751	-200,000	0,002	-0,104
-489,737	8,632	-0,035	0,019
-488,722	725,009	0,025	0,049
-487,708	154,995	0,024	-0,024
-486,693	147,236	-0,024	-0,024
-485,678	46,315	0,085	-0,058
-484,664	800,000	0,015	-0,037
-483,649	80,874	-0,088	-0,070
-482,635	71,609	0,073	-0,056
-481,620	31,104	-0,049	-0,031
-480,605	-200,000	0,009	-0,124
-479,591	-200,000	0,010	0,059
-478,576	-14,487	0,088	-0,042
-477,562	206,632	-0,121	-0,140
-476,547	59,859	0,096	-0,070
-475,532	-179,308	0,092	0,001
-474,518	296,894	-0,076	0,103
-473,503	517,189	0,036	-0,062
-472,489	159,346	0,066	0,068
-471,474	54,546	-0,097	0,069
-470,459	-200,000	-0,115	-0,000
-469,445	29,151	-0,157	-0,098
-468,430	426,758	0,062	0,099
-467,416	-72,203	0,087	0,024
-466,401	-200,000	0,024	0,129
-465,386	15,953	0,079	0,046
-464,372	64,132	0,008	0,006
-463,357	25,304	-0,037	-0,023
-462,343	165,208	-0,081	-0,084
-461,328	800,000	0,014	-0,030
-460,313	150,838	0,015	0,015
-459,299	177,904	0,059	-0,063
-458,284	7,342	0,087	0,048
-457,270	-90,648	0,172	0,036
-456,255	43,077	-0,086	-0,057
-455,241	-8,363	-0,062	0,030
-454,226	199,770	0,048	-0,054
-453,211	229,337	0,082	0,099
-452,197	612,920	-0,018	0,033
-451,182	584,810	0,069	-0,126
-450,168	169,524	0,044	-0,047
-449,153	462,425	0,076	0,126
-448,138	538,293	-0,031	0,054
-447,124	-200,000	0,003	0,189
-446,109	355,670	-0,083	0,122
-445,095	789,488	0,069	0,141
-444,080	609,858	0,040	0,074
-443,065	393,627	0,051	0,078
-442,051	-43,204	-0,118	0,044
-441,036	-200,000	0,037	-0,137
-440,022	-29,348	-0,098	-0,041
-439,007	495,328	0,063	-0,106
-437,992	800,000	0,075	0,156
-436,978	-30,435	-0,146	0,061
-435,963	-63,795	0,085	-0,025
-434,949	-200,000	-0,008	0,062
-433,934	-25,881	-0,042	-0,018
-432,919	367,505	-0,090	0,135
-431,905	-200,000	-0,029	-0,107
-430,890	-200,000	-0,013	0,136
-429,876	-200,000	-0,019	0,064
-428,861	-37,110	0,036	-0,014
-427,846	-200,000	-0,003	0,011
-426,832	32,993	-0,125	0,079
-425,817	-44,584	-0,104	-0,038
-424,803	-122,888	-0,224	-0,026
-423,788	259,054	0,028	-0,035
-422,773	-68,312	0,108	0,031
-421,759	89,271	0,067	0,055
-420,744	-16,272	-0,076	0,036
-419,730	800,000	0,022	0,062
-418,715	-200,000	-0,093	0,000
-417,701	422,015	0,027	-0,042
-416,686	-200,000	0,019	-0,062
-415,671	158,234	0,032	0,033
-414,657	-200,000	0,008	0,209
-413,642	800,000	-0,060	0,162
-412,628	-200,000	-0,009	-0,059
-411,613	170,983	0,042	-0,045
-410,598	59,702	-0,103	-0,075
-409,584	-200,000	-0,041	-0,142
-408,569	222,389	-0,054	0,064
-407,555	-92,308	0,084	0,017
-406,540	-104,961	-0,095	-0,016
-405,525	77,679	-0,036	0,028
-404,511	-157,812	-0,059	0,003
-403,496	46,009	-0,036	-0,024
-402,482	134,026	-0,036	0,034
-401,467	1,363	0,043	0,023
-400,452	-139,263	0,085	0,007
-399,438	58,521	0,092	0,067
-398,423	18,736	-0,080	-0,047
-397,409	139,877	0,071	-0,069
-396,394	540,982	0,026	0,046
-395,379	-200,000	0,023	0,089
-394,365	800,000	-0,026	0,066
-393,350	-200,000	-0,005	0,089
-392,336	-27,460	0,109	0,046
-391,321	800,000	-0,029	0,070
-390,306	800,000	0,061	0,161
-389,292	-34,349	0,150	-0,060
-388,277	4,364	0,112	-0,060
-387,263	-200,000	0,008	-0,156
-386,248	197,840	0,046	-0,052
-385,233	-200,000	0,026	0,091
-384,219	-95,239	-0,052	0,010
-383,204	800,000	0,030	0,079
-382,190	-125,051	0,033	0,004
-381,175	-23,888	-0,038	0,017
-380,160	81,340	0,070	-0,056
-379,146	800,000	0,054	0,128
-378,131	-81,556	0,184	-0,044
-377,117	127,872	-0,092	0,086
-376,102	-200,000	-0,006	-0,055
-375,088	-75,997	-0,153	0,039
-374,073	-200,000	0,040	0,155
-373,058	-200,000	-0,005	-0,060
-372,044	-200,000	-0,016	0,069
-371,029	507,129	-0,036	0,061
-370,015	-200,000	0,005	-0,105
-369,000	-108,240	0,086	0,014
-367,985	198,445	-0,021	0,024
-366,971	164,219	0,055	0,057
-365,956	-200,000	0,019	0,112
-364,942	148,442	0,101	-0,100
-363,927	-73,953	0,067	0,018
-362,912	23,523	0,178	0,108
-361,898	456,797	0,025	-0,040
-360,883	16,940	-0,087	-0,050
-359,869	-200,000	-0,004	0,089
-358,854	800,000	0,019	-0,041
-357,839	-106,957	-0,171	0,027
-356,825	380,848	0,097	0,147
-355,810	800,000	0,036	-0,106
-354,796	16,887	0,069	0,040
-353,781	-200,000	-0,012	-0,053
-352,766	-200,000	-0,003	-0,133
-351,752	-144,207	0,098	-0,007
-350,737	245,981	0,069	0,086
-349,723	274,867	-0,049	-0,064
-348,708	800,000	-0,037	0,115
-347,693	-200,000	0,022	0,080
-346,679	555,544	0,088	0,156
-345,664	800,000	-0,038	0,088
-344,650	17,474	-0,051	-0,030
-343,635	-200,000	-0,002	0,027
-342,620	90,535	0,102	0,084
-341,606	800,000	-0,044	-0,096
-340,591	-58,482	-0,127	-0,040
-339,577	-51,905	0,064	0,022
-338,562	-200,000	-0,020	-0,068
-337,548	-200,000	-0,006	0,061
-336,533	234,949	-0,095	0,116
-335,518	-200,000	-0,009	0,031
-334,504	-76,454	0,172	0,044
-333,489	-200,000	-0,003	0,018
-332,475	98,355	-0,045	0,038
-331,460	111,631	-0,095	-0,084
-330,445	59,604	0,095	-0,068
-329,431	-200,000	0,002	-0,108
-328,416	-200,000	-0,029	0,234
-327,402	800,000	-0,070	0,148
-326,387	-200,000	-0,025	0,166
-325,372	119,408	-0,078	-0,071
-324,358	-200,000	-0,022	-0,105
-323,343	-76,337	-0,210	-0,054
-322,329	593,836	0,012	-0,022
-321,314	188,647	-0,062	-0,068
-320,299	-36,375	-0,036	-0,014
-319,285	-200,000	0,001	0,053
-318,270	-27,473	-0,091	-0,039
-317,256	-200,000	-0,019	-0,076
-316,241	-106,225	-0,052	-0,009
-315,226	-145,779	-0,023	-0,001
-314,212	117,160	-0,097	0,087
-313,197	650,833	-0,052	0,099
-312,183	-200,000	-0,001	0,125
-311,168	754,402	-0,064	0,127
-310,153	-200,000	-0,014	-0,123
-309,139	-134,802	-0,147	-0,013
-308,124	-200,000	0,007	-0,078
-307,110	40,295	0,024	-0,016
-306,095	-48,885	-0,195	0,068
-305,080	330,421	0,086	0,121
-304,066	800,000	0,061	-0,191
-303,051	800,000	0,018	-0,041
-302,037	-200,000	-0,002	0,012
-301,022	800,000	0,041	-0,115
-300,008	-4,137	-0,079	-0,040
-298,993	756,753	0,046	0,092
-297,978	-154,114	-0,116	0,006
-296,964	-200,000	-0,031	-0,141
-295,949	121,626	-0,071	0,065
-294,935	-60,785	-0,068	0,021
-293,920	196,533	0,074	-0,082
-292,905	0,949	0,051	0,027
-291,891	800,000	0,026	-0,072
-290,876	800,000	0,003	-0,007
-289,862	800,000	0,036	-0,098
-288,847	-200,000	-0,012	-0,101
-287,832	-200,000	-0,036	-0,121
-286,818	81,896	0,055	0,043
-285,803	-200,000	-0,036	0,127
-284,789	323,670	0,107	0,150
-283,774	-200,000	-0,014	-0,047
-282,759	284,838	-0,083	-0,109
-281,745	-25,609	0,082	-0,035
-280,730	509,945	0,057	-0,097
-279,716	525,679	-0,035	-0,061
-278,701	-88,478	0,086	0,019
-277,686	-120,947	0,112	0,014
-276,672	519,906	0,024	0,041
-275,657	-136,015	-0,004	0,000
-274,643	800,000	0,009	0,024
-273,628	800,000	0,038	-0,087
-272,613	173,805	0,076	0,081
-271,599	765,854	0,030	0,060
-270,584	-80,506	0,142	0,034
-269,570	-200,000	-0,007	-0,049
-268,555	783,749	0,049	0,099
-267,540	104,324	-0,078	0,067
-266,526	-200,000	-0,195	0,000
-265,511	168,566	-0,050	0,052
-264,497	15,552	0,054	-0,031
-263,482	-123,704	-0,123	0,014
-262,467	-45,214	0,152	0,055
-261,453	154,031	-0,059	0,059
-260,438	-200,000	-0,004	-0,088
-259,424	800,000	-0,027	0,060
-258,409	-200,000	0,033	-0,136
-257,395	-17,745	-0,065	0,030
-256,380	-143,973	0,071	0,005
-255,365	-200,000	0,018	-0,085
-254,351	202,736	0,086	0,097
-253,336	-200,000	0,000	0,027
-252,322	-200,000	0,002	-0,153
-251,307	483,898	-0,035	0,059
-250,292	156,461	-0,092	0,093
-249,278	-70,090	0,086	0,024
-248,263	-200,000	0,001	-0,004
-247,249	800,000	0,013	-0,033
-246,234	800,000	0,018	0,054
-245,219	-146,128	0,089	0,006
-244,205	-151,889	0,044	0,002
-243,190	61,186	0,125	-0,091
-242,176	451,488	0,050	-0,080
-241,161	175,609	0,052	0,055
-240,146	-18,014	-0,111	-0,051
-239,132	171,026	-0,105	-0,110
-238,117	-200,000	-0,011	-0,060
-237,103	-64,766	-0,053	0,015
-236,088	-25,928	-0,071	-0,030
-235,073	591,825	0,058	-0,105
-234,059	299,581	-0,062	0,083
-233,044	97,833	0,030	0,025
-232,030	193,375	-0,102	0,113
-231,015	-136,614	-0,040	-0,003
-230,000	-48,564	-0,128	-0,045
-228,986	-30,873	-0,179	0,074
-227,971	-200,000	0,012	0,063
-226,957	-200,000	-0,018	0,083
-225,942	800,000	-0,044	0,116
-224,927	-200,000	-0,026	0,086
-223,913	186,395	0,031	-0,034
-222,898	-80,706	0,119	0,029
-221,884	800,000	-0,023	0,070
-220,869	800,000	-0,045	0,127
-219,855	121,970	0,062	0,056
-218,840	800,000	-0,028	0,079
-217,825	800,000	-0,029	-0,060
-216,811	-200,000	0,022	-0,097
-215,796	-200,000	-0,016	-0,059
-214,782	-95,914	0,166	-0,032
-213,767	221,065	0,041	-0,048
-212,752	-159,274	0,061	-0,002
-211,738	-154,291	0,086	-0,004
-210,723	730,693	0,080	0,157
-209,709	-38,387	-0,164	0,063
-208,694	800,000	-0,014	0,042
-207,679	-162,120	-0,185	-0,007
-206,665	315,706	0,035	0,049
-205,650	-87,775	0,026	0,006
-204,636	203,803	0,042	0,048
-203,621	-2,968	0,061	-0,031
-202,606	0,253	-0,123	-0,064
-201,592	-66,764	-0,052	0,015
-200,577	-200,000	0,011	0,044
-199,563	115,340	-0,047	-0,042
-198,548	102,662	-0,040	0,034
-197,533	-127,602	0,043	-0,004
-196,519	-53,007	-0,067	0,022
-195,504	82,063	0,085	-0,067
-194,490	-24,331	-0,113	0,049
-193,475	641,299	0,114	-0,213
-192,460	800,000	0,037	0,094
-191,446	655,638	0,041	0,078
-190,431	190,030	0,056	-0,061
-189,417	800,000	-0,026	0,072
-188,402	416,769	-0,031	0,049
-187,387	-200,000	0,016	0,061
-186,373	800,000	0,045	-0,095
-185,358	-200,000	0,014	-0,080
-184,344	-200,000	-0,143	-0,000
-183,329	-86,418	-0,044	0,010
-182,315	-200,000	0,065	-0,000
-181,300	-200,000	-0,013	-0,186
-180,285	800,000	-0,056	-0,149
-179,271	690,129	0,056	-0,107
-178,256	22,859	-0,077	-0,046
-177,242	568,936	0,029	-0,052
-176,227	152,406	0,111	-0,111
-175,212	-59,901	0,110	-0,034
-174,198	-200,000	-0,011	-0,043
-173,183	-200,000	-0,037	-0,143
-172,169	-10,573	-0,022	-0,010
-171,154	183,383	-0,101	0,109
-170,139	782,579	0,011	0,021
-169,125	166,730	-0,017	0,018
-168,110	-160,086	0,083	-0,003
-167,096	138,350	-0,074	-0,070
-166,081	-41,230	-0,139	-0,052
-165,066	-200,000	-0,022	-0,126
-164,052	-85,466	0,118	0,027
-163,037	147,218	0,066	0,064
-162,023	-87,014	-0,001	0,000
-161,008	225,461	-0,073	0,086
-159,993	207,637	-0,028	-0,032
-158,979	-200,000	0,008	-0,041
-157,964	129,020	0,088	-0,082
-156,950	800,000	-0,012	0,028
-155,935	-21,674	-0,050	-0,022
-154,920	800,000	-0,020	-0,045
-153,906	512,182	-0,062	0,105
-152,891	271,218	-0,073	0,094
-151,877	-200,000	0,033	0,107
-150,862	-200,000	0,007	-0,084
-149,847	-200,000	0,018	0,135
-148,833	622,797	0,032	0,060
-147,818	-200,000	0,021	-0,111
-146,804	800,000	-0,054	0,123
-145,789	25,604	-0,048	-0,029
-144,775	420,742	-0,028	-0,043
-143,760	186,760	0,036	-0,039
-142,745	-200,000	0,007	-0,095
-141,731	800,000	0,006	0,016
-140,716	-14,254	0,136	0,063
-139,702	707,451	0,037	0,072
-138,687	800,000	0,022	-0,051
-137,672	16,376	0,099	-0,057
-136,658	241,928	-0,081	-0,099
-135,643	292,554	0,021	-0,028
-134,629	327,770	-0,069	-0,097
-133,614	-200,000	0,010	0,092
-132,599	800,000	0,051	0,117
-131,585	17,338	0,042	0,024
-130,570	-200,000	-0,011	0,090
-129,556	240,718	-0,004	-0,005
-128,541	267,964	-0,123	0,157
-127,526	-200,000	0,025	-0,137
-126,512	-200,000	-0,004	-0,024
-125,497	800,000	-0,031	-0,093
-124,483	289,468	0,054	-0,071
-123,468	-88,725	0,041	0,009
-122,453	336,061	-0,075	-0,106
-121,439	800,000	-0,028	0,067
-120,424	-200,000	-0,031	-0,159
-119,410	-200,000	-0,013	-0,151
