DTS Sentinel unit serial number:	SN410029Multiplexer serial number:	ORYXHardware model number:	OX2-SRSoftware version number:	ORYX F/W v4,00 Oryx Data Collector v3.7.2.0data status	okinstallation	B6 Nyhavnadifferential loss correction	single-endedforward channel	channel 2reverse channel	N/Adate	2023/12/10time	04:50:08forward acquisition time	300,00reverse acquisition time	0,00gamma	499,1914k internal	0,3125k external	0,3125temperature offset calibration	1,0000default loss term (dB/km)	0,3820temperature slope calibration	1,0000multiplexer offset coefficient	1,0000multiplexer slope coefficient	1,0000fibre end	0,00T internal ref (°C)	22,27T ext. ref 1 (°C)	6,34T ext. ref 2 (°C)	6,33length (m)	temperature (°C)	Stokes	anti-Stokes-744,400	91,911	0,042	-0,035
-743,385	-92,044	-0,221	0,046
-742,371	-37,802	0,107	-0,042
-741,356	-5,532	-0,268	0,137
-740,342	800,000	0,052	0,155
-739,327	-8,735	-0,380	0,189
-738,312	-33,308	-0,081	-0,033
-737,298	-116,125	-0,213	0,029
-736,283	39,792	0,187	-0,125
-735,269	-106,640	-0,248	0,041
-734,254	-27,683	0,020	-0,009
-733,239	-90,636	-0,392	-0,084
-732,225	-168,755	0,087	-0,002
-731,210	-101,037	0,096	0,017
-730,196	-200,000	0,022	-0,085
-729,181	-54,085	-0,110	-0,037
-728,167	800,000	0,022	0,070
-727,152	332,347	-0,056	0,080
-726,137	16,640	-0,075	-0,044
-725,123	82,833	-0,069	-0,056
-724,108	466,827	0,040	-0,067
-723,094	16,722	-0,089	-0,053
-722,079	-171,733	-0,040	0,001
-721,064	-137,265	0,051	0,004
-720,050	-200,000	-0,010	0,145
-719,035	-200,000	0,018	-0,122
-718,021	800,000	0,023	-0,074
-717,006	-200,000	0,096	-0,000
-715,991	-200,000	-0,050	-0,208
-714,977	245,377	0,058	-0,073
-713,962	-200,000	0,003	0,117
-712,948	54,627	0,084	0,060
-711,933	-200,000	-0,000	-0,035
-710,918	-200,000	-0,031	-0,121
-709,904	-200,000	0,000	-0,128
-708,889	-200,000	0,012	-0,098
-707,875	122,741	-0,093	-0,086
-706,860	-200,000	-0,005	-0,071
-705,845	800,000	0,034	-0,085
-704,831	-72,086	0,080	0,022
-703,816	-200,000	0,001	0,051
-702,802	-127,212	-0,142	-0,015
-701,787	800,000	0,027	0,089
-700,772	9,772	-0,216	0,122
-699,758	259,576	0,131	-0,169
-698,743	149,117	0,045	0,045
-697,729	-47,267	0,148	0,053
-696,714	245,697	0,072	-0,090
-695,699	-200,000	-0,009	-0,103
-694,685	271,937	0,022	-0,028
-693,670	215,269	-0,089	-0,105
-692,656	467,863	-0,046	0,077
-691,641	86,146	-0,061	-0,050
-690,627	-81,097	-0,057	0,014
-689,612	172,078	-0,084	0,090
-688,597	21,638	-0,059	0,035
-687,583	-200,000	-0,012	0,048
-686,568	343,448	-0,113	-0,165
-685,554	92,090	0,070	-0,058
-684,539	-200,000	0,004	-0,027
-683,524	800,000	0,014	0,040
-682,510	252,251	0,082	0,104
-681,495	800,000	0,012	0,036
-680,481	48,551	-0,077	0,054
-679,466	800,000	0,018	-0,039
-678,451	-7,682	0,030	0,015
-677,437	800,000	0,022	-0,046
-676,422	-200,000	-0,022	-0,111
-675,408	12,479	-0,091	0,052
-674,393	-50,139	-0,134	-0,047
-673,378	-200,000	-0,020	-0,097
-672,364	-200,000	-0,002	-0,138
-671,349	-200,000	0,010	-0,219
-670,335	2,797	-0,199	-0,107
-669,320	-200,000	0,015	-0,079
-668,305	328,377	0,059	-0,085
-667,291	-200,000	-0,011	0,082
-666,276	-34,117	-0,092	-0,038
-665,262	457,106	-0,039	-0,065
-664,247	72,302	-0,048	-0,037
-663,232	800,000	-0,046	0,105
-662,218	-200,000	-0,003	-0,150
-661,203	-108,114	-0,100	0,016
-660,189	-115,656	-0,129	-0,018
-659,174	18,958	-0,194	0,115
-658,159	25,269	-0,022	0,014
-657,145	140,405	-0,049	0,048
-656,130	576,648	-0,046	-0,084
-655,116	-200,000	-0,008	0,069
-654,101	-200,000	-0,001	-0,034
-653,086	-188,742	-0,149	-0,001
-652,072	-46,021	-0,128	-0,047
-651,057	800,000	-0,041	0,095
-650,043	83,847	-0,050	-0,040
-649,028	-43,615	-0,076	0,028
-648,014	686,011	0,051	-0,099
-646,999	-71,058	0,051	0,014
-645,984	84,698	-0,027	-0,022
-644,970	-200,000	-0,032	0,111
-643,955	93,593	-0,089	-0,075
-642,941	637,039	-0,059	-0,111
-641,926	263,389	-0,050	-0,065
-640,911	-116,206	0,101	0,014
-639,897	210,062	0,080	0,093
-638,882	22,413	0,011	0,007
-637,868	-37,680	0,206	-0,081
-636,853	167,778	-0,115	-0,122
-635,838	328,806	0,055	0,079
-634,824	-127,208	-0,142	-0,015
-633,809	-200,000	0,025	-0,123
-632,795	157,115	0,117	-0,120
-631,780	800,000	0,063	-0,164
-630,765	-200,000	-0,052	0,192
-629,751	620,604	-0,068	-0,127
-628,736	-25,592	-0,037	-0,016
-627,722	30,463	-0,033	-0,021
-626,707	-200,000	-0,025	-0,250
-625,692	50,116	0,152	-0,106
-624,678	-13,899	-0,163	0,078
-623,663	-44,975	-0,068	0,025
-622,649	800,000	0,016	0,037
-621,634	-200,000	0,003	-0,023
-620,619	-200,000	0,013	-0,080
-619,605	800,000	-0,017	-0,036
-618,590	-200,000	0,022	0,167
-617,576	-0,015	0,143	-0,075
-616,561	800,000	0,015	-0,040
-615,546	-200,000	0,008	-0,189
-614,532	-200,000	-0,008	-0,086
-613,517	46,205	-0,030	-0,021
-612,503	800,000	-0,053	-0,147
-611,488	-52,498	0,093	-0,032
-610,474	-93,088	-0,097	-0,020
-609,459	-101,146	0,089	0,016
-608,444	209,492	0,035	-0,041
-607,430	53,231	-0,164	0,116
-606,415	-163,198	-0,101	0,004
-605,401	-160,498	0,040	0,002
-604,386	800,000	0,025	0,070
-603,371	-200,000	0,012	-0,111
-602,357	443,415	0,011	-0,018
-601,342	16,848	-0,097	-0,057
-600,328	-82,550	-0,104	-0,025
-599,313	-55,490	-0,113	0,037
-598,298	-200,000	0,019	0,130
-597,284	-152,360	0,116	0,006
-596,269	800,000	-0,027	0,088
-595,255	-200,000	0,094	0,000
-594,240	202,896	-0,019	0,021
-593,225	-63,796	0,097	-0,029
-592,211	73,052	0,030	-0,023
-591,196	800,000	0,012	-0,035
-590,182	230,517	0,067	-0,081
-589,167	33,658	-0,018	-0,012
-588,152	800,000	0,036	-0,082
-587,138	-144,552	-0,041	-0,003
-586,123	-175,154	-0,109	-0,002
-585,109	800,000	-0,048	-0,108
-584,094	-165,083	-0,091	-0,003
-583,079	85,020	-0,085	-0,069
-582,065	-125,218	0,053	0,006
-581,050	-173,124	-0,192	0,004
-580,036	144,466	0,131	-0,130
-579,021	-75,842	0,099	0,026
-578,006	483,627	0,050	-0,085
-576,992	-92,002	-0,132	-0,027
-575,977	524,590	0,039	0,068
-574,963	-117,357	0,187	-0,025
-573,948	-69,891	-0,113	-0,032
-572,934	800,000	0,020	0,061
-571,919	-200,000	-0,017	-0,107
-570,904	-32,153	-0,101	-0,042
-569,890	-200,000	-0,008	-0,109
-568,875	-200,000	0,031	0,192
-567,861	800,000	0,016	0,049
-566,846	504,982	0,056	0,097
-565,831	304,113	0,080	-0,111
-564,817	-200,000	-0,012	0,040
-563,802	-16,175	-0,034	-0,016
-562,788	-48,569	0,103	0,037
-561,773	-163,502	-0,129	-0,004
-560,758	-200,000	0,002	0,037
-559,744	-200,000	-0,011	-0,137
-558,729	-45,643	0,094	0,034
-557,715	-200,000	0,017	-0,062
-556,700	164,440	0,067	-0,070
-555,685	-14,239	-0,127	0,060
-554,671	-200,000	-0,017	0,089
-553,656	304,532	0,032	0,044
-552,642	800,000	0,056	0,131
-551,627	152,187	0,071	0,071
-550,612	-200,000	-0,001	-0,054
-549,598	120,721	-0,101	0,093
-548,583	-57,200	0,060	0,019
-547,569	-70,436	0,013	-0,004
-546,554	-131,817	-0,138	-0,013
-545,539	-200,000	0,009	0,043
-544,525	190,243	0,084	0,093
-543,510	-200,000	-0,015	-0,122
-542,496	56,870	0,143	-0,103
-541,481	-200,000	0,022	-0,105
-540,466	14,086	0,093	0,053
-539,452	-200,000	-0,013	0,060
-538,437	-200,000	0,044	0,172
-537,423	-200,000	0,006	0,051
-536,408	684,742	0,064	0,124
-535,393	-110,231	-0,131	-0,020
-534,379	-76,500	0,030	-0,008
-533,364	-74,167	-0,133	0,035
-532,350	-133,135	0,093	0,009
-531,335	49,082	-0,055	-0,038
-530,321	-200,000	0,008	-0,101
-529,306	-63,644	-0,084	-0,025
-528,291	47,363	-0,062	0,043
-527,277	125,768	-0,056	0,053
-526,262	-200,000	-0,012	-0,044
-525,248	-125,369	0,108	0,012
-524,233	-200,000	0,020	0,141
-523,218	-30,979	0,079	-0,033
-522,204	-200,000	-0,033	-0,121
-521,189	609,687	-0,031	-0,057
-520,175	800,000	-0,025	-0,063
-519,160	-57,046	-0,135	0,044
-518,145	-144,114	-0,071	-0,005
-517,131	92,922	0,126	0,105
-516,116	383,216	-0,046	0,071
-515,102	83,882	-0,055	-0,044
-514,087	-137,856	-0,168	0,014
-513,072	-200,000	-0,016	-0,109
-512,058	800,000	-0,069	0,145
-511,043	-119,641	0,051	-0,006
-510,029	-25,133	0,089	0,039
-509,014	329,201	0,019	0,028
-507,999	605,274	-0,038	-0,070
-506,985	-155,944	-0,043	-0,002
-505,970	8,217	-0,116	0,064
-504,956	-86,948	-0,103	0,023
-503,941	71,945	0,021	-0,016
-502,926	-122,518	0,122	-0,014
-501,912	800,000	0,024	0,078
-500,897	-74,407	-0,078	-0,021
-499,883	-200,000	-0,003	0,015
-498,868	-198,756	-0,196	-0,001
-497,853	333,650	-0,011	-0,016
-496,839	551,410	-0,035	-0,062
-495,824	-152,847	0,198	0,010
-494,810	-136,531	-0,078	0,007
-493,795	75,332	0,026	0,020
-492,781	-66,504	-0,040	-0,012
-491,766	800,000	-0,047	-0,096
-490,751	100,227	-0,036	-0,031
-489,737	301,128	0,014	0,020
-488,722	-132,590	0,063	-0,006
-487,708	-200,000	-0,002	-0,068
-486,693	94,172	-0,050	-0,042
-485,678	-166,929	-0,045	0,001
-484,664	-102,763	0,114	-0,020
-483,649	-200,000	-0,083	0,000
-482,635	78,900	-0,136	0,108
-481,620	-53,286	0,063	-0,021
-480,605	-200,000	0,032	-0,112
-479,591	-200,000	0,009	-0,031
-478,576	471,477	-0,095	0,158
-477,562	667,639	-0,070	0,135
-476,547	-200,000	-0,014	-0,252
-475,532	38,595	0,089	-0,059
-474,518	55,436	-0,047	0,034
-473,503	-200,000	-0,007	0,023
-472,489	88,549	0,027	-0,022
-471,474	-136,637	-0,019	-0,002
-470,459	96,686	0,074	0,062
-469,445	800,000	-0,041	-0,117
-468,430	287,447	0,110	0,147
-467,416	233,377	-0,084	0,101
-466,401	-200,000	0,033	0,110
-465,386	-200,000	-0,000	-0,030
-464,372	-188,643	-0,046	0,000
-463,357	302,537	-0,051	-0,070
-462,343	144,667	0,077	0,076
-461,328	56,660	-0,122	-0,087
-460,313	254,709	-0,046	0,058
-459,299	723,161	-0,039	0,077
-458,284	-43,891	0,037	0,013
-457,270	800,000	-0,015	-0,037
-456,255	34,549	0,096	-0,062
-455,241	800,000	-0,046	-0,115
-454,226	-31,698	-0,026	-0,011
-453,211	228,017	0,040	-0,048
-452,197	178,490	-0,054	-0,058
-451,182	-200,000	0,005	0,073
-450,168	17,127	-0,041	0,024
-449,153	-200,000	0,005	0,022
-448,138	-93,221	0,103	-0,021
-447,124	-200,000	-0,001	-0,036
-446,109	-107,522	0,075	-0,012
-445,095	-45,983	0,157	-0,057
-444,080	51,694	0,091	-0,064
-443,065	-131,608	-0,063	-0,006
-442,051	178,077	-0,044	-0,047
-441,036	406,302	0,137	-0,213
-440,022	-109,031	-0,123	-0,019
-439,007	800,000	0,026	0,080
-437,992	331,408	0,060	-0,085
-436,978	-65,496	0,050	-0,015
-435,963	-200,000	0,016	0,073
-434,949	-200,000	-0,016	-0,088
-433,934	-194,674	-0,100	-0,001
-432,919	-200,000	-0,005	0,077
-431,905	238,243	-0,076	0,093
-430,890	153,823	0,090	0,090
-429,876	254,732	-0,044	-0,056
-428,861	28,555	0,065	-0,041
-427,846	67,271	0,023	0,017
-426,832	-200,000	-0,004	0,019
-425,817	573,014	-0,014	0,026
-424,803	-51,027	-0,026	-0,009
-423,788	508,498	0,047	0,080
-422,773	-200,000	0,009	0,103
-421,759	566,311	0,079	0,142
-420,744	467,314	-0,044	0,072
-419,730	188,584	-0,044	0,048
-418,715	800,000	0,052	-0,123
-417,701	11,578	-0,031	-0,017
-416,686	-200,000	0,005	0,142
-415,671	-200,000	-0,026	0,144
-414,657	-200,000	-0,001	0,023
-413,642	-122,240	-0,064	0,008
-412,628	-200,000	-0,012	0,046
-411,613	35,594	-0,158	0,102
-410,598	-125,168	-0,095	0,011
-409,584	201,026	-0,033	0,038
-408,569	-37,086	0,079	0,031
-407,555	84,336	-0,073	-0,058
-406,540	-200,000	0,033	0,126
-405,525	94,275	0,060	0,050
-404,511	174,749	-0,035	-0,037
-403,496	800,000	0,029	-0,072
-402,482	-200,000	-0,009	-0,036
-401,467	-200,000	0,007	0,027
-400,452	86,791	0,021	0,017
-399,438	-200,000	0,032	0,156
-398,423	110,358	0,068	0,060
-397,409	509,555	0,067	-0,114
-396,394	800,000	0,032	0,093
-395,379	-200,000	-0,000	0,046
-394,365	220,798	0,005	-0,006
-393,350	40,135	0,038	0,025
-392,336	-200,000	-0,019	-0,081
-391,321	38,250	-0,086	-0,056
-390,306	-102,355	-0,028	-0,005
-389,292	16,075	-0,059	-0,034
-388,277	-200,000	0,001	0,034
-387,263	-200,000	0,009	-0,033
-386,248	-200,000	0,007	-0,027
-385,233	-200,000	-0,003	0,065
-384,219	-88,553	0,031	0,007
-383,204	-200,000	-0,010	-0,075
-382,190	-146,131	-0,136	0,009
-381,175	-85,640	0,087	-0,020
-380,160	-44,710	0,168	0,061
-379,146	9,813	0,119	0,066
-378,131	-100,663	-0,112	-0,020
-377,117	800,000	0,022	0,053
-376,102	-200,000	0,001	0,179
-375,088	-200,000	-0,043	-0,000
-374,073	-200,000	-0,017	0,057
-373,058	44,921	0,172	0,116
-372,044	-135,938	0,132	0,011
-371,029	492,970	0,012	-0,020
-370,015	800,000	0,036	-0,079
-369,000	237,036	-0,057	-0,069
-367,985	800,000	-0,034	-0,073
-366,971	108,756	-0,026	0,023
-365,956	66,400	-0,078	-0,058
-364,942	800,000	-0,015	0,035
-363,927	-5,114	-0,060	-0,030
-362,912	-100,480	0,060	-0,011
-361,898	105,903	0,132	-0,115
-360,883	116,567	-0,005	-0,004
-359,869	1,409	-0,080	0,042
-358,854	68,550	-0,034	0,026
-357,839	47,482	0,152	0,104
-356,825	-49,401	0,110	0,038
-355,810	711,292	-0,045	-0,088
-354,796	10,339	-0,106	-0,059
-353,781	-200,000	-0,021	-0,188
-352,766	50,938	-0,037	0,025
-351,752	-48,220	0,073	-0,026
-350,737	0,780	0,100	-0,053
-349,723	-9,777	-0,131	-0,064
-348,708	800,000	-0,018	-0,051
-347,693	-52,805	-0,042	-0,014
-346,679	800,000	0,023	-0,056
-345,664	-117,321	-0,070	-0,009
-344,650	-94,409	0,126	0,025
-343,635	-200,000	-0,005	0,060
-342,620	800,000	0,012	0,035
-341,606	40,202	-0,052	-0,035
-340,591	36,307	0,126	-0,082
-339,577	800,000	-0,022	-0,062
-338,562	-10,126	-0,158	0,077
-337,548	-200,000	-0,010	0,053
-336,533	800,000	0,072	0,207
-335,518	329,731	-0,038	0,053
-334,504	-200,000	-0,014	0,081
-333,489	-200,000	0,003	0,026
-332,475	4,281	-0,072	0,038
-331,460	439,434	0,024	0,039
-330,445	-85,103	0,104	-0,024
-329,431	-44,304	0,083	-0,030
-328,416	19,082	0,034	-0,020
-327,402	800,000	-0,035	0,096
-326,387	-104,577	0,114	0,019
-325,372	-41,862	-0,173	-0,065
-324,358	800,000	-0,017	0,050
-323,343	741,292	-0,026	-0,052
-322,329	-103,745	0,023	0,004
-321,314	-113,741	0,025	0,004
-320,299	67,324	-0,049	-0,037
-319,285	800,000	-0,016	0,046
-318,270	759,394	-0,086	-0,171
-317,256	67,818	0,033	0,024
-316,241	-85,713	-0,028	-0,006
-315,226	-200,000	0,009	0,078
-314,212	-200,000	-0,026	0,088
-313,197	561,379	-0,059	-0,105
-312,183	81,828	-0,106	-0,084
-311,168	-107,993	0,033	0,005
-310,153	-108,489	0,005	0,001
-309,139	-68,652	-0,044	-0,012
-308,124	-200,000	0,022	-0,097
-307,110	-200,000	-0,019	-0,077
-306,095	58,398	0,073	0,053
-305,080	342,186	-0,058	0,084
-304,066	-200,000	0,006	-0,122
-303,051	595,399	0,065	-0,117
-302,037	800,000	-0,016	-0,050
-301,022	-120,319	-0,088	-0,011
-300,008	-136,441	-0,191	-0,016
-298,993	800,000	0,030	0,090
-297,978	-77,191	0,057	-0,014
-296,964	-21,425	-0,099	0,044
-295,949	-111,576	0,075	0,011
-294,935	402,672	-0,054	0,084
-293,920	-7,190	0,122	0,060
-292,905	29,120	-0,098	-0,061
-291,891	-200,000	0,022	0,099
-290,876	-142,626	0,066	0,005
-289,862	-2,858	-0,016	-0,008
-288,847	275,535	0,051	-0,066
-287,832	189,274	0,055	-0,060
-286,818	26,767	-0,053	0,033
-285,803	-80,818	-0,120	-0,029
-284,789	-200,000	0,003	0,054
-283,774	800,000	0,052	0,122
-282,759	770,109	0,110	0,219
-281,745	257,065	-0,075	0,095
-280,730	-200,000	-0,031	-0,110
-279,716	-131,408	0,171	-0,016
-278,701	42,356	-0,067	-0,044
-277,686	53,465	0,142	0,099
-276,672	619,583	-0,071	0,130
-275,657	42,348	0,065	-0,043
-274,643	31,185	0,096	-0,060
-273,628	37,208	0,048	0,031
-272,613	1,414	0,064	-0,033
-271,599	170,140	0,027	-0,028
-270,584	-200,000	0,013	0,200
-269,570	-39,043	0,119	-0,046
-268,555	422,826	-0,025	-0,039
-267,540	250,713	-0,038	0,047
-266,526	-122,585	-0,068	-0,008
-265,511	-198,231	0,111	-0,000
-264,497	602,025	0,022	-0,040
-263,482	168,839	0,165	0,172
-262,467	-124,158	0,156	0,018
-261,453	120,113	0,009	0,008
-260,438	-75,895	0,074	0,019
-259,424	86,565	-0,089	-0,071
-258,409	-200,000	0,003	0,152
-257,395	-80,181	0,063	-0,015
-256,380	-22,226	0,102	0,045
-255,365	270,025	-0,040	-0,051
-254,351	11,743	-0,062	0,035
-253,336	-200,000	0,004	-0,041
-252,322	-200,000	0,013	-0,071
-251,307	143,413	-0,011	0,011
-250,292	-49,890	0,069	-0,024
-249,278	-95,001	0,188	0,037
-248,263	-200,000	-0,012	0,078
-247,249	800,000	0,014	0,041
-246,234	53,421	0,010	-0,007
-245,219	-200,000	-0,039	-0,159
-244,205	16,271	-0,175	0,100
-243,190	800,000	-0,047	0,122
-242,176	-30,237	-0,064	0,027
-241,161	418,209	-0,016	-0,025
-240,146	-130,362	-0,162	0,016
-239,132	345,595	-0,015	-0,022
-238,117	235,191	-0,004	-0,004
-237,103	197,161	0,015	-0,016
-236,088	355,963	-0,070	-0,103
-235,073	-200,000	-0,001	0,109
-234,059	-4,263	0,061	0,031
-233,044	11,895	0,102	0,057
-232,030	800,000	-0,039	0,125
-231,015	800,000	-0,032	-0,103
-230,000	70,414	-0,040	-0,030
-228,986	170,886	0,150	-0,157
-227,971	726,807	0,004	0,009
-226,957	-62,977	-0,028	-0,008
-225,942	4,322	0,161	0,086
-224,927	800,000	0,051	0,115
-223,913	-77,360	-0,059	-0,015
-222,898	-137,081	-0,040	-0,003
-221,884	455,723	0,077	0,124
-220,869	-140,609	0,122	-0,009
-219,855	800,000	-0,008	-0,023
-218,840	800,000	-0,083	0,204
-217,825	-200,000	-0,035	0,121
-216,811	800,000	-0,049	-0,108
-215,796	-0,878	-0,131	-0,067
-214,782	-200,000	-0,006	0,028
-213,767	449,171	0,024	-0,039
-212,752	27,403	-0,079	0,048
-211,738	70,434	0,068	0,051
-210,723	181,040	0,057	-0,061
-209,709	702,663	0,026	-0,051
-208,694	-145,909	-0,161	-0,010
-207,679	35,152	-0,084	-0,054
-206,665	58,366	0,115	-0,082
-205,650	-113,425	-0,094	-0,013
-204,636	10,450	0,057	0,032
-203,621	-11,838	-0,025	0,012
-202,606	108,027	-0,083	0,072
-201,592	131,681	-0,056	-0,052
-200,577	174,509	0,063	-0,067
-199,563	800,000	0,020	0,043
-198,548	-94,091	0,088	-0,018
-197,533	-200,000	-0,023	0,115
-196,519	565,789	-0,054	0,096
-195,504	456,266	-0,075	0,122
-194,490	-200,000	-0,024	-0,143
-193,475	-24,864	0,055	-0,024
-192,460	-36,453	0,141	-0,055
-191,446	800,000	-0,026	-0,079
-190,431	-25,578	0,061	0,026
-189,417	-200,000	0,002	-0,030
-188,402	-104,373	-0,062	-0,010
-187,387	-70,842	-0,065	0,018
-186,373	-200,000	-0,001	0,035
-185,358	-129,674	0,046	0,005
-184,344	-200,000	0,024	0,195
-183,329	9,875	-0,033	-0,018
-182,315	127,738	-0,052	-0,048
-181,300	455,856	-0,044	-0,071
-180,285	-200,000	0,004	-0,062
-179,271	269,917	0,068	0,087
-178,256	136,831	0,047	0,044
-177,242	40,765	0,096	-0,063
-176,227	261,580	-0,060	0,076
-175,212	-200,000	0,004	0,069
-174,198	-161,928	0,102	-0,004
-173,183	213,251	0,072	-0,083
-172,169	-89,562	-0,084	0,018
-171,154	7,118	-0,021	0,011
-170,139	-21,603	-0,053	-0,024
-169,125	-200,000	0,019	-0,066
-168,110	800,000	0,014	-0,029
-167,096	-48,962	0,039	0,013
-166,081	37,340	0,064	0,041
-165,066	-89,394	-0,060	0,013
-164,052	-169,959	-0,024	0,001
-163,037	-200,000	-0,044	-0,177
-162,023	29,777	-0,020	-0,012
-161,008	800,000	0,022	0,052
-159,993	-200,000	-0,008	0,034
-158,979	800,000	-0,033	0,072
-157,964	-108,640	-0,112	0,017
-156,950	0,829	-0,132	-0,069
-155,935	-200,000	0,049	-0,183
-154,920	72,241	0,062	-0,047
-153,906	-127,930	0,189	0,020
-152,891	-200,000	0,016	-0,183
-151,877	-200,000	-0,052	-0,181
-150,862	39,102	-0,051	-0,033
-149,847	165,065	-0,175	-0,180
-148,833	180,638	-0,104	0,111
-147,818	266,556	0,025	-0,032
-146,804	477,777	-0,067	-0,111
-145,789	-200,000	0,005	0,041
-144,775	-173,948	-0,069	0,001
-143,760	-200,000	0,027	0,134
-142,745	75,591	-0,059	-0,045
-141,731	167,860	0,112	0,116
-140,716	-117,713	-0,094	0,012
-139,702	800,000	-0,043	0,117
-138,687	449,525	0,035	0,056
-137,672	164,474	0,060	-0,061
-136,658	209,817	-0,042	-0,049
-135,643	-200,000	0,020	0,149
-134,629	-79,385	-0,074	0,018
-133,614	-55,614	-0,065	0,021
-132,599	101,526	0,012	-0,010
-131,585	800,000	0,040	0,101
-130,570	-200,000	0,020	0,073
-129,556	-200,000	-0,029	-0,112
-128,541	76,661	-0,134	0,104
-127,526	526,161	-0,059	0,101
-126,512	-172,692	0,070	0,002
-125,497	393,492	-0,031	0,048
-124,483	-130,056	-0,046	0,004
-123,468	-200,000	0,019	0,101
-122,453	179,935	-0,071	0,076
-121,439	113,855	0,070	0,062
-120,424	-200,000	0,003	-0,078
