DTS Sentinel unit serial number:	SN410029Multiplexer serial number:	ORYXHardware model number:	OX2-SRSoftware version number:	ORYX F/W v4,00 Oryx Data Collector v3.7.2.0data status	okinstallation	B6 Nyhavnadifferential loss correction	single-endedforward channel	channel 2reverse channel	N/Adate	2023/12/10time	07:20:08forward acquisition time	300,00reverse acquisition time	0,00gamma	499,1914k internal	0,3123k external	0,3123temperature offset calibration	1,0000default loss term (dB/km)	0,3820temperature slope calibration	1,0000multiplexer offset coefficient	1,0000multiplexer slope coefficient	1,0000fibre end	0,00T internal ref (°C)	22,62T ext. ref 1 (°C)	6,32T ext. ref 2 (°C)	6,30length (m)	temperature (°C)	Stokes	anti-Stokes-744,400	-48,394	0,090	0,032
-743,385	-144,409	-0,283	0,019
-742,371	120,974	0,216	-0,200
-741,356	-103,924	-0,280	0,048
-740,342	43,532	0,167	0,114
-739,327	140,423	-0,226	0,223
-738,312	-200,000	0,003	-0,070
-737,298	-182,270	-0,251	-0,003
-736,283	394,086	0,036	-0,056
-735,269	257,999	-0,126	0,162
-734,254	800,000	-0,007	0,024
-733,239	-95,292	-0,372	-0,074
-732,225	-52,727	0,101	0,034
-731,210	-123,934	0,122	-0,014
-730,196	156,411	-0,104	-0,107
-729,181	-200,000	0,023	-0,087
-728,167	-200,000	0,017	0,063
-727,152	-200,000	-0,021	-0,166
-726,137	79,740	-0,074	-0,059
-725,123	317,566	0,047	-0,066
-724,108	302,075	-0,082	-0,114
-723,094	48,465	-0,039	-0,027
-722,079	168,189	0,039	-0,041
-721,064	800,000	0,038	0,103
-720,050	191,767	-0,044	0,049
-719,035	579,324	-0,011	0,020
-718,021	-200,000	0,009	-0,043
-717,006	800,000	-0,055	-0,163
-715,991	-200,000	-0,011	-0,125
-714,977	17,991	-0,031	0,018
-713,962	171,462	-0,053	-0,056
-712,948	76,841	0,041	0,032
-711,933	-200,000	0,068	-0,229
-710,918	262,475	-0,062	-0,080
-709,904	302,465	-0,120	0,166
-708,889	-69,829	0,013	-0,004
-707,875	197,933	-0,095	-0,108
-706,860	800,000	0,017	-0,051
-705,845	45,882	0,088	0,060
-704,831	92,035	0,083	-0,069
-703,816	-68,051	-0,066	-0,019
-702,802	-153,363	-0,113	0,006
-701,787	800,000	0,038	-0,080
-700,772	800,000	-0,011	-0,030
-699,758	232,159	-0,038	0,047
-698,743	65,081	0,058	0,044
-697,729	-24,104	-0,145	-0,064
-696,714	407,171	-0,003	-0,004
-695,699	-200,000	-0,027	-0,092
-694,685	-200,000	-0,001	-0,045
-693,670	-155,691	-0,143	0,007
-692,656	-200,000	0,001	-0,061
-691,641	-200,000	-0,017	0,084
-690,627	-176,034	0,098	-0,002
-689,612	-200,000	-0,001	0,061
-688,597	-38,152	-0,055	0,021
-687,583	-18,481	-0,121	-0,056
-686,568	-1,431	0,093	-0,049
-685,554	303,914	-0,103	-0,142
-684,539	-200,000	0,001	-0,048
-683,524	-81,249	0,123	-0,030
-682,510	-200,000	0,001	0,090
-681,495	58,088	-0,069	-0,050
-680,481	800,000	-0,038	-0,111
-679,466	-200,000	0,023	-0,112
-678,451	-18,175	-0,060	-0,028
-677,437	396,324	-0,101	-0,158
-676,422	317,117	-0,055	-0,077
-675,408	275,180	-0,079	0,105
-674,393	-18,075	-0,037	-0,017
-673,378	-200,000	-0,008	-0,041
-672,364	82,392	-0,113	0,091
-671,349	-127,717	0,109	0,012
-670,335	800,000	-0,026	-0,075
-669,320	-200,000	0,005	-0,156
-668,305	324,559	0,044	0,063
-667,291	558,379	-0,050	-0,091
-666,276	800,000	-0,032	0,092
-665,262	-165,975	0,035	0,001
-664,247	-59,958	-0,010	-0,003
-663,232	207,561	-0,029	-0,034
-662,218	-200,000	0,018	0,069
-661,203	18,077	-0,130	0,077
-660,189	126,123	-0,031	0,029
-659,174	166,835	-0,116	-0,122
-658,159	592,376	-0,084	-0,154
-657,145	-200,000	-0,006	-0,145
-656,130	-9,306	-0,105	-0,052
-655,116	64,632	-0,070	0,052
-654,101	-200,000	0,008	0,039
-653,086	-24,594	-0,127	-0,056
-652,072	-200,000	0,018	-0,144
-651,057	-54,426	0,048	-0,016
-650,043	800,000	-0,025	0,066
-649,028	460,320	-0,065	0,109
-648,014	166,066	-0,049	0,052
-646,999	800,000	-0,010	-0,028
-645,984	378,203	0,053	-0,081
-644,970	800,000	0,009	-0,028
-643,955	4,720	-0,010	0,006
-642,941	-128,634	-0,093	-0,010
-641,926	203,859	-0,051	-0,058
-640,911	-142,624	-0,107	-0,008
-639,897	110,138	0,037	0,033
-638,882	-200,000	-0,009	0,037
-637,868	130,866	-0,130	-0,124
-636,853	15,704	0,064	-0,037
-635,838	-117,238	-0,102	-0,014
-634,824	1,185	0,060	-0,032
-633,809	-200,000	0,004	-0,127
-632,795	-20,113	0,094	0,043
-631,780	98,584	-0,120	-0,102
-630,765	-47,112	-0,076	0,027
-629,751	-200,000	0,058	-0,000
-628,736	-53,521	0,110	-0,037
-627,722	336,725	-0,047	0,068
-626,707	86,582	0,060	-0,049
-625,692	-106,004	0,203	0,034
-624,678	514,113	0,055	-0,095
-623,663	183,271	-0,076	-0,084
-622,649	219,743	-0,050	0,059
-621,634	-102,790	-0,042	0,007
-620,619	35,143	-0,045	-0,029
-619,605	-118,739	0,044	0,006
-618,590	-66,603	-0,018	-0,005
-617,576	800,000	0,040	0,088
-616,561	-150,234	0,038	-0,002
-615,546	-200,000	0,001	-0,028
-614,532	800,000	0,033	-0,097
-613,517	-200,000	-0,015	-0,131
-612,503	-12,414	-0,022	-0,011
-611,488	-200,000	-0,002	-0,066
-610,474	-200,000	0,011	0,084
-609,459	23,215	0,071	0,043
-608,444	4,909	0,055	-0,030
-607,430	183,706	0,091	-0,100
-606,415	-200,000	-0,014	-0,136
-605,401	48,052	-0,050	-0,035
-604,386	800,000	-0,006	0,016
-603,371	44,935	0,044	0,030
-602,357	-200,000	0,001	-0,081
-601,342	-45,038	0,088	0,032
-600,328	800,000	0,026	-0,062
-599,313	-63,740	0,051	-0,015
-598,298	-200,000	-0,012	0,067
-597,284	353,615	0,088	-0,130
-596,269	396,303	0,047	-0,073
-595,255	-200,000	-0,002	0,074
-594,240	800,000	-0,053	0,123
-593,225	-118,149	-0,048	0,006
-592,211	800,000	-0,032	0,074
-591,196	-200,000	0,010	0,059
-590,182	144,879	0,132	0,131
-589,167	-200,000	-0,002	0,025
-588,152	-97,264	-0,130	-0,025
-587,138	378,992	0,071	-0,108
-586,123	800,000	0,015	-0,043
-585,109	77,094	0,073	-0,057
-584,094	142,452	-0,034	-0,034
-583,079	52,822	0,024	-0,017
-582,065	297,982	-0,050	-0,069
-581,050	-50,912	0,114	-0,040
-580,036	-87,464	-0,021	-0,005
-579,021	643,658	0,068	-0,130
-578,006	-13,559	-0,120	-0,058
-576,992	-56,032	0,088	-0,029
-575,977	-200,000	-0,029	-0,135
-574,963	-39,085	-0,072	0,028
-573,948	-45,495	0,055	0,020
-572,934	-200,000	-0,003	0,051
-571,919	-129,384	0,035	0,004
-570,904	160,076	-0,102	0,105
-569,890	486,197	0,080	-0,136
-568,875	102,125	0,021	0,018
-567,861	34,477	-0,066	0,043
-566,846	-18,457	0,024	-0,011
-565,831	-100,849	-0,040	0,007
-564,817	183,993	0,011	0,012
-563,802	800,000	0,059	-0,130
-562,788	-113,816	-0,157	0,022
-561,773	0,212	0,096	-0,051
-560,758	-21,207	0,040	0,018
-559,744	800,000	0,054	0,120
-558,729	261,066	0,057	0,073
-557,715	184,634	-0,097	-0,106
-556,700	-46,223	-0,039	-0,014
-555,685	600,668	0,059	-0,108
-554,671	-80,480	0,138	-0,034
-553,656	336,665	0,075	0,109
-552,642	-56,337	-0,072	0,023
-551,627	-200,000	-0,008	0,051
-550,612	90,297	-0,071	0,058
-549,598	-83,184	-0,053	0,013
-548,583	291,056	-0,060	-0,081
-547,569	247,960	-0,093	-0,116
-546,554	-83,065	-0,088	-0,021
-545,539	-169,236	0,036	-0,001
-544,525	319,868	-0,073	0,103
-543,510	-200,000	-0,020	-0,127
-542,496	0,656	-0,105	-0,055
-541,481	-119,036	0,084	0,011
-540,466	-138,888	0,014	0,001
-539,452	-200,000	0,020	-0,079
-538,437	-200,000	-0,029	0,141
-537,423	-200,000	-0,013	0,125
-536,408	287,729	0,021	0,028
-535,393	13,794	0,067	-0,038
-534,379	101,088	-0,062	0,053
-533,364	9,124	-0,128	0,071
-532,350	-109,311	-0,014	0,002
-531,335	-65,391	-0,041	-0,012
-530,321	-60,568	0,037	0,011
-529,306	-200,000	0,001	-0,062
-528,291	-49,559	-0,118	0,041
-527,277	-200,000	0,007	-0,095
-526,262	142,162	-0,007	0,007
-525,248	-12,859	0,089	0,043
-524,233	800,000	-0,034	0,076
-523,218	178,960	-0,074	-0,080
-522,204	-200,000	0,010	-0,074
-521,189	-200,000	0,020	-0,102
-520,175	-200,000	0,006	-0,133
-519,160	-7,702	-0,156	-0,078
-518,145	61,669	0,117	-0,086
-517,131	52,598	-0,028	-0,020
-516,116	470,326	-0,041	-0,069
-515,102	-200,000	0,010	0,053
-514,087	302,085	0,008	-0,011
-513,072	-200,000	0,013	0,062
-512,058	-200,000	-0,012	-0,114
-511,043	-39,515	-0,153	0,059
-510,029	-86,302	-0,037	0,008
-509,014	-41,742	0,011	0,004
-507,999	203,981	-0,043	-0,049
-506,985	800,000	-0,041	0,091
-505,970	-200,000	0,010	0,092
-504,956	333,184	-0,065	0,093
-503,941	-119,975	0,121	0,015
-502,926	386,268	0,047	0,071
-501,912	800,000	-0,017	0,039
-500,897	240,694	0,063	0,078
-499,883	710,575	-0,031	-0,061
-498,868	410,837	0,081	-0,127
-497,853	800,000	0,007	-0,016
-496,839	-66,394	0,154	-0,045
-495,824	-200,000	0,015	-0,055
-494,810	609,038	0,095	0,177
-493,795	-200,000	0,002	-0,070
-492,781	-69,051	-0,160	0,045
-491,766	-113,634	-0,157	-0,022
-490,751	615,968	0,096	-0,178
-489,737	-200,000	-0,019	-0,107
-488,722	-173,229	-0,152	0,003
-487,708	-63,949	0,073	0,022
-486,693	98,923	0,106	0,090
-485,678	473,671	0,068	0,114
-484,664	326,246	-0,021	0,030
-483,649	-177,541	-0,163	-0,003
-482,635	324,501	0,074	-0,105
-481,620	-200,000	-0,000	-0,066
-480,605	800,000	0,009	-0,020
-479,591	-52,891	-0,178	0,060
-478,576	168,380	-0,092	-0,097
-477,562	-200,000	0,020	-0,156
-476,547	800,000	-0,039	-0,086
-475,532	800,000	0,025	-0,062
-474,518	-200,000	-0,025	0,129
-473,503	-14,445	0,108	0,051
-472,489	-0,875	0,032	0,017
-471,474	-200,000	0,000	0,111
-470,459	-52,545	-0,057	-0,019
-469,445	355,665	0,044	-0,065
-468,430	-200,000	-0,019	0,097
-467,416	-51,902	0,071	0,024
-466,401	-200,000	-0,004	-0,045
-465,386	-62,827	-0,059	0,018
-464,372	95,006	0,066	0,056
-463,357	-76,585	-0,033	-0,008
-462,343	131,320	-0,029	0,027
-461,328	368,911	0,051	-0,076
-460,313	301,764	-0,063	0,086
-459,299	-200,000	0,016	0,052
-458,284	800,000	-0,044	0,112
-457,270	-82,401	0,071	0,017
-456,255	-51,042	-0,090	0,031
-455,241	-60,946	-0,164	0,051
-454,226	5,480	0,084	-0,045
-453,211	111,450	0,046	0,041
-452,197	-18,693	0,167	-0,076
-451,182	-200,000	-0,012	-0,072
-450,168	-200,000	0,006	0,061
-449,153	-59,399	0,103	-0,032
-448,138	-7,989	-0,120	0,059
-447,124	-42,653	-0,151	0,056
-446,109	662,493	0,024	-0,045
-445,095	-169,325	0,169	0,004
-444,080	233,505	0,141	0,171
-443,065	359,661	-0,025	0,036
-442,051	-200,000	-0,001	-0,032
-441,036	20,411	-0,037	-0,022
-440,022	159,369	-0,017	-0,017
-439,007	32,792	-0,099	0,063
-437,992	-118,413	0,073	-0,009
-436,978	-100,835	0,151	0,027
-435,963	110,969	-0,053	0,047
-434,949	83,242	-0,131	0,105
-433,934	-17,478	0,080	0,037
-432,919	-200,000	0,009	-0,038
-431,905	48,070	-0,043	-0,030
-430,890	490,774	-0,029	-0,050
-429,876	-200,000	-0,015	0,108
-428,861	-36,158	-0,028	-0,011
-427,846	105,946	0,128	-0,112
-426,832	-200,000	0,017	-0,077
-425,817	72,728	-0,078	-0,060
-424,803	-200,000	-0,000	-0,044
-423,788	496,779	0,079	-0,134
-422,773	-200,000	0,007	0,084
-421,759	-200,000	0,014	0,062
-420,744	-8,591	-0,077	0,038
-419,730	-200,000	-0,001	-0,026
-418,715	800,000	0,022	0,065
-417,701	-200,000	0,010	0,057
-416,686	-52,234	-0,098	-0,033
-415,671	-190,922	0,071	-0,001
-414,657	21,110	0,047	-0,028
-413,642	188,642	0,039	0,043
-412,628	-200,000	0,022	-0,104
-411,613	800,000	-0,048	-0,121
-410,598	-5,918	-0,141	-0,071
-409,584	83,379	0,082	0,066
-408,569	89,115	-0,094	0,077
-407,555	225,273	0,051	-0,061
-406,540	460,379	-0,041	0,067
-405,525	591,275	-0,012	0,021
-404,511	-200,000	0,019	-0,106
-403,496	-22,302	-0,110	-0,049
-402,482	-51,911	0,080	0,027
-401,467	324,232	-0,122	0,172
-400,452	-103,342	0,102	0,018
-399,438	-116,879	-0,146	0,019
-398,423	-200,000	0,006	-0,043
-397,409	-36,827	0,090	-0,035
-396,394	490,012	0,041	-0,068
-395,379	-105,866	0,048	-0,008
-394,365	576,168	0,040	0,072
-393,350	-200,000	0,004	0,077
-392,336	800,000	0,037	0,109
-391,321	-81,678	0,077	-0,018
-390,306	13,789	-0,091	-0,052
-389,292	-41,758	0,075	0,028
-388,277	-129,412	0,058	-0,006
-387,263	800,000	-0,040	-0,091
-386,248	800,000	0,058	0,141
-385,233	-200,000	-0,008	0,115
-384,219	56,471	0,083	0,059
-383,204	800,000	-0,023	-0,050
-382,190	-79,151	-0,195	-0,048
-381,175	509,466	-0,023	0,039
-380,160	800,000	0,012	0,033
-379,146	191,121	0,149	0,165
-378,131	141,016	-0,120	0,117
-377,117	-200,000	-0,021	-0,097
-376,102	800,000	0,031	0,066
-375,088	121,299	0,033	0,030
-374,073	20,300	0,044	-0,026
-373,058	14,175	0,060	0,034
-372,044	-132,149	-0,173	0,016
-371,029	-94,774	-0,021	-0,004
-370,015	-105,609	0,179	0,029
-369,000	209,873	-0,020	0,024
-367,985	-200,000	-0,005	-0,105
-366,971	-75,533	-0,099	0,026
-365,956	800,000	0,012	-0,028
-364,942	-83,199	0,124	-0,029
-363,927	-124,189	0,049	-0,006
-362,912	-81,300	-0,110	-0,026
-361,898	-124,335	-0,043	0,005
-360,883	295,014	0,043	-0,057
-359,869	-31,016	0,034	0,014
-358,854	788,039	0,026	0,053
-357,839	-200,000	0,007	0,034
-356,825	-80,672	-0,110	-0,027
-355,810	-200,000	0,003	0,056
-354,796	-8,995	-0,100	0,049
-353,781	-65,373	0,100	-0,029
-352,766	-200,000	-0,035	0,119
-351,752	339,215	0,087	-0,125
-350,737	-111,220	-0,058	-0,009
-349,723	8,877	-0,067	-0,037
-348,708	62,665	-0,080	0,059
-347,693	26,511	-0,040	-0,025
-346,679	-81,936	-0,221	-0,053
-345,664	-133,408	-0,059	0,005
-344,650	67,057	0,047	-0,035
-343,635	261,989	0,103	0,131
-342,620	24,759	0,119	0,072
-341,606	-200,000	0,029	0,119
-340,591	800,000	-0,033	-0,070
-339,577	-130,062	0,093	-0,009
-338,562	800,000	-0,040	-0,085
-337,548	-200,000	-0,016	0,185
-336,533	-90,683	-0,042	-0,009
-335,518	139,034	-0,086	0,083
-334,504	-60,602	0,149	0,046
-333,489	-200,000	0,009	-0,078
-332,475	-145,050	-0,026	-0,002
-331,460	129,604	-0,106	0,099
-330,445	800,000	0,037	0,096
-329,431	322,966	0,060	-0,084
-328,416	112,017	0,103	0,091
-327,402	11,190	-0,034	-0,019
-326,387	170,704	0,065	0,069
-325,372	-128,622	-0,056	-0,006
-324,358	64,472	-0,092	0,068
-323,343	-200,000	-0,021	0,072
-322,329	-200,000	0,003	0,029
-321,314	-40,006	0,028	-0,011
-320,299	800,000	0,025	-0,073
-319,285	189,281	-0,081	0,089
-318,270	34,300	-0,143	-0,091
-317,256	-149,386	0,089	0,005
-316,241	800,000	-0,055	-0,172
-315,226	-14,571	0,165	0,078
-314,212	78,619	0,044	0,034
-313,197	72,618	-0,093	-0,071
-312,183	-81,972	0,047	-0,011
-311,168	-200,000	0,020	0,096
-310,153	262,243	0,047	-0,059
-309,139	800,000	-0,016	0,044
-308,124	800,000	0,042	-0,104
-307,110	-52,700	-0,165	0,056
-306,095	-170,800	0,026	-0,001
-305,080	-200,000	-0,024	0,115
-304,066	800,000	0,039	-0,089
-303,051	448,467	-0,030	-0,048
-302,037	-200,000	-0,023	0,147
-301,022	658,385	-0,053	-0,101
-300,008	800,000	0,074	0,217
-298,993	-200,000	0,020	0,149
-297,978	800,000	0,021	0,063
-296,964	-200,000	0,033	0,118
-295,949	-200,000	0,040	-0,160
-294,935	47,135	0,117	-0,080
-293,920	500,308	-0,050	-0,085
-292,905	5,427	0,118	0,063
-291,891	-137,048	-0,047	-0,004
-290,876	-152,469	-0,112	-0,006
-289,862	800,000	-0,044	-0,139
-288,847	-104,820	0,072	-0,012
-287,832	-36,320	-0,043	-0,017
-286,818	116,497	0,097	-0,087
-285,803	-52,923	0,192	0,064
-284,789	107,235	0,031	0,027
-283,774	66,393	-0,084	0,063
-282,759	-200,000	0,097	-0,000
-281,745	800,000	-0,030	0,065
-280,730	-50,982	-0,193	0,066
-279,716	-52,468	-0,086	-0,029
-278,701	-168,816	-0,102	0,003
-277,686	-200,000	0,023	0,076
-276,672	-200,000	0,007	0,058
-275,657	800,000	0,034	-0,104
-274,643	800,000	-0,052	-0,116
-273,628	-200,000	-0,013	-0,174
-272,613	148,918	-0,046	-0,045
-271,599	-18,568	0,066	-0,030
-270,584	258,294	0,095	-0,120
-269,570	345,763	0,044	-0,063
-268,555	-19,452	0,086	0,039
-267,540	-46,735	-0,103	-0,037
-266,526	-13,095	0,054	-0,026
-265,511	800,000	-0,037	-0,080
-264,497	-70,443	-0,037	0,010
-263,482	115,664	-0,049	-0,044
-262,467	96,178	-0,053	-0,045
-261,453	213,829	-0,031	-0,035
-260,438	-53,762	-0,078	0,026
-259,424	-66,421	-0,023	-0,007
-258,409	-116,112	-0,053	-0,007
-257,395	96,118	-0,060	0,050
-256,380	122,006	0,042	0,038
-255,365	252,052	0,132	-0,165
-254,351	21,825	0,075	0,044
-253,336	231,964	0,057	0,068
-252,322	733,988	-0,025	-0,050
-251,307	-28,106	0,098	-0,041
-250,292	-200,000	0,012	-0,096
-249,278	16,938	0,099	-0,057
-248,263	800,000	0,046	-0,097
-247,249	158,482	-0,071	0,072
-246,234	-62,063	0,076	-0,023
-245,219	-200,000	0,000	0,063
-244,205	-200,000	-0,001	-0,042
-243,190	-9,812	0,125	-0,061
-242,176	473,741	-0,026	0,042
-241,161	800,000	0,065	0,140
-240,146	168,117	0,045	0,047
-239,132	800,000	0,050	0,114
-238,117	800,000	-0,028	-0,057
-237,103	800,000	0,034	-0,075
-236,088	-98,301	0,119	-0,022
-235,073	-200,000	0,029	0,122
-234,059	800,000	-0,032	-0,082
-233,044	800,000	0,034	0,072
-232,030	800,000	0,066	0,177
-231,015	-200,000	-0,022	-0,177
-230,000	101,120	-0,038	0,032
-228,986	-200,000	0,026	0,091
-227,971	136,871	-0,100	0,096
-226,957	-33,386	0,168	0,068
-225,942	-177,426	-0,089	0,002
-224,927	800,000	0,054	0,160
-223,913	-14,090	-0,146	-0,069
-222,898	-45,715	0,059	0,021
-221,884	800,000	0,031	-0,079
-220,869	418,225	0,100	0,157
-219,855	694,083	0,104	0,201
-218,840	-200,000	-0,040	0,144
-217,825	-200,000	-0,039	0,128
-216,811	-105,331	-0,245	-0,040
-215,796	-200,000	0,017	-0,075
-214,782	625,738	0,048	-0,089
-213,767	-53,245	0,089	-0,030
-212,752	-200,000	0,000	-0,052
-211,738	-42,671	0,084	-0,031
-210,723	104,237	-0,047	0,040
-209,709	33,395	0,044	-0,028
-208,694	49,497	-0,042	-0,029
-207,679	266,448	0,041	-0,053
-206,665	112,053	0,042	-0,037
-205,650	800,000	0,030	0,071
-204,636	800,000	-0,059	0,186
-203,621	38,919	-0,122	-0,080
-202,606	-41,996	0,078	-0,029
-201,592	-143,594	-0,137	-0,009
-200,577	-200,000	-0,017	0,062
-199,563	-200,000	-0,010	-0,064
-198,548	216,473	-0,079	0,092
-197,533	800,000	0,094	0,196
-196,519	419,732	-0,076	0,120
-195,504	258,603	-0,139	-0,175
-194,490	-127,677	-0,112	-0,012
-193,475	22,973	0,120	0,072
-192,460	-200,000	0,004	0,176
-191,446	-72,805	-0,035	0,009
-190,431	28,651	-0,040	0,024
-189,417	-123,562	0,108	0,012
-188,402	800,000	0,030	-0,091
-187,387	-83,474	0,113	0,026
-186,373	433,393	0,014	-0,022
-185,358	-200,000	0,025	-0,159
-184,344	71,976	0,043	-0,032
-183,329	100,661	0,055	-0,046
-182,315	408,032	0,036	0,055
-181,300	-200,000	0,001	0,022
-180,285	800,000	-0,052	-0,159
-179,271	-200,000	-0,029	0,104
-178,256	-200,000	0,009	0,158
-177,242	-15,233	0,052	-0,024
-176,227	218,078	0,050	-0,059
-175,212	-200,000	-0,004	-0,123
-174,198	256,263	-0,065	-0,081
-173,183	168,763	0,049	-0,051
-172,169	-79,735	-0,065	-0,016
-171,154	-200,000	0,005	0,085
-170,139	-5,733	-0,041	0,021
-169,125	40,095	0,121	-0,079
-168,110	-200,000	0,008	-0,055
-167,096	78,416	0,060	0,047
-166,081	800,000	0,023	-0,075
-165,066	47,928	-0,111	-0,076
-164,052	800,000	0,033	0,075
-163,037	-48,728	-0,123	0,043
-162,023	-200,000	-0,002	0,073
-161,008	-200,000	-0,039	0,174
-159,993	-22,569	-0,114	-0,050
-158,979	781,983	0,023	-0,046
-157,964	-164,714	-0,114	0,004
-156,950	180,584	0,051	-0,054
-155,935	638,914	-0,050	-0,094
-154,920	159,606	0,104	0,105
-153,906	-200,000	-0,012	-0,160
-152,891	-142,824	-0,186	-0,013
-151,877	11,575	-0,059	-0,033
-150,862	-200,000	-0,012	-0,061
-149,847	800,000	0,040	-0,107
-148,833	9,173	-0,071	-0,039
-147,818	-52,464	-0,089	-0,030
-146,804	779,790	-0,010	0,021
-145,789	227,194	0,073	0,087
-144,775	212,325	-0,038	0,044
-143,760	-59,843	-0,018	0,006
-142,745	50,362	0,095	-0,065
-141,731	-28,551	0,067	-0,028
-140,716	178,566	0,089	0,095
-139,702	800,000	-0,049	0,113
-138,687	66,336	0,021	0,016
-137,672	-14,397	-0,134	-0,063
-136,658	-105,632	-0,066	-0,011
-135,643	-200,000	0,010	-0,052
-134,629	-91,470	-0,135	-0,028
-133,614	668,130	0,047	-0,088
-132,599	-175,214	0,091	0,002
-131,585	10,430	-0,022	0,012
-130,570	16,888	0,133	-0,077
-129,556	800,000	-0,010	0,022
-128,541	-67,095	-0,198	0,056
-127,526	-200,000	-0,000	0,002
-126,512	140,780	-0,060	-0,058
-125,497	-12,973	0,079	0,037
-124,483	563,408	-0,035	-0,062
-123,468	117,514	0,045	-0,041
-122,453	64,414	0,027	-0,020
-121,439	150,940	0,033	-0,032
-120,424	277,821	0,070	0,091
-119,410	-65,737	-0,065	0,019
