DTS Sentinel unit serial number:	SN410029Multiplexer serial number:	ORYXHardware model number:	OX2-SRSoftware version number:	ORYX F/W v4,00 Oryx Data Collector v3.7.2.0data status	okinstallation	B6 Nyhavnadifferential loss correction	single-endedforward channel	channel 2reverse channel	N/Adate	2023/12/09time	21:05:08forward acquisition time	300,00reverse acquisition time	0,00gamma	499,1914k internal	0,3128k external	0,3128temperature offset calibration	1,0000default loss term (dB/km)	0,3820temperature slope calibration	1,0000multiplexer offset coefficient	1,0000multiplexer slope coefficient	1,0000fibre end	0,00T internal ref (°C)	21,49T ext. ref 1 (°C)	5,39T ext. ref 2 (°C)	5,39length (m)	temperature (°C)	Stokes	anti-Stokes-744,400	407,625	0,016	0,025
-743,385	-40,715	-0,191	0,073
-742,371	87,343	0,048	-0,040
-741,356	58,354	-0,135	0,099
-740,342	-200,000	0,011	-0,067
-739,327	-22,254	-0,258	0,116
-738,312	-65,226	0,025	0,008
-737,298	6,833	-0,178	0,098
-736,283	674,784	0,029	-0,057
-735,269	-73,679	-0,404	0,109
-734,254	-19,098	0,128	-0,059
-733,239	-75,049	-0,478	-0,126
-732,225	-116,846	0,165	0,022
-731,210	-55,656	0,107	-0,035
-730,196	-67,084	0,071	-0,021
-729,181	-103,093	-0,075	-0,013
-728,167	800,000	-0,023	-0,069
-727,152	9,557	0,034	-0,019
-726,137	-200,000	0,012	-0,089
-725,123	795,759	-0,034	-0,071
-724,108	-132,673	-0,154	0,014
-723,094	-67,740	-0,121	0,035
-722,079	345,496	-0,071	-0,103
-721,064	-56,836	-0,068	0,022
-720,050	139,987	0,034	-0,033
-719,035	-109,872	-0,167	0,026
-718,021	-87,601	-0,141	-0,031
-717,006	439,398	0,021	0,033
-715,991	-200,000	0,017	-0,107
-714,977	39,306	-0,080	-0,053
-713,962	-100,309	-0,130	0,024
-712,948	-178,422	-0,019	-0,000
-711,933	-200,000	0,010	0,154
-710,918	-200,000	-0,002	-0,021
-709,904	576,899	-0,058	-0,106
-708,889	213,092	0,051	-0,060
-707,875	466,200	-0,024	0,040
-706,860	12,345	0,089	-0,051
-705,845	-200,000	0,004	-0,114
-704,831	52,293	0,066	0,047
-703,816	638,933	0,009	0,016
-702,802	800,000	0,063	-0,154
-701,787	-200,000	-0,057	-0,198
-700,772	455,308	0,009	0,015
-699,758	-81,924	-0,121	0,029
-698,743	800,000	-0,024	-0,062
-697,729	38,149	0,059	-0,039
-696,714	784,036	-0,006	0,013
-695,699	-105,673	-0,084	0,014
-694,685	-73,059	-0,032	0,009
-693,670	46,185	-0,207	-0,142
-692,656	-142,234	0,125	0,009
-691,641	-115,519	0,023	-0,003
-690,627	251,598	0,063	0,080
-689,612	328,401	0,055	-0,079
-688,597	-32,806	-0,039	0,016
-687,583	-74,951	-0,105	0,028
-686,568	161,606	0,029	-0,030
-685,554	-200,000	0,019	-0,124
-684,539	12,302	-0,098	0,056
-683,524	28,896	-0,110	-0,069
-682,510	161,875	0,095	-0,099
-681,495	-127,311	0,075	-0,008
-680,481	-162,224	-0,083	-0,003
-679,466	552,986	-0,027	0,049
-678,451	312,101	0,087	-0,121
-677,437	653,851	0,044	0,083
-676,422	-200,000	0,003	-0,073
-675,408	127,898	-0,090	-0,085
-674,393	381,091	0,062	0,095
-673,378	-200,000	0,005	0,068
-672,364	3,286	-0,078	0,042
-671,349	800,000	-0,068	-0,177
-670,335	575,131	0,038	0,069
-669,320	-200,000	-0,007	0,113
-668,305	-65,202	0,054	0,016
-667,291	-200,000	0,001	0,065
-666,276	800,000	-0,017	0,050
-665,262	-200,000	-0,008	-0,042
-664,247	62,987	0,096	-0,071
-663,232	-140,601	0,150	-0,011
-662,218	-20,964	0,025	0,011
-661,203	-200,000	0,026	-0,167
-660,189	-200,000	0,002	0,016
-659,174	800,000	0,052	-0,149
-658,159	445,084	-0,043	-0,070
-657,145	86,554	0,025	-0,021
-656,130	-80,034	-0,103	-0,025
-655,116	-200,000	0,009	0,040
-654,101	800,000	0,036	0,113
-653,086	800,000	-0,017	-0,052
-652,072	-0,602	-0,158	0,083
-651,057	426,910	-0,022	0,035
-650,043	800,000	-0,026	0,053
-649,028	-120,254	-0,014	-0,002
-648,014	800,000	0,035	-0,100
-646,999	-200,000	0,000	0,008
-645,984	-66,668	0,067	-0,020
-644,970	-11,858	0,056	-0,027
-643,955	800,000	0,031	-0,073
-642,941	42,531	0,043	-0,029
-641,926	-99,638	-0,127	0,023
-640,911	-133,770	0,105	0,010
-639,897	-141,455	0,073	-0,005
-638,882	188,404	-0,063	0,070
-637,868	20,113	-0,099	-0,059
-636,853	348,812	-0,035	-0,051
-635,838	-77,246	0,058	0,015
-634,824	2,146	-0,091	-0,049
-633,809	-200,000	-0,001	-0,124
-632,795	-3,045	0,091	-0,047
-631,780	100,289	-0,128	0,110
-630,765	20,350	-0,066	0,039
-629,751	-36,002	-0,130	-0,052
-628,736	-200,000	-0,026	-0,097
-627,722	151,206	0,058	-0,058
-626,707	233,987	0,010	0,012
-625,692	58,036	0,135	0,098
-624,678	332,242	0,032	-0,046
-623,663	481,270	-0,065	-0,109
-622,649	130,944	0,068	-0,065
-621,634	259,958	-0,099	-0,127
-620,619	211,592	-0,047	-0,055
-619,605	-200,000	0,018	0,070
-618,590	384,208	-0,049	0,075
-617,576	63,650	0,044	0,033
-616,561	-200,000	-0,014	0,123
-615,546	59,062	-0,069	-0,050
-614,532	523,631	-0,034	-0,059
-613,517	-95,367	0,103	0,020
-612,503	-86,347	-0,152	0,034
-611,488	-200,000	-0,007	-0,034
-610,474	800,000	-0,062	-0,130
-609,459	-106,382	0,066	-0,011
-608,444	-200,000	0,015	-0,062
-607,430	-83,958	-0,039	0,009
-606,415	-200,000	0,011	-0,076
-605,401	344,244	-0,053	-0,077
-604,386	-200,000	-0,007	0,052
-603,371	-200,000	0,008	-0,038
-602,357	233,933	0,117	-0,143
-601,342	769,896	-0,011	0,023
-600,328	-200,000	0,004	0,061
-599,313	-200,000	0,026	-0,152
-598,298	209,966	-0,104	-0,120
-597,284	196,968	0,026	0,030
-596,269	-200,000	0,017	0,139
-595,255	32,428	0,105	0,067
-594,240	490,511	-0,066	-0,112
-593,225	-21,346	-0,259	-0,117
-592,211	-200,000	-0,004	-0,039
-591,196	-114,179	0,107	-0,015
-590,182	222,314	-0,062	-0,074
-589,167	74,341	0,067	-0,052
-588,152	-112,695	-0,117	0,017
-587,138	455,454	-0,024	-0,039
-586,123	-81,849	-0,119	-0,029
-585,109	-65,521	-0,214	-0,063
-584,094	-61,937	-0,030	0,009
-583,079	-46,992	0,175	-0,063
-582,065	-33,966	0,085	-0,034
-581,050	-200,000	0,006	0,058
-580,036	346,228	0,028	-0,040
-579,021	18,551	-0,105	0,062
-578,006	124,284	0,054	0,050
-576,992	131,822	-0,073	-0,070
-575,977	-200,000	-0,003	0,026
-574,963	442,070	0,020	-0,032
-573,948	-86,393	0,064	-0,014
-572,934	-200,000	-0,005	0,069
-571,919	397,101	-0,004	0,006
-570,904	-200,000	0,006	-0,113
-569,890	-91,492	-0,158	-0,033
-568,875	-20,687	0,041	0,018
-567,861	-200,000	-0,004	0,055
-566,846	364,568	-0,053	-0,079
-565,831	62,813	0,115	0,085
-564,817	800,000	-0,012	0,029
-563,802	-117,069	0,016	-0,002
-562,788	-90,155	0,016	-0,003
-561,773	-25,335	0,083	-0,036
-560,758	-47,230	0,084	0,030
-559,744	-61,493	0,058	-0,018
-558,729	800,000	0,021	-0,056
-557,715	242,141	-0,054	-0,066
-556,700	-55,949	0,045	0,015
-555,685	80,255	-0,052	0,041
-554,671	-200,000	-0,003	-0,173
-553,656	800,000	-0,013	-0,028
-552,642	-156,515	0,031	0,001
-551,627	-11,516	-0,214	-0,104
-550,612	-66,669	-0,120	0,035
-549,598	210,241	0,070	-0,081
-548,583	303,354	0,027	-0,037
-547,569	-76,153	-0,118	0,031
-546,554	303,299	0,110	0,151
-545,539	23,242	0,075	-0,045
-544,525	786,520	-0,026	0,053
-543,510	81,027	-0,202	0,161
-542,496	-32,135	-0,091	0,037
-541,481	-20,286	0,101	-0,046
-540,466	100,421	-0,043	0,037
-539,452	66,427	0,213	-0,160
-538,437	-200,000	0,019	0,150
-537,423	800,000	-0,048	-0,118
-536,408	-200,000	0,003	0,037
-535,393	9,618	-0,136	0,076
-534,379	800,000	-0,036	-0,112
-533,364	73,498	0,003	0,003
-532,350	-200,000	0,000	-0,003
-531,335	159,188	-0,100	0,103
-530,321	-200,000	-0,013	-0,077
-529,306	-200,000	-0,029	-0,147
-528,291	-200,000	0,008	-0,184
-527,277	800,000	-0,059	-0,185
-526,262	560,505	-0,032	-0,057
-525,248	260,642	0,060	-0,076
-524,233	57,154	0,068	0,049
-523,218	800,000	-0,028	-0,086
-522,204	-87,224	0,212	0,047
-521,189	-30,749	0,047	-0,020
-520,175	-100,737	-0,065	-0,012
-519,160	31,683	0,116	-0,073
-518,145	-25,425	0,075	0,033
-517,131	-50,928	0,215	0,074
-516,116	119,715	0,142	0,130
-515,102	119,404	0,032	-0,030
-514,087	800,000	0,002	0,008
-513,072	800,000	-0,051	-0,130
-512,058	-200,000	0,029	-0,100
-511,043	-200,000	0,004	-0,085
-510,029	-80,969	0,044	0,011
-509,014	160,014	-0,012	0,012
-507,999	731,677	-0,025	0,049
-506,985	-123,281	-0,005	-0,001
-505,970	-68,826	-0,143	-0,040
-504,956	800,000	0,060	0,157
-503,941	159,769	-0,103	-0,106
-502,926	4,882	0,090	-0,049
-501,912	-200,000	0,002	0,013
-500,897	532,365	0,027	0,047
-499,883	800,000	-0,041	-0,114
-498,868	54,311	-0,064	0,046
-497,853	-125,061	-0,070	-0,008
-496,839	800,000	0,010	0,028
-495,824	54,207	0,065	-0,046
-494,810	269,841	0,083	0,108
-493,795	482,383	0,030	-0,050
-492,781	-77,301	-0,075	0,019
-491,766	-200,000	0,030	-0,113
-490,751	-200,000	0,010	0,105
-489,737	-41,627	-0,049	0,019
-488,722	-86,557	-0,058	-0,013
-487,708	-25,428	0,086	0,037
-486,693	-49,961	0,091	-0,032
-485,678	-25,250	-0,125	-0,054
-484,664	-97,803	0,096	-0,018
-483,649	298,636	-0,036	-0,049
-482,635	-128,180	0,022	0,002
-481,620	-200,000	0,008	0,184
-480,605	800,000	0,061	0,170
-479,591	800,000	-0,058	0,178
-478,576	92,702	-0,079	-0,066
-477,562	249,413	0,093	-0,117
-476,547	683,115	0,081	-0,157
-475,532	56,872	-0,132	-0,095
-474,518	-200,000	-0,003	-0,107
-473,503	-114,461	-0,171	0,024
-472,489	172,147	-0,100	0,106
-471,474	43,871	0,073	-0,049
-470,459	-200,000	-0,001	-0,007
-469,445	-131,098	-0,124	-0,012
-468,430	159,613	-0,122	0,125
-467,416	184,745	0,075	0,082
-466,401	-200,000	-0,015	-0,134
-465,386	-200,000	0,018	0,105
-464,372	159,857	0,094	0,097
-463,357	-48,865	0,095	0,033
-462,343	777,381	-0,037	-0,076
-461,328	22,014	0,039	-0,023
-460,313	800,000	0,026	-0,062
-459,299	-200,000	-0,016	-0,083
-458,284	-200,000	-0,032	-0,109
-457,270	750,247	0,013	0,025
-456,255	276,961	-0,042	0,055
-455,241	-35,324	0,046	-0,018
-454,226	152,545	-0,059	-0,059
-453,211	108,693	0,092	-0,081
-452,197	369,738	-0,046	0,068
-451,182	104,832	0,114	0,099
-450,168	75,341	-0,064	0,050
-449,153	440,451	0,018	-0,029
-448,138	27,281	-0,202	-0,124
-447,124	319,480	-0,078	-0,109
-446,109	-3,125	-0,100	-0,051
-445,095	-43,987	0,115	0,042
-444,080	-64,523	0,028	-0,008
-443,065	800,000	-0,047	0,121
-442,051	171,819	-0,083	-0,087
-441,036	2,104	-0,026	-0,014
-440,022	169,781	0,075	-0,078
-439,007	-200,000	-0,020	0,072
-437,992	279,886	0,102	0,134
-436,978	132,433	0,080	0,076
-435,963	-200,000	-0,021	0,086
-434,949	601,033	0,015	-0,028
-433,934	44,352	-0,041	0,028
-432,919	-73,223	0,098	-0,026
-431,905	-84,964	-0,096	0,022
-430,890	4,708	0,097	0,052
-429,876	-200,000	-0,012	-0,045
-428,861	769,349	-0,026	-0,053
-427,846	-1,830	0,048	-0,025
-426,832	-61,396	0,096	-0,029
-425,817	-45,790	0,037	-0,013
-424,803	87,346	-0,030	0,024
-423,788	-51,950	-0,164	0,056
-422,773	800,000	-0,024	0,073
-421,759	113,954	0,085	0,076
-420,744	127,922	0,020	-0,019
-419,730	800,000	0,041	0,127
-418,715	36,724	0,041	-0,027
-417,701	138,992	-0,044	0,043
-416,686	800,000	0,054	0,161
-415,671	-116,147	0,110	0,015
-414,657	-39,935	0,109	0,042
-413,642	312,251	0,044	-0,061
-412,628	-200,000	-0,004	0,064
-411,613	269,914	-0,037	-0,048
-410,598	-200,000	0,011	-0,111
-409,584	469,614	0,042	0,070
-408,569	-53,413	0,056	0,019
-407,555	-14,623	0,095	0,044
-406,540	-200,000	-0,005	0,121
-405,525	-73,132	-0,083	0,022
-404,511	-102,153	0,221	-0,039
-403,496	-200,000	-0,003	0,085
-402,482	101,496	0,051	0,044
-401,467	-31,467	-0,075	-0,031
-400,452	-158,067	-0,038	-0,002
-399,438	290,281	0,126	0,169
-398,423	-147,621	-0,119	0,007
-397,409	340,974	-0,103	-0,149
-396,394	-200,000	-0,023	-0,141
-395,379	388,934	0,021	-0,032
-394,365	276,481	0,070	0,091
-393,350	54,661	0,076	0,054
-392,336	-200,000	0,017	0,061
-391,321	-200,000	-0,003	-0,020
-390,306	661,958	-0,047	0,089
-389,292	-105,549	0,150	-0,025
-388,277	-118,621	-0,044	-0,006
-387,263	18,140	0,121	0,071
-386,248	-200,000	-0,007	0,153
-385,233	-181,422	0,108	0,002
-384,219	-25,851	-0,067	0,029
-383,204	165,946	0,033	-0,034
-382,190	-200,000	0,012	0,046
-381,175	18,279	0,085	0,050
-380,160	166,457	-0,041	0,042
-379,146	-127,981	-0,135	-0,014
-378,131	-200,000	0,025	0,180
-377,117	-33,659	0,058	-0,024
-376,102	-111,137	-0,088	-0,013
-375,088	-31,362	-0,137	-0,056
-374,073	11,810	-0,142	0,080
-373,058	88,757	0,084	-0,069
-372,044	-200,000	0,000	0,107
-371,029	171,666	0,066	0,069
-370,015	-18,131	0,037	-0,017
-369,000	-200,000	-0,012	-0,045
-367,985	-96,377	0,129	-0,025
-366,971	195,668	-0,027	-0,030
-365,956	274,071	0,097	-0,127
-364,942	-16,521	0,016	0,007
-363,927	-200,000	-0,001	-0,068
-362,912	65,954	-0,029	-0,021
-361,898	-95,405	0,163	0,032
-360,883	771,806	-0,074	-0,148
-359,869	0,025	0,112	-0,058
-358,854	-71,227	-0,093	0,025
-357,839	-23,895	0,054	-0,024
-356,825	270,777	0,014	-0,018
-355,810	-200,000	-0,017	-0,081
-354,796	-200,000	-0,003	-0,080
-353,781	-2,535	-0,076	-0,039
-352,766	4,039	0,028	-0,015
-351,752	-9,327	-0,087	0,042
-350,737	133,261	0,078	-0,074
-349,723	166,033	0,061	-0,063
-348,708	-99,530	0,070	0,013
-347,693	-85,242	-0,157	0,036
-346,679	133,528	0,083	-0,079
-345,664	15,448	0,013	0,007
-344,650	800,000	0,071	0,165
-343,635	-200,000	0,003	0,024
-342,620	-4,983	0,056	0,028
-341,606	-200,000	0,009	0,033
-340,591	-200,000	-0,009	-0,033
-339,577	-48,451	-0,112	-0,039
-338,562	227,004	-0,113	-0,135
-337,548	-200,000	0,007	-0,045
-336,533	-18,792	-0,032	-0,014
-335,518	94,382	-0,071	0,059
-334,504	800,000	0,012	0,029
-333,489	-43,601	0,147	-0,054
-332,475	-79,368	-0,154	0,038
-331,460	800,000	-0,059	-0,142
-330,445	229,687	-0,094	-0,113
-329,431	800,000	-0,058	0,148
-328,416	800,000	-0,085	0,234
-327,402	-67,495	-0,110	-0,031
-326,387	87,701	0,048	-0,039
-325,372	-114,372	-0,064	0,009
-324,358	-200,000	-0,002	-0,038
-323,343	800,000	0,037	-0,086
-322,329	-200,000	0,022	0,101
-321,314	-200,000	-0,009	0,036
-320,299	161,893	0,062	0,064
-319,285	-107,149	0,045	-0,007
-318,270	-45,805	-0,186	-0,067
-317,256	156,160	-0,035	-0,035
-316,241	407,645	-0,084	-0,131
-315,226	-122,225	0,061	-0,007
-314,212	-91,191	0,103	-0,021
-313,197	800,000	-0,058	0,171
-312,183	146,566	0,033	-0,033
-311,168	274,815	-0,003	-0,004
-310,153	-200,000	0,019	-0,082
-309,139	417,998	0,105	-0,165
-308,124	204,617	0,095	0,108
-307,110	800,000	0,034	0,087
-306,095	453,180	0,064	-0,103
-305,080	-200,000	-0,027	0,091
-304,066	-200,000	-0,016	-0,071
-303,051	60,201	-0,071	-0,051
-302,037	5,212	-0,091	-0,049
-301,022	5,541	0,119	0,064
-300,008	800,000	-0,016	-0,049
-298,993	451,657	-0,063	-0,102
-297,978	-200,000	0,006	0,032
-296,964	-65,773	-0,098	-0,029
-295,949	594,340	-0,060	0,110
-294,935	305,516	-0,051	0,069
-293,920	162,590	0,101	0,103
-292,905	-200,000	-0,008	0,112
-291,891	-200,000	0,023	0,191
-290,876	-200,000	-0,014	0,074
-289,862	-74,849	-0,057	-0,015
-288,847	800,000	-0,039	-0,123
-287,832	-65,701	0,114	-0,033
-286,818	800,000	-0,024	-0,064
-285,803	758,427	0,042	0,084
-284,789	800,000	0,021	-0,053
-283,774	-25,008	0,093	0,040
-282,759	-2,388	0,080	0,041
-281,745	800,000	-0,051	0,133
-280,730	-200,000	0,014	-0,111
-279,716	583,182	-0,094	-0,169
-278,701	-200,000	0,007	0,091
-277,686	-67,999	0,060	0,017
-276,672	-200,000	-0,002	0,181
-275,657	-89,535	0,054	-0,011
-274,643	-200,000	0,004	-0,033
-273,628	14,572	-0,056	0,032
-272,613	-26,294	-0,068	0,029
-271,599	800,000	-0,062	0,133
-270,584	-200,000	0,036	0,179
-269,570	72,504	0,048	-0,037
-268,555	-69,792	-0,185	-0,051
-267,540	-92,235	0,070	0,014
-266,526	800,000	-0,039	0,104
-265,511	251,342	0,024	-0,030
-264,497	298,759	-0,024	0,032
-263,482	-70,232	0,106	-0,029
-262,467	-200,000	-0,022	0,138
-261,453	362,348	-0,079	0,116
-260,438	262,076	0,022	0,028
-259,424	82,354	0,064	-0,051
-258,409	26,265	-0,057	-0,035
-257,395	524,179	0,075	0,129
-256,380	-83,069	0,112	0,026
-255,365	-200,000	-0,019	0,133
-254,351	800,000	0,045	-0,111
-253,336	800,000	-0,065	0,159
-252,322	-108,172	-0,073	-0,011
-251,307	-39,903	-0,072	-0,027
-250,292	800,000	-0,043	0,125
-249,278	53,652	0,072	0,050
-248,263	-200,000	-0,006	-0,046
-247,249	800,000	0,057	0,152
-246,234	800,000	0,085	-0,173
-245,219	736,810	-0,081	-0,160
-244,205	-128,357	-0,015	0,002
-243,190	800,000	0,024	-0,070
-242,176	-200,000	0,015	0,100
-241,161	-200,000	0,029	0,204
-240,146	529,471	0,088	-0,152
-239,132	-200,000	0,011	-0,147
-238,117	-78,597	0,036	0,009
-237,103	-89,287	-0,134	0,029
-236,088	800,000	-0,015	0,035
-235,073	463,553	-0,039	0,064
-234,059	90,731	0,108	0,088
-233,044	166,615	0,080	0,082
-232,030	800,000	-0,019	0,060
-231,015	-200,000	0,038	0,139
-230,000	107,565	-0,024	0,021
-228,986	-200,000	0,035	0,130
-227,971	-200,000	-0,018	-0,124
-226,957	-200,000	-0,011	0,096
-225,942	-200,000	0,016	0,123
-224,927	-170,074	-0,098	-0,002
-223,913	-137,436	-0,122	-0,010
-222,898	-25,492	-0,052	0,022
-221,884	331,814	-0,108	-0,152
-220,869	118,218	-0,063	0,057
-219,855	-178,917	0,027	0,000
-218,840	800,000	0,064	-0,132
-217,825	-154,025	-0,162	-0,008
-216,811	-200,000	0,015	-0,114
-215,796	-51,025	-0,102	0,035
-214,782	326,197	0,093	-0,130
-213,767	162,093	0,081	-0,083
-212,752	217,121	0,029	0,034
-211,738	-52,809	-0,078	0,026
-210,723	-36,848	0,114	-0,044
-209,709	-200,000	0,004	-0,055
-208,694	90,500	-0,072	0,059
-207,679	-200,000	-0,027	-0,115
-206,665	248,113	-0,031	-0,039
-205,650	13,016	0,074	-0,042
-204,636	248,349	-0,047	0,058
-203,621	-49,804	0,032	0,011
-202,606	190,888	-0,071	0,078
-201,592	-91,232	0,052	-0,011
-200,577	-34,110	-0,042	-0,017
-199,563	395,118	0,027	-0,041
-198,548	-10,684	0,076	-0,037
-197,533	-67,024	0,121	-0,035
-196,519	800,000	-0,039	0,097
-195,504	-68,663	-0,082	-0,023
-194,490	-103,790	-0,070	0,012
-193,475	99,576	-0,022	0,019
-192,460	-200,000	0,014	-0,095
-191,446	46,117	-0,161	0,108
-190,431	-166,036	0,106	0,003
-189,417	-50,262	0,043	0,015
-188,402	-200,000	-0,018	0,061
-187,387	40,056	-0,067	0,044
-186,373	20,068	0,072	0,042
-185,358	-200,000	0,002	0,108
-184,344	152,214	0,094	0,094
-183,329	432,316	0,025	0,040
-182,315	386,080	-0,096	0,145
-181,300	-200,000	0,008	0,097
-180,285	-200,000	0,009	-0,115
-179,271	-156,889	-0,089	0,004
-178,256	316,828	0,097	0,134
-177,242	800,000	0,038	-0,084
-176,227	800,000	0,065	0,132
-175,212	-186,982	-0,044	-0,000
-174,198	-200,000	0,028	0,113
-173,183	378,242	-0,064	0,096
-172,169	800,000	0,052	-0,120
-171,154	800,000	-0,014	-0,032
-170,139	-86,652	-0,059	-0,013
-169,125	141,799	0,142	0,137
-168,110	-144,742	0,133	-0,009
-167,096	83,160	0,089	-0,070
-166,081	221,530	-0,101	-0,118
-165,066	-200,000	-0,019	-0,099
-164,052	-200,000	0,000	0,084
-163,037	-200,000	0,005	-0,098
-162,023	-200,000	0,001	0,029
-161,008	572,320	0,055	0,097
-159,993	-200,000	-0,025	0,092
-158,979	103,932	0,067	-0,057
-157,964	800,000	-0,065	-0,165
-156,950	88,319	-0,068	0,055
-155,935	800,000	0,066	-0,144
-154,920	-31,054	0,054	-0,022
-153,906	240,543	-0,088	0,107
-152,891	408,591	-0,047	0,072
-151,877	-56,762	-0,095	0,030
-150,862	52,881	0,012	-0,008
-149,847	721,344	-0,066	0,129
-148,833	142,450	0,051	0,050
-147,818	-200,000	0,052	0,200
-146,804	-79,835	0,078	0,019
-145,789	191,935	-0,093	0,102
-144,775	321,833	-0,045	-0,062
-143,760	-177,289	0,104	-0,002
-142,745	-200,000	-0,010	-0,063
-141,731	800,000	0,017	-0,046
-140,716	-54,883	0,172	0,056
-139,702	296,770	0,119	0,159
-138,687	-107,836	-0,059	0,009
-137,672	800,000	-0,045	-0,140
-136,658	-200,000	-0,019	-0,086
-135,643	-200,000	0,008	0,057
-134,629	-200,000	0,012	-0,071
-133,614	-116,417	0,076	0,010
-132,599	-53,300	0,091	0,030
-131,585	-200,000	-0,017	-0,066
-130,570	800,000	0,014	-0,037
-129,556	-200,000	0,012	-0,074
-128,541	595,486	0,029	0,052
-127,526	120,785	0,053	-0,048
-126,512	-187,576	-0,023	0,000
-125,497	-175,854	-0,040	-0,001
-124,483	800,000	0,049	0,115
-123,468	509,530	0,024	0,040
-122,453	800,000	0,013	0,028
-121,439	13,955	0,038	-0,021
-120,424	800,000	-0,073	-0,155
-119,410	305,538	-0,049	-0,067
-118,395	300,721	0,021	0,028
