DTS Sentinel unit serial number:	SN410029Multiplexer serial number:	ORYXHardware model number:	OX2-SRSoftware version number:	ORYX F/W v4,00 Oryx Data Collector v3.7.2.0data status	okinstallation	B6 Nyhavnadifferential loss correction	single-endedforward channel	channel 2reverse channel	N/Adate	2023/12/07time	19:20:08forward acquisition time	300,00reverse acquisition time	0,00gamma	499,1914k internal	0,3164k external	0,3164temperature offset calibration	1,0000default loss term (dB/km)	0,3820temperature slope calibration	1,0000multiplexer offset coefficient	1,0000multiplexer slope coefficient	1,0000fibre end	0,00T internal ref (°C)	14,05T ext. ref 1 (°C)	-3,02T ext. ref 2 (°C)	-3,03length (m)	temperature (°C)	Stokes	anti-Stokes-744,400	-81,636	0,173	0,041
-743,385	-99,348	-0,256	-0,047
-742,371	-4,936	0,165	-0,083
-741,356	-72,097	-0,217	-0,059
-740,342	-67,309	0,062	-0,018
-739,327	-130,396	-0,407	-0,040
-738,312	57,180	0,126	0,091
-737,298	-143,511	-0,430	-0,030
-736,283	75,814	0,066	0,051
-735,269	-60,972	-0,326	0,101
-734,254	-200,000	0,022	0,182
-733,239	18,232	-0,389	-0,228
-732,225	-22,716	0,156	0,069
-731,210	108,942	0,053	0,047
-730,196	50,357	0,091	-0,063
-729,181	235,866	-0,055	-0,067
-728,167	43,959	-0,055	-0,037
-727,152	-55,198	-0,107	0,035
-726,137	-48,058	0,084	-0,030
-725,123	-200,000	-0,031	-0,101
-724,108	-94,992	-0,153	-0,030
-723,094	152,470	-0,074	-0,075
-722,079	-159,261	-0,050	0,002
-721,064	-88,515	-0,085	0,019
-720,050	-200,000	0,005	-0,133
-719,035	-76,125	-0,195	-0,050
-718,021	-200,000	-0,012	-0,119
-717,006	-85,851	-0,097	0,022
-715,991	500,459	-0,025	-0,042
-714,977	-200,000	-0,017	-0,076
-713,962	-85,224	0,014	-0,003
-712,948	-200,000	0,018	0,105
-711,933	-200,000	-0,005	0,022
-710,918	735,798	-0,034	-0,067
-709,904	272,123	-0,090	-0,117
-708,889	-17,848	0,083	0,038
-707,875	311,008	-0,001	-0,001
-706,860	-176,334	0,077	-0,001
-705,845	329,258	-0,030	0,043
-704,831	-85,285	0,087	0,020
-703,816	-158,498	-0,063	-0,003
-702,802	-43,574	-0,096	0,035
-701,787	594,498	0,058	-0,105
-700,772	-200,000	-0,026	-0,093
-699,758	317,331	-0,032	0,045
-698,743	28,559	0,115	0,071
-697,729	800,000	0,053	-0,112
-696,714	-200,000	-0,011	-0,144
-695,699	-171,472	0,125	0,003
-694,685	-200,000	0,024	-0,167
-693,670	409,002	-0,091	-0,142
-692,656	170,886	0,034	0,036
-691,641	159,649	-0,039	-0,040
-690,627	480,066	0,050	0,084
-689,612	800,000	0,041	0,109
-688,597	-200,000	-0,003	0,058
-687,583	-200,000	-0,001	-0,048
-686,568	26,321	-0,120	-0,073
-685,554	736,838	0,094	-0,186
-684,539	-200,000	-0,013	-0,122
-683,524	800,000	0,035	-0,082
-682,510	198,583	-0,039	-0,044
-681,495	-200,000	0,018	-0,164
-680,481	-33,388	-0,166	-0,067
-679,466	-121,351	0,089	-0,011
-678,451	154,404	-0,048	0,048
-677,437	96,758	-0,087	0,073
-676,422	-55,520	-0,027	0,009
-675,408	-200,000	-0,008	0,139
-674,393	-32,075	-0,220	0,090
-673,378	-12,127	0,127	-0,061
-672,364	-10,279	-0,201	-0,097
-671,349	-200,000	-0,006	0,022
-670,335	195,863	0,048	-0,054
-669,320	-200,000	-0,000	-0,071
-668,305	-200,000	-0,012	0,047
-667,291	599,886	-0,040	-0,073
-666,276	-46,107	-0,081	-0,029
-665,262	104,345	-0,116	-0,101
-664,247	61,887	0,044	-0,032
-663,232	618,288	0,022	0,041
-662,218	94,885	0,086	0,072
-661,203	365,673	-0,021	0,031
-660,189	89,068	-0,016	-0,013
-659,174	-200,000	-0,028	0,116
-658,159	399,813	-0,075	-0,115
-657,145	392,264	-0,008	0,012
-656,130	795,495	0,041	-0,084
-655,116	-200,000	0,004	0,065
-654,101	-200,000	0,018	0,151
-653,086	-130,950	-0,196	-0,019
-652,072	800,000	-0,024	-0,076
-651,057	22,929	-0,159	-0,095
-650,043	-29,325	0,044	0,019
-649,028	191,887	0,041	0,046
-648,014	33,757	-0,139	0,089
-646,999	164,709	0,035	-0,036
-645,984	-9,719	-0,055	0,027
-644,970	-85,062	-0,071	-0,016
-643,955	-57,457	0,080	-0,026
-642,941	85,347	-0,143	0,115
-641,926	-103,644	0,155	-0,026
-640,911	-200,000	0,046	0,185
-639,897	800,000	-0,033	0,104
-638,882	433,343	-0,034	-0,054
-637,868	800,000	0,035	-0,086
-636,853	-200,000	-0,007	-0,055
-635,838	800,000	-0,048	-0,124
-634,824	-57,752	0,065	0,021
-633,809	297,117	-0,075	-0,101
-632,795	-163,616	0,071	-0,002
-631,780	777,064	-0,061	-0,122
-630,765	193,627	-0,130	0,144
-629,751	-200,000	0,007	-0,105
-628,736	-200,000	0,012	-0,062
-627,722	89,136	-0,026	-0,021
-626,707	-200,000	0,007	-0,100
-625,692	142,019	-0,074	0,072
-624,678	-200,000	-0,022	-0,103
-623,663	-133,115	0,081	-0,007
-622,649	11,731	-0,100	-0,056
-621,634	69,680	0,161	-0,121
-620,619	289,323	-0,078	-0,104
-619,605	325,850	0,011	-0,015
-618,590	-200,000	-0,008	-0,098
-617,576	53,396	-0,028	-0,020
-616,561	-118,915	-0,111	0,014
-615,546	60,231	0,055	0,040
-614,532	-200,000	-0,025	-0,108
-613,517	-86,337	-0,087	0,020
-612,503	63,088	-0,085	-0,062
-611,488	-200,000	0,006	0,025
-610,474	34,493	-0,052	-0,033
-609,459	-63,851	-0,040	0,012
-608,444	552,613	-0,044	0,078
-607,430	-167,694	0,117	0,003
-606,415	800,000	0,039	-0,089
-605,401	-200,000	0,004	-0,031
-604,386	127,698	-0,078	-0,073
-603,371	359,001	-0,058	-0,085
-602,357	16,321	-0,089	0,051
-601,342	68,276	0,068	0,051
-600,328	-116,051	-0,075	0,010
-599,313	-200,000	-0,003	-0,154
-598,298	800,000	-0,031	0,073
-597,284	-200,000	0,016	0,163
-596,269	3,551	0,057	-0,030
-595,255	-17,627	-0,040	-0,018
-594,240	-200,000	0,021	-0,083
-593,225	-99,027	-0,218	0,040
-592,211	-200,000	-0,003	-0,082
-591,196	213,468	-0,046	-0,053
-590,182	-200,000	-0,013	-0,073
-589,167	800,000	0,051	-0,106
-588,152	75,926	-0,059	0,045
-587,138	-125,442	0,123	-0,014
-586,123	-56,970	-0,121	0,039
-585,109	247,433	0,067	-0,083
-584,094	-27,663	-0,162	0,068
-583,079	58,542	0,043	-0,031
-582,065	-9,799	0,109	-0,053
-581,050	-200,000	-0,006	0,120
-580,036	-34,500	0,048	-0,019
-579,021	171,974	-0,009	-0,009
-578,006	229,385	0,072	-0,086
-576,992	-9,782	-0,092	-0,045
-575,977	-200,000	-0,005	0,084
-574,963	-200,000	0,016	0,129
-573,948	-200,000	0,028	-0,178
-572,934	800,000	-0,058	-0,124
-571,919	-147,628	-0,169	0,010
-570,904	-200,000	0,008	-0,076
-569,890	-95,730	0,118	-0,023
-568,875	186,360	0,032	-0,035
-567,861	-90,019	-0,155	0,033
-566,846	775,266	-0,067	0,133
-565,831	123,384	0,092	-0,085
-564,817	243,085	-0,122	-0,150
-563,802	-200,000	-0,033	-0,277
-562,788	725,468	-0,010	-0,019
-561,773	-97,568	-0,123	-0,023
-560,758	-102,089	0,145	0,025
-559,744	-200,000	0,012	-0,047
-558,729	-132,345	0,216	-0,020
-557,715	206,673	-0,022	0,025
-556,700	800,000	-0,065	-0,169
-555,685	131,370	-0,132	-0,124
-554,671	319,745	0,058	0,081
-553,656	4,612	0,138	0,074
-552,642	362,400	-0,059	-0,087
-551,627	404,344	-0,084	0,129
-550,612	-14,294	-0,079	-0,037
-549,598	-49,201	-0,071	-0,025
-548,583	-5,173	-0,053	-0,027
-547,569	-200,000	-0,007	0,130
-546,554	-200,000	-0,001	0,044
-545,539	620,124	0,056	0,104
-544,525	69,261	-0,097	-0,073
-543,510	575,961	-0,037	-0,066
-542,496	-51,460	-0,147	-0,050
-541,481	-200,000	-0,012	-0,062
-540,466	-200,000	-0,012	0,109
-539,452	-200,000	-0,007	0,044
-538,437	82,539	0,069	0,054
-537,423	71,328	-0,034	0,026
-536,408	535,987	0,036	0,063
-535,393	269,680	0,033	0,042
-534,379	-85,104	0,045	0,010
-533,364	-200,000	-0,014	0,080
-532,350	-200,000	0,011	-0,085
-531,335	800,000	0,007	-0,021
-530,321	-73,481	0,218	0,058
-529,306	311,127	0,045	-0,062
-528,291	-200,000	0,017	-0,072
-527,277	-167,905	-0,175	0,005
-526,262	-62,119	-0,104	0,031
-525,248	800,000	0,026	0,077
-524,233	-171,124	0,061	0,001
-523,218	-200,000	0,000	0,121
-522,204	617,312	-0,033	0,061
-521,189	161,552	0,097	-0,099
-520,175	91,934	-0,088	-0,072
-519,160	-200,000	-0,028	-0,188
-518,145	-98,897	0,040	-0,007
-517,131	-137,345	0,129	-0,011
-516,116	203,309	0,036	0,041
-515,102	75,658	0,111	0,086
-514,087	748,645	0,080	0,159
-513,072	-200,000	-0,001	0,012
-512,058	-198,472	0,046	0,000
-511,043	-200,000	0,014	0,059
-510,029	-85,131	0,051	0,012
-509,014	-9,433	0,057	0,027
-507,999	60,322	-0,064	-0,046
-506,985	-180,834	0,034	0,000
-505,970	388,280	0,030	0,046
-504,956	76,127	0,008	0,006
-503,941	-1,544	-0,152	0,078
-502,926	-115,019	0,144	0,020
-501,912	-200,000	-0,001	0,032
-500,897	800,000	-0,028	-0,089
-499,883	-200,000	-0,010	-0,049
-498,868	-55,012	-0,099	0,032
-497,853	368,299	-0,077	0,113
-496,839	-200,000	0,005	0,049
-495,824	308,687	0,058	0,080
-494,810	268,568	0,031	0,040
-493,795	406,736	-0,116	0,179
-492,781	-28,153	-0,113	-0,047
-491,766	-200,000	-0,002	-0,071
-490,751	-46,022	-0,058	-0,021
-489,737	178,220	0,038	0,041
-488,722	-200,000	0,020	-0,073
-487,708	358,094	-0,015	0,022
-486,693	212,718	-0,031	-0,036
-485,678	565,475	-0,072	-0,128
-484,664	33,076	0,090	0,057
-483,649	37,262	-0,113	-0,073
-482,635	-200,000	-0,012	0,048
-481,620	332,672	0,009	-0,013
-480,605	800,000	-0,068	0,149
-479,591	-159,757	0,113	-0,004
-478,576	368,230	-0,055	0,081
-477,562	-123,993	-0,061	0,007
-476,547	179,017	-0,040	-0,043
-475,532	157,580	0,130	0,131
-474,518	38,027	0,148	0,095
-473,503	76,976	-0,032	0,025
-472,489	-200,000	0,009	0,033
-471,474	-117,171	-0,036	-0,005
-470,459	36,817	0,107	-0,069
-469,445	-62,830	-0,132	0,039
-468,430	-200,000	-0,025	0,089
-467,416	669,127	-0,089	0,168
-466,401	2,806	0,087	-0,046
-465,386	-200,000	0,012	0,042
-464,372	800,000	-0,019	-0,058
-463,357	-59,933	-0,087	-0,027
-462,343	435,273	0,063	-0,101
-461,328	-93,448	0,034	0,007
-460,313	-200,000	-0,012	0,046
-459,299	270,502	0,066	0,085
-458,284	368,092	0,053	-0,078
-457,270	9,072	-0,095	-0,052
-456,255	800,000	-0,074	-0,161
-455,241	800,000	-0,011	-0,028
-454,226	720,163	-0,076	-0,147
-453,211	-200,000	-0,002	-0,020
-452,197	-200,000	0,002	-0,038
-451,182	-200,000	0,014	-0,080
-450,168	194,387	0,050	0,056
-449,153	-60,150	0,198	-0,061
-448,138	800,000	-0,018	0,050
-447,124	-200,000	-0,011	0,043
-446,109	516,525	0,059	0,101
-445,095	-13,862	-0,102	0,048
-444,080	-200,000	0,011	-0,041
-443,065	595,483	-0,044	0,080
-442,051	-69,603	-0,095	-0,026
-441,036	-119,334	-0,035	-0,004
-440,022	121,354	-0,122	-0,111
-439,007	63,274	0,053	0,039
-437,992	10,111	0,055	0,030
-436,978	362,734	0,025	0,036
-435,963	41,333	-0,154	0,101
-434,949	734,942	-0,066	-0,130
-433,934	-200,000	-0,003	0,123
-432,919	800,000	-0,021	0,046
-431,905	-200,000	-0,019	0,105
-430,890	-104,500	0,122	-0,020
-429,876	62,487	0,056	0,041
-428,861	14,176	0,074	0,042
-427,846	-44,537	-0,071	-0,026
-426,832	800,000	-0,069	0,154
-425,817	113,113	0,034	0,030
-424,803	-200,000	0,010	-0,137
-423,788	-200,000	-0,032	-0,123
-422,773	199,267	-0,058	0,064
-421,759	-107,279	0,112	-0,018
-420,744	800,000	-0,019	0,050
-419,730	297,950	-0,068	0,091
-418,715	12,103	-0,115	-0,064
-417,701	2,911	-0,137	-0,072
-416,686	35,327	0,104	-0,066
-415,671	800,000	-0,026	0,064
-414,657	21,445	0,064	0,038
-413,642	156,453	0,049	0,050
-412,628	33,132	0,133	-0,084
-411,613	253,529	0,022	0,027
-410,598	-157,639	0,082	-0,003
-409,584	282,087	0,072	-0,094
-408,569	184,599	0,075	0,081
-407,555	486,458	-0,039	0,065
-406,540	-200,000	-0,021	-0,084
-405,525	25,525	-0,102	-0,061
-404,511	-85,591	-0,073	-0,016
-403,496	-200,000	-0,008	-0,122
-402,482	-139,508	0,032	0,002
-401,467	-200,000	0,001	0,029
-400,452	462,678	0,117	0,190
-399,438	524,415	0,044	0,076
-398,423	-5,139	-0,132	0,066
-397,409	-1,790	-0,115	-0,059
-396,394	-139,149	-0,209	-0,016
-395,379	-82,289	-0,051	-0,012
-394,365	67,528	-0,121	0,090
-393,350	-58,800	-0,073	-0,023
-392,336	201,181	0,031	-0,035
-391,321	-92,497	0,050	0,010
-390,306	-200,000	-0,007	0,065
-389,292	572,569	0,041	0,073
-388,277	45,887	0,074	0,050
-387,263	25,808	-0,132	-0,079
-386,248	504,961	-0,014	-0,023
-385,233	-120,809	-0,024	0,003
-384,219	-32,187	0,143	0,058
-383,204	60,591	-0,142	-0,102
-382,190	211,392	-0,021	-0,023
-381,175	77,433	-0,045	0,035
-380,160	601,343	0,017	0,031
-379,146	247,521	-0,050	0,061
-378,131	96,017	-0,059	0,049
-377,117	144,665	0,055	0,053
-376,102	516,484	-0,042	0,071
-375,088	19,701	-0,066	-0,038
-374,073	176,419	0,035	0,037
-373,058	72,710	0,020	-0,015
-372,044	-21,234	0,065	-0,029
-371,029	18,963	-0,081	-0,047
-370,015	-140,577	0,083	0,006
-369,000	7,921	-0,095	-0,051
-367,985	-200,000	-0,009	-0,103
-366,971	549,224	0,029	0,051
-365,956	-200,000	-0,000	-0,029
-364,942	-69,730	0,092	0,025
-363,927	-113,727	-0,060	-0,008
-362,912	-127,854	0,077	-0,008
-361,898	18,376	-0,120	-0,069
-360,883	91,449	0,051	0,041
-359,869	-50,910	0,056	0,019
-358,854	289,563	0,047	-0,062
-357,839	800,000	0,063	0,133
-356,825	800,000	0,046	0,112
-355,810	-137,625	0,069	0,006
-354,796	-37,409	0,020	-0,008
-353,781	81,348	0,021	0,017
-352,766	-200,000	0,001	0,009
-351,752	24,575	0,083	-0,049
-350,737	800,000	0,032	0,099
-349,723	682,668	-0,040	0,077
-348,708	-151,207	-0,082	0,004
-347,693	51,699	0,168	-0,115
-346,679	-30,997	0,055	0,022
-345,664	277,486	-0,033	-0,043
-344,650	383,179	-0,023	-0,035
-343,635	-200,000	0,030	0,107
-342,620	58,656	0,038	-0,027
-341,606	800,000	0,025	0,060
-340,591	-200,000	0,019	0,066
-339,577	800,000	0,078	-0,222
-338,562	563,064	0,024	0,042
-337,548	612,349	0,065	-0,118
-336,533	112,601	0,071	0,062
-335,518	-94,944	-0,029	-0,006
-334,504	800,000	0,024	-0,051
-333,489	458,036	0,022	0,036
-332,475	-38,130	0,041	-0,016
-331,460	-200,000	-0,002	-0,099
-330,445	-139,798	-0,059	-0,004
-329,431	129,895	-0,176	-0,163
-328,416	-200,000	-0,004	0,094
-327,402	800,000	0,019	-0,053
-326,387	44,410	-0,034	-0,022
-325,372	-200,000	-0,010	0,045
-324,358	167,408	0,076	0,078
-323,343	-62,362	0,064	-0,019
-322,329	-200,000	0,020	-0,135
-321,314	494,318	-0,026	-0,043
-320,299	150,611	0,159	-0,156
-319,285	386,421	-0,042	0,063
-318,270	195,685	-0,084	-0,093
-317,256	-133,814	0,061	-0,005
-316,241	-175,335	0,063	-0,001
-315,226	-121,991	0,116	0,014
-314,212	-3,011	0,130	0,065
-313,197	800,000	-0,057	0,137
-312,183	18,364	0,089	-0,051
-311,168	8,977	0,037	-0,020
-310,153	-192,182	-0,103	-0,001
-309,139	591,317	0,010	-0,018
-308,124	112,774	0,035	-0,030
-307,110	-94,305	0,076	0,015
-306,095	-76,762	0,160	0,040
-305,080	198,147	0,059	-0,065
-304,066	-1,646	-0,179	0,091
-303,051	-53,507	-0,119	-0,039
-302,037	-200,000	0,009	0,086
-301,022	74,512	0,081	-0,062
-300,008	-67,317	0,023	0,006
-298,993	800,000	0,065	0,151
-297,978	-160,649	0,124	-0,005
-296,964	800,000	-0,023	-0,060
-295,949	800,000	-0,027	-0,066
-294,935	183,896	0,099	-0,106
-293,920	760,535	-0,026	0,051
-292,905	-57,524	-0,106	-0,033
-291,891	-200,000	0,028	0,141
-290,876	-200,000	0,004	0,042
-289,862	-24,620	0,121	-0,052
-288,847	-200,000	-0,012	0,062
-287,832	9,060	0,004	0,002
-286,818	52,781	0,019	0,013
-285,803	-200,000	0,013	0,042
-284,789	118,683	0,131	0,117
-283,774	-68,613	-0,130	-0,036
-282,759	43,843	0,043	-0,028
-281,745	675,797	-0,062	-0,117
-280,730	244,365	-0,129	-0,157
-279,716	800,000	0,025	-0,064
-278,701	126,354	-0,086	0,079
-277,686	800,000	0,034	-0,091
-276,672	95,859	0,185	0,153
-275,657	-35,893	-0,134	-0,052
-274,643	-200,000	0,001	-0,107
-273,628	600,042	-0,029	0,053
-272,613	544,873	0,026	0,046
-271,599	222,303	0,055	0,065
-270,584	-171,104	0,146	-0,003
-269,570	426,650	0,067	-0,104
-268,555	71,310	-0,066	0,049
-267,540	-41,470	0,006	0,002
-266,526	-200,000	0,008	-0,046
-265,511	120,255	0,074	0,067
-264,497	-68,147	-0,027	-0,007
-263,482	112,736	0,038	0,033
-262,467	800,000	0,016	0,036
-261,453	800,000	-0,043	0,119
-260,438	-200,000	-0,007	0,066
-259,424	21,986	0,091	-0,054
-258,409	268,695	0,072	0,091
-257,395	-25,949	-0,097	-0,041
-256,380	-200,000	-0,022	0,137
-255,365	172,427	0,048	0,050
-254,351	800,000	0,010	0,020
-253,336	-200,000	0,046	-0,158
-252,322	-200,000	0,007	-0,030
-251,307	-200,000	-0,013	-0,070
-250,292	564,398	-0,049	-0,086
-249,278	-200,000	0,009	-0,109
-248,263	-24,837	0,158	0,068
-247,249	-200,000	-0,002	-0,041
-246,234	57,079	0,041	0,029
-245,219	-37,598	-0,080	0,031
-244,205	368,489	-0,017	-0,025
-243,190	25,545	-0,064	0,038
-242,176	29,060	0,110	0,067
-241,161	-22,830	0,101	0,044
-240,146	210,957	-0,050	0,057
-239,132	225,645	0,123	-0,144
-238,117	48,093	-0,031	-0,021
-237,103	-91,512	0,103	-0,021
-236,088	800,000	-0,029	-0,063
-235,073	-1,402	0,162	0,082
-234,059	800,000	0,054	0,151
-233,044	-200,000	-0,014	-0,207
-232,030	-21,087	-0,101	-0,045
-231,015	88,218	-0,060	0,048
-230,000	-133,654	0,180	-0,016
-228,986	-200,000	0,013	0,061
-227,971	-167,741	-0,090	-0,003
-226,957	-138,828	0,078	0,006
-225,942	-200,000	0,022	-0,151
-224,927	-200,000	0,009	0,136
-223,913	-18,984	0,031	0,014
-222,898	315,385	0,052	0,070
-221,884	395,683	0,057	-0,086
-220,869	251,962	-0,068	0,083
-219,855	-91,843	-0,073	0,015
-218,840	290,831	0,062	0,082
-217,825	339,585	0,053	-0,074
-216,811	-200,000	-0,020	-0,079
-215,796	664,875	0,055	0,104
-214,782	-200,000	0,012	0,134
-213,767	-200,000	0,014	0,145
-212,752	-17,730	-0,094	0,042
-211,738	-181,472	-0,081	-0,001
-210,723	443,746	0,062	0,098
-209,709	-49,794	-0,046	0,016
-208,694	775,100	-0,012	-0,023
-207,679	107,013	-0,095	-0,081
-206,665	233,082	0,095	-0,113
-205,650	296,078	0,065	0,086
-204,636	253,867	0,141	0,174
-203,621	82,581	-0,097	-0,076
-202,606	800,000	-0,060	-0,129
-201,592	-200,000	-0,033	0,107
-200,577	800,000	0,025	0,067
-199,563	-161,849	-0,019	-0,001
-198,548	-200,000	-0,036	0,121
-197,533	-200,000	0,009	-0,137
-196,519	136,997	0,014	0,013
-195,504	-200,000	-0,007	0,070
-194,490	162,080	-0,083	0,084
-193,475	-70,063	0,186	-0,051
-192,460	38,047	-0,051	-0,033
-191,446	226,365	-0,050	-0,058
-190,431	63,279	0,092	0,066
-189,417	583,174	-0,045	0,080
-188,402	-61,195	0,066	0,020
-187,387	-200,000	0,024	-0,077
-186,373	-177,044	-0,051	-0,001
-185,358	-86,287	-0,118	-0,026
-184,344	800,000	0,059	0,122
-183,329	-19,623	-0,044	-0,019
-182,315	145,770	-0,027	-0,026
-181,300	53,536	-0,069	0,048
-180,285	-200,000	-0,004	-0,067
-179,271	-190,092	-0,148	0,001
-178,256	-101,503	-0,046	-0,008
-177,242	139,671	0,022	-0,021
-176,227	-200,000	0,023	0,206
-175,212	-200,000	-0,026	-0,094
-174,198	-200,000	-0,001	-0,015
-173,183	-113,924	-0,152	0,021
-172,169	-50,797	-0,092	-0,031
-171,154	0,194	-0,068	-0,035
-170,139	622,306	0,056	0,102
-169,125	-2,620	-0,100	-0,050
-168,110	176,895	0,056	0,058
-167,096	-11,282	-0,096	-0,045
-166,081	60,965	0,039	-0,028
-165,066	800,000	-0,046	-0,130
-164,052	-129,967	0,125	-0,012
-163,037	425,925	-0,055	-0,086
-162,023	542,943	0,062	0,107
-161,008	-200,000	-0,026	0,094
-159,993	-49,898	0,090	-0,030
-158,979	-68,837	0,075	-0,021
-157,964	163,904	-0,020	-0,020
-156,950	274,970	0,023	0,029
-155,935	800,000	-0,014	-0,038
-154,920	278,972	0,059	0,076
-153,906	193,349	0,104	-0,113
-152,891	800,000	0,015	0,031
-151,877	99,105	-0,103	-0,085
-150,862	181,691	0,077	-0,082
-149,847	118,491	-0,043	0,038
-148,833	-70,011	-0,097	0,026
-147,818	36,736	0,059	-0,038
-146,804	19,202	0,042	-0,024
-145,789	76,435	0,042	0,032
-144,775	-200,000	0,025	-0,136
-143,760	-200,000	0,003	-0,017
-142,745	-75,268	-0,186	-0,047
-141,731	800,000	-0,072	0,162
-140,716	585,596	0,025	-0,044
-139,702	118,218	-0,029	0,026
-138,687	-25,550	0,023	0,010
-137,672	5,117	0,085	-0,045
-136,658	111,164	-0,073	0,063
-135,643	91,867	-0,016	-0,013
-134,629	32,313	0,101	0,062
-133,614	800,000	-0,029	0,073
-132,599	-95,991	0,137	0,026
-131,585	108,094	-0,145	0,125
-130,570	-149,549	-0,035	-0,002
-129,556	-24,406	-0,088	0,037
-128,541	437,603	-0,068	0,107
-127,526	-200,000	0,015	-0,062
-126,512	43,270	0,166	0,109
-125,497	453,177	-0,094	0,151
-124,483	95,979	0,040	0,033
-123,468	273,943	-0,042	-0,054
-122,453	-77,205	-0,047	0,012
-121,439	143,243	-0,134	0,128
-120,424	-51,973	-0,054	-0,018
-119,410	520,226	0,017	0,028
-118,395	552,515	0,073	0,127
