DTS Sentinel unit serial number:	SN410029Multiplexer serial number:	ORYXHardware model number:	OX2-SRSoftware version number:	ORYX F/W v4,00 Oryx Data Collector v3.7.2.0data status	okinstallation	B6 Nyhavnadifferential loss correction	single-endedforward channel	channel 2reverse channel	N/Adate	2023/12/10time	15:40:08forward acquisition time	300,00reverse acquisition time	0,00gamma	499,1914k internal	0,3122k external	0,3122temperature offset calibration	1,0000default loss term (dB/km)	0,3820temperature slope calibration	1,0000multiplexer offset coefficient	1,0000multiplexer slope coefficient	1,0000fibre end	0,00T internal ref (°C)	22,40T ext. ref 1 (°C)	5,95T ext. ref 2 (°C)	5,97length (m)	temperature (°C)	Stokes	anti-Stokes-744,400	-172,093	0,095	0,002
-743,385	755,612	-0,069	0,139
-742,371	-200,000	-0,005	-0,034
-741,356	-34,066	-0,241	0,098
-740,342	61,544	0,042	-0,031
-739,327	-82,803	-0,178	0,043
-738,312	635,659	0,064	-0,121
-737,298	-32,557	-0,239	0,099
-736,283	-100,133	0,137	-0,025
-735,269	-110,174	-0,184	0,028
-734,254	172,940	-0,074	-0,080
-733,239	-30,832	-0,314	-0,132
-732,225	-53,329	0,160	0,054
-731,210	-200,000	0,035	0,214
-730,196	106,378	0,114	0,101
-729,181	37,054	-0,087	-0,057
-728,167	-4,199	-0,128	-0,066
-727,152	228,852	-0,045	0,055
-726,137	-200,000	-0,015	0,057
-725,123	-24,836	-0,041	-0,018
-724,108	-200,000	0,002	-0,033
-723,094	-92,940	-0,195	-0,040
-722,079	-78,612	-0,069	-0,017
-721,064	-200,000	0,017	-0,157
-720,050	452,362	-0,037	-0,060
-719,035	648,658	-0,003	0,005
-718,021	-101,368	0,069	-0,012
-717,006	45,314	-0,104	-0,071
-715,991	-36,701	-0,105	-0,042
-714,977	73,423	0,030	-0,023
-713,962	800,000	0,024	0,063
-712,948	-114,266	0,046	-0,007
-711,933	-27,150	-0,109	0,047
-710,918	574,143	-0,066	0,121
-709,904	-110,584	-0,086	-0,013
-708,889	48,221	-0,144	-0,100
-707,875	36,722	-0,107	-0,070
-706,860	240,828	-0,035	0,044
-705,845	46,491	-0,035	0,024
-704,831	-42,901	0,074	-0,028
-703,816	408,739	0,068	-0,107
-702,802	800,000	-0,037	-0,103
-701,787	800,000	-0,031	-0,072
-700,772	83,783	-0,029	0,023
-699,758	62,178	0,039	0,029
-698,743	800,000	0,028	0,067
-697,729	-200,000	-0,021	-0,137
-696,714	-200,000	-0,017	0,104
-695,699	173,438	0,042	0,045
-694,685	-200,000	-0,010	-0,058
-693,670	-10,137	-0,032	0,016
-692,656	146,948	0,041	0,041
-691,641	257,911	0,042	0,054
-690,627	-200,000	0,023	-0,168
-689,612	227,852	0,042	0,051
-688,597	439,171	0,023	-0,038
-687,583	-200,000	-0,001	-0,162
-686,568	-153,540	-0,195	-0,010
-685,554	-200,000	-0,008	-0,041
-684,539	226,839	-0,113	-0,137
-683,524	178,260	-0,083	0,090
-682,510	644,587	-0,050	0,095
-681,495	-200,000	0,032	-0,140
-680,481	385,810	0,063	-0,097
-679,466	368,218	-0,046	-0,069
-678,451	-49,627	-0,130	-0,046
-677,437	-200,000	-0,011	0,044
-676,422	-116,873	0,112	0,015
-675,408	65,406	0,049	0,037
-674,393	43,072	-0,118	-0,080
-673,378	-200,000	0,028	-0,092
-672,364	-86,572	0,093	0,021
-671,349	-85,264	-0,111	-0,026
-670,335	-35,809	0,089	0,036
-669,320	158,125	0,082	-0,085
-668,305	-200,000	-0,003	0,032
-667,291	-136,042	-0,111	-0,010
-666,276	78,096	-0,172	0,136
-665,262	-200,000	0,015	-0,063
-664,247	522,067	-0,064	-0,112
-663,232	-176,294	0,095	0,002
-662,218	95,390	0,061	0,052
-661,203	380,638	0,023	-0,035
-660,189	-103,433	0,003	-0,001
-659,174	292,766	0,003	0,004
-658,159	-104,182	-0,102	-0,017
-657,145	357,401	0,075	-0,112
-656,130	-62,807	0,107	0,033
-655,116	593,400	-0,050	-0,093
-654,101	-99,941	0,112	0,021
-653,086	-138,120	-0,128	-0,010
-652,072	-200,000	0,028	-0,114
-651,057	-89,936	-0,102	-0,022
-650,043	-69,072	0,025	-0,007
-649,028	-200,000	0,017	-0,080
-648,014	24,309	-0,091	-0,056
-646,999	800,000	-0,013	0,043
-645,984	186,324	0,108	0,119
-644,970	150,986	-0,048	0,049
-643,955	126,627	-0,011	0,011
-642,941	-200,000	0,009	-0,071
-641,926	-131,689	-0,040	-0,004
-640,911	-130,595	0,070	0,007
-639,897	-200,000	-0,005	0,055
-638,882	-168,808	-0,068	-0,002
-637,868	-71,098	-0,156	0,043
-636,853	229,093	0,039	0,048
-635,838	-167,922	0,074	0,002
-634,824	42,045	-0,038	0,026
-633,809	-200,000	-0,016	0,073
-632,795	567,096	-0,037	0,067
-631,780	500,210	0,070	0,120
-630,765	800,000	0,037	-0,080
-629,751	0,161	0,079	-0,042
-628,736	-32,633	-0,221	-0,091
-627,722	212,166	0,090	0,105
-626,707	68,518	-0,085	-0,064
-625,692	800,000	0,008	0,026
-624,678	-200,000	0,012	-0,104
-623,663	-72,741	-0,144	0,039
-622,649	755,110	-0,035	-0,071
-621,634	-63,226	-0,116	-0,035
-620,619	-124,778	-0,116	-0,013
-619,605	5,682	0,125	-0,068
-618,590	33,896	-0,001	0,001
-617,576	224,344	0,067	-0,080
-616,561	139,430	-0,099	0,097
-615,546	84,307	0,029	-0,024
-614,532	-200,000	0,042	-0,193
-613,517	411,218	0,024	-0,038
-612,503	-120,179	0,043	0,005
-611,488	155,848	-0,087	-0,089
-610,474	800,000	0,069	0,149
-609,459	122,473	0,060	0,056
-608,444	-69,971	0,097	0,027
-607,430	74,882	-0,060	-0,047
-606,415	-200,000	-0,001	-0,051
-605,401	300,986	-0,074	-0,102
-604,386	-200,000	-0,010	0,119
-603,371	42,599	0,010	-0,007
-602,357	247,455	0,074	0,093
-601,342	94,354	0,099	-0,083
-600,328	-113,603	0,009	0,001
-599,313	98,670	-0,047	-0,040
-598,298	-200,000	-0,007	-0,029
-597,284	-200,000	0,028	0,146
-596,269	-200,000	0,009	0,100
-595,255	-29,751	0,102	0,043
-594,240	-182,557	-0,181	-0,002
-593,225	166,774	0,029	-0,031
-592,211	-19,298	-0,147	-0,067
-591,196	-85,561	0,045	0,010
-590,182	800,000	0,005	-0,011
-589,167	610,011	-0,026	0,049
-588,152	43,085	0,085	-0,057
-587,138	25,606	-0,051	-0,031
-586,123	-200,000	0,018	-0,194
-585,109	-51,810	-0,083	-0,028
-584,094	-200,000	-0,009	0,088
-583,079	-42,101	-0,047	0,018
-582,065	108,178	0,128	0,113
-581,050	51,806	-0,130	-0,091
-580,036	264,190	-0,050	-0,065
-579,021	111,600	0,110	0,099
-578,006	77,710	-0,051	-0,041
-576,992	183,486	0,063	-0,069
-575,977	109,293	-0,093	-0,083
-574,963	267,367	0,040	-0,052
-573,948	800,000	0,083	-0,180
-572,934	-137,059	-0,182	-0,015
-571,919	-37,919	0,075	-0,029
-570,904	-0,349	-0,074	-0,039
-569,890	14,237	-0,050	0,029
-568,875	24,600	-0,006	-0,004
-567,861	110,822	0,036	0,032
-566,846	-200,000	0,011	-0,122
-565,831	598,249	0,024	-0,044
-564,817	800,000	0,010	0,030
-563,802	-99,217	0,029	-0,005
-562,788	287,692	-0,005	0,007
-561,773	306,689	-0,030	-0,042
-560,758	-200,000	-0,017	0,115
-559,744	-200,000	-0,004	0,067
-558,729	435,175	0,103	-0,166
-557,715	-150,124	-0,143	0,008
-556,700	-42,689	0,196	0,073
-555,685	-200,000	-0,020	-0,117
-554,671	394,079	-0,090	-0,139
-553,656	732,777	-0,078	-0,155
-552,642	455,856	-0,022	0,036
-551,627	-21,669	-0,079	0,035
-550,612	-200,000	-0,002	0,116
-549,598	800,000	0,031	-0,065
-548,583	-200,000	0,021	-0,069
-547,569	-86,192	0,165	-0,037
-546,554	489,964	-0,025	0,043
-545,539	68,367	-0,052	0,039
-544,525	286,756	-0,074	0,099
-543,510	64,318	-0,087	-0,065
-542,496	-27,539	0,027	0,012
-541,481	-200,000	-0,015	-0,108
-540,466	-74,651	-0,035	0,009
-539,452	-132,976	-0,050	0,005
-538,437	380,548	-0,101	0,153
-537,423	184,692	0,087	0,096
-536,408	147,991	-0,072	0,072
-535,393	-200,000	-0,018	-0,077
-534,379	-200,000	0,009	-0,162
-533,364	800,000	-0,036	0,075
-532,350	564,594	0,032	0,058
-531,335	-200,000	-0,040	0,154
-530,321	-67,484	-0,024	-0,007
-529,306	-83,823	-0,093	-0,022
-528,291	735,911	-0,016	-0,031
-527,277	800,000	0,088	-0,191
-526,262	-178,855	0,103	0,002
-525,248	-200,000	0,018	0,077
-524,233	26,409	0,066	0,041
-523,218	-45,720	-0,091	0,033
-522,204	-93,459	0,036	-0,007
-521,189	6,451	-0,120	-0,066
-520,175	-121,476	-0,082	-0,010
-519,160	-136,601	0,080	-0,007
-518,145	-19,710	-0,104	0,048
-517,131	-116,566	-0,077	-0,010
-516,116	11,226	0,070	-0,039
-515,102	-200,000	-0,029	-0,174
-514,087	-200,000	0,015	-0,095
-513,072	-200,000	0,023	-0,128
-512,058	-200,000	0,004	-0,094
-511,043	-200,000	0,013	-0,108
-510,029	37,952	0,063	0,041
-509,014	288,342	0,012	-0,016
-507,999	-10,220	0,056	0,027
-506,985	-153,642	-0,140	0,007
-505,970	-72,237	-0,074	-0,020
-504,956	474,101	-0,036	0,061
-503,941	-95,068	-0,167	0,033
-502,926	-200,000	-0,005	0,029
-501,912	47,339	0,067	0,046
-500,897	-200,000	-0,006	0,095
-499,883	-200,000	-0,029	0,162
-498,868	110,470	-0,038	-0,034
-497,853	-140,684	-0,045	0,003
-496,839	11,136	0,126	0,071
-495,824	-120,864	-0,039	0,005
-494,810	-200,000	0,006	0,070
-493,795	80,827	-0,124	-0,099
-492,781	-47,366	-0,088	-0,032
-491,766	372,035	-0,037	0,056
-490,751	-200,000	0,005	0,020
-489,737	800,000	0,025	0,053
-488,722	800,000	0,032	0,090
-487,708	75,842	0,086	0,067
-486,693	-152,538	-0,122	0,006
-485,678	-49,928	0,080	-0,028
-484,664	486,237	-0,081	0,136
-483,649	10,219	-0,120	0,067
-482,635	-200,000	-0,017	0,057
-481,620	-200,000	0,038	-0,143
-480,605	-200,000	-0,004	0,075
-479,591	96,699	0,056	-0,047
-478,576	-200,000	0,005	-0,023
-477,562	-117,628	0,116	-0,015
-476,547	-50,501	0,038	-0,013
-475,532	-200,000	0,020	-0,138
-474,518	342,854	0,032	-0,047
-473,503	-134,996	-0,050	-0,004
-472,489	151,821	0,029	0,029
-471,474	-200,000	-0,012	-0,049
-470,459	173,681	-0,134	-0,142
-469,445	800,000	-0,062	-0,148
-468,430	-138,300	0,080	-0,006
-467,416	-126,640	0,029	0,003
-466,401	-33,513	-0,100	0,041
-465,386	-170,538	0,097	0,002
-464,372	67,316	-0,037	-0,028
-463,357	-200,000	0,006	-0,087
-462,343	-35,507	-0,144	0,058
-461,328	69,718	0,071	-0,054
-460,313	-118,206	0,153	0,020
-459,299	-18,987	0,126	0,058
-458,284	-28,151	0,084	0,036
-457,270	53,543	-0,041	0,029
-456,255	-48,359	-0,056	0,020
-455,241	448,857	-0,044	-0,072
-454,226	521,852	0,035	-0,061
-453,211	-200,000	0,006	0,079
-452,197	-200,000	-0,001	0,096
-451,182	13,386	0,113	0,064
-450,168	-25,029	0,169	0,073
-449,153	-200,000	0,033	-0,201
-448,138	-200,000	-0,012	-0,065
-447,124	150,845	-0,072	0,073
-446,109	800,000	-0,058	0,163
-445,095	-200,000	-0,031	0,142
-444,080	47,278	0,093	-0,063
-443,065	-200,000	-0,010	-0,076
-442,051	800,000	-0,024	0,050
-441,036	-76,315	-0,198	0,051
-440,022	-200,000	0,005	-0,028
-439,007	159,510	0,079	-0,082
-437,992	800,000	0,050	0,110
-436,978	-120,331	0,114	-0,014
-435,963	-130,547	-0,067	0,007
-434,949	10,535	0,068	0,038
-433,934	-200,000	-0,030	0,107
-432,919	-200,000	0,008	0,055
-431,905	-200,000	0,009	0,113
-430,890	-200,000	0,046	-0,172
-429,876	-45,975	0,182	0,066
-428,861	-82,751	0,005	0,001
-427,846	278,770	-0,050	-0,066
-426,832	-124,653	0,075	0,008
-425,817	57,652	-0,096	-0,069
-424,803	800,000	0,006	-0,016
-423,788	-109,331	0,045	-0,007
-422,773	91,430	0,033	0,027
-421,759	-48,270	-0,041	0,014
-420,744	69,005	-0,037	-0,028
-419,730	-200,000	0,011	-0,042
-418,715	-38,796	-0,048	0,019
-417,701	-200,000	-0,003	0,034
-416,686	-31,998	-0,207	-0,085
-415,671	-200,000	0,024	0,088
-414,657	119,253	0,085	0,078
-413,642	800,000	-0,020	-0,053
-412,628	-60,371	0,099	0,031
-411,613	800,000	-0,048	-0,123
-410,598	-200,000	-0,007	-0,055
-409,584	-200,000	0,013	-0,048
-408,569	12,202	0,011	-0,006
-407,555	800,000	-0,045	-0,106
-406,540	-28,033	0,017	0,007
-405,525	-86,106	0,149	0,034
-404,511	698,428	-0,083	-0,161
-403,496	368,171	0,030	0,045
-402,482	-52,137	0,163	0,055
-401,467	-200,000	-0,009	0,036
-400,452	-99,509	0,027	-0,005
-399,438	-34,501	-0,028	-0,011
-398,423	-111,663	0,104	0,015
-397,409	-65,003	0,042	-0,012
-396,394	-200,000	0,004	0,107
-395,379	4,257	-0,033	-0,018
-394,365	-108,851	-0,124	-0,019
-393,350	63,444	0,083	0,061
-392,336	-200,000	-0,012	0,090
-391,321	456,660	0,043	0,071
-390,306	-200,000	0,009	0,067
-389,292	-200,000	-0,016	-0,083
-388,277	-137,056	-0,151	0,012
-387,263	381,196	-0,042	0,063
-386,248	800,000	0,017	0,045
-385,233	-9,572	0,111	-0,054
-384,219	-200,000	0,003	-0,139
-383,204	-200,000	0,012	-0,075
-382,190	-50,896	-0,086	-0,030
-381,175	96,291	0,079	0,067
-380,160	27,539	0,096	0,059
-379,146	39,589	0,096	0,063
-378,131	115,367	0,107	-0,096
-377,117	-200,000	-0,020	0,065
-376,102	-129,200	-0,083	0,008
-375,088	33,472	-0,070	0,045
-374,073	-200,000	0,008	0,080
-373,058	262,460	0,041	0,052
-372,044	-34,296	0,094	0,038
-371,029	179,578	0,035	0,037
-370,015	149,310	-0,057	-0,057
-369,000	-15,308	-0,072	0,034
-367,985	657,716	0,028	-0,054
-366,971	307,848	0,078	-0,107
-365,956	39,596	-0,011	0,008
-364,942	-200,000	0,042	0,140
-363,927	-65,092	-0,036	0,011
-362,912	12,725	0,139	0,079
-361,898	-105,081	-0,031	-0,005
-360,883	-11,763	0,112	-0,054
-359,869	38,393	0,023	0,015
-358,854	-200,000	0,003	0,092
-357,839	109,593	0,022	-0,020
-356,825	274,393	0,074	0,096
-355,810	130,066	0,054	-0,050
-354,796	20,613	0,037	0,022
-353,781	-48,192	-0,091	-0,032
-352,766	99,795	0,071	-0,060
-351,752	-200,000	0,018	-0,062
-350,737	-115,540	0,068	0,009
-349,723	591,811	-0,036	-0,066
-348,708	171,139	0,072	-0,076
-347,693	747,763	-0,046	0,091
-346,679	-116,290	-0,188	-0,025
-345,664	800,000	0,054	-0,134
-344,650	213,520	0,046	0,054
-343,635	152,421	-0,057	-0,057
-342,620	159,785	0,055	0,056
-341,606	170,004	0,089	0,093
-340,591	-7,842	0,134	0,066
-339,577	-200,000	-0,003	-0,045
-338,562	91,467	-0,051	-0,042
-337,548	-15,595	-0,038	0,018
-336,533	-30,980	-0,033	0,014
-335,518	-150,943	-0,080	0,004
-334,504	-128,783	0,086	-0,009
-333,489	-5,896	0,092	-0,046
-332,475	-71,808	0,062	0,017
-331,460	800,000	0,059	-0,132
-330,445	136,443	-0,055	-0,053
-329,431	-51,203	-0,086	0,029
-328,416	-74,510	0,021	-0,006
-327,402	-200,000	0,018	0,084
-326,387	-200,000	-0,009	-0,049
-325,372	-84,881	0,121	0,028
-324,358	22,453	0,044	0,026
-323,343	-200,000	-0,001	0,160
-322,329	300,605	-0,096	-0,130
-321,314	-200,000	-0,020	0,108
-320,299	241,543	-0,048	0,059
-319,285	395,391	0,037	0,057
-318,270	413,810	0,048	0,075
-317,256	45,562	-0,096	0,065
-316,241	-200,000	0,039	0,168
-315,226	-200,000	0,055	0,195
-314,212	-67,653	-0,038	-0,011
-313,197	-61,664	0,028	-0,009
-312,183	-125,926	0,025	0,003
-311,168	-60,407	-0,049	0,015
-310,153	7,376	0,033	-0,018
-309,139	401,572	0,034	0,052
-308,124	800,000	-0,035	-0,071
-307,110	-200,000	0,001	-0,056
-306,095	571,074	0,102	0,183
-305,080	-101,830	0,120	0,021
-304,066	-0,549	-0,113	-0,058
-303,051	13,832	-0,162	0,092
-302,037	800,000	0,024	-0,069
-301,022	-200,000	0,001	0,036
-300,008	167,586	0,058	0,060
-298,993	-192,492	0,075	0,000
-297,978	250,115	0,088	-0,109
-296,964	-92,894	-0,221	-0,045
-295,949	-57,772	0,042	-0,014
-294,935	-7,142	-0,058	-0,029
-293,920	-83,453	-0,136	-0,032
-292,905	800,000	-0,019	0,047
-291,891	443,645	0,028	0,045
-290,876	486,384	0,028	-0,047
-289,862	-200,000	-0,127	-0,000
-288,847	113,780	-0,083	-0,074
-287,832	-18,537	0,032	-0,015
-286,818	63,733	-0,041	0,030
-285,803	-200,000	0,005	0,114
-284,789	96,363	-0,053	0,045
-283,774	27,171	-0,024	0,015
-282,759	46,378	-0,093	0,063
-281,745	-154,152	-0,037	0,002
-280,730	-117,759	0,055	-0,007
-279,716	140,613	-0,019	-0,018
-278,701	-200,000	-0,009	0,142
-277,686	-69,884	0,080	-0,022
-276,672	-49,962	0,090	-0,031
-275,657	29,158	0,017	0,010
-274,643	800,000	-0,077	-0,229
-273,628	308,049	0,055	0,076
-272,613	-15,096	0,117	-0,055
-271,599	537,677	0,052	-0,091
-270,584	-159,599	0,109	-0,004
-269,570	140,920	-0,118	0,115
-268,555	79,685	-0,114	0,090
-267,540	-200,000	0,005	-0,049
-266,526	-200,000	-0,013	-0,091
-265,511	-200,000	-0,020	-0,144
-264,497	800,000	-0,019	0,058
-263,482	-108,735	0,088	0,014
-262,467	-200,000	0,020	0,078
-261,453	121,471	0,060	0,055
-260,438	229,063	0,028	0,033
-259,424	-59,284	-0,151	-0,047
-258,409	388,987	-0,042	0,064
-257,395	-84,956	-0,055	0,013
-256,380	230,145	0,092	0,110
-255,365	83,566	0,092	-0,073
-254,351	-200,000	-0,001	0,060
-253,336	122,906	-0,030	0,027
-252,322	-41,453	-0,092	-0,034
-251,307	115,864	-0,083	0,075
-250,292	-65,833	0,161	-0,047
-249,278	-200,000	0,010	-0,054
-248,263	800,000	-0,007	0,018
-247,249	-143,641	-0,065	-0,004
-246,234	25,504	-0,076	-0,046
-245,219	-58,151	-0,156	-0,049
-244,205	-55,920	0,021	0,007
-243,190	265,114	0,113	-0,145
-242,176	-118,462	0,038	0,005
-241,161	492,160	0,049	0,082
-240,146	-200,000	0,017	-0,066
-239,132	-130,606	-0,054	-0,005
-238,117	509,507	-0,044	-0,075
-237,103	-67,583	0,187	-0,053
-236,088	-200,000	-0,012	-0,080
-235,073	-88,375	0,076	-0,016
-234,059	201,562	0,116	0,131
-233,044	329,287	-0,065	0,091
-232,030	183,176	-0,088	0,095
-231,015	800,000	-0,013	-0,037
-230,000	337,415	0,036	-0,052
-228,986	-42,159	-0,052	0,019
-227,971	-200,000	0,035	0,131
-226,957	-45,859	0,057	0,020
-225,942	8,856	0,049	0,027
-224,927	-169,158	-0,078	-0,002
-223,913	-200,000	0,013	-0,089
-222,898	-150,973	-0,174	-0,009
-221,884	82,733	0,037	0,029
-220,869	0,661	0,107	0,056
-219,855	-105,103	-0,059	0,010
-218,840	54,619	0,073	0,051
-217,825	190,707	-0,087	-0,096
-216,811	-159,016	-0,074	0,003
-215,796	250,309	0,029	-0,037
-214,782	-200,000	0,014	-0,071
-213,767	211,910	0,085	0,098
-212,752	-200,000	-0,002	0,077
-211,738	-21,859	0,050	-0,022
-210,723	5,286	0,100	-0,054
-209,709	76,474	-0,092	-0,071
-208,694	800,000	0,062	-0,167
-207,679	253,122	0,077	-0,097
-206,665	800,000	-0,054	0,134
-205,650	306,609	0,056	-0,076
-204,636	-102,437	-0,044	0,008
-203,621	45,651	0,096	-0,065
-202,606	17,664	-0,057	0,033
-201,592	224,551	-0,070	0,083
-200,577	-13,798	-0,026	-0,012
-199,563	-200,000	0,028	0,094
-198,548	6,060	-0,052	-0,028
-197,533	-75,916	0,031	0,008
-196,519	26,939	0,056	0,034
-195,504	800,000	-0,027	-0,066
-194,490	-200,000	0,009	0,048
-193,475	424,773	-0,054	-0,084
-192,460	-200,000	-0,007	-0,024
-191,446	73,687	-0,144	-0,110
-190,431	-164,162	0,074	0,002
-189,417	-43,284	0,119	0,044
-188,402	536,454	-0,013	-0,023
-187,387	-152,594	-0,142	-0,007
-186,373	611,616	-0,043	0,079
-185,358	67,021	-0,086	-0,064
-184,344	415,394	-0,106	0,165
-183,329	-58,710	0,162	-0,051
-182,315	33,854	0,118	0,075
-181,300	339,975	0,037	-0,052
-180,285	-3,984	-0,114	-0,058
-179,271	292,890	0,061	-0,082
-178,256	629,504	0,047	-0,088
-177,242	311,974	-0,016	-0,021
-176,227	-96,568	0,076	0,015
-175,212	800,000	0,069	0,153
-174,198	398,915	0,034	0,053
-173,183	-12,258	-0,086	0,041
-172,169	-200,000	-0,010	-0,065
-171,154	569,076	-0,035	-0,062
-170,139	-93,103	0,075	-0,015
-169,125	-112,518	0,090	0,013
-168,110	337,761	0,032	-0,045
-167,096	-59,078	0,011	0,003
-166,081	-72,623	0,217	-0,058
-165,066	-84,606	-0,136	-0,031
-164,052	-88,229	-0,071	-0,015
-163,037	133,726	0,104	0,098
-162,023	-80,095	0,068	-0,017
-161,008	397,852	-0,060	0,092
-159,993	-65,724	-0,113	0,033
-158,979	332,139	0,048	0,067
-157,964	-20,770	-0,058	-0,026
-156,950	-29,773	-0,073	-0,030
-155,935	219,676	-0,073	-0,085
-154,920	110,376	-0,096	0,084
-153,906	-200,000	0,009	-0,047
-152,891	-77,602	-0,039	-0,010
-151,877	-123,332	0,105	-0,012
-150,862	-117,856	-0,100	-0,013
-149,847	800,000	-0,053	-0,117
-148,833	800,000	-0,043	0,107
-147,818	-45,437	-0,048	-0,017
-146,804	-35,415	-0,077	-0,030
-145,789	357,044	-0,101	-0,147
-144,775	442,741	0,034	-0,054
-143,760	752,215	-0,010	0,019
-142,745	-60,189	0,138	0,043
-141,731	223,895	0,050	0,059
-140,716	-49,931	0,067	-0,023
-139,702	78,152	0,055	-0,043
-138,687	166,737	0,056	-0,057
-137,672	-40,090	-0,017	0,007
-136,658	800,000	-0,063	-0,132
-135,643	800,000	-0,034	0,082
-134,629	37,177	0,095	0,061
-133,614	-1,534	-0,100	0,051
-132,599	631,131	-0,027	0,050
-131,585	300,573	0,026	-0,035
-130,570	-126,633	0,124	-0,013
-129,556	334,646	0,049	-0,069
-128,541	-57,031	-0,080	-0,026
-127,526	270,004	-0,045	0,058
-126,512	-200,000	0,025	-0,098
-125,497	-90,041	-0,044	-0,009
-124,483	-164,474	0,041	-0,001
-123,468	800,000	0,034	0,085
-122,453	259,046	-0,001	-0,001
-121,439	-85,582	-0,038	0,009
-120,424	557,947	-0,077	-0,135
-119,410	-200,000	-0,013	0,081
