DTS Sentinel unit serial number:	SN410029Multiplexer serial number:	ORYXHardware model number:	OX2-SRSoftware version number:	ORYX F/W v4,00 Oryx Data Collector v3.7.2.0data status	okinstallation	B6 Nyhavnadifferential loss correction	single-endedforward channel	channel 2reverse channel	N/Adate	2023/12/09time	02:20:08forward acquisition time	300,00reverse acquisition time	0,00gamma	499,1914k internal	0,3156k external	0,3156temperature offset calibration	1,0000default loss term (dB/km)	0,3820temperature slope calibration	1,0000multiplexer offset coefficient	1,0000multiplexer slope coefficient	1,0000fibre end	0,00T internal ref (°C)	15,97T ext. ref 1 (°C)	-0,28T ext. ref 2 (°C)	-0,29length (m)	temperature (°C)	Stokes	anti-Stokes-744,400	196,449	0,137	0,155
-743,385	-40,428	-0,272	0,104
-742,371	-117,111	0,202	0,027
-741,356	-4,468	-0,252	-0,128
-740,342	-112,094	0,080	0,012
-739,327	-103,857	-0,121	0,021
-738,312	-81,495	0,099	0,024
-737,298	-77,512	-0,312	-0,079
-736,283	-21,768	0,174	-0,078
-735,269	-101,416	-0,150	0,027
-734,254	-27,522	0,111	0,047
-733,239	-37,523	-0,492	-0,193
-732,225	-115,823	0,153	-0,021
-731,210	108,013	0,080	-0,070
-730,196	334,350	0,006	0,009
-729,181	127,372	-0,020	-0,018
-728,167	124,807	-0,089	0,083
-727,152	-200,000	0,007	0,040
-726,137	-116,585	-0,139	0,019
-725,123	800,000	-0,070	-0,180
-724,108	21,071	0,096	-0,057
-723,094	800,000	-0,082	-0,202
-722,079	800,000	-0,048	0,098
-721,064	-87,548	-0,078	-0,017
-720,050	270,302	-0,046	0,060
-719,035	-45,067	-0,090	-0,033
-718,021	466,186	-0,041	0,068
-717,006	800,000	-0,042	-0,117
-715,991	-80,785	-0,142	-0,034
-714,977	715,719	-0,077	-0,152
-713,962	800,000	0,032	-0,084
-712,948	390,821	-0,026	-0,040
-711,933	-200,000	0,012	-0,125
-710,918	-138,552	0,108	-0,009
-709,904	-152,656	-0,040	-0,002
-708,889	800,000	-0,043	-0,121
-707,875	800,000	0,072	-0,205
-706,860	222,542	-0,061	-0,073
-705,845	20,187	0,114	0,067
-704,831	-183,649	-0,145	-0,002
-703,816	800,000	-0,011	-0,033
-702,802	163,245	-0,043	-0,045
-701,787	754,170	-0,047	-0,094
-700,772	96,152	0,025	-0,021
-699,758	-159,268	-0,074	0,003
-698,743	800,000	0,079	0,204
-697,729	-200,000	0,011	0,113
-696,714	603,586	0,033	-0,060
-695,699	800,000	-0,041	0,108
-694,685	105,265	-0,110	-0,096
-693,670	-49,312	-0,101	0,035
-692,656	-82,018	0,166	-0,040
-691,641	339,125	-0,040	0,057
-690,627	600,783	-0,031	0,057
-689,612	-200,000	-0,041	0,161
-688,597	-200,000	0,016	-0,054
-687,583	-16,720	0,177	-0,082
-686,568	19,730	-0,046	-0,027
-685,554	208,600	0,075	-0,087
-684,539	35,780	-0,148	0,096
-683,524	800,000	-0,014	-0,045
-682,510	800,000	0,019	-0,040
-681,495	18,432	-0,047	-0,027
-680,481	65,976	-0,071	-0,053
-679,466	241,266	-0,086	-0,106
-678,451	-200,000	0,044	-0,153
-677,437	89,760	-0,092	0,075
-676,422	-104,271	0,076	-0,013
-675,408	-1,551	0,096	-0,049
-674,393	-88,427	-0,051	-0,011
-673,378	-19,203	-0,138	0,063
-672,364	-23,952	-0,120	-0,053
-671,349	800,000	-0,072	-0,229
-670,335	-200,000	-0,006	-0,022
-669,320	798,422	0,022	0,044
-668,305	-105,650	-0,044	-0,007
-667,291	-200,000	-0,008	-0,026
-666,276	384,855	-0,090	0,136
-665,262	-58,568	0,079	0,025
-664,247	800,000	0,018	0,046
-663,232	-200,000	0,000	-0,009
-662,218	137,658	0,063	-0,061
-661,203	-200,000	-0,019	-0,090
-660,189	-22,565	0,101	0,045
-659,174	-200,000	0,009	-0,146
-658,159	108,587	-0,169	-0,148
-657,145	448,362	0,046	-0,074
-656,130	25,575	-0,027	0,017
-655,116	-183,063	0,070	-0,001
-654,101	800,000	-0,018	0,049
-653,086	-200,000	0,001	0,069
-652,072	-113,231	0,031	-0,004
-651,057	-200,000	-0,040	-0,167
-650,043	177,037	0,030	0,032
-649,028	315,909	-0,043	-0,059
-648,014	-200,000	0,022	0,138
-646,999	21,682	0,056	0,033
-645,984	-200,000	-0,037	0,141
-644,970	-200,000	-0,013	-0,072
-643,955	-16,461	-0,099	-0,046
-642,941	343,906	0,013	-0,018
-641,926	-12,786	0,084	0,040
-640,911	-157,873	-0,041	-0,002
-639,897	232,612	0,071	-0,086
-638,882	321,834	0,035	0,049
-637,868	22,372	0,053	-0,032
-636,853	229,324	-0,059	-0,071
-635,838	-70,834	-0,039	0,011
-634,824	-72,618	-0,183	-0,049
-633,809	800,000	-0,011	0,035
-632,795	81,533	-0,048	-0,038
-631,780	-141,349	-0,040	-0,003
-630,765	-200,000	0,016	0,000
-629,751	608,627	-0,064	-0,117
-628,736	458,059	-0,099	-0,163
-627,722	38,056	-0,061	-0,040
-626,707	800,000	0,025	-0,063
-625,692	-83,798	0,096	0,022
-624,678	-31,701	-0,107	-0,044
-623,663	-200,000	-0,009	0,162
-622,649	800,000	0,052	0,112
-621,634	380,706	-0,038	-0,057
-620,619	9,147	-0,061	0,034
-619,605	-178,868	0,050	0,001
-618,590	800,000	0,038	-0,090
-617,576	-139,962	0,148	-0,011
-616,561	215,578	-0,037	-0,044
-615,546	800,000	-0,029	-0,062
-614,532	-200,000	-0,032	-0,117
-613,517	-200,000	-0,005	-0,115
-612,503	-6,217	0,086	-0,043
-611,488	800,000	0,027	0,085
-610,474	-20,293	-0,069	0,031
-609,459	199,269	-0,037	-0,042
-608,444	-200,000	-0,005	0,093
-607,430	34,740	-0,172	-0,110
-606,415	518,203	-0,006	-0,010
-605,401	-66,074	0,057	0,017
-604,386	532,881	0,057	0,099
-603,371	800,000	-0,016	0,034
-602,357	69,597	0,036	-0,027
-601,342	798,969	-0,075	-0,152
-600,328	800,000	0,042	-0,105
-599,313	-10,356	-0,060	0,029
-598,298	404,163	0,039	-0,061
-597,284	800,000	0,013	0,026
-596,269	-200,000	0,007	0,028
-595,255	-113,636	0,110	-0,016
-594,240	-54,540	-0,052	-0,017
-593,225	-75,637	-0,181	-0,047
-592,211	-200,000	-0,026	0,133
-591,196	17,088	0,069	-0,040
-590,182	-200,000	-0,000	-0,114
-589,167	539,817	0,070	0,122
-588,152	96,319	-0,046	-0,039
-587,138	-13,335	-0,046	0,022
-586,123	-200,000	0,006	-0,061
-585,109	-152,079	-0,147	0,008
-584,094	800,000	0,025	0,062
-583,079	800,000	0,043	0,100
-582,065	0,638	0,135	0,071
-581,050	300,501	0,058	0,078
-580,036	579,243	-0,050	0,090
-579,021	800,000	-0,030	0,068
-578,006	639,704	0,043	-0,081
-576,992	-111,781	-0,124	-0,018
-575,977	196,235	0,037	-0,041
-574,963	-77,323	0,104	0,026
-573,948	800,000	0,051	-0,166
-572,934	18,583	-0,060	0,035
-571,919	-110,905	0,089	0,013
-570,904	-44,999	-0,088	-0,032
-569,890	-200,000	-0,003	-0,013
-568,875	800,000	0,027	0,059
-567,861	52,358	-0,054	-0,038
-566,846	-200,000	0,016	0,081
-565,831	800,000	-0,033	-0,083
-564,817	-45,127	-0,068	-0,024
-563,802	-200,000	0,007	-0,084
-562,788	152,897	-0,068	0,069
-561,773	53,683	0,052	-0,036
-560,758	159,281	0,086	0,088
-559,744	-200,000	0,013	0,137
-558,729	-0,643	0,055	-0,028
-557,715	131,191	-0,064	-0,061
-556,700	159,713	-0,075	0,077
-555,685	-64,470	-0,071	0,021
-554,671	322,967	0,088	0,123
-553,656	455,653	0,052	-0,084
-552,642	-102,892	0,160	0,028
-551,627	-108,610	-0,132	0,021
-550,612	800,000	-0,022	0,058
-549,598	-57,136	-0,145	0,047
-548,583	-6,282	-0,002	0,001
-547,569	-200,000	-0,016	0,079
-546,554	-200,000	0,002	-0,180
-545,539	-21,043	-0,088	0,039
-544,525	79,386	0,042	-0,033
-543,510	521,967	0,018	-0,030
-542,496	-19,773	-0,159	0,072
-541,481	-9,902	-0,098	-0,048
-540,466	767,717	-0,051	-0,103
-539,452	-39,168	-0,028	0,011
-538,437	-165,210	0,066	-0,002
-537,423	-200,000	0,029	0,096
-536,408	52,227	-0,052	0,036
-535,393	-200,000	-0,028	-0,192
-534,379	-200,000	-0,002	-0,073
-533,364	151,347	-0,061	0,061
-532,350	-200,000	0,012	0,081
-531,335	-13,075	-0,047	-0,022
-530,321	-155,231	0,126	-0,006
-529,306	-200,000	0,001	-0,072
-528,291	153,299	-0,076	-0,076
-527,277	185,345	-0,031	-0,033
-526,262	245,479	-0,034	-0,042
-525,248	800,000	0,032	0,077
-524,233	-4,067	-0,030	0,015
-523,218	800,000	-0,041	-0,088
-522,204	800,000	0,032	-0,087
-521,189	52,543	-0,094	-0,065
-520,175	-144,749	-0,244	-0,016
-519,160	-148,396	-0,066	-0,004
-518,145	-75,333	-0,018	-0,005
-517,131	198,910	-0,023	0,026
-516,116	800,000	0,024	0,060
-515,102	77,139	-0,110	0,085
-514,087	-200,000	-0,003	0,030
-513,072	-166,491	-0,127	-0,004
-512,058	-200,000	0,011	0,055
-511,043	69,806	-0,005	-0,004
-510,029	213,804	0,028	-0,032
-509,014	70,385	0,064	0,048
-507,999	-38,442	-0,147	-0,057
-506,985	-29,040	0,088	0,037
-505,970	169,274	0,099	-0,103
-504,956	-200,000	0,013	-0,139
-503,941	185,094	0,046	-0,050
-502,926	-200,000	0,015	0,124
-501,912	-200,000	-0,012	-0,129
-500,897	800,000	-0,008	-0,017
-499,883	-118,523	0,043	-0,005
-498,868	-15,301	0,056	-0,026
-497,853	70,145	-0,041	-0,031
-496,839	-200,000	0,004	-0,196
-495,824	591,592	0,070	-0,127
-494,810	-200,000	0,006	0,120
-493,795	800,000	-0,017	-0,041
-492,781	234,295	0,044	-0,054
-491,766	-200,000	0,010	-0,173
-490,751	-93,996	-0,148	0,029
-489,737	-15,006	0,156	-0,073
-488,722	-200,000	0,010	0,055
-487,708	138,825	0,096	-0,092
-486,693	-62,257	-0,111	-0,034
-485,678	1,502	-0,102	0,053
-484,664	60,163	-0,036	0,026
-483,649	800,000	-0,049	-0,123
-482,635	-200,000	-0,000	-0,053
-481,620	67,907	-0,064	0,047
-480,605	258,011	-0,120	0,151
-479,591	-200,000	-0,011	0,111
-478,576	166,810	0,080	0,083
-477,562	-161,413	-0,092	-0,003
-476,547	-87,882	-0,062	-0,013
-475,532	-200,000	0,006	0,022
-474,518	16,612	-0,029	-0,017
-473,503	448,900	0,054	-0,087
-472,489	243,524	-0,065	0,080
-471,474	-110,625	0,084	0,013
-470,459	219,612	0,079	0,093
-469,445	-30,469	0,082	-0,034
-468,430	800,000	-0,037	0,085
-467,416	-200,000	-0,014	0,103
-466,401	538,781	0,062	-0,107
-465,386	-200,000	-0,003	-0,149
-464,372	-74,011	-0,066	0,017
-463,357	320,425	0,037	-0,051
-462,343	-70,204	-0,112	-0,031
-461,328	31,940	-0,108	0,068
-460,313	-27,271	0,126	0,053
-459,299	-13,571	0,140	0,066
-458,284	-99,533	0,093	0,017
-457,270	-180,437	-0,084	-0,001
-456,255	497,042	0,051	-0,086
-455,241	-97,248	0,069	-0,013
-454,226	-12,785	-0,063	-0,030
-453,211	205,484	0,100	0,113
-452,197	-77,488	0,126	0,032
-451,182	224,152	0,050	0,059
-450,168	-200,000	0,003	-0,126
-449,153	-133,905	0,040	-0,004
-448,138	-168,501	-0,165	0,005
-447,124	525,869	0,031	-0,054
-446,109	-33,240	0,094	-0,038
-445,095	-200,000	-0,026	0,105
-444,080	18,401	0,039	0,022
-443,065	481,434	-0,014	0,023
-442,051	-132,016	0,052	-0,005
-441,036	-85,554	-0,138	0,031
-440,022	65,216	-0,064	-0,047
-439,007	-127,763	0,070	0,007
-437,992	800,000	0,031	-0,085
-436,978	-58,306	0,128	-0,040
-435,963	-200,000	0,006	0,020
-434,949	99,415	-0,094	0,079
-433,934	-200,000	-0,002	0,028
-432,919	800,000	0,020	0,050
-431,905	-200,000	0,008	-0,077
-430,890	-97,539	0,028	-0,005
-429,876	-32,666	0,161	0,065
-428,861	-200,000	0,009	0,148
-427,846	130,118	0,097	-0,091
-426,832	-42,909	0,098	0,036
-425,817	800,000	0,015	0,036
-424,803	-200,000	-0,006	-0,156
-423,788	800,000	0,048	0,104
-422,773	-65,268	0,080	0,023
-421,759	-200,000	0,002	-0,021
-420,744	-47,482	-0,095	0,033
-419,730	-43,384	0,059	0,021
-418,715	-131,712	-0,061	-0,006
-417,701	-144,588	-0,067	-0,004
-416,686	94,032	-0,057	-0,047
-415,671	-97,371	0,046	0,009
-414,657	63,806	-0,087	0,064
-413,642	-200,000	-0,017	-0,108
-412,628	29,475	0,059	0,037
-411,613	4,475	-0,015	0,008
-410,598	164,248	-0,026	0,026
-409,584	-118,661	0,066	-0,008
-408,569	109,714	0,053	-0,046
-407,555	-200,000	-0,025	-0,089
-406,540	696,262	-0,013	-0,026
-405,525	-132,761	-0,084	-0,008
-404,511	-44,443	-0,046	0,017
-403,496	730,116	0,080	-0,156
-402,482	275,656	-0,047	-0,061
-401,467	368,137	0,045	0,066
-400,452	212,003	-0,058	0,066
-399,438	254,693	-0,029	0,036
-398,423	554,141	-0,056	0,099
-397,409	-200,000	0,018	-0,092
-396,394	-200,000	0,007	-0,086
-395,379	154,308	0,041	-0,041
-394,365	200,525	0,039	-0,044
-393,350	54,290	-0,069	0,048
-392,336	800,000	0,026	0,053
-391,321	-27,003	0,087	-0,037
-390,306	-79,397	-0,076	0,019
-389,292	-200,000	-0,037	-0,171
-388,277	800,000	-0,021	-0,050
-387,263	800,000	-0,023	-0,073
-386,248	-46,497	0,079	0,028
-385,233	-95,667	-0,116	-0,022
-384,219	-200,000	0,004	0,170
-383,204	-200,000	0,021	0,123
-382,190	37,207	-0,013	0,008
-381,175	-64,036	0,227	-0,067
-380,160	-200,000	-0,022	-0,084
-379,146	-200,000	-0,029	0,093
-378,131	-41,753	0,098	0,036
-377,117	-128,774	-0,087	-0,009
-376,102	181,118	-0,075	0,080
-375,088	45,199	0,070	0,047
-374,073	-136,550	0,111	-0,009
-373,058	-27,573	0,024	-0,010
-372,044	-8,088	0,156	0,076
-371,029	-200,000	-0,017	0,161
-370,015	-57,668	0,063	0,020
-369,000	-200,000	-0,001	0,050
-367,985	-123,943	0,057	-0,006
-366,971	800,000	-0,018	0,037
-365,956	277,857	-0,096	-0,124
-364,942	65,368	-0,122	0,090
-363,927	-139,823	-0,073	-0,006
-362,912	-179,027	0,097	-0,002
-361,898	-35,534	-0,153	-0,060
-360,883	39,966	-0,084	0,055
-359,869	-35,304	0,172	-0,068
-358,854	-54,688	0,055	0,018
-357,839	199,015	-0,051	0,057
-356,825	-200,000	0,008	0,112
-355,810	477,723	0,044	0,073
-354,796	-200,000	-0,010	-0,042
-353,781	116,176	0,085	-0,076
-352,766	25,745	-0,022	-0,013
-351,752	-125,778	0,113	0,012
-350,737	478,258	0,125	0,207
-349,723	649,616	0,042	0,078
-348,708	629,737	0,098	0,181
-347,693	-49,720	-0,062	-0,021
-346,679	213,870	-0,074	-0,085
-345,664	800,000	0,058	-0,138
-344,650	-53,695	0,064	0,021
-343,635	-84,879	-0,097	0,022
-342,620	-101,559	-0,064	-0,011
-341,606	-200,000	-0,031	0,130
-340,591	-200,000	0,012	0,054
-339,577	-122,813	0,034	-0,004
-338,562	-200,000	-0,026	0,124
-337,548	155,679	0,064	-0,064
-336,533	120,261	0,093	0,084
-335,518	128,390	-0,094	0,087
-334,504	-200,000	0,035	0,122
-333,489	57,397	0,101	0,071
-332,475	-79,727	-0,042	-0,010
-331,460	-200,000	0,007	0,027
-330,445	800,000	0,078	0,202
-329,431	124,307	-0,146	0,133
-328,416	-112,494	0,018	-0,003
-327,402	318,214	-0,079	0,109
-326,387	289,275	0,067	-0,088
-325,372	-200,000	-0,027	-0,097
-324,358	-32,240	-0,156	-0,063
-323,343	43,219	-0,046	-0,031
-322,329	-200,000	0,011	0,110
-321,314	676,459	0,019	-0,035
-320,299	-139,233	-0,102	0,008
-319,285	800,000	0,048	0,105
-318,270	-200,000	-0,013	-0,073
-317,256	-24,237	-0,131	0,057
-316,241	-101,368	-0,013	-0,002
-315,226	212,992	-0,023	-0,026
-314,212	93,894	-0,042	0,035
-313,197	-167,762	-0,102	-0,003
-312,183	-125,391	-0,097	0,011
-311,168	-81,465	-0,037	0,009
-310,153	-70,831	-0,043	0,012
-309,139	-31,050	-0,041	-0,017
-308,124	-200,000	0,039	-0,163
-307,110	113,295	0,091	-0,080
-306,095	87,812	0,111	0,089
-305,080	43,195	0,126	0,083
-304,066	800,000	-0,056	0,119
-303,051	138,848	-0,041	0,039
-302,037	-200,000	-0,018	-0,067
-301,022	13,639	-0,088	0,049
-300,008	185,746	0,066	0,071
-298,993	121,657	0,056	0,050
-297,978	-117,732	0,038	0,005
-296,964	-200,000	0,008	-0,138
-295,949	30,255	-0,088	0,054
-294,935	159,493	-0,128	0,129
-293,920	-192,991	0,063	0,000
-292,905	-200,000	0,005	-0,062
-291,891	82,999	-0,098	0,077
-290,876	-4,486	0,126	-0,063
-289,862	-80,634	-0,108	-0,026
-288,847	43,688	0,034	-0,023
-287,832	-200,000	-0,001	-0,049
-286,818	-124,493	0,162	-0,018
-285,803	355,886	-0,088	0,127
-284,789	427,348	-0,079	-0,124
-283,774	462,384	0,065	0,106
-282,759	-141,871	-0,061	-0,004
-281,745	-28,301	-0,059	-0,025
-280,730	112,408	0,098	-0,086
-279,716	800,000	-0,043	0,111
-278,701	720,651	0,051	0,098
-277,686	-8,399	0,063	0,031
-276,672	10,267	0,112	-0,062
-275,657	-44,041	0,060	0,022
-274,643	-200,000	-0,006	0,114
-273,628	184,942	-0,026	0,028
-272,613	-200,000	-0,003	0,009
-271,599	-131,639	0,056	0,005
-270,584	71,918	0,014	0,011
-269,570	-200,000	0,008	0,105
-268,555	384,263	-0,035	-0,053
-267,540	-1,662	-0,012	0,006
-266,526	-107,429	0,136	-0,021
-265,511	103,133	-0,023	0,020
-264,497	11,281	0,128	0,071
-263,482	538,052	0,016	0,028
-262,467	11,032	-0,088	-0,049
-261,453	-33,996	0,069	0,028
-260,438	-168,696	0,123	0,003
-259,424	265,433	-0,142	-0,180
-258,409	-200,000	0,009	-0,053
-257,395	3,650	0,055	-0,029
-256,380	489,563	-0,045	-0,074
-255,365	-72,475	-0,032	-0,009
-254,351	-145,796	-0,100	-0,006
-253,336	-40,427	0,072	0,027
-252,322	178,696	-0,113	-0,120
-251,307	362,986	0,036	0,052
-250,292	-115,846	0,153	0,020
-249,278	-94,649	-0,086	-0,017
-248,263	-200,000	0,016	0,072
-247,249	-116,699	0,158	0,021
-246,234	-200,000	-0,015	0,054
-245,219	-168,662	0,071	0,002
-244,205	-37,859	0,046	0,017
-243,190	106,065	0,060	-0,051
-242,176	-3,201	0,083	-0,042
-241,161	-200,000	0,000	-0,031
-240,146	12,937	0,062	-0,034
-239,132	-12,578	-0,076	-0,036
-238,117	-200,000	0,000	0,033
-237,103	-166,793	-0,189	-0,006
-236,088	167,078	-0,045	-0,046
-235,073	108,900	0,056	0,049
-234,059	-48,268	0,042	0,014
-233,044	-200,000	-0,020	0,082
-232,030	44,041	-0,056	0,037
-231,015	14,459	0,059	0,033
-230,000	-200,000	-0,015	-0,058
-228,986	421,137	0,055	-0,085
-227,971	177,927	0,071	-0,075
-226,957	-200,000	-0,007	0,039
-225,942	800,000	0,028	0,070
-224,927	800,000	0,039	-0,115
-223,913	221,361	-0,103	-0,120
-222,898	800,000	-0,038	-0,097
-221,884	-200,000	-0,016	-0,083
-220,869	-124,821	0,138	-0,015
-219,855	-32,938	0,048	0,019
-218,840	800,000	-0,035	0,073
-217,825	250,101	-0,064	0,079
-216,811	718,058	0,064	-0,124
-215,796	289,122	-0,158	-0,207
-214,782	-2,009	0,130	0,066
-213,767	800,000	0,026	0,068
-212,752	-169,769	0,111	-0,003
-211,738	-75,852	-0,058	-0,015
-210,723	-200,000	-0,034	-0,128
-209,709	-200,000	0,002	0,040
-208,694	135,490	-0,054	0,051
-207,679	-100,760	-0,084	0,015
-206,665	-200,000	-0,025	-0,120
-205,650	800,000	0,016	0,042
-204,636	-200,000	-0,017	0,056
-203,621	-63,239	-0,128	-0,038
-202,606	-200,000	-0,026	-0,213
-201,592	800,000	0,040	-0,126
-200,577	347,917	-0,063	-0,090
-199,563	-200,000	0,017	0,096
-198,548	-14,160	0,125	0,058
-197,533	-54,972	0,101	-0,033
-196,519	166,096	-0,036	-0,037
-195,504	-200,000	-0,020	-0,090
-194,490	800,000	0,016	0,033
-193,475	6,439	0,101	0,054
-192,460	-128,982	0,076	0,008
-191,446	296,642	0,025	-0,034
-190,431	-200,000	-0,013	0,133
-189,417	123,173	0,066	0,060
-188,402	-200,000	0,015	-0,108
-187,387	108,082	-0,210	0,180
-186,373	284,622	0,090	0,118
-185,358	682,004	0,018	0,034
-184,344	-71,649	0,152	0,041
-183,329	-200,000	0,021	0,121
-182,315	-200,000	-0,028	0,090
-181,300	527,126	0,043	0,073
-180,285	800,000	0,061	-0,135
-179,271	265,504	-0,065	-0,083
-178,256	229,758	-0,057	-0,068
-177,242	-101,768	0,107	0,019
-176,227	-8,455	-0,036	0,017
-175,212	290,994	0,106	-0,140
-174,198	564,948	0,053	-0,093
-173,183	-200,000	-0,006	-0,066
-172,169	-174,674	-0,058	0,001
-171,154	37,690	-0,115	-0,074
-170,139	-200,000	0,023	0,084
-169,125	393,050	0,032	0,049
-168,110	-80,294	0,117	-0,028
-167,096	-60,899	-0,119	0,036
-166,081	374,213	-0,024	-0,035
-165,066	-82,648	-0,138	0,032
-164,052	-200,000	0,000	-0,069
-163,037	79,207	0,114	-0,088
-162,023	-99,498	0,029	0,005
-161,008	4,170	-0,117	0,062
-159,993	-69,826	0,085	0,023
-158,979	800,000	0,029	-0,074
-157,964	800,000	-0,067	-0,139
-156,950	-200,000	-0,023	-0,145
-155,935	321,572	0,029	0,039
-154,920	-200,000	0,021	0,119
-153,906	-200,000	0,024	0,264
-152,891	-67,473	0,027	0,008
-151,877	159,034	0,087	0,087
-150,862	2,855	-0,105	-0,055
-149,847	90,335	0,077	0,062
-148,833	-200,000	-0,010	-0,035
-147,818	-200,000	-0,005	-0,020
-146,804	-46,583	-0,044	-0,016
-145,789	-173,240	0,117	-0,003
-144,775	-57,493	-0,033	-0,011
-143,760	-200,000	-0,004	0,095
-142,745	-200,000	-0,035	-0,136
-141,731	-200,000	-0,022	0,081
-140,716	-84,548	0,083	-0,019
-139,702	-89,776	0,062	0,013
-138,687	-79,966	-0,069	-0,016
-137,672	-62,341	0,136	0,040
-136,658	-19,591	0,055	-0,024
-135,643	65,709	0,092	0,067
-134,629	-125,107	-0,048	-0,005
-133,614	-200,000	0,031	-0,178
-132,599	-200,000	-0,005	-0,071
-131,585	42,982	0,059	-0,039
-130,570	125,111	0,012	0,011
-129,556	-200,000	-0,005	-0,018
-128,541	-200,000	0,038	-0,142
-127,526	-17,931	-0,189	-0,085
-126,512	-184,341	0,052	0,001
-125,497	66,338	-0,127	0,093
-124,483	-200,000	0,000	0,076
-123,468	-200,000	-0,008	-0,055
-122,453	-200,000	0,007	0,086
-121,439	-41,838	0,067	-0,025
-120,424	-200,000	0,008	0,035
