DTS Sentinel unit serial number:	SN410029Multiplexer serial number:	ORYXHardware model number:	OX2-SRSoftware version number:	ORYX F/W v4,00 Oryx Data Collector v3.7.2.0data status	okinstallation	B6 Nyhavnadifferential loss correction	single-endedforward channel	channel 2reverse channel	N/Adate	2023/12/08time	12:25:09forward acquisition time	300,00reverse acquisition time	0,00gamma	499,1914k internal	0,3159k external	0,3159temperature offset calibration	1,0000default loss term (dB/km)	0,3820temperature slope calibration	1,0000multiplexer offset coefficient	1,0000multiplexer slope coefficient	1,0000fibre end	0,00T internal ref (°C)	15,06T ext. ref 1 (°C)	-1,48T ext. ref 2 (°C)	-1,49length (m)	temperature (°C)	Stokes	anti-Stokes-744,400	-47,268	0,147	0,052
-743,385	-58,623	-0,300	0,095
-742,371	-14,318	0,130	0,061
-741,356	-25,406	-0,250	0,108
-740,342	800,000	0,049	0,131
-739,327	-146,708	-0,240	0,015
-738,312	-79,593	0,113	-0,028
-737,298	-164,819	-0,172	-0,006
-736,283	16,047	0,107	0,062
-735,269	-122,899	-0,163	-0,019
-734,254	-105,563	0,100	0,016
-733,239	-16,110	-0,567	-0,264
-732,225	-151,979	0,283	0,015
-731,210	-42,802	-0,077	0,029
-730,196	800,000	-0,021	-0,050
-729,181	501,887	-0,055	0,093
-728,167	-200,000	0,043	0,171
-727,152	-200,000	-0,006	-0,079
-726,137	-115,141	-0,146	0,020
-725,123	-200,000	0,038	0,140
-724,108	-44,695	-0,152	0,055
-723,094	149,138	-0,083	-0,082
-722,079	-200,000	-0,032	-0,118
-721,064	800,000	-0,032	0,101
-720,050	-58,777	-0,109	-0,034
-719,035	-83,517	0,087	-0,020
-718,021	431,309	-0,013	0,021
-717,006	-161,085	-0,115	0,004
-715,991	-67,656	-0,166	-0,048
-714,977	162,760	0,043	0,044
-713,962	14,504	-0,074	0,042
-712,948	-67,694	0,143	-0,041
-711,933	-200,000	0,007	-0,047
-710,918	21,083	-0,070	0,042
-709,904	115,965	-0,073	0,066
-708,889	-86,802	-0,124	-0,028
-707,875	-190,096	-0,101	-0,001
-706,860	-200,000	0,003	-0,137
-705,845	-105,621	0,166	-0,027
-704,831	28,886	-0,140	-0,087
-703,816	800,000	-0,080	0,171
-702,802	120,265	0,056	-0,052
-701,787	-18,182	-0,140	-0,064
-700,772	368,943	0,065	-0,096
-699,758	800,000	-0,032	0,100
-698,743	275,040	-0,046	0,060
-697,729	-200,000	-0,002	-0,034
-696,714	137,431	0,088	-0,085
-695,699	20,664	-0,115	0,069
-694,685	-200,000	0,006	-0,154
-693,670	54,766	-0,043	-0,030
-692,656	91,619	-0,048	0,040
-691,641	-107,029	0,030	-0,005
-690,627	-76,687	-0,071	-0,018
-689,612	122,542	0,049	0,045
-688,597	-138,836	-0,118	-0,009
-687,583	-94,217	-0,141	0,028
-686,568	-200,000	-0,069	-0,000
-685,554	-200,000	0,001	-0,113
-684,539	43,088	-0,113	0,075
-683,524	800,000	-0,096	0,223
-682,510	69,698	0,058	0,044
-681,495	272,656	-0,060	-0,078
-680,481	800,000	-0,025	-0,051
-679,466	100,816	-0,039	-0,034
-678,451	180,914	0,086	-0,093
-677,437	-200,000	-0,021	0,071
-676,422	255,015	0,045	-0,057
-675,408	253,926	-0,067	0,085
-674,393	800,000	0,036	0,088
-673,378	-200,000	0,008	-0,097
-672,364	-200,000	-0,028	-0,255
-671,349	-98,526	-0,077	0,014
-670,335	-5,950	-0,071	-0,035
-669,320	45,767	-0,052	0,035
-668,305	800,000	-0,028	-0,071
-667,291	-112,297	0,059	0,009
-666,276	84,208	-0,072	-0,058
-665,262	92,502	-0,148	-0,122
-664,247	-200,000	-0,048	-0,162
-663,232	120,587	-0,034	-0,031
-662,218	32,903	-0,109	0,069
-661,203	2,765	0,141	-0,075
-660,189	-200,000	-0,014	0,078
-659,174	347,714	-0,076	-0,111
-658,159	800,000	-0,029	-0,087
-657,145	574,524	-0,018	0,032
-656,130	-200,000	-0,008	-0,146
-655,116	-58,676	0,196	-0,062
-654,101	171,465	-0,095	-0,101
-653,086	373,543	-0,050	0,074
-652,072	-200,000	0,001	-0,187
-651,057	-92,164	-0,064	-0,013
-650,043	99,471	-0,033	-0,028
-649,028	375,670	-0,032	-0,048
-648,014	-37,947	-0,073	0,028
-646,999	-40,891	-0,042	0,016
-645,984	-137,252	-0,090	0,007
-644,970	800,000	-0,018	-0,048
-643,955	-71,815	-0,088	-0,024
-642,941	84,975	-0,035	0,028
-641,926	-200,000	0,012	0,061
-640,911	-200,000	0,018	-0,061
-639,897	382,837	0,093	0,140
-638,882	-107,059	0,101	-0,016
-637,868	800,000	-0,012	0,025
-636,853	-5,318	-0,123	0,062
-635,838	-169,707	-0,052	0,001
-634,824	-200,000	-0,005	0,084
-633,809	66,281	-0,113	-0,084
-632,795	129,707	-0,065	0,061
-631,780	-101,299	0,107	-0,019
-630,765	-173,355	-0,052	0,001
-629,751	351,509	0,099	-0,145
-628,736	-200,000	0,013	-0,067
-627,722	498,047	-0,023	0,038
-626,707	800,000	-0,050	0,133
-625,692	-200,000	-0,017	0,215
-624,678	194,462	-0,075	0,084
-623,663	-200,000	-0,007	0,026
-622,649	-200,000	-0,022	-0,110
-621,634	656,582	0,050	-0,094
-620,619	-200,000	-0,117	0,000
-619,605	-200,000	0,012	0,119
-618,590	23,283	0,014	0,009
-617,576	584,843	0,049	0,089
-616,561	-200,000	0,002	0,072
-615,546	-200,000	0,018	-0,086
-614,532	-48,949	-0,066	0,023
-613,517	-17,282	-0,115	0,053
-612,503	454,689	0,042	0,068
-611,488	-200,000	-0,003	-0,054
-610,474	260,522	-0,065	0,082
-609,459	-200,000	-0,003	-0,017
-608,444	222,094	0,094	-0,111
-607,430	-130,170	0,061	0,006
-606,415	-200,000	0,009	-0,047
-605,401	143,639	0,095	-0,093
-604,386	130,573	0,046	0,043
-603,371	800,000	-0,041	-0,098
-602,357	-56,838	-0,095	-0,031
-601,342	78,053	-0,057	-0,044
-600,328	433,091	-0,058	-0,093
-599,313	-200,000	0,008	0,079
-598,298	-200,000	-0,013	-0,116
-597,284	392,464	-0,011	0,017
-596,269	-200,000	-0,001	0,035
-595,255	67,516	0,013	0,009
-594,240	-200,000	0,008	0,103
-593,225	-115,018	-0,091	-0,013
-592,211	-200,000	-0,009	-0,094
-591,196	-200,000	-0,014	0,049
-590,182	-75,869	0,100	0,026
-589,167	353,259	0,091	-0,133
-588,152	-55,800	-0,051	-0,016
-587,138	53,244	0,058	-0,041
-586,123	-200,000	0,001	-0,033
-585,109	618,787	0,048	0,088
-584,094	-36,966	-0,067	0,026
-583,079	800,000	0,064	-0,164
-582,065	-64,584	-0,053	-0,016
-581,050	409,784	-0,038	-0,060
-580,036	-163,071	-0,077	0,003
-579,021	-15,894	-0,118	-0,055
-578,006	53,335	0,040	-0,028
-576,992	-200,000	0,032	0,130
-575,977	52,364	0,130	0,091
-574,963	125,892	0,198	0,183
-573,948	510,880	0,055	0,094
-572,934	-200,000	0,001	-0,076
-571,919	-61,616	0,033	-0,010
-570,904	114,897	0,080	-0,071
-569,890	-42,373	0,088	-0,033
-568,875	197,933	0,041	0,046
-567,861	-200,000	-0,025	0,106
-566,846	-200,000	0,006	0,049
-565,831	20,550	0,041	-0,024
-564,817	800,000	0,011	0,032
-563,802	-144,339	-0,096	-0,006
-562,788	136,109	0,027	-0,025
-561,773	79,488	-0,138	0,108
-560,758	800,000	-0,020	0,059
-559,744	249,372	-0,034	-0,042
-558,729	63,468	0,049	-0,036
-557,715	43,966	-0,058	-0,039
-556,700	-144,205	-0,224	-0,015
-555,685	-86,872	0,112	-0,025
-554,671	75,727	0,043	0,034
-553,656	-49,504	-0,060	0,021
-552,642	800,000	0,040	-0,128
-551,627	241,290	-0,043	-0,053
-550,612	-43,285	0,068	0,025
-549,598	-192,180	-0,134	-0,001
-548,583	223,646	-0,080	-0,094
-547,569	800,000	0,020	-0,056
-546,554	75,841	0,084	-0,065
-545,539	44,334	0,058	-0,039
-544,525	-146,502	-0,047	0,003
-543,510	128,708	-0,016	0,015
-542,496	359,218	-0,100	-0,146
-541,481	-200,000	0,006	-0,155
-540,466	15,197	-0,012	-0,007
-539,452	-61,512	0,079	0,024
-538,437	139,116	-0,021	0,021
-537,423	101,933	0,076	0,065
-536,408	800,000	-0,083	-0,186
-535,393	-200,000	-0,014	-0,124
-534,379	82,521	0,018	0,014
-533,364	-200,000	0,010	-0,059
-532,350	244,171	-0,051	0,062
-531,335	243,789	-0,101	-0,124
-530,321	800,000	0,033	0,097
-529,306	-200,000	-0,042	-0,137
-528,291	-200,000	0,007	-0,115
-527,277	-145,922	0,052	0,003
-526,262	-99,862	-0,096	-0,017
-525,248	-200,000	0,007	0,107
-524,233	210,773	-0,054	0,062
-523,218	-22,867	-0,069	-0,030
-522,204	71,521	0,043	-0,033
-521,189	-61,023	-0,029	0,009
-520,175	120,312	0,112	-0,101
-519,160	-94,789	0,033	0,006
-518,145	336,710	0,104	-0,148
-517,131	263,561	0,040	-0,050
-516,116	-122,150	-0,125	0,015
-515,102	-200,000	0,041	0,235
-514,087	124,012	-0,112	-0,103
-513,072	-57,249	-0,043	0,014
-512,058	155,485	0,118	-0,119
-511,043	463,330	-0,034	-0,055
-510,029	-200,000	0,011	-0,185
-509,014	204,591	0,111	-0,125
-507,999	60,820	0,107	0,077
-506,985	778,975	0,012	-0,023
-505,970	299,432	0,061	-0,083
-504,956	-133,565	-0,121	-0,011
-503,941	-200,000	-0,005	-0,123
-502,926	-91,882	0,154	0,032
-501,912	-11,179	0,110	0,053
-500,897	4,737	0,160	-0,085
-499,883	87,300	0,083	-0,067
-498,868	10,540	-0,112	0,062
-497,853	-76,008	-0,081	-0,021
-496,839	-50,151	0,014	-0,005
-495,824	106,506	-0,041	0,036
-494,810	310,044	-0,127	-0,174
-493,795	-129,687	0,154	0,015
-492,781	-0,557	0,102	-0,053
-491,766	-1,758	-0,127	-0,065
-490,751	-200,000	-0,017	-0,104
-489,737	-60,841	0,087	-0,027
-488,722	-84,785	0,116	0,026
-487,708	-84,408	-0,095	0,022
-486,693	-102,713	-0,059	-0,010
-485,678	240,436	0,085	0,104
-484,664	-43,506	0,065	-0,024
-483,649	398,466	0,066	-0,100
-482,635	-5,584	0,128	-0,064
-481,620	-77,097	-0,072	-0,018
-480,605	-200,000	-0,028	0,169
-479,591	800,000	0,059	-0,129
-478,576	800,000	0,003	-0,007
-477,562	800,000	-0,057	-0,164
-476,547	800,000	-0,047	-0,105
-475,532	207,553	0,039	0,044
-474,518	131,877	-0,048	0,045
-473,503	800,000	0,033	0,106
-472,489	-200,000	-0,005	0,039
-471,474	88,797	0,078	0,064
-470,459	-92,737	-0,105	0,021
-469,445	-200,000	-0,017	0,111
-468,430	-200,000	-0,020	-0,075
-467,416	15,116	0,117	-0,066
-466,401	147,890	0,064	0,063
-465,386	-55,237	0,057	-0,019
-464,372	101,257	0,072	0,062
-463,357	-115,974	0,043	-0,006
-462,343	544,137	0,065	-0,114
-461,328	800,000	-0,090	-0,203
-460,313	-200,000	0,004	0,021
-459,299	-200,000	-0,025	0,146
-458,284	386,005	0,074	0,112
-457,270	238,295	0,060	0,073
-456,255	358,850	-0,025	0,037
-455,241	45,975	0,063	0,042
-454,226	-200,000	0,004	-0,046
-453,211	238,586	0,044	-0,054
-452,197	148,936	-0,046	0,045
-451,182	-200,000	0,013	0,132
-450,168	558,614	0,057	0,101
-449,153	-200,000	0,014	0,097
-448,138	800,000	0,062	-0,188
-447,124	-73,488	0,071	-0,019
-446,109	185,964	0,095	0,103
-445,095	613,034	-0,036	0,065
-444,080	-45,320	0,036	0,013
-443,065	274,876	0,029	0,038
-442,051	199,861	-0,083	-0,093
-441,036	149,869	-0,050	0,050
-440,022	386,633	-0,070	0,106
-439,007	722,879	-0,022	-0,042
-437,992	-197,329	0,132	-0,001
-436,978	2,643	0,154	-0,081
-435,963	524,062	-0,035	0,060
-434,949	-200,000	-0,011	0,130
-433,934	223,124	-0,084	0,098
-432,919	-53,390	0,023	-0,008
-431,905	-34,451	-0,126	0,050
-430,890	478,166	-0,022	0,037
-429,876	83,885	0,074	0,059
-428,861	-158,975	-0,031	-0,001
-427,846	-200,000	-0,004	0,143
-426,832	359,045	-0,060	0,087
-425,817	657,084	0,043	-0,081
-424,803	484,957	0,074	-0,123
-423,788	571,038	0,043	-0,077
-422,773	-37,753	0,056	0,022
-421,759	16,669	0,090	0,051
-420,744	-130,109	-0,022	-0,002
-419,730	-123,685	-0,103	0,012
-418,715	-105,006	-0,091	-0,015
-417,701	-200,000	0,008	-0,190
-416,686	800,000	-0,060	0,125
-415,671	-200,000	0,001	0,126
-414,657	260,839	0,070	0,088
-413,642	-131,594	0,044	0,004
-412,628	-126,947	-0,181	0,019
-411,613	-56,967	-0,126	0,040
-410,598	-200,000	0,011	-0,038
-409,584	599,480	0,034	-0,062
-408,569	13,142	0,089	0,050
-407,555	800,000	0,038	0,081
-406,540	-200,000	0,007	-0,096
-405,525	-200,000	0,003	-0,037
-404,511	800,000	0,085	-0,217
-403,496	-113,383	-0,112	0,016
-402,482	-81,082	0,084	0,020
-401,467	-48,193	0,093	0,032
-400,452	140,523	0,157	0,151
-399,438	335,257	0,073	0,103
-398,423	-200,000	-0,010	-0,052
-397,409	800,000	0,032	-0,078
-396,394	-200,000	-0,001	0,012
-395,379	-21,458	-0,138	0,061
-394,365	-200,000	0,112	0,000
-393,350	-154,694	-0,110	-0,005
-392,336	-14,849	0,072	0,033
-391,321	389,275	-0,038	0,058
-390,306	321,969	-0,083	-0,115
-389,292	800,000	0,040	-0,110
-388,277	585,410	-0,012	0,021
-387,263	83,054	0,132	0,104
-386,248	-200,000	-0,001	0,095
-385,233	-200,000	0,003	0,083
-384,219	-153,370	0,103	-0,005
-383,204	-200,000	-0,014	0,118
-382,190	177,802	0,063	0,067
-381,175	-58,529	-0,173	0,054
-380,160	800,000	0,025	0,058
-379,146	-40,094	0,135	0,051
-378,131	-98,131	0,064	0,012
-377,117	-130,774	-0,020	0,002
-376,102	800,000	-0,020	0,054
-375,088	-145,642	-0,080	-0,005
-374,073	-29,075	0,056	-0,023
-373,058	-200,000	0,003	0,100
-372,044	90,254	-0,022	0,018
-371,029	-200,000	0,009	0,103
-370,015	11,219	0,080	-0,044
-369,000	-200,000	-0,010	-0,182
-367,985	-200,000	-0,023	-0,091
-366,971	34,290	0,090	-0,057
-365,956	638,765	0,049	0,090
-364,942	372,357	0,029	0,043
-363,927	86,734	0,063	-0,050
-362,912	395,410	0,036	0,055
-361,898	-17,944	-0,082	-0,037
-360,883	123,984	-0,097	-0,088
-359,869	-79,338	0,025	-0,006
-358,854	800,000	0,048	0,106
-357,839	15,560	0,026	-0,015
-356,825	-200,000	0,011	0,081
-355,810	480,205	0,097	0,160
-354,796	-36,496	0,057	0,022
-353,781	11,492	-0,082	0,045
-352,766	-200,000	0,024	-0,106
-351,752	35,775	-0,108	-0,069
-350,737	800,000	-0,031	0,098
-349,723	-200,000	-0,034	0,119
-348,708	800,000	-0,013	-0,026
-347,693	140,574	-0,124	-0,118
-346,679	-200,000	0,006	-0,137
-345,664	800,000	-0,045	-0,138
-344,650	-157,028	0,116	0,005
-343,635	-119,503	-0,084	-0,010
-342,620	-16,521	0,066	0,030
-341,606	800,000	0,038	0,084
-340,591	-200,000	0,014	0,071
-339,577	800,000	-0,034	-0,093
-338,562	-1,144	0,085	-0,044
-337,548	-200,000	-0,001	-0,028
-336,533	14,927	-0,177	-0,100
-335,518	185,293	0,077	0,083
-334,504	37,421	0,078	0,050
-333,489	478,871	-0,038	0,062
-332,475	-200,000	-0,019	0,103
-331,460	-165,409	-0,019	-0,001
-330,445	-57,566	-0,063	-0,020
-329,431	351,915	-0,033	-0,047
-328,416	641,906	-0,013	0,024
-327,402	195,273	0,066	-0,073
-326,387	17,611	-0,059	0,034
-325,372	-74,217	-0,169	0,044
-324,358	800,000	-0,039	-0,125
-323,343	800,000	0,041	-0,127
-322,329	164,245	0,093	0,095
-321,314	-200,000	-0,033	-0,106
-320,299	-200,000	-0,011	-0,088
-319,285	-168,846	-0,022	0,001
-318,270	-200,000	0,002	0,046
-317,256	-28,926	0,056	0,023
-316,241	-200,000	0,002	0,016
-315,226	800,000	-0,026	0,072
-314,212	-200,000	0,014	0,057
-313,197	-87,562	-0,157	0,034
-312,183	556,630	0,089	0,156
-311,168	-200,000	-0,002	0,117
-310,153	-11,249	-0,066	-0,031
-309,139	800,000	0,021	-0,055
-308,124	-167,097	0,163	0,005
-307,110	800,000	0,055	0,175
-306,095	-70,062	-0,023	0,006
-305,080	450,334	-0,066	-0,107
-304,066	140,432	-0,130	-0,124
-303,051	151,042	-0,079	-0,078
-302,037	591,807	-0,027	0,048
-301,022	-200,000	0,009	-0,068
-300,008	141,514	-0,096	0,092
-298,993	11,032	-0,089	0,049
-297,978	124,182	0,101	-0,092
-296,964	46,655	-0,117	-0,078
-295,949	111,396	-0,134	-0,117
-294,935	-181,998	-0,110	-0,001
-293,920	454,523	-0,045	-0,072
-292,905	620,860	-0,007	-0,013
-291,891	-78,114	0,026	-0,007
-290,876	-14,764	-0,038	0,018
-289,862	-166,604	-0,068	0,002
-288,847	-15,529	0,105	-0,048
-287,832	-96,064	-0,057	-0,011
-286,818	-68,413	-0,061	0,017
-285,803	-200,000	0,043	0,145
-284,789	682,062	-0,035	-0,067
-283,774	-76,323	0,135	0,034
-282,759	225,163	0,109	-0,128
-281,745	-89,698	-0,051	0,011
-280,730	-200,000	-0,017	0,151
-279,716	-158,507	-0,151	-0,006
-278,701	105,388	0,009	-0,008
-277,686	169,438	-0,104	-0,107
-276,672	-129,878	-0,022	-0,002
-275,657	294,860	0,113	-0,150
-274,643	800,000	-0,022	-0,059
-273,628	800,000	0,014	-0,037
-272,613	329,885	-0,111	0,154
-271,599	-200,000	-0,010	-0,067
-270,584	-200,000	0,008	0,079
-269,570	-200,000	0,005	-0,037
-268,555	-74,805	-0,130	-0,033
-267,540	489,896	-0,031	-0,052
-266,526	5,001	-0,098	0,052
-265,511	301,870	0,045	-0,060
-264,497	611,970	0,057	0,104
-263,482	270,978	-0,072	0,091
-262,467	314,423	0,026	-0,035
-261,453	-91,563	0,033	0,007
-260,438	309,947	0,067	0,090
-259,424	-21,056	0,156	-0,069
-258,409	11,926	-0,014	0,008
-257,395	-139,364	0,056	-0,004
-256,380	-98,099	0,077	-0,014
-255,365	-51,167	0,055	0,018
-254,351	68,833	0,029	0,022
-253,336	-52,987	0,068	-0,022
-252,322	154,613	-0,044	0,044
-251,307	44,784	-0,064	-0,042
-250,292	-200,000	-0,015	0,104
-249,278	5,479	0,138	0,073
-248,263	280,331	0,041	-0,053
-247,249	-14,196	0,122	-0,056
-246,234	585,632	-0,065	-0,116
-245,219	-48,217	0,182	-0,063
-244,205	102,830	-0,033	-0,027
-243,190	-200,000	0,003	0,030
-242,176	-57,483	-0,133	-0,042
-241,161	800,000	0,020	0,060
-240,146	29,818	-0,115	0,071
-239,132	-200,000	-0,024	0,149
-238,117	-9,679	0,138	0,066
-237,103	153,697	-0,047	-0,047
-236,088	-18,030	-0,134	-0,060
-235,073	800,000	0,021	0,045
-234,059	177,175	-0,062	0,066
-233,044	-68,539	0,052	0,014
-232,030	524,770	-0,065	-0,111
-231,015	-200,000	-0,016	-0,056
-230,000	-156,800	-0,070	0,003
-228,986	-200,000	-0,004	0,062
-227,971	583,993	0,064	0,115
-226,957	800,000	0,040	-0,120
-225,942	-200,000	0,013	-0,074
-224,927	-88,870	-0,172	0,036
-223,913	104,859	0,069	0,059
-222,898	783,277	0,080	-0,160
-221,884	-114,584	-0,016	0,002
-220,869	19,175	0,077	0,045
-219,855	-108,500	0,190	0,029
-218,840	118,539	-0,093	0,083
-217,825	800,000	-0,015	0,036
-216,811	271,631	-0,035	-0,044
-215,796	-147,898	-0,043	0,003
-214,782	-109,326	0,172	-0,026
-213,767	78,211	0,073	-0,056
-212,752	-39,160	0,103	0,039
-211,738	-6,979	0,104	0,051
-210,723	-200,000	-0,045	-0,176
-209,709	282,072	0,059	-0,076
-208,694	800,000	-0,053	-0,138
-207,679	-200,000	-0,020	-0,074
-206,665	-44,025	-0,036	0,013
-205,650	-200,000	-0,005	0,073
-204,636	-200,000	0,015	-0,068
-203,621	-137,582	-0,072	0,006
-202,606	-200,000	-0,021	-0,077
-201,592	10,135	0,093	-0,051
-200,577	31,925	-0,043	-0,027
-199,563	800,000	0,022	0,045
-198,548	-11,412	0,110	0,052
-197,533	-48,803	-0,064	0,022
-196,519	110,781	0,078	0,068
-195,504	-33,455	-0,162	-0,064
-194,490	395,302	-0,116	0,175
-193,475	15,033	0,088	-0,050
-192,460	-50,510	0,164	0,055
-191,446	-200,000	-0,140	-0,000
-190,431	56,442	0,120	-0,084
-189,417	58,662	0,175	0,124
-188,402	38,562	-0,054	0,035
-187,387	-200,000	0,024	0,118
-186,373	-103,098	-0,143	0,024
-185,358	-53,738	0,106	-0,035
-184,344	-171,304	0,121	-0,003
-183,329	92,007	0,037	0,030
-182,315	117,390	0,088	-0,078
-181,300	-200,000	0,002	-0,011
-180,285	58,340	-0,065	0,046
-179,271	-71,373	-0,024	-0,007
-178,256	-71,939	-0,103	-0,027
-177,242	-200,000	-0,013	0,047
-176,227	354,181	0,053	-0,075
-175,212	-66,317	-0,121	0,035
-174,198	-79,277	-0,074	-0,018
-173,183	27,032	-0,122	-0,074
-172,169	601,723	-0,042	0,075
-171,154	246,332	0,106	0,129
-170,139	800,000	0,011	0,033
-169,125	-200,000	-0,015	0,081
-168,110	226,835	-0,077	0,090
-167,096	86,412	-0,115	0,092
-166,081	547,768	0,024	0,042
-165,066	20,987	-0,051	0,030
-164,052	-108,104	-0,154	0,024
-163,037	-22,704	-0,067	0,029
-162,023	-200,000	-0,009	-0,036
-161,008	76,685	0,028	0,021
-159,993	-121,559	-0,076	0,009
-158,979	-176,041	-0,154	-0,003
-157,964	-136,163	0,068	0,006
-156,950	18,155	0,013	-0,008
-155,935	800,000	-0,006	0,016
-154,920	-149,960	0,081	0,004
-153,906	-30,223	-0,160	-0,065
-152,891	146,846	-0,078	0,075
-151,877	-120,081	-0,100	0,012
-150,862	-52,943	-0,021	-0,007
-149,847	-135,710	-0,073	0,006
-148,833	-200,000	0,012	-0,067
-147,818	64,852	-0,070	0,051
-146,804	800,000	-0,055	0,118
-145,789	373,636	-0,046	0,068
-144,775	-167,931	0,053	-0,001
-143,760	-200,000	0,004	0,100
-142,745	-174,666	-0,165	-0,003
-141,731	-200,000	0,031	0,208
-140,716	243,054	0,136	-0,164
-139,702	94,265	0,019	-0,015
-138,687	-119,709	0,023	0,003
-137,672	58,823	0,035	-0,025
-136,658	-122,547	-0,180	0,021
-135,643	-200,000	-0,002	-0,069
-134,629	-200,000	0,010	0,037
-133,614	-200,000	0,021	0,070
-132,599	-153,115	-0,030	-0,001
-131,585	493,227	0,085	0,142
-130,570	-200,000	-0,003	-0,014
-129,556	87,738	0,015	-0,012
-128,541	104,105	-0,069	-0,058
-127,526	-200,000	-0,007	0,088
-126,512	-148,255	0,151	0,009
-125,497	355,294	0,073	-0,105
-124,483	731,208	0,053	0,103
-123,468	641,720	-0,053	-0,098
-122,453	197,310	-0,116	-0,128
-121,439	-137,655	-0,185	-0,015
-120,424	800,000	0,079	-0,166
-119,410	800,000	0,044	0,089
