DTS Sentinel unit serial number:	SN410029Multiplexer serial number:	ORYXHardware model number:	OX2-SRSoftware version number:	ORYX F/W v4,00 Oryx Data Collector v3.7.2.0data status	okinstallation	B6 Nyhavnadifferential loss correction	single-endedforward channel	channel 2reverse channel	N/Adate	2023/12/10time	12:55:08forward acquisition time	300,00reverse acquisition time	0,00gamma	499,1914k internal	0,3123k external	0,3123temperature offset calibration	1,0000default loss term (dB/km)	0,3820temperature slope calibration	1,0000multiplexer offset coefficient	1,0000multiplexer slope coefficient	1,0000fibre end	0,00T internal ref (°C)	22,81T ext. ref 1 (°C)	6,51T ext. ref 2 (°C)	6,53length (m)	temperature (°C)	Stokes	anti-Stokes-744,400	800,000	0,070	-0,174
-743,385	22,925	-0,182	0,111
-742,371	77,089	0,184	0,146
-741,356	723,970	-0,088	0,176
-740,342	800,000	0,061	-0,174
-739,327	-101,569	-0,194	0,035
-738,312	-45,185	0,125	-0,046
-737,298	-148,625	-0,199	0,012
-736,283	68,117	0,092	0,070
-735,269	460,394	-0,116	0,194
-734,254	-114,124	-0,053	0,008
-733,239	99,976	-0,268	-0,232
-732,225	-52,830	0,170	0,058
-731,210	281,778	-0,090	0,121
-730,196	92,186	0,069	0,058
-729,181	-131,842	-0,104	-0,010
-728,167	-32,819	-0,035	-0,014
-727,152	-36,260	0,023	0,009
-726,137	224,079	-0,047	0,057
-725,123	800,000	-0,102	-0,232
-724,108	109,290	-0,126	-0,113
-723,094	-76,146	-0,091	-0,024
-722,079	58,933	-0,073	-0,053
-721,064	648,766	-0,026	0,050
-720,050	-200,000	0,009	-0,053
-719,035	260,843	-0,060	-0,078
-718,021	-52,443	0,066	-0,022
-717,006	-200,000	-0,062	-0,256
-715,991	306,440	-0,034	-0,047
-714,977	-200,000	-0,041	-0,211
-713,962	451,006	-0,132	-0,217
-712,948	-15,883	-0,038	-0,018
-711,933	292,321	-0,030	0,041
-710,918	225,950	0,077	-0,093
-709,904	-200,000	-0,043	-0,154
-708,889	55,489	-0,182	-0,131
-707,875	-200,000	-0,177	0,001
-706,860	-15,114	-0,013	0,006
-705,845	-171,348	-0,092	0,002
-704,831	37,107	0,095	0,063
-703,816	-144,881	0,041	-0,003
-702,802	-74,339	-0,166	0,044
-701,787	-200,000	-0,002	-0,031
-700,772	800,000	0,035	-0,074
-699,758	204,934	-0,045	-0,052
-698,743	29,250	0,018	-0,011
-697,729	-200,000	-0,011	-0,051
-696,714	182,539	0,024	0,026
-695,699	426,066	-0,029	0,046
-694,685	41,463	0,027	-0,018
-693,670	800,000	-0,050	-0,131
-692,656	176,938	-0,071	-0,077
-691,641	-150,788	0,152	-0,008
-690,627	8,820	0,085	-0,048
-689,612	-146,738	0,126	0,008
-688,597	-200,000	0,021	-0,101
-687,583	72,227	0,103	-0,080
-686,568	305,120	0,059	0,082
-685,554	434,982	-0,059	-0,096
-684,539	800,000	-0,065	0,172
-683,524	-141,147	0,179	-0,013
-682,510	-5,474	0,187	0,095
-681,495	123,553	-0,063	0,059
-680,481	-83,575	-0,043	0,010
-679,466	74,079	0,107	-0,083
-678,451	208,932	-0,051	-0,059
-677,437	-22,141	-0,094	-0,042
-676,422	-79,410	0,075	0,019
-675,408	-37,312	0,021	0,008
-674,393	-73,018	0,080	-0,022
-673,378	76,771	0,036	0,029
-672,364	-200,000	0,018	-0,072
-671,349	-200,000	-0,033	-0,181
-670,335	-116,569	-0,068	-0,009
-669,320	-103,017	0,034	-0,006
-668,305	110,551	0,030	-0,027
-667,291	-170,069	0,143	-0,004
-666,276	-19,111	-0,112	-0,052
-665,262	7,826	-0,100	-0,056
-664,247	-200,000	0,002	-0,033
-663,232	97,771	0,034	-0,029
-662,218	44,831	0,132	0,090
-661,203	-200,000	-0,017	-0,093
-660,189	800,000	-0,030	-0,074
-659,174	-13,983	0,102	-0,049
-658,159	312,742	0,041	0,057
-657,145	-63,883	-0,157	-0,048
-656,130	-200,000	-0,018	0,090
-655,116	526,819	-0,065	-0,115
-654,101	44,802	0,076	-0,052
-653,086	377,753	-0,038	0,058
-652,072	800,000	0,048	0,101
-651,057	64,802	-0,129	-0,097
-650,043	94,733	-0,021	0,018
-649,028	44,893	0,040	-0,027
-648,014	-114,526	0,136	-0,019
-646,999	-200,000	0,022	-0,110
-645,984	736,759	-0,025	0,051
-644,970	283,430	-0,125	-0,168
-643,955	-109,337	0,048	-0,008
-642,941	110,275	-0,003	0,003
-641,926	-45,388	-0,070	0,026
-640,911	385,485	0,032	-0,049
-639,897	757,101	0,055	-0,110
-638,882	153,007	-0,119	0,121
-637,868	-160,869	0,041	-0,002
-636,853	150,689	-0,140	-0,141
-635,838	-200,000	0,015	-0,219
-634,824	-133,319	-0,087	-0,008
-633,809	442,878	-0,047	0,077
-632,795	340,983	0,121	0,175
-631,780	7,286	0,096	0,053
-630,765	-200,000	0,007	0,037
-629,751	559,523	0,048	-0,086
-628,736	-133,309	-0,101	-0,009
-627,722	-62,469	0,049	-0,015
-626,707	-200,000	-0,020	-0,097
-625,692	270,910	-0,054	-0,071
-624,678	121,990	0,082	-0,076
-623,663	-166,545	-0,094	0,003
-622,649	656,759	0,041	-0,078
-621,634	63,618	-0,007	0,005
-620,619	786,472	0,037	0,076
-619,605	250,204	0,101	0,128
-618,590	117,618	0,033	-0,030
-617,576	70,875	-0,035	0,026
-616,561	58,458	-0,155	0,112
-615,546	298,430	0,062	-0,085
-614,532	61,751	0,048	-0,036
-613,517	-200,000	-0,021	-0,101
-612,503	-200,000	0,013	0,054
-611,488	-200,000	0,002	-0,043
-610,474	-200,000	-0,025	0,112
-609,459	-104,489	-0,149	0,025
-608,444	-97,189	-0,076	0,015
-607,430	-75,376	-0,116	-0,030
-606,415	-200,000	0,001	-0,011
-605,401	-37,074	-0,067	-0,026
-604,386	536,912	-0,015	0,027
-603,371	-200,000	-0,001	0,147
-602,357	293,749	-0,034	0,046
-601,342	-32,046	0,095	0,039
-600,328	800,000	0,058	0,121
-599,313	-38,024	-0,031	-0,012
-598,298	374,249	0,033	-0,049
-597,284	-200,000	0,021	-0,079
-596,269	571,129	0,047	0,085
-595,255	718,850	0,078	0,155
-594,240	-127,029	-0,146	0,016
-593,225	800,000	-0,021	0,064
-592,211	369,383	0,061	-0,092
-591,196	800,000	-0,033	0,070
-590,182	156,874	-0,032	-0,033
-589,167	32,508	0,086	-0,055
-588,152	800,000	-0,028	0,072
-587,138	-87,466	-0,090	-0,020
-586,123	459,065	-0,017	-0,029
-585,109	-200,000	-0,024	-0,131
-584,094	77,398	0,114	-0,090
-583,079	-200,000	-0,014	-0,127
-582,065	-200,000	0,017	-0,110
-581,050	-200,000	0,039	-0,148
-580,036	-200,000	-0,010	-0,164
-579,021	-200,000	-0,027	-0,132
-578,006	371,713	0,089	-0,134
-576,992	-200,000	-0,003	-0,056
-575,977	-200,000	-0,006	-0,053
-574,963	-88,926	0,157	0,034
-573,948	-200,000	-0,008	-0,044
-572,934	27,403	-0,072	0,045
-571,919	-51,953	-0,120	-0,041
-570,904	-200,000	0,014	-0,073
-569,890	800,000	-0,034	-0,103
-568,875	-103,525	0,037	-0,006
-567,861	376,918	0,071	0,108
-566,846	68,822	0,021	0,016
-565,831	-144,921	-0,090	0,006
-564,817	-200,000	0,001	0,014
-563,802	-200,000	0,003	-0,017
-562,788	105,722	-0,086	-0,075
-561,773	-93,470	0,010	-0,002
-560,758	800,000	0,042	-0,089
-559,744	800,000	-0,045	-0,117
-558,729	-200,000	-0,014	0,055
-557,715	800,000	0,033	0,101
-556,700	101,428	-0,057	-0,049
-555,685	312,104	0,044	-0,061
-554,671	322,188	-0,036	0,051
-553,656	-200,000	0,010	0,080
-552,642	-71,411	0,041	-0,011
-551,627	381,981	-0,042	0,065
-550,612	-93,851	-0,176	0,035
-549,598	800,000	0,042	-0,090
-548,583	-131,006	0,085	-0,008
-547,569	800,000	-0,015	-0,034
-546,554	-200,000	0,006	-0,027
-545,539	-173,147	0,101	0,002
-544,525	380,732	-0,035	-0,053
-543,510	-54,107	-0,096	-0,032
-542,496	-181,109	0,092	0,001
-541,481	-115,365	0,010	-0,001
-540,466	-200,000	-0,032	0,174
-539,452	-200,000	-0,017	0,086
-538,437	-96,419	0,087	-0,017
-537,423	-99,803	0,202	0,037
-536,408	136,008	-0,066	-0,063
-535,393	360,542	0,068	-0,101
-534,379	-162,102	-0,126	-0,005
-533,364	177,811	0,007	-0,008
-532,350	800,000	0,061	0,193
-531,335	-119,651	0,044	-0,006
-530,321	800,000	0,045	0,097
-529,306	-74,189	-0,113	-0,030
-528,291	23,738	-0,010	-0,006
-527,277	-57,456	-0,134	-0,043
-526,262	-200,000	-0,012	-0,080
-525,248	-126,073	-0,098	0,011
-524,233	-200,000	0,011	0,078
-523,218	-27,864	0,117	0,050
-522,204	-93,590	0,061	-0,012
-521,189	467,293	-0,025	0,042
-520,175	-25,498	-0,069	0,030
-519,160	800,000	-0,034	0,079
-518,145	-200,000	0,020	0,154
-517,131	-95,902	-0,083	0,016
-516,116	-200,000	0,048	0,156
-515,102	188,865	-0,007	0,008
-514,087	-200,000	-0,007	-0,052
-513,072	153,967	-0,011	-0,011
-512,058	-61,979	0,018	-0,006
-511,043	118,628	-0,096	0,088
-510,029	-200,000	-0,003	0,015
-509,014	800,000	0,048	0,118
-507,999	-200,000	-0,001	0,131
-506,985	44,311	0,140	-0,095
-505,970	52,491	-0,104	0,074
-504,956	-200,000	0,014	0,101
-503,941	-200,000	-0,005	0,053
-502,926	-67,375	-0,074	-0,021
-501,912	-200,000	0,000	-0,041
-500,897	-124,041	0,043	-0,005
-499,883	-175,682	-0,081	-0,002
-498,868	180,730	-0,088	-0,095
-497,853	-141,635	-0,041	-0,003
-496,839	289,053	0,029	-0,039
-495,824	-42,159	0,099	-0,037
-494,810	-95,500	0,026	0,005
-493,795	358,289	0,047	0,069
-492,781	-200,000	-0,021	-0,070
-491,766	-200,000	0,007	-0,039
-490,751	566,587	0,054	-0,097
-489,737	-59,144	-0,054	-0,017
-488,722	-0,480	0,061	-0,032
-487,708	129,994	0,080	0,076
-486,693	-55,049	0,110	0,036
-485,678	800,000	-0,038	0,114
-484,664	-200,000	0,028	-0,108
-483,649	-54,537	-0,141	0,047
-482,635	540,777	-0,024	0,043
-481,620	183,744	0,084	0,092
-480,605	800,000	-0,033	0,093
-479,591	91,963	0,069	-0,057
-478,576	-84,777	0,019	-0,004
-477,562	800,000	0,013	0,030
-476,547	484,005	-0,067	-0,114
-475,532	376,528	0,081	-0,123
-474,518	-54,768	-0,100	0,033
-473,503	-200,000	0,043	0,168
-472,489	-200,000	-0,017	-0,062
-471,474	96,715	0,070	0,059
-470,459	-158,355	0,020	0,001
-469,445	75,563	-0,105	-0,082
-468,430	-4,338	-0,137	0,070
-467,416	361,487	-0,144	0,213
-466,401	-104,378	0,097	0,016
-465,386	-173,935	-0,113	0,002
-464,372	800,000	-0,048	0,113
-463,357	-200,000	0,019	0,075
-462,343	-200,000	-0,014	-0,125
-461,328	800,000	0,030	-0,090
-460,313	294,393	-0,037	0,051
-459,299	-175,975	0,115	0,002
-458,284	-200,000	0,003	-0,208
-457,270	238,007	0,081	0,100
-456,255	-200,000	-0,001	-0,065
-455,241	7,271	-0,118	-0,065
-454,226	602,542	-0,051	-0,093
-453,211	-200,000	-0,014	0,093
-452,197	-200,000	-0,003	0,021
-451,182	530,791	0,038	0,067
-450,168	-200,000	-0,019	-0,063
-449,153	239,795	-0,048	-0,060
-448,138	-48,442	-0,075	-0,027
-447,124	139,430	-0,047	-0,046
-446,109	-200,000	-0,023	-0,100
-445,095	248,282	0,047	0,059
-444,080	192,541	0,065	0,073
-443,065	365,943	-0,038	0,056
-442,051	-200,000	-0,010	0,077
-441,036	39,941	-0,077	-0,051
-440,022	-64,789	-0,174	-0,052
-439,007	396,157	-0,035	0,054
-437,992	800,000	-0,014	0,038
-436,978	-154,757	-0,103	-0,005
-435,963	18,566	0,107	0,063
-434,949	209,927	-0,069	-0,080
-433,934	-33,469	-0,169	0,068
-432,919	-103,676	-0,006	0,001
-431,905	-97,278	-0,079	-0,015
-430,890	-110,079	0,156	-0,024
-429,876	-200,000	0,012	0,079
-428,861	-200,000	-0,049	0,170
-427,846	-171,725	-0,143	-0,003
-426,832	-56,138	0,060	-0,020
-425,817	207,867	-0,058	0,067
-424,803	-200,000	0,024	-0,100
-423,788	-153,703	0,124	-0,006
-422,773	432,726	-0,045	0,072
-421,759	189,588	0,099	0,110
-420,744	27,847	-0,027	-0,016
-419,730	157,215	-0,098	-0,100
-418,715	-117,217	-0,065	0,009
-417,701	143,571	0,050	-0,049
-416,686	-28,499	0,222	-0,094
-415,671	82,998	0,059	0,047
-414,657	-200,000	-0,009	0,152
-413,642	203,479	-0,056	0,064
-412,628	60,626	0,100	-0,073
-411,613	-85,911	-0,106	0,024
-410,598	-167,777	-0,075	-0,002
-409,584	145,223	-0,034	-0,034
-408,569	385,658	0,018	0,027
-407,555	-200,000	-0,002	-0,043
-406,540	8,103	0,069	0,038
-405,525	212,193	-0,055	-0,064
-404,511	-11,942	-0,051	-0,024
-403,496	-200,000	-0,005	0,018
-402,482	205,152	-0,069	-0,079
-401,467	223,848	0,073	0,086
-400,452	-200,000	0,010	0,033
-399,438	555,810	0,083	0,147
-398,423	-200,000	-0,005	-0,078
-397,409	-115,235	0,106	-0,015
-396,394	221,660	0,090	-0,106
-395,379	21,371	0,102	0,061
-394,365	-200,000	-0,018	0,114
-393,350	624,756	0,040	0,074
-392,336	90,992	0,080	0,066
-391,321	381,959	0,037	-0,055
-390,306	22,747	-0,097	0,058
-389,292	-138,431	-0,065	-0,005
-388,277	293,925	-0,016	0,021
-387,263	66,869	0,041	0,031
-386,248	44,963	0,103	0,069
-385,233	-152,495	0,145	0,008
-384,219	424,032	-0,034	-0,054
-383,204	259,633	-0,056	0,071
-382,190	-200,000	-0,009	-0,206
-381,175	-200,000	-0,026	0,097
-380,160	-40,128	-0,029	0,011
-379,146	5,632	0,076	0,041
-378,131	-200,000	-0,020	0,151
-377,117	-200,000	-0,009	-0,034
-376,102	-200,000	-0,012	0,127
-375,088	31,710	-0,028	-0,018
-374,073	-200,000	-0,017	-0,067
-373,058	113,928	0,095	0,085
-372,044	2,411	0,108	0,057
-371,029	48,324	0,034	0,024
-370,015	-200,000	0,017	0,157
-369,000	-200,000	-0,006	0,071
-367,985	-200,000	0,019	0,063
-366,971	-93,087	0,174	0,035
-365,956	-200,000	0,000	0,092
-364,942	-71,390	0,074	0,020
-363,927	-43,907	-0,127	0,047
-362,912	363,973	-0,054	0,080
-361,898	129,124	-0,056	0,052
-360,883	496,424	-0,093	-0,158
-359,869	-172,708	0,085	-0,002
-358,854	-98,430	-0,111	0,021
-357,839	800,000	0,068	0,143
-356,825	36,239	0,068	-0,044
-355,810	-200,000	0,010	0,061
-354,796	800,000	-0,046	-0,101
-353,781	219,364	-0,073	-0,086
-352,766	26,973	0,154	0,094
-351,752	-200,000	-0,019	-0,064
-350,737	-105,212	0,113	0,019
-349,723	-83,605	0,080	-0,019
-348,708	-194,605	-0,129	0,001
-347,693	-24,909	0,152	-0,066
-346,679	-200,000	0,001	0,051
-345,664	800,000	-0,069	-0,161
-344,650	157,617	-0,036	0,037
-343,635	-100,452	0,103	0,019
-342,620	62,990	-0,083	0,061
-341,606	800,000	0,053	0,135
-340,591	-103,626	0,207	0,035
-339,577	20,043	-0,073	-0,043
-338,562	-200,000	-0,003	-0,021
-337,548	219,533	0,047	-0,056
-336,533	-200,000	-0,023	0,108
-335,518	-200,000	0,026	0,310
-334,504	-150,309	0,063	-0,003
-333,489	280,734	-0,077	-0,102
-332,475	147,818	-0,044	0,044
-331,460	60,242	-0,091	-0,066
-330,445	306,600	-0,091	-0,125
-329,431	-97,257	-0,063	-0,012
-328,416	519,051	-0,020	0,035
-327,402	-45,855	0,140	0,050
-326,387	-3,773	0,110	-0,056
-325,372	616,159	0,010	-0,018
-324,358	345,992	-0,057	-0,083
-323,343	559,306	0,032	0,057
-322,329	800,000	0,028	0,068
-321,314	-200,000	-0,012	0,131
-320,299	-2,815	-0,037	0,019
-319,285	77,541	0,081	-0,063
-318,270	-200,000	0,006	-0,021
-317,256	-200,000	-0,000	0,069
-316,241	2,986	0,079	0,042
-315,226	19,646	0,037	-0,022
-314,212	174,187	0,041	-0,044
-313,197	800,000	0,042	0,134
-312,183	191,727	-0,103	-0,114
-311,168	-21,783	-0,027	0,012
-310,153	498,185	0,063	0,107
-309,139	176,371	-0,047	-0,051
-308,124	-61,773	-0,062	0,019
-307,110	21,216	0,097	0,058
-306,095	420,216	0,046	0,073
-305,080	69,905	0,022	0,017
-304,066	800,000	0,020	0,056
-303,051	-121,445	-0,015	0,002
-302,037	-120,823	0,031	-0,004
-301,022	-200,000	-0,012	-0,070
-300,008	46,724	-0,119	0,081
-298,993	-22,182	-0,063	-0,028
-297,978	252,500	0,051	-0,064
-296,964	59,748	-0,078	-0,056
-295,949	24,794	-0,060	-0,036
-294,935	796,392	-0,067	-0,135
-293,920	291,020	0,057	0,076
-292,905	8,972	0,122	-0,067
-291,891	-76,790	0,079	-0,020
-290,876	-94,726	0,117	0,023
-289,862	-200,000	-0,012	0,101
-288,847	77,414	-0,024	-0,019
-287,832	800,000	0,009	0,023
-286,818	-98,195	0,080	-0,015
-285,803	610,532	0,006	0,012
-284,789	72,818	0,155	-0,118
-283,774	5,270	0,128	-0,069
-282,759	-77,131	-0,074	-0,019
-281,745	-200,000	-0,028	-0,161
-280,730	800,000	-0,047	-0,098
-279,716	186,060	0,088	-0,096
-278,701	130,329	0,021	0,020
-277,686	-200,000	0,004	0,027
-276,672	-138,123	0,103	0,008
-275,657	800,000	0,036	0,089
-274,643	303,541	-0,092	-0,126
-273,628	-127,116	-0,104	-0,011
-272,613	-200,000	-0,002	0,013
-271,599	-200,000	0,020	-0,143
-270,584	800,000	0,054	-0,121
-269,570	-121,355	-0,129	-0,016
-268,555	257,505	0,073	-0,092
-267,540	64,434	-0,071	-0,052
-266,526	-200,000	0,037	-0,174
-265,511	761,360	0,034	-0,067
-264,497	-33,078	0,075	-0,030
-263,482	-92,434	0,062	-0,013
-262,467	-12,447	-0,054	0,026
-261,453	-47,344	-0,056	0,020
-260,438	-200,000	0,001	0,099
-259,424	116,825	0,058	0,052
-258,409	-200,000	-0,010	0,035
-257,395	57,115	-0,006	0,005
-256,380	-109,573	0,031	0,005
-255,365	-200,000	-0,021	0,078
-254,351	800,000	0,010	0,031
-253,336	128,374	0,048	0,045
-252,322	79,568	-0,035	-0,027
-251,307	224,471	0,054	0,064
-250,292	-200,000	-0,048	-0,162
-249,278	1,653	0,109	-0,057
-248,263	156,498	0,010	0,010
-247,249	155,087	-0,057	-0,057
-246,234	-50,023	-0,008	0,003
-245,219	419,389	-0,051	-0,080
-244,205	-127,651	-0,133	0,014
-243,190	-38,512	0,098	-0,038
-242,176	142,162	0,061	-0,059
-241,161	-13,901	0,176	0,083
-240,146	800,000	0,033	0,092
-239,132	-74,266	-0,128	-0,034
-238,117	-13,605	-0,046	-0,022
-237,103	408,324	-0,040	0,061
-236,088	-56,108	0,038	0,012
-235,073	800,000	-0,063	0,157
-234,059	253,843	0,033	-0,042
-233,044	-200,000	0,018	-0,125
-232,030	-200,000	-0,016	0,080
-231,015	800,000	-0,030	-0,094
-230,000	-141,678	-0,089	0,006
-228,986	-8,919	-0,082	0,040
-227,971	-99,660	0,061	-0,011
-226,957	-138,563	0,083	0,007
-225,942	-200,000	0,000	0,038
-224,927	-125,928	-0,071	0,008
-223,913	-121,392	-0,120	-0,014
-222,898	-75,890	-0,023	0,006
-221,884	130,850	0,024	-0,022
-220,869	800,000	-0,036	0,105
-219,855	-200,000	0,007	0,124
-218,840	-200,000	0,024	0,121
-217,825	-160,646	-0,073	-0,003
-216,811	-55,153	-0,048	-0,016
-215,796	29,463	-0,051	-0,032
-214,782	-200,000	0,012	-0,057
-213,767	208,577	0,080	-0,091
-212,752	-200,000	0,000	-0,052
-211,738	59,851	0,047	-0,034
-210,723	633,608	-0,014	-0,026
-209,709	-200,000	0,026	-0,094
-208,694	-200,000	0,019	-0,066
-207,679	-200,000	-0,031	-0,106
-206,665	-200,000	-0,003	0,110
-205,650	800,000	0,005	0,016
-204,636	800,000	0,021	-0,055
-203,621	-106,875	-0,114	0,018
-202,606	-78,806	0,035	-0,009
-201,592	65,598	-0,100	-0,074
-200,577	-12,926	-0,041	0,020
-199,563	-19,654	0,058	0,026
-198,548	800,000	0,052	0,149
-197,533	-148,404	-0,172	-0,010
-196,519	75,830	-0,031	0,024
-195,504	-33,665	0,027	0,011
-194,490	366,379	-0,073	-0,108
-193,475	-200,000	0,013	-0,201
-192,460	-200,000	0,004	-0,021
-191,446	-200,000	-0,004	-0,130
-190,431	-200,000	-0,010	-0,043
-189,417	595,820	-0,028	-0,051
-188,402	-128,042	0,056	-0,006
-187,387	-59,631	-0,080	0,025
-186,373	284,501	0,081	0,106
-185,358	-66,673	0,030	0,009
-184,344	187,840	-0,062	-0,068
-183,329	-200,000	0,016	-0,084
-182,315	-200,000	-0,006	0,028
-181,300	622,952	-0,066	0,122
-180,285	43,305	-0,021	-0,014
-179,271	-15,963	-0,122	-0,056
-178,256	119,462	-0,006	0,005
-177,242	-12,207	0,114	-0,054
-176,227	-32,988	0,026	-0,010
-175,212	-200,000	-0,003	-0,028
-174,198	-186,386	0,109	-0,001
-173,183	-191,303	-0,035	0,000
-172,169	56,060	0,128	0,090
-171,154	207,686	-0,058	-0,066
-170,139	48,830	0,122	0,083
-169,125	-200,000	0,018	0,092
-168,110	714,155	0,010	0,019
-167,096	-132,134	0,027	-0,003
-166,081	-39,057	-0,093	0,035
-165,066	73,263	-0,076	-0,058
-164,052	-200,000	0,005	-0,119
-163,037	143,273	-0,100	0,097
-162,023	800,000	-0,023	-0,059
-161,008	209,123	0,084	0,096
-159,993	339,913	-0,049	-0,069
-158,979	-82,185	-0,061	0,014
-157,964	364,719	-0,021	0,031
-156,950	126,408	0,066	-0,061
-155,935	-162,945	-0,063	-0,002
-154,920	197,337	0,049	0,054
-153,906	-177,120	0,083	0,001
-152,891	-200,000	-0,013	-0,109
-151,877	800,000	-0,028	0,069
-150,862	-115,559	-0,127	-0,017
-149,847	-74,848	-0,043	-0,011
-148,833	-200,000	0,004	-0,068
-147,818	800,000	-0,050	0,160
-146,804	-57,740	0,112	0,036
-145,789	-200,000	0,024	0,125
-144,775	800,000	-0,034	0,104
-143,760	-200,000	-0,029	-0,235
-142,745	74,777	-0,090	0,069
-141,731	-200,000	-0,028	0,138
-140,716	-147,863	-0,046	0,003
-139,702	343,020	0,079	0,113
-138,687	-3,515	-0,034	0,017
-137,672	240,133	-0,025	-0,030
-136,658	800,000	-0,072	-0,170
-135,643	239,382	-0,055	-0,066
-134,629	-133,251	-0,014	-0,001
-133,614	-200,000	-0,003	0,049
-132,599	115,609	-0,086	0,076
-131,585	794,159	0,026	-0,052
-130,570	-200,000	-0,001	-0,101
-129,556	219,710	-0,022	0,026
-128,541	-66,676	-0,140	-0,040
-127,526	225,155	0,028	0,033
-126,512	800,000	0,027	-0,060
-125,497	-101,258	0,132	0,023
-124,483	-82,079	0,073	0,017
-123,468	35,420	-0,056	0,036
-122,453	-110,407	-0,071	0,011
-121,439	-5,936	0,034	-0,017
-120,424	-200,000	-0,039	-0,222
