DTS Sentinel unit serial number:	SN410029Multiplexer serial number:	ORYXHardware model number:	OX2-SRSoftware version number:	ORYX F/W v4,00 Oryx Data Collector v3.7.2.0data status	okinstallation	B6 Nyhavnadifferential loss correction	single-endedforward channel	channel 2reverse channel	N/Adate	2023/12/08time	15:25:08forward acquisition time	300,00reverse acquisition time	0,00gamma	499,1914k internal	0,3158k external	0,3158temperature offset calibration	1,0000default loss term (dB/km)	0,3820temperature slope calibration	1,0000multiplexer offset coefficient	1,0000multiplexer slope coefficient	1,0000fibre end	0,00T internal ref (°C)	15,06T ext. ref 1 (°C)	-1,46T ext. ref 2 (°C)	-1,47length (m)	temperature (°C)	Stokes	anti-Stokes-744,400	239,628	0,036	0,044
-743,385	-12,843	-0,290	-0,139
-742,371	-103,109	0,096	0,017
-741,356	-125,795	-0,223	0,024
-740,342	30,108	0,109	0,068
-739,327	-139,990	-0,272	-0,021
-738,312	-200,000	0,002	0,021
-737,298	-112,593	-0,297	-0,043
-736,283	-139,552	0,145	0,011
-735,269	-80,782	-0,244	-0,059
-734,254	-14,260	0,125	0,059
-733,239	-81,671	-0,452	-0,109
-732,225	174,630	0,128	0,137
-731,210	-200,000	0,001	-0,100
-730,196	93,432	-0,009	-0,007
-729,181	-200,000	-0,021	0,130
-728,167	160,197	0,056	-0,057
-727,152	-115,611	-0,043	0,006
-726,137	26,670	-0,091	-0,056
-725,123	-190,759	-0,083	0,001
-724,108	-6,533	-0,169	-0,085
-723,094	-59,671	-0,100	0,031
-722,079	-200,000	-0,020	-0,086
-721,064	-200,000	-0,039	0,153
-720,050	193,576	-0,041	0,045
-719,035	-40,467	-0,113	0,043
-718,021	-200,000	-0,011	-0,110
-717,006	-200,000	-0,006	-0,042
-715,991	126,345	-0,095	-0,088
-714,977	800,000	-0,072	-0,162
-713,962	-200,000	0,049	-0,215
-712,948	-107,262	0,118	0,019
-711,933	-75,427	-0,163	-0,042
-710,918	-190,200	-0,093	0,001
-709,904	169,276	-0,126	-0,132
-708,889	800,000	-0,042	-0,135
-707,875	-200,000	-0,011	-0,090
-706,860	753,048	0,033	0,065
-705,845	-125,435	0,124	0,014
-704,831	74,113	0,084	-0,065
-703,816	67,873	-0,076	-0,057
-702,802	49,201	0,091	-0,063
-701,787	-200,000	-0,039	-0,194
-700,772	340,611	-0,101	-0,146
-699,758	209,758	0,073	0,084
-698,743	39,740	0,112	0,074
-697,729	-148,874	0,054	0,003
-696,714	800,000	-0,043	0,112
-695,699	141,411	-0,028	-0,027
-694,685	-116,246	-0,050	0,007
-693,670	-3,563	-0,036	0,018
-692,656	-200,000	-0,010	0,115
-691,641	800,000	0,055	0,134
-690,627	202,266	0,101	0,115
-689,612	-2,298	-0,122	-0,063
-688,597	-200,000	0,023	-0,176
-687,583	197,446	-0,023	-0,026
-686,568	641,879	-0,038	-0,072
-685,554	-200,000	-0,013	0,066
-684,539	-200,000	0,033	-0,165
-683,524	-115,110	-0,067	0,009
-682,510	649,626	0,049	-0,094
-681,495	79,882	-0,076	0,060
-680,481	97,165	-0,066	-0,056
-679,466	-107,332	0,070	0,011
-678,451	-200,000	-0,031	0,131
-677,437	-18,473	0,059	0,027
-676,422	-147,206	-0,173	0,011
-675,408	-6,458	0,056	-0,028
-674,393	38,290	-0,091	0,059
-673,378	-161,475	-0,064	0,002
-672,364	180,217	0,036	0,039
-671,349	2,413	0,017	0,009
-670,335	-155,862	0,169	0,008
-669,320	-200,000	-0,019	-0,108
-668,305	83,628	-0,065	0,052
-667,291	-70,082	-0,102	0,028
-666,276	-200,000	0,016	0,089
-665,262	-200,000	-0,007	-0,070
-664,247	800,000	-0,007	-0,019
-663,232	800,000	-0,047	-0,115
-662,218	-1,165	0,096	0,050
-661,203	800,000	-0,044	0,126
-660,189	800,000	0,018	-0,049
-659,174	210,074	-0,105	-0,121
-658,159	-200,000	0,029	-0,149
-657,145	53,913	-0,092	-0,065
-656,130	-94,654	-0,062	-0,012
-655,116	-6,447	-0,036	-0,018
-654,101	792,134	0,064	-0,130
-653,086	-200,000	-0,015	-0,075
-652,072	-153,469	-0,119	-0,006
-651,057	156,847	0,031	-0,031
-650,043	-30,262	-0,081	-0,033
-649,028	431,615	0,081	-0,130
-648,014	-200,000	-0,006	0,091
-646,999	309,393	0,088	0,121
-645,984	728,962	-0,047	0,092
-644,970	-200,000	-0,003	0,045
-643,955	-139,652	-0,017	-0,001
-642,941	-200,000	0,016	-0,082
-641,926	-84,035	-0,070	-0,016
-640,911	-24,886	-0,084	0,036
-639,897	-26,184	-0,109	0,047
-638,882	372,423	0,008	-0,011
-637,868	-38,868	-0,100	0,038
-636,853	800,000	-0,019	-0,050
-635,838	-35,180	0,071	0,028
-634,824	138,984	0,032	0,031
-633,809	-200,000	0,038	0,174
-632,795	109,699	0,118	0,104
-631,780	800,000	0,033	0,073
-630,765	-80,506	-0,144	0,035
-629,751	22,489	0,068	-0,041
-628,736	-200,000	0,006	-0,037
-627,722	-125,089	-0,057	0,006
-626,707	-2,369	-0,078	-0,040
-625,692	-14,300	-0,166	-0,078
-624,678	220,343	0,053	0,063
-623,663	195,081	0,086	0,096
-622,649	800,000	-0,027	-0,056
-621,634	800,000	-0,057	-0,138
-620,619	303,408	-0,028	-0,038
-619,605	-200,000	-0,004	-0,154
-618,590	-97,513	-0,054	-0,010
-617,576	460,458	0,018	0,030
-616,561	306,600	0,029	-0,040
-615,546	425,886	-0,039	-0,062
-614,532	675,624	-0,030	0,057
-613,517	335,573	0,039	0,055
-612,503	168,975	0,024	-0,025
-611,488	189,249	-0,028	0,031
-610,474	192,708	0,085	0,094
-609,459	800,000	-0,004	-0,008
-608,444	76,068	0,032	-0,025
-607,430	178,690	-0,062	-0,066
-606,415	142,135	-0,006	0,006
-605,401	70,927	0,117	-0,089
-604,386	121,655	0,080	0,073
-603,371	195,855	0,067	-0,074
-602,357	-126,076	-0,142	-0,015
-601,342	-71,238	0,015	0,004
-600,328	171,379	-0,082	-0,087
-599,313	-30,700	0,099	-0,041
-598,298	444,215	-0,132	-0,213
-597,284	1,895	-0,079	-0,042
-596,269	-60,577	-0,041	-0,013
-595,255	-200,000	0,006	0,097
-594,240	185,692	0,034	-0,037
-593,225	-136,622	0,146	0,012
-592,211	800,000	-0,019	-0,051
-591,196	-71,217	0,042	0,012
-590,182	-200,000	0,022	0,136
-589,167	-200,000	0,005	0,062
-588,152	243,374	-0,032	-0,039
-587,138	-200,000	-0,001	0,101
-586,123	161,360	-0,044	-0,045
-585,109	-4,544	0,126	-0,064
-584,094	711,326	-0,067	-0,130
-583,079	-152,119	0,128	0,007
-582,065	405,207	0,034	0,053
-581,050	-64,234	-0,053	0,016
-580,036	-52,469	0,035	-0,012
-579,021	-0,519	0,063	-0,032
-578,006	792,758	0,058	0,116
-576,992	265,048	-0,024	-0,030
-575,977	-200,000	-0,024	-0,101
-574,963	591,735	-0,017	-0,031
-573,948	-30,901	0,151	-0,062
-572,934	-47,538	-0,010	0,004
-571,919	-90,886	-0,131	0,027
-570,904	-200,000	0,021	-0,074
-569,890	800,000	0,038	-0,112
-568,875	-96,372	0,013	0,003
-567,861	800,000	-0,016	-0,041
-566,846	-19,140	-0,030	0,014
-565,831	-200,000	-0,081	0,000
-564,817	-200,000	-0,034	0,152
-563,802	638,005	0,051	-0,095
-562,788	-109,618	-0,117	-0,018
-561,773	-46,776	0,175	-0,062
-560,758	-93,346	0,099	-0,020
-559,744	-29,452	0,130	0,054
-558,729	-65,775	-0,165	0,048
-557,715	281,272	0,018	-0,024
-556,700	-111,340	-0,121	-0,018
-555,685	-200,000	0,002	-0,020
-554,671	32,120	0,105	0,066
-553,656	397,565	-0,061	-0,093
-552,642	-200,000	-0,013	0,045
-551,627	-113,153	0,064	-0,009
-550,612	293,928	-0,042	-0,056
-549,598	454,740	-0,018	0,029
-548,583	-200,000	-0,063	-0,206
-547,569	-41,688	-0,139	-0,052
-546,554	-90,428	0,130	-0,027
-545,539	-52,443	0,155	-0,052
-544,525	-200,000	0,003	-0,051
-543,510	43,740	-0,039	-0,026
-542,496	241,214	-0,065	-0,079
-541,481	350,146	0,096	-0,139
-540,466	80,607	0,174	-0,137
-539,452	-23,547	0,245	-0,107
-538,437	4,106	-0,097	0,051
-537,423	-169,449	-0,120	0,003
-536,408	-74,791	0,052	-0,014
-535,393	-31,972	0,077	-0,032
-534,379	-200,000	-0,009	0,045
-533,364	-200,000	-0,005	-0,037
-532,350	193,962	-0,034	0,037
-531,335	-33,516	0,035	0,014
-530,321	-200,000	0,007	0,173
-529,306	-103,343	0,122	-0,021
-528,291	-200,000	-0,028	-0,126
-527,277	-38,220	-0,071	-0,027
-526,262	84,344	-0,089	0,071
-525,248	-134,191	0,038	0,003
-524,233	800,000	-0,030	0,090
-523,218	-200,000	0,019	0,253
-522,204	315,319	0,113	0,155
-521,189	426,123	-0,071	0,112
-520,175	-95,480	-0,095	-0,018
-519,160	4,289	-0,039	-0,021
-518,145	800,000	0,036	0,092
-517,131	66,895	-0,051	-0,038
-516,116	-200,000	0,039	0,152
-515,102	-9,633	-0,134	-0,065
-514,087	-200,000	-0,018	-0,140
-513,072	-102,042	0,058	0,010
-512,058	-200,000	0,018	0,083
-511,043	278,908	-0,040	0,053
-510,029	81,357	0,139	0,110
-509,014	785,305	0,043	-0,087
-507,999	-200,000	-0,027	-0,096
-506,985	466,622	0,034	0,056
-505,970	338,392	-0,054	0,076
-504,956	-71,773	0,050	-0,013
-503,941	800,000	0,065	-0,158
-502,926	36,456	-0,055	0,035
-501,912	-200,000	0,013	0,072
-500,897	-79,363	0,116	0,029
-499,883	-128,883	-0,130	-0,013
-498,868	-37,403	-0,181	-0,070
-497,853	800,000	0,038	0,105
-496,839	593,809	-0,050	-0,091
-495,824	800,000	-0,018	0,057
-494,810	-200,000	-0,005	0,078
-493,795	-200,000	0,005	-0,029
-492,781	-200,000	-0,002	0,057
-491,766	-200,000	0,024	-0,084
-490,751	26,658	0,057	0,035
-489,737	106,485	-0,053	-0,046
-488,722	-38,755	0,085	0,033
-487,708	-170,130	0,106	0,003
-486,693	-159,050	-0,091	0,004
-485,678	-200,000	0,013	-0,093
-484,664	-200,000	-0,016	-0,066
-483,649	-200,000	0,011	-0,038
-482,635	-200,000	0,015	-0,142
-481,620	43,862	-0,065	-0,043
-480,605	-9,423	0,126	0,061
-479,591	800,000	-0,029	-0,087
-478,576	-200,000	-0,052	-0,172
-477,562	2,184	-0,169	0,089
-476,547	61,756	-0,038	-0,028
-475,532	446,184	-0,064	-0,103
-474,518	180,297	-0,016	-0,017
-473,503	-200,000	-0,029	-0,158
-472,489	-200,000	0,033	0,191
-471,474	614,404	0,011	0,020
-470,459	-57,091	-0,043	0,014
-469,445	-200,000	-0,014	0,084
-468,430	137,336	0,037	-0,035
-467,416	205,078	-0,028	0,032
-466,401	-183,594	-0,061	-0,001
-465,386	341,384	0,075	0,107
-464,372	-200,000	-0,004	0,059
-463,357	59,310	-0,123	0,088
-462,343	44,571	0,029	-0,020
-461,328	91,777	-0,041	-0,034
-460,313	-200,000	0,019	-0,099
-459,299	-200,000	-0,016	0,063
-458,284	-119,967	0,051	-0,006
-457,270	175,735	0,055	-0,059
-456,255	-200,000	-0,036	-0,139
-455,241	268,054	-0,061	0,079
-454,226	48,588	-0,085	0,058
-453,211	401,409	-0,020	-0,030
-452,197	651,588	0,050	-0,094
-451,182	457,305	-0,062	-0,101
-450,168	-200,000	-0,009	-0,104
-449,153	-77,687	-0,188	-0,047
-448,138	-95,887	-0,150	-0,029
-447,124	67,467	-0,116	-0,086
-446,109	-200,000	0,041	-0,133
-445,095	461,616	0,035	-0,056
-444,080	305,097	0,075	-0,102
-443,065	-110,978	-0,109	-0,016
-442,051	169,629	0,131	0,136
-441,036	-17,716	-0,178	-0,081
-440,022	-200,000	0,013	0,072
-439,007	429,743	-0,017	0,028
-437,992	638,171	0,018	0,034
-436,978	731,631	0,106	0,208
-435,963	266,752	0,009	0,012
-434,949	-69,860	-0,150	-0,041
-433,934	-131,395	-0,133	-0,013
-432,919	431,779	-0,075	-0,118
-431,905	-185,405	-0,099	-0,001
-430,890	-200,000	0,024	0,086
-429,876	165,884	0,061	0,062
-428,861	-147,066	0,144	0,009
-427,846	-200,000	0,000	-0,103
-426,832	186,035	-0,005	0,006
-425,817	-50,833	0,136	0,046
-424,803	-200,000	-0,008	-0,043
-423,788	92,340	0,054	0,044
-422,773	800,000	-0,023	-0,063
-421,759	86,340	0,094	0,075
-420,744	-200,000	0,050	0,196
-419,730	-61,724	-0,096	-0,029
-418,715	-200,000	-0,006	-0,092
-417,701	-86,316	-0,085	0,019
-416,686	-200,000	0,000	-0,020
-415,671	-200,000	-0,006	0,058
-414,657	-200,000	0,011	0,115
-413,642	800,000	0,015	-0,033
-412,628	172,766	-0,054	-0,056
-411,613	-115,125	-0,140	0,019
-410,598	800,000	-0,014	-0,038
-409,584	336,263	-0,077	0,109
-408,569	59,563	-0,046	0,033
-407,555	-200,000	-0,005	0,064
-406,540	-116,686	-0,033	-0,004
-405,525	-200,000	-0,013	0,065
-404,511	82,986	-0,071	-0,056
-403,496	-200,000	0,010	0,049
-402,482	800,000	0,034	-0,096
-401,467	800,000	0,026	0,059
-400,452	-82,022	0,066	0,016
-399,438	800,000	-0,049	0,124
-398,423	-48,248	-0,089	0,031
-397,409	196,436	-0,071	0,079
-396,394	45,925	-0,042	-0,028
-395,379	-56,372	0,113	-0,036
-394,365	800,000	0,049	-0,152
-393,350	-73,841	0,003	-0,001
-392,336	-20,599	0,062	-0,028
-391,321	-60,402	-0,047	0,015
-390,306	599,205	-0,020	-0,036
-389,292	-200,000	-0,009	-0,044
-388,277	178,108	0,016	-0,017
-387,263	-141,026	0,101	-0,007
-386,248	81,666	0,083	0,065
-385,233	-200,000	-0,034	0,178
-384,219	-200,000	0,002	-0,052
-383,204	344,153	-0,007	-0,009
-382,190	169,578	-0,081	-0,084
-381,175	-120,595	-0,025	0,003
-380,160	-135,816	0,146	0,012
-379,146	-200,000	-0,002	-0,080
-378,131	261,746	0,114	0,144
-377,117	421,091	-0,078	0,122
-376,102	800,000	0,026	0,057
-375,088	800,000	-0,027	0,068
-374,073	63,373	0,092	-0,067
-373,058	800,000	0,017	0,045
-372,044	-59,816	0,063	0,020
-371,029	-200,000	-0,012	-0,042
-370,015	63,343	0,093	-0,068
-369,000	98,029	-0,027	0,023
-367,985	82,378	-0,059	-0,046
-366,971	-200,000	0,038	-0,181
-365,956	-41,636	0,113	-0,042
-364,942	-200,000	0,010	0,108
-363,927	25,698	0,041	0,025
-362,912	7,520	-0,148	0,080
-361,898	612,614	-0,011	0,020
-360,883	398,869	-0,054	-0,082
-359,869	101,237	-0,118	-0,100
-358,854	270,869	0,012	-0,015
-357,839	299,280	0,065	0,087
-356,825	-200,000	0,015	-0,050
-355,810	-200,000	0,019	0,147
-354,796	85,406	0,031	0,024
-353,781	-75,188	-0,089	-0,023
-352,766	800,000	-0,024	0,072
-351,752	-44,413	0,080	0,029
-350,737	-62,589	-0,018	0,006
-349,723	800,000	-0,053	-0,116
-348,708	-113,527	-0,079	0,011
-347,693	-40,366	0,161	-0,060
-346,679	-15,874	-0,159	-0,073
-345,664	212,986	0,018	-0,021
-344,650	403,464	-0,036	0,055
-343,635	800,000	0,065	-0,168
-342,620	298,335	-0,033	0,045
-341,606	11,445	0,100	-0,056
-340,591	114,329	-0,048	-0,042
-339,577	101,089	-0,131	-0,110
-338,562	177,244	-0,021	-0,023
-337,548	14,397	-0,017	0,009
-336,533	800,000	0,032	-0,089
-335,518	800,000	-0,013	-0,036
-334,504	-200,000	0,025	0,122
-333,489	71,732	0,075	-0,056
-332,475	-34,880	-0,123	-0,049
-331,460	-56,104	0,158	-0,051
-330,445	153,659	0,047	0,047
-329,431	-189,742	0,212	0,002
-328,416	-91,651	-0,071	-0,014
-327,402	-200,000	-0,027	0,137
-326,387	33,923	-0,060	-0,038
-325,372	18,282	-0,135	-0,078
-324,358	338,540	-0,042	0,059
-323,343	-53,691	-0,047	0,015
-322,329	7,426	0,175	0,094
-321,314	-116,695	0,080	-0,011
-320,299	800,000	0,078	0,186
-319,285	636,874	0,015	0,029
-318,270	504,170	-0,048	0,081
-317,256	-200,000	-0,017	-0,090
-316,241	-200,000	0,019	-0,088
-315,226	-200,000	-0,010	-0,033
-314,212	-200,000	-0,004	-0,062
-313,197	65,953	-0,131	0,096
-312,183	-24,056	0,136	0,059
-311,168	-200,000	-0,019	-0,132
-310,153	800,000	-0,056	-0,114
-309,139	-34,624	0,031	-0,012
-308,124	35,512	0,114	-0,072
-307,110	33,012	0,086	-0,054
-306,095	800,000	0,063	0,138
-305,080	298,730	0,031	0,041
-304,066	-200,000	0,012	-0,059
-303,051	-0,751	-0,048	-0,024
-302,037	-16,462	-0,101	0,046
-301,022	-200,000	0,024	-0,076
-300,008	-200,000	0,000	0,084
-298,993	-200,000	-0,010	0,123
-297,978	41,424	0,056	-0,036
-296,964	40,213	0,107	-0,070
-295,949	800,000	0,024	-0,066
-294,935	247,919	-0,031	-0,038
-293,920	528,308	-0,052	0,089
-292,905	-138,024	0,175	0,014
-291,891	-69,592	0,091	-0,025
-290,876	-200,000	-0,009	0,059
-289,862	18,145	-0,014	0,008
-288,847	-133,620	-0,204	0,018
-287,832	325,528	-0,099	-0,137
-286,818	800,000	-0,041	-0,103
-285,803	332,000	-0,073	-0,102
-284,789	776,465	0,046	0,091
-283,774	-200,000	0,017	-0,074
-282,759	-39,361	0,117	0,044
-281,745	-200,000	0,002	-0,113
-280,730	-88,632	-0,052	-0,011
-279,716	-63,507	0,031	-0,009
-278,701	-200,000	-0,029	0,149
-277,686	-76,708	0,103	0,026
-276,672	213,985	0,076	0,087
-275,657	-179,763	0,107	0,002
-274,643	-142,261	0,066	-0,005
-273,628	387,212	0,064	0,096
-272,613	-200,000	0,004	-0,160
-271,599	-15,791	0,074	-0,034
-270,584	-200,000	0,038	-0,129
-269,570	-66,313	0,024	0,007
-268,555	-200,000	-0,003	0,046
-267,540	-61,274	-0,144	-0,044
-266,526	-37,290	-0,041	-0,016
-265,511	-53,285	-0,098	0,032
-264,497	-200,000	-0,015	0,086
-263,482	230,969	0,051	0,061
-262,467	326,377	-0,035	0,049
-261,453	40,010	0,056	-0,037
-260,438	-200,000	0,018	-0,120
-259,424	58,857	-0,075	0,053
-258,409	-200,000	-0,016	0,076
-257,395	72,804	0,017	0,013
-256,380	-165,219	0,128	-0,004
-255,365	163,566	-0,122	0,124
-254,351	800,000	-0,045	0,143
-253,336	-94,174	0,045	-0,009
-252,322	-13,718	-0,059	0,028
-251,307	-200,000	-0,001	0,072
-250,292	800,000	-0,065	0,137
-249,278	197,266	0,073	-0,080
-248,263	-200,000	-0,034	0,138
-247,249	371,548	-0,089	0,131
-246,234	139,649	-0,027	-0,025
-245,219	-200,000	0,017	-0,118
-244,205	-200,000	-0,002	-0,036
-243,190	345,059	0,068	0,097
-242,176	-108,758	0,044	0,007
-241,161	196,336	0,047	0,052
-240,146	32,103	0,134	0,084
-239,132	108,605	0,051	-0,044
-238,117	-77,688	-0,047	-0,012
-237,103	-19,749	-0,111	0,050
-236,088	-200,000	0,006	0,095
-235,073	99,171	0,046	0,038
-234,059	9,763	-0,027	-0,015
-233,044	-78,977	-0,140	0,034
-232,030	800,000	0,022	-0,064
-231,015	-22,441	0,088	0,038
-230,000	-200,000	0,039	-0,160
-228,986	-200,000	-0,008	-0,086
-227,971	-160,802	0,130	-0,005
-226,957	16,964	0,160	0,091
-225,942	115,818	0,081	-0,072
-224,927	-95,656	-0,029	0,006
-223,913	476,180	-0,051	-0,084
-222,898	-200,000	-0,026	-0,206
-221,884	-168,245	0,016	-0,000
-220,869	361,790	0,052	0,075
-219,855	-138,768	0,094	0,007
-218,840	197,381	-0,120	0,133
-217,825	800,000	0,027	-0,066
-216,811	49,618	-0,005	-0,004
-215,796	160,756	-0,107	0,108
-214,782	12,542	-0,051	0,028
-213,767	-200,000	0,006	-0,082
-212,752	-70,480	-0,074	0,020
-211,738	-40,660	0,151	-0,056
-210,723	0,903	-0,067	-0,034
-209,709	-200,000	0,013	0,105
-208,694	-91,613	-0,103	-0,021
-207,679	565,467	-0,027	0,048
-206,665	71,115	0,064	-0,048
-205,650	800,000	0,054	0,164
-204,636	707,532	-0,046	0,088
-203,621	-52,360	-0,142	-0,047
-202,606	-200,000	-0,007	0,057
-201,592	-200,000	0,008	0,119
-200,577	800,000	0,032	-0,075
-199,563	800,000	0,027	-0,074
-198,548	-200,000	0,012	-0,064
-197,533	-200,000	0,029	0,160
-196,519	376,170	0,057	0,084
-195,504	60,509	-0,076	0,054
-194,490	800,000	-0,009	0,023
-193,475	464,680	-0,035	-0,056
-192,460	-48,283	0,044	-0,015
-191,446	800,000	-0,015	0,038
-190,431	-73,995	0,034	-0,009
-189,417	-200,000	-0,014	0,060
-188,402	276,602	0,128	-0,165
-187,387	-200,000	-0,029	-0,125
-186,373	-93,887	0,050	-0,010
-185,358	418,605	-0,010	0,016
-184,344	-22,152	0,098	0,043
-183,329	27,932	0,064	0,039
-182,315	40,207	-0,112	-0,073
-181,300	-200,000	-0,019	0,105
-180,285	-11,954	-0,146	0,069
-179,271	-138,330	-0,196	-0,015
-178,256	39,862	0,050	0,033
-177,242	800,000	-0,055	0,144
-176,227	-200,000	-0,002	-0,007
-175,212	-29,621	0,118	0,048
-174,198	13,697	0,060	-0,034
-173,183	70,111	-0,107	-0,079
-172,169	180,145	-0,133	0,140
-171,154	247,730	0,058	0,070
-170,139	-16,550	0,033	0,015
-169,125	-200,000	-0,003	-0,022
-168,110	-78,974	0,038	0,009
-167,096	35,164	0,115	-0,072
-166,081	-200,000	-0,016	0,112
-165,066	7,109	-0,073	0,039
-164,052	-106,605	0,075	-0,012
-163,037	-134,834	-0,058	-0,005
-162,023	328,428	0,062	-0,086
-161,008	391,476	0,050	0,075
-159,993	12,075	0,090	0,050
-158,979	-75,155	0,077	0,020
-157,964	-69,065	0,051	-0,014
-156,950	-25,826	-0,156	0,066
-155,935	800,000	0,019	0,038
-154,920	-200,000	0,005	-0,049
-153,906	528,785	-0,036	-0,062
-152,891	800,000	-0,055	-0,113
-151,877	-200,000	0,015	0,049
-150,862	-200,000	-0,009	0,069
-149,847	20,154	0,082	-0,048
-148,833	33,601	0,170	-0,106
-147,818	800,000	0,046	-0,106
-146,804	-161,521	0,145	0,005
-145,789	553,083	-0,031	-0,053
-144,775	138,975	-0,063	0,060
-143,760	-200,000	-0,006	0,074
-142,745	259,737	0,081	-0,101
-141,731	-101,693	-0,078	-0,013
-140,716	233,329	0,031	-0,036
-139,702	800,000	0,106	0,217
-138,687	186,884	-0,060	-0,065
-137,672	411,016	-0,016	0,024
-136,658	141,574	0,140	-0,134
-135,643	296,972	0,067	-0,089
-134,629	800,000	0,043	-0,125
-133,614	-54,675	0,079	-0,026
-132,599	91,423	-0,062	-0,050
-131,585	-200,000	-0,005	0,032
-130,570	62,520	0,066	0,048
-129,556	-86,209	-0,067	-0,015
-128,541	-177,281	-0,131	-0,002
-127,526	-71,709	-0,080	-0,021
-126,512	-169,346	-0,028	0,001
-125,497	352,323	0,104	0,149
-124,483	800,000	-0,056	-0,127
-123,468	-175,712	0,012	0,000
-122,453	79,919	0,053	-0,041
-121,439	-200,000	-0,021	-0,073
-120,424	325,626	0,102	0,140
