DTS Sentinel unit serial number:	SN410029Multiplexer serial number:	ORYXHardware model number:	OX2-SRSoftware version number:	ORYX F/W v4,00 Oryx Data Collector v3.7.2.0data status	okinstallation	B6 Nyhavnadifferential loss correction	single-endedforward channel	channel 2reverse channel	N/Adate	2023/12/11time	02:10:08forward acquisition time	300,00reverse acquisition time	0,00gamma	499,1914k internal	0,3122k external	0,3122temperature offset calibration	1,0000default loss term (dB/km)	0,3820temperature slope calibration	1,0000multiplexer offset coefficient	1,0000multiplexer slope coefficient	1,0000fibre end	0,00T internal ref (°C)	21,88T ext. ref 1 (°C)	4,85T ext. ref 2 (°C)	4,88length (m)	temperature (°C)	Stokes	anti-Stokes-744,400	537,427	0,076	-0,136
-743,385	-50,482	-0,177	0,062
-742,371	478,257	-0,009	-0,015
-741,356	-61,859	-0,296	0,092
-740,342	-142,546	0,056	-0,004
-739,327	-134,791	-0,220	-0,020
-738,312	112,107	-0,048	0,044
-737,298	77,089	-0,164	0,130
-736,283	77,771	0,063	-0,050
-735,269	-183,277	-0,280	0,004
-734,254	60,995	0,135	-0,100
-733,239	-57,321	-0,443	-0,144
-732,225	296,197	0,032	-0,044
-731,210	315,250	0,093	0,131
-730,196	42,076	-0,077	0,052
-729,181	-140,653	-0,071	-0,005
-728,167	145,452	-0,030	-0,030
-727,152	91,183	-0,063	0,053
-726,137	-200,000	-0,009	-0,077
-725,123	73,318	-0,088	-0,069
-724,108	800,000	-0,082	-0,170
-723,094	-200,000	-0,030	-0,110
-722,079	800,000	-0,089	-0,226
-721,064	41,489	0,118	-0,079
-720,050	18,961	0,048	0,029
-719,035	-92,475	-0,058	0,012
-718,021	21,586	-0,032	-0,019
-717,006	135,584	-0,080	0,078
-715,991	-161,397	-0,156	-0,006
-714,977	-200,000	0,000	0,002
-713,962	-200,000	0,007	-0,082
-712,948	-42,232	-0,031	0,012
-711,933	136,800	0,050	0,049
-710,918	698,355	0,062	-0,121
-709,904	-200,000	-0,007	0,041
-708,889	668,681	0,043	0,083
-707,875	2,675	-0,098	0,053
-706,860	117,086	-0,074	0,068
-705,845	-200,000	-0,017	-0,120
-704,831	-23,337	0,012	0,006
-703,816	800,000	-0,022	0,055
-702,802	-200,000	-0,007	-0,040
-701,787	-31,121	-0,189	-0,079
-700,772	-98,416	-0,185	-0,035
-699,758	-102,164	-0,037	0,007
-698,743	-122,938	-0,096	0,011
-697,729	673,086	-0,017	-0,032
-696,714	767,083	0,029	-0,059
-695,699	120,146	0,008	0,007
-694,685	-81,986	-0,061	0,015
-693,670	-200,000	-0,005	-0,096
-692,656	50,207	-0,055	-0,039
-691,641	553,585	0,031	0,055
-690,627	557,208	-0,019	-0,033
-689,612	193,714	-0,016	0,018
-688,597	20,092	0,041	-0,024
-687,583	194,350	-0,083	-0,094
-686,568	-113,425	-0,026	0,004
-685,554	800,000	-0,081	-0,183
-684,539	-104,702	0,064	-0,011
-683,524	-200,000	-0,022	0,119
-682,510	-200,000	-0,012	0,081
-681,495	-200,000	0,012	-0,146
-680,481	-200,000	0,001	-0,085
-679,466	800,000	-0,045	-0,124
-678,451	-200,000	0,008	-0,035
-677,437	800,000	0,017	-0,052
-676,422	-200,000	-0,005	-0,103
-675,408	-87,188	0,075	0,017
-674,393	98,660	0,055	0,047
-673,378	-16,500	-0,122	-0,057
-672,364	-200,000	0,005	0,082
-671,349	800,000	-0,022	-0,051
-670,335	-200,000	-0,004	-0,130
-669,320	15,628	0,033	-0,019
-668,305	158,541	-0,090	-0,093
-667,291	-52,231	0,068	-0,023
-666,276	-130,206	-0,162	-0,016
-665,262	-161,793	0,042	0,002
-664,247	800,000	-0,027	-0,087
-663,232	-62,801	-0,143	-0,044
-662,218	244,608	0,035	-0,043
-661,203	5,545	0,115	-0,063
-660,189	-200,000	0,021	0,113
-659,174	3,881	-0,137	-0,074
-658,159	-20,791	-0,060	-0,027
-657,145	182,802	0,030	0,033
-656,130	77,704	0,175	-0,138
-655,116	-200,000	-0,006	0,078
-654,101	176,596	0,074	0,080
-653,086	-200,000	-0,010	-0,047
-652,072	636,535	0,051	-0,097
-651,057	407,184	-0,097	-0,152
-650,043	236,072	0,048	-0,059
-649,028	53,684	0,019	-0,013
-648,014	-200,000	-0,014	0,051
-646,999	-200,000	-0,009	0,054
-645,984	800,000	-0,033	0,084
-644,970	800,000	-0,051	-0,159
-643,955	396,948	-0,042	0,065
-642,941	-162,321	-0,040	-0,001
-641,926	92,433	0,071	-0,060
-640,911	180,273	-0,055	0,061
-639,897	800,000	0,040	0,088
-638,882	-200,000	-0,019	0,068
-637,868	-80,466	0,125	-0,031
-636,853	800,000	-0,045	-0,115
-635,838	706,113	-0,060	0,118
-634,824	-94,799	0,071	-0,014
-633,809	1,349	0,023	0,012
-632,795	20,462	0,014	0,008
-631,780	403,750	-0,076	0,120
-630,765	-143,844	0,034	0,002
-629,751	-200,000	0,003	-0,030
-628,736	-89,377	0,007	-0,002
-627,722	-200,000	-0,029	-0,107
-626,707	215,406	0,065	-0,076
-625,692	-34,475	-0,072	0,029
-624,678	-150,970	-0,162	0,009
-623,663	-55,098	0,012	-0,004
-622,649	186,388	-0,063	-0,069
-621,634	-200,000	-0,002	-0,032
-620,619	-200,000	-0,011	0,040
-619,605	-200,000	-0,013	-0,059
-618,590	-161,356	0,076	-0,003
-617,576	334,012	-0,032	-0,046
-616,561	-40,134	-0,119	-0,046
-615,546	-200,000	-0,008	0,117
-614,532	368,043	-0,101	-0,152
-613,517	87,646	0,080	0,066
-612,503	800,000	-0,009	0,025
-611,488	-200,000	0,013	0,166
-610,474	-131,841	0,102	0,010
-609,459	-200,000	-0,012	-0,048
-608,444	-52,261	-0,114	-0,039
-607,430	-65,107	-0,081	-0,024
-606,415	-200,000	-0,018	-0,156
-605,401	800,000	0,042	-0,088
-604,386	-114,325	-0,046	0,007
-603,371	-62,334	-0,063	0,019
-602,357	-200,000	-0,005	-0,031
-601,342	-32,348	-0,051	-0,021
-600,328	106,196	-0,026	0,023
-599,313	129,061	0,043	0,041
-598,298	-81,116	0,116	-0,028
-597,284	800,000	-0,051	0,129
-596,269	281,515	0,042	0,055
-595,255	-132,120	0,064	0,006
-594,240	-77,856	-0,201	0,051
-593,225	-39,959	-0,165	-0,064
-592,211	-124,335	0,019	0,002
-591,196	-200,000	-0,000	-0,055
-590,182	121,494	0,028	-0,026
-589,167	800,000	0,028	0,061
-588,152	265,617	-0,056	0,072
-587,138	443,444	-0,024	0,039
-586,123	169,280	-0,085	-0,091
-585,109	6,061	-0,018	0,010
-584,094	-72,737	0,070	0,019
-583,079	-49,825	0,138	-0,048
-582,065	188,277	-0,018	0,020
-581,050	-200,000	0,006	0,072
-580,036	532,623	-0,071	0,126
-579,021	48,507	-0,086	0,060
-578,006	-200,000	0,016	0,081
-576,992	154,085	-0,106	0,107
-575,977	219,159	0,121	0,143
-574,963	-129,460	0,140	0,014
-573,948	344,275	0,034	-0,050
-572,934	308,857	-0,102	-0,142
-571,919	-146,765	-0,021	-0,001
-570,904	-200,000	-0,030	-0,160
-569,890	100,200	0,051	-0,044
-568,875	92,895	0,076	0,064
-567,861	60,968	0,076	0,056
-566,846	-200,000	-0,022	0,094
-565,831	800,000	0,059	0,173
-564,817	-94,236	-0,122	-0,024
-563,802	376,016	0,046	-0,069
-562,788	-17,858	0,011	-0,005
-561,773	114,074	-0,065	-0,058
-560,758	-87,132	0,110	0,025
-559,744	29,717	-0,085	-0,053
-558,729	6,411	-0,035	0,019
-557,715	62,058	-0,086	-0,063
-556,700	-61,281	-0,109	0,034
-555,685	-28,752	-0,101	0,043
-554,671	-200,000	-0,003	-0,150
-553,656	-3,128	-0,101	-0,052
-552,642	293,599	0,084	0,114
-551,627	800,000	0,024	-0,062
-550,612	57,749	-0,052	-0,038
-549,598	-15,529	-0,060	-0,028
-548,583	-200,000	-0,017	-0,078
-547,569	800,000	0,049	-0,119
-546,554	-200,000	-0,010	0,053
-545,539	129,384	0,068	-0,064
-544,525	-112,106	0,165	0,024
-543,510	208,153	-0,035	0,040
-542,496	34,587	0,105	-0,068
-541,481	-200,000	0,007	0,113
-540,466	75,233	-0,037	0,029
-539,452	-200,000	-0,028	0,108
-538,437	800,000	0,058	0,122
-537,423	60,028	-0,081	-0,059
-536,408	800,000	0,025	0,067
-535,393	800,000	-0,051	0,146
-534,379	-200,000	-0,019	0,065
-533,364	652,769	-0,046	-0,087
-532,350	-0,591	0,018	-0,009
-531,335	-179,215	0,171	0,003
-530,321	95,794	-0,077	0,065
-529,306	-200,000	-0,012	-0,048
-528,291	81,874	-0,078	-0,062
-527,277	-200,000	0,003	-0,014
-526,262	19,150	0,097	0,058
-525,248	800,000	0,059	0,122
-524,233	800,000	-0,022	0,052
-523,218	-200,000	0,007	-0,023
-522,204	-200,000	0,008	-0,030
-521,189	-63,750	-0,131	0,040
-520,175	-80,445	0,043	-0,011
-519,160	118,654	0,060	0,055
-518,145	-200,000	0,041	0,142
-517,131	278,307	0,064	0,084
-516,116	-126,804	0,093	-0,010
-515,102	224,072	-0,035	-0,042
-514,087	6,960	-0,066	-0,036
-513,072	328,647	0,042	-0,059
-512,058	-200,000	0,007	-0,112
-511,043	191,694	0,031	-0,034
-510,029	-39,931	-0,095	0,037
-509,014	459,648	0,027	0,044
-507,999	302,156	-0,053	0,073
-506,985	-200,000	-0,017	-0,079
-505,970	800,000	0,034	0,085
-504,956	-81,831	0,041	0,010
-503,941	-138,526	-0,093	-0,007
-502,926	-179,214	0,044	0,001
-501,912	476,465	0,039	0,066
-500,897	362,876	0,018	-0,027
-499,883	171,956	-0,068	0,072
-498,868	-57,604	0,108	0,035
-497,853	387,095	-0,053	0,081
-496,839	77,807	0,079	0,062
-495,824	103,324	-0,038	0,033
-494,810	-200,000	0,008	-0,050
-493,795	-186,609	-0,042	0,000
-492,781	800,000	0,032	0,092
-491,766	-200,000	-0,000	0,005
-490,751	716,504	-0,050	0,098
-489,737	-200,000	-0,006	0,108
-488,722	-200,000	0,039	0,167
-487,708	800,000	0,017	0,040
-486,693	317,302	-0,086	-0,121
-485,678	73,078	-0,017	0,013
-484,664	-200,000	0,023	0,161
-483,649	8,295	0,074	0,041
-482,635	84,118	-0,066	-0,053
-481,620	-19,921	0,119	-0,054
-480,605	455,396	-0,049	0,081
-479,591	72,490	-0,012	0,009
-478,576	-42,385	-0,130	0,049
-477,562	800,000	0,016	-0,052
-476,547	408,172	-0,066	-0,104
-475,532	76,112	-0,044	-0,034
-474,518	133,572	0,087	0,083
-473,503	450,380	0,091	0,148
-472,489	5,214	0,047	0,026
-471,474	-159,721	0,043	0,002
-470,459	32,667	-0,085	-0,054
-469,445	-119,461	-0,091	-0,012
-468,430	601,065	0,011	0,021
-467,416	3,780	0,096	0,051
-466,401	42,576	-0,039	-0,026
-465,386	122,770	0,024	0,023
-464,372	133,314	-0,020	0,019
-463,357	800,000	0,031	0,066
-462,343	-72,633	0,035	-0,009
-461,328	-200,000	-0,004	-0,027
-460,313	-200,000	0,005	-0,043
-459,299	-150,997	0,120	-0,007
-458,284	-180,007	-0,011	-0,000
-457,270	-167,021	-0,117	0,003
-456,255	138,634	-0,101	-0,098
-455,241	44,461	-0,110	-0,074
-454,226	-200,000	0,028	-0,136
-453,211	-13,879	0,086	0,041
-452,197	216,210	-0,031	0,037
-451,182	800,000	-0,036	0,086
-450,168	-135,077	0,135	0,012
-449,153	251,234	-0,031	-0,039
-448,138	-124,428	-0,092	-0,010
-447,124	-65,136	-0,158	0,047
-446,109	-61,297	-0,083	-0,026
-445,095	-200,000	0,001	0,005
-444,080	-102,982	-0,065	-0,011
-443,065	-98,665	0,093	0,017
-442,051	-120,749	0,143	0,018
-441,036	-200,000	-0,015	0,066
-440,022	-123,276	0,129	-0,015
-439,007	33,506	0,101	-0,064
-437,992	48,960	-0,094	-0,065
-436,978	794,258	0,040	0,082
-435,963	-182,975	0,080	-0,001
-434,949	222,837	-0,024	0,029
-433,934	347,900	-0,013	0,019
-432,919	-200,000	-0,001	0,131
-431,905	189,083	0,043	0,047
-430,890	-84,062	0,099	0,023
-429,876	-164,753	0,098	-0,003
-428,861	-37,565	0,112	0,044
-427,846	-110,915	-0,076	-0,011
-426,832	148,134	-0,087	0,086
-425,817	99,949	0,059	0,050
-424,803	145,522	0,037	-0,036
-423,788	-148,365	0,090	-0,005
-422,773	-200,000	-0,007	0,097
-421,759	-50,894	-0,065	0,023
-420,744	519,282	-0,044	-0,076
-419,730	-63,782	-0,145	-0,044
-418,715	156,500	0,054	0,055
-417,701	-200,000	-0,023	-0,175
-416,686	566,206	-0,052	-0,094
-415,671	17,410	0,060	-0,035
-414,657	38,153	-0,034	-0,022
-413,642	-139,469	-0,124	-0,010
-412,628	-200,000	0,043	-0,167
-411,613	-111,076	-0,078	-0,012
-410,598	-100,154	0,165	0,030
-409,584	-200,000	0,020	0,087
-408,569	183,916	0,043	0,046
-407,555	-83,608	-0,091	0,021
-406,540	-73,950	0,092	0,024
-405,525	800,000	0,026	0,059
-404,511	-175,354	0,104	0,002
-403,496	-200,000	0,014	-0,049
-402,482	-200,000	-0,002	-0,095
-401,467	-200,000	0,049	0,166
-400,452	90,946	0,035	-0,029
-399,438	-200,000	0,008	0,099
-398,423	360,744	0,057	0,084
-397,409	-148,643	-0,060	-0,004
-396,394	-105,384	-0,105	-0,017
-395,379	54,065	0,093	-0,066
-394,365	60,858	-0,069	-0,050
-393,350	720,090	0,023	0,046
-392,336	-200,000	-0,030	-0,107
-391,321	800,000	-0,010	-0,032
-390,306	1,868	-0,037	0,019
-389,292	800,000	-0,016	-0,040
-388,277	-87,490	0,077	0,017
-387,263	-107,575	-0,117	0,019
-386,248	-200,000	-0,020	0,153
-385,233	523,252	-0,036	-0,062
-384,219	-81,041	-0,068	-0,017
-383,204	468,933	0,017	-0,028
-382,190	268,630	0,063	-0,082
-381,175	87,274	-0,027	-0,022
-380,160	-95,606	0,147	-0,029
-379,146	-64,941	0,095	0,028
-378,131	-54,363	-0,106	0,035
-377,117	-200,000	-0,015	-0,086
-376,102	-200,000	0,002	-0,010
-375,088	127,669	-0,048	-0,045
-374,073	498,497	0,102	0,174
-373,058	512,706	0,041	-0,070
-372,044	557,116	-0,042	-0,076
-371,029	458,201	0,052	0,085
-370,015	81,006	-0,090	0,072
-369,000	-200,000	-0,004	0,022
-367,985	-20,558	-0,043	-0,020
-366,971	-36,208	-0,114	0,045
-365,956	-200,000	0,019	0,072
-364,942	-66,461	0,125	-0,036
-363,927	93,768	0,094	-0,078
-362,912	18,255	-0,027	-0,016
-361,898	800,000	0,049	-0,111
-360,883	-200,000	-0,021	-0,101
-359,869	-48,833	-0,075	0,026
-358,854	156,458	0,084	0,085
-357,839	163,367	-0,034	-0,035
-356,825	681,240	0,045	0,087
-355,810	-39,361	-0,072	-0,027
-354,796	26,972	0,023	0,014
-353,781	-111,338	0,039	0,006
-352,766	-53,931	-0,017	-0,006
-351,752	329,536	0,028	0,040
-350,737	-75,136	-0,062	-0,016
-349,723	800,000	-0,028	0,059
-348,708	405,785	0,033	-0,051
-347,693	-149,911	0,004	-0,000
-346,679	45,523	-0,052	-0,035
-345,664	56,459	0,056	-0,040
-344,650	417,001	0,024	0,037
-343,635	800,000	0,014	0,028
-342,620	147,464	0,035	-0,035
-341,606	-173,685	-0,081	0,002
-340,591	220,286	-0,010	-0,012
-339,577	-12,173	-0,155	-0,074
-338,562	-40,870	-0,114	0,043
-337,548	461,752	0,011	0,018
-336,533	-163,066	0,020	0,001
-335,518	388,926	-0,014	0,021
-334,504	-200,000	-0,012	0,051
-333,489	-200,000	-0,024	-0,127
-332,475	29,430	-0,071	0,044
-331,460	-41,716	-0,096	0,036
-330,445	-200,000	-0,026	0,094
-329,431	208,493	-0,036	0,041
-328,416	-133,400	0,068	-0,006
-327,402	-200,000	-0,003	-0,110
-326,387	-200,000	-0,015	0,089
-325,372	212,547	-0,072	-0,083
-324,358	141,675	-0,048	-0,047
-323,343	139,670	-0,082	-0,080
-322,329	501,199	0,023	-0,039
-321,314	787,230	-0,033	-0,067
-320,299	58,152	-0,009	-0,006
-319,285	-100,399	0,087	-0,016
-318,270	-120,484	-0,164	0,020
-317,256	169,094	-0,088	-0,092
-316,241	-101,863	0,105	-0,018
-315,226	-68,367	0,069	-0,020
-314,212	-200,000	0,002	-0,084
-313,197	-200,000	0,012	-0,097
-312,183	293,168	0,093	0,124
-311,168	89,177	0,131	-0,107
-310,153	-200,000	-0,034	-0,197
-309,139	153,925	-0,027	-0,027
-308,124	-80,209	0,096	0,023
-307,110	-61,828	0,065	-0,020
-306,095	800,000	-0,035	0,092
-305,080	10,177	-0,073	-0,041
-304,066	-73,850	0,127	0,034
-303,051	17,292	-0,179	-0,104
-302,037	-36,750	0,084	-0,033
-301,022	427,449	-0,044	-0,069
-300,008	800,000	-0,069	-0,210
-298,993	800,000	0,056	0,114
-297,978	219,166	0,077	0,091
-296,964	-57,539	-0,142	0,045
-295,949	800,000	-0,021	-0,056
-294,935	393,137	0,023	0,036
-293,920	-200,000	-0,015	-0,161
-292,905	556,411	0,045	-0,080
-291,891	-173,717	0,084	-0,002
-290,876	49,470	0,139	0,096
-289,862	39,010	-0,136	0,089
-288,847	92,002	-0,087	0,072
-287,832	-200,000	-0,011	0,107
-286,818	-200,000	0,024	-0,115
-285,803	42,368	0,140	0,093
-284,789	681,716	0,068	0,130
-283,774	64,061	0,067	0,049
-282,759	577,003	-0,018	-0,033
-281,745	-200,000	0,001	0,008
-280,730	634,669	0,015	0,028
-279,716	25,436	0,085	-0,052
-278,701	74,304	-0,019	0,015
-277,686	-61,932	0,163	0,049
-276,672	81,193	0,141	0,111
-275,657	221,092	0,035	-0,041
-274,643	-114,317	-0,145	0,020
-273,628	-200,000	0,046	-0,234
-272,613	-91,454	-0,104	0,021
-271,599	-156,716	0,096	-0,004
-270,584	-200,000	-0,002	-0,058
-269,570	-200,000	-0,007	0,110
-268,555	-200,000	-0,012	0,062
-267,540	800,000	-0,039	-0,095
-266,526	-200,000	0,001	-0,144
-265,511	800,000	0,029	0,076
-264,497	800,000	-0,026	-0,063
-263,482	-200,000	-0,047	0,207
-262,467	-41,981	0,083	0,031
-261,453	-114,620	0,035	0,005
-260,438	103,627	-0,134	0,115
-259,424	-200,000	-0,003	-0,081
-258,409	277,749	0,115	-0,151
-257,395	-200,000	0,006	0,072
-256,380	-93,685	-0,111	0,022
-255,365	408,400	-0,031	0,048
-254,351	-84,547	0,124	-0,028
-253,336	299,986	-0,021	-0,028
-252,322	94,787	-0,020	0,016
-251,307	800,000	-0,014	-0,039
-250,292	-64,190	-0,088	-0,026
-249,278	389,247	0,062	0,094
-248,263	-123,312	0,152	-0,018
-247,249	-124,975	0,038	0,004
-246,234	-200,000	0,013	-0,127
-245,219	-200,000	0,019	-0,123
-244,205	-200,000	-0,025	-0,085
-243,190	800,000	0,043	-0,094
-242,176	-200,000	-0,031	-0,127
-241,161	-60,628	-0,100	0,031
-240,146	-200,000	0,002	-0,023
-239,132	139,945	0,050	0,048
-238,117	153,763	0,024	0,024
-237,103	6,944	0,019	-0,010
-236,088	-24,241	0,092	-0,040
-235,073	63,210	-0,041	0,030
-234,059	-200,000	-0,020	-0,216
-233,044	-100,820	0,078	-0,014
-232,030	66,744	0,090	-0,067
-231,015	800,000	-0,006	0,018
-230,000	-200,000	-0,001	-0,165
-228,986	194,106	-0,100	-0,111
-227,971	-200,000	0,023	0,169
-226,957	-146,553	0,056	-0,004
-225,942	81,963	-0,066	-0,052
-224,927	-200,000	-0,001	-0,029
-223,913	30,748	-0,125	-0,078
-222,898	-200,000	-0,011	-0,066
-221,884	800,000	-0,042	-0,095
-220,869	-200,000	-0,003	-0,080
-219,855	-109,901	0,189	0,029
-218,840	-200,000	-0,020	-0,071
-217,825	134,794	-0,029	0,027
-216,811	800,000	0,010	0,026
-215,796	294,809	0,076	-0,102
-214,782	-97,197	0,093	0,018
-213,767	74,336	-0,093	-0,071
-212,752	-121,246	0,082	-0,010
-211,738	251,953	0,066	0,082
-210,723	-71,036	-0,062	0,017
-209,709	-130,298	-0,173	0,017
-208,694	86,670	0,089	-0,072
-207,679	-200,000	-0,009	0,073
-206,665	-200,000	-0,027	0,096
-205,650	-197,488	0,074	0,000
-204,636	260,895	0,066	-0,084
-203,621	147,804	-0,131	-0,129
-202,606	-200,000	-0,011	0,039
-201,592	28,570	0,062	-0,038
-200,577	800,000	-0,009	0,025
-199,563	-200,000	0,014	-0,128
-198,548	166,208	-0,073	-0,076
-197,533	-75,224	0,048	-0,012
-196,519	-81,835	-0,079	-0,019
-195,504	487,554	-0,084	-0,141
-194,490	322,782	0,030	-0,041
-193,475	-200,000	0,092	0,000
-192,460	800,000	0,036	-0,104
-191,446	56,878	-0,060	-0,042
-190,431	-63,845	0,039	-0,012
-189,417	800,000	-0,008	0,020
-188,402	-72,748	0,110	0,029
-187,387	349,444	-0,118	0,171
-186,373	-200,000	-0,023	0,108
-185,358	15,934	0,139	-0,080
-184,344	-200,000	-0,010	-0,076
-183,329	-50,774	0,139	-0,047
-182,315	619,546	0,080	0,147
-181,300	381,628	0,055	-0,083
-180,285	-70,299	-0,036	-0,010
-179,271	116,462	-0,097	0,086
-178,256	-200,000	0,022	0,075
-177,242	-103,456	0,091	-0,015
-176,227	-200,000	0,061	-0,000
-175,212	-200,000	-0,009	-0,049
-174,198	-32,632	-0,190	-0,077
-173,183	800,000	-0,039	-0,110
-172,169	-174,556	0,003	0,000
-171,154	-86,062	0,065	-0,015
-170,139	-14,240	0,107	-0,050
-169,125	184,100	-0,052	0,056
-168,110	222,910	-0,065	-0,077
-167,096	23,868	0,013	-0,008
-166,081	-29,809	0,018	0,007
-165,066	131,718	0,034	0,032
-164,052	-200,000	0,001	-0,074
-163,037	-200,000	0,010	0,035
-162,023	-200,000	-0,007	0,098
-161,008	350,230	0,065	0,094
-159,993	800,000	-0,039	0,097
-158,979	-200,000	-0,006	-0,022
-157,964	95,336	-0,122	0,102
-156,950	-200,000	0,014	0,063
-155,935	-200,000	0,055	0,223
-154,920	-200,000	0,019	0,071
-153,906	-29,849	-0,095	0,039
-152,891	-164,996	-0,071	0,002
-151,877	30,636	-0,079	-0,049
-150,862	800,000	0,039	-0,103
-149,847	524,114	-0,061	0,104
-148,833	-118,046	0,042	-0,005
-147,818	28,489	0,052	0,032
-146,804	50,329	0,108	-0,074
-145,789	486,795	0,014	-0,023
-144,775	800,000	0,026	-0,060
-143,760	134,034	-0,072	-0,068
-142,745	800,000	-0,009	-0,019
-141,731	-47,887	0,161	-0,057
-140,716	800,000	0,021	-0,052
-139,702	177,241	0,085	0,090
-138,687	-200,000	-0,015	0,120
-137,672	-69,851	0,136	-0,038
-136,658	-200,000	-0,011	-0,166
-135,643	-128,495	-0,084	-0,009
-134,629	-61,172	0,057	-0,017
-133,614	-200,000	-0,009	-0,060
-132,599	-200,000	-0,013	0,118
-131,585	453,798	-0,027	0,043
-130,570	95,057	0,090	0,075
-129,556	-64,785	-0,063	-0,018
-128,541	655,646	-0,051	-0,096
-127,526	5,178	-0,123	0,066
-126,512	-200,000	-0,025	-0,109
-125,497	207,489	-0,064	0,073
-124,483	800,000	0,014	0,041
-123,468	-15,208	-0,042	-0,019
-122,453	-11,391	-0,101	-0,048
-121,439	157,078	-0,054	0,055
-120,424	800,000	-0,024	0,075
