DTS Sentinel unit serial number:	SN410029Multiplexer serial number:	ORYXHardware model number:	OX2-SRSoftware version number:	ORYX F/W v4,00 Oryx Data Collector v3.7.2.0data status	okinstallation	B6 Nyhavnadifferential loss correction	single-endedforward channel	channel 2reverse channel	N/Adate	2023/12/09time	13:30:08forward acquisition time	300,00reverse acquisition time	0,00gamma	499,1914k internal	0,3136k external	0,3136temperature offset calibration	1,0000default loss term (dB/km)	0,3820temperature slope calibration	1,0000multiplexer offset coefficient	1,0000multiplexer slope coefficient	1,0000fibre end	0,00T internal ref (°C)	20,19T ext. ref 1 (°C)	4,60T ext. ref 2 (°C)	4,60length (m)	temperature (°C)	Stokes	anti-Stokes-744,400	-200,000	-0,007	-0,033
-743,385	-103,110	-0,202	0,035
-742,371	-48,374	0,140	0,050
-741,356	188,662	-0,188	0,209
-740,342	-171,269	-0,021	-0,001
-739,327	-9,470	-0,269	0,133
-738,312	-200,000	0,002	0,042
-737,298	73,961	-0,250	0,194
-736,283	57,138	0,079	0,057
-735,269	36,719	-0,255	0,167
-734,254	65,799	0,205	0,154
-733,239	-149,322	-0,439	-0,026
-732,225	408,907	0,044	-0,070
-731,210	-87,856	0,132	-0,029
-730,196	-200,000	0,003	0,054
-729,181	141,529	-0,155	-0,152
-728,167	385,737	0,007	0,010
-727,152	-112,273	-0,124	0,018
-726,137	28,941	-0,060	0,037
-725,123	-149,210	-0,039	-0,002
-724,108	63,627	0,045	0,034
-723,094	-200,000	0,001	-0,118
-722,079	-200,000	0,005	-0,195
-721,064	-200,000	-0,008	-0,075
-720,050	-62,946	-0,076	-0,023
-719,035	356,793	0,014	0,020
-718,021	21,174	-0,080	-0,048
-717,006	800,000	0,095	-0,204
-715,991	-88,846	-0,028	-0,006
-714,977	-100,491	-0,068	0,012
-713,962	59,315	-0,088	-0,064
-712,948	-74,425	-0,074	-0,020
-711,933	7,190	0,039	-0,021
-710,918	49,660	-0,023	0,016
-709,904	-200,000	-0,010	-0,138
-708,889	-200,000	-0,005	-0,131
-707,875	437,108	0,037	0,060
-706,860	130,706	0,017	0,016
-705,845	-200,000	0,006	0,039
-704,831	800,000	0,067	0,167
-703,816	0,130	0,068	0,036
-702,802	800,000	0,028	0,069
-701,787	19,487	-0,125	-0,075
-700,772	-200,000	-0,022	-0,113
-699,758	-51,113	-0,101	-0,035
-698,743	644,307	0,059	-0,112
-697,729	-200,000	0,032	0,123
-696,714	138,862	0,040	0,039
-695,699	-60,812	-0,076	-0,024
-694,685	-26,634	-0,156	0,067
-693,670	47,037	0,118	-0,081
-692,656	139,817	0,032	-0,032
-691,641	-200,000	0,002	0,088
-690,627	323,715	0,054	0,077
-689,612	151,508	0,017	0,017
-688,597	265,375	-0,097	-0,126
-687,583	-16,045	0,062	0,029
-686,568	145,934	0,035	-0,035
-685,554	167,400	0,146	-0,154
-684,539	-74,930	-0,071	-0,019
-683,524	-0,274	-0,092	-0,048
-682,510	-124,885	-0,076	0,009
-681,495	111,154	-0,094	-0,083
-680,481	800,000	0,014	-0,037
-679,466	-59,164	-0,029	-0,009
-678,451	-126,529	-0,015	-0,002
-677,437	-100,387	0,041	0,007
-676,422	800,000	0,058	0,164
-675,408	-151,211	-0,150	-0,008
-674,393	800,000	-0,060	-0,129
-673,378	752,417	0,034	0,067
-672,364	78,487	-0,070	0,055
-671,349	-200,000	0,010	0,035
-670,335	205,710	0,004	-0,005
-669,320	-79,689	-0,035	-0,009
-668,305	-52,553	0,225	0,076
-667,291	-14,005	-0,078	-0,037
-666,276	174,727	0,070	-0,076
-665,262	-200,000	-0,002	-0,049
-664,247	104,492	-0,031	-0,027
-663,232	215,795	-0,055	-0,064
-662,218	277,366	0,081	-0,107
-661,203	-200,000	0,015	0,129
-660,189	-142,433	-0,059	-0,004
-659,174	-200,000	0,005	-0,058
-658,159	-114,832	-0,092	-0,013
-657,145	-200,000	0,022	-0,083
-656,130	6,880	-0,031	0,017
-655,116	-200,000	0,013	0,084
-654,101	30,542	0,111	0,070
-653,086	-69,941	-0,038	0,011
-652,072	-200,000	0,006	0,043
-651,057	545,206	-0,018	0,033
-650,043	-45,966	-0,073	0,026
-649,028	-21,092	-0,025	-0,011
-648,014	-137,763	0,015	0,001
-646,999	-200,000	0,024	0,000
-645,984	47,982	0,050	0,035
-644,970	-200,000	0,032	0,181
-643,955	-58,569	-0,176	-0,056
-642,941	-200,000	0,010	-0,176
-641,926	-200,000	0,010	-0,099
-640,911	-200,000	0,026	-0,198
-639,897	176,190	-0,017	-0,018
-638,882	32,107	0,034	0,022
-637,868	125,533	-0,057	-0,053
-636,853	-128,310	-0,105	-0,011
-635,838	-153,465	-0,023	0,001
-634,824	-200,000	0,003	-0,087
-633,809	-200,000	0,037	-0,135
-632,795	-200,000	0,014	0,098
-631,780	-200,000	0,012	0,117
-630,765	-43,632	0,100	0,037
-629,751	316,965	-0,073	-0,103
-628,736	-200,000	-0,017	-0,115
-627,722	-19,976	0,145	-0,066
-626,707	-146,922	-0,230	0,014
-625,692	-200,000	0,003	-0,052
-624,678	-200,000	-0,001	0,108
-623,663	-200,000	0,026	-0,091
-622,649	11,916	-0,086	0,049
-621,634	-59,746	-0,051	0,016
-620,619	800,000	-0,046	0,140
-619,605	3,999	-0,063	-0,034
-618,590	-16,601	-0,122	0,057
-617,576	699,717	-0,041	-0,080
-616,561	800,000	-0,004	0,008
-615,546	-46,167	-0,049	0,018
-614,532	316,362	-0,109	-0,153
-613,517	645,065	0,014	-0,027
-612,503	-200,000	-0,001	-0,108
-611,488	-93,512	-0,119	0,024
-610,474	157,673	0,021	0,021
-609,459	0,881	-0,131	0,069
-608,444	-200,000	-0,005	-0,165
-607,430	-200,000	0,011	-0,122
-606,415	160,786	0,038	-0,039
-605,401	94,245	-0,097	-0,082
-604,386	800,000	-0,038	0,078
-603,371	-200,000	0,028	0,104
-602,357	-200,000	0,042	-0,181
-601,342	154,107	0,016	-0,016
-600,328	-3,428	-0,059	-0,030
-599,313	-140,562	0,047	0,004
-598,298	-200,000	0,004	-0,103
-597,284	14,723	0,069	0,040
-596,269	-43,613	0,048	-0,018
-595,255	-200,000	-0,032	-0,127
-594,240	-11,138	-0,025	0,012
-593,225	61,717	-0,124	0,091
-592,211	-200,000	-0,014	-0,080
-591,196	430,023	0,098	0,156
-590,182	-6,100	-0,067	0,034
-589,167	5,576	-0,118	0,064
-588,152	-100,288	0,073	-0,013
-587,138	2,638	-0,112	-0,060
-586,123	318,855	-0,034	-0,047
-585,109	-200,000	-0,012	0,095
-584,094	800,000	-0,042	0,099
-583,079	320,291	0,065	0,091
-582,065	-200,000	0,052	0,244
-581,050	-200,000	-0,009	-0,105
-580,036	-47,247	0,056	-0,020
-579,021	-74,171	0,021	-0,006
-578,006	7,303	-0,175	-0,096
-576,992	90,063	0,068	-0,056
-575,977	-53,927	0,137	-0,046
-574,963	-200,000	0,029	-0,115
-573,948	-121,792	0,076	-0,009
-572,934	384,629	0,072	0,110
-571,919	629,269	0,044	-0,082
-570,904	-15,710	-0,152	-0,071
-569,890	96,531	0,028	-0,024
-568,875	-200,000	-0,011	0,073
-567,861	-200,000	0,001	0,059
-566,846	-140,249	-0,060	-0,005
-565,831	800,000	0,056	-0,143
-564,817	49,136	-0,079	-0,054
-563,802	-38,597	-0,056	0,022
-562,788	-8,779	0,013	-0,006
-561,773	-78,966	0,145	0,036
-560,758	-116,884	0,025	0,003
-559,744	-22,101	0,208	0,093
-558,729	-200,000	-0,004	-0,043
-557,715	-163,745	-0,114	-0,004
-556,700	94,808	0,067	-0,056
-555,685	-81,978	-0,011	0,003
-554,671	-96,835	-0,032	-0,006
-553,656	-52,032	-0,036	-0,012
-552,642	-200,000	-0,026	0,132
-551,627	-51,439	-0,080	-0,027
-550,612	800,000	-0,107	-0,243
-549,598	-200,000	-0,001	-0,104
-548,583	-200,000	-0,001	-0,020
-547,569	-38,331	0,033	0,013
-546,554	800,000	-0,039	-0,082
-545,539	217,744	0,163	-0,192
-544,525	-200,000	0,006	0,048
-543,510	38,357	-0,084	-0,055
-542,496	-200,000	-0,006	-0,106
-541,481	800,000	-0,103	-0,238
-540,466	-200,000	0,004	0,106
-539,452	-41,504	0,026	0,010
-538,437	249,599	-0,012	-0,015
-537,423	688,242	0,022	-0,043
-536,408	16,982	0,047	-0,027
-535,393	800,000	-0,022	0,060
-534,379	75,024	-0,024	0,019
-533,364	-42,442	-0,075	0,028
-532,350	-27,389	0,122	-0,052
-531,335	-133,313	-0,053	-0,005
-530,321	-129,680	0,048	0,005
-529,306	-54,031	-0,093	0,031
-528,291	-82,394	-0,200	-0,047
-527,277	21,234	0,082	-0,049
-526,262	800,000	-0,057	0,140
-525,248	-145,128	-0,124	-0,008
-524,233	-22,891	0,076	-0,034
-523,218	800,000	-0,038	-0,091
-522,204	254,284	-0,064	0,080
-521,189	19,295	0,074	0,044
-520,175	98,496	-0,150	-0,127
-519,160	103,962	0,082	-0,071
-518,145	49,434	0,172	0,119
-517,131	74,034	0,020	-0,016
-516,116	-200,000	-0,004	-0,046
-515,102	-156,287	-0,127	0,006
-514,087	-200,000	-0,003	-0,065
-513,072	8,924	-0,044	0,024
-512,058	76,279	-0,124	-0,097
-511,043	-17,362	0,026	0,012
-510,029	-200,000	0,008	-0,075
-509,014	-200,000	0,012	0,072
-507,999	-26,137	0,109	0,047
-506,985	-158,153	-0,148	-0,006
-505,970	296,501	-0,035	-0,047
-504,956	-147,014	-0,075	0,005
-503,941	-200,000	0,010	0,039
-502,926	190,350	-0,068	0,075
-501,912	425,132	0,069	0,110
-500,897	-200,000	0,006	0,079
-499,883	-194,612	0,148	0,001
-498,868	80,722	0,103	-0,082
-497,853	82,355	0,020	0,016
-496,839	29,291	0,079	-0,049
-495,824	-200,000	0,040	0,140
-494,810	619,275	0,021	-0,040
-493,795	-12,076	0,031	-0,015
-492,781	-200,000	0,016	-0,077
-491,766	-128,871	0,067	-0,007
-490,751	-37,329	-0,088	-0,035
-489,737	713,186	0,033	-0,064
-488,722	-200,000	0,003	0,045
-487,708	800,000	0,040	-0,116
-486,693	35,316	-0,098	0,063
-485,678	249,674	-0,084	-0,104
-484,664	195,372	0,054	-0,060
-483,649	454,697	-0,025	-0,041
-482,635	800,000	-0,066	-0,190
-481,620	-200,000	0,009	-0,034
-480,605	-200,000	-0,000	-0,070
-479,591	592,714	-0,096	-0,175
-478,576	-68,621	-0,054	0,015
-477,562	-131,074	-0,146	0,014
-476,547	326,497	-0,087	-0,123
-475,532	-200,000	0,054	-0,234
-474,518	-164,858	0,088	0,003
-473,503	-200,000	0,018	0,085
-472,489	128,424	0,057	-0,053
-471,474	595,804	-0,056	0,103
-470,459	-5,087	-0,060	0,030
-469,445	-53,645	0,069	-0,023
-468,430	199,097	0,088	0,099
-467,416	800,000	-0,045	-0,093
-466,401	-86,788	0,166	0,037
-465,386	-200,000	-0,017	0,148
-464,372	-200,000	0,021	-0,077
-463,357	-200,000	0,017	-0,124
-462,343	91,878	-0,059	-0,049
-461,328	61,807	-0,039	0,028
-460,313	-200,000	0,001	0,037
-459,299	78,278	-0,068	0,053
-458,284	800,000	0,021	-0,042
-457,270	-163,331	0,068	0,002
-456,255	239,527	0,033	0,040
-455,241	800,000	-0,022	-0,047
-454,226	-142,571	-0,111	-0,008
-453,211	800,000	-0,038	-0,090
-452,197	52,069	0,049	-0,034
-451,182	800,000	0,045	0,094
-450,168	-200,000	0,004	0,053
-449,153	-85,623	0,099	0,022
-448,138	237,735	-0,095	-0,116
-447,124	-40,924	-0,093	0,035
-446,109	800,000	-0,041	0,093
-445,095	-200,000	-0,012	-0,125
-444,080	182,816	-0,064	0,070
-443,065	431,584	0,077	0,123
-442,051	94,410	-0,061	0,051
-441,036	-57,055	0,073	0,024
-440,022	159,420	-0,083	-0,085
-439,007	549,251	0,055	-0,098
-437,992	49,315	-0,059	0,040
-436,978	800,000	-0,028	0,090
-435,963	117,864	-0,048	0,044
-434,949	-76,767	0,164	-0,042
-433,934	34,023	0,047	-0,030
-432,919	800,000	0,066	-0,168
-431,905	-200,000	-0,045	0,158
-430,890	-120,610	0,069	0,008
-429,876	-200,000	0,026	-0,092
-428,861	-10,473	0,084	-0,041
-427,846	-200,000	0,003	-0,109
-426,832	233,722	-0,057	-0,069
-425,817	-200,000	-0,005	0,067
-424,803	800,000	0,037	-0,089
-423,788	-54,383	-0,087	-0,029
-422,773	-80,529	0,055	0,013
-421,759	800,000	0,036	0,117
-420,744	149,966	0,021	-0,021
-419,730	501,683	-0,051	-0,086
-418,715	800,000	-0,030	-0,063
-417,701	307,642	0,019	0,027
-416,686	49,943	0,127	0,088
-415,671	-124,004	-0,059	0,007
-414,657	-200,000	0,023	0,109
-413,642	191,723	0,173	0,192
-412,628	-6,336	-0,065	-0,032
-411,613	167,757	-0,107	-0,112
-410,598	-181,404	0,110	-0,002
-409,584	-74,652	-0,111	-0,029
-408,569	-44,364	0,135	0,049
-407,555	-23,791	0,058	0,025
-406,540	125,332	0,076	0,071
-405,525	-200,000	0,016	-0,157
-404,511	-200,000	-0,022	0,114
-403,496	20,794	0,126	0,074
-402,482	-133,302	-0,169	-0,015
-401,467	54,111	0,161	0,113
-400,452	342,471	0,023	0,033
-399,438	-200,000	0,025	0,099
-398,423	-200,000	0,037	0,143
-397,409	-34,541	0,058	0,023
-396,394	-200,000	-0,024	0,113
-395,379	85,054	-0,138	-0,111
-394,365	3,407	-0,129	0,068
-393,350	32,411	0,068	-0,043
-392,336	-88,776	0,102	0,022
-391,321	-38,907	-0,139	-0,053
-390,306	43,311	-0,095	-0,064
-389,292	-200,000	0,012	0,114
-388,277	122,753	0,041	0,037
-387,263	-200,000	0,016	-0,128
-386,248	213,165	-0,062	0,071
-385,233	124,106	-0,095	0,087
-384,219	18,603	0,104	-0,061
-383,204	404,189	0,055	0,085
-382,190	185,958	0,037	-0,041
-381,175	800,000	0,034	-0,097
-380,160	-17,160	0,177	0,081
-379,146	420,135	-0,024	0,038
-378,131	800,000	0,042	0,135
-377,117	-200,000	0,001	0,013
-376,102	-200,000	-0,006	0,156
-375,088	-101,781	-0,086	0,015
-374,073	-70,783	0,062	0,017
-373,058	-200,000	-0,046	0,167
-372,044	196,997	-0,038	-0,043
-371,029	403,153	-0,040	-0,062
-370,015	9,432	0,052	-0,029
-369,000	-200,000	0,008	-0,032
-367,985	-28,483	-0,167	0,070
-366,971	42,421	-0,057	-0,038
-365,956	800,000	0,007	-0,016
-364,942	119,293	-0,037	0,033
-363,927	-200,000	-0,012	-0,055
-362,912	-200,000	-0,003	-0,017
-361,898	-200,000	0,015	-0,097
-360,883	288,322	0,090	0,119
-359,869	-27,238	-0,024	0,010
-358,854	-200,000	-0,008	0,098
-357,839	259,484	-0,028	0,036
-356,825	800,000	0,058	0,171
-355,810	-200,000	-0,020	-0,114
-354,796	-200,000	0,020	-0,107
-353,781	139,255	0,084	0,081
-352,766	36,869	-0,038	0,025
-351,752	-200,000	-0,015	0,152
-350,737	13,789	0,050	0,028
-349,723	800,000	-0,021	-0,063
-348,708	-41,622	0,109	-0,041
-347,693	56,462	-0,029	0,021
-346,679	144,319	-0,109	0,106
-345,664	800,000	-0,031	-0,076
-344,650	190,839	0,115	-0,127
-343,635	-97,279	0,160	0,030
-342,620	-200,000	0,011	-0,073
-341,606	-20,587	0,024	0,011
-340,591	445,923	-0,076	0,123
-339,577	85,344	-0,037	0,030
-338,562	800,000	0,017	0,050
-337,548	6,255	-0,140	0,076
-336,533	276,420	-0,063	-0,081
-335,518	-178,098	0,059	-0,001
-334,504	315,329	0,015	-0,020
-333,489	393,837	-0,059	0,090
-332,475	227,601	-0,073	-0,087
-331,460	-200,000	0,025	-0,129
-330,445	800,000	0,011	-0,034
-329,431	142,251	-0,046	0,045
-328,416	-200,000	0,021	0,107
-327,402	-30,686	-0,064	0,026
-326,387	36,449	0,114	0,073
-325,372	222,264	0,045	0,053
-324,358	-200,000	-0,003	0,047
-323,343	29,020	0,042	0,026
-322,329	-200,000	0,037	0,163
-321,314	-88,489	0,194	-0,042
-320,299	-200,000	0,006	0,034
-319,285	-147,272	0,096	-0,006
-318,270	282,618	-0,082	0,108
-317,256	93,651	0,086	0,071
-316,241	381,061	0,047	-0,070
-315,226	-21,001	0,023	-0,010
-314,212	800,000	0,041	0,100
-313,197	151,513	0,116	0,116
-312,183	-200,000	-0,028	0,146
-311,168	-200,000	0,030	-0,140
-310,153	-200,000	-0,023	0,088
-309,139	-101,892	-0,064	0,011
-308,124	-200,000	0,028	-0,172
-307,110	21,725	0,077	-0,046
-306,095	80,935	0,108	0,085
-305,080	227,721	0,049	-0,058
-304,066	-200,000	-0,002	0,057
-303,051	-48,839	-0,047	-0,016
-302,037	-77,621	-0,121	0,030
-301,022	800,000	0,012	0,027
-300,008	163,971	0,079	0,081
-298,993	800,000	0,009	-0,019
-297,978	189,594	-0,073	-0,080
-296,964	-200,000	-0,008	-0,140
-295,949	280,319	-0,078	-0,101
-294,935	-101,217	-0,031	-0,005
-293,920	288,030	0,054	-0,072
-292,905	-17,068	-0,073	0,034
-291,891	800,000	-0,011	0,029
-290,876	-4,856	-0,102	-0,051
-289,862	-200,000	0,042	0,177
-288,847	33,626	-0,134	-0,085
-287,832	-94,191	0,069	-0,014
-286,818	161,785	0,079	-0,081
-285,803	800,000	0,019	-0,051
-284,789	49,377	0,043	0,029
-283,774	800,000	0,030	0,064
-282,759	-28,567	-0,114	0,048
-281,745	63,264	-0,082	-0,060
-280,730	-154,592	-0,192	0,009
-279,716	-44,739	-0,030	-0,011
-278,701	-200,000	0,028	0,125
-277,686	-200,000	0,009	0,055
-276,672	-200,000	-0,026	0,122
-275,657	400,654	0,024	-0,038
-274,643	275,201	-0,018	-0,023
-273,628	36,673	-0,090	-0,058
-272,613	74,542	-0,057	-0,044
-271,599	354,014	0,044	0,064
-270,584	235,552	-0,054	-0,065
-269,570	63,430	-0,054	0,040
-268,555	242,400	-0,110	-0,135
-267,540	-200,000	-0,009	-0,044
-266,526	2,790	-0,089	0,047
-265,511	-137,558	0,210	-0,017
-264,497	42,830	0,204	0,135
-263,482	1,204	0,057	0,030
-262,467	-179,945	0,116	-0,002
-261,453	17,086	0,111	-0,064
-260,438	-200,000	-0,037	-0,156
-259,424	229,373	0,046	-0,055
-258,409	23,625	-0,138	-0,083
-257,395	-152,804	0,055	-0,003
-256,380	800,000	-0,005	0,014
-255,365	303,404	0,053	-0,071
-254,351	-164,227	-0,183	0,006
-253,336	-154,750	-0,109	-0,005
-252,322	-197,007	-0,064	0,000
-251,307	105,347	0,036	-0,031
-250,292	800,000	0,041	0,113
-249,278	-200,000	-0,017	0,060
-248,263	-200,000	-0,035	0,118
-247,249	766,755	0,081	0,162
-246,234	17,433	0,077	0,044
-245,219	-155,054	-0,108	-0,005
-244,205	-25,186	0,208	-0,089
-243,190	-200,000	-0,014	0,123
-242,176	800,000	-0,044	0,099
-241,161	800,000	0,027	0,084
-240,146	-200,000	0,011	0,098
-239,132	207,984	-0,059	0,067
-238,117	-200,000	-0,016	0,174
-237,103	-13,440	0,042	-0,020
-236,088	66,454	0,027	0,020
-235,073	-200,000	-0,012	0,048
-234,059	800,000	-0,029	-0,069
-233,044	-96,565	0,043	0,008
-232,030	382,871	-0,121	-0,181
-231,015	675,310	0,039	-0,074
-230,000	-200,000	0,048	-0,180
-228,986	-152,226	-0,158	-0,008
-227,971	443,250	0,005	-0,007
-226,957	-200,000	0,001	-0,039
-225,942	-200,000	-0,020	0,075
-224,927	90,400	0,019	0,016
-223,913	-100,847	-0,073	-0,013
-222,898	-200,000	0,008	-0,068
-221,884	-200,000	0,007	0,048
-220,869	203,274	-0,049	-0,055
-219,855	800,000	0,030	0,083
-218,840	16,789	0,087	0,050
-217,825	-200,000	-0,002	0,030
-216,811	747,212	0,025	0,049
-215,796	-143,875	-0,148	0,010
-214,782	-40,848	-0,118	0,044
-213,767	800,000	0,029	0,066
-212,752	103,895	-0,033	-0,028
-211,738	-82,107	0,100	0,024
-210,723	-111,356	-0,096	0,014
-209,709	312,824	0,006	0,008
-208,694	-200,000	0,015	-0,131
-207,679	86,871	0,082	0,066
-206,665	285,488	0,047	0,062
-205,650	41,219	-0,075	-0,049
-204,636	238,842	-0,058	-0,070
-203,621	-200,000	-0,027	0,167
-202,606	-138,957	0,039	0,003
-201,592	-200,000	0,016	-0,115
-200,577	-200,000	-0,021	-0,073
-199,563	396,883	0,110	0,168
-198,548	800,000	0,035	0,083
-197,533	205,898	0,106	-0,120
-196,519	37,979	0,064	-0,042
-195,504	350,648	-0,024	-0,035
-194,490	-66,320	0,024	-0,007
-193,475	-200,000	-0,011	0,186
-192,460	286,786	0,088	0,116
-191,446	-200,000	0,013	0,190
-190,431	-102,552	0,207	0,036
-189,417	275,729	-0,053	-0,068
-188,402	-200,000	0,001	0,052
-187,387	46,221	-0,065	-0,044
-186,373	-62,439	0,124	-0,037
-185,358	-73,030	0,069	-0,018
-184,344	-200,000	-0,011	0,050
-183,329	-63,822	-0,049	0,014
-182,315	157,666	-0,082	0,082
-181,300	-10,924	-0,056	-0,027
-180,285	21,130	0,084	-0,049
-179,271	800,000	-0,008	-0,026
-178,256	-104,418	0,029	0,005
-177,242	-14,533	0,128	-0,060
-176,227	800,000	0,059	0,128
-175,212	486,976	-0,038	-0,064
-174,198	37,027	-0,057	-0,036
-173,183	-140,271	0,158	0,012
-172,169	72,002	0,086	0,065
-171,154	61,323	0,036	0,026
-170,139	442,270	0,056	-0,089
-169,125	624,876	0,144	0,265
-168,110	-131,549	-0,071	0,007
-167,096	800,000	-0,047	-0,095
-166,081	376,466	0,033	-0,049
-165,066	-37,334	-0,049	-0,019
-164,052	47,587	-0,040	0,027
-163,037	800,000	-0,027	0,055
-162,023	69,149	0,109	-0,081
-161,008	27,110	0,038	-0,023
-159,993	-200,000	-0,000	0,032
-158,979	-200,000	-0,006	0,063
-157,964	90,908	-0,041	0,033
-156,950	-45,938	-0,078	-0,028
-155,935	-1,164	0,086	0,044
-154,920	-0,972	0,015	-0,008
-153,906	-200,000	0,004	-0,052
-152,891	223,567	-0,048	0,057
-151,877	-200,000	-0,015	-0,096
-150,862	-200,000	-0,022	-0,073
-149,847	77,315	-0,055	0,042
-148,833	383,857	0,060	-0,090
-147,818	800,000	0,047	0,114
-146,804	800,000	0,035	-0,073
-145,789	5,043	-0,009	0,005
-144,775	-144,324	0,173	-0,011
-143,760	-47,223	-0,120	0,042
-142,745	371,688	-0,017	0,026
-141,731	800,000	0,034	0,073
-140,716	-41,381	-0,063	0,023
-139,702	-2,870	0,043	-0,022
-138,687	0,458	0,034	-0,018
-137,672	145,507	0,078	0,075
-136,658	-146,413	-0,008	0,001
-135,643	35,105	-0,125	0,079
-134,629	800,000	0,018	-0,048
-133,614	64,065	0,078	-0,057
-132,599	41,624	-0,036	0,023
-131,585	-40,624	0,109	0,041
-130,570	-200,000	0,010	0,048
-129,556	800,000	-0,050	0,111
-128,541	308,800	0,033	0,045
-127,526	198,539	-0,085	-0,094
-126,512	-200,000	-0,009	-0,080
-125,497	800,000	0,038	0,082
-124,483	49,026	-0,052	-0,035
-123,468	-106,269	0,078	-0,013
-122,453	-106,257	0,092	-0,015
-121,439	753,005	-0,032	-0,062
-120,424	-70,465	-0,086	-0,023
-119,410	29,814	-0,107	0,066
-118,395	-161,783	0,119	0,004
