DTS Sentinel unit serial number:	SN410029Multiplexer serial number:	ORYXHardware model number:	OX2-SRSoftware version number:	ORYX F/W v4,00 Oryx Data Collector v3.7.2.0data status	okinstallation	B6 Nyhavnadifferential loss correction	single-endedforward channel	channel 2reverse channel	N/Adate	2023/12/08time	06:30:08forward acquisition time	300,00reverse acquisition time	0,00gamma	499,1914k internal	0,3165k external	0,3165temperature offset calibration	1,0000default loss term (dB/km)	0,3820temperature slope calibration	1,0000multiplexer offset coefficient	1,0000multiplexer slope coefficient	1,0000fibre end	0,00T internal ref (°C)	13,00T ext. ref 1 (°C)	-3,70T ext. ref 2 (°C)	-3,73length (m)	temperature (°C)	Stokes	anti-Stokes-744,400	-137,850	0,192	0,016
-743,385	-119,845	-0,409	-0,051
-742,371	676,814	0,095	0,182
-741,356	-33,245	-0,292	0,118
-740,342	250,889	0,124	0,156
-739,327	-105,687	-0,363	-0,060
-738,312	-130,015	0,075	0,007
-737,298	-175,207	-0,298	-0,006
-736,283	-79,024	0,123	-0,030
-735,269	-54,761	-0,286	-0,095
-734,254	14,747	0,128	0,073
-733,239	-53,670	-0,564	-0,188
-732,225	-132,667	0,176	0,016
-731,210	115,821	0,151	0,136
-730,196	-200,000	0,006	-0,119
-729,181	586,320	-0,057	-0,104
-728,167	179,914	0,034	-0,037
-727,152	-41,763	-0,011	0,004
-726,137	800,000	-0,033	0,077
-725,123	-106,549	-0,101	-0,016
-724,108	123,739	-0,114	-0,105
-723,094	-94,208	-0,205	-0,041
-722,079	-200,000	-0,010	-0,077
-721,064	800,000	0,063	-0,191
-720,050	324,184	-0,132	-0,186
-719,035	-200,000	0,010	-0,056
-718,021	800,000	0,033	-0,073
-717,006	-119,655	-0,135	-0,017
-715,991	-200,000	-0,002	0,030
-714,977	800,000	-0,039	0,095
-713,962	-98,272	0,013	-0,002
-712,948	24,353	-0,065	0,040
-711,933	-110,340	0,086	-0,013
-710,918	-0,925	-0,153	-0,079
-709,904	-99,867	-0,132	-0,024
-708,889	800,000	-0,050	-0,152
-707,875	300,605	-0,052	0,070
-706,860	676,756	-0,013	0,025
-705,845	-200,000	-0,012	-0,068
-704,831	285,254	0,031	-0,041
-703,816	398,554	0,025	-0,038
-702,802	422,418	0,041	0,064
-701,787	-152,918	0,021	0,001
-700,772	34,280	-0,081	-0,052
-699,758	100,335	-0,065	-0,055
-698,743	267,713	0,027	-0,035
-697,729	-36,165	-0,093	0,037
-696,714	-200,000	0,031	0,123
-695,699	172,634	-0,135	-0,143
-694,685	-15,133	0,200	-0,094
-693,670	-18,512	0,108	-0,049
-692,656	249,916	0,023	-0,028
-691,641	126,385	0,085	0,079
-690,627	95,951	0,073	0,061
-689,612	800,000	-0,008	0,023
-688,597	-200,000	-0,019	-0,124
-687,583	292,550	0,063	-0,084
-686,568	800,000	-0,007	0,015
-685,554	5,990	0,049	0,027
-684,539	-66,780	0,123	-0,035
-683,524	0,244	-0,042	-0,022
-682,510	220,361	-0,031	0,037
-681,495	472,851	0,046	0,076
-680,481	-9,405	-0,055	-0,027
-679,466	103,497	-0,063	-0,054
-678,451	538,171	-0,055	0,096
-677,437	338,565	0,052	-0,075
-676,422	33,104	-0,065	0,041
-675,408	161,235	0,081	-0,083
-674,393	346,567	0,023	-0,033
-673,378	123,151	-0,074	-0,068
-672,364	-95,760	-0,148	-0,029
-671,349	-63,274	0,099	-0,030
-670,335	800,000	-0,015	0,044
-669,320	-59,610	0,099	0,031
-668,305	-127,262	0,020	0,002
-667,291	163,560	-0,084	-0,087
-666,276	-135,306	0,105	0,009
-665,262	93,695	-0,063	-0,052
-664,247	30,003	0,043	-0,027
-663,232	717,883	-0,036	-0,071
-662,218	248,263	0,072	0,090
-661,203	-146,471	0,017	-0,001
-660,189	336,781	0,024	-0,035
-659,174	-200,000	0,020	-0,093
-658,159	-200,000	-0,019	-0,113
-657,145	-55,035	0,062	0,020
-656,130	-4,293	-0,078	0,039
-655,116	-200,000	0,036	0,137
-654,101	-9,924	-0,050	0,024
-653,086	800,000	0,057	-0,121
-652,072	800,000	-0,068	0,181
-651,057	350,101	0,063	-0,092
-650,043	-63,418	-0,131	0,039
-649,028	3,695	-0,027	0,014
-648,014	513,198	0,036	-0,062
-646,999	-200,000	-0,003	0,020
-645,984	-200,000	0,007	0,036
-644,970	545,770	-0,074	-0,129
-643,955	516,844	0,018	-0,031
-642,941	-85,284	-0,060	0,014
-641,926	-200,000	0,027	-0,119
-640,911	-102,205	0,045	-0,008
-639,897	628,590	0,105	0,196
-638,882	-200,000	-0,020	0,094
-637,868	291,760	-0,013	0,017
-636,853	313,228	0,088	-0,121
-635,838	2,454	-0,024	0,013
-634,824	800,000	-0,053	-0,148
-633,809	652,994	0,053	-0,100
-632,795	-57,342	0,131	0,042
-631,780	205,771	0,026	-0,029
-630,765	-200,000	0,022	0,100
-629,751	-200,000	-0,042	-0,140
-628,736	800,000	0,058	-0,162
-627,722	-26,056	-0,094	0,040
-626,707	206,426	0,039	-0,044
-625,692	143,754	-0,047	0,046
-624,678	-200,000	0,018	-0,107
-623,663	-200,000	-0,010	0,085
-622,649	17,827	-0,140	0,081
-621,634	800,000	0,061	0,160
-620,619	800,000	-0,018	0,055
-619,605	-48,986	0,131	0,046
-618,590	393,372	0,034	0,052
-617,576	-77,875	-0,130	0,033
-616,561	-33,345	-0,150	0,060
-615,546	13,063	0,084	-0,048
-614,532	488,967	-0,054	0,090
-613,517	-200,000	-0,021	-0,093
-612,503	-11,534	0,073	0,035
-611,488	71,048	-0,064	-0,048
-610,474	57,846	0,096	-0,069
-609,459	424,500	-0,030	-0,048
-608,444	800,000	-0,058	-0,170
-607,430	-130,686	0,050	-0,005
-606,415	800,000	0,031	-0,064
-605,401	-200,000	0,009	-0,082
-604,386	11,428	0,168	0,094
-603,371	59,694	-0,016	0,011
-602,357	-17,280	-0,100	-0,046
-601,342	439,749	-0,114	-0,182
-600,328	800,000	-0,042	-0,095
-599,313	-200,000	-0,035	-0,151
-598,298	-165,380	0,024	0,001
-597,284	244,560	0,038	0,047
-596,269	-200,000	0,005	0,043
-595,255	-200,000	-0,000	-0,088
-594,240	-200,000	-0,001	-0,158
-593,225	-103,332	0,032	0,006
-592,211	800,000	-0,022	0,067
-591,196	82,108	-0,126	-0,100
-590,182	552,285	-0,055	-0,098
-589,167	277,988	0,029	-0,038
-588,152	-200,000	0,033	0,151
-587,138	104,020	-0,077	-0,066
-586,123	-57,286	-0,121	0,039
-585,109	-200,000	-0,028	-0,116
-584,094	-200,000	0,002	-0,135
-583,079	102,914	0,073	-0,062
-582,065	-135,786	0,021	-0,002
-581,050	557,146	-0,031	0,055
-580,036	-200,000	0,041	0,000
-579,021	592,563	-0,056	-0,101
-578,006	14,402	-0,056	0,032
-576,992	507,022	0,047	0,080
-575,977	579,691	0,054	0,097
-574,963	-96,655	0,037	0,007
-573,948	-82,655	-0,069	-0,016
-572,934	49,194	0,029	0,020
-571,919	135,532	-0,057	-0,054
-570,904	-200,000	-0,010	-0,092
-569,890	800,000	-0,038	0,120
-568,875	-83,776	-0,064	-0,015
-567,861	257,710	-0,021	0,027
-566,846	-108,987	0,056	0,009
-565,831	193,545	-0,026	-0,029
-564,817	-8,372	-0,196	-0,096
-563,802	314,353	-0,049	-0,067
-562,788	-200,000	0,034	-0,173
-561,773	-18,366	-0,057	-0,026
-560,758	-62,922	0,066	-0,020
-559,744	-200,000	0,040	-0,129
-558,729	-200,000	0,016	0,068
-557,715	-200,000	0,011	-0,148
-556,700	-200,000	-0,002	0,021
-555,685	111,848	-0,092	0,081
-554,671	-60,970	0,105	-0,032
-553,656	800,000	0,026	-0,078
-552,642	800,000	0,036	0,100
-551,627	-200,000	0,009	0,035
-550,612	205,279	-0,064	-0,073
-549,598	433,708	-0,066	0,104
-548,583	89,368	-0,106	0,086
-547,569	-126,840	0,105	0,011
-546,554	332,711	0,045	-0,063
-545,539	81,736	-0,008	-0,006
-544,525	-200,000	0,042	0,161
-543,510	115,236	0,024	0,021
-542,496	51,910	0,021	-0,014
-541,481	-200,000	-0,063	-0,233
-540,466	532,403	-0,044	0,076
-539,452	209,795	0,112	0,128
-538,437	51,277	-0,067	0,047
-537,423	-200,000	-0,012	0,058
-536,408	-10,547	0,124	0,060
-535,393	641,255	-0,039	0,073
-534,379	-55,711	0,050	0,016
-533,364	-88,198	-0,029	-0,006
-532,350	527,759	0,028	-0,049
-531,335	39,950	0,051	0,033
-530,321	-107,218	-0,084	0,013
-529,306	800,000	0,011	0,029
-528,291	-142,178	-0,102	0,007
-527,277	800,000	-0,010	0,025
-526,262	-36,156	-0,060	0,024
-525,248	44,643	0,017	-0,012
-524,233	270,249	0,066	-0,085
-523,218	-131,139	-0,040	-0,004
-522,204	-67,124	-0,075	0,021
-521,189	-200,000	-0,016	-0,173
-520,175	12,015	-0,160	0,089
-519,160	-93,833	-0,066	0,013
-518,145	95,586	0,064	-0,054
-517,131	2,910	0,047	0,025
-516,116	315,437	-0,074	0,102
-515,102	800,000	-0,030	0,076
-514,087	656,284	0,054	-0,102
-513,072	-200,000	-0,007	-0,083
-512,058	202,095	-0,023	0,026
-511,043	-189,811	0,068	0,001
-510,029	800,000	0,010	-0,028
-509,014	646,448	0,044	-0,081
-507,999	-89,627	-0,103	0,022
-506,985	302,848	0,061	0,083
-505,970	-2,387	-0,065	0,033
-504,956	-94,156	0,076	0,015
-503,941	800,000	0,081	0,178
-502,926	390,870	0,024	0,037
-501,912	151,498	-0,021	0,021
-500,897	-0,183	-0,073	0,038
-499,883	400,418	0,080	0,122
-498,868	192,738	-0,087	-0,096
-497,853	4,012	-0,081	-0,043
-496,839	-113,636	0,127	-0,018
-495,824	51,759	0,125	-0,086
-494,810	390,574	-0,033	0,051
-493,795	-13,551	-0,045	0,021
-492,781	116,079	-0,019	0,017
-491,766	-179,431	-0,157	-0,002
-490,751	800,000	0,029	0,071
-489,737	203,326	-0,052	-0,059
-488,722	45,139	-0,094	0,063
-487,708	19,283	0,072	0,042
-486,693	-200,000	0,008	0,148
-485,678	172,254	0,081	0,085
-484,664	-200,000	0,015	-0,106
-483,649	-37,546	-0,060	0,023
-482,635	-161,702	0,112	-0,004
-481,620	-144,461	0,069	0,005
-480,605	55,600	0,130	0,091
-479,591	705,747	-0,076	0,146
-478,576	-200,000	-0,000	-0,027
-477,562	23,538	-0,138	-0,082
-476,547	-200,000	-0,012	-0,240
-475,532	-200,000	-0,009	-0,229
-474,518	-3,575	0,131	-0,066
-473,503	-200,000	0,007	0,102
-472,489	-200,000	-0,021	-0,113
-471,474	-163,879	0,085	0,003
-470,459	800,000	0,056	0,154
-469,445	113,721	0,127	-0,112
-468,430	219,898	-0,068	0,079
-467,416	-200,000	-0,009	-0,046
-466,401	48,776	-0,051	0,035
-465,386	119,325	0,054	0,049
-464,372	-200,000	0,000	0,060
-463,357	-87,609	-0,053	0,011
-462,343	-148,661	0,089	-0,005
-461,328	-200,000	0,002	0,107
-460,313	71,630	0,086	0,065
-459,299	250,468	0,072	0,089
-458,284	-200,000	-0,016	0,057
-457,270	-45,083	0,047	0,017
-456,255	-89,159	-0,177	-0,038
-455,241	-38,194	-0,049	0,019
-454,226	63,138	-0,082	-0,060
-453,211	-200,000	0,001	-0,093
-452,197	60,442	-0,107	-0,077
-451,182	270,152	0,003	-0,004
-450,168	167,288	0,026	0,026
-449,153	-125,339	0,015	-0,002
-448,138	-200,000	-0,027	-0,123
-447,124	-200,000	0,004	-0,093
-446,109	232,463	0,030	-0,036
-445,095	106,259	0,027	0,023
-444,080	-162,596	0,110	-0,004
-443,065	1,714	-0,090	0,047
-442,051	-159,106	0,091	0,004
-441,036	-61,230	0,089	0,027
-440,022	-82,415	0,035	-0,008
-439,007	800,000	-0,032	-0,083
-437,992	-200,000	0,033	-0,145
-436,978	-62,630	0,107	0,032
-435,963	-66,355	0,080	-0,023
-434,949	358,502	0,024	-0,035
-433,934	48,941	-0,099	0,068
-432,919	-200,000	0,010	0,070
-431,905	199,391	0,039	-0,044
-430,890	570,610	-0,055	0,097
-429,876	415,624	0,043	-0,067
-428,861	92,840	0,166	0,136
-427,846	-85,308	0,012	0,003
-426,832	77,096	-0,155	-0,120
-425,817	86,813	-0,112	0,090
-424,803	-200,000	-0,009	0,053
-423,788	54,210	-0,052	-0,036
-422,773	-71,823	0,167	0,045
-421,759	-125,647	-0,134	0,015
-420,744	-138,774	-0,140	0,011
-419,730	800,000	0,044	-0,098
-418,715	-200,000	-0,032	-0,182
-417,701	112,501	0,043	-0,038
-416,686	-74,358	0,049	-0,013
-415,671	-104,791	0,099	0,016
-414,657	28,314	0,135	-0,083
-413,642	-200,000	0,020	0,127
-412,628	12,106	-0,033	0,018
-411,613	713,925	-0,029	-0,055
-410,598	800,000	0,024	-0,073
-409,584	441,561	-0,051	-0,082
-408,569	-118,909	-0,057	-0,007
-407,555	12,936	0,128	-0,072
-406,540	567,552	-0,027	-0,049
-405,525	83,757	0,083	-0,066
-404,511	358,579	0,066	0,096
-403,496	0,541	-0,013	-0,006
-402,482	163,384	-0,120	0,123
-401,467	-200,000	0,008	0,079
-400,452	5,850	0,190	0,102
-399,438	-200,000	0,012	-0,065
-398,423	27,980	-0,015	0,009
-397,409	164,461	-0,065	0,066
-396,394	57,746	0,145	0,103
-395,379	-200,000	0,020	0,000
-394,365	323,008	0,042	0,058
-393,350	148,570	-0,004	0,004
-392,336	-200,000	-0,033	0,190
-391,321	4,996	0,065	0,035
-390,306	800,000	-0,045	-0,112
-389,292	-74,968	0,079	-0,020
-388,277	-200,000	0,025	-0,223
-387,263	-112,136	-0,061	-0,009
-386,248	287,902	0,065	0,086
-385,233	-200,000	-0,030	0,141
-384,219	800,000	0,018	-0,045
-383,204	-58,271	-0,064	-0,020
-382,190	-10,172	-0,065	-0,031
-381,175	111,708	0,073	0,064
-380,160	65,402	0,079	-0,058
-379,146	232,548	0,070	-0,083
-378,131	-200,000	0,005	0,126
-377,117	170,591	0,029	-0,031
-376,102	116,757	-0,115	-0,102
-375,088	207,405	-0,052	-0,059
-374,073	-200,000	0,000	0,186
-373,058	-110,196	-0,101	0,015
-372,044	466,544	0,062	0,101
-371,029	-200,000	-0,016	0,129
-370,015	-200,000	-0,024	-0,081
-369,000	-200,000	0,001	0,094
-367,985	800,000	0,025	-0,068
-366,971	-67,336	-0,059	-0,017
-365,956	21,784	0,128	0,075
-364,942	510,627	0,027	0,046
-363,927	193,216	-0,067	0,074
-362,912	268,596	0,034	0,044
-361,898	-18,368	-0,053	-0,024
-360,883	-42,250	-0,134	-0,049
-359,869	-21,871	-0,026	-0,011
-358,854	800,000	0,047	-0,126
-357,839	33,942	-0,034	-0,021
-356,825	-200,000	-0,003	-0,038
-355,810	-85,119	0,071	-0,016
-354,796	-200,000	0,003	0,026
-353,781	-18,652	-0,082	-0,037
-352,766	800,000	0,034	0,104
-351,752	800,000	-0,016	0,051
-350,737	-200,000	-0,015	0,129
-349,723	398,345	0,060	0,091
-348,708	604,013	0,037	0,066
-347,693	-200,000	0,006	-0,031
-346,679	-200,000	-0,016	-0,063
-345,664	800,000	-0,049	-0,123
-344,650	490,322	0,056	-0,093
-343,635	248,560	-0,048	-0,059
-342,620	-200,000	0,022	0,124
-341,606	47,987	0,063	-0,043
-340,591	661,421	0,019	-0,036
-339,577	800,000	0,017	-0,052
-338,562	-14,223	0,065	-0,030
-337,548	-28,645	-0,057	0,023
-336,533	-11,381	0,171	0,081
-335,518	-113,858	0,064	-0,009
-334,504	-146,963	0,007	0,000
-333,489	69,656	-0,151	-0,113
-332,475	1,916	0,054	-0,028
-331,460	800,000	-0,061	0,156
-330,445	-200,000	-0,028	-0,140
-329,431	17,872	0,108	-0,062
-328,416	63,402	-0,043	0,031
-327,402	32,437	0,091	0,057
-326,387	443,594	0,058	-0,092
-325,372	-200,000	0,004	0,024
-324,358	246,178	0,024	-0,030
-323,343	-66,915	-0,122	-0,035
-322,329	-200,000	0,008	0,048
-321,314	-200,000	0,002	0,071
-320,299	96,022	0,076	0,063
-319,285	140,252	0,023	-0,022
-318,270	47,964	-0,065	0,044
-317,256	143,496	-0,080	-0,077
-316,241	63,752	-0,102	0,074
-315,226	19,312	0,093	-0,054
-314,212	514,736	-0,035	0,060
-313,197	-57,171	0,093	0,030
-312,183	123,142	-0,026	-0,024
-311,168	-200,000	0,009	-0,106
-310,153	-56,160	-0,076	-0,024
-309,139	395,276	0,065	0,099
-308,124	114,267	0,039	-0,034
-307,110	-155,917	0,076	-0,003
-306,095	503,818	0,014	-0,023
-305,080	-200,000	-0,011	0,121
-304,066	9,336	-0,101	-0,055
-303,051	-200,000	-0,043	0,177
-302,037	-147,244	0,047	0,003
-301,022	90,769	0,124	0,100
-300,008	167,565	0,057	0,059
-298,993	433,821	0,051	0,081
-297,978	349,791	-0,067	0,096
-296,964	-200,000	-0,002	0,012
-295,949	405,580	-0,076	-0,116
-294,935	-122,814	0,058	-0,007
-293,920	-200,000	0,017	0,103
-292,905	457,956	0,096	0,154
-291,891	6,320	-0,038	0,020
-290,876	475,373	0,058	0,095
-289,862	-128,399	-0,100	-0,010
-288,847	83,769	0,009	0,007
-287,832	-200,000	-0,003	0,023
-286,818	-30,723	0,128	-0,052
-285,803	-200,000	0,005	0,135
-284,789	-200,000	0,016	0,148
-283,774	102,491	-0,104	-0,088
-282,759	-200,000	0,015	0,085
-281,745	-103,696	0,047	0,008
-280,730	92,088	0,085	0,069
-279,716	800,000	0,025	0,065
-278,701	-125,294	0,168	-0,018
-277,686	74,270	0,154	0,117
-276,672	737,828	0,040	-0,078
-275,657	119,650	-0,047	-0,042
-274,643	800,000	0,015	-0,040
-273,628	440,078	-0,028	0,045
-272,613	60,181	-0,067	-0,048
-271,599	-37,527	-0,026	-0,010
-270,584	-200,000	0,027	0,128
-269,570	65,937	-0,019	0,014
-268,555	38,584	-0,101	0,065
-267,540	-24,655	0,067	-0,028
-266,526	-21,180	-0,062	-0,027
-265,511	-186,937	0,043	-0,000
-264,497	-78,190	-0,070	-0,017
-263,482	130,618	-0,029	0,026
-262,467	-200,000	-0,010	0,038
-261,453	29,437	-0,064	0,039
-260,438	539,700	-0,035	-0,061
-259,424	-99,055	-0,093	0,017
-258,409	-172,904	0,068	-0,001
-257,395	239,631	0,050	0,061
-256,380	100,072	0,053	-0,044
-255,365	-102,212	-0,083	-0,014
-254,351	800,000	-0,023	-0,061
-253,336	22,599	-0,061	0,036
-252,322	-200,000	0,011	-0,042
-251,307	-200,000	0,019	0,069
-250,292	-200,000	-0,025	-0,091
-249,278	800,000	0,035	0,090
-248,263	279,238	-0,066	0,085
-247,249	17,847	-0,136	-0,078
-246,234	-172,969	0,103	-0,002
-245,219	88,054	-0,088	-0,070
-244,205	405,063	0,054	-0,083
-243,190	-200,000	0,012	-0,071
-242,176	161,912	0,064	-0,064
-241,161	-60,071	0,083	-0,025
-240,146	650,727	0,015	-0,028
-239,132	66,259	0,041	0,030
-238,117	186,542	-0,066	-0,071
-237,103	268,709	-0,021	0,027
-236,088	147,651	-0,145	0,141
-235,073	-52,351	0,022	0,007
-234,059	463,749	0,061	0,099
-233,044	-200,000	0,018	-0,147
-232,030	-60,611	0,117	0,036
-231,015	141,255	-0,108	-0,103
-230,000	312,346	0,026	-0,035
-228,986	260,124	-0,049	-0,061
-227,971	-60,927	-0,138	-0,042
-226,957	27,296	0,103	0,062
-225,942	-35,911	0,118	0,046
-224,927	42,489	-0,017	-0,011
-223,913	10,264	-0,062	-0,034
-222,898	-105,509	-0,144	-0,023
-221,884	-91,925	-0,095	-0,019
-220,869	800,000	0,053	-0,114
-219,855	-44,484	-0,119	0,043
-218,840	209,938	-0,044	-0,050
-217,825	-120,479	-0,055	0,007
-216,811	-18,305	-0,063	0,028
-215,796	15,221	0,054	-0,030
-214,782	-62,025	0,147	0,044
-213,767	-142,510	0,076	0,005
-212,752	0,145	0,052	-0,027
-211,738	-200,000	-0,019	0,123
-210,723	800,000	-0,061	0,190
-209,709	149,081	-0,125	-0,122
-208,694	-13,669	-0,039	0,018
-207,679	800,000	-0,022	-0,066
-206,665	-9,397	0,134	0,064
-205,650	513,535	-0,022	-0,037
-204,636	29,395	0,028	0,017
-203,621	-15,259	-0,051	0,024
-202,606	-9,800	0,128	0,061
-201,592	241,025	-0,097	-0,117
-200,577	-176,527	-0,083	-0,001
-199,563	284,324	0,072	-0,094
-198,548	-151,817	0,042	0,002
-197,533	677,806	-0,021	-0,040
-196,519	-200,000	-0,010	0,061
-195,504	273,882	0,130	-0,166
-194,490	-30,723	-0,083	-0,034
-193,475	-200,000	-0,014	-0,051
-192,460	217,055	0,066	-0,076
-191,446	20,992	0,030	-0,017
-190,431	88,557	0,079	0,063
-189,417	-200,000	-0,005	-0,034
-188,402	676,931	-0,014	-0,026
-187,387	784,984	-0,068	0,135
-186,373	18,107	-0,055	0,032
-185,358	-107,633	-0,114	-0,018
-184,344	-200,000	-0,009	0,057
-183,329	402,537	-0,026	0,040
-182,315	-89,260	-0,014	-0,003
-181,300	-200,000	0,022	-0,165
-180,285	2,253	-0,137	-0,071
-179,271	294,290	0,042	-0,056
-178,256	-0,120	-0,085	0,044
-177,242	-38,003	-0,052	-0,020
-176,227	800,000	0,042	-0,101
-175,212	238,870	0,060	0,072
-174,198	-117,754	0,042	-0,005
-173,183	800,000	-0,042	0,089
-172,169	-200,000	0,033	0,129
-171,154	-162,393	0,045	-0,002
-170,139	11,347	-0,032	0,018
-169,125	111,697	0,092	0,080
-168,110	-200,000	0,010	0,111
-167,096	800,000	0,022	0,051
-166,081	124,398	-0,089	-0,081
-165,066	-69,966	-0,245	-0,067
-164,052	376,643	0,062	-0,092
-163,037	167,268	-0,079	-0,081
-162,023	-33,590	-0,105	0,042
-161,008	-200,000	0,005	0,189
-159,993	217,852	0,060	0,068
-158,979	-154,434	-0,096	0,005
-157,964	800,000	0,017	0,048
-156,950	-11,899	-0,064	-0,030
-155,935	-3,281	0,148	-0,074
-154,920	-97,021	0,049	-0,009
-153,906	-25,381	0,079	0,034
-152,891	-59,304	-0,146	-0,045
-151,877	800,000	-0,035	-0,106
-150,862	99,113	0,034	-0,028
-149,847	273,088	-0,115	-0,146
-148,833	236,736	0,091	-0,109
-147,818	-126,822	0,175	0,018
-146,804	172,207	-0,062	0,064
-145,789	-200,000	0,020	-0,066
-144,775	-200,000	-0,019	-0,076
-143,760	51,456	-0,084	0,057
-142,745	244,534	-0,059	-0,072
-141,731	800,000	-0,043	0,093
-140,716	19,661	0,023	0,013
-139,702	408,485	0,044	-0,067
-138,687	-113,843	0,076	-0,011
-137,672	132,134	0,103	-0,095
-136,658	37,998	-0,110	-0,070
-135,643	-200,000	0,011	-0,051
-134,629	-108,528	-0,105	0,016
-133,614	-200,000	0,018	0,080
-132,599	135,492	-0,020	-0,018
-131,585	620,718	0,058	0,104
-130,570	800,000	0,046	0,112
-129,556	-200,000	0,007	-0,090
-128,541	-91,468	0,091	-0,019
-127,526	-200,000	-0,008	-0,043
-126,512	-200,000	0,009	-0,091
-125,497	515,080	-0,048	0,081
-124,483	-155,919	-0,085	0,004
-123,468	-74,813	-0,119	0,030
-122,453	446,861	-0,079	0,125
-121,439	-110,724	0,131	-0,019
-120,424	-200,000	-0,025	0,099
-119,410	-5,003	0,075	-0,037
-118,395	-38,791	0,093	-0,035
