DTS Sentinel unit serial number:	SN410029Multiplexer serial number:	ORYXHardware model number:	OX2-SRSoftware version number:	ORYX F/W v4,00 Oryx Data Collector v3.7.2.0data status	okinstallation	B6 Nyhavnadifferential loss correction	single-endedforward channel	channel 2reverse channel	N/Adate	2023/12/10time	13:05:08forward acquisition time	300,00reverse acquisition time	0,00gamma	499,1914k internal	0,3122k external	0,3122temperature offset calibration	1,0000default loss term (dB/km)	0,3820temperature slope calibration	1,0000multiplexer offset coefficient	1,0000multiplexer slope coefficient	1,0000fibre end	0,00T internal ref (°C)	22,81T ext. ref 1 (°C)	6,46T ext. ref 2 (°C)	6,47length (m)	temperature (°C)	Stokes	anti-Stokes-744,400	-200,000	-0,010	-0,045
-743,385	-83,156	-0,260	0,062
-742,371	280,012	0,056	0,074
-741,356	-200,000	-0,037	0,215
-740,342	800,000	0,050	0,130
-739,327	-89,757	-0,252	0,055
-738,312	-200,000	0,007	-0,111
-737,298	-88,561	-0,243	0,053
-736,283	148,018	0,066	0,067
-735,269	315,799	-0,122	0,172
-734,254	328,056	-0,016	0,023
-733,239	-160,260	-0,472	0,019
-732,225	800,000	-0,020	-0,062
-731,210	-57,356	0,045	0,015
-730,196	-152,346	-0,125	0,007
-729,181	800,000	0,040	-0,091
-728,167	-86,538	-0,112	-0,025
-727,152	-92,741	0,162	0,033
-726,137	-200,000	-0,005	0,022
-725,123	-12,016	-0,121	-0,059
-724,108	-73,824	-0,192	-0,052
-723,094	-46,117	-0,081	-0,029
-722,079	398,837	-0,100	-0,157
-721,064	-123,596	-0,061	0,007
-720,050	653,021	0,031	-0,060
-719,035	-112,709	-0,077	0,011
-718,021	-126,023	0,125	0,014
-717,006	-11,084	0,076	0,037
-715,991	-34,946	-0,096	0,039
-714,977	800,000	-0,056	-0,148
-713,962	-88,384	-0,037	-0,008
-712,948	-138,448	0,027	-0,002
-711,933	-200,000	-0,020	0,192
-710,918	170,962	0,021	0,023
-709,904	-176,438	-0,183	0,003
-708,889	41,706	-0,136	-0,092
-707,875	-200,000	0,023	-0,117
-706,860	-3,500	0,087	0,045
-705,845	175,697	-0,051	-0,055
-704,831	-200,000	0,012	0,048
-703,816	-180,734	-0,110	-0,002
-702,802	747,521	0,031	-0,063
-701,787	708,610	0,015	-0,031
-700,772	-137,980	-0,099	0,008
-699,758	8,794	-0,119	-0,067
-698,743	800,000	0,085	0,185
-697,729	-88,134	-0,081	0,018
-696,714	542,339	-0,058	0,104
-695,699	-200,000	0,009	0,163
-694,685	-200,000	-0,017	-0,130
-693,670	800,000	-0,036	-0,090
-692,656	-130,815	0,101	0,010
-691,641	-200,000	-0,029	0,127
-690,627	800,000	0,026	0,070
-689,612	495,558	-0,046	0,079
-688,597	6,628	-0,059	-0,033
-687,583	53,127	-0,072	-0,051
-686,568	-113,673	0,141	-0,020
-685,554	-149,704	-0,103	0,006
-684,539	8,363	0,196	0,109
-683,524	409,933	0,062	0,099
-682,510	333,027	0,069	0,099
-681,495	-32,036	-0,038	0,016
-680,481	70,451	-0,048	0,037
-679,466	115,964	0,098	-0,089
-678,451	-45,330	0,106	-0,039
-677,437	130,138	0,178	0,169
-676,422	-71,658	0,069	-0,019
-675,408	209,703	-0,030	0,035
-674,393	478,305	-0,030	0,050
-673,378	-44,566	-0,164	0,061
-672,364	213,011	0,042	-0,050
-671,349	800,000	-0,092	-0,196
-670,335	-166,112	-0,140	-0,004
-669,320	26,343	-0,072	0,044
-668,305	-200,000	0,010	-0,041
-667,291	696,775	-0,070	0,138
-666,276	-116,444	-0,247	-0,033
-665,262	127,173	-0,038	-0,035
-664,247	535,286	0,026	0,046
-663,232	51,882	0,065	-0,046
-662,218	51,450	-0,142	-0,100
-661,203	-200,000	-0,024	0,078
-660,189	-16,994	0,134	-0,063
-659,174	-200,000	0,008	0,047
-658,159	319,846	-0,117	-0,165
-657,145	-55,631	0,040	-0,013
-656,130	-200,000	-0,008	0,148
-655,116	302,325	-0,089	0,122
-654,101	800,000	-0,019	0,061
-653,086	27,313	-0,082	0,051
-652,072	800,000	0,019	0,060
-651,057	65,098	-0,035	-0,026
-650,043	800,000	0,041	-0,099
-649,028	-200,000	-0,023	-0,168
-648,014	585,195	0,023	-0,042
-646,999	800,000	-0,017	0,053
-645,984	-116,643	0,072	-0,010
-644,970	0,818	-0,129	-0,068
-643,955	614,451	-0,077	-0,143
-642,941	-200,000	-0,044	-0,147
-641,926	134,741	0,083	-0,080
-640,911	-200,000	0,024	-0,105
-639,897	374,101	-0,048	0,073
-638,882	-125,726	0,069	0,008
-637,868	-165,497	-0,147	-0,005
-636,853	-52,978	-0,099	-0,034
-635,838	-200,000	-0,003	0,020
-634,824	-47,784	0,033	0,012
-633,809	-200,000	-0,004	-0,048
-632,795	-200,000	0,022	0,098
-631,780	100,061	0,029	-0,025
-630,765	-200,000	0,019	-0,085
-629,751	189,316	-0,111	-0,123
-628,736	-14,828	-0,159	0,076
-627,722	-25,519	0,064	0,028
-626,707	-200,000	-0,033	0,183
-625,692	-85,857	0,033	0,008
-624,678	-45,939	-0,116	-0,042
-623,663	93,590	-0,102	-0,086
-622,649	284,284	-0,026	0,035
-621,634	170,635	0,055	-0,059
-620,619	87,438	-0,106	-0,087
-619,605	55,858	-0,035	-0,025
-618,590	-200,000	-0,002	-0,040
-617,576	-200,000	-0,022	0,077
-616,561	-200,000	-0,024	-0,147
-615,546	-200,000	-0,003	-0,055
-614,532	-14,024	-0,132	0,063
-613,517	426,551	-0,045	-0,072
-612,503	800,000	0,026	0,065
-611,488	513,357	-0,046	0,080
-610,474	-37,750	0,082	-0,032
-609,459	-200,000	0,011	0,088
-608,444	31,274	-0,072	-0,046
-607,430	17,691	-0,133	-0,078
-606,415	-200,000	-0,017	-0,156
-605,401	262,110	0,048	-0,062
-604,386	-88,263	-0,206	-0,045
-603,371	-200,000	0,003	-0,170
-602,357	-15,305	-0,092	0,043
-601,342	-200,000	-0,006	0,055
-600,328	-200,000	-0,004	0,017
-599,313	450,368	0,025	-0,041
-598,298	-200,000	0,035	-0,149
-597,284	307,534	0,032	0,044
-596,269	-200,000	-0,006	-0,140
-595,255	12,804	0,120	-0,069
-594,240	64,009	0,101	0,075
-593,225	115,366	-0,043	-0,039
-592,211	231,207	-0,090	-0,109
-591,196	313,389	-0,025	-0,034
-590,182	-200,000	-0,017	0,070
-589,167	110,883	0,050	0,045
-588,152	53,313	0,032	-0,023
-587,138	-78,025	0,064	0,016
-586,123	800,000	0,021	-0,055
-585,109	169,113	0,121	0,128
-584,094	258,774	0,159	-0,204
-583,079	31,860	0,145	-0,092
-582,065	49,999	-0,024	0,017
-581,050	104,260	-0,034	-0,030
-580,036	-155,980	-0,080	-0,004
-579,021	311,579	0,034	0,047
-578,006	-158,280	0,120	-0,005
-576,992	258,409	-0,084	0,108
-575,977	689,351	0,026	0,050
-574,963	325,977	0,005	0,007
-573,948	119,891	-0,037	0,034
-572,934	-3,232	-0,186	0,096
-571,919	-200,000	0,010	-0,116
-570,904	-200,000	-0,005	-0,086
-569,890	-5,063	0,067	-0,034
-568,875	113,500	-0,008	0,008
-567,861	-71,587	0,148	0,041
-566,846	-18,114	0,069	0,032
-565,831	-200,000	0,010	-0,134
-564,817	504,489	-0,051	-0,087
-563,802	399,737	-0,090	-0,140
-562,788	-200,000	-0,037	-0,148
-561,773	-79,974	-0,091	0,022
-560,758	310,853	-0,039	-0,054
-559,744	-200,000	-0,010	-0,084
-558,729	6,902	0,090	0,050
-557,715	-4,545	0,101	-0,051
-556,700	188,251	-0,057	-0,063
-555,685	142,381	-0,030	-0,030
-554,671	127,177	-0,052	-0,049
-553,656	800,000	0,037	0,104
-552,642	-200,000	0,004	-0,022
-551,627	55,992	0,129	0,092
-550,612	800,000	0,033	-0,093
-549,598	-95,886	-0,088	0,017
-548,583	-200,000	0,024	-0,163
-547,569	126,984	-0,101	-0,095
-546,554	-200,000	-0,001	0,067
-545,539	359,495	-0,080	0,119
-544,525	-200,000	0,014	0,140
-543,510	517,769	-0,040	0,069
-542,496	800,000	-0,034	-0,097
-541,481	147,755	-0,082	-0,082
-540,466	800,000	0,053	0,142
-539,452	-142,239	-0,036	0,003
-538,437	800,000	0,053	0,114
-537,423	-64,834	-0,069	-0,020
-536,408	-139,308	-0,121	-0,010
-535,393	-4,357	-0,022	0,011
-534,379	186,462	-0,049	0,054
-533,364	49,018	-0,108	0,075
-532,350	-83,921	0,107	-0,025
-531,335	83,500	0,150	0,121
-530,321	308,608	-0,008	-0,011
-529,306	101,753	0,172	-0,149
-528,291	800,000	-0,037	0,105
-527,277	-200,000	-0,001	0,055
-526,262	-200,000	-0,013	0,071
-525,248	414,329	0,066	-0,104
-524,233	800,000	0,011	0,035
-523,218	-37,501	0,085	0,033
-522,204	64,239	-0,062	-0,046
-521,189	-25,757	-0,090	-0,039
-520,175	679,267	-0,015	0,029
-519,160	-200,000	-0,005	-0,060
-518,145	-74,960	-0,075	0,020
-517,131	-200,000	-0,039	0,150
-516,116	-89,009	-0,120	-0,026
-515,102	-123,643	0,083	0,010
-514,087	-200,000	-0,018	0,058
-513,072	76,137	-0,107	-0,084
-512,058	-160,274	-0,072	-0,003
-511,043	5,654	0,013	-0,007
-510,029	-65,903	-0,071	0,021
-509,014	343,740	0,069	0,100
-507,999	-43,627	0,214	0,079
-506,985	-26,489	0,049	-0,021
-505,970	-53,159	-0,135	-0,045
-504,956	23,972	0,090	-0,055
-503,941	541,339	-0,074	-0,130
-502,926	-106,811	0,088	-0,014
-501,912	-200,000	-0,003	0,078
-500,897	69,300	0,014	-0,011
-499,883	-102,829	-0,119	-0,021
-498,868	-62,333	-0,054	-0,016
-497,853	-200,000	0,003	0,089
-496,839	147,428	0,068	-0,068
-495,824	73,248	0,043	-0,033
-494,810	-200,000	0,011	0,095
-493,795	-40,838	0,085	0,032
-492,781	-83,873	0,124	-0,029
-491,766	-200,000	-0,000	0,135
-490,751	-170,793	-0,100	-0,002
-489,737	-142,545	-0,044	-0,003
-488,722	-200,000	-0,011	0,071
-487,708	90,196	0,045	0,037
-486,693	-21,783	-0,086	0,039
-485,678	-4,417	-0,104	-0,053
-484,664	-200,000	-0,053	-0,204
-483,649	-200,000	-0,016	0,059
-482,635	-200,000	0,004	0,154
-481,620	-200,000	-0,020	0,082
-480,605	90,728	0,062	0,051
-479,591	800,000	-0,035	0,076
-478,576	-200,000	-0,028	-0,097
-477,562	87,287	0,094	-0,077
-476,547	294,295	-0,002	-0,003
-475,532	-34,330	0,042	0,017
-474,518	476,653	0,040	-0,066
-473,503	-109,979	0,089	0,014
-472,489	-200,000	-0,015	0,050
-471,474	-200,000	0,007	-0,056
-470,459	-39,437	-0,124	0,048
-469,445	-146,031	0,065	0,004
-468,430	254,209	-0,036	0,046
-467,416	12,663	0,094	0,053
-466,401	414,202	0,071	0,112
-465,386	-92,255	-0,096	0,020
-464,372	800,000	0,006	0,018
-463,357	-87,243	-0,090	0,020
-462,343	275,882	-0,055	-0,072
-461,328	578,213	0,029	0,052
-460,313	800,000	-0,004	0,010
-459,299	-105,789	0,179	0,029
-458,284	-200,000	-0,009	0,113
-457,270	64,555	-0,020	-0,014
-456,255	370,043	0,081	0,122
-455,241	-200,000	0,024	-0,103
-454,226	800,000	-0,039	0,116
-453,211	800,000	0,028	-0,058
-452,197	98,551	-0,030	0,026
-451,182	585,723	-0,099	0,181
-450,168	-77,200	-0,059	-0,015
-449,153	25,332	0,055	0,033
-448,138	78,955	0,036	-0,029
-447,124	333,809	0,011	-0,015
-446,109	-117,726	0,143	-0,019
-445,095	800,000	-0,025	0,069
-444,080	-200,000	0,013	0,081
-443,065	178,352	-0,086	-0,093
-442,051	-200,000	0,012	0,144
-441,036	11,983	-0,110	0,062
-440,022	30,144	-0,030	0,019
-439,007	-161,839	0,050	-0,002
-437,992	-43,887	-0,056	0,021
-436,978	167,372	-0,071	0,074
-435,963	800,000	-0,011	0,022
-434,949	-155,416	0,133	0,006
-433,934	-176,218	0,097	0,002
-432,919	-177,823	-0,101	-0,002
-431,905	-200,000	-0,018	-0,059
-430,890	202,735	0,032	-0,037
-429,876	-200,000	-0,016	0,175
-428,861	-81,917	0,071	0,017
-427,846	-101,709	-0,065	-0,011
-426,832	429,140	0,032	-0,052
-425,817	134,199	-0,057	-0,054
-424,803	-200,000	0,008	0,162
-423,788	-154,999	-0,098	-0,005
-422,773	-147,166	-0,042	0,003
-421,759	325,420	-0,050	0,071
-420,744	-200,000	0,013	-0,106
-419,730	800,000	-0,040	-0,088
-418,715	-83,477	-0,051	0,012
-417,701	-99,726	-0,120	0,022
-416,686	70,215	0,049	0,037
-415,671	170,443	0,064	0,068
-414,657	-5,251	0,093	0,047
-413,642	486,464	0,034	0,057
-412,628	-128,119	-0,037	0,004
-411,613	-200,000	0,024	0,142
-410,598	14,062	0,147	-0,084
-409,584	15,393	0,088	0,051
-408,569	-106,361	0,078	0,013
-407,555	-200,000	-0,003	0,107
-406,540	-42,106	-0,050	-0,019
-405,525	113,708	-0,221	-0,198
-404,511	800,000	0,046	-0,105
-403,496	-145,217	0,051	0,003
-402,482	-95,076	0,144	-0,028
-401,467	-63,372	-0,046	-0,014
-400,452	783,996	-0,031	0,063
-399,438	-117,930	0,177	-0,023
-398,423	-200,000	-0,028	-0,137
-397,409	-162,810	0,095	-0,003
-396,394	-50,628	-0,022	0,008
-395,379	-11,208	0,080	0,039
-394,365	408,887	0,024	0,038
-393,350	56,591	0,023	0,016
-392,336	26,700	-0,043	-0,026
-391,321	742,076	0,042	0,084
-390,306	-99,906	0,083	0,015
-389,292	300,233	-0,041	0,055
-388,277	-74,042	-0,053	0,014
-387,263	-200,000	-0,017	0,094
-386,248	294,286	0,061	0,082
-385,233	800,000	0,015	-0,033
-384,219	-8,580	-0,095	0,047
-383,204	-88,953	-0,075	0,016
-382,190	-38,091	-0,066	0,026
-381,175	259,560	0,056	-0,072
-380,160	-5,761	0,118	-0,059
-379,146	105,431	-0,166	0,144
-378,131	-200,000	0,023	0,241
-377,117	42,398	-0,185	-0,123
-376,102	-14,460	-0,063	-0,029
-375,088	-57,566	-0,090	-0,029
-374,073	68,107	0,061	0,046
-373,058	-200,000	-0,007	-0,067
-372,044	-58,892	0,186	-0,059
-371,029	-200,000	-0,016	0,060
-370,015	31,954	-0,106	-0,067
-369,000	-152,394	-0,065	-0,003
-367,985	274,110	0,012	-0,015
-366,971	649,686	0,096	-0,182
-365,956	-200,000	-0,016	-0,081
-364,942	-6,789	0,113	0,056
-363,927	-200,000	-0,020	0,088
-362,912	-200,000	-0,046	-0,225
-361,898	-66,444	0,079	-0,023
-360,883	800,000	-0,034	0,098
-359,869	50,156	-0,035	0,024
-358,854	-160,097	0,022	0,001
-357,839	316,553	0,025	-0,035
-356,825	-200,000	-0,010	0,113
-355,810	800,000	0,065	-0,178
-354,796	77,837	-0,098	-0,077
-353,781	202,685	0,049	0,056
-352,766	688,248	-0,054	-0,105
-351,752	93,447	0,025	0,020
-350,737	-200,000	-0,012	0,108
-349,723	800,000	0,060	0,124
-348,708	-200,000	-0,012	-0,127
-347,693	18,703	-0,066	-0,038
-346,679	161,784	-0,091	0,093
-345,664	-174,735	0,042	0,001
-344,650	-200,000	0,010	0,034
-343,635	-109,708	0,047	-0,007
-342,620	68,775	-0,081	0,061
-341,606	-101,063	0,084	-0,015
-340,591	478,309	0,037	-0,063
-339,577	352,766	-0,047	-0,068
-338,562	189,003	0,050	-0,056
-337,548	800,000	-0,005	-0,017
-336,533	161,476	0,030	0,031
-335,518	-200,000	-0,048	0,191
-334,504	-17,892	-0,100	0,046
-333,489	662,321	0,091	-0,174
-332,475	177,418	-0,027	-0,029
-331,460	0,342	-0,079	-0,041
-330,445	-67,606	-0,013	-0,004
-329,431	-98,702	0,189	0,035
-328,416	137,223	0,122	0,117
-327,402	-57,501	0,156	-0,050
-326,387	-135,635	0,055	-0,005
-325,372	-35,935	-0,106	0,042
-324,358	-200,000	0,002	0,056
-323,343	-21,280	0,138	0,062
-322,329	800,000	0,030	0,095
-321,314	5,913	0,078	0,042
-320,299	125,774	-0,044	-0,041
-319,285	800,000	0,037	0,110
-318,270	-57,202	-0,081	0,026
-317,256	-47,092	-0,038	0,014
-316,241	14,714	0,122	-0,070
-315,226	-200,000	-0,005	0,038
-314,212	-92,299	0,121	-0,025
-313,197	-200,000	-0,002	0,030
-312,183	16,844	-0,027	0,016
-311,168	-131,542	0,150	-0,014
-310,153	800,000	0,030	-0,069
-309,139	-200,000	0,000	-0,038
-308,124	-200,000	-0,007	0,087
-307,110	3,086	0,066	-0,035
-306,095	400,316	-0,028	-0,043
-305,080	318,348	0,053	-0,074
-304,066	-200,000	0,016	0,057
-303,051	65,660	-0,165	0,123
-302,037	22,686	0,052	-0,031
-301,022	-121,275	-0,043	0,005
-300,008	-200,000	-0,004	0,092
-298,993	-200,000	-0,028	0,090
-297,978	-154,533	-0,018	-0,001
-296,964	154,722	-0,122	-0,123
-295,949	83,023	-0,060	0,048
-294,935	353,128	-0,052	-0,076
-293,920	679,403	0,025	0,048
-292,905	-53,092	0,134	-0,045
-291,891	424,447	0,027	0,042
-290,876	800,000	-0,028	0,060
-289,862	-200,000	0,004	-0,028
-288,847	-108,721	-0,065	0,010
-287,832	800,000	-0,052	0,155
-286,818	-200,000	-0,018	-0,070
-285,803	205,399	-0,032	0,036
-284,789	1,315	0,100	0,052
-283,774	-200,000	0,001	-0,059
-282,759	604,577	0,064	0,118
-281,745	625,396	0,056	0,103
-280,730	-139,012	-0,072	0,006
-279,716	147,844	0,073	0,072
-278,701	101,976	-0,007	0,006
-277,686	-200,000	0,001	0,110
-276,672	235,399	0,155	0,187
-275,657	-55,058	-0,019	0,006
-274,643	-200,000	0,012	0,202
-273,628	-35,735	0,091	-0,036
-272,613	-17,833	0,037	-0,017
-271,599	339,895	0,072	0,103
-270,584	-200,000	0,027	0,113
-269,570	300,649	0,071	0,097
-268,555	5,146	-0,063	-0,034
-267,540	-114,383	-0,131	-0,018
-266,526	-200,000	0,016	-0,072
-265,511	-200,000	0,027	-0,168
-264,497	204,118	-0,028	-0,031
-263,482	-200,000	-0,001	0,115
-262,467	800,000	0,029	-0,072
-261,453	239,414	-0,109	-0,133
-260,438	-85,091	-0,130	0,029
-259,424	-82,883	0,117	-0,027
-258,409	319,580	0,022	-0,030
-257,395	-200,000	-0,034	-0,134
-256,380	-61,196	0,138	0,042
-255,365	-80,504	0,154	0,037
-254,351	-27,183	-0,082	0,035
-253,336	-84,942	0,084	-0,019
-252,322	186,578	-0,108	-0,118
-251,307	800,000	0,068	-0,153
-250,292	37,500	-0,015	-0,010
-249,278	-200,000	0,002	0,008
-248,263	-200,000	0,015	-0,059
-247,249	255,649	-0,082	-0,103
-246,234	-136,012	-0,184	-0,016
-245,219	37,189	-0,059	-0,038
-244,205	800,000	0,012	0,027
-243,190	154,880	0,072	-0,073
-242,176	-200,000	0,009	-0,043
-241,161	-18,788	-0,023	-0,010
-240,146	-142,771	-0,097	0,007
-239,132	265,980	-0,051	0,065
-238,117	727,419	-0,092	-0,181
-237,103	140,769	-0,102	0,099
-236,088	800,000	0,026	-0,067
-235,073	-200,000	-0,040	-0,146
-234,059	182,935	-0,067	-0,072
-233,044	-100,823	0,127	-0,023
-232,030	800,000	-0,041	-0,104
-231,015	-200,000	-0,003	-0,113
-230,000	-167,071	-0,147	0,004
-228,986	401,409	-0,063	0,098
-227,971	70,046	0,036	-0,027
-226,957	161,536	0,064	0,065
-225,942	-94,681	-0,107	-0,021
-224,927	407,913	-0,016	0,024
-223,913	34,413	-0,042	0,026
-222,898	700,683	0,047	0,091
-221,884	-158,708	0,034	0,001
-220,869	85,691	0,075	0,060
-219,855	372,110	0,035	-0,052
-218,840	-42,708	0,096	-0,036
-217,825	747,653	-0,037	0,073
-216,811	582,723	0,030	0,054
-215,796	-200,000	-0,000	-0,071
-214,782	12,348	-0,115	-0,064
-213,767	-200,000	0,024	-0,159
-212,752	181,044	0,088	0,095
-211,738	800,000	0,043	0,134
-210,723	71,671	0,052	-0,040
-209,709	-16,946	0,084	-0,039
-208,694	-200,000	-0,002	-0,195
-207,679	-200,000	0,015	-0,064
-206,665	-31,850	-0,089	0,036
-205,650	84,549	-0,051	0,041
-204,636	441,085	0,060	0,096
-203,621	-98,206	-0,022	0,004
-202,606	800,000	-0,026	-0,058
-201,592	-200,000	-0,003	-0,047
-200,577	225,823	-0,016	0,019
-199,563	-127,915	-0,121	-0,013
-198,548	-200,000	0,021	0,084
-197,533	-103,371	0,126	-0,021
-196,519	2,485	0,145	-0,076
-195,504	-200,000	0,008	-0,086
-194,490	588,544	-0,028	-0,051
-193,475	-156,746	-0,136	0,006
-192,460	-200,000	-0,014	-0,132
-191,446	-200,000	-0,019	0,082
-190,431	757,885	-0,019	-0,037
-189,417	-18,898	-0,035	0,016
-188,402	-200,000	0,022	-0,139
-187,387	759,266	-0,052	0,103
-186,373	42,483	0,053	-0,035
-185,358	-200,000	0,023	-0,101
-184,344	-63,796	0,116	0,034
-183,329	557,812	-0,038	-0,066
-182,315	-15,928	-0,093	-0,043
-181,300	-200,000	0,010	-0,075
-180,285	-123,755	0,080	0,009
-179,271	-200,000	-0,011	0,168
-178,256	715,153	0,016	0,031
-177,242	606,019	0,014	0,026
-176,227	15,627	0,049	0,028
-175,212	10,403	-0,046	-0,025
-174,198	800,000	-0,006	-0,014
-173,183	265,096	0,043	0,055
-172,169	114,251	0,052	-0,046
-171,154	-200,000	-0,031	0,105
-170,139	800,000	0,020	0,049
-169,125	800,000	0,031	0,080
-168,110	-60,116	0,056	0,017
-167,096	-108,075	0,074	0,012
-166,081	-152,715	0,072	0,004
-165,066	800,000	-0,073	-0,215
-164,052	800,000	-0,000	0,001
-163,037	-200,000	-0,004	-0,095
-162,023	131,302	0,043	0,040
-161,008	800,000	-0,016	0,049
-159,993	-200,000	0,025	0,088
-158,979	-26,836	0,058	0,025
-157,964	800,000	-0,042	0,120
-156,950	136,975	-0,010	-0,010
-155,935	800,000	0,034	-0,110
-154,920	-200,000	0,063	0,228
-153,906	-200,000	-0,004	0,174
-152,891	-200,000	0,004	-0,047
-151,877	-200,000	0,000	-0,007
-150,862	276,050	-0,076	-0,098
-149,847	-134,485	-0,055	-0,005
-148,833	800,000	-0,013	0,037
-147,818	-200,000	-0,004	0,123
-146,804	800,000	0,020	0,054
-145,789	24,579	0,137	0,082
-144,775	800,000	0,054	0,157
-143,760	800,000	0,054	0,131
-142,745	-55,740	-0,068	0,022
-141,731	396,415	-0,066	-0,101
-140,716	71,598	-0,122	0,093
-139,702	-200,000	-0,015	0,059
-138,687	-200,000	-0,045	-0,157
-137,672	800,000	-0,071	0,147
-136,658	286,798	0,067	-0,088
-135,643	-200,000	-0,001	-0,160
-134,629	737,637	-0,035	-0,068
-133,614	115,715	0,065	0,058
-132,599	-200,000	-0,014	-0,060
-131,585	-200,000	-0,024	0,101
-130,570	-189,709	-0,082	-0,001
-129,556	-200,000	-0,029	-0,100
-128,541	-200,000	-0,024	-0,102
-127,526	800,000	0,025	-0,059
-126,512	-65,198	0,183	-0,053
-125,497	-21,491	-0,082	0,036
-124,483	-175,173	-0,016	0,000
-123,468	800,000	0,018	0,043
-122,453	656,472	0,086	-0,161
-121,439	125,537	-0,058	-0,053
-120,424	-59,902	-0,072	0,022
