DTS Sentinel unit serial number:	SN410029Multiplexer serial number:	ORYXHardware model number:	OX2-SRSoftware version number:	ORYX F/W v4,00 Oryx Data Collector v3.7.2.0data status	okinstallation	B6 Nyhavnadifferential loss correction	single-endedforward channel	channel 2reverse channel	N/Adate	2023/12/08time	02:25:08forward acquisition time	300,00reverse acquisition time	0,00gamma	499,1914k internal	0,3165k external	0,3165temperature offset calibration	1,0000default loss term (dB/km)	0,3820temperature slope calibration	1,0000multiplexer offset coefficient	1,0000multiplexer slope coefficient	1,0000fibre end	0,00T internal ref (°C)	13,18T ext. ref 1 (°C)	-3,68T ext. ref 2 (°C)	-3,67length (m)	temperature (°C)	Stokes	anti-Stokes-744,400	711,310	0,049	0,095
-743,385	-61,546	-0,421	-0,129
-742,371	25,749	0,088	0,054
-741,356	-81,538	-0,276	-0,066
-740,342	323,718	0,077	0,108
-739,327	-83,890	-0,306	-0,071
-738,312	579,825	0,034	0,061
-737,298	-89,186	-0,381	0,082
-736,283	-29,259	0,080	-0,034
-735,269	-156,667	-0,172	0,008
-734,254	-59,740	0,198	0,062
-733,239	33,468	-0,470	-0,299
-732,225	-105,356	0,193	0,032
-731,210	508,315	0,076	0,130
-730,196	800,000	0,018	0,056
-729,181	-200,000	-0,046	-0,151
-728,167	800,000	-0,024	-0,057
-727,152	-90,655	-0,193	-0,041
-726,137	-113,321	-0,160	-0,023
-725,123	-125,121	0,008	0,001
-724,108	486,266	-0,089	-0,149
-723,094	175,944	0,031	-0,033
-722,079	-200,000	-0,017	0,151
-721,064	-19,379	0,053	-0,024
-720,050	-200,000	0,015	-0,149
-719,035	-22,875	-0,095	0,042
-718,021	-200,000	0,001	0,137
-717,006	223,785	-0,068	-0,081
-715,991	441,604	-0,088	-0,142
-714,977	-84,784	-0,107	-0,025
-713,962	743,769	-0,090	-0,178
-712,948	-200,000	-0,053	0,186
-711,933	182,690	-0,084	0,091
-710,918	-76,883	0,096	-0,025
-709,904	308,750	-0,022	-0,030
-708,889	800,000	-0,026	0,061
-707,875	8,650	-0,107	-0,059
-706,860	-4,115	0,027	-0,014
-705,845	-125,409	-0,066	0,007
-704,831	-106,499	0,016	0,003
-703,816	392,478	-0,029	-0,045
-702,802	723,015	-0,071	-0,140
-701,787	52,508	-0,109	-0,076
-700,772	135,881	-0,042	-0,040
-699,758	281,551	0,036	0,048
-698,743	-200,000	0,003	0,111
-697,729	-200,000	0,004	-0,040
-696,714	800,000	0,063	0,129
-695,699	-134,868	-0,118	-0,010
-694,685	252,540	0,025	0,031
-693,670	-200,000	0,009	-0,163
-692,656	340,401	0,060	0,087
-691,641	-138,435	0,059	0,005
-690,627	-200,000	0,014	-0,070
-689,612	-200,000	0,006	0,094
-688,597	-200,000	-0,031	0,168
-687,583	20,552	0,050	-0,030
-686,568	-200,000	-0,037	-0,123
-685,554	-200,000	0,002	-0,029
-684,539	800,000	-0,036	0,099
-683,524	467,883	-0,014	0,023
-682,510	-104,539	-0,074	0,012
-681,495	171,672	-0,050	-0,052
-680,481	99,282	-0,104	-0,088
-679,466	-60,099	-0,146	-0,045
-678,451	-144,272	0,037	0,002
-677,437	288,983	0,017	0,023
-676,422	-7,629	0,076	0,038
-675,408	-30,773	-0,003	-0,001
-674,393	800,000	0,053	0,121
-673,378	231,060	-0,088	-0,106
-672,364	379,161	-0,057	0,086
-671,349	189,491	0,106	-0,116
-670,335	-151,334	-0,066	-0,004
-669,320	-17,333	-0,102	-0,047
-668,305	-200,000	-0,011	0,070
-667,291	800,000	0,022	0,070
-666,276	800,000	-0,061	-0,145
-665,262	47,587	-0,043	0,029
-664,247	136,687	0,026	-0,025
-663,232	123,994	0,118	-0,109
-662,218	247,654	-0,065	-0,081
-661,203	131,225	0,039	0,037
-660,189	81,632	-0,132	-0,105
-659,174	58,583	0,018	0,013
-658,159	-73,744	-0,113	-0,030
-657,145	-200,000	0,002	0,010
-656,130	800,000	0,050	0,111
-655,116	20,874	-0,121	0,072
-654,101	-19,581	0,086	-0,039
-653,086	-73,205	-0,029	-0,008
-652,072	263,661	0,063	0,081
-651,057	117,762	-0,074	0,067
-650,043	707,799	0,009	-0,018
-649,028	-143,669	-0,147	-0,010
-648,014	0,623	0,134	-0,070
-646,999	16,869	0,109	0,063
-645,984	70,753	-0,065	-0,050
-644,970	800,000	-0,032	0,067
-643,955	272,132	0,018	0,023
-642,941	-56,934	-0,105	0,034
-641,926	-200,000	0,009	-0,054
-640,911	258,465	0,066	-0,083
-639,897	800,000	0,021	0,055
-638,882	48,134	0,109	0,075
-637,868	-200,000	0,008	0,085
-636,853	209,813	-0,073	-0,084
-635,838	46,163	0,130	-0,088
-634,824	-200,000	0,016	-0,162
-633,809	214,962	0,016	-0,018
-632,795	74,435	-0,056	0,043
-631,780	-200,000	0,001	0,007
-630,765	-21,222	0,084	0,038
-629,751	-177,460	-0,215	-0,004
-628,736	-14,356	-0,053	-0,025
-627,722	110,493	-0,020	-0,018
-626,707	83,936	0,069	-0,055
-625,692	-200,000	0,001	0,025
-624,678	-39,228	0,034	0,013
-623,663	-200,000	-0,032	0,127
-622,649	37,766	-0,118	-0,077
-621,634	-200,000	-0,001	-0,009
-620,619	-136,206	-0,117	-0,010
-619,605	-32,150	0,155	-0,063
-618,590	213,114	-0,014	-0,017
-617,576	-200,000	-0,009	0,040
-616,561	-200,000	0,019	-0,076
-615,546	-200,000	-0,003	0,030
-614,532	158,935	0,047	-0,048
-613,517	-200,000	-0,036	-0,126
-612,503	-200,000	0,048	-0,190
-611,488	188,463	-0,060	-0,066
-610,474	800,000	0,070	-0,152
-609,459	52,190	-0,054	-0,037
-608,444	178,918	-0,022	-0,023
-607,430	25,920	0,007	-0,004
-606,415	154,816	0,050	0,050
-605,401	800,000	0,026	0,078
-604,386	-0,002	0,134	-0,070
-603,371	-200,000	0,023	-0,151
-602,357	800,000	-0,053	-0,129
-601,342	217,497	-0,074	-0,087
-600,328	-200,000	0,021	-0,107
-599,313	-38,573	-0,171	-0,066
-598,298	366,983	-0,054	0,081
-597,284	-62,060	0,100	0,030
-596,269	406,653	-0,030	0,046
-595,255	800,000	0,004	0,011
-594,240	-200,000	-0,018	-0,062
-593,225	800,000	-0,044	-0,105
-592,211	-200,000	0,016	-0,103
-591,196	-5,393	-0,056	0,028
-590,182	-200,000	0,041	-0,132
-589,167	800,000	-0,034	0,106
-588,152	-200,000	0,017	-0,077
-587,138	156,645	0,091	0,092
-586,123	198,979	-0,017	0,019
-585,109	499,130	-0,046	-0,078
-584,094	52,457	0,089	0,062
-583,079	29,108	-0,149	0,092
-582,065	-200,000	-0,018	0,072
-581,050	171,864	-0,066	0,070
-580,036	-200,000	-0,006	-0,102
-579,021	499,860	-0,052	-0,089
-578,006	-13,608	-0,097	-0,046
-576,992	423,778	0,064	-0,101
-575,977	-27,243	0,010	0,004
-574,963	159,147	0,037	-0,037
-573,948	261,882	-0,069	-0,087
-572,934	-116,049	-0,071	0,010
-571,919	-200,000	0,002	0,027
-570,904	-62,454	-0,051	-0,015
-569,890	-40,664	0,131	-0,049
-568,875	175,482	0,050	-0,053
-567,861	-200,000	0,011	0,068
-566,846	105,143	0,064	0,055
-565,831	-108,081	-0,103	0,016
-564,817	26,611	-0,045	-0,027
-563,802	50,091	-0,082	0,056
-562,788	800,000	0,068	-0,146
-561,773	90,393	0,010	0,008
-560,758	-200,000	0,002	-0,015
-559,744	-52,083	-0,119	0,040
-558,729	-25,153	0,074	0,032
-557,715	-59,760	0,034	0,010
-556,700	50,919	-0,105	-0,072
-555,685	-62,780	0,093	-0,028
-554,671	-97,129	0,027	-0,005
-553,656	800,000	-0,013	0,042
-552,642	284,067	0,027	0,035
-551,627	-200,000	-0,017	-0,055
-550,612	9,321	-0,084	-0,046
-549,598	-181,986	-0,101	0,001
-548,583	-200,000	0,004	-0,035
-547,569	-55,660	-0,124	-0,040
-546,554	-1,898	-0,038	-0,019
-545,539	147,964	0,088	-0,086
-544,525	-200,000	-0,005	0,080
-543,510	149,558	-0,027	0,027
-542,496	17,900	0,067	0,039
-541,481	7,816	-0,057	-0,031
-540,466	-95,159	0,115	-0,022
-539,452	9,138	0,184	0,101
-538,437	800,000	-0,030	-0,080
-537,423	-68,548	-0,119	-0,033
-536,408	-50,113	-0,100	0,034
-535,393	-178,787	-0,110	0,002
-534,379	226,230	0,062	-0,074
-533,364	-3,957	-0,059	-0,030
-532,350	50,068	-0,054	-0,037
-531,335	800,000	0,042	0,096
-530,321	-75,313	-0,092	-0,024
-529,306	-200,000	-0,001	-0,068
-528,291	103,478	0,091	-0,078
-527,277	63,582	-0,070	0,051
-526,262	137,878	0,079	-0,076
-525,248	-102,235	0,089	-0,015
-524,233	-92,164	-0,156	-0,032
-523,218	281,519	-0,024	0,032
-522,204	19,312	0,038	-0,022
-521,189	468,251	0,017	-0,027
-520,175	207,898	-0,091	-0,104
-519,160	557,993	-0,031	-0,055
-518,145	657,250	0,106	0,200
-517,131	40,704	-0,101	0,066
-516,116	-200,000	0,035	0,162
-515,102	66,884	-0,103	0,076
-514,087	45,966	-0,103	-0,070
-513,072	-49,926	-0,089	-0,030
-512,058	578,033	0,031	-0,055
-511,043	453,181	-0,058	-0,094
-510,029	31,909	-0,136	-0,085
-509,014	-3,991	0,095	0,048
-507,999	-73,591	-0,111	0,029
-506,985	-200,000	-0,033	-0,146
-505,970	40,216	0,077	-0,050
-504,956	-50,512	-0,060	-0,020
-503,941	-139,810	0,084	-0,006
-502,926	355,932	-0,052	0,076
-501,912	-38,613	0,044	-0,017
-500,897	-200,000	-0,007	0,168
-499,883	-200,000	-0,004	-0,138
-498,868	310,553	-0,073	-0,099
-497,853	800,000	0,045	-0,140
-496,839	58,966	0,121	0,087
-495,824	-59,985	-0,051	-0,016
-494,810	800,000	0,032	0,084
-493,795	189,573	-0,066	0,072
-492,781	287,857	-0,037	-0,049
-491,766	-89,991	0,108	-0,023
-490,751	800,000	0,014	-0,034
-489,737	-77,822	-0,118	0,029
-488,722	-200,000	0,010	-0,079
-487,708	245,651	-0,075	0,093
-486,693	29,680	0,089	0,055
-485,678	102,262	0,043	0,036
-484,664	194,834	0,014	-0,015
-483,649	-200,000	-0,010	-0,077
-482,635	800,000	0,004	-0,009
-481,620	234,269	-0,046	0,056
-480,605	246,376	0,085	-0,104
-479,591	-200,000	0,034	0,199
-478,576	26,416	0,106	0,065
-477,562	-22,491	0,059	-0,026
-476,547	175,944	-0,040	-0,042
-475,532	800,000	-0,025	-0,059
-474,518	-62,035	0,027	-0,008
-473,503	-157,399	0,115	-0,005
-472,489	-71,039	0,059	-0,016
-471,474	800,000	-0,041	-0,089
-470,459	-150,801	0,039	-0,002
-469,445	-200,000	-0,048	-0,258
-468,430	103,353	0,010	0,008
-467,416	-200,000	-0,013	-0,080
-466,401	39,870	0,140	-0,092
-465,386	-40,424	-0,081	-0,030
-464,372	-200,000	-0,031	-0,158
-463,357	138,959	-0,027	0,025
-462,343	-57,642	0,063	0,020
-461,328	-78,320	0,114	-0,028
-460,313	135,555	0,041	0,039
-459,299	-200,000	0,020	0,144
-458,284	-200,000	0,043	0,202
-457,270	-200,000	0,026	-0,140
-456,255	-96,603	0,070	-0,013
-455,241	-200,000	-0,012	-0,081
-454,226	603,971	0,014	-0,026
-453,211	45,745	0,102	0,069
-452,197	10,309	0,089	-0,049
-451,182	129,350	0,089	-0,082
-450,168	-200,000	0,007	0,101
-449,153	-8,727	-0,069	-0,033
-448,138	638,434	-0,010	-0,018
-447,124	287,677	-0,054	-0,072
-446,109	155,672	-0,009	-0,009
-445,095	-200,000	-0,015	0,080
-444,080	20,451	-0,026	-0,015
-443,065	15,529	-0,066	0,038
-442,051	354,341	0,048	-0,069
-441,036	66,946	-0,023	0,017
-440,022	-72,506	0,072	0,019
-439,007	-200,000	0,016	0,105
-437,992	128,179	0,069	0,064
-436,978	-200,000	-0,048	0,172
-435,963	-6,896	0,045	0,022
-434,949	60,539	-0,064	0,046
-433,934	741,727	-0,017	0,033
-432,919	-51,589	-0,118	0,040
-431,905	-12,985	0,070	0,033
-430,890	800,000	-0,033	0,071
-429,876	344,129	0,154	0,219
-428,861	-4,392	0,066	0,033
-427,846	-200,000	-0,007	0,064
-426,832	-200,000	-0,002	-0,153
-425,817	800,000	-0,026	0,058
-424,803	-200,000	-0,011	0,215
-423,788	332,217	0,049	0,069
-422,773	82,471	0,099	-0,078
-421,759	800,000	-0,036	0,092
-420,744	343,965	0,007	-0,010
-419,730	-200,000	-0,008	0,099
-418,715	-10,365	0,070	-0,034
-417,701	-71,377	0,068	0,018
-416,686	-200,000	-0,017	0,156
-415,671	-29,247	0,019	-0,008
-414,657	582,101	0,004	0,008
-413,642	57,303	0,087	0,061
-412,628	18,763	-0,077	-0,045
-411,613	-200,000	0,000	-0,046
-410,598	-101,956	-0,029	-0,005
-409,584	554,832	-0,050	0,087
-408,569	800,000	0,043	0,105
-407,555	343,861	0,082	0,118
-406,540	156,015	0,047	-0,047
-405,525	-151,759	-0,036	-0,002
-404,511	118,950	-0,076	-0,069
-403,496	98,987	-0,134	-0,113
-402,482	197,455	0,079	-0,087
-401,467	-90,545	0,148	0,031
-400,452	71,684	0,074	0,056
-399,438	103,786	-0,061	-0,052
-398,423	387,215	0,039	0,059
-397,409	115,621	-0,173	-0,154
-396,394	-32,272	0,086	-0,035
-395,379	-200,000	-0,017	-0,060
-394,365	-199,539	-0,061	0,000
-393,350	-200,000	0,022	-0,074
-392,336	-200,000	0,032	0,129
-391,321	-200,000	0,005	-0,021
-390,306	-200,000	-0,010	0,079
-389,292	126,631	-0,084	-0,077
-388,277	800,000	-0,053	0,131
-387,263	300,364	0,141	0,189
-386,248	-163,231	-0,035	0,001
-385,233	800,000	0,028	-0,060
-384,219	103,030	-0,090	0,077
-383,204	-200,000	-0,015	-0,076
-382,190	-200,000	0,001	-0,139
-381,175	-200,000	0,004	0,044
-380,160	2,691	0,095	-0,050
-379,146	-6,330	-0,065	-0,032
-378,131	-200,000	0,013	0,062
-377,117	584,653	-0,028	-0,049
-376,102	-41,118	-0,059	-0,022
-375,088	-200,000	-0,005	-0,071
-374,073	32,047	-0,041	0,026
-373,058	531,046	0,052	-0,089
-372,044	14,626	0,151	0,085
-371,029	-200,000	-0,011	-0,038
-370,015	800,000	-0,018	0,049
-369,000	-86,234	0,038	0,008
-367,985	65,163	0,115	0,084
-366,971	-107,985	0,073	-0,011
-365,956	-78,628	0,195	0,048
-364,942	-23,228	0,087	0,038
-363,927	22,033	-0,155	0,092
-362,912	-200,000	-0,032	0,149
-361,898	522,321	-0,012	-0,021
-360,883	-109,503	-0,052	-0,008
-359,869	-200,000	0,021	-0,095
-358,854	-4,313	0,109	-0,054
-357,839	800,000	0,031	-0,089
-356,825	800,000	-0,049	-0,107
-355,810	-88,523	0,069	0,015
-354,796	-8,923	-0,050	0,024
-353,781	121,891	-0,165	-0,149
-352,766	-200,000	-0,005	-0,112
-351,752	570,601	0,098	0,173
-350,737	-15,079	0,195	-0,090
-349,723	-17,921	0,141	-0,064
-348,708	-137,451	-0,081	-0,007
-347,693	-132,625	0,152	0,014
-346,679	-81,635	-0,091	-0,022
-345,664	46,624	-0,110	0,074
-344,650	800,000	-0,054	0,126
-343,635	400,620	0,068	-0,103
-342,620	15,482	-0,088	-0,050
-341,606	-200,000	-0,004	0,017
-340,591	-137,325	-0,165	0,013
-339,577	-35,016	0,109	-0,043
-338,562	-64,652	-0,092	0,027
-337,548	82,284	0,011	0,009
-336,533	50,592	0,134	0,092
-335,518	22,359	-0,036	-0,021
-334,504	697,169	0,069	0,131
-333,489	128,870	0,010	0,009
-332,475	-200,000	-0,017	-0,060
-331,460	-200,000	0,005	-0,046
-330,445	-200,000	0,038	0,129
-329,431	412,274	0,018	-0,028
-328,416	-46,719	-0,095	0,034
-327,402	-91,427	0,237	-0,049
-326,387	790,977	0,072	0,144
-325,372	27,841	0,046	-0,028
-324,358	129,356	-0,017	-0,016
-323,343	-200,000	-0,010	-0,034
-322,329	29,251	0,096	-0,059
-321,314	800,000	0,032	-0,092
-320,299	800,000	0,041	0,132
-319,285	800,000	0,033	0,084
-318,270	-151,049	0,102	-0,005
-317,256	-83,343	-0,056	-0,013
-316,241	800,000	-0,039	-0,097
-315,226	-78,412	0,035	0,009
-314,212	-200,000	0,012	0,127
-313,197	-200,000	-0,015	-0,086
-312,183	82,891	0,069	0,054
-311,168	225,975	0,051	0,060
-310,153	-118,010	0,032	-0,004
-309,139	684,066	0,025	0,048
-308,124	-85,758	0,074	-0,016
-307,110	233,048	0,054	-0,064
-306,095	800,000	0,074	0,206
-305,080	-73,106	-0,096	-0,025
-304,066	13,941	-0,077	-0,043
-303,051	-105,119	-0,024	-0,004
-302,037	143,908	0,013	-0,013
-301,022	375,037	-0,099	0,146
-300,008	2,599	0,078	-0,041
-298,993	-136,534	0,074	-0,006
-297,978	-200,000	-0,016	0,067
-296,964	-200,000	0,040	-0,159
-295,949	800,000	0,017	0,049
-294,935	8,218	-0,176	0,095
-293,920	-200,000	-0,021	0,109
-292,905	-31,196	0,095	0,038
-291,891	-200,000	0,003	0,010
-290,876	269,392	-0,046	0,059
-289,862	-105,994	-0,075	-0,012
-288,847	455,402	-0,096	-0,154
-287,832	800,000	0,069	-0,170
-286,818	800,000	0,081	0,194
-285,803	319,661	-0,150	0,206
-284,789	-9,287	0,108	0,052
-283,774	334,382	0,070	-0,098
-282,759	800,000	0,023	-0,071
-281,745	491,326	0,018	-0,031
-280,730	-200,000	-0,008	0,040
-279,716	18,680	0,098	0,056
-278,701	-5,084	-0,079	-0,039
-277,686	-200,000	0,004	0,094
-276,672	79,148	-0,050	0,039
-275,657	-200,000	0,021	0,087
-274,643	-200,000	0,016	0,061
-273,628	-32,617	-0,079	-0,031
-272,613	397,427	0,023	-0,034
-271,599	-200,000	-0,017	0,115
-270,584	-200,000	-0,038	0,186
-269,570	-200,000	0,027	0,142
-268,555	800,000	-0,012	-0,027
-267,540	-53,720	-0,157	0,051
-266,526	-143,219	-0,089	0,006
-265,511	-48,632	-0,062	-0,021
-264,497	-169,783	-0,161	0,004
-263,482	-25,833	0,079	-0,033
-262,467	-133,675	0,152	0,014
-261,453	-127,383	0,094	0,010
-260,438	-115,401	-0,062	-0,008
-259,424	800,000	-0,015	0,031
-258,409	800,000	0,011	0,022
-257,395	-200,000	0,001	0,076
-256,380	64,366	0,185	0,135
-255,365	800,000	-0,011	0,025
-254,351	-105,738	-0,058	0,009
-253,336	-129,949	-0,118	0,012
-252,322	285,246	0,042	-0,055
-251,307	412,552	0,077	-0,119
-250,292	86,473	-0,047	-0,038
-249,278	67,581	-0,072	-0,053
-248,263	-142,202	0,052	-0,004
-247,249	178,624	0,029	0,031
-246,234	367,336	0,048	0,070
-245,219	36,402	-0,135	0,086
-244,205	181,768	-0,119	0,126
-243,190	196,091	0,041	0,045
-242,176	207,666	-0,027	-0,031
-241,161	81,512	0,120	0,094
-240,146	-75,479	-0,081	0,021
-239,132	691,079	-0,005	0,010
-238,117	-137,953	-0,020	0,002
-237,103	575,178	-0,079	-0,141
-236,088	-200,000	-0,019	-0,095
-235,073	-28,483	0,065	-0,027
-234,059	22,790	-0,149	0,088
-233,044	-17,132	-0,079	-0,036
-232,030	-6,696	-0,071	0,035
-231,015	104,168	0,168	-0,143
-230,000	154,669	-0,092	0,091
-228,986	105,928	-0,031	0,027
-227,971	800,000	0,029	0,062
-226,957	800,000	-0,017	0,038
-225,942	-94,461	0,126	-0,025
-224,927	800,000	-0,033	-0,086
-223,913	140,688	0,016	0,016
-222,898	-18,732	-0,262	-0,117
-221,884	-76,408	0,131	0,033
-220,869	22,175	0,063	-0,037
-219,855	-60,585	0,109	-0,033
-218,840	-63,568	-0,112	0,033
-217,825	-81,173	-0,068	0,016
-216,811	800,000	-0,034	0,076
-215,796	39,916	-0,079	-0,051
-214,782	800,000	0,055	-0,135
-213,767	-200,000	-0,030	-0,104
-212,752	-104,910	0,074	0,012
-211,738	-106,302	0,101	-0,016
-210,723	89,179	-0,045	-0,036
-209,709	29,397	-0,040	0,025
-208,694	344,885	0,028	0,040
-207,679	-91,569	0,102	-0,021
-206,665	-14,609	-0,147	-0,068
-205,650	-112,013	-0,021	-0,003
-204,636	-57,346	0,160	0,050
-203,621	516,364	-0,037	0,063
-202,606	800,000	0,059	-0,129
-201,592	239,955	0,049	-0,059
-200,577	77,267	-0,189	-0,145
-199,563	169,893	0,095	-0,098
-198,548	-128,818	-0,013	-0,001
-197,533	-85,660	-0,082	-0,018
-196,519	601,637	-0,040	0,072
-195,504	-41,839	-0,075	0,027
-194,490	-29,322	-0,173	0,071
-193,475	800,000	0,021	0,052
-192,460	103,497	-0,031	-0,026
-191,446	28,930	0,068	-0,042
-190,431	800,000	0,079	0,179
-189,417	800,000	-0,008	-0,019
-188,402	95,944	-0,048	-0,039
-187,387	73,780	0,051	-0,038
-186,373	-200,000	-0,002	-0,111
-185,358	339,022	-0,096	-0,135
-184,344	-75,669	0,115	0,029
-183,329	186,339	0,055	0,059
-182,315	124,833	0,039	0,036
-181,300	-64,564	0,044	0,013
-180,285	-38,185	-0,117	0,044
-179,271	-34,911	-0,146	0,057
-178,256	800,000	-0,053	0,137
-177,242	800,000	0,041	-0,088
-176,227	-200,000	0,017	-0,140
-175,212	167,671	0,132	0,135
-174,198	-200,000	-0,001	0,022
-173,183	800,000	0,001	-0,003
-172,169	275,484	0,086	-0,110
-171,154	-32,891	0,049	0,019
-170,139	391,860	-0,035	0,053
-169,125	-119,253	0,060	0,007
-168,110	-200,000	0,004	0,040
-167,096	-200,000	0,001	0,142
-166,081	470,374	-0,031	-0,050
-165,066	181,028	-0,105	-0,111
-164,052	-13,016	-0,098	0,046
-163,037	-200,000	-0,016	0,079
-162,023	800,000	-0,042	0,098
-161,008	-102,918	-0,079	0,013
-159,993	379,787	-0,045	0,067
-158,979	127,161	-0,050	0,046
-157,964	661,306	0,064	-0,119
-156,950	190,766	-0,094	-0,101
-155,935	592,555	0,038	0,067
-154,920	-200,000	0,035	0,176
-153,906	-45,361	-0,023	0,008
-152,891	173,645	-0,035	0,036
-151,877	800,000	-0,042	0,101
-150,862	489,583	-0,057	-0,094
-149,847	475,331	0,003	-0,005
-148,833	-145,306	0,095	-0,006
-147,818	-98,703	0,066	-0,012
-146,804	-200,000	-0,011	0,100
-145,789	-200,000	0,011	0,059
-144,775	-200,000	-0,008	-0,122
-143,760	-200,000	0,033	-0,123
-142,745	-200,000	0,026	0,094
-141,731	774,427	0,039	0,076
-140,716	118,972	-0,044	-0,039
-139,702	38,151	0,046	0,030
-138,687	-200,000	0,007	-0,031
-137,672	43,096	-0,053	-0,034
-136,658	178,932	-0,121	-0,127
-135,643	800,000	-0,015	-0,036
-134,629	-200,000	-0,009	0,120
-133,614	-200,000	-0,017	-0,126
-132,599	-48,401	0,113	-0,039
-131,585	562,250	-0,036	0,063
-130,570	185,365	0,043	0,046
-129,556	-3,107	-0,167	-0,084
-128,541	363,127	0,053	-0,076
-127,526	-200,000	0,001	-0,056
-126,512	173,325	0,136	-0,141
-125,497	360,302	-0,049	0,071
-124,483	-103,304	-0,180	0,030
-123,468	800,000	-0,063	0,161
-122,453	800,000	-0,014	0,039
-121,439	792,354	0,014	-0,027
-120,424	-97,878	0,052	-0,010
-119,410	642,300	-0,060	0,111
-118,395	48,225	-0,074	0,050
