DTS Sentinel unit serial number:	SN410029Multiplexer serial number:	ORYXHardware model number:	OX2-SRSoftware version number:	ORYX F/W v4,00 Oryx Data Collector v3.7.2.0data status	okinstallation	B6 Nyhavnadifferential loss correction	single-endedforward channel	channel 2reverse channel	N/Adate	2023/12/09time	15:50:08forward acquisition time	300,00reverse acquisition time	0,00gamma	499,1914k internal	0,3133k external	0,3133temperature offset calibration	1,0000default loss term (dB/km)	0,3820temperature slope calibration	1,0000multiplexer offset coefficient	1,0000multiplexer slope coefficient	1,0000fibre end	0,00T internal ref (°C)	20,75T ext. ref 1 (°C)	4,66T ext. ref 2 (°C)	4,66length (m)	temperature (°C)	Stokes	anti-Stokes-744,400	-131,263	0,131	0,013
-743,385	-9,671	-0,102	0,050
-742,371	-51,557	0,191	-0,066
-741,356	29,681	-0,219	0,138
-740,342	800,000	0,015	-0,037
-739,327	-148,992	-0,193	0,011
-738,312	-200,000	-0,053	-0,193
-737,298	-118,265	-0,263	-0,034
-736,283	403,928	-0,027	0,043
-735,269	-24,585	-0,207	0,091
-734,254	192,704	0,010	0,011
-733,239	-123,611	-0,514	-0,060
-732,225	-200,000	0,018	0,075
-731,210	652,659	0,037	-0,071
-730,196	-36,722	0,090	-0,036
-729,181	73,342	-0,058	-0,045
-728,167	800,000	0,035	-0,078
-727,152	-200,000	0,003	0,016
-726,137	-16,634	-0,083	0,039
-725,123	497,275	0,034	-0,058
-724,108	800,000	-0,024	-0,075
-723,094	-32,779	-0,151	0,062
-722,079	-37,275	0,097	0,038
-721,064	-68,522	0,059	-0,017
-720,050	49,962	-0,031	-0,022
-719,035	-103,373	-0,107	0,019
-718,021	553,845	-0,042	-0,076
-717,006	96,211	-0,086	0,073
-715,991	-75,460	-0,096	0,025
-714,977	-200,000	-0,017	-0,105
-713,962	-200,000	0,004	-0,033
-712,948	21,141	-0,054	0,032
-711,933	-200,000	-0,016	-0,129
-710,918	156,949	-0,071	-0,073
-709,904	-155,391	0,037	0,002
-708,889	-144,381	-0,155	0,011
-707,875	800,000	-0,073	-0,200
-706,860	-31,353	0,133	0,055
-705,845	800,000	0,017	-0,039
-704,831	-200,000	0,010	-0,061
-703,816	-8,469	-0,106	-0,053
-702,802	-58,586	-0,083	0,026
-701,787	175,363	-0,143	-0,154
-700,772	8,279	0,088	-0,049
-699,758	-200,000	0,024	-0,193
-698,743	-100,487	0,092	-0,017
-697,729	315,978	-0,093	-0,131
-696,714	325,642	0,101	0,144
-695,699	-200,000	-0,012	-0,049
-694,685	110,510	-0,074	-0,066
-693,670	800,000	-0,070	0,145
-692,656	-139,846	-0,050	-0,004
-691,641	-40,113	-0,081	-0,031
-690,627	49,044	-0,026	-0,018
-689,612	91,655	-0,061	-0,051
-688,597	800,000	-0,020	-0,061
-687,583	47,832	-0,098	-0,068
-686,568	379,911	-0,068	-0,104
-685,554	-112,879	0,029	-0,004
-684,539	119,714	-0,021	-0,019
-683,524	84,254	-0,167	-0,136
-682,510	-200,000	0,000	-0,007
-681,495	1,522	-0,166	0,088
-680,481	-2,385	0,064	-0,033
-679,466	287,321	-0,115	-0,155
-678,451	-26,338	0,085	-0,037
-677,437	800,000	0,024	-0,071
-676,422	-127,014	0,055	0,006
-675,408	-200,000	-0,002	0,032
-674,393	-200,000	-0,010	0,040
-673,378	-41,885	-0,079	0,030
-672,364	21,177	0,051	0,030
-671,349	203,328	-0,108	-0,124
-670,335	800,000	0,021	-0,049
-669,320	800,000	0,024	-0,059
-668,305	-86,278	-0,025	-0,006
-667,291	-200,000	-0,017	-0,103
-666,276	426,443	-0,024	-0,038
-665,262	43,280	-0,076	0,051
-664,247	-84,650	-0,049	0,011
-663,232	119,395	-0,099	0,091
-662,218	-46,563	0,178	0,064
-661,203	-24,177	0,007	-0,003
-660,189	17,342	0,096	0,056
-659,174	-142,426	-0,148	-0,011
-658,159	730,576	-0,074	-0,148
-657,145	-200,000	0,018	-0,126
-656,130	-13,975	-0,106	-0,050
-655,116	17,097	-0,045	-0,026
-654,101	18,064	-0,028	-0,016
-653,086	297,203	0,035	0,047
-652,072	-48,498	-0,060	0,021
-651,057	9,950	-0,137	-0,077
-650,043	9,933	-0,105	-0,059
-649,028	56,817	0,055	-0,039
-648,014	511,597	-0,034	-0,059
-646,999	-200,000	-0,006	0,075
-645,984	231,969	0,017	-0,020
-644,970	-80,121	-0,012	0,003
-643,955	-200,000	0,020	0,079
-642,941	32,997	0,043	-0,027
-641,926	93,642	-0,094	0,079
-640,911	800,000	0,023	0,054
-639,897	-42,352	-0,043	0,016
-638,882	231,540	-0,038	0,046
-637,868	-32,086	-0,113	-0,046
-636,853	-200,000	-0,035	-0,147
-635,838	376,006	-0,082	-0,123
-634,824	420,800	-0,074	0,118
-633,809	-9,511	0,213	0,105
-632,795	274,919	0,033	0,043
-631,780	-35,473	-0,073	-0,029
-630,765	800,000	-0,035	-0,091
-629,751	-200,000	-0,009	0,060
-628,736	-21,676	-0,107	0,048
-627,722	800,000	0,067	0,204
-626,707	246,738	0,066	0,083
-625,692	-200,000	0,001	0,038
-624,678	-119,205	0,085	-0,011
-623,663	-162,795	-0,093	-0,003
-622,649	36,252	-0,167	0,108
-621,634	-8,644	-0,193	-0,095
-620,619	448,280	-0,046	-0,075
-619,605	-162,951	-0,081	0,003
-618,590	800,000	0,042	-0,095
-617,576	-200,000	0,000	0,022
-616,561	-30,544	0,079	0,033
-615,546	-8,096	0,017	0,008
-614,532	800,000	0,024	0,071
-613,517	-200,000	0,008	0,077
-612,503	-4,877	-0,117	-0,059
-611,488	-200,000	-0,030	0,106
-610,474	-152,874	-0,131	-0,007
-609,459	100,726	-0,013	-0,012
-608,444	800,000	-0,029	0,076
-607,430	-200,000	-0,006	-0,128
-606,415	11,685	-0,032	-0,018
-605,401	1,891	-0,072	-0,038
-604,386	-77,138	0,171	-0,044
-603,371	-200,000	-0,020	0,135
-602,357	-48,962	0,070	0,025
-601,342	800,000	-0,032	-0,082
-600,328	-121,319	-0,120	0,015
-599,313	504,367	0,089	0,152
-598,298	-188,324	-0,064	0,001
-597,284	-200,000	-0,001	0,035
-596,269	-200,000	-0,007	-0,030
-595,255	162,773	0,092	0,096
-594,240	-200,000	-0,021	-0,078
-593,225	-40,039	-0,083	-0,032
-592,211	296,484	-0,076	-0,103
-591,196	-200,000	-0,010	-0,120
-590,182	800,000	-0,023	0,061
-589,167	-40,815	-0,066	0,025
-588,152	10,786	0,085	0,048
-587,138	61,533	-0,142	-0,104
-586,123	-200,000	-0,018	-0,063
-585,109	287,041	-0,054	0,072
-584,094	-44,164	0,188	0,069
-583,079	8,566	-0,060	-0,033
-582,065	-69,331	0,048	0,013
-581,050	-200,000	-0,018	-0,083
-580,036	-200,000	-0,002	0,167
-579,021	88,512	-0,059	0,048
-578,006	-72,610	0,052	0,014
-576,992	147,324	-0,114	0,113
-575,977	657,607	0,048	-0,092
-574,963	526,417	0,057	0,099
-573,948	-1,437	-0,125	0,065
-572,934	587,570	-0,102	-0,185
-571,919	800,000	-0,063	-0,151
-570,904	-105,615	-0,159	-0,026
-569,890	-16,694	-0,007	0,003
-568,875	129,494	0,050	0,048
-567,861	800,000	0,011	0,023
-566,846	-200,000	-0,001	-0,012
-565,831	-200,000	-0,016	-0,078
-564,817	467,180	-0,033	-0,055
-563,802	-137,995	0,120	0,010
-562,788	-200,000	-0,004	-0,084
-561,773	121,666	-0,024	0,022
-560,758	162,911	0,064	-0,066
-559,744	-200,000	0,009	0,041
-558,729	800,000	-0,064	-0,151
-557,715	9,371	-0,070	0,039
-556,700	148,519	-0,029	0,029
-555,685	111,128	-0,142	-0,126
-554,671	39,028	0,204	-0,134
-553,656	-200,000	-0,009	-0,043
-552,642	700,615	0,022	-0,043
-551,627	42,054	0,038	0,025
-550,612	-133,666	-0,112	-0,010
-549,598	706,477	-0,015	0,030
-548,583	-93,066	-0,130	-0,027
-547,569	-200,000	0,003	0,030
-546,554	333,088	-0,028	0,040
-545,539	-115,274	0,105	0,015
-544,525	141,313	0,043	0,042
-543,510	800,000	-0,025	0,067
-542,496	205,786	0,022	-0,026
-541,481	-3,634	-0,088	0,045
-540,466	106,926	0,075	-0,065
-539,452	-166,385	0,155	-0,005
-538,437	111,723	0,095	-0,085
-537,423	214,127	-0,061	0,071
-536,408	35,050	-0,084	0,054
-535,393	-142,547	-0,139	0,010
-534,379	-200,000	0,012	-0,062
-533,364	343,081	-0,032	0,046
-532,350	800,000	0,071	-0,148
-531,335	-200,000	-0,003	0,056
-530,321	254,389	-0,065	-0,082
-529,306	800,000	-0,041	-0,108
-528,291	105,367	-0,094	-0,081
-527,277	-61,429	0,092	-0,028
-526,262	-200,000	-0,003	0,102
-525,248	-126,217	0,103	0,011
-524,233	373,708	-0,041	-0,061
-523,218	394,298	-0,088	0,135
-522,204	-200,000	-0,030	-0,137
-521,189	800,000	0,020	0,059
-520,175	96,495	-0,087	-0,073
-519,160	-65,274	-0,012	-0,003
-518,145	-200,000	0,003	0,022
-517,131	-200,000	-0,032	0,138
-516,116	800,000	-0,010	0,020
-515,102	-200,000	0,010	0,059
-514,087	-200,000	-0,010	-0,055
-513,072	-118,273	0,094	0,012
-512,058	-63,729	0,089	-0,027
-511,043	57,633	0,082	-0,059
-510,029	141,776	0,093	0,091
-509,014	800,000	-0,033	0,072
-507,999	149,459	-0,038	0,038
-506,985	800,000	-0,013	0,041
-505,970	800,000	0,049	-0,137
-504,956	-200,000	0,022	-0,125
-503,941	84,047	0,075	0,060
-502,926	-200,000	0,008	-0,141
-501,912	12,047	0,061	0,034
-500,897	800,000	0,020	-0,060
-499,883	-200,000	0,001	0,127
-498,868	-93,294	0,036	0,007
-497,853	-19,978	0,140	0,063
-496,839	-122,017	-0,030	-0,004
-495,824	380,313	0,085	-0,128
-494,810	-200,000	-0,005	-0,154
-493,795	-15,369	0,036	0,017
-492,781	-200,000	0,012	0,058
-491,766	-25,712	-0,021	-0,009
-490,751	-119,239	0,055	0,007
-489,737	-200,000	-0,006	0,068
-488,722	119,011	-0,054	0,049
-487,708	-200,000	0,013	-0,086
-486,693	-15,542	0,169	0,079
-485,678	800,000	-0,041	-0,100
-484,664	473,660	0,069	-0,115
-483,649	800,000	-0,002	-0,005
-482,635	82,189	-0,060	-0,048
-481,620	462,680	-0,021	0,034
-480,605	116,984	0,084	0,076
-479,591	800,000	-0,048	0,137
-478,576	800,000	0,039	0,088
-477,562	98,775	-0,142	0,121
-476,547	-200,000	0,014	-0,092
-475,532	-145,872	0,189	0,012
-474,518	-37,496	-0,091	0,036
-473,503	-200,000	-0,020	0,072
-472,489	-200,000	-0,035	-0,168
-471,474	204,595	0,051	0,059
-470,459	288,396	0,090	-0,120
-469,445	800,000	-0,024	-0,076
-468,430	-200,000	-0,003	-0,081
-467,416	-127,966	-0,057	0,006
-466,401	96,399	0,157	-0,132
-465,386	-59,852	0,104	-0,032
-464,372	-200,000	-0,000	0,016
-463,357	-115,774	-0,115	0,016
-462,343	45,352	-0,161	-0,109
-461,328	-190,784	0,066	-0,000
-460,313	16,683	0,026	0,015
-459,299	-64,754	0,220	0,065
-458,284	276,666	-0,021	-0,028
-457,270	-74,586	0,059	-0,016
-456,255	12,673	-0,040	0,022
-455,241	104,155	-0,071	0,061
-454,226	-200,000	0,001	-0,089
-453,211	56,414	0,090	0,064
-452,197	-200,000	-0,001	0,181
-451,182	-132,662	0,161	0,015
-450,168	-65,593	0,048	-0,014
-449,153	31,743	0,047	-0,030
-448,138	-200,000	0,003	-0,131
-447,124	-192,932	-0,073	0,000
-446,109	391,465	0,055	-0,085
-445,095	-200,000	-0,001	0,056
-444,080	261,002	0,070	0,090
-443,065	-200,000	0,022	-0,084
-442,051	95,456	0,057	0,047
-441,036	96,674	-0,002	-0,002
-440,022	-200,000	-0,021	-0,123
-439,007	13,939	-0,047	0,027
-437,992	-200,000	0,011	0,073
-436,978	-78,640	0,150	0,037
-435,963	-127,121	-0,105	0,011
-434,949	-32,284	-0,056	-0,023
-433,934	-43,794	0,136	-0,050
-432,919	-164,057	-0,044	-0,001
-431,905	-29,118	-0,076	-0,032
-430,890	134,164	0,070	0,067
-429,876	200,579	-0,106	0,120
-428,861	-200,000	0,007	-0,138
-427,846	-152,320	0,063	0,003
-426,832	554,828	-0,038	-0,068
-425,817	-69,097	-0,093	-0,026
-424,803	117,817	-0,112	0,101
-423,788	144,646	0,008	0,007
-422,773	-85,853	0,076	0,017
-421,759	-200,000	-0,006	0,050
-420,744	800,000	-0,036	0,097
-419,730	-68,727	-0,032	0,009
-418,715	-200,000	-0,012	0,130
-417,701	188,165	-0,123	-0,135
-416,686	65,255	0,079	0,058
-415,671	-200,000	-0,010	-0,045
-414,657	-40,688	0,075	-0,028
-413,642	800,000	0,008	0,023
-412,628	-110,070	-0,079	-0,012
-411,613	-200,000	0,016	0,061
-410,598	-200,000	0,023	0,085
-409,584	-127,696	0,129	0,014
-408,569	16,479	0,085	0,049
-407,555	-60,998	-0,029	0,009
-406,540	292,667	0,035	0,047
-405,525	-200,000	-0,035	0,141
-404,511	-200,000	-0,034	-0,121
-403,496	800,000	0,043	-0,114
-402,482	-200,000	0,039	-0,169
-401,467	-49,404	0,066	0,023
-400,452	38,504	-0,072	-0,047
-399,438	-69,535	0,108	0,030
-398,423	352,493	0,005	0,007
-397,409	-91,668	-0,041	-0,008
-396,394	800,000	0,007	-0,015
-395,379	800,000	-0,021	0,044
-394,365	361,749	-0,081	-0,119
-393,350	187,652	-0,097	0,107
-392,336	-200,000	0,034	0,152
-391,321	-200,000	-0,018	-0,064
-390,306	-200,000	0,009	-0,068
-389,292	-50,527	-0,054	-0,019
-388,277	164,005	0,111	-0,114
-387,263	170,734	0,015	-0,015
-386,248	-99,445	-0,071	0,013
-385,233	-200,000	-0,026	0,087
-384,219	-6,929	0,029	0,015
-383,204	187,779	-0,064	-0,070
-382,190	800,000	0,009	0,025
-381,175	1,133	-0,039	0,020
-380,160	-36,615	0,065	0,025
-379,146	-200,000	-0,002	0,153
-378,131	800,000	-0,017	0,039
-377,117	440,869	0,044	-0,070
-376,102	-175,699	-0,181	0,003
-375,088	751,047	0,047	-0,093
-374,073	-200,000	-0,000	0,049
-373,058	-200,000	0,001	-0,068
-372,044	412,579	0,033	0,051
-371,029	800,000	-0,024	-0,070
-370,015	190,974	-0,087	-0,096
-369,000	298,144	0,033	-0,045
-367,985	800,000	-0,051	-0,159
-366,971	-69,725	0,067	-0,019
-365,956	12,183	0,011	0,006
-364,942	800,000	0,022	0,067
-363,927	59,213	0,066	-0,047
-362,912	800,000	0,019	-0,057
-361,898	-121,797	-0,110	0,013
-360,883	-32,551	-0,114	-0,046
-359,869	-74,605	-0,043	-0,011
-358,854	22,852	-0,056	-0,034
-357,839	-200,000	0,021	0,085
-356,825	800,000	0,028	0,085
-355,810	391,157	-0,034	0,052
-354,796	81,985	0,065	-0,052
-353,781	800,000	0,020	-0,063
-352,766	41,423	0,098	0,064
-351,752	134,704	0,120	0,114
-350,737	800,000	-0,012	0,028
-349,723	-64,956	0,089	-0,026
-348,708	-105,617	0,050	-0,008
-347,693	-16,000	-0,076	0,035
-346,679	162,934	-0,070	-0,072
-345,664	186,911	-0,095	0,103
-344,650	-200,000	-0,005	0,062
-343,635	-200,000	0,002	-0,043
-342,620	800,000	0,005	0,015
-341,606	-200,000	-0,006	0,073
-340,591	-200,000	0,002	0,038
-339,577	26,889	-0,052	0,032
-338,562	800,000	-0,010	0,026
-337,548	-109,546	-0,065	0,010
-336,533	133,669	0,087	-0,083
-335,518	88,271	-0,065	0,052
-334,504	362,186	0,040	-0,059
-333,489	-122,087	0,040	0,005
-332,475	-200,000	-0,001	0,005
-331,460	800,000	0,019	0,057
-330,445	-37,230	-0,099	0,038
-329,431	116,015	0,056	0,050
-328,416	141,428	0,093	0,090
-327,402	-200,000	-0,015	0,197
-326,387	88,715	-0,039	0,032
-325,372	-200,000	-0,041	0,000
-324,358	800,000	0,049	-0,113
-323,343	30,741	-0,069	-0,043
-322,329	800,000	-0,033	-0,081
-321,314	-200,000	0,015	0,141
-320,299	-200,000	-0,004	0,092
-319,285	101,305	0,055	0,047
-318,270	551,564	-0,063	0,111
-317,256	138,615	0,080	0,076
-316,241	-200,000	0,001	-0,037
-315,226	800,000	-0,060	-0,186
-314,212	-94,318	-0,054	-0,011
-313,197	-200,000	0,017	-0,070
-312,183	39,552	-0,004	0,003
-311,168	279,572	0,020	-0,027
-310,153	35,554	-0,195	-0,125
-309,139	-46,036	-0,172	-0,062
-308,124	432,179	-0,021	-0,034
-307,110	800,000	0,036	0,081
-306,095	-200,000	-0,036	0,130
-305,080	-200,000	0,027	-0,087
-304,066	800,000	0,025	0,059
-303,051	-144,748	-0,097	-0,006
-302,037	86,494	0,050	-0,040
-301,022	-73,159	0,094	0,025
-300,008	127,202	-0,103	0,096
-298,993	-98,037	0,151	0,028
-297,978	-57,009	0,156	-0,050
-296,964	800,000	-0,073	-0,165
-295,949	-116,677	-0,097	-0,013
-294,935	349,142	0,060	-0,086
-293,920	16,570	-0,113	0,065
-292,905	-99,876	0,102	0,019
-291,891	410,638	0,061	-0,094
-290,876	502,561	-0,048	-0,081
-289,862	-200,000	0,030	0,164
-288,847	800,000	0,012	0,038
-287,832	224,123	-0,034	-0,040
-286,818	3,229	0,053	0,028
-285,803	800,000	-0,023	-0,050
-284,789	145,871	0,028	0,028
-283,774	800,000	0,028	-0,066
-282,759	-200,000	0,001	0,038
-281,745	-200,000	-0,007	-0,035
-280,730	151,500	-0,051	-0,050
-279,716	-78,455	-0,068	0,017
-278,701	32,421	0,063	-0,040
-277,686	-111,185	0,140	-0,021
-276,672	-200,000	0,036	-0,123
-275,657	-200,000	0,005	-0,139
-274,643	-76,539	-0,064	-0,016
-273,628	78,918	-0,073	-0,057
-272,613	-135,410	-0,175	0,015
-271,599	34,071	0,065	-0,041
-270,584	-200,000	-0,012	0,090
-269,570	-200,000	0,023	-0,180
-268,555	800,000	0,028	0,057
-267,540	246,571	0,031	0,038
-266,526	67,360	0,041	0,031
-265,511	-116,362	-0,155	-0,021
-264,497	203,465	0,015	-0,017
-263,482	-200,000	-0,031	0,131
-262,467	65,497	0,075	-0,055
-261,453	-65,060	-0,135	-0,039
-260,438	800,000	0,020	-0,058
-259,424	257,350	0,025	0,032
-258,409	94,274	-0,052	-0,043
-257,395	800,000	0,037	-0,076
-256,380	-3,060	0,056	-0,029
-255,365	1,282	0,142	0,074
-254,351	-144,757	0,065	-0,004
-253,336	-200,000	0,004	0,025
-252,322	-150,932	-0,087	-0,005
-251,307	8,877	0,020	-0,011
-250,292	91,425	-0,059	0,048
-249,278	-200,000	-0,007	0,032
-248,263	-137,537	0,134	-0,011
-247,249	582,424	0,051	-0,091
-246,234	469,414	0,067	-0,111
-245,219	-4,611	0,019	-0,010
-244,205	-200,000	-0,010	-0,182
-243,190	409,522	-0,105	-0,162
-242,176	39,265	-0,099	0,065
-241,161	800,000	0,035	0,082
-240,146	800,000	0,018	0,050
-239,132	21,029	-0,027	0,016
-238,117	31,028	-0,128	-0,080
-237,103	226,767	0,012	0,014
-236,088	154,565	-0,040	-0,040
-235,073	-106,950	0,156	0,025
-234,059	-173,537	0,178	0,004
-233,044	381,369	0,042	-0,063
-232,030	-99,342	0,010	-0,002
-231,015	-27,470	-0,113	0,048
-230,000	800,000	-0,026	0,054
-228,986	-131,500	-0,054	-0,005
-227,971	-67,185	0,134	0,038
-226,957	-99,855	-0,121	0,022
-225,942	-41,545	-0,135	0,050
-224,927	255,647	0,081	-0,102
-223,913	-62,414	0,061	0,018
-222,898	3,166	0,008	0,004
-221,884	800,000	-0,027	-0,056
-220,869	800,000	-0,056	-0,129
-219,855	-200,000	0,015	0,097
-218,840	-200,000	0,014	0,133
-217,825	-200,000	-0,003	0,068
-216,811	245,626	-0,044	0,054
-215,796	170,867	0,053	-0,055
-214,782	723,209	0,019	0,036
-213,767	-200,000	-0,014	-0,111
-212,752	-95,331	0,035	0,007
-211,738	-115,223	-0,041	0,006
-210,723	-200,000	0,006	0,153
-209,709	-159,654	-0,032	-0,001
-208,694	-147,570	-0,097	0,006
-207,679	41,497	-0,081	-0,053
-206,665	-200,000	0,014	0,055
-205,650	119,993	0,184	0,166
-204,636	122,752	0,022	0,020
-203,621	307,806	0,083	0,113
-202,606	357,269	0,012	0,018
-201,592	211,585	0,086	-0,099
-200,577	-92,802	-0,187	-0,038
-199,563	91,759	0,058	-0,047
-198,548	30,519	0,133	-0,082
-197,533	-200,000	-0,014	0,135
-196,519	-29,741	0,124	0,051
-195,504	-200,000	-0,051	0,167
-194,490	18,399	0,090	-0,052
-193,475	68,082	-0,055	-0,041
-192,460	278,994	-0,038	0,050
-191,446	-172,288	0,116	0,003
-190,431	-44,860	0,108	0,039
-189,417	17,969	-0,021	0,012
-188,402	800,000	0,042	0,098
-187,387	-51,199	0,027	-0,009
-186,373	269,502	-0,041	-0,053
-185,358	473,740	0,077	-0,127
-184,344	800,000	-0,006	0,020
-183,329	800,000	-0,043	0,095
-182,315	350,668	0,058	0,084
-181,300	-200,000	-0,003	-0,079
-180,285	585,644	0,027	0,048
-179,271	800,000	0,010	-0,024
-178,256	800,000	-0,025	0,060
-177,242	800,000	0,045	0,108
-176,227	-200,000	-0,028	0,124
-175,212	28,843	-0,048	0,030
-174,198	-200,000	0,016	0,116
-173,183	-126,589	-0,094	-0,010
-172,169	800,000	0,036	-0,075
-171,154	483,791	-0,027	0,045
-170,139	-18,773	0,063	-0,028
-169,125	800,000	0,017	-0,036
-168,110	-200,000	0,009	-0,081
-167,096	93,332	0,086	0,071
-166,081	-200,000	-0,015	0,083
-165,066	16,962	0,024	-0,014
-164,052	-33,261	0,089	0,036
-163,037	-200,000	0,011	0,087
-162,023	-158,998	-0,060	0,002
-161,008	54,475	0,032	0,022
-159,993	440,043	-0,040	0,064
-158,979	-200,000	0,006	-0,116
-157,964	99,850	-0,106	-0,090
-156,950	800,000	-0,024	-0,062
-155,935	529,422	-0,040	-0,068
-154,920	-69,939	0,039	0,011
-153,906	-137,472	0,079	0,006
-152,891	312,410	0,021	-0,028
-151,877	278,074	-0,071	-0,092
-150,862	348,084	-0,025	0,036
-149,847	81,339	0,039	-0,031
-148,833	-54,542	0,087	-0,029
-147,818	800,000	-0,019	0,046
-146,804	99,695	0,036	0,030
-145,789	443,858	-0,024	0,039
-144,775	459,680	-0,026	0,043
-143,760	800,000	0,014	-0,043
-142,745	-200,000	0,001	-0,031
-141,731	-200,000	-0,017	0,060
-140,716	-117,523	0,047	0,006
-139,702	269,523	0,060	-0,077
-138,687	-169,553	0,107	-0,003
-137,672	-7,004	-0,052	0,025
-136,658	800,000	0,041	-0,114
-135,643	106,609	0,119	-0,102
-134,629	75,097	0,048	-0,036
-133,614	-172,392	0,122	-0,003
-132,599	93,276	-0,029	-0,024
-131,585	-40,713	0,086	0,032
-130,570	800,000	-0,040	0,084
-129,556	4,672	-0,070	0,037
-128,541	579,492	-0,043	-0,076
-127,526	-180,349	0,078	-0,001
-126,512	300,984	-0,114	0,154
-125,497	114,123	0,032	0,029
-124,483	-102,054	-0,032	-0,006
-123,468	-200,000	0,010	0,089
-122,453	-54,920	-0,164	-0,053
-121,439	246,783	0,053	-0,065
-120,424	360,124	-0,049	-0,072
-119,410	646,395	0,016	0,029
-118,395	103,723	-0,077	0,065
