DTS Sentinel unit serial number:	SN410029Multiplexer serial number:	ORYXHardware model number:	OX2-SRSoftware version number:	ORYX F/W v4,00 Oryx Data Collector v3.7.2.0data status	okinstallation	B6 Nyhavnadifferential loss correction	single-endedforward channel	channel 2reverse channel	N/Adate	2023/12/08time	16:45:08forward acquisition time	300,00reverse acquisition time	0,00gamma	499,1914k internal	0,3159k external	0,3159temperature offset calibration	1,0000default loss term (dB/km)	0,3820temperature slope calibration	1,0000multiplexer offset coefficient	1,0000multiplexer slope coefficient	1,0000fibre end	0,00T internal ref (°C)	15,12T ext. ref 1 (°C)	-1,40T ext. ref 2 (°C)	-1,40length (m)	temperature (°C)	Stokes	anti-Stokes-744,400	-81,770	0,077	-0,018
-743,385	-116,862	-0,284	-0,038
-742,371	800,000	0,037	0,105
-741,356	-141,280	-0,353	0,026
-740,342	90,313	0,132	0,109
-739,327	-91,027	-0,178	0,037
-738,312	49,295	0,139	-0,096
-737,298	-78,185	-0,360	-0,091
-736,283	-98,162	0,224	-0,042
-735,269	-68,428	-0,355	-0,101
-734,254	89,985	0,154	0,127
-733,239	-69,356	-0,581	-0,163
-732,225	-116,476	0,230	-0,031
-731,210	-200,000	0,047	0,194
-730,196	-200,000	0,026	-0,174
-729,181	108,428	-0,024	-0,021
-728,167	-161,582	-0,066	-0,002
-727,152	277,308	0,120	-0,157
-726,137	613,165	-0,077	-0,143
-725,123	43,742	0,133	0,090
-724,108	800,000	-0,062	-0,146
-723,094	291,126	-0,076	0,102
-722,079	-200,000	0,011	-0,080
-721,064	-200,000	-0,001	-0,054
-720,050	-200,000	0,037	-0,148
-719,035	684,089	0,035	-0,068
-718,021	800,000	0,041	-0,097
-717,006	640,563	-0,045	-0,084
-715,991	800,000	-0,070	-0,152
-714,977	14,510	0,129	-0,074
-713,962	505,843	0,051	0,088
-712,948	66,903	0,119	0,089
-711,933	-76,018	-0,139	-0,036
-710,918	141,564	0,050	0,049
-709,904	144,675	-0,056	-0,055
-708,889	-200,000	-0,005	0,163
-707,875	350,400	-0,113	-0,165
-706,860	-59,674	0,134	-0,042
-705,845	-91,198	-0,037	0,008
-704,831	241,492	-0,033	-0,040
-703,816	19,657	-0,038	-0,022
-702,802	-96,471	0,080	0,015
-701,787	50,058	-0,186	-0,129
-700,772	-30,611	0,197	-0,082
-699,758	26,845	-0,115	-0,070
-698,743	800,000	0,014	0,034
-697,729	-104,359	0,103	-0,017
-696,714	171,550	0,062	-0,066
-695,699	315,080	-0,083	-0,116
-694,685	-82,768	-0,132	-0,031
-693,670	221,394	0,056	-0,066
-692,656	-66,309	-0,033	0,010
-691,641	800,000	-0,025	-0,050
-690,627	60,604	0,041	0,030
-689,612	31,560	0,081	0,051
-688,597	223,475	-0,107	-0,128
-687,583	800,000	0,003	0,007
-686,568	280,640	0,046	0,061
-685,554	12,133	0,086	-0,048
-684,539	162,237	0,101	0,104
-683,524	-200,000	-0,011	-0,141
-682,510	-22,704	-0,043	-0,019
-681,495	-62,587	-0,087	-0,026
-680,481	74,694	0,025	-0,020
-679,466	800,000	0,032	-0,095
-678,451	232,294	-0,117	-0,141
-677,437	-200,000	0,018	-0,058
-676,422	-200,000	0,016	0,062
-675,408	-24,420	-0,098	0,043
-674,393	800,000	-0,031	-0,080
-673,378	10,185	-0,046	-0,025
-672,364	12,491	-0,055	-0,031
-671,349	736,438	-0,047	-0,093
-670,335	-200,000	-0,013	-0,100
-669,320	350,062	0,076	-0,110
-668,305	413,006	0,038	0,059
-667,291	-200,000	-0,032	-0,105
-666,276	740,387	-0,048	-0,094
-665,262	-46,919	-0,017	0,006
-664,247	-127,998	0,064	0,007
-663,232	16,611	-0,036	-0,021
-662,218	800,000	0,032	0,105
-661,203	-200,000	-0,008	0,076
-660,189	-33,375	-0,025	-0,010
-659,174	464,964	0,055	-0,090
-658,159	-200,000	-0,017	-0,123
-657,145	22,986	0,045	-0,027
-656,130	104,589	-0,057	0,049
-655,116	800,000	-0,035	-0,104
-654,101	66,914	0,081	-0,061
-653,086	-46,724	0,129	-0,046
-652,072	-200,000	0,007	-0,047
-651,057	-117,690	-0,101	-0,013
-650,043	-132,073	0,082	0,008
-649,028	195,978	-0,040	-0,045
-648,014	50,354	-0,073	0,051
-646,999	800,000	0,038	0,096
-645,984	-200,000	-0,030	-0,123
-644,970	-29,419	-0,027	0,011
-643,955	-200,000	0,008	-0,052
-642,941	407,437	0,053	-0,083
-641,926	87,874	0,054	-0,044
-640,911	-99,797	-0,036	0,007
-639,897	-154,619	0,215	-0,010
-638,882	-23,931	-0,097	0,042
-637,868	-200,000	0,001	-0,085
-636,853	-200,000	0,003	-0,017
-635,838	-200,000	0,004	-0,084
-634,824	-79,101	-0,048	0,012
-633,809	-74,706	-0,074	-0,019
-632,795	601,412	-0,080	-0,146
-631,780	-200,000	0,016	-0,117
-630,765	-15,488	-0,085	0,040
-629,751	216,469	-0,117	0,136
-628,736	-25,836	-0,143	-0,062
-627,722	15,939	0,048	-0,028
-626,707	-7,865	0,103	0,051
-625,692	-53,582	0,078	-0,026
-624,678	117,414	-0,109	-0,098
-623,663	83,794	-0,059	0,047
-622,649	-200,000	-0,007	-0,156
-621,634	543,530	0,029	-0,052
-620,619	178,146	0,028	0,030
-619,605	-161,707	0,124	0,005
-618,590	59,644	-0,072	0,052
-617,576	58,748	-0,186	0,134
-616,561	216,491	-0,019	0,022
-615,546	673,012	0,036	-0,069
-614,532	-8,902	-0,112	-0,055
-613,517	-200,000	0,034	0,154
-612,503	332,254	-0,011	0,016
-611,488	-200,000	0,011	-0,050
-610,474	-74,182	-0,064	-0,017
-609,459	66,356	0,078	0,058
-608,444	34,107	0,093	0,059
-607,430	-200,000	-0,012	-0,083
-606,415	-200,000	-0,014	-0,077
-605,401	-26,809	-0,129	0,055
-604,386	74,929	-0,092	0,071
-603,371	-200,000	-0,008	0,030
-602,357	163,166	0,058	-0,060
-601,342	800,000	0,013	-0,029
-600,328	262,058	-0,015	0,019
-599,313	-200,000	0,004	-0,186
-598,298	-200,000	0,001	0,029
-597,284	-34,545	0,070	-0,028
-596,269	216,500	0,041	-0,048
-595,255	800,000	0,012	0,028
-594,240	-200,000	-0,025	-0,082
-593,225	159,304	-0,055	0,056
-592,211	-200,000	-0,001	-0,041
-591,196	800,000	0,032	-0,066
-590,182	-105,418	0,042	-0,007
-589,167	165,269	0,089	0,092
-588,152	-200,000	0,018	0,080
-587,138	38,941	-0,033	-0,022
-586,123	-200,000	0,017	0,125
-585,109	-81,636	0,089	0,021
-584,094	-138,164	-0,048	0,004
-583,079	-200,000	0,006	0,032
-582,065	-200,000	-0,031	0,181
-581,050	-200,000	0,006	-0,030
-580,036	-200,000	-0,007	-0,052
-579,021	-47,722	0,104	-0,037
-578,006	-200,000	-0,021	0,083
-576,992	246,301	0,047	-0,058
-575,977	-200,000	-0,021	-0,085
-574,963	-78,813	0,012	-0,003
-573,948	800,000	0,002	0,004
-572,934	-200,000	0,006	0,022
-571,919	-200,000	-0,011	-0,058
-570,904	80,819	0,048	-0,038
-569,890	-200,000	-0,033	-0,124
-568,875	144,814	0,155	-0,151
-567,861	461,014	0,121	0,198
-566,846	627,510	-0,045	0,083
-565,831	179,902	0,094	0,101
-564,817	107,474	0,059	0,051
-563,802	-200,000	0,015	-0,123
-562,788	-55,147	-0,072	-0,024
-561,773	-143,128	0,074	-0,005
-560,758	11,746	-0,071	0,040
-559,744	-194,074	0,031	-0,000
-558,729	-42,727	0,050	-0,019
-557,715	9,651	-0,093	-0,052
-556,700	60,125	0,090	-0,065
-555,685	800,000	0,026	0,084
-554,671	-139,752	-0,073	-0,006
-553,656	-23,655	-0,087	0,038
-552,642	-42,901	0,106	0,039
-551,627	-200,000	-0,017	0,153
-550,612	800,000	0,012	0,036
-549,598	-200,000	0,020	-0,086
-548,583	800,000	-0,004	0,010
-547,569	-193,356	-0,099	-0,001
-546,554	800,000	0,039	-0,098
-545,539	92,132	-0,006	0,005
-544,525	-132,110	-0,095	-0,009
-543,510	20,182	0,040	0,023
-542,496	800,000	-0,036	0,093
-541,481	-25,690	-0,097	0,042
-540,466	-200,000	0,024	0,104
-539,452	800,000	-0,061	0,173
-538,437	39,633	-0,019	0,012
-537,423	221,954	-0,092	-0,109
-536,408	81,029	-0,113	0,089
-535,393	-171,002	-0,065	-0,002
-534,379	800,000	0,027	-0,078
-533,364	105,155	0,118	0,102
-532,350	-200,000	0,125	0,000
-531,335	90,937	0,105	-0,086
-530,321	-200,000	-0,017	0,133
-529,306	306,469	0,099	-0,135
-528,291	-66,252	-0,017	0,005
-527,277	-200,000	0,024	0,100
-526,262	272,740	0,067	-0,087
-525,248	-200,000	0,010	0,034
-524,233	800,000	0,033	0,078
-523,218	257,209	0,061	0,077
-522,204	-15,947	-0,043	0,020
-521,189	800,000	-0,049	0,139
-520,175	125,259	0,024	-0,022
-519,160	-142,343	-0,188	0,013
-518,145	800,000	0,061	-0,130
-517,131	-73,390	-0,074	0,020
-516,116	213,899	0,134	0,155
-515,102	-90,695	-0,137	0,029
-514,087	800,000	0,014	-0,032
-513,072	10,211	0,024	-0,013
-512,058	162,680	0,061	0,062
-511,043	800,000	0,044	-0,139
-510,029	203,399	-0,060	0,068
-509,014	790,912	-0,016	0,032
-507,999	-200,000	0,010	-0,040
-506,985	41,413	0,066	-0,044
-505,970	386,358	-0,091	0,138
-504,956	800,000	-0,023	0,070
-503,941	800,000	0,029	0,074
-502,926	-92,956	0,059	-0,012
-501,912	339,629	-0,053	-0,076
-500,897	150,683	-0,053	0,052
-499,883	208,353	0,053	-0,060
-498,868	-66,988	0,018	-0,005
-497,853	-200,000	-0,009	0,066
-496,839	283,565	0,043	0,057
-495,824	90,246	-0,101	0,083
-494,810	457,856	0,047	-0,076
-493,795	9,186	0,084	0,046
-492,781	370,377	0,015	0,023
-491,766	-169,961	-0,189	-0,005
-490,751	-105,773	0,117	0,019
-489,737	-200,000	-0,010	0,067
-488,722	-200,000	-0,009	0,149
-487,708	-31,957	0,081	-0,033
-486,693	404,174	0,008	0,013
-485,678	733,232	-0,017	0,034
-484,664	-200,000	0,004	0,096
-483,649	800,000	-0,055	-0,143
-482,635	-78,910	0,123	0,030
-481,620	800,000	-0,027	0,077
-480,605	-200,000	-0,002	-0,020
-479,591	-11,082	-0,028	0,013
-478,576	-45,689	0,052	-0,019
-477,562	-200,000	0,008	-0,160
-476,547	800,000	-0,030	0,094
-475,532	-156,976	-0,132	-0,006
-474,518	-200,000	-0,015	-0,051
-473,503	379,324	0,085	0,128
-472,489	-200,000	-0,005	-0,029
-471,474	-7,071	0,107	-0,053
-470,459	46,135	-0,063	0,042
-469,445	800,000	0,043	-0,104
-468,430	78,521	-0,060	-0,046
-467,416	168,899	0,097	0,101
-466,401	91,491	0,168	0,138
-465,386	-86,903	0,143	0,032
-464,372	328,126	-0,042	0,059
-463,357	452,459	-0,054	-0,087
-462,343	-54,515	-0,111	0,036
-461,328	800,000	-0,030	-0,080
-460,313	-108,757	-0,018	0,003
-459,299	-200,000	0,000	0,066
-458,284	-25,549	0,047	0,020
-457,270	43,928	-0,104	-0,069
-456,255	-51,967	0,124	-0,042
-455,241	-18,015	-0,069	-0,031
-454,226	-200,000	0,011	-0,062
-453,211	-145,746	-0,087	0,006
-452,197	2,891	0,103	-0,054
-451,182	-155,393	0,115	0,005
-450,168	-200,000	0,008	0,055
-449,153	800,000	0,036	0,078
-448,138	-152,898	-0,114	-0,006
-447,124	-65,753	-0,048	0,014
-446,109	175,010	-0,026	0,027
-445,095	-129,687	-0,077	-0,008
-444,080	259,917	-0,067	0,084
-443,065	291,606	0,040	-0,054
-442,051	-200,000	-0,013	0,065
-441,036	266,202	-0,049	-0,063
-440,022	-38,683	0,038	-0,015
-439,007	186,651	0,029	-0,031
-437,992	-58,990	0,070	0,022
-436,978	112,827	0,036	-0,032
-435,963	-200,000	-0,004	-0,032
-434,949	27,658	-0,052	-0,032
-433,934	800,000	0,039	-0,098
-432,919	-109,659	-0,014	0,002
-431,905	708,265	0,048	0,093
-430,890	-200,000	-0,013	0,047
-429,876	-200,000	-0,020	-0,070
-428,861	-84,852	0,039	0,009
-427,846	399,557	-0,047	-0,073
-426,832	800,000	0,041	0,099
-425,817	612,788	-0,079	-0,144
-424,803	800,000	0,041	-0,112
-423,788	119,318	0,056	-0,050
-422,773	-200,000	0,021	-0,069
-421,759	257,976	0,086	-0,108
-420,744	-200,000	-0,007	-0,104
-419,730	32,788	-0,042	-0,027
-418,715	-200,000	0,041	-0,158
-417,701	800,000	-0,055	-0,122
-416,686	216,516	0,069	0,080
-415,671	-99,343	-0,062	-0,011
-414,657	793,195	0,066	-0,133
-413,642	-200,000	-0,007	0,026
-412,628	-10,521	0,044	0,021
-411,613	-200,000	0,033	-0,194
-410,598	-200,000	0,006	-0,044
-409,584	800,000	0,024	-0,057
-408,569	336,677	0,091	0,129
-407,555	318,423	-0,034	0,047
-406,540	102,251	0,122	0,103
-405,525	43,736	0,073	0,049
-404,511	-101,611	0,125	-0,022
-403,496	-200,000	-0,007	-0,071
-402,482	-200,000	0,022	-0,101
-401,467	42,909	-0,057	0,038
-400,452	98,050	-0,063	0,053
-399,438	-200,000	0,000	-0,022
-398,423	-49,605	0,024	0,008
-397,409	591,119	-0,027	-0,049
-396,394	-200,000	-0,011	0,065
-395,379	201,960	0,058	-0,065
-394,365	-39,717	-0,099	0,038
-393,350	23,085	0,003	0,002
-392,336	-3,066	0,054	-0,028
-391,321	-200,000	0,001	-0,032
-390,306	-32,761	-0,113	0,045
-389,292	672,831	-0,082	0,154
-388,277	-200,000	-0,006	0,149
-387,263	-200,000	0,013	0,082
-386,248	-126,369	0,181	0,019
-385,233	-200,000	-0,042	0,154
-384,219	210,356	0,035	0,040
-383,204	416,942	0,043	0,067
-382,190	32,859	-0,064	0,040
-381,175	-72,514	0,107	-0,029
-380,160	-16,945	0,091	0,042
-379,146	415,310	0,015	0,024
-378,131	617,504	-0,010	-0,018
-377,117	133,397	-0,024	-0,022
-376,102	-117,867	0,175	-0,023
-375,088	-200,000	-0,009	-0,083
-374,073	39,837	-0,146	-0,095
-373,058	122,844	0,043	0,039
-372,044	-200,000	-0,007	0,064
-371,029	16,903	0,019	0,011
-370,015	77,017	-0,025	0,020
-369,000	329,933	-0,059	-0,083
-367,985	44,412	-0,099	-0,066
-366,971	-200,000	0,020	0,100
-365,956	86,092	-0,134	-0,107
-364,942	800,000	0,073	0,150
-363,927	-200,000	0,010	0,169
-362,912	553,028	-0,070	-0,122
-361,898	-200,000	-0,008	0,117
-360,883	-200,000	-0,050	0,179
-359,869	72,597	-0,051	0,039
-358,854	56,760	-0,082	0,058
-357,839	15,613	0,089	0,051
-356,825	-200,000	0,028	0,207
-355,810	800,000	-0,018	-0,047
-354,796	148,151	0,018	-0,018
-353,781	-16,908	0,032	0,014
-352,766	-48,072	0,109	-0,038
-351,752	-200,000	0,025	-0,154
-350,737	-200,000	-0,001	-0,049
-349,723	800,000	-0,038	0,079
-348,708	-200,000	0,015	0,144
-347,693	17,222	-0,006	-0,003
-346,679	800,000	-0,049	-0,105
-345,664	-200,000	0,004	0,103
-344,650	-112,268	0,133	0,019
-343,635	50,837	0,058	-0,040
-342,620	336,116	0,076	0,108
-341,606	-25,461	0,086	0,037
-340,591	-200,000	-0,057	-0,233
-339,577	525,135	-0,065	-0,111
-338,562	800,000	0,088	-0,185
-337,548	45,778	-0,044	0,030
-336,533	-63,948	0,069	-0,020
-335,518	-200,000	-0,026	0,086
-334,504	129,921	-0,041	-0,038
-333,489	116,777	-0,118	-0,105
-332,475	-13,873	-0,105	0,049
-331,460	-200,000	0,012	-0,064
-330,445	-113,335	0,198	-0,028
-329,431	-200,000	0,012	0,089
-328,416	27,539	-0,059	0,036
-327,402	-95,453	-0,112	0,022
-326,387	445,789	0,022	0,034
-325,372	56,961	-0,070	-0,049
-324,358	-90,233	-0,141	0,030
-323,343	-77,700	-0,137	-0,034
-322,329	-104,878	-0,057	0,009
-321,314	103,639	-0,069	0,059
-320,299	-79,526	0,117	-0,028
-319,285	-50,540	-0,131	-0,045
-318,270	79,458	0,022	-0,017
-317,256	123,340	-0,030	-0,027
-316,241	-123,264	0,148	0,017
-315,226	-200,000	0,003	-0,135
-314,212	148,575	0,078	0,077
-313,197	145,582	0,107	0,104
-312,183	-76,838	-0,063	-0,016
-311,168	800,000	0,067	-0,169
-310,153	800,000	-0,060	-0,138
-309,139	800,000	-0,026	0,065
-308,124	-61,676	0,065	-0,020
-307,110	500,233	-0,016	0,027
-306,095	-200,000	0,002	-0,080
-305,080	-200,000	0,045	0,000
-304,066	-200,000	0,012	-0,076
-303,051	800,000	-0,042	0,106
-302,037	64,680	-0,114	0,083
-301,022	800,000	0,046	-0,104
-300,008	348,717	0,057	-0,082
-298,993	301,497	0,122	-0,164
-297,978	-89,990	-0,054	0,011
-296,964	-56,399	-0,048	-0,015
-295,949	-67,190	-0,114	-0,032
-294,935	4,701	-0,051	0,027
-293,920	-27,127	0,084	0,035
-292,905	96,735	-0,053	0,044
-291,891	243,782	-0,098	-0,119
-290,876	-53,440	-0,032	0,011
-289,862	-129,989	-0,025	-0,002
-288,847	-128,601	-0,122	0,012
-287,832	3,550	-0,303	-0,160
-286,818	-200,000	0,003	0,101
-285,803	-158,089	0,087	-0,004
-284,789	293,092	-0,021	-0,028
-283,774	-200,000	-0,015	0,062
-282,759	-200,000	0,001	-0,003
-281,745	-200,000	-0,005	0,187
-280,730	-41,491	0,059	0,022
-279,716	157,086	-0,056	-0,056
-278,701	17,880	0,114	0,066
-277,686	-200,000	-0,008	0,102
-276,672	-200,000	-0,013	0,095
-275,657	31,406	0,072	0,045
-274,643	-94,648	-0,063	-0,012
-273,628	211,870	0,028	0,032
-272,613	-123,877	-0,114	0,013
-271,599	-200,000	0,007	0,163
-270,584	800,000	0,051	0,159
-269,570	-200,000	-0,014	-0,048
-268,555	-5,046	-0,026	-0,013
-267,540	-146,986	-0,018	0,001
-266,526	32,879	-0,126	0,079
-265,511	14,967	0,109	0,061
-264,497	90,739	0,007	0,006
-263,482	-200,000	-0,017	-0,062
-262,467	719,950	-0,038	0,074
-261,453	-200,000	0,019	-0,071
-260,438	288,768	-0,050	-0,066
-259,424	363,199	-0,100	-0,146
-258,409	399,282	-0,065	-0,099
-257,395	789,831	-0,004	-0,007
-256,380	-200,000	-0,003	0,076
-255,365	33,893	-0,073	-0,046
-254,351	-200,000	0,010	-0,048
-253,336	-57,792	0,086	0,027
-252,322	800,000	-0,045	0,096
-251,307	-200,000	0,000	0,032
-250,292	800,000	-0,010	-0,020
-249,278	-22,083	0,160	0,070
-248,263	-200,000	-0,036	0,215
-247,249	-200,000	0,001	-0,160
-246,234	55,333	-0,051	-0,036
-245,219	-8,233	-0,047	0,023
-244,205	800,000	0,029	-0,065
-243,190	37,676	0,092	0,059
-242,176	43,301	-0,021	0,014
-241,161	15,149	0,155	0,087
-240,146	-7,722	0,038	-0,018
-239,132	800,000	-0,039	0,080
-238,117	27,972	0,060	0,036
-237,103	-72,528	-0,036	-0,009
-236,088	155,622	-0,117	-0,116
-235,073	-126,088	-0,036	0,004
-234,059	-200,000	0,002	0,007
-233,044	-200,000	0,009	0,048
-232,030	-81,739	0,056	-0,013
-231,015	303,194	0,030	-0,040
-230,000	800,000	-0,038	-0,086
-228,986	-134,218	0,042	0,004
-227,971	695,220	0,042	0,080
-226,957	67,678	0,046	0,034
-225,942	800,000	0,018	-0,055
-224,927	-200,000	0,005	-0,084
-223,913	-96,457	0,020	-0,004
-222,898	188,580	-0,090	-0,097
-221,884	286,942	-0,095	-0,124
-220,869	-200,000	0,014	-0,070
-219,855	-200,000	-0,017	-0,067
-218,840	800,000	0,041	0,118
-217,825	-200,000	0,015	0,118
-216,811	-118,416	-0,031	0,004
-215,796	219,201	-0,149	-0,172
-214,782	244,046	-0,044	-0,054
-213,767	272,000	0,078	-0,099
-212,752	-200,000	-0,016	-0,127
-211,738	98,593	-0,064	0,053
-210,723	161,965	-0,049	0,050
-209,709	-200,000	-0,002	0,064
-208,694	504,840	-0,021	0,036
-207,679	-62,757	-0,077	-0,023
-206,665	649,952	-0,046	-0,085
-205,650	244,007	0,091	-0,111
-204,636	146,699	0,034	-0,033
-203,621	26,262	-0,074	0,045
-202,606	-138,497	0,226	-0,018
-201,592	335,947	-0,081	-0,114
-200,577	-68,162	-0,053	-0,015
-199,563	-200,000	-0,004	0,063
-198,548	-70,994	0,129	-0,035
-197,533	800,000	0,018	0,048
-196,519	83,593	-0,014	0,011
-195,504	-148,714	0,047	0,003
-194,490	-47,737	0,087	0,030
-193,475	-98,217	-0,069	-0,013
-192,460	800,000	0,027	0,079
-191,446	-146,201	-0,030	0,002
-190,431	-132,826	-0,035	-0,003
-189,417	800,000	0,084	-0,188
-188,402	105,430	-0,113	0,097
-187,387	-200,000	-0,016	-0,051
-186,373	-200,000	-0,001	-0,042
-185,358	-5,878	0,054	0,027
-184,344	673,225	-0,066	-0,124
-183,329	-67,498	-0,086	0,024
-182,315	-58,368	-0,011	-0,004
-181,300	164,965	-0,087	0,089
-180,285	6,099	0,185	-0,099
-179,271	466,508	0,016	-0,025
-178,256	16,272	-0,032	-0,018
-177,242	-1,388	0,098	0,050
-176,227	-200,000	0,020	-0,113
-175,212	27,286	-0,087	-0,053
-174,198	800,000	0,050	0,111
-173,183	-200,000	-0,006	0,021
-172,169	-200,000	0,003	0,023
-171,154	-200,000	0,015	-0,056
-170,139	395,467	0,055	0,083
-169,125	233,994	0,040	-0,047
-168,110	-36,320	-0,018	-0,007
-167,096	292,502	0,074	-0,098
-166,081	119,385	-0,063	-0,056
-165,066	800,000	0,020	0,055
-164,052	106,054	0,070	0,059
-163,037	-200,000	-0,006	0,180
-162,023	159,654	-0,108	-0,108
-161,008	-30,072	0,102	-0,042
-159,993	121,395	0,052	-0,047
-158,979	-81,369	0,069	-0,016
-157,964	517,942	-0,047	-0,080
-156,950	-26,263	-0,075	0,032
-155,935	-44,848	-0,083	-0,030
-154,920	-200,000	-0,015	0,122
-153,906	526,337	0,047	0,080
-152,891	99,420	0,035	0,029
-151,877	-100,568	-0,036	-0,006
-150,862	-200,000	0,002	-0,075
-149,847	-45,023	-0,090	-0,032
-148,833	103,699	-0,045	0,038
-147,818	-200,000	0,013	0,065
-146,804	25,553	0,094	0,056
-145,789	-127,991	-0,111	-0,011
-144,775	105,788	0,085	0,073
-143,760	6,262	0,062	0,033
-142,745	-22,230	-0,083	-0,036
-141,731	64,218	0,087	0,063
-140,716	-200,000	-0,003	0,068
-139,702	-89,998	0,038	-0,008
-138,687	-200,000	0,009	-0,117
-137,672	303,955	-0,034	-0,045
-136,658	278,800	0,025	0,032
-135,643	-110,319	-0,013	0,002
-134,629	-194,802	0,093	-0,001
-133,614	716,320	0,052	0,099
-132,599	-200,000	0,046	0,212
-131,585	-39,276	0,126	0,047
-130,570	560,395	-0,037	0,065
-129,556	800,000	0,017	-0,053
-128,541	-47,939	0,109	0,038
-127,526	-200,000	0,010	0,084
-126,512	-52,061	-0,040	0,013
-125,497	-200,000	-0,005	-0,034
-124,483	-200,000	-0,033	0,241
-123,468	-19,968	-0,057	0,025
-122,453	73,638	-0,068	-0,051
-121,439	-200,000	-0,014	-0,065
-120,424	800,000	-0,093	-0,202
-119,410	-85,632	0,130	-0,029
