DTS Sentinel unit serial number:	SN410029Multiplexer serial number:	ORYXHardware model number:	OX2-SRSoftware version number:	ORYX F/W v4,00 Oryx Data Collector v3.7.2.0data status	okinstallation	B6 Nyhavnadifferential loss correction	single-endedforward channel	channel 2reverse channel	N/Adate	2023/12/07time	19:15:08forward acquisition time	300,00reverse acquisition time	0,00gamma	499,1914k internal	0,3163k external	0,3163temperature offset calibration	1,0000default loss term (dB/km)	0,3820temperature slope calibration	1,0000multiplexer offset coefficient	1,0000multiplexer slope coefficient	1,0000fibre end	0,00T internal ref (°C)	14,06T ext. ref 1 (°C)	-2,97T ext. ref 2 (°C)	-2,98length (m)	temperature (°C)	Stokes	anti-Stokes-744,400	277,249	-0,023	-0,030
-743,385	-68,245	-0,311	-0,088
-742,371	-95,275	0,195	0,038
-741,356	-39,791	-0,230	-0,088
-740,342	33,979	0,185	0,118
-739,327	-69,149	-0,275	-0,077
-738,312	110,152	0,094	-0,083
-737,298	-55,821	-0,215	-0,070
-736,283	100,973	0,167	0,143
-735,269	-56,704	-0,328	-0,106
-734,254	-200,000	-0,003	0,073
-733,239	-64,156	-0,445	-0,133
-732,225	-62,166	0,176	0,054
-731,210	-200,000	-0,035	0,151
-730,196	-200,000	0,002	0,112
-729,181	-24,471	-0,116	0,051
-728,167	396,161	0,026	0,040
-727,152	-200,000	-0,013	-0,121
-726,137	368,335	-0,134	0,200
-725,123	472,834	0,060	-0,099
-724,108	-24,022	-0,172	-0,076
-723,094	-200,000	-0,002	-0,087
-722,079	800,000	-0,048	0,107
-721,064	-200,000	-0,017	0,076
-720,050	-87,298	-0,113	-0,025
-719,035	-44,533	0,063	-0,023
-718,021	800,000	-0,071	-0,174
-717,006	800,000	-0,044	-0,104
-715,991	362,347	-0,055	-0,081
-714,977	331,913	-0,061	-0,087
-713,962	-35,116	-0,096	0,038
-712,948	576,864	-0,052	-0,094
-711,933	-19,465	-0,100	-0,045
-710,918	106,183	-0,060	0,052
-709,904	17,702	-0,100	-0,058
-708,889	748,340	-0,056	-0,112
-707,875	6,233	0,083	0,045
-706,860	-40,372	-0,045	-0,017
-705,845	-64,786	-0,061	-0,018
-704,831	36,315	-0,079	0,051
-703,816	-149,882	-0,109	-0,006
-702,802	94,139	-0,058	-0,048
-701,787	-200,000	-0,016	-0,078
-700,772	-108,687	-0,108	-0,017
-699,758	42,897	0,110	-0,073
-698,743	-200,000	-0,019	0,065
-697,729	20,838	0,188	0,112
-696,714	103,741	0,032	-0,028
-695,699	-69,324	-0,065	-0,018
-694,685	25,572	0,076	0,046
-693,670	-200,000	-0,012	-0,057
-692,656	-26,470	-0,068	0,029
-691,641	71,994	-0,019	0,015
-690,627	-200,000	0,008	0,106
-689,612	-12,817	-0,108	0,052
-688,597	100,192	0,013	0,011
-687,583	-200,000	0,002	-0,199
-686,568	2,797	0,021	-0,011
-685,554	395,317	0,097	0,149
-684,539	-75,169	0,115	-0,030
-683,524	88,645	-0,096	0,078
-682,510	799,954	-0,018	-0,037
-681,495	-200,000	0,000	-0,167
-680,481	592,191	-0,031	-0,057
-679,466	147,644	-0,070	0,069
-678,451	-51,510	0,026	0,009
-677,437	-129,444	-0,105	-0,011
-676,422	106,136	0,048	0,042
-675,408	199,857	0,056	-0,063
-674,393	64,318	0,045	0,033
-673,378	282,227	-0,069	-0,091
-672,364	-200,000	-0,037	-0,176
-671,349	-144,484	-0,113	-0,008
-670,335	211,604	0,065	-0,075
-669,320	-148,540	-0,109	-0,006
-668,305	9,111	0,044	-0,025
-667,291	-39,119	-0,139	-0,053
-666,276	-93,053	-0,144	-0,029
-665,262	46,476	-0,157	-0,107
-664,247	800,000	-0,040	-0,110
-663,232	-90,303	-0,046	0,010
-662,218	800,000	0,019	0,049
-661,203	245,802	-0,110	-0,136
-660,189	-101,596	-0,065	-0,011
-659,174	-200,000	-0,014	-0,068
-658,159	-200,000	0,011	0,104
-657,145	369,512	-0,136	0,202
-656,130	344,110	-0,116	0,168
-655,116	-0,486	0,031	-0,016
-654,101	-143,460	0,093	-0,006
-653,086	-200,000	0,012	0,092
-652,072	-200,000	0,010	-0,117
-651,057	-96,800	0,079	0,015
-650,043	373,328	-0,059	-0,088
-649,028	169,092	-0,034	-0,036
-648,014	3,579	0,093	0,050
-646,999	-200,000	-0,011	-0,080
-645,984	-159,845	0,004	-0,000
-644,970	410,377	0,081	0,127
-643,955	449,574	0,059	-0,095
-642,941	800,000	-0,055	-0,119
-641,926	-200,000	-0,011	-0,069
-640,911	-200,000	-0,001	-0,022
-639,897	-10,970	0,059	-0,029
-638,882	78,142	0,075	0,058
-637,868	800,000	0,019	0,053
-636,853	-134,135	-0,058	-0,005
-635,838	-200,000	-0,007	0,035
-634,824	-167,356	0,182	0,005
-633,809	-200,000	0,001	-0,134
-632,795	-75,366	0,119	0,031
-631,780	-200,000	0,055	0,189
-630,765	97,150	-0,016	-0,013
-629,751	-103,934	0,046	0,008
-628,736	96,215	-0,125	-0,105
-627,722	-90,930	0,041	-0,009
-626,707	800,000	0,059	0,154
-625,692	-200,000	0,013	0,070
-624,678	547,905	-0,031	-0,055
-623,663	11,477	0,051	-0,028
-622,649	-200,000	-0,019	-0,075
-621,634	479,545	-0,062	0,103
-620,619	-64,593	0,055	-0,016
-619,605	2,523	0,118	0,063
-618,590	800,000	-0,023	-0,054
-617,576	-178,295	0,164	0,003
-616,561	256,907	-0,029	-0,036
-615,546	55,997	-0,010	-0,007
-614,532	-200,000	-0,008	-0,079
-613,517	34,160	0,067	0,043
-612,503	659,676	0,047	-0,090
-611,488	-93,134	-0,087	0,018
-610,474	87,792	0,108	0,087
-609,459	161,159	-0,077	0,079
-608,444	800,000	-0,059	0,160
-607,430	418,521	-0,084	-0,131
-606,415	454,615	-0,015	0,024
-605,401	102,286	0,020	0,017
-604,386	124,613	-0,054	-0,049
-603,371	-138,901	-0,045	-0,004
-602,357	512,688	0,026	-0,044
-601,342	28,971	0,117	-0,072
-600,328	-40,968	0,034	-0,013
-599,313	439,604	0,053	-0,085
-598,298	-163,754	0,201	0,007
-597,284	512,829	0,035	-0,060
-596,269	800,000	-0,033	0,078
-595,255	330,204	0,045	0,063
-594,240	-200,000	-0,003	0,036
-593,225	-127,669	-0,129	-0,013
-592,211	-200,000	-0,010	0,065
-591,196	-107,942	0,105	-0,017
-590,182	266,311	0,071	-0,091
-589,167	333,739	0,043	-0,061
-588,152	254,830	-0,131	0,164
-587,138	-25,800	-0,079	-0,034
-586,123	209,495	0,065	-0,075
-585,109	-20,961	-0,215	-0,096
-584,094	-200,000	-0,022	-0,135
-583,079	-200,000	-0,017	-0,069
-582,065	287,990	-0,034	0,044
-581,050	434,606	-0,029	0,046
-580,036	-200,000	-0,029	-0,170
-579,021	-135,828	0,030	-0,003
-578,006	28,854	0,079	0,049
-576,992	-9,820	-0,036	-0,018
-575,977	56,256	0,034	-0,024
-574,963	-97,076	-0,054	0,010
-573,948	305,081	0,091	-0,124
-572,934	687,186	0,058	0,111
-571,919	-15,685	-0,044	-0,020
-570,904	156,402	-0,025	0,025
-569,890	-200,000	0,001	-0,054
-568,875	75,474	-0,163	0,126
-567,861	196,827	0,045	-0,051
-566,846	-200,000	0,029	-0,138
-565,831	-59,507	0,073	-0,023
-564,817	42,506	0,034	-0,023
-563,802	-33,823	0,033	0,013
-562,788	118,838	-0,093	-0,084
-561,773	-200,000	0,012	-0,054
-560,758	-151,047	-0,089	0,005
-559,744	-111,943	-0,019	-0,003
-558,729	-200,000	0,010	0,034
-557,715	-113,334	0,111	-0,016
-556,700	-200,000	-0,003	0,165
-555,685	800,000	-0,028	-0,076
-554,671	800,000	0,007	-0,015
-553,656	-160,506	0,080	-0,003
-552,642	283,511	0,026	0,034
-551,627	800,000	0,009	-0,027
-550,612	275,635	-0,069	0,090
-549,598	-18,997	-0,124	-0,056
-548,583	-200,000	-0,010	-0,085
-547,569	349,545	-0,024	-0,034
-546,554	-45,873	0,017	-0,006
-545,539	-200,000	0,000	-0,062
-544,525	-200,000	0,027	0,107
-543,510	800,000	-0,031	-0,068
-542,496	743,415	0,044	0,088
-541,481	-200,000	-0,014	-0,140
-540,466	-87,944	0,022	-0,005
-539,452	94,977	-0,112	0,093
-538,437	-26,661	0,069	0,030
-537,423	170,151	-0,129	0,135
-536,408	109,881	-0,022	-0,019
-535,393	-200,000	-0,013	-0,176
-534,379	43,623	-0,108	0,072
-533,364	-78,031	-0,068	-0,017
-532,350	25,906	0,054	0,033
-531,335	209,250	0,042	0,048
-530,321	-31,567	-0,094	-0,038
-529,306	800,000	-0,036	-0,088
-528,291	82,909	-0,031	-0,025
-527,277	9,398	0,052	-0,029
-526,262	-84,920	-0,079	-0,018
-525,248	464,203	0,039	0,064
-524,233	-200,000	-0,018	-0,137
-523,218	27,102	0,029	-0,018
-522,204	85,779	-0,138	0,110
-521,189	-200,000	-0,017	-0,054
-520,175	118,705	0,048	-0,043
-519,160	-200,000	0,012	-0,162
-518,145	264,639	0,070	-0,088
-517,131	-200,000	-0,001	0,092
-516,116	45,970	0,071	-0,048
-515,102	-47,085	-0,055	0,020
-514,087	-200,000	0,007	-0,104
-513,072	-24,732	-0,143	-0,062
-512,058	-200,000	-0,077	-0,000
-511,043	-200,000	-0,016	-0,093
-510,029	373,736	0,080	-0,118
-509,014	800,000	-0,069	-0,165
-507,999	800,000	0,014	0,041
-506,985	800,000	-0,022	-0,064
-505,970	-200,000	-0,003	-0,190
-504,956	3,908	-0,109	-0,058
-503,941	800,000	0,041	0,112
-502,926	31,467	0,024	0,015
-501,912	439,695	-0,040	0,064
-500,897	120,237	-0,088	0,080
-499,883	-200,000	-0,013	0,056
-498,868	800,000	-0,048	-0,105
-497,853	800,000	0,041	-0,098
-496,839	72,563	-0,045	0,034
-495,824	120,714	0,040	-0,037
-494,810	-57,443	-0,091	-0,029
-493,795	191,554	-0,059	-0,065
-492,781	277,855	0,038	0,049
-491,766	228,050	0,018	-0,022
-490,751	336,412	0,092	-0,130
-489,737	-142,488	-0,103	-0,007
-488,722	800,000	-0,012	0,038
-487,708	-45,365	0,049	-0,018
-486,693	-200,000	-0,009	0,121
-485,678	689,940	0,023	0,044
-484,664	800,000	-0,015	0,045
-483,649	-200,000	-0,010	-0,089
-482,635	-125,429	-0,080	0,009
-481,620	-104,734	-0,152	0,025
-480,605	-115,164	0,028	-0,004
-479,591	-102,474	0,063	0,011
-478,576	800,000	0,017	0,047
-477,562	-200,000	0,012	0,049
-476,547	-13,636	-0,091	-0,043
-475,532	22,119	-0,020	0,012
-474,518	651,547	0,033	-0,063
-473,503	-200,000	0,017	0,058
-472,489	575,399	0,105	0,187
-471,474	-200,000	0,038	0,156
-470,459	706,437	-0,035	-0,068
-469,445	-200,000	-0,012	-0,077
-468,430	495,406	-0,059	0,099
-467,416	34,161	-0,039	0,025
-466,401	-71,854	0,110	0,030
-465,386	800,000	0,030	0,091
-464,372	-85,544	0,057	-0,013
-463,357	-200,000	-0,013	0,053
-462,343	-200,000	-0,049	-0,184
-461,328	-69,824	0,108	-0,030
-460,313	-200,000	-0,008	0,180
-459,299	-200,000	0,019	-0,089
-458,284	179,057	0,090	-0,096
-457,270	557,746	0,016	0,029
-456,255	-200,000	0,045	-0,228
-455,241	800,000	0,016	-0,041
-454,226	800,000	0,031	-0,094
-453,211	59,724	-0,157	0,112
-452,197	-150,322	0,100	-0,006
-451,182	344,314	0,120	-0,171
-450,168	-91,547	-0,054	0,011
-449,153	-200,000	0,013	0,086
-448,138	462,254	-0,028	-0,045
-447,124	-10,575	-0,016	-0,008
-446,109	359,977	-0,082	0,119
-445,095	-200,000	0,045	0,217
-444,080	-200,000	-0,008	0,156
-443,065	-60,848	0,057	0,017
-442,051	67,517	-0,026	-0,019
-441,036	8,554	-0,080	0,043
-440,022	-155,703	-0,103	0,005
-439,007	-147,723	0,073	0,004
-437,992	-200,000	0,008	-0,033
-436,978	72,080	0,054	0,041
-435,963	-100,680	-0,161	-0,029
-434,949	800,000	0,024	0,066
-433,934	-167,585	-0,043	-0,001
-432,919	40,510	0,049	-0,032
-431,905	-200,000	0,002	0,058
-430,890	20,330	0,177	0,104
-429,876	-123,840	-0,074	0,008
-428,861	65,799	0,044	-0,033
-427,846	358,781	0,033	0,048
-426,832	-200,000	0,008	0,076
-425,817	9,446	0,027	0,015
-424,803	540,830	-0,035	-0,060
-423,788	68,142	-0,037	0,028
-422,773	289,987	0,062	0,082
-421,759	11,952	-0,129	0,072
-420,744	-200,000	-0,042	0,138
-419,730	-18,219	-0,029	0,013
-418,715	81,868	0,076	-0,060
-417,701	303,740	-0,030	-0,041
-416,686	-200,000	0,002	-0,119
-415,671	800,000	0,026	-0,053
-414,657	-88,842	0,035	-0,007
-413,642	800,000	-0,045	-0,102
-412,628	54,780	0,040	0,028
-411,613	-200,000	-0,008	0,065
-410,598	184,233	0,046	-0,050
-409,584	800,000	-0,020	0,054
-408,569	-97,366	-0,153	0,029
-407,555	140,063	0,142	0,136
-406,540	-91,008	0,085	0,018
-405,525	13,275	-0,095	-0,053
-404,511	-144,899	-0,044	-0,003
-403,496	-28,571	-0,125	-0,052
-402,482	-108,577	0,030	0,005
-401,467	447,210	0,021	-0,034
-400,452	800,000	0,021	-0,060
-399,438	-137,373	-0,173	0,014
-398,423	-200,000	0,000	-0,015
-397,409	-112,519	-0,094	-0,013
-396,394	605,518	-0,028	-0,050
-395,379	-141,685	0,152	-0,011
-394,365	466,658	0,014	-0,023
-393,350	-151,376	0,050	0,003
-392,336	-58,495	-0,046	-0,014
-391,321	-128,554	0,124	0,013
-390,306	-200,000	-0,001	0,074
-389,292	789,609	-0,049	-0,097
-388,277	-136,283	-0,030	-0,003
-387,263	306,486	0,040	0,054
-386,248	-200,000	0,014	0,081
-385,233	-40,769	0,108	-0,040
-384,219	125,315	-0,122	-0,112
-383,204	-48,066	-0,037	0,013
-382,190	345,117	0,053	-0,075
-381,175	108,819	-0,014	0,012
-380,160	70,655	0,108	-0,081
-379,146	8,805	0,103	-0,056
-378,131	53,258	0,082	0,057
-377,117	-200,000	-0,014	0,132
-376,102	-200,000	0,024	-0,103
-375,088	482,607	-0,044	0,072
-374,073	-63,966	-0,062	0,018
-373,058	800,000	-0,084	0,172
-372,044	-65,957	0,076	-0,022
-371,029	800,000	-0,026	0,054
-370,015	30,549	-0,129	-0,080
-369,000	800,000	-0,034	-0,104
-367,985	440,419	0,050	-0,079
-366,971	-200,000	0,009	-0,029
-365,956	163,958	0,029	-0,029
-364,942	-200,000	0,015	0,084
-363,927	161,558	0,061	0,062
-362,912	95,173	0,029	-0,024
-361,898	106,439	-0,066	-0,057
-360,883	55,069	-0,097	0,068
-359,869	344,255	0,023	0,033
-358,854	411,288	-0,080	0,123
-357,839	87,300	-0,065	-0,052
-356,825	800,000	0,028	0,077
-355,810	-38,869	0,169	-0,064
-354,796	346,810	-0,073	-0,105
-353,781	137,859	0,046	-0,043
-352,766	694,263	0,025	-0,048
-351,752	-200,000	0,050	-0,177
-350,737	800,000	-0,021	-0,067
-349,723	41,034	0,080	-0,052
-348,708	-58,836	-0,146	0,045
-347,693	423,875	-0,011	-0,017
-346,679	-161,054	0,101	0,004
-345,664	-107,633	0,171	0,027
-344,650	492,508	-0,035	-0,059
-343,635	388,444	-0,027	0,041
-342,620	344,460	0,109	0,156
-341,606	-62,123	0,089	0,027
-340,591	35,058	-0,119	-0,076
-339,577	-147,713	0,059	-0,004
-338,562	70,171	-0,071	0,053
-337,548	-200,000	-0,022	0,103
-336,533	-200,000	-0,010	0,077
-335,518	-200,000	0,040	0,152
-334,504	-106,645	-0,144	0,023
-333,489	-177,872	-0,080	-0,001
-332,475	-170,693	0,056	0,001
-331,460	-200,000	-0,025	-0,102
-330,445	-4,846	0,129	-0,064
-329,431	490,215	-0,095	0,158
-328,416	-61,265	0,080	0,024
-327,402	-200,000	-0,002	0,095
-326,387	101,453	-0,040	0,034
-325,372	365,339	0,028	0,041
-324,358	284,421	-0,034	0,045
-323,343	490,865	-0,035	-0,058
-322,329	-80,870	0,190	-0,045
-321,314	-200,000	-0,005	-0,022
-320,299	-70,776	0,094	0,026
-319,285	-200,000	0,013	0,046
-318,270	344,816	-0,018	-0,026
-317,256	140,350	-0,111	-0,106
-316,241	-200,000	-0,021	0,132
-315,226	239,328	0,041	-0,050
-314,212	52,796	-0,075	0,052
-313,197	-2,532	0,004	-0,002
-312,183	172,379	-0,118	-0,123
-311,168	-56,723	-0,154	-0,049
-310,153	269,262	-0,053	-0,067
-309,139	-200,000	-0,007	0,114
-308,124	-200,000	0,015	0,141
-307,110	-200,000	0,026	0,133
-306,095	631,729	-0,075	0,138
-305,080	-200,000	0,001	-0,062
-304,066	-38,612	0,043	0,016
-303,051	-200,000	-0,004	-0,035
-302,037	800,000	-0,051	-0,116
-301,022	520,286	-0,042	0,072
-300,008	800,000	0,027	0,061
-298,993	-200,000	0,008	0,035
-297,978	47,475	-0,052	-0,035
-296,964	-200,000	-0,012	0,069
-295,949	800,000	-0,011	-0,022
-294,935	-200,000	-0,005	0,063
-293,920	-117,845	0,057	0,007
-292,905	184,791	-0,018	-0,019
-291,891	-189,739	0,063	0,001
-290,876	400,475	0,024	0,036
-289,862	-127,594	0,048	-0,005
-288,847	207,665	0,027	-0,031
-287,832	566,936	-0,074	-0,130
-286,818	-200,000	0,013	-0,106
-285,803	125,743	0,071	0,065
-284,789	46,846	0,060	0,041
-283,774	-200,000	0,015	-0,112
-282,759	178,770	0,047	-0,049
-281,745	800,000	-0,012	-0,034
-280,730	800,000	-0,064	-0,146
-279,716	-94,522	0,173	0,034
-278,701	122,335	0,033	0,030
-277,686	-200,000	0,005	0,064
-276,672	149,002	-0,067	-0,065
-275,657	-53,226	0,056	-0,019
-274,643	-200,000	0,000	-0,116
-273,628	401,901	0,030	-0,045
-272,613	800,000	-0,035	-0,075
-271,599	-200,000	0,008	0,042
-270,584	800,000	-0,052	0,117
-269,570	-200,000	-0,014	0,082
-268,555	-92,412	0,020	0,004
-267,540	800,000	-0,038	0,088
-266,526	92,877	0,022	0,018
-265,511	-200,000	0,005	0,061
-264,497	28,491	-0,083	0,051
-263,482	111,590	0,084	-0,073
-262,467	-68,394	0,070	-0,019
-261,453	135,066	-0,087	0,082
-260,438	530,734	-0,018	0,032
-259,424	4,802	-0,113	-0,060
-258,409	40,661	0,136	0,089
-257,395	800,000	0,064	0,131
-256,380	318,014	-0,040	0,055
-255,365	-196,975	0,126	-0,001
-254,351	45,769	-0,022	0,014
-253,336	800,000	0,044	0,118
-252,322	-17,093	-0,041	0,019
-251,307	-58,977	0,081	-0,025
-250,292	-200,000	-0,012	-0,121
-249,278	153,455	0,108	0,107
-248,263	-17,676	-0,064	-0,029
-247,249	-200,000	-0,008	0,102
-246,234	-200,000	0,002	0,056
-245,219	109,046	-0,048	0,041
-244,205	8,619	-0,033	-0,018
-243,190	149,333	0,067	0,066
-242,176	43,623	0,042	-0,027
-241,161	205,746	0,083	0,093
-240,146	84,093	-0,212	-0,167
-239,132	23,898	0,147	0,087
-238,117	-200,000	-0,032	-0,111
-237,103	800,000	-0,033	-0,071
-236,088	-20,143	0,038	-0,017
-235,073	549,261	-0,025	0,043
-234,059	800,000	-0,057	0,135
-233,044	-200,000	0,026	0,168
-232,030	312,910	-0,102	0,138
-231,015	233,586	0,087	-0,104
-230,000	31,970	-0,022	-0,013
-228,986	-200,000	-0,042	-0,134
-227,971	147,796	-0,058	-0,057
-226,957	347,393	0,128	0,182
-225,942	800,000	-0,071	0,143
-224,927	-200,000	0,010	0,115
-223,913	-57,669	0,052	-0,016
-222,898	-200,000	-0,007	-0,134
-221,884	-200,000	0,011	-0,115
-220,869	246,258	0,015	0,019
-219,855	336,496	-0,026	0,036
-218,840	142,285	-0,025	-0,024
-217,825	101,853	-0,067	-0,056
-216,811	-200,000	-0,038	-0,120
-215,796	-200,000	0,004	0,074
-214,782	-145,013	-0,087	-0,006
-213,767	347,006	0,097	0,138
-212,752	83,982	0,095	0,075
-211,738	-200,000	-0,022	0,142
-210,723	660,584	0,053	0,099
-209,709	304,907	0,045	-0,061
-208,694	-60,706	0,091	0,028
-207,679	197,508	-0,042	0,046
-206,665	56,992	0,055	0,038
-205,650	383,663	-0,080	0,119
-204,636	800,000	-0,068	0,138
-203,621	324,609	-0,049	0,067
-202,606	320,915	0,058	0,080
-201,592	18,563	-0,100	0,058
-200,577	-160,978	-0,133	0,005
-199,563	344,380	-0,014	0,020
-198,548	675,510	-0,016	-0,029
-197,533	596,955	0,079	0,142
-196,519	-10,923	0,046	0,022
-195,504	94,113	-0,091	0,074
-194,490	800,000	-0,037	-0,075
-193,475	45,547	0,011	-0,008
-192,460	-200,000	0,003	0,042
-191,446	362,817	0,059	-0,086
-190,431	800,000	-0,009	-0,029
-189,417	93,013	0,016	-0,013
-188,402	58,962	0,128	-0,091
-187,387	-200,000	-0,033	-0,137
-186,373	-36,265	-0,023	-0,009
-185,358	184,000	0,108	-0,115
-184,344	19,556	0,085	0,049
-183,329	800,000	-0,034	0,078
-182,315	800,000	-0,029	0,072
-181,300	-200,000	0,002	0,048
-180,285	21,405	-0,025	-0,014
-179,271	-167,862	-0,068	0,002
-178,256	800,000	-0,047	-0,144
-177,242	385,876	0,066	-0,099
-176,227	4,751	0,095	-0,050
-175,212	13,995	0,039	0,022
-174,198	-200,000	-0,026	-0,087
-173,183	771,346	-0,040	-0,078
-172,169	-14,430	-0,133	0,061
-171,154	-46,963	-0,102	0,036
-170,139	-200,000	0,011	0,101
-169,125	-200,000	0,042	-0,159
-168,110	57,032	0,050	-0,035
-167,096	800,000	0,029	-0,092
-166,081	800,000	-0,021	-0,044
-165,066	-200,000	-0,025	-0,176
-164,052	6,068	0,082	-0,044
-163,037	-200,000	-0,003	0,079
-162,023	124,974	-0,016	-0,015
-161,008	-85,261	-0,099	0,022
-159,993	-200,000	-0,003	0,040
-158,979	573,962	0,060	0,106
-157,964	129,344	-0,053	-0,049
-156,950	28,652	-0,065	0,040
-155,935	-200,000	-0,028	-0,092
-154,920	-200,000	-0,039	-0,188
-153,906	-100,945	-0,049	-0,009
-152,891	-81,784	0,107	0,025
-151,877	800,000	0,024	0,071
-150,862	89,636	-0,109	-0,088
-149,847	800,000	0,013	-0,035
-148,833	-159,225	-0,056	-0,002
-147,818	-124,242	0,126	-0,014
-146,804	-97,757	0,044	0,008
-145,789	344,168	0,057	0,080
-144,775	163,131	-0,041	0,042
-143,760	-156,245	-0,082	0,004
-142,745	-98,797	-0,092	0,017
-141,731	-25,648	0,101	-0,043
-140,716	516,546	-0,026	-0,044
-139,702	385,564	-0,020	0,030
-138,687	-200,000	0,003	0,108
-137,672	-134,486	0,023	0,002
-136,658	741,175	-0,075	-0,146
-135,643	434,918	-0,094	-0,147
-134,629	266,255	0,028	0,035
-133,614	800,000	-0,022	0,060
-132,599	34,696	0,062	-0,039
-131,585	-37,808	-0,076	-0,029
-130,570	401,414	0,047	-0,071
-129,556	-200,000	0,013	0,050
-128,541	-65,284	0,128	-0,037
-127,526	800,000	-0,015	-0,033
-126,512	122,901	0,070	-0,063
-125,497	-155,203	0,132	-0,006
-124,483	-200,000	-0,017	0,068
-123,468	-104,853	-0,152	0,025
-122,453	-200,000	-0,028	-0,144
-121,439	-200,000	-0,021	-0,109
-120,424	45,913	0,052	-0,035
