DTS Sentinel unit serial number:	SN410029Multiplexer serial number:	ORYXHardware model number:	OX2-SRSoftware version number:	ORYX F/W v4,00 Oryx Data Collector v3.7.2.0data status	okinstallation	B6 Nyhavnadifferential loss correction	single-endedforward channel	channel 2reverse channel	N/Adate	2023/12/10time	03:00:08forward acquisition time	300,00reverse acquisition time	0,00gamma	499,1914k internal	0,3125k external	0,3125temperature offset calibration	1,0000default loss term (dB/km)	0,3820temperature slope calibration	1,0000multiplexer offset coefficient	1,0000multiplexer slope coefficient	1,0000fibre end	0,00T internal ref (°C)	21,99T ext. ref 1 (°C)	5,80T ext. ref 2 (°C)	5,79length (m)	temperature (°C)	Stokes	anti-Stokes-744,400	344,259	0,007	-0,010
-743,385	28,997	-0,149	0,094
-742,371	497,370	0,085	-0,146
-741,356	48,221	-0,156	0,109
-740,342	-75,816	0,163	0,043
-739,327	245,509	-0,147	0,184
-738,312	225,386	0,021	0,026
-737,298	-130,126	-0,240	-0,024
-736,283	-200,000	-0,025	-0,186
-735,269	-28,503	-0,101	0,043
-734,254	277,548	0,044	0,059
-733,239	-67,100	-0,499	-0,145
-732,225	-122,835	0,119	-0,014
-731,210	354,360	-0,052	0,078
-730,196	710,048	0,033	-0,065
-729,181	800,000	-0,018	0,046
-728,167	-200,000	0,023	-0,122
-727,152	-200,000	-0,008	-0,162
-726,137	800,000	-0,034	0,077
-725,123	-200,000	-0,031	-0,112
-724,108	245,424	-0,117	-0,147
-723,094	288,561	0,024	-0,033
-722,079	631,881	0,020	-0,037
-721,064	106,806	0,085	0,075
-720,050	-200,000	-0,007	0,155
-719,035	-181,526	-0,048	-0,001
-718,021	-169,491	-0,176	0,005
-717,006	-75,725	-0,020	-0,005
-715,991	-200,000	0,016	-0,073
-714,977	-200,000	-0,005	-0,020
-713,962	15,251	-0,120	-0,070
-712,948	-200,000	0,011	0,057
-711,933	-200,000	-0,002	0,052
-710,918	728,201	-0,064	-0,128
-709,904	433,325	0,065	-0,106
-708,889	88,460	-0,078	0,064
-707,875	-127,588	-0,050	0,005
-706,860	114,562	-0,078	-0,071
-705,845	151,168	-0,045	-0,046
-704,831	-86,364	0,093	-0,021
-703,816	5,136	0,106	0,058
-702,802	-39,664	-0,065	-0,025
-701,787	-91,704	-0,174	-0,037
-700,772	743,640	0,073	-0,146
-699,758	448,958	-0,059	-0,096
-698,743	190,046	0,027	-0,030
-697,729	-200,000	0,009	-0,041
-696,714	-79,061	-0,039	-0,010
-695,699	463,688	0,056	-0,094
-694,685	-200,000	-0,011	-0,125
-693,670	-200,000	0,008	-0,065
-692,656	59,951	0,019	-0,014
-691,641	-91,236	-0,174	-0,037
-690,627	-13,465	0,150	0,072
-689,612	-3,102	-0,055	0,029
-688,597	-41,035	0,205	0,078
-687,583	49,870	-0,064	0,045
-686,568	-15,691	-0,163	-0,077
-685,554	-173,805	-0,124	-0,003
-684,539	-140,302	-0,079	-0,006
-683,524	67,060	0,102	0,077
-682,510	-42,954	-0,012	-0,004
-681,495	-200,000	-0,028	-0,156
-680,481	-49,686	-0,151	-0,053
-679,466	612,623	-0,042	-0,079
-678,451	-200,000	-0,006	0,117
-677,437	-95,154	-0,103	0,021
-676,422	-99,912	0,101	0,019
-675,408	-200,000	-0,007	0,112
-674,393	-200,000	0,005	-0,138
-673,378	33,330	-0,057	0,037
-672,364	-17,026	-0,108	0,050
-671,349	122,259	0,045	-0,042
-670,335	-200,000	-0,062	0,000
-669,320	16,875	0,058	0,034
-668,305	-88,173	0,112	0,025
-667,291	53,691	-0,027	-0,019
-666,276	800,000	-0,011	0,036
-665,262	-117,120	-0,131	-0,018
-664,247	-91,790	-0,070	0,015
-663,232	-200,000	-0,006	-0,057
-662,218	19,522	0,069	0,041
-661,203	275,873	-0,053	0,069
-660,189	141,903	-0,059	0,058
-659,174	394,761	-0,064	0,100
-658,159	-38,677	-0,076	0,030
-657,145	285,018	-0,044	0,059
-656,130	800,000	-0,069	0,200
-655,116	39,864	-0,066	-0,044
-654,101	-200,000	0,016	-0,091
-653,086	-102,210	-0,066	-0,012
-652,072	87,553	-0,085	0,070
-651,057	-30,907	-0,037	0,015
-650,043	-151,197	-0,151	0,008
-649,028	-103,943	-0,062	0,011
-648,014	656,770	0,023	0,044
-646,999	-200,000	-0,023	0,076
-645,984	22,894	0,078	0,047
-644,970	347,516	-0,052	-0,076
-643,955	-200,000	-0,003	-0,097
-642,941	104,745	-0,041	-0,036
-641,926	-87,903	-0,063	0,014
-640,911	-22,969	0,068	0,030
-639,897	746,763	-0,030	-0,060
-638,882	-200,000	-0,009	-0,029
-637,868	-200,000	-0,006	-0,059
-636,853	52,906	-0,147	-0,104
-635,838	-200,000	-0,017	0,064
-634,824	-49,318	0,118	-0,042
-633,809	-39,674	0,109	0,042
-632,795	635,893	-0,049	0,093
-631,780	800,000	-0,056	-0,164
-630,765	-95,474	0,196	-0,039
-629,751	-36,685	-0,160	0,063
-628,736	-95,063	-0,097	0,019
-627,722	800,000	-0,045	-0,115
-626,707	-200,000	0,003	-0,035
-625,692	410,182	0,020	-0,031
-624,678	-114,313	0,093	0,013
-623,663	149,544	-0,049	-0,049
-622,649	-10,600	-0,170	0,083
-621,634	497,856	-0,037	-0,063
-620,619	-200,000	-0,024	-0,087
-619,605	-200,000	0,013	-0,051
-618,590	569,036	-0,038	0,068
-617,576	-200,000	0,035	-0,222
-616,561	-200,000	-0,005	0,051
-615,546	261,163	0,079	-0,102
-614,532	-200,000	-0,008	-0,050
-613,517	573,929	0,059	-0,107
-612,503	181,227	-0,084	0,092
-611,488	44,130	-0,043	0,029
-610,474	-200,000	-0,055	0,198
-609,459	800,000	0,035	0,073
-608,444	132,627	-0,128	0,122
-607,430	-73,345	-0,029	-0,008
-606,415	800,000	0,054	-0,112
-605,401	-200,000	-0,003	-0,167
-604,386	-104,526	-0,101	0,017
-603,371	-200,000	0,002	-0,007
-602,357	239,650	0,114	0,141
-601,342	800,000	-0,058	0,165
-600,328	135,107	-0,040	-0,038
-599,313	248,354	-0,088	0,110
-598,298	88,284	-0,014	-0,011
-597,284	59,481	0,073	-0,053
-596,269	-157,378	0,026	-0,001
-595,255	-135,878	-0,066	-0,006
-594,240	-200,000	-0,007	0,046
-593,225	557,282	0,045	-0,081
-592,211	-56,143	-0,085	0,028
-591,196	-200,000	0,022	0,123
-590,182	-200,000	0,008	-0,029
-589,167	-200,000	-0,001	0,080
-588,152	-200,000	0,002	-0,154
-587,138	-34,588	-0,061	-0,025
-586,123	800,000	-0,032	-0,067
-585,109	50,305	-0,064	-0,045
-584,094	153,196	0,088	-0,089
-583,079	93,673	-0,058	-0,049
-582,065	688,027	0,067	-0,130
-581,050	-49,087	-0,114	-0,040
-580,036	-200,000	0,001	0,018
-579,021	-102,081	0,124	0,022
-578,006	800,000	-0,041	0,100
-576,992	227,121	-0,010	0,012
-575,977	-93,742	0,058	0,012
-574,963	-16,177	-0,049	0,023
-573,948	770,036	-0,013	-0,026
-572,934	800,000	0,038	-0,097
-571,919	800,000	0,012	0,038
-570,904	-85,252	-0,112	-0,026
-569,890	75,108	0,072	-0,056
-568,875	-71,069	0,135	0,037
-567,861	-129,493	0,134	-0,014
-566,846	-10,553	-0,039	0,019
-565,831	-200,000	-0,001	0,028
-564,817	3,491	-0,063	-0,034
-563,802	-23,352	-0,025	0,011
-562,788	114,234	-0,018	-0,016
-561,773	22,162	-0,088	0,053
-560,758	-200,000	0,022	0,119
-559,744	-161,143	0,028	-0,001
-558,729	-146,485	0,068	0,004
-557,715	-78,622	-0,106	-0,027
-556,700	60,943	0,048	-0,035
-555,685	-33,125	-0,024	0,010
-554,671	343,012	-0,021	0,031
-553,656	800,000	0,059	-0,158
-552,642	-200,000	0,012	-0,165
-551,627	579,187	0,088	-0,161
-550,612	-200,000	-0,014	-0,068
-549,598	34,253	-0,055	-0,036
-548,583	-200,000	-0,004	-0,126
-547,569	-99,510	-0,079	0,015
-546,554	234,430	0,037	0,045
-545,539	-36,538	-0,048	-0,019
-544,525	-200,000	-0,011	-0,093
-543,510	269,019	-0,061	0,080
-542,496	122,658	-0,091	0,084
-541,481	800,000	0,125	-0,295
-540,466	800,000	0,025	0,075
-539,452	113,766	0,099	-0,089
-538,437	-71,547	0,019	0,005
-537,423	-68,929	0,080	-0,023
-536,408	269,791	-0,026	-0,034
-535,393	-95,175	-0,150	-0,030
-534,379	800,000	0,005	0,012
-533,364	-200,000	-0,009	-0,159
-532,350	104,545	-0,058	0,050
-531,335	800,000	0,029	0,088
-530,321	800,000	0,043	-0,093
-529,306	8,073	-0,140	0,077
-528,291	-200,000	-0,017	-0,092
-527,277	-200,000	-0,045	-0,257
-526,262	-200,000	-0,010	-0,114
-525,248	27,233	0,160	0,099
-524,233	96,427	0,099	0,084
-523,218	-81,520	-0,092	-0,022
-522,204	411,152	0,044	-0,069
-521,189	612,825	-0,042	-0,078
-520,175	74,070	0,045	0,035
-519,160	-200,000	0,020	-0,080
-518,145	118,574	0,040	-0,036
-517,131	-200,000	0,049	0,164
-516,116	-81,166	-0,048	0,012
-515,102	252,028	-0,077	0,097
-514,087	66,429	0,028	-0,021
-513,072	56,119	-0,099	-0,071
-512,058	-111,312	-0,094	-0,014
-511,043	-67,523	0,181	0,052
-510,029	-120,814	0,200	-0,025
-509,014	-89,840	0,034	-0,007
-507,999	-200,000	0,011	0,122
-506,985	800,000	-0,034	0,089
-505,970	139,537	-0,123	-0,119
-504,956	289,184	0,021	0,028
-503,941	-200,000	0,051	0,189
-502,926	-200,000	-0,019	0,082
-501,912	-8,675	0,109	-0,054
-500,897	14,109	-0,072	0,041
-499,883	544,363	-0,052	-0,092
-498,868	-102,263	-0,101	0,018
-497,853	800,000	-0,030	0,084
-496,839	-200,000	0,011	0,076
-495,824	42,010	0,096	0,064
-494,810	800,000	-0,053	0,156
-493,795	33,913	-0,130	-0,083
-492,781	-82,476	0,056	-0,013
-491,766	133,904	0,047	-0,045
-490,751	2,115	-0,026	0,014
-489,737	-200,000	0,008	-0,091
-488,722	-183,414	0,055	0,001
-487,708	463,903	-0,024	0,039
-486,693	-200,000	-0,029	0,122
-485,678	75,736	0,079	0,061
-484,664	253,266	0,096	0,121
-483,649	192,866	0,071	-0,080
-482,635	79,415	-0,028	0,022
-481,620	73,404	0,077	0,060
-480,605	-200,000	0,008	0,086
-479,591	-128,310	-0,125	-0,013
-478,576	268,982	-0,048	-0,062
-477,562	154,091	-0,042	0,043
-476,547	-119,012	0,101	-0,013
-475,532	253,953	0,043	-0,054
-474,518	-118,415	0,057	0,007
-473,503	-200,000	0,020	0,102
-472,489	-200,000	-0,004	-0,072
-471,474	-92,887	0,168	0,034
-470,459	-103,773	-0,177	0,030
-469,445	-200,000	-0,003	-0,018
-468,430	441,856	-0,052	-0,085
-467,416	104,285	-0,017	-0,015
-466,401	-71,952	-0,062	0,017
-465,386	-160,746	0,108	-0,004
-464,372	-200,000	0,028	0,102
-463,357	-106,169	-0,176	-0,029
-462,343	-200,000	0,008	-0,026
-461,328	-89,555	0,078	0,017
-460,313	6,718	0,082	-0,045
-459,299	310,160	-0,047	0,065
-458,284	484,297	0,058	0,098
-457,270	190,516	-0,051	0,056
-456,255	87,680	-0,093	0,076
-455,241	-200,000	-0,021	0,094
-454,226	49,846	-0,145	-0,100
-453,211	800,000	-0,010	-0,026
-452,197	149,023	0,064	-0,063
-451,182	-200,000	0,013	0,087
-450,168	622,770	-0,064	-0,119
-449,153	-145,251	0,016	0,001
-448,138	-200,000	0,010	0,041
-447,124	323,338	0,033	-0,046
-446,109	800,000	-0,027	0,063
-445,095	199,167	0,032	0,036
-444,080	58,750	0,051	-0,037
-443,065	-200,000	-0,008	0,036
-442,051	-200,000	0,020	-0,076
-441,036	-93,861	-0,181	0,036
-440,022	-125,934	0,042	0,005
-439,007	-8,793	-0,023	-0,011
-437,992	-8,937	0,131	-0,065
-436,978	-29,650	0,125	0,052
-435,963	-58,292	-0,127	-0,041
-434,949	100,272	0,097	0,083
-433,934	236,460	-0,066	-0,080
-432,919	800,000	-0,021	-0,053
-431,905	89,977	-0,069	-0,057
-430,890	737,330	-0,024	-0,047
-429,876	-60,660	0,188	0,058
-428,861	-164,005	0,091	-0,003
-427,846	84,914	0,105	0,085
-426,832	-66,775	-0,044	-0,013
-425,817	510,210	-0,025	-0,043
-424,803	-23,866	0,067	0,029
-423,788	150,853	0,010	-0,010
-422,773	-82,405	-0,030	0,007
-421,759	800,000	0,028	0,073
-420,744	-200,000	0,007	-0,034
-419,730	-200,000	0,007	0,096
-418,715	75,823	-0,069	-0,053
-417,701	-200,000	-0,034	-0,144
-416,686	-87,180	0,033	0,007
-415,671	-200,000	0,012	0,074
-414,657	-200,000	0,043	0,158
-413,642	-71,776	0,203	-0,055
-412,628	-200,000	-0,011	0,066
-411,613	-24,263	-0,080	0,035
-410,598	-82,354	0,181	-0,043
-409,584	351,947	0,046	-0,067
-408,569	668,357	-0,032	-0,062
-407,555	-200,000	0,013	-0,124
-406,540	-200,000	0,007	-0,084
-405,525	70,504	0,011	-0,008
-404,511	695,818	-0,053	-0,102
-403,496	290,763	0,016	0,021
-402,482	-11,673	-0,039	0,019
-401,467	-200,000	-0,018	0,172
-400,452	377,513	-0,010	0,015
-399,438	-200,000	0,016	-0,086
-398,423	355,509	-0,043	-0,063
-397,409	60,827	-0,025	0,018
-396,394	-155,573	-0,064	0,003
-395,379	24,581	0,131	-0,079
-394,365	93,127	-0,059	0,049
-393,350	133,441	0,025	0,023
-392,336	800,000	0,051	0,128
-391,321	235,409	0,112	-0,136
-390,306	-200,000	0,002	0,040
-389,292	-90,514	-0,042	-0,009
-388,277	310,365	0,048	-0,066
-387,263	541,186	0,029	-0,050
-386,248	-200,000	0,018	-0,065
-385,233	-200,000	0,028	0,102
-384,219	-200,000	-0,085	0,000
-383,204	-9,221	0,066	-0,032
-382,190	-200,000	-0,026	0,095
-381,175	-88,757	0,115	-0,025
-380,160	800,000	0,011	0,029
-379,146	-156,781	0,100	0,004
-378,131	800,000	-0,036	-0,081
-377,117	-139,951	0,128	-0,010
-376,102	-120,783	0,146	-0,018
-375,088	655,479	0,019	-0,036
-374,073	-32,323	-0,091	-0,037
-373,058	-105,735	0,060	0,010
-372,044	-200,000	0,018	0,119
-371,029	6,217	0,152	-0,083
-370,015	11,463	-0,095	-0,053
-369,000	-200,000	-0,028	-0,132
-367,985	-64,529	-0,015	-0,004
-366,971	-200,000	-0,015	-0,139
-365,956	-114,692	0,049	-0,007
-364,942	88,819	0,062	0,051
-363,927	311,653	-0,042	-0,058
-362,912	-200,000	0,004	-0,150
-361,898	-200,000	0,011	-0,110
-360,883	145,731	0,101	-0,099
-359,869	381,391	-0,108	-0,164
-358,854	-9,672	0,143	0,070
-357,839	-196,527	0,061	0,000
-356,825	211,809	0,060	-0,069
-355,810	800,000	0,024	-0,058
-354,796	-200,000	-0,006	-0,038
-353,781	-151,168	0,076	-0,004
-352,766	-107,260	-0,111	-0,018
-351,752	800,000	0,024	-0,053
-350,737	101,200	0,050	0,042
-349,723	-27,270	0,115	0,049
-348,708	-200,000	-0,011	0,117
-347,693	-50,802	-0,033	-0,011
-346,679	-200,000	0,002	-0,010
-345,664	91,916	0,053	-0,044
-344,650	800,000	0,039	0,094
-343,635	-200,000	0,006	0,151
-342,620	800,000	0,024	0,069
-341,606	281,465	-0,080	0,105
-340,591	211,215	-0,077	0,089
-339,577	7,578	-0,083	0,046
-338,562	800,000	-0,031	-0,090
-337,548	52,892	-0,085	-0,059
-336,533	102,042	0,103	-0,088
-335,518	-200,000	0,015	-0,101
-334,504	-200,000	0,006	-0,081
-333,489	52,774	0,020	-0,014
-332,475	37,492	-0,026	-0,017
-331,460	800,000	0,059	-0,126
-330,445	-40,615	-0,040	0,015
-329,431	-200,000	0,009	0,060
-328,416	-200,000	-0,037	0,212
-327,402	-103,763	-0,083	-0,014
-326,387	-141,964	0,079	-0,006
-325,372	-136,863	-0,046	0,004
-324,358	798,059	0,052	-0,105
-323,343	-71,487	0,055	0,015
-322,329	-200,000	0,003	-0,048
-321,314	-200,000	0,015	0,138
-320,299	-97,289	0,069	-0,013
-319,285	68,571	-0,072	0,054
-318,270	-89,362	0,087	-0,019
-317,256	-41,753	-0,067	-0,025
-316,241	41,028	-0,111	-0,074
-315,226	-200,000	-0,005	0,143
-314,212	800,000	0,043	0,102
-313,197	438,551	0,071	0,114
-312,183	95,210	-0,107	0,089
-311,168	-200,000	-0,027	-0,194
-310,153	800,000	-0,067	-0,165
-309,139	246,374	-0,077	-0,095
-308,124	27,839	-0,082	0,050
-307,110	76,348	0,110	0,085
-306,095	-28,188	-0,043	-0,018
-305,080	-53,788	0,061	-0,020
-304,066	-25,030	-0,041	0,018
-303,051	800,000	0,034	0,079
-302,037	-21,944	0,060	0,026
-301,022	-200,000	0,009	0,051
-300,008	-200,000	-0,004	-0,211
-298,993	222,657	0,049	0,058
-297,978	305,613	-0,079	0,107
-296,964	-200,000	-0,017	-0,074
-295,949	-22,071	0,066	-0,029
-294,935	-200,000	0,000	-0,028
-293,920	72,770	0,078	0,060
-292,905	-200,000	-0,031	0,143
-291,891	742,053	-0,029	0,058
-290,876	-200,000	0,010	-0,065
-289,862	-200,000	0,007	0,043
-288,847	264,841	-0,042	-0,054
-287,832	226,747	0,069	0,082
-286,818	14,874	0,051	-0,029
-285,803	-81,192	-0,145	-0,035
-284,789	-7,563	0,059	0,029
-283,774	-200,000	0,020	0,099
-282,759	412,138	-0,020	-0,030
-281,745	239,367	-0,094	-0,115
-280,730	160,725	0,041	-0,042
-279,716	-16,906	0,034	-0,016
-278,701	-200,000	-0,017	0,071
-277,686	-172,690	0,109	-0,002
-276,672	-76,769	-0,026	-0,007
-275,657	800,000	-0,041	-0,110
-274,643	-5,095	-0,118	0,059
-273,628	-200,000	0,038	0,126
-272,613	52,867	-0,049	-0,034
-271,599	-200,000	-0,005	0,062
-270,584	-200,000	0,016	0,149
-269,570	68,110	-0,103	0,077
-268,555	800,000	0,016	0,044
-267,540	-66,160	-0,159	0,046
-266,526	-110,009	-0,070	0,011
-265,511	178,403	-0,153	0,163
-264,497	133,522	-0,051	0,048
-263,482	15,923	0,152	-0,087
-262,467	800,000	-0,036	-0,081
-261,453	-38,174	-0,141	-0,054
-260,438	92,479	0,062	0,051
-259,424	293,986	0,040	0,053
-258,409	206,458	-0,070	-0,079
-257,395	-200,000	-0,020	0,142
-256,380	350,319	0,014	0,020
-255,365	22,995	-0,124	0,074
-254,351	-200,000	-0,009	0,061
-253,336	-85,681	-0,099	-0,022
-252,322	64,664	-0,088	0,065
-251,307	800,000	-0,015	0,045
-250,292	800,000	-0,064	0,138
-249,278	-175,919	0,047	0,001
-248,263	-200,000	-0,001	0,128
-247,249	57,697	-0,055	-0,039
-246,234	-138,950	-0,097	-0,008
-245,219	800,000	0,063	0,139
-244,205	-200,000	0,028	-0,117
-243,190	162,745	0,024	0,024
-242,176	-200,000	-0,033	0,141
-241,161	-93,391	-0,131	-0,026
-240,146	328,895	0,053	0,075
-239,132	-200,000	0,005	0,118
-238,117	-200,000	-0,018	0,171
-237,103	513,299	0,035	-0,059
-236,088	800,000	0,062	-0,130
-235,073	-0,118	-0,051	-0,026
-234,059	36,771	-0,037	0,024
-233,044	314,829	0,065	0,090
-232,030	718,097	-0,038	0,075
-231,015	800,000	-0,011	0,031
-230,000	-121,720	-0,103	0,012
-228,986	-200,000	-0,000	-0,065
-227,971	155,719	0,013	0,013
-226,957	274,507	-0,084	0,109
-225,942	-10,553	0,036	-0,017
-224,927	221,459	0,069	-0,081
-223,913	-70,022	0,051	0,014
-222,898	800,000	-0,060	-0,161
-221,884	800,000	-0,041	-0,089
-220,869	800,000	-0,037	0,089
-219,855	7,154	-0,037	0,020
-218,840	-49,480	0,036	-0,012
-217,825	-30,211	0,047	-0,019
-216,811	-200,000	-0,009	0,039
-215,796	-161,977	0,062	0,002
-214,782	432,117	-0,095	-0,150
-213,767	800,000	0,027	0,067
-212,752	11,496	0,083	0,046
-211,738	-47,328	0,098	0,035
-210,723	-200,000	0,004	0,213
-209,709	299,061	0,031	-0,042
-208,694	103,381	-0,113	-0,096
-207,679	-200,000	-0,003	0,038
-206,665	-200,000	0,029	0,138
-205,650	236,299	-0,039	-0,048
-204,636	-76,192	0,031	-0,008
-203,621	667,210	-0,011	-0,021
-202,606	349,365	0,072	0,103
-201,592	-149,718	0,026	0,001
-200,577	170,458	0,053	-0,055
-199,563	52,874	-0,111	-0,077
-198,548	-43,618	0,108	-0,039
-197,533	-200,000	0,037	-0,159
-196,519	-200,000	-0,028	-0,130
-195,504	73,983	0,025	-0,019
-194,490	-55,407	-0,076	0,025
-193,475	-136,414	-0,014	0,001
-192,460	120,926	0,029	0,027
-191,446	753,398	-0,033	0,066
-190,431	-159,970	-0,045	0,002
-189,417	278,309	0,084	-0,109
-188,402	457,193	0,066	-0,107
-187,387	-36,427	-0,080	0,031
-186,373	175,961	-0,046	0,048
-185,358	94,828	0,116	-0,096
-184,344	123,724	-0,080	0,073
-183,329	183,336	0,063	-0,068
-182,315	-200,000	0,003	0,082
-181,300	682,498	0,066	0,126
-180,285	-200,000	-0,019	0,070
-179,271	742,333	-0,062	0,121
-178,256	800,000	0,016	-0,047
-177,242	-46,952	0,161	0,057
-176,227	-200,000	0,006	0,041
-175,212	-200,000	0,019	0,100
-174,198	656,945	0,042	-0,079
-173,183	-200,000	-0,005	-0,017
-172,169	177,256	0,030	-0,032
-171,154	800,000	-0,029	0,078
-170,139	-72,710	0,097	-0,026
-169,125	-200,000	0,028	0,095
-168,110	800,000	0,055	0,144
-167,096	113,152	0,103	0,091
-166,081	433,074	-0,060	0,095
-165,066	-200,000	0,003	0,054
-164,052	500,120	0,024	-0,041
-163,037	136,831	-0,085	0,081
-162,023	-105,867	-0,050	-0,008
-161,008	94,899	0,062	-0,051
-159,993	-200,000	0,013	-0,070
-158,979	-200,000	0,006	-0,029
-157,964	-53,908	-0,115	-0,038
-156,950	-200,000	0,009	-0,058
-155,935	-97,001	-0,089	0,017
-154,920	88,586	-0,081	-0,066
-153,906	-1,680	-0,011	0,006
-152,891	800,000	-0,025	-0,065
-151,877	-64,556	-0,103	-0,030
-150,862	-31,957	0,110	0,045
-149,847	-9,984	-0,103	-0,050
-148,833	-91,966	0,057	-0,012
-147,818	800,000	0,027	0,079
-146,804	800,000	-0,050	0,143
-145,789	800,000	-0,025	0,053
-144,775	800,000	-0,030	-0,072
-143,760	-86,721	0,053	0,012
-142,745	-200,000	-0,020	-0,109
-141,731	146,930	-0,075	-0,074
-140,716	-200,000	-0,012	0,050
-139,702	-200,000	-0,027	0,138
-138,687	800,000	0,012	0,036
-137,672	239,031	-0,042	0,051
-136,658	-200,000	-0,004	-0,091
-135,643	-31,996	-0,127	0,051
-134,629	-145,023	0,039	-0,003
-133,614	98,345	-0,017	-0,014
-132,599	166,961	-0,047	-0,048
-131,585	-200,000	0,002	0,139
-130,570	-14,389	-0,068	-0,032
-129,556	800,000	0,041	-0,117
-128,541	800,000	-0,061	-0,184
-127,526	59,747	-0,025	-0,018
-126,512	-0,385	0,031	-0,016
-125,497	-200,000	-0,009	0,135
-124,483	800,000	0,019	-0,061
-123,468	-8,761	-0,027	-0,013
-122,453	320,183	0,034	-0,046
-121,439	-13,138	0,103	-0,049
-120,424	175,274	0,164	-0,172
