DTS Sentinel unit serial number:	SN410029Multiplexer serial number:	ORYXHardware model number:	OX2-SRSoftware version number:	ORYX F/W v4,00 Oryx Data Collector v3.7.2.0data status	okinstallation	B6 Nyhavnadifferential loss correction	single-endedforward channel	channel 2reverse channel	N/Adate	2023/12/07time	12:15:08forward acquisition time	300,00reverse acquisition time	0,00gamma	499,1914k internal	0,3203k external	0,3203temperature offset calibration	1,0000default loss term (dB/km)	0,3820temperature slope calibration	1,0000multiplexer offset coefficient	1,0000multiplexer slope coefficient	1,0000fibre end	0,00T internal ref (°C)	9,78T ext. ref 1 (°C)	-3,91T ext. ref 2 (°C)	-3,88length (m)	temperature (°C)	Stokes	anti-Stokes-744,400	800,000	0,040	0,103
-743,385	51,830	-0,277	-0,192
-742,371	-7,364	0,165	0,081
-741,356	-107,002	-0,305	-0,048
-740,342	-120,008	0,042	0,005
-739,327	-41,350	-0,377	-0,140
-738,312	743,246	0,122	0,239
-737,298	-50,549	-0,297	-0,101
-736,283	134,050	0,110	0,103
-735,269	-129,659	-0,471	0,047
-734,254	46,021	0,173	0,116
-733,239	-39,778	-0,616	-0,233
-732,225	-37,354	0,328	0,127
-731,210	-103,136	0,101	-0,017
-730,196	-200,000	0,002	-0,016
-729,181	-26,304	-0,099	-0,042
-728,167	-164,907	-0,063	-0,002
-727,152	-200,000	0,001	-0,041
-726,137	-91,440	-0,253	0,052
-725,123	800,000	-0,014	0,037
-724,108	213,824	-0,073	-0,084
-723,094	118,989	-0,158	-0,142
-722,079	-84,177	0,135	-0,031
-721,064	-12,706	0,053	0,025
-720,050	-75,370	0,097	-0,025
-719,035	-100,232	-0,037	-0,007
-718,021	-200,000	-0,037	-0,138
-717,006	136,859	-0,101	-0,096
-715,991	-200,000	-0,037	-0,204
-714,977	800,000	-0,055	-0,129
-713,962	-47,038	0,084	-0,030
-712,948	525,388	-0,056	0,095
-711,933	-200,000	0,028	-0,110
-710,918	-200,000	-0,036	0,127
-709,904	800,000	0,036	0,074
-708,889	221,610	-0,072	0,084
-707,875	587,708	0,085	-0,153
-706,860	800,000	-0,007	-0,016
-705,845	800,000	0,007	-0,021
-704,831	800,000	-0,019	0,055
-703,816	-200,000	-0,027	0,087
-702,802	-54,261	-0,057	-0,019
-701,787	-63,056	0,024	-0,007
-700,772	43,677	-0,025	-0,016
-699,758	520,738	-0,015	0,026
-698,743	-52,606	0,062	-0,021
-697,729	-104,825	-0,089	0,015
-696,714	-200,000	0,001	-0,061
-695,699	800,000	-0,105	-0,216
-694,685	-200,000	-0,019	-0,140
-693,670	-95,826	-0,045	-0,009
-692,656	-200,000	-0,001	0,075
-691,641	219,903	0,049	-0,057
-690,627	145,974	-0,021	0,020
-689,612	168,995	0,090	0,093
-688,597	-200,000	-0,009	-0,037
-687,583	109,062	-0,045	-0,039
-686,568	-129,976	0,087	-0,009
-685,554	-200,000	0,011	-0,078
-684,539	-200,000	-0,050	0,165
-683,524	-200,000	-0,005	0,158
-682,510	-68,888	-0,037	-0,010
-681,495	529,858	0,014	0,024
-680,481	-102,359	0,049	-0,008
-679,466	72,927	-0,136	-0,103
-678,451	-62,017	-0,094	-0,028
-677,437	634,397	0,024	0,044
-676,422	-116,725	0,109	-0,014
-675,408	-29,099	-0,030	0,012
-674,393	83,715	0,087	-0,069
-673,378	-129,826	-0,151	0,015
-672,364	-42,548	-0,078	-0,029
-671,349	-113,112	0,022	0,003
-670,335	-86,807	-0,064	0,014
-669,320	5,391	-0,160	0,085
-668,305	-200,000	-0,031	0,102
-667,291	800,000	0,028	0,086
-666,276	-146,926	-0,082	-0,005
-665,262	763,348	0,015	0,029
-664,247	66,157	-0,153	-0,112
-663,232	0,633	0,016	-0,008
-662,218	481,194	-0,084	0,138
-661,203	-200,000	0,004	-0,019
-660,189	-64,343	-0,083	0,024
-659,174	-162,920	-0,055	0,002
-658,159	120,013	-0,011	-0,010
-657,145	-200,000	0,002	0,068
-656,130	-75,798	-0,047	-0,012
-655,116	-200,000	0,011	0,081
-654,101	-200,000	0,010	0,133
-653,086	-37,382	0,086	0,033
-652,072	-161,639	-0,039	0,001
-651,057	-200,000	-0,018	-0,123
-650,043	7,150	0,074	0,040
-649,028	800,000	0,073	-0,161
-648,014	-19,232	0,107	0,048
-646,999	-13,214	-0,040	0,019
-645,984	-200,000	-0,002	0,088
-644,970	292,364	0,020	-0,026
-643,955	147,540	-0,021	-0,020
-642,941	800,000	0,031	0,086
-641,926	722,491	-0,019	-0,036
-640,911	152,768	-0,147	0,146
-639,897	800,000	0,028	0,087
-638,882	389,788	0,109	0,164
-637,868	-50,205	-0,104	-0,035
-636,853	-200,000	0,025	-0,087
-635,838	146,499	-0,098	-0,095
-634,824	152,240	-0,081	-0,080
-633,809	-200,000	-0,007	0,076
-632,795	7,508	-0,197	-0,107
-631,780	134,942	0,004	0,004
-630,765	-58,627	-0,083	-0,026
-629,751	-140,140	-0,067	0,005
-628,736	221,124	-0,089	0,104
-627,722	800,000	-0,038	0,077
-626,707	800,000	-0,020	0,043
-625,692	-162,295	-0,063	-0,002
-624,678	-200,000	-0,026	0,091
-623,663	230,494	-0,111	0,132
-622,649	-200,000	-0,004	0,044
-621,634	800,000	-0,025	-0,071
-620,619	105,121	-0,096	-0,082
-619,605	-200,000	0,011	0,037
-618,590	-78,754	0,089	0,022
-617,576	230,313	-0,049	0,058
-616,561	-76,723	-0,120	-0,030
-615,546	85,317	0,064	0,051
-614,532	800,000	-0,020	0,050
-613,517	-22,895	0,054	-0,024
-612,503	800,000	0,017	-0,051
-611,488	301,788	-0,038	0,051
-610,474	195,139	0,081	-0,089
-609,459	-76,980	-0,115	-0,029
-608,444	252,954	-0,053	0,066
-607,430	85,468	-0,057	-0,045
-606,415	38,609	0,052	-0,034
-605,401	-115,148	-0,033	0,004
-604,386	-195,726	-0,012	0,000
-603,371	-43,611	-0,052	0,019
-602,357	-18,675	-0,048	0,021
-601,342	-200,000	-0,021	-0,118
-600,328	-200,000	-0,021	-0,172
-599,313	465,595	-0,037	0,060
-598,298	-121,476	0,126	0,015
-597,284	-51,897	-0,131	0,044
-596,269	47,657	-0,007	0,005
-595,255	394,246	-0,101	-0,153
-594,240	198,257	0,081	0,089
-593,225	641,296	-0,043	-0,079
-592,211	662,185	-0,114	-0,213
-591,196	-10,102	0,070	0,033
-590,182	-11,916	0,152	-0,072
-589,167	-171,255	0,167	-0,004
-588,152	-65,675	-0,045	0,013
-587,138	800,000	-0,027	0,060
-586,123	10,665	-0,108	-0,059
-585,109	301,221	0,009	-0,012
-584,094	-64,163	0,148	-0,043
-583,079	-186,548	-0,132	0,001
-582,065	124,167	-0,043	0,039
-581,050	-55,020	0,068	0,022
-580,036	-123,982	0,096	-0,011
-579,021	160,790	-0,114	0,115
-578,006	62,408	-0,052	-0,038
-576,992	222,568	-0,034	0,040
-575,977	-200,000	-0,001	-0,084
-574,963	-200,000	0,029	-0,112
-573,948	-200,000	0,006	0,083
-572,934	-200,000	0,000	-0,015
-571,919	-200,000	0,019	0,060
-570,904	-200,000	-0,009	0,120
-569,890	-62,549	-0,111	-0,033
-568,875	190,309	0,112	0,122
-567,861	179,580	-0,071	0,075
-566,846	227,854	-0,058	0,068
-565,831	8,046	-0,054	0,029
-564,817	55,813	0,092	-0,064
-563,802	289,613	-0,023	-0,030
-562,788	18,938	-0,055	-0,032
-561,773	-45,021	0,085	0,031
-560,758	-128,291	0,055	-0,006
-559,744	-200,000	-0,038	-0,141
-558,729	474,108	-0,026	0,042
-557,715	2,113	-0,190	-0,099
-556,700	-123,205	-0,135	0,015
-555,685	-9,076	-0,115	-0,055
-554,671	380,111	0,050	-0,074
-553,656	800,000	-0,021	0,043
-552,642	62,528	0,103	0,074
-551,627	-117,723	-0,022	-0,003
-550,612	-66,075	-0,032	-0,009
-549,598	265,840	0,075	0,095
-548,583	-200,000	-0,014	0,134
-547,569	800,000	0,013	0,026
-546,554	-200,000	0,002	0,064
-545,539	230,299	0,056	0,067
-544,525	68,243	0,044	0,032
-543,510	97,049	0,015	-0,013
-542,496	69,955	0,031	-0,023
-541,481	56,859	-0,054	-0,038
-540,466	61,808	-0,051	-0,036
-539,452	-34,746	-0,041	0,016
-538,437	-27,314	0,165	-0,069
-537,423	91,567	-0,022	0,018
-536,408	-129,248	0,078	-0,008
-535,393	-63,774	-0,086	-0,025
-534,379	-200,000	-0,015	0,059
-533,364	-12,717	-0,106	-0,049
-532,350	391,134	0,036	-0,053
-531,335	-200,000	-0,040	0,163
-530,321	351,339	0,037	-0,053
-529,306	-89,319	-0,068	0,014
-528,291	22,968	-0,017	0,010
-527,277	-200,000	-0,021	-0,094
-526,262	156,654	0,022	-0,022
-525,248	-105,992	0,067	0,011
-524,233	-200,000	0,006	0,040
-523,218	-200,000	-0,009	0,060
-522,204	-200,000	0,016	-0,106
-521,189	-20,590	0,018	0,008
-520,175	169,426	-0,072	0,074
-519,160	-200,000	0,001	0,040
-518,145	197,662	0,069	0,076
-517,131	15,293	0,070	0,039
-516,116	800,000	-0,030	-0,072
-515,102	-200,000	-0,005	0,027
-514,087	588,144	-0,053	-0,094
-513,072	48,964	0,059	0,040
-512,058	-130,195	-0,044	0,004
-511,043	43,675	0,041	0,027
-510,029	10,082	0,047	0,026
-509,014	-173,708	0,111	0,002
-507,999	169,661	-0,115	0,118
-506,985	332,029	0,047	-0,065
-505,970	282,133	-0,033	0,043
-504,956	262,652	0,006	-0,008
-503,941	-200,000	-0,001	-0,073
-502,926	288,627	0,065	0,085
-501,912	464,398	0,057	-0,092
-500,897	-200,000	-0,006	-0,038
-499,883	654,681	0,022	0,040
-498,868	-92,422	-0,159	0,032
-497,853	-200,000	-0,007	-0,061
-496,839	62,356	0,162	0,117
-495,824	-162,513	-0,128	0,004
-494,810	800,000	0,021	-0,057
-493,795	-47,468	0,082	0,028
-492,781	800,000	-0,062	-0,127
-491,766	-63,437	0,137	0,040
-490,751	-78,028	-0,146	-0,036
-489,737	-105,569	0,075	-0,012
-488,722	-98,590	-0,083	-0,015
-487,708	47,680	0,050	-0,033
-486,693	-94,958	-0,050	0,010
-485,678	-181,346	0,061	-0,001
-484,664	-200,000	-0,035	-0,149
-483,649	585,364	-0,081	-0,143
-482,635	-200,000	-0,003	0,011
-481,620	-200,000	-0,002	0,013
-480,605	-60,349	0,116	-0,035
-479,591	25,405	0,141	0,084
-478,576	189,853	-0,126	-0,137
-477,562	471,820	-0,049	0,079
-476,547	102,076	0,067	-0,056
-475,532	177,261	-0,104	0,110
-474,518	125,813	0,148	0,135
-473,503	-132,078	0,197	0,018
-472,489	-200,000	-0,026	-0,097
-471,474	-200,000	-0,002	0,010
-470,459	-37,349	-0,088	-0,034
-469,445	-31,293	-0,070	-0,028
-468,430	75,629	0,114	-0,086
-467,416	270,779	0,027	0,035
-466,401	-23,441	0,035	0,015
-465,386	145,176	0,083	-0,080
-464,372	-71,777	-0,122	0,033
-463,357	-78,184	0,123	0,030
-462,343	-72,228	-0,070	-0,018
-461,328	-124,720	0,043	0,005
-460,313	-200,000	-0,006	-0,077
-459,299	620,463	0,019	0,034
-458,284	79,015	0,018	0,014
-457,270	-34,125	0,113	0,044
-456,255	-12,443	0,169	-0,079
-455,241	326,334	0,054	-0,075
-454,226	176,429	0,035	-0,036
-453,211	9,110	-0,085	-0,046
-452,197	-200,000	-0,030	0,096
-451,182	-145,732	0,040	0,003
-450,168	-200,000	0,000	-0,002
-449,153	397,951	-0,022	-0,033
-448,138	504,203	-0,038	-0,064
-447,124	657,656	0,013	0,025
-446,109	800,000	-0,051	-0,109
-445,095	272,063	0,039	0,049
-444,080	11,486	0,075	0,041
-443,065	86,400	0,064	0,051
-442,051	-55,054	-0,112	-0,036
-441,036	-200,000	-0,005	-0,028
-440,022	-65,162	-0,023	-0,007
-439,007	-9,259	0,115	0,055
-437,992	-92,569	-0,114	-0,023
-436,978	800,000	-0,018	0,043
-435,963	800,000	0,047	0,093
-434,949	109,872	-0,177	-0,153
-433,934	-11,294	0,069	-0,033
-432,919	-200,000	0,004	-0,048
-431,905	-141,445	0,100	-0,007
-430,890	-102,214	-0,017	0,003
-429,876	162,118	0,042	0,042
-428,861	800,000	0,023	-0,047
-427,846	146,568	-0,076	0,073
-426,832	238,615	-0,074	-0,089
-425,817	-112,192	-0,115	-0,016
-424,803	-200,000	-0,010	-0,171
-423,788	800,000	-0,008	0,022
-422,773	-200,000	-0,008	0,049
-421,759	-71,865	-0,122	-0,032
-420,744	800,000	-0,037	0,084
-419,730	-141,662	-0,075	-0,005
-418,715	132,655	-0,124	0,115
-417,701	116,701	-0,023	-0,020
-416,686	171,847	0,117	0,121
-415,671	563,490	0,064	0,112
-414,657	658,454	-0,039	0,072
-413,642	56,474	-0,022	0,015
-412,628	236,276	0,109	0,130
-411,613	125,600	-0,053	0,048
-410,598	800,000	0,021	-0,061
-409,584	78,312	-0,016	-0,013
-408,569	-54,668	0,143	-0,046
-407,555	-200,000	-0,010	-0,092
-406,540	-58,932	-0,034	0,010
-405,525	344,169	0,039	-0,054
-404,511	164,963	-0,091	-0,092
-403,496	-200,000	0,021	-0,099
-402,482	90,408	0,108	0,086
-401,467	42,819	0,058	0,038
-400,452	800,000	-0,040	0,123
-399,438	0,359	-0,040	-0,021
-398,423	-60,012	-0,134	-0,041
-397,409	-40,776	0,097	-0,036
-396,394	-200,000	0,012	0,050
-395,379	599,954	0,052	0,094
-394,365	800,000	0,044	-0,094
-393,350	173,697	0,035	-0,036
-392,336	349,922	0,082	-0,117
-391,321	-200,000	-0,017	-0,068
-390,306	531,107	-0,013	-0,023
-389,292	-200,000	-0,036	-0,138
-388,277	-119,377	0,085	0,011
-387,263	-200,000	-0,016	-0,081
-386,248	-171,201	0,143	0,003
-385,233	98,522	-0,082	-0,068
-384,219	247,195	0,095	0,116
-383,204	-200,000	-0,040	0,136
-382,190	-75,614	0,033	-0,008
-381,175	-33,628	-0,118	0,046
-380,160	-97,854	-0,050	-0,009
-379,146	800,000	-0,031	-0,094
-378,131	588,668	0,020	0,036
-377,117	181,762	-0,039	0,042
-376,102	583,153	-0,047	-0,083
-375,088	-179,799	0,241	0,004
-374,073	564,344	-0,019	-0,034
-373,058	-200,000	-0,027	-0,088
-372,044	388,134	0,066	0,098
-371,029	23,789	0,098	0,058
-370,015	-193,644	0,068	-0,000
-369,000	253,473	0,030	-0,037
-367,985	800,000	0,022	0,054
-366,971	13,823	-0,042	0,023
-365,956	-200,000	0,007	-0,053
-364,942	48,151	0,225	-0,150
-363,927	-200,000	0,034	0,116
-362,912	-86,864	-0,192	-0,042
-361,898	4,309	-0,070	-0,037
-360,883	-200,000	-0,008	0,093
-359,869	134,544	-0,067	-0,062
-358,854	800,000	-0,012	-0,035
-357,839	-121,726	-0,088	-0,010
-356,825	110,803	-0,136	-0,117
-355,810	800,000	0,036	-0,071
-354,796	-200,000	0,002	-0,135
-353,781	-79,001	-0,117	-0,028
-352,766	-200,000	0,020	-0,066
-351,752	-109,388	-0,101	0,015
-350,737	-200,000	0,006	0,124
-349,723	411,906	-0,065	0,100
-348,708	50,101	0,050	0,034
-347,693	-130,199	-0,042	-0,004
-346,679	595,080	-0,026	-0,046
-345,664	800,000	0,046	-0,112
-344,650	-24,402	-0,094	0,040
-343,635	-200,000	0,032	0,103
-342,620	800,000	0,034	0,071
-341,606	121,046	0,025	-0,023
-340,591	-200,000	-0,007	0,054
-339,577	607,435	-0,074	-0,132
-338,562	-17,630	-0,077	0,034
-337,548	-54,164	-0,024	0,008
-336,533	264,851	0,098	0,123
-335,518	189,066	0,055	0,059
-334,504	383,708	0,029	0,043
-333,489	-200,000	0,005	0,069
-332,475	-200,000	0,017	-0,262
-331,460	-110,962	-0,145	0,021
-330,445	204,920	0,078	0,087
-329,431	149,172	0,163	-0,158
-328,416	4,227	-0,037	0,019
-327,402	800,000	0,057	0,125
-326,387	800,000	-0,045	0,099
-325,372	-133,501	-0,067	0,006
-324,358	-115,232	0,079	-0,011
-323,343	207,234	0,079	-0,088
-322,329	-117,482	-0,022	-0,003
-321,314	122,441	0,136	0,122
-320,299	800,000	-0,024	-0,061
-319,285	706,613	-0,059	0,112
-318,270	-200,000	0,033	0,112
-317,256	13,948	-0,121	0,067
-316,241	800,000	0,024	0,066
-315,226	-200,000	0,002	0,104
-314,212	-173,763	0,076	0,002
-313,197	502,761	-0,093	0,154
-312,183	287,105	0,039	0,050
-311,168	256,953	0,019	0,023
-310,153	-200,000	-0,021	-0,107
-309,139	800,000	0,071	-0,166
-308,124	255,019	0,039	-0,048
-307,110	84,251	-0,057	0,045
-306,095	-78,907	0,205	0,049
-305,080	39,158	-0,054	0,034
-304,066	-200,000	-0,013	0,083
-303,051	698,176	0,018	0,034
-302,037	800,000	-0,011	0,028
-301,022	800,000	0,026	-0,082
-300,008	-200,000	-0,004	0,098
-298,993	800,000	0,042	-0,092
-297,978	-106,281	-0,101	-0,016
-296,964	-179,984	-0,165	-0,002
-295,949	-144,675	0,116	0,008
-294,935	-200,000	-0,031	-0,230
-293,920	32,192	-0,046	0,028
-292,905	-200,000	0,007	0,071
-291,891	610,551	0,011	0,020
-290,876	-200,000	-0,008	-0,085
-289,862	-106,070	0,079	-0,013
-288,847	800,000	-0,016	-0,037
-287,832	-200,000	0,012	-0,079
-286,818	-3,734	0,038	-0,019
-285,803	800,000	0,016	0,046
-284,789	126,614	-0,085	0,077
-283,774	141,468	0,090	0,085
-282,759	58,036	-0,092	0,065
-281,745	625,224	0,033	-0,060
-280,730	-78,192	0,136	-0,033
-279,716	48,670	0,040	-0,027
-278,701	-200,000	-0,025	0,098
-277,686	18,627	0,028	0,016
-276,672	-200,000	0,018	0,099
-275,657	-124,710	0,084	-0,009
-274,643	-134,102	-0,096	0,008
-273,628	800,000	-0,016	-0,032
-272,613	27,959	-0,057	0,034
-271,599	330,840	0,071	0,098
-270,584	-41,477	0,065	0,024
-269,570	370,543	0,074	0,107
-268,555	-200,000	0,017	-0,087
-267,540	93,068	0,144	-0,116
-266,526	-8,608	-0,081	-0,039
-265,511	-200,000	-0,008	0,084
-264,497	-147,358	0,113	0,007
-263,482	-98,750	0,098	0,018
-262,467	324,736	-0,048	0,065
-261,453	517,952	0,022	0,036
-260,438	266,652	0,050	-0,062
-259,424	-200,000	0,037	-0,129
-258,409	-154,509	0,115	-0,005
-257,395	-200,000	0,029	0,125
-256,380	129,247	0,023	-0,021
-255,365	-190,226	0,119	-0,001
-254,351	-200,000	-0,009	-0,084
-253,336	687,055	-0,038	-0,071
-252,322	800,000	-0,019	0,057
-251,307	57,209	0,064	0,045
-250,292	800,000	0,013	-0,032
-249,278	-200,000	0,002	-0,117
-248,263	-200,000	-0,004	-0,034
-247,249	478,901	0,055	0,090
-246,234	-200,000	-0,019	0,114
-245,219	36,607	0,052	0,033
-244,205	-126,310	0,119	-0,013
-243,190	-200,000	-0,019	0,077
-242,176	77,465	0,057	-0,043
-241,161	183,375	0,015	-0,016
-240,146	-32,733	-0,105	0,042
-239,132	77,850	0,057	0,043
-238,117	-200,000	0,002	-0,117
-237,103	84,122	-0,053	-0,042
-236,088	-200,000	-0,001	-0,023
-235,073	-22,581	0,128	0,055
-234,059	-77,614	-0,124	0,030
-233,044	-81,336	0,073	-0,017
-232,030	13,669	0,066	-0,036
-231,015	-52,742	-0,046	0,015
-230,000	-200,000	-0,024	-0,126
-228,986	-200,000	0,024	-0,115
-227,971	-74,758	0,063	0,016
-226,957	-200,000	0,029	0,095
-225,942	159,737	0,056	-0,055
-224,927	39,515	-0,146	-0,093
-223,913	44,089	0,056	-0,036
-222,898	-200,000	0,021	-0,069
-221,884	147,788	0,066	0,064
-220,869	-200,000	0,021	-0,144
-219,855	-148,075	0,113	-0,007
-218,840	-30,035	-0,098	0,039
-217,825	627,462	-0,022	0,040
-216,811	-200,000	-0,014	0,172
-215,796	-145,245	0,052	-0,003
-214,782	257,959	-0,075	0,092
-213,767	800,000	0,015	-0,039
-212,752	377,203	0,023	-0,034
-211,738	-77,411	-0,084	-0,021
-210,723	585,648	0,057	-0,100
-209,709	-200,000	-0,015	-0,074
-208,694	265,619	-0,135	0,168
-207,679	-200,000	0,010	-0,117
-206,665	800,000	0,041	0,124
-205,650	-200,000	-0,011	0,104
-204,636	599,829	0,017	0,031
-203,621	46,624	0,149	0,098
-202,606	-83,545	-0,098	0,022
-201,592	46,671	-0,052	0,034
-200,577	374,679	-0,048	0,070
-199,563	127,374	0,116	-0,105
-198,548	186,722	-0,082	-0,087
-197,533	513,159	0,043	0,072
-196,519	800,000	-0,014	-0,040
-195,504	13,254	-0,073	-0,040
-194,490	-25,757	-0,114	-0,048
-193,475	-200,000	0,046	-0,160
-192,460	800,000	0,009	-0,024
-191,446	332,675	0,069	0,094
-190,431	-20,283	0,122	0,053
-189,417	-86,667	-0,050	-0,011
-188,402	351,723	0,051	0,072
-187,387	120,930	-0,101	-0,089
-186,373	97,264	-0,054	-0,044
-185,358	800,000	-0,035	-0,090
-184,344	-200,000	0,003	0,031
-183,329	-84,465	0,119	-0,026
-182,315	2,144	-0,102	-0,052
-181,300	800,000	-0,024	0,049
-180,285	-200,000	-0,003	-0,025
-179,271	61,177	-0,021	0,015
-178,256	-36,646	0,105	-0,040
-177,242	-23,759	-0,014	-0,006
-176,227	800,000	-0,054	0,154
-175,212	-200,000	0,010	0,073
-174,198	440,115	0,038	-0,059
-173,183	800,000	0,014	-0,040
-172,169	-58,867	-0,032	0,010
-171,154	-65,054	-0,179	0,051
-170,139	800,000	0,053	0,118
-169,125	-200,000	0,006	0,028
-168,110	800,000	-0,041	0,110
-167,096	-200,000	-0,012	-0,115
-166,081	-200,000	-0,003	-0,042
-165,066	122,700	-0,130	-0,116
-164,052	374,591	0,087	-0,126
-163,037	-161,364	0,082	0,003
-162,023	-200,000	0,000	0,033
-161,008	-200,000	-0,001	-0,039
-159,993	34,660	0,028	0,017
-158,979	198,665	-0,020	-0,022
-157,964	800,000	-0,055	0,170
-156,950	-200,000	-0,013	-0,096
-155,935	-152,024	-0,041	0,002
-154,920	579,336	-0,036	-0,063
-153,906	-200,000	0,005	0,098
-152,891	-80,389	-0,168	-0,040
-151,877	61,020	0,044	0,031
-150,862	-200,000	0,005	0,066
-149,847	-116,952	0,092	-0,012
-148,833	-103,517	-0,183	-0,030
-147,818	-200,000	0,016	0,052
-146,804	-59,670	0,098	-0,030
-145,789	415,104	-0,026	-0,039
-144,775	14,923	0,101	0,056
-143,760	44,319	0,061	0,039
-142,745	-200,000	0,006	0,042
-141,731	-200,000	0,009	-0,126
-140,716	800,000	0,021	0,048
-139,702	-200,000	0,003	0,077
-138,687	-40,767	-0,030	-0,011
-137,672	-90,843	0,035	-0,007
-136,658	188,402	-0,027	0,029
-135,643	-200,000	-0,006	-0,076
-134,629	77,307	0,061	-0,046
-133,614	272,174	0,125	0,156
-132,599	267,767	0,038	0,047
-131,585	743,951	0,040	0,076
-130,570	-200,000	0,012	-0,075
-129,556	-170,889	-0,066	-0,002
-128,541	-200,000	-0,012	0,071
-127,526	-200,000	0,012	-0,063
-126,512	290,562	-0,043	-0,056
-125,497	-175,142	0,104	-0,002
-124,483	-102,730	-0,075	-0,013
-123,468	-59,807	-0,025	0,007
-122,453	250,438	0,025	-0,030
-121,439	-200,000	-0,022	-0,090
-120,424	-200,000	-0,004	-0,023
