DTS Sentinel unit serial number:	SN410029Multiplexer serial number:	ORYXHardware model number:	OX2-SRSoftware version number:	ORYX F/W v4,00 Oryx Data Collector v3.7.2.0data status	okinstallation	B6 Nyhavnadifferential loss correction	single-endedforward channel	channel 2reverse channel	N/Adate	2023/12/08time	17:55:08forward acquisition time	300,00reverse acquisition time	0,00gamma	499,1914k internal	0,3158k external	0,3158temperature offset calibration	1,0000default loss term (dB/km)	0,3820temperature slope calibration	1,0000multiplexer offset coefficient	1,0000multiplexer slope coefficient	1,0000fibre end	0,00T internal ref (°C)	15,19T ext. ref 1 (°C)	-1,25T ext. ref 2 (°C)	-1,23length (m)	temperature (°C)	Stokes	anti-Stokes-744,400	800,000	0,063	-0,139
-743,385	-113,726	-0,210	-0,030
-742,371	603,069	-0,067	0,124
-741,356	-145,508	-0,273	0,018
-740,342	-104,356	0,179	-0,030
-739,327	-98,912	-0,346	0,064
-738,312	109,094	0,015	-0,013
-737,298	-122,152	-0,162	0,019
-736,283	-144,720	0,217	0,014
-735,269	68,741	-0,119	-0,090
-734,254	183,607	0,067	0,073
-733,239	-43,750	-0,607	-0,224
-732,225	-150,584	0,183	0,010
-731,210	118,446	-0,047	-0,043
-730,196	-200,000	0,001	-0,141
-729,181	648,003	-0,037	0,071
-728,167	-82,804	0,045	0,011
-727,152	-100,992	-0,144	-0,026
-726,137	-200,000	0,010	-0,141
-725,123	-58,000	0,012	-0,004
-724,108	-8,949	-0,165	-0,081
-723,094	-200,000	-0,020	-0,128
-722,079	800,000	-0,052	-0,124
-721,064	-73,398	0,096	-0,026
-720,050	-200,000	0,016	0,065
-719,035	316,548	0,041	0,057
-718,021	298,664	0,050	-0,068
-717,006	-200,000	0,026	-0,127
-715,991	455,234	-0,096	-0,157
-714,977	800,000	0,063	-0,142
-713,962	-24,632	-0,114	-0,050
-712,948	-48,489	0,137	0,048
-711,933	341,352	-0,079	-0,113
-710,918	-133,481	0,200	-0,018
-709,904	800,000	-0,031	0,063
-708,889	152,974	-0,054	-0,054
-707,875	-200,000	-0,010	-0,089
-706,860	-89,633	-0,113	-0,024
-705,845	517,861	0,102	-0,176
-704,831	605,705	0,047	-0,087
-703,816	-95,807	-0,028	0,006
-702,802	-172,377	-0,210	-0,005
-701,787	370,621	-0,038	-0,056
-700,772	26,172	-0,055	-0,033
-699,758	-153,346	-0,037	0,002
-698,743	647,331	-0,024	-0,045
-697,729	-42,739	-0,176	-0,066
-696,714	33,859	-0,049	-0,031
-695,699	-40,527	0,141	-0,053
-694,685	74,928	-0,069	-0,053
-693,670	-70,287	-0,155	-0,043
-692,656	45,341	0,114	-0,077
-691,641	742,160	0,050	-0,099
-690,627	68,860	-0,061	-0,046
-689,612	-200,000	-0,009	-0,032
-688,597	438,220	-0,027	-0,043
-687,583	216,246	-0,117	-0,137
-686,568	274,540	-0,067	0,088
-685,554	577,487	-0,024	0,044
-684,539	406,123	0,065	-0,101
-683,524	121,561	0,030	0,028
-682,510	-102,891	0,133	-0,023
-681,495	-200,000	0,007	0,068
-680,481	-124,878	-0,105	-0,012
-679,466	435,951	-0,052	-0,084
-678,451	-18,330	-0,115	-0,053
-677,437	-200,000	0,022	0,074
-676,422	38,332	0,024	0,016
-675,408	63,683	0,084	-0,062
-674,393	71,780	0,062	-0,047
-673,378	-200,000	0,000	-0,005
-672,364	166,156	-0,107	-0,112
-671,349	152,041	-0,116	-0,116
-670,335	-115,847	-0,095	-0,013
-669,320	-52,157	-0,170	0,058
-668,305	-96,219	-0,037	0,007
-667,291	113,809	-0,040	0,036
-666,276	358,275	-0,036	0,053
-665,262	-200,000	-0,001	0,063
-664,247	81,968	0,143	-0,114
-663,232	-60,903	0,048	-0,015
-662,218	-55,473	0,052	-0,017
-661,203	-200,000	-0,007	0,083
-660,189	273,932	0,057	0,075
-659,174	800,000	-0,025	0,059
-658,159	800,000	-0,063	-0,141
-657,145	-79,991	0,102	-0,025
-656,130	800,000	-0,031	0,086
-655,116	-59,217	-0,112	-0,035
-654,101	-200,000	-0,006	0,028
-653,086	198,180	-0,127	-0,143
-652,072	-200,000	0,018	-0,109
-651,057	-110,781	-0,096	-0,014
-650,043	24,194	-0,072	-0,044
-649,028	67,767	0,046	0,034
-648,014	-200,000	-0,016	-0,094
-646,999	-200,000	-0,014	-0,075
-645,984	-172,718	0,093	0,002
-644,970	-160,812	-0,116	-0,004
-643,955	-61,084	0,053	0,016
-642,941	-200,000	0,003	-0,125
-641,926	23,157	0,072	-0,044
-640,911	-120,603	0,069	0,009
-639,897	-82,762	-0,006	0,001
-638,882	4,683	-0,089	0,048
-637,868	-200,000	0,011	-0,055
-636,853	-100,352	-0,151	-0,027
-635,838	-200,000	0,008	0,154
-634,824	-40,628	-0,013	0,005
-633,809	800,000	0,016	-0,051
-632,795	-134,826	0,036	0,003
-631,780	800,000	0,017	0,056
-630,765	800,000	-0,048	-0,103
-629,751	133,102	-0,043	-0,040
-628,736	54,027	-0,047	0,033
-627,722	-200,000	0,015	-0,082
-626,707	46,822	0,000	0,000
-625,692	496,243	0,038	-0,065
-624,678	201,207	-0,019	-0,021
-623,663	-200,000	0,009	-0,042
-622,649	294,644	-0,092	-0,123
-621,634	345,077	0,059	-0,085
-620,619	387,133	0,035	0,053
-619,605	800,000	0,018	0,040
-618,590	59,145	0,090	-0,065
-617,576	314,072	0,037	0,051
-616,561	-200,000	0,036	-0,136
-615,546	-124,028	0,020	-0,002
-614,532	-18,420	-0,112	-0,051
-613,517	-18,859	-0,087	0,040
-612,503	-102,933	-0,103	0,018
-611,488	19,265	0,100	0,059
-610,474	-200,000	-0,011	0,083
-609,459	17,257	0,070	-0,041
-608,444	531,063	-0,061	0,106
-607,430	800,000	-0,101	0,219
-606,415	-120,145	-0,047	0,006
-605,401	-200,000	0,000	0,066
-604,386	-132,688	-0,090	0,008
-603,371	-66,824	-0,101	-0,029
-602,357	-200,000	0,000	-0,082
-601,342	197,485	0,056	-0,063
-600,328	-114,532	0,210	-0,029
-599,313	96,834	0,025	-0,021
-598,298	-82,052	0,061	0,014
-597,284	144,927	0,131	0,128
-596,269	-200,000	0,034	-0,136
-595,255	800,000	0,020	0,064
-594,240	-20,966	-0,054	-0,024
-593,225	48,379	-0,053	-0,036
-592,211	800,000	-0,041	0,117
-591,196	126,520	0,131	0,122
-590,182	447,040	0,080	-0,129
-589,167	147,505	0,030	-0,030
-588,152	-88,003	-0,117	0,026
-587,138	800,000	-0,018	-0,040
-586,123	-155,939	-0,102	0,005
-585,109	-200,000	0,007	0,038
-584,094	375,323	-0,039	-0,058
-583,079	-68,166	0,021	-0,006
-582,065	377,258	0,053	-0,079
-581,050	-200,000	0,013	0,091
-580,036	41,107	-0,071	-0,047
-579,021	316,223	-0,051	0,070
-578,006	434,514	0,029	-0,046
-576,992	800,000	0,017	0,034
-575,977	300,291	0,031	-0,041
-574,963	-16,230	-0,159	0,073
-573,948	800,000	-0,009	0,024
-572,934	253,684	-0,020	-0,025
-571,919	-18,170	0,107	-0,049
-570,904	-200,000	-0,020	-0,092
-569,890	-115,800	-0,077	-0,010
-568,875	332,748	-0,047	-0,066
-567,861	800,000	-0,046	-0,144
-566,846	-200,000	-0,007	0,025
-565,831	-59,581	-0,035	-0,011
-564,817	-80,866	0,075	-0,018
-563,802	237,205	-0,101	-0,122
-562,788	-200,000	-0,012	-0,118
-561,773	-200,000	0,023	0,102
-560,758	-83,079	-0,112	0,026
-559,744	238,572	0,099	0,120
-558,729	305,403	0,011	-0,015
-557,715	-200,000	-0,002	0,093
-556,700	26,150	-0,077	-0,047
-555,685	-200,000	0,007	-0,061
-554,671	97,494	0,075	0,063
-553,656	-133,200	-0,049	0,004
-552,642	682,062	0,026	-0,050
-551,627	-200,000	-0,004	-0,044
-550,612	-67,686	0,062	0,018
-549,598	800,000	0,017	-0,046
-548,583	-145,050	0,060	-0,004
-547,569	-200,000	0,020	-0,083
-546,554	-200,000	-0,001	-0,112
-545,539	-25,686	0,055	-0,024
-544,525	-200,000	-0,009	0,097
-543,510	800,000	-0,056	-0,146
-542,496	124,524	-0,122	-0,113
-541,481	800,000	-0,017	-0,042
-540,466	-200,000	0,024	-0,129
-539,452	-200,000	0,001	-0,108
-538,437	61,410	-0,030	-0,022
-537,423	-200,000	-0,032	0,157
-536,408	-149,734	-0,131	0,007
-535,393	-200,000	-0,007	-0,115
-534,379	-34,600	0,103	-0,041
-533,364	800,000	-0,030	0,090
-532,350	800,000	-0,032	-0,100
-531,335	361,355	-0,074	-0,109
-530,321	-200,000	-0,006	-0,067
-529,306	-200,000	0,002	-0,071
-528,291	-175,359	-0,196	0,004
-527,277	111,783	0,079	0,070
-526,262	102,399	-0,025	-0,021
-525,248	7,482	-0,091	-0,049
-524,233	-200,000	-0,027	0,091
-523,218	139,675	-0,072	-0,069
-522,204	240,849	-0,030	-0,037
-521,189	134,410	-0,070	-0,066
-520,175	-200,000	0,029	-0,140
-519,160	460,374	-0,018	-0,029
-518,145	-200,000	-0,009	0,044
-517,131	65,681	0,026	0,019
-516,116	800,000	0,035	-0,101
-515,102	-200,000	-0,028	-0,122
-514,087	-200,000	-0,023	-0,110
-513,072	-100,207	-0,137	-0,025
-512,058	111,199	0,100	0,088
-511,043	-200,000	0,004	-0,214
-510,029	-200,000	-0,004	0,113
-509,014	-163,742	-0,064	-0,002
-507,999	-183,157	0,021	0,000
-506,985	13,318	-0,021	-0,012
-505,970	26,693	-0,047	-0,028
-504,956	-200,000	-0,007	-0,053
-503,941	38,319	-0,139	-0,090
-502,926	23,782	0,094	0,056
-501,912	323,442	0,041	-0,057
-500,897	5,891	0,113	-0,061
-499,883	-88,787	0,122	-0,026
-498,868	-93,365	-0,099	-0,020
-497,853	279,000	-0,096	0,126
-496,839	80,672	-0,104	-0,082
-495,824	-200,000	0,028	-0,106
-494,810	800,000	-0,033	-0,073
-493,795	156,674	-0,007	-0,007
-492,781	-54,870	-0,095	-0,031
-491,766	-141,358	-0,052	0,004
-490,751	-200,000	-0,004	-0,069
-489,737	800,000	0,063	-0,140
-488,722	-26,594	-0,060	-0,025
-487,708	-200,000	0,011	0,173
-486,693	800,000	-0,052	-0,145
-485,678	-192,025	-0,071	-0,000
-484,664	246,375	0,065	-0,080
-483,649	184,859	0,078	-0,085
-482,635	-102,823	-0,107	-0,018
-481,620	-10,530	0,041	-0,020
-480,605	-168,331	0,204	-0,006
-479,591	-174,727	0,072	-0,001
-478,576	439,896	0,032	-0,051
-477,562	210,199	-0,114	-0,130
-476,547	125,376	-0,128	-0,118
-475,532	-83,558	0,192	-0,044
-474,518	-200,000	0,029	-0,101
-473,503	-113,762	0,045	0,006
-472,489	-200,000	-0,023	-0,085
-471,474	43,870	0,053	0,035
-470,459	-113,743	-0,019	0,003
-469,445	-200,000	-0,043	-0,142
-468,430	-200,000	0,009	0,148
-467,416	800,000	0,044	0,108
-466,401	417,425	-0,020	0,031
-465,386	-200,000	-0,022	-0,112
-464,372	800,000	-0,026	-0,082
-463,357	649,670	0,013	-0,025
-462,343	410,300	0,041	0,064
-461,328	-49,314	-0,055	0,019
-460,313	203,251	0,150	-0,170
-459,299	173,432	-0,061	0,064
-458,284	399,082	0,076	0,117
-457,270	146,225	0,079	-0,077
-456,255	-45,208	0,162	-0,059
-455,241	239,207	-0,110	-0,134
-454,226	-200,000	-0,008	-0,027
-453,211	-100,197	0,140	0,025
-452,197	242,116	0,039	0,047
-451,182	152,553	0,069	-0,068
-450,168	185,421	0,086	-0,093
-449,153	42,794	0,077	-0,051
-448,138	-200,000	-0,020	0,102
-447,124	-200,000	-0,023	-0,115
-446,109	60,768	-0,095	-0,069
-445,095	-119,351	0,085	0,011
-444,080	-200,000	-0,027	0,110
-443,065	-160,901	-0,110	-0,004
-442,051	81,892	-0,105	-0,083
-441,036	-132,618	0,106	-0,010
-440,022	-37,752	0,088	0,034
-439,007	800,000	0,038	-0,098
-437,992	-97,615	0,064	0,012
-436,978	453,889	0,036	-0,059
-435,963	800,000	-0,038	0,111
-434,949	800,000	-0,038	0,090
-433,934	605,026	-0,023	0,042
-432,919	-107,416	0,075	0,012
-431,905	-200,000	0,015	-0,065
-430,890	-49,080	0,048	0,016
-429,876	-102,110	0,162	-0,028
-428,861	-128,867	-0,018	0,002
-427,846	72,822	0,088	0,067
-426,832	-150,271	0,091	0,005
-425,817	-200,000	-0,031	-0,106
-424,803	-140,761	0,093	0,007
-423,788	-59,617	-0,017	0,005
-422,773	30,512	0,124	0,077
-421,759	18,989	0,123	-0,071
-420,744	343,509	0,095	-0,135
-419,730	621,890	0,046	0,084
-418,715	456,069	0,045	-0,073
-417,701	800,000	0,076	-0,165
-416,686	-46,152	-0,060	-0,022
-415,671	-200,000	-0,016	0,105
-414,657	-54,338	0,061	0,020
-413,642	800,000	-0,061	0,164
-412,628	81,719	0,090	-0,071
-411,613	148,306	0,061	-0,059
-410,598	-200,000	-0,018	-0,104
-409,584	-43,020	0,122	-0,045
-408,569	538,753	0,026	0,045
-407,555	-99,597	0,049	-0,009
-406,540	-200,000	-0,016	0,125
-405,525	-200,000	0,006	-0,172
-404,511	229,767	0,063	0,075
-403,496	309,490	0,052	0,070
-402,482	800,000	0,019	0,041
-401,467	-65,041	0,096	-0,028
-400,452	800,000	0,049	0,105
-399,438	389,409	-0,058	-0,088
-398,423	-200,000	-0,016	0,087
-397,409	-66,473	-0,092	0,026
-396,394	257,221	0,015	0,019
-395,379	-200,000	0,005	0,054
-394,365	-44,221	0,132	-0,048
-393,350	800,000	0,027	0,061
-392,336	340,723	-0,098	0,140
-391,321	-99,014	-0,062	-0,011
-390,306	-200,000	-0,029	-0,094
-389,292	194,845	0,065	0,071
-388,277	99,559	0,066	-0,055
-387,263	12,028	0,157	0,087
-386,248	103,010	-0,064	0,055
-385,233	63,766	0,079	0,057
-384,219	-144,811	-0,076	0,005
-383,204	800,000	-0,098	-0,214
-382,190	-146,375	-0,061	0,004
-381,175	-32,904	0,042	0,017
-380,160	800,000	-0,037	-0,076
-379,146	-200,000	-0,044	0,207
-378,131	800,000	0,038	0,106
-377,117	800,000	-0,036	0,077
-376,102	331,620	-0,086	-0,121
-375,088	-200,000	-0,020	-0,100
-374,073	-200,000	-0,013	0,131
-373,058	-66,649	0,146	0,042
-372,044	800,000	0,036	0,098
-371,029	-200,000	0,019	0,093
-370,015	-63,041	-0,079	0,024
-369,000	-199,554	0,092	0,000
-367,985	-18,014	-0,114	0,052
-366,971	73,798	0,082	0,063
-365,956	476,508	0,046	0,075
-364,942	-200,000	-0,020	0,131
-363,927	800,000	0,025	0,061
-362,912	144,079	-0,096	0,093
-361,898	800,000	-0,028	-0,061
-360,883	326,719	0,032	0,045
-359,869	44,329	-0,095	-0,063
-358,854	194,794	-0,094	0,103
-357,839	477,013	0,035	0,057
-356,825	-200,000	0,001	-0,080
-355,810	-42,850	0,096	0,035
-354,796	113,266	0,067	-0,059
-353,781	93,715	-0,094	-0,077
-352,766	201,189	0,097	-0,109
-351,752	-114,290	-0,101	-0,014
-350,737	419,998	0,016	-0,024
-349,723	98,452	0,094	-0,079
-348,708	27,984	0,126	-0,077
-347,693	-200,000	0,002	-0,073
-346,679	-80,085	-0,151	-0,036
-345,664	-156,544	0,091	-0,004
-344,650	800,000	0,025	0,055
-343,635	800,000	0,034	0,086
-342,620	-200,000	-0,014	0,185
-341,606	158,011	-0,058	0,058
-340,591	454,386	0,008	0,014
-339,577	-117,598	-0,045	0,006
-338,562	362,409	-0,023	-0,033
-337,548	119,185	-0,119	-0,107
-336,533	800,000	0,058	0,158
-335,518	230,627	0,038	0,045
-334,504	26,378	0,047	-0,028
-333,489	-108,393	0,044	0,007
-332,475	-27,715	0,095	0,040
-331,460	207,429	-0,028	0,032
-330,445	-27,399	-0,066	0,028
-329,431	182,105	0,038	-0,041
-328,416	-200,000	-0,018	0,105
-327,402	357,133	0,074	0,108
-326,387	297,755	-0,047	-0,063
-325,372	-200,000	-0,024	-0,099
-324,358	179,750	-0,030	0,032
-323,343	800,000	0,007	-0,013
-322,329	-137,963	0,042	-0,003
-321,314	186,142	-0,051	-0,055
-320,299	160,294	0,059	0,060
-319,285	-93,714	0,104	0,021
-318,270	766,346	-0,027	-0,054
-317,256	432,016	-0,048	0,075
-316,241	77,117	-0,076	0,058
-315,226	800,000	0,016	0,050
-314,212	214,550	0,059	0,068
-313,197	-95,438	-0,011	0,002
-312,183	-52,696	-0,048	0,016
-311,168	44,906	-0,149	0,099
-310,153	178,755	0,080	-0,084
-309,139	-200,000	0,004	-0,055
-308,124	-79,173	0,163	-0,040
-307,110	800,000	-0,054	0,151
-306,095	689,658	0,068	0,130
-305,080	628,779	0,041	0,076
-304,066	-100,923	-0,099	0,018
-303,051	42,845	-0,077	-0,051
-302,037	517,611	-0,039	-0,066
-301,022	138,032	-0,105	-0,099
-300,008	112,297	0,147	0,129
-298,993	247,911	0,059	-0,073
-297,978	800,000	-0,035	0,082
-296,964	800,000	0,009	0,022
-295,949	-86,959	-0,056	-0,012
-294,935	-200,000	-0,015	0,076
-293,920	800,000	0,045	0,097
-292,905	-200,000	0,017	0,205
-291,891	-19,130	0,079	-0,035
-290,876	-142,395	0,024	-0,002
-289,862	92,365	0,040	-0,032
-288,847	-58,348	-0,130	0,041
-287,832	331,459	-0,044	0,062
-286,818	62,057	-0,124	0,089
-285,803	174,825	-0,072	0,075
-284,789	673,693	0,065	0,122
-283,774	22,006	0,180	-0,106
-282,759	800,000	0,026	-0,082
-281,745	-200,000	0,008	-0,094
-280,730	-89,548	-0,069	0,015
-279,716	-80,705	-0,034	0,008
-278,701	579,247	0,031	0,055
-277,686	800,000	0,041	0,122
-276,672	-200,000	-0,036	0,118
-275,657	-200,000	-0,013	0,061
-274,643	-200,000	0,011	0,061
-273,628	800,000	-0,026	-0,071
-272,613	-95,532	-0,087	-0,017
-271,599	800,000	0,010	0,023
-270,584	-200,000	0,020	-0,081
-269,570	544,750	0,026	-0,045
-268,555	-200,000	0,006	0,081
-267,540	217,719	0,093	0,108
-266,526	-41,992	-0,090	0,033
-265,511	336,760	-0,053	0,075
-264,497	6,511	0,145	0,078
-263,482	-174,307	-0,068	-0,001
-262,467	-8,919	0,133	0,064
-261,453	155,832	-0,068	-0,068
-260,438	76,086	0,024	-0,018
-259,424	800,000	-0,019	0,041
-258,409	-83,762	-0,038	-0,009
-257,395	429,750	0,055	0,087
-256,380	245,700	0,075	0,092
-255,365	-200,000	0,022	0,083
-254,351	-200,000	-0,017	0,094
-253,336	-18,319	0,077	-0,035
-252,322	49,438	-0,081	0,055
-251,307	1,296	-0,122	-0,063
-250,292	-100,470	-0,082	-0,015
-249,278	359,539	0,022	0,032
-248,263	98,143	0,127	0,106
-247,249	-55,929	0,028	-0,009
-246,234	391,310	0,016	0,024
-245,219	800,000	0,060	0,121
-244,205	800,000	-0,035	-0,090
-243,190	493,493	-0,029	0,048
-242,176	-200,000	-0,016	0,156
-241,161	-41,456	0,073	0,027
-240,146	-200,000	0,002	-0,071
-239,132	212,035	-0,045	0,051
-238,117	-98,960	-0,053	0,010
-237,103	-152,083	-0,031	-0,002
-236,088	-38,257	0,154	0,059
-235,073	421,501	-0,065	0,102
-234,059	62,735	0,121	-0,087
-233,044	-120,699	0,065	0,008
-232,030	172,909	-0,064	-0,066
-231,015	-200,000	0,007	-0,152
-230,000	-200,000	-0,004	-0,107
-228,986	6,908	-0,093	0,050
-227,971	115,993	0,137	-0,121
-226,957	-200,000	0,004	0,120
-225,942	-9,827	-0,085	0,041
-224,927	-104,205	-0,136	-0,023
-223,913	-138,720	-0,087	0,007
-222,898	98,403	-0,124	0,103
-221,884	-200,000	-0,018	0,126
-220,869	98,371	0,040	0,033
-219,855	202,042	-0,057	-0,063
-218,840	506,109	0,041	0,069
-217,825	800,000	-0,032	-0,091
-216,811	-157,123	-0,127	-0,005
-215,796	0,504	0,146	-0,075
-214,782	721,966	0,028	-0,055
-213,767	199,775	-0,077	0,085
-212,752	76,558	0,038	0,029
-211,738	502,579	0,036	-0,060
-210,723	-75,258	-0,066	-0,017
-209,709	-99,067	-0,026	0,005
-208,694	344,170	0,124	0,176
-207,679	125,228	-0,021	-0,019
-206,665	335,152	0,068	-0,096
-205,650	-78,125	-0,008	0,002
-204,636	332,630	-0,087	0,121
-203,621	462,478	-0,057	0,092
-202,606	800,000	0,008	0,022
-201,592	455,523	-0,071	0,114
-200,577	314,887	-0,049	0,066
-199,563	109,758	-0,111	-0,096
-198,548	-33,930	0,058	0,023
-197,533	22,565	-0,101	0,059
-196,519	800,000	0,036	0,097
-195,504	-58,020	-0,015	-0,005
-194,490	800,000	0,028	-0,067
-193,475	179,331	-0,096	-0,102
-192,460	382,666	-0,042	-0,063
-191,446	-200,000	0,034	0,109
-190,431	-72,502	-0,026	0,007
-189,417	-126,072	-0,065	0,007
-188,402	-200,000	0,009	0,067
-187,387	316,802	0,046	-0,063
-186,373	-114,049	-0,049	0,007
-185,358	765,656	0,062	0,123
-184,344	-114,460	0,143	0,020
-183,329	800,000	0,032	-0,079
-182,315	130,115	0,022	0,020
-181,300	800,000	-0,047	-0,130
-180,285	6,679	-0,089	-0,048
-179,271	800,000	-0,027	0,056
-178,256	12,409	-0,040	0,022
-177,242	800,000	-0,055	-0,165
-176,227	800,000	0,044	0,117
-175,212	-200,000	0,002	-0,041
-174,198	-14,938	-0,110	-0,051
-173,183	181,645	-0,079	-0,084
-172,169	41,260	-0,086	0,056
-171,154	278,203	-0,111	0,143
-170,139	94,908	0,060	0,049
-169,125	378,293	0,060	0,088
-168,110	-94,125	-0,071	-0,014
-167,096	-84,856	0,044	-0,010
-166,081	-93,453	-0,147	-0,029
-165,066	18,675	-0,063	-0,036
-164,052	-89,218	0,052	-0,011
-163,037	-200,000	0,018	-0,072
-162,023	-115,861	-0,156	-0,021
-161,008	-123,343	0,085	-0,010
-159,993	396,287	-0,040	0,061
-158,979	37,417	-0,056	0,036
-157,964	262,870	-0,088	0,111
-156,950	262,221	-0,059	0,074
-155,935	132,495	0,164	0,152
-154,920	54,264	-0,079	0,055
-153,906	-25,710	0,152	0,064
-152,891	-200,000	0,014	-0,112
-151,877	-38,691	-0,081	0,031
-150,862	51,772	-0,049	-0,033
-149,847	263,391	-0,055	-0,068
-148,833	112,332	0,047	-0,041
-147,818	42,497	0,090	0,059
-146,804	-47,993	0,081	0,028
-145,789	27,816	-0,033	-0,020
-144,775	-135,789	-0,053	0,004
-143,760	800,000	0,054	-0,172
-142,745	800,000	-0,033	-0,071
-141,731	199,306	-0,085	0,094
-140,716	-200,000	0,036	-0,133
-139,702	-14,274	0,095	0,044
-138,687	288,510	-0,056	0,073
-137,672	77,038	-0,052	-0,040
-136,658	250,282	0,065	-0,080
-135,643	-137,433	-0,136	-0,011
-134,629	800,000	-0,022	-0,058
-133,614	-200,000	0,000	0,025
-132,599	-200,000	-0,006	0,132
-131,585	800,000	-0,025	0,058
-130,570	-56,906	-0,157	-0,050
-129,556	-200,000	-0,020	-0,079
-128,541	79,114	0,112	-0,086
-127,526	313,568	-0,021	-0,029
-126,512	800,000	-0,037	0,082
-125,497	130,297	0,067	0,062
-124,483	429,500	-0,052	0,082
-123,468	-144,742	-0,018	-0,001
-122,453	228,487	-0,036	0,043
-121,439	497,513	-0,038	0,063
-120,424	-26,287	0,143	-0,060
