DTS Sentinel unit serial number:	SN410029Multiplexer serial number:	ORYXHardware model number:	OX2-SRSoftware version number:	ORYX F/W v4,00 Oryx Data Collector v3.7.2.0data status	okinstallation	B6 Nyhavnadifferential loss correction	single-endedforward channel	channel 2reverse channel	N/Adate	2023/12/10time	16:25:08forward acquisition time	300,00reverse acquisition time	0,00gamma	499,1914k internal	0,3122k external	0,3122temperature offset calibration	1,0000default loss term (dB/km)	0,3820temperature slope calibration	1,0000multiplexer offset coefficient	1,0000multiplexer slope coefficient	1,0000fibre end	0,00T internal ref (°C)	22,37T ext. ref 1 (°C)	6,14T ext. ref 2 (°C)	6,14length (m)	temperature (°C)	Stokes	anti-Stokes-744,400	-82,963	0,103	0,025
-743,385	86,472	-0,196	0,161
-742,371	-200,000	0,005	0,041
-741,356	-15,927	-0,298	0,141
-740,342	-47,930	0,115	-0,041
-739,327	-0,141	-0,173	0,092
-738,312	121,687	0,031	-0,028
-737,298	58,836	-0,126	0,092
-736,283	509,151	0,032	-0,055
-735,269	800,000	-0,059	0,122
-734,254	111,041	-0,082	-0,074
-733,239	-96,658	-0,315	0,061
-732,225	82,608	0,101	0,082
-731,210	407,786	0,030	0,048
-730,196	-175,454	-0,261	0,005
-729,181	-142,362	-0,084	-0,006
-728,167	-109,856	-0,136	-0,021
-727,152	387,862	-0,065	-0,101
-726,137	633,514	-0,044	-0,084
-725,123	104,637	-0,050	-0,044
-724,108	-140,335	-0,055	-0,004
-723,094	-13,030	-0,071	-0,034
-722,079	724,301	0,051	0,101
-721,064	-200,000	0,007	0,031
-720,050	-70,798	0,109	-0,030
-719,035	-22,916	-0,146	-0,065
-718,021	215,799	0,049	0,058
-717,006	-200,000	-0,009	-0,034
-715,991	-200,000	0,026	-0,226
-714,977	67,109	-0,013	-0,010
-713,962	196,465	0,122	-0,138
-712,948	-28,910	-0,075	0,032
-711,933	-200,000	-0,015	-0,105
-710,918	-200,000	-0,006	-0,049
-709,904	-89,988	-0,166	-0,036
-708,889	-200,000	-0,006	-0,059
-707,875	422,753	-0,069	0,110
-706,860	138,522	-0,080	0,078
-705,845	-29,584	0,035	-0,015
-704,831	220,410	0,036	0,043
-703,816	-200,000	0,003	0,178
-702,802	-200,000	0,035	0,152
-701,787	800,000	0,037	-0,078
-700,772	-107,526	-0,059	0,009
-699,758	-14,802	-0,122	-0,058
-698,743	800,000	0,064	0,149
-697,729	-200,000	-0,008	0,054
-696,714	54,856	0,136	0,098
-695,699	680,680	-0,074	-0,144
-694,685	90,953	0,074	0,062
-693,670	22,514	-0,082	-0,050
-692,656	31,822	0,075	-0,048
-691,641	203,587	-0,041	-0,047
-690,627	-26,412	0,117	0,051
-689,612	-200,000	-0,008	-0,083
-688,597	481,032	0,054	0,091
-687,583	-200,000	-0,017	-0,060
-686,568	-143,742	-0,179	-0,012
-685,554	99,581	-0,033	0,028
-684,539	-200,000	0,019	0,077
-683,524	-200,000	0,024	0,103
-682,510	222,167	-0,079	0,094
-681,495	-124,639	-0,037	-0,004
-680,481	-200,000	-0,004	0,102
-679,466	-200,000	-0,006	0,071
-678,451	-200,000	-0,005	-0,065
-677,437	677,420	-0,038	0,073
-676,422	265,248	0,033	0,043
-675,408	222,773	0,059	0,071
-674,393	316,689	-0,029	-0,040
-673,378	-101,051	-0,130	0,023
-672,364	27,366	0,048	0,030
-671,349	800,000	-0,030	-0,087
-670,335	207,443	-0,066	0,076
-669,320	-200,000	-0,017	-0,071
-668,305	-89,583	-0,025	0,005
-667,291	-119,933	0,064	-0,008
-666,276	96,607	0,063	0,054
-665,262	-200,000	-0,003	0,157
-664,247	231,857	-0,028	-0,034
-663,232	-134,519	-0,152	-0,014
-662,218	373,946	0,066	-0,100
-661,203	-200,000	-0,046	0,179
-660,189	-200,000	-0,010	-0,130
-659,174	737,135	-0,042	-0,084
-658,159	-28,832	0,065	-0,028
-657,145	-200,000	0,010	-0,053
-656,130	-124,723	0,101	-0,011
-655,116	-103,889	-0,041	-0,007
-654,101	-200,000	0,017	-0,085
-653,086	132,062	-0,038	-0,036
-652,072	527,339	-0,068	-0,120
-651,057	7,650	-0,145	-0,080
-650,043	-200,000	0,006	0,070
-649,028	88,301	-0,103	-0,085
-648,014	5,350	-0,127	-0,070
-646,999	-74,995	0,073	0,019
-645,984	-42,544	-0,026	0,010
-644,970	-47,442	-0,084	0,030
-643,955	800,000	-0,013	-0,037
-642,941	-200,000	0,017	-0,185
-641,926	-200,000	-0,024	0,091
-640,911	-200,000	-0,022	0,215
-639,897	89,431	-0,091	0,075
-638,882	124,161	0,032	0,030
-637,868	-200,000	-0,011	0,077
-636,853	92,658	-0,044	-0,037
-635,838	139,769	0,101	0,098
-634,824	-0,626	0,026	-0,014
-633,809	563,546	0,039	-0,070
-632,795	800,000	-0,042	0,099
-631,780	-86,850	0,036	0,008
-630,765	-4,634	-0,085	0,044
-629,751	-124,664	-0,153	0,017
-628,736	315,715	0,080	-0,112
-627,722	-93,885	-0,079	-0,016
-626,707	215,130	-0,006	-0,007
-625,692	-200,000	-0,002	0,055
-624,678	188,810	0,075	0,084
-623,663	-5,431	-0,163	0,083
-622,649	-77,963	-0,095	-0,024
-621,634	755,991	-0,036	-0,072
-620,619	-159,475	0,072	-0,003
-619,605	-132,327	0,123	0,012
-618,590	-2,097	0,053	-0,028
-617,576	800,000	-0,032	0,084
-616,561	800,000	0,062	-0,149
-615,546	800,000	-0,057	-0,132
-614,532	-114,514	-0,075	0,011
-613,517	-187,252	0,046	-0,000
-612,503	-140,704	0,081	-0,006
-611,488	-200,000	0,014	-0,127
-610,474	-200,000	0,033	0,156
-609,459	450,670	-0,073	0,120
-608,444	-7,692	0,082	0,041
-607,430	-43,302	-0,077	-0,029
-606,415	265,895	-0,041	0,053
-605,401	128,091	0,026	-0,025
-604,386	-200,000	-0,023	-0,097
-603,371	242,454	-0,078	0,097
-602,357	-76,608	-0,118	0,030
-601,342	-56,804	0,049	0,016
-600,328	526,831	-0,108	-0,190
-599,313	411,772	0,087	-0,138
-598,298	-2,325	-0,101	0,052
-597,284	128,106	0,074	0,070
-596,269	-93,490	-0,050	-0,010
-595,255	-200,000	0,018	-0,077
-594,240	-73,344	-0,161	-0,043
-593,225	534,789	0,042	-0,075
-592,211	-200,000	-0,019	-0,081
-591,196	331,603	0,051	0,073
-590,182	-200,000	0,017	0,107
-589,167	45,175	-0,030	0,021
-588,152	800,000	-0,024	-0,068
-587,138	-126,110	-0,070	0,008
-586,123	31,426	-0,067	-0,043
-585,109	124,772	0,074	-0,069
-584,094	800,000	0,044	-0,112
-583,079	-200,000	0,020	0,093
-582,065	4,263	-0,080	-0,043
-581,050	-3,475	0,050	0,026
-580,036	-99,174	0,028	-0,005
-579,021	-13,255	-0,046	0,022
-578,006	-111,037	-0,126	0,019
-576,992	57,664	0,049	-0,035
-575,977	25,223	-0,029	0,018
-574,963	617,329	-0,060	-0,111
-573,948	-200,000	0,008	0,059
-572,934	800,000	0,007	-0,015
-571,919	135,948	-0,087	0,084
-570,904	-92,951	-0,079	-0,016
-569,890	22,295	-0,102	0,061
-568,875	66,994	0,071	-0,054
-567,861	-37,124	-0,148	-0,059
-566,846	-33,737	-0,144	-0,058
-565,831	-200,000	0,044	0,144
-564,817	-200,000	-0,021	0,077
-563,802	333,095	-0,038	-0,055
-562,788	75,533	-0,115	0,089
-561,773	800,000	0,036	-0,101
-560,758	303,095	0,046	0,063
-559,744	441,021	0,036	-0,059
-558,729	-29,249	-0,044	-0,019
-557,715	-200,000	-0,031	-0,136
-556,700	116,607	0,030	-0,027
-555,685	33,456	-0,083	0,053
-554,671	424,893	0,055	-0,088
-553,656	-13,375	0,144	0,069
-552,642	-198,069	0,056	-0,000
-551,627	281,884	-0,048	0,063
-550,612	85,858	-0,050	0,041
-549,598	-113,712	-0,188	0,027
-548,583	-7,095	0,087	-0,043
-547,569	-200,000	0,004	-0,045
-546,554	-29,655	0,120	0,050
-545,539	91,293	0,079	0,065
-544,525	91,889	0,087	0,073
-543,510	-200,000	-0,010	0,071
-542,496	-200,000	-0,031	0,119
-541,481	31,975	0,089	-0,057
-540,466	-200,000	0,016	-0,086
-539,452	800,000	-0,059	0,142
-538,437	800,000	0,027	0,072
-537,423	197,459	-0,093	0,105
-536,408	-200,000	-0,003	-0,097
-535,393	257,050	0,103	-0,132
-534,379	137,849	-0,100	0,097
-533,364	-187,557	0,057	0,001
-532,350	342,594	0,063	0,091
-531,335	-200,000	-0,012	0,077
-530,321	546,999	-0,050	-0,089
-529,306	24,232	0,066	0,040
-528,291	84,227	0,034	-0,027
-527,277	-200,000	0,010	-0,161
-526,262	25,710	0,063	0,039
-525,248	-24,457	0,022	-0,010
-524,233	800,000	0,033	-0,082
-523,218	-94,412	-0,048	-0,009
-522,204	-200,000	-0,000	0,157
-521,189	96,027	0,087	0,074
-520,175	800,000	-0,041	-0,127
-519,160	-200,000	0,003	-0,059
-518,145	135,464	0,130	0,125
-517,131	7,992	-0,056	0,031
-516,116	232,548	-0,078	-0,095
-515,102	-200,000	0,004	-0,066
-514,087	142,186	0,009	-0,009
-513,072	800,000	-0,037	-0,101
-512,058	60,368	-0,068	0,050
-511,043	189,433	-0,023	-0,025
-510,029	-17,886	0,142	-0,066
-509,014	32,725	0,127	0,081
-507,999	539,920	0,036	-0,064
-506,985	489,809	-0,032	-0,054
-505,970	311,354	-0,052	-0,072
-504,956	800,000	0,031	0,098
-503,941	488,306	0,053	0,089
-502,926	-200,000	0,004	-0,093
-501,912	60,022	0,073	0,053
-500,897	-20,208	0,107	0,048
-499,883	-62,964	-0,102	-0,031
-498,868	-9,313	-0,110	0,054
-497,853	-150,765	0,133	0,007
-496,839	-200,000	-0,004	-0,034
-495,824	-151,734	-0,089	0,005
-494,810	104,426	-0,018	-0,016
-493,795	-200,000	0,007	0,192
-492,781	29,365	-0,099	-0,062
-491,766	800,000	0,061	-0,137
-490,751	63,537	-0,099	-0,073
-489,737	353,955	-0,004	-0,006
-488,722	800,000	0,014	0,028
-487,708	-200,000	-0,010	-0,050
-486,693	-200,000	-0,002	0,012
-485,678	-163,192	0,108	0,004
-484,664	-200,000	-0,017	-0,118
-483,649	-200,000	0,031	-0,163
-482,635	471,643	0,045	-0,074
-481,620	-200,000	0,004	-0,014
-480,605	83,343	-0,090	0,072
-479,591	-32,378	0,023	-0,009
-478,576	-143,904	-0,096	0,007
-477,562	665,973	0,046	-0,088
-476,547	-96,805	-0,088	-0,017
-475,532	10,715	-0,074	-0,042
-474,518	-200,000	-0,032	-0,162
-473,503	-112,936	-0,072	0,010
-472,489	188,997	0,030	0,033
-471,474	30,829	-0,033	-0,021
-470,459	-106,718	-0,099	-0,016
-469,445	315,482	-0,052	0,073
-468,430	178,521	0,120	-0,129
-467,416	-200,000	0,007	-0,063
-466,401	278,716	0,063	-0,082
-465,386	-200,000	-0,024	0,084
-464,372	800,000	0,063	0,138
-463,357	-155,458	0,079	-0,004
-462,343	800,000	0,028	0,083
-461,328	-95,443	-0,086	0,017
-460,313	-200,000	0,008	0,054
-459,299	-200,000	0,012	0,048
-458,284	12,003	-0,059	0,034
-457,270	-73,070	0,097	-0,026
-456,255	37,172	0,031	-0,020
-455,241	457,526	0,095	-0,156
-454,226	-56,419	-0,113	-0,037
-453,211	-30,918	0,029	0,012
-452,197	-200,000	-0,022	0,077
-451,182	49,099	0,179	0,124
-450,168	-155,485	0,118	0,006
-449,153	164,670	-0,125	-0,130
-448,138	-36,369	-0,042	-0,017
-447,124	-200,000	-0,007	-0,048
-446,109	-90,966	-0,066	-0,014
-445,095	324,633	0,070	0,099
-444,080	-200,000	-0,001	0,069
-443,065	116,992	0,084	0,076
-442,051	800,000	0,051	0,123
-441,036	139,911	-0,108	0,105
-440,022	800,000	-0,031	-0,081
-439,007	162,589	-0,055	0,057
-437,992	-98,002	0,071	0,013
-436,978	347,738	0,073	0,106
-435,963	-5,156	-0,097	0,049
-434,949	46,172	0,027	-0,019
-433,934	-200,000	0,007	-0,042
-432,919	640,519	-0,027	0,052
-431,905	-104,209	-0,110	-0,019
-430,890	320,220	0,037	-0,052
-429,876	189,017	0,060	0,067
-428,861	212,812	0,109	0,127
-427,846	-92,207	-0,067	-0,014
-426,832	157,169	-0,106	-0,108
-425,817	800,000	-0,045	-0,097
-424,803	443,972	0,053	-0,086
-423,788	800,000	-0,028	0,059
-422,773	82,319	0,024	0,019
-421,759	-200,000	0,001	-0,053
-420,744	-101,291	-0,152	-0,027
-419,730	-120,607	-0,099	0,012
-418,715	60,723	0,115	-0,084
-417,701	6,011	-0,041	0,022
-416,686	348,896	-0,062	-0,090
-415,671	674,089	0,021	0,040
-414,657	452,111	0,035	0,058
-413,642	-200,000	-0,031	0,134
-412,628	-70,298	-0,040	0,011
-411,613	800,000	-0,030	0,066
-410,598	-158,122	-0,155	0,007
-409,584	-47,400	0,100	-0,036
-408,569	-56,926	0,112	0,036
-407,555	119,510	0,134	0,122
-406,540	58,005	-0,092	0,066
-405,525	673,209	-0,080	0,153
-404,511	273,491	-0,023	-0,031
-403,496	199,701	0,025	-0,028
-402,482	800,000	0,039	0,089
-401,467	52,285	-0,147	0,103
-400,452	-79,670	0,076	-0,019
-399,438	625,694	0,056	0,105
-398,423	-25,312	-0,029	0,013
-397,409	71,740	0,079	-0,060
-396,394	144,019	0,027	-0,026
-395,379	-54,034	-0,075	-0,025
-394,365	800,000	0,022	0,049
-393,350	-200,000	-0,029	0,108
-392,336	266,662	-0,080	0,104
-391,321	422,893	0,047	0,075
-390,306	721,519	-0,083	-0,163
-389,292	181,124	-0,018	-0,020
-388,277	763,089	-0,014	-0,027
-387,263	-76,672	0,070	0,018
-386,248	47,223	0,090	0,062
-385,233	-200,000	-0,001	-0,035
-384,219	-45,983	0,064	-0,023
-383,204	111,216	-0,054	-0,048
-382,190	17,403	-0,045	0,026
-381,175	-200,000	0,006	-0,107
-380,160	-200,000	0,006	0,023
-379,146	-79,218	0,091	0,022
-378,131	2,499	-0,084	0,044
-377,117	94,743	0,031	0,026
-376,102	-135,892	0,142	-0,012
-375,088	800,000	-0,065	-0,156
-374,073	-90,650	-0,145	-0,031
-373,058	-164,595	0,119	0,004
-372,044	30,895	0,053	0,034
-371,029	-26,098	0,035	0,015
-370,015	800,000	0,048	0,135
-369,000	215,142	0,038	0,044
-367,985	88,928	0,028	-0,022
-366,971	37,423	-0,036	-0,023
-365,956	800,000	0,054	0,137
-364,942	-78,435	-0,032	-0,008
-363,927	-122,021	-0,065	-0,008
-362,912	37,144	0,085	0,055
-361,898	-85,237	-0,214	-0,049
-360,883	-200,000	-0,016	-0,138
-359,869	-200,000	0,006	-0,095
-358,854	-147,039	0,155	-0,010
-357,839	258,036	-0,064	-0,081
-356,825	-200,000	0,003	0,039
-355,810	-200,000	-0,014	0,070
-354,796	-200,000	0,041	-0,155
-353,781	-33,037	0,077	-0,031
-352,766	800,000	0,038	-0,100
-351,752	45,659	-0,098	0,066
-350,737	105,807	0,072	-0,063
-349,723	-104,137	0,114	0,019
-348,708	-87,370	-0,090	-0,020
-347,693	169,291	-0,014	0,015
-346,679	57,560	-0,081	-0,058
-345,664	101,551	0,035	-0,030
-344,650	800,000	0,041	-0,087
-343,635	-85,632	-0,188	0,043
-342,620	254,837	-0,085	0,107
-341,606	207,012	-0,122	0,140
-340,591	-200,000	0,004	0,017
-339,577	285,051	-0,093	0,123
-338,562	-200,000	0,022	-0,098
-337,548	-83,200	0,044	-0,010
-336,533	-200,000	0,001	-0,013
-335,518	-114,701	0,104	-0,014
-334,504	-200,000	-0,027	0,130
-333,489	800,000	0,033	-0,089
-332,475	2,548	0,056	-0,030
-331,460	12,968	-0,061	-0,034
-330,445	236,021	0,069	-0,084
-329,431	54,375	0,156	-0,110
-328,416	32,051	0,024	0,015
-327,402	800,000	-0,059	0,137
-326,387	14,785	0,055	-0,032
-325,372	563,587	0,022	0,039
-324,358	-18,943	0,101	-0,046
-323,343	232,871	0,102	-0,123
-322,329	-200,000	-0,005	0,044
-321,314	-131,015	0,095	-0,009
-320,299	127,910	0,061	-0,057
-319,285	-11,247	-0,049	-0,024
-318,270	-200,000	0,031	0,129
-317,256	-156,223	-0,202	0,009
-316,241	-200,000	-0,011	-0,074
-315,226	-200,000	0,024	-0,116
-314,212	108,418	0,004	0,004
-313,197	-200,000	-0,002	0,029
-312,183	-115,479	0,065	0,009
-311,168	550,808	-0,022	-0,039
-310,153	800,000	-0,019	-0,041
-309,139	372,659	-0,065	0,098
-308,124	32,637	0,117	-0,074
-307,110	26,952	0,073	-0,045
-306,095	475,872	0,025	0,042
-305,080	419,744	-0,020	0,032
-304,066	58,789	0,036	0,026
-303,051	-60,540	-0,089	0,028
-302,037	-46,218	-0,051	0,018
-301,022	39,550	0,052	-0,034
-300,008	-200,000	-0,020	-0,077
-298,993	-179,042	0,106	0,002
-297,978	800,000	0,029	-0,084
-296,964	22,817	-0,078	-0,046
-295,949	-200,000	-0,035	-0,123
-294,935	254,445	-0,072	-0,090
-293,920	-11,757	-0,078	-0,037
-292,905	84,868	0,061	0,049
-291,891	-74,935	0,099	0,026
-290,876	-200,000	0,018	-0,075
-289,862	-138,421	-0,027	-0,002
-288,847	800,000	-0,007	-0,016
-287,832	50,775	0,048	0,033
-286,818	75,741	0,058	0,045
-285,803	800,000	0,024	-0,057
-284,789	81,674	-0,016	0,013
-283,774	-200,000	-0,005	-0,085
-282,759	-200,000	0,021	0,106
-281,745	102,808	-0,081	-0,069
-280,730	800,000	0,004	0,010
-279,716	31,922	-0,092	-0,058
-278,701	-200,000	-0,002	-0,087
-277,686	-200,000	0,003	0,089
-276,672	800,000	-0,041	0,127
-275,657	-200,000	0,002	0,043
-274,643	111,726	-0,161	-0,143
-273,628	402,099	-0,033	0,052
-272,613	-85,718	0,050	0,011
-271,599	-88,949	-0,024	-0,005
-270,584	2,380	0,087	0,046
-269,570	-200,000	-0,022	0,158
-268,555	-200,000	0,019	0,076
-267,540	-80,097	-0,058	0,014
-266,526	561,051	-0,054	-0,095
-265,511	-63,020	0,097	-0,029
-264,497	-148,339	0,053	0,003
-263,482	-132,029	0,116	0,011
-262,467	-200,000	0,010	0,042
-261,453	654,027	0,018	0,033
-260,438	19,646	-0,093	-0,055
-259,424	-87,938	0,154	0,034
-258,409	195,187	-0,077	-0,085
-257,395	37,115	0,072	-0,047
-256,380	415,120	-0,029	0,045
-255,365	-200,000	0,018	-0,072
-254,351	62,181	-0,050	-0,036
-253,336	800,000	0,024	0,068
-252,322	220,632	-0,086	-0,101
-251,307	11,123	0,109	-0,061
-250,292	-200,000	-0,002	-0,029
-249,278	33,511	0,139	0,088
-248,263	-5,729	0,029	-0,015
-247,249	297,745	0,031	-0,041
-246,234	-31,049	-0,041	0,017
-245,219	-155,403	-0,169	-0,008
-244,205	-130,560	-0,205	-0,020
-243,190	206,122	0,021	0,024
-242,176	-200,000	0,010	0,079
-241,161	251,982	-0,028	0,035
-240,146	6,506	0,111	-0,060
-239,132	-82,976	0,061	0,014
-238,117	36,590	-0,113	0,073
-237,103	63,012	-0,182	-0,133
-236,088	-200,000	-0,004	-0,018
-235,073	-52,299	0,067	0,023
-234,059	-36,360	-0,004	0,001
-233,044	-45,996	0,072	0,026
-232,030	-53,959	0,079	0,026
-231,015	-200,000	-0,002	0,025
-230,000	-134,501	-0,131	-0,012
-228,986	24,187	0,046	-0,027
-227,971	83,612	0,058	-0,046
-226,957	800,000	0,016	-0,035
-225,942	-68,863	0,027	0,008
-224,927	-82,137	-0,113	0,027
-223,913	-35,816	-0,143	-0,056
-222,898	800,000	0,058	0,118
-221,884	800,000	0,023	0,062
-220,869	777,165	-0,037	0,074
-219,855	-200,000	0,016	0,057
-218,840	-76,002	-0,127	0,033
-217,825	-100,389	0,053	-0,010
-216,811	-101,272	0,059	-0,010
-215,796	314,169	-0,039	-0,053
-214,782	2,555	-0,090	-0,048
-213,767	-160,962	0,040	0,001
-212,752	223,926	0,077	0,091
-211,738	-80,401	-0,013	0,003
-210,723	-200,000	0,012	0,090
-209,709	-136,921	0,036	0,003
-208,694	-200,000	-0,009	-0,058
-207,679	800,000	-0,024	0,066
-206,665	800,000	0,054	0,122
-205,650	800,000	-0,017	-0,053
-204,636	14,555	0,013	0,007
-203,621	800,000	-0,033	0,078
-202,606	-134,459	-0,065	-0,006
-201,592	414,411	0,086	-0,133
-200,577	37,082	-0,134	-0,086
-199,563	130,852	0,019	0,017
-198,548	-72,849	0,122	0,033
-197,533	723,957	-0,057	0,111
-196,519	-200,000	0,019	0,111
-195,504	800,000	-0,039	-0,122
-194,490	-200,000	-0,016	-0,212
-193,475	-66,239	0,126	-0,036
-192,460	-200,000	-0,004	0,095
-191,446	-180,643	0,146	0,002
-190,431	-72,083	0,060	0,016
-189,417	-93,752	0,060	-0,012
-188,402	-200,000	0,007	-0,083
-187,387	122,911	0,139	0,127
-186,373	-200,000	0,014	-0,075
-185,358	800,000	-0,029	-0,064
-184,344	255,367	0,005	-0,006
-183,329	-72,559	0,076	-0,020
-182,315	160,060	0,063	0,064
-181,300	58,815	0,063	-0,045
-180,285	-82,010	-0,086	-0,020
-179,271	577,002	0,019	0,034
-178,256	18,015	-0,082	-0,047
-177,242	278,296	0,057	-0,075
-176,227	23,918	-0,031	0,019
-175,212	103,963	-0,048	0,041
-174,198	-62,001	-0,053	-0,016
-173,183	-113,649	0,063	-0,009
-172,169	14,271	-0,117	-0,066
-171,154	-57,748	0,092	-0,029
-170,139	-200,000	0,006	0,063
-169,125	-13,803	0,123	0,058
-168,110	-35,700	0,136	0,054
-167,096	-200,000	-0,002	0,088
-166,081	-200,000	0,014	-0,065
-165,066	-58,576	0,085	-0,027
-164,052	-103,013	0,068	-0,012
-163,037	-134,191	-0,107	-0,010
-162,023	-67,119	0,063	0,018
-161,008	-102,442	-0,134	0,023
-159,993	800,000	-0,038	0,096
-158,979	800,000	0,043	-0,092
-157,964	-200,000	0,041	0,193
-156,950	251,535	0,040	-0,049
-155,935	95,996	0,094	0,078
-154,920	751,193	-0,026	0,051
-153,906	-102,575	0,256	0,044
-152,891	657,099	-0,058	-0,110
-151,877	-82,773	0,076	0,018
-150,862	46,305	-0,130	-0,088
-149,847	800,000	-0,062	-0,138
-148,833	730,592	0,019	0,037
-147,818	-47,097	-0,063	0,022
-146,804	-200,000	0,015	0,066
-145,789	-139,520	-0,018	-0,001
-144,775	800,000	-0,049	0,115
-143,760	6,070	-0,109	-0,059
-142,745	800,000	0,013	0,041
-141,731	49,685	0,085	-0,058
-140,716	465,290	-0,048	0,079
-139,702	-127,297	0,147	-0,015
-138,687	715,155	-0,032	0,062
-137,672	-48,061	0,091	0,032
-136,658	-22,196	-0,077	0,034
-135,643	-10,273	0,069	0,033
-134,629	-142,283	0,074	0,005
-133,614	36,346	-0,050	-0,032
-132,599	-200,000	0,003	0,120
-131,585	19,766	0,073	0,043
-130,570	-200,000	0,006	0,134
-129,556	144,456	-0,083	0,081
-128,541	-81,307	0,067	0,016
-127,526	437,206	0,038	0,060
-126,512	-200,000	-0,000	0,040
-125,497	416,687	-0,027	0,043
-124,483	455,371	-0,062	0,101
-123,468	800,000	0,057	-0,119
-122,453	347,837	0,029	-0,041
-121,439	-95,593	-0,092	-0,018
-120,424	-200,000	0,003	-0,171
-119,410	38,822	0,089	-0,058
-118,395	-200,000	-0,005	0,049
