DTS Sentinel unit serial number:	SN410029Multiplexer serial number:	ORYXHardware model number:	OX2-SRSoftware version number:	ORYX F/W v4,00 Oryx Data Collector v3.7.2.0data status	okinstallation	B6 Nyhavnadifferential loss correction	single-endedforward channel	channel 2reverse channel	N/Adate	2023/12/10time	11:55:08forward acquisition time	300,00reverse acquisition time	0,00gamma	499,1914k internal	0,3123k external	0,3123temperature offset calibration	1,0000default loss term (dB/km)	0,3820temperature slope calibration	1,0000multiplexer offset coefficient	1,0000multiplexer slope coefficient	1,0000fibre end	0,00T internal ref (°C)	22,73T ext. ref 1 (°C)	6,65T ext. ref 2 (°C)	6,64length (m)	temperature (°C)	Stokes	anti-Stokes-744,400	461,813	-0,036	-0,060
-743,385	-80,933	-0,201	0,049
-742,371	800,000	0,032	0,101
-741,356	254,702	-0,117	0,149
-740,342	-86,762	-0,043	-0,010
-739,327	-31,415	-0,227	0,095
-738,312	44,860	-0,019	0,013
-737,298	106,272	-0,199	0,176
-736,283	-112,041	0,086	-0,013
-735,269	-168,267	-0,125	0,004
-734,254	800,000	0,040	-0,086
-733,239	-104,075	-0,216	0,037
-732,225	-49,133	0,105	-0,037
-731,210	-200,000	-0,002	0,123
-730,196	-161,845	0,116	-0,004
-729,181	-200,000	-0,029	-0,103
-728,167	72,630	-0,061	-0,047
-727,152	-120,002	-0,070	-0,009
-726,137	-200,000	-0,026	-0,086
-725,123	498,186	-0,043	-0,074
-724,108	800,000	-0,065	-0,212
-723,094	-24,198	-0,171	-0,076
-722,079	800,000	-0,026	-0,080
-721,064	78,748	-0,048	0,038
-720,050	498,734	0,062	0,106
-719,035	-200,000	-0,014	-0,084
-718,021	800,000	0,019	-0,047
-717,006	-200,000	0,004	-0,014
-715,991	110,120	-0,039	0,035
-714,977	-200,000	-0,007	0,106
-713,962	800,000	-0,053	-0,137
-712,948	104,656	-0,101	-0,088
-711,933	800,000	-0,069	-0,177
-710,918	-200,000	0,005	-0,103
-709,904	800,000	0,064	0,133
-708,889	-200,000	0,079	0,000
-707,875	-97,276	-0,094	-0,018
-706,860	800,000	0,050	-0,120
-705,845	-113,228	0,029	0,004
-704,831	104,571	-0,022	0,019
-703,816	20,577	-0,087	-0,052
-702,802	298,980	0,039	-0,054
-701,787	5,013	0,067	0,037
-700,772	-200,000	-0,038	-0,124
-699,758	-11,371	-0,120	0,059
-698,743	800,000	-0,026	-0,057
-697,729	-72,569	-0,047	-0,013
-696,714	800,000	-0,036	-0,118
-695,699	800,000	0,053	-0,146
-694,685	-200,000	0,034	-0,252
-693,670	-200,000	-0,039	-0,160
-692,656	-162,150	-0,126	0,005
-691,641	-200,000	-0,008	-0,100
-690,627	-119,476	0,060	-0,008
-689,612	113,270	-0,046	0,042
-688,597	800,000	-0,029	-0,085
-687,583	-114,453	-0,112	-0,016
-686,568	16,779	-0,106	0,062
-685,554	-54,000	-0,035	-0,012
-684,539	-54,699	0,101	-0,034
-683,524	-81,514	0,071	-0,017
-682,510	126,113	-0,063	-0,059
-681,495	-49,098	0,063	0,022
-680,481	85,382	-0,098	-0,080
-679,466	160,760	-0,110	-0,114
-678,451	800,000	-0,040	-0,105
-677,437	800,000	0,033	0,095
-676,422	800,000	0,047	-0,128
-675,408	136,485	0,074	-0,072
-674,393	244,976	-0,048	-0,061
-673,378	-47,943	-0,045	-0,016
-672,364	398,357	-0,089	-0,139
-671,349	-200,000	0,029	-0,245
-670,335	800,000	0,053	-0,154
-669,320	500,115	0,085	-0,146
-668,305	800,000	-0,028	0,060
-667,291	800,000	-0,016	-0,045
-666,276	-127,853	-0,110	0,012
-665,262	102,226	-0,097	-0,084
-664,247	-200,000	-0,000	-0,030
-663,232	188,672	-0,082	-0,091
-662,218	-42,002	0,070	0,027
-661,203	-172,281	0,180	-0,004
-660,189	198,683	0,049	0,056
-659,174	-151,065	-0,080	-0,004
-658,159	-9,086	-0,110	-0,055
-657,145	-27,222	-0,061	-0,026
-656,130	13,575	0,078	0,045
-655,116	402,700	0,053	0,082
-654,101	-46,031	-0,045	-0,017
-653,086	800,000	0,049	-0,151
-652,072	800,000	-0,040	0,085
-651,057	398,483	-0,060	-0,094
-650,043	-96,817	0,100	-0,019
-649,028	-200,000	-0,022	-0,092
-648,014	202,926	0,053	0,061
-646,999	-200,000	0,038	-0,137
-645,984	-11,609	0,198	0,096
-644,970	266,524	-0,079	-0,103
-643,955	462,654	-0,058	-0,096
-642,941	-144,152	-0,150	-0,010
-641,926	-200,000	-0,002	0,056
-640,911	-99,177	-0,035	0,007
-639,897	-100,903	0,045	0,008
-638,882	126,428	-0,035	0,033
-637,868	578,429	0,046	-0,083
-636,853	-200,000	-0,011	-0,165
-635,838	31,807	-0,111	-0,071
-634,824	-105,106	-0,045	-0,008
-633,809	-200,000	0,002	0,056
-632,795	3,560	0,062	0,033
-631,780	-108,572	-0,117	0,019
-630,765	800,000	-0,034	0,087
-629,751	-96,606	-0,036	-0,007
-628,736	-83,273	-0,189	0,045
-627,722	-200,000	-0,020	0,073
-626,707	800,000	-0,040	-0,097
-625,692	800,000	-0,013	0,038
-624,678	74,558	0,073	0,057
-623,663	72,182	-0,086	0,066
-622,649	-200,000	0,004	-0,055
-621,634	205,518	-0,027	-0,031
-620,619	155,156	-0,126	-0,128
-619,605	-108,936	-0,135	0,021
-618,590	-200,000	-0,008	0,040
-617,576	-66,654	0,078	0,023
-616,561	-200,000	-0,015	0,084
-615,546	-200,000	-0,019	0,068
-614,532	800,000	-0,017	0,050
-613,517	139,049	-0,096	-0,094
-612,503	139,821	0,103	-0,101
-611,488	594,096	0,100	0,184
-610,474	800,000	0,048	0,114
-609,459	-142,770	0,039	-0,003
-608,444	127,182	-0,096	0,091
-607,430	-85,487	-0,073	-0,017
-606,415	800,000	-0,039	-0,092
-605,401	-153,162	-0,149	-0,008
-604,386	-135,685	-0,017	0,001
-603,371	95,321	0,069	-0,058
-602,357	-200,000	-0,024	-0,150
-601,342	15,719	-0,125	-0,073
-600,328	-200,000	0,021	-0,142
-599,313	800,000	0,010	-0,033
-598,298	-43,294	0,103	0,038
-597,284	-200,000	0,025	0,085
-596,269	-200,000	0,013	-0,045
-595,255	-200,000	0,002	-0,009
-594,240	-57,082	-0,049	-0,016
-593,225	-1,650	-0,082	0,043
-592,211	-200,000	-0,019	-0,185
-591,196	-151,738	0,162	-0,009
-590,182	800,000	0,038	-0,104
-589,167	-200,000	-0,002	0,153
-588,152	-67,310	0,067	-0,019
-587,138	-17,049	0,066	-0,031
-586,123	441,117	-0,072	-0,117
-585,109	-38,190	0,087	-0,034
-584,094	-164,758	-0,126	0,004
-583,079	193,365	0,018	-0,020
-582,065	68,105	0,036	-0,027
-581,050	-200,000	0,040	-0,133
-580,036	197,822	-0,100	-0,114
-579,021	-200,000	-0,034	-0,148
-578,006	-71,316	-0,191	-0,053
-576,992	300,223	-0,084	-0,115
-575,977	-200,000	0,015	0,059
-574,963	117,776	0,057	0,052
-573,948	-144,060	0,037	-0,003
-572,934	-200,000	-0,005	0,062
-571,919	-6,954	-0,021	-0,011
-570,904	351,500	-0,065	-0,096
-569,890	137,219	0,056	-0,054
-568,875	800,000	0,047	-0,110
-567,861	-49,338	0,063	0,022
-566,846	-200,000	-0,011	0,039
-565,831	-16,033	-0,043	0,020
-564,817	53,706	-0,104	0,074
-563,802	189,093	-0,040	0,044
-562,788	-200,000	0,012	-0,090
-561,773	-160,351	0,183	0,007
-560,758	-49,667	-0,156	-0,055
-559,744	273,347	0,087	0,114
-558,729	-31,666	-0,135	-0,056
-557,715	-200,000	-0,000	0,072
-556,700	-80,629	0,127	-0,031
-555,685	52,592	0,103	-0,073
-554,671	43,743	0,127	-0,086
-553,656	76,747	0,034	0,027
-552,642	-125,353	0,083	-0,009
-551,627	800,000	0,016	0,052
-550,612	-39,686	-0,093	0,036
-549,598	-200,000	0,025	0,102
-548,583	-200,000	0,002	-0,050
-547,569	-66,799	0,016	-0,005
-546,554	219,459	0,022	-0,027
-545,539	-200,000	0,001	0,064
-544,525	217,975	-0,016	0,019
-543,510	800,000	-0,029	0,089
-542,496	32,124	-0,060	-0,038
-541,481	591,721	0,017	-0,031
-540,466	147,806	-0,026	0,026
-539,452	171,035	0,103	-0,110
-538,437	131,264	0,109	-0,104
-537,423	-200,000	0,004	0,082
-536,408	113,017	-0,047	-0,042
-535,393	557,352	-0,020	0,037
-534,379	-200,000	-0,001	-0,045
-533,364	800,000	0,014	-0,036
-532,350	-25,417	0,066	-0,029
-531,335	125,359	-0,051	0,048
-530,321	-200,000	-0,006	0,106
-529,306	800,000	0,006	0,015
-528,291	564,719	-0,071	0,127
-527,277	358,832	-0,059	0,088
-526,262	-200,000	-0,019	-0,068
-525,248	800,000	0,028	-0,059
-524,233	115,454	0,073	0,066
-523,218	-142,558	0,053	0,004
-522,204	127,029	0,078	-0,073
-521,189	41,999	-0,120	-0,080
-520,175	27,134	-0,048	-0,030
-519,160	86,931	0,115	0,094
-518,145	142,078	0,062	0,061
-517,131	96,134	-0,024	0,020
-516,116	611,031	-0,067	0,124
-515,102	800,000	-0,036	0,089
-514,087	-87,470	0,060	0,013
-513,072	-144,399	-0,064	0,004
-512,058	47,618	-0,118	-0,081
-511,043	-16,596	-0,090	-0,042
-510,029	46,165	0,136	0,093
-509,014	-18,639	0,026	-0,012
-507,999	-200,000	0,005	0,043
-506,985	-123,202	-0,058	-0,007
-505,970	-200,000	0,001	-0,015
-504,956	-64,106	-0,080	0,024
-503,941	-200,000	-0,018	0,084
-502,926	247,680	0,057	0,072
-501,912	-194,059	0,044	-0,000
-500,897	118,628	-0,026	-0,024
-499,883	-75,885	0,090	-0,023
-498,868	800,000	-0,061	-0,174
-497,853	191,895	0,027	-0,030
-496,839	62,448	-0,038	0,028
-495,824	138,609	0,119	0,115
-494,810	17,772	0,026	0,015
-493,795	363,195	-0,071	0,106
-492,781	-200,000	0,028	-0,143
-491,766	-150,115	-0,154	-0,009
-490,751	105,665	0,074	-0,065
-489,737	-200,000	-0,016	-0,116
-488,722	323,153	0,062	0,087
-487,708	-75,513	0,103	0,027
-486,693	800,000	-0,037	0,091
-485,678	-8,581	-0,088	0,043
-484,664	800,000	0,022	-0,045
-483,649	-34,415	-0,071	-0,029
-482,635	-200,000	-0,006	-0,076
-481,620	70,651	0,011	0,008
-480,605	-66,615	0,152	0,044
-479,591	246,310	-0,060	0,075
-478,576	254,428	0,070	0,088
-477,562	-4,136	-0,058	0,030
-476,547	456,096	-0,109	0,179
-475,532	45,483	0,093	0,063
-474,518	405,884	-0,028	-0,043
-473,503	-200,000	0,033	0,140
-472,489	394,854	0,060	0,093
-471,474	-5,611	-0,156	-0,079
-470,459	-200,000	0,028	0,114
-469,445	-158,145	-0,091	0,004
-468,430	-200,000	0,035	-0,167
-467,416	-17,646	-0,095	-0,044
-466,401	40,297	0,125	0,083
-465,386	-104,493	0,057	-0,010
-464,372	-146,725	0,067	-0,004
-463,357	-126,644	0,142	0,015
-462,343	-200,000	-0,004	0,072
-461,328	-200,000	0,001	0,037
-460,313	247,767	0,133	0,166
-459,299	-200,000	0,025	0,091
-458,284	800,000	-0,059	-0,123
-457,270	-200,000	0,048	0,196
-456,255	-200,000	-0,019	-0,076
-455,241	-200,000	-0,000	-0,060
-454,226	672,348	-0,045	-0,086
-453,211	-25,893	0,055	0,024
-452,197	51,879	0,067	0,047
-451,182	-200,000	-0,007	-0,128
-450,168	30,539	-0,081	-0,051
-449,153	-61,055	0,071	-0,022
-448,138	-56,286	-0,083	-0,027
-447,124	439,582	-0,029	0,047
-446,109	-17,359	-0,062	-0,029
-445,095	-200,000	-0,005	0,057
-444,080	13,471	0,101	-0,058
-443,065	-59,282	0,173	0,054
-442,051	20,164	-0,046	0,027
-441,036	-10,138	-0,041	-0,020
-440,022	800,000	-0,039	0,097
-439,007	10,468	-0,074	-0,041
-437,992	-200,000	0,035	0,160
-436,978	65,915	-0,070	0,053
-435,963	35,134	0,089	-0,057
-434,949	233,338	0,060	-0,073
-433,934	-98,568	0,184	-0,034
-432,919	94,014	-0,060	-0,050
-431,905	-8,591	-0,041	-0,020
-430,890	206,760	0,056	0,065
-429,876	-110,317	0,013	-0,002
-428,861	-11,111	-0,023	0,011
-427,846	-200,000	0,012	0,093
-426,832	129,031	-0,123	-0,116
-425,817	-155,767	0,193	-0,009
-424,803	57,242	-0,052	-0,038
-423,788	-73,059	0,098	-0,026
-422,773	-0,467	0,033	-0,017
-421,759	-200,000	0,011	0,121
-420,744	800,000	0,047	0,101
-419,730	800,000	0,005	0,010
-418,715	138,554	-0,099	0,096
-417,701	537,370	0,039	0,069
-416,686	293,475	0,062	-0,084
-415,671	-200,000	-0,006	0,101
-414,657	102,018	0,116	0,099
-413,642	-200,000	-0,014	0,101
-412,628	-200,000	0,006	-0,021
-411,613	-9,754	-0,030	-0,015
-410,598	-200,000	0,008	-0,067
-409,584	800,000	-0,018	-0,042
-408,569	800,000	-0,043	0,126
-407,555	-200,000	0,003	-0,076
-406,540	-123,284	0,090	-0,010
-405,525	800,000	-0,020	-0,041
-404,511	-200,000	0,006	-0,064
-403,496	76,855	-0,102	-0,079
-402,482	0,384	0,050	-0,026
-401,467	-96,794	0,078	0,015
-400,452	800,000	0,049	-0,149
-399,438	109,945	0,068	0,060
-398,423	800,000	0,043	-0,098
-397,409	107,534	-0,054	0,047
-396,394	-200,000	0,012	0,118
-395,379	-200,000	-0,039	0,183
-394,365	800,000	0,028	0,090
-393,350	9,618	-0,115	0,064
-392,336	-200,000	-0,024	0,222
-391,321	-200,000	0,040	0,186
-390,306	-125,222	-0,128	0,014
-389,292	396,395	-0,037	-0,057
-388,277	800,000	-0,035	0,087
-387,263	-53,759	0,119	0,040
-386,248	800,000	-0,025	-0,072
-385,233	-200,000	-0,006	0,038
-384,219	-200,000	-0,024	-0,114
-383,204	149,030	-0,110	-0,110
-382,190	800,000	0,004	-0,009
-381,175	20,670	0,059	0,035
-380,160	398,396	0,039	0,059
-379,146	62,300	0,072	0,053
-378,131	-200,000	0,046	0,165
-377,117	800,000	0,013	-0,029
-376,102	98,372	0,125	-0,106
-375,088	143,483	-0,058	-0,057
-374,073	-108,583	-0,181	-0,028
-373,058	79,568	0,051	0,040
-372,044	-200,000	0,016	0,177
-371,029	-37,299	0,074	0,029
-370,015	231,588	0,080	-0,096
-369,000	-63,442	-0,087	0,026
-367,985	23,847	-0,163	-0,098
-366,971	162,536	-0,037	-0,038
-365,956	-200,000	0,038	0,180
-364,942	95,796	0,061	0,051
-363,927	631,564	-0,037	-0,069
-362,912	-200,000	0,034	0,136
-361,898	178,168	0,038	0,041
-360,883	-200,000	-0,006	-0,027
-359,869	-200,000	-0,019	-0,109
-358,854	-200,000	-0,024	0,093
-357,839	315,574	-0,054	0,075
-356,825	-100,141	0,086	-0,016
-355,810	41,702	0,054	0,036
-354,796	-200,000	0,018	0,102
-353,781	-85,100	-0,094	-0,021
-352,766	52,975	-0,168	0,118
-351,752	62,578	0,028	-0,021
-350,737	-200,000	0,021	0,098
-349,723	-200,000	0,012	-0,057
-348,708	-200,000	0,021	-0,163
-347,693	105,915	-0,042	0,037
-346,679	-56,997	-0,128	-0,041
-345,664	800,000	0,071	0,146
-344,650	55,156	0,097	-0,069
-343,635	800,000	-0,040	-0,122
-342,620	-200,000	-0,013	0,063
-341,606	-60,777	0,062	0,019
-340,591	458,049	-0,048	-0,079
-339,577	-165,521	-0,105	0,003
-338,562	281,526	-0,044	-0,058
-337,548	800,000	0,029	-0,064
-336,533	-122,801	0,133	0,016
-335,518	463,746	-0,040	-0,066
-334,504	800,000	-0,013	-0,030
-333,489	89,471	-0,039	0,032
-332,475	-200,000	-0,010	0,104
-331,460	-76,085	-0,173	0,045
-330,445	439,497	0,087	-0,140
-329,431	-200,000	-0,014	-0,054
-328,416	181,029	-0,056	-0,060
-327,402	245,914	-0,046	0,056
-326,387	531,216	0,105	-0,183
-325,372	186,602	0,056	0,062
-324,358	-100,522	-0,067	-0,012
-323,343	-200,000	-0,014	-0,128
-322,329	122,340	0,042	-0,038
-321,314	632,880	0,052	0,098
-320,299	-200,000	-0,000	0,090
-319,285	-160,757	-0,132	0,005
-318,270	-200,000	0,017	-0,096
-317,256	214,501	-0,178	-0,207
-316,241	235,484	-0,077	-0,093
-315,226	-34,127	0,097	0,039
-314,212	54,979	0,095	-0,067
-313,197	269,869	0,079	0,102
-312,183	-61,102	0,094	-0,029
-311,168	-50,185	0,014	-0,005
-310,153	-1,005	-0,164	-0,085
-309,139	99,718	0,057	-0,048
-308,124	-200,000	-0,005	-0,049
-307,110	26,814	0,072	-0,044
-306,095	314,737	0,059	0,081
-305,080	-55,079	0,044	-0,015
-304,066	-200,000	0,010	-0,073
-303,051	726,900	-0,017	0,034
-302,037	51,147	-0,055	0,038
-301,022	-91,350	-0,030	-0,006
-300,008	-114,016	0,114	-0,016
-298,993	246,111	-0,040	0,050
-297,978	-83,643	0,097	-0,023
-296,964	159,042	0,100	-0,102
-295,949	219,186	-0,015	0,018
-294,935	-7,763	-0,046	0,023
-293,920	-200,000	0,006	-0,060
-292,905	-116,711	0,106	0,014
-291,891	35,583	0,042	-0,027
-290,876	440,107	-0,013	0,020
-289,862	-192,138	0,020	0,000
-288,847	315,378	0,061	-0,085
-287,832	262,900	-0,048	0,061
-286,818	16,593	-0,102	-0,059
-285,803	-15,022	-0,027	0,013
-284,789	-200,000	0,012	-0,084
-283,774	800,000	-0,076	0,177
-282,759	76,040	-0,109	-0,085
-281,745	-38,318	0,060	-0,023
-280,730	-25,678	0,025	-0,011
-279,716	130,375	0,041	0,039
-278,701	800,000	0,038	0,078
-277,686	-140,348	0,212	-0,016
-276,672	-200,000	-0,014	-0,099
-275,657	-10,560	-0,080	0,039
-274,643	105,799	0,152	-0,132
-273,628	-138,225	-0,073	0,006
-272,613	-42,068	-0,036	-0,013
-271,599	-200,000	-0,009	0,091
-270,584	-160,837	0,104	0,004
-269,570	137,225	-0,031	-0,030
-268,555	352,368	0,053	-0,077
-267,540	-200,000	0,012	-0,086
-266,526	225,522	-0,068	-0,081
-265,511	59,727	0,059	-0,043
-264,497	799,994	-0,046	0,093
-263,482	800,000	-0,054	0,134
-262,467	513,191	-0,021	0,036
-261,453	-68,537	0,065	0,018
-260,438	-200,000	0,038	0,125
-259,424	800,000	-0,062	-0,179
-258,409	-145,857	0,155	0,010
-257,395	382,822	0,033	0,050
-256,380	136,951	0,020	0,019
-255,365	-200,000	0,021	-0,103
-254,351	64,964	0,077	0,057
-253,336	-200,000	-0,028	-0,116
-252,322	-56,534	-0,075	-0,024
-251,307	267,649	0,037	-0,047
-250,292	-200,000	-0,006	-0,035
-249,278	800,000	0,009	-0,026
-248,263	240,251	0,033	-0,040
-247,249	285,081	-0,085	0,112
-246,234	-126,089	0,044	-0,005
-245,219	800,000	0,029	-0,064
-244,205	134,155	0,017	0,016
-243,190	-200,000	-0,013	-0,065
-242,176	476,344	-0,043	0,071
-241,161	-200,000	0,019	0,066
-240,146	-200,000	0,023	0,076
-239,132	-200,000	0,012	0,043
-238,117	800,000	0,027	-0,071
-237,103	84,851	-0,066	-0,053
-236,088	635,334	0,101	0,189
-235,073	800,000	0,044	0,099
-234,059	-200,000	0,015	0,080
-233,044	-200,000	0,003	0,062
-232,030	154,032	-0,016	0,016
-231,015	48,521	0,056	-0,038
-230,000	122,006	-0,034	-0,031
-228,986	-95,513	0,087	-0,017
-227,971	258,913	0,049	-0,062
-226,957	4,347	-0,095	0,051
-225,942	-101,886	0,043	-0,007
-224,927	-135,366	-0,113	0,010
-223,913	-86,720	-0,103	-0,023
-222,898	38,599	-0,048	-0,031
-221,884	191,460	0,049	-0,053
-220,869	113,576	0,022	-0,020
-219,855	-19,640	-0,063	0,028
-218,840	-200,000	0,013	0,122
-217,825	107,329	-0,029	-0,025
-216,811	-200,000	-0,015	-0,162
-215,796	800,000	-0,015	-0,033
-214,782	-200,000	0,030	-0,104
-213,767	92,537	-0,107	-0,088
-212,752	-200,000	0,023	0,083
-211,738	-14,378	0,048	-0,022
-210,723	100,156	-0,043	0,037
-209,709	-190,050	-0,101	-0,001
-208,694	-140,239	-0,136	0,010
-207,679	312,097	0,037	-0,050
-206,665	70,672	0,058	-0,044
-205,650	-9,695	-0,061	-0,030
-204,636	503,799	-0,052	0,087
-203,621	-200,000	-0,016	0,079
-202,606	-120,455	-0,140	-0,017
-201,592	-200,000	-0,010	-0,056
-200,577	-67,424	0,073	-0,021
-199,563	-200,000	-0,022	-0,104
-198,548	800,000	-0,005	-0,010
-197,533	-200,000	-0,020	0,160
-196,519	-49,545	-0,111	0,038
-195,504	800,000	-0,053	0,149
-194,490	-60,327	-0,095	0,029
-193,475	-131,662	-0,060	0,006
-192,460	-116,944	-0,137	-0,018
-191,446	141,879	0,158	-0,152
-190,431	80,491	-0,035	-0,028
-189,417	-200,000	0,011	-0,105
-188,402	31,037	0,107	0,067
-187,387	800,000	0,037	-0,076
-186,373	15,581	-0,024	-0,014
-185,358	-200,000	-0,010	-0,060
-184,344	61,716	-0,043	-0,031
-183,329	-200,000	0,035	0,211
-182,315	-25,994	0,109	0,047
-181,300	800,000	0,054	-0,118
-180,285	-63,727	-0,072	-0,021
-179,271	202,466	-0,040	-0,045
-178,256	-200,000	-0,008	-0,099
-177,242	96,875	-0,085	0,071
-176,227	-104,685	0,118	0,020
-175,212	-116,453	0,182	-0,024
-174,198	-3,641	-0,070	0,035
-173,183	-113,992	-0,025	0,004
-172,169	518,204	-0,121	-0,207
-171,154	800,000	0,025	0,054
-170,139	38,139	-0,088	0,057
-169,125	45,457	0,146	-0,098
-168,110	90,083	0,071	-0,057
-167,096	-200,000	-0,016	0,078
-166,081	411,951	-0,079	0,123
-165,066	-166,471	-0,125	0,004
-164,052	31,375	-0,033	0,020
-163,037	98,118	0,109	0,092
-162,023	132,463	-0,075	0,070
-161,008	-125,363	0,049	0,005
-159,993	-9,623	0,059	-0,029
-158,979	-200,000	-0,003	-0,047
-157,964	-59,976	0,097	-0,030
-156,950	117,474	-0,057	0,051
-155,935	-200,000	-0,015	0,186
-154,920	-200,000	0,012	-0,134
-153,906	-171,857	0,182	0,004
-152,891	27,336	-0,053	-0,032
-151,877	800,000	-0,016	0,045
-150,862	703,845	0,058	-0,113
-149,847	44,640	-0,055	0,037
-148,833	31,170	0,137	0,085
-147,818	192,405	0,028	0,031
-146,804	95,980	0,112	0,093
-145,789	-54,612	-0,057	0,019
-144,775	-46,378	-0,054	-0,019
-143,760	-200,000	-0,004	-0,035
-142,745	-19,648	0,056	0,025
-141,731	191,357	0,039	0,043
-140,716	395,304	-0,036	0,055
-139,702	800,000	-0,082	0,205
-138,687	800,000	-0,024	0,062
-137,672	10,185	0,066	-0,036
-136,658	-200,000	0,004	0,016
-135,643	-200,000	0,021	0,087
-134,629	-23,545	-0,124	0,054
-133,614	-200,000	0,030	0,108
-132,599	800,000	0,065	0,184
-131,585	417,800	-0,022	-0,034
-130,570	132,328	-0,026	0,024
-129,556	84,637	-0,064	-0,051
-128,541	376,231	-0,036	-0,053
-127,526	234,646	0,031	0,037
-126,512	559,764	-0,054	0,095
-125,497	221,517	0,121	0,141
-124,483	800,000	-0,027	0,056
-123,468	726,419	-0,087	0,171
-122,453	585,088	-0,049	0,088
-121,439	418,685	-0,074	-0,115
-120,424	-200,000	-0,006	-0,146
