DTS Sentinel unit serial number:	SN410029Multiplexer serial number:	ORYXHardware model number:	OX2-SRSoftware version number:	ORYX F/W v4,00 Oryx Data Collector v3.7.2.0data status	okinstallation	B6 Nyhavnadifferential loss correction	single-endedforward channel	channel 2reverse channel	N/Adate	2023/12/09time	03:05:08forward acquisition time	300,00reverse acquisition time	0,00gamma	499,1914k internal	0,3154k external	0,3154temperature offset calibration	1,0000default loss term (dB/km)	0,3820temperature slope calibration	1,0000multiplexer offset coefficient	1,0000multiplexer slope coefficient	1,0000fibre end	0,00T internal ref (°C)	16,19T ext. ref 1 (°C)	0,04T ext. ref 2 (°C)	0,02length (m)	temperature (°C)	Stokes	anti-Stokes-744,400	-178,044	0,128	-0,002
-743,385	-70,351	-0,393	0,109
-742,371	-137,515	0,202	-0,017
-741,356	-147,260	-0,287	-0,018
-740,342	-32,615	0,073	-0,030
-739,327	-55,329	-0,233	0,077
-738,312	-200,000	-0,006	-0,023
-737,298	-183,397	-0,279	-0,003
-736,283	-153,190	0,099	0,005
-735,269	-93,800	-0,286	-0,058
-734,254	-200,000	-0,001	0,015
-733,239	-134,606	-0,559	-0,050
-732,225	-173,172	0,148	-0,003
-731,210	-126,783	-0,073	0,008
-730,196	198,523	-0,033	-0,037
-729,181	-200,000	0,001	-0,065
-728,167	-101,199	-0,179	0,032
-727,152	-200,000	0,000	0,030
-726,137	-159,137	-0,211	0,009
-725,123	-33,840	-0,111	-0,045
-724,108	800,000	-0,035	-0,099
-723,094	393,626	0,035	-0,054
-722,079	-182,792	-0,056	0,001
-721,064	-108,485	0,029	-0,005
-720,050	-55,192	0,078	-0,026
-719,035	117,725	0,030	-0,027
-718,021	-28,994	-0,148	-0,062
-717,006	441,148	-0,062	-0,100
-715,991	800,000	0,023	-0,049
-714,977	800,000	0,017	-0,042
-713,962	277,101	0,039	0,052
-712,948	528,101	-0,032	-0,055
-711,933	49,381	0,081	0,056
-710,918	800,000	0,028	0,060
-709,904	62,213	-0,008	-0,006
-708,889	-138,604	0,094	-0,007
-707,875	91,822	-0,108	-0,089
-706,860	-104,674	0,079	0,013
-705,845	-61,305	-0,102	-0,032
-704,831	656,184	0,102	0,193
-703,816	-113,389	-0,161	0,023
-702,802	-102,428	-0,203	-0,035
-701,787	800,000	0,055	-0,128
-700,772	285,153	-0,051	-0,068
-699,758	-1,384	0,057	0,029
-698,743	-200,000	0,025	-0,112
-697,729	652,926	0,044	-0,084
-696,714	404,899	-0,027	0,042
-695,699	800,000	0,030	-0,065
-694,685	188,008	0,059	-0,065
-693,670	-160,488	-0,169	0,007
-692,656	800,000	-0,019	0,040
-691,641	800,000	0,053	0,120
-690,627	85,890	-0,038	0,031
-689,612	-1,731	0,084	0,043
-688,597	23,309	0,044	0,027
-687,583	-27,616	-0,125	-0,053
-686,568	-200,000	0,015	-0,161
-685,554	163,667	-0,094	-0,098
-684,539	-200,000	-0,001	0,041
-683,524	-15,314	-0,127	0,059
-682,510	-48,196	-0,081	0,029
-681,495	-200,000	-0,011	0,061
-680,481	390,617	0,055	-0,084
-679,466	167,210	0,022	-0,023
-678,451	96,690	0,068	0,057
-677,437	-200,000	-0,005	0,021
-676,422	-37,713	-0,107	-0,042
-675,408	800,000	-0,026	0,067
-674,393	-1,705	-0,061	0,031
-673,378	20,780	-0,108	-0,064
-672,364	235,093	0,065	-0,079
-671,349	-200,000	0,003	-0,121
-670,335	214,701	0,055	0,065
-669,320	800,000	0,025	0,074
-668,305	62,995	0,079	-0,058
-667,291	123,728	-0,043	0,040
-666,276	-130,093	-0,091	-0,009
-665,262	-88,372	-0,074	0,016
-664,247	-200,000	-0,009	-0,066
-663,232	-49,453	0,049	-0,017
-662,218	372,859	0,045	-0,067
-661,203	800,000	-0,038	0,109
-660,189	-200,000	-0,012	-0,048
-659,174	-200,000	-0,036	-0,141
-658,159	0,599	-0,115	-0,061
-657,145	800,000	-0,063	-0,131
-656,130	-200,000	-0,001	-0,062
-655,116	281,649	0,109	0,144
-654,101	-128,667	0,096	0,010
-653,086	477,519	-0,023	-0,039
-652,072	800,000	-0,062	0,131
-651,057	-195,440	-0,109	-0,001
-650,043	800,000	-0,100	-0,214
-649,028	800,000	-0,048	-0,121
-648,014	735,390	-0,040	-0,078
-646,999	-115,716	0,100	-0,014
-645,984	105,028	-0,112	0,097
-644,970	-91,936	-0,127	-0,026
-643,955	-123,646	-0,096	0,011
-642,941	800,000	-0,028	0,063
-641,926	-67,115	-0,083	-0,024
-640,911	800,000	-0,029	-0,088
-639,897	800,000	-0,005	0,013
-638,882	61,982	-0,017	-0,013
-637,868	-200,000	-0,012	-0,089
-636,853	-165,438	-0,070	-0,002
-635,838	-145,895	-0,028	0,002
-634,824	-35,842	0,040	-0,016
-633,809	-88,477	0,030	-0,007
-632,795	772,282	0,038	0,077
-631,780	800,000	0,032	-0,071
-630,765	-200,000	-0,007	-0,083
-629,751	-200,000	0,021	-0,199
-628,736	-16,784	0,054	-0,025
-627,722	201,951	-0,075	-0,085
-626,707	250,006	0,071	0,089
-625,692	117,779	0,057	0,051
-624,678	99,760	0,045	-0,038
-623,663	112,109	0,071	0,063
-622,649	-145,850	0,102	0,007
-621,634	400,154	-0,132	-0,205
-620,619	169,342	0,111	-0,117
-619,605	-50,765	-0,044	-0,015
-618,590	27,457	0,181	0,111
-617,576	-92,461	-0,201	0,041
-616,561	362,549	0,027	-0,039
-615,546	32,595	-0,130	0,082
-614,532	-200,000	-0,043	-0,181
-613,517	686,579	-0,058	0,113
-612,503	663,005	-0,012	0,024
-611,488	-128,002	0,138	-0,014
-610,474	-200,000	0,006	0,024
-609,459	84,824	-0,044	-0,035
-608,444	421,219	-0,040	0,063
-607,430	-111,871	0,072	0,011
-606,415	-51,262	0,034	-0,012
-605,401	800,000	0,044	-0,103
-604,386	211,764	-0,011	0,013
-603,371	114,703	0,074	-0,066
-602,357	-165,231	0,083	-0,003
-601,342	-43,757	-0,052	-0,019
-600,328	176,200	0,002	-0,002
-599,313	20,471	0,054	0,032
-598,298	-200,000	-0,020	0,099
-597,284	56,533	0,102	-0,073
-596,269	101,505	-0,133	0,113
-595,255	-200,000	0,009	-0,053
-594,240	-22,179	-0,094	0,042
-593,225	298,756	-0,073	0,099
-592,211	-95,932	-0,184	-0,036
-591,196	800,000	0,031	-0,083
-590,182	-200,000	-0,019	-0,129
-589,167	549,768	0,008	-0,014
-588,152	51,305	0,099	0,069
-587,138	37,407	-0,072	-0,047
-586,123	61,710	-0,049	0,036
-585,109	-50,722	-0,060	-0,020
-584,094	800,000	0,043	0,102
-583,079	-10,827	0,048	0,023
-582,065	-200,000	0,000	0,088
-581,050	-19,934	-0,050	0,022
-580,036	800,000	0,007	-0,022
-579,021	-116,621	-0,137	0,018
-578,006	157,625	-0,129	-0,131
-576,992	54,485	-0,201	-0,142
-575,977	-80,112	0,114	-0,028
-574,963	800,000	-0,026	0,076
-573,948	15,099	-0,113	0,065
-572,934	-60,520	-0,031	-0,010
-571,919	-200,000	0,023	-0,101
-570,904	719,275	0,022	-0,043
-569,890	800,000	-0,049	-0,148
-568,875	-200,000	-0,011	-0,108
-567,861	-200,000	0,023	-0,095
-566,846	-56,022	-0,048	0,016
-565,831	-44,130	-0,099	0,036
-564,817	-49,316	0,065	-0,023
-563,802	534,389	-0,038	-0,067
-562,788	-200,000	0,069	-0,228
-561,773	112,305	-0,080	0,071
-560,758	-156,537	0,085	-0,004
-559,744	-64,071	0,143	-0,042
-558,729	234,570	0,077	-0,094
-557,715	800,000	-0,036	-0,099
-556,700	640,949	-0,021	0,039
-555,685	-48,112	-0,054	-0,019
-554,671	-120,193	0,052	-0,006
-553,656	-37,083	0,051	0,020
-552,642	20,994	-0,040	-0,024
-551,627	-200,000	-0,004	0,059
-550,612	115,507	-0,104	0,093
-549,598	-200,000	-0,012	-0,165
-548,583	497,830	0,058	0,099
-547,569	-15,375	0,060	-0,028
-546,554	-200,000	-0,018	0,115
-545,539	-83,327	-0,036	-0,008
-544,525	800,000	0,006	-0,014
-543,510	-200,000	-0,038	-0,158
-542,496	516,104	-0,048	0,082
-541,481	-40,771	-0,045	-0,017
-540,466	10,747	0,098	0,055
-539,452	-130,395	-0,096	0,009
-538,437	800,000	0,030	0,068
-537,423	-59,317	-0,085	0,027
-536,408	800,000	-0,029	0,082
-535,393	18,512	-0,129	-0,076
-534,379	-200,000	-0,012	-0,087
-533,364	800,000	0,001	-0,002
-532,350	608,087	-0,033	-0,061
-531,335	-177,650	-0,033	-0,001
-530,321	-200,000	0,001	-0,028
-529,306	372,845	-0,001	-0,002
-528,291	-200,000	-0,013	-0,134
-527,277	116,705	-0,036	-0,032
-526,262	140,588	0,130	0,126
-525,248	-200,000	0,017	-0,067
-524,233	91,196	-0,002	-0,002
-523,218	-107,782	-0,063	0,010
-522,204	-40,208	0,093	0,035
-521,189	327,836	0,049	0,069
-520,175	486,769	-0,055	-0,092
-519,160	55,779	0,048	-0,034
-518,145	-128,561	-0,095	0,010
-517,131	-115,792	-0,040	0,005
-516,116	193,278	-0,048	0,054
-515,102	800,000	-0,058	0,135
-514,087	-139,460	0,033	0,003
-513,072	195,216	0,039	-0,043
-512,058	15,648	-0,089	-0,051
-511,043	-200,000	0,183	0,000
-510,029	-72,847	0,115	-0,031
-509,014	-200,000	-0,017	0,090
-507,999	249,599	-0,021	0,026
-506,985	800,000	-0,061	-0,139
-505,970	-43,350	-0,092	0,034
-504,956	800,000	0,074	-0,156
-503,941	-78,787	0,053	0,013
-502,926	90,189	0,120	0,098
-501,912	800,000	0,047	0,107
-500,897	-105,562	-0,101	0,017
-499,883	195,608	0,031	-0,035
-498,868	-79,469	0,042	0,010
-497,853	60,405	-0,088	-0,064
-496,839	-55,892	0,125	-0,040
-495,824	42,939	0,080	-0,053
-494,810	-102,105	0,103	0,018
-493,795	386,298	-0,035	0,053
-492,781	800,000	0,036	-0,109
-491,766	203,988	-0,037	-0,042
-490,751	269,878	0,048	-0,062
-489,737	210,675	0,018	0,021
-488,722	-47,610	0,124	-0,044
-487,708	800,000	0,028	-0,089
-486,693	128,510	-0,149	0,139
-485,678	-147,865	-0,177	-0,011
-484,664	-166,412	-0,026	-0,001
-483,649	-35,404	0,096	-0,038
-482,635	84,101	-0,078	0,062
-481,620	265,464	0,059	0,076
-480,605	-200,000	0,005	0,040
-479,591	28,103	-0,097	0,060
-478,576	98,678	0,053	0,045
-477,562	-57,747	-0,068	-0,022
-476,547	800,000	0,006	0,016
-475,532	101,753	0,064	-0,055
-474,518	-91,700	0,119	-0,024
-473,503	-200,000	-0,017	0,066
-472,489	3,113	-0,097	-0,051
-471,474	-200,000	-0,026	0,084
-470,459	-200,000	-0,012	-0,050
-469,445	-200,000	-0,003	-0,061
-468,430	800,000	-0,025	0,069
-467,416	661,230	-0,049	0,093
-466,401	800,000	0,071	0,147
-465,386	-130,911	-0,169	0,016
-464,372	-11,651	-0,104	0,050
-463,357	-200,000	0,002	-0,065
-462,343	783,084	0,026	-0,052
-461,328	-64,526	0,103	0,030
-460,313	-200,000	-0,020	0,067
-459,299	-27,262	0,009	0,004
-458,284	-30,493	0,048	-0,020
-457,270	-74,047	-0,032	-0,008
-456,255	266,333	0,043	-0,055
-455,241	384,375	0,014	-0,020
-454,226	-104,689	0,080	0,013
-453,211	98,680	0,090	0,076
-452,197	79,406	0,160	-0,125
-451,182	-200,000	-0,004	-0,071
-450,168	381,048	-0,012	0,019
-449,153	335,863	-0,063	-0,089
-448,138	5,055	-0,170	-0,091
-447,124	-200,000	0,004	0,026
-446,109	-200,000	0,002	0,133
-445,095	-45,132	0,099	0,036
-444,080	-200,000	-0,043	0,248
-443,065	-117,758	0,084	-0,011
-442,051	116,555	-0,073	-0,066
-441,036	-200,000	0,014	0,061
-440,022	-200,000	0,056	-0,182
-439,007	-11,767	0,077	-0,037
-437,992	-179,582	0,148	-0,002
-436,978	157,924	-0,058	0,059
-435,963	800,000	-0,029	-0,073
-434,949	147,653	-0,065	-0,064
-433,934	-130,887	-0,042	0,004
-432,919	800,000	-0,075	-0,209
-431,905	255,642	-0,068	-0,085
-430,890	-8,403	-0,027	-0,013
-429,876	209,535	0,060	0,068
-428,861	275,861	0,071	0,092
-427,846	800,000	-0,030	0,077
-426,832	-200,000	0,014	0,094
-425,817	-71,448	-0,122	-0,033
-424,803	800,000	0,050	-0,121
-423,788	-200,000	-0,052	-0,184
-422,773	-35,518	0,139	0,055
-421,759	30,016	0,112	0,069
-420,744	-200,000	-0,012	-0,074
-419,730	514,785	-0,072	-0,123
-418,715	-93,591	-0,065	0,013
-417,701	-14,877	0,080	0,037
-416,686	800,000	0,037	0,117
-415,671	179,436	0,063	-0,067
-414,657	800,000	-0,077	0,158
-413,642	-200,000	-0,007	-0,156
-412,628	-30,905	-0,151	0,062
-411,613	-158,181	-0,100	0,004
-410,598	712,130	0,058	0,113
-409,584	-113,166	-0,095	0,013
-408,569	-200,000	0,026	0,209
-407,555	81,325	-0,059	-0,046
-406,540	-92,325	0,058	-0,012
-405,525	-107,605	-0,206	0,032
-404,511	46,787	0,052	-0,035
-403,496	71,502	0,170	-0,128
-402,482	800,000	0,036	-0,087
-401,467	118,652	-0,040	-0,036
-400,452	344,902	-0,077	0,110
-399,438	76,749	-0,058	-0,045
-398,423	59,564	-0,086	-0,061
-397,409	-200,000	-0,026	-0,115
-396,394	-92,462	0,134	-0,027
-395,379	-200,000	-0,014	0,089
-394,365	395,769	0,102	0,155
-393,350	101,586	0,076	-0,065
-392,336	-33,418	0,084	-0,034
-391,321	102,553	0,097	-0,083
-390,306	-200,000	-0,006	-0,050
-389,292	-93,405	-0,169	-0,034
-388,277	-200,000	-0,007	-0,070
-387,263	800,000	0,019	-0,049
-386,248	-200,000	0,017	0,057
-385,233	274,455	0,053	-0,068
-384,219	104,461	-0,137	-0,118
-383,204	720,811	0,027	-0,052
-382,190	34,992	-0,021	0,013
-381,175	427,679	0,096	0,151
-380,160	-200,000	0,035	0,121
-379,146	63,872	0,088	0,064
-378,131	800,000	0,051	-0,117
-377,117	800,000	-0,012	0,027
-376,102	201,384	0,027	-0,031
-375,088	105,891	-0,026	0,022
-374,073	-200,000	0,012	-0,088
-373,058	153,964	-0,076	0,076
-372,044	-67,861	0,129	0,036
-371,029	266,360	0,049	0,063
-370,015	-200,000	0,007	-0,082
-369,000	75,479	-0,176	-0,135
-367,985	800,000	-0,019	-0,045
-366,971	84,612	-0,085	-0,068
-365,956	-26,802	0,039	-0,016
-364,942	-200,000	-0,005	0,041
-363,927	-200,000	-0,027	0,091
-362,912	-200,000	-0,016	0,073
-361,898	221,847	-0,083	-0,097
-360,883	800,000	-0,076	-0,165
-359,869	-15,166	-0,061	0,028
-358,854	517,332	0,028	0,048
-357,839	-200,000	0,005	-0,042
-356,825	-141,342	-0,074	0,005
-355,810	-135,116	0,096	0,008
-354,796	0,137	0,095	0,049
-353,781	-19,388	-0,043	0,020
-352,766	-68,521	-0,072	0,020
-351,752	123,069	0,035	0,032
-350,737	-124,289	0,055	0,006
-349,723	-41,069	0,206	0,077
-348,708	800,000	0,052	0,119
-347,693	100,124	-0,058	-0,049
-346,679	223,778	-0,067	-0,079
-345,664	-200,000	0,012	0,125
-344,650	800,000	0,027	0,063
-343,635	-200,000	-0,017	-0,122
-342,620	348,718	-0,015	-0,021
-341,606	101,353	-0,038	-0,032
-340,591	800,000	-0,019	0,041
-339,577	153,158	-0,043	-0,043
-338,562	229,075	-0,058	0,069
-337,548	800,000	0,034	0,078
-336,533	389,279	0,040	0,060
-335,518	477,345	-0,040	-0,066
-334,504	-200,000	0,002	0,153
-333,489	272,438	-0,075	0,097
-332,475	800,000	0,034	-0,106
-331,460	47,286	-0,079	0,053
-330,445	228,483	0,123	0,146
-329,431	-48,660	0,020	-0,007
-328,416	-7,095	0,045	-0,022
-327,402	-200,000	0,008	0,152
-326,387	25,043	0,081	0,049
-325,372	28,889	-0,038	0,024
-324,358	-200,000	-0,064	-0,208
-323,343	800,000	0,049	-0,122
-322,329	800,000	-0,042	0,109
-321,314	-200,000	0,011	0,093
-320,299	800,000	0,052	0,139
-319,285	443,099	0,051	0,081
-318,270	-99,097	-0,097	-0,018
-317,256	-92,416	0,086	0,017
-316,241	197,057	-0,102	-0,113
-315,226	-126,181	0,147	-0,016
-314,212	-200,000	0,011	0,047
-313,197	-200,000	-0,013	0,084
-312,183	429,240	0,064	0,101
-311,168	-108,167	-0,068	-0,011
-310,153	35,717	-0,117	-0,074
-309,139	439,433	0,009	0,014
-308,124	-54,480	0,116	0,038
-307,110	196,237	-0,045	0,050
-306,095	-0,968	-0,035	-0,018
-305,080	-200,000	0,026	0,145
-304,066	-129,107	-0,113	-0,011
-303,051	253,057	-0,042	0,052
-302,037	376,962	0,031	0,046
-301,022	-200,000	-0,014	0,052
-300,008	-200,000	0,006	0,050
-298,993	330,660	0,048	0,067
-297,978	800,000	-0,017	0,039
-296,964	-4,231	-0,028	-0,014
-295,949	-115,509	0,110	0,015
-294,935	64,249	-0,106	-0,077
-293,920	-200,000	0,018	-0,061
-292,905	-200,000	0,025	0,129
-291,891	-200,000	0,002	0,205
-290,876	555,527	-0,022	0,038
-289,862	691,690	0,007	-0,013
-288,847	-200,000	0,049	-0,160
-287,832	19,550	-0,202	0,117
-286,818	-200,000	-0,019	-0,070
-285,803	105,498	0,015	0,013
-284,789	553,723	0,089	0,156
-283,774	322,628	-0,092	-0,128
-282,759	-200,000	0,013	0,066
-281,745	186,606	-0,059	0,063
-280,730	127,933	-0,058	0,053
-279,716	-200,000	-0,027	-0,109
-278,701	719,202	-0,052	0,101
-277,686	-200,000	0,012	0,082
-276,672	-63,456	0,059	0,018
-275,657	800,000	0,002	0,006
-274,643	800,000	-0,053	-0,131
-273,628	800,000	0,043	-0,111
-272,613	-109,796	0,035	-0,005
-271,599	330,991	0,095	-0,132
-270,584	-43,565	0,076	-0,028
-269,570	-200,000	-0,010	0,135
-268,555	-200,000	-0,009	-0,040
-267,540	222,700	-0,010	-0,012
-266,526	303,181	0,024	-0,032
-265,511	-200,000	-0,005	-0,067
-264,497	52,009	0,081	0,055
-263,482	-99,664	-0,046	0,008
-262,467	-69,721	0,048	0,013
-261,453	-20,574	0,076	0,034
-260,438	-119,166	-0,205	-0,026
-259,424	-98,632	0,067	-0,012
-258,409	186,124	0,064	-0,069
-257,395	472,630	0,068	0,111
-256,380	163,706	-0,028	0,029
-255,365	132,337	0,114	0,107
-254,351	179,871	0,067	-0,072
-253,336	72,109	-0,043	0,032
-252,322	-8,382	0,103	0,050
-251,307	800,000	0,056	-0,126
-250,292	605,402	0,058	-0,105
-249,278	191,567	0,060	-0,066
-248,263	-104,056	-0,097	0,016
-247,249	-200,000	0,014	0,074
-246,234	485,122	-0,073	-0,121
-245,219	446,614	-0,033	-0,053
-244,205	122,290	0,120	0,108
-243,190	-200,000	-0,002	0,111
-242,176	786,299	0,052	0,103
-241,161	130,715	0,065	0,061
-240,146	132,972	0,131	0,122
-239,132	95,422	-0,064	0,053
-238,117	-200,000	0,012	-0,083
-237,103	132,196	0,013	0,012
-236,088	351,776	0,067	-0,096
-235,073	-200,000	-0,020	-0,088
-234,059	404,201	0,076	0,116
-233,044	145,328	-0,032	0,031
-232,030	193,982	0,041	-0,045
-231,015	-113,106	-0,098	-0,014
-230,000	201,988	0,088	0,098
-228,986	-23,157	-0,017	-0,007
-227,971	-160,751	0,077	0,003
-226,957	-27,669	0,081	0,034
-225,942	263,678	-0,114	-0,143
-224,927	393,896	-0,032	0,048
-223,913	1,710	0,062	-0,032
-222,898	572,248	-0,053	-0,093
-221,884	-200,000	-0,003	0,058
-220,869	600,343	0,029	-0,053
-219,855	-94,862	0,051	-0,010
-218,840	74,078	-0,034	-0,026
-217,825	-10,800	-0,098	0,047
-216,811	-179,879	0,041	0,001
-215,796	-200,000	-0,019	-0,070
-214,782	18,164	0,093	0,054
-213,767	-159,919	0,102	0,004
-212,752	-200,000	0,010	0,124
-211,738	223,212	-0,114	0,133
-210,723	-200,000	-0,022	0,132
-209,709	800,000	-0,032	-0,093
-208,694	89,773	0,083	0,067
-207,679	-200,000	-0,020	-0,146
-206,665	17,280	0,098	0,056
-205,650	125,143	-0,048	0,044
-204,636	-200,000	0,040	0,200
-203,621	-9,523	0,089	0,043
-202,606	137,054	-0,113	-0,107
-201,592	-200,000	0,002	-0,035
-200,577	-133,084	0,049	0,004
-199,563	-200,000	-0,015	-0,103
-198,548	103,053	-0,032	-0,027
-197,533	-200,000	0,014	0,074
-196,519	172,342	0,165	0,172
-195,504	-55,626	0,093	0,030
-194,490	191,667	0,081	0,089
-193,475	240,507	0,020	-0,024
-192,460	-112,053	0,132	0,019
-191,446	-200,000	-0,006	0,038
-190,431	189,730	-0,049	0,054
-189,417	-113,921	-0,038	-0,005
-188,402	222,970	0,058	-0,068
-187,387	-200,000	-0,009	0,046
-186,373	-144,505	-0,043	-0,003
-185,358	800,000	-0,005	0,013
-184,344	265,049	0,051	-0,064
-183,329	67,586	0,003	-0,002
-182,315	-200,000	0,001	-0,011
-181,300	171,307	-0,097	0,101
-180,285	-60,943	-0,078	0,024
-179,271	800,000	0,014	0,038
-178,256	-200,000	-0,010	-0,056
-177,242	-138,295	0,162	0,013
-176,227	800,000	-0,030	-0,084
-175,212	-191,200	0,115	0,001
-174,198	-200,000	0,034	0,119
-173,183	435,274	-0,068	-0,108
-172,169	-109,918	-0,153	0,023
-171,154	214,253	-0,050	0,058
-170,139	170,158	-0,008	-0,008
-169,125	53,587	-0,051	-0,035
-168,110	-140,856	-0,119	0,009
-167,096	-44,565	-0,039	-0,014
-166,081	330,559	0,041	0,057
-165,066	800,000	0,018	-0,055
-164,052	1,430	0,089	0,046
-163,037	29,171	-0,038	-0,023
-162,023	800,000	-0,019	-0,059
-161,008	800,000	-0,030	0,089
-159,993	114,916	0,051	0,045
-158,979	403,577	-0,052	-0,079
-157,964	-200,000	0,008	-0,189
-156,950	169,111	-0,082	-0,084
-155,935	-11,088	0,112	0,053
-154,920	-102,976	-0,100	-0,017
-153,906	-200,000	-0,015	0,115
-152,891	475,973	0,033	-0,054
-151,877	365,517	-0,022	-0,032
-150,862	774,772	-0,021	0,041
-149,847	219,358	0,075	0,087
-148,833	-26,640	0,048	0,020
-147,818	-200,000	0,036	0,211
-146,804	800,000	0,027	0,082
-145,789	-200,000	-0,004	0,036
-144,775	67,458	-0,046	-0,034
-143,760	101,197	0,069	-0,058
-142,745	-200,000	-0,011	-0,039
-141,731	-200,000	0,031	-0,117
-140,716	71,137	0,065	0,049
-139,702	-183,373	-0,047	-0,001
-138,687	-200,000	-0,011	-0,041
-137,672	-200,000	-0,028	0,091
-136,658	136,320	-0,069	0,064
-135,643	-114,999	0,142	-0,019
-134,629	-200,000	-0,015	-0,142
-133,614	-200,000	-0,030	0,140
-132,599	445,096	0,112	0,178
-131,585	-160,039	0,116	-0,004
-130,570	142,906	-0,011	-0,010
-129,556	50,620	-0,104	0,071
-128,541	800,000	-0,040	-0,116
-127,526	334,686	-0,011	0,015
-126,512	-28,763	0,102	-0,042
-125,497	-86,759	-0,071	0,015
-124,483	188,143	0,050	0,054
-123,468	-180,311	0,093	0,001
-122,453	406,134	-0,042	0,065
-121,439	-74,715	-0,083	0,021
-120,424	-146,587	-0,209	-0,013
