DTS Sentinel unit serial number:	SN410029Multiplexer serial number:	ORYXHardware model number:	OX2-SRSoftware version number:	ORYX F/W v4,00 Oryx Data Collector v3.7.2.0data status	okinstallation	B6 Nyhavnadifferential loss correction	single-endedforward channel	channel 2reverse channel	N/Adate	2023/12/10time	17:20:08forward acquisition time	300,00reverse acquisition time	0,00gamma	499,1914k internal	0,3123k external	0,3123temperature offset calibration	1,0000default loss term (dB/km)	0,3820temperature slope calibration	1,0000multiplexer offset coefficient	1,0000multiplexer slope coefficient	1,0000fibre end	0,00T internal ref (°C)	22,41T ext. ref 1 (°C)	6,10T ext. ref 2 (°C)	6,11length (m)	temperature (°C)	Stokes	anti-Stokes-744,400	-200,000	-0,007	-0,088
-743,385	37,767	-0,228	0,151
-742,371	44,673	0,125	-0,086
-741,356	2,235	-0,130	0,070
-740,342	-200,000	0,006	0,095
-739,327	-124,745	-0,129	-0,015
-738,312	-30,246	0,138	-0,058
-737,298	140,132	-0,073	0,072
-736,283	-200,000	-0,004	-0,163
-735,269	-18,621	-0,111	0,051
-734,254	-200,000	-0,041	-0,151
-733,239	-98,393	-0,562	-0,106
-732,225	-4,423	0,241	0,124
-731,210	408,707	0,031	0,048
-730,196	-66,101	0,014	0,004
-729,181	800,000	0,028	-0,070
-728,167	41,053	-0,031	0,021
-727,152	800,000	0,013	0,041
-726,137	491,336	-0,065	0,112
-725,123	-200,000	-0,024	-0,250
-724,108	-40,234	0,093	-0,036
-723,094	-43,644	-0,077	-0,029
-722,079	-61,602	0,075	0,023
-721,064	25,127	-0,039	0,024
-720,050	-145,762	-0,051	0,003
-719,035	-200,000	-0,033	-0,138
-718,021	158,540	-0,112	-0,116
-717,006	-158,744	-0,172	-0,007
-715,991	800,000	-0,046	-0,116
-714,977	562,049	-0,031	-0,056
-713,962	-74,360	-0,163	-0,044
-712,948	492,832	0,056	-0,097
-711,933	-200,000	0,023	0,165
-710,918	219,965	-0,123	0,147
-709,904	800,000	-0,091	-0,212
-708,889	800,000	-0,086	-0,194
-707,875	41,945	0,034	0,023
-706,860	8,256	0,095	-0,053
-705,845	-200,000	-0,017	-0,068
-704,831	-50,747	0,081	-0,028
-703,816	673,203	0,060	-0,116
-702,802	156,058	-0,125	-0,128
-701,787	168,463	-0,007	0,007
-700,772	18,727	-0,146	-0,087
-699,758	363,528	-0,101	-0,151
-698,743	-94,437	-0,046	0,009
-697,729	-71,997	-0,105	-0,029
-696,714	-200,000	-0,020	-0,066
-695,699	352,011	-0,032	0,047
-694,685	-200,000	0,008	-0,180
-693,670	21,900	-0,182	-0,110
-692,656	167,794	-0,087	0,093
-691,641	314,840	0,030	0,042
-690,627	90,217	-0,052	-0,044
-689,612	273,869	-0,057	0,075
-688,597	-200,000	0,016	-0,151
-687,583	112,283	-0,065	-0,058
-686,568	800,000	-0,065	-0,210
-685,554	-200,000	-0,008	0,104
-684,539	-200,000	-0,015	0,114
-683,524	-74,326	0,161	-0,043
-682,510	155,151	-0,176	0,180
-681,495	90,267	-0,013	0,011
-680,481	496,057	0,072	-0,124
-679,466	10,898	-0,046	-0,026
-678,451	78,049	-0,080	0,064
-677,437	-200,000	0,003	0,041
-676,422	-200,000	-0,013	-0,079
-675,408	-86,653	-0,099	0,022
-674,393	336,634	0,016	0,023
-673,378	456,372	-0,051	0,085
-672,364	-200,000	-0,013	-0,257
-671,349	-200,000	0,027	0,089
-670,335	-143,345	-0,162	0,011
-669,320	634,604	0,051	0,096
-668,305	-139,410	-0,123	0,010
-667,291	-84,604	-0,116	0,027
-666,276	-45,251	0,013	0,005
-665,262	-200,000	-0,032	-0,128
-664,247	-33,211	-0,060	-0,025
-663,232	-200,000	-0,003	-0,173
-662,218	-200,000	0,001	0,010
-661,203	-15,501	0,118	-0,056
-660,189	-16,997	0,079	-0,037
-659,174	-128,712	0,089	-0,009
-658,159	442,037	-0,033	-0,054
-657,145	-110,147	0,141	0,022
-656,130	800,000	-0,045	0,140
-655,116	-200,000	-0,020	0,133
-654,101	-156,837	0,039	0,002
-653,086	-75,896	-0,096	0,025
-652,072	-45,607	0,046	0,017
-651,057	14,773	-0,153	-0,088
-650,043	23,035	-0,094	0,057
-649,028	-200,000	0,015	-0,139
-648,014	16,555	0,117	-0,068
-646,999	-200,000	-0,020	0,074
-645,984	-112,064	0,118	0,018
-644,970	24,341	-0,045	0,028
-643,955	42,347	-0,093	-0,063
-642,941	208,393	-0,036	-0,042
-641,926	-11,130	-0,094	0,046
-640,911	785,392	0,024	-0,050
-639,897	-200,000	-0,034	0,117
-638,882	-124,598	-0,106	0,012
-637,868	800,000	0,054	0,172
-636,853	-81,456	-0,106	0,026
-635,838	-200,000	-0,008	-0,115
-634,824	-33,509	-0,039	-0,016
-633,809	13,571	-0,092	0,053
-632,795	-16,771	0,099	0,046
-631,780	96,036	0,037	0,032
-630,765	122,063	-0,061	-0,056
-629,751	41,200	0,027	-0,018
-628,736	435,735	0,019	-0,030
-627,722	-200,000	-0,000	0,035
-626,707	-200,000	-0,001	0,038
-625,692	-200,000	-0,039	0,128
-624,678	-200,000	0,006	0,026
-623,663	-200,000	-0,002	0,120
-622,649	800,000	0,020	0,042
-621,634	165,970	-0,090	-0,094
-620,619	-131,449	-0,044	-0,004
-619,605	-128,765	0,044	0,005
-618,590	-186,224	-0,114	-0,001
-617,576	-200,000	-0,015	0,122
-616,561	-200,000	-0,013	-0,078
-615,546	549,098	-0,085	-0,151
-614,532	-102,720	0,059	-0,010
-613,517	23,942	-0,074	-0,045
-612,503	800,000	-0,019	0,052
-611,488	-200,000	0,012	0,138
-610,474	72,589	0,028	0,022
-609,459	385,362	-0,052	0,080
-608,444	800,000	-0,048	-0,152
-607,430	689,714	0,028	0,055
-606,415	800,000	0,026	-0,085
-605,401	-200,000	-0,033	-0,164
-604,386	425,896	0,028	0,045
-603,371	-200,000	-0,001	0,044
-602,357	-200,000	-0,016	0,134
-601,342	800,000	0,029	-0,075
-600,328	-200,000	0,012	-0,071
-599,313	800,000	-0,076	-0,161
-598,298	-200,000	-0,011	-0,108
-597,284	691,132	0,068	0,132
-596,269	-200,000	0,002	0,011
-595,255	64,496	-0,074	0,055
-594,240	-8,198	-0,102	-0,051
-593,225	117,629	0,034	0,031
-592,211	26,765	-0,062	0,039
-591,196	308,220	0,097	0,135
-590,182	-162,401	0,099	-0,004
-589,167	-106,097	0,086	-0,014
-588,152	541,178	-0,036	-0,064
-587,138	-27,387	-0,039	-0,017
-586,123	-200,000	0,028	-0,115
-585,109	624,030	-0,078	-0,146
-584,094	-200,000	0,023	-0,113
-583,079	-127,843	-0,038	-0,004
-582,065	-57,709	0,185	0,060
-581,050	-100,273	0,041	-0,007
-580,036	117,014	-0,140	-0,128
-579,021	-70,510	0,108	-0,030
-578,006	-200,000	0,009	-0,045
-576,992	196,493	-0,096	-0,109
-575,977	64,820	0,083	-0,062
-574,963	128,915	0,058	-0,055
-573,948	228,103	0,026	-0,031
-572,934	-107,579	0,145	-0,023
-571,919	302,196	0,018	-0,025
-570,904	-76,230	0,055	-0,014
-569,890	-34,809	0,047	-0,019
-568,875	-22,856	-0,066	-0,030
-567,861	-200,000	-0,022	-0,145
-566,846	-122,353	0,112	0,013
-565,831	81,823	-0,112	-0,090
-564,817	41,631	0,069	-0,046
-563,802	800,000	-0,028	0,061
-562,788	78,755	-0,157	-0,124
-561,773	102,559	0,017	-0,015
-560,758	-3,936	0,031	0,016
-559,744	-200,000	-0,052	-0,188
-558,729	-65,831	-0,156	0,046
-557,715	136,319	-0,089	0,086
-556,700	68,622	-0,045	-0,034
-555,685	-200,000	-0,001	-0,076
-554,671	800,000	-0,028	0,081
-553,656	-200,000	-0,006	0,096
-552,642	555,607	0,090	0,160
-551,627	221,637	0,016	0,019
-550,612	754,021	-0,046	-0,092
-549,598	-86,105	-0,026	-0,006
-548,583	448,473	-0,044	-0,071
-547,569	644,791	0,032	0,061
-546,554	800,000	-0,033	0,081
-545,539	-200,000	-0,016	-0,094
-544,525	13,569	0,046	0,026
-543,510	-46,735	-0,101	0,036
-542,496	800,000	-0,026	-0,072
-541,481	-200,000	0,012	-0,083
-540,466	-178,475	0,070	-0,001
-539,452	-200,000	-0,052	-0,189
-538,437	-200,000	-0,021	-0,072
-537,423	-73,438	0,057	-0,015
-536,408	-78,337	-0,043	-0,011
-535,393	800,000	-0,051	-0,115
-534,379	522,305	0,034	0,059
-533,364	-162,271	-0,194	-0,007
-532,350	-2,109	-0,058	0,030
-531,335	49,894	-0,071	0,050
-530,321	590,969	0,093	0,171
-529,306	11,990	-0,079	0,045
-528,291	-96,047	-0,051	-0,010
-527,277	175,573	0,059	-0,064
-526,262	253,705	-0,025	-0,032
-525,248	70,789	0,094	-0,072
-524,233	43,565	0,094	0,063
-523,218	47,392	-0,168	-0,116
-522,204	230,016	0,129	0,156
-521,189	-200,000	0,017	0,063
-520,175	643,849	-0,059	-0,111
-519,160	-200,000	-0,011	0,046
-518,145	257,505	-0,046	-0,059
-517,131	104,749	-0,022	0,019
-516,116	119,496	0,081	0,074
-515,102	-200,000	-0,009	0,045
-514,087	527,175	-0,025	-0,044
-513,072	790,013	0,012	-0,024
-512,058	-200,000	0,005	-0,050
-511,043	-200,000	-0,002	-0,018
-510,029	33,406	0,051	0,033
-509,014	-200,000	0,000	0,184
-507,999	-171,854	-0,081	-0,002
-506,985	81,996	0,100	-0,080
-505,970	74,268	0,114	-0,089
-504,956	800,000	0,037	-0,089
-503,941	274,426	0,076	-0,099
-502,926	-200,000	0,029	-0,114
-501,912	-200,000	0,000	0,097
-500,897	800,000	-0,028	0,084
-499,883	-14,972	-0,085	-0,040
-498,868	-200,000	0,001	0,009
-497,853	25,788	-0,046	0,029
-496,839	-200,000	0,022	0,100
-495,824	678,581	0,107	0,207
-494,810	185,547	-0,011	-0,012
-493,795	-200,000	-0,005	0,043
-492,781	-38,352	-0,076	0,029
-491,766	-126,015	-0,076	0,008
-490,751	149,908	0,073	0,073
-489,737	-200,000	0,006	0,034
-488,722	800,000	-0,081	0,179
-487,708	-120,806	-0,040	-0,005
-486,693	-200,000	0,034	0,149
-485,678	-160,362	0,073	0,003
-484,664	-200,000	0,020	0,101
-483,649	21,103	0,049	0,029
-482,635	-48,929	-0,007	0,002
-481,620	800,000	-0,062	0,131
-480,605	-200,000	-0,013	0,135
-479,591	193,926	-0,098	0,110
-478,576	-69,854	-0,045	-0,013
-477,562	-31,909	0,041	-0,017
-476,547	-38,200	-0,082	-0,032
-475,532	800,000	0,028	-0,089
-474,518	598,398	0,036	0,065
-473,503	-200,000	-0,010	0,072
-472,489	800,000	0,024	0,050
-471,474	578,962	0,054	0,097
-470,459	-72,098	-0,072	-0,019
-469,445	402,254	-0,041	-0,063
-468,430	-200,000	0,004	-0,059
-467,416	-200,000	0,007	0,101
-466,401	-81,608	0,023	0,005
-465,386	-64,628	0,112	0,033
-464,372	800,000	0,028	0,074
-463,357	173,268	0,098	-0,104
-462,343	-200,000	0,015	-0,049
-461,328	468,268	-0,096	-0,160
-460,313	-122,139	0,032	0,004
-459,299	-102,845	0,037	0,006
-458,284	-130,155	0,121	-0,012
-457,270	325,045	-0,043	0,061
-456,255	55,414	-0,086	0,061
-455,241	45,354	0,021	0,014
-454,226	-33,164	0,137	-0,056
-453,211	270,191	-0,034	0,045
-452,197	800,000	-0,019	0,060
-451,182	-200,000	0,017	-0,101
-450,168	733,402	-0,067	-0,133
-449,153	-200,000	0,012	-0,139
-448,138	406,956	0,063	-0,098
-447,124	800,000	0,034	-0,107
-446,109	-200,000	0,007	-0,166
-445,095	-58,895	-0,092	0,029
-444,080	-33,776	0,120	-0,048
-443,065	-69,480	0,110	-0,031
-442,051	3,893	-0,099	0,053
-441,036	569,839	-0,050	-0,090
-440,022	-200,000	-0,023	-0,109
-439,007	82,139	0,133	0,107
-437,992	116,075	0,111	0,100
-436,978	283,618	0,085	-0,112
-435,963	-112,047	0,086	0,013
-434,949	326,229	0,041	0,057
-433,934	-200,000	-0,009	0,041
-432,919	-200,000	-0,007	-0,063
-431,905	-55,132	-0,133	0,044
-430,890	800,000	0,036	-0,085
-429,876	496,070	0,030	0,052
-428,861	69,840	-0,074	0,056
-427,846	270,440	-0,079	0,103
-426,832	-200,000	0,006	-0,095
-425,817	-200,000	0,008	-0,124
-424,803	27,135	0,132	-0,082
-423,788	67,407	0,037	-0,028
-422,773	-15,866	0,093	-0,044
-421,759	34,250	0,151	-0,097
-420,744	-54,990	-0,200	0,066
-419,730	-200,000	-0,012	-0,166
-418,715	800,000	0,028	0,062
-417,701	-200,000	0,005	0,084
-416,686	-200,000	-0,011	0,152
-415,671	-55,897	0,149	0,049
-414,657	39,215	-0,090	0,059
-413,642	13,730	-0,130	-0,074
-412,628	13,818	0,034	-0,019
-411,613	769,226	-0,030	0,060
-410,598	127,092	-0,108	-0,101
-409,584	16,233	0,079	0,046
-408,569	46,295	-0,015	0,010
-407,555	-7,710	-0,134	0,067
-406,540	576,476	0,018	0,032
-405,525	-58,697	0,133	0,042
-404,511	800,000	0,046	-0,114
-403,496	-111,648	0,105	0,015
-402,482	-47,509	-0,068	-0,024
-401,467	-19,704	0,100	-0,045
-400,452	-200,000	0,006	-0,079
-399,438	-43,348	-0,027	-0,010
-398,423	-126,404	-0,073	0,008
-397,409	800,000	-0,019	-0,057
-396,394	-32,169	-0,093	-0,038
-395,379	-60,442	0,099	-0,031
-394,365	702,473	0,011	-0,021
-393,350	169,550	-0,052	0,055
-392,336	-117,604	-0,082	0,011
-391,321	2,439	-0,051	-0,027
-390,306	-112,187	0,130	-0,019
-389,292	8,386	-0,094	0,052
-388,277	800,000	-0,005	0,013
-387,263	800,000	0,068	0,166
-386,248	-103,845	0,074	-0,013
-385,233	800,000	0,037	0,083
-384,219	-51,850	0,004	-0,001
-383,204	133,553	0,126	0,120
-382,190	137,416	-0,124	-0,120
-381,175	417,434	0,050	-0,079
-380,160	-32,515	-0,079	0,032
-379,146	-151,191	0,126	-0,007
-378,131	91,064	0,088	-0,073
-377,117	-105,340	-0,142	-0,024
-376,102	800,000	0,023	-0,067
-375,088	-200,000	-0,033	0,206
-374,073	-200,000	-0,004	-0,060
-373,058	-115,597	0,083	-0,011
-372,044	229,173	0,051	-0,061
-371,029	-150,190	-0,062	-0,003
-370,015	-200,000	-0,012	0,056
-369,000	-48,372	-0,131	-0,046
-367,985	-200,000	0,021	-0,074
-366,971	-85,505	-0,062	0,014
-365,956	800,000	0,021	-0,047
-364,942	-200,000	-0,007	0,034
-363,927	446,270	-0,031	0,051
-362,912	800,000	-0,032	0,082
-361,898	419,111	-0,078	-0,124
-360,883	800,000	0,008	-0,019
-359,869	-200,000	0,008	-0,053
-358,854	-44,845	0,050	0,018
-357,839	62,822	0,221	0,162
-356,825	-114,589	-0,112	0,016
-355,810	663,811	-0,046	0,088
-354,796	800,000	-0,073	0,156
-353,781	-200,000	-0,020	0,067
-352,766	800,000	0,014	-0,032
-351,752	-13,606	-0,086	-0,041
-350,737	-119,032	-0,049	-0,006
-349,723	-200,000	-0,023	0,134
-348,708	800,000	0,053	0,135
-347,693	-148,555	0,020	0,001
-346,679	-200,000	0,003	-0,141
-345,664	-0,290	-0,084	-0,044
-344,650	56,698	-0,029	0,021
-343,635	85,682	-0,005	-0,004
-342,620	800,000	0,044	0,137
-341,606	114,892	-0,134	-0,120
-340,591	41,488	-0,036	0,024
-339,577	800,000	0,021	-0,051
-338,562	-200,000	0,019	-0,148
-337,548	-193,543	-0,103	-0,001
-336,533	-47,006	0,096	-0,034
-335,518	-96,826	0,099	-0,019
-334,504	30,240	-0,129	0,080
-333,489	-144,801	-0,169	-0,011
-332,475	-200,000	0,025	-0,091
-331,460	58,005	-0,142	-0,102
-330,445	18,767	-0,130	-0,076
-329,431	-60,006	0,090	0,028
-328,416	-200,000	0,001	0,090
-327,402	116,173	0,113	0,102
-326,387	800,000	-0,013	-0,031
-325,372	-117,337	-0,077	-0,010
-324,358	623,265	0,021	-0,040
-323,343	27,964	0,033	-0,020
-322,329	800,000	0,024	-0,063
-321,314	-200,000	-0,031	0,134
-320,299	705,730	-0,038	0,073
-319,285	-144,004	0,059	-0,004
-318,270	92,221	0,028	-0,023
-317,256	-200,000	0,013	-0,111
-316,241	-200,000	-0,008	-0,115
-315,226	16,517	0,053	0,031
-314,212	-200,000	0,000	-0,091
-313,197	357,412	-0,030	-0,044
-312,183	-59,648	0,047	-0,015
-311,168	-102,074	-0,071	-0,012
-310,153	800,000	0,043	0,131
-309,139	-2,415	-0,073	-0,037
-308,124	105,652	0,044	-0,038
-307,110	85,451	0,086	0,069
-306,095	-200,000	-0,000	0,091
-305,080	12,797	-0,090	0,051
-304,066	122,902	-0,047	0,044
-303,051	-156,328	-0,117	-0,005
-302,037	507,895	-0,040	-0,068
-301,022	107,857	0,165	0,144
-300,008	-173,740	0,172	0,004
-298,993	285,676	0,090	-0,120
-297,978	-0,127	0,093	0,048
-296,964	83,555	0,123	0,098
-295,949	-36,524	0,085	-0,033
-294,935	751,911	0,021	-0,042
-293,920	-73,622	0,109	-0,029
-292,905	-6,091	-0,049	0,024
-291,891	-86,800	0,082	0,018
-290,876	327,507	-0,063	-0,089
-289,862	-200,000	0,009	-0,127
-288,847	21,917	-0,030	-0,018
-287,832	333,486	-0,068	-0,096
-286,818	800,000	0,032	-0,077
-285,803	-139,685	0,117	0,009
-284,789	58,655	0,087	0,062
-283,774	800,000	0,024	0,071
-282,759	94,403	-0,071	0,059
-281,745	800,000	0,035	-0,071
-280,730	19,198	-0,152	0,089
-279,716	-53,727	-0,067	-0,022
-278,701	-200,000	0,020	0,129
-277,686	29,368	0,132	0,082
-276,672	545,368	0,047	0,083
-275,657	291,473	-0,041	0,055
-274,643	800,000	0,051	-0,142
-273,628	-58,951	-0,097	0,031
-272,613	-200,000	0,020	-0,139
-271,599	-200,000	0,003	0,057
-270,584	292,306	-0,021	-0,028
-269,570	136,001	0,058	0,056
-268,555	-200,000	0,002	0,041
-267,540	231,395	0,103	-0,124
-266,526	-200,000	-0,002	0,020
-265,511	-200,000	-0,015	0,052
-264,497	-92,948	-0,041	0,008
-263,482	-200,000	-0,014	0,140
-262,467	-200,000	0,020	0,078
-261,453	344,980	0,066	0,095
-260,438	-200,000	-0,000	-0,017
-259,424	800,000	-0,050	-0,118
-258,409	-130,904	-0,068	-0,007
-257,395	800,000	-0,023	-0,048
-256,380	-178,845	0,105	-0,002
-255,365	800,000	0,094	0,227
-254,351	-64,419	0,124	0,037
-253,336	-61,920	-0,037	-0,011
-252,322	3,143	0,037	0,020
-251,307	728,604	0,050	0,098
-250,292	-11,458	-0,044	0,021
-249,278	62,681	-0,133	0,097
-248,263	800,000	-0,007	-0,017
-247,249	-76,986	-0,033	-0,008
-246,234	613,061	0,042	-0,078
-245,219	598,736	-0,015	-0,028
-244,205	-62,968	-0,085	-0,025
-243,190	-200,000	0,033	-0,122
-242,176	530,752	0,041	-0,071
-241,161	800,000	0,027	-0,082
-240,146	-30,290	-0,036	0,015
-239,132	-119,530	0,100	0,013
-238,117	-47,004	-0,012	0,004
-237,103	800,000	0,037	0,083
-236,088	-200,000	-0,004	0,039
-235,073	239,557	-0,054	-0,066
-234,059	747,539	-0,059	0,116
-233,044	-6,143	0,022	0,011
-232,030	-166,591	0,050	-0,001
-231,015	275,621	0,008	0,010
-230,000	333,011	0,063	-0,089
-228,986	148,877	-0,010	-0,010
-227,971	-200,000	-0,003	0,071
-226,957	147,893	-0,085	0,084
-225,942	-200,000	0,011	0,083
-224,927	-200,000	-0,036	0,124
-223,913	-200,000	0,008	0,098
-222,898	339,477	-0,007	0,010
-221,884	277,092	0,027	0,036
-220,869	-34,141	0,045	0,018
-219,855	772,760	-0,042	0,083
-218,840	86,439	0,080	0,064
-217,825	-200,000	-0,007	-0,048
-216,811	-26,044	-0,089	-0,038
-215,796	-84,177	-0,104	0,024
-214,782	-82,263	-0,143	-0,034
-213,767	800,000	0,034	0,097
-212,752	47,816	0,082	0,056
-211,738	222,262	-0,037	0,044
-210,723	170,023	0,113	0,118
-209,709	-200,000	0,005	-0,154
-208,694	-200,000	-0,005	0,108
-207,679	35,955	0,055	0,035
-206,665	-65,429	0,101	-0,029
-205,650	-104,233	0,132	0,022
-204,636	-94,372	-0,077	-0,015
-203,621	-73,998	-0,128	-0,034
-202,606	-200,000	0,017	0,088
-201,592	800,000	0,028	0,084
-200,577	303,285	0,047	-0,064
-199,563	-200,000	-0,002	-0,036
-198,548	40,858	0,115	0,076
-197,533	-200,000	0,037	0,130
-196,519	-130,481	-0,006	-0,001
-195,504	108,653	0,106	-0,092
-194,490	800,000	-0,051	-0,119
-193,475	-200,000	-0,017	-0,086
-192,460	-200,000	0,005	0,030
-191,446	-76,012	-0,151	-0,039
-190,431	73,070	0,080	0,061
-189,417	-28,254	-0,013	0,006
-188,402	-169,092	0,078	-0,002
-187,387	800,000	-0,040	-0,101
-186,373	-200,000	-0,033	-0,126
-185,358	800,000	-0,068	-0,150
-184,344	188,942	-0,023	-0,025
-183,329	800,000	0,031	-0,086
-182,315	12,747	0,088	0,050
-181,300	-13,729	0,024	0,011
-180,285	3,909	-0,151	0,080
-179,271	-97,785	-0,157	-0,029
-178,256	-31,338	-0,013	0,005
-177,242	327,570	0,097	0,136
-176,227	-24,046	-0,102	-0,044
-175,212	-200,000	-0,033	0,124
-174,198	-55,266	-0,199	0,065
-173,183	41,424	0,069	0,046
-172,169	-200,000	0,027	0,098
-171,154	20,473	0,027	0,016
-170,139	57,625	0,086	-0,061
-169,125	783,127	-0,057	0,114
-168,110	-200,000	0,014	-0,103
-167,096	-31,497	0,082	-0,033
-166,081	185,600	-0,072	-0,078
-165,066	-200,000	-0,016	0,068
-164,052	-200,000	0,020	-0,101
-163,037	119,479	0,101	-0,091
-162,023	68,924	-0,072	0,054
-161,008	800,000	0,043	-0,114
-159,993	723,288	-0,020	0,039
-158,979	-185,079	-0,027	-0,000
-157,964	87,792	-0,043	-0,034
-156,950	13,822	-0,032	0,018
-155,935	-200,000	0,005	0,024
-154,920	-90,895	-0,037	-0,008
-153,906	-200,000	0,005	-0,111
-152,891	503,583	0,057	-0,096
-151,877	179,429	-0,091	-0,097
-150,862	-62,691	-0,115	-0,034
-149,847	-59,012	-0,047	-0,015
-148,833	641,531	0,036	-0,067
-147,818	-108,861	-0,060	0,009
-146,804	-200,000	0,019	-0,076
-145,789	-54,395	0,075	-0,025
-144,775	-200,000	-0,014	-0,102
-143,760	-200,000	0,019	-0,152
-142,745	-0,069	-0,058	0,030
-141,731	87,913	-0,002	-0,002
-140,716	-200,000	-0,010	0,040
-139,702	-99,007	0,092	-0,017
-138,687	-200,000	0,002	0,136
-137,672	-80,223	0,017	0,004
-136,658	31,144	-0,096	-0,060
-135,643	154,946	0,074	0,074
-134,629	-200,000	0,007	-0,118
-133,614	250,359	-0,034	0,042
-132,599	471,446	-0,066	0,108
-131,585	15,135	0,083	-0,047
-130,570	-200,000	-0,017	-0,095
-129,556	173,404	-0,081	-0,085
-128,541	-61,008	-0,197	0,060
-127,526	154,659	0,055	-0,055
-126,512	91,695	0,026	0,021
-125,497	61,774	-0,049	0,036
-124,483	-200,000	0,010	0,122
-123,468	800,000	-0,034	-0,086
-122,453	800,000	0,111	-0,225
-121,439	-99,436	0,138	0,025
-120,424	110,444	-0,004	0,004
-119,410	-122,005	0,185	0,022
