DTS Sentinel unit serial number:	SN410029Multiplexer serial number:	ORYXHardware model number:	OX2-SRSoftware version number:	ORYX F/W v4,00 Oryx Data Collector v3.7.2.0data status	okinstallation	B6 Nyhavnadifferential loss correction	single-endedforward channel	channel 2reverse channel	N/Adate	2023/12/10time	01:15:08forward acquisition time	300,00reverse acquisition time	0,00gamma	499,1914k internal	0,3125k external	0,3125temperature offset calibration	1,0000default loss term (dB/km)	0,3820temperature slope calibration	1,0000multiplexer offset coefficient	1,0000multiplexer slope coefficient	1,0000fibre end	0,00T internal ref (°C)	21,89T ext. ref 1 (°C)	5,70T ext. ref 2 (°C)	5,70length (m)	temperature (°C)	Stokes	anti-Stokes-744,400	159,605	0,119	-0,123
-743,385	11,248	-0,261	0,149
-742,371	-27,233	0,204	-0,088
-741,356	-147,968	-0,144	0,009
-740,342	-200,000	-0,008	-0,058
-739,327	-144,205	-0,327	0,022
-738,312	76,499	0,034	-0,027
-737,298	-141,626	-0,328	0,024
-736,283	-125,275	0,107	-0,012
-735,269	800,000	-0,040	0,130
-734,254	-200,000	0,004	-0,015
-733,239	-131,991	-0,401	-0,038
-732,225	-81,052	0,048	-0,012
-731,210	-57,468	-0,153	-0,050
-730,196	294,765	0,027	-0,037
-729,181	211,830	0,065	0,077
-728,167	200,957	-0,048	-0,055
-727,152	472,254	-0,083	-0,140
-726,137	-78,507	-0,092	0,023
-725,123	-128,002	-0,086	-0,009
-724,108	405,669	0,080	-0,126
-723,094	235,079	-0,099	-0,122
-722,079	-200,000	0,003	0,027
-721,064	120,019	-0,020	-0,019
-720,050	-94,920	-0,042	0,008
-719,035	281,860	-0,006	-0,008
-718,021	800,000	-0,028	-0,082
-717,006	274,034	-0,095	-0,125
-715,991	-200,000	-0,011	-0,038
-714,977	414,931	-0,078	-0,123
-713,962	-102,109	-0,098	0,017
-712,948	59,410	0,046	-0,033
-711,933	-76,132	-0,121	0,031
-710,918	-82,739	0,047	0,011
-709,904	192,084	0,062	-0,069
-708,889	64,494	0,071	-0,054
-707,875	-200,000	0,001	0,041
-706,860	71,447	0,092	-0,071
-705,845	129,360	0,074	-0,071
-704,831	-200,000	-0,006	-0,042
-703,816	22,273	0,035	-0,021
-702,802	40,245	0,077	0,051
-701,787	800,000	-0,035	-0,072
-700,772	-99,140	-0,227	-0,042
-699,758	-200,000	-0,029	0,117
-698,743	-200,000	0,013	0,085
-697,729	23,811	0,199	0,122
-696,714	-200,000	-0,006	0,085
-695,699	-154,630	-0,141	0,007
-694,685	800,000	0,030	-0,066
-693,670	-142,644	-0,112	0,008
-692,656	115,047	-0,028	0,025
-691,641	141,918	-0,020	-0,020
-690,627	-99,279	0,107	-0,020
-689,612	-200,000	-0,020	-0,093
-688,597	800,000	-0,028	-0,080
-687,583	175,695	-0,065	0,070
-686,568	321,801	-0,096	-0,136
-685,554	-200,000	-0,040	-0,143
-684,539	800,000	-0,027	0,068
-683,524	800,000	-0,025	-0,057
-682,510	800,000	0,036	-0,101
-681,495	27,799	0,049	-0,031
-680,481	207,313	-0,064	-0,074
-679,466	800,000	-0,057	-0,152
-678,451	-40,758	-0,149	-0,057
-677,437	-200,000	0,009	-0,059
-676,422	-200,000	-0,008	0,111
-675,408	-101,562	-0,062	0,011
-674,393	-14,109	-0,105	-0,050
-673,378	-34,814	0,093	0,038
-672,364	-56,083	-0,083	-0,027
-671,349	617,048	-0,070	-0,131
-670,335	293,848	-0,057	-0,077
-669,320	-130,823	0,076	0,008
-668,305	-132,740	-0,154	0,014
-667,291	279,347	-0,022	-0,029
-666,276	-200,000	-0,001	-0,042
-665,262	83,981	-0,090	-0,073
-664,247	638,446	0,062	-0,117
-663,232	138,816	0,033	-0,032
-662,218	60,464	0,079	-0,058
-661,203	28,421	0,060	-0,038
-660,189	-12,621	-0,078	0,038
-659,174	379,532	0,087	-0,133
-658,159	800,000	-0,004	0,011
-657,145	-15,328	-0,171	-0,081
-656,130	-5,629	-0,076	-0,039
-655,116	-200,000	0,014	-0,145
-654,101	50,222	0,093	-0,065
-653,086	800,000	-0,061	-0,143
-652,072	-109,304	-0,156	-0,024
-651,057	-200,000	-0,043	0,167
-650,043	333,165	-0,082	-0,117
-649,028	-39,335	-0,143	-0,055
-648,014	-200,000	0,000	0,064
-646,999	-54,016	0,096	0,032
-645,984	-200,000	-0,001	-0,043
-644,970	-23,844	-0,092	-0,041
-643,955	-118,246	-0,134	-0,017
-642,941	156,539	0,050	0,051
-641,926	21,355	-0,037	0,022
-640,911	31,001	0,173	-0,110
-639,897	-200,000	-0,022	0,072
-638,882	8,074	-0,081	-0,045
-637,868	-20,186	-0,136	-0,062
-636,853	217,529	-0,161	0,191
-635,838	800,000	-0,027	0,069
-634,824	157,832	-0,032	0,033
-633,809	800,000	0,041	0,098
-632,795	-57,076	-0,076	0,025
-631,780	-200,000	-0,001	-0,097
-630,765	-129,523	0,139	0,014
-629,751	-200,000	0,002	-0,037
-628,736	287,767	-0,077	-0,103
-627,722	53,483	-0,041	-0,029
-626,707	-132,498	-0,102	0,010
-625,692	490,101	0,114	0,194
-624,678	28,108	0,045	-0,028
-623,663	800,000	-0,012	-0,028
-622,649	303,052	0,099	-0,136
-621,634	561,728	0,026	-0,047
-620,619	-38,960	-0,100	-0,039
-619,605	119,226	0,019	-0,017
-618,590	181,486	0,133	0,145
-617,576	245,523	0,047	-0,058
-616,561	13,016	-0,098	0,056
-615,546	-200,000	-0,012	0,151
-614,532	-60,221	-0,077	0,024
-613,517	-46,367	-0,096	0,035
-612,503	390,783	0,048	-0,075
-611,488	567,541	0,052	0,094
-610,474	-200,000	-0,011	0,068
-609,459	94,202	-0,151	-0,127
-608,444	800,000	-0,030	-0,066
-607,430	-200,000	0,009	-0,057
-606,415	28,922	0,078	0,049
-605,401	593,499	0,056	0,103
-604,386	18,442	0,127	-0,075
-603,371	-200,000	-0,023	-0,121
-602,357	-30,776	0,111	-0,046
-601,342	-200,000	0,004	-0,069
-600,328	53,149	-0,101	-0,071
-599,313	-200,000	0,001	-0,004
-598,298	103,250	0,095	-0,083
-597,284	738,223	-0,016	-0,032
-596,269	-15,700	-0,055	0,026
-595,255	16,175	-0,044	0,025
-594,240	-154,254	-0,144	-0,007
-593,225	800,000	-0,032	-0,090
-592,211	-106,232	-0,116	0,019
-591,196	-167,938	-0,111	0,003
-590,182	-70,635	0,151	-0,042
-589,167	54,956	-0,054	0,038
-588,152	-200,000	-0,002	0,010
-587,138	-200,000	-0,001	-0,109
-586,123	-200,000	-0,006	-0,027
-585,109	800,000	-0,005	0,011
-584,094	325,714	0,044	-0,063
-583,079	-117,892	0,063	0,008
-582,065	207,157	0,049	-0,057
-581,050	800,000	0,064	-0,138
-580,036	-119,179	-0,093	0,012
-579,021	-200,000	-0,030	-0,117
-578,006	-47,536	0,092	-0,033
-576,992	-200,000	0,018	-0,068
-575,977	140,980	-0,064	-0,063
-574,963	-66,827	0,095	-0,028
-573,948	-39,823	0,052	0,020
-572,934	-200,000	0,008	-0,038
-571,919	-97,791	-0,163	-0,031
-570,904	2,708	0,103	-0,055
-569,890	-200,000	-0,010	0,055
-568,875	31,031	-0,071	-0,045
-567,861	20,575	0,081	0,048
-566,846	-200,000	-0,043	0,174
-565,831	-70,460	-0,057	-0,016
-564,817	11,206	-0,050	-0,028
-563,802	136,551	-0,046	-0,044
-562,788	-6,763	0,016	-0,008
-561,773	800,000	0,033	0,088
-560,758	-96,511	0,055	-0,011
-559,744	800,000	0,026	0,065
-558,729	800,000	-0,057	-0,139
-557,715	800,000	-0,048	-0,110
-556,700	103,271	0,045	-0,039
-555,685	-200,000	-0,016	-0,120
-554,671	49,583	0,062	0,043
-553,656	-64,796	0,193	0,057
-552,642	212,361	0,013	-0,015
-551,627	-200,000	-0,003	-0,034
-550,612	-200,000	0,049	0,162
-549,598	-77,540	0,057	-0,014
-548,583	342,909	-0,048	-0,070
-547,569	-79,088	-0,075	0,019
-546,554	-122,707	0,093	-0,011
-545,539	-200,000	0,028	0,120
-544,525	147,681	0,071	-0,071
-543,510	262,114	-0,046	-0,059
-542,496	639,088	0,055	-0,104
-541,481	-200,000	-0,023	0,115
-540,466	-28,304	-0,036	-0,015
-539,452	19,291	-0,042	-0,025
-538,437	15,501	0,069	0,040
-537,423	-91,019	0,117	-0,025
-536,408	-22,057	-0,083	-0,037
-535,393	124,333	-0,109	-0,101
-534,379	564,958	0,027	0,049
-533,364	800,000	0,028	-0,063
-532,350	-200,000	0,010	0,184
-531,335	183,192	0,072	0,079
-530,321	800,000	-0,017	0,046
-529,306	-114,730	0,121	0,017
-528,291	127,893	-0,047	-0,044
-527,277	800,000	-0,020	-0,042
-526,262	55,306	-0,120	0,086
-525,248	-200,000	0,004	0,106
-524,233	36,937	0,129	0,084
-523,218	-42,446	-0,124	0,046
-522,204	-200,000	0,002	-0,104
-521,189	800,000	-0,022	-0,058
-520,175	-200,000	-0,016	-0,119
-519,160	16,152	-0,147	-0,085
-518,145	-200,000	0,046	-0,194
-517,131	754,127	0,036	0,071
-516,116	160,734	0,049	0,051
-515,102	24,989	-0,123	-0,075
-514,087	-200,000	0,018	-0,123
-513,072	-163,359	-0,086	-0,003
-512,058	-80,497	-0,068	-0,017
-511,043	0,430	0,085	0,044
-510,029	-78,708	-0,075	0,019
-509,014	108,909	-0,129	0,114
-507,999	-116,657	0,029	0,004
-506,985	167,061	-0,079	-0,083
-505,970	800,000	-0,036	0,081
-504,956	-69,688	-0,041	-0,012
-503,941	-200,000	0,014	0,150
-502,926	151,138	0,061	0,061
-501,912	-112,150	0,107	0,016
-500,897	10,339	-0,038	-0,021
-499,883	74,441	-0,052	-0,041
-498,868	16,239	-0,065	0,038
-497,853	-200,000	0,005	0,041
-496,839	-45,473	0,120	0,043
-495,824	-200,000	0,010	0,051
-494,810	13,213	0,087	-0,050
-493,795	800,000	0,038	0,086
-492,781	-200,000	-0,055	0,233
-491,766	-200,000	0,011	-0,115
-490,751	86,000	0,027	-0,022
-489,737	800,000	-0,009	0,021
-488,722	800,000	-0,001	-0,004
-487,708	200,721	0,031	-0,035
-486,693	-192,489	0,073	0,000
-485,678	231,159	-0,041	0,050
-484,664	-78,048	0,082	-0,021
-483,649	172,124	-0,050	-0,054
-482,635	-117,377	0,095	0,013
-481,620	-67,293	0,097	0,028
-480,605	39,215	0,028	0,018
-479,591	-200,000	-0,002	0,030
-478,576	-116,823	-0,119	0,016
-477,562	-136,124	-0,112	0,010
-476,547	-117,448	-0,098	0,013
-475,532	-131,298	-0,153	0,015
-474,518	-123,829	-0,082	-0,009
-473,503	378,783	0,069	0,105
-472,489	-65,810	-0,039	-0,011
-471,474	72,683	0,041	0,031
-470,459	-19,080	-0,133	-0,061
-469,445	-159,209	-0,049	-0,002
-468,430	-124,070	0,025	-0,003
-467,416	800,000	0,054	0,115
-466,401	-200,000	0,006	0,075
-465,386	-115,023	-0,027	0,004
-464,372	-200,000	0,005	0,120
-463,357	-129,557	-0,101	-0,010
-462,343	-200,000	0,002	-0,075
-461,328	5,586	-0,064	-0,035
-460,313	111,702	0,046	-0,041
-459,299	-200,000	-0,029	-0,102
-458,284	-151,166	0,100	-0,005
-457,270	-200,000	0,004	-0,074
-456,255	-200,000	0,012	0,045
-455,241	800,000	-0,054	-0,139
-454,226	337,945	0,047	0,067
-453,211	800,000	-0,049	0,122
-452,197	800,000	0,036	0,102
-451,182	-200,000	-0,028	-0,098
-450,168	31,387	-0,077	-0,049
-449,153	-200,000	-0,010	0,041
-448,138	800,000	-0,020	-0,051
-447,124	129,236	-0,073	-0,069
-446,109	-200,000	-0,006	-0,139
-445,095	114,410	0,046	-0,041
-444,080	104,859	0,012	0,010
-443,065	800,000	0,032	0,093
-442,051	-200,000	-0,037	0,126
-441,036	189,692	0,041	0,046
-440,022	800,000	-0,033	0,093
-439,007	-200,000	-0,007	0,037
-437,992	687,476	0,053	0,103
-436,978	14,289	0,071	-0,041
-435,963	-200,000	0,010	0,129
-434,949	-200,000	-0,029	0,117
-433,934	-200,000	-0,002	0,048
-432,919	24,998	-0,037	0,022
-431,905	-200,000	-0,010	0,043
-430,890	800,000	0,036	0,078
-429,876	90,833	0,079	0,065
-428,861	-68,068	0,039	-0,011
-427,846	599,959	0,037	0,068
-426,832	-52,697	-0,112	0,038
-425,817	-48,934	-0,078	0,027
-424,803	145,210	-0,032	-0,032
-423,788	32,694	0,062	-0,039
-422,773	8,635	0,039	0,022
-421,759	392,298	0,044	-0,067
-420,744	40,889	-0,099	-0,065
-419,730	188,690	0,076	0,084
-418,715	158,638	0,082	-0,084
-417,701	230,111	0,042	-0,050
-416,686	800,000	-0,023	-0,066
-415,671	517,744	-0,017	0,029
-414,657	221,215	0,115	0,137
-413,642	174,521	0,053	-0,056
-412,628	-163,025	-0,082	0,003
-411,613	-120,413	-0,108	0,013
-410,598	147,517	-0,009	0,009
-409,584	-41,595	0,090	0,034
-408,569	77,511	0,103	0,081
-407,555	249,732	-0,034	0,042
-406,540	-16,532	-0,003	-0,001
-405,525	-38,137	0,067	-0,026
-404,511	-158,700	-0,043	-0,002
-403,496	800,000	0,028	-0,076
-402,482	39,559	-0,105	-0,069
-401,467	63,260	0,068	-0,050
-400,452	-5,096	0,073	-0,037
-399,438	663,434	0,026	-0,050
-398,423	155,235	-0,075	0,076
-397,409	302,606	-0,069	0,095
-396,394	800,000	-0,011	-0,024
-395,379	-82,738	-0,135	-0,032
-394,365	-63,383	0,089	-0,027
-393,350	489,773	-0,020	0,034
-392,336	-200,000	0,009	0,120
-391,321	-200,000	-0,009	0,059
-390,306	409,693	-0,060	-0,094
-389,292	120,641	-0,041	-0,037
-388,277	800,000	0,014	-0,043
-387,263	-200,000	0,021	0,082
-386,248	-71,221	0,002	0,000
-385,233	-45,582	-0,120	0,043
-384,219	-42,873	-0,063	-0,023
-383,204	198,191	0,113	-0,127
-382,190	-27,143	0,054	-0,023
-381,175	557,674	-0,053	0,094
-380,160	-200,000	0,006	0,105
-379,146	367,868	-0,038	0,057
-378,131	409,521	-0,021	0,033
-377,117	215,825	-0,120	-0,140
-376,102	108,263	0,065	-0,057
-375,088	-200,000	-0,012	-0,159
-374,073	97,127	0,068	-0,057
-373,058	362,961	-0,011	-0,016
-372,044	-200,000	0,015	0,330
-371,029	37,320	0,158	0,103
-370,015	-200,000	-0,033	0,111
-369,000	55,404	-0,106	-0,075
-367,985	-200,000	0,016	-0,073
-366,971	584,734	-0,018	0,033
-365,956	380,784	-0,043	0,065
-364,942	286,408	0,040	0,054
-363,927	-70,607	-0,013	-0,004
-362,912	375,607	-0,031	-0,047
-361,898	-200,000	-0,031	0,139
-360,883	-41,740	-0,110	-0,041
-359,869	330,079	0,022	0,031
-358,854	283,867	0,032	-0,043
-357,839	766,005	-0,087	0,174
-356,825	277,941	-0,081	0,107
-355,810	715,439	0,034	-0,066
-354,796	-35,138	0,078	-0,031
-353,781	-25,752	-0,128	-0,055
-352,766	274,659	0,033	-0,044
-351,752	-200,000	-0,006	-0,168
-350,737	-61,435	0,089	0,027
-349,723	-38,438	-0,068	0,026
-348,708	-200,000	0,018	0,154
-347,693	55,185	0,177	-0,125
-346,679	0,688	-0,189	-0,099
-345,664	-91,185	-0,071	0,015
-344,650	-56,745	0,054	-0,017
-343,635	440,340	0,041	-0,066
-342,620	-91,904	0,076	0,016
-341,606	113,558	-0,033	0,030
-340,591	-200,000	-0,039	-0,157
-339,577	-111,169	-0,184	-0,027
-338,562	-200,000	-0,002	-0,060
-337,548	95,101	0,127	-0,106
-336,533	-175,392	0,140	0,003
-335,518	37,021	-0,036	-0,023
-334,504	-200,000	0,017	-0,065
-333,489	-200,000	-0,008	0,029
-332,475	274,589	-0,039	-0,051
-331,460	23,227	0,078	0,047
-330,445	105,388	0,147	-0,127
-329,431	743,090	-0,064	0,127
-328,416	271,037	0,054	0,069
-327,402	-79,215	0,124	-0,031
-326,387	-76,883	-0,031	-0,008
-325,372	531,614	-0,065	-0,114
-324,358	302,615	0,084	0,114
-323,343	204,416	-0,056	0,064
-322,329	-62,004	-0,090	-0,027
-321,314	128,710	-0,104	-0,097
-320,299	-137,085	0,066	0,005
-319,285	800,000	0,082	0,193
-318,270	304,707	-0,017	-0,023
-317,256	108,275	0,017	0,015
-316,241	-200,000	0,030	0,108
-315,226	40,482	0,144	0,095
-314,212	309,562	0,063	0,087
-313,197	1,101	-0,141	0,074
-312,183	-113,863	0,048	-0,007
-311,168	21,601	-0,079	-0,047
-310,153	-200,000	0,003	-0,085
-309,139	710,112	-0,027	-0,053
-308,124	-59,735	0,192	-0,060
-307,110	-200,000	-0,010	0,034
-306,095	359,718	0,045	-0,066
-305,080	-52,617	0,077	-0,026
-304,066	-76,804	0,063	-0,016
-303,051	-13,928	0,087	-0,041
-302,037	-200,000	-0,011	-0,070
-301,022	-77,010	0,161	-0,041
-300,008	-200,000	-0,006	-0,031
-298,993	125,709	-0,028	-0,026
-297,978	-65,334	-0,043	0,013
-296,964	-118,651	0,129	0,016
-295,949	-200,000	-0,024	-0,132
-294,935	-9,707	0,105	-0,051
-293,920	369,984	-0,043	-0,064
-292,905	22,303	-0,028	0,017
-291,891	-200,000	-0,001	0,030
-290,876	-112,602	0,064	-0,009
-289,862	1,526	-0,047	0,025
-288,847	-200,000	0,003	-0,062
-287,832	94,137	-0,062	0,051
-286,818	-124,961	0,078	-0,009
-285,803	-13,393	-0,028	-0,013
-284,789	-134,116	-0,093	-0,008
-283,774	-25,051	-0,047	-0,020
-282,759	-200,000	0,006	0,123
-281,745	-100,404	-0,077	-0,014
-280,730	401,919	-0,062	-0,095
-279,716	800,000	-0,039	-0,093
-278,701	139,343	-0,084	0,081
-277,686	-109,385	0,055	-0,008
-276,672	325,586	-0,059	0,083
-275,657	626,167	0,031	0,058
-274,643	-200,000	-0,000	-0,104
-273,628	272,571	-0,030	0,039
-272,613	-110,656	0,215	-0,032
-271,599	99,881	0,134	-0,114
-270,584	800,000	0,023	0,066
-269,570	164,960	-0,112	0,116
-268,555	604,172	0,037	0,067
-267,540	409,301	-0,074	-0,116
-266,526	-200,000	0,028	-0,128
-265,511	301,551	-0,014	-0,019
-264,497	-60,213	-0,088	0,027
-263,482	-151,721	0,152	0,008
-262,467	205,918	0,042	0,047
-261,453	628,380	0,047	0,088
-260,438	-200,000	-0,015	-0,067
-259,424	566,084	-0,036	-0,064
-258,409	-200,000	0,007	0,072
-257,395	-110,174	0,023	-0,003
-256,380	-34,174	0,101	0,040
-255,365	137,702	-0,052	0,050
-254,351	-199,771	-0,071	0,000
-253,336	-120,075	-0,085	-0,011
-252,322	-200,000	-0,016	-0,091
-251,307	800,000	0,037	-0,087
-250,292	800,000	-0,033	0,075
-249,278	-23,568	0,091	-0,040
-248,263	-80,997	0,061	0,015
-247,249	-108,251	0,105	-0,016
-246,234	-41,889	0,161	-0,060
-245,219	312,488	0,019	-0,026
-244,205	-67,177	-0,086	-0,024
-243,190	83,616	0,064	-0,051
-242,176	800,000	-0,016	0,043
-241,161	800,000	0,066	0,135
-240,146	-60,419	0,054	-0,017
-239,132	-200,000	0,019	0,141
-238,117	800,000	0,052	-0,129
-237,103	20,803	-0,048	0,028
-236,088	0,777	-0,054	-0,028
-235,073	585,796	0,053	0,095
-234,059	-64,957	0,062	0,018
-233,044	3,640	-0,137	0,073
-232,030	-154,474	-0,077	0,004
-231,015	800,000	-0,037	-0,087
-230,000	-84,505	-0,034	0,008
-228,986	107,122	0,074	-0,065
-227,971	43,455	0,111	0,074
-226,957	-51,638	0,067	-0,023
-225,942	-104,166	-0,094	0,016
-224,927	117,618	-0,126	0,113
-223,913	800,000	-0,078	0,161
-222,898	-42,906	0,063	-0,023
-221,884	-80,318	0,113	-0,027
-220,869	-30,504	0,062	-0,025
-219,855	145,987	-0,039	-0,038
-218,840	150,588	-0,076	0,075
-217,825	800,000	0,085	-0,182
-216,811	800,000	-0,031	-0,071
-215,796	-148,570	-0,032	0,002
-214,782	-200,000	-0,002	-0,073
-213,767	800,000	0,026	0,078
-212,752	175,805	0,094	0,099
-211,738	-200,000	0,006	0,041
-210,723	-200,000	0,014	-0,145
-209,709	-200,000	0,032	-0,136
-208,694	-200,000	-0,020	-0,094
-207,679	352,281	-0,064	-0,092
-206,665	-32,560	0,019	-0,008
-205,650	33,443	0,094	0,059
-204,636	-200,000	-0,040	-0,135
-203,621	-68,045	0,193	0,054
-202,606	-126,366	-0,073	0,008
-201,592	189,864	0,090	0,098
-200,577	463,350	-0,094	0,154
-199,563	800,000	-0,043	-0,114
-198,548	182,133	0,051	-0,055
-197,533	-200,000	0,005	0,032
-196,519	-66,714	0,109	0,031
-195,504	-144,336	-0,093	-0,006
-194,490	-200,000	0,000	0,017
-193,475	-28,399	0,065	0,027
-192,460	-200,000	-0,006	0,039
-191,446	-15,572	0,131	-0,061
-190,431	-87,876	-0,158	0,034
-189,417	35,910	0,024	-0,015
-188,402	-9,972	0,050	0,024
-187,387	18,701	-0,115	0,067
-186,373	-32,374	0,067	-0,027
-185,358	-1,137	0,006	-0,003
-184,344	558,905	-0,061	0,107
-183,329	622,631	-0,013	0,024
-182,315	-69,106	0,088	0,024
-181,300	-200,000	-0,036	0,172
-180,285	297,433	0,054	0,072
-179,271	-200,000	-0,001	-0,081
-178,256	-200,000	-0,014	0,134
-177,242	-47,591	-0,164	0,058
-176,227	-200,000	-0,031	0,118
-175,212	-56,504	0,162	-0,052
-174,198	-53,014	-0,093	0,031
-173,183	-154,366	-0,215	-0,010
-172,169	511,882	-0,007	0,012
-171,154	113,265	-0,085	-0,075
-170,139	-147,512	-0,074	-0,004
-169,125	-49,474	-0,064	0,022
-168,110	112,023	0,074	0,065
-167,096	-200,000	0,005	-0,018
-166,081	800,000	0,009	-0,024
-165,066	-200,000	-0,002	-0,054
-164,052	800,000	-0,056	-0,172
-163,037	77,190	-0,051	-0,040
-162,023	238,036	0,033	-0,039
-161,008	-1,191	0,132	-0,068
-159,993	-200,000	-0,010	-0,050
-158,979	-35,534	-0,073	0,029
-157,964	-98,867	-0,120	0,022
-156,950	-28,680	0,071	0,029
-155,935	-73,933	0,068	0,018
-154,920	108,080	0,056	-0,048
-153,906	800,000	0,027	-0,066
-152,891	-200,000	0,000	0,091
-151,877	-51,768	-0,109	0,037
-150,862	-200,000	0,012	-0,072
-149,847	516,567	-0,033	-0,057
-148,833	-68,760	-0,041	-0,011
-147,818	153,110	0,039	0,039
-146,804	-200,000	-0,045	0,150
-145,789	-142,443	0,015	-0,001
-144,775	186,731	0,008	0,009
-143,760	50,249	-0,138	-0,095
-142,745	-94,578	-0,143	-0,028
-141,731	800,000	0,032	-0,069
-140,716	-18,730	-0,106	-0,048
-139,702	-111,814	0,112	0,016
-138,687	181,771	-0,043	-0,046
-137,672	24,453	-0,022	-0,013
-136,658	-200,000	-0,002	0,016
-135,643	189,378	-0,107	0,116
-134,629	-96,927	-0,090	-0,017
-133,614	33,489	0,080	0,050
-132,599	156,063	0,043	0,044
-131,585	260,095	-0,066	0,083
-130,570	8,871	-0,089	0,049
-129,556	-0,852	-0,133	-0,068
-128,541	182,332	0,058	0,063
-127,526	23,442	-0,043	0,026
-126,512	-183,794	0,087	-0,001
-125,497	-122,452	-0,005	-0,001
-124,483	-200,000	0,012	0,083
-123,468	50,372	-0,150	0,103
-122,453	-200,000	0,004	0,057
-121,439	143,566	-0,102	-0,099
-120,424	800,000	0,025	0,063
