DTS Sentinel unit serial number:	SN410029Multiplexer serial number:	ORYXHardware model number:	OX2-SRSoftware version number:	ORYX F/W v4,00 Oryx Data Collector v3.7.2.0data status	okinstallation	B6 Nyhavnadifferential loss correction	single-endedforward channel	channel 2reverse channel	N/Adate	2023/12/07time	21:10:08forward acquisition time	300,00reverse acquisition time	0,00gamma	499,1914k internal	0,3165k external	0,3165temperature offset calibration	1,0000default loss term (dB/km)	0,3820temperature slope calibration	1,0000multiplexer offset coefficient	1,0000multiplexer slope coefficient	1,0000fibre end	0,00T internal ref (°C)	13,74T ext. ref 1 (°C)	-3,14T ext. ref 2 (°C)	-3,14length (m)	temperature (°C)	Stokes	anti-Stokes-744,400	-80,236	0,109	-0,027
-743,385	-48,126	-0,193	-0,068
-742,371	16,824	0,166	0,096
-741,356	-107,318	-0,228	-0,036
-740,342	54,099	0,127	0,089
-739,327	-142,231	-0,353	-0,025
-738,312	195,555	0,091	-0,102
-737,298	-131,217	-0,293	-0,028
-736,283	-127,600	0,063	0,007
-735,269	-96,879	-0,329	-0,063
-734,254	-161,327	0,222	0,008
-733,239	-90,254	-0,575	-0,122
-732,225	-96,890	0,147	-0,028
-731,210	-25,160	-0,128	0,056
-730,196	140,259	-0,106	0,103
-729,181	481,160	0,022	0,038
-728,167	201,577	-0,064	-0,072
-727,152	-200,000	0,005	-0,058
-726,137	-200,000	0,023	-0,106
-725,123	208,794	0,031	0,035
-724,108	-69,925	-0,171	-0,048
-723,094	-12,058	-0,174	-0,084
-722,079	139,195	0,020	-0,019
-721,064	-7,564	0,052	0,026
-720,050	0,544	-0,071	0,037
-719,035	-200,000	-0,000	0,065
-718,021	-172,151	-0,103	0,002
-717,006	800,000	0,034	-0,103
-715,991	133,030	-0,164	0,156
-714,977	-36,192	0,029	-0,012
-713,962	800,000	-0,026	0,053
-712,948	5,795	-0,138	-0,075
-711,933	131,256	0,058	0,055
-710,918	-46,028	-0,123	-0,044
-709,904	30,428	-0,109	-0,068
-708,889	253,263	-0,035	-0,044
-707,875	800,000	-0,029	0,086
-706,860	-200,000	-0,009	0,080
-705,845	-57,735	0,081	-0,026
-704,831	250,292	-0,031	-0,038
-703,816	-184,869	-0,114	-0,001
-702,802	800,000	-0,024	0,069
-701,787	-40,624	-0,089	-0,034
-700,772	187,120	0,051	-0,056
-699,758	-80,433	-0,218	-0,053
-698,743	76,654	-0,085	0,066
-697,729	117,900	-0,071	-0,064
-696,714	800,000	0,016	-0,034
-695,699	-177,873	-0,069	0,001
-694,685	471,145	0,103	-0,171
-693,670	800,000	-0,040	-0,097
-692,656	42,758	-0,122	-0,081
-691,641	-150,884	0,111	0,006
-690,627	-11,897	-0,052	-0,025
-689,612	49,150	-0,119	0,082
-688,597	-116,871	-0,252	0,034
-687,583	3,239	-0,027	0,014
-686,568	800,000	-0,019	0,047
-685,554	24,123	0,106	0,064
-684,539	-76,116	0,042	0,011
-683,524	-200,000	0,007	0,079
-682,510	-200,000	-0,003	-0,013
-681,495	261,116	0,061	-0,078
-680,481	-94,856	-0,064	0,013
-679,466	543,370	-0,092	-0,162
-678,451	800,000	-0,032	-0,097
-677,437	-2,630	-0,110	-0,056
-676,422	-13,522	-0,038	0,018
-675,408	-200,000	-0,011	-0,100
-674,393	-200,000	-0,082	0,000
-673,378	321,544	-0,019	-0,027
-672,364	-35,972	-0,053	0,021
-671,349	364,727	0,054	0,080
-670,335	-172,014	-0,168	0,004
-669,320	81,344	0,119	-0,094
-668,305	-200,000	0,019	-0,072
-667,291	-11,771	0,048	0,023
-666,276	-49,622	-0,226	-0,078
-665,262	800,000	-0,026	0,068
-664,247	-1,830	-0,141	0,073
-663,232	-200,000	0,018	0,061
-662,218	-169,733	0,168	0,004
-661,203	-90,052	0,045	0,010
-660,189	-200,000	-0,008	0,038
-659,174	184,760	0,067	-0,073
-658,159	77,521	-0,087	-0,068
-657,145	132,042	-0,105	-0,099
-656,130	120,822	0,118	0,108
-655,116	84,145	-0,104	0,083
-654,101	-7,540	0,051	-0,025
-653,086	-53,478	0,136	-0,045
-652,072	-200,000	-0,007	-0,157
-651,057	-200,000	0,003	-0,249
-650,043	800,000	-0,005	0,015
-649,028	-30,590	-0,042	-0,017
-648,014	-58,835	0,052	0,016
-646,999	-121,447	-0,033	-0,004
-645,984	-88,159	-0,072	0,016
-644,970	42,706	0,012	-0,008
-643,955	-61,686	-0,030	0,009
-642,941	-26,994	0,063	-0,027
-641,926	-124,212	0,057	0,007
-640,911	434,368	-0,058	0,092
-639,897	-80,475	0,076	-0,018
-638,882	230,170	0,053	-0,063
-637,868	800,000	-0,055	0,115
-636,853	550,351	-0,008	-0,014
-635,838	-0,744	0,149	-0,077
-634,824	43,099	0,056	-0,037
-633,809	-200,000	-0,043	0,153
-632,795	-200,000	-0,001	0,119
-631,780	800,000	-0,027	-0,065
-630,765	-105,078	-0,140	-0,023
-629,751	-7,826	-0,071	-0,035
-628,736	516,367	-0,088	-0,151
-627,722	65,529	-0,063	-0,047
-626,707	41,261	-0,030	0,020
-625,692	-200,000	-0,009	0,079
-624,678	-5,568	0,107	0,053
-623,663	426,614	0,033	-0,051
-622,649	-122,163	-0,110	-0,013
-621,634	288,287	-0,072	0,096
-620,619	800,000	-0,016	0,041
-619,605	721,402	0,040	-0,079
-618,590	91,262	-0,127	-0,104
-617,576	383,230	0,033	-0,050
-616,561	258,915	-0,010	0,012
-615,546	-200,000	0,017	-0,085
-614,532	-200,000	0,039	-0,138
-613,517	660,989	0,069	-0,131
-612,503	275,368	-0,066	0,086
-611,488	-61,710	0,059	-0,018
-610,474	248,887	0,057	0,071
-609,459	800,000	-0,103	0,245
-608,444	-87,421	0,055	0,012
-607,430	584,653	-0,032	-0,059
-606,415	-133,442	-0,117	0,011
-605,401	162,327	0,042	0,043
-604,386	694,656	-0,082	0,157
-603,371	-200,000	-0,006	0,022
-602,357	596,035	-0,013	-0,024
-601,342	-121,512	-0,129	0,015
-600,328	-91,877	-0,212	-0,044
-599,313	78,303	-0,124	-0,097
-598,298	-200,000	0,004	0,060
-597,284	-26,208	-0,043	0,018
-596,269	-64,875	0,149	0,044
-595,255	-126,927	-0,051	0,005
-594,240	-141,433	0,093	-0,007
-593,225	463,221	-0,057	-0,093
-592,211	-13,647	0,017	0,008
-591,196	-200,000	-0,011	-0,070
-590,182	160,806	-0,108	-0,111
-589,167	-200,000	0,038	0,143
-588,152	-34,269	0,046	-0,018
-587,138	93,646	-0,032	-0,027
-586,123	-175,657	-0,151	-0,003
-585,109	800,000	0,016	-0,041
-584,094	90,805	0,061	0,050
-583,079	770,205	0,110	0,221
-582,065	800,000	-0,028	-0,082
-581,050	-56,197	0,103	-0,033
-580,036	-93,961	-0,024	-0,005
-579,021	-142,759	-0,018	-0,001
-578,006	800,000	-0,077	-0,162
-576,992	111,930	-0,056	0,049
-575,977	-200,000	0,019	-0,116
-574,963	800,000	0,064	0,142
-573,948	-152,180	-0,064	-0,003
-572,934	105,009	-0,058	-0,050
-571,919	-200,000	0,004	-0,064
-570,904	453,821	-0,104	-0,168
-569,890	-200,000	0,004	0,111
-568,875	-153,849	-0,092	-0,005
-567,861	800,000	0,048	0,115
-566,846	669,286	-0,026	-0,050
-565,831	-32,786	-0,052	0,021
-564,817	-131,245	-0,101	0,010
-563,802	105,198	-0,072	-0,062
-562,788	-200,000	0,010	-0,109
-561,773	30,076	0,110	0,069
-560,758	800,000	-0,022	0,061
-559,744	-25,222	0,066	-0,029
-558,729	224,154	0,108	0,128
-557,715	5,684	-0,011	0,006
-556,700	-200,000	0,016	-0,216
-555,685	78,335	-0,062	-0,048
-554,671	-89,369	0,132	-0,028
-553,656	143,874	0,029	0,028
-552,642	-200,000	0,005	-0,109
-551,627	-200,000	-0,005	-0,043
-550,612	766,864	0,045	-0,089
-549,598	173,281	-0,075	-0,079
-548,583	-200,000	0,000	-0,053
-547,569	6,423	0,122	0,066
-546,554	800,000	0,030	0,085
-545,539	-6,724	-0,064	-0,032
-544,525	24,726	0,108	-0,065
-543,510	222,449	-0,044	-0,052
-542,496	27,184	-0,061	0,037
-541,481	-38,309	-0,072	-0,028
-540,466	800,000	0,015	-0,039
-539,452	-88,916	-0,128	0,028
-538,437	66,471	0,048	-0,035
-537,423	621,476	-0,024	-0,045
-536,408	800,000	-0,046	-0,095
-535,393	91,809	0,096	-0,079
-534,379	340,771	0,077	-0,110
-533,364	-83,309	0,108	0,025
-532,350	433,558	0,058	-0,092
-531,335	-66,317	0,090	0,026
-530,321	800,000	-0,045	-0,099
-529,306	800,000	-0,034	-0,088
-528,291	-200,000	0,030	0,198
-527,277	-31,125	0,070	-0,029
-526,262	-44,966	-0,113	0,041
-525,248	800,000	0,054	0,134
-524,233	-48,042	0,141	0,050
-523,218	416,626	-0,065	0,102
-522,204	323,457	-0,024	0,034
-521,189	800,000	0,027	-0,086
-520,175	154,071	0,042	0,042
-519,160	-200,000	0,004	-0,089
-518,145	190,625	-0,011	0,012
-517,131	299,126	-0,050	-0,067
-516,116	-60,379	0,074	-0,023
-515,102	183,667	0,027	-0,029
-514,087	-153,670	0,111	-0,005
-513,072	-49,253	-0,170	0,059
-512,058	800,000	0,020	-0,061
-511,043	673,826	-0,020	-0,039
-510,029	-200,000	-0,003	-0,011
-509,014	800,000	0,107	0,219
-507,999	-167,795	-0,053	-0,001
-506,985	197,525	0,035	-0,039
-505,970	-18,824	0,131	-0,059
-504,956	206,716	-0,132	-0,151
-503,941	800,000	-0,015	-0,042
-502,926	-147,747	-0,058	0,003
-501,912	-53,828	-0,052	0,017
-500,897	-72,528	0,027	0,007
-499,883	119,489	-0,080	-0,072
-498,868	800,000	0,002	0,006
-497,853	779,576	-0,057	0,114
-496,839	-119,010	0,082	0,010
-495,824	-200,000	0,003	0,074
-494,810	-57,531	0,090	-0,029
-493,795	-200,000	0,005	0,057
-492,781	125,598	0,067	-0,062
-491,766	-84,941	-0,036	0,008
-490,751	-150,624	-0,093	-0,005
-489,737	-85,674	-0,076	0,017
-488,722	86,930	-0,078	-0,062
-487,708	-44,680	-0,006	-0,002
-486,693	-200,000	-0,013	-0,104
-485,678	37,046	-0,100	0,064
-484,664	-123,874	0,095	-0,011
-483,649	120,924	0,050	0,045
-482,635	-12,637	-0,108	0,051
-481,620	800,000	-0,025	0,078
-480,605	-92,505	0,100	-0,020
-479,591	152,206	-0,025	-0,024
-478,576	-9,191	0,098	-0,048
-477,562	-200,000	-0,002	-0,038
-476,547	318,404	0,023	-0,031
-475,532	51,223	0,059	0,041
-474,518	-28,767	0,125	0,052
-473,503	-200,000	-0,007	0,092
-472,489	395,382	0,046	-0,070
-471,474	67,434	0,078	-0,058
-470,459	-200,000	0,014	-0,177
-469,445	800,000	0,033	0,097
-468,430	-200,000	-0,000	0,097
-467,416	365,116	0,045	-0,067
-466,401	701,225	-0,067	-0,130
-465,386	71,588	-0,105	0,079
-464,372	216,287	0,044	-0,050
-463,357	-138,904	-0,145	-0,011
-462,343	-200,000	0,000	-0,036
-461,328	10,719	-0,051	0,028
-460,313	357,317	0,125	0,181
-459,299	800,000	0,054	0,142
-458,284	181,145	0,017	-0,018
-457,270	-200,000	0,023	0,157
-456,255	134,781	-0,056	0,053
-455,241	334,394	0,032	0,045
-454,226	-200,000	-0,038	-0,132
-453,211	-17,398	0,132	-0,060
-452,197	-129,976	-0,118	0,012
-451,182	-200,000	0,020	0,172
-450,168	395,979	0,038	0,057
-449,153	-200,000	-0,005	-0,099
-448,138	186,368	0,138	-0,150
-447,124	-200,000	-0,010	-0,070
-446,109	-43,750	-0,014	-0,005
-445,095	-200,000	0,028	0,093
-444,080	-41,707	0,071	0,026
-443,065	800,000	0,060	0,162
-442,051	800,000	0,017	-0,043
-441,036	-43,007	0,230	-0,084
-440,022	-57,659	-0,054	-0,017
-439,007	248,644	0,049	-0,060
-437,992	313,563	-0,010	0,014
-436,978	47,470	0,041	-0,028
-435,963	-200,000	0,023	-0,097
-434,949	800,000	0,055	-0,173
-433,934	800,000	-0,044	-0,100
-432,919	245,986	-0,045	0,056
-431,905	285,075	-0,018	-0,024
-430,890	800,000	-0,044	-0,101
-429,876	477,122	0,032	-0,053
-428,861	-200,000	0,009	-0,035
-427,846	800,000	0,025	-0,066
-426,832	-200,000	-0,021	0,135
-425,817	-200,000	0,026	-0,109
-424,803	800,000	-0,025	-0,075
-423,788	-65,438	-0,072	0,021
-422,773	288,296	-0,015	0,020
-421,759	800,000	-0,048	0,101
-420,744	414,046	-0,110	0,171
-419,730	-72,466	-0,130	0,035
-418,715	800,000	-0,054	-0,129
-417,701	-200,000	-0,003	-0,071
-416,686	-11,624	0,071	-0,034
-415,671	536,688	0,037	-0,063
-414,657	290,165	0,115	-0,152
-413,642	198,958	-0,042	-0,047
-412,628	-102,011	-0,059	-0,010
-411,613	636,195	0,042	-0,078
-410,598	460,739	0,013	0,022
-409,584	125,146	0,063	0,057
-408,569	101,629	0,042	0,035
-407,555	-1,383	0,151	-0,077
-406,540	192,195	-0,071	0,078
-405,525	-200,000	0,014	-0,065
-404,511	-56,692	-0,093	-0,030
-403,496	-200,000	0,008	-0,081
-402,482	-35,221	-0,027	-0,011
-401,467	-200,000	0,004	-0,079
-400,452	6,975	0,075	0,040
-399,438	800,000	0,073	0,165
-398,423	800,000	-0,015	0,043
-397,409	149,127	0,068	-0,067
-396,394	124,570	0,057	0,052
-395,379	-200,000	0,041	0,137
-394,365	-200,000	-0,142	0,000
-393,350	-52,217	0,123	0,041
-392,336	-62,877	-0,012	-0,004
-391,321	521,926	-0,075	-0,129
-390,306	305,569	0,064	-0,087
-389,292	117,855	-0,118	-0,105
-388,277	-200,000	0,010	0,097
-387,263	-200,000	0,010	0,052
-386,248	-163,718	-0,098	0,003
-385,233	292,139	0,033	0,044
-384,219	-56,533	-0,095	-0,030
-383,204	-146,714	0,163	-0,010
-382,190	-15,625	0,073	-0,033
-381,175	70,354	-0,059	0,044
-380,160	-200,000	-0,026	0,113
-379,146	-69,543	-0,162	0,045
-378,131	155,946	-0,060	0,060
-377,117	-117,971	-0,090	0,012
-376,102	157,676	0,072	0,072
-375,088	202,400	0,051	0,057
-374,073	-200,000	0,001	0,145
-373,058	-5,539	0,025	0,013
-372,044	-200,000	-0,011	0,089
-371,029	-121,237	0,136	-0,016
-370,015	-143,568	0,055	-0,004
-369,000	-14,752	0,015	0,007
-367,985	27,506	-0,119	0,073
-366,971	-55,459	0,173	-0,056
-365,956	146,739	0,093	0,090
-364,942	800,000	0,093	0,189
-363,927	-200,000	0,014	-0,049
-362,912	-110,035	-0,210	0,032
-361,898	-200,000	-0,005	-0,113
-360,883	-45,189	-0,064	0,023
-359,869	-48,795	-0,096	-0,033
-358,854	-136,649	-0,050	-0,004
-357,839	-90,741	0,111	0,023
-356,825	800,000	-0,033	0,072
-355,810	769,015	0,056	0,112
-354,796	335,019	-0,095	-0,133
-353,781	-200,000	-0,031	-0,161
-352,766	-159,166	0,172	0,007
-351,752	375,144	0,121	-0,178
-350,737	289,776	0,132	0,174
-349,723	800,000	0,045	-0,098
-348,708	435,807	0,026	0,042
-347,693	172,875	-0,040	0,041
-346,679	92,738	-0,050	-0,041
-345,664	337,116	0,019	-0,027
-344,650	102,360	-0,065	0,055
-343,635	372,560	0,061	0,091
-342,620	800,000	0,030	0,077
-341,606	247,140	-0,026	-0,032
-340,591	20,305	-0,012	-0,007
-339,577	-183,631	0,069	-0,001
-338,562	-101,751	-0,084	-0,015
-337,548	-37,311	-0,109	-0,042
-336,533	137,771	0,027	0,026
-335,518	800,000	-0,060	0,123
-334,504	-200,000	0,034	0,125
-333,489	-200,000	-0,014	0,083
-332,475	127,585	0,124	0,114
-331,460	-109,546	-0,226	0,034
-330,445	-41,320	0,034	0,013
-329,431	-43,891	0,046	0,017
-328,416	-2,491	0,020	0,010
-327,402	-200,000	-0,020	0,067
-326,387	-200,000	-0,004	0,014
-325,372	-67,682	-0,083	-0,023
-324,358	-200,000	0,009	0,104
-323,343	610,304	-0,086	-0,156
-322,329	390,728	0,041	-0,062
-321,314	-100,708	0,067	-0,012
-320,299	79,817	-0,078	0,061
-319,285	178,900	0,090	-0,095
-318,270	279,328	0,050	-0,065
-317,256	74,401	-0,115	0,087
-316,241	-65,997	0,121	-0,035
-315,226	-40,193	0,081	0,030
-314,212	50,190	0,121	0,083
-313,197	419,947	-0,011	0,018
-312,183	800,000	0,007	-0,019
-311,168	59,994	-0,085	-0,061
-310,153	-82,579	-0,182	0,042
-309,139	91,168	-0,089	-0,072
-308,124	-200,000	0,023	0,095
-307,110	59,662	0,068	0,049
-306,095	43,438	0,079	0,052
-305,080	81,741	0,035	-0,028
-304,066	-50,442	-0,160	-0,054
-303,051	-60,713	-0,060	-0,018
-302,037	-192,386	-0,033	0,000
-301,022	125,161	-0,095	0,087
-300,008	51,413	0,068	0,047
-298,993	73,631	0,070	0,053
-297,978	-200,000	-0,028	0,172
-296,964	-200,000	-0,001	0,048
-295,949	467,930	-0,079	-0,128
-294,935	-166,810	-0,066	-0,002
-293,920	-200,000	0,021	-0,097
-292,905	-134,513	-0,039	-0,003
-291,891	81,785	-0,101	0,079
-290,876	800,000	0,030	0,080
-289,862	800,000	0,048	-0,112
-288,847	-86,030	-0,089	0,020
-287,832	3,728	-0,138	-0,072
-286,818	-200,000	0,007	-0,076
-285,803	490,074	0,034	-0,056
-284,789	590,347	0,060	-0,108
-283,774	-200,000	-0,001	0,054
-282,759	106,673	-0,049	-0,042
-281,745	-200,000	0,021	0,101
-280,730	165,475	-0,040	0,041
-279,716	50,753	0,048	0,033
-278,701	14,541	0,006	-0,004
-277,686	240,630	-0,062	-0,074
-276,672	-43,041	-0,065	0,024
-275,657	-8,835	-0,117	0,056
-274,643	-108,164	-0,041	0,006
-273,628	320,632	-0,122	-0,168
-272,613	42,329	-0,108	0,071
-271,599	11,732	0,115	0,064
-270,584	-200,000	0,043	0,142
-269,570	506,782	0,012	0,020
-268,555	-98,727	0,049	-0,009
-267,540	11,093	-0,103	0,056
-266,526	381,229	0,071	-0,105
-265,511	-175,152	-0,155	0,003
-264,497	-200,000	0,010	-0,043
-263,482	-97,927	0,227	0,042
-262,467	114,538	-0,046	-0,040
-261,453	-12,571	0,084	0,040
-260,438	1,028	-0,066	0,034
-259,424	448,014	0,068	-0,109
-258,409	-145,099	-0,117	-0,008
-257,395	251,972	0,073	0,090
-256,380	-200,000	-0,001	0,128
-255,365	-200,000	0,025	0,214
-254,351	-152,872	0,137	-0,007
-253,336	132,187	0,026	0,024
-252,322	763,338	-0,023	0,046
-251,307	0,053	-0,078	0,040
-250,292	309,657	0,043	-0,058
-249,278	-39,492	0,054	-0,020
-248,263	800,000	0,036	0,080
-247,249	800,000	-0,072	0,153
-246,234	347,713	0,033	-0,047
-245,219	-178,387	0,046	-0,001
-244,205	31,916	0,094	-0,058
-243,190	26,536	0,109	0,066
-242,176	-56,140	0,125	0,040
-241,161	-200,000	0,032	0,110
-240,146	-17,549	0,202	0,091
-239,132	-200,000	-0,085	0,296
-238,117	212,557	0,075	0,085
-237,103	-200,000	-0,017	-0,172
-236,088	-200,000	0,005	-0,027
-235,073	800,000	0,028	-0,079
-234,059	8,769	0,083	0,045
-233,044	-97,519	0,080	-0,015
-232,030	103,925	0,071	-0,060
-231,015	-106,069	0,078	0,013
-230,000	-91,400	-0,125	0,026
-228,986	198,364	0,107	0,118
-227,971	-200,000	-0,010	-0,096
-226,957	181,494	-0,047	0,050
-225,942	-141,588	-0,079	0,006
-224,927	70,008	-0,168	-0,125
-223,913	-200,000	-0,013	0,068
-222,898	-165,838	-0,210	0,006
-221,884	800,000	-0,006	-0,019
-220,869	-200,000	0,010	0,065
-219,855	-200,000	0,012	-0,052
-218,840	-200,000	0,029	0,096
-217,825	23,835	-0,071	0,042
-216,811	30,509	-0,067	-0,041
-215,796	370,748	-0,089	-0,130
-214,782	-131,288	-0,056	0,005
-213,767	-95,107	0,078	-0,015
-212,752	800,000	-0,021	-0,066
-211,738	-200,000	-0,030	-0,120
-210,723	440,360	-0,031	0,049
-209,709	227,425	0,116	-0,136
-208,694	800,000	0,030	-0,080
-207,679	-188,473	-0,095	-0,001
-206,665	-181,083	-0,023	0,000
-205,650	-2,727	0,167	-0,084
-204,636	186,547	-0,054	-0,058
-203,621	-85,368	-0,089	0,020
-202,606	-200,000	0,044	0,144
-201,592	641,699	0,039	-0,071
-200,577	-25,133	-0,046	-0,020
-199,563	-42,647	-0,108	0,039
-198,548	-169,388	0,054	0,001
-197,533	52,042	0,104	0,071
-196,519	-2,091	0,051	-0,026
-195,504	471,484	-0,059	-0,096
-194,490	-99,672	0,038	-0,007
-193,475	-32,905	-0,081	-0,032
-192,460	-140,133	0,038	0,003
-191,446	563,913	0,041	-0,071
-190,431	-200,000	0,007	-0,051
-189,417	117,460	-0,056	0,050
-188,402	800,000	-0,037	-0,114
-187,387	-163,729	-0,126	-0,004
-186,373	-160,470	0,100	0,004
-185,358	-200,000	-0,011	0,047
-184,344	-200,000	-0,008	0,118
-183,329	-99,325	0,074	-0,013
-182,315	-101,159	0,116	-0,020
-181,300	-78,199	-0,083	0,020
-180,285	-21,071	-0,110	-0,048
-179,271	-134,641	-0,035	0,003
-178,256	-75,344	0,109	-0,028
-177,242	-113,105	0,050	-0,007
-176,227	43,565	-0,010	0,007
-175,212	35,154	-0,102	-0,064
-174,198	772,963	-0,022	0,043
-173,183	652,196	0,028	0,052
-172,169	-200,000	0,012	0,089
-171,154	-158,201	-0,057	-0,002
-170,139	121,702	0,050	-0,045
-169,125	800,000	0,036	-0,092
-168,110	-200,000	-0,008	-0,056
-167,096	-200,000	0,008	-0,033
-166,081	-11,064	-0,119	-0,056
-165,066	-200,000	0,026	-0,171
-164,052	101,671	-0,122	0,102
-163,037	-102,778	0,111	0,019
-162,023	-70,075	0,135	-0,037
-161,008	-97,214	0,144	-0,027
-159,993	308,246	-0,061	-0,082
-158,979	527,767	-0,081	-0,138
-157,964	-93,780	-0,029	0,006
-156,950	141,557	0,122	0,116
-155,935	800,000	0,032	0,089
-154,920	101,984	0,039	0,032
-153,906	467,971	-0,012	0,020
-152,891	800,000	-0,025	0,069
-151,877	-1,285	-0,109	-0,055
-150,862	70,903	-0,039	0,029
-149,847	-200,000	0,020	-0,157
-148,833	-98,577	0,076	-0,014
-147,818	-143,357	-0,182	0,012
-146,804	499,413	-0,020	-0,033
-145,789	800,000	0,047	0,116
-144,775	-200,000	-0,004	0,106
-143,760	-200,000	-0,019	0,086
-142,745	-200,000	0,019	-0,098
-141,731	-200,000	-0,016	-0,067
-140,716	-200,000	-0,004	-0,043
-139,702	800,000	0,037	-0,091
-138,687	-200,000	0,005	-0,032
-137,672	74,602	0,064	-0,049
-136,658	82,246	0,059	-0,046
-135,643	-169,877	0,146	0,004
-134,629	142,884	-0,117	-0,112
-133,614	-200,000	0,004	0,026
-132,599	-200,000	0,031	-0,100
-131,585	-200,000	0,034	0,120
-130,570	-55,165	-0,107	0,034
-129,556	-200,000	-0,022	-0,073
-128,541	133,943	-0,063	0,059
-127,526	-132,277	0,048	-0,004
-126,512	-156,816	-0,029	-0,001
-125,497	-200,000	0,028	0,100
-124,483	-200,000	-0,001	0,045
-123,468	-200,000	-0,002	0,009
-122,453	21,564	0,043	-0,025
-121,439	51,479	0,044	-0,030
-120,424	-200,000	-0,020	-0,075
-119,410	146,989	0,073	-0,071
