DTS Sentinel unit serial number:	SN410029Multiplexer serial number:	ORYXHardware model number:	OX2-SRSoftware version number:	ORYX F/W v4,00 Oryx Data Collector v3.7.2.0data status	okinstallation	B6 Nyhavnadifferential loss correction	single-endedforward channel	channel 2reverse channel	N/Adate	2023/12/10time	23:45:08forward acquisition time	300,00reverse acquisition time	0,00gamma	499,1914k internal	0,3122k external	0,3122temperature offset calibration	1,0000default loss term (dB/km)	0,3820temperature slope calibration	1,0000multiplexer offset coefficient	1,0000multiplexer slope coefficient	1,0000fibre end	0,00T internal ref (°C)	22,38T ext. ref 1 (°C)	6,09T ext. ref 2 (°C)	6,11length (m)	temperature (°C)	Stokes	anti-Stokes-744,400	800,000	-0,030	0,095
-743,385	36,837	-0,227	0,149
-742,371	236,433	0,064	0,079
-741,356	181,832	-0,190	0,209
-740,342	160,206	0,039	-0,040
-739,327	783,846	-0,047	0,097
-738,312	96,950	0,131	-0,112
-737,298	21,269	-0,256	0,155
-736,283	-13,337	-0,065	0,031
-735,269	80,040	-0,161	0,129
-734,254	-148,687	0,084	-0,005
-733,239	-200,000	-0,387	0,001
-732,225	-46,026	0,084	0,031
-731,210	480,376	-0,041	0,070
-730,196	119,056	-0,111	0,102
-729,181	69,566	0,040	-0,031
-728,167	-200,000	-0,003	-0,047
-727,152	-200,000	-0,001	0,045
-726,137	-200,000	-0,011	-0,152
-725,123	-200,000	-0,008	-0,034
-724,108	-122,836	-0,048	-0,006
-723,094	-58,864	-0,054	-0,017
-722,079	-56,914	-0,167	-0,055
-721,064	-189,906	-0,109	-0,001
-720,050	485,037	-0,020	-0,035
-719,035	800,000	-0,049	-0,101
-718,021	-31,399	0,063	-0,026
-717,006	800,000	-0,048	-0,102
-715,991	11,139	-0,263	-0,149
-714,977	48,900	0,036	-0,025
-713,962	-200,000	0,027	-0,106
-712,948	-59,877	-0,145	-0,046
-711,933	639,245	-0,040	-0,076
-710,918	-147,168	-0,189	-0,012
-709,904	344,925	-0,063	-0,092
-708,889	359,249	0,043	0,064
-707,875	-200,000	-0,010	-0,046
-706,860	110,514	-0,019	-0,017
-705,845	-146,003	-0,029	-0,002
-704,831	-43,317	0,060	-0,023
-703,816	-200,000	0,013	0,085
-702,802	-153,010	-0,097	-0,005
-701,787	-200,000	-0,014	-0,098
-700,772	-200,000	-0,006	-0,184
-699,758	800,000	0,010	-0,026
-698,743	30,060	-0,070	0,044
-697,729	410,700	-0,058	0,092
-696,714	-84,256	-0,135	0,031
-695,699	577,233	-0,055	-0,101
-694,685	-50,448	-0,125	-0,044
-693,670	-96,061	0,144	0,028
-692,656	38,834	0,109	0,073
-691,641	61,721	0,062	-0,046
-690,627	800,000	-0,026	0,075
-689,612	800,000	-0,039	-0,108
-688,597	-58,790	-0,147	0,047
-687,583	-200,000	0,008	0,062
-686,568	-79,604	-0,105	0,026
-685,554	94,065	0,019	-0,016
-684,539	-200,000	0,001	0,105
-683,524	147,440	0,045	0,045
-682,510	37,421	0,054	-0,035
-681,495	10,865	-0,150	0,085
-680,481	-145,991	-0,082	-0,005
-679,466	-24,277	-0,128	0,057
-678,451	200,611	-0,075	0,086
-677,437	694,137	0,040	0,078
-676,422	150,326	0,064	0,065
-675,408	88,968	-0,106	-0,088
-674,393	49,790	0,058	-0,041
-673,378	759,714	-0,055	-0,112
-672,364	-28,617	-0,083	-0,036
-671,349	11,120	0,082	-0,046
-670,335	-200,000	-0,006	0,118
-669,320	-200,000	0,009	-0,043
-668,305	18,803	-0,174	-0,103
-667,291	-144,471	-0,135	0,009
-666,276	-160,681	-0,151	-0,006
-665,262	214,563	-0,053	0,063
-664,247	259,298	-0,148	-0,190
-663,232	137,470	0,068	0,066
-662,218	-61,574	0,084	0,026
-661,203	203,301	-0,100	0,116
-660,189	-200,000	-0,019	0,063
-659,174	345,978	-0,018	0,026
-658,159	242,939	0,041	-0,052
-657,145	800,000	0,034	0,075
-656,130	800,000	0,039	0,096
-655,116	504,476	-0,060	0,104
-654,101	163,505	0,094	0,099
-653,086	725,045	0,018	0,036
-652,072	-9,803	0,099	0,049
-651,057	-161,313	0,081	-0,003
-650,043	-102,765	-0,028	-0,005
-649,028	-183,315	0,117	0,001
-648,014	42,552	0,022	0,015
-646,999	-88,445	-0,055	0,012
-645,984	584,982	0,049	-0,089
-644,970	366,710	0,038	0,057
-643,955	-121,664	-0,106	-0,013
-642,941	194,862	-0,084	-0,095
-641,926	186,978	0,147	-0,163
-640,911	15,640	0,063	-0,037
-639,897	-200,000	0,010	0,041
-638,882	43,689	0,102	-0,069
-637,868	-48,561	-0,105	-0,037
-636,853	208,784	-0,039	0,045
-635,838	130,778	-0,053	-0,050
-634,824	38,691	-0,018	-0,012
-633,809	-70,364	0,064	-0,018
-632,795	-131,079	0,135	0,013
-631,780	-200,000	0,025	-0,100
-630,765	-187,620	-0,053	0,001
-629,751	-200,000	0,000	0,011
-628,736	72,751	-0,109	-0,084
-627,722	-200,000	0,001	-0,066
-626,707	-130,103	0,147	-0,015
-625,692	-114,616	-0,104	0,015
-624,678	-200,000	-0,011	0,206
-623,663	-34,125	-0,102	0,041
-622,649	-136,999	-0,119	-0,010
-621,634	254,546	0,047	-0,060
-620,619	800,000	0,020	0,063
-619,605	299,219	0,104	-0,143
-618,590	-197,583	-0,140	0,001
-617,576	-200,000	0,009	0,036
-616,561	166,952	-0,045	0,048
-615,546	-200,000	0,008	-0,085
-614,532	476,154	0,088	-0,148
-613,517	-200,000	0,037	-0,176
-612,503	800,000	0,020	-0,047
-611,488	636,788	-0,015	0,028
-610,474	800,000	0,019	0,044
-609,459	-99,625	-0,154	-0,028
-608,444	277,794	-0,054	0,071
-607,430	454,214	-0,056	-0,092
-606,415	800,000	0,017	-0,035
-605,401	-200,000	-0,017	0,064
-604,386	-80,001	0,097	0,024
-603,371	-200,000	-0,005	0,077
-602,357	-200,000	-0,009	-0,057
-601,342	507,453	0,092	-0,159
-600,328	-126,066	-0,040	-0,004
-599,313	-200,000	0,014	-0,052
-598,298	800,000	-0,055	-0,120
-597,284	58,458	-0,078	-0,057
-596,269	43,830	-0,051	0,035
-595,255	-82,414	0,124	0,030
-594,240	-132,817	-0,068	0,006
-593,225	-30,468	-0,058	-0,024
-592,211	82,115	-0,075	-0,060
-591,196	337,046	0,029	0,043
-590,182	338,175	0,087	-0,126
-589,167	47,772	-0,081	-0,056
-588,152	9,949	-0,065	-0,036
-587,138	-84,767	-0,083	0,019
-586,123	-114,829	-0,153	-0,021
-585,109	-200,000	0,007	-0,215
-584,094	-30,652	0,058	0,024
-583,079	105,010	0,097	0,085
-582,065	-200,000	0,005	0,052
-581,050	82,161	-0,077	-0,062
-580,036	-89,765	-0,131	-0,028
-579,021	780,742	-0,037	-0,074
-578,006	-200,000	0,040	0,144
-576,992	-109,423	-0,093	-0,014
-575,977	800,000	-0,071	0,214
-574,963	290,411	0,088	0,118
-573,948	604,631	-0,067	-0,125
-572,934	73,193	-0,106	0,082
-571,919	-200,000	-0,013	-0,052
-570,904	471,371	0,067	0,113
-569,890	800,000	0,044	0,124
-568,875	15,566	0,030	-0,018
-567,861	-94,015	-0,093	0,019
-566,846	-82,850	0,067	-0,016
-565,831	-88,585	0,058	-0,013
-564,817	-91,388	-0,099	-0,021
-563,802	-112,447	-0,042	-0,006
-562,788	800,000	0,044	0,100
-561,773	134,344	0,042	-0,040
-560,758	175,854	0,126	-0,135
-559,744	-32,786	-0,098	-0,040
-558,729	-60,706	-0,083	-0,026
-557,715	85,738	0,069	-0,056
-556,700	-60,769	-0,090	-0,028
-555,685	-200,000	-0,003	0,068
-554,671	800,000	-0,091	0,213
-553,656	-118,332	0,197	0,026
-552,642	269,440	0,092	-0,120
-551,627	-200,000	0,013	0,149
-550,612	-200,000	-0,005	0,056
-549,598	-200,000	0,027	-0,126
-548,583	-200,000	-0,025	0,114
-547,569	312,082	-0,028	0,039
-546,554	-200,000	0,000	0,195
-545,539	-53,434	0,107	0,036
-544,525	-46,071	0,080	-0,029
-543,510	-31,288	-0,051	-0,021
-542,496	800,000	-0,037	0,076
-541,481	800,000	-0,006	0,012
-540,466	32,865	0,069	-0,044
-539,452	386,112	-0,035	0,054
-538,437	-200,000	0,018	0,112
-537,423	-143,275	0,058	-0,004
-536,408	800,000	0,026	-0,058
-535,393	800,000	-0,041	-0,112
-534,379	-48,528	-0,096	-0,034
-533,364	-200,000	0,003	-0,063
-532,350	800,000	0,039	-0,092
-531,335	1,843	0,068	-0,036
-530,321	43,592	-0,065	0,044
-529,306	-200,000	-0,019	-0,112
-528,291	-200,000	0,013	-0,117
-527,277	129,953	-0,110	-0,105
-526,262	-55,152	0,151	0,050
-525,248	-0,445	0,032	0,017
-524,233	132,423	0,077	-0,074
-523,218	-134,253	0,065	-0,006
-522,204	-42,085	0,109	-0,041
-521,189	-26,916	-0,080	0,034
-520,175	-200,000	0,002	-0,047
-519,160	-200,000	0,024	-0,203
-518,145	676,794	0,069	-0,133
-517,131	-6,710	-0,059	-0,030
-516,116	506,459	-0,023	0,040
-515,102	-9,828	-0,021	0,010
-514,087	-99,043	-0,104	0,019
-513,072	-129,472	-0,093	-0,009
-512,058	-113,596	-0,109	0,016
-511,043	-200,000	0,035	-0,115
-510,029	-112,149	-0,071	-0,010
-509,014	800,000	0,019	-0,046
-507,999	-200,000	0,077	0,260
-506,985	-200,000	0,006	0,103
-505,970	28,611	0,025	0,016
-504,956	-38,568	-0,078	0,030
-503,941	50,912	0,031	0,022
-502,926	-0,077	-0,087	0,046
-501,912	-107,135	-0,062	-0,010
-500,897	202,764	-0,034	0,039
-499,883	16,077	-0,052	-0,030
-498,868	29,524	-0,013	0,008
-497,853	-84,128	-0,172	0,040
-496,839	800,000	0,031	-0,080
-495,824	-200,000	0,009	0,075
-494,810	185,126	0,053	0,059
-493,795	-166,735	0,089	0,003
-492,781	-107,206	-0,107	-0,017
-491,766	-36,833	-0,081	-0,032
-490,751	148,712	0,100	-0,100
-489,737	344,243	-0,026	-0,037
-488,722	-200,000	-0,011	0,133
-487,708	19,699	0,140	0,083
-486,693	-10,199	-0,091	0,044
-485,678	139,905	0,101	0,098
-484,664	800,000	-0,075	-0,186
-483,649	-80,575	-0,162	-0,040
-482,635	-112,305	0,090	-0,013
-481,620	-200,000	-0,019	0,102
-480,605	800,000	0,014	0,044
-479,591	-136,295	0,055	-0,005
-478,576	84,807	0,032	0,026
-477,562	800,000	-0,042	-0,095
-476,547	800,000	0,041	-0,105
-475,532	-83,199	-0,017	0,004
-474,518	800,000	-0,069	-0,177
-473,503	127,235	-0,052	0,049
-472,489	-200,000	-0,013	-0,123
-471,474	800,000	0,042	0,102
-470,459	-200,000	0,032	-0,131
-469,445	-112,482	-0,073	-0,011
-468,430	800,000	-0,046	0,133
-467,416	-5,889	0,033	-0,017
-466,401	-200,000	0,017	0,083
-465,386	587,734	-0,050	0,090
-464,372	-200,000	0,016	0,054
-463,357	136,712	-0,065	-0,063
-462,343	-47,713	0,237	-0,084
-461,328	-200,000	0,010	-0,070
-460,313	-153,804	-0,101	-0,005
-459,299	392,119	0,050	-0,077
-458,284	341,071	0,034	0,049
-457,270	-200,000	0,024	0,117
-456,255	268,247	-0,020	0,026
-455,241	-200,000	0,012	-0,054
-454,226	14,280	-0,101	-0,058
-453,211	-200,000	0,014	0,045
-452,197	-92,065	-0,059	0,012
-451,182	-15,349	-0,053	0,025
-450,168	128,706	-0,081	-0,076
-449,153	-156,824	0,019	0,001
-448,138	-123,944	-0,133	0,015
-447,124	769,902	-0,033	0,066
-446,109	15,239	0,022	0,013
-445,095	548,872	-0,034	-0,059
-444,080	58,094	0,031	0,022
-443,065	-200,000	0,021	-0,069
-442,051	-33,435	-0,090	-0,036
-441,036	800,000	-0,064	-0,183
-440,022	-200,000	-0,007	0,074
-439,007	-115,199	0,080	0,011
-437,992	-94,478	0,010	-0,002
-436,978	117,083	-0,042	0,038
-435,963	-200,000	-0,032	0,138
-434,949	-95,642	-0,113	-0,022
-433,934	-53,450	0,154	0,051
-432,919	-200,000	0,020	-0,088
-431,905	-149,899	-0,219	0,012
-430,890	604,567	0,066	0,122
-429,876	-150,984	0,060	-0,003
-428,861	-94,480	0,020	0,004
-427,846	79,010	-0,061	-0,048
-426,832	-28,666	0,073	-0,031
-425,817	-39,446	-0,060	0,023
-424,803	507,142	0,030	-0,052
-423,788	47,221	-0,055	-0,038
-422,773	-56,170	-0,045	-0,015
-421,759	-9,540	-0,024	0,012
-420,744	518,384	-0,042	-0,072
-419,730	-200,000	-0,003	-0,108
-418,715	696,397	0,062	-0,121
-417,701	119,165	-0,060	0,054
-416,686	3,078	-0,060	0,032
-415,671	23,125	0,088	0,053
-414,657	99,304	0,150	0,128
-413,642	378,258	0,038	0,057
-412,628	-47,783	-0,171	-0,060
-411,613	-200,000	-0,003	0,055
-410,598	307,052	-0,072	-0,099
-409,584	-200,000	0,003	0,122
-408,569	63,607	0,092	0,068
-407,555	-200,000	0,034	0,164
-406,540	26,471	0,072	0,044
-405,525	-25,311	-0,036	0,015
-404,511	233,069	0,043	-0,052
-403,496	-116,727	-0,158	0,021
-402,482	83,829	-0,034	-0,028
-401,467	74,767	-0,077	0,059
-400,452	-157,185	0,051	0,002
-399,438	-53,389	0,133	0,045
-398,423	-27,047	-0,096	0,041
-397,409	106,350	0,005	-0,004
-396,394	-200,000	-0,002	0,074
-395,379	-200,000	0,007	-0,040
-394,365	-200,000	-0,016	-0,161
-393,350	-181,720	0,217	0,003
-392,336	-147,181	0,109	-0,007
-391,321	-41,006	-0,014	0,005
-390,306	626,710	-0,083	-0,155
-389,292	-200,000	-0,001	-0,021
-388,277	-37,261	0,038	0,015
-387,263	82,176	0,091	-0,072
-386,248	800,000	0,050	0,130
-385,233	-200,000	0,001	-0,010
-384,219	-55,860	-0,068	0,022
-383,204	-2,931	0,072	0,037
-382,190	160,297	0,036	-0,037
-381,175	335,828	-0,035	-0,050
-380,160	63,096	-0,030	0,022
-379,146	136,587	0,067	0,065
-378,131	154,785	0,136	-0,137
-377,117	179,213	-0,040	0,043
-376,102	89,496	-0,068	0,056
-375,088	800,000	-0,035	-0,078
-374,073	283,683	0,113	0,150
-373,058	768,273	0,026	0,053
-372,044	25,266	0,101	0,062
-371,029	-200,000	0,002	-0,027
-370,015	-200,000	-0,003	-0,078
-369,000	-83,317	-0,078	-0,018
-367,985	163,281	-0,086	-0,089
-366,971	-200,000	0,015	0,097
-365,956	-68,886	0,112	-0,032
-364,942	41,611	0,069	-0,046
-363,927	187,624	0,094	0,103
-362,912	4,784	0,038	-0,020
-361,898	-96,276	-0,124	0,024
-360,883	-100,060	-0,116	-0,021
-359,869	-48,814	-0,027	0,009
-358,854	-200,000	-0,012	0,051
-357,839	-200,000	-0,007	0,042
-356,825	245,264	-0,012	-0,015
-355,810	-64,774	-0,149	0,044
-354,796	-40,029	-0,050	-0,019
-353,781	-200,000	-0,029	0,143
-352,766	191,431	0,025	-0,027
-351,752	116,189	-0,083	-0,075
-350,737	351,149	-0,048	-0,071
-349,723	188,323	0,098	0,108
-348,708	800,000	-0,045	0,111
-347,693	-200,000	-0,001	-0,050
-346,679	-200,000	0,004	0,022
-345,664	-10,722	-0,126	-0,061
-344,650	800,000	0,075	-0,165
-343,635	25,406	-0,042	-0,025
-342,620	88,036	-0,066	0,054
-341,606	-27,454	0,122	-0,052
-340,591	800,000	-0,026	-0,070
-339,577	-200,000	0,024	0,086
-338,562	-150,008	-0,009	0,001
-337,548	682,134	-0,087	-0,168
-336,533	31,518	0,060	0,038
-335,518	-200,000	-0,009	0,097
-334,504	-17,491	0,096	-0,044
-333,489	39,464	0,059	0,039
-332,475	800,000	0,027	-0,068
-331,460	57,616	0,053	-0,038
-330,445	-200,000	0,002	-0,020
-329,431	69,034	0,230	0,173
-328,416	-200,000	0,022	0,072
-327,402	800,000	0,061	0,133
-326,387	314,911	0,037	-0,051
-325,372	4,313	-0,057	0,031
-324,358	800,000	-0,048	-0,113
-323,343	800,000	-0,031	0,075
-322,329	652,257	0,049	-0,092
-321,314	-200,000	0,009	-0,126
-320,299	362,512	0,032	-0,047
-319,285	-8,866	0,116	-0,057
-318,270	407,813	-0,120	-0,187
-317,256	-32,056	-0,110	-0,045
-316,241	121,152	-0,102	-0,093
-315,226	68,716	0,109	0,082
-314,212	111,113	0,044	0,039
-313,197	-200,000	-0,007	-0,029
-312,183	-69,276	0,014	0,004
-311,168	83,519	-0,154	-0,123
-310,153	-143,871	-0,039	0,003
-309,139	73,612	0,061	-0,047
-308,124	-44,112	0,077	0,028
-307,110	-1,393	0,241	0,124
-306,095	-200,000	0,037	0,150
-305,080	-34,996	0,097	0,039
-304,066	-200,000	-0,026	0,091
-303,051	-40,211	0,044	0,017
-302,037	-200,000	-0,029	-0,141
-301,022	-200,000	0,023	0,265
-300,008	-200,000	-0,026	0,120
-298,993	198,507	-0,082	0,092
-297,978	-200,000	-0,035	0,161
-296,964	162,323	-0,028	0,029
-295,949	-88,141	-0,119	0,026
-294,935	676,095	0,050	0,095
-293,920	800,000	-0,015	0,048
-292,905	9,208	0,080	-0,044
-291,891	-200,000	-0,003	0,119
-290,876	800,000	0,013	-0,029
-289,862	486,966	0,010	-0,018
-288,847	-15,024	-0,072	0,033
-287,832	327,591	-0,014	0,020
-286,818	151,135	-0,062	0,062
-285,803	800,000	0,033	0,075
-284,789	73,285	-0,066	0,051
-283,774	116,415	-0,033	-0,029
-282,759	1,134	0,029	-0,015
-281,745	800,000	-0,067	0,140
-280,730	511,955	0,085	-0,146
-279,716	260,923	-0,037	0,047
-278,701	-32,746	0,061	-0,025
-277,686	13,216	0,085	0,048
-276,672	800,000	-0,027	-0,068
-275,657	741,239	0,017	0,034
-274,643	800,000	0,025	-0,061
-273,628	800,000	-0,026	0,059
-272,613	-200,000	-0,012	0,099
-271,599	-121,635	0,133	-0,016
-270,584	-55,905	-0,076	0,025
-269,570	-200,000	0,024	0,159
-268,555	-200,000	-0,005	0,043
-267,540	-168,335	0,038	0,001
-266,526	-200,000	-0,013	0,120
-265,511	91,463	0,071	0,058
-264,497	-200,000	0,006	0,062
-263,482	310,727	-0,063	0,086
-262,467	632,121	0,039	0,073
-261,453	-11,876	0,077	-0,037
-260,438	91,362	-0,061	-0,050
-259,424	237,414	-0,069	-0,084
-258,409	800,000	-0,031	-0,094
-257,395	-130,463	-0,054	-0,005
-256,380	-200,000	-0,005	0,075
-255,365	508,894	0,073	-0,125
-254,351	-163,527	0,093	-0,003
-253,336	18,431	0,104	-0,061
-252,322	800,000	0,025	-0,060
-251,307	-69,216	-0,008	0,002
-250,292	545,477	0,019	0,033
-249,278	-200,000	0,001	-0,056
-248,263	-96,091	-0,029	-0,006
-247,249	-200,000	0,017	0,061
-246,234	800,000	0,022	-0,067
-245,219	217,888	-0,090	-0,105
-244,205	432,312	-0,052	0,082
-243,190	-118,795	-0,207	0,026
-242,176	127,784	0,135	-0,126
-241,161	-85,000	0,143	0,032
-240,146	800,000	-0,017	0,048
-239,132	-106,176	0,102	0,017
-238,117	50,308	-0,089	-0,061
-237,103	800,000	0,006	-0,016
-236,088	192,392	-0,046	-0,051
-235,073	56,151	-0,107	0,076
-234,059	800,000	-0,043	0,126
-233,044	118,151	0,121	0,109
-232,030	4,645	-0,093	-0,050
-231,015	-130,119	-0,045	-0,004
-230,000	650,693	0,022	-0,041
-228,986	-179,859	-0,026	0,000
-227,971	234,976	-0,035	-0,043
-226,957	-125,951	0,116	0,013
-225,942	-32,261	-0,063	0,025
-224,927	-200,000	-0,008	0,090
-223,913	800,000	0,024	0,054
-222,898	57,668	-0,177	-0,127
-221,884	339,268	-0,050	-0,071
-220,869	247,901	0,043	-0,053
-219,855	-48,619	-0,059	0,020
-218,840	785,309	0,130	0,262
-217,825	800,000	0,066	0,169
-216,811	-94,748	0,037	0,007
-215,796	391,898	-0,027	-0,042
-214,782	214,728	-0,073	-0,084
-213,767	486,298	-0,019	0,031
-212,752	103,020	0,046	0,040
-211,738	75,878	0,078	-0,060
-210,723	-200,000	0,002	0,014
-209,709	-37,029	0,050	-0,020
-208,694	-62,884	0,077	0,023
-207,679	-200,000	0,004	-0,137
-206,665	73,022	0,063	-0,048
-205,650	174,932	0,052	0,055
-204,636	-172,099	-0,053	-0,001
-203,621	438,366	0,053	0,084
-202,606	109,786	-0,091	0,079
-201,592	82,837	0,068	0,054
-200,577	-16,517	0,112	-0,052
-199,563	800,000	-0,042	0,133
-198,548	-36,347	0,177	0,069
-197,533	-121,801	0,086	0,010
-196,519	143,149	-0,030	-0,029
-195,504	257,189	-0,076	-0,095
-194,490	-200,000	0,032	-0,123
-193,475	342,807	0,104	-0,149
-192,460	800,000	-0,020	-0,064
-191,446	-10,292	0,046	-0,022
-190,431	-200,000	-0,014	0,056
-189,417	-42,908	0,077	-0,028
-188,402	415,094	0,057	0,089
-187,387	90,343	-0,087	-0,071
-186,373	-135,972	-0,052	0,004
-185,358	143,488	-0,074	-0,072
-184,344	-168,248	0,163	0,005
-183,329	-60,573	-0,052	0,016
-182,315	389,373	0,071	-0,108
-181,300	1,564	-0,146	0,076
-180,285	68,481	0,138	-0,103
-179,271	-153,093	-0,079	0,004
-178,256	338,252	0,074	0,106
-177,242	-200,000	0,024	-0,109
-176,227	424,988	-0,025	-0,039
-175,212	-17,817	0,029	-0,013
-174,198	800,000	0,010	0,022
-173,183	-41,182	-0,119	0,045
-172,169	-26,966	0,118	-0,050
-171,154	-44,937	-0,104	0,038
-170,139	800,000	0,039	0,093
-169,125	44,883	0,097	0,065
-168,110	75,290	0,063	-0,049
-167,096	-97,802	0,090	-0,017
-166,081	550,233	0,029	-0,051
-165,066	800,000	-0,036	-0,102
-164,052	-200,000	-0,019	0,107
-163,037	-94,423	-0,072	0,014
-162,023	-51,788	-0,043	0,015
-161,008	-200,000	0,010	0,085
-159,993	-200,000	-0,003	-0,060
-158,979	172,296	-0,042	0,045
-157,964	143,683	-0,098	-0,096
-156,950	275,715	0,025	-0,032
-155,935	-200,000	0,008	-0,028
-154,920	158,356	0,028	0,029
-153,906	221,514	-0,053	-0,062
-152,891	-200,000	0,034	0,132
-151,877	122,116	0,074	0,068
-150,862	110,957	-0,037	-0,032
-149,847	-200,000	-0,007	0,062
-148,833	223,436	0,028	-0,033
-147,818	404,088	0,104	0,160
-146,804	8,492	0,029	-0,016
-145,789	-187,424	-0,207	-0,002
-144,775	-5,735	-0,078	0,039
-143,760	-200,000	-0,011	-0,114
-142,745	-200,000	-0,017	-0,118
-141,731	232,789	0,061	-0,073
-140,716	-200,000	-0,005	-0,017
-139,702	-200,000	-0,001	0,066
-138,687	-69,456	0,110	-0,031
-137,672	163,427	0,092	0,094
-136,658	-200,000	0,010	0,058
-135,643	-32,071	0,053	0,021
-134,629	106,709	0,178	-0,154
-133,614	-200,000	-0,014	-0,081
-132,599	4,616	-0,030	0,016
-131,585	319,719	0,057	0,078
-130,570	-184,431	-0,058	-0,001
-129,556	800,000	-0,040	0,087
-128,541	91,338	0,014	0,012
-127,526	-200,000	0,012	-0,073
-126,512	-69,159	-0,051	-0,014
-125,497	-33,949	0,047	0,019
-124,483	351,241	-0,045	0,064
-123,468	800,000	0,029	-0,071
-122,453	-200,000	-0,039	-0,139
-121,439	483,492	-0,059	0,098
-120,424	74,939	0,062	0,047
-119,410	616,700	0,044	0,081
-118,395	-43,538	-0,032	0,012
