DTS Sentinel unit serial number:	SN410029Multiplexer serial number:	ORYXHardware model number:	OX2-SRSoftware version number:	ORYX F/W v4,00 Oryx Data Collector v3.7.2.0data status	okinstallation	B6 Nyhavnadifferential loss correction	single-endedforward channel	channel 2reverse channel	N/Adate	2023/12/08time	23:30:08forward acquisition time	300,00reverse acquisition time	0,00gamma	499,1914k internal	0,3157k external	0,3157temperature offset calibration	1,0000default loss term (dB/km)	0,3820temperature slope calibration	1,0000multiplexer offset coefficient	1,0000multiplexer slope coefficient	1,0000fibre end	0,00T internal ref (°C)	15,45T ext. ref 1 (°C)	-0,95T ext. ref 2 (°C)	-0,96length (m)	temperature (°C)	Stokes	anti-Stokes-744,400	33,975	0,063	0,040
-743,385	-134,540	-0,240	0,021
-742,371	-122,753	0,102	0,012
-741,356	-142,191	-0,368	-0,026
-740,342	800,000	0,039	0,099
-739,327	-70,134	-0,312	-0,087
-738,312	-123,177	0,020	-0,002
-737,298	-155,108	-0,418	0,020
-736,283	-200,000	-0,002	-0,139
-735,269	-57,087	-0,353	-0,114
-734,254	414,611	0,028	0,045
-733,239	-90,050	-0,444	-0,095
-732,225	-51,874	0,157	0,054
-731,210	42,297	-0,061	0,041
-730,196	14,866	-0,083	-0,048
-729,181	124,266	-0,049	-0,046
-728,167	337,503	-0,081	-0,116
-727,152	-54,885	-0,022	-0,007
-726,137	12,328	-0,125	-0,071
-725,123	12,550	-0,119	0,067
-724,108	741,913	-0,026	-0,052
-723,094	60,105	-0,104	-0,076
-722,079	800,000	-0,112	-0,318
-721,064	-58,825	-0,034	-0,011
-720,050	-190,143	-0,132	-0,001
-719,035	194,814	0,017	-0,019
-718,021	137,963	-0,020	0,019
-717,006	-200,000	0,029	-0,107
-715,991	42,172	-0,153	-0,102
-714,977	-200,000	-0,031	-0,134
-713,962	800,000	-0,028	-0,085
-712,948	576,963	-0,038	-0,069
-711,933	-116,455	0,032	0,004
-710,918	-200,000	0,006	-0,091
-709,904	206,773	0,023	-0,026
-708,889	-120,852	-0,185	0,023
-707,875	167,487	-0,054	0,057
-706,860	-84,526	0,073	0,017
-705,845	396,996	0,022	-0,033
-704,831	-200,000	0,003	-0,107
-703,816	-200,000	-0,002	0,030
-702,802	103,749	-0,025	0,021
-701,787	40,597	-0,032	-0,021
-700,772	753,594	-0,021	-0,043
-699,758	-88,800	0,036	0,008
-698,743	-200,000	-0,006	0,090
-697,729	-200,000	-0,000	-0,027
-696,714	-133,615	-0,179	0,016
-695,699	451,578	0,048	-0,079
-694,685	43,992	-0,099	-0,067
-693,670	4,117	-0,124	-0,067
-692,656	88,447	0,063	-0,052
-691,641	-80,521	-0,158	-0,039
-690,627	217,085	-0,063	0,074
-689,612	444,926	-0,108	-0,176
-688,597	-120,572	-0,031	-0,004
-687,583	-83,830	-0,131	-0,031
-686,568	297,604	0,020	-0,028
-685,554	-200,000	-0,030	0,141
-684,539	547,787	-0,037	0,065
-683,524	-61,207	-0,076	-0,024
-682,510	127,707	0,137	0,128
-681,495	800,000	-0,039	0,097
-680,481	421,806	0,033	-0,052
-679,466	272,392	-0,062	-0,081
-678,451	-200,000	-0,022	-0,301
-677,437	-200,000	-0,021	0,069
-676,422	-54,835	-0,040	-0,013
-675,408	800,000	0,034	-0,093
-674,393	-7,013	-0,124	0,062
-673,378	-200,000	0,003	0,037
-672,364	123,937	-0,136	-0,126
-671,349	-49,339	-0,050	-0,017
-670,335	-2,166	0,058	-0,030
-669,320	-141,210	0,151	0,011
-668,305	77,332	-0,077	-0,060
-667,291	325,137	0,057	0,080
-666,276	-28,156	-0,130	0,055
-665,262	108,037	-0,096	-0,084
-664,247	-200,000	-0,017	-0,079
-663,232	144,082	0,032	-0,032
-662,218	44,058	-0,128	-0,086
-661,203	762,529	0,051	-0,102
-660,189	38,696	-0,080	-0,052
-659,174	-200,000	-0,032	-0,125
-658,159	197,560	-0,009	0,010
-657,145	-200,000	-0,010	-0,166
-656,130	-200,000	-0,005	0,153
-655,116	638,460	-0,014	-0,025
-654,101	-11,524	0,165	0,080
-653,086	264,635	-0,092	0,118
-652,072	-200,000	0,016	-0,058
-651,057	-80,905	-0,127	-0,031
-650,043	800,000	-0,025	-0,052
-649,028	800,000	-0,061	-0,128
-648,014	800,000	0,038	-0,098
-646,999	333,497	0,034	0,049
-645,984	-88,403	-0,037	-0,008
-644,970	-43,842	0,021	-0,008
-643,955	-38,824	-0,094	-0,036
-642,941	-200,000	0,010	-0,146
-641,926	3,310	-0,024	-0,013
-640,911	537,089	-0,033	-0,057
-639,897	800,000	0,058	0,139
-638,882	29,256	0,139	0,086
-637,868	14,395	0,110	0,063
-636,853	166,830	-0,130	-0,135
-635,838	-200,000	-0,029	-0,136
-634,824	-200,000	-0,010	-0,060
-633,809	-200,000	-0,029	-0,100
-632,795	-74,438	-0,051	0,013
-631,780	783,463	0,025	-0,051
-630,765	-200,000	0,019	-0,110
-629,751	-8,651	-0,079	-0,039
-628,736	23,396	0,121	-0,073
-627,722	302,613	-0,005	-0,007
-626,707	-85,156	0,027	0,006
-625,692	-2,019	0,126	0,065
-624,678	232,013	0,098	0,118
-623,663	-200,000	-0,026	-0,114
-622,649	800,000	-0,018	-0,046
-621,634	-19,579	-0,066	0,030
-620,619	-147,913	-0,122	-0,007
-619,605	800,000	0,032	0,096
-618,590	-55,354	0,093	-0,030
-617,576	236,264	0,018	-0,022
-616,561	-91,910	-0,058	0,012
-615,546	-171,951	-0,114	0,003
-614,532	-92,052	-0,079	-0,016
-613,517	19,624	0,020	0,012
-612,503	-200,000	-0,001	-0,004
-611,488	2,065	0,071	0,038
-610,474	591,514	-0,031	-0,056
-609,459	326,234	-0,136	-0,191
-608,444	800,000	0,024	-0,058
-607,430	77,885	0,030	-0,023
-606,415	76,982	-0,094	-0,074
-605,401	16,713	0,038	0,022
-604,386	-154,521	0,096	-0,005
-603,371	-200,000	-0,002	-0,189
-602,357	217,715	-0,057	0,066
-601,342	240,914	0,086	-0,105
-600,328	14,006	-0,047	0,027
-599,313	219,320	0,038	-0,045
-598,298	481,493	0,034	0,057
-597,284	59,048	0,134	-0,097
-596,269	63,932	0,041	0,030
-595,255	-80,686	-0,138	0,033
-594,240	54,922	0,061	-0,043
-593,225	75,833	0,101	-0,078
-592,211	386,135	-0,020	-0,030
-591,196	800,000	0,032	-0,074
-590,182	103,966	0,064	0,055
-589,167	57,935	-0,025	0,018
-588,152	-86,526	-0,141	-0,031
-587,138	-158,405	0,074	0,003
-586,123	131,372	0,057	-0,054
-585,109	-200,000	0,027	-0,108
-584,094	-61,320	-0,105	0,032
-583,079	253,013	0,060	0,076
-582,065	185,225	-0,023	0,025
-581,050	402,658	-0,026	-0,041
-580,036	-200,000	0,001	-0,049
-579,021	-96,846	-0,104	-0,020
-578,006	80,189	0,060	0,047
-576,992	-200,000	0,005	0,026
-575,977	-49,215	0,104	-0,036
-574,963	184,224	0,031	0,033
-573,948	65,841	0,033	0,025
-572,934	-200,000	-0,008	-0,037
-571,919	65,144	0,057	-0,042
-570,904	-15,042	-0,205	0,096
-569,890	-123,749	0,136	0,016
-568,875	70,894	0,054	-0,041
-567,861	-27,698	0,073	-0,031
-566,846	34,868	-0,078	0,050
-565,831	-18,929	-0,084	0,038
-564,817	447,743	-0,082	0,132
-563,802	-70,142	-0,135	0,037
-562,788	-64,392	0,181	-0,053
-561,773	523,171	0,033	0,056
-560,758	-118,232	0,149	-0,019
-559,744	-200,000	0,010	0,110
-558,729	-34,678	-0,163	0,065
-557,715	14,274	-0,050	-0,028
-556,700	-2,723	-0,042	-0,021
-555,685	-41,441	-0,072	0,027
-554,671	-68,405	0,075	0,021
-553,656	759,070	0,022	0,043
-552,642	-1,037	0,108	0,056
-551,627	40,864	0,051	-0,033
-550,612	-128,997	-0,151	0,015
-549,598	97,384	-0,028	0,023
-548,583	-19,974	-0,067	-0,030
-547,569	-101,450	0,090	0,016
-546,554	-200,000	-0,010	0,155
-545,539	800,000	-0,040	0,087
-544,525	-200,000	-0,003	-0,068
-543,510	800,000	0,061	-0,157
-542,496	800,000	0,032	-0,089
-541,481	-51,448	-0,077	0,026
-540,466	-184,104	-0,051	0,001
-539,452	169,125	-0,051	-0,053
-538,437	26,768	0,095	-0,058
-537,423	-24,597	0,048	-0,021
-536,408	-200,000	0,004	-0,104
-535,393	-38,421	-0,047	-0,018
-534,379	53,345	-0,025	-0,018
-533,364	800,000	0,015	-0,041
-532,350	-200,000	0,001	0,043
-531,335	-121,528	0,071	0,009
-530,321	-160,331	0,135	-0,005
-529,306	-31,604	-0,085	-0,035
-528,291	237,222	0,055	0,067
-527,277	196,149	-0,093	-0,103
-526,262	180,125	0,028	-0,030
-525,248	-123,487	-0,085	-0,010
-524,233	-23,339	0,095	0,042
-523,218	-9,885	0,059	-0,029
-522,204	-96,572	-0,092	-0,018
-521,189	-38,593	-0,079	-0,030
-520,175	50,352	-0,114	-0,079
-519,160	-200,000	-0,002	0,025
-518,145	800,000	0,021	-0,056
-517,131	-116,491	0,080	0,011
-516,116	-200,000	-0,033	0,145
-515,102	800,000	-0,063	0,141
-514,087	354,186	-0,046	-0,067
-513,072	-200,000	-0,000	-0,026
-512,058	23,284	-0,064	0,038
-511,043	312,518	0,049	0,068
-510,029	22,412	0,074	-0,044
-509,014	-177,646	-0,104	-0,002
-507,999	94,848	0,053	0,044
-506,985	-200,000	0,008	0,038
-505,970	800,000	-0,073	-0,157
-504,956	-14,384	0,086	0,040
-503,941	-17,831	-0,045	0,021
-502,926	800,000	0,036	0,093
-501,912	148,169	0,030	-0,030
-500,897	-38,747	-0,031	-0,012
-499,883	-34,496	-0,143	-0,057
-498,868	156,908	-0,054	-0,055
-497,853	-200,000	-0,011	0,083
-496,839	126,433	0,047	-0,043
-495,824	-200,000	0,026	0,126
-494,810	800,000	0,041	0,118
-493,795	-127,862	0,046	-0,005
-492,781	-7,398	-0,068	0,034
-491,766	80,855	0,051	0,040
-490,751	348,024	0,039	0,056
-489,737	-200,000	-0,064	0,000
-488,722	-79,567	-0,063	-0,015
-487,708	-200,000	0,000	0,094
-486,693	382,701	0,060	-0,090
-485,678	-174,763	0,066	-0,001
-484,664	-95,506	0,086	-0,017
-483,649	232,634	0,096	-0,115
-482,635	-200,000	0,001	0,044
-481,620	516,136	-0,094	0,161
-480,605	-200,000	-0,030	0,112
-479,591	-200,000	-0,017	0,157
-478,576	228,680	-0,034	-0,040
-477,562	292,331	-0,083	0,110
-476,547	109,170	0,092	-0,080
-475,532	-200,000	-0,015	-0,111
-474,518	-200,000	0,015	0,132
-473,503	139,484	0,004	0,004
-472,489	800,000	0,033	0,101
-471,474	-200,000	0,021	-0,084
-470,459	75,497	-0,013	-0,010
-469,445	-56,908	-0,049	-0,016
-468,430	-9,543	0,064	0,031
-467,416	800,000	-0,021	0,047
-466,401	-182,064	0,058	0,001
-465,386	-200,000	0,004	-0,034
-464,372	800,000	0,031	0,067
-463,357	23,959	0,019	-0,011
-462,343	-200,000	-0,008	0,034
-461,328	132,266	0,041	0,038
-460,313	61,599	-0,019	-0,014
-459,299	39,613	-0,112	-0,073
-458,284	192,531	-0,017	-0,019
-457,270	-200,000	0,032	-0,106
-456,255	800,000	-0,062	0,128
-455,241	293,678	0,066	0,089
-454,226	193,165	-0,087	-0,096
-453,211	262,449	0,093	0,118
-452,197	410,201	-0,094	0,145
-451,182	109,527	0,068	0,059
-450,168	144,925	0,053	0,052
-449,153	195,125	0,018	-0,020
-448,138	800,000	0,045	-0,124
-447,124	-68,327	-0,070	-0,020
-446,109	-90,816	0,117	0,024
-445,095	-45,855	0,108	0,039
-444,080	-156,359	-0,069	-0,003
-443,065	-111,183	0,174	-0,026
-442,051	351,297	-0,046	-0,066
-441,036	520,099	-0,081	-0,138
-440,022	65,353	0,097	-0,071
-439,007	752,561	0,033	0,065
-437,992	411,371	-0,023	0,035
-436,978	-200,000	0,008	0,086
-435,963	-200,000	-0,010	0,052
-434,949	-200,000	-0,021	0,089
-433,934	5,853	0,128	-0,069
-432,919	-200,000	-0,016	0,060
-431,905	-61,861	-0,128	-0,039
-430,890	127,054	0,018	-0,017
-429,876	764,224	0,026	-0,052
-428,861	4,043	0,150	-0,080
-427,846	158,312	-0,054	0,055
-426,832	-127,615	0,141	-0,015
-425,817	-200,000	-0,041	-0,145
-424,803	349,412	-0,064	-0,092
-423,788	225,714	0,128	0,151
-422,773	12,917	0,074	0,041
-421,759	224,951	0,037	0,044
-420,744	139,858	0,096	0,092
-419,730	-200,000	-0,024	-0,110
-418,715	800,000	-0,033	-0,103
-417,701	-3,497	0,135	-0,068
-416,686	-153,954	-0,021	0,001
-415,671	32,085	0,069	-0,043
-414,657	-200,000	-0,015	0,091
-413,642	14,518	0,083	0,047
-412,628	800,000	-0,039	0,120
-411,613	-200,000	-0,014	-0,077
-410,598	800,000	0,034	0,074
-409,584	800,000	0,044	0,129
-408,569	77,817	0,151	0,117
-407,555	800,000	0,016	0,049
-406,540	35,643	-0,020	-0,012
-405,525	-200,000	0,010	0,035
-404,511	-100,722	-0,179	-0,032
-403,496	800,000	0,024	-0,071
-402,482	-200,000	0,011	-0,099
-401,467	-200,000	0,038	0,156
-400,452	-200,000	0,020	-0,082
-399,438	659,707	-0,047	0,089
-398,423	-55,399	-0,085	0,027
-397,409	32,029	-0,069	-0,043
-396,394	800,000	0,010	0,025
-395,379	-18,831	0,036	-0,016
-394,365	-24,388	-0,136	0,059
-393,350	-51,138	0,085	0,029
-392,336	-114,988	0,086	-0,012
-391,321	800,000	0,042	0,099
-390,306	-200,000	-0,009	0,040
-389,292	315,328	-0,082	-0,113
-388,277	69,188	0,056	0,042
-387,263	17,966	0,023	-0,013
-386,248	-200,000	-0,009	-0,074
-385,233	622,004	0,024	0,044
-384,219	198,008	-0,120	-0,134
-383,204	21,059	-0,077	0,046
-382,190	-23,594	0,032	-0,014
-381,175	172,633	-0,090	0,094
-380,160	-200,000	0,009	0,197
-379,146	-200,000	0,027	0,116
-378,131	-200,000	0,012	0,062
-377,117	302,767	-0,037	0,050
-376,102	122,808	0,088	-0,080
-375,088	46,328	-0,077	-0,052
-374,073	105,602	-0,039	-0,034
-373,058	-93,296	0,095	0,019
-372,044	-200,000	-0,016	0,076
-371,029	153,506	0,016	-0,016
-370,015	-200,000	-0,004	-0,041
-369,000	-70,272	-0,050	-0,014
-367,985	-165,662	-0,099	-0,003
-366,971	-58,529	-0,130	0,041
-365,956	800,000	-0,059	0,139
-364,942	800,000	-0,035	0,096
-363,927	800,000	0,069	0,212
-362,912	-155,150	0,073	-0,003
-361,898	-154,889	-0,093	-0,004
-360,883	112,139	-0,138	0,122
-359,869	-10,815	-0,071	0,034
-358,854	435,392	0,054	-0,085
-357,839	800,000	-0,041	0,095
-356,825	-63,003	0,069	-0,020
-355,810	92,941	-0,094	-0,077
-354,796	800,000	0,051	-0,110
-353,781	-190,972	0,049	-0,000
-352,766	37,019	-0,051	-0,033
-351,752	378,347	0,094	-0,140
-350,737	-84,619	-0,074	-0,017
-349,723	800,000	-0,032	0,074
-348,708	-93,440	-0,062	-0,012
-347,693	-14,603	-0,116	-0,054
-346,679	800,000	0,003	0,009
-345,664	-183,528	-0,094	0,001
-344,650	-32,737	0,045	-0,018
-343,635	-77,464	0,134	-0,033
-342,620	542,688	0,027	-0,047
-341,606	199,351	-0,074	0,083
-340,591	-17,106	-0,132	0,060
-339,577	800,000	0,044	-0,094
-338,562	214,307	-0,068	0,079
-337,548	-86,277	-0,215	-0,048
-336,533	-58,026	-0,053	-0,017
-335,518	-200,000	-0,001	0,031
-334,504	-200,000	-0,001	0,056
-333,489	-200,000	-0,007	-0,071
-332,475	17,147	0,032	0,018
-331,460	-200,000	0,036	0,156
-330,445	88,480	-0,043	-0,034
-329,431	126,781	0,107	-0,099
-328,416	295,714	0,035	-0,046
-327,402	-200,000	-0,008	0,080
-326,387	-89,580	-0,094	0,020
-325,372	-11,940	-0,078	-0,037
-324,358	800,000	0,005	0,014
-323,343	-55,028	0,064	-0,021
-322,329	-200,000	0,003	0,131
-321,314	-200,000	0,006	0,033
-320,299	584,995	0,051	-0,091
-319,285	-146,734	0,076	-0,005
-318,270	101,157	0,080	-0,067
-317,256	-34,279	-0,150	-0,059
-316,241	193,653	0,101	-0,111
-315,226	-200,000	-0,003	0,036
-314,212	800,000	-0,017	-0,050
-313,197	116,020	0,101	-0,090
-312,183	-128,095	-0,086	0,009
-311,168	-200,000	-0,002	0,081
-310,153	208,792	0,070	0,080
-309,139	-145,522	-0,089	0,006
-308,124	12,833	-0,046	0,026
-307,110	404,914	-0,023	0,035
-306,095	-95,088	0,110	-0,021
-305,080	-200,000	-0,009	-0,062
-304,066	104,347	0,024	0,020
-303,051	800,000	-0,031	-0,065
-302,037	118,575	0,064	-0,058
-301,022	-149,386	-0,083	-0,005
-300,008	117,109	-0,043	-0,039
-298,993	-23,849	-0,032	-0,014
-297,978	182,302	-0,098	0,104
-296,964	-30,327	-0,100	-0,041
-295,949	-45,577	-0,105	-0,038
-294,935	386,559	0,030	0,044
-293,920	84,883	0,012	-0,010
-292,905	-200,000	0,013	-0,068
-291,891	292,101	0,089	-0,117
-290,876	-200,000	-0,028	0,162
-289,862	608,386	-0,062	0,112
-288,847	-126,826	-0,084	0,009
-287,832	-200,000	0,007	0,032
-286,818	-36,925	0,247	0,095
-285,803	154,239	-0,117	-0,116
-284,789	-75,032	0,077	-0,020
-283,774	800,000	0,028	0,058
-282,759	800,000	-0,035	0,110
-281,745	-62,450	-0,056	0,017
-280,730	78,798	-0,057	-0,044
-279,716	-88,804	-0,080	0,017
-278,701	-200,000	0,001	0,019
-277,686	6,999	0,034	0,018
-276,672	377,975	0,052	0,078
-275,657	-200,000	0,001	-0,081
-274,643	50,978	-0,102	-0,070
-273,628	-48,914	-0,113	-0,039
-272,613	-200,000	-0,002	0,057
-271,599	213,304	-0,022	0,025
-270,584	453,072	-0,038	0,061
-269,570	-200,000	0,028	-0,115
-268,555	667,122	-0,101	0,190
-267,540	800,000	-0,013	-0,040
-266,526	800,000	0,060	0,149
-265,511	-200,000	-0,051	0,163
-264,497	163,786	0,056	-0,057
-263,482	45,601	0,076	-0,050
-262,467	160,647	-0,127	0,128
-261,453	79,054	0,133	-0,103
-260,438	214,959	0,100	-0,115
-259,424	99,475	-0,058	0,049
-258,409	-200,000	-0,004	-0,021
-257,395	-200,000	-0,000	-0,009
-256,380	-153,292	0,186	-0,009
-255,365	-200,000	0,014	0,226
-254,351	-200,000	-0,006	0,052
-253,336	-186,528	-0,062	-0,001
-252,322	253,981	-0,045	0,055
-251,307	23,991	-0,110	-0,065
-250,292	-42,458	-0,066	-0,024
-249,278	281,592	0,056	0,072
-248,263	-97,151	0,058	-0,011
-247,249	-142,851	-0,124	-0,009
-246,234	-64,624	0,124	0,036
-245,219	523,112	0,011	-0,019
-244,205	-200,000	-0,006	-0,126
-243,190	-200,000	-0,004	-0,097
-242,176	208,340	0,193	-0,218
-241,161	243,972	0,048	-0,059
-240,146	496,052	0,107	0,178
-239,132	284,651	-0,032	0,042
-238,117	472,457	-0,032	0,053
-237,103	-36,687	-0,119	0,046
-236,088	-200,000	0,009	0,049
-235,073	23,977	0,093	-0,056
-234,059	-200,000	0,005	0,061
-233,044	-200,000	-0,001	-0,010
-232,030	-200,000	-0,027	-0,097
-231,015	-200,000	0,022	-0,094
-230,000	523,551	-0,090	-0,154
-228,986	-200,000	-0,023	-0,134
-227,971	304,164	-0,067	0,090
-226,957	-42,211	0,116	0,042
-225,942	166,077	0,056	0,057
-224,927	101,082	0,094	0,079
-223,913	800,000	-0,055	-0,118
-222,898	-8,755	0,012	-0,006
-221,884	499,543	0,012	0,021
-220,869	281,340	-0,053	-0,069
-219,855	35,596	-0,078	-0,049
-218,840	758,659	-0,042	0,082
-217,825	-69,807	0,128	-0,035
-216,811	111,983	-0,120	0,105
-215,796	43,986	-0,114	-0,076
-214,782	-193,874	0,032	-0,000
-213,767	-200,000	0,014	-0,067
-212,752	-94,198	0,108	0,021
-211,738	-66,172	-0,079	-0,022
-210,723	-13,148	-0,097	0,045
-209,709	-200,000	0,013	0,049
-208,694	104,589	-0,016	0,014
-207,679	-200,000	0,008	0,029
-206,665	-200,000	0,019	-0,150
-205,650	-106,323	-0,091	0,015
-204,636	24,018	0,118	-0,070
-203,621	182,384	-0,064	0,068
-202,606	100,263	-0,028	-0,024
-201,592	19,735	0,064	-0,037
-200,577	800,000	-0,020	-0,050
-199,563	-101,141	0,224	-0,039
-198,548	191,563	0,086	0,094
-197,533	-200,000	0,048	0,165
-196,519	163,418	-0,045	0,046
-195,504	-149,639	-0,152	0,008
-194,490	-200,000	-0,021	-0,078
-193,475	66,663	0,093	-0,068
-192,460	-200,000	0,007	0,048
-191,446	282,899	-0,004	-0,005
-190,431	-200,000	-0,002	-0,028
-189,417	92,122	0,062	0,050
-188,402	-139,072	-0,127	0,010
-187,387	-7,506	0,074	-0,036
-186,373	56,231	0,088	-0,062
-185,358	800,000	0,013	-0,037
-184,344	392,602	0,080	0,121
-183,329	-84,882	-0,046	-0,010
-182,315	-200,000	0,003	0,061
-181,300	-200,000	0,006	-0,035
-180,285	800,000	0,011	-0,033
-179,271	-200,000	-0,001	-0,046
-178,256	800,000	0,058	0,127
-177,242	785,375	0,018	-0,035
-176,227	-3,963	-0,076	0,038
-175,212	336,457	0,102	-0,144
-174,198	-54,183	-0,030	-0,010
-173,183	-97,631	-0,163	-0,030
-172,169	240,073	0,066	-0,079
-171,154	800,000	-0,054	-0,110
-170,139	-156,689	0,126	0,006
-169,125	-12,990	0,059	0,028
-168,110	763,912	0,011	0,023
-167,096	-200,000	-0,003	0,029
-166,081	-200,000	-0,007	-0,048
-165,066	800,000	0,022	-0,070
-164,052	800,000	-0,060	-0,129
-163,037	-200,000	-0,023	-0,119
-162,023	-200,000	0,027	0,111
-161,008	-200,000	0,028	-0,093
-159,993	-114,907	-0,036	-0,005
-158,979	77,682	-0,105	0,081
-157,964	800,000	-0,039	-0,110
-156,950	47,317	-0,106	0,071
-155,935	77,172	0,040	-0,031
-154,920	-200,000	-0,003	0,031
-153,906	47,688	0,096	-0,065
-152,891	-9,191	0,089	0,043
-151,877	-94,410	-0,033	-0,006
-150,862	-200,000	-0,023	-0,140
-149,847	181,028	-0,045	-0,048
-148,833	-71,092	-0,130	0,035
-147,818	800,000	-0,052	-0,107
-146,804	246,688	0,114	-0,138
-145,789	337,619	0,029	-0,040
-144,775	13,182	-0,079	-0,044
-143,760	451,750	0,019	-0,030
-142,745	58,119	-0,151	-0,106
-141,731	47,259	0,006	-0,004
-140,716	237,672	-0,054	-0,064
-139,702	184,933	-0,133	0,142
-138,687	202,226	0,077	0,086
-137,672	-26,600	-0,045	-0,019
-136,658	625,469	-0,069	-0,126
-135,643	405,514	0,053	-0,081
-134,629	-97,062	0,093	-0,017
-133,614	772,630	-0,063	0,124
-132,599	-200,000	-0,003	0,101
-131,585	-139,233	0,100	-0,008
-130,570	-49,902	-0,119	0,040
-129,556	457,087	-0,060	-0,097
-128,541	109,624	-0,111	-0,096
-127,526	-92,504	0,039	0,008
-126,512	-27,252	-0,111	0,047
-125,497	800,000	0,029	-0,060
-124,483	-0,042	0,087	-0,044
-123,468	-81,786	-0,058	-0,014
-122,453	-200,000	-0,007	-0,106
-121,439	-98,057	0,073	-0,013
-120,424	-200,000	-0,013	-0,128
