DTS Sentinel unit serial number:	SN410029Multiplexer serial number:	ORYXHardware model number:	OX2-SRSoftware version number:	ORYX F/W v4,00 Oryx Data Collector v3.7.2.0data status	okinstallation	B6 Nyhavnadifferential loss correction	single-endedforward channel	channel 2reverse channel	N/Adate	2023/12/10time	14:10:08forward acquisition time	300,00reverse acquisition time	0,00gamma	499,1914k internal	0,3122k external	0,3122temperature offset calibration	1,0000default loss term (dB/km)	0,3820temperature slope calibration	1,0000multiplexer offset coefficient	1,0000multiplexer slope coefficient	1,0000fibre end	0,00T internal ref (°C)	22,68T ext. ref 1 (°C)	6,17T ext. ref 2 (°C)	6,18length (m)	temperature (°C)	Stokes	anti-Stokes-744,400	605,933	0,040	-0,076
-743,385	103,294	-0,184	0,161
-742,371	-12,893	0,069	0,033
-741,356	229,730	-0,181	0,220
-740,342	-33,887	0,053	-0,022
-739,327	69,815	-0,269	0,207
-738,312	-200,000	0,019	-0,123
-737,298	-33,808	-0,205	0,084
-736,283	634,820	0,049	0,094
-735,269	-200,000	-0,047	0,333
-734,254	653,177	0,034	-0,066
-733,239	-113,866	-0,390	-0,056
-732,225	-200,000	-0,015	-0,125
-731,210	-139,346	-0,072	-0,006
-730,196	-113,220	-0,167	-0,024
-729,181	311,925	-0,014	-0,020
-728,167	-200,000	0,005	-0,049
-727,152	32,303	-0,118	0,076
-726,137	741,909	0,017	0,034
-725,123	-200,000	-0,010	-0,094
-724,108	45,298	-0,093	-0,063
-723,094	31,093	0,077	0,049
-722,079	800,000	-0,089	-0,196
-721,064	-112,782	0,017	0,002
-720,050	468,885	0,021	0,034
-719,035	-131,786	-0,117	0,011
-718,021	-200,000	0,007	-0,174
-717,006	217,422	-0,043	-0,051
-715,991	-200,000	-0,033	-0,175
-714,977	-167,782	-0,095	-0,003
-713,962	-13,982	0,041	0,020
-712,948	30,748	0,117	0,075
-711,933	274,706	0,024	-0,032
-710,918	326,037	0,051	-0,072
-709,904	51,692	-0,081	-0,057
-708,889	41,991	-0,109	0,073
-707,875	85,428	0,046	-0,037
-706,860	-200,000	-0,014	-0,072
-705,845	-200,000	0,006	-0,035
-704,831	243,392	0,024	0,030
-703,816	-200,000	0,019	-0,106
-702,802	34,323	-0,049	0,032
-701,787	-70,725	-0,062	-0,017
-700,772	121,663	0,055	0,051
-699,758	-200,000	0,008	-0,105
-698,743	76,789	-0,039	0,031
-697,729	-45,733	0,087	0,032
-696,714	245,498	0,024	0,030
-695,699	-200,000	0,016	-0,074
-694,685	-124,027	-0,048	-0,006
-693,670	-200,000	0,024	-0,103
-692,656	-200,000	-0,011	-0,049
-691,641	-200,000	0,011	0,095
-690,627	579,246	0,042	0,076
-689,612	800,000	0,023	0,065
-688,597	-109,474	0,053	-0,008
-687,583	107,156	-0,062	-0,055
-686,568	-200,000	0,002	-0,047
-685,554	-78,470	-0,073	-0,018
-684,539	-200,000	-0,018	0,067
-683,524	-58,803	0,122	-0,039
-682,510	800,000	0,024	-0,077
-681,495	-47,508	-0,051	-0,018
-680,481	160,243	-0,085	0,088
-679,466	-47,565	-0,075	-0,027
-678,451	24,562	-0,047	0,029
-677,437	-200,000	0,002	-0,082
-676,422	-115,052	-0,095	-0,013
-675,408	-85,266	0,024	0,006
-674,393	296,489	0,106	-0,145
-673,378	52,624	-0,115	-0,081
-672,364	428,185	-0,095	-0,153
-671,349	800,000	0,083	0,212
-670,335	800,000	0,043	0,108
-669,320	800,000	-0,016	0,035
-668,305	141,358	0,021	-0,020
-667,291	800,000	-0,029	-0,069
-666,276	800,000	-0,026	-0,057
-665,262	-200,000	0,013	-0,141
-664,247	516,236	-0,027	-0,046
-663,232	800,000	0,034	-0,097
-662,218	800,000	-0,012	0,025
-661,203	223,078	-0,036	-0,043
-660,189	61,843	0,017	-0,013
-659,174	-119,067	-0,163	0,021
-658,159	3,326	-0,013	-0,007
-657,145	54,483	-0,080	-0,057
-656,130	-200,000	0,018	-0,133
-655,116	-200,000	0,019	0,064
-654,101	800,000	-0,016	0,048
-653,086	340,170	-0,053	0,077
-652,072	-200,000	-0,021	0,077
-651,057	736,622	-0,013	-0,025
-650,043	-91,498	0,144	-0,030
-649,028	440,447	-0,067	0,110
-648,014	800,000	0,017	0,055
-646,999	38,820	-0,024	-0,016
-645,984	223,630	-0,125	0,150
-644,970	99,856	0,110	0,095
-643,955	800,000	0,027	0,056
-642,941	15,419	-0,078	-0,045
-641,926	447,256	0,056	-0,092
-640,911	13,571	0,093	0,053
-639,897	-18,353	0,067	0,031
-638,882	-121,795	-0,159	0,019
-637,868	-200,000	-0,008	0,029
-636,853	197,542	-0,034	0,038
-635,838	-102,525	0,028	-0,005
-634,824	-49,569	-0,022	0,008
-633,809	-96,659	0,103	-0,020
-632,795	262,688	0,026	-0,034
-631,780	454,163	-0,030	0,049
-630,765	-141,496	-0,041	0,003
-629,751	271,501	-0,051	0,066
-628,736	7,355	-0,102	-0,056
-627,722	-200,000	0,003	-0,053
-626,707	-110,240	-0,097	0,015
-625,692	281,250	0,069	0,092
-624,678	-200,000	-0,028	0,139
-623,663	-73,296	-0,181	-0,049
-622,649	61,378	-0,085	0,063
-621,634	-73,379	-0,106	-0,028
-620,619	800,000	-0,042	-0,133
-619,605	-200,000	0,004	-0,099
-618,590	48,753	0,109	0,075
-617,576	-40,390	-0,082	0,031
-616,561	-200,000	0,009	0,102
-615,546	56,856	0,101	-0,073
-614,532	69,946	0,089	0,068
-613,517	-47,265	0,117	0,042
-612,503	-60,666	-0,077	-0,024
-611,488	-115,244	-0,116	-0,016
-610,474	69,715	-0,027	0,021
-609,459	-200,000	-0,001	0,114
-608,444	-81,406	-0,055	0,013
-607,430	-200,000	0,038	-0,153
-606,415	-200,000	0,009	0,069
-605,401	-200,000	0,004	0,051
-604,386	-82,189	0,050	0,012
-603,371	55,452	0,074	-0,053
-602,357	417,187	-0,026	-0,042
-601,342	-102,417	-0,016	-0,003
-600,328	60,312	-0,086	0,063
-599,313	256,011	-0,031	-0,040
-598,298	-200,000	0,018	0,171
-597,284	800,000	0,051	-0,111
-596,269	-200,000	-0,018	-0,129
-595,255	562,646	-0,015	0,026
-594,240	74,561	-0,093	0,073
-593,225	39,464	-0,092	-0,061
-592,211	139,614	-0,023	-0,022
-591,196	67,430	-0,102	0,077
-590,182	291,196	0,067	-0,090
-589,167	-91,870	-0,007	-0,001
-588,152	-200,000	0,001	0,175
-587,138	-128,701	0,023	0,002
-586,123	207,043	-0,076	-0,088
-585,109	56,646	-0,066	-0,048
-584,094	-72,472	-0,034	0,009
-583,079	366,837	0,044	-0,066
-582,065	800,000	-0,019	0,046
-581,050	507,787	0,032	0,055
-580,036	-200,000	-0,047	-0,164
-579,021	235,836	-0,082	0,101
-578,006	-131,001	-0,045	0,004
-576,992	8,649	-0,059	-0,033
-575,977	212,537	0,044	0,052
-574,963	179,909	0,059	0,064
-573,948	-200,000	-0,022	0,104
-572,934	800,000	0,020	0,046
-571,919	-111,108	-0,029	0,004
-570,904	724,816	-0,109	-0,217
-569,890	800,000	-0,037	-0,103
-568,875	82,876	0,104	-0,084
-567,861	311,504	0,078	0,109
-566,846	95,330	0,051	0,043
-565,831	-154,413	0,093	0,005
-564,817	-200,000	-0,019	0,143
-563,802	37,728	-0,059	-0,039
-562,788	800,000	-0,005	-0,012
-561,773	-200,000	-0,021	-0,102
-560,758	492,332	0,066	-0,113
-559,744	-25,528	0,033	0,014
-558,729	117,337	-0,063	0,057
-557,715	-183,555	-0,043	-0,001
-556,700	-40,203	-0,103	-0,039
-555,685	151,450	0,038	0,038
-554,671	165,464	-0,082	0,086
-553,656	800,000	-0,017	-0,044
-552,642	-200,000	0,014	-0,060
-551,627	-200,000	0,005	-0,040
-550,612	156,644	0,076	-0,078
-549,598	800,000	-0,029	-0,087
-548,583	-200,000	-0,001	-0,089
-547,569	-200,000	0,009	0,115
-546,554	155,029	0,077	-0,079
-545,539	-76,573	-0,013	-0,003
-544,525	-161,468	-0,119	-0,004
-543,510	-200,000	-0,005	0,031
-542,496	161,564	-0,018	0,019
-541,481	-200,000	0,005	0,032
-540,466	447,555	0,095	-0,155
-539,452	680,477	-0,023	-0,045
-538,437	167,632	-0,049	0,052
-537,423	-200,000	0,014	-0,060
-536,408	664,569	-0,013	0,025
-535,393	68,500	-0,052	0,040
-534,379	22,479	0,055	-0,033
-533,364	-200,000	0,013	-0,114
-532,350	231,572	-0,020	0,024
-531,335	-115,689	0,031	0,004
-530,321	-102,409	0,066	0,012
-529,306	-113,999	0,141	-0,020
-528,291	14,200	-0,107	0,061
-527,277	800,000	-0,061	-0,131
-526,262	800,000	0,029	-0,067
-525,248	514,286	-0,086	-0,150
-524,233	-48,010	0,048	-0,017
-523,218	-143,080	0,171	0,012
-522,204	-200,000	0,010	0,235
-521,189	800,000	-0,082	-0,188
-520,175	260,513	-0,055	-0,070
-519,160	-56,490	-0,061	0,020
-518,145	800,000	0,073	0,162
-517,131	572,403	-0,040	-0,073
-516,116	-200,000	0,034	-0,122
-515,102	-148,610	0,147	-0,009
-514,087	-200,000	-0,001	0,035
-513,072	-200,000	-0,000	-0,117
-512,058	800,000	0,024	-0,068
-511,043	153,967	-0,064	0,065
-510,029	-17,344	0,102	0,047
-509,014	354,659	-0,067	0,099
-507,999	-200,000	0,029	0,201
-506,985	-67,517	-0,149	0,043
-505,970	316,873	0,015	0,021
-504,956	79,009	0,040	0,032
-503,941	-182,261	0,150	0,002
-502,926	-200,000	0,039	-0,157
-501,912	87,828	0,063	0,051
-500,897	564,150	-0,055	0,099
-499,883	-200,000	0,015	0,176
-498,868	-200,000	0,021	-0,148
-497,853	105,809	-0,052	-0,045
-496,839	-200,000	0,024	-0,150
-495,824	800,000	0,012	-0,027
-494,810	243,127	0,047	-0,059
-493,795	37,044	0,064	-0,041
-492,781	368,328	0,066	-0,099
-491,766	-172,911	0,098	-0,002
-490,751	-20,733	-0,071	-0,032
-489,737	358,987	-0,012	-0,018
-488,722	-19,209	-0,008	-0,003
-487,708	-200,000	-0,020	-0,071
-486,693	-200,000	-0,016	0,097
-485,678	-56,537	0,068	0,022
-484,664	-38,277	-0,115	-0,045
-483,649	-58,539	-0,076	0,024
-482,635	215,065	-0,023	-0,027
-481,620	-200,000	-0,038	0,130
-480,605	177,111	0,136	0,146
-479,591	-13,440	0,034	0,016
-478,576	-154,388	-0,049	-0,002
-477,562	143,759	-0,084	-0,082
-476,547	152,622	-0,074	-0,075
-475,532	192,145	0,086	-0,096
-474,518	-69,305	0,035	0,010
-473,503	73,770	0,053	0,041
-472,489	26,149	-0,059	0,036
-471,474	800,000	-0,051	0,137
-470,459	27,028	-0,059	0,036
-469,445	29,307	-0,053	0,033
-468,430	148,332	-0,025	0,025
-467,416	-84,075	-0,119	0,028
-466,401	206,580	0,087	0,100
-465,386	-110,748	0,071	-0,011
-464,372	124,904	0,090	-0,084
-463,357	-200,000	-0,003	0,056
-462,343	-200,000	-0,012	-0,070
-461,328	-200,000	0,014	-0,137
-460,313	147,471	0,052	0,051
-459,299	-142,036	-0,064	0,005
-458,284	-67,046	0,065	0,019
-457,270	270,145	-0,060	-0,078
-456,255	-162,641	-0,103	-0,004
-455,241	139,597	-0,069	-0,067
-454,226	-25,907	-0,104	-0,045
-453,211	289,164	0,033	-0,044
-452,197	-77,104	-0,083	-0,021
-451,182	106,755	0,101	0,089
-450,168	-123,544	-0,133	0,015
-449,153	-200,000	0,000	0,060
-448,138	-200,000	0,012	-0,042
-447,124	800,000	0,063	-0,175
-446,109	-200,000	-0,004	-0,033
-445,095	114,858	-0,036	-0,032
-444,080	-200,000	0,021	-0,073
-443,065	20,447	-0,086	-0,051
-442,051	557,915	-0,076	0,136
-441,036	-126,465	0,054	0,006
-440,022	800,000	-0,066	0,212
-439,007	74,881	-0,021	-0,017
-437,992	390,735	0,038	0,059
-436,978	5,724	-0,107	0,058
-435,963	-200,000	-0,032	0,114
-434,949	207,175	0,064	0,074
-433,934	-200,000	0,006	0,066
-432,919	-68,166	-0,096	-0,027
-431,905	157,348	-0,065	-0,066
-430,890	593,980	0,046	0,084
-429,876	19,797	0,078	-0,046
-428,861	20,134	0,055	-0,033
-427,846	-200,000	0,009	-0,081
-426,832	271,844	0,075	0,097
-425,817	235,821	-0,035	0,042
-424,803	-200,000	0,004	-0,109
-423,788	-200,000	0,016	-0,071
-422,773	-42,450	0,064	0,024
-421,759	-76,002	0,133	-0,034
-420,744	95,544	-0,078	0,066
-419,730	-200,000	-0,018	-0,059
-418,715	800,000	-0,011	0,027
-417,701	-111,563	0,115	0,017
-416,686	405,050	-0,034	0,053
-415,671	-190,110	0,096	0,001
-414,657	-200,000	0,008	0,049
-413,642	135,425	-0,056	0,053
-412,628	-200,000	0,004	-0,059
-411,613	-200,000	0,006	-0,038
-410,598	37,600	-0,080	-0,052
-409,584	-115,352	-0,102	0,014
-408,569	-51,378	0,126	0,043
-407,555	-168,758	0,138	-0,004
-406,540	548,340	0,061	0,108
-405,525	-200,000	0,013	-0,044
-404,511	800,000	0,067	-0,168
-403,496	-137,051	-0,161	-0,013
-402,482	173,851	-0,036	0,038
-401,467	-73,161	0,079	-0,021
-400,452	-41,099	0,143	0,054
-399,438	639,615	-0,089	0,167
-398,423	-200,000	0,017	-0,085
-397,409	-148,114	0,030	-0,002
-396,394	-94,092	-0,076	-0,015
-395,379	54,433	0,154	-0,109
-394,365	76,097	-0,092	-0,071
-393,350	89,805	0,023	0,019
-392,336	-98,630	0,014	-0,003
-391,321	-200,000	-0,011	0,052
-390,306	179,481	-0,042	-0,046
-389,292	-135,611	0,111	-0,010
-388,277	800,000	0,043	0,105
-387,263	40,827	0,023	0,015
-386,248	-29,074	0,028	0,012
-385,233	0,800	0,137	0,072
-384,219	106,218	-0,116	-0,101
-383,204	800,000	-0,026	-0,060
-382,190	-21,021	-0,135	0,060
-381,175	381,166	-0,034	0,051
-380,160	-59,147	0,091	-0,029
-379,146	-200,000	0,001	0,138
-378,131	70,202	-0,067	0,050
-377,117	-200,000	-0,009	0,076
-376,102	196,045	-0,044	-0,049
-375,088	-72,498	0,102	-0,028
-374,073	-111,702	-0,151	0,022
-373,058	-18,231	0,022	-0,010
-372,044	-200,000	-0,026	0,086
-371,029	485,650	0,054	0,090
-370,015	264,843	0,045	0,058
-369,000	24,629	-0,147	-0,089
-367,985	-5,545	-0,062	0,031
-366,971	-200,000	0,005	-0,148
-365,956	800,000	0,025	0,065
-364,942	-200,000	0,043	0,146
-363,927	-54,296	0,138	0,046
-362,912	-200,000	0,010	0,094
-361,898	-200,000	0,002	-0,019
-360,883	-104,735	0,136	0,023
-359,869	-150,783	0,123	-0,007
-358,854	-200,000	-0,010	-0,135
-357,839	-58,760	0,094	-0,030
-356,825	-157,688	0,030	-0,001
-355,810	322,349	-0,095	-0,133
-354,796	-200,000	-0,005	0,020
-353,781	18,062	0,022	-0,013
-352,766	-133,369	0,105	0,010
-351,752	-200,000	-0,024	-0,110
-350,737	73,366	0,140	-0,107
-349,723	-200,000	-0,007	0,026
-348,708	431,815	0,022	-0,035
-347,693	800,000	0,031	-0,082
-346,679	-200,000	-0,002	0,034
-345,664	273,036	-0,014	0,018
-344,650	633,367	-0,055	-0,103
-343,635	-85,087	0,048	-0,011
-342,620	121,735	-0,079	-0,073
-341,606	-200,000	0,000	0,059
-340,591	-34,710	-0,083	-0,033
-339,577	75,069	-0,011	0,009
-338,562	-77,633	0,116	-0,029
-337,548	800,000	-0,015	-0,038
-336,533	45,350	0,037	-0,025
-335,518	800,000	-0,015	0,042
-334,504	-169,062	0,121	-0,003
-333,489	-98,756	-0,106	0,020
-332,475	-169,139	-0,122	0,003
-331,460	-82,228	-0,073	-0,017
-330,445	-200,000	0,011	0,042
-329,431	-2,957	0,103	0,052
-328,416	-15,118	0,084	0,039
-327,402	-109,754	0,090	0,014
-326,387	-158,384	-0,116	-0,005
-325,372	-113,645	0,054	-0,008
-324,358	800,000	-0,003	-0,009
-323,343	-78,462	-0,148	-0,037
-322,329	-200,000	0,006	0,052
-321,314	-140,416	0,078	0,006
-320,299	455,061	0,034	0,056
-319,285	-200,000	0,026	0,122
-318,270	-52,915	-0,115	0,038
-317,256	521,896	0,062	-0,108
-316,241	-114,368	0,012	0,002
-315,226	264,627	-0,042	-0,054
-314,212	-200,000	-0,008	0,105
-313,197	-200,000	-0,013	-0,049
-312,183	174,716	-0,023	0,024
-311,168	72,282	0,013	-0,010
-310,153	252,131	-0,116	-0,145
-309,139	59,371	-0,138	-0,100
-308,124	-107,352	0,135	-0,022
-307,110	-22,011	0,148	-0,065
-306,095	-18,961	0,057	-0,026
-305,080	136,982	-0,111	0,106
-304,066	800,000	-0,041	0,086
-303,051	-183,355	-0,072	-0,001
-302,037	92,714	0,139	-0,115
-301,022	152,998	0,076	-0,077
-300,008	800,000	-0,074	-0,163
-298,993	577,541	0,085	-0,152
-297,978	-200,000	0,015	0,134
-296,964	5,743	-0,126	-0,068
-295,949	800,000	-0,041	0,111
-294,935	-134,062	-0,152	0,014
-293,920	800,000	-0,014	-0,029
-292,905	39,902	0,123	0,081
-291,891	293,934	0,040	0,054
-290,876	-200,000	0,035	-0,124
-289,862	-128,138	0,041	-0,004
-288,847	-17,138	0,036	-0,017
-287,832	800,000	0,016	0,051
-286,818	390,037	-0,042	-0,064
-285,803	-60,057	0,060	0,019
-284,789	692,697	0,041	-0,079
-283,774	-58,726	0,079	0,025
-282,759	93,009	0,047	0,039
-281,745	14,120	0,018	-0,010
-280,730	-200,000	0,021	0,099
-279,716	2,873	0,101	0,054
-278,701	-116,827	0,073	0,010
-277,686	107,919	0,012	-0,010
-276,672	133,695	-0,046	-0,044
-275,657	-200,000	-0,042	-0,149
-274,643	223,829	-0,035	0,041
-273,628	-200,000	-0,003	-0,069
-272,613	92,171	-0,025	0,020
-271,599	115,643	0,043	-0,039
-270,584	55,282	-0,119	0,084
-269,570	17,880	0,118	-0,069
-268,555	-130,618	0,103	0,010
-267,540	-29,574	-0,034	-0,014
-266,526	396,709	-0,060	-0,092
-265,511	-46,623	-0,087	-0,031
-264,497	68,928	0,040	-0,030
-263,482	800,000	0,043	0,106
-262,467	-200,000	0,019	0,190
-261,453	23,764	-0,077	-0,046
-260,438	-200,000	0,017	-0,109
-259,424	-9,309	-0,125	-0,061
-258,409	9,770	-0,097	-0,054
-257,395	800,000	0,039	0,108
-256,380	-200,000	0,017	0,105
-255,365	-124,947	0,132	0,015
-254,351	-115,691	0,060	0,008
-253,336	192,097	-0,161	0,178
-252,322	-200,000	-0,009	0,106
-251,307	317,463	-0,038	-0,052
-250,292	223,330	-0,028	0,033
-249,278	38,217	-0,038	0,024
-248,263	-104,953	0,042	-0,007
-247,249	-200,000	0,004	-0,045
-246,234	0,221	0,109	-0,057
-245,219	-200,000	-0,004	-0,026
-244,205	-200,000	0,032	0,000
-243,190	-99,666	0,094	0,017
-242,176	44,250	0,157	0,105
-241,161	800,000	0,039	0,123
-240,146	-152,741	0,118	0,006
-239,132	-42,167	-0,072	0,027
-238,117	800,000	-0,028	0,063
-237,103	177,706	0,042	-0,045
-236,088	58,304	-0,023	0,017
-235,073	149,138	0,002	-0,002
-234,059	-200,000	-0,005	0,150
-233,044	-91,931	0,046	0,009
-232,030	-200,000	0,047	0,153
-231,015	800,000	-0,060	-0,138
-230,000	-40,346	0,035	0,013
-228,986	800,000	-0,044	-0,100
-227,971	-100,101	0,106	0,019
-226,957	220,423	0,029	0,034
-225,942	225,220	-0,083	0,098
-224,927	800,000	-0,035	0,108
-223,913	-200,000	-0,049	0,174
-222,898	-200,000	-0,049	-0,173
-221,884	-87,336	0,029	-0,006
-220,869	-144,191	0,164	-0,011
-219,855	9,937	0,018	0,010
-218,840	-89,263	0,120	-0,026
-217,825	305,860	-0,039	-0,053
-216,811	-28,354	-0,106	0,044
-215,796	-200,000	0,002	-0,056
-214,782	61,391	0,056	-0,041
-213,767	7,430	-0,030	0,016
-212,752	446,033	0,074	-0,119
-211,738	170,073	0,043	-0,045
-210,723	-200,000	-0,013	0,065
-209,709	41,372	0,102	-0,067
-208,694	33,400	0,074	0,047
-207,679	-87,196	-0,083	-0,018
-206,665	-30,914	0,086	0,035
-205,650	800,000	0,059	-0,133
-204,636	295,581	0,068	0,091
-203,621	579,330	0,057	0,102
-202,606	-44,183	-0,079	0,029
-201,592	-200,000	0,023	-0,189
-200,577	-100,771	0,116	-0,021
-199,563	-200,000	0,007	0,054
-198,548	5,642	-0,088	0,047
-197,533	286,566	0,052	0,069
-196,519	-200,000	0,004	0,037
-195,504	128,023	0,125	-0,116
-194,490	127,508	-0,038	-0,036
-193,475	-200,000	-0,020	-0,166
-192,460	-200,000	-0,016	-0,084
-191,446	144,436	0,013	-0,012
-190,431	-200,000	0,010	0,062
-189,417	118,158	0,032	0,029
-188,402	-200,000	-0,015	-0,098
-187,387	-177,543	-0,116	0,002
-186,373	-105,608	0,034	0,006
-185,358	800,000	-0,050	0,101
-184,344	-174,417	0,068	-0,001
-183,329	14,864	-0,192	0,109
-182,315	-200,000	-0,034	0,124
-181,300	306,030	0,050	0,067
-180,285	-8,764	-0,025	0,012
-179,271	-96,525	-0,094	-0,018
-178,256	37,122	-0,078	-0,050
-177,242	581,235	-0,051	-0,092
-176,227	96,893	-0,064	-0,053
-175,212	182,405	-0,023	-0,025
-174,198	-10,779	0,091	-0,044
-173,183	800,000	0,041	-0,100
-172,169	-200,000	-0,002	-0,012
-171,154	361,710	-0,027	0,040
-170,139	115,943	-0,088	-0,079
-169,125	-200,000	-0,014	-0,048
-168,110	572,757	0,040	0,071
-167,096	-200,000	0,025	0,086
-166,081	-200,000	0,016	0,162
-165,066	419,461	0,106	-0,166
-164,052	421,863	-0,048	-0,076
-163,037	35,411	-0,104	0,067
-162,023	-111,337	0,102	0,015
-161,008	142,442	-0,083	-0,080
-159,993	673,744	-0,043	0,081
-158,979	-75,963	-0,123	0,032
-157,964	-86,430	-0,045	-0,010
-156,950	60,513	-0,072	0,052
-155,935	-200,000	-0,025	-0,084
-154,920	200,241	-0,072	-0,081
-153,906	800,000	-0,032	0,065
-152,891	-163,234	-0,083	-0,003
-151,877	222,406	0,077	0,091
-150,862	-200,000	-0,026	-0,229
-149,847	-200,000	0,031	-0,115
-148,833	-106,383	0,150	-0,024
-147,818	452,740	0,021	0,034
-146,804	800,000	-0,041	-0,086
-145,789	800,000	0,009	0,025
-144,775	800,000	-0,069	0,218
-143,760	123,303	-0,070	0,064
-142,745	800,000	-0,047	-0,135
-141,731	466,580	0,085	-0,139
-140,716	-128,835	0,111	0,011
-139,702	-200,000	0,018	0,161
-138,687	-90,702	-0,007	-0,001
-137,672	-29,434	0,117	-0,049
-136,658	92,675	-0,017	-0,014
-135,643	-200,000	0,029	0,143
-134,629	-200,000	-0,007	-0,085
-133,614	278,522	-0,038	0,049
-132,599	388,240	0,138	0,209
-131,585	-183,917	0,037	0,000
-130,570	-200,000	-0,018	0,159
-129,556	-153,250	-0,095	0,005
-128,541	800,000	0,003	0,009
-127,526	800,000	-0,043	-0,091
-126,512	445,008	-0,062	0,099
-125,497	-200,000	0,055	0,213
-124,483	-167,204	-0,160	0,005
-123,468	203,554	-0,016	-0,018
-122,453	-96,385	0,184	-0,035
-121,439	-49,707	-0,148	0,051
-120,424	-200,000	-0,004	-0,061
-119,410	-83,647	-0,127	0,029
