DTS Sentinel unit serial number:	SN410029Multiplexer serial number:	ORYXHardware model number:	OX2-SRSoftware version number:	ORYX F/W v4,00 Oryx Data Collector v3.7.2.0data status	okinstallation	B6 Nyhavnadifferential loss correction	single-endedforward channel	channel 2reverse channel	N/Adate	2023/12/11time	02:30:08forward acquisition time	300,00reverse acquisition time	0,00gamma	499,1914k internal	0,3123k external	0,3123temperature offset calibration	1,0000default loss term (dB/km)	0,3820temperature slope calibration	1,0000multiplexer offset coefficient	1,0000multiplexer slope coefficient	1,0000fibre end	0,00T internal ref (°C)	21,73T ext. ref 1 (°C)	4,63T ext. ref 2 (°C)	4,64length (m)	temperature (°C)	Stokes	anti-Stokes-744,400	93,575	0,117	-0,099
-743,385	-55,007	-0,244	0,081
-742,371	-92,799	0,081	-0,017
-741,356	-133,225	-0,294	0,027
-740,342	62,174	0,111	0,082
-739,327	-69,666	-0,241	0,068
-738,312	666,278	0,014	0,027
-737,298	-52,575	-0,283	0,097
-736,283	325,134	0,049	0,070
-735,269	-53,376	-0,246	-0,084
-734,254	-22,820	0,106	-0,047
-733,239	-104,611	-0,369	-0,063
-732,225	-200,000	0,019	-0,107
-731,210	-200,000	-0,043	0,175
-730,196	249,922	-0,038	0,048
-729,181	800,000	0,024	-0,063
-728,167	-140,525	-0,089	0,007
-727,152	783,379	0,022	0,046
-726,137	116,761	0,026	0,023
-725,123	-30,258	-0,121	-0,051
-724,108	-200,000	-0,025	-0,223
-723,094	-60,818	-0,111	-0,035
-722,079	166,684	-0,050	0,053
-721,064	150,437	-0,101	-0,103
-720,050	14,004	-0,034	-0,019
-719,035	-108,124	-0,043	-0,007
-718,021	182,126	0,042	0,046
-717,006	645,198	0,016	0,031
-715,991	-200,000	-0,014	-0,108
-714,977	-200,000	0,003	-0,186
-713,962	-200,000	-0,004	-0,016
-712,948	800,000	-0,032	0,086
-711,933	310,438	-0,081	0,114
-710,918	-101,419	0,063	-0,011
-709,904	-200,000	-0,015	-0,064
-708,889	-174,971	-0,193	-0,004
-707,875	526,936	-0,132	-0,233
-706,860	-122,457	-0,091	-0,011
-705,845	78,516	0,037	-0,029
-704,831	226,660	-0,090	0,108
-703,816	800,000	-0,006	-0,018
-702,802	800,000	-0,031	-0,072
-701,787	-200,000	0,002	-0,078
-700,772	64,230	-0,038	-0,029
-699,758	-200,000	-0,004	-0,066
-698,743	-123,415	0,064	0,008
-697,729	-200,000	-0,023	-0,094
-696,714	-200,000	-0,012	-0,042
-695,699	53,015	0,028	-0,020
-694,685	-158,730	-0,035	-0,001
-693,670	-200,000	0,013	-0,068
-692,656	-200,000	-0,004	-0,038
-691,641	-57,126	-0,078	0,026
-690,627	800,000	0,045	0,133
-689,612	-104,555	-0,087	-0,015
-688,597	-200,000	0,048	-0,217
-687,583	800,000	-0,076	-0,202
-686,568	-200,000	0,020	-0,106
-685,554	-200,000	0,055	-0,180
-684,539	175,619	-0,120	-0,129
-683,524	-90,130	-0,032	0,007
-682,510	800,000	-0,021	-0,052
-681,495	-200,000	-0,014	-0,105
-680,481	642,721	-0,073	-0,138
-679,466	321,699	-0,126	-0,179
-678,451	113,282	0,032	-0,029
-677,437	459,558	0,009	-0,016
-676,422	-200,000	-0,006	-0,082
-675,408	-200,000	-0,012	-0,067
-674,393	-60,559	-0,119	0,037
-673,378	-28,670	-0,243	-0,103
-672,364	800,000	-0,040	-0,127
-671,349	504,762	0,021	0,037
-670,335	157,556	0,091	-0,094
-669,320	94,556	0,034	-0,028
-668,305	-74,656	0,083	0,022
-667,291	320,357	-0,111	-0,156
-666,276	107,243	0,031	0,027
-665,262	-102,498	-0,097	-0,017
-664,247	-108,318	-0,036	-0,006
-663,232	-88,040	0,163	-0,036
-662,218	-107,002	0,088	-0,014
-661,203	-31,301	0,112	0,047
-660,189	-105,348	0,097	0,016
-659,174	-19,109	0,045	0,021
-658,159	-11,657	-0,135	-0,066
-657,145	566,192	-0,068	-0,123
-656,130	72,180	0,077	-0,059
-655,116	800,000	-0,025	0,074
-654,101	139,907	0,051	-0,050
-653,086	-73,967	0,090	-0,024
-652,072	21,978	-0,035	0,021
-651,057	-125,541	-0,027	-0,003
-650,043	-200,000	-0,004	0,033
-649,028	58,082	-0,098	0,071
-648,014	540,675	0,027	-0,049
-646,999	64,653	-0,104	0,078
-645,984	36,190	0,061	-0,040
-644,970	274,684	-0,021	0,027
-643,955	-46,670	-0,072	0,026
-642,941	504,748	0,063	-0,108
-641,926	318,890	0,033	0,046
-640,911	-38,162	0,135	0,053
-639,897	-77,410	0,079	0,020
-638,882	-135,131	-0,079	0,007
-637,868	181,225	-0,090	-0,099
-636,853	54,941	-0,074	0,053
-635,838	-103,642	-0,098	-0,017
-634,824	-22,400	0,019	-0,008
-633,809	81,802	-0,063	0,050
-632,795	-118,732	0,102	0,013
-631,780	-200,000	-0,014	-0,064
-630,765	-200,000	-0,003	0,032
-629,751	60,092	-0,041	0,030
-628,736	55,280	-0,023	0,016
-627,722	232,001	-0,066	-0,080
-626,707	108,958	-0,044	-0,039
-625,692	-200,000	0,021	0,072
-624,678	-200,000	0,021	0,136
-623,663	778,943	-0,021	0,044
-622,649	-200,000	0,002	0,018
-621,634	760,667	0,082	-0,166
-620,619	105,856	-0,095	-0,083
-619,605	200,157	-0,066	-0,076
-618,590	-200,000	0,040	0,133
-617,576	42,248	-0,081	0,054
-616,561	-120,236	-0,028	-0,004
-615,546	-200,000	-0,006	-0,092
-614,532	145,578	-0,028	0,028
-613,517	-58,989	-0,121	0,038
-612,503	231,188	-0,088	-0,107
-611,488	338,229	0,019	0,028
-610,474	90,982	-0,081	-0,067
-609,459	145,670	-0,068	-0,067
-608,444	161,858	0,026	-0,027
-607,430	-200,000	0,002	0,070
-606,415	-100,759	-0,149	-0,027
-605,401	800,000	-0,016	0,035
-604,386	-200,000	0,001	0,032
-603,371	-200,000	-0,020	0,098
-602,357	205,976	-0,034	0,039
-601,342	800,000	-0,035	-0,104
-600,328	-50,253	-0,044	0,015
-599,313	268,177	0,061	0,079
-598,298	-200,000	0,000	-0,123
-597,284	-49,273	0,081	-0,029
-596,269	-200,000	0,015	0,152
-595,255	663,506	0,076	0,145
-594,240	-200,000	0,017	-0,206
-593,225	800,000	0,063	-0,168
-592,211	-200,000	-0,053	-0,184
-591,196	51,032	0,157	-0,110
-590,182	-42,887	-0,105	-0,039
-589,167	-200,000	0,031	0,110
-588,152	301,659	0,147	0,202
-587,138	-200,000	-0,021	-0,071
-586,123	800,000	0,038	-0,083
-585,109	283,824	-0,048	-0,064
-584,094	800,000	0,025	-0,052
-583,079	-105,427	-0,109	0,018
-582,065	-51,643	0,063	0,022
-581,050	13,274	-0,042	-0,024
-580,036	-200,000	0,012	-0,053
-579,021	789,340	0,064	-0,130
-578,006	800,000	0,017	0,038
-576,992	-200,000	0,007	-0,166
-575,977	-200,000	0,008	0,096
-574,963	780,938	0,002	0,003
-573,948	800,000	0,028	0,088
-572,934	-200,000	-0,006	-0,137
-571,919	-200,000	-0,022	-0,098
-570,904	-72,620	-0,232	-0,063
-569,890	-200,000	-0,003	-0,116
-568,875	-200,000	0,014	0,100
-567,861	-34,719	-0,065	0,026
-566,846	8,972	0,039	-0,022
-565,831	136,136	-0,018	-0,017
-564,817	800,000	-0,017	-0,055
-563,802	-37,941	-0,043	-0,017
-562,788	279,990	0,011	0,015
-561,773	-200,000	-0,007	0,067
-560,758	81,363	0,090	0,072
-559,744	-200,000	0,019	-0,101
-558,729	-83,405	0,099	0,023
-557,715	-137,462	-0,109	-0,009
-556,700	800,000	0,045	-0,129
-555,685	-200,000	-0,001	-0,057
-554,671	25,326	-0,111	0,068
-553,656	-81,765	-0,164	0,040
-552,642	800,000	0,089	0,199
-551,627	391,012	-0,067	-0,103
-550,612	-170,290	-0,048	-0,001
-549,598	-25,032	-0,131	-0,057
-548,583	-200,000	-0,016	0,094
-547,569	-15,682	0,072	0,034
-546,554	442,251	0,058	0,094
-545,539	171,858	-0,101	0,107
-544,525	800,000	0,040	0,084
-543,510	800,000	-0,025	0,068
-542,496	-142,778	-0,077	0,005
-541,481	800,000	-0,082	-0,181
-540,466	-200,000	0,021	-0,077
-539,452	-145,168	0,089	0,006
-538,437	-4,437	0,063	0,032
-537,423	800,000	-0,106	0,231
-536,408	335,044	-0,134	0,193
-535,393	800,000	0,031	-0,075
-534,379	-148,436	0,044	-0,003
-533,364	669,344	0,024	-0,047
-532,350	338,758	0,026	-0,038
-531,335	633,696	0,025	-0,048
-530,321	277,225	-0,066	0,087
-529,306	62,767	-0,045	0,033
-528,291	762,517	0,044	0,089
-527,277	27,393	-0,032	0,020
-526,262	-200,000	-0,003	0,055
-525,248	-187,128	-0,059	-0,001
-524,233	-17,667	0,074	-0,034
-523,218	518,508	-0,045	0,077
-522,204	-112,495	0,048	-0,007
-521,189	800,000	-0,057	-0,131
-520,175	-200,000	-0,010	-0,123
-519,160	-60,975	0,080	0,025
-518,145	-15,071	-0,019	-0,009
-517,131	137,280	0,041	-0,039
-516,116	-47,687	0,111	-0,039
-515,102	385,373	-0,060	0,092
-514,087	-200,000	-0,006	-0,022
-513,072	-32,091	-0,053	0,022
-512,058	-174,704	0,102	-0,002
-511,043	66,297	0,099	0,074
-510,029	404,856	0,047	0,073
-509,014	171,709	-0,096	-0,102
-507,999	-74,819	0,097	0,025
-506,985	800,000	0,061	0,127
-505,970	420,062	-0,091	-0,145
-504,956	-200,000	-0,015	0,071
-503,941	141,922	-0,082	-0,081
-502,926	-200,000	0,008	0,097
-501,912	-200,000	0,002	0,063
-500,897	63,953	0,029	-0,022
-499,883	800,000	0,026	0,063
-498,868	800,000	-0,015	0,035
-497,853	50,896	0,033	0,023
-496,839	423,642	0,005	0,008
-495,824	-119,568	0,110	-0,014
-494,810	294,548	0,065	-0,088
-493,795	-94,515	0,131	-0,026
-492,781	259,823	0,016	0,021
-491,766	7,711	-0,083	0,046
-490,751	33,730	-0,087	0,056
-489,737	-11,239	-0,043	-0,021
-488,722	800,000	-0,019	0,060
-487,708	553,601	-0,039	0,069
-486,693	-200,000	0,025	0,125
-485,678	-200,000	0,004	0,095
-484,664	637,841	0,063	0,118
-483,649	-200,000	0,012	-0,048
-482,635	51,115	-0,027	0,019
-481,620	-200,000	-0,003	0,032
-480,605	-200,000	0,009	0,057
-479,591	800,000	0,028	0,061
-478,576	121,160	-0,094	0,086
-477,562	-200,000	0,009	-0,032
-476,547	-200,000	-0,003	0,073
-475,532	5,713	-0,063	-0,034
-474,518	134,710	0,042	0,040
-473,503	734,012	0,051	0,102
-472,489	-18,916	-0,197	0,090
-471,474	-125,402	-0,089	0,010
-470,459	-102,900	0,062	-0,011
-469,445	-200,000	0,014	0,084
-468,430	95,329	0,049	-0,041
-467,416	67,641	-0,119	-0,090
-466,401	-75,584	-0,040	0,010
-465,386	-120,841	0,139	0,017
-464,372	-68,143	0,091	0,026
-463,357	-200,000	0,008	-0,046
-462,343	-97,364	-0,031	-0,006
-461,328	-200,000	0,030	-0,122
-460,313	-200,000	0,000	-0,177
-459,299	50,532	0,081	0,056
-458,284	286,498	0,106	-0,142
-457,270	800,000	-0,014	-0,045
-456,255	-200,000	0,020	-0,111
-455,241	-52,266	-0,035	-0,012
-454,226	800,000	0,060	0,127
-453,211	248,396	0,097	0,121
-452,197	135,898	0,037	-0,035
-451,182	-200,000	-0,010	-0,112
-450,168	126,196	-0,076	0,071
-449,153	-61,248	0,104	-0,032
-448,138	113,243	0,118	-0,105
-447,124	-21,134	-0,053	-0,024
-446,109	89,600	-0,112	0,092
-445,095	-200,000	-0,008	-0,044
-444,080	-78,127	-0,105	0,026
-443,065	-200,000	0,007	-0,049
-442,051	-200,000	-0,004	-0,054
-441,036	-200,000	-0,034	-0,115
-440,022	84,413	0,073	0,059
-439,007	-200,000	0,013	-0,055
-437,992	111,872	0,042	-0,037
-436,978	112,886	0,121	0,108
-435,963	-200,000	-0,023	0,089
-434,949	-5,371	-0,093	0,047
-433,934	-90,470	0,107	-0,023
-432,919	-88,997	0,109	-0,024
-431,905	-46,027	-0,056	-0,020
-430,890	-200,000	0,020	-0,073
-429,876	800,000	-0,044	0,106
-428,861	-200,000	0,001	0,040
-427,846	331,017	-0,044	0,063
-426,832	-200,000	-0,040	0,148
-425,817	66,711	-0,094	-0,070
-424,803	-200,000	-0,005	0,070
-423,788	528,254	0,066	0,116
-422,773	45,105	0,107	0,073
-421,759	-61,312	-0,030	0,009
-420,744	-200,000	-0,037	-0,167
-419,730	800,000	0,042	-0,088
-418,715	34,675	-0,112	0,072
-417,701	35,500	0,073	0,047
-416,686	800,000	-0,008	-0,021
-415,671	-82,214	0,140	0,033
-414,657	84,528	0,088	0,071
-413,642	800,000	0,013	-0,028
-412,628	-200,000	-0,009	-0,166
-411,613	800,000	-0,052	-0,114
-410,598	251,595	0,007	-0,009
-409,584	318,654	0,053	-0,074
-408,569	800,000	0,036	-0,075
-407,555	800,000	0,031	-0,084
-406,540	-66,179	0,228	-0,066
-405,525	176,402	-0,036	0,039
-404,511	79,492	-0,049	-0,039
-403,496	-200,000	-0,006	-0,101
-402,482	-200,000	-0,000	0,009
-401,467	-200,000	-0,005	0,062
-400,452	51,138	-0,032	0,022
-399,438	621,621	-0,088	-0,163
-398,423	-200,000	-0,013	0,100
-397,409	-200,000	-0,006	0,067
-396,394	-200,000	-0,009	0,032
-395,379	-109,350	-0,060	0,009
-394,365	-200,000	-0,015	-0,052
-393,350	100,955	0,100	0,086
-392,336	80,485	-0,035	0,028
-391,321	-200,000	0,038	-0,125
-390,306	800,000	-0,027	-0,078
-389,292	800,000	0,068	-0,142
-388,277	2,677	-0,234	-0,124
-387,263	-105,912	0,164	0,027
-386,248	743,289	0,116	0,230
-385,233	-200,000	0,002	0,069
-384,219	34,934	0,054	-0,035
-383,204	-59,011	0,093	0,029
-382,190	434,440	-0,040	0,063
-381,175	800,000	0,016	-0,043
-380,160	-36,219	0,041	0,016
-379,146	54,252	0,106	0,075
-378,131	-200,000	-0,023	0,076
-377,117	-200,000	-0,024	0,100
-376,102	-134,124	0,051	0,005
-375,088	595,035	0,029	0,052
-374,073	78,744	0,048	0,037
-373,058	-59,258	0,098	0,031
-372,044	-200,000	0,002	-0,096
-371,029	-147,964	0,035	-0,002
-370,015	21,269	-0,096	-0,057
-369,000	181,852	0,071	-0,077
-367,985	314,532	-0,044	-0,061
-366,971	800,000	0,038	-0,088
-365,956	22,388	0,072	-0,043
-364,942	172,103	0,033	0,035
-363,927	-34,996	0,104	-0,041
-362,912	800,000	0,021	0,055
-361,898	-71,949	-0,022	0,006
-360,883	-200,000	0,031	-0,103
-359,869	800,000	0,039	-0,121
-358,854	158,920	0,033	-0,034
-357,839	800,000	-0,018	-0,038
-356,825	745,561	-0,044	0,087
-355,810	800,000	-0,047	0,105
-354,796	18,760	-0,062	-0,036
-353,781	-49,646	-0,128	-0,045
-352,766	393,821	-0,084	-0,129
-351,752	-200,000	-0,013	0,114
-350,737	297,096	0,062	0,083
-349,723	-200,000	0,029	0,161
-348,708	563,087	-0,026	0,046
-347,693	149,853	-0,093	-0,093
-346,679	222,517	-0,070	-0,083
-345,664	141,531	-0,143	0,139
-344,650	-200,000	0,003	0,128
-343,635	800,000	-0,041	0,105
-342,620	-200,000	-0,005	0,123
-341,606	-200,000	-0,009	0,078
-340,591	-72,046	-0,032	-0,009
-339,577	11,972	0,052	-0,029
-338,562	-200,000	0,030	-0,125
-337,548	-80,500	-0,077	0,019
-336,533	-131,589	0,106	0,010
-335,518	-142,953	0,081	-0,006
-334,504	-83,478	0,078	-0,018
-333,489	-200,000	0,044	0,169
-332,475	75,707	-0,046	-0,035
-331,460	746,697	-0,026	-0,052
-330,445	173,630	-0,048	0,051
-329,431	4,790	-0,016	0,009
-328,416	-200,000	-0,009	-0,067
-327,402	40,963	-0,043	-0,028
-326,387	-200,000	-0,008	0,030
-325,372	800,000	-0,042	-0,086
-324,358	52,201	-0,076	0,053
-323,343	-200,000	-0,007	-0,036
-322,329	-11,719	0,141	0,068
-321,314	110,685	0,098	-0,087
-320,299	271,538	-0,028	0,036
-319,285	108,784	-0,091	0,080
-318,270	-25,397	0,105	0,045
-317,256	12,259	-0,106	-0,060
-316,241	71,062	0,038	-0,029
-315,226	-200,000	-0,008	0,044
-314,212	126,042	0,135	0,125
-313,197	-140,079	-0,137	-0,010
-312,183	490,665	-0,061	-0,103
-311,168	-200,000	-0,018	-0,156
-310,153	-12,214	-0,149	-0,071
-309,139	-31,543	0,089	0,036
-308,124	538,532	0,022	0,038
-307,110	-43,276	0,084	-0,031
-306,095	339,978	0,027	0,038
-305,080	229,958	-0,054	0,065
-304,066	800,000	0,020	-0,061
-303,051	-200,000	-0,001	-0,069
-302,037	-200,000	0,004	-0,069
-301,022	800,000	0,008	-0,019
-300,008	800,000	0,055	-0,136
-298,993	-41,840	-0,079	0,030
-297,978	800,000	0,039	0,116
-296,964	800,000	-0,059	0,129
-295,949	-28,363	-0,129	-0,054
-294,935	-200,000	0,035	-0,186
-293,920	59,207	0,104	-0,075
-292,905	-57,734	-0,095	-0,030
-291,891	352,768	-0,029	-0,042
-290,876	-76,113	0,078	-0,020
-289,862	236,678	-0,122	-0,149
-288,847	800,000	0,018	0,041
-287,832	434,762	-0,065	-0,103
-286,818	32,879	0,060	-0,038
-285,803	-200,000	-0,003	-0,062
-284,789	-40,572	0,169	0,064
-283,774	30,382	-0,071	0,044
-282,759	800,000	0,055	-0,114
-281,745	-200,000	-0,029	-0,122
-280,730	800,000	-0,036	-0,083
-279,716	-200,000	0,001	-0,063
-278,701	147,129	-0,070	0,069
-277,686	-120,962	0,081	0,010
-276,672	770,928	-0,014	-0,027
-275,657	-84,389	-0,104	-0,024
-274,643	232,437	-0,043	-0,052
-273,628	-200,000	0,013	0,111
-272,613	800,000	0,045	-0,107
-271,599	800,000	0,008	-0,019
-270,584	-6,462	-0,022	-0,011
-269,570	150,534	0,150	0,150
-268,555	800,000	-0,066	0,133
-267,540	189,052	-0,060	-0,066
-266,526	-82,457	-0,082	-0,019
-265,511	-119,397	0,150	0,019
-264,497	23,392	-0,034	0,020
-263,482	800,000	0,027	0,085
-262,467	-200,000	-0,033	0,130
-261,453	557,332	0,058	0,102
-260,438	1,196	-0,046	0,024
-259,424	218,511	-0,071	0,083
-258,409	-113,878	-0,143	0,020
-257,395	-200,000	-0,012	-0,053
-256,380	-102,795	-0,133	-0,023
-255,365	-14,645	-0,022	-0,011
-254,351	635,721	-0,035	0,064
-253,336	-200,000	0,007	0,059
-252,322	512,711	0,054	-0,092
-251,307	-200,000	-0,000	-0,036
-250,292	13,436	0,152	-0,086
-249,278	101,248	0,050	0,043
-248,263	-200,000	-0,001	0,021
-247,249	-59,053	0,099	0,031
-246,234	800,000	-0,015	-0,041
-245,219	307,018	-0,015	-0,020
-244,205	76,071	-0,175	-0,135
-243,190	105,069	-0,048	0,042
-242,176	-200,000	-0,030	0,099
-241,161	284,700	-0,047	0,062
-240,146	-200,000	-0,008	0,142
-239,132	-200,000	-0,004	-0,057
-238,117	800,000	-0,015	0,045
-237,103	118,200	-0,060	0,054
-236,088	548,592	0,015	-0,026
-235,073	-85,530	0,096	-0,022
-234,059	136,553	0,084	-0,080
-233,044	-45,471	0,056	0,020
-232,030	250,336	-0,013	-0,016
-231,015	6,849	0,042	0,023
-230,000	66,986	0,074	-0,055
-228,986	-200,000	0,019	0,159
-227,971	-23,430	0,128	0,056
-226,957	-200,000	0,002	0,083
-225,942	800,000	-0,018	-0,057
-224,927	-132,324	-0,128	0,012
-223,913	231,034	0,074	-0,088
-222,898	-19,106	-0,070	-0,032
-221,884	-60,385	-0,088	-0,027
-220,869	99,485	0,068	0,058
-219,855	800,000	0,033	0,091
-218,840	-139,658	0,071	-0,005
-217,825	800,000	-0,048	0,118
-216,811	5,271	-0,080	-0,043
-215,796	61,302	-0,124	-0,090
-214,782	379,633	0,063	-0,095
-213,767	495,516	0,057	-0,097
-212,752	166,631	-0,046	-0,047
-211,738	800,000	0,022	0,066
-210,723	-25,156	-0,078	0,034
-209,709	-200,000	-0,039	0,158
-208,694	-200,000	-0,029	-0,249
-207,679	65,415	0,037	-0,027
-206,665	61,127	0,054	-0,039
-205,650	436,628	0,067	0,107
-204,636	-170,551	0,189	-0,005
-203,621	-86,703	0,100	-0,022
-202,606	800,000	-0,033	0,085
-201,592	728,573	-0,044	0,087
-200,577	-200,000	0,019	-0,112
-199,563	-200,000	-0,002	-0,054
-198,548	252,873	-0,017	-0,021
-197,533	800,000	0,062	0,134
-196,519	448,651	-0,064	0,103
-195,504	283,275	-0,056	-0,074
-194,490	69,001	-0,149	-0,111
-193,475	131,279	-0,089	-0,084
-192,460	-200,000	-0,024	-0,114
-191,446	-200,000	0,022	0,136
-190,431	193,398	0,056	-0,062
-189,417	-119,468	-0,023	-0,003
-188,402	-69,717	-0,018	-0,005
-187,387	-200,000	-0,001	-0,042
-186,373	729,594	-0,084	-0,164
-185,358	18,306	-0,106	0,062
-184,344	-67,587	0,106	0,030
-183,329	220,661	0,052	0,062
-182,315	71,480	0,171	0,129
-181,300	-167,372	-0,100	0,003
-180,285	-200,000	-0,016	0,161
-179,271	468,691	0,063	0,103
-178,256	318,129	-0,029	0,041
-177,242	570,239	0,055	0,098
-176,227	10,469	-0,103	-0,057
-175,212	40,652	0,091	-0,060
-174,198	-72,731	0,095	-0,025
-173,183	96,035	0,051	0,042
-172,169	487,791	0,063	-0,105
-171,154	800,000	-0,013	0,040
-170,139	173,471	0,022	0,023
-169,125	-200,000	0,004	-0,119
-168,110	-200,000	-0,025	0,082
-167,096	-200,000	0,046	-0,165
-166,081	620,339	-0,029	-0,053
-165,066	359,972	0,039	0,057
-164,052	-200,000	-0,017	-0,135
-163,037	-122,552	0,022	-0,003
-162,023	254,149	-0,038	0,048
-161,008	633,568	0,048	0,089
-159,993	493,575	0,024	-0,041
-158,979	-83,546	0,086	-0,020
-157,964	590,580	0,016	-0,028
-156,950	-15,479	-0,092	-0,043
-155,935	-51,173	0,055	-0,019
-154,920	-150,638	0,123	-0,007
-153,906	-200,000	0,009	0,109
-152,891	-125,240	-0,016	-0,002
-151,877	-200,000	0,035	-0,140
-150,862	800,000	-0,027	-0,079
-149,847	-43,108	0,108	0,040
-148,833	-200,000	-0,012	0,088
-147,818	800,000	0,037	0,079
-146,804	79,452	0,038	0,030
-145,789	800,000	0,016	-0,035
-144,775	639,421	0,047	-0,088
-143,760	-200,000	-0,021	-0,105
-142,745	-200,000	0,006	-0,170
-141,731	500,001	0,049	0,082
-140,716	67,998	0,031	-0,023
-139,702	789,280	-0,015	-0,029
-138,687	-97,582	-0,106	-0,020
-137,672	280,604	0,043	0,057
-136,658	2,074	0,082	-0,043
-135,643	17,852	0,107	-0,062
-134,629	-14,713	-0,177	-0,083
-133,614	69,869	0,216	-0,162
-132,599	478,998	-0,073	-0,122
-131,585	-200,000	0,002	-0,014
-130,570	-19,156	0,030	-0,013
-129,556	69,758	-0,138	-0,104
-128,541	-200,000	-0,007	-0,055
-127,526	800,000	-0,061	0,143
-126,512	-200,000	-0,011	-0,061
-125,497	800,000	0,065	-0,138
-124,483	-200,000	0,011	0,119
-123,468	375,602	-0,024	0,035
-122,453	225,091	0,019	-0,023
-121,439	84,547	-0,048	0,038
-120,424	139,007	0,002	-0,002
