DTS Sentinel unit serial number:	SN410029Multiplexer serial number:	ORYXHardware model number:	OX2-SRSoftware version number:	ORYX F/W v4,00 Oryx Data Collector v3.7.2.0data status	okinstallation	B6 Nyhavnadifferential loss correction	single-endedforward channel	channel 2reverse channel	N/Adate	2023/12/08time	01:55:08forward acquisition time	300,00reverse acquisition time	0,00gamma	499,1914k internal	0,3165k external	0,3165temperature offset calibration	1,0000default loss term (dB/km)	0,3820temperature slope calibration	1,0000multiplexer offset coefficient	1,0000multiplexer slope coefficient	1,0000fibre end	0,00T internal ref (°C)	13,20T ext. ref 1 (°C)	-3,67T ext. ref 2 (°C)	-3,66length (m)	temperature (°C)	Stokes	anti-Stokes-744,400	-63,772	0,164	0,049
-743,385	-92,025	-0,317	-0,065
-742,371	172,044	0,128	-0,136
-741,356	-109,637	-0,305	0,047
-740,342	800,000	0,040	0,083
-739,327	-124,936	-0,246	-0,028
-738,312	28,158	0,134	0,083
-737,298	-73,762	-0,249	0,066
-736,283	172,010	0,150	0,158
-735,269	-110,428	-0,312	-0,047
-734,254	-32,837	0,098	0,040
-733,239	-19,503	-0,455	-0,207
-732,225	-37,240	0,132	0,051
-731,210	134,553	0,056	0,053
-730,196	-101,633	-0,038	0,007
-729,181	-19,928	-0,109	-0,049
-728,167	-200,000	0,009	0,113
-727,152	-53,848	-0,170	-0,057
-726,137	-152,476	-0,080	-0,004
-725,123	6,232	-0,019	-0,010
-724,108	-200,000	-0,008	-0,026
-723,094	176,725	0,019	0,021
-722,079	729,230	-0,045	-0,089
-721,064	139,270	0,031	0,030
-720,050	333,761	-0,031	-0,045
-719,035	800,000	0,054	-0,126
-718,021	193,491	-0,132	0,147
-717,006	156,188	-0,056	-0,057
-715,991	191,264	0,059	-0,065
-714,977	3,352	-0,173	0,092
-713,962	239,785	0,043	-0,053
-712,948	-34,823	-0,107	-0,043
-711,933	198,939	0,046	0,051
-710,918	386,444	-0,020	0,030
-709,904	-200,000	-0,004	-0,181
-708,889	325,453	-0,035	-0,049
-707,875	290,538	0,126	-0,169
-706,860	288,319	0,103	-0,137
-705,845	14,556	-0,118	0,067
-704,831	-55,840	0,053	0,017
-703,816	-200,000	-0,004	-0,057
-702,802	723,002	-0,031	-0,061
-701,787	47,161	-0,062	-0,042
-700,772	-200,000	0,018	-0,080
-699,758	11,168	-0,133	-0,074
-698,743	-51,643	-0,066	0,022
-697,729	355,910	0,047	-0,069
-696,714	104,936	0,025	-0,022
-695,699	-76,939	-0,080	-0,020
-694,685	193,753	-0,096	-0,107
-693,670	-200,000	-0,002	-0,044
-692,656	-200,000	0,022	-0,106
-691,641	-200,000	-0,003	0,124
-690,627	-200,000	-0,002	-0,023
-689,612	800,000	-0,053	0,123
-688,597	-200,000	0,005	0,101
-687,583	-54,173	0,058	-0,019
-686,568	-94,095	0,121	-0,024
-685,554	150,006	-0,067	0,067
-684,539	126,262	-0,154	-0,143
-683,524	2,867	-0,047	-0,025
-682,510	-200,000	-0,020	-0,224
-681,495	-52,587	0,114	0,038
-680,481	84,925	0,022	0,018
-679,466	800,000	-0,014	-0,032
-678,451	-200,000	0,027	-0,094
-677,437	800,000	0,034	-0,077
-676,422	-25,031	0,018	-0,008
-675,408	-34,823	0,018	-0,007
-674,393	-21,267	-0,184	0,082
-673,378	68,933	-0,102	-0,077
-672,364	417,988	-0,063	0,099
-671,349	111,224	-0,065	-0,057
-670,335	20,776	-0,045	0,027
-669,320	239,128	0,068	-0,083
-668,305	800,000	0,010	-0,020
-667,291	-200,000	0,016	0,123
-666,276	79,540	0,067	-0,053
-665,262	377,502	-0,029	-0,044
-664,247	-200,000	-0,001	0,034
-663,232	221,421	-0,054	0,064
-662,218	-152,200	0,114	0,006
-661,203	800,000	0,011	0,026
-660,189	-43,655	0,170	0,062
-659,174	72,287	-0,145	-0,111
-658,159	800,000	0,040	-0,084
-657,145	-200,000	-0,002	-0,070
-656,130	-132,198	0,139	-0,013
-655,116	-49,200	0,202	0,070
-654,101	-172,291	0,141	0,003
-653,086	229,486	-0,095	-0,114
-652,072	660,900	0,051	-0,097
-651,057	334,039	-0,069	0,099
-650,043	-115,630	0,105	0,014
-649,028	109,598	0,071	-0,063
-648,014	341,779	-0,032	0,046
-646,999	18,584	0,089	0,052
-645,984	-36,576	0,104	-0,041
-644,970	86,553	-0,064	0,052
-643,955	327,470	-0,045	-0,063
-642,941	-200,000	0,005	-0,157
-641,926	800,000	0,010	0,025
-640,911	-200,000	0,024	0,125
-639,897	37,742	-0,135	0,088
-638,882	-50,220	-0,052	-0,018
-637,868	800,000	-0,018	-0,047
-636,853	-200,000	-0,037	-0,132
-635,838	216,600	-0,042	0,049
-634,824	800,000	0,030	0,093
-633,809	-133,782	-0,029	0,003
-632,795	-92,021	0,024	-0,005
-631,780	31,891	-0,023	-0,015
-630,765	-200,000	0,014	0,088
-629,751	319,963	-0,065	0,090
-628,736	-200,000	0,012	0,068
-627,722	-60,689	-0,070	-0,022
-626,707	-200,000	-0,008	0,039
-625,692	374,233	0,047	-0,071
-624,678	800,000	0,040	-0,104
-623,663	30,496	-0,044	-0,028
-622,649	190,349	-0,130	0,143
-621,634	353,809	-0,099	-0,144
-620,619	142,634	0,059	-0,057
-619,605	145,630	0,141	-0,139
-618,590	-75,084	-0,091	-0,024
-617,576	800,000	0,049	-0,122
-616,561	-69,314	-0,092	-0,026
-615,546	517,006	-0,041	-0,070
-614,532	384,072	0,032	0,048
-613,517	-2,114	-0,138	-0,071
-612,503	-200,000	-0,051	0,165
-611,488	800,000	0,035	-0,075
-610,474	247,620	0,101	0,125
-609,459	800,000	0,024	-0,074
-608,444	-7,522	-0,050	-0,025
-607,430	-144,824	0,082	-0,005
-606,415	-121,047	-0,108	0,013
-605,401	-200,000	0,016	0,086
-604,386	86,962	0,100	0,081
-603,371	800,000	0,043	0,104
-602,357	800,000	-0,023	-0,066
-601,342	358,058	-0,085	-0,125
-600,328	134,419	0,039	-0,037
-599,313	-3,069	0,108	0,055
-598,298	-200,000	-0,003	-0,026
-597,284	-80,264	0,089	0,022
-596,269	-200,000	-0,001	-0,180
-595,255	-200,000	0,009	-0,060
-594,240	105,920	0,065	-0,057
-593,225	-65,044	-0,050	-0,015
-592,211	307,649	-0,010	0,014
-591,196	-200,000	-0,012	-0,100
-590,182	382,667	0,044	-0,067
-589,167	-140,118	-0,070	0,005
-588,152	-21,060	-0,081	0,036
-587,138	800,000	-0,030	-0,076
-586,123	-200,000	-0,010	-0,056
-585,109	-69,215	-0,025	-0,007
-584,094	-118,728	-0,037	-0,005
-583,079	98,671	0,154	0,130
-582,065	-200,000	0,007	0,079
-581,050	341,745	-0,011	0,016
-580,036	-112,324	0,031	-0,004
-579,021	-6,434	-0,108	0,054
-578,006	115,324	-0,046	-0,041
-576,992	-126,713	-0,087	-0,009
-575,977	534,877	-0,056	-0,097
-574,963	800,000	0,020	0,049
-573,948	98,300	-0,136	0,114
-572,934	-200,000	0,000	0,023
-571,919	-144,322	-0,086	0,006
-570,904	342,211	-0,105	-0,151
-569,890	686,474	-0,077	-0,147
-568,875	165,873	-0,038	0,040
-567,861	-22,187	-0,160	-0,071
-566,846	89,060	0,093	-0,075
-565,831	-54,686	-0,119	-0,039
-564,817	541,118	0,062	0,108
-563,802	-200,000	0,023	0,086
-562,788	37,552	0,069	0,045
-561,773	214,211	-0,026	-0,030
-560,758	269,924	0,152	0,196
-559,744	-200,000	-0,018	0,109
-558,729	-27,018	-0,084	-0,036
-557,715	-200,000	0,009	0,036
-556,700	187,314	-0,113	-0,123
-555,685	125,092	-0,037	-0,034
-554,671	800,000	0,066	-0,148
-553,656	185,987	-0,064	0,070
-552,642	-56,576	0,082	0,026
-551,627	800,000	-0,044	-0,132
-550,612	800,000	-0,044	-0,093
-549,598	612,839	0,053	0,098
-548,583	800,000	0,026	-0,069
-547,569	-200,000	-0,014	0,082
-546,554	-82,934	0,127	-0,030
-545,539	-76,166	0,087	0,022
-544,525	-200,000	0,011	0,045
-543,510	-200,000	0,032	-0,131
-542,496	103,923	-0,127	0,109
-541,481	465,166	-0,053	-0,087
-540,466	241,529	-0,062	-0,075
-539,452	-200,000	0,127	0,000
-538,437	768,722	0,023	0,045
-537,423	-200,000	0,033	0,166
-536,408	25,701	-0,085	-0,051
-535,393	213,213	0,061	0,071
-534,379	124,064	-0,065	0,059
-533,364	-8,565	0,010	-0,005
-532,350	9,955	-0,030	0,017
-531,335	86,173	0,029	-0,024
-530,321	5,367	0,187	-0,100
-529,306	95,686	-0,068	-0,057
-528,291	120,358	0,067	0,061
-527,277	-48,586	-0,171	-0,060
-526,262	657,355	-0,058	0,109
-525,248	-200,000	0,013	0,131
-524,233	45,303	0,072	0,048
-523,218	800,000	-0,023	0,057
-522,204	310,964	-0,026	-0,036
-521,189	496,731	-0,140	-0,236
-520,175	-84,563	-0,087	0,020
-519,160	-200,000	-0,017	0,073
-518,145	274,451	0,093	0,121
-517,131	-72,923	0,197	0,052
-516,116	-200,000	0,001	0,005
-515,102	24,298	0,104	-0,063
-514,087	800,000	-0,056	-0,115
-513,072	6,350	-0,071	-0,038
-512,058	-86,597	0,112	0,025
-511,043	-21,429	0,127	0,056
-510,029	800,000	0,022	0,059
-509,014	26,352	-0,014	0,008
-507,999	-200,000	-0,012	-0,115
-506,985	14,451	-0,142	-0,081
-505,970	800,000	0,046	-0,141
-504,956	-200,000	0,002	-0,117
-503,941	250,475	-0,063	-0,078
-502,926	42,904	0,120	-0,080
-501,912	800,000	0,051	0,104
-500,897	800,000	-0,018	-0,047
-499,883	-200,000	0,039	-0,172
-498,868	-31,691	-0,077	-0,031
-497,853	-200,000	0,008	-0,065
-496,839	414,668	-0,028	-0,044
-495,824	538,185	-0,032	0,056
-494,810	319,058	0,025	-0,035
-493,795	358,095	-0,035	-0,051
-492,781	-5,140	0,111	-0,055
-491,766	66,358	-0,039	-0,029
-490,751	-200,000	0,001	-0,064
-489,737	-200,000	-0,010	0,063
-488,722	312,898	0,129	0,177
-487,708	-29,728	-0,109	0,045
-486,693	-127,451	-0,064	0,007
-485,678	800,000	0,044	0,106
-484,664	800,000	-0,013	-0,032
-483,649	800,000	0,054	-0,137
-482,635	-200,000	-0,179	-0,001
-481,620	-60,795	0,236	0,072
-480,605	174,391	-0,055	0,058
-479,591	-200,000	0,033	0,149
-478,576	172,732	-0,126	0,132
-477,562	800,000	0,007	-0,016
-476,547	800,000	0,059	-0,126
-475,532	800,000	-0,047	-0,109
-474,518	26,147	-0,051	0,031
-473,503	276,813	0,054	0,070
-472,489	800,000	-0,026	0,066
-471,474	-200,000	-0,007	-0,097
-470,459	11,038	0,063	0,035
-469,445	146,153	0,078	0,076
-468,430	800,000	0,005	0,014
-467,416	274,434	0,071	-0,092
-466,401	-200,000	0,020	0,081
-465,386	-200,000	0,025	0,106
-464,372	-0,268	-0,058	-0,030
-463,357	-200,000	-0,015	0,059
-462,343	-52,714	-0,215	-0,072
-461,328	612,228	0,021	0,038
-460,313	-81,904	0,051	-0,012
-459,299	667,386	-0,054	0,102
-458,284	-200,000	-0,015	0,054
-457,270	-200,000	-0,017	-0,166
-456,255	-200,000	0,002	0,040
-455,241	102,365	-0,069	-0,058
-454,226	-200,000	-0,021	-0,068
-453,211	71,922	-0,086	-0,065
-452,197	600,990	0,062	0,112
-451,182	800,000	0,059	0,139
-450,168	-94,951	-0,034	-0,007
-449,153	-98,568	0,108	0,020
-448,138	38,471	-0,091	-0,059
-447,124	-164,926	-0,078	0,002
-446,109	-125,957	0,071	0,008
-445,095	161,255	0,059	0,060
-444,080	131,568	-0,023	-0,021
-443,065	-135,522	0,043	-0,004
-442,051	-98,629	0,021	0,004
-441,036	-200,000	-0,021	-0,121
-440,022	-46,176	-0,080	-0,029
-439,007	610,845	0,063	-0,116
-437,992	7,067	0,108	0,058
-436,978	18,015	-0,062	0,036
-435,963	-200,000	-0,010	0,078
-434,949	-91,125	-0,112	0,023
-433,934	-81,764	0,138	0,033
-432,919	132,347	-0,117	-0,110
-431,905	187,098	0,085	-0,092
-430,890	340,162	-0,021	-0,030
-429,876	206,483	0,061	-0,069
-428,861	-200,000	-0,080	-0,000
-427,846	100,859	0,092	0,078
-426,832	-89,370	-0,148	0,031
-425,817	565,192	0,044	-0,078
-424,803	278,228	-0,031	0,040
-423,788	692,995	0,117	0,223
-422,773	539,350	-0,034	0,059
-421,759	-198,836	0,044	0,000
-420,744	-200,000	-0,008	0,056
-419,730	112,161	-0,075	-0,066
-418,715	-200,000	0,002	-0,022
-417,701	234,262	0,077	0,092
-416,686	702,750	-0,035	0,068
-415,671	-84,794	0,159	-0,036
-414,657	-83,737	-0,130	0,030
-413,642	132,118	-0,081	-0,076
-412,628	612,205	0,057	-0,104
-411,613	-141,965	-0,105	-0,007
-410,598	253,224	0,015	0,019
-409,584	779,713	0,063	-0,127
-408,569	-200,000	-0,019	0,123
-407,555	241,652	-0,008	0,010
-406,540	6,881	-0,152	-0,082
-405,525	-121,297	0,189	-0,023
-404,511	174,627	0,031	-0,033
-403,496	-200,000	0,020	-0,100
-402,482	-173,416	0,100	0,002
-401,467	-200,000	0,010	-0,064
-400,452	51,850	0,081	0,056
-399,438	-200,000	-0,011	0,049
-398,423	9,223	-0,090	-0,049
-397,409	-128,526	-0,175	-0,018
-396,394	306,240	-0,055	0,075
-395,379	193,629	-0,018	-0,020
-394,365	-24,938	0,127	0,055
-393,350	-114,944	-0,106	-0,014
-392,336	217,173	0,087	0,101
-391,321	-37,277	-0,047	-0,018
-390,306	-129,298	0,079	-0,008
-389,292	465,875	-0,068	-0,111
-388,277	-200,000	0,008	-0,031
-387,263	-200,000	-0,002	0,056
-386,248	-111,354	-0,013	-0,002
-385,233	528,113	0,033	-0,057
-384,219	-5,905	-0,024	-0,012
-383,204	68,749	0,049	-0,037
-382,190	-142,968	-0,045	0,003
-381,175	-60,428	-0,082	0,025
-380,160	800,000	0,017	-0,035
-379,146	800,000	0,029	0,070
-378,131	253,786	0,095	0,118
-377,117	-200,000	0,010	0,103
-376,102	800,000	0,029	-0,062
-375,088	-200,000	-0,005	0,027
-374,073	67,232	0,057	-0,042
-373,058	-200,000	-0,005	0,041
-372,044	62,002	0,074	0,053
-371,029	800,000	0,019	0,048
-370,015	576,072	0,058	0,103
-369,000	11,602	0,093	0,052
-367,985	-200,000	0,008	-0,046
-366,971	-130,209	-0,074	-0,007
-365,956	-200,000	0,018	-0,060
-364,942	-200,000	0,009	0,096
-363,927	11,619	0,010	0,006
-362,912	456,003	0,084	0,136
-361,898	124,540	-0,036	0,033
-360,883	-76,074	-0,109	-0,028
-359,869	-200,000	-0,025	-0,131
-358,854	-200,000	0,024	0,115
-357,839	-200,000	0,017	0,071
-356,825	40,645	-0,033	-0,022
-355,810	800,000	0,015	0,037
-354,796	219,093	-0,056	-0,064
-353,781	108,423	-0,120	0,104
-352,766	5,354	-0,030	0,016
-351,752	120,053	-0,113	0,101
-350,737	-141,667	0,126	0,009
-349,723	-40,613	0,107	-0,040
-348,708	800,000	-0,034	-0,078
-347,693	-18,992	-0,033	0,015
-346,679	250,662	-0,017	0,021
-345,664	-22,539	-0,085	0,037
-344,650	800,000	0,028	-0,063
-343,635	-200,000	0,048	0,186
-342,620	800,000	-0,020	0,054
-341,606	-37,643	0,115	0,044
-340,591	-200,000	0,025	-0,101
-339,577	-200,000	0,005	-0,068
-338,562	424,330	-0,023	-0,036
-337,548	-200,000	-0,016	0,089
-336,533	254,874	-0,028	-0,035
-335,518	-46,951	-0,078	0,028
-334,504	601,238	0,014	-0,025
-333,489	800,000	0,023	-0,072
-332,475	129,907	-0,075	0,070
-331,460	-19,300	0,060	-0,027
-330,445	126,333	0,064	-0,058
-329,431	-8,070	0,115	0,056
-328,416	-200,000	0,011	-0,040
-327,402	142,957	0,074	-0,071
-326,387	324,786	0,088	0,122
-325,372	-78,566	-0,058	-0,014
-324,358	534,151	0,055	-0,095
-323,343	-132,384	-0,085	-0,008
-322,329	800,000	0,062	0,140
-321,314	-109,316	0,090	-0,014
-320,299	800,000	-0,023	0,051
-319,285	-120,599	0,088	0,011
-318,270	3,538	-0,135	-0,071
-317,256	119,201	-0,057	0,051
-316,241	800,000	0,061	0,153
-315,226	800,000	-0,016	0,032
-314,212	-81,110	-0,070	0,017
-313,197	24,699	0,099	0,059
-312,183	-200,000	0,006	0,062
-311,168	-47,121	0,150	-0,052
-310,153	800,000	0,040	0,125
-309,139	103,238	-0,053	0,045
-308,124	-200,000	-0,002	-0,062
-307,110	800,000	0,048	0,109
-306,095	-42,667	0,066	-0,024
-305,080	-90,422	-0,099	-0,021
-304,066	171,519	-0,012	-0,013
-303,051	-200,000	-0,017	0,090
-302,037	180,735	0,063	0,067
-301,022	58,685	-0,106	0,075
-300,008	-47,872	0,075	0,026
-298,993	757,745	0,038	-0,075
-297,978	-16,277	-0,096	-0,044
-296,964	134,534	0,074	0,070
-295,949	51,998	-0,102	-0,070
-294,935	-175,529	-0,152	-0,003
-293,920	-200,000	-0,008	-0,032
-292,905	21,136	0,043	0,025
-291,891	-38,538	0,117	-0,045
-290,876	1,945	-0,115	0,060
-289,862	3,243	-0,147	-0,077
-288,847	-200,000	-0,002	-0,032
-287,832	181,105	0,148	0,157
-286,818	385,097	0,060	-0,090
-285,803	-200,000	0,015	-0,065
-284,789	-200,000	-0,006	-0,038
-283,774	-97,225	0,118	-0,022
-282,759	-134,700	0,061	-0,005
-281,745	800,000	-0,029	-0,068
-280,730	58,238	-0,085	0,060
-279,716	-58,247	-0,120	0,038
-278,701	-70,083	0,109	-0,030
-277,686	113,197	0,028	0,025
-276,672	403,564	0,011	-0,016
-275,657	-200,000	0,008	0,089
-274,643	-200,000	0,012	-0,091
-273,628	25,194	0,030	0,018
-272,613	800,000	0,040	-0,088
-271,599	168,236	0,024	-0,024
-270,584	58,753	0,089	0,063
-269,570	-200,000	-0,017	0,063
-268,555	162,706	-0,064	-0,065
-267,540	-25,642	0,086	0,037
-266,526	-36,311	-0,090	-0,035
-265,511	-200,000	0,033	-0,121
-264,497	800,000	0,022	-0,056
-263,482	312,933	0,027	-0,037
-262,467	-172,339	0,062	0,001
-261,453	800,000	0,008	0,024
-260,438	-9,571	0,041	0,020
-259,424	6,654	-0,082	-0,044
-258,409	-107,204	-0,086	0,013
-257,395	-200,000	-0,003	-0,012
-256,380	-173,384	-0,035	0,001
-255,365	-73,357	0,039	0,010
-254,351	-77,976	-0,081	-0,020
-253,336	26,562	0,033	0,020
-252,322	-94,263	-0,143	0,028
-251,307	-200,000	-0,022	-0,104
-250,292	482,353	-0,055	0,090
-249,278	-120,114	0,118	-0,014
-248,263	800,000	-0,054	0,146
-247,249	583,813	-0,047	0,083
-246,234	-24,894	-0,070	0,030
-245,219	124,547	0,038	-0,035
-244,205	-27,776	0,128	0,053
-243,190	-92,343	-0,044	0,009
-242,176	39,614	0,022	0,014
-241,161	389,909	0,024	0,035
-240,146	-145,940	-0,029	0,002
-239,132	97,794	-0,092	0,076
-238,117	-200,000	0,005	-0,042
-237,103	30,364	0,025	-0,015
-236,088	198,673	0,043	-0,047
-235,073	-3,306	-0,089	0,044
-234,059	-200,000	0,020	-0,097
-233,044	-74,892	0,037	0,010
-232,030	-200,000	-0,022	0,072
-231,015	133,450	-0,139	-0,130
-230,000	52,098	-0,075	0,052
-228,986	37,309	0,122	0,078
-227,971	41,150	-0,116	-0,076
-226,957	-200,000	0,002	0,020
-225,942	730,043	0,040	-0,077
-224,927	-200,000	0,008	0,109
-223,913	94,153	0,068	-0,056
-222,898	-200,000	-0,006	-0,058
-221,884	-200,000	0,036	-0,129
-220,869	112,234	0,058	0,051
-219,855	-162,954	0,139	-0,005
-218,840	-200,000	0,021	-0,119
-217,825	641,182	-0,016	0,030
-216,811	111,079	-0,052	-0,045
-215,796	570,976	0,076	0,133
-214,782	129,563	-0,116	-0,107
-213,767	-26,532	-0,166	-0,070
-212,752	112,908	-0,129	0,112
-211,738	-200,000	-0,016	0,057
-210,723	54,470	0,086	0,060
-209,709	-200,000	0,009	0,029
-208,694	39,983	0,049	0,032
-207,679	-124,796	-0,100	-0,011
-206,665	785,237	-0,031	0,061
-205,650	521,795	0,091	0,154
-204,636	48,723	0,165	0,112
-203,621	115,728	0,054	-0,047
-202,606	-200,000	0,004	-0,014
-201,592	78,843	-0,024	-0,018
-200,577	-200,000	-0,001	-0,054
-199,563	800,000	-0,031	-0,076
-198,548	-66,849	0,070	-0,020
-197,533	-200,000	0,148	0,000
-196,519	-200,000	0,007	0,167
-195,504	-77,659	0,049	0,012
-194,490	-200,000	0,005	-0,112
-193,475	800,000	-0,066	-0,157
-192,460	800,000	0,044	-0,124
-191,446	-78,222	0,119	0,029
-190,431	-39,024	0,172	0,065
-189,417	792,445	0,030	0,060
-188,402	-87,199	-0,192	0,042
-187,387	-200,000	0,038	0,121
-186,373	-200,000	0,051	-0,167
-185,358	-200,000	-0,002	0,021
-184,344	702,945	-0,043	0,081
-183,329	-9,860	0,050	-0,024
-182,315	800,000	-0,010	-0,023
-181,300	-200,000	-0,039	0,131
-180,285	-86,974	-0,075	-0,016
-179,271	59,587	-0,087	-0,062
-178,256	468,170	-0,029	0,047
-177,242	5,184	-0,150	-0,079
-176,227	-11,361	0,127	0,060
-175,212	263,292	-0,014	-0,018
-174,198	-159,113	-0,023	0,001
-173,183	411,998	0,036	-0,055
-172,169	-200,000	0,027	-0,174
-171,154	569,177	-0,037	-0,065
-170,139	-144,331	0,120	-0,008
-169,125	273,832	0,098	0,124
-168,110	-7,322	-0,031	-0,015
-167,096	-200,000	0,032	-0,104
-166,081	800,000	-0,080	-0,160
-165,066	632,868	-0,036	0,067
-164,052	-123,458	-0,073	0,008
-163,037	-71,406	-0,040	-0,011
-162,023	0,158	0,049	0,025
-161,008	-200,000	-0,007	0,092
-159,993	42,451	0,042	0,028
-158,979	51,645	-0,084	0,058
-157,964	800,000	0,046	-0,130
-156,950	-200,000	0,014	-0,048
-155,935	444,924	-0,022	-0,036
-154,920	159,676	-0,094	-0,094
-153,906	187,388	0,084	0,091
-152,891	-40,008	0,084	-0,031
-151,877	424,219	0,095	0,147
-150,862	-200,000	-0,012	-0,077
-149,847	-85,385	-0,136	-0,030
-148,833	95,612	0,069	-0,057
-147,818	800,000	0,038	0,119
-146,804	800,000	0,035	-0,086
-145,789	-200,000	0,017	0,090
-144,775	90,681	-0,038	0,031
-143,760	-69,752	-0,061	0,017
-142,745	143,034	-0,058	-0,055
-141,731	276,459	0,025	-0,031
-140,716	312,919	-0,011	-0,014
-139,702	-138,315	0,090	-0,007
-138,687	135,448	-0,033	0,031
-137,672	800,000	-0,060	0,127
-136,658	97,629	-0,096	0,079
-135,643	-200,000	0,048	-0,185
-134,629	423,644	0,033	-0,051
-133,614	-200,000	0,011	0,083
-132,599	-19,585	0,051	-0,023
-131,585	510,876	0,020	-0,034
-130,570	470,940	0,028	-0,045
-129,556	-200,000	-0,002	0,047
-128,541	311,315	-0,048	-0,065
-127,526	377,111	0,047	0,070
-126,512	371,038	0,013	0,019
-125,497	-200,000	-0,011	0,050
-124,483	456,712	-0,041	-0,066
-123,468	-200,000	-0,053	0,186
-122,453	-200,000	-0,010	0,054
-121,439	189,493	-0,081	-0,088
-120,424	800,000	0,059	-0,162
-119,410	16,905	-0,031	-0,018
-118,395	-200,000	-0,004	0,067
