DTS Sentinel unit serial number:	SN410029Multiplexer serial number:	ORYXHardware model number:	OX2-SRSoftware version number:	ORYX F/W v4,00 Oryx Data Collector v3.7.2.0data status	okinstallation	B6 Nyhavnadifferential loss correction	single-endedforward channel	channel 2reverse channel	N/Adate	2023/12/10time	01:00:08forward acquisition time	300,00reverse acquisition time	0,00gamma	499,1914k internal	0,3126k external	0,3126temperature offset calibration	1,0000default loss term (dB/km)	0,3820temperature slope calibration	1,0000multiplexer offset coefficient	1,0000multiplexer slope coefficient	1,0000fibre end	0,00T internal ref (°C)	21,87T ext. ref 1 (°C)	5,68T ext. ref 2 (°C)	5,67length (m)	temperature (°C)	Stokes	anti-Stokes-744,400	38,606	-0,148	0,098
-743,385	-48,604	-0,362	0,129
-742,371	-200,000	-0,016	0,108
-741,356	188,927	-0,173	0,193
-740,342	-15,108	0,206	-0,098
-739,327	-125,213	-0,228	0,026
-738,312	-200,000	-0,015	-0,142
-737,298	-118,032	-0,380	0,050
-736,283	-200,000	0,025	0,116
-735,269	-65,481	-0,296	0,088
-734,254	616,351	0,033	0,062
-733,239	-196,733	-0,410	0,002
-732,225	-14,813	0,160	-0,076
-731,210	800,000	-0,024	-0,066
-730,196	-24,166	-0,068	0,030
-729,181	382,129	0,017	-0,027
-728,167	-200,000	0,011	-0,048
-727,152	1,944	0,061	0,033
-726,137	146,664	-0,066	0,066
-725,123	-200,000	-0,023	-0,112
-724,108	59,962	-0,112	-0,082
-723,094	66,280	-0,050	0,038
-722,079	-200,000	0,013	-0,062
-721,064	-134,514	0,083	-0,007
-720,050	-200,000	0,001	-0,029
-719,035	-157,060	-0,177	-0,008
-718,021	800,000	-0,035	-0,087
-717,006	19,978	-0,193	-0,115
-715,991	11,379	-0,046	-0,026
-714,977	-106,086	-0,051	-0,009
-713,962	-7,876	0,099	0,049
-712,948	67,265	0,034	0,026
-711,933	674,161	-0,005	0,010
-710,918	-200,000	-0,003	-0,057
-709,904	-26,157	-0,182	0,079
-708,889	297,351	-0,059	0,081
-707,875	239,549	-0,116	-0,144
-706,860	-200,000	-0,015	-0,113
-705,845	-200,000	0,002	0,021
-704,831	-120,474	0,060	-0,007
-703,816	-200,000	0,005	-0,069
-702,802	131,075	-0,033	-0,031
-701,787	219,875	0,075	0,089
-700,772	-53,754	-0,117	-0,040
-699,758	-62,326	0,065	-0,020
-698,743	-200,000	-0,024	-0,143
-697,729	-141,238	-0,034	-0,003
-696,714	-0,132	0,073	0,038
-695,699	44,002	-0,119	0,081
-694,685	-92,485	-0,147	0,030
-693,670	-111,073	-0,070	0,011
-692,656	751,513	-0,028	0,057
-691,641	-200,000	0,021	0,122
-690,627	-144,229	-0,082	0,006
-689,612	184,043	0,058	-0,064
-688,597	243,164	0,039	0,049
-687,583	800,000	-0,078	-0,162
-686,568	141,846	-0,078	-0,077
-685,554	511,095	0,057	0,099
-684,539	800,000	0,020	0,050
-683,524	-111,908	0,099	0,015
-682,510	-76,161	0,066	-0,017
-681,495	25,300	0,109	-0,067
-680,481	184,789	-0,100	0,110
-679,466	-20,981	-0,135	0,061
-678,451	-200,000	-0,003	-0,039
-677,437	800,000	0,033	0,090
-676,422	115,190	-0,099	0,090
-675,408	-200,000	-0,017	-0,073
-674,393	-200,000	0,004	0,078
-673,378	-130,175	-0,051	-0,005
-672,364	800,000	-0,022	-0,062
-671,349	150,246	-0,064	-0,065
-670,335	-167,446	-0,118	-0,003
-669,320	800,000	-0,035	0,076
-668,305	-77,006	0,066	-0,017
-667,291	-200,000	-0,017	-0,126
-666,276	145,852	-0,089	0,088
-665,262	800,000	0,012	-0,033
-664,247	-200,000	-0,006	-0,023
-663,232	85,237	0,134	-0,109
-662,218	199,671	-0,042	0,048
-661,203	-200,000	0,025	0,210
-660,189	-200,000	0,016	0,094
-659,174	800,000	-0,035	0,107
-658,159	23,387	0,077	0,047
-657,145	-132,854	-0,166	0,016
-656,130	-48,191	0,086	-0,031
-655,116	-200,000	-0,008	0,045
-654,101	-200,000	0,024	0,104
-653,086	-0,149	-0,028	-0,015
-652,072	-160,869	0,076	0,003
-651,057	800,000	-0,019	-0,054
-650,043	750,909	-0,044	-0,088
-649,028	-200,000	-0,005	-0,173
-648,014	-200,000	0,012	-0,064
-646,999	-166,418	-0,033	-0,001
-645,984	-99,349	0,063	0,012
-644,970	-103,193	-0,255	-0,044
-643,955	119,076	0,059	0,054
-642,941	62,258	-0,049	0,036
-641,926	800,000	0,023	0,062
-640,911	-34,627	-0,097	0,039
-639,897	-200,000	0,002	-0,062
-638,882	-189,533	-0,047	0,000
-637,868	233,097	0,114	0,140
-636,853	-200,000	-0,002	-0,066
-635,838	-88,051	0,047	0,010
-634,824	514,225	0,028	0,049
-633,809	-18,737	-0,049	0,023
-632,795	19,245	0,040	-0,024
-631,780	-84,004	-0,053	0,012
-630,765	-200,000	-0,016	-0,155
-629,751	-200,000	-0,027	-0,199
-628,736	55,821	0,131	-0,094
-627,722	-104,455	-0,066	0,011
-626,707	-153,908	-0,088	-0,004
-625,692	-26,622	0,046	0,020
-624,678	96,797	-0,057	-0,049
-623,663	42,406	-0,102	0,069
-622,649	-200,000	-0,020	-0,070
-621,634	-200,000	-0,045	-0,266
-620,619	85,015	0,043	-0,035
-619,605	-200,000	-0,008	-0,152
-618,590	-64,275	-0,089	-0,027
-617,576	-42,193	0,046	-0,017
-616,561	800,000	0,029	0,071
-615,546	130,607	-0,046	0,044
-614,532	68,117	0,050	0,038
-613,517	-200,000	0,017	-0,094
-612,503	-4,740	0,020	0,010
-611,488	-17,494	0,135	0,063
-610,474	-167,315	0,047	0,001
-609,459	800,000	0,042	0,126
-608,444	-8,972	-0,038	0,019
-607,430	472,766	-0,019	-0,031
-606,415	-200,000	-0,021	0,106
-605,401	-93,894	-0,104	0,021
-604,386	-200,000	-0,002	0,057
-603,371	-200,000	0,011	0,075
-602,357	-82,493	0,104	-0,025
-601,342	-22,094	-0,076	-0,034
-600,328	800,000	0,038	-0,100
-599,313	226,251	-0,080	-0,096
-598,298	-0,115	-0,016	-0,008
-597,284	-200,000	-0,046	0,201
-596,269	800,000	-0,029	0,085
-595,255	-200,000	0,004	0,086
-594,240	-200,000	0,009	0,050
-593,225	687,458	-0,050	-0,098
-592,211	-91,076	-0,148	-0,031
-591,196	-200,000	0,006	-0,036
-590,182	800,000	0,032	-0,068
-589,167	33,521	-0,127	0,081
-588,152	-59,985	0,162	0,051
-587,138	800,000	-0,025	0,055
-586,123	-95,128	0,030	-0,006
-585,109	31,434	-0,036	0,023
-584,094	138,322	-0,082	0,079
-583,079	-52,499	0,057	0,019
-582,065	406,695	-0,011	0,017
-581,050	8,266	-0,062	0,035
-580,036	42,607	0,047	0,031
-579,021	-118,844	-0,104	0,013
-578,006	-200,000	0,007	-0,136
-576,992	-2,226	-0,046	0,024
-575,977	66,407	-0,098	0,074
-574,963	-5,783	0,128	0,065
-573,948	800,000	0,037	0,083
-572,934	537,353	-0,057	-0,100
-571,919	-200,000	0,008	0,096
-570,904	-73,820	-0,053	-0,014
-569,890	321,267	-0,042	-0,059
-568,875	-139,311	0,026	-0,002
-567,861	-56,685	0,094	-0,031
-566,846	796,575	0,063	-0,128
-565,831	421,033	-0,027	-0,042
-564,817	-45,247	-0,068	-0,025
-563,802	126,252	-0,043	0,040
-562,788	-67,579	-0,105	-0,030
-561,773	215,285	0,051	0,060
-560,758	-15,343	0,041	-0,019
-559,744	-200,000	-0,036	0,148
-558,729	-17,841	-0,039	-0,018
-557,715	-25,059	-0,011	0,005
-556,700	36,643	-0,051	-0,033
-555,685	137,844	0,053	-0,052
-554,671	-200,000	0,031	0,150
-553,656	-156,364	-0,089	0,004
-552,642	131,377	-0,074	0,071
-551,627	-95,310	-0,137	-0,027
-550,612	-200,000	0,011	-0,110
-549,598	-52,552	0,060	-0,020
-548,583	184,205	-0,072	-0,078
-547,569	-91,698	-0,087	0,018
-546,554	199,426	0,074	0,084
-545,539	-31,391	-0,060	0,025
-544,525	-7,001	0,137	-0,069
-543,510	800,000	0,043	0,105
-542,496	475,347	0,098	0,164
-541,481	352,092	-0,049	-0,073
-540,466	-200,000	-0,011	-0,089
-539,452	-200,000	-0,002	0,024
-538,437	78,195	-0,084	0,066
-537,423	94,253	0,113	0,095
-536,408	-78,091	0,113	-0,028
-535,393	104,839	-0,142	-0,124
-534,379	-200,000	0,038	0,133
-533,364	491,294	-0,056	0,094
-532,350	-200,000	0,009	0,056
-531,335	800,000	-0,001	-0,004
-530,321	-200,000	-0,024	-0,122
-529,306	129,143	0,038	0,036
-528,291	-200,000	-0,001	-0,054
-527,277	168,271	0,061	-0,064
-526,262	140,503	0,025	-0,024
-525,248	-111,389	0,095	0,014
-524,233	-57,635	0,070	-0,023
-523,218	-51,272	0,035	0,012
-522,204	-200,000	-0,004	-0,142
-521,189	342,554	-0,023	-0,034
-520,175	135,571	0,034	0,033
-519,160	669,394	-0,046	-0,088
-518,145	-20,481	-0,126	-0,057
-517,131	-200,000	-0,010	-0,131
-516,116	124,972	0,028	0,026
-515,102	364,518	0,076	-0,114
-514,087	-33,387	-0,095	0,039
-513,072	-85,614	0,065	-0,015
-512,058	-147,946	0,182	-0,011
-511,043	111,610	-0,051	-0,046
-510,029	209,497	-0,026	0,031
-509,014	302,343	0,091	0,124
-507,999	-200,000	-0,003	-0,089
-506,985	7,865	0,067	0,037
-505,970	267,827	0,014	0,018
-504,956	-129,757	0,119	0,012
-503,941	19,393	-0,064	0,038
-502,926	800,000	-0,039	0,106
-501,912	800,000	-0,049	0,110
-500,897	-200,000	0,018	0,190
-499,883	-200,000	-0,011	-0,160
-498,868	-200,000	-0,013	-0,062
-497,853	25,639	-0,099	-0,061
-496,839	800,000	0,025	-0,069
-495,824	-200,000	0,002	-0,097
-494,810	800,000	-0,025	0,067
-493,795	800,000	0,043	0,091
-492,781	-200,000	0,003	-0,049
-491,766	-56,493	-0,044	0,014
-490,751	245,977	-0,080	0,100
-489,737	579,764	-0,038	-0,068
-488,722	-162,436	0,113	0,004
-487,708	-50,908	0,097	-0,033
-486,693	464,295	0,013	-0,022
-485,678	-200,000	0,000	-0,038
-484,664	112,422	0,015	0,013
-483,649	117,564	-0,065	0,059
-482,635	54,874	-0,041	-0,029
-481,620	-82,887	0,147	0,035
-480,605	244,653	-0,045	0,056
-479,591	-46,617	-0,127	0,046
-478,576	-200,000	0,009	0,143
-477,562	-200,000	-0,029	0,102
-476,547	-85,430	0,116	-0,026
-475,532	98,435	0,116	0,099
-474,518	800,000	-0,053	-0,163
-473,503	-8,857	0,064	0,031
-472,489	149,329	0,082	-0,082
-471,474	514,629	-0,013	-0,023
-470,459	-85,005	-0,135	-0,031
-469,445	229,321	-0,105	-0,127
-468,430	436,939	0,047	-0,075
-467,416	13,704	0,056	0,032
-466,401	800,000	-0,037	-0,096
-465,386	-13,073	0,088	0,042
-464,372	109,301	-0,104	0,092
-463,357	-103,164	-0,017	-0,003
-462,343	702,337	-0,024	-0,047
-461,328	30,468	-0,104	0,065
-460,313	-200,000	0,003	0,011
-459,299	800,000	0,013	-0,030
-458,284	-200,000	-0,002	0,072
-457,270	-200,000	0,001	-0,027
-456,255	225,484	-0,062	-0,074
-455,241	-56,252	0,142	-0,046
-454,226	-153,551	-0,165	0,008
-453,211	-69,861	0,078	0,022
-452,197	251,356	-0,017	0,021
-451,182	-79,395	-0,047	0,012
-450,168	12,427	-0,041	-0,023
-449,153	-200,000	-0,000	-0,097
-448,138	-1,579	-0,014	-0,007
-447,124	800,000	-0,034	-0,072
-446,109	800,000	-0,013	-0,036
-445,095	-170,440	0,184	-0,005
-444,080	-63,421	0,095	-0,028
-443,065	150,706	0,037	-0,037
-442,051	800,000	-0,011	-0,030
-441,036	667,664	0,035	0,068
-440,022	800,000	-0,038	-0,083
-439,007	126,609	0,130	0,121
-437,992	-200,000	-0,011	0,072
-436,978	-200,000	0,029	0,171
-435,963	-200,000	0,003	0,070
-434,949	-46,423	-0,104	0,037
-433,934	572,865	0,061	-0,110
-432,919	91,616	0,108	-0,089
-431,905	-200,000	-0,022	-0,099
-430,890	224,131	0,065	-0,078
-429,876	-38,858	0,022	-0,009
-428,861	66,907	0,082	0,061
-427,846	3,877	-0,047	-0,025
-426,832	-110,301	-0,146	-0,022
-425,817	-200,000	-0,019	-0,109
-424,803	21,979	-0,008	0,005
-423,788	136,532	-0,046	-0,044
-422,773	49,681	0,062	-0,043
-421,759	-200,000	0,013	0,151
-420,744	-200,000	0,010	-0,053
-419,730	-100,395	-0,041	-0,007
-418,715	-137,610	-0,124	-0,010
-417,701	75,089	-0,012	-0,009
-416,686	800,000	0,018	0,055
-415,671	64,757	0,113	0,084
-414,657	290,673	0,074	0,099
-413,642	33,291	0,026	0,016
-412,628	800,000	0,027	-0,082
-411,613	800,000	0,019	-0,044
-410,598	-38,467	-0,067	-0,026
-409,584	-158,738	-0,006	-0,000
-408,569	3,634	0,028	0,015
-407,555	209,437	-0,067	0,077
-406,540	800,000	0,044	0,130
-405,525	257,958	-0,098	-0,124
-404,511	-28,360	-0,074	-0,031
-403,496	-104,755	-0,096	-0,016
-402,482	-105,712	0,066	0,011
-401,467	339,932	-0,025	0,035
-400,452	672,311	0,066	0,127
-399,438	-105,523	-0,094	-0,015
-398,423	128,306	-0,089	0,084
-397,409	-101,285	0,039	0,007
-396,394	368,769	-0,078	-0,116
-395,379	133,137	0,080	-0,076
-394,365	3,647	0,078	0,042
-393,350	800,000	-0,015	0,043
-392,336	800,000	0,035	0,073
-391,321	57,851	-0,041	-0,029
-390,306	-200,000	-0,051	-0,179
-389,292	59,086	-0,056	0,040
-388,277	160,365	-0,091	-0,094
-387,263	149,230	-0,078	-0,077
-386,248	-76,476	-0,043	-0,011
-385,233	736,022	0,047	0,092
-384,219	28,240	0,146	-0,090
-383,204	188,362	-0,118	-0,129
-382,190	-200,000	0,028	-0,103
-381,175	365,133	-0,032	-0,047
-380,160	800,000	0,018	0,051
-379,146	-48,399	0,083	-0,029
-378,131	800,000	-0,025	0,062
-377,117	-67,205	-0,166	-0,048
-376,102	800,000	-0,019	-0,060
-375,088	-113,403	-0,060	-0,009
-374,073	-200,000	0,026	-0,087
-373,058	-200,000	-0,005	0,046
-372,044	21,715	0,063	0,037
-371,029	-200,000	0,010	-0,054
-370,015	800,000	-0,009	0,022
-369,000	-200,000	0,002	0,058
-367,985	-29,714	-0,142	0,059
-366,971	-200,000	0,030	-0,138
-365,956	256,294	0,046	-0,058
-364,942	800,000	0,036	0,081
-363,927	-200,000	0,008	0,049
-362,912	-200,000	-0,010	0,115
-361,898	800,000	-0,044	-0,095
-360,883	747,325	0,071	-0,142
-359,869	-82,846	0,149	-0,035
-358,854	519,572	0,019	-0,032
-357,839	-200,000	0,015	-0,051
-356,825	-200,000	0,004	0,031
-355,810	107,244	0,094	0,082
-354,796	7,682	-0,055	-0,030
-353,781	800,000	-0,022	0,056
-352,766	-200,000	0,002	0,073
-351,752	-87,361	0,024	-0,005
-350,737	-92,130	0,201	0,041
-349,723	351,282	-0,084	0,123
-348,708	22,157	0,049	-0,030
-347,693	100,668	-0,124	-0,106
-346,679	800,000	0,026	0,081
-345,664	-177,870	-0,081	-0,001
-344,650	-90,365	0,115	-0,024
-343,635	-200,000	0,036	0,182
-342,620	800,000	-0,063	0,146
-341,606	-46,105	-0,084	0,030
-340,591	-200,000	0,003	0,037
-339,577	211,637	0,036	-0,042
-338,562	94,836	0,006	0,005
-337,548	800,000	0,013	-0,041
-336,533	0,785	0,084	-0,044
-335,518	709,816	-0,041	0,079
-334,504	41,278	-0,045	-0,030
-333,489	333,050	-0,083	0,117
-332,475	-59,953	-0,088	-0,027
-331,460	24,528	0,056	-0,034
-330,445	-200,000	-0,021	0,080
-329,431	-132,693	-0,077	-0,007
-328,416	800,000	-0,055	-0,144
-327,402	277,152	0,071	0,092
-326,387	-200,000	0,004	0,125
-325,372	-121,991	0,066	0,008
-324,358	-48,181	0,099	-0,035
-323,343	-79,640	0,124	-0,030
-322,329	178,456	0,111	0,119
-321,314	216,077	0,069	0,080
-320,299	56,194	0,105	0,074
-319,285	800,000	0,053	0,113
-318,270	44,152	-0,103	0,069
-317,256	85,804	-0,098	-0,079
-316,241	800,000	-0,032	0,093
-315,226	604,823	-0,036	0,067
-314,212	800,000	0,023	0,048
-313,197	180,121	0,015	-0,016
-312,183	800,000	-0,027	-0,065
-311,168	113,629	-0,152	0,135
-310,153	-28,154	-0,046	-0,019
-309,139	688,786	0,027	0,052
-308,124	97,339	0,122	0,103
-307,110	-200,000	-0,030	0,138
-306,095	-19,508	0,087	-0,039
-305,080	-200,000	-0,013	-0,123
-304,066	115,797	-0,044	0,039
-303,051	4,112	-0,126	-0,067
-302,037	-200,000	-0,003	0,097
-301,022	139,002	0,079	0,076
-300,008	-69,923	0,158	0,044
-298,993	391,343	0,061	0,092
-297,978	-154,474	-0,111	-0,005
-296,964	-144,183	0,086	-0,006
-295,949	-117,340	0,044	-0,006
-294,935	-160,179	-0,145	0,006
-293,920	-126,649	0,224	0,024
-292,905	-200,000	-0,004	0,058
-291,891	800,000	-0,063	0,171
-290,876	-73,351	0,036	-0,010
-289,862	-200,000	-0,007	-0,086
-288,847	800,000	-0,025	-0,051
-287,832	36,210	0,067	0,043
-286,818	-200,000	0,013	0,056
-285,803	-29,044	0,058	0,024
-284,789	552,579	0,066	0,117
-283,774	607,926	-0,061	0,112
-282,759	-200,000	-0,013	0,099
-281,745	-200,000	0,002	0,008
-280,730	435,318	-0,025	-0,040
-279,716	-141,852	0,155	-0,011
-278,701	526,359	-0,067	-0,115
-277,686	794,020	0,047	-0,096
-276,672	6,689	-0,065	-0,035
-275,657	-98,264	0,101	-0,019
-274,643	-200,000	-0,030	-0,176
-273,628	102,209	0,062	-0,053
-272,613	117,025	0,043	0,038
-271,599	-43,297	0,105	-0,039
-270,584	216,981	-0,025	0,029
-269,570	-200,000	-0,016	-0,094
-268,555	-200,000	-0,013	-0,092
-267,540	-120,570	0,068	-0,008
-266,526	-200,000	0,025	-0,146
-265,511	-200,000	-0,029	-0,110
-264,497	473,782	0,044	-0,072
-263,482	92,752	0,012	0,010
-262,467	232,012	0,085	-0,103
-261,453	-200,000	-0,026	0,099
-260,438	-200,000	-0,040	-0,130
-259,424	145,691	-0,073	0,071
-258,409	-113,657	-0,047	-0,007
-257,395	698,337	-0,034	-0,066
-256,380	61,832	0,116	0,084
-255,365	128,405	-0,073	0,068
-254,351	-148,903	-0,049	0,003
-253,336	203,606	0,044	-0,050
-252,322	-46,887	0,054	0,019
-251,307	-43,134	-0,146	0,054
-250,292	-200,000	-0,006	0,064
-249,278	559,669	0,025	-0,044
-248,263	-200,000	0,003	0,099
-247,249	392,734	0,025	0,038
-246,234	80,045	0,046	0,036
-245,219	800,000	0,024	-0,070
-244,205	-89,571	-0,097	-0,021
-243,190	800,000	0,015	0,040
-242,176	-1,397	-0,076	-0,039
-241,161	-200,000	0,018	-0,072
-240,146	800,000	-0,015	0,044
-239,132	287,572	-0,070	-0,093
-238,117	-94,650	-0,106	-0,021
-237,103	800,000	-0,025	0,076
-236,088	-75,933	-0,062	-0,016
-235,073	-140,360	-0,037	0,003
-234,059	235,421	-0,077	0,093
-233,044	615,081	0,024	0,045
-232,030	-200,000	0,014	0,101
-231,015	-126,856	0,043	-0,005
-230,000	586,376	0,061	0,111
-228,986	-200,000	-0,019	-0,112
-227,971	641,310	0,009	-0,017
-226,957	-46,835	0,123	0,044
-225,942	305,396	0,032	0,043
-224,927	800,000	-0,027	0,062
-223,913	544,488	0,039	0,068
-222,898	-87,174	-0,042	0,009
-221,884	800,000	-0,021	-0,066
-220,869	407,902	0,044	-0,069
-219,855	475,343	-0,018	-0,030
-218,840	-111,361	-0,102	0,015
-217,825	-200,000	0,013	-0,056
-216,811	-200,000	-0,005	-0,023
-215,796	448,841	0,039	-0,062
-214,782	343,998	0,016	0,022
-213,767	-82,934	-0,064	-0,015
-212,752	14,623	-0,067	-0,038
-211,738	453,193	-0,041	0,066
-210,723	156,297	0,044	0,044
-209,709	-200,000	-0,003	0,033
-208,694	-116,022	-0,117	-0,016
-207,679	581,839	0,100	-0,180
-206,665	-140,578	0,109	-0,008
-205,650	589,121	-0,063	0,114
-204,636	234,697	-0,057	0,068
-203,621	-200,000	0,008	0,102
-202,606	-200,000	0,023	0,120
-201,592	-125,387	-0,038	0,004
-200,577	572,401	-0,055	0,098
-199,563	-92,972	0,043	0,009
-198,548	-34,025	-0,040	-0,016
-197,533	568,434	0,026	-0,046
-196,519	419,444	-0,038	0,059
-195,504	39,642	-0,095	-0,062
-194,490	-28,510	-0,029	-0,012
-193,475	299,022	0,059	0,080
-192,460	114,054	0,114	0,101
-191,446	72,652	-0,034	-0,025
-190,431	431,707	0,073	0,115
-189,417	-200,000	0,016	0,085
-188,402	130,161	-0,089	-0,083
-187,387	800,000	-0,012	0,035
-186,373	-200,000	0,003	-0,051
-185,358	-10,195	-0,033	0,016
-184,344	-148,078	0,108	-0,006
-183,329	191,676	-0,018	0,020
-182,315	244,442	0,082	0,101
-181,300	-200,000	0,008	-0,062
-180,285	277,172	-0,012	-0,016
-179,271	-130,902	-0,057	-0,005
-178,256	-200,000	-0,043	0,179
-177,242	176,110	0,028	-0,030
-176,227	520,345	0,066	0,114
-175,212	-19,712	0,130	-0,058
-174,198	3,340	-0,066	0,035
-173,183	4,790	0,074	-0,040
-172,169	800,000	0,073	-0,229
-171,154	120,213	0,032	-0,029
-170,139	-97,769	-0,169	0,031
-169,125	-200,000	0,046	-0,192
-168,110	-128,206	-0,082	-0,008
-167,096	298,407	0,017	0,023
-166,081	-200,000	0,021	-0,098
-165,066	796,395	-0,054	-0,110
-164,052	-200,000	0,010	-0,081
-163,037	197,829	0,116	0,130
-162,023	-181,199	0,089	0,001
-161,008	370,294	0,074	-0,109
-159,993	550,916	0,131	-0,229
-158,979	182,577	-0,090	-0,097
-157,964	800,000	-0,082	-0,178
-156,950	143,850	0,036	-0,035
-155,935	-198,887	0,066	-0,000
-154,920	-92,207	-0,166	-0,034
-153,906	450,273	0,032	0,051
-152,891	31,088	0,079	-0,049
-151,877	475,663	0,035	-0,058
-150,862	-74,241	0,004	-0,001
-149,847	800,000	0,037	-0,093
-148,833	-130,359	0,175	-0,017
-147,818	40,224	-0,105	-0,069
-146,804	127,492	0,069	0,064
-145,789	-54,973	-0,143	0,047
-144,775	376,358	0,035	-0,053
-143,760	230,323	-0,032	0,039
-142,745	-82,676	-0,082	0,019
-141,731	61,652	0,052	0,038
-140,716	-7,949	0,072	-0,035
-139,702	276,881	0,162	0,210
-138,687	-200,000	0,009	-0,083
-137,672	-111,652	0,088	-0,013
-136,658	247,022	0,037	-0,045
-135,643	143,743	0,040	-0,039
-134,629	166,336	-0,044	0,045
-133,614	412,095	0,078	0,121
-132,599	800,000	0,048	0,104
-131,585	-200,000	-0,033	0,147
-130,570	800,000	0,014	-0,035
-129,556	452,433	0,109	-0,176
-128,541	-200,000	0,032	-0,181
-127,526	-200,000	0,002	-0,038
-126,512	-150,602	0,058	0,003
-125,497	89,159	0,189	0,153
-124,483	212,510	-0,109	-0,125
-123,468	74,229	-0,014	0,011
-122,453	146,893	-0,105	-0,103
-121,439	-183,336	0,090	-0,001
-120,424	800,000	0,066	-0,178
-119,410	800,000	0,033	-0,079
