DTS Sentinel unit serial number:	SN410029Multiplexer serial number:	ORYXHardware model number:	OX2-SRSoftware version number:	ORYX F/W v4,00 Oryx Data Collector v3.7.2.0data status	okinstallation	B6 Nyhavnadifferential loss correction	single-endedforward channel	channel 2reverse channel	N/Adate	2023/12/08time	04:45:08forward acquisition time	300,00reverse acquisition time	0,00gamma	499,1914k internal	0,3165k external	0,3165temperature offset calibration	1,0000default loss term (dB/km)	0,3820temperature slope calibration	1,0000multiplexer offset coefficient	1,0000multiplexer slope coefficient	1,0000fibre end	0,00T internal ref (°C)	13,04T ext. ref 1 (°C)	-3,79T ext. ref 2 (°C)	-3,78length (m)	temperature (°C)	Stokes	anti-Stokes-744,400	121,165	0,182	0,167
-743,385	-135,714	-0,319	-0,027
-742,371	87,625	0,024	-0,020
-741,356	-99,448	-0,328	0,060
-740,342	-32,518	0,104	0,042
-739,327	-152,813	-0,281	0,014
-738,312	-61,464	0,050	0,015
-737,298	-101,844	-0,320	-0,056
-736,283	-42,660	0,144	0,054
-735,269	-31,688	-0,181	0,074
-734,254	800,000	0,053	0,143
-733,239	-53,646	-0,508	-0,170
-732,225	-105,594	0,235	-0,039
-731,210	68,591	0,011	0,008
-730,196	190,666	-0,083	-0,092
-729,181	160,454	0,011	-0,011
-728,167	125,254	-0,070	0,065
-727,152	-49,424	-0,038	0,013
-726,137	132,435	-0,152	-0,144
-725,123	-91,751	-0,108	-0,022
-724,108	206,893	-0,041	-0,048
-723,094	800,000	-0,010	0,031
-722,079	317,137	0,020	0,027
-721,064	-158,846	-0,082	0,003
-720,050	97,491	-0,125	-0,106
-719,035	281,770	0,019	-0,025
-718,021	-200,000	0,044	-0,190
-717,006	152,226	-0,055	-0,055
-715,991	77,189	-0,129	-0,101
-714,977	-192,228	-0,090	-0,001
-713,962	-200,000	0,032	-0,168
-712,948	-149,435	-0,025	0,001
-711,933	800,000	0,042	0,088
-710,918	191,397	0,098	0,108
-709,904	-200,000	-0,003	0,067
-708,889	10,589	-0,035	-0,019
-707,875	800,000	0,018	-0,054
-706,860	12,707	0,166	0,094
-705,845	39,195	-0,060	0,039
-704,831	-38,141	-0,075	0,029
-703,816	-140,870	-0,098	0,007
-702,802	40,820	0,127	-0,084
-701,787	117,927	-0,076	0,069
-700,772	247,270	-0,071	-0,088
-699,758	318,369	0,050	-0,069
-698,743	126,695	0,044	0,041
-697,729	116,483	0,057	-0,051
-696,714	39,942	-0,232	-0,153
-695,699	251,266	-0,044	-0,055
-694,685	347,232	-0,012	-0,018
-693,670	800,000	-0,044	0,110
-692,656	486,885	-0,019	0,032
-691,641	-200,000	0,045	0,173
-690,627	-37,869	-0,046	-0,018
-689,612	-65,822	0,076	-0,022
-688,597	-200,000	0,005	-0,102
-687,583	-144,533	-0,095	0,006
-686,568	-200,000	0,006	0,137
-685,554	-200,000	-0,015	-0,071
-684,539	-200,000	0,022	0,134
-683,524	800,000	-0,003	0,006
-682,510	-116,534	0,131	0,018
-681,495	16,124	-0,149	-0,086
-680,481	42,086	-0,121	-0,080
-679,466	800,000	-0,055	-0,146
-678,451	-91,608	-0,109	0,022
-677,437	-200,000	0,008	0,126
-676,422	253,713	-0,096	0,121
-675,408	681,521	-0,014	0,027
-674,393	800,000	0,095	-0,216
-673,378	35,435	-0,047	-0,030
-672,364	-200,000	-0,021	-0,194
-671,349	-37,216	-0,160	0,063
-670,335	102,971	0,066	-0,057
-669,320	339,030	-0,008	0,011
-668,305	-96,268	-0,041	0,008
-667,291	-200,000	-0,017	0,101
-666,276	83,322	-0,068	0,054
-665,262	315,294	-0,054	-0,074
-664,247	-21,860	-0,035	-0,016
-663,232	-17,877	-0,089	-0,041
-662,218	-46,846	0,145	-0,052
-661,203	-144,390	-0,152	0,010
-660,189	397,344	-0,058	0,088
-659,174	15,172	-0,106	-0,061
-658,159	161,757	0,038	-0,039
-657,145	19,223	-0,094	-0,055
-656,130	-200,000	0,003	0,107
-655,116	-75,918	0,070	-0,018
-654,101	-66,897	0,081	-0,023
-653,086	27,351	-0,063	-0,038
-652,072	88,482	-0,035	0,028
-651,057	382,996	0,049	0,074
-650,043	800,000	-0,029	-0,065
-649,028	209,486	-0,026	-0,030
-648,014	-75,934	0,082	0,021
-646,999	-200,000	0,030	-0,134
-645,984	164,500	-0,063	-0,065
-644,970	800,000	0,085	-0,173
-643,955	329,677	-0,044	0,063
-642,941	-59,924	-0,085	0,026
-641,926	-29,414	-0,032	-0,013
-640,911	800,000	-0,060	-0,132
-639,897	-200,000	-0,011	-0,062
-638,882	82,858	0,022	0,017
-637,868	231,518	-0,080	0,096
-636,853	355,924	-0,096	0,140
-635,838	800,000	-0,029	-0,078
-634,824	-200,000	0,013	-0,101
-633,809	53,618	0,055	0,039
-632,795	-109,675	0,072	-0,011
-631,780	450,409	0,085	-0,137
-630,765	80,020	-0,079	-0,062
-629,751	81,620	-0,041	0,033
-628,736	80,301	-0,099	-0,078
-627,722	-200,000	0,035	0,119
-626,707	361,261	0,063	0,093
-625,692	-200,000	0,000	0,018
-624,678	95,101	0,026	-0,021
-623,663	-108,443	0,142	0,022
-622,649	-39,691	-0,146	-0,056
-621,634	-92,488	0,045	-0,009
-620,619	-200,000	0,005	-0,072
-619,605	-200,000	0,011	-0,037
-618,590	-131,896	0,084	-0,008
-617,576	-64,871	0,069	0,020
-616,561	53,016	-0,043	-0,030
-615,546	-60,868	-0,088	0,027
-614,532	-200,000	0,017	-0,100
-613,517	-110,574	0,110	0,017
-612,503	-6,770	-0,036	0,018
-611,488	-83,991	0,137	-0,032
-610,474	800,000	-0,024	0,050
-609,459	-200,000	0,025	0,095
-608,444	-200,000	-0,008	-0,101
-607,430	-56,202	0,026	-0,008
-606,415	256,028	0,029	0,036
-605,401	157,076	0,020	0,021
-604,386	56,567	-0,067	-0,048
-603,371	144,820	0,028	0,028
-602,357	685,163	-0,052	-0,100
-601,342	-11,522	-0,193	-0,093
-600,328	800,000	0,042	-0,118
-599,313	101,427	0,014	0,012
-598,298	236,157	0,027	-0,032
-597,284	-200,000	0,002	0,090
-596,269	39,582	-0,046	-0,030
-595,255	-200,000	-0,005	0,096
-594,240	-114,656	-0,054	0,008
-593,225	-200,000	-0,001	-0,111
-592,211	-200,000	-0,026	-0,159
-591,196	-200,000	0,022	-0,078
-590,182	145,406	-0,029	-0,028
-589,167	-200,000	-0,008	0,062
-588,152	-127,796	-0,156	0,016
-587,138	-200,000	0,043	0,198
-586,123	-200,000	0,003	-0,118
-585,109	-200,000	-0,002	0,119
-584,094	8,829	-0,050	-0,027
-583,079	199,989	0,061	-0,068
-582,065	322,657	-0,097	0,136
-581,050	800,000	0,008	-0,021
-580,036	-95,636	0,130	0,025
-579,021	800,000	-0,040	-0,086
-578,006	246,480	0,082	0,101
-576,992	88,330	0,069	-0,056
-575,977	55,643	-0,021	0,015
-574,963	327,886	0,078	0,109
-573,948	-200,000	-0,015	0,076
-572,934	6,389	0,110	-0,059
-571,919	713,179	-0,034	-0,066
-570,904	-200,000	0,039	-0,197
-569,890	-78,529	-0,062	-0,015
-568,875	141,485	-0,028	-0,027
-567,861	-106,696	-0,053	-0,009
-566,846	81,371	0,127	0,100
-565,831	147,203	0,063	-0,062
-564,817	-174,303	-0,101	0,002
-563,802	387,480	0,120	-0,181
-562,788	800,000	-0,057	0,123
-561,773	281,504	-0,046	0,061
-560,758	315,190	-0,051	-0,070
-559,744	-200,000	0,010	0,048
-558,729	46,716	0,141	-0,096
-557,715	-72,555	-0,152	0,041
-556,700	-97,135	0,085	-0,016
-555,685	-99,164	-0,148	0,027
-554,671	13,480	0,044	-0,025
-553,656	584,625	0,041	0,073
-552,642	-200,000	-0,008	0,093
-551,627	14,784	0,015	0,008
-550,612	-69,918	-0,105	-0,029
-549,598	-200,000	0,014	-0,132
-548,583	-200,000	0,001	-0,065
-547,569	-200,000	0,003	0,068
-546,554	-66,849	0,159	0,045
-545,539	-155,138	0,066	0,003
-544,525	72,213	-0,019	0,015
-543,510	1,967	0,102	0,054
-542,496	-32,490	-0,129	0,052
-541,481	93,962	0,067	-0,055
-540,466	244,509	-0,086	-0,106
-539,452	482,004	0,079	-0,131
-538,437	160,279	-0,034	-0,034
-537,423	-43,281	0,009	0,003
-536,408	-38,195	-0,084	-0,032
-535,393	-94,956	-0,206	0,040
-534,379	-25,473	-0,039	-0,017
-533,364	-162,525	0,032	-0,001
-532,350	-150,107	-0,096	0,005
-531,335	30,790	0,088	0,055
-530,321	6,774	-0,087	-0,047
-529,306	-46,189	0,054	0,019
-528,291	-67,659	-0,073	-0,021
-527,277	-200,000	-0,005	-0,061
-526,262	48,078	-0,067	-0,045
-525,248	-200,000	0,000	0,043
-524,233	-185,543	0,134	0,001
-523,218	-200,000	0,019	0,068
-522,204	46,421	0,179	0,121
-521,189	-200,000	-0,015	0,050
-520,175	-13,502	0,073	0,034
-519,160	-52,399	-0,133	0,045
-518,145	-4,145	0,028	0,014
-517,131	105,645	-0,036	0,031
-516,116	-164,136	0,171	0,006
-515,102	-85,997	-0,109	0,024
-514,087	-57,746	-0,097	0,031
-513,072	-200,000	-0,024	0,113
-512,058	-200,000	0,012	0,087
-511,043	35,658	-0,077	0,049
-510,029	122,717	-0,041	-0,037
-509,014	-200,000	0,006	0,076
-507,999	800,000	0,031	0,076
-506,985	-60,366	-0,051	-0,016
-505,970	7,939	0,079	-0,043
-504,956	534,623	-0,073	-0,127
-503,941	60,942	0,038	-0,028
-502,926	800,000	0,050	0,133
-501,912	587,447	-0,034	-0,061
-500,897	-200,000	-0,006	-0,132
-499,883	394,265	0,075	-0,113
-498,868	130,655	-0,050	-0,047
-497,853	371,773	0,003	-0,004
-496,839	118,430	-0,031	0,028
-495,824	-53,640	0,147	0,049
-494,810	616,933	-0,010	-0,019
-493,795	368,595	0,040	-0,059
-492,781	-200,000	-0,007	0,146
-491,766	-200,000	-0,006	-0,023
-490,751	-200,000	0,020	-0,187
-489,737	-15,496	0,075	0,035
-488,722	800,000	-0,028	0,066
-487,708	303,127	0,038	-0,051
-486,693	-144,169	-0,018	-0,001
-485,678	114,422	-0,155	-0,137
-484,664	800,000	0,064	-0,147
-483,649	-23,790	-0,092	-0,040
-482,635	-8,436	-0,066	-0,032
-481,620	-200,000	-0,028	0,127
-480,605	-200,000	0,039	0,191
-479,591	399,923	0,044	-0,067
-478,576	32,743	-0,071	-0,045
-477,562	-70,556	-0,106	-0,029
-476,547	258,446	-0,111	-0,139
-475,532	-200,000	-0,005	0,039
-474,518	250,140	0,029	0,036
-473,503	-131,610	0,058	-0,005
-472,489	10,162	-0,060	0,033
-471,474	207,244	-0,020	-0,023
-470,459	-111,108	-0,035	-0,005
-469,445	60,030	0,122	-0,087
-468,430	800,000	0,046	0,120
-467,416	-67,047	-0,082	0,023
-466,401	14,491	0,063	-0,036
-465,386	800,000	0,044	-0,101
-464,372	-61,899	-0,106	0,032
-463,357	800,000	0,006	0,013
-462,343	-103,790	-0,084	0,014
-461,328	390,960	-0,027	-0,042
-460,313	-200,000	0,009	-0,052
-459,299	519,659	-0,028	0,048
-458,284	58,734	-0,031	0,022
-457,270	-81,136	-0,074	0,018
-456,255	-200,000	-0,014	-0,068
-455,241	174,782	-0,043	0,045
-454,226	800,000	0,080	-0,169
-453,211	-75,596	-0,023	-0,006
-452,197	347,788	-0,076	-0,110
-451,182	-115,707	0,158	-0,021
-450,168	-72,389	-0,056	0,015
-449,153	-200,000	-0,022	-0,120
-448,138	759,307	-0,018	-0,036
-447,124	120,402	-0,040	-0,036
-446,109	-200,000	0,018	-0,119
-445,095	-150,150	0,199	0,011
-444,080	30,252	0,096	0,059
-443,065	800,000	0,084	0,223
-442,051	163,592	0,072	0,073
-441,036	-200,000	0,002	-0,076
-440,022	163,415	0,045	0,046
-439,007	200,669	0,081	-0,091
-437,992	-200,000	0,008	-0,037
-436,978	-200,000	0,027	0,152
-435,963	-81,936	0,043	-0,010
-434,949	-135,042	-0,107	0,009
-433,934	611,184	-0,070	-0,128
-432,919	-200,000	-0,000	0,056
-431,905	-200,000	0,002	0,089
-430,890	-20,896	0,068	0,030
-429,876	745,803	0,052	0,101
-428,861	-191,661	-0,129	0,001
-427,846	800,000	-0,011	0,029
-426,832	534,013	-0,035	-0,060
-425,817	-38,766	0,087	-0,033
-424,803	-200,000	-0,007	-0,073
-423,788	-116,392	0,004	-0,000
-422,773	6,997	-0,060	-0,032
-421,759	780,673	0,026	-0,053
-420,744	-120,719	0,037	0,004
-419,730	626,872	-0,059	0,108
-418,715	-200,000	0,022	-0,152
-417,701	-200,000	0,002	0,102
-416,686	-6,955	-0,084	0,042
-415,671	-75,265	0,150	0,039
-414,657	-62,611	-0,092	0,028
-413,642	127,798	-0,062	0,057
-412,628	219,860	0,022	-0,026
-411,613	752,214	-0,012	0,023
-410,598	602,774	0,022	0,041
-409,584	-200,000	0,011	-0,103
-408,569	237,753	0,035	0,042
-407,555	198,466	0,070	-0,077
-406,540	-10,333	-0,055	-0,026
-405,525	46,473	-0,022	-0,015
-404,511	-138,997	-0,105	-0,008
-403,496	-178,103	-0,088	0,001
-402,482	-200,000	-0,022	-0,075
-401,467	270,761	0,113	0,145
-400,452	-200,000	0,008	0,030
-399,438	82,217	-0,050	-0,040
-398,423	435,466	0,037	0,059
-397,409	-200,000	0,116	0,000
-396,394	743,424	-0,025	-0,050
-395,379	28,051	-0,097	-0,059
-394,365	-50,192	0,120	-0,041
-393,350	-67,222	0,086	-0,024
-392,336	800,000	0,058	0,118
-391,321	-56,233	0,074	-0,024
-390,306	31,714	-0,031	0,019
-389,292	800,000	0,018	-0,052
-388,277	755,809	-0,039	-0,077
-387,263	127,756	0,053	0,049
-386,248	-92,664	0,059	-0,012
-385,233	-200,000	-0,022	0,080
-384,219	67,205	0,102	0,075
-383,204	-20,136	-0,185	-0,083
-382,190	-152,281	-0,064	-0,003
-381,175	34,484	0,143	0,091
-380,160	-41,693	-0,044	-0,016
-379,146	-61,454	-0,024	0,007
-378,131	222,721	0,067	0,078
-377,117	-160,548	0,055	-0,002
-376,102	-139,642	-0,125	0,010
-375,088	800,000	0,076	-0,197
-374,073	-92,815	-0,088	0,018
-373,058	-113,284	0,089	0,012
-372,044	358,902	-0,060	0,087
-371,029	800,000	0,015	0,038
-370,015	-141,791	-0,049	-0,004
-369,000	-200,000	-0,022	-0,073
-367,985	170,040	-0,039	-0,041
-366,971	43,481	-0,123	0,081
-365,956	-174,090	-0,163	0,003
-364,942	-148,193	0,100	0,006
-363,927	-90,308	0,037	0,008
-362,912	800,000	-0,059	-0,136
-361,898	-200,000	0,031	0,101
-360,883	-134,734	0,052	0,004
-359,869	-126,422	-0,063	-0,007
-358,854	-20,753	-0,088	0,039
-357,839	-77,282	0,095	0,024
-356,825	560,906	-0,093	0,164
-355,810	-0,906	0,099	0,051
-354,796	-178,697	-0,169	-0,003
-353,781	-62,759	0,116	0,034
-352,766	-9,504	-0,097	-0,047
-351,752	-200,000	0,003	0,056
-350,737	160,279	0,123	-0,124
-349,723	478,855	0,051	-0,083
-348,708	153,253	0,019	0,019
-347,693	469,943	0,035	-0,057
-346,679	-143,680	-0,138	-0,009
-345,664	800,000	-0,030	-0,076
-344,650	250,552	-0,073	-0,090
-343,635	38,711	-0,045	0,029
-342,620	-200,000	0,013	-0,049
-341,606	800,000	-0,061	0,150
-340,591	-25,935	-0,057	0,024
-339,577	59,152	0,128	-0,091
-338,562	-15,455	-0,081	0,037
-337,548	298,312	-0,039	-0,052
-336,533	-14,302	0,036	0,017
-335,518	-106,800	-0,038	-0,006
-334,504	-65,089	0,068	-0,020
-333,489	-200,000	0,021	-0,122
-332,475	244,582	-0,018	0,022
-331,460	148,657	-0,032	-0,031
-330,445	229,645	0,040	0,047
-329,431	800,000	-0,016	-0,037
-328,416	-200,000	0,001	-0,009
-327,402	-33,209	0,164	-0,066
-326,387	30,056	-0,130	0,080
-325,372	-44,291	-0,090	0,032
-324,358	-144,744	-0,149	0,010
-323,343	-74,054	-0,054	0,014
-322,329	-200,000	0,012	0,050
-321,314	-51,982	0,032	-0,011
-320,299	138,929	-0,036	0,034
-319,285	-200,000	-0,017	0,077
-318,270	-102,249	-0,154	-0,026
-317,256	360,291	0,016	0,024
-316,241	-126,574	0,107	0,011
-315,226	800,000	-0,034	0,079
-314,212	36,576	0,078	-0,050
-313,197	240,689	0,004	0,005
-312,183	20,895	-0,059	0,034
-311,168	452,528	0,024	0,038
-310,153	135,155	-0,039	-0,037
-309,139	-152,020	0,041	-0,002
-308,124	48,842	0,087	-0,059
-307,110	800,000	0,048	0,109
-306,095	-74,203	-0,144	-0,038
-305,080	109,520	-0,022	-0,019
-304,066	53,089	-0,106	0,073
-303,051	237,718	-0,069	-0,083
-302,037	-200,000	-0,039	0,171
-301,022	50,974	0,072	0,049
-300,008	-2,552	-0,004	0,002
-298,993	-200,000	-0,021	0,076
-297,978	103,007	0,030	-0,025
-296,964	59,173	-0,038	0,027
-295,949	800,000	0,033	-0,070
-294,935	134,565	-0,028	-0,027
-293,920	-200,000	-0,002	0,023
-292,905	362,537	0,057	0,083
-291,891	-51,087	0,087	0,029
-290,876	800,000	-0,014	0,029
-289,862	-103,416	0,052	-0,009
-288,847	-200,000	0,007	-0,121
-287,832	800,000	0,040	-0,102
-286,818	33,643	-0,055	-0,035
-285,803	655,336	0,071	0,133
-284,789	-14,431	-0,146	-0,068
-283,774	81,933	0,017	0,013
-282,759	66,899	-0,118	0,087
-281,745	746,962	0,035	0,068
-280,730	276,243	-0,074	-0,095
-279,716	800,000	0,030	0,078
-278,701	-200,000	-0,016	-0,070
-277,686	-200,000	0,057	0,225
-276,672	-200,000	0,034	0,111
-275,657	754,322	-0,034	0,067
-274,643	297,084	0,048	-0,063
-273,628	-200,000	0,016	-0,053
-272,613	-102,128	0,190	-0,033
-271,599	-169,123	-0,052	0,001
-270,584	191,832	0,122	0,133
-269,570	66,528	0,058	0,042
-268,555	-98,380	-0,084	0,015
-267,540	-200,000	0,008	0,071
-266,526	-109,489	0,085	-0,013
-265,511	189,033	0,058	0,063
-264,497	-200,000	0,012	0,066
-263,482	42,225	0,043	0,028
-262,467	12,375	-0,072	-0,040
-261,453	259,696	0,021	0,026
-260,438	159,938	-0,012	-0,012
-259,424	469,235	0,065	0,106
-258,409	800,000	0,059	0,166
-257,395	-23,988	0,081	0,035
-256,380	-200,000	-0,037	0,134
-255,365	-200,000	0,022	0,131
-254,351	-58,184	0,167	0,052
-253,336	311,910	0,080	-0,108
-252,322	10,164	-0,104	0,057
-251,307	-200,000	-0,025	0,103
-250,292	-137,211	0,128	-0,010
-249,278	286,804	0,058	-0,076
-248,263	473,549	-0,048	-0,078
-247,249	-1,284	-0,106	0,054
-246,234	119,064	-0,105	0,093
-245,219	5,277	0,022	0,012
-244,205	677,699	0,039	-0,073
-243,190	800,000	0,044	-0,116
-242,176	800,000	-0,026	-0,059
-241,161	-47,843	0,136	-0,047
-240,146	-58,051	-0,078	0,024
-239,132	423,853	0,030	0,047
-238,117	103,611	-0,200	-0,169
-237,103	-200,000	-0,008	-0,121
-236,088	85,111	-0,047	0,037
-235,073	800,000	0,025	0,072
-234,059	-200,000	0,014	-0,144
-233,044	81,611	0,066	-0,052
-232,030	170,316	0,150	0,154
-231,015	102,871	-0,044	-0,037
-230,000	692,440	0,023	0,044
-228,986	-90,016	-0,041	0,009
-227,971	179,540	0,085	-0,090
-226,957	84,947	0,089	0,070
-225,942	-99,874	0,044	0,008
-224,927	800,000	0,051	-0,128
-223,913	-78,526	0,076	0,019
-222,898	-50,480	0,016	-0,005
-221,884	464,948	0,024	-0,039
-220,869	329,534	0,062	-0,087
-219,855	800,000	0,033	0,098
-218,840	48,746	0,057	0,038
-217,825	-200,000	0,013	-0,061
-216,811	-116,174	0,103	0,014
-215,796	210,359	-0,044	-0,049
-214,782	-156,704	-0,095	-0,004
-213,767	-200,000	0,016	0,104
-212,752	-200,000	-0,007	0,152
-211,738	-9,812	-0,089	-0,043
-210,723	-200,000	-0,076	0,251
-209,709	-200,000	0,008	0,119
-208,694	585,984	0,092	-0,164
-207,679	800,000	-0,045	-0,102
-206,665	-200,000	0,025	0,156
-205,650	246,573	-0,070	-0,085
-204,636	29,194	0,151	-0,092
-203,621	800,000	0,039	-0,097
-202,606	-93,791	-0,140	-0,028
-201,592	-200,000	-0,041	-0,205
-200,577	6,297	0,030	0,016
-199,563	245,985	0,076	-0,092
-198,548	201,504	0,047	-0,052
-197,533	800,000	-0,039	0,077
-196,519	11,579	0,084	0,046
-195,504	-24,652	-0,080	-0,034
-194,490	-200,000	0,011	-0,068
-193,475	-21,882	-0,050	0,022
-192,460	-3,350	0,120	0,060
-191,446	432,865	0,043	-0,067
-190,431	800,000	-0,037	0,086
-189,417	-39,747	0,104	-0,039
-188,402	-111,989	0,086	-0,012
-187,387	421,307	-0,087	0,134
-186,373	345,334	0,114	-0,161
-185,358	127,953	-0,148	-0,136
-184,344	586,816	0,014	-0,024
-183,329	713,026	0,072	0,138
-182,315	86,061	0,070	-0,055
-181,300	757,879	0,032	0,063
-180,285	53,012	-0,068	-0,047
-179,271	-144,041	-0,062	0,004
-178,256	707,021	-0,081	0,154
-177,242	5,517	-0,044	-0,024
-176,227	800,000	0,062	0,136
-175,212	-61,496	-0,126	0,038
-174,198	-84,075	0,100	-0,023
-173,183	-152,530	-0,091	-0,005
-172,169	-16,098	-0,127	-0,058
-171,154	534,464	-0,060	-0,103
-170,139	99,611	-0,110	-0,092
-169,125	22,447	0,033	0,019
-168,110	800,000	0,072	0,206
-167,096	800,000	0,039	0,112
-166,081	252,365	0,051	0,063
-165,066	181,171	-0,046	-0,049
-164,052	-154,303	-0,130	-0,006
-163,037	-102,515	0,094	-0,016
-162,023	-148,013	0,095	0,006
-161,008	-63,135	-0,023	-0,007
-159,993	216,295	0,056	0,065
-158,979	-200,000	-0,020	-0,068
-157,964	-54,909	-0,077	-0,025
-156,950	-34,452	-0,063	0,025
-155,935	-18,324	0,056	-0,025
-154,920	100,128	-0,076	0,063
-153,906	-78,396	0,092	0,023
-152,891	102,620	-0,173	0,145
-151,877	17,346	0,093	0,053
-150,862	-200,000	0,012	-0,064
-149,847	-200,000	-0,034	-0,217
-148,833	361,303	-0,047	-0,068
-147,818	-200,000	0,011	0,148
-146,804	-200,000	0,000	-0,127
-145,789	-110,672	-0,140	-0,021
-144,775	70,105	0,145	0,107
-143,760	-200,000	-0,002	-0,029
-142,745	99,544	0,051	-0,042
-141,731	-16,842	0,151	0,068
-140,716	-114,818	0,155	0,021
-139,702	347,465	0,020	0,028
-138,687	336,870	0,066	0,092
-137,672	536,719	-0,039	-0,067
-136,658	-126,915	0,127	0,013
-135,643	85,781	0,111	-0,088
-134,629	62,776	-0,133	0,096
-133,614	86,798	0,082	0,065
-132,599	-143,967	-0,074	0,005
-131,585	-200,000	0,072	-0,238
-130,570	-200,000	-0,010	0,034
-129,556	18,630	0,108	-0,062
-128,541	175,207	-0,070	-0,073
-127,526	-200,000	-0,013	0,044
-126,512	-41,375	-0,089	0,033
-125,497	193,378	0,031	-0,034
-124,483	-200,000	0,007	0,121
-123,468	25,123	-0,070	0,042
-122,453	88,068	0,059	0,047
-121,439	86,704	-0,092	-0,073
-120,424	-200,000	0,016	-0,054
-119,410	-200,000	0,016	0,131
-118,395	-91,018	-0,093	-0,019
