DTS Sentinel unit serial number:	SN410029Multiplexer serial number:	ORYXHardware model number:	OX2-SRSoftware version number:	ORYX F/W v4,00 Oryx Data Collector v3.7.2.0data status	okinstallation	B6 Nyhavnadifferential loss correction	single-endedforward channel	channel 2reverse channel	N/Adate	2023/12/08time	06:45:08forward acquisition time	300,00reverse acquisition time	0,00gamma	499,1914k internal	0,3165k external	0,3165temperature offset calibration	1,0000default loss term (dB/km)	0,3820temperature slope calibration	1,0000multiplexer offset coefficient	1,0000multiplexer slope coefficient	1,0000fibre end	0,00T internal ref (°C)	13,03T ext. ref 1 (°C)	-3,60T ext. ref 2 (°C)	-3,61length (m)	temperature (°C)	Stokes	anti-Stokes-744,400	33,572	0,071	-0,045
-743,385	-71,796	-0,378	-0,103
-742,371	47,562	0,197	0,135
-741,356	-175,665	-0,247	0,005
-740,342	234,913	0,168	0,204
-739,327	-148,254	-0,308	0,018
-738,312	626,065	0,053	-0,099
-737,298	-65,758	-0,344	-0,101
-736,283	-120,149	0,102	-0,013
-735,269	-139,826	-0,321	0,025
-734,254	280,926	0,017	0,022
-733,239	-57,677	-0,515	-0,165
-732,225	-189,950	0,125	0,001
-731,210	714,709	0,070	0,137
-730,196	117,229	-0,041	0,037
-729,181	709,374	-0,039	-0,075
-728,167	46,790	-0,045	0,030
-727,152	800,000	-0,038	0,090
-726,137	113,712	-0,082	-0,073
-725,123	-6,780	0,056	-0,028
-724,108	-69,371	-0,168	-0,047
-723,094	-200,000	0,002	-0,269
-722,079	-108,803	-0,024	-0,004
-721,064	-200,000	0,049	-0,185
-720,050	-126,629	-0,041	0,004
-719,035	129,314	-0,069	-0,065
-718,021	-12,061	-0,048	0,023
-717,006	-94,907	-0,118	-0,023
-715,991	-200,000	0,037	-0,151
-714,977	-200,000	-0,023	-0,203
-713,962	309,266	-0,068	0,094
-712,948	-200,000	-0,008	0,043
-711,933	-200,000	-0,005	0,024
-710,918	-103,263	0,053	0,009
-709,904	-82,158	-0,120	-0,029
-708,889	-160,127	0,139	0,005
-707,875	-200,000	-0,004	-0,027
-706,860	-152,101	-0,096	-0,005
-705,845	294,699	-0,075	-0,101
-704,831	-160,473	0,061	-0,002
-703,816	-200,000	-0,019	0,087
-702,802	-126,264	-0,140	-0,015
-701,787	-200,000	-0,010	-0,086
-700,772	-57,393	-0,053	-0,017
-699,758	293,904	-0,056	-0,075
-698,743	-73,974	0,178	-0,047
-697,729	-130,619	-0,101	-0,010
-696,714	211,774	-0,059	-0,068
-695,699	-200,000	-0,002	-0,026
-694,685	-200,000	-0,013	0,111
-693,670	-200,000	0,019	-0,180
-692,656	-200,000	0,010	-0,095
-691,641	-80,356	-0,068	0,017
-690,627	62,951	0,042	-0,031
-689,612	800,000	-0,010	-0,022
-688,597	-28,501	0,013	-0,005
-687,583	141,202	0,059	0,057
-686,568	-28,875	-0,162	-0,068
-685,554	-54,626	-0,042	-0,014
-684,539	-111,454	-0,011	-0,002
-683,524	-25,874	-0,069	-0,030
-682,510	-62,473	-0,134	0,041
-681,495	60,096	-0,141	-0,102
-680,481	209,049	-0,035	-0,040
-679,466	-18,870	-0,150	-0,068
-678,451	-200,000	-0,024	-0,079
-677,437	18,158	0,087	-0,051
-676,422	704,206	0,015	0,030
-675,408	198,358	-0,027	0,031
-674,393	48,068	-0,071	-0,049
-673,378	-200,000	-0,005	-0,018
-672,364	459,154	0,038	-0,062
-671,349	36,432	0,064	0,041
-670,335	-93,728	-0,069	-0,014
-669,320	-186,018	-0,044	0,000
-668,305	-200,000	0,034	0,114
-667,291	81,097	-0,116	0,092
-666,276	-71,696	-0,088	0,024
-665,262	141,517	-0,167	-0,163
-664,247	352,032	-0,087	0,127
-663,232	181,292	0,071	-0,076
-662,218	-180,828	-0,072	-0,001
-661,203	800,000	-0,020	-0,047
-660,189	-159,685	-0,015	-0,001
-659,174	800,000	-0,020	-0,042
-658,159	-55,414	-0,072	-0,024
-657,145	-88,135	-0,178	-0,039
-656,130	800,000	-0,062	-0,133
-655,116	134,507	0,085	0,081
-654,101	4,449	0,175	0,094
-653,086	87,486	0,052	0,042
-652,072	-200,000	-0,032	-0,187
-651,057	-151,927	-0,081	0,004
-650,043	-200,000	-0,030	0,170
-649,028	237,211	-0,019	0,023
-648,014	342,384	0,059	-0,084
-646,999	-200,000	-0,005	0,077
-645,984	-55,713	-0,093	0,030
-644,970	538,947	0,082	0,144
-643,955	353,277	-0,070	-0,101
-642,941	-200,000	-0,013	0,060
-641,926	-83,942	0,038	0,009
-640,911	-12,497	0,020	-0,009
-639,897	361,385	-0,086	0,127
-638,882	-200,000	-0,007	0,068
-637,868	-200,000	-0,013	0,088
-636,853	-200,000	0,007	0,113
-635,838	234,587	0,059	-0,071
-634,824	331,582	0,037	-0,052
-633,809	15,465	-0,132	0,075
-632,795	120,330	0,235	-0,213
-631,780	162,342	-0,041	0,043
-630,765	344,966	-0,036	-0,052
-629,751	-200,000	-0,003	0,045
-628,736	-19,138	-0,044	0,020
-627,722	-200,000	-0,004	0,027
-626,707	800,000	-0,018	-0,039
-625,692	-200,000	0,032	-0,144
-624,678	148,627	-0,134	0,133
-623,663	-66,631	0,050	0,014
-622,649	-5,614	-0,104	-0,052
-621,634	-77,606	-0,110	0,028
-620,619	790,506	-0,008	-0,017
-619,605	-63,042	-0,075	0,023
-618,590	-109,412	0,010	-0,002
-617,576	279,585	-0,052	0,068
-616,561	128,966	-0,098	-0,092
-615,546	711,361	-0,046	-0,089
-614,532	-73,064	0,024	-0,006
-613,517	70,994	-0,120	-0,091
-612,503	-56,166	0,149	-0,048
-611,488	-200,000	0,002	-0,076
-610,474	90,791	-0,067	-0,055
-609,459	74,528	0,034	0,026
-608,444	150,330	0,022	-0,022
-607,430	316,982	0,040	-0,056
-606,415	717,554	0,067	-0,132
-605,401	355,133	0,057	0,083
-604,386	130,259	-0,058	0,054
-603,371	272,543	0,026	-0,033
-602,357	-91,821	-0,113	-0,023
-601,342	-200,000	0,008	0,063
-600,328	-200,000	-0,004	-0,024
-599,313	241,447	0,087	-0,106
-598,298	-51,565	-0,060	-0,020
-597,284	800,000	0,050	0,125
-596,269	-141,235	0,063	-0,005
-595,255	-199,842	0,080	-0,000
-594,240	257,749	0,021	0,026
-593,225	542,653	-0,035	0,061
-592,211	-200,000	0,030	-0,131
-591,196	-104,953	0,052	0,009
-590,182	-77,937	-0,123	0,031
-589,167	703,224	-0,054	0,105
-588,152	-200,000	-0,026	0,135
-587,138	800,000	0,036	0,080
-586,123	800,000	-0,039	0,098
-585,109	-200,000	0,013	-0,084
-584,094	-200,000	-0,001	-0,005
-583,079	-65,760	-0,043	-0,012
-582,065	209,035	-0,082	-0,094
-581,050	231,594	0,043	0,051
-580,036	-37,322	0,020	-0,008
-579,021	-200,000	0,036	-0,157
-578,006	-41,955	0,048	-0,018
-576,992	800,000	-0,031	-0,073
-575,977	53,135	0,126	0,088
-574,963	285,509	0,098	0,129
-573,948	49,325	0,009	0,006
-572,934	-71,101	-0,064	-0,017
-571,919	800,000	-0,066	-0,177
-570,904	526,522	-0,077	-0,132
-569,890	-200,000	0,003	0,010
-568,875	-142,065	0,103	0,007
-567,861	414,045	0,034	0,053
-566,846	-200,000	-0,009	0,085
-565,831	-135,995	-0,162	-0,014
-564,817	684,186	0,035	-0,067
-563,802	800,000	-0,035	-0,109
-562,788	223,227	0,069	-0,081
-561,773	286,321	-0,074	-0,098
-560,758	438,323	0,088	0,141
-559,744	-157,212	0,059	-0,003
-558,729	325,832	-0,016	-0,022
-557,715	-9,615	-0,085	-0,041
-556,700	570,315	-0,037	-0,066
-555,685	-200,000	0,009	-0,049
-554,671	800,000	-0,021	-0,048
-553,656	-126,464	0,134	0,014
-552,642	-200,000	-0,016	0,167
-551,627	-55,552	0,096	0,031
-550,612	-64,802	-0,047	-0,014
-549,598	800,000	0,005	-0,015
-548,583	210,438	0,096	-0,110
-547,569	201,184	-0,067	0,075
-546,554	-200,000	-0,021	0,070
-545,539	-63,154	-0,083	-0,025
-544,525	163,383	0,073	0,075
-543,510	36,786	0,091	0,058
-542,496	473,000	-0,086	-0,142
-541,481	59,596	-0,048	-0,034
-540,466	-200,000	0,015	0,081
-539,452	181,536	0,097	-0,104
-538,437	-200,000	-0,016	0,055
-537,423	189,497	-0,134	0,147
-536,408	800,000	-0,034	-0,088
-535,393	-200,000	-0,040	0,139
-534,379	-75,249	-0,199	-0,051
-533,364	100,581	-0,093	0,079
-532,350	266,333	0,044	-0,056
-531,335	183,167	-0,045	-0,048
-530,321	-100,254	0,174	-0,031
-529,306	133,134	-0,087	-0,082
-528,291	222,112	-0,012	0,014
-527,277	800,000	0,030	-0,069
-526,262	188,820	0,032	0,034
-525,248	-200,000	-0,022	-0,137
-524,233	800,000	-0,040	0,128
-523,218	-200,000	-0,022	0,123
-522,204	800,000	-0,030	0,093
-521,189	378,248	-0,048	0,072
-520,175	-106,442	-0,077	0,012
-519,160	-9,925	0,114	0,055
-518,145	108,777	0,137	-0,119
-517,131	-145,553	0,114	-0,007
-516,116	121,470	0,065	0,059
-515,102	-200,000	-0,016	-0,063
-514,087	-200,000	0,015	-0,125
-513,072	396,297	-0,053	-0,081
-512,058	561,903	0,035	0,062
-511,043	445,976	0,061	0,098
-510,029	344,886	0,035	-0,050
-509,014	-144,235	0,083	0,006
-507,999	129,444	0,100	-0,093
-506,985	179,275	-0,037	0,040
-505,970	213,546	-0,081	-0,093
-504,956	-200,000	0,002	-0,137
-503,941	59,199	0,054	0,039
-502,926	800,000	-0,013	-0,031
-501,912	-200,000	0,012	-0,079
-500,897	-200,000	-0,007	-0,026
-499,883	-200,000	0,015	0,062
-498,868	-71,567	0,058	-0,016
-497,853	-200,000	0,003	0,011
-496,839	-30,541	0,161	0,066
-495,824	421,250	0,029	-0,046
-494,810	-82,571	-0,089	0,021
-493,795	43,726	-0,044	0,029
-492,781	-143,121	-0,076	-0,005
-491,766	162,869	-0,012	0,012
-490,751	-200,000	-0,021	-0,110
-489,737	-78,690	0,134	0,033
-488,722	56,184	0,089	-0,063
-487,708	-200,000	0,011	-0,055
-486,693	557,910	-0,026	-0,045
-485,678	220,317	0,108	-0,127
-484,664	-100,930	0,135	-0,024
-483,649	492,893	-0,095	-0,159
-482,635	-200,000	-0,021	0,108
-481,620	-173,529	0,108	0,002
-480,605	191,671	0,069	0,075
-479,591	800,000	-0,033	-0,078
-478,576	130,719	-0,032	0,030
-477,562	-200,000	0,021	0,076
-476,547	-77,289	-0,132	0,033
-475,532	-131,411	0,087	-0,008
-474,518	-69,024	0,120	0,034
-473,503	9,868	0,120	-0,066
-472,489	253,192	0,039	0,048
-471,474	141,697	-0,074	-0,071
-470,459	-42,272	-0,109	-0,040
-469,445	-200,000	-0,009	0,135
-468,430	40,759	-0,182	0,119
-467,416	167,556	-0,098	-0,102
-466,401	-61,520	-0,137	0,042
-465,386	18,190	-0,152	0,088
-464,372	38,680	0,058	0,038
-463,357	81,577	0,056	0,044
-462,343	-200,000	-0,001	-0,003
-461,328	-200,000	-0,033	-0,111
-460,313	800,000	0,009	0,024
-459,299	-200,000	-0,007	0,027
-458,284	-104,310	0,162	0,027
-457,270	800,000	-0,028	-0,086
-456,255	304,319	0,056	-0,076
-455,241	-9,804	-0,014	-0,007
-454,226	18,178	0,072	0,042
-453,211	227,901	-0,086	0,103
-452,197	800,000	0,044	0,094
-451,182	-128,124	-0,046	-0,005
-450,168	122,518	0,110	0,100
-449,153	-200,000	-0,017	-0,103
-448,138	-57,360	0,100	-0,032
-447,124	-200,000	-0,034	-0,137
-446,109	-200,000	-0,007	0,033
-445,095	-200,000	-0,027	-0,112
-444,080	-96,452	-0,122	-0,023
-443,065	25,421	0,058	0,035
-442,051	-52,627	-0,090	0,030
-441,036	-64,632	-0,165	-0,048
-440,022	118,157	0,013	0,012
-439,007	-132,509	-0,180	-0,017
-437,992	254,883	0,041	-0,052
-436,978	4,035	0,049	-0,026
-435,963	500,023	0,063	-0,105
-434,949	74,482	-0,159	0,122
-433,934	-200,000	0,010	-0,125
-432,919	-200,000	-0,027	-0,093
-431,905	-200,000	0,005	0,019
-430,890	-52,715	0,045	0,015
-429,876	395,730	-0,045	0,069
-428,861	-200,000	0,005	-0,080
-427,846	800,000	-0,045	-0,112
-426,832	-200,000	0,002	-0,087
-425,817	-161,489	-0,024	0,001
-424,803	-15,131	-0,110	-0,051
-423,788	-171,848	-0,127	0,003
-422,773	713,383	-0,065	0,126
-421,759	285,398	0,061	0,080
-420,744	123,500	-0,044	0,040
-419,730	-200,000	-0,001	0,022
-418,715	800,000	-0,042	-0,110
-417,701	-2,571	-0,045	0,023
-416,686	-200,000	-0,016	0,066
-415,671	447,743	-0,028	-0,044
-414,657	-200,000	-0,004	0,115
-413,642	-41,488	0,113	-0,042
-412,628	800,000	0,040	-0,095
-411,613	-5,506	-0,055	-0,027
-410,598	141,383	-0,070	-0,068
-409,584	360,621	0,039	-0,057
-408,569	-200,000	-0,003	-0,041
-407,555	-93,810	-0,006	-0,001
-406,540	800,000	0,015	0,041
-405,525	35,031	-0,083	0,052
-404,511	-8,138	0,070	0,034
-403,496	190,066	-0,048	-0,053
-402,482	-39,768	0,126	-0,047
-401,467	-200,000	0,004	0,136
-400,452	72,898	-0,120	0,091
-399,438	-200,000	-0,018	-0,167
-398,423	45,887	-0,100	0,067
-397,409	-85,813	-0,095	0,021
-396,394	177,558	-0,028	-0,029
-395,379	430,232	0,017	0,027
-394,365	-200,000	0,015	-0,053
-393,350	-200,000	0,012	-0,093
-392,336	341,460	-0,064	-0,091
-391,321	171,351	0,015	-0,015
-390,306	-100,702	0,170	0,030
-389,292	-128,884	-0,119	-0,012
-388,277	-137,963	-0,009	0,001
-387,263	-34,644	0,112	-0,044
-386,248	-200,000	-0,002	0,084
-385,233	-200,000	-0,038	0,146
-384,219	-2,347	0,099	0,050
-383,204	800,000	0,016	-0,038
-382,190	-200,000	0,009	-0,141
-381,175	800,000	-0,066	0,197
-380,160	73,706	-0,066	-0,050
-379,146	42,709	0,091	0,060
-378,131	-200,000	-0,007	0,080
-377,117	-105,379	0,077	0,013
-376,102	-67,982	0,162	-0,045
-375,088	110,746	0,047	-0,041
-374,073	184,453	-0,090	-0,097
-373,058	46,836	-0,049	-0,033
-372,044	-73,649	0,052	0,014
-371,029	-200,000	0,025	0,127
-370,015	221,462	-0,021	0,025
-369,000	-200,000	0,009	-0,055
-367,985	323,945	0,067	-0,093
-366,971	49,782	-0,070	-0,048
-365,956	-34,732	-0,075	0,029
-364,942	139,002	-0,045	0,043
-363,927	149,332	0,099	0,097
-362,912	-200,000	0,003	0,094
-361,898	-200,000	-0,011	-0,043
-360,883	-33,221	-0,136	-0,054
-359,869	5,392	-0,109	-0,058
-358,854	800,000	0,062	0,163
-357,839	42,182	0,027	0,018
-356,825	35,185	0,107	0,068
-355,810	-184,168	-0,107	-0,001
-354,796	-200,000	0,013	0,048
-353,781	94,999	0,037	0,031
-352,766	609,919	0,064	-0,116
-351,752	121,290	0,064	-0,057
-350,737	-200,000	-0,006	0,147
-349,723	800,000	0,007	-0,017
-348,708	451,801	-0,075	-0,120
-347,693	23,973	-0,123	0,073
-346,679	788,428	0,033	0,066
-345,664	305,969	-0,009	0,011
-344,650	711,553	0,069	-0,132
-343,635	-200,000	-0,012	0,092
-342,620	-200,000	-0,018	-0,118
-341,606	-200,000	0,010	0,061
-340,591	-200,000	-0,033	-0,117
-339,577	-118,459	0,029	-0,004
-338,562	-95,890	0,048	0,009
-337,548	-4,247	-0,042	-0,021
-336,533	16,168	-0,099	0,056
-335,518	94,499	0,080	0,066
-334,504	-123,586	-0,086	-0,010
-333,489	-200,000	0,017	0,144
-332,475	800,000	-0,005	0,013
-331,460	173,597	-0,078	0,081
-330,445	-200,000	0,013	0,076
-329,431	49,547	0,036	0,025
-328,416	71,059	0,041	-0,030
-327,402	-200,000	-0,007	0,064
-326,387	57,835	-0,107	-0,076
-325,372	377,010	-0,046	-0,069
-324,358	-200,000	0,023	-0,114
-323,343	446,077	-0,022	0,035
-322,329	478,477	0,046	0,076
-321,314	-77,419	0,027	-0,007
-320,299	227,092	-0,094	0,111
-319,285	-108,312	-0,117	0,018
-318,270	800,000	-0,005	-0,015
-317,256	279,268	-0,080	0,104
-316,241	477,025	-0,049	0,081
-315,226	-133,555	0,130	0,012
-314,212	-19,171	0,040	0,018
-313,197	-200,000	0,003	0,037
-312,183	-63,230	0,039	0,011
-311,168	-1,251	-0,129	0,066
-310,153	23,113	0,163	-0,096
-309,139	-200,000	-0,002	-0,129
-308,124	270,137	0,081	0,103
-307,110	-96,448	-0,042	0,008
-306,095	800,000	0,056	0,156
-305,080	422,933	0,098	0,153
-304,066	-57,979	-0,051	-0,016
-303,051	215,440	0,124	0,142
-302,037	-200,000	0,011	-0,156
-301,022	498,521	-0,093	0,156
-300,008	-81,179	0,164	-0,039
-298,993	-158,945	0,063	0,003
-297,978	800,000	0,049	0,133
-296,964	160,770	-0,052	-0,053
-295,949	-200,000	0,012	-0,171
-294,935	800,000	-0,028	0,070
-293,920	211,641	0,081	-0,092
-292,905	-200,000	-0,006	-0,079
-291,891	83,477	-0,029	0,023
-290,876	82,356	0,067	0,052
-289,862	61,826	-0,064	0,046
-288,847	157,413	-0,138	-0,138
-287,832	-200,000	0,021	0,089
-286,818	-200,000	-0,021	0,101
-285,803	-0,223	0,064	-0,033
-284,789	28,312	0,106	0,065
-283,774	800,000	-0,095	0,237
-282,759	-200,000	0,019	0,081
-281,745	-200,000	-0,019	-0,086
-280,730	800,000	-0,050	-0,147
-279,716	39,842	0,105	-0,068
-278,701	-200,000	0,039	0,133
-277,686	126,795	0,118	0,108
-276,672	-76,978	-0,060	0,015
-275,657	163,226	0,005	-0,005
-274,643	-0,542	0,035	-0,018
-273,628	-13,010	-0,139	0,065
-272,613	-200,000	-0,015	0,059
-271,599	-200,000	-0,008	-0,051
-270,584	-81,100	0,142	-0,034
-269,570	263,721	-0,124	-0,156
-268,555	182,421	0,035	0,037
-267,540	800,000	-0,033	0,091
-266,526	-92,563	0,073	-0,015
-265,511	474,122	0,012	-0,019
-264,497	588,125	0,038	0,068
-263,482	301,213	0,024	0,032
-262,467	-200,000	-0,016	0,156
-261,453	-200,000	-0,026	-0,223
-260,438	-165,776	-0,190	-0,006
-259,424	-132,291	0,044	0,004
-258,409	48,402	0,074	-0,050
-257,395	274,243	0,037	0,048
-256,380	-75,546	-0,100	0,026
-255,365	684,733	0,079	0,149
-254,351	800,000	-0,044	0,108
-253,336	107,406	-0,062	-0,053
-252,322	108,191	0,101	-0,087
-251,307	103,487	0,081	0,069
-250,292	-200,000	-0,013	-0,084
-249,278	-185,736	-0,054	0,001
-248,263	67,277	0,069	0,051
-247,249	-35,563	-0,034	0,013
-246,234	24,688	0,072	-0,043
-245,219	321,052	-0,102	0,140
-244,205	11,631	0,044	0,024
-243,190	-170,129	-0,081	-0,002
-242,176	800,000	-0,047	0,138
-241,161	380,121	-0,113	0,167
-240,146	-97,269	0,068	-0,013
-239,132	-94,093	0,035	0,007
-238,117	-200,000	0,020	-0,122
-237,103	623,230	-0,093	-0,170
-236,088	-200,000	0,014	-0,100
-235,073	-46,770	0,012	0,004
-234,059	-160,934	0,175	0,007
-233,044	43,399	0,068	0,045
-232,030	413,501	-0,101	0,156
-231,015	-200,000	-0,042	-0,134
-230,000	-39,339	0,123	0,046
-228,986	190,795	0,068	0,073
-227,971	-3,367	0,010	-0,005
-226,957	-200,000	-0,002	-0,087
-225,942	-146,742	0,093	-0,006
-224,927	-200,000	0,016	0,133
-223,913	-200,000	-0,000	0,015
-222,898	-200,000	0,006	0,062
-221,884	206,759	-0,020	-0,022
-220,869	-59,512	-0,063	0,019
-219,855	187,195	0,120	0,129
-218,840	-152,310	0,140	0,007
-217,825	800,000	-0,001	-0,001
-216,811	-200,000	-0,005	-0,127
-215,796	390,175	-0,046	-0,069
-214,782	-81,633	0,155	0,036
-213,767	-200,000	-0,016	-0,120
-212,752	800,000	0,013	-0,029
-211,738	208,519	-0,012	0,014
-210,723	-200,000	0,003	0,085
-209,709	26,518	-0,052	-0,031
-208,694	-81,503	-0,065	0,015
-207,679	-200,000	-0,035	-0,186
-206,665	530,847	0,049	0,084
-205,650	-200,000	0,001	0,012
-204,636	432,115	0,048	0,074
-203,621	-88,425	0,060	0,013
-202,606	-80,527	-0,095	0,023
-201,592	16,350	-0,100	-0,057
-200,577	42,811	0,012	-0,008
-199,563	-200,000	0,037	0,143
-198,548	44,307	-0,124	-0,082
-197,533	800,000	0,050	0,157
-196,519	-200,000	0,029	-0,180
-195,504	517,455	0,020	0,033
-194,490	12,275	0,019	0,011
-193,475	-200,000	-0,049	-0,171
-192,460	532,973	-0,034	0,058
-191,446	-33,407	0,125	-0,050
-190,431	-70,060	-0,019	-0,005
-189,417	148,156	0,095	0,092
-188,402	-200,000	0,015	0,070
-187,387	355,729	-0,020	-0,029
-186,373	-160,209	0,156	0,006
-185,358	116,549	-0,008	-0,007
-184,344	-163,176	0,065	0,002
-183,329	401,407	-0,079	-0,119
-182,315	694,634	0,082	-0,155
-181,300	-200,000	0,010	-0,063
-180,285	800,000	-0,084	-0,196
-179,271	34,770	-0,062	-0,039
-178,256	-120,119	-0,031	0,004
-177,242	-56,806	0,046	0,015
-176,227	800,000	-0,047	-0,095
-175,212	652,551	0,058	-0,107
-174,198	40,995	0,150	-0,097
-173,183	-135,137	-0,089	0,008
-172,169	-200,000	0,002	-0,132
-171,154	21,460	-0,086	-0,050
-170,139	17,922	0,073	-0,042
-169,125	-200,000	0,014	0,043
-168,110	-65,782	-0,129	0,037
-167,096	263,679	-0,063	0,078
-166,081	-189,005	0,060	-0,001
-165,066	151,662	-0,039	-0,038
-164,052	41,903	-0,058	0,038
-163,037	-47,404	-0,073	-0,025
-162,023	430,904	0,094	0,147
-161,008	800,000	0,050	-0,127
-159,993	-99,267	-0,019	0,003
-158,979	372,040	-0,042	0,061
-157,964	-79,814	-0,114	-0,027
-156,950	-200,000	0,013	0,081
-155,935	-94,767	-0,015	0,003
-154,920	-49,345	0,199	0,068
-153,906	-200,000	0,004	-0,037
-152,891	99,056	0,053	0,044
-151,877	-148,186	0,048	-0,003
-150,862	628,530	-0,024	-0,045
-149,847	800,000	-0,005	0,009
-148,833	114,247	-0,050	0,044
-147,818	124,752	0,061	0,055
-146,804	340,351	-0,054	0,077
-145,789	50,672	0,134	0,091
-144,775	242,894	-0,021	-0,025
-143,760	104,084	0,073	0,062
-142,745	363,004	0,068	-0,098
-141,731	-54,941	-0,111	0,036
-140,716	800,000	0,036	0,091
-139,702	31,518	0,097	0,060
-138,687	-13,268	0,148	-0,069
-137,672	-110,489	-0,078	-0,012
-136,658	88,124	-0,008	0,006
-135,643	338,274	-0,031	-0,043
-134,629	458,007	0,025	-0,039
-133,614	-200,000	-0,029	-0,141
-132,599	-200,000	0,003	0,027
-131,585	-49,890	0,130	-0,044
-130,570	-128,829	-0,095	0,009
-129,556	800,000	-0,028	-0,087
-128,541	-200,000	-0,014	-0,054
-127,526	-200,000	-0,002	-0,028
-126,512	-183,421	-0,074	0,001
-125,497	208,923	0,083	0,093
-124,483	-148,534	0,104	0,006
-123,468	-200,000	-0,001	0,031
-122,453	-200,000	0,001	0,066
-121,439	-200,000	-0,007	-0,134
-120,424	-128,579	-0,064	0,006
