DTS Sentinel unit serial number:	SN410029Multiplexer serial number:	ORYXHardware model number:	OX2-SRSoftware version number:	ORYX F/W v4,00 Oryx Data Collector v3.7.2.0data status	okinstallation	B6 Nyhavnadifferential loss correction	single-endedforward channel	channel 2reverse channel	N/Adate	2023/12/09time	20:35:08forward acquisition time	300,00reverse acquisition time	0,00gamma	499,1914k internal	0,3129k external	0,3129temperature offset calibration	1,0000default loss term (dB/km)	0,3820temperature slope calibration	1,0000multiplexer offset coefficient	1,0000multiplexer slope coefficient	1,0000fibre end	0,00T internal ref (°C)	21,35T ext. ref 1 (°C)	5,41T ext. ref 2 (°C)	5,40length (m)	temperature (°C)	Stokes	anti-Stokes-744,400	-200,000	-0,013	-0,248
-743,385	-11,331	-0,247	0,120
-742,371	129,425	0,098	0,093
-741,356	22,699	-0,173	0,105
-740,342	-105,779	0,083	-0,014
-739,327	107,656	-0,237	0,210
-738,312	800,000	0,058	-0,156
-737,298	-80,591	-0,263	0,065
-736,283	131,225	0,059	-0,057
-735,269	110,201	-0,225	0,201
-734,254	-200,000	-0,013	0,057
-733,239	-86,919	-0,390	-0,088
-732,225	422,481	0,092	0,147
-731,210	66,917	-0,041	0,031
-730,196	-30,008	0,072	0,030
-729,181	-200,000	0,009	0,040
-728,167	-200,000	0,014	-0,114
-727,152	94,288	0,088	-0,074
-726,137	-200,000	0,007	0,030
-725,123	-200,000	-0,018	-0,180
-724,108	-4,101	-0,074	-0,038
-723,094	214,988	-0,073	-0,086
-722,079	24,022	-0,072	-0,044
-721,064	198,371	0,047	0,054
-720,050	-191,113	-0,020	0,000
-719,035	-85,402	-0,044	-0,010
-718,021	238,910	-0,039	0,049
-717,006	-200,000	-0,032	-0,230
-715,991	800,000	-0,076	-0,158
-714,977	-146,314	-0,192	0,012
-713,962	800,000	-0,041	-0,100
-712,948	74,339	-0,034	0,027
-711,933	-172,980	-0,109	-0,002
-710,918	81,695	0,100	-0,081
-709,904	-15,304	-0,107	-0,051
-708,889	800,000	-0,058	0,171
-707,875	2,296	-0,122	0,066
-706,860	41,242	0,057	-0,038
-705,845	-5,883	0,107	-0,054
-704,831	480,600	0,024	0,041
-703,816	-94,255	0,108	0,022
-702,802	5,026	0,112	-0,061
-701,787	-97,710	-0,037	0,007
-700,772	-200,000	-0,015	-0,089
-699,758	-41,695	-0,064	0,024
-698,743	-134,910	0,092	0,008
-697,729	78,003	0,082	-0,065
-696,714	-200,000	-0,019	-0,075
-695,699	709,981	0,066	-0,131
-694,685	-90,189	0,012	0,003
-693,670	364,708	-0,037	-0,055
-692,656	-57,172	0,148	-0,048
-691,641	47,601	-0,010	0,007
-690,627	-111,330	-0,104	-0,016
-689,612	-200,000	0,015	0,049
-688,597	-200,000	0,020	-0,175
-687,583	-79,498	-0,137	-0,034
-686,568	-200,000	-0,013	-0,081
-685,554	-92,281	0,092	0,019
-684,539	-200,000	0,011	-0,141
-683,524	13,518	-0,029	0,017
-682,510	-132,702	0,016	-0,002
-681,495	-200,000	0,003	-0,098
-680,481	2,276	-0,106	0,057
-679,466	800,000	0,023	-0,051
-678,451	-200,000	-0,013	-0,058
-677,437	-200,000	0,022	0,196
-676,422	-133,352	0,089	0,008
-675,408	-86,539	-0,028	0,006
-674,393	369,565	0,054	0,081
-673,378	486,680	-0,020	0,033
-672,364	355,809	-0,034	-0,050
-671,349	-113,770	0,136	-0,019
-670,335	-93,255	0,073	-0,015
-669,320	41,542	0,104	-0,070
-668,305	-67,067	0,069	-0,020
-667,291	46,163	-0,086	0,059
-666,276	53,170	-0,049	-0,034
-665,262	800,000	-0,034	-0,097
-664,247	-200,000	-0,022	-0,157
-663,232	30,464	-0,093	-0,059
-662,218	-163,207	0,149	-0,005
-661,203	-200,000	-0,014	-0,160
-660,189	-200,000	0,002	-0,026
-659,174	203,589	0,021	-0,024
-658,159	-200,000	-0,010	0,075
-657,145	-200,000	-0,023	0,137
-656,130	284,290	0,055	0,073
-655,116	54,783	-0,094	-0,067
-654,101	800,000	0,068	-0,164
-653,086	-200,000	-0,001	-0,042
-652,072	-122,133	-0,134	-0,016
-651,057	57,813	-0,151	-0,109
-650,043	94,069	0,114	-0,096
-649,028	108,623	0,016	0,014
-648,014	-171,685	-0,096	-0,002
-646,999	139,945	0,083	-0,081
-645,984	-200,000	0,008	-0,054
-644,970	161,520	-0,110	0,114
-643,955	-66,022	0,015	-0,004
-642,941	322,162	-0,085	-0,120
-641,926	800,000	-0,038	-0,108
-640,911	15,394	0,005	0,003
-639,897	178,591	0,123	0,133
-638,882	-22,579	0,147	-0,066
-637,868	359,811	-0,052	-0,077
-636,853	13,209	-0,098	0,056
-635,838	123,677	-0,005	0,005
-634,824	-69,334	0,113	-0,032
-633,809	-102,637	0,112	-0,020
-632,795	41,076	-0,057	-0,038
-631,780	-200,000	-0,014	0,056
-630,765	-200,000	0,012	0,159
-629,751	-200,000	-0,024	-0,091
-628,736	271,928	-0,095	-0,124
-627,722	-200,000	0,032	-0,131
-626,707	800,000	-0,016	-0,039
-625,692	84,431	0,101	-0,082
-624,678	35,351	-0,111	0,072
-623,663	-200,000	0,002	-0,044
-622,649	800,000	-0,011	0,025
-621,634	-200,000	0,031	-0,113
-620,619	76,514	0,072	-0,057
-619,605	33,778	-0,123	0,079
-618,590	397,855	0,034	0,053
-617,576	800,000	-0,034	0,083
-616,561	-200,000	0,028	-0,106
-615,546	-200,000	-0,010	-0,079
-614,532	259,881	0,073	0,094
-613,517	-165,015	0,088	-0,003
-612,503	-200,000	-0,005	-0,152
-611,488	-8,143	-0,078	-0,039
-610,474	207,361	-0,028	-0,032
-609,459	-143,682	0,089	0,006
-608,444	800,000	-0,042	-0,126
-607,430	337,126	0,025	-0,035
-606,415	800,000	-0,032	-0,102
-605,401	456,374	-0,025	-0,040
-604,386	-18,242	0,150	0,069
-603,371	-200,000	-0,013	0,106
-602,357	-105,109	0,017	-0,003
-601,342	448,299	0,021	-0,034
-600,328	204,236	-0,100	0,115
-599,313	54,460	0,123	0,088
-598,298	-200,000	-0,012	-0,097
-597,284	12,849	0,067	0,038
-596,269	371,223	-0,029	0,044
-595,255	800,000	0,021	0,050
-594,240	666,012	-0,091	-0,176
-593,225	-139,615	-0,096	-0,007
-592,211	83,211	-0,118	-0,095
-591,196	800,000	-0,071	-0,175
-590,182	82,258	0,044	-0,035
-589,167	800,000	0,054	-0,136
-588,152	-48,553	0,096	0,034
-587,138	285,241	-0,070	0,093
-586,123	-200,000	0,013	-0,080
-585,109	89,144	0,016	0,013
-584,094	-97,073	-0,081	0,015
-583,079	800,000	0,036	0,097
-582,065	142,421	-0,052	0,051
-581,050	112,759	0,034	0,031
-580,036	-84,368	-0,020	0,005
-579,021	207,345	-0,058	-0,067
-578,006	84,640	-0,049	0,040
-576,992	800,000	-0,045	-0,111
-575,977	-122,642	-0,055	0,007
-574,963	-116,963	-0,052	-0,007
-573,948	800,000	-0,056	0,159
-572,934	-8,523	-0,068	-0,033
-571,919	-200,000	0,035	-0,122
-570,904	276,159	-0,029	0,039
-569,890	-73,979	-0,138	-0,037
-568,875	-200,000	-0,046	0,201
-567,861	36,575	0,094	0,061
-566,846	392,986	-0,064	0,098
-565,831	800,000	-0,009	0,019
-564,817	479,408	-0,096	-0,161
-563,802	564,897	-0,092	-0,165
-562,788	482,234	0,018	-0,031
-561,773	552,675	0,016	-0,028
-560,758	800,000	0,031	-0,088
-559,744	116,167	0,087	-0,078
-558,729	-200,000	-0,010	-0,037
-557,715	-7,752	0,128	-0,064
-556,700	346,834	-0,085	0,124
-555,685	292,454	-0,133	0,180
-554,671	450,192	0,085	-0,139
-553,656	269,180	0,014	0,018
-552,642	-55,012	-0,024	0,008
-551,627	800,000	-0,021	-0,048
-550,612	-59,548	0,037	0,012
-549,598	24,842	-0,097	-0,059
-548,583	-200,000	0,009	-0,042
-547,569	-71,233	0,132	-0,036
-546,554	102,979	-0,100	0,086
-545,539	15,936	-0,096	0,056
-544,525	800,000	-0,034	0,106
-543,510	24,929	0,010	-0,006
-542,496	47,545	-0,089	-0,061
-541,481	-118,968	-0,166	-0,021
-540,466	153,276	0,053	-0,054
-539,452	246,303	-0,019	-0,023
-538,437	800,000	0,042	0,088
-537,423	325,020	-0,033	-0,047
-536,408	-200,000	-0,011	0,038
-535,393	-72,192	0,081	-0,022
-534,379	-18,632	0,043	0,020
-533,364	-195,122	-0,112	-0,001
-532,350	-200,000	-0,012	-0,082
-531,335	-51,649	0,114	-0,039
-530,321	800,000	-0,035	-0,097
-529,306	-10,151	-0,076	-0,037
-528,291	-155,986	-0,072	0,003
-527,277	800,000	0,057	-0,180
-526,262	800,000	-0,036	-0,105
-525,248	-200,000	-0,009	0,044
-524,233	-60,212	0,082	0,026
-523,218	-200,000	0,001	0,035
-522,204	71,058	-0,069	0,052
-521,189	-39,292	-0,115	-0,044
-520,175	364,102	0,067	-0,100
-519,160	317,811	-0,076	0,106
-518,145	183,027	-0,039	0,043
-517,131	297,727	0,085	0,115
-516,116	560,561	0,042	-0,075
-515,102	227,252	0,064	0,077
-514,087	0,244	-0,103	-0,054
-513,072	800,000	-0,020	-0,058
-512,058	-93,319	0,103	-0,021
-511,043	211,917	0,063	-0,073
-510,029	-29,000	0,140	-0,059
-509,014	-200,000	-0,008	-0,033
-507,999	-4,182	-0,058	-0,030
-506,985	114,452	-0,032	-0,029
-505,970	-67,439	0,112	-0,032
-504,956	-147,454	-0,041	0,003
-503,941	500,773	0,030	-0,051
-502,926	-200,000	0,018	0,077
-501,912	686,991	0,094	0,183
-500,897	713,913	-0,102	0,200
-499,883	68,028	0,026	-0,020
-498,868	-40,702	-0,118	-0,045
-497,853	34,420	0,025	-0,016
-496,839	-141,114	-0,031	0,002
-495,824	800,000	-0,014	0,037
-494,810	-13,024	0,057	-0,027
-493,795	56,715	0,040	-0,029
-492,781	-200,000	0,012	-0,076
-491,766	-200,000	-0,020	0,131
-490,751	214,510	0,072	-0,084
-489,737	-138,424	-0,089	0,007
-488,722	-200,000	0,007	0,140
-487,708	-200,000	-0,001	0,136
-486,693	-123,127	0,052	0,006
-485,678	740,532	-0,029	0,057
-484,664	173,811	-0,004	0,004
-483,649	392,056	-0,029	-0,045
-482,635	111,061	-0,015	0,013
-481,620	-23,682	0,044	0,019
-480,605	-158,619	0,061	-0,003
-479,591	502,497	0,060	0,103
-478,576	-200,000	0,001	-0,054
-477,562	18,717	-0,038	0,022
-476,547	475,200	-0,046	0,077
-475,532	463,311	-0,040	0,066
-474,518	44,318	0,036	-0,024
-473,503	800,000	-0,029	0,072
-472,489	-200,000	-0,021	0,134
-471,474	19,129	0,045	-0,026
-470,459	800,000	0,061	-0,137
-469,445	-64,871	-0,140	-0,041
-468,430	0,680	0,072	-0,038
-467,416	-34,405	0,068	0,027
-466,401	27,526	-0,090	-0,056
-465,386	423,673	0,023	-0,036
-464,372	-90,737	0,043	0,009
-463,357	-20,659	0,038	-0,017
-462,343	-200,000	0,019	-0,108
-461,328	357,230	-0,032	-0,047
-460,313	800,000	0,008	-0,027
-459,299	-142,079	0,169	0,012
-458,284	-74,229	-0,106	-0,028
-457,270	63,695	-0,122	0,090
-456,255	-121,912	-0,033	-0,004
-455,241	-113,828	-0,051	-0,007
-454,226	34,232	0,108	-0,069
-453,211	42,302	-0,063	0,042
-452,197	-200,000	0,008	-0,032
-451,182	571,974	-0,072	-0,129
-450,168	-121,404	0,238	0,029
-449,153	209,136	-0,045	0,052
-448,138	-97,471	-0,080	0,015
-447,124	392,022	-0,082	0,126
-446,109	800,000	-0,043	0,119
-445,095	50,234	-0,038	-0,027
-444,080	72,864	0,028	-0,021
-443,065	-49,150	0,018	0,006
-442,051	43,673	-0,139	0,094
-441,036	-200,000	0,003	-0,075
-440,022	182,049	-0,073	-0,079
-439,007	-129,607	0,067	-0,007
-437,992	553,592	-0,046	-0,081
-436,978	800,000	0,009	-0,026
-435,963	113,720	0,103	0,092
-434,949	-151,147	-0,108	-0,006
-433,934	-78,903	-0,076	-0,019
-432,919	-62,531	-0,092	0,028
-431,905	800,000	-0,052	0,159
-430,890	211,980	0,087	0,101
-429,876	-52,726	0,155	-0,052
-428,861	-200,000	0,009	-0,075
-427,846	44,554	-0,092	0,062
-426,832	-101,538	0,057	-0,010
-425,817	153,555	0,036	0,036
-424,803	26,482	-0,077	0,047
-423,788	553,884	0,022	0,039
-422,773	800,000	-0,015	-0,047
-421,759	499,249	0,057	0,096
-420,744	141,694	-0,026	0,025
-419,730	-58,047	0,099	0,032
-418,715	349,657	0,056	0,081
-417,701	10,140	-0,100	0,055
-416,686	-94,216	-0,109	-0,022
-415,671	-22,929	0,103	0,045
-414,657	78,863	0,054	0,043
-413,642	-200,000	0,007	-0,056
-412,628	800,000	-0,060	-0,153
-411,613	800,000	0,055	-0,147
-410,598	146,348	-0,046	-0,046
-409,584	415,938	0,049	-0,077
-408,569	-151,615	0,125	0,007
-407,555	211,780	-0,035	0,041
-406,540	-200,000	-0,014	0,056
-405,525	-200,000	0,006	-0,046
-404,511	-73,806	-0,088	-0,023
-403,496	577,909	0,043	-0,078
-402,482	-24,418	0,067	-0,029
-401,467	800,000	-0,055	0,138
-400,452	-200,000	-0,011	0,038
-399,438	-105,999	-0,099	-0,016
-398,423	-200,000	-0,020	-0,073
-397,409	-200,000	-0,003	-0,079
-396,394	-53,056	-0,148	-0,050
-395,379	-38,530	0,131	0,051
-394,365	396,773	0,038	0,058
-393,350	-49,412	0,108	0,038
-392,336	-38,508	0,109	-0,042
-391,321	340,160	0,012	-0,017
-390,306	800,000	-0,054	-0,149
-389,292	-3,909	0,057	0,029
-388,277	19,174	-0,044	-0,026
-387,263	-58,314	-0,024	0,008
-386,248	42,451	0,069	-0,046
-385,233	379,872	0,025	0,037
-384,219	-200,000	-0,011	-0,075
-383,204	-19,794	-0,072	0,032
-382,190	588,526	-0,090	-0,163
-381,175	156,668	-0,021	-0,021
-380,160	-200,000	-0,004	0,020
-379,146	-94,379	-0,067	-0,013
-378,131	800,000	0,033	-0,077
-377,117	-200,000	0,005	-0,077
-376,102	91,307	-0,054	0,044
-375,088	-88,234	0,099	-0,022
-374,073	-200,000	0,010	-0,035
-373,058	-200,000	-0,012	0,050
-372,044	-67,641	0,129	0,037
-371,029	283,598	-0,062	0,082
-370,015	-200,000	-0,020	0,145
-369,000	-200,000	-0,002	-0,065
-367,985	800,000	-0,060	-0,171
-366,971	632,750	0,076	0,142
-365,956	759,214	-0,060	0,120
-364,942	800,000	0,033	0,092
-363,927	151,415	0,015	0,015
-362,912	23,005	0,101	-0,061
-361,898	98,268	-0,098	-0,083
-360,883	-200,000	0,008	0,066
-359,869	40,584	-0,066	0,044
-358,854	227,023	0,080	-0,095
-357,839	-38,383	0,083	0,032
-356,825	-200,000	0,011	-0,075
-355,810	308,858	-0,038	-0,053
-354,796	-200,000	-0,013	-0,070
-353,781	-200,000	-0,006	-0,036
-352,766	147,884	-0,043	0,043
-351,752	-197,429	0,079	-0,000
-350,737	-200,000	0,017	0,110
-349,723	-51,619	0,208	0,071
-348,708	183,646	0,108	-0,117
-347,693	-117,396	-0,008	-0,001
-346,679	-32,985	-0,032	0,013
-345,664	-200,000	-0,011	0,088
-344,650	-200,000	0,001	-0,008
-343,635	-54,957	0,075	0,024
-342,620	-200,000	0,008	-0,064
-341,606	-200,000	0,022	-0,084
-340,591	-200,000	0,004	0,036
-339,577	-200,000	-0,004	-0,024
-338,562	-102,040	-0,044	-0,008
-337,548	800,000	-0,054	0,129
-336,533	639,615	0,025	0,046
-335,518	-200,000	0,016	0,105
-334,504	150,334	0,053	0,052
-333,489	41,632	-0,037	0,025
-332,475	281,197	-0,091	-0,120
-331,460	800,000	0,048	0,122
-330,445	342,409	0,096	-0,138
-329,431	-17,431	-0,076	-0,035
-328,416	601,693	0,017	-0,031
-327,402	258,948	0,123	0,156
-326,387	-117,856	-0,129	-0,017
-325,372	800,000	-0,013	-0,035
-324,358	-200,000	0,023	-0,189
-323,343	-83,731	0,094	0,022
-322,329	800,000	0,062	0,147
-321,314	-200,000	-0,027	0,154
-320,299	800,000	-0,043	0,098
-319,285	800,000	-0,028	0,085
-318,270	108,853	-0,052	-0,045
-317,256	800,000	-0,017	-0,039
-316,241	800,000	-0,035	0,087
-315,226	702,263	0,022	0,043
-314,212	800,000	0,022	-0,070
-313,197	-200,000	-0,005	0,023
-312,183	-107,520	0,122	0,019
-311,168	103,430	0,013	0,011
-310,153	28,274	-0,090	0,056
-309,139	-200,000	0,007	-0,086
-308,124	-22,080	0,004	0,002
-307,110	-200,000	0,013	0,084
-306,095	-135,588	0,040	-0,003
-305,080	703,986	0,067	0,131
-304,066	342,491	-0,046	0,066
-303,051	46,603	-0,028	-0,019
-302,037	286,755	0,113	0,149
-301,022	-200,000	0,002	0,045
-300,008	86,739	0,077	-0,062
-298,993	-173,929	0,104	-0,002
-297,978	-36,291	-0,030	-0,012
-296,964	-15,345	-0,141	0,065
-295,949	-200,000	-0,018	-0,096
-294,935	711,351	-0,087	-0,168
-293,920	-66,036	0,088	0,026
-292,905	213,374	-0,042	0,048
-291,891	-9,619	0,090	0,044
-290,876	800,000	0,016	-0,035
-289,862	125,766	0,039	-0,036
-288,847	54,862	-0,123	-0,087
-287,832	324,708	0,019	-0,027
-286,818	800,000	0,030	0,097
-285,803	-5,112	0,085	0,043
-284,789	-200,000	-0,010	-0,058
-283,774	800,000	0,052	0,126
-282,759	257,167	-0,052	-0,066
-281,745	-200,000	0,046	-0,153
-280,730	87,710	0,133	-0,107
-279,716	44,965	0,064	-0,043
-278,701	296,957	0,055	-0,074
-277,686	-200,000	0,006	-0,070
-276,672	39,900	0,089	0,058
-275,657	332,264	0,089	-0,126
-274,643	19,698	-0,081	-0,048
-273,628	-46,353	-0,124	0,044
-272,613	800,000	0,029	0,067
-271,599	-116,306	-0,080	0,011
-270,584	34,147	0,067	0,043
-269,570	-25,269	0,047	0,020
-268,555	-200,000	-0,004	0,048
-267,540	-200,000	0,020	-0,097
-266,526	-174,737	0,063	0,001
-265,511	-48,874	0,068	-0,024
-264,497	60,845	0,056	0,041
-263,482	123,580	-0,045	-0,042
-262,467	108,493	-0,041	-0,036
-261,453	228,994	0,099	-0,119
-260,438	30,278	0,072	-0,045
-259,424	112,651	-0,160	0,141
-258,409	-89,377	0,055	-0,012
-257,395	117,364	0,052	0,047
-256,380	-200,000	0,003	-0,030
-255,365	82,160	-0,057	0,045
-254,351	-62,099	-0,034	0,010
-253,336	-56,216	-0,139	0,045
-252,322	-200,000	0,021	-0,130
-251,307	-59,459	0,053	-0,017
-250,292	800,000	-0,055	-0,124
-249,278	-30,056	0,047	-0,020
-248,263	-200,000	0,110	-0,000
-247,249	249,879	-0,098	0,121
-246,234	800,000	0,056	0,156
-245,219	800,000	-0,036	-0,078
-244,205	47,051	0,018	0,012
-243,190	90,402	0,091	-0,074
-242,176	292,459	0,023	0,031
-241,161	32,809	0,058	0,037
-240,146	488,034	-0,028	0,047
-239,132	396,492	-0,027	-0,042
-238,117	76,396	0,123	0,095
-237,103	-200,000	-0,028	0,094
-236,088	-70,219	-0,034	-0,009
-235,073	348,585	-0,060	0,086
-234,059	-200,000	0,012	-0,211
-233,044	-171,589	-0,047	0,001
-232,030	-57,732	0,077	-0,024
-231,015	621,671	0,047	0,086
-230,000	-114,910	-0,069	0,009
-228,986	800,000	-0,055	0,128
-227,971	51,369	0,055	-0,038
-226,957	432,085	0,033	0,052
-225,942	-200,000	-0,008	-0,124
-224,927	-80,735	-0,241	0,058
-223,913	184,425	0,047	-0,051
-222,898	-60,049	-0,133	-0,041
-221,884	0,445	-0,038	-0,020
-220,869	-77,290	-0,041	0,010
-219,855	177,054	0,040	0,042
-218,840	-7,941	0,039	0,019
-217,825	181,049	-0,075	-0,080
-216,811	-200,000	-0,017	0,091
-215,796	160,035	0,028	-0,029
-214,782	-144,895	-0,165	0,011
-213,767	800,000	-0,043	-0,126
-212,752	-62,437	0,120	0,036
-211,738	-200,000	-0,007	-0,170
-210,723	573,201	-0,018	-0,032
-209,709	-200,000	-0,016	0,146
-208,694	-114,593	-0,043	0,006
-207,679	-72,814	0,133	-0,035
-206,665	800,000	-0,035	0,082
-205,650	147,814	-0,033	0,032
-204,636	177,653	0,089	-0,094
-203,621	403,130	0,066	0,102
-202,606	29,379	-0,109	-0,068
-201,592	122,328	-0,070	0,064
-200,577	800,000	-0,044	0,110
-199,563	-200,000	0,023	0,102
-198,548	65,804	0,069	0,051
-197,533	-116,935	-0,132	0,017
-196,519	303,516	0,031	0,042
-195,504	221,736	-0,046	-0,054
-194,490	355,254	-0,048	0,070
-193,475	458,718	-0,041	-0,066
-192,460	-200,000	-0,013	-0,094
-191,446	-200,000	-0,005	0,141
-190,431	184,782	0,022	-0,024
-189,417	-200,000	-0,017	0,135
-188,402	-160,972	0,119	0,004
-187,387	800,000	-0,041	-0,127
-186,373	-73,114	0,076	0,020
-185,358	76,473	0,129	0,099
-184,344	-200,000	-0,007	0,105
-183,329	-57,196	-0,076	-0,024
-182,315	299,883	-0,070	0,094
-181,300	-152,610	0,065	0,003
-180,285	800,000	-0,036	0,075
-179,271	17,952	0,046	0,027
-178,256	203,914	-0,047	0,053
-177,242	10,219	0,029	0,016
-176,227	28,034	-0,048	0,030
-175,212	-88,071	0,103	0,022
-174,198	-200,000	0,004	-0,080
-173,183	-68,877	-0,063	0,018
-172,169	-200,000	-0,020	-0,171
-171,154	-184,457	0,143	-0,002
-170,139	-56,445	-0,073	-0,023
-169,125	-31,829	0,075	-0,030
-168,110	91,102	0,114	0,093
-167,096	467,467	0,033	0,054
-166,081	136,007	-0,074	-0,070
-165,066	117,768	-0,057	-0,051
-164,052	-67,273	0,057	-0,016
-163,037	342,727	0,037	0,053
-162,023	-13,608	0,107	0,050
-161,008	299,997	0,050	0,067
-159,993	-122,505	0,074	0,009
-158,979	123,619	-0,100	0,091
-157,964	299,091	0,034	0,046
-156,950	-89,842	-0,172	0,036
-155,935	152,423	0,039	-0,039
-154,920	800,000	-0,087	0,182
-153,906	-200,000	0,025	0,115
-152,891	124,388	-0,091	-0,083
-151,877	764,474	0,063	-0,125
-150,862	367,043	-0,062	-0,092
-149,847	-24,857	0,054	-0,023
-148,833	559,743	0,040	0,071
-147,818	-87,868	0,117	0,025
-146,804	-54,017	0,038	0,012
-145,789	-25,537	-0,072	-0,031
-144,775	-105,663	-0,069	0,011
-143,760	489,448	-0,096	-0,159
-142,745	800,000	0,050	-0,107
-141,731	237,391	0,082	-0,099
-140,716	56,140	-0,088	-0,062
-139,702	-200,000	-0,018	0,110
-138,687	20,694	0,091	0,054
-137,672	-200,000	-0,016	-0,155
-136,658	422,947	-0,078	-0,122
-135,643	-28,097	-0,068	0,029
-134,629	800,000	-0,018	-0,055
-133,614	-147,900	-0,100	0,006
-132,599	23,606	0,037	0,022
-131,585	64,762	0,156	0,114
-130,570	527,152	-0,095	0,164
-129,556	-200,000	-0,026	-0,119
-128,541	602,861	-0,038	0,069
-127,526	-51,284	-0,030	-0,010
-126,512	800,000	0,011	0,030
-125,497	-54,120	0,079	-0,026
-124,483	-93,927	0,088	-0,017
-123,468	-22,077	-0,048	0,021
-122,453	-67,115	-0,116	0,033
-121,439	-200,000	-0,018	-0,066
-120,424	-133,759	0,009	0,001
-119,410	800,000	0,030	0,076
-118,395	-125,358	-0,093	0,010
