DTS Sentinel unit serial number:	SN410029Multiplexer serial number:	ORYXHardware model number:	OX2-SRSoftware version number:	ORYX F/W v4,00 Oryx Data Collector v3.7.2.0data status	okinstallation	B6 Nyhavnadifferential loss correction	single-endedforward channel	channel 2reverse channel	N/Adate	2023/12/07time	16:10:08forward acquisition time	300,00reverse acquisition time	0,00gamma	499,1914k internal	0,3164k external	0,3164temperature offset calibration	1,0000default loss term (dB/km)	0,3820temperature slope calibration	1,0000multiplexer offset coefficient	1,0000multiplexer slope coefficient	1,0000fibre end	0,00T internal ref (°C)	14,50T ext. ref 1 (°C)	-2,10T ext. ref 2 (°C)	-2,10length (m)	temperature (°C)	Stokes	anti-Stokes-744,400	-110,159	0,068	0,010
-743,385	-119,841	-0,362	-0,045
-742,371	-200,000	0,000	0,116
-741,356	-130,230	-0,280	0,028
-740,342	88,382	0,094	0,077
-739,327	-85,869	-0,327	0,074
-738,312	33,003	0,048	-0,030
-737,298	-50,777	-0,366	-0,126
-736,283	-173,651	0,153	0,003
-735,269	-64,333	-0,277	0,082
-734,254	-142,751	0,150	-0,011
-733,239	2,434	-0,526	-0,279
-732,225	-200,000	0,215	-0,000
-731,210	8,488	-0,042	-0,023
-730,196	-131,460	0,158	0,015
-729,181	-152,407	0,029	-0,002
-728,167	44,881	-0,105	0,071
-727,152	174,971	0,072	0,077
-726,137	682,783	0,035	0,068
-725,123	-200,000	-0,036	-0,174
-724,108	800,000	0,049	-0,121
-723,094	-190,222	-0,025	0,000
-722,079	-200,000	-0,001	-0,067
-721,064	-200,000	0,003	0,090
-720,050	-200,000	0,015	0,053
-719,035	800,000	-0,013	-0,033
-718,021	544,534	-0,039	-0,069
-717,006	101,077	-0,123	0,105
-715,991	189,464	-0,062	-0,069
-714,977	446,340	-0,039	-0,063
-713,962	157,403	-0,136	-0,138
-712,948	-181,181	0,127	0,002
-711,933	-184,915	-0,101	0,001
-710,918	-200,000	0,028	0,184
-709,904	66,212	0,051	-0,038
-708,889	-1,682	-0,151	-0,078
-707,875	180,179	0,053	-0,057
-706,860	273,012	0,050	0,065
-705,845	800,000	-0,012	0,033
-704,831	800,000	-0,028	0,083
-703,816	-69,855	0,053	0,015
-702,802	-200,000	0,021	0,154
-701,787	-45,327	-0,030	0,011
-700,772	-71,245	-0,066	0,018
-699,758	-200,000	-0,021	0,123
-698,743	231,649	0,079	0,095
-697,729	22,019	-0,189	0,113
-696,714	800,000	-0,066	0,193
-695,699	6,315	0,051	0,028
-694,685	-200,000	0,014	-0,077
-693,670	-56,519	-0,222	-0,072
-692,656	800,000	0,027	0,069
-691,641	-21,174	0,223	0,100
-690,627	-162,065	-0,036	-0,001
-689,612	65,928	-0,101	-0,075
-688,597	-111,893	0,060	0,009
-687,583	36,659	-0,099	-0,064
-686,568	-95,102	0,119	-0,023
-685,554	-200,000	0,020	-0,074
-684,539	588,510	-0,040	0,072
-683,524	353,813	0,093	0,136
-682,510	47,455	-0,035	0,024
-681,495	-109,150	-0,053	-0,008
-680,481	-171,448	-0,107	0,003
-679,466	800,000	0,030	-0,085
-678,451	320,970	0,089	-0,124
-677,437	153,373	0,031	-0,031
-676,422	-49,065	0,133	0,046
-675,408	-200,000	-0,003	-0,054
-674,393	-137,018	-0,173	0,014
-673,378	-52,711	-0,093	-0,031
-672,364	572,518	0,052	-0,093
-671,349	498,125	-0,036	-0,061
-670,335	-94,965	-0,079	0,016
-669,320	22,202	0,100	0,060
-668,305	-35,873	0,064	0,025
-667,291	222,996	-0,048	-0,057
-666,276	800,000	0,016	0,035
-665,262	62,034	-0,039	0,028
-664,247	543,044	0,087	-0,152
-663,232	306,698	-0,147	0,201
-662,218	96,844	0,078	0,066
-661,203	-200,000	0,001	-0,021
-660,189	-3,929	-0,126	0,064
-659,174	-130,964	-0,081	-0,008
-658,159	357,144	0,053	-0,078
-657,145	51,019	-0,059	-0,041
-656,130	71,403	0,187	0,142
-655,116	128,045	0,020	-0,019
-654,101	-115,459	0,106	0,014
-653,086	-6,667	-0,040	0,020
-652,072	-2,528	-0,097	-0,050
-651,057	800,000	-0,054	-0,157
-650,043	254,375	-0,112	-0,140
-649,028	640,045	-0,077	-0,144
-648,014	-141,851	0,081	-0,006
-646,999	800,000	0,024	-0,064
-645,984	-200,000	-0,150	-0,000
-644,970	-141,281	-0,199	-0,015
-643,955	-200,000	-0,008	-0,146
-642,941	-39,442	0,059	-0,023
-641,926	-200,000	0,011	0,086
-640,911	350,266	-0,040	0,058
-639,897	398,976	0,096	0,148
-638,882	-60,330	-0,059	0,018
-637,868	800,000	-0,043	0,121
-636,853	42,314	-0,147	-0,098
-635,838	-144,826	-0,094	0,006
-634,824	215,808	-0,068	-0,079
-633,809	-200,000	-0,002	-0,065
-632,795	152,299	-0,070	-0,070
-631,780	800,000	0,111	0,252
-630,765	800,000	-0,021	0,060
-629,751	-64,838	0,069	0,020
-628,736	136,893	0,031	0,030
-627,722	369,799	-0,059	-0,087
-626,707	132,532	0,038	0,036
-625,692	340,773	-0,009	-0,013
-624,678	191,946	-0,072	0,080
-623,663	-91,680	-0,079	0,016
-622,649	-133,542	-0,027	0,002
-621,634	-82,134	-0,054	0,013
-620,619	-98,750	0,125	-0,023
-619,605	-11,181	-0,064	-0,031
-618,590	36,623	0,088	0,057
-617,576	-200,000	-0,016	0,054
-616,561	-98,662	0,160	0,030
-615,546	-102,860	-0,047	-0,008
-614,532	-109,802	-0,069	0,011
-613,517	-100,262	0,101	-0,018
-612,503	-105,806	-0,128	-0,021
-611,488	-70,553	-0,040	0,011
-610,474	-200,000	0,022	0,084
-609,459	322,515	-0,056	-0,079
-608,444	-81,753	0,036	0,008
-607,430	-126,008	0,074	-0,008
-606,415	-159,244	-0,015	-0,001
-605,401	-200,000	-0,016	-0,087
-604,386	-134,821	0,130	-0,011
-603,371	-40,740	0,051	-0,019
-602,357	170,430	0,088	-0,092
-601,342	142,381	-0,063	0,061
-600,328	303,360	0,081	-0,110
-599,313	800,000	-0,024	0,050
-598,298	231,704	0,058	-0,069
-597,284	-30,068	0,082	0,034
-596,269	-54,689	-0,152	0,050
-595,255	-200,000	-0,025	-0,098
-594,240	-112,507	0,101	-0,015
-593,225	540,134	0,028	-0,048
-592,211	19,132	-0,018	0,011
-591,196	800,000	0,010	-0,022
-590,182	-72,603	-0,042	-0,011
-589,167	-200,000	0,011	0,101
-588,152	614,802	-0,033	-0,061
-587,138	12,645	-0,033	0,019
-586,123	800,000	-0,039	-0,103
-585,109	252,411	-0,053	-0,067
-584,094	-56,354	-0,043	0,014
-583,079	-3,294	-0,099	-0,050
-582,065	-5,863	-0,041	0,021
-581,050	61,044	-0,022	-0,016
-580,036	426,549	0,032	-0,050
-579,021	-133,250	-0,128	0,012
-578,006	480,671	-0,102	-0,170
-576,992	103,233	0,049	0,042
-575,977	800,000	0,018	0,055
-574,963	-69,364	0,206	0,057
-573,948	669,103	0,053	0,101
-572,934	-200,000	0,007	0,077
-571,919	157,704	-0,086	-0,087
-570,904	-200,000	-0,013	0,077
-569,890	22,398	-0,051	0,030
-568,875	-200,000	-0,015	-0,066
-567,861	46,478	0,052	-0,035
-566,846	33,721	0,030	-0,019
-565,831	-97,822	-0,131	-0,024
-564,817	2,285	0,080	-0,042
-563,802	800,000	0,024	-0,077
-562,788	212,672	0,044	-0,050
-561,773	122,991	-0,036	-0,033
-560,758	800,000	0,020	0,046
-559,744	-200,000	-0,027	0,111
-558,729	138,900	-0,020	0,019
-557,715	19,004	-0,105	-0,061
-556,700	617,313	-0,030	-0,055
-555,685	800,000	-0,060	-0,127
-554,671	-200,000	-0,040	-0,193
-553,656	188,483	0,084	0,092
-552,642	303,016	-0,048	0,064
-551,627	800,000	-0,016	0,033
-550,612	111,877	-0,046	0,041
-549,598	-200,000	-0,039	-0,169
-548,583	-200,000	0,015	-0,060
-547,569	-200,000	-0,001	0,067
-546,554	-192,881	0,138	-0,001
-545,539	109,925	-0,082	0,072
-544,525	114,242	-0,126	0,112
-543,510	800,000	-0,013	0,040
-542,496	800,000	0,023	0,062
-541,481	256,884	-0,023	0,029
-540,466	99,349	0,068	0,058
-539,452	800,000	-0,014	0,037
-538,437	-185,385	0,137	0,001
-537,423	17,733	-0,078	-0,045
-536,408	-200,000	0,139	0,000
-535,393	311,529	-0,065	-0,089
-534,379	-37,434	-0,067	-0,026
-533,364	800,000	-0,017	-0,049
-532,350	800,000	0,066	-0,165
-531,335	800,000	0,014	-0,038
-530,321	310,728	0,079	0,109
-529,306	313,476	0,051	-0,070
-528,291	352,304	-0,014	0,020
-527,277	797,348	-0,044	0,088
-526,262	-1,580	0,103	0,053
-525,248	-200,000	-0,002	0,101
-524,233	-200,000	-0,011	0,083
-523,218	-78,167	0,019	0,005
-522,204	-200,000	-0,005	-0,033
-521,189	-110,986	-0,103	-0,015
-520,175	-141,989	-0,092	0,007
-519,160	-200,000	-0,003	0,031
-518,145	196,020	-0,084	-0,094
-517,131	-19,147	0,150	-0,068
-516,116	-51,243	-0,007	0,002
-515,102	-200,000	0,049	-0,168
-514,087	-100,765	-0,197	0,035
-513,072	372,191	0,070	-0,104
-512,058	76,576	-0,042	-0,033
-511,043	-16,164	-0,066	-0,030
-510,029	589,875	0,082	0,148
-509,014	-200,000	-0,006	-0,045
-507,999	225,438	0,104	-0,123
-506,985	800,000	0,035	-0,074
-505,970	-146,682	-0,063	-0,004
-504,956	800,000	-0,029	-0,083
-503,941	-200,000	-0,004	-0,058
-502,926	-22,938	0,165	-0,072
-501,912	800,000	0,019	-0,039
-500,897	-24,407	0,039	0,017
-499,883	-58,365	-0,050	0,016
-498,868	-200,000	-0,001	0,070
-497,853	-45,385	-0,087	-0,031
-496,839	-116,287	0,109	0,015
-495,824	-51,887	-0,159	-0,053
-494,810	800,000	0,054	0,111
-493,795	-121,298	-0,077	-0,009
-492,781	493,943	-0,031	-0,053
-491,766	-127,958	-0,100	0,010
-490,751	87,068	-0,127	-0,103
-489,737	498,380	-0,038	-0,064
-488,722	-20,987	0,050	0,022
-487,708	800,000	0,020	0,052
-486,693	-15,259	-0,062	0,029
-485,678	-54,732	0,107	0,035
-484,664	-200,000	-0,003	-0,021
-483,649	-117,506	-0,138	0,018
-482,635	40,290	-0,159	-0,104
-481,620	392,387	0,041	0,062
-480,605	800,000	0,035	-0,073
-479,591	800,000	-0,018	-0,048
-478,576	-200,000	-0,017	-0,088
-477,562	311,020	-0,021	-0,028
-476,547	-88,153	-0,167	-0,036
-475,532	612,425	0,060	-0,111
-474,518	439,245	0,023	-0,037
-473,503	374,363	-0,066	0,098
-472,489	-200,000	-0,011	0,104
-471,474	-77,643	0,087	0,022
-470,459	800,000	0,048	0,116
-469,445	17,740	-0,028	-0,016
-468,430	-200,000	-0,006	-0,212
-467,416	-200,000	-0,010	0,072
-466,401	142,144	0,087	0,084
-465,386	-200,000	-0,008	0,044
-464,372	156,495	-0,029	0,029
-463,357	800,000	0,038	-0,078
-462,343	-200,000	-0,015	-0,116
-461,328	-137,845	0,211	-0,017
-460,313	800,000	0,052	0,124
-459,299	800,000	0,012	0,027
-458,284	800,000	0,020	0,047
-457,270	80,413	0,059	-0,047
-456,255	-5,648	-0,018	0,009
-455,241	75,744	-0,057	-0,044
-454,226	609,908	-0,031	-0,056
-453,211	265,572	0,045	-0,057
-452,197	291,645	0,047	0,062
-451,182	78,525	0,060	0,047
-450,168	-200,000	-0,008	-0,091
-449,153	-119,049	-0,132	0,017
-448,138	225,723	-0,107	-0,127
-447,124	180,469	-0,045	0,048
-446,109	-200,000	-0,008	0,043
-445,095	-51,985	0,102	0,034
-444,080	-154,333	0,073	-0,004
-443,065	-200,000	0,011	0,048
-442,051	-82,162	-0,073	0,017
-441,036	315,980	-0,068	0,094
-440,022	-176,001	-0,066	0,001
-439,007	127,698	-0,010	0,010
-437,992	-90,763	0,091	-0,019
-436,978	-200,000	-0,005	0,097
-435,963	116,686	-0,045	-0,040
-434,949	277,705	-0,041	-0,053
-433,934	-200,000	-0,012	0,083
-432,919	-75,537	0,087	0,022
-431,905	53,304	0,131	0,091
-430,890	-200,000	0,010	0,218
-429,876	630,752	0,043	0,079
-428,861	-200,000	-0,025	-0,081
-427,846	146,146	0,082	-0,080
-426,832	-200,000	-0,034	-0,138
-425,817	130,246	0,102	-0,095
-424,803	800,000	-0,021	-0,063
-423,788	155,838	-0,123	-0,123
-422,773	-200,000	0,006	0,037
-421,759	191,125	-0,037	-0,040
-420,744	282,971	-0,064	0,084
-419,730	33,077	-0,072	-0,045
-418,715	35,927	-0,055	-0,035
-417,701	-200,000	-0,001	-0,027
-416,686	-200,000	-0,014	0,085
-415,671	-134,813	0,093	0,008
-414,657	451,493	-0,036	0,058
-413,642	-138,712	-0,155	-0,012
-412,628	-200,000	-0,027	-0,156
-411,613	-200,000	-0,035	-0,180
-410,598	-36,483	-0,106	-0,041
-409,584	800,000	-0,053	-0,110
-408,569	-28,545	0,132	0,055
-407,555	11,200	0,079	0,044
-406,540	113,381	0,034	-0,030
-405,525	174,926	-0,015	0,016
-404,511	-51,088	-0,050	-0,017
-403,496	-200,000	0,012	-0,137
-402,482	-200,000	-0,013	0,069
-401,467	-126,448	-0,038	-0,004
-400,452	-200,000	0,003	-0,023
-399,438	-69,070	0,181	0,050
-398,423	800,000	0,023	-0,066
-397,409	-75,409	-0,071	-0,018
-396,394	-81,704	-0,107	-0,025
-395,379	39,351	0,079	-0,051
-394,365	-200,000	0,006	-0,060
-393,350	335,807	-0,039	0,055
-392,336	44,267	-0,039	0,026
-391,321	528,535	-0,017	-0,030
-390,306	74,531	-0,123	-0,094
-389,292	-200,000	0,000	-0,030
-388,277	-200,000	-0,010	0,057
-387,263	-80,717	-0,066	0,016
-386,248	696,208	-0,028	0,054
-385,233	-200,000	-0,001	0,045
-384,219	182,404	0,017	-0,019
-383,204	297,520	-0,033	-0,044
-382,190	-200,000	0,016	-0,156
-381,175	29,388	0,041	0,025
-380,160	800,000	-0,020	0,062
-379,146	79,365	0,170	0,132
-378,131	-153,589	-0,130	-0,006
-377,117	-77,518	0,082	-0,020
-376,102	14,029	0,060	0,034
-375,088	-200,000	-0,007	0,116
-374,073	105,320	-0,068	-0,059
-373,058	331,836	-0,059	0,083
-372,044	-121,664	0,166	0,020
-371,029	89,867	0,062	0,050
-370,015	648,048	-0,021	-0,038
-369,000	-78,945	-0,166	-0,041
-367,985	11,831	0,023	-0,013
-366,971	376,415	0,093	-0,138
-365,956	-156,657	0,135	-0,006
-364,942	640,971	-0,040	0,073
-363,927	-151,635	0,144	-0,008
-362,912	-200,000	-0,021	0,122
-361,898	800,000	-0,011	0,033
-360,883	-2,354	0,074	-0,038
-359,869	-17,455	0,108	-0,049
-358,854	204,403	0,029	-0,033
-357,839	800,000	-0,051	0,162
-356,825	343,539	0,075	-0,107
-355,810	-200,000	-0,010	-0,063
-354,796	-35,692	0,078	-0,030
-353,781	84,497	-0,064	-0,051
-352,766	800,000	0,019	0,045
-351,752	800,000	0,033	-0,074
-350,737	-0,466	0,076	0,039
-349,723	108,373	-0,095	0,082
-348,708	422,403	-0,117	0,183
-347,693	-172,306	0,058	-0,001
-346,679	274,591	-0,058	0,075
-345,664	-200,000	-0,013	-0,118
-344,650	335,395	0,091	-0,128
-343,635	-146,218	0,138	-0,009
-342,620	23,556	0,112	0,067
-341,606	-200,000	0,038	0,180
-340,591	-71,365	-0,141	-0,038
-339,577	656,240	0,047	-0,088
-338,562	328,617	0,059	0,082
-337,548	-47,510	-0,072	-0,025
-336,533	127,420	-0,028	0,025
-335,518	46,889	0,039	0,027
-334,504	623,911	0,067	-0,123
-333,489	-200,000	-0,014	-0,124
-332,475	-200,000	0,012	0,085
-331,460	-200,000	-0,020	-0,105
-330,445	642,408	-0,027	0,050
-329,431	-200,000	0,020	0,082
-328,416	-200,000	0,002	-0,075
-327,402	485,331	0,045	0,074
-326,387	28,976	-0,103	-0,063
-325,372	194,885	0,048	-0,053
-324,358	-12,554	-0,052	-0,024
-323,343	262,359	-0,027	0,035
-322,329	59,243	0,094	-0,067
-321,314	800,000	0,021	-0,045
-320,299	-54,382	0,148	0,048
-319,285	31,038	0,024	-0,015
-318,270	-90,521	-0,050	0,010
-317,256	800,000	0,024	0,053
-316,241	-200,000	0,003	-0,029
-315,226	-53,618	0,200	0,066
-314,212	-66,410	0,099	-0,028
-313,197	-63,305	0,030	0,009
-312,183	638,190	0,049	-0,091
-311,168	-200,000	0,031	-0,147
-310,153	356,391	0,053	-0,077
-309,139	-49,733	-0,118	0,040
-308,124	46,876	0,148	0,099
-307,110	587,342	-0,027	-0,048
-306,095	-119,588	-0,061	0,008
-305,080	25,522	0,100	-0,060
-304,066	130,332	-0,070	0,065
-303,051	67,803	-0,036	0,027
-302,037	-6,942	-0,084	-0,041
-301,022	72,527	0,070	0,053
-300,008	498,195	0,080	-0,133
-298,993	329,792	-0,041	0,057
-297,978	-200,000	0,010	-0,097
-296,964	-1,366	0,091	-0,046
-295,949	-200,000	0,000	0,038
-294,935	-200,000	0,006	0,035
-293,920	174,735	-0,024	0,025
-292,905	-108,115	0,141	0,022
-291,891	441,955	0,049	-0,078
-290,876	-112,517	-0,082	-0,012
-289,862	-200,000	0,016	0,054
-288,847	-61,063	-0,114	-0,035
-287,832	-61,470	-0,124	0,037
-286,818	2,714	0,100	-0,052
-285,803	-127,856	0,057	-0,006
-284,789	-39,468	0,073	-0,028
-283,774	-34,935	0,069	0,027
-282,759	800,000	0,025	0,074
-281,745	-200,000	-0,001	-0,030
-280,730	-200,000	0,025	-0,149
-279,716	473,067	0,008	0,013
-278,701	-7,789	0,075	0,036
-277,686	-200,000	0,000	-0,055
-276,672	146,525	-0,065	0,063
-275,657	-49,173	-0,072	-0,025
-274,643	778,167	-0,062	-0,123
-273,628	178,731	0,110	0,116
-272,613	64,741	-0,051	-0,037
-271,599	-143,072	0,117	0,008
-270,584	12,842	-0,182	0,101
-269,570	-43,260	0,139	0,050
-268,555	-200,000	-0,009	-0,070
-267,540	-200,000	0,017	0,058
-266,526	36,144	0,029	-0,019
-265,511	256,146	-0,102	-0,126
-264,497	64,261	0,013	0,009
-263,482	402,149	-0,079	0,121
-262,467	800,000	-0,022	0,068
-261,453	422,871	-0,066	0,103
-260,438	570,160	0,024	-0,042
-259,424	714,261	-0,021	-0,039
-258,409	54,703	-0,084	0,058
-257,395	67,705	0,036	0,027
-256,380	-80,217	0,037	-0,009
-255,365	-195,087	0,029	-0,000
-254,351	-7,132	0,136	0,066
-253,336	-63,707	-0,114	0,033
-252,322	110,605	-0,017	0,014
-251,307	81,073	0,082	-0,064
-250,292	-83,645	0,044	0,010
-249,278	133,439	0,116	0,108
-248,263	-200,000	0,004	0,076
-247,249	726,321	-0,035	0,068
-246,234	-129,529	-0,101	-0,010
-245,219	-1,199	-0,038	-0,019
-244,205	-8,308	-0,043	-0,021
-243,190	146,216	0,032	0,031
-242,176	-77,711	-0,081	0,020
-241,161	-40,872	-0,052	0,019
-240,146	-144,695	0,148	0,010
-239,132	-53,200	-0,091	0,030
-238,117	415,099	0,037	-0,057
-237,103	48,381	0,097	-0,065
-236,088	-200,000	0,012	0,092
-235,073	-200,000	-0,026	0,088
-234,059	800,000	0,050	0,132
-233,044	315,753	0,032	-0,044
-232,030	-200,000	-0,003	-0,015
-231,015	32,273	0,056	-0,035
-230,000	800,000	-0,023	0,052
-228,986	-200,000	0,002	0,054
-227,971	-200,000	-0,016	0,135
-226,957	-120,090	0,108	0,013
-225,942	-40,440	0,142	0,053
-224,927	800,000	-0,011	-0,026
-223,913	-87,333	-0,171	-0,037
-222,898	-200,000	0,000	0,056
-221,884	-200,000	-0,013	0,123
-220,869	617,889	0,070	0,127
-219,855	247,283	0,044	0,054
-218,840	-140,964	-0,113	0,008
-217,825	-138,754	0,062	0,005
-216,811	-200,000	0,007	-0,046
-215,796	-97,993	0,036	-0,007
-214,782	-124,339	0,063	-0,007
-213,767	-156,574	-0,050	-0,002
-212,752	-56,192	-0,058	0,018
-211,738	-119,692	0,084	-0,010
-210,723	86,331	0,032	-0,025
-209,709	205,058	-0,076	-0,086
-208,694	-127,285	0,030	0,003
-207,679	460,609	-0,055	-0,088
-206,665	-176,350	0,044	0,001
-205,650	-81,159	0,091	0,022
-204,636	563,076	-0,018	0,032
-203,621	-148,501	-0,100	0,006
-202,606	800,000	-0,040	0,087
-201,592	800,000	-0,040	-0,086
-200,577	7,032	-0,081	0,043
-199,563	-22,103	0,044	0,019
-198,548	-200,000	-0,053	0,248
-197,533	-66,279	0,068	-0,019
-196,519	800,000	0,033	0,086
-195,504	800,000	-0,022	0,065
-194,490	437,684	-0,031	0,050
-193,475	800,000	-0,097	-0,253
-192,460	65,352	-0,077	0,056
-191,446	-200,000	0,001	0,072
-190,431	76,358	0,091	-0,070
-189,417	-71,889	-0,129	0,034
-188,402	273,942	0,024	-0,030
-187,387	800,000	-0,015	0,039
-186,373	-200,000	-0,006	0,158
-185,358	356,841	0,069	-0,100
-184,344	297,913	0,095	0,125
-183,329	-94,158	-0,034	0,007
-182,315	-153,424	0,056	0,003
-181,300	15,649	0,069	-0,039
-180,285	-62,379	-0,095	-0,028
-179,271	-200,000	-0,012	-0,081
-178,256	626,300	-0,070	0,127
-177,242	-44,797	0,036	0,013
-176,227	-200,000	-0,028	0,172
-175,212	-16,165	0,099	-0,045
-174,198	-20,042	0,080	0,035
-173,183	170,326	-0,051	0,053
-172,169	800,000	0,030	-0,097
-171,154	-200,000	-0,029	-0,144
-170,139	-200,000	0,020	0,092
-169,125	-27,744	-0,039	0,016
-168,110	-133,755	-0,159	0,014
-167,096	-92,429	0,084	0,017
-166,081	-200,000	-0,024	0,078
-165,066	119,650	-0,025	0,022
-164,052	109,388	0,100	-0,086
-163,037	25,284	-0,055	-0,033
-162,023	-200,000	-0,011	0,095
-161,008	764,808	0,019	-0,037
-159,993	224,255	0,141	0,164
-158,979	-128,326	-0,135	0,014
-157,964	-98,381	-0,126	0,023
-156,950	-27,629	-0,029	0,012
-155,935	446,539	-0,071	0,113
-154,920	31,052	-0,050	0,031
-153,906	-200,000	0,013	-0,046
-152,891	-149,589	0,096	0,005
-151,877	-200,000	-0,026	-0,124
-150,862	800,000	-0,057	0,122
-149,847	429,829	0,080	0,125
-148,833	-7,925	0,101	-0,049
-147,818	386,836	-0,069	0,102
-146,804	0,520	0,057	0,029
-145,789	-36,070	0,028	-0,011
-144,775	265,233	0,061	-0,077
-143,760	236,001	-0,069	0,083
-142,745	-22,580	0,080	-0,035
-141,731	286,597	-0,090	-0,117
-140,716	203,084	0,053	0,059
-139,702	107,726	0,113	0,097
-138,687	-200,000	-0,056	0,199
-137,672	19,635	0,077	-0,045
-136,658	108,955	0,085	-0,073
-135,643	136,682	-0,099	-0,093
-134,629	-61,499	-0,163	-0,049
-133,614	-26,020	-0,050	0,021
-132,599	402,621	0,085	0,129
-131,585	455,500	0,063	0,101
-130,570	11,452	-0,098	0,054
-129,556	-54,163	0,047	-0,015
-128,541	800,000	0,018	0,045
-127,526	130,286	-0,020	-0,018
-126,512	-200,000	0,019	0,085
-125,497	251,903	0,095	0,117
-124,483	-162,135	0,080	-0,003
-123,468	-200,000	0,007	-0,023
-122,453	-200,000	-0,005	0,025
-121,439	319,284	-0,025	-0,034
-120,424	-200,000	-0,003	0,010
-119,410	-136,439	0,072	0,006
