DTS Sentinel unit serial number:	SN410029Multiplexer serial number:	ORYXHardware model number:	OX2-SRSoftware version number:	ORYX F/W v4,00 Oryx Data Collector v3.7.2.0data status	okinstallation	B6 Nyhavnadifferential loss correction	single-endedforward channel	channel 2reverse channel	N/Adate	2023/12/09time	09:50:08forward acquisition time	300,00reverse acquisition time	0,00gamma	499,1914k internal	0,3139k external	0,3139temperature offset calibration	1,0000default loss term (dB/km)	0,3820temperature slope calibration	1,0000multiplexer offset coefficient	1,0000multiplexer slope coefficient	1,0000fibre end	0,00T internal ref (°C)	18,50T ext. ref 1 (°C)	2,11T ext. ref 2 (°C)	2,11length (m)	temperature (°C)	Stokes	anti-Stokes-744,400	-91,242	0,111	-0,023
-743,385	-44,088	-0,231	0,086
-742,371	21,669	0,054	-0,033
-741,356	284,209	-0,067	0,089
-740,342	800,000	0,082	0,183
-739,327	-24,387	-0,156	0,069
-738,312	282,657	-0,027	-0,037
-737,298	-71,258	-0,300	0,083
-736,283	-43,308	0,114	0,043
-735,269	-146,857	-0,279	-0,018
-734,254	800,000	-0,046	-0,109
-733,239	-73,806	-0,427	-0,114
-732,225	-146,506	0,231	0,015
-731,210	172,724	-0,081	0,087
-730,196	-200,000	0,001	-0,031
-729,181	800,000	0,036	0,074
-728,167	458,969	-0,087	0,143
-727,152	194,968	-0,092	0,104
-726,137	-37,457	-0,151	-0,059
-725,123	153,742	-0,096	-0,097
-724,108	709,502	-0,111	-0,218
-723,094	-200,000	-0,044	-0,149
-722,079	-69,229	0,087	0,024
-721,064	234,138	-0,066	-0,080
-720,050	614,966	-0,038	-0,072
-719,035	110,692	-0,056	-0,050
-718,021	800,000	-0,018	-0,051
-717,006	105,692	-0,044	0,039
-715,991	-173,903	-0,133	-0,003
-714,977	800,000	0,013	-0,039
-713,962	-15,748	-0,090	0,042
-712,948	-200,000	-0,002	-0,039
-711,933	154,437	0,067	-0,069
-710,918	242,618	0,022	0,027
-709,904	-3,865	-0,079	-0,040
-708,889	-200,000	-0,001	-0,029
-707,875	-111,718	-0,105	0,016
-706,860	97,201	-0,035	-0,030
-705,845	-146,884	-0,068	0,004
-704,831	-200,000	-0,006	0,069
-703,816	272,727	0,064	0,084
-702,802	44,675	-0,083	0,057
-701,787	53,168	-0,066	0,047
-700,772	-200,000	0,012	0,054
-699,758	252,119	0,036	0,045
-698,743	-74,766	0,045	-0,012
-697,729	-105,550	-0,117	0,019
-696,714	308,499	-0,007	-0,009
-695,699	284,013	-0,054	0,072
-694,685	800,000	0,048	-0,137
-693,670	212,941	-0,109	-0,127
-692,656	-200,000	0,009	0,044
-691,641	-200,000	0,015	0,117
-690,627	-200,000	-0,016	0,076
-689,612	-84,920	0,065	-0,015
-688,597	401,390	-0,052	-0,081
-687,583	-200,000	-0,005	-0,211
-686,568	-200,000	0,016	0,053
-685,554	-152,711	-0,043	0,002
-684,539	-200,000	0,003	-0,056
-683,524	406,021	-0,030	0,047
-682,510	-107,686	0,053	0,008
-681,495	-200,000	-0,014	-0,105
-680,481	-200,000	-0,024	0,081
-679,466	-77,239	0,029	-0,007
-678,451	129,872	0,073	-0,069
-677,437	-12,594	0,079	0,038
-676,422	-159,553	-0,082	0,003
-675,408	800,000	0,020	0,059
-674,393	-200,000	-0,009	-0,206
-673,378	-200,000	0,002	0,019
-672,364	-151,838	0,007	-0,000
-671,349	124,957	0,057	-0,053
-670,335	-167,562	0,092	0,003
-669,320	-200,000	0,000	-0,087
-668,305	74,385	-0,039	0,031
-667,291	371,253	-0,077	-0,115
-666,276	800,000	0,053	-0,125
-665,262	15,052	-0,051	-0,030
-664,247	261,344	-0,086	-0,111
-663,232	545,925	0,051	0,091
-662,218	63,513	0,106	0,079
-661,203	39,458	0,107	-0,071
-660,189	-200,000	-0,001	-0,088
-659,174	-200,000	0,016	-0,107
-658,159	188,551	-0,027	0,029
-657,145	185,339	0,010	-0,011
-656,130	800,000	0,046	0,130
-655,116	-73,355	0,064	0,017
-654,101	-149,820	0,168	0,010
-653,086	79,279	0,124	0,098
-652,072	-78,333	-0,064	-0,016
-651,057	-141,446	-0,260	-0,019
-650,043	800,000	-0,021	-0,067
-649,028	-200,000	-0,008	-0,044
-648,014	-31,329	-0,104	-0,043
-646,999	-16,156	0,091	-0,043
-645,984	-200,000	-0,007	-0,079
-644,970	441,999	0,071	-0,116
-643,955	1,133	0,069	-0,036
-642,941	209,893	-0,124	-0,144
-641,926	44,859	-0,045	0,031
-640,911	256,139	0,071	0,090
-639,897	131,075	0,064	0,060
-638,882	-200,000	0,003	0,036
-637,868	155,585	0,095	-0,096
-636,853	800,000	0,005	0,011
-635,838	-200,000	0,011	-0,057
-634,824	207,606	-0,056	-0,064
-633,809	447,962	0,012	0,020
-632,795	-94,284	0,061	-0,012
-631,780	-183,563	-0,109	-0,001
-630,765	-27,688	-0,212	0,090
-629,751	58,683	-0,032	0,023
-628,736	-49,850	-0,058	0,020
-627,722	22,161	0,068	0,041
-626,707	-200,000	0,026	-0,096
-625,692	-161,357	-0,134	0,005
-624,678	-58,334	0,150	-0,048
-623,663	-52,210	0,009	-0,003
-622,649	-120,735	-0,176	-0,022
-621,634	48,250	-0,180	-0,124
-620,619	-200,000	0,008	-0,084
-619,605	-115,479	-0,050	-0,007
-618,590	-39,360	0,130	0,050
-617,576	800,000	0,033	-0,075
-616,561	-160,926	0,064	0,002
-615,546	-40,271	-0,136	0,052
-614,532	-200,000	0,008	-0,136
-613,517	0,889	0,138	0,073
-612,503	596,440	-0,026	-0,047
-611,488	-67,500	0,016	-0,005
-610,474	800,000	0,019	-0,060
-609,459	-200,000	0,003	0,101
-608,444	-200,000	-0,003	-0,089
-607,430	-200,000	0,013	0,097
-606,415	693,204	-0,085	-0,166
-605,401	800,000	0,008	0,018
-604,386	-200,000	-0,016	0,071
-603,371	167,024	0,108	0,113
-602,357	-136,027	-0,051	-0,004
-601,342	-86,566	0,155	0,035
-600,328	-42,871	-0,105	0,039
-599,313	-123,451	0,102	0,012
-598,298	-48,271	-0,082	0,029
-597,284	172,363	-0,015	-0,015
-596,269	84,888	0,142	0,115
-595,255	-120,295	-0,077	0,010
-594,240	800,000	-0,031	-0,073
-593,225	-200,000	0,007	-0,188
-592,211	-33,679	0,121	-0,049
-591,196	406,144	0,096	0,150
-590,182	800,000	0,032	-0,079
-589,167	800,000	0,028	-0,079
-588,152	800,000	-0,022	-0,068
-587,138	-93,691	0,050	0,010
-586,123	-0,681	0,039	-0,021
-585,109	-52,627	0,142	-0,048
-584,094	800,000	-0,029	-0,071
-583,079	-200,000	-0,005	-0,179
-582,065	-200,000	0,006	-0,077
-581,050	-200,000	-0,008	0,055
-580,036	385,276	-0,028	-0,042
-579,021	-200,000	0,008	-0,053
-578,006	62,078	-0,067	-0,049
-576,992	-5,928	0,118	-0,059
-575,977	117,371	-0,098	0,088
-574,963	168,568	0,063	0,066
-573,948	478,835	-0,065	0,108
-572,934	800,000	-0,044	-0,097
-571,919	-107,404	0,125	0,020
-570,904	-122,623	-0,159	-0,019
-569,890	-200,000	-0,028	0,125
-568,875	-34,625	0,075	-0,030
-567,861	537,544	-0,043	0,075
-566,846	-200,000	0,032	-0,120
-565,831	-80,219	-0,037	-0,009
-564,817	-196,053	-0,119	-0,001
-563,802	-114,143	-0,037	0,005
-562,788	-74,183	-0,031	0,008
-561,773	-200,000	-0,024	-0,081
-560,758	13,848	-0,045	0,026
-559,744	52,888	-0,031	-0,022
-558,729	390,350	0,043	0,066
-557,715	34,771	-0,053	-0,034
-556,700	31,603	0,039	-0,025
-555,685	-68,358	-0,084	-0,024
-554,671	800,000	-0,054	0,145
-553,656	-71,200	0,127	0,035
-552,642	-200,000	-0,034	0,125
-551,627	524,909	-0,076	-0,132
-550,612	-26,344	-0,077	-0,033
-549,598	-109,978	-0,094	-0,014
-548,583	-200,000	0,026	-0,157
-547,569	800,000	0,029	-0,070
-546,554	492,935	0,078	0,132
-545,539	430,813	0,095	0,152
-544,525	557,624	0,028	0,050
-543,510	-200,000	0,001	0,085
-542,496	187,358	0,098	-0,108
-541,481	33,074	-0,130	0,083
-540,466	-79,932	-0,115	-0,028
-539,452	-2,443	0,095	-0,049
-538,437	-200,000	-0,003	0,010
-537,423	-139,546	-0,037	-0,003
-536,408	366,567	0,044	-0,066
-535,393	-136,091	-0,036	-0,003
-534,379	800,000	0,053	-0,169
-533,364	-94,633	0,059	0,012
-532,350	-4,087	-0,115	-0,058
-531,335	-200,000	-0,035	0,136
-530,321	489,230	0,036	0,060
-529,306	-34,925	-0,113	0,045
-528,291	-200,000	-0,001	0,004
-527,277	-200,000	0,013	-0,089
-526,262	43,706	0,034	-0,023
-525,248	-1,684	0,170	0,088
-524,233	1,624	-0,132	-0,070
-523,218	223,287	0,092	0,109
-522,204	133,353	0,082	-0,078
-521,189	-3,997	-0,073	-0,037
-520,175	654,119	-0,026	-0,050
-519,160	-200,000	-0,007	-0,084
-518,145	-200,000	-0,008	-0,037
-517,131	800,000	-0,025	0,077
-516,116	-87,776	-0,127	0,028
-515,102	302,398	-0,048	0,066
-514,087	62,161	-0,059	0,043
-513,072	167,688	0,003	0,003
-512,058	430,561	0,025	0,041
-511,043	-173,945	0,085	0,002
-510,029	-24,582	0,138	-0,060
-509,014	118,175	0,018	-0,017
-507,999	-94,760	-0,043	0,008
-506,985	284,193	-0,054	-0,072
-505,970	-200,000	0,001	-0,023
-504,956	83,289	0,036	-0,028
-503,941	-158,764	0,077	-0,003
-502,926	-200,000	-0,002	-0,045
-501,912	-62,562	-0,016	-0,005
-500,897	-200,000	-0,012	-0,109
-499,883	43,763	-0,033	-0,022
-498,868	321,923	-0,045	0,063
-497,853	-200,000	0,003	-0,053
-496,839	32,274	-0,064	-0,040
-495,824	-200,000	0,024	-0,119
-494,810	800,000	-0,015	0,042
-493,795	306,159	-0,030	-0,042
-492,781	449,061	-0,057	0,093
-491,766	328,862	-0,061	-0,087
-490,751	-144,342	-0,108	-0,007
-489,737	86,827	0,024	0,019
-488,722	-200,000	0,027	0,137
-487,708	223,697	-0,071	0,084
-486,693	130,031	0,059	0,055
-485,678	-40,111	0,064	0,024
-484,664	126,847	-0,136	-0,126
-483,649	207,521	0,017	-0,019
-482,635	64,928	0,052	-0,039
-481,620	-46,706	0,163	-0,058
-480,605	-200,000	-0,027	0,099
-479,591	-34,555	0,080	-0,032
-478,576	-200,000	0,001	-0,155
-477,562	-77,130	-0,096	0,024
-476,547	363,618	-0,118	-0,174
-475,532	80,012	0,035	-0,027
-474,518	-200,000	-0,005	-0,051
-473,503	-49,602	0,053	0,018
-472,489	709,764	0,054	-0,106
-471,474	19,333	-0,053	-0,031
-470,459	800,000	0,027	0,059
-469,445	-48,893	0,023	0,008
-468,430	-200,000	0,004	-0,054
-467,416	111,266	0,085	-0,075
-466,401	36,424	0,134	0,087
-465,386	-95,803	0,110	-0,021
-464,372	-200,000	0,001	0,106
-463,357	181,174	0,023	-0,024
-462,343	800,000	0,047	0,098
-461,328	43,971	0,032	0,021
-460,313	-104,354	-0,028	0,005
-459,299	407,188	-0,070	0,108
-458,284	128,823	0,077	-0,072
-457,270	-200,000	0,034	0,155
-456,255	800,000	0,005	0,012
-455,241	281,857	-0,076	-0,100
-454,226	-53,382	-0,182	0,061
-453,211	-19,695	-0,039	0,018
-452,197	-131,793	-0,092	-0,009
-451,182	-148,419	-0,078	0,005
-450,168	800,000	-0,050	-0,139
-449,153	-180,004	-0,046	0,001
-448,138	-162,799	-0,137	0,005
-447,124	35,517	0,024	0,015
-446,109	-69,423	-0,084	-0,023
-445,095	423,877	-0,083	-0,132
-444,080	328,077	0,063	0,088
-443,065	800,000	0,056	0,166
-442,051	-200,000	-0,006	0,029
-441,036	-22,437	0,106	-0,047
-440,022	-101,055	-0,060	0,011
-439,007	-187,758	0,052	0,000
-437,992	334,302	0,046	0,066
-436,978	781,619	0,026	0,053
-435,963	-200,000	0,018	0,086
-434,949	223,542	-0,055	0,065
-433,934	-88,210	-0,132	0,029
-432,919	-41,702	0,120	0,045
-431,905	144,667	0,035	0,034
-430,890	-34,743	0,106	-0,042
-429,876	-35,620	0,105	0,042
-428,861	665,411	-0,040	0,076
-427,846	276,458	-0,062	0,081
-426,832	325,888	-0,079	-0,111
-425,817	800,000	-0,043	-0,089
-424,803	226,822	0,040	0,047
-423,788	-35,122	-0,014	0,006
-422,773	-47,421	0,106	0,038
-421,759	-176,921	-0,080	-0,001
-420,744	-200,000	-0,025	0,227
-419,730	513,116	-0,033	0,057
-418,715	-200,000	-0,003	-0,017
-417,701	320,495	0,042	0,058
-416,686	26,753	0,036	-0,022
-415,671	-200,000	-0,016	-0,072
-414,657	406,763	-0,047	-0,073
-413,642	-166,232	0,232	-0,007
-412,628	312,839	0,026	0,036
-411,613	236,473	-0,043	-0,053
-410,598	129,846	-0,050	-0,047
-409,584	91,897	0,017	0,014
-408,569	800,000	0,085	0,214
-407,555	-24,096	0,116	0,051
-406,540	19,152	0,173	0,101
-405,525	-41,660	0,113	0,042
-404,511	-121,970	-0,186	0,022
-403,496	-200,000	-0,033	-0,190
-402,482	-83,052	-0,052	-0,012
-401,467	43,199	0,097	0,065
-400,452	-200,000	0,010	0,145
-399,438	10,416	0,063	-0,035
-398,423	62,632	-0,022	0,016
-397,409	306,674	0,052	0,071
-396,394	800,000	0,061	-0,155
-395,379	669,673	0,052	0,099
-394,365	-104,547	-0,086	0,014
-393,350	-40,309	-0,089	-0,034
-392,336	110,068	-0,050	0,044
-391,321	-46,763	-0,034	0,012
-390,306	83,422	0,108	0,086
-389,292	457,893	-0,060	-0,098
-388,277	-200,000	0,001	-0,003
-387,263	615,117	-0,037	0,068
-386,248	120,022	0,019	-0,017
-385,233	29,547	-0,028	0,017
-384,219	800,000	0,048	0,144
-383,204	800,000	-0,030	0,062
-382,190	-200,000	-0,030	-0,177
-381,175	207,632	0,059	-0,067
-380,160	-200,000	0,009	-0,062
-379,146	459,857	-0,041	0,067
-378,131	-15,370	0,119	-0,055
-377,117	-194,060	-0,098	-0,001
-376,102	409,853	-0,048	0,075
-375,088	-96,443	0,055	-0,011
-374,073	221,973	-0,062	0,073
-373,058	-200,000	0,026	0,129
-372,044	-96,129	0,165	0,032
-371,029	-7,501	-0,091	-0,045
-370,015	-142,741	-0,084	0,006
-369,000	800,000	-0,024	0,059
-367,985	-200,000	0,041	0,194
-366,971	-9,113	-0,021	-0,010
-365,956	556,547	0,023	0,040
-364,942	101,406	-0,041	0,035
-363,927	800,000	-0,076	0,168
-362,912	-17,667	-0,037	-0,017
-361,898	46,324	-0,084	0,057
-360,883	-116,736	0,030	-0,004
-359,869	795,103	0,039	0,079
-358,854	800,000	-0,011	0,031
-357,839	-123,807	-0,038	0,004
-356,825	800,000	0,037	0,086
-355,810	-44,486	0,041	-0,015
-354,796	-165,138	0,025	-0,001
-353,781	431,925	-0,028	0,045
-352,766	114,270	0,073	0,065
-351,752	-200,000	-0,027	0,131
-350,737	112,185	-0,027	-0,024
-349,723	345,514	0,048	-0,069
-348,708	199,229	0,123	0,138
-347,693	533,661	0,012	0,021
-346,679	363,733	-0,046	0,068
-345,664	23,304	-0,059	0,035
-344,650	-200,000	0,017	0,085
-343,635	-47,208	0,078	0,028
-342,620	-200,000	0,030	0,129
-341,606	-31,559	0,088	0,036
-340,591	-100,723	0,057	0,010
-339,577	260,307	-0,064	-0,081
-338,562	-28,177	0,059	-0,025
-337,548	267,346	-0,067	-0,086
-336,533	-84,617	0,139	-0,032
-335,518	-200,000	-0,009	0,069
-334,504	-4,462	-0,058	-0,029
-333,489	-2,656	-0,120	-0,061
-332,475	800,000	0,046	0,100
-331,460	-23,347	0,064	-0,028
-330,445	800,000	-0,029	0,076
-329,431	27,513	-0,042	0,026
-328,416	-96,995	0,146	0,028
-327,402	516,348	-0,009	-0,015
-326,387	14,705	-0,049	-0,028
-325,372	14,653	-0,128	-0,073
-324,358	800,000	-0,028	-0,085
-323,343	-40,313	-0,046	0,017
-322,329	-200,000	-0,019	-0,112
-321,314	-71,786	0,035	-0,010
-320,299	240,478	-0,157	0,191
-319,285	-200,000	0,005	0,038
-318,270	-54,663	0,127	-0,042
-317,256	73,601	0,103	-0,078
-316,241	-162,666	-0,099	-0,003
-315,226	-60,401	0,016	0,005
-314,212	92,291	0,089	0,073
-313,197	-61,846	-0,087	0,026
-312,183	-200,000	0,029	0,157
-311,168	175,022	0,039	-0,041
-310,153	-200,000	-0,023	-0,127
-309,139	-95,934	-0,155	0,030
-308,124	800,000	-0,026	0,069
-307,110	-145,254	0,162	0,011
-306,095	19,424	-0,074	-0,043
-305,080	405,772	-0,053	0,082
-304,066	-200,000	0,014	-0,059
-303,051	-25,247	-0,128	-0,055
-302,037	24,425	0,026	0,015
-301,022	202,838	-0,060	0,067
-300,008	-2,990	0,070	-0,036
-298,993	-55,020	0,059	0,019
-297,978	-132,874	-0,134	0,012
-296,964	800,000	-0,106	-0,226
-295,949	602,885	-0,097	-0,176
-294,935	-173,063	-0,125	-0,003
-293,920	82,557	0,053	0,042
-292,905	302,387	0,094	0,126
-291,891	2,335	0,128	-0,067
-290,876	-130,448	-0,053	-0,005
-289,862	-77,486	-0,065	0,016
-288,847	-200,000	0,018	-0,103
-287,832	-57,081	-0,078	-0,025
-286,818	531,619	0,017	0,030
-285,803	-85,505	0,045	-0,010
-284,789	154,878	0,091	0,092
-283,774	133,822	-0,091	0,086
-282,759	-79,700	-0,068	0,017
-281,745	-60,668	0,075	-0,023
-280,730	-200,000	-0,029	-0,142
-279,716	530,326	-0,071	-0,122
-278,701	53,494	0,069	0,048
-277,686	-200,000	-0,017	0,093
-276,672	9,832	0,064	-0,035
-275,657	77,933	-0,046	-0,036
-274,643	-200,000	0,004	-0,078
-273,628	-200,000	0,074	-0,249
-272,613	800,000	0,013	-0,032
-271,599	140,729	0,046	-0,044
-270,584	543,324	0,045	-0,079
-269,570	696,647	0,081	0,155
-268,555	-56,979	0,057	0,018
-267,540	-22,512	0,140	0,061
-266,526	246,518	-0,056	0,069
-265,511	-200,000	-0,019	-0,065
-264,497	-86,995	-0,059	0,013
-263,482	-200,000	0,020	0,147
-262,467	800,000	0,067	0,137
-261,453	-106,954	-0,061	0,010
-260,438	-200,000	0,010	-0,195
-259,424	-200,000	-0,033	-0,189
-258,409	436,623	-0,072	-0,115
-257,395	800,000	0,022	-0,058
-256,380	-122,276	0,109	-0,013
-255,365	576,547	0,040	-0,071
-254,351	800,000	0,041	-0,103
-253,336	266,437	0,024	-0,030
-252,322	113,891	-0,061	0,054
-251,307	27,118	0,034	-0,021
-250,292	544,607	0,033	0,058
-249,278	-200,000	0,029	0,145
-248,263	800,000	-0,018	-0,048
-247,249	-80,049	0,077	0,019
-246,234	-97,054	-0,107	-0,020
-245,219	-56,519	0,094	-0,030
-244,205	40,291	-0,074	0,048
-243,190	46,884	-0,086	0,058
-242,176	5,870	0,121	0,065
-241,161	306,114	-0,030	0,041
-240,146	-104,717	-0,120	-0,020
-239,132	-200,000	0,026	-0,162
-238,117	325,583	-0,087	-0,121
-237,103	0,970	0,086	-0,045
-236,088	40,035	-0,046	0,030
-235,073	233,646	0,040	0,048
-234,059	-79,976	0,149	0,036
-233,044	54,391	0,052	-0,037
-232,030	230,601	0,012	0,014
-231,015	262,702	-0,018	0,022
-230,000	800,000	0,037	-0,086
-228,986	652,703	-0,020	0,037
-227,971	-200,000	-0,013	0,097
-226,957	173,825	-0,055	-0,058
-225,942	-2,226	-0,032	-0,016
-224,927	-200,000	-0,026	0,138
-223,913	27,833	-0,024	-0,015
-222,898	800,000	-0,036	-0,097
-221,884	-200,000	0,023	-0,090
-220,869	-200,000	0,001	0,090
-219,855	122,417	0,120	0,109
-218,840	72,828	0,054	0,041
-217,825	9,904	0,142	0,078
-216,811	-200,000	0,013	0,124
-215,796	133,188	-0,037	-0,034
-214,782	45,599	-0,086	0,057
-213,767	185,060	0,134	0,144
-212,752	-100,761	0,120	-0,021
-211,738	-200,000	-0,006	-0,092
-210,723	-28,163	0,110	-0,046
-209,709	-113,803	-0,109	-0,015
-208,694	-67,494	-0,170	-0,048
-207,679	111,569	0,055	-0,048
-206,665	-200,000	0,001	-0,056
-205,650	800,000	0,017	-0,038
-204,636	-200,000	-0,001	-0,077
-203,621	67,564	-0,089	0,066
-202,606	-69,207	-0,158	-0,044
-201,592	-62,904	0,118	0,035
-200,577	300,758	0,076	0,102
-199,563	-52,424	-0,018	0,006
-198,548	-36,059	0,175	0,068
-197,533	-200,000	-0,002	-0,083
-196,519	161,275	0,048	-0,049
-195,504	-78,145	-0,099	-0,025
-194,490	800,000	-0,029	-0,086
-193,475	431,562	-0,082	-0,129
-192,460	-98,791	-0,070	0,013
-191,446	-88,140	0,093	-0,020
-190,431	-137,069	-0,098	-0,008
-189,417	-200,000	0,016	-0,098
-188,402	-200,000	0,029	-0,095
-187,387	800,000	-0,024	-0,062
-186,373	-71,731	-0,159	0,043
-185,358	800,000	-0,032	-0,072
-184,344	92,461	0,119	0,097
-183,329	-4,414	-0,090	-0,045
-182,315	264,772	0,041	0,053
-181,300	146,607	-0,099	0,096
-180,285	-91,102	0,109	0,022
-179,271	-200,000	-0,006	0,030
-178,256	-131,102	-0,055	0,005
-177,242	-109,163	0,133	0,020
-176,227	-60,672	-0,163	0,050
-175,212	-200,000	0,016	-0,056
-174,198	119,183	0,141	0,127
-173,183	-175,151	-0,228	-0,004
-172,169	49,655	0,176	-0,120
-171,154	-22,016	0,047	-0,021
-170,139	-28,514	0,067	0,028
-169,125	-200,000	0,039	0,163
-168,110	-115,280	0,155	0,021
-167,096	-94,489	0,126	-0,025
-166,081	-200,000	0,012	-0,146
-165,066	-165,487	-0,155	0,005
-164,052	35,365	-0,039	-0,025
-163,037	518,235	-0,057	-0,098
-162,023	-4,989	0,037	-0,018
-161,008	-7,406	-0,090	0,044
-159,993	-200,000	0,016	-0,095
-158,979	82,863	-0,078	0,061
-157,964	161,154	-0,082	-0,083
-156,950	-200,000	0,050	0,166
-155,935	325,137	-0,017	0,024
-154,920	-136,275	-0,080	0,007
-153,906	800,000	-0,023	0,048
-152,891	208,690	-0,050	0,056
-151,877	-200,000	-0,135	0,000
-150,862	280,017	0,022	-0,029
-149,847	46,916	-0,127	0,086
-148,833	50,703	0,067	-0,046
-147,818	-63,717	0,037	0,011
-146,804	-7,302	0,110	0,054
-145,789	109,631	0,068	0,059
-144,775	737,179	-0,098	0,191
-143,760	441,834	-0,054	-0,086
-142,745	631,019	0,044	0,080
-141,731	-169,727	0,049	0,001
-140,716	-200,000	0,019	0,079
-139,702	360,215	0,110	0,160
-138,687	420,233	-0,023	0,036
-137,672	154,268	-0,107	-0,106
-136,658	44,901	-0,060	0,040
-135,643	266,339	0,090	-0,115
-134,629	-200,000	-0,009	-0,058
-133,614	187,454	0,085	0,092
-132,599	-200,000	0,057	0,000
-131,585	-73,523	-0,023	-0,006
-130,570	-200,000	-0,005	-0,134
-129,556	73,863	-0,069	0,052
-128,541	800,000	-0,017	0,049
-127,526	-127,068	0,048	0,005
-126,512	-138,296	0,095	0,008
-125,497	-10,223	0,137	0,066
-124,483	-200,000	0,024	-0,080
-123,468	67,206	-0,066	-0,048
-122,453	204,924	0,076	0,085
-121,439	-25,915	-0,112	-0,048
-120,424	800,000	0,031	-0,072
-119,410	-200,000	0,031	-0,215
-118,395	101,663	-0,043	0,036
