DTS Sentinel unit serial number:	SN410029Multiplexer serial number:	ORYXHardware model number:	OX2-SRSoftware version number:	ORYX F/W v4,00 Oryx Data Collector v3.7.2.0data status	okinstallation	B6 Nyhavnadifferential loss correction	single-endedforward channel	channel 2reverse channel	N/Adate	2023/12/10time	06:20:08forward acquisition time	300,00reverse acquisition time	0,00gamma	499,1914k internal	0,3123k external	0,3123temperature offset calibration	1,0000default loss term (dB/km)	0,3820temperature slope calibration	1,0000multiplexer offset coefficient	1,0000multiplexer slope coefficient	1,0000fibre end	0,00T internal ref (°C)	22,57T ext. ref 1 (°C)	6,47T ext. ref 2 (°C)	6,46length (m)	temperature (°C)	Stokes	anti-Stokes-744,400	-200,000	0,001	-0,045
-743,385	-166,617	-0,151	-0,005
-742,371	-3,270	-0,174	0,090
-741,356	74,824	-0,189	0,149
-740,342	380,675	0,067	-0,102
-739,327	51,026	-0,286	0,202
-738,312	135,610	-0,008	0,008
-737,298	93,327	-0,202	0,170
-736,283	400,260	0,030	-0,047
-735,269	-53,098	-0,101	0,035
-734,254	448,222	-0,034	0,056
-733,239	-40,403	-0,292	-0,112
-732,225	28,399	0,104	-0,065
-731,210	438,392	-0,061	0,100
-730,196	220,655	-0,077	0,092
-729,181	-43,270	0,047	-0,018
-728,167	-200,000	-0,008	-0,075
-727,152	153,273	0,049	-0,050
-726,137	-109,097	-0,017	0,003
-725,123	167,865	-0,073	-0,077
-724,108	155,974	-0,156	-0,160
-723,094	800,000	-0,033	-0,068
-722,079	800,000	-0,030	-0,087
-721,064	291,202	-0,041	0,056
-720,050	-200,000	-0,000	0,002
-719,035	-103,795	-0,084	-0,014
-718,021	599,700	-0,082	-0,152
-717,006	146,529	0,030	-0,030
-715,991	255,835	0,078	-0,099
-714,977	-200,000	-0,022	0,116
-713,962	170,343	-0,086	-0,091
-712,948	18,947	0,068	-0,041
-711,933	-42,694	-0,075	0,028
-710,918	-133,737	0,024	0,002
-709,904	188,696	-0,028	0,031
-708,889	-11,664	0,076	0,037
-707,875	-139,793	-0,079	-0,006
-706,860	800,000	0,096	0,202
-705,845	60,609	0,013	0,009
-704,831	254,158	0,110	0,140
-703,816	48,299	0,024	0,017
-702,802	800,000	-0,120	-0,258
-701,787	5,812	-0,244	-0,134
-700,772	-200,000	-0,000	0,112
-699,758	800,000	-0,057	0,156
-698,743	-200,000	-0,002	0,163
-697,729	800,000	-0,056	0,133
-696,714	-125,510	0,137	-0,015
-695,699	152,607	-0,145	0,148
-694,685	-5,313	0,073	0,037
-693,670	-27,108	-0,020	-0,009
-692,656	-129,642	0,124	-0,013
-691,641	-21,925	0,023	0,010
-690,627	-147,030	-0,140	-0,009
-689,612	-7,757	0,096	-0,048
-688,597	223,553	-0,099	0,119
-687,583	800,000	0,028	-0,086
-686,568	-200,000	0,003	-0,058
-685,554	-45,253	0,120	0,044
-684,539	500,488	0,012	0,021
-683,524	346,756	-0,056	0,082
-682,510	-64,886	-0,031	-0,009
-681,495	-60,155	-0,205	0,065
-680,481	-200,000	0,023	-0,084
-679,466	139,405	-0,057	-0,056
-678,451	343,192	0,024	0,035
-677,437	44,483	-0,059	0,040
-676,422	-125,309	0,018	0,002
-675,408	-200,000	0,067	0,269
-674,393	114,467	-0,032	-0,029
-673,378	213,248	-0,058	0,068
-672,364	52,864	-0,092	0,065
-671,349	316,059	-0,127	-0,179
-670,335	-96,892	-0,131	0,025
-669,320	80,320	0,069	0,055
-668,305	41,128	0,019	-0,012
-667,291	37,569	-0,069	-0,046
-666,276	-86,069	-0,129	-0,029
-665,262	-24,069	-0,101	-0,045
-664,247	8,958	-0,070	-0,039
-663,232	-200,000	0,003	0,063
-662,218	-177,881	0,096	0,002
-661,203	653,039	-0,032	0,061
-660,189	-39,309	0,061	0,024
-659,174	800,000	0,046	0,140
-658,159	597,030	0,031	0,057
-657,145	-200,000	-0,015	-0,227
-656,130	800,000	0,076	-0,160
-655,116	-130,472	0,169	-0,017
-654,101	-200,000	0,015	0,051
-653,086	800,000	0,013	-0,028
-652,072	-200,000	0,041	0,138
-651,057	-16,725	-0,095	-0,044
-650,043	-200,000	0,003	-0,059
-649,028	800,000	-0,015	-0,046
-648,014	399,246	0,036	0,056
-646,999	-3,622	0,132	0,068
-645,984	-200,000	0,018	-0,105
-644,970	-200,000	-0,024	-0,165
-643,955	-200,000	0,044	-0,231
-642,941	49,269	-0,082	0,057
-641,926	-200,000	0,015	-0,085
-640,911	169,440	0,087	-0,092
-639,897	-200,000	0,004	0,098
-638,882	-84,000	0,062	0,015
-637,868	-200,000	0,035	-0,135
-636,853	-200,000	0,010	-0,144
-635,838	-131,065	-0,124	-0,012
-634,824	800,000	0,037	0,097
-633,809	-200,000	0,026	-0,093
-632,795	133,836	0,113	0,109
-631,780	-60,421	-0,179	-0,056
-630,765	524,227	-0,012	0,021
-629,751	-89,586	-0,131	0,028
-628,736	-200,000	0,002	-0,124
-627,722	-200,000	0,006	0,090
-626,707	-50,038	0,082	0,029
-625,692	99,862	-0,032	0,028
-624,678	384,062	0,064	0,098
-623,663	155,417	-0,078	-0,079
-622,649	-190,169	-0,068	0,001
-621,634	800,000	-0,032	-0,088
-620,619	-200,000	0,013	-0,196
-619,605	-74,853	0,035	-0,009
-618,590	375,938	-0,081	0,122
-617,576	145,137	0,072	0,071
-616,561	495,692	-0,028	-0,048
-615,546	22,877	-0,124	-0,075
-614,532	197,999	0,047	-0,053
-613,517	63,943	-0,083	-0,062
-612,503	49,659	-0,097	0,067
-611,488	242,887	0,036	-0,045
-610,474	-200,000	0,004	0,116
-609,459	-40,673	-0,050	-0,019
-608,444	299,397	0,083	-0,113
-607,430	800,000	-0,028	0,067
-606,415	800,000	0,032	-0,098
-605,401	800,000	-0,037	-0,077
-604,386	-200,000	0,014	0,086
-603,371	800,000	-0,023	0,055
-602,357	105,117	0,016	0,014
-601,342	17,852	0,004	0,002
-600,328	-91,488	-0,060	-0,013
-599,313	298,361	-0,095	-0,129
-598,298	49,097	-0,142	-0,099
-597,284	-42,305	0,233	-0,088
-596,269	-118,335	-0,100	0,013
-595,255	-200,000	-0,023	0,203
-594,240	-32,075	0,061	0,025
-593,225	800,000	0,026	-0,065
-592,211	171,649	-0,045	-0,047
-591,196	87,923	0,066	-0,054
-590,182	800,000	0,014	0,046
-589,167	800,000	0,052	0,151
-588,152	-44,662	-0,038	-0,014
-587,138	20,710	-0,032	0,019
-586,123	-200,000	-0,010	-0,051
-585,109	-26,497	0,138	-0,060
-584,094	800,000	0,023	0,049
-583,079	-83,118	-0,066	-0,015
-582,065	800,000	0,015	0,032
-581,050	129,943	0,097	-0,092
-580,036	260,675	-0,083	0,106
-579,021	800,000	-0,020	-0,050
-578,006	182,136	0,025	0,027
-576,992	-200,000	-0,007	-0,100
-575,977	-80,695	0,065	0,016
-574,963	800,000	0,019	0,051
-573,948	-98,036	-0,046	-0,009
-572,934	503,352	-0,021	0,036
-571,919	192,738	-0,081	0,091
-570,904	-200,000	0,002	0,063
-569,890	-23,825	-0,073	0,032
-568,875	-102,901	0,049	-0,009
-567,861	800,000	-0,032	0,102
-566,846	108,035	0,061	-0,054
-565,831	461,464	-0,049	0,081
-564,817	-67,851	0,061	0,018
-563,802	46,267	-0,184	-0,126
-562,788	800,000	0,017	0,039
-561,773	106,852	0,068	0,060
-560,758	354,327	-0,032	0,048
-559,744	-200,000	-0,003	0,075
-558,729	216,988	-0,045	0,053
-557,715	79,283	-0,066	-0,052
-556,700	-200,000	-0,001	-0,049
-555,685	-24,419	-0,075	0,033
-554,671	-89,312	0,112	-0,024
-553,656	382,508	-0,005	0,008
-552,642	800,000	0,083	0,204
-551,627	228,075	-0,039	-0,047
-550,612	-124,017	0,103	0,012
-549,598	17,979	-0,102	-0,060
-548,583	380,804	-0,082	-0,125
-547,569	639,003	0,045	-0,084
-546,554	-200,000	0,031	0,105
-545,539	-200,000	0,006	0,180
-544,525	-22,451	-0,017	0,007
-543,510	800,000	-0,048	0,103
-542,496	-200,000	0,008	0,050
-541,481	-28,343	-0,109	-0,046
-540,466	371,292	-0,077	-0,116
-539,452	-200,000	-0,009	0,110
-538,437	-100,675	0,055	-0,010
-537,423	-39,802	-0,078	-0,030
-536,408	182,269	0,038	-0,042
-535,393	-96,582	-0,282	0,054
-534,379	184,745	0,030	0,033
-533,364	304,170	-0,071	-0,097
-532,350	800,000	0,009	-0,025
-531,335	-74,645	-0,121	-0,032
-530,321	88,968	0,049	0,040
-529,306	-200,000	-0,001	-0,063
-528,291	-200,000	0,001	-0,054
-527,277	-170,032	0,042	-0,001
-526,262	88,692	-0,062	-0,051
-525,248	-200,000	-0,005	-0,031
-524,233	-56,049	0,070	0,023
-523,218	530,143	-0,027	-0,047
-522,204	800,000	0,032	0,072
-521,189	800,000	-0,030	-0,080
-520,175	-53,041	-0,007	0,002
-519,160	29,190	0,093	-0,058
-518,145	800,000	0,033	0,107
-517,131	475,921	0,050	-0,084
-516,116	-200,000	0,028	0,168
-515,102	-171,099	0,009	0,000
-514,087	800,000	-0,020	0,043
-513,072	406,624	-0,054	0,084
-512,058	800,000	-0,040	-0,114
-511,043	397,005	-0,079	0,122
-510,029	490,428	-0,051	0,087
-509,014	-126,171	0,112	0,012
-507,999	21,309	-0,151	0,091
-506,985	-200,000	0,000	-0,082
-505,970	29,948	-0,077	0,049
-504,956	517,420	-0,090	-0,156
-503,941	-34,746	-0,054	0,022
-502,926	353,479	0,033	0,048
-501,912	-4,339	-0,055	-0,028
-500,897	-200,000	-0,006	0,091
-499,883	-10,605	-0,163	0,080
-498,868	-200,000	0,006	0,051
-497,853	-200,000	-0,004	-0,026
-496,839	262,067	-0,028	-0,036
-495,824	800,000	-0,031	0,087
-494,810	77,738	0,147	0,115
-493,795	-200,000	-0,007	0,122
-492,781	-200,000	-0,021	-0,134
-491,766	-200,000	-0,019	-0,084
-490,751	25,778	0,099	-0,060
-489,737	-200,000	0,034	-0,137
-488,722	78,690	0,028	0,022
-487,708	451,730	0,019	-0,031
-486,693	800,000	0,032	0,095
-485,678	8,661	-0,024	0,013
-484,664	626,465	0,034	-0,063
-483,649	265,536	0,041	0,053
-482,635	147,710	-0,067	-0,067
-481,620	-64,568	-0,032	-0,010
-480,605	-44,528	-0,072	-0,026
-479,591	-38,599	-0,059	0,023
-478,576	174,321	-0,056	-0,059
-477,562	53,103	-0,097	-0,069
-476,547	-200,000	-0,045	-0,152
-475,532	281,966	0,077	-0,102
-474,518	599,581	0,046	-0,084
-473,503	-40,551	-0,017	0,006
-472,489	23,936	-0,069	-0,042
-471,474	-200,000	-0,011	-0,068
-470,459	140,323	-0,050	0,048
-469,445	-200,000	-0,008	-0,110
-468,430	800,000	-0,034	0,073
-467,416	-65,214	0,123	0,036
-466,401	-51,371	0,100	0,034
-465,386	-3,103	0,128	0,065
-464,372	356,016	0,081	0,119
-463,357	-67,475	-0,090	-0,026
-462,343	-200,000	0,004	-0,066
-461,328	84,888	-0,117	-0,095
-460,313	-200,000	-0,001	-0,097
-459,299	800,000	-0,072	0,149
-458,284	-64,521	0,063	0,019
-457,270	35,437	0,058	0,037
-456,255	-10,866	0,065	0,031
-455,241	-76,942	-0,167	0,043
-454,226	-0,368	0,010	-0,005
-453,211	-64,323	-0,102	0,030
-452,197	-200,000	0,012	-0,192
-451,182	-84,779	0,081	0,019
-450,168	114,858	0,046	-0,041
-449,153	56,739	-0,056	-0,040
-448,138	128,691	-0,015	-0,014
-447,124	490,821	-0,011	-0,018
-446,109	800,000	0,024	-0,076
-445,095	-166,141	0,101	0,003
-444,080	560,249	0,071	0,127
-443,065	-200,000	0,039	0,145
-442,051	-111,534	0,145	-0,021
-441,036	86,221	0,048	-0,039
-440,022	233,324	-0,060	-0,072
-439,007	477,376	0,078	-0,131
-437,992	143,488	0,045	-0,044
-436,978	346,321	0,068	0,099
-435,963	515,639	0,064	-0,110
-434,949	-195,781	-0,073	-0,000
-433,934	210,027	-0,061	-0,071
-432,919	45,622	-0,037	-0,025
-431,905	-121,690	0,168	-0,020
-430,890	-11,207	-0,055	-0,027
-429,876	79,463	0,068	0,054
-428,861	-200,000	0,008	0,044
-427,846	-200,000	-0,006	-0,021
-426,832	-82,888	-0,095	-0,022
-425,817	800,000	-0,045	-0,117
-424,803	800,000	0,005	0,014
-423,788	689,213	0,077	0,149
-422,773	115,382	0,177	0,159
-421,759	239,829	0,015	0,018
-420,744	-112,795	0,028	-0,004
-419,730	39,223	0,065	-0,042
-418,715	248,859	0,012	-0,015
-417,701	29,036	-0,124	-0,077
-416,686	-200,000	-0,003	0,110
-415,671	-159,778	0,057	0,002
-414,657	-116,462	0,033	-0,004
-413,642	490,194	0,043	-0,072
-412,628	58,868	-0,057	-0,041
-411,613	-8,204	-0,121	-0,060
-410,598	576,639	0,009	0,016
-409,584	-200,000	-0,031	0,105
-408,569	-91,299	-0,074	-0,015
-407,555	221,486	0,055	0,065
-406,540	-45,355	-0,086	-0,031
-405,525	-200,000	-0,012	-0,041
-404,511	261,588	-0,121	0,155
-403,496	219,177	-0,076	-0,090
-402,482	10,427	0,122	-0,068
-401,467	-68,411	0,067	0,019
-400,452	800,000	0,073	0,158
-399,438	800,000	-0,031	0,079
-398,423	102,376	0,033	-0,028
-397,409	-92,579	-0,090	0,018
-396,394	-200,000	0,019	-0,074
-395,379	-101,365	0,063	0,011
-394,365	226,241	0,063	-0,075
-393,350	-9,808	0,144	-0,070
-392,336	-200,000	0,022	-0,152
-391,321	202,613	-0,056	0,064
-390,306	430,462	-0,026	0,042
-389,292	-64,494	0,090	-0,027
-388,277	265,641	0,017	0,022
-387,263	682,245	-0,075	-0,144
-386,248	800,000	0,089	-0,185
-385,233	622,074	-0,047	0,088
-384,219	24,882	-0,081	0,049
-383,204	-56,229	-0,082	-0,027
-382,190	800,000	-0,062	-0,143
-381,175	-200,000	-0,014	-0,046
-380,160	-200,000	0,031	0,131
-379,146	-146,318	-0,097	-0,006
-378,131	473,400	-0,025	0,041
-377,117	-200,000	-0,007	-0,063
-376,102	134,621	0,030	0,028
-375,088	88,387	0,050	-0,040
-374,073	170,627	-0,091	-0,096
-373,058	489,392	-0,044	-0,074
-372,044	100,865	0,090	-0,077
-371,029	-58,178	-0,104	0,033
-370,015	271,101	0,064	0,083
-369,000	62,556	0,108	-0,079
-367,985	74,231	-0,040	-0,031
-366,971	371,722	-0,042	-0,062
-365,956	234,919	-0,041	0,050
-364,942	-200,000	0,021	0,084
-363,927	-200,000	0,004	-0,017
-362,912	373,565	0,047	0,071
-361,898	221,801	-0,153	0,181
-360,883	189,784	0,009	0,010
-359,869	5,383	0,067	0,036
-358,854	800,000	0,033	0,091
-357,839	-200,000	-0,022	0,101
-356,825	-38,773	0,083	-0,032
-355,810	-200,000	0,006	0,053
-354,796	-200,000	0,022	-0,114
-353,781	-116,097	-0,128	-0,017
-352,766	-200,000	0,029	-0,126
-351,752	-200,000	-0,008	0,033
-350,737	106,302	0,143	0,124
-349,723	288,740	0,058	-0,078
-348,708	800,000	0,048	0,142
-347,693	800,000	-0,027	-0,081
-346,679	0,658	-0,095	0,049
-345,664	-200,000	-0,015	0,067
-344,650	-6,185	0,082	-0,041
-343,635	-199,890	0,047	0,000
-342,620	279,146	-0,023	0,030
-341,606	74,497	0,058	0,045
-340,591	-78,963	-0,100	-0,025
-339,577	29,920	-0,061	-0,038
-338,562	-200,000	-0,009	-0,110
-337,548	77,918	0,037	-0,029
-336,533	394,774	0,040	-0,062
-335,518	-187,134	-0,039	0,000
-334,504	404,256	-0,102	0,158
-333,489	609,150	-0,048	-0,089
-332,475	-114,912	-0,047	-0,006
-331,460	297,689	-0,016	-0,021
-330,445	-152,594	0,140	-0,007
-329,431	228,108	0,050	0,060
-328,416	-148,502	0,086	0,005
-327,402	230,458	0,067	0,081
-326,387	311,214	-0,106	0,146
-325,372	555,674	-0,027	-0,048
-324,358	800,000	-0,047	-0,104
-323,343	41,182	-0,088	0,058
-322,329	-59,157	-0,049	0,015
-321,314	97,138	0,028	-0,023
-320,299	800,000	-0,058	-0,138
-319,285	203,991	-0,067	-0,076
-318,270	169,422	0,080	-0,083
-317,256	-200,000	0,035	0,126
-316,241	-41,372	0,078	-0,029
-315,226	-91,188	0,035	0,007
-314,212	-200,000	0,034	0,134
-313,197	200,164	-0,043	0,049
-312,183	-31,498	-0,014	-0,006
-311,168	-200,000	-0,001	-0,033
-310,153	-41,193	0,070	0,026
-309,139	693,554	-0,051	0,099
-308,124	248,028	0,048	-0,060
-307,110	102,681	0,078	0,067
-306,095	581,899	-0,071	0,128
-305,080	-200,000	0,001	0,083
-304,066	-200,000	0,017	-0,062
-303,051	-200,000	-0,047	-0,176
-302,037	230,612	0,053	-0,064
-301,022	51,354	0,042	-0,029
-300,008	-200,000	-0,002	0,034
-298,993	800,000	0,061	-0,140
-297,978	-143,686	0,101	0,007
-296,964	127,018	0,114	0,105
-295,949	800,000	0,027	0,075
-294,935	-127,087	-0,042	0,004
-293,920	800,000	0,031	0,092
-292,905	-107,330	0,084	-0,013
-291,891	-164,078	-0,072	0,002
-290,876	-200,000	0,025	0,133
-289,862	148,679	0,042	-0,041
-288,847	-200,000	0,012	0,120
-287,832	-132,935	0,038	-0,003
-286,818	-132,671	-0,025	0,002
-285,803	-200,000	0,009	0,081
-284,789	-70,458	-0,080	0,022
-283,774	-200,000	-0,010	0,120
-282,759	800,000	0,015	-0,044
-281,745	-200,000	0,011	0,039
-280,730	290,758	0,052	-0,069
-279,716	-28,182	0,055	0,023
-278,701	800,000	-0,038	-0,111
-277,686	-200,000	0,023	-0,088
-276,672	446,980	-0,029	0,047
-275,657	55,304	-0,055	0,039
-274,643	58,863	-0,127	0,092
-273,628	-200,000	0,031	0,112
-272,613	-7,566	-0,100	0,050
-271,599	253,995	0,067	0,083
-270,584	-18,118	-0,093	0,043
-269,570	-74,551	-0,049	0,013
-268,555	-200,000	0,008	0,160
-267,540	800,000	0,005	0,013
-266,526	-200,000	0,005	-0,132
-265,511	51,409	-0,157	-0,109
-264,497	-30,745	0,112	-0,046
-263,482	800,000	-0,047	0,124
-262,467	510,155	0,049	0,085
-261,453	-77,923	0,071	-0,018
-260,438	-130,552	0,076	0,007
-259,424	800,000	0,006	-0,013
-258,409	-200,000	-0,013	-0,043
-257,395	-183,226	-0,095	-0,001
-256,380	-144,392	0,025	0,002
-255,365	-200,000	-0,005	0,072
-254,351	295,599	0,071	0,095
-253,336	62,429	0,059	0,043
-252,322	-200,000	0,023	-0,093
-251,307	-200,000	-0,001	-0,047
-250,292	-67,805	-0,027	-0,008
-249,278	800,000	0,077	0,172
-248,263	61,252	-0,116	0,085
-247,249	-200,000	-0,023	-0,209
-246,234	56,361	0,146	0,104
-245,219	-200,000	-0,007	-0,037
-244,205	178,090	-0,076	-0,081
-243,190	97,059	-0,152	-0,127
-242,176	168,284	0,032	-0,033
-241,161	19,232	0,070	0,041
-240,146	349,249	-0,021	0,031
-239,132	228,246	-0,053	0,063
-238,117	144,617	0,036	0,035
-237,103	-10,292	0,066	0,032
-236,088	798,662	-0,030	-0,061
-235,073	200,768	-0,083	-0,093
-234,059	-200,000	-0,005	-0,119
-233,044	800,000	0,022	0,068
-232,030	-200,000	-0,009	-0,156
-231,015	-200,000	-0,009	0,067
-230,000	-120,526	0,157	0,019
-228,986	-77,799	0,113	-0,028
-227,971	532,960	0,053	-0,092
-226,957	717,711	0,060	0,117
-225,942	800,000	0,028	0,081
-224,927	-200,000	0,012	0,046
-223,913	800,000	-0,052	0,110
-222,898	5,973	-0,026	-0,014
-221,884	800,000	-0,054	-0,126
-220,869	-200,000	0,016	0,139
-219,855	76,259	0,099	-0,077
-218,840	-200,000	0,017	-0,100
-217,825	-139,879	-0,062	0,005
-216,811	56,967	-0,055	-0,039
-215,796	-200,000	0,020	-0,109
-214,782	131,020	-0,104	-0,097
-213,767	-96,982	0,032	0,006
-212,752	20,814	0,098	-0,058
-211,738	800,000	0,010	0,022
-210,723	-141,702	0,099	-0,007
-209,709	51,742	0,020	-0,014
-208,694	-200,000	-0,020	-0,166
-207,679	-54,881	0,077	-0,025
-206,665	406,470	0,064	0,099
-205,650	-102,763	0,145	0,025
-204,636	421,682	0,066	-0,103
-203,621	176,517	0,074	-0,078
-202,606	612,039	-0,022	-0,041
-201,592	200,388	0,011	-0,012
-200,577	-200,000	0,004	0,015
-199,563	-200,000	-0,017	0,000
-198,548	-38,052	0,035	0,013
-197,533	-41,672	-0,048	0,018
-196,519	234,636	0,095	0,115
-195,504	-200,000	0,001	-0,032
-194,490	-120,216	0,139	-0,017
-193,475	-106,885	-0,048	-0,008
-192,460	725,963	-0,029	0,057
-191,446	144,828	0,074	-0,073
-190,431	-183,192	-0,069	-0,001
-189,417	27,817	0,113	0,069
-188,402	467,419	-0,066	0,108
-187,387	-128,090	-0,064	0,007
-186,373	800,000	-0,005	0,012
-185,358	118,806	-0,100	-0,090
-184,344	-200,000	0,006	0,101
-183,329	-200,000	0,003	-0,049
-182,315	261,823	-0,017	-0,021
-181,300	191,757	0,049	-0,054
-180,285	-200,000	-0,021	-0,163
-179,271	-200,000	-0,016	0,194
-178,256	800,000	-0,041	0,093
-177,242	45,438	-0,070	-0,047
-176,227	-133,367	0,163	0,015
-175,212	156,737	0,087	0,088
-174,198	-200,000	-0,028	0,119
-173,183	-200,000	0,012	0,049
-172,169	-48,468	-0,092	0,032
-171,154	800,000	-0,028	-0,059
-170,139	-59,543	-0,053	0,017
-169,125	-121,748	-0,017	0,002
-168,110	127,793	0,088	-0,081
-167,096	315,665	-0,055	0,076
-166,081	273,565	-0,056	0,072
-165,066	141,762	-0,109	-0,105
-164,052	161,374	0,055	-0,056
-163,037	-44,076	-0,090	0,033
-162,023	800,000	0,015	0,043
-161,008	12,947	0,143	0,080
-159,993	-200,000	-0,029	0,124
-158,979	-59,700	-0,039	0,012
-157,964	-99,241	-0,174	-0,032
-156,950	-200,000	-0,026	-0,115
-155,935	-72,589	0,008	-0,002
-154,920	-10,319	0,134	0,064
-153,906	-200,000	0,001	0,180
-152,891	180,801	0,032	-0,035
-151,877	391,986	-0,132	-0,200
-150,862	420,018	0,055	0,086
-149,847	24,806	0,025	-0,015
-148,833	800,000	0,039	0,113
-147,818	650,804	0,050	0,093
-146,804	800,000	0,026	-0,055
-145,789	68,717	-0,057	0,042
-144,775	43,945	0,100	0,067
-143,760	-94,201	-0,108	-0,021
-142,745	36,068	0,030	-0,019
-141,731	67,899	0,059	-0,044
-140,716	-200,000	-0,056	0,192
-139,702	-41,185	-0,053	0,020
-138,687	-27,924	0,009	0,004
-137,672	90,784	-0,015	0,012
-136,658	-157,205	-0,131	-0,006
-135,643	800,000	-0,012	-0,033
-134,629	12,069	0,129	0,072
-133,614	-35,188	0,094	0,037
-132,599	142,527	0,130	0,125
-131,585	63,951	-0,039	0,028
-130,570	51,533	0,017	0,012
-129,556	-200,000	-0,007	-0,039
-128,541	-200,000	0,020	0,075
-127,526	-200,000	-0,020	-0,076
-126,512	-200,000	-0,017	0,086
-125,497	-12,757	0,029	-0,014
-124,483	800,000	-0,062	-0,127
-123,468	800,000	-0,005	-0,015
-122,453	-200,000	-0,002	-0,072
-121,439	-118,569	0,148	0,019
-120,424	46,513	-0,056	0,038
-119,410	71,243	0,113	0,086
-118,395	54,051	0,016	-0,011
