DTS Sentinel unit serial number:	SN410029Multiplexer serial number:	ORYXHardware model number:	OX2-SRSoftware version number:	ORYX F/W v4,00 Oryx Data Collector v3.7.2.0data status	okinstallation	B6 Nyhavnadifferential loss correction	single-endedforward channel	channel 2reverse channel	N/Adate	2023/12/11time	06:40:08forward acquisition time	300,00reverse acquisition time	0,00gamma	499,1914k internal	0,3125k external	0,3125temperature offset calibration	1,0000default loss term (dB/km)	0,3820temperature slope calibration	1,0000multiplexer offset coefficient	1,0000multiplexer slope coefficient	1,0000fibre end	0,00T internal ref (°C)	19,43T ext. ref 1 (°C)	2,61T ext. ref 2 (°C)	2,65length (m)	temperature (°C)	Stokes	anti-Stokes-744,400	-200,000	0,027	0,102
-743,385	-114,745	-0,230	0,032
-742,371	-200,000	-0,007	-0,072
-741,356	-83,651	-0,313	0,074
-740,342	-200,000	0,006	0,054
-739,327	-100,686	-0,257	0,047
-738,312	-74,918	0,092	0,024
-737,298	-159,377	-0,244	0,010
-736,283	-82,160	0,088	0,021
-735,269	-57,365	-0,260	0,085
-734,254	800,000	-0,019	-0,051
-733,239	-105,732	-0,337	-0,056
-732,225	70,914	0,095	0,073
-731,210	800,000	0,054	0,136
-730,196	-200,000	-0,043	0,145
-729,181	800,000	-0,042	-0,118
-728,167	800,000	-0,045	-0,125
-727,152	-174,722	-0,132	0,003
-726,137	800,000	-0,050	-0,112
-725,123	-142,610	-0,110	0,008
-724,108	133,002	0,040	-0,039
-723,094	-200,000	0,016	-0,168
-722,079	-200,000	0,030	-0,201
-721,064	-30,828	0,039	-0,016
-720,050	-153,348	0,098	0,005
-719,035	46,275	0,070	0,048
-718,021	-119,206	-0,232	0,030
-717,006	123,141	-0,102	-0,095
-715,991	277,797	0,052	-0,069
-714,977	-200,000	-0,021	-0,104
-713,962	54,530	0,060	0,043
-712,948	800,000	-0,012	0,032
-711,933	71,586	-0,078	0,060
-710,918	27,713	0,095	0,059
-709,904	-20,283	-0,107	-0,049
-708,889	150,629	0,140	-0,142
-707,875	800,000	0,052	-0,162
-706,860	-200,000	-0,007	-0,089
-705,845	-200,000	-0,006	0,117
-704,831	-106,398	0,045	-0,007
-703,816	-200,000	0,044	0,000
-702,802	-200,000	0,008	0,038
-701,787	-74,911	-0,067	0,018
-700,772	800,000	0,047	-0,131
-699,758	31,594	-0,044	-0,028
-698,743	67,623	0,071	-0,054
-697,729	70,480	0,060	0,046
-696,714	23,639	-0,118	0,072
-695,699	-67,350	-0,095	0,028
-694,685	-38,293	-0,045	-0,018
-693,670	31,152	0,110	-0,070
-692,656	-200,000	-0,008	-0,106
-691,641	-26,510	-0,024	-0,010
-690,627	-200,000	-0,030	0,129
-689,612	303,795	-0,061	0,085
-688,597	261,657	-0,035	0,045
-687,583	164,701	-0,098	-0,102
-686,568	-200,000	-0,017	-0,069
-685,554	-127,966	0,088	-0,009
-684,539	-44,218	-0,032	0,012
-683,524	-200,000	-0,009	0,084
-682,510	-200,000	0,046	0,176
-681,495	365,695	-0,042	-0,064
-680,481	-40,844	-0,104	0,040
-679,466	-200,000	0,007	0,129
-678,451	-200,000	-0,003	0,071
-677,437	-200,000	-0,010	-0,068
-676,422	-18,698	0,119	0,055
-675,408	800,000	-0,006	-0,013
-674,393	-1,437	0,109	0,057
-673,378	-4,956	-0,057	-0,029
-672,364	135,015	0,069	-0,067
-671,349	-134,707	-0,061	-0,005
-670,335	612,653	0,037	0,069
-669,320	-10,348	0,084	0,041
-668,305	55,228	0,024	-0,017
-667,291	207,223	-0,018	0,021
-666,276	-49,236	-0,108	0,038
-665,262	1,605	0,071	0,038
-664,247	151,964	0,071	-0,072
-663,232	-200,000	-0,007	0,028
-662,218	800,000	-0,043	0,117
-661,203	-54,194	-0,090	-0,030
-660,189	800,000	-0,029	0,094
-659,174	-200,000	-0,003	0,022
-658,159	800,000	0,036	-0,107
-657,145	-38,106	-0,154	-0,060
-656,130	-18,434	0,081	0,038
-655,116	100,738	-0,022	0,019
-654,101	-200,000	0,006	-0,060
-653,086	-200,000	0,026	0,179
-652,072	-65,956	-0,008	-0,002
-651,057	293,833	-0,057	-0,078
-650,043	800,000	0,021	-0,066
-649,028	-125,960	-0,091	0,010
-648,014	-200,000	0,018	0,071
-646,999	800,000	-0,033	-0,081
-645,984	186,970	-0,048	-0,053
-644,970	-119,704	-0,045	0,006
-643,955	27,651	-0,073	-0,045
-642,941	616,741	0,050	-0,093
-641,926	67,097	-0,177	-0,133
-640,911	139,025	0,095	-0,093
-639,897	47,313	0,078	0,054
-638,882	-200,000	0,013	-0,171
-637,868	169,571	0,041	0,044
-636,853	-200,000	-0,040	-0,140
-635,838	143,517	-0,039	-0,038
-634,824	-141,337	0,062	0,005
-633,809	281,973	-0,053	0,071
-632,795	-73,089	0,051	-0,014
-631,780	-200,000	-0,007	-0,089
-630,765	-200,000	-0,028	0,130
-629,751	-200,000	-0,002	-0,012
-628,736	-200,000	-0,014	-0,078
-627,722	-37,357	0,100	0,039
-626,707	-79,012	-0,138	0,034
-625,692	-132,073	0,031	0,003
-624,678	49,852	-0,074	0,051
-623,663	-200,000	-0,002	-0,091
-622,649	-200,000	-0,007	-0,067
-621,634	138,247	0,017	-0,016
-620,619	-86,461	-0,043	0,010
-619,605	-17,708	0,071	0,033
-618,590	800,000	-0,006	0,019
-617,576	39,444	0,063	-0,041
-616,561	-200,000	0,009	0,058
-615,546	509,813	-0,031	0,053
-614,532	560,894	-0,064	-0,116
-613,517	355,331	0,045	-0,066
-612,503	298,980	0,118	-0,161
-611,488	362,929	0,035	0,052
-610,474	-191,114	0,178	0,001
-609,459	78,875	0,091	0,072
-608,444	41,327	-0,048	0,032
-607,430	638,274	-0,055	-0,104
-606,415	269,055	-0,093	-0,121
-605,401	61,527	0,058	-0,043
-604,386	151,884	-0,048	-0,048
-603,371	112,469	-0,103	-0,093
-602,357	-104,825	0,030	-0,005
-601,342	-142,383	-0,048	0,003
-600,328	117,563	-0,074	-0,067
-599,313	12,011	0,089	-0,050
-598,298	-200,000	-0,007	-0,095
-597,284	800,000	-0,024	-0,071
-596,269	800,000	-0,020	0,059
-595,255	86,564	-0,055	0,045
-594,240	429,127	0,076	0,122
-593,225	-200,000	-0,010	-0,178
-592,211	103,976	-0,170	-0,148
-591,196	664,147	-0,049	0,094
-590,182	161,496	0,078	-0,081
-589,167	-7,351	0,130	-0,065
-588,152	-26,646	-0,108	0,047
-587,138	312,080	-0,067	0,094
-586,123	-15,379	0,111	-0,052
-585,109	-200,000	-0,002	0,108
-584,094	69,235	-0,262	-0,199
-583,079	800,000	0,053	0,109
-582,065	45,741	0,035	0,024
-581,050	-117,381	0,061	-0,008
-580,036	-36,684	0,075	0,030
-579,021	176,930	-0,035	0,038
-578,006	-41,874	-0,047	0,018
-576,992	-103,069	0,112	0,019
-575,977	-163,104	0,063	0,002
-574,963	751,505	0,017	0,034
-573,948	-62,473	0,040	0,012
-572,934	290,432	0,095	-0,128
-571,919	226,456	0,054	-0,065
-570,904	-200,000	-0,029	-0,095
-569,890	-200,000	-0,004	-0,045
-568,875	115,645	0,064	0,058
-567,861	-200,000	-0,002	-0,032
-566,846	114,797	0,114	0,103
-565,831	-123,905	-0,129	0,015
-564,817	-76,339	0,102	-0,026
-563,802	489,601	-0,075	0,128
-562,788	-78,239	-0,077	-0,019
-561,773	705,725	-0,014	-0,028
-560,758	-91,822	0,072	0,015
-559,744	800,000	-0,029	-0,082
-558,729	365,632	-0,054	-0,080
-557,715	348,280	0,032	0,047
-556,700	420,193	-0,066	-0,105
-555,685	-200,000	-0,006	-0,095
-554,671	-114,740	-0,017	0,002
-553,656	-200,000	0,000	0,105
-552,642	-200,000	-0,020	-0,090
-551,627	-52,755	-0,167	-0,057
-550,612	125,091	-0,094	-0,088
-549,598	-200,000	0,012	-0,080
-548,583	-75,971	0,026	-0,007
-547,569	300,077	-0,034	0,046
-546,554	13,711	-0,101	0,058
-545,539	-175,304	0,121	0,002
-544,525	740,710	0,025	-0,051
-543,510	-102,352	0,063	-0,011
-542,496	242,342	-0,056	-0,069
-541,481	-72,204	0,077	0,021
-540,466	-200,000	0,038	-0,127
-539,452	103,126	-0,120	0,104
-538,437	-96,656	0,094	0,018
-537,423	69,010	0,059	-0,045
-536,408	-200,000	-0,001	-0,008
-535,393	800,000	0,048	0,121
-534,379	447,632	-0,036	-0,058
-533,364	-49,827	0,127	-0,044
-532,350	-32,787	0,047	0,019
-531,335	679,607	-0,058	0,112
-530,321	-168,585	-0,034	-0,001
-529,306	160,451	-0,067	0,069
-528,291	800,000	-0,051	0,113
-527,277	-13,069	0,041	0,020
-526,262	159,373	-0,073	0,075
-525,248	279,517	-0,042	0,056
-524,233	132,565	0,105	0,100
-523,218	-142,026	-0,052	-0,004
-522,204	240,126	0,032	0,040
-521,189	22,577	0,025	-0,015
-520,175	-200,000	0,017	-0,079
-519,160	25,989	-0,062	0,038
-518,145	-200,000	0,007	0,116
-517,131	-200,000	0,026	0,161
-516,116	296,387	-0,044	-0,059
-515,102	800,000	-0,061	0,126
-514,087	-69,783	0,136	-0,038
-513,072	800,000	-0,055	-0,146
-512,058	185,019	-0,088	-0,097
-511,043	800,000	-0,012	0,036
-510,029	-200,000	0,015	0,083
-509,014	-200,000	0,007	0,076
-507,999	-200,000	-0,026	0,101
-506,985	800,000	-0,019	-0,048
-505,970	62,941	-0,080	0,059
-504,956	20,450	-0,059	-0,035
-503,941	800,000	-0,054	0,130
-502,926	-120,711	-0,050	0,006
-501,912	519,186	0,075	0,131
-500,897	50,050	0,074	0,051
-499,883	577,984	0,033	-0,060
-498,868	-200,000	-0,006	0,070
-497,853	-200,000	-0,007	-0,053
-496,839	-200,000	-0,017	-0,093
-495,824	-107,552	0,257	-0,041
-494,810	-143,289	0,078	-0,005
-493,795	264,856	0,030	0,039
-492,781	-200,000	-0,018	0,068
-491,766	-200,000	0,003	-0,048
-490,751	-200,000	-0,004	-0,047
-489,737	800,000	0,084	-0,233
-488,722	-41,937	-0,113	-0,043
-487,708	-91,755	0,119	-0,025
-486,693	800,000	-0,018	-0,040
-485,678	-144,604	0,100	-0,007
-484,664	-200,000	-0,020	-0,215
-483,649	800,000	0,048	-0,124
-482,635	-200,000	0,006	-0,121
-481,620	269,588	-0,059	-0,077
-480,605	-200,000	0,004	-0,049
-479,591	800,000	0,043	0,096
-478,576	-200,000	-0,007	-0,163
-477,562	-200,000	-0,042	-0,151
-476,547	152,757	-0,023	-0,023
-475,532	24,701	0,129	0,079
-474,518	-200,000	0,002	-0,029
-473,503	-200,000	0,005	-0,059
-472,489	-57,956	0,075	0,024
-471,474	-45,522	-0,139	0,050
-470,459	-200,000	0,008	0,031
-469,445	-14,962	-0,060	0,028
-468,430	-93,379	0,082	0,017
-467,416	-101,801	0,043	-0,008
-466,401	-122,578	-0,011	-0,001
-465,386	-114,699	0,139	0,019
-464,372	51,742	-0,078	-0,055
-463,357	-26,513	0,042	-0,018
-462,343	800,000	-0,015	-0,039
-461,328	-62,161	0,134	0,041
-460,313	-200,000	-0,007	0,061
-459,299	-200,000	0,017	0,071
-458,284	572,206	-0,053	0,095
-457,270	-200,000	-0,019	0,115
-456,255	-173,328	0,075	0,002
-455,241	800,000	0,038	0,110
-454,226	-200,000	0,006	-0,112
-453,211	-126,822	0,022	0,002
-452,197	-134,969	-0,067	0,006
-451,182	-26,956	0,079	0,034
-450,168	-200,000	0,006	-0,054
-449,153	-200,000	0,002	0,091
-448,138	-114,786	-0,076	0,011
-447,124	319,272	0,041	-0,058
-446,109	178,036	-0,101	0,109
-445,095	-33,904	-0,106	0,043
-444,080	209,409	0,056	0,065
-443,065	-54,959	0,101	-0,033
-442,051	800,000	0,016	-0,042
-441,036	800,000	0,031	-0,070
-440,022	207,468	-0,077	-0,088
-439,007	-63,662	-0,142	-0,043
-437,992	800,000	0,025	0,053
-436,978	-200,000	0,000	0,035
-435,963	-18,823	0,164	0,075
-434,949	116,694	0,067	0,060
-433,934	41,820	-0,104	-0,069
-432,919	-93,781	-0,069	0,014
-431,905	-200,000	-0,011	-0,125
-430,890	-200,000	-0,021	0,213
-429,876	314,917	0,075	0,104
-428,861	164,054	-0,050	0,052
-427,846	166,458	-0,069	-0,072
-426,832	238,280	-0,103	0,126
-425,817	-148,628	-0,054	0,003
-424,803	-200,000	0,020	-0,079
-423,788	-42,261	-0,085	0,032
-422,773	-10,616	0,161	-0,078
-421,759	131,739	-0,038	0,036
-420,744	-200,000	-0,053	0,183
-419,730	65,737	0,050	-0,038
-418,715	800,000	0,025	-0,080
-417,701	116,751	0,056	-0,050
-416,686	367,547	0,067	0,100
-415,671	-59,292	0,198	0,062
-414,657	316,017	-0,020	-0,028
-413,642	479,126	0,052	-0,086
-412,628	114,871	-0,112	0,100
-411,613	800,000	-0,051	-0,118
-410,598	108,619	-0,112	-0,098
-409,584	800,000	0,029	0,067
-408,569	275,689	0,026	-0,034
-407,555	236,270	-0,021	0,026
-406,540	-111,331	0,054	-0,008
-405,525	451,284	-0,021	0,034
-404,511	58,987	-0,202	-0,146
-403,496	-200,000	0,003	-0,045
-402,482	-200,000	-0,006	0,101
-401,467	-200,000	-0,000	0,115
-400,452	103,599	-0,059	0,051
-399,438	446,592	0,048	0,077
-398,423	435,271	0,043	0,069
-397,409	-150,140	0,051	-0,003
-396,394	-200,000	0,007	-0,028
-395,379	21,349	-0,086	0,051
-394,365	119,147	0,073	-0,066
-393,350	145,210	-0,111	0,109
-392,336	-65,082	0,078	-0,023
-391,321	-200,000	0,026	-0,091
-390,306	-84,961	0,060	-0,014
-389,292	-200,000	0,008	-0,031
-388,277	-66,079	-0,113	-0,033
-387,263	-86,220	0,153	-0,034
-386,248	-163,449	-0,084	-0,003
-385,233	93,084	0,132	0,110
-384,219	-174,715	0,171	0,003
-383,204	-69,944	-0,096	0,027
-382,190	123,226	-0,043	0,040
-381,175	-88,161	-0,099	-0,022
-380,160	30,127	-0,049	0,031
-379,146	33,913	0,130	0,083
-378,131	216,973	0,053	-0,062
-377,117	248,429	0,030	-0,037
-376,102	257,703	-0,070	-0,088
-375,088	123,247	-0,071	-0,065
-374,073	2,848	-0,068	-0,036
-373,058	-14,767	0,020	0,010
-372,044	116,224	0,080	0,072
-371,029	800,000	-0,077	0,165
-370,015	800,000	0,038	-0,085
-369,000	-26,139	0,105	-0,045
-367,985	298,327	0,030	-0,040
-366,971	638,094	-0,034	-0,065
-365,956	255,378	-0,063	0,080
-364,942	-50,361	0,107	0,037
-363,927	637,393	-0,051	0,095
-362,912	4,205	-0,096	0,052
-361,898	-164,997	-0,061	0,002
-360,883	244,836	0,041	-0,051
-359,869	429,287	0,038	0,060
-358,854	204,649	0,022	-0,025
-357,839	-200,000	-0,010	0,051
-356,825	38,886	0,116	0,076
-355,810	774,370	0,016	-0,033
-354,796	800,000	-0,041	0,086
-353,781	800,000	0,043	-0,094
-352,766	800,000	-0,026	-0,077
-351,752	800,000	0,036	-0,074
-350,737	-200,000	-0,032	0,104
-349,723	-200,000	0,006	0,027
-348,708	323,576	0,089	0,125
-347,693	-29,517	-0,075	-0,031
-346,679	-200,000	0,000	-0,064
-345,664	557,066	-0,056	-0,099
-344,650	79,410	0,090	-0,071
-343,635	-35,309	0,022	-0,009
-342,620	-200,000	0,002	0,206
-341,606	222,105	-0,073	0,086
-340,591	-90,545	0,122	0,026
-339,577	97,208	-0,074	-0,062
-338,562	-104,580	-0,067	-0,011
-337,548	69,712	0,082	0,062
-336,533	-200,000	0,030	0,155
-335,518	-200,000	0,008	0,106
-334,504	-140,590	0,054	-0,004
-333,489	57,987	-0,072	0,051
-332,475	51,995	0,020	0,014
-331,460	5,192	-0,133	-0,071
-330,445	-200,000	0,059	-0,286
-329,431	800,000	0,079	-0,175
-328,416	800,000	0,078	0,174
-327,402	8,541	-0,060	-0,033
-326,387	-44,707	-0,062	0,023
-325,372	-200,000	0,003	-0,099
-324,358	-200,000	-0,005	-0,110
-323,343	467,973	-0,020	-0,033
-322,329	800,000	0,052	0,133
-321,314	-156,430	0,127	-0,006
-320,299	53,211	0,064	0,045
-319,285	103,144	-0,020	-0,017
-318,270	-104,953	-0,104	0,017
-317,256	800,000	-0,024	-0,055
-316,241	-200,000	-0,058	-0,196
-315,226	203,758	0,086	-0,097
-314,212	297,090	-0,045	0,061
-313,197	-200,000	-0,034	0,168
-312,183	89,027	-0,083	0,068
-311,168	-92,535	-0,095	0,019
-310,153	-200,000	0,002	-0,128
-309,139	-200,000	0,007	-0,087
-308,124	3,251	0,080	-0,043
-307,110	-139,737	-0,091	-0,007
-306,095	800,000	-0,022	0,058
-305,080	-22,443	-0,068	0,030
-304,066	-200,000	0,016	-0,076
-303,051	-200,000	-0,017	-0,069
-302,037	12,786	-0,040	-0,023
-301,022	-41,202	-0,101	-0,038
-300,008	249,973	0,073	0,091
-298,993	181,311	-0,073	0,078
-297,978	800,000	-0,047	0,114
-296,964	-144,488	-0,018	0,001
-295,949	-200,000	-0,016	-0,118
-294,935	-89,187	0,041	-0,009
-293,920	-108,273	0,065	-0,010
-292,905	-200,000	0,017	-0,146
-291,891	690,837	0,108	0,208
-290,876	-200,000	0,030	0,099
-289,862	744,458	0,049	0,097
-288,847	330,351	-0,047	0,067
-287,832	-83,503	-0,110	-0,026
-286,818	285,509	0,005	0,006
-285,803	732,436	0,069	-0,136
-284,789	-33,693	-0,103	0,041
-283,774	151,290	-0,051	0,050
-282,759	116,540	0,067	0,060
-281,745	330,662	-0,011	0,016
-280,730	-200,000	-0,008	-0,053
-279,716	141,022	0,075	-0,072
-278,701	-28,992	-0,075	-0,032
-277,686	310,081	0,084	0,115
-276,672	61,480	0,062	-0,045
-275,657	-36,700	-0,030	-0,012
-274,643	-1,933	0,032	-0,017
-273,628	-52,577	-0,014	0,005
-272,613	250,031	-0,067	0,084
-271,599	-102,280	0,043	-0,007
-270,584	-80,724	0,239	-0,058
-269,570	800,000	0,037	-0,096
-268,555	800,000	0,067	0,137
-267,540	165,239	0,049	0,050
-266,526	-200,000	-0,026	0,089
-265,511	39,693	0,036	-0,023
-264,497	191,467	-0,010	-0,011
-263,482	-49,445	0,185	0,064
-262,467	311,509	-0,026	-0,036
-261,453	514,537	0,024	-0,041
-260,438	800,000	0,076	-0,195
-259,424	355,969	-0,039	0,057
-258,409	-200,000	-0,016	-0,097
-257,395	45,899	-0,125	0,085
-256,380	92,930	-0,052	0,043
-255,365	108,884	-0,105	0,091
-254,351	289,813	0,050	0,067
-253,336	52,082	-0,038	0,026
-252,322	-200,000	-0,017	-0,056
-251,307	-200,000	0,001	-0,012
-250,292	800,000	-0,061	0,132
-249,278	490,198	-0,054	-0,091
-248,263	610,719	-0,021	0,039
-247,249	365,891	0,095	0,140
-246,234	800,000	-0,072	-0,146
-245,219	160,235	-0,121	-0,123
-244,205	800,000	-0,096	-0,234
-243,190	-132,799	-0,050	-0,005
-242,176	-200,000	0,013	-0,081
-241,161	-132,196	-0,069	-0,006
-240,146	-200,000	-0,027	0,108
-239,132	12,502	0,005	0,003
-238,117	211,859	-0,100	-0,115
-237,103	800,000	-0,012	0,035
-236,088	202,930	0,027	-0,031
-235,073	-41,670	-0,089	0,033
-234,059	800,000	-0,056	0,152
-233,044	-135,072	-0,138	-0,012
-232,030	-200,000	0,003	-0,202
-231,015	359,846	-0,007	-0,010
-230,000	800,000	-0,019	-0,058
-228,986	57,758	-0,065	-0,046
-227,971	-102,708	0,136	-0,023
-226,957	800,000	0,052	0,151
-225,942	369,441	0,063	0,093
-224,927	629,389	-0,051	0,094
-223,913	18,583	0,080	-0,047
-222,898	-44,316	0,013	0,005
-221,884	800,000	0,031	0,100
-220,869	111,317	0,085	0,075
-219,855	57,737	-0,066	0,047
-218,840	-95,376	0,060	-0,012
-217,825	331,668	-0,113	0,160
-216,811	-200,000	-0,023	0,111
-215,796	-87,844	-0,115	-0,025
-214,782	469,933	0,046	-0,076
-213,767	266,027	0,019	-0,025
-212,752	119,955	0,089	0,081
-211,738	800,000	-0,060	0,126
-210,723	57,642	0,054	0,038
-209,709	60,436	-0,068	0,049
-208,694	369,360	-0,061	-0,090
-207,679	-200,000	-0,001	-0,017
-206,665	481,150	0,088	0,146
-205,650	-200,000	-0,005	-0,017
-204,636	-91,338	0,158	0,033
-203,621	112,945	-0,026	0,023
-202,606	197,172	-0,037	0,041
-201,592	109,553	-0,074	0,065
-200,577	76,215	0,089	-0,069
-199,563	265,222	0,083	0,106
-198,548	-46,021	0,104	0,037
-197,533	-84,581	-0,078	0,018
-196,519	-200,000	0,014	0,063
-195,504	-200,000	0,005	0,091
-194,490	-157,181	-0,150	0,007
-193,475	730,684	-0,026	-0,051
-192,460	800,000	-0,041	-0,093
-191,446	30,477	0,091	0,057
-190,431	37,557	0,053	-0,034
-189,417	-200,000	-0,005	-0,070
-188,402	-17,458	0,069	0,032
-187,387	800,000	0,064	0,137
-186,373	18,959	0,063	0,037
-185,358	95,667	0,093	-0,077
-184,344	-49,064	0,136	-0,047
-183,329	-200,000	-0,004	0,129
-182,315	199,400	0,071	-0,080
-181,300	-200,000	0,000	-0,014
-180,285	-9,367	0,059	0,028
-179,271	52,124	-0,050	-0,035
-178,256	-200,000	-0,002	0,014
-177,242	97,811	0,032	-0,027
-176,227	-179,438	-0,115	-0,002
-175,212	-96,828	0,069	-0,013
-174,198	181,124	-0,040	-0,043
-173,183	-127,421	-0,128	-0,013
-172,169	-103,297	-0,126	0,022
-171,154	800,000	-0,019	-0,053
-170,139	383,142	-0,048	0,072
-169,125	-12,361	0,121	0,057
-168,110	666,064	-0,034	-0,063
-167,096	-200,000	-0,014	-0,062
-166,081	800,000	0,004	-0,013
-165,066	334,644	0,072	0,102
-164,052	-200,000	-0,005	0,025
-163,037	-74,315	0,082	0,021
-162,023	163,994	0,009	0,010
-161,008	800,000	-0,016	0,047
-159,993	114,032	-0,080	-0,071
-158,979	282,052	-0,102	0,133
-157,964	97,778	0,082	-0,068
-156,950	-129,304	-0,089	-0,009
-155,935	186,437	-0,048	-0,052
-154,920	-200,000	0,005	-0,025
-153,906	800,000	-0,014	0,040
-152,891	-72,212	-0,160	0,043
-151,877	307,003	-0,077	-0,104
-150,862	-84,898	0,165	-0,037
-149,847	-95,404	0,019	-0,004
-148,833	-200,000	-0,013	-0,051
-147,818	-72,488	-0,037	0,010
-146,804	-77,513	0,046	0,012
-145,789	-115,619	-0,010	-0,001
-144,775	800,000	-0,033	0,068
-143,760	25,392	0,014	-0,009
-142,745	-83,566	-0,096	0,022
-141,731	-200,000	-0,006	0,023
-140,716	172,288	-0,068	-0,071
-139,702	122,259	0,060	0,055
-138,687	36,243	0,088	0,056
-137,672	492,437	-0,045	-0,075
-136,658	-73,337	0,078	0,021
-135,643	-130,097	-0,129	0,013
-134,629	241,037	0,059	0,072
-133,614	-200,000	-0,023	-0,081
-132,599	-49,269	0,038	0,013
-131,585	61,379	0,060	-0,044
-130,570	176,310	0,041	-0,043
-129,556	800,000	-0,026	0,067
-128,541	156,428	-0,116	-0,117
-127,526	151,864	-0,036	0,035
-126,512	-113,337	0,102	0,014
-125,497	800,000	0,024	-0,054
-124,483	173,780	0,057	-0,060
-123,468	104,647	-0,039	-0,034
-122,453	-200,000	0,038	0,124
-121,439	-77,767	-0,123	0,031
-120,424	-72,504	-0,194	0,052
