DTS Sentinel unit serial number:	SN410029Multiplexer serial number:	ORYXHardware model number:	OX2-SRSoftware version number:	ORYX F/W v4,00 Oryx Data Collector v3.7.2.0data status	okinstallation	B6 Nyhavnadifferential loss correction	single-endedforward channel	channel 2reverse channel	N/Adate	2023/12/08time	05:05:08forward acquisition time	300,00reverse acquisition time	0,00gamma	499,1914k internal	0,3165k external	0,3165temperature offset calibration	1,0000default loss term (dB/km)	0,3820temperature slope calibration	1,0000multiplexer offset coefficient	1,0000multiplexer slope coefficient	1,0000fibre end	0,00T internal ref (°C)	13,03T ext. ref 1 (°C)	-3,80T ext. ref 2 (°C)	-3,80length (m)	temperature (°C)	Stokes	anti-Stokes-744,400	-200,000	-0,022	-0,116
-743,385	-120,906	-0,430	-0,053
-742,371	-54,526	0,094	0,031
-741,356	-86,329	-0,162	-0,036
-740,342	50,955	0,139	0,097
-739,327	-146,180	-0,310	-0,020
-738,312	36,532	0,127	0,082
-737,298	-65,125	-0,349	0,103
-736,283	194,955	0,060	0,067
-735,269	-67,450	-0,186	-0,053
-734,254	-22,240	0,197	0,088
-733,239	-56,015	-0,501	-0,163
-732,225	11,049	0,244	0,137
-731,210	800,000	-0,020	0,059
-730,196	-17,227	-0,179	0,083
-729,181	-108,521	-0,012	0,002
-728,167	-130,798	0,057	-0,006
-727,152	-31,374	-0,123	0,051
-726,137	-55,948	-0,157	-0,051
-725,123	-200,000	0,001	0,032
-724,108	-200,000	-0,029	-0,210
-723,094	194,567	-0,093	-0,104
-722,079	19,417	-0,108	0,064
-721,064	-63,173	-0,076	-0,023
-720,050	49,594	-0,088	-0,061
-719,035	736,183	-0,062	-0,123
-718,021	61,041	-0,111	-0,081
-717,006	800,000	-0,045	-0,124
-715,991	-177,916	-0,095	-0,002
-714,977	-39,844	0,116	0,044
-713,962	26,127	-0,155	-0,095
-712,948	-200,000	-0,029	-0,122
-711,933	-200,000	-0,013	-0,122
-710,918	-200,000	-0,035	0,134
-709,904	-108,359	-0,056	0,009
-708,889	-200,000	-0,019	-0,123
-707,875	218,167	-0,022	-0,025
-706,860	121,046	-0,052	-0,047
-705,845	258,444	-0,054	0,068
-704,831	-200,000	0,051	0,219
-703,816	-32,432	-0,082	0,033
-702,802	306,522	-0,054	-0,075
-701,787	173,699	0,123	-0,130
-700,772	-200,000	-0,007	-0,074
-699,758	800,000	0,013	0,031
-698,743	48,520	0,074	0,051
-697,729	-141,040	-0,039	0,003
-696,714	-200,000	0,000	-0,043
-695,699	-200,000	-0,015	-0,077
-694,685	15,307	-0,139	-0,080
-693,670	800,000	0,003	-0,007
-692,656	15,376	-0,091	-0,052
-691,641	-43,180	-0,069	-0,025
-690,627	-45,327	0,151	-0,055
-689,612	-200,000	-0,044	0,173
-688,597	800,000	0,028	-0,060
-687,583	15,614	-0,093	-0,054
-686,568	-200,000	-0,004	-0,132
-685,554	-49,545	-0,125	0,043
-684,539	-200,000	0,025	-0,111
-683,524	-200,000	-0,013	0,091
-682,510	-200,000	-0,006	0,094
-681,495	128,897	-0,080	-0,075
-680,481	36,791	0,087	0,057
-679,466	179,381	-0,057	-0,061
-678,451	99,123	-0,089	-0,075
-677,437	138,554	0,070	-0,067
-676,422	-85,615	0,146	0,033
-675,408	-31,959	-0,124	0,051
-674,393	-5,521	-0,116	0,058
-673,378	536,280	-0,067	0,117
-672,364	800,000	-0,073	-0,179
-671,349	68,289	-0,163	0,122
-670,335	-56,767	0,047	0,015
-669,320	199,161	-0,013	-0,014
-668,305	82,406	-0,061	0,048
-667,291	-67,829	-0,141	-0,040
-666,276	450,205	-0,049	-0,080
-665,262	467,985	-0,038	-0,063
-664,247	800,000	-0,017	-0,037
-663,232	800,000	0,018	-0,047
-662,218	609,003	0,042	-0,078
-661,203	159,687	-0,048	-0,049
-660,189	800,000	0,030	0,064
-659,174	-27,355	-0,107	-0,045
-658,159	-123,786	-0,061	0,007
-657,145	-200,000	-0,049	-0,166
-656,130	-200,000	-0,008	0,151
-655,116	671,758	0,032	-0,061
-654,101	269,452	0,063	-0,082
-653,086	-73,021	0,063	0,017
-652,072	399,718	-0,077	0,118
-651,057	-121,675	-0,044	-0,005
-650,043	-39,718	0,069	-0,026
-649,028	15,277	-0,017	0,010
-648,014	202,119	-0,098	-0,111
-646,999	800,000	0,025	-0,058
-645,984	-155,645	-0,128	-0,006
-644,970	13,642	-0,126	0,071
-643,955	39,051	-0,022	-0,014
-642,941	-118,735	0,155	-0,020
-641,926	-13,334	-0,104	0,049
-640,911	800,000	-0,038	-0,085
-639,897	42,080	0,068	0,045
-638,882	31,440	-0,103	-0,065
-637,868	800,000	-0,079	0,250
-636,853	800,000	0,025	-0,054
-635,838	-200,000	0,010	0,034
-634,824	-4,069	0,029	0,015
-633,809	719,307	-0,049	-0,096
-632,795	-5,250	0,069	0,035
-631,780	-136,733	0,051	0,004
-630,765	-146,277	-0,125	0,008
-629,751	197,708	0,064	-0,071
-628,736	258,003	-0,122	-0,154
-627,722	50,535	-0,118	0,082
-626,707	14,512	0,047	-0,027
-625,692	22,321	0,041	-0,024
-624,678	-85,825	-0,062	0,014
-623,663	800,000	-0,060	-0,135
-622,649	129,803	-0,086	0,080
-621,634	-83,953	-0,094	0,022
-620,619	468,969	-0,039	-0,064
-619,605	-200,000	-0,018	-0,062
-618,590	800,000	-0,071	0,160
-617,576	33,646	-0,057	0,036
-616,561	-99,515	-0,008	0,002
-615,546	800,000	0,051	-0,158
-614,532	-54,733	-0,102	-0,034
-613,517	48,084	-0,063	0,043
-612,503	-200,000	0,010	0,120
-611,488	-200,000	-0,017	0,083
-610,474	467,670	-0,077	0,126
-609,459	92,989	-0,084	-0,070
-608,444	-141,795	-0,054	-0,004
-607,430	228,423	0,029	0,034
-606,415	114,272	-0,103	0,092
-605,401	233,008	-0,013	0,016
-604,386	-200,000	-0,059	0,194
-603,371	337,806	-0,083	0,118
-602,357	-136,363	0,141	0,012
-601,342	-200,000	-0,020	-0,137
-600,328	-200,000	-0,026	-0,134
-599,313	261,742	0,126	0,161
-598,298	-98,043	-0,090	0,017
-597,284	-83,362	0,053	-0,012
-596,269	-43,355	0,058	0,021
-595,255	-122,319	-0,116	0,014
-594,240	-200,000	-0,008	0,097
-593,225	263,263	-0,083	-0,106
-592,211	-108,847	-0,205	-0,032
-591,196	-35,133	0,138	0,055
-590,182	800,000	-0,018	0,049
-589,167	329,272	-0,063	0,089
-588,152	-200,000	-0,021	0,112
-587,138	800,000	-0,053	-0,108
-586,123	-200,000	0,006	-0,042
-585,109	-81,287	-0,109	0,026
-584,094	11,341	0,125	0,070
-583,079	800,000	-0,043	-0,087
-582,065	-120,175	0,011	0,001
-581,050	413,983	-0,004	0,006
-580,036	336,819	-0,071	-0,101
-579,021	94,765	0,070	0,058
-578,006	-104,390	-0,065	0,011
-576,992	-200,000	-0,002	0,109
-575,977	-23,351	0,146	0,064
-574,963	109,703	0,058	0,051
-573,948	202,233	-0,080	0,090
-572,934	-14,260	-0,015	0,007
-571,919	57,996	-0,056	0,040
-570,904	-125,178	-0,023	0,003
-569,890	-63,425	-0,059	-0,018
-568,875	157,908	-0,092	0,093
-567,861	-64,261	-0,011	-0,003
-566,846	800,000	-0,021	-0,054
-565,831	-200,000	0,027	-0,116
-564,817	-200,000	-0,045	0,197
-563,802	25,488	0,023	0,014
-562,788	-49,111	0,088	-0,031
-561,773	800,000	0,022	-0,069
-560,758	654,230	-0,010	0,019
-559,744	-200,000	-0,004	0,062
-558,729	22,620	0,046	0,027
-557,715	654,506	-0,057	-0,107
-556,700	87,360	-0,168	0,136
-555,685	-200,000	0,001	-0,041
-554,671	176,887	0,095	-0,101
-553,656	-102,409	0,112	0,019
-552,642	-200,000	-0,006	-0,041
-551,627	255,925	0,057	-0,072
-550,612	800,000	0,067	-0,138
-549,598	-200,000	0,002	0,017
-548,583	-200,000	0,026	-0,084
-547,569	296,866	-0,033	0,044
-546,554	-120,987	-0,038	-0,005
-545,539	800,000	0,012	0,032
-544,525	218,676	-0,105	0,123
-543,510	296,439	0,028	0,037
-542,496	800,000	-0,031	-0,080
-541,481	557,656	-0,061	-0,107
-540,466	-200,000	0,005	-0,028
-539,452	652,891	-0,026	-0,048
-538,437	800,000	0,065	0,137
-537,423	-200,000	-0,020	0,072
-536,408	800,000	0,021	0,050
-535,393	-57,834	-0,133	-0,042
-534,379	-200,000	0,008	-0,070
-533,364	-200,000	0,010	-0,087
-532,350	-146,262	-0,137	0,009
-531,335	-177,579	0,124	0,002
-530,321	611,653	-0,021	-0,039
-529,306	-53,694	0,090	-0,030
-528,291	-70,962	0,094	-0,026
-527,277	511,736	0,046	-0,079
-526,262	-200,000	0,001	-0,050
-525,248	-111,360	-0,043	-0,006
-524,233	-200,000	0,038	0,145
-523,218	-41,932	-0,043	-0,016
-522,204	-24,160	0,130	0,056
-521,189	-43,568	-0,163	-0,060
-520,175	115,840	-0,072	0,064
-519,160	29,236	-0,088	-0,054
-518,145	-200,000	0,013	0,043
-517,131	66,195	0,062	0,046
-516,116	-124,860	0,142	0,016
-515,102	-6,590	0,015	-0,008
-514,087	-200,000	0,014	0,160
-513,072	-200,000	-0,023	-0,167
-512,058	95,491	0,049	0,041
-511,043	-145,088	0,149	0,010
-510,029	-112,111	-0,075	0,011
-509,014	-71,539	-0,054	0,015
-507,999	307,077	0,046	-0,062
-506,985	368,829	0,005	0,008
-505,970	-200,000	0,006	-0,097
-504,956	-31,930	-0,041	0,017
-503,941	-200,000	0,004	-0,065
-502,926	123,328	-0,048	-0,044
-501,912	-200,000	0,013	0,065
-500,897	-200,000	-0,014	-0,096
-499,883	-48,093	-0,044	-0,015
-498,868	-84,387	-0,118	-0,027
-497,853	-57,235	0,101	0,032
-496,839	-200,000	-0,021	-0,082
-495,824	162,145	0,101	0,103
-494,810	218,701	-0,036	0,042
-493,795	185,212	-0,024	0,026
-492,781	-200,000	0,041	0,140
-491,766	-200,000	-0,029	0,106
-490,751	74,044	-0,017	0,013
-489,737	133,207	0,101	0,095
-488,722	99,459	-0,042	0,035
-487,708	-179,597	0,117	-0,002
-486,693	405,315	-0,094	0,145
-485,678	-200,000	-0,009	0,030
-484,664	-126,741	-0,094	0,010
-483,649	90,883	-0,096	-0,079
-482,635	689,103	-0,095	-0,181
-481,620	32,674	0,077	-0,048
-480,605	-200,000	-0,008	-0,036
-479,591	-48,116	-0,082	-0,029
-478,576	430,493	0,034	-0,054
-477,562	800,000	-0,034	-0,097
-476,547	304,940	-0,053	0,072
-475,532	243,874	0,085	-0,104
-474,518	-200,000	-0,002	0,047
-473,503	-103,881	0,136	-0,023
-472,489	367,449	-0,063	-0,092
-471,474	800,000	0,078	-0,171
-470,459	-200,000	-0,029	-0,172
-469,445	800,000	-0,027	-0,060
-468,430	4,469	0,117	-0,062
-467,416	-14,517	0,068	0,032
-466,401	123,513	0,102	-0,093
-465,386	800,000	-0,025	0,071
-464,372	-200,000	0,035	0,141
-463,357	11,495	0,083	0,046
-462,343	800,000	0,041	0,089
-461,328	-200,000	-0,004	-0,025
-460,313	-85,293	0,119	-0,027
-459,299	264,970	-0,046	0,059
-458,284	6,855	-0,114	0,061
-457,270	-200,000	-0,001	0,091
-456,255	800,000	-0,008	-0,016
-455,241	101,928	0,080	0,068
-454,226	-200,000	0,021	0,110
-453,211	-55,604	0,176	0,057
-452,197	-200,000	0,012	0,084
-451,182	-154,177	0,109	-0,005
-450,168	692,448	0,033	0,064
-449,153	800,000	0,036	0,075
-448,138	118,652	-0,026	0,023
-447,124	238,504	-0,019	0,023
-446,109	-23,356	0,076	0,033
-445,095	345,099	0,023	0,033
-444,080	-78,164	0,156	0,039
-443,065	-200,000	-0,016	0,131
-442,051	-31,601	0,054	-0,022
-441,036	-26,652	-0,184	0,078
-440,022	-135,565	0,044	0,004
-439,007	237,676	0,108	0,131
-437,992	299,790	0,089	0,119
-436,978	440,822	-0,030	0,048
-435,963	-200,000	0,027	0,093
-434,949	800,000	-0,040	0,107
-433,934	-143,671	-0,032	0,002
-432,919	-200,000	-0,009	-0,056
-431,905	800,000	0,063	0,137
-430,890	800,000	0,060	0,147
-429,876	368,304	0,045	0,066
-428,861	-200,000	0,004	0,078
-427,846	-77,634	-0,087	-0,022
-426,832	-200,000	0,030	0,117
-425,817	37,308	0,191	0,123
-424,803	-200,000	-0,008	-0,054
-423,788	-43,754	0,037	-0,014
-422,773	66,338	0,046	-0,034
-421,759	-82,823	0,137	-0,032
-420,744	16,597	-0,108	-0,062
-419,730	396,192	-0,059	-0,089
-418,715	95,940	0,018	-0,015
-417,701	-12,391	-0,023	0,011
-416,686	-200,000	0,002	-0,034
-415,671	618,057	0,074	0,135
-414,657	-200,000	-0,012	-0,047
-413,642	-200,000	0,020	-0,147
-412,628	-4,036	-0,052	-0,026
-411,613	73,352	0,097	-0,073
-410,598	800,000	0,036	0,098
-409,584	-121,273	0,174	-0,021
-408,569	-48,752	-0,096	-0,033
-407,555	-72,519	0,153	0,041
-406,540	-42,016	-0,078	0,029
-405,525	481,350	0,083	0,137
-404,511	-200,000	0,030	-0,219
-403,496	781,802	0,071	-0,142
-402,482	-92,715	0,086	-0,017
-401,467	-72,866	0,061	0,016
-400,452	9,256	0,105	-0,057
-399,438	288,122	0,042	-0,055
-398,423	-64,591	0,042	0,012
-397,409	-200,000	0,010	-0,122
-396,394	125,445	0,073	-0,067
-395,379	117,328	-0,071	0,063
-394,365	-147,722	0,150	0,009
-393,350	-200,000	0,017	0,183
-392,336	-200,000	0,011	-0,039
-391,321	33,003	-0,045	0,028
-390,306	-109,286	-0,121	0,018
-389,292	83,488	-0,094	-0,074
-388,277	-64,908	0,224	-0,065
-387,263	-100,584	-0,057	-0,010
-386,248	-11,971	0,081	0,038
-385,233	-200,000	-0,018	-0,219
-384,219	-28,733	-0,019	-0,008
-383,204	44,640	-0,054	-0,036
-382,190	64,377	0,028	-0,020
-381,175	-74,464	0,042	0,011
-380,160	8,812	-0,050	-0,027
-379,146	252,016	-0,050	0,062
-378,131	-200,000	0,023	0,131
-377,117	195,855	-0,044	-0,049
-376,102	-200,000	-0,003	0,044
-375,088	800,000	0,035	-0,073
-374,073	96,897	-0,051	-0,042
-373,058	197,650	0,097	-0,107
-372,044	-73,967	-0,128	0,033
-371,029	173,728	0,190	0,199
-370,015	-160,630	-0,128	-0,005
-369,000	-174,042	0,089	-0,002
-367,985	-200,000	-0,001	0,106
-366,971	-133,361	0,038	0,003
-365,956	-9,486	0,099	-0,048
-364,942	111,581	-0,072	-0,063
-363,927	-122,215	0,121	0,014
-362,912	162,377	0,003	-0,003
-361,898	306,484	-0,021	-0,029
-360,883	-71,774	-0,089	0,024
-359,869	800,000	0,027	0,063
-358,854	63,908	0,150	-0,109
-357,839	23,297	0,053	0,031
-356,825	800,000	-0,038	0,091
-355,810	162,025	-0,070	0,071
-354,796	-200,000	0,003	-0,042
-353,781	201,425	-0,074	-0,083
-352,766	341,964	0,027	-0,038
-351,752	774,417	-0,014	0,028
-350,737	800,000	0,042	-0,089
-349,723	-200,000	0,013	0,056
-348,708	-78,754	-0,074	-0,018
-347,693	491,257	-0,058	-0,096
-346,679	-43,099	-0,201	0,073
-345,664	22,149	-0,074	0,043
-344,650	-59,736	0,020	0,006
-343,635	697,885	0,022	0,042
-342,620	-96,767	0,078	-0,015
-341,606	-200,000	-0,007	-0,051
-340,591	-200,000	0,058	0,000
-339,577	511,272	-0,081	-0,136
-338,562	218,392	-0,041	-0,047
-337,548	-200,000	0,014	0,047
-336,533	-200,000	-0,003	-0,104
-335,518	-200,000	-0,019	-0,074
-334,504	-200,000	0,010	0,040
-333,489	112,719	-0,010	-0,009
-332,475	410,307	-0,060	-0,093
-331,460	-137,019	0,105	-0,009
-330,445	-200,000	-0,021	-0,104
-329,431	452,801	-0,035	-0,057
-328,416	-46,524	0,033	0,012
-327,402	741,550	-0,038	-0,074
-326,387	-53,716	0,077	-0,025
-325,372	-25,821	-0,060	-0,025
-324,358	-200,000	0,008	0,040
-323,343	150,562	-0,087	-0,085
-322,329	42,819	-0,096	0,063
-321,314	-0,382	0,072	-0,037
-320,299	185,592	0,087	0,094
-319,285	-200,000	-0,020	-0,095
-318,270	-200,000	0,021	-0,075
-317,256	-178,851	-0,176	0,003
-316,241	800,000	0,033	0,076
-315,226	85,851	0,066	-0,052
-314,212	-200,000	0,020	-0,106
-313,197	-95,772	0,104	-0,020
-312,183	19,878	0,158	-0,092
-311,168	249,139	-0,061	0,075
-310,153	-74,308	0,091	-0,024
-309,139	-48,174	0,036	0,012
-308,124	-160,169	-0,101	0,004
-307,110	322,460	-0,024	0,033
-306,095	-200,000	0,013	0,061
-305,080	-81,533	0,071	0,017
-304,066	265,101	0,077	0,097
-303,051	343,756	0,041	-0,058
-302,037	-200,000	-0,038	-0,135
-301,022	239,535	-0,034	-0,041
-300,008	-158,048	0,140	-0,006
-298,993	800,000	0,056	0,126
-297,978	9,867	-0,044	0,024
-296,964	23,039	0,049	0,029
-295,949	-134,462	0,040	-0,003
-294,935	88,230	-0,047	-0,038
-293,920	54,522	-0,136	0,095
-292,905	-200,000	-0,011	-0,110
-291,891	-121,837	0,043	-0,005
-290,876	-200,000	0,012	0,081
-289,862	800,000	-0,036	-0,078
-288,847	0,459	-0,064	0,033
-287,832	173,386	0,046	-0,048
-286,818	-37,616	0,046	0,018
-285,803	-200,000	-0,011	-0,059
-284,789	-96,030	0,072	0,014
-283,774	-70,896	-0,036	0,010
-282,759	-125,283	-0,122	-0,013
-281,745	425,717	-0,030	-0,047
-280,730	-200,000	-0,010	-0,117
-279,716	-200,000	-0,032	0,107
-278,701	-200,000	0,015	-0,054
-277,686	800,000	0,012	0,029
-276,672	56,288	-0,043	0,030
-275,657	800,000	-0,052	-0,124
-274,643	-200,000	0,015	-0,119
-273,628	-200,000	0,000	-0,176
-272,613	70,456	-0,027	0,020
-271,599	-200,000	-0,004	0,274
-270,584	-42,507	0,174	0,064
-269,570	-8,311	-0,019	0,009
-268,555	459,253	-0,006	-0,010
-267,540	-200,000	-0,030	-0,140
-266,526	40,871	-0,111	-0,072
-265,511	800,000	-0,032	-0,095
-264,497	340,771	0,021	-0,029
-263,482	381,374	-0,033	0,049
-262,467	25,657	-0,054	0,032
-261,453	-32,728	-0,064	0,026
-260,438	430,123	0,105	-0,165
-259,424	-113,314	0,091	0,013
-258,409	328,255	-0,074	0,103
-257,395	208,210	0,040	-0,046
-256,380	800,000	0,006	0,017
-255,365	800,000	-0,072	0,171
-254,351	52,261	-0,013	-0,009
-253,336	161,232	-0,042	-0,042
-252,322	116,060	-0,132	0,117
-251,307	-200,000	0,001	-0,009
-250,292	40,466	0,078	0,051
-249,278	16,350	0,018	-0,010
-248,263	150,144	0,009	0,009
-247,249	203,486	-0,110	0,123
-246,234	71,746	0,055	-0,041
-245,219	800,000	-0,007	0,022
-244,205	42,642	-0,047	-0,031
-243,190	338,434	0,040	-0,057
-242,176	121,637	0,090	0,081
-241,161	-200,000	-0,003	-0,019
-240,146	165,697	0,107	-0,109
-239,132	42,736	-0,115	0,075
-238,117	458,990	-0,051	0,082
-237,103	-26,032	0,006	0,003
-236,088	-200,000	-0,001	-0,040
-235,073	-26,686	0,050	-0,021
-234,059	-200,000	0,002	0,082
-233,044	555,008	-0,049	0,085
-232,030	150,832	0,096	-0,095
-231,015	259,373	0,086	0,107
-230,000	-200,000	-0,034	-0,110
-228,986	271,077	0,077	0,098
-227,971	-76,679	0,005	-0,001
-226,957	-88,083	-0,123	0,026
-225,942	-173,855	0,185	-0,004
-224,927	-108,295	0,066	0,010
-223,913	-82,312	-0,036	-0,008
-222,898	-61,925	-0,027	-0,008
-221,884	-180,598	-0,114	0,002
-220,869	-85,842	0,139	0,031
-219,855	37,923	-0,095	0,061
-218,840	-200,000	0,011	0,085
-217,825	187,971	-0,038	0,041
-216,811	32,669	-0,141	0,088
-215,796	51,944	-0,161	-0,110
-214,782	120,542	0,092	-0,083
-213,767	-25,179	-0,061	-0,026
-212,752	-78,208	0,040	-0,010
-211,738	-200,000	0,003	-0,047
-210,723	733,530	-0,049	0,096
-209,709	-200,000	0,024	-0,093
-208,694	-200,000	0,008	-0,112
-207,679	66,195	-0,072	-0,052
-206,665	184,890	0,036	-0,039
-205,650	-56,760	0,101	-0,032
-204,636	-200,000	-0,002	0,049
-203,621	-18,835	0,089	0,040
-202,606	382,698	0,026	0,039
-201,592	-200,000	0,012	-0,127
-200,577	-99,199	-0,078	-0,014
-199,563	-169,935	0,063	-0,002
-198,548	-49,751	0,119	0,041
-197,533	800,000	-0,005	0,013
-196,519	-78,844	-0,059	-0,014
-195,504	-62,895	0,021	0,006
-194,490	-73,219	-0,115	-0,030
-193,475	-200,000	-0,016	-0,079
-192,460	-49,089	-0,108	0,037
-191,446	-70,797	0,139	-0,037
-190,431	800,000	0,039	-0,084
-189,417	119,916	0,050	-0,045
-188,402	101,908	-0,141	0,118
-187,387	118,176	-0,090	-0,080
-186,373	-200,000	0,002	-0,083
-185,358	98,605	0,041	-0,034
-184,344	54,840	0,073	-0,051
-183,329	-200,000	0,026	0,110
-182,315	800,000	-0,017	-0,049
-181,300	-58,838	-0,044	0,014
-180,285	-159,651	0,050	-0,002
-179,271	111,567	-0,038	-0,033
-178,256	-87,052	0,060	-0,013
-177,242	-195,459	-0,067	0,000
-176,227	-10,507	-0,012	0,006
-175,212	49,950	-0,170	-0,115
-174,198	800,000	0,012	-0,033
-173,183	-200,000	-0,017	-0,106
-172,169	-200,000	0,052	-0,170
-171,154	-200,000	-0,009	0,054
-170,139	-200,000	0,003	-0,132
-169,125	-139,772	-0,097	-0,007
-168,110	518,686	0,042	0,070
-167,096	-62,149	-0,029	-0,009
-166,081	-200,000	-0,001	-0,027
-165,066	101,314	-0,041	-0,034
-164,052	97,381	-0,093	0,077
-163,037	-200,000	0,015	0,110
-162,023	-76,695	-0,072	0,018
-161,008	-115,228	0,049	0,007
-159,993	-200,000	0,015	-0,051
-158,979	309,446	0,019	-0,025
-157,964	133,137	0,112	0,104
-156,950	-38,983	0,140	0,053
-155,935	119,101	0,020	0,018
-154,920	329,283	0,024	-0,034
-153,906	75,683	-0,086	0,065
-152,891	-105,492	-0,095	0,015
-151,877	73,680	-0,153	0,115
-150,862	9,993	0,028	-0,015
-149,847	-200,000	-0,014	0,145
-148,833	692,411	-0,062	0,117
-147,818	-200,000	-0,003	0,175
-146,804	162,609	-0,050	0,050
-145,789	-200,000	-0,032	0,131
-144,775	-40,626	-0,133	0,049
-143,760	800,000	0,056	0,115
-142,745	50,062	0,012	-0,008
-141,731	22,108	0,048	-0,028
-140,716	-58,338	0,059	-0,018
-139,702	216,772	0,060	0,068
-138,687	-200,000	-0,001	-0,051
-137,672	146,111	-0,076	-0,074
-136,658	-91,432	-0,020	0,004
-135,643	-36,375	-0,050	-0,019
-134,629	-20,571	-0,091	0,040
-133,614	-58,901	-0,054	-0,017
-132,599	-28,945	0,091	-0,038
-131,585	-63,395	-0,053	0,016
-130,570	-92,264	0,056	-0,011
-129,556	363,895	-0,048	-0,069
-128,541	-18,330	-0,027	0,012
-127,526	800,000	0,045	0,128
-126,512	156,557	-0,099	-0,099
-125,497	-200,000	0,015	0,083
-124,483	-200,000	-0,016	0,129
-123,468	-102,808	-0,087	0,015
-122,453	800,000	-0,025	-0,052
-121,439	-200,000	-0,011	-0,037
-120,424	-200,000	-0,013	-0,112
