DTS Sentinel unit serial number:	SN410029Multiplexer serial number:	ORYXHardware model number:	OX2-SRSoftware version number:	ORYX F/W v4,00 Oryx Data Collector v3.7.2.0data status	okinstallation	B6 Nyhavnadifferential loss correction	single-endedforward channel	channel 2reverse channel	N/Adate	2023/12/07time	20:55:08forward acquisition time	300,00reverse acquisition time	0,00gamma	499,1914k internal	0,3164k external	0,3164temperature offset calibration	1,0000default loss term (dB/km)	0,3820temperature slope calibration	1,0000multiplexer offset coefficient	1,0000multiplexer slope coefficient	1,0000fibre end	0,00T internal ref (°C)	13,75T ext. ref 1 (°C)	-3,12T ext. ref 2 (°C)	-3,14length (m)	temperature (°C)	Stokes	anti-Stokes-744,400	-200,000	-0,012	0,113
-743,385	-96,756	-0,291	0,056
-742,371	14,595	0,134	0,077
-741,356	-159,510	-0,142	-0,006
-740,342	67,417	0,156	0,117
-739,327	-128,922	-0,271	-0,028
-738,312	800,000	-0,027	-0,066
-737,298	-160,890	-0,312	0,012
-736,283	800,000	0,055	0,178
-735,269	-126,707	-0,217	0,023
-734,254	-147,825	0,163	-0,010
-733,239	0,828	-0,437	-0,229
-732,225	-82,268	0,170	0,040
-731,210	-200,000	-0,006	0,166
-730,196	201,055	-0,062	-0,070
-729,181	-200,000	-0,011	0,157
-728,167	654,562	-0,047	0,089
-727,152	49,796	-0,066	0,045
-726,137	-138,828	-0,130	-0,010
-725,123	-200,000	0,021	-0,075
-724,108	-200,000	-0,017	-0,145
-723,094	258,188	-0,030	-0,038
-722,079	-120,882	-0,117	0,014
-721,064	-200,000	-0,037	-0,130
-720,050	-200,000	0,009	0,115
-719,035	-157,291	-0,161	0,007
-718,021	-21,879	0,048	0,021
-717,006	-200,000	0,005	-0,035
-715,991	-9,947	-0,049	-0,024
-714,977	-48,076	-0,056	-0,020
-713,962	386,605	0,041	0,063
-712,948	-85,456	0,160	-0,036
-711,933	668,729	0,037	0,070
-710,918	216,559	-0,075	-0,087
-709,904	159,135	0,081	-0,083
-708,889	-54,530	0,030	-0,010
-707,875	800,000	0,030	-0,068
-706,860	-200,000	0,003	0,043
-705,845	-200,000	-0,003	-0,105
-704,831	-200,000	0,025	0,082
-703,816	212,562	0,048	-0,056
-702,802	-106,251	0,037	0,006
-701,787	32,151	-0,169	0,107
-700,772	105,531	0,016	0,014
-699,758	-65,414	-0,135	-0,040
-698,743	-39,627	0,028	0,011
-697,729	-200,000	-0,026	0,138
-696,714	266,844	-0,049	-0,063
-695,699	358,949	-0,029	-0,043
-694,685	-52,785	-0,110	-0,037
-693,670	-48,848	0,117	-0,041
-692,656	-117,356	-0,191	-0,025
-691,641	-200,000	0,001	-0,046
-690,627	-200,000	0,007	-0,059
-689,612	-200,000	0,028	0,102
-688,597	341,199	0,039	-0,056
-687,583	-200,000	-0,007	0,066
-686,568	800,000	0,058	0,126
-685,554	247,405	-0,045	-0,056
-684,539	-200,000	0,029	-0,109
-683,524	56,535	-0,051	0,036
-682,510	800,000	0,029	0,070
-681,495	111,749	-0,043	-0,038
-680,481	120,109	-0,054	0,049
-679,466	-169,411	0,074	0,002
-678,451	189,866	-0,059	0,065
-677,437	71,950	-0,042	-0,032
-676,422	178,538	-0,016	-0,017
-675,408	-65,556	-0,113	0,033
-674,393	-57,758	0,120	-0,038
-673,378	-200,000	0,005	-0,109
-672,364	-200,000	-0,011	0,075
-671,349	465,455	0,044	-0,073
-670,335	-125,226	-0,182	-0,020
-669,320	201,074	0,116	-0,131
-668,305	-42,595	0,094	0,035
-667,291	142,113	-0,052	0,051
-666,276	-78,538	-0,159	-0,040
-665,262	667,554	-0,072	-0,138
-664,247	331,953	-0,039	-0,055
-663,232	-0,165	-0,083	0,043
-662,218	221,115	0,036	0,042
-661,203	-200,000	0,017	0,160
-660,189	188,042	0,088	0,097
-659,174	276,573	-0,056	-0,073
-658,159	-191,108	0,029	-0,000
-657,145	800,000	-0,018	-0,052
-656,130	-158,343	0,119	0,005
-655,116	375,559	-0,072	0,108
-654,101	-200,000	0,004	0,050
-653,086	800,000	-0,032	0,082
-652,072	334,827	-0,051	0,073
-651,057	800,000	0,033	-0,095
-650,043	-125,389	-0,123	-0,014
-649,028	149,757	-0,106	-0,105
-648,014	375,526	0,061	0,092
-646,999	758,701	0,053	-0,105
-645,984	8,226	-0,149	-0,082
-644,970	-168,861	-0,160	-0,004
-643,955	239,907	0,078	-0,096
-642,941	17,498	-0,054	-0,032
-641,926	297,904	0,043	-0,058
-640,911	800,000	0,043	0,093
-639,897	-200,000	0,032	0,130
-638,882	-14,292	-0,085	-0,040
-637,868	-200,000	0,000	-0,072
-636,853	288,150	-0,048	0,063
-635,838	800,000	-0,029	-0,070
-634,824	266,154	0,031	-0,040
-633,809	-200,000	0,035	0,142
-632,795	478,186	0,037	0,062
-631,780	-200,000	-0,009	0,113
-630,765	-200,000	0,022	-0,130
-629,751	-200,000	-0,016	-0,080
-628,736	800,000	0,045	-0,123
-627,722	-98,832	-0,136	0,025
-626,707	106,177	-0,035	0,030
-625,692	64,732	0,039	-0,029
-624,678	-200,000	-0,018	0,116
-623,663	-200,000	0,013	0,134
-622,649	662,718	-0,030	-0,056
-621,634	-200,000	0,008	-0,149
-620,619	482,130	0,048	0,080
-619,605	24,460	0,046	-0,028
-618,590	-33,226	-0,052	-0,021
-617,576	222,139	-0,034	-0,040
-616,561	-99,771	-0,092	-0,017
-615,546	11,710	0,069	-0,039
-614,532	23,540	-0,145	-0,087
-613,517	144,830	0,036	-0,036
-612,503	-200,000	0,010	0,070
-611,488	26,309	0,171	0,105
-610,474	-200,000	-0,010	0,071
-609,459	17,305	0,045	0,026
-608,444	50,381	-0,007	-0,005
-607,430	800,000	-0,012	0,039
-606,415	800,000	0,077	-0,187
-605,401	-200,000	0,003	-0,029
-604,386	533,371	-0,106	0,185
-603,371	800,000	-0,043	0,091
-602,357	-97,579	0,064	-0,012
-601,342	-46,904	-0,156	-0,055
-600,328	-95,344	-0,148	-0,029
-599,313	800,000	-0,056	-0,116
-598,298	800,000	-0,035	0,110
-597,284	800,000	-0,062	-0,125
-596,269	-90,086	0,066	0,014
-595,255	15,838	-0,009	-0,005
-594,240	-200,000	0,003	0,056
-593,225	-200,000	-0,001	0,021
-592,211	800,000	0,029	-0,086
-591,196	626,315	-0,060	0,111
-590,182	-200,000	0,004	-0,046
-589,167	95,489	-0,019	0,016
-588,152	800,000	-0,052	0,159
-587,138	-199,453	0,060	0,000
-586,123	800,000	-0,037	-0,109
-585,109	71,721	-0,075	-0,057
-584,094	-200,000	0,002	0,142
-583,079	158,783	0,019	-0,020
-582,065	800,000	0,028	0,060
-581,050	34,542	0,048	0,030
-580,036	-34,447	-0,177	-0,071
-579,021	800,000	-0,008	-0,026
-578,006	-200,000	0,001	-0,150
-576,992	-200,000	0,032	0,209
-575,977	-200,000	0,016	0,061
-574,963	-200,000	0,000	-0,042
-573,948	112,126	0,016	-0,014
-572,934	293,089	0,010	-0,013
-571,919	88,821	-0,025	0,021
-570,904	-200,000	-0,032	-0,103
-569,890	171,685	-0,088	-0,093
-568,875	443,535	0,038	-0,061
-567,861	146,377	0,083	-0,082
-566,846	800,000	-0,018	0,051
-565,831	249,932	-0,023	-0,029
-564,817	800,000	-0,013	0,036
-563,802	-200,000	-0,018	0,127
-562,788	-96,326	0,055	-0,011
-561,773	-200,000	-0,008	0,195
-560,758	191,334	0,071	0,078
-559,744	-144,659	0,127	0,008
-558,729	800,000	0,060	0,143
-557,715	-200,000	-0,000	0,002
-556,700	-200,000	-0,020	-0,095
-555,685	-12,242	-0,085	-0,040
-554,671	-10,128	-0,049	-0,024
-553,656	-200,000	0,017	-0,103
-552,642	393,825	0,028	0,042
-551,627	-22,950	0,087	0,038
-550,612	673,863	-0,065	-0,123
-549,598	-200,000	-0,020	-0,105
-548,583	800,000	-0,031	-0,087
-547,569	94,698	0,072	-0,060
-546,554	109,204	0,096	-0,084
-545,539	800,000	0,028	0,077
-544,525	700,421	0,079	-0,153
-543,510	664,038	0,085	-0,160
-542,496	800,000	0,006	-0,013
-541,481	609,060	-0,031	-0,056
-540,466	-167,543	-0,099	0,003
-539,452	800,000	0,031	-0,072
-538,437	800,000	0,037	-0,081
-537,423	-85,535	0,032	-0,007
-536,408	-70,317	-0,115	0,032
-535,393	-190,414	0,057	-0,000
-534,379	-109,297	0,061	0,009
-533,364	-170,504	-0,043	0,001
-532,350	-112,566	0,065	0,009
-531,335	-200,000	0,015	-0,065
-530,321	800,000	0,035	0,109
-529,306	-200,000	-0,004	-0,052
-528,291	-200,000	0,034	-0,114
-527,277	-168,975	0,068	0,002
-526,262	-113,295	-0,101	0,014
-525,248	-200,000	0,018	0,102
-524,233	-123,868	-0,128	-0,015
-523,218	-200,000	0,006	-0,085
-522,204	800,000	-0,026	-0,081
-521,189	-200,000	-0,025	-0,115
-520,175	-200,000	0,008	-0,024
-519,160	-200,000	-0,012	-0,072
-518,145	-169,894	0,076	-0,002
-517,131	-98,288	-0,119	-0,022
-516,116	-200,000	0,062	-0,207
-515,102	-200,000	0,016	-0,078
-514,087	-172,013	-0,046	-0,001
-513,072	800,000	-0,065	-0,146
-512,058	41,840	0,022	-0,015
-511,043	-123,183	-0,022	-0,002
-510,029	800,000	0,020	-0,057
-509,014	44,351	-0,055	0,037
-507,999	116,384	0,070	-0,063
-506,985	800,000	-0,021	-0,053
-505,970	534,513	-0,087	-0,151
-504,956	-200,000	0,028	-0,103
-503,941	-135,417	0,082	0,007
-502,926	396,072	0,036	-0,054
-501,912	31,329	0,169	0,106
-500,897	431,340	-0,053	0,084
-499,883	96,362	-0,097	0,081
-498,868	327,690	-0,089	-0,124
-497,853	-200,000	-0,011	-0,085
-496,839	800,000	0,016	-0,039
-495,824	314,033	0,090	0,124
-494,810	-200,000	0,003	-0,018
-493,795	-200,000	0,044	0,153
-492,781	-116,539	0,172	0,023
-491,766	-200,000	-0,003	-0,132
-490,751	60,265	-0,084	0,061
-489,737	-172,685	0,111	0,002
-488,722	518,512	0,017	-0,029
-487,708	37,152	-0,061	0,039
-486,693	-200,000	0,007	-0,039
-485,678	-108,907	0,155	0,024
-484,664	-27,923	-0,124	-0,052
-483,649	534,941	0,049	-0,084
-482,635	-123,492	-0,171	-0,020
-481,620	-200,000	-0,028	-0,106
-480,605	-200,000	0,000	-0,056
-479,591	-96,811	0,121	-0,023
-478,576	535,037	-0,034	0,059
-477,562	-65,960	-0,113	-0,033
-476,547	800,000	-0,013	-0,028
-475,532	800,000	0,008	-0,017
-474,518	294,376	-0,048	0,064
-473,503	580,565	-0,056	0,101
-472,489	424,817	-0,027	0,042
-471,474	-170,932	0,169	0,004
-470,459	40,982	0,018	-0,012
-469,445	-200,000	-0,032	0,145
-468,430	196,613	0,037	-0,041
-467,416	314,646	0,117	-0,160
-466,401	-200,000	-0,019	0,079
-465,386	-200,000	0,042	0,191
-464,372	-0,466	0,052	0,027
-463,357	800,000	-0,029	-0,079
-462,343	-200,000	-0,039	-0,137
-461,328	-95,116	-0,051	0,010
-460,313	-44,490	0,071	0,026
-459,299	441,731	0,066	0,105
-458,284	123,940	0,107	0,098
-457,270	-6,155	0,067	0,033
-456,255	106,927	-0,123	0,106
-455,241	-200,000	-0,009	0,046
-454,226	59,241	0,118	0,084
-453,211	-67,079	-0,104	-0,030
-452,197	87,964	0,074	0,059
-451,182	183,894	0,028	0,030
-450,168	800,000	0,013	0,032
-449,153	-200,000	0,014	0,064
-448,138	108,365	0,036	-0,031
-447,124	437,423	0,029	0,047
-446,109	3,835	0,129	-0,068
-445,095	-200,000	0,004	0,059
-444,080	-8,793	0,085	0,041
-443,065	174,485	-0,014	0,015
-442,051	86,154	0,036	-0,029
-441,036	45,755	-0,081	-0,054
-440,022	800,000	-0,051	0,118
-439,007	123,911	-0,016	0,015
-437,992	800,000	-0,020	-0,046
-436,978	24,521	0,133	0,080
-435,963	-117,315	0,078	-0,010
-434,949	-124,208	-0,005	-0,001
-433,934	191,833	-0,060	-0,066
-432,919	449,724	0,026	-0,042
-431,905	-200,000	-0,029	-0,116
-430,890	355,421	0,070	-0,101
-429,876	-124,930	-0,168	-0,019
-428,861	-200,000	0,003	-0,095
-427,846	-66,790	0,110	0,032
-426,832	-200,000	-0,010	0,091
-425,817	21,085	-0,112	0,066
-424,803	-40,911	-0,132	0,049
-423,788	-76,559	-0,012	-0,003
-422,773	-200,000	0,009	0,129
-421,759	800,000	-0,049	0,099
-420,744	-60,870	0,031	0,009
-419,730	240,659	0,052	-0,063
-418,715	-20,339	-0,064	0,029
-417,701	-200,000	-0,028	-0,139
-416,686	177,919	0,045	0,047
-415,671	373,718	0,027	0,040
-414,657	800,000	0,055	0,171
-413,642	-200,000	-0,016	0,068
-412,628	202,945	0,029	-0,032
-411,613	-200,000	-0,015	-0,048
-410,598	13,781	-0,161	0,091
-409,584	-117,519	-0,093	-0,012
-408,569	253,158	0,089	0,111
-407,555	-56,195	0,078	0,025
-406,540	-137,395	0,007	-0,001
-405,525	-110,107	0,026	-0,004
-404,511	-200,000	-0,016	-0,073
-403,496	316,979	0,032	-0,045
-402,482	188,151	-0,158	-0,171
-401,467	629,802	-0,028	-0,052
-400,452	658,672	0,051	0,096
-399,438	504,450	-0,041	0,070
-398,423	-200,000	0,031	0,156
-397,409	267,650	-0,028	0,035
-396,394	-200,000	0,008	-0,044
-395,379	-26,591	0,101	-0,043
-394,365	-200,000	0,009	0,034
-393,350	-200,000	0,002	0,036
-392,336	-25,841	0,020	0,008
-391,321	36,839	-0,043	0,028
-390,306	159,599	0,098	-0,099
-389,292	145,985	0,038	-0,037
-388,277	58,761	0,036	-0,026
-387,263	210,052	0,061	-0,069
-386,248	800,000	0,053	0,119
-385,233	66,829	-0,084	-0,062
-384,219	-142,306	0,084	0,006
-383,204	-109,334	-0,081	-0,012
-382,190	-28,378	-0,093	0,039
-381,175	137,021	-0,083	-0,079
-380,160	43,648	0,102	0,068
-379,146	-18,639	0,108	-0,049
-378,131	800,000	-0,013	-0,033
-377,117	-68,893	0,024	0,007
-376,102	344,756	-0,037	-0,052
-375,088	392,157	0,055	-0,084
-374,073	-200,000	0,023	0,092
-373,058	188,973	-0,082	0,089
-372,044	-200,000	-0,016	0,077
-371,029	200,776	0,078	0,088
-370,015	-200,000	-0,005	0,042
-369,000	-1,412	-0,022	0,011
-367,985	369,653	-0,080	0,118
-366,971	114,994	-0,027	0,024
-365,956	-200,000	-0,011	0,129
-364,942	-200,000	-0,016	0,073
-363,927	266,679	0,032	0,041
-362,912	17,025	0,038	0,022
-361,898	-200,000	-0,026	-0,117
-360,883	480,180	-0,029	-0,048
-359,869	-200,000	0,007	0,056
-358,854	117,345	0,087	0,077
-357,839	-39,864	0,205	-0,077
-356,825	769,170	0,021	0,042
-355,810	-42,484	0,139	0,051
-354,796	800,000	0,031	-0,071
-353,781	-62,293	-0,039	-0,012
-352,766	800,000	-0,058	0,118
-351,752	180,676	-0,005	0,005
-350,737	-200,000	0,002	0,109
-349,723	-166,830	0,129	0,004
-348,708	336,940	-0,037	0,052
-347,693	109,617	-0,075	-0,065
-346,679	-97,322	-0,053	-0,010
-345,664	-200,000	-0,002	-0,176
-344,650	-200,000	0,006	0,181
-343,635	-130,538	0,055	-0,005
-342,620	-200,000	0,016	0,149
-341,606	800,000	0,060	-0,139
-340,591	325,808	-0,046	-0,064
-339,577	-134,705	-0,189	-0,016
-338,562	-36,795	0,097	-0,038
-337,548	-171,463	-0,069	0,002
-336,533	613,316	0,048	0,087
-335,518	174,633	-0,047	-0,049
-334,504	50,361	0,074	0,051
-333,489	-200,000	0,014	0,108
-332,475	-63,992	-0,058	-0,017
-331,460	327,851	0,066	-0,092
-330,445	201,177	0,056	-0,062
-329,431	-11,823	-0,111	0,052
-328,416	223,457	0,045	-0,053
-327,402	800,000	-0,018	-0,037
-326,387	-46,691	-0,089	-0,031
-325,372	-200,000	-0,043	-0,154
-324,358	35,580	-0,109	-0,069
-323,343	325,078	0,033	0,046
-322,329	-200,000	-0,013	-0,189
-321,314	-105,948	-0,042	-0,007
-320,299	-200,000	-0,017	-0,075
-319,285	-200,000	0,010	-0,070
-318,270	-55,277	-0,126	-0,041
-317,256	-132,512	0,049	0,005
-316,241	-200,000	0,008	0,071
-315,226	73,865	0,070	-0,053
-314,212	-61,152	0,133	0,040
-313,197	-6,131	-0,065	0,032
-312,183	-200,000	0,012	0,076
-311,168	-118,348	0,124	-0,016
-310,153	-200,000	-0,013	-0,142
-309,139	800,000	-0,099	-0,232
-308,124	-11,123	0,061	-0,029
-307,110	-113,209	-0,096	-0,013
-306,095	403,605	0,068	0,103
-305,080	800,000	0,011	-0,031
-304,066	-60,047	-0,043	-0,013
-303,051	29,327	-0,107	0,065
-302,037	38,682	-0,023	-0,015
-301,022	46,786	-0,063	0,042
-300,008	-200,000	0,032	0,122
-298,993	800,000	-0,019	0,060
-297,978	754,534	-0,020	0,039
-296,964	465,307	-0,027	-0,044
-295,949	-200,000	-0,020	0,102
-294,935	-149,818	-0,122	0,007
-293,920	-159,355	0,081	0,003
-292,905	-41,732	0,068	0,025
-291,891	-200,000	-0,004	0,134
-290,876	80,837	0,080	0,062
-289,862	179,824	0,073	-0,078
-288,847	800,000	-0,043	-0,096
-287,832	800,000	0,028	0,064
-286,818	-200,000	-0,008	0,025
-285,803	-106,632	0,031	-0,005
-284,789	211,672	0,036	0,041
-283,774	-200,000	-0,003	0,102
-282,759	-200,000	0,009	-0,042
-281,745	-200,000	-0,030	-0,122
-280,730	63,126	-0,194	-0,140
-279,716	-147,751	0,198	0,012
-278,701	-17,985	0,054	-0,024
-277,686	800,000	0,018	-0,047
-276,672	432,736	0,054	0,085
-275,657	-200,000	-0,021	-0,110
-274,643	-200,000	-0,011	0,037
-273,628	-187,022	0,022	0,000
-272,613	625,720	0,008	-0,014
-271,599	11,179	0,151	0,083
-270,584	359,539	0,071	0,102
-269,570	-88,647	0,029	0,006
-268,555	-200,000	-0,037	0,178
-267,540	-200,000	0,006	0,105
-266,526	-9,254	-0,088	-0,042
-265,511	74,184	0,104	0,079
-264,497	129,171	-0,052	0,048
-263,482	497,818	0,038	-0,064
-262,467	-200,000	0,006	-0,168
-261,453	113,582	-0,024	0,021
-260,438	25,359	0,055	-0,033
-259,424	11,393	-0,108	-0,060
-258,409	-200,000	0,001	-0,035
-257,395	-14,307	0,089	0,041
-256,380	114,629	-0,058	0,051
-255,365	-20,714	-0,027	0,012
-254,351	-23,107	-0,095	0,041
-253,336	-200,000	-0,011	-0,086
-252,322	383,799	-0,086	-0,129
-251,307	-200,000	0,004	0,037
-250,292	68,105	-0,118	0,087
-249,278	516,897	0,034	-0,058
-248,263	-200,000	0,030	-0,121
-247,249	252,983	0,070	0,086
-246,234	-15,234	-0,167	-0,077
-245,219	146,719	-0,046	-0,045
-244,205	-200,000	-0,024	-0,114
-243,190	-123,679	0,035	0,004
-242,176	-44,115	-0,028	-0,010
-241,161	57,087	-0,034	0,024
-240,146	800,000	0,020	-0,041
-239,132	800,000	-0,035	-0,077
-238,117	-144,363	-0,048	0,003
-237,103	258,362	-0,004	-0,005
-236,088	291,369	-0,038	0,050
-235,073	-200,000	0,021	0,077
-234,059	-159,542	0,132	-0,005
-233,044	130,828	0,137	0,126
-232,030	23,017	-0,116	0,069
-231,015	-46,847	-0,098	-0,034
-230,000	-55,674	0,029	-0,009
-228,986	-44,352	0,075	-0,027
-227,971	-183,330	0,036	0,000
-226,957	586,411	0,021	0,037
-225,942	-200,000	0,002	-0,049
-224,927	-50,329	-0,040	0,014
-223,913	683,090	-0,023	-0,044
-222,898	-200,000	-0,024	-0,207
-221,884	227,010	0,026	0,030
-220,869	-113,085	0,144	-0,020
-219,855	690,744	0,086	0,164
-218,840	-62,892	-0,075	0,022
-217,825	460,883	0,056	-0,091
-216,811	-74,647	-0,060	-0,015
-215,796	136,113	-0,145	-0,136
-214,782	800,000	-0,052	0,125
-213,767	77,834	0,123	0,094
-212,752	-200,000	-0,010	0,140
-211,738	800,000	0,070	0,156
-210,723	479,738	-0,044	0,071
-209,709	78,603	-0,085	-0,065
-208,694	-200,000	-0,012	-0,052
-207,679	763,550	-0,053	0,104
-206,665	-28,513	-0,065	0,027
-205,650	123,793	-0,033	0,030
-204,636	145,625	0,080	0,077
-203,621	499,091	0,024	-0,039
-202,606	-56,417	-0,208	-0,066
-201,592	187,365	0,081	0,087
-200,577	-200,000	-0,007	-0,033
-199,563	167,702	-0,034	-0,035
-198,548	800,000	-0,026	-0,056
-197,533	-200,000	0,001	0,021
-196,519	116,896	-0,035	0,031
-195,504	-90,261	-0,092	-0,019
-194,490	-58,143	0,225	-0,070
-193,475	-200,000	-0,002	0,062
-192,460	-118,862	0,063	0,008
-191,446	-200,000	0,002	0,014
-190,431	370,691	0,129	0,189
-189,417	-54,444	-0,112	0,036
-188,402	800,000	-0,037	0,093
-187,387	134,193	-0,068	0,063
-186,373	85,339	-0,055	0,044
-185,358	-200,000	0,034	0,118
-184,344	800,000	0,048	0,122
-183,329	229,749	-0,102	0,120
-182,315	-19,271	-0,039	-0,017
-181,300	433,686	0,076	-0,119
-180,285	482,838	-0,017	-0,028
-179,271	-200,000	0,028	-0,108
-178,256	165,646	0,051	-0,052
-177,242	459,406	0,063	-0,102
-176,227	-101,920	-0,049	0,008
-175,212	-200,000	0,013	0,066
-174,198	77,824	-0,131	0,100
-173,183	190,456	0,043	-0,047
-172,169	52,860	0,056	-0,038
-171,154	155,384	-0,035	0,035
-170,139	-23,021	0,014	0,006
-169,125	49,018	0,036	-0,024
-168,110	384,755	0,075	0,112
-167,096	-178,304	-0,040	0,001
-166,081	-200,000	-0,010	-0,039
-165,066	405,333	-0,072	-0,109
-164,052	-169,750	-0,021	0,001
-163,037	-200,000	-0,012	0,163
-162,023	99,726	0,077	0,064
-161,008	546,586	0,030	0,053
-159,993	198,066	0,068	-0,075
-158,979	71,350	-0,067	-0,050
-157,964	-109,144	-0,147	-0,022
-156,950	94,119	-0,053	0,043
-155,935	-26,636	0,039	-0,017
-154,920	499,607	0,038	0,063
-153,906	-200,000	0,002	-0,024
-152,891	375,973	0,041	-0,061
-151,877	-200,000	0,022	-0,083
-150,862	133,385	-0,066	0,061
-149,847	167,356	-0,060	-0,062
-148,833	-126,957	0,097	0,010
-147,818	-9,746	0,081	0,038
-146,804	-200,000	0,026	0,120
-145,789	-9,943	0,092	0,044
-144,775	46,188	0,071	0,047
-143,760	-200,000	0,002	-0,069
-142,745	432,222	-0,030	-0,048
-141,731	800,000	0,013	0,031
-140,716	-146,184	0,052	0,003
-139,702	800,000	-0,046	0,127
-138,687	447,432	0,039	0,062
-137,672	800,000	-0,058	0,152
-136,658	10,162	-0,045	0,024
-135,643	-61,013	0,101	0,031
-134,629	-200,000	0,026	0,105
-133,614	800,000	-0,020	0,057
-132,599	-200,000	-0,023	0,134
-131,585	-200,000	-0,029	0,152
-130,570	502,752	-0,075	0,126
-129,556	437,281	-0,091	-0,144
-128,541	-200,000	0,026	-0,083
-127,526	262,426	-0,021	0,026
-126,512	35,571	-0,132	-0,083
-125,497	-200,000	0,004	0,013
-124,483	-36,574	0,027	-0,010
-123,468	-99,233	-0,113	0,020
-122,453	-200,000	0,002	-0,132
-121,439	-52,080	0,124	0,041
-120,424	800,000	-0,075	0,204
