DTS Sentinel unit serial number:	SN410029Multiplexer serial number:	ORYXHardware model number:	OX2-SRSoftware version number:	ORYX F/W v4,00 Oryx Data Collector v3.7.2.0data status	okinstallation	B6 Nyhavnadifferential loss correction	single-endedforward channel	channel 2reverse channel	N/Adate	2023/12/07time	17:30:08forward acquisition time	300,00reverse acquisition time	0,00gamma	499,1914k internal	0,3163k external	0,3163temperature offset calibration	1,0000default loss term (dB/km)	0,3820temperature slope calibration	1,0000multiplexer offset coefficient	1,0000multiplexer slope coefficient	1,0000fibre end	0,00T internal ref (°C)	14,44T ext. ref 1 (°C)	-2,46T ext. ref 2 (°C)	-2,47length (m)	temperature (°C)	Stokes	anti-Stokes-744,400	-14,174	0,093	0,044
-743,385	-119,497	-0,190	-0,024
-742,371	-106,292	0,226	-0,037
-741,356	196,207	-0,146	0,164
-740,342	800,000	0,050	0,149
-739,327	-116,817	-0,477	0,064
-738,312	325,275	0,163	0,230
-737,298	-68,881	-0,251	0,071
-736,283	323,229	0,057	-0,081
-735,269	-173,293	-0,262	0,006
-734,254	482,389	-0,023	0,038
-733,239	-47,269	-0,539	-0,192
-732,225	59,286	0,177	0,128
-731,210	-179,102	-0,072	-0,001
-730,196	-77,767	-0,135	-0,034
-729,181	-81,942	-0,049	0,012
-728,167	-200,000	0,039	0,185
-727,152	190,632	0,029	-0,032
-726,137	276,276	-0,061	-0,080
-725,123	-200,000	0,011	-0,055
-724,108	117,453	-0,061	-0,055
-723,094	277,963	-0,041	0,053
-722,079	24,105	-0,129	0,078
-721,064	-73,214	-0,070	-0,019
-720,050	800,000	0,036	-0,102
-719,035	252,115	-0,010	-0,013
-718,021	406,023	0,065	-0,102
-717,006	128,091	0,096	-0,090
-715,991	800,000	0,058	-0,167
-714,977	-200,000	-0,013	-0,124
-713,962	-91,380	-0,092	-0,019
-712,948	156,878	-0,051	-0,052
-711,933	-92,119	0,112	0,023
-710,918	-60,362	-0,196	-0,061
-709,904	-200,000	0,006	-0,051
-708,889	89,315	-0,067	0,055
-707,875	36,213	-0,109	-0,070
-706,860	-51,907	-0,057	-0,020
-705,845	-103,432	-0,075	0,013
-704,831	-36,992	0,213	0,083
-703,816	117,285	0,028	-0,025
-702,802	261,483	0,054	-0,069
-701,787	-106,585	0,106	-0,017
-700,772	-200,000	0,017	-0,106
-699,758	0,071	0,108	-0,056
-698,743	16,349	-0,096	-0,055
-697,729	4,057	-0,068	0,037
-696,714	800,000	-0,040	0,102
-695,699	-99,961	-0,148	0,027
-694,685	-140,933	-0,176	0,013
-693,670	121,473	-0,099	-0,091
-692,656	-136,285	0,174	0,015
-691,641	73,611	0,080	0,061
-690,627	800,000	0,008	0,020
-689,612	-142,884	-0,124	-0,009
-688,597	800,000	0,029	0,064
-687,583	66,073	0,050	-0,037
-686,568	800,000	-0,087	-0,196
-685,554	277,303	0,035	0,046
-684,539	268,900	0,038	-0,049
-683,524	-200,000	0,030	-0,166
-682,510	88,568	0,061	-0,050
-681,495	-200,000	-0,033	-0,111
-680,481	800,000	0,019	-0,057
-679,466	-93,293	0,033	-0,007
-678,451	235,665	0,071	-0,086
-677,437	457,075	-0,081	-0,132
-676,422	-200,000	-0,001	0,173
-675,408	2,650	-0,078	0,042
-674,393	143,861	0,131	-0,128
-673,378	-34,060	-0,068	-0,027
-672,364	35,381	-0,090	-0,058
-671,349	327,545	-0,019	0,027
-670,335	-18,502	0,039	0,018
-669,320	-200,000	-0,023	0,145
-668,305	1,492	-0,127	-0,067
-667,291	17,848	-0,080	0,047
-666,276	149,279	0,086	0,085
-665,262	-34,471	-0,059	-0,024
-664,247	-200,000	-0,012	-0,062
-663,232	-30,970	0,087	0,036
-662,218	99,769	0,097	-0,082
-661,203	472,449	0,059	0,097
-660,189	32,174	-0,106	0,067
-659,174	-27,753	0,093	-0,040
-658,159	761,403	-0,041	0,083
-657,145	295,455	-0,035	-0,048
-656,130	302,022	-0,094	0,128
-655,116	-31,101	-0,147	0,060
-654,101	538,817	-0,108	0,189
-653,086	-200,000	0,009	-0,106
-652,072	-40,497	0,072	-0,027
-651,057	-200,000	-0,011	-0,137
-650,043	25,408	0,105	-0,064
-649,028	-32,903	-0,106	-0,043
-648,014	237,758	0,003	0,003
-646,999	-137,159	-0,099	0,008
-645,984	287,344	0,075	0,100
-644,970	330,798	-0,000	0,001
-643,955	176,198	-0,047	-0,051
-642,941	-52,536	0,043	-0,015
-641,926	9,054	0,087	-0,048
-640,911	800,000	-0,058	-0,126
-639,897	323,889	0,028	-0,039
-638,882	85,632	-0,057	0,046
-637,868	53,247	-0,072	-0,050
-636,853	800,000	0,030	0,060
-635,838	202,235	-0,068	0,077
-634,824	-200,000	-0,014	-0,052
-633,809	777,059	-0,095	-0,190
-632,795	-200,000	0,032	0,109
-631,780	187,682	-0,023	0,025
-630,765	800,000	-0,014	0,031
-629,751	-158,150	-0,199	-0,008
-628,736	166,653	-0,102	-0,106
-627,722	-200,000	-0,047	-0,161
-626,707	55,353	-0,051	-0,036
-625,692	-200,000	0,026	-0,084
-624,678	-200,000	-0,008	0,056
-623,663	-200,000	0,017	0,096
-622,649	85,303	-0,146	-0,118
-621,634	484,132	0,048	-0,080
-620,619	-160,292	-0,085	0,003
-619,605	800,000	-0,023	0,061
-618,590	-200,000	0,000	-0,067
-617,576	130,990	0,157	0,148
-616,561	800,000	0,032	0,080
-615,546	-42,560	-0,050	-0,019
-614,532	-200,000	-0,005	0,042
-613,517	800,000	0,039	-0,086
-612,503	-200,000	0,010	0,078
-611,488	319,357	0,127	0,176
-610,474	-94,979	-0,050	-0,010
-609,459	81,010	-0,086	-0,068
-608,444	12,478	-0,047	-0,027
-607,430	96,023	0,004	0,003
-606,415	196,808	-0,007	-0,008
-605,401	-200,000	0,021	-0,082
-604,386	14,727	0,025	-0,014
-603,371	-200,000	-0,049	0,200
-602,357	-67,998	0,073	0,021
-601,342	11,252	0,054	-0,030
-600,328	-105,689	-0,123	-0,020
-599,313	-200,000	-0,009	0,033
-598,298	800,000	0,021	-0,047
-597,284	222,538	0,084	-0,099
-596,269	-200,000	0,075	0,245
-595,255	-63,554	-0,050	0,015
-594,240	56,967	0,024	-0,017
-593,225	-200,000	-0,003	-0,047
-592,211	39,546	-0,103	-0,067
-591,196	102,856	0,079	-0,067
-590,182	-36,378	0,046	0,018
-589,167	-95,139	0,115	-0,022
-588,152	83,762	-0,061	0,049
-587,138	800,000	-0,052	0,125
-586,123	800,000	0,050	0,131
-585,109	-77,283	0,094	-0,024
-584,094	650,566	-0,054	-0,102
-583,079	-125,105	0,039	0,004
-582,065	-200,000	-0,012	-0,108
-581,050	-200,000	-0,017	0,056
-580,036	390,155	-0,097	-0,147
-579,021	29,188	-0,135	-0,084
-578,006	31,584	0,149	-0,093
-576,992	-200,000	0,036	-0,117
-575,977	-62,383	0,160	0,048
-574,963	-59,496	-0,050	-0,016
-573,948	-200,000	-0,014	0,073
-572,934	122,783	0,076	0,070
-571,919	361,738	-0,069	-0,102
-570,904	573,444	-0,086	-0,154
-569,890	-200,000	-0,028	0,111
-568,875	13,852	0,113	-0,064
-567,861	328,290	0,010	0,014
-566,846	-170,988	0,063	0,002
-565,831	-91,742	0,046	0,010
-564,817	-154,958	0,156	0,007
-563,802	-200,000	-0,029	-0,119
-562,788	-200,000	-0,020	-0,138
-561,773	-91,463	0,060	0,012
-560,758	-200,000	0,022	0,075
-559,744	-56,220	-0,050	0,016
-558,729	770,523	0,041	0,082
-557,715	800,000	-0,024	-0,077
-556,700	232,203	0,093	-0,111
-555,685	35,416	-0,086	-0,055
-554,671	51,522	0,150	0,104
-553,656	496,816	-0,051	-0,087
-552,642	611,602	-0,077	-0,141
-551,627	-200,000	0,006	0,042
-550,612	-174,469	-0,093	-0,002
-549,598	800,000	0,013	0,037
-548,583	49,024	-0,102	-0,070
-547,569	33,028	0,093	0,059
-546,554	207,927	-0,048	-0,055
-545,539	87,970	-0,072	0,058
-544,525	677,423	0,029	-0,055
-543,510	800,000	-0,068	-0,144
-542,496	-90,204	0,021	0,004
-541,481	-200,000	0,017	0,074
-540,466	-169,213	0,162	-0,004
-539,452	-200,000	0,017	0,202
-538,437	-148,485	-0,036	-0,002
-537,423	-39,089	-0,074	0,028
-536,408	800,000	0,028	-0,088
-535,393	14,387	-0,056	-0,032
-534,379	19,595	0,063	0,037
-533,364	800,000	0,044	0,114
-532,350	-85,519	-0,062	-0,014
-531,335	-200,000	0,008	0,097
-530,321	-103,427	0,100	0,017
-529,306	-200,000	0,007	-0,030
-528,291	-200,000	-0,029	0,105
-527,277	115,705	0,044	-0,039
-526,262	-15,252	-0,146	-0,068
-525,248	96,493	-0,103	0,086
-524,233	-123,948	-0,077	0,009
-523,218	104,200	-0,037	0,032
-522,204	41,563	-0,024	0,016
-521,189	1,969	-0,171	-0,090
-520,175	24,688	-0,015	0,009
-519,160	-200,000	-0,010	-0,039
-518,145	8,559	-0,161	-0,088
-517,131	70,192	0,043	0,032
-516,116	-200,000	0,023	0,076
-515,102	-112,333	-0,114	-0,016
-514,087	118,527	-0,062	-0,056
-513,072	197,551	-0,097	-0,108
-512,058	126,274	-0,104	-0,096
-511,043	62,619	0,118	-0,086
-510,029	-129,753	0,031	0,003
-509,014	374,675	0,141	0,210
-507,999	677,665	0,039	-0,075
-506,985	-93,155	-0,079	0,016
-505,970	-140,262	-0,237	0,018
-504,956	-126,347	0,165	-0,018
-503,941	-44,989	0,082	-0,030
-502,926	479,967	-0,025	-0,042
-501,912	800,000	0,041	-0,115
-500,897	412,947	-0,063	-0,098
-499,883	447,546	0,045	-0,073
-498,868	-200,000	0,004	-0,078
-497,853	-125,327	0,035	-0,004
-496,839	360,004	0,014	-0,020
-495,824	496,639	0,039	-0,066
-494,810	595,743	0,027	-0,049
-493,795	36,477	0,044	0,028
-492,781	100,019	0,032	0,027
-491,766	-200,000	0,003	0,034
-490,751	-111,683	0,042	-0,006
-489,737	-19,687	0,075	-0,034
-488,722	-117,978	-0,074	0,010
-487,708	-200,000	0,037	0,182
-486,693	2,279	-0,039	0,020
-485,678	800,000	-0,020	0,046
-484,664	21,563	-0,042	0,025
-483,649	-200,000	0,015	-0,166
-482,635	-101,776	0,086	0,015
-481,620	63,114	0,057	0,041
-480,605	-200,000	-0,001	0,251
-479,591	-45,805	0,090	0,032
-478,576	-66,926	-0,031	-0,009
-477,562	48,243	-0,065	-0,044
-476,547	-200,000	0,005	-0,153
-475,532	-200,000	0,010	-0,143
-474,518	584,705	0,060	-0,108
-473,503	-30,776	-0,040	0,017
-472,489	81,239	-0,139	-0,109
-471,474	-121,164	0,086	0,010
-470,459	-195,296	0,152	-0,001
-469,445	-137,503	-0,139	0,011
-468,430	-200,000	-0,001	0,036
-467,416	-3,544	0,119	0,060
-466,401	800,000	0,014	0,038
-465,386	-25,870	0,017	0,007
-464,372	-200,000	0,018	0,090
-463,357	-27,748	-0,070	-0,029
-462,343	800,000	-0,027	0,076
-461,328	310,392	-0,054	-0,073
-460,313	800,000	0,014	-0,041
-459,299	-200,000	-0,009	-0,068
-458,284	535,079	-0,035	0,060
-457,270	534,936	-0,064	0,111
-456,255	-7,573	-0,080	-0,039
-455,241	94,477	-0,036	-0,029
-454,226	-170,692	-0,117	0,003
-453,211	230,644	0,041	0,049
-452,197	205,375	-0,028	0,031
-451,182	14,396	0,071	-0,040
-450,168	800,000	-0,026	0,058
-449,153	-200,000	-0,016	0,108
-448,138	-200,000	0,028	-0,256
-447,124	-149,994	-0,123	-0,007
-446,109	-200,000	0,004	0,059
-445,095	-50,121	0,069	0,024
-444,080	87,204	-0,099	0,079
-443,065	67,444	0,041	0,030
-442,051	-200,000	0,018	-0,133
-441,036	-200,000	-0,015	-0,118
-440,022	-123,407	-0,067	0,008
-439,007	800,000	0,027	0,086
-437,992	-49,190	-0,033	-0,011
-436,978	205,062	-0,061	0,069
-435,963	800,000	0,044	0,109
-434,949	-8,599	0,015	0,007
-433,934	343,389	-0,116	-0,165
-432,919	-25,431	0,057	-0,025
-431,905	800,000	-0,052	0,140
-430,890	800,000	-0,038	0,114
-429,876	132,100	-0,041	0,039
-428,861	23,704	-0,128	0,076
-427,846	-200,000	-0,003	-0,099
-426,832	-88,656	0,087	0,019
-425,817	-66,770	-0,170	-0,049
-424,803	521,715	0,038	-0,065
-423,788	334,207	0,049	0,069
-422,773	-200,000	0,031	0,122
-421,759	-74,056	0,127	0,033
-420,744	204,034	0,032	0,036
-419,730	-27,537	0,046	-0,019
-418,715	-59,987	-0,147	-0,045
-417,701	-100,540	-0,098	0,017
-416,686	-200,000	0,004	0,056
-415,671	37,167	0,070	-0,045
-414,657	-47,678	-0,056	0,020
-413,642	800,000	-0,017	0,055
-412,628	481,272	0,062	-0,102
-411,613	-80,697	0,193	-0,046
-410,598	800,000	0,018	-0,052
-409,584	-200,000	-0,023	0,104
-408,569	-200,000	-0,018	-0,132
-407,555	-114,552	-0,121	-0,017
-406,540	341,427	-0,007	0,010
-405,525	800,000	-0,019	-0,041
-404,511	-200,000	-0,048	-0,246
-403,496	21,970	0,066	-0,039
-402,482	260,188	-0,043	0,053
-401,467	67,013	-0,064	-0,048
-400,452	-200,000	0,006	-0,035
-399,438	26,221	-0,074	-0,045
-398,423	-200,000	0,006	0,097
-397,409	-74,669	-0,081	-0,021
-396,394	274,354	0,042	-0,054
-395,379	800,000	-0,050	-0,145
-394,365	-142,462	0,142	0,010
-393,350	800,000	0,041	0,096
-392,336	-200,000	0,012	0,098
-391,321	800,000	0,025	0,068
-390,306	-63,317	-0,112	0,033
-389,292	20,861	-0,070	0,041
-388,277	-134,078	-0,059	-0,005
-387,263	454,437	0,086	0,139
-386,248	-200,000	0,002	0,106
-385,233	-80,335	0,030	-0,007
-384,219	-200,000	0,010	0,053
-383,204	800,000	0,039	0,123
-382,190	95,436	-0,101	0,083
-381,175	185,375	0,042	0,045
-380,160	-200,000	0,013	0,055
-379,146	-200,000	0,009	0,051
-378,131	23,486	0,075	0,045
-377,117	-28,128	-0,076	0,032
-376,102	-200,000	0,012	0,129
-375,088	-200,000	0,026	-0,102
-374,073	-84,812	0,016	-0,004
-373,058	-187,026	0,105	-0,001
-372,044	668,489	0,041	0,078
-371,029	-200,000	0,014	0,126
-370,015	-200,000	-0,013	-0,050
-369,000	66,938	-0,083	-0,061
-367,985	-200,000	-0,001	0,075
-366,971	-189,442	-0,071	-0,001
-365,956	272,434	0,052	0,066
-364,942	-183,743	0,131	0,002
-363,927	153,262	-0,132	0,131
-362,912	-200,000	0,014	0,059
-361,898	-200,000	0,004	0,026
-360,883	-200,000	-0,012	-0,050
-359,869	-200,000	0,003	-0,033
-358,854	500,430	0,009	-0,015
-357,839	218,033	0,138	0,160
-356,825	-200,000	-0,028	0,132
-355,810	91,206	0,013	-0,011
-354,796	-200,000	0,015	0,061
-353,781	800,000	-0,006	-0,014
-352,766	178,122	0,100	-0,106
-351,752	181,596	-0,053	-0,056
-350,737	484,933	0,081	-0,134
-349,723	273,232	0,075	-0,097
-348,708	-121,927	-0,122	0,014
-347,693	-27,047	-0,053	-0,022
-346,679	170,743	0,117	0,122
-345,664	51,842	-0,079	0,054
-344,650	332,221	0,053	0,075
-343,635	800,000	-0,048	-0,101
-342,620	169,953	0,077	-0,080
-341,606	416,119	0,072	0,111
-340,591	645,335	0,042	-0,078
-339,577	-6,057	-0,044	-0,022
-338,562	-114,079	-0,063	-0,009
-337,548	595,224	-0,036	0,065
-336,533	-72,439	-0,071	-0,019
-335,518	-175,954	-0,042	0,001
-334,504	-146,997	0,056	-0,003
-333,489	-179,695	-0,072	0,001
-332,475	-200,000	0,007	-0,212
-331,460	800,000	0,007	0,022
-330,445	184,768	-0,071	-0,077
-329,431	99,424	0,025	0,021
-328,416	-30,366	0,085	0,035
-327,402	-200,000	0,012	-0,080
-326,387	151,206	0,111	0,110
-325,372	-98,294	-0,051	-0,009
-324,358	146,776	-0,014	0,013
-323,343	-85,594	0,015	-0,003
-322,329	496,221	0,030	0,051
-321,314	800,000	0,029	0,080
-320,299	-32,563	-0,069	-0,028
-319,285	-23,808	0,066	0,029
-318,270	204,250	-0,038	-0,043
-317,256	39,750	0,156	-0,101
-316,241	-119,088	-0,055	-0,007
-315,226	-40,272	0,059	-0,022
-314,212	-23,531	0,225	0,097
-313,197	-17,972	-0,118	0,053
-312,183	-200,000	-0,010	0,036
-311,168	-55,370	-0,078	-0,025
-310,153	292,453	0,058	0,077
-309,139	-200,000	0,007	0,161
-308,124	-125,818	0,171	0,018
-307,110	-35,570	0,055	-0,022
-306,095	57,132	-0,179	-0,126
-305,080	800,000	0,016	0,033
-304,066	295,388	0,010	0,013
-303,051	-73,588	-0,227	-0,059
-302,037	437,502	-0,059	-0,093
-301,022	-8,982	0,039	0,019
-300,008	276,014	0,075	0,097
-298,993	-200,000	-0,003	-0,034
-297,978	163,525	0,062	-0,063
-296,964	233,275	-0,037	-0,044
-295,949	-19,096	-0,089	0,040
-294,935	-200,000	0,002	-0,008
-293,920	-3,046	0,087	-0,044
-292,905	-117,013	-0,028	0,004
-291,891	-45,428	0,176	0,063
-290,876	405,797	-0,064	-0,098
-289,862	800,000	0,047	-0,104
-288,847	-200,000	-0,004	0,021
-287,832	43,781	0,082	0,054
-286,818	500,184	0,021	-0,036
-285,803	-26,059	0,109	0,046
-284,789	-76,944	-0,047	-0,012
-283,774	-126,180	0,106	-0,011
-282,759	-69,026	0,024	-0,007
-281,745	800,000	0,028	-0,088
-280,730	658,450	0,080	0,149
-279,716	-200,000	-0,012	-0,101
-278,701	408,375	-0,027	-0,042
-277,686	-13,572	0,117	0,055
-276,672	-48,602	0,033	-0,011
-275,657	-135,920	0,088	-0,007
-274,643	225,091	-0,044	-0,052
-273,628	-200,000	0,014	-0,100
-272,613	-123,072	-0,080	0,009
-271,599	52,610	-0,190	0,131
-270,584	800,000	0,038	-0,104
-269,570	342,365	0,064	0,091
-268,555	-200,000	0,018	-0,153
-267,540	-8,737	0,095	-0,046
-266,526	727,554	-0,055	0,107
-265,511	-135,276	-0,070	0,006
-264,497	800,000	0,011	0,034
-263,482	-0,512	0,078	0,040
-262,467	33,030	0,028	0,017
-261,453	53,813	0,076	-0,053
-260,438	-109,706	0,094	0,014
-259,424	-131,705	0,072	0,007
-258,409	8,676	-0,010	0,005
-257,395	310,831	0,020	0,027
-256,380	-200,000	0,008	0,088
-255,365	-200,000	-0,009	0,165
-254,351	113,948	-0,057	0,050
-253,336	84,312	-0,077	0,061
-252,322	-91,259	0,046	-0,009
-251,307	93,116	-0,017	0,014
-250,292	344,640	-0,055	-0,078
-249,278	-200,000	0,030	-0,122
-248,263	800,000	0,018	0,038
-247,249	-200,000	0,017	0,088
-246,234	-55,727	-0,127	0,041
-245,219	-61,531	-0,154	-0,046
-244,205	-77,164	0,070	0,017
-243,190	-4,264	0,096	0,048
-242,176	56,989	0,115	0,081
-241,161	800,000	0,054	0,128
-240,146	-200,000	-0,003	0,181
-239,132	800,000	-0,055	0,168
-238,117	69,281	-0,065	-0,048
-237,103	-23,578	-0,045	-0,019
-236,088	-75,533	0,135	0,034
-235,073	143,348	-0,034	0,033
-234,059	-200,000	-0,034	0,111
-233,044	146,833	0,049	0,048
-232,030	258,565	0,080	0,100
-231,015	-200,000	0,023	-0,117
-230,000	58,762	-0,067	0,048
-228,986	-200,000	0,022	-0,072
-227,971	-174,373	0,115	-0,002
-226,957	111,208	-0,067	-0,058
-225,942	32,839	0,041	-0,026
-224,927	-200,000	0,015	0,065
-223,913	343,075	-0,023	0,033
-222,898	-200,000	-0,011	-0,096
-221,884	34,953	0,131	0,083
-220,869	-77,389	-0,081	-0,020
-219,855	-139,418	0,087	0,007
-218,840	-200,000	-0,021	0,168
-217,825	388,999	-0,024	-0,036
-216,811	119,848	-0,033	-0,030
-215,796	45,964	0,034	0,022
-214,782	171,104	-0,076	-0,079
-213,767	-200,000	-0,003	-0,036
-212,752	617,506	-0,027	-0,050
-211,738	587,208	-0,046	-0,083
-210,723	-27,241	0,088	-0,037
-209,709	-164,341	-0,062	-0,002
-208,694	413,479	-0,026	-0,039
-207,679	605,965	-0,052	-0,094
-206,665	357,788	0,059	-0,086
-205,650	-122,766	-0,060	-0,007
-204,636	-28,346	0,236	-0,098
-203,621	152,938	-0,154	-0,152
-202,606	-39,283	-0,153	-0,058
-201,592	3,199	-0,114	-0,060
-200,577	44,130	-0,059	-0,039
-199,563	450,905	0,044	0,071
-198,548	57,673	0,132	0,093
-197,533	417,672	0,008	-0,013
-196,519	309,279	-0,079	-0,107
-195,504	-200,000	-0,001	0,150
-194,490	-200,000	0,024	-0,076
-193,475	-76,142	-0,047	-0,012
-192,460	-35,208	-0,103	-0,040
-191,446	-200,000	-0,012	-0,038
-190,431	-200,000	0,009	0,104
-189,417	171,549	-0,074	-0,077
-188,402	29,173	-0,098	0,060
-187,387	-191,390	-0,103	-0,001
-186,373	-91,175	0,008	0,002
-185,358	6,863	-0,113	0,060
-184,344	-171,633	0,068	0,002
-183,329	-85,846	-0,072	-0,016
-182,315	-200,000	0,036	0,135
-181,300	800,000	0,063	-0,147
-180,285	356,016	-0,075	-0,108
-179,271	268,056	-0,053	0,067
-178,256	766,997	0,025	-0,050
-177,242	-113,214	0,043	0,006
-176,227	165,309	0,074	-0,076
-175,212	121,524	0,129	0,116
-174,198	-200,000	0,049	0,264
-173,183	-200,000	-0,009	-0,043
-172,169	54,243	-0,108	-0,075
-171,154	-200,000	0,014	-0,125
-170,139	54,878	0,089	-0,062
-169,125	10,454	0,042	0,023
-168,110	106,555	0,045	-0,039
-167,096	800,000	0,003	0,009
-166,081	21,306	-0,069	0,040
-165,066	-72,962	-0,105	0,027
-164,052	-31,720	0,096	-0,039
-163,037	-104,255	0,237	0,039
-162,023	-2,490	0,096	0,048
-161,008	-70,725	-0,025	0,007
-159,993	-126,735	0,087	-0,009
-158,979	-132,591	0,086	0,008
-157,964	-136,269	-0,053	0,004
-156,950	24,163	-0,103	-0,061
-155,935	800,000	0,029	-0,067
-154,920	25,361	0,129	0,077
-153,906	-7,193	-0,103	0,050
-152,891	-36,179	0,058	-0,022
-151,877	256,890	-0,086	-0,106
-150,862	118,888	-0,180	-0,160
-149,847	186,386	0,046	-0,049
-148,833	98,160	0,106	-0,088
-147,818	800,000	0,052	-0,160
-146,804	800,000	0,058	0,140
-145,789	251,634	-0,038	-0,047
-144,775	-200,000	-0,007	0,074
-143,760	59,766	-0,138	-0,098
-142,745	45,682	-0,087	-0,058
-141,731	277,297	0,136	-0,175
-140,716	-165,958	-0,026	0,001
-139,702	-23,381	-0,032	-0,014
-138,687	-200,000	-0,023	0,207
-137,672	103,724	0,077	-0,065
-136,658	800,000	-0,028	0,070
-135,643	41,932	0,054	-0,035
-134,629	114,383	0,098	-0,086
-133,614	-114,595	0,130	-0,018
-132,599	-200,000	0,017	0,092
-131,585	800,000	0,059	0,136
-130,570	-162,824	-0,013	0,000
-129,556	-200,000	-0,007	-0,072
-128,541	-200,000	-0,007	0,093
-127,526	-106,419	0,078	0,012
-126,512	-40,634	0,048	-0,018
-125,497	187,275	0,081	0,087
-124,483	62,478	-0,064	-0,046
-123,468	-200,000	-0,000	-0,059
-122,453	-121,444	-0,086	-0,010
-121,439	800,000	0,039	-0,087
-120,424	-200,000	0,023	0,087
-119,410	-0,054	-0,073	0,037
-118,395	-3,321	-0,013	-0,006
