DTS Sentinel unit serial number:	SN410029Multiplexer serial number:	ORYXHardware model number:	OX2-SRSoftware version number:	ORYX F/W v4,00 Oryx Data Collector v3.7.2.0data status	okinstallation	B6 Nyhavnadifferential loss correction	single-endedforward channel	channel 2reverse channel	N/Adate	2023/12/08time	20:30:08forward acquisition time	300,00reverse acquisition time	0,00gamma	499,1914k internal	0,3158k external	0,3158temperature offset calibration	1,0000default loss term (dB/km)	0,3820temperature slope calibration	1,0000multiplexer offset coefficient	1,0000multiplexer slope coefficient	1,0000fibre end	0,00T internal ref (°C)	15,19T ext. ref 1 (°C)	-1,38T ext. ref 2 (°C)	-1,37length (m)	temperature (°C)	Stokes	anti-Stokes-744,400	122,451	0,135	-0,125
-743,385	-101,168	-0,174	0,031
-742,371	6,348	0,087	-0,047
-741,356	-150,173	-0,214	-0,012
-740,342	-131,327	0,170	0,016
-739,327	-119,920	-0,336	-0,042
-738,312	-200,000	-0,006	-0,184
-737,298	-85,438	-0,366	0,083
-736,283	40,240	0,107	0,071
-735,269	78,894	-0,155	0,122
-734,254	-179,782	0,137	0,002
-733,239	-22,512	-0,466	-0,207
-732,225	146,085	0,177	0,175
-731,210	584,372	-0,051	0,093
-730,196	-63,262	-0,086	-0,026
-729,181	800,000	-0,014	-0,044
-728,167	489,854	-0,017	-0,029
-727,152	-65,144	-0,039	-0,012
-726,137	-200,000	-0,001	-0,145
-725,123	92,903	-0,115	0,096
-724,108	217,929	-0,036	0,042
-723,094	-26,781	-0,069	0,030
-722,079	-14,181	-0,016	-0,008
-721,064	800,000	-0,021	0,055
-720,050	-72,357	-0,028	-0,008
-719,035	-62,477	0,079	0,024
-718,021	295,421	-0,068	0,092
-717,006	19,769	-0,086	0,051
-715,991	-6,429	-0,105	0,053
-714,977	223,844	-0,039	0,046
-713,962	800,000	-0,016	-0,034
-712,948	-200,000	0,012	0,120
-711,933	-19,339	-0,104	0,047
-710,918	-200,000	0,008	0,029
-709,904	593,521	-0,024	0,044
-708,889	344,295	0,038	-0,055
-707,875	-76,543	-0,083	-0,021
-706,860	-33,419	0,093	-0,038
-705,845	221,951	0,089	0,106
-704,831	393,021	0,044	-0,068
-703,816	340,758	0,049	0,071
-702,802	600,559	-0,108	-0,197
-701,787	-200,000	0,007	0,045
-700,772	-200,000	0,012	0,047
-699,758	800,000	-0,040	-0,097
-698,743	800,000	0,022	0,058
-697,729	-200,000	-0,012	-0,063
-696,714	-200,000	0,027	0,122
-695,699	69,752	-0,080	-0,061
-694,685	-200,000	0,002	-0,141
-693,670	-71,722	-0,166	-0,045
-692,656	-200,000	0,001	0,108
-691,641	-46,790	0,051	0,018
-690,627	-200,000	0,017	0,087
-689,612	800,000	-0,038	0,116
-688,597	80,616	0,015	-0,012
-687,583	-9,238	-0,033	-0,016
-686,568	5,895	-0,095	0,052
-685,554	-47,779	-0,092	0,033
-684,539	-51,033	0,154	0,053
-683,524	411,399	-0,073	0,114
-682,510	-156,287	0,101	-0,005
-681,495	-52,565	-0,105	-0,036
-680,481	-200,000	0,008	-0,085
-679,466	-200,000	0,001	0,096
-678,451	-75,773	0,057	0,015
-677,437	335,652	0,042	0,059
-676,422	662,498	0,006	-0,011
-675,408	187,753	-0,069	-0,076
-674,393	-105,992	0,035	0,006
-673,378	44,813	-0,207	-0,140
-672,364	800,000	-0,041	0,085
-671,349	-112,371	-0,123	0,018
-670,335	100,439	0,109	-0,093
-669,320	800,000	-0,031	-0,080
-668,305	-158,189	0,119	0,005
-667,291	-62,394	-0,009	0,003
-666,276	-200,000	0,009	-0,100
-665,262	159,539	-0,112	-0,114
-664,247	357,879	-0,030	0,044
-663,232	665,052	-0,042	0,080
-662,218	159,575	0,102	0,105
-661,203	40,110	0,118	-0,078
-660,189	-2,264	0,044	-0,023
-659,174	-77,840	-0,123	-0,031
-658,159	188,178	-0,020	-0,022
-657,145	219,616	-0,056	0,066
-656,130	800,000	0,015	-0,035
-655,116	181,861	-0,054	-0,059
-654,101	-183,698	0,083	0,001
-653,086	-19,994	-0,034	0,015
-652,072	27,340	0,047	0,029
-651,057	800,000	-0,024	-0,067
-650,043	-78,130	-0,112	0,028
-649,028	-200,000	0,000	0,016
-648,014	800,000	0,054	0,142
-646,999	-200,000	0,003	0,031
-645,984	-200,000	-0,007	-0,029
-644,970	13,872	0,039	-0,022
-643,955	178,045	-0,033	-0,036
-642,941	163,102	-0,088	-0,091
-641,926	-200,000	0,001	-0,077
-640,911	417,690	0,078	-0,123
-639,897	-31,853	0,066	0,027
-638,882	204,756	-0,022	0,025
-637,868	-200,000	0,033	-0,235
-636,853	-200,000	0,014	-0,252
-635,838	579,743	0,038	-0,068
-634,824	66,308	-0,052	-0,039
-633,809	142,985	-0,041	0,040
-632,795	-200,000	-0,008	-0,086
-631,780	-4,567	0,040	0,020
-630,765	-69,039	-0,074	0,021
-629,751	800,000	-0,049	-0,105
-628,736	106,512	-0,119	-0,104
-627,722	142,302	-0,083	-0,081
-626,707	-56,439	0,062	-0,020
-625,692	-200,000	-0,010	0,094
-624,678	-88,828	0,127	-0,027
-623,663	-200,000	-0,000	-0,170
-622,649	-134,827	0,029	-0,003
-621,634	-200,000	-0,001	-0,072
-620,619	17,571	-0,107	0,062
-619,605	-200,000	-0,011	-0,041
-618,590	129,907	-0,045	-0,042
-617,576	-200,000	-0,082	0,274
-616,561	185,417	0,012	-0,013
-615,546	-107,275	-0,150	-0,024
-614,532	-101,633	-0,130	-0,023
-613,517	-97,940	-0,066	-0,012
-612,503	114,766	0,071	0,064
-611,488	-19,559	0,073	-0,033
-610,474	-120,393	0,095	0,012
-609,459	-200,000	-0,012	-0,051
-608,444	-50,040	0,046	0,016
-607,430	60,022	-0,062	0,045
-606,415	-36,633	0,023	0,009
-605,401	-200,000	-0,003	-0,041
-604,386	-200,000	0,015	0,074
-603,371	-27,097	0,091	0,039
-602,357	-28,938	-0,078	-0,033
-601,342	800,000	-0,041	-0,128
-600,328	65,947	-0,010	-0,008
-599,313	306,072	0,073	-0,099
-598,298	504,789	0,062	0,106
-597,284	-62,074	0,093	0,028
-596,269	129,778	0,037	-0,034
-595,255	-128,175	-0,065	0,007
-594,240	451,361	0,040	0,066
-593,225	800,000	0,045	-0,112
-592,211	-189,231	0,099	0,001
-591,196	-200,000	0,012	0,060
-590,182	57,415	-0,058	0,042
-589,167	262,344	0,034	-0,044
-588,152	800,000	-0,019	0,042
-587,138	-200,000	-0,019	0,130
-586,123	800,000	0,043	-0,102
-585,109	602,604	-0,064	-0,118
-584,094	-200,000	-0,017	-0,058
-583,079	-134,638	-0,098	-0,009
-582,065	62,385	-0,102	0,075
-581,050	259,006	0,155	0,197
-580,036	104,310	-0,059	0,051
-579,021	752,781	0,002	0,005
-578,006	-112,620	-0,057	-0,008
-576,992	168,007	0,059	0,061
-575,977	800,000	0,004	0,009
-574,963	489,347	0,039	0,066
-573,948	-46,750	0,120	-0,043
-572,934	-89,343	0,041	-0,009
-571,919	217,606	0,041	-0,048
-570,904	-121,846	-0,082	-0,010
-569,890	19,357	-0,029	-0,017
-568,875	40,434	0,142	-0,094
-567,861	180,166	0,096	0,103
-566,846	251,381	-0,020	0,025
-565,831	-200,000	0,010	-0,099
-564,817	-70,578	-0,087	-0,024
-563,802	-5,680	0,061	0,030
-562,788	-174,938	-0,061	0,001
-561,773	-63,088	0,137	0,041
-560,758	616,913	-0,047	0,086
-559,744	204,567	-0,073	0,084
-558,729	314,994	-0,023	-0,032
-557,715	523,919	0,069	0,119
-556,700	1,395	-0,090	-0,047
-555,685	700,082	0,021	-0,040
-554,671	21,417	-0,185	0,110
-553,656	800,000	0,043	-0,131
-552,642	-43,974	0,146	0,053
-551,627	262,404	-0,046	-0,059
-550,612	-60,442	-0,054	-0,017
-549,598	-200,000	0,019	-0,130
-548,583	-200,000	0,002	-0,021
-547,569	-80,154	-0,069	-0,017
-546,554	-200,000	-0,002	-0,026
-545,539	194,499	0,108	0,120
-544,525	800,000	-0,024	0,063
-543,510	-5,950	0,075	-0,038
-542,496	-200,000	-0,003	-0,025
-541,481	709,020	-0,038	-0,073
-540,466	402,224	-0,062	-0,096
-539,452	-35,191	-0,028	0,011
-538,437	-114,753	0,076	0,011
-537,423	751,724	0,048	0,095
-536,408	800,000	0,126	0,268
-535,393	-0,173	-0,055	-0,028
-534,379	-40,990	-0,082	-0,031
-533,364	800,000	-0,065	0,163
-532,350	-81,634	0,125	-0,030
-531,335	-97,557	0,098	-0,018
-530,321	-5,724	-0,099	0,049
-529,306	238,595	-0,053	0,064
-528,291	39,168	0,061	0,040
-527,277	-200,000	-0,014	-0,046
-526,262	249,879	0,078	-0,097
-525,248	250,531	0,038	0,047
-524,233	158,043	0,050	0,051
-523,218	-200,000	0,016	-0,080
-522,204	379,493	-0,073	-0,110
-521,189	158,280	0,058	-0,059
-520,175	-200,000	0,000	-0,070
-519,160	800,000	0,009	0,024
-518,145	37,881	-0,051	0,033
-517,131	31,440	0,054	-0,034
-516,116	537,930	-0,049	0,086
-515,102	-200,000	0,046	0,151
-514,087	-200,000	0,038	0,269
-513,072	-90,753	-0,139	0,029
-512,058	-84,390	-0,080	0,018
-511,043	376,065	-0,028	0,042
-510,029	770,195	0,035	0,070
-509,014	-7,502	0,116	-0,057
-507,999	-139,804	-0,044	0,003
-506,985	40,188	-0,103	-0,068
-505,970	-171,376	-0,152	-0,004
-504,956	-146,879	-0,102	0,006
-503,941	123,388	0,095	-0,087
-502,926	51,909	0,081	0,056
-501,912	83,594	0,135	0,107
-500,897	-95,426	0,057	-0,011
-499,883	-65,132	-0,189	0,055
-498,868	362,528	0,076	-0,111
-497,853	-101,042	-0,090	0,016
-496,839	3,517	-0,028	0,015
-495,824	-127,521	0,149	0,016
-494,810	136,122	-0,094	0,090
-493,795	-200,000	-0,064	0,000
-492,781	800,000	-0,046	-0,109
-491,766	-139,272	-0,111	0,009
-490,751	-106,958	0,064	0,010
-489,737	41,941	-0,040	0,026
-488,722	800,000	-0,076	0,176
-487,708	-118,435	0,161	-0,021
-486,693	117,904	-0,038	-0,034
-485,678	-200,000	0,003	-0,043
-484,664	95,644	-0,029	-0,024
-483,649	187,899	0,038	-0,041
-482,635	49,512	0,088	-0,060
-481,620	243,695	0,122	-0,150
-480,605	-43,407	0,084	-0,031
-479,591	15,633	-0,175	-0,100
-478,576	106,604	-0,045	-0,039
-477,562	413,040	-0,027	0,042
-476,547	-153,119	-0,144	-0,007
-475,532	-166,616	-0,063	0,002
-474,518	5,122	-0,072	-0,039
-473,503	-65,325	0,078	0,023
-472,489	-138,737	0,077	0,006
-471,474	-200,000	-0,004	-0,042
-470,459	319,045	-0,019	0,026
-469,445	136,945	-0,018	0,017
-468,430	709,160	-0,013	0,025
-467,416	-169,168	-0,063	0,002
-466,401	-200,000	0,001	-0,078
-465,386	-31,061	-0,047	-0,019
-464,372	169,977	-0,032	0,034
-463,357	283,820	-0,045	-0,058
-462,343	-144,899	0,085	0,006
-461,328	68,895	-0,072	0,054
-460,313	55,590	0,092	-0,065
-459,299	97,527	0,150	-0,125
-458,284	-11,695	0,025	-0,012
-457,270	-16,721	0,020	0,009
-456,255	800,000	-0,015	-0,047
-455,241	-98,976	-0,097	0,018
-454,226	6,050	-0,179	-0,097
-453,211	-18,099	0,018	0,008
-452,197	-200,000	0,000	-0,082
-451,182	-200,000	0,004	-0,039
-450,168	27,789	-0,016	-0,010
-449,153	-88,190	-0,138	-0,030
-448,138	9,039	-0,110	0,060
-447,124	800,000	-0,047	-0,112
-446,109	-67,011	-0,079	0,023
-445,095	-200,000	0,010	-0,167
-444,080	-67,327	0,119	0,034
-443,065	-200,000	0,001	0,182
-442,051	183,431	0,032	-0,034
-441,036	92,783	-0,077	-0,063
-440,022	-200,000	0,024	-0,163
-439,007	-200,000	-0,022	-0,109
-437,992	101,790	-0,159	0,135
-436,978	-25,169	0,080	-0,034
-435,963	-119,107	-0,107	0,013
-434,949	-164,666	0,199	0,006
-433,934	800,000	-0,026	0,058
-432,919	477,172	-0,093	-0,153
-431,905	-36,594	-0,160	0,062
-430,890	800,000	-0,030	0,084
-429,876	-116,384	0,121	0,016
-428,861	409,799	-0,052	0,080
-427,846	775,531	-0,044	-0,088
-426,832	-200,000	-0,016	-0,058
-425,817	86,074	-0,136	0,109
-424,803	-200,000	-0,003	-0,044
-423,788	482,262	0,040	-0,066
-422,773	-48,334	0,188	-0,066
-421,759	-200,000	-0,009	0,076
-420,744	133,607	0,090	0,085
-419,730	-200,000	-0,015	0,077
-418,715	-124,485	0,086	-0,010
-417,701	-66,784	0,127	0,036
-416,686	-200,000	0,029	0,103
-415,671	-69,101	-0,115	0,032
-414,657	-77,049	0,076	0,019
-413,642	467,391	-0,025	0,041
-412,628	-200,000	-0,001	0,083
-411,613	-149,298	-0,068	0,004
-410,598	-76,748	0,142	0,036
-409,584	45,196	-0,126	0,085
-408,569	-200,000	-0,010	0,042
-407,555	227,570	-0,072	0,086
-406,540	162,150	-0,075	0,076
-405,525	146,099	0,070	-0,068
-404,511	-200,000	-0,017	-0,157
-403,496	32,384	0,091	-0,057
-402,482	800,000	0,046	0,121
-401,467	295,720	-0,056	0,075
-400,452	-200,000	0,004	-0,040
-399,438	278,353	0,064	-0,083
-398,423	-200,000	0,000	0,096
-397,409	277,352	0,056	-0,073
-396,394	-96,283	-0,027	0,005
-395,379	-82,879	0,078	-0,018
-394,365	54,796	0,094	0,066
-393,350	65,893	0,103	0,076
-392,336	-31,772	-0,090	-0,036
-391,321	800,000	-0,010	-0,026
-390,306	-12,995	0,146	-0,069
-389,292	293,742	-0,100	-0,134
-388,277	-164,100	-0,064	-0,002
-387,263	438,990	0,066	0,105
-386,248	464,051	0,011	-0,019
-385,233	-156,910	-0,041	0,002
-384,219	159,479	0,067	-0,068
-383,204	1,964	-0,120	-0,063
-382,190	-28,271	0,166	-0,069
-381,175	-200,000	-0,015	-0,163
-380,160	800,000	-0,014	-0,037
-379,146	214,232	-0,084	-0,097
-378,131	549,042	-0,055	0,097
-377,117	-200,000	-0,035	-0,119
-376,102	22,256	-0,035	-0,020
-375,088	94,221	0,047	-0,039
-374,073	141,270	-0,044	-0,043
-373,058	-114,839	-0,153	-0,021
-372,044	-55,621	-0,130	0,042
-371,029	89,659	0,114	0,092
-370,015	441,365	-0,034	0,054
-369,000	-200,000	-0,017	0,094
-367,985	800,000	-0,061	-0,147
-366,971	-200,000	-0,010	0,050
-365,956	398,887	0,051	-0,078
-364,942	-33,806	0,103	-0,041
-363,927	-126,231	0,042	-0,004
-362,912	-49,460	-0,136	0,047
-361,898	-98,130	-0,122	0,023
-360,883	169,949	-0,111	-0,115
-359,869	-200,000	0,044	-0,253
-358,854	205,590	0,111	0,126
-357,839	800,000	0,028	0,064
-356,825	-200,000	0,038	0,142
-355,810	222,561	-0,039	0,046
-354,796	675,294	-0,074	-0,141
-353,781	34,520	-0,065	0,041
-352,766	-143,165	-0,090	-0,006
-351,752	274,053	0,061	0,079
-350,737	-120,779	0,083	-0,010
-349,723	168,040	-0,086	0,089
-348,708	-200,000	0,017	0,104
-347,693	-121,145	-0,111	0,013
-346,679	58,329	0,041	0,029
-345,664	-200,000	-0,029	-0,093
-344,650	768,587	-0,068	0,135
-343,635	22,602	0,019	-0,011
-342,620	493,688	0,033	0,054
-341,606	453,392	-0,087	-0,140
-340,591	800,000	0,033	0,070
-339,577	-80,229	0,174	0,042
-338,562	405,961	0,036	0,055
-337,548	75,967	0,114	0,087
-336,533	-14,498	0,060	-0,028
-335,518	-14,940	-0,046	0,022
-334,504	-18,943	0,095	0,043
-333,489	224,658	0,033	-0,039
-332,475	77,513	-0,064	0,049
-331,460	-200,000	0,022	0,093
-330,445	-10,426	0,031	0,015
-329,431	5,615	0,151	-0,081
-328,416	-158,886	0,034	0,001
-327,402	-200,000	-0,028	0,108
-326,387	289,244	-0,086	-0,113
-325,372	349,189	-0,060	0,087
-324,358	183,518	-0,077	-0,083
-323,343	-51,698	-0,013	0,004
-322,329	424,971	0,090	0,140
-321,314	800,000	0,049	0,111
-320,299	204,325	0,009	0,010
-319,285	34,843	-0,140	0,088
-318,270	-200,000	-0,012	0,098
-317,256	244,161	-0,091	-0,111
-316,241	-120,293	0,150	-0,018
-315,226	113,934	0,087	0,077
-314,212	504,823	0,069	0,116
-313,197	331,164	0,034	0,048
-312,183	125,999	0,082	0,075
-311,168	179,350	-0,058	0,061
-310,153	-62,326	0,074	0,022
-309,139	72,440	-0,032	-0,024
-308,124	-57,064	0,065	-0,021
-307,110	-163,944	0,050	0,002
-306,095	-163,781	0,051	0,002
-305,080	800,000	0,044	-0,108
-304,066	-200,000	-0,011	-0,042
-303,051	345,608	-0,045	-0,065
-302,037	-200,000	0,015	-0,101
-301,022	800,000	-0,025	0,078
-300,008	-162,248	0,133	0,005
-298,993	-200,000	-0,002	0,194
-297,978	800,000	0,054	0,131
-296,964	-114,963	0,076	0,010
-295,949	-200,000	-0,005	-0,025
-294,935	109,653	-0,030	0,026
-293,920	-200,000	0,045	-0,177
-292,905	70,293	-0,069	0,051
-291,891	96,664	0,100	0,083
-290,876	800,000	0,019	0,058
-289,862	800,000	-0,058	0,124
-288,847	-200,000	-0,016	0,055
-287,832	-8,187	0,007	-0,003
-286,818	628,754	0,022	0,040
-285,803	-26,387	0,071	0,030
-284,789	619,856	0,045	0,083
-283,774	-149,279	-0,073	-0,004
-282,759	247,941	-0,045	-0,055
-281,745	222,657	-0,035	0,041
-280,730	257,062	0,096	-0,119
-279,716	-1,822	-0,076	-0,038
-278,701	-200,000	-0,015	-0,112
-277,686	640,771	0,031	0,058
-276,672	-200,000	-0,003	0,153
-275,657	-102,602	-0,076	-0,013
-274,643	48,147	0,047	-0,032
-273,628	204,928	0,105	-0,118
-272,613	-200,000	-0,018	-0,062
-271,599	800,000	-0,026	0,068
-270,584	800,000	0,009	0,025
-269,570	109,707	-0,094	0,081
-268,555	800,000	-0,017	-0,045
-267,540	94,253	-0,184	-0,151
-266,526	-200,000	-0,008	-0,045
-265,511	-103,830	-0,106	-0,018
-264,497	-49,265	-0,016	-0,006
-263,482	-18,919	0,207	0,093
-262,467	800,000	0,044	0,100
-261,453	232,653	-0,031	0,036
-260,438	-88,692	0,041	-0,009
-259,424	-69,045	-0,065	0,018
-258,409	-58,919	-0,173	-0,054
-257,395	-200,000	-0,006	-0,023
-256,380	94,462	0,101	0,083
-255,365	-200,000	-0,012	0,154
-254,351	44,078	0,108	-0,071
-253,336	22,466	-0,064	-0,038
-252,322	-60,942	0,109	-0,033
-251,307	361,966	0,103	0,150
-250,292	-200,000	-0,006	0,050
-249,278	-200,000	-0,007	-0,038
-248,263	-200,000	-0,003	0,094
-247,249	-63,747	0,088	0,026
-246,234	89,177	0,114	0,092
-245,219	108,953	-0,076	-0,066
-244,205	-200,000	-0,009	-0,121
-243,190	685,286	-0,050	-0,095
-242,176	41,446	0,112	0,073
-241,161	800,000	-0,045	0,091
-240,146	-103,904	0,181	-0,030
-239,132	-200,000	0,014	0,049
-238,117	-75,009	0,037	-0,010
-237,103	35,305	0,097	0,061
-236,088	-200,000	-0,005	-0,056
-235,073	5,235	0,065	-0,034
-234,059	266,363	-0,069	0,088
-233,044	134,985	0,076	-0,072
-232,030	202,989	-0,077	-0,086
-231,015	207,092	-0,046	-0,052
-230,000	800,000	0,014	0,038
-228,986	259,271	-0,080	-0,100
-227,971	-138,346	0,205	0,016
-226,957	774,144	0,019	-0,038
-225,942	800,000	-0,057	0,123
-224,927	-200,000	-0,008	0,081
-223,913	800,000	-0,046	-0,101
-222,898	-64,187	0,104	0,030
-221,884	443,639	-0,059	-0,094
-220,869	-200,000	-0,014	0,104
-219,855	-131,445	-0,059	-0,006
-218,840	-24,678	-0,053	0,023
-217,825	45,308	-0,121	0,081
-216,811	-200,000	0,002	-0,080
-215,796	-200,000	0,010	0,071
-214,782	217,511	0,045	0,052
-213,767	571,420	0,044	0,078
-212,752	-200,000	0,003	-0,109
-211,738	57,480	0,066	-0,046
-210,723	-1,772	0,049	0,025
-209,709	721,417	0,060	-0,116
-208,694	302,363	-0,060	0,080
-207,679	-200,000	-0,005	-0,092
-206,665	185,772	-0,069	0,074
-205,650	311,543	0,034	-0,046
-204,636	800,000	-0,023	-0,062
-203,621	596,317	0,051	0,091
-202,606	-79,434	-0,125	0,030
-201,592	-200,000	-0,019	-0,060
-200,577	222,693	0,050	-0,058
-199,563	62,470	0,031	0,022
-198,548	367,027	0,073	-0,107
-197,533	-72,477	0,160	0,042
-196,519	630,407	0,020	-0,036
-195,504	-28,074	0,016	-0,007
-194,490	44,785	-0,153	-0,102
-193,475	-160,622	-0,030	-0,001
-192,460	-200,000	-0,035	0,143
-191,446	-200,000	-0,004	-0,088
-190,431	-200,000	-0,040	-0,153
-189,417	252,698	0,083	0,102
-188,402	-200,000	0,029	0,136
-187,387	56,048	-0,096	-0,067
-186,373	-200,000	0,012	-0,101
-185,358	-200,000	0,043	-0,171
-184,344	-200,000	0,036	0,205
-183,329	-200,000	-0,013	0,199
-182,315	800,000	-0,036	-0,112
-181,300	-40,557	0,183	-0,068
-180,285	-200,000	0,017	-0,161
-179,271	-27,526	-0,180	-0,075
-178,256	413,766	-0,039	-0,060
-177,242	-200,000	0,010	-0,067
-176,227	365,826	0,108	-0,157
-175,212	-136,025	-0,064	0,005
-174,198	2,428	-0,138	-0,072
-173,183	-170,165	-0,157	0,004
-172,169	142,905	-0,071	0,068
-171,154	-200,000	0,006	0,078
-170,139	-175,351	0,127	0,002
-169,125	-76,706	0,098	0,025
-168,110	-28,239	-0,068	-0,028
-167,096	30,030	-0,106	0,065
-166,081	-117,148	0,065	-0,008
-165,066	111,640	-0,097	-0,085
-164,052	68,059	0,122	0,090
-163,037	30,603	-0,151	0,093
-162,023	-200,000	0,003	0,065
-161,008	143,563	0,088	-0,084
-159,993	800,000	0,018	0,050
-158,979	-73,716	-0,107	-0,028
-157,964	286,207	0,023	0,030
-156,950	-200,000	-0,031	0,140
-155,935	700,613	0,042	-0,079
-154,920	41,913	-0,077	-0,050
-153,906	-119,726	-0,041	-0,005
-152,891	415,649	0,039	-0,060
-151,877	-200,000	0,004	-0,124
-150,862	-200,000	0,004	-0,066
-149,847	451,269	-0,071	0,113
-148,833	800,000	-0,053	0,124
-147,818	-141,149	0,079	-0,006
-146,804	-4,428	0,124	-0,062
-145,789	48,081	0,079	0,053
-144,775	368,479	-0,107	-0,157
-143,760	275,837	-0,140	-0,179
-142,745	-200,000	-0,004	-0,174
-141,731	-30,948	-0,082	0,033
-140,716	154,135	-0,045	0,044
-139,702	438,858	0,027	-0,042
-138,687	800,000	0,068	0,169
-137,672	400,760	0,060	0,090
-136,658	224,331	-0,105	0,122
-135,643	-200,000	-0,012	0,116
-134,629	-200,000	0,043	-0,206
-133,614	-200,000	-0,025	0,136
-132,599	724,480	-0,011	-0,022
-131,585	-200,000	-0,009	0,079
-130,570	53,143	0,005	-0,004
-129,556	35,355	0,007	0,005
-128,541	-69,019	-0,160	-0,044
-127,526	130,679	0,097	-0,090
-126,512	-200,000	-0,014	-0,095
-125,497	-200,000	0,026	0,099
-124,483	-85,011	0,085	-0,019
-123,468	212,337	0,014	-0,016
-122,453	800,000	-0,012	-0,033
-121,439	40,025	-0,026	-0,017
-120,424	322,129	0,101	-0,138
-119,410	-200,000	-0,005	-0,038
