DTS Sentinel unit serial number:	SN410029Multiplexer serial number:	ORYXHardware model number:	OX2-SRSoftware version number:	ORYX F/W v4,00 Oryx Data Collector v3.7.2.0data status	okinstallation	B6 Nyhavnadifferential loss correction	single-endedforward channel	channel 2reverse channel	N/Adate	2023/12/10time	04:55:08forward acquisition time	300,00reverse acquisition time	0,00gamma	499,1914k internal	0,3125k external	0,3125temperature offset calibration	1,0000default loss term (dB/km)	0,3820temperature slope calibration	1,0000multiplexer offset coefficient	1,0000multiplexer slope coefficient	1,0000fibre end	0,00T internal ref (°C)	22,30T ext. ref 1 (°C)	6,36T ext. ref 2 (°C)	6,33length (m)	temperature (°C)	Stokes	anti-Stokes-744,400	-54,242	0,124	-0,042
-743,385	83,783	-0,251	0,204
-742,371	-200,000	-0,017	-0,062
-741,356	289,877	-0,094	0,128
-740,342	-149,855	-0,029	0,002
-739,327	-141,835	-0,237	-0,017
-738,312	229,412	-0,071	-0,086
-737,298	7,103	-0,225	0,124
-736,283	64,955	0,056	-0,042
-735,269	-135,528	-0,104	-0,009
-734,254	-100,133	-0,110	-0,020
-733,239	-78,523	-0,413	-0,104
-732,225	-90,984	0,130	0,028
-731,210	-96,468	-0,089	0,017
-730,196	192,658	-0,066	-0,075
-729,181	-33,183	-0,013	-0,005
-728,167	24,847	-0,118	0,072
-727,152	-82,519	0,108	-0,026
-726,137	-175,093	-0,132	-0,003
-725,123	-13,577	-0,069	-0,033
-724,108	92,051	-0,151	-0,126
-723,094	62,035	-0,056	0,042
-722,079	543,873	-0,076	-0,135
-721,064	-32,771	-0,055	-0,022
-720,050	-104,743	-0,156	0,026
-719,035	173,278	-0,106	-0,114
-718,021	800,000	-0,014	-0,029
-717,006	-30,056	-0,217	-0,092
-715,991	16,767	-0,080	-0,047
-714,977	125,031	-0,127	-0,119
-713,962	-6,702	-0,061	0,031
-712,948	800,000	-0,099	-0,248
-711,933	81,863	-0,047	-0,038
-710,918	-196,549	-0,092	-0,000
-709,904	-200,000	-0,029	-0,141
-708,889	42,223	-0,121	-0,081
-707,875	221,886	-0,040	-0,048
-706,860	500,324	0,036	-0,061
-705,845	420,828	0,078	-0,126
-704,831	36,097	0,053	0,035
-703,816	226,022	-0,071	-0,085
-702,802	453,214	-0,040	0,066
-701,787	-26,111	-0,064	-0,028
-700,772	566,458	-0,047	-0,086
-699,758	624,535	-0,067	-0,127
-698,743	402,796	0,063	0,099
-697,729	-200,000	0,002	0,010
-696,714	446,190	-0,045	0,073
-695,699	649,815	0,054	-0,102
-694,685	258,454	-0,023	0,030
-693,670	180,270	-0,008	-0,008
-692,656	261,001	0,037	0,048
-691,641	216,700	-0,002	0,002
-690,627	35,966	0,171	0,112
-689,612	-65,687	0,076	0,022
-688,597	-200,000	-0,019	0,073
-687,583	-79,813	0,135	-0,033
-686,568	118,383	0,048	0,044
-685,554	-63,960	-0,061	-0,018
-684,539	311,817	0,057	0,080
-683,524	800,000	-0,077	0,192
-682,510	17,162	-0,041	-0,024
-681,495	-200,000	-0,031	0,165
-680,481	-53,907	0,060	-0,020
-679,466	-15,086	-0,102	-0,048
-678,451	-33,647	-0,069	-0,028
-677,437	632,029	0,037	-0,070
-676,422	38,374	0,110	0,073
-675,408	-200,000	0,027	0,116
-674,393	404,391	-0,033	0,052
-673,378	-147,912	0,014	-0,001
-672,364	598,995	0,024	0,045
-671,349	-39,400	-0,145	-0,056
-670,335	26,730	0,103	0,064
-669,320	531,602	0,068	0,120
-668,305	106,425	-0,122	0,108
-667,291	800,000	-0,037	-0,106
-666,276	296,530	-0,017	-0,024
-665,262	800,000	-0,040	-0,093
-664,247	135,628	-0,095	-0,092
-663,232	23,699	-0,121	-0,074
-662,218	106,023	0,069	-0,061
-661,203	736,155	-0,070	0,140
-660,189	-200,000	0,004	-0,109
-659,174	206,180	0,028	-0,033
-658,159	121,559	0,037	-0,034
-657,145	-200,000	-0,022	-0,146
-656,130	243,561	-0,041	-0,051
-655,116	-129,257	0,121	-0,012
-654,101	-33,997	-0,064	-0,026
-653,086	-200,000	0,015	-0,051
-652,072	-144,698	-0,152	0,010
-651,057	-200,000	-0,028	0,174
-650,043	256,867	-0,082	-0,104
-649,028	488,355	-0,033	-0,056
-648,014	-200,000	-0,004	0,032
-646,999	458,074	0,023	0,037
-645,984	192,589	-0,018	0,020
-644,970	800,000	-0,046	0,104
-643,955	800,000	0,017	-0,038
-642,941	800,000	-0,039	-0,095
-641,926	-126,340	-0,060	-0,007
-640,911	-24,412	-0,037	-0,016
-639,897	127,948	0,169	0,159
-638,882	117,426	0,121	-0,111
-637,868	-16,397	-0,046	0,021
-636,853	-144,026	0,149	-0,010
-635,838	82,303	-0,075	-0,060
-634,824	30,620	0,051	0,033
-633,809	-108,512	-0,124	0,020
-632,795	-50,031	0,081	-0,028
-631,780	-200,000	0,008	0,043
-630,765	-42,835	-0,143	-0,054
-629,751	411,486	-0,060	0,094
-628,736	-6,715	-0,059	-0,030
-627,722	-115,032	-0,154	0,021
-626,707	-49,019	0,015	0,005
-625,692	101,834	-0,108	0,094
-624,678	-200,000	0,013	0,155
-623,663	800,000	0,046	0,098
-622,649	92,245	0,099	0,083
-621,634	-195,477	-0,038	0,000
-620,619	711,678	0,045	-0,089
-619,605	-16,285	0,171	-0,080
-618,590	235,981	0,009	0,011
-617,576	139,336	0,130	0,127
-616,561	140,431	-0,162	-0,159
-615,546	15,772	0,076	-0,044
-614,532	800,000	0,075	-0,168
-613,517	-76,960	-0,032	0,008
-612,503	-169,796	0,100	0,003
-611,488	73,746	-0,083	-0,064
-610,474	800,000	0,013	0,028
-609,459	-200,000	0,002	0,056
-608,444	-34,675	0,071	-0,028
-607,430	800,000	-0,028	-0,066
-606,415	240,698	-0,039	-0,048
-605,401	-200,000	-0,026	-0,141
-604,386	-62,119	0,023	0,007
-603,371	-111,400	0,029	0,004
-602,357	-74,435	-0,079	0,021
-601,342	-200,000	-0,039	-0,134
-600,328	800,000	-0,068	-0,170
-599,313	-138,666	-0,092	0,007
-598,298	132,184	-0,064	0,061
-597,284	-200,000	0,006	0,088
-596,269	400,422	0,095	0,148
-595,255	800,000	0,017	0,039
-594,240	800,000	-0,051	0,148
-593,225	800,000	0,057	-0,136
-592,211	-68,878	-0,048	-0,014
-591,196	731,620	-0,058	0,116
-590,182	-52,146	0,050	-0,017
-589,167	-76,949	0,122	0,031
-588,152	224,762	-0,084	-0,101
-587,138	291,861	-0,091	0,123
-586,123	-91,547	-0,068	-0,014
-585,109	335,463	-0,046	-0,066
-584,094	-166,887	0,095	0,003
-583,079	-200,000	0,006	0,062
-582,065	-113,066	-0,104	0,015
-581,050	127,125	-0,125	0,117
-580,036	606,478	-0,055	-0,102
-579,021	-200,000	-0,051	0,212
-578,006	378,758	-0,103	-0,156
-576,992	-48,024	0,092	-0,033
-575,977	800,000	0,066	-0,145
-574,963	7,180	-0,038	0,021
-573,948	-200,000	-0,005	0,072
-572,934	-200,000	-0,011	-0,125
-571,919	-200,000	0,008	0,038
-570,904	-96,263	0,150	-0,029
-569,890	177,756	0,126	-0,136
-568,875	-124,787	0,072	0,008
-567,861	-200,000	0,027	0,200
-566,846	-23,478	-0,068	-0,030
-565,831	138,585	-0,130	0,126
-564,817	-200,000	0,020	-0,068
-563,802	-112,967	-0,062	0,009
-562,788	800,000	0,014	0,029
-561,773	-200,000	0,100	0,000
-560,758	800,000	0,017	0,038
-559,744	-175,584	-0,112	0,002
-558,729	800,000	0,025	0,053
-557,715	-13,833	0,024	-0,011
-556,700	-200,000	-0,012	-0,048
-555,685	-160,899	-0,087	-0,003
-554,671	334,979	0,021	-0,030
-553,656	54,595	-0,041	-0,029
-552,642	-200,000	0,003	-0,053
-551,627	-79,717	0,055	0,014
-550,612	-200,000	0,006	-0,065
-549,598	42,783	-0,196	0,132
-548,583	-129,164	-0,098	-0,010
-547,569	-200,000	0,000	-0,037
-546,554	-65,915	-0,074	-0,022
-545,539	-200,000	-0,010	0,046
-544,525	73,487	0,088	-0,068
-543,510	-200,000	0,009	-0,070
-542,496	-200,000	-0,041	-0,199
-541,481	-42,501	0,057	0,022
-540,466	-200,000	-0,023	-0,110
-539,452	92,008	-0,096	0,079
-538,437	171,453	0,051	0,054
-537,423	-68,730	0,045	-0,013
-536,408	124,494	-0,108	-0,100
-535,393	45,480	0,066	0,045
-534,379	110,396	-0,088	-0,078
-533,364	-31,358	0,104	0,043
-532,350	-62,168	-0,073	-0,022
-531,335	-127,837	-0,099	-0,010
-530,321	10,585	0,052	-0,029
-529,306	27,010	-0,122	0,075
-528,291	-131,766	-0,050	0,005
-527,277	739,025	-0,070	0,140
-526,262	278,489	0,012	0,016
-525,248	108,479	-0,072	-0,063
-524,233	-2,239	0,140	0,072
-523,218	-200,000	-0,002	0,065
-522,204	62,049	0,037	0,027
-521,189	-200,000	0,009	-0,079
-520,175	169,613	-0,048	-0,051
-519,160	119,768	-0,103	0,095
-518,145	-200,000	-0,001	0,031
-517,131	386,334	0,043	0,065
-516,116	51,612	0,045	0,032
-515,102	13,495	-0,056	0,032
-514,087	280,945	-0,046	-0,060
-513,072	-80,021	-0,112	0,027
-512,058	800,000	-0,049	-0,125
-511,043	110,676	-0,020	-0,018
-510,029	-63,577	-0,069	0,021
-509,014	10,901	0,079	-0,044
-507,999	431,747	-0,034	0,055
-506,985	-200,000	-0,005	-0,125
-505,970	457,009	-0,041	-0,068
-504,956	800,000	-0,048	-0,116
-503,941	-186,054	-0,104	-0,001
-502,926	-79,721	0,032	-0,008
-501,912	140,209	0,057	-0,055
-500,897	-29,666	0,009	0,004
-499,883	-54,959	-0,106	-0,035
-498,868	106,175	-0,193	-0,169
-497,853	-20,394	-0,051	-0,023
-496,839	34,201	-0,054	0,034
-495,824	271,818	0,014	0,018
-494,810	179,219	-0,033	0,036
-493,795	-200,000	0,161	0,000
-492,781	321,052	-0,027	-0,038
-491,766	-200,000	0,003	-0,029
-490,751	-200,000	-0,015	-0,067
-489,737	-42,757	-0,040	-0,015
-488,722	-200,000	0,016	0,092
-487,708	-104,068	0,117	-0,020
-486,693	-200,000	0,040	0,175
-485,678	-200,000	-0,000	-0,062
-484,664	-10,002	-0,074	-0,036
-483,649	-200,000	0,004	-0,107
-482,635	74,482	-0,035	-0,027
-481,620	-3,599	0,160	-0,082
-480,605	-200,000	-0,018	0,072
-479,591	800,000	0,016	0,039
-478,576	65,612	0,054	-0,041
-477,562	-150,697	-0,140	0,008
-476,547	412,212	0,023	0,036
-475,532	-200,000	0,004	0,115
-474,518	120,905	0,060	-0,055
-473,503	158,503	0,050	0,051
-472,489	90,360	0,059	-0,049
-471,474	-200,000	-0,009	0,063
-470,459	304,337	-0,080	0,109
-469,445	-200,000	0,018	0,079
-468,430	-200,000	-0,037	0,148
-467,416	526,990	0,061	0,106
-466,401	-200,000	0,005	0,084
-465,386	336,552	-0,048	0,069
-464,372	-65,614	0,024	0,007
-463,357	800,000	-0,020	0,056
-462,343	116,737	0,052	-0,047
-461,328	-200,000	0,027	-0,092
-460,313	-134,173	0,081	0,007
-459,299	-153,544	0,095	0,005
-458,284	13,639	-0,022	0,012
-457,270	-29,824	-0,022	-0,009
-456,255	-192,357	0,036	0,000
-455,241	800,000	0,065	-0,197
-454,226	298,719	-0,034	0,046
-453,211	186,998	-0,036	0,039
-452,197	-144,325	0,070	-0,005
-451,182	-77,473	0,109	-0,028
-450,168	369,075	0,069	0,103
-449,153	-19,316	-0,028	0,013
-448,138	-102,997	0,127	-0,022
-447,124	-53,365	-0,185	-0,062
-446,109	800,000	0,022	0,046
-445,095	-200,000	0,026	-0,102
-444,080	-37,010	0,100	0,039
-443,065	-26,350	0,106	0,046
-442,051	-54,403	-0,131	0,044
-441,036	-16,973	0,013	0,006
-440,022	-42,929	-0,028	0,010
-439,007	800,000	-0,011	-0,024
-437,992	392,671	0,053	0,082
-436,978	-200,000	-0,027	0,117
-435,963	-200,000	-0,015	0,180
-434,949	94,176	0,031	-0,026
-433,934	800,000	0,035	0,086
-432,919	-200,000	-0,007	-0,039
-431,905	-200,000	0,030	-0,138
-430,890	-37,450	-0,076	0,030
-429,876	91,602	0,045	0,037
-428,861	-41,689	0,064	0,024
-427,846	-200,000	0,013	0,107
-426,832	-53,774	-0,087	-0,029
-425,817	-101,763	-0,123	0,022
-424,803	-34,387	0,039	0,016
-423,788	61,736	-0,102	-0,074
-422,773	-200,000	-0,010	0,139
-421,759	800,000	0,024	0,072
-420,744	800,000	0,016	0,040
-419,730	-200,000	0,007	-0,135
-418,715	-40,208	-0,039	0,015
-417,701	-200,000	0,013	0,078
-416,686	243,829	-0,078	0,096
-415,671	-200,000	-0,002	0,017
-414,657	215,425	0,075	0,087
-413,642	-19,182	-0,018	-0,008
-412,628	-112,264	0,047	-0,007
-411,613	267,014	0,044	-0,057
-410,598	116,369	-0,121	-0,109
-409,584	389,799	-0,029	0,045
-408,569	142,124	0,076	0,074
-407,555	800,000	0,055	-0,127
-406,540	-200,000	0,004	0,047
-405,525	-200,000	-0,018	0,135
-404,511	157,408	0,089	0,091
-403,496	-200,000	0,026	0,130
-402,482	800,000	-0,030	-0,072
-401,467	-121,411	-0,088	-0,011
-400,452	800,000	0,006	0,013
-399,438	293,389	-0,070	-0,094
-398,423	800,000	0,080	-0,188
-397,409	210,455	-0,128	-0,148
-396,394	27,678	-0,096	0,059
-395,379	2,352	-0,160	-0,085
-394,365	364,640	0,139	0,207
-393,350	105,156	-0,100	-0,087
-392,336	32,925	0,095	-0,060
-391,321	-200,000	0,011	0,055
-390,306	113,747	-0,074	-0,066
-389,292	-87,282	-0,069	-0,015
-388,277	-92,968	0,067	-0,014
-387,263	-47,219	0,105	0,037
-386,248	211,953	-0,064	0,074
-385,233	379,691	-0,014	-0,022
-384,219	-170,631	0,070	-0,002
-383,204	-200,000	0,002	0,031
-382,190	800,000	-0,036	-0,073
-381,175	-85,650	0,056	-0,013
-380,160	-104,908	0,183	-0,031
-379,146	-200,000	-0,031	-0,105
-378,131	227,313	-0,052	-0,063
-377,117	800,000	-0,025	0,078
-376,102	406,963	-0,029	-0,046
-375,088	-200,000	-0,007	-0,101
-374,073	23,816	-0,082	-0,049
-373,058	-79,235	-0,087	-0,021
-372,044	367,397	0,070	0,104
-371,029	753,508	-0,031	-0,061
-370,015	177,191	0,036	0,038
-369,000	269,169	0,093	-0,120
-367,985	-0,231	-0,124	-0,065
-366,971	71,270	-0,120	-0,091
-365,956	455,761	0,034	0,055
-364,942	-89,510	0,006	0,001
-363,927	800,000	-0,018	0,057
-362,912	-45,114	-0,052	-0,019
-361,898	-59,861	-0,028	-0,009
-360,883	-8,618	-0,029	-0,014
-359,869	614,431	-0,051	-0,094
-358,854	209,256	0,031	-0,036
-357,839	-54,993	0,072	0,024
-356,825	-200,000	0,006	-0,038
-355,810	-200,000	-0,003	0,120
-354,796	194,516	0,075	-0,083
-353,781	-118,896	0,143	0,018
-352,766	-200,000	-0,018	0,114
-351,752	193,275	0,033	-0,037
-350,737	491,595	0,028	0,047
-349,723	-36,457	0,073	0,029
-348,708	-200,000	-0,004	0,076
-347,693	-45,778	0,087	-0,031
-346,679	627,325	0,020	0,038
-345,664	597,591	-0,001	-0,003
-344,650	-128,748	0,113	0,012
-343,635	800,000	-0,010	-0,021
-342,620	331,235	0,046	0,066
-341,606	-133,642	0,026	-0,002
-340,591	-200,000	-0,016	-0,120
-339,577	668,683	0,060	-0,115
-338,562	800,000	0,002	-0,004
-337,548	-16,884	0,012	-0,006
-336,533	-2,359	0,077	-0,039
-335,518	-6,966	-0,022	0,011
-334,504	-200,000	0,012	0,104
-333,489	41,673	-0,040	-0,027
-332,475	410,263	-0,022	0,034
-331,460	3,422	-0,102	0,055
-330,445	121,405	0,029	0,027
-329,431	-86,140	0,105	0,024
-328,416	-200,000	-0,006	0,030
-327,402	379,254	0,041	0,062
-326,387	-200,000	-0,031	-0,102
-325,372	45,586	-0,102	0,069
-324,358	-200,000	0,034	-0,146
-323,343	-56,490	0,032	0,010
-322,329	58,924	0,090	0,065
-321,314	8,242	-0,077	0,042
-320,299	170,139	0,049	0,052
-319,285	256,372	-0,123	-0,155
-318,270	800,000	-0,033	-0,100
-317,256	8,886	-0,107	-0,059
-316,241	6,389	-0,102	-0,055
-315,226	-200,000	0,015	-0,067
-314,212	-116,440	0,074	0,010
-313,197	-59,000	0,139	0,044
-312,183	-128,810	0,149	0,015
-311,168	-93,140	-0,128	0,026
-310,153	174,274	-0,048	-0,051
-309,139	-90,968	0,112	0,023
-308,124	-108,739	-0,047	0,007
-307,110	-86,756	0,241	0,053
-306,095	-150,845	0,023	-0,001
-305,080	175,329	0,066	-0,071
-304,066	-43,950	-0,094	0,034
-303,051	-200,000	0,009	-0,136
-302,037	-200,000	0,010	0,117
-301,022	-0,455	0,159	0,082
-300,008	133,459	-0,041	0,039
-298,993	-200,000	-0,010	0,035
-297,978	55,624	0,096	0,068
-296,964	12,384	-0,071	-0,040
-295,949	398,036	0,034	-0,053
-294,935	-200,000	0,020	-0,080
-293,920	159,773	-0,053	0,054
-292,905	-152,895	0,178	0,009
-291,891	-200,000	-0,010	0,049
-290,876	-131,445	0,085	0,008
-289,862	150,579	-0,097	-0,096
-288,847	-100,322	-0,102	-0,018
-287,832	-35,683	-0,105	-0,041
-286,818	800,000	0,011	0,029
-285,803	-0,180	0,099	-0,051
-284,789	800,000	0,026	0,069
-283,774	227,752	0,056	0,067
-282,759	13,617	0,036	0,020
-281,745	17,365	0,113	-0,066
-280,730	205,011	0,029	-0,033
-279,716	-0,641	0,053	0,027
-278,701	-71,244	0,122	-0,033
-277,686	-85,465	-0,168	-0,038
-276,672	-200,000	-0,031	-0,122
-275,657	335,724	-0,034	0,048
-274,643	41,671	-0,069	0,045
-273,628	167,719	-0,083	-0,086
-272,613	226,234	-0,103	0,123
-271,599	800,000	0,069	-0,214
-270,584	-160,457	-0,202	-0,008
-269,570	-4,514	0,117	-0,059
-268,555	107,147	-0,064	-0,055
-267,540	-90,388	0,029	-0,006
-266,526	-200,000	0,011	-0,034
-265,511	-200,000	-0,007	-0,106
-264,497	-47,760	0,135	0,048
-263,482	-193,430	0,083	-0,001
-262,467	298,395	-0,033	-0,045
-261,453	-133,425	0,100	0,009
-260,438	684,314	-0,073	0,140
-259,424	-81,183	0,028	-0,007
-258,409	-159,115	0,146	0,006
-257,395	-43,598	0,204	0,075
-256,380	65,138	0,020	-0,014
-255,365	-200,000	0,008	0,092
-254,351	-139,929	-0,123	0,009
-253,336	-200,000	-0,011	0,037
-252,322	189,329	-0,047	-0,051
-251,307	92,647	-0,015	0,013
-250,292	800,000	0,068	0,143
-249,278	584,929	0,031	0,056
-248,263	158,986	-0,013	-0,013
-247,249	-104,894	0,117	0,019
-246,234	229,424	0,056	0,067
-245,219	12,929	0,050	-0,028
-244,205	367,786	-0,092	-0,137
-243,190	-200,000	0,015	0,119
-242,176	449,823	-0,017	0,028
-241,161	96,559	0,081	0,068
-240,146	63,264	-0,076	0,055
-239,132	-200,000	0,024	0,124
-238,117	-104,694	-0,005	0,001
-237,103	364,127	-0,072	-0,106
-236,088	128,691	-0,091	0,085
-235,073	-102,492	0,062	0,011
-234,059	-200,000	0,016	-0,165
-233,044	-200,000	0,003	0,059
-232,030	800,000	0,026	-0,068
-231,015	-81,308	-0,087	-0,021
-230,000	-162,525	-0,079	0,003
-228,986	303,912	0,039	-0,053
-227,971	-200,000	-0,015	-0,100
-226,957	365,240	0,152	-0,224
-225,942	800,000	-0,016	0,034
-224,927	-200,000	0,010	-0,108
-223,913	-200,000	0,016	-0,061
-222,898	-200,000	-0,010	-0,113
-221,884	-129,570	-0,222	-0,022
-220,869	-101,157	0,151	0,027
-219,855	229,906	-0,081	-0,097
-218,840	491,696	0,033	0,055
-217,825	800,000	-0,023	0,071
-216,811	-200,000	-0,009	0,051
-215,796	151,101	-0,101	-0,100
-214,782	113,143	0,035	-0,031
-213,767	-200,000	0,007	0,108
-212,752	-200,000	0,002	-0,023
-211,738	-200,000	0,027	0,099
-210,723	144,551	-0,013	0,013
-209,709	440,411	0,052	0,084
-208,694	-95,904	-0,076	-0,015
-207,679	175,289	0,008	-0,009
-206,665	90,478	-0,112	0,092
-205,650	40,928	0,065	0,043
-204,636	-123,602	0,128	-0,015
-203,621	312,452	-0,064	-0,089
-202,606	40,085	-0,112	-0,073
-201,592	6,298	0,002	-0,001
-200,577	63,533	0,039	0,028
-199,563	-82,577	-0,099	0,023
-198,548	-200,000	0,186	0,000
-197,533	-52,820	0,084	0,028
-196,519	-200,000	0,010	0,065
-195,504	474,595	-0,063	0,104
-194,490	558,651	-0,055	0,098
-193,475	102,327	0,082	0,070
-192,460	-200,000	0,009	-0,069
-191,446	48,577	0,058	0,040
-190,431	-156,095	0,045	-0,002
-189,417	-12,388	0,103	-0,049
-188,402	-200,000	0,011	-0,057
-187,387	-200,000	-0,008	-0,062
-186,373	-23,717	-0,091	0,040
-185,358	1,623	-0,054	-0,028
-184,344	547,522	0,047	0,082
-183,329	158,897	0,153	0,155
-182,315	570,881	0,064	0,114
-181,300	225,753	-0,035	0,041
-180,285	800,000	-0,083	-0,175
-179,271	-200,000	-0,025	-0,199
-178,256	207,816	0,096	0,110
-177,242	77,772	0,099	0,077
-176,227	23,573	0,022	0,013
-175,212	165,486	0,136	0,141
-174,198	530,262	-0,028	0,049
-173,183	-54,614	-0,061	0,020
-172,169	800,000	0,024	0,068
-171,154	38,355	-0,067	-0,043
-170,139	202,931	0,031	-0,035
-169,125	800,000	-0,014	0,041
-168,110	-154,040	0,025	0,001
-167,096	-90,250	-0,077	0,016
-166,081	800,000	-0,008	0,017
-165,066	-200,000	-0,037	-0,137
-164,052	-200,000	0,009	-0,058
-163,037	-200,000	-0,006	-0,036
-162,023	105,433	-0,048	-0,041
-161,008	346,903	0,014	0,021
-159,993	22,367	-0,063	-0,037
-158,979	-136,608	-0,055	-0,005
-157,964	-141,511	-0,164	0,012
-156,950	800,000	0,048	-0,107
-155,935	-200,000	-0,021	-0,075
-154,920	-71,350	0,102	-0,028
-153,906	-200,000	-0,027	0,135
-152,891	100,857	-0,090	0,076
-151,877	-121,986	-0,092	0,011
-150,862	22,979	-0,061	0,036
-149,847	-85,247	0,129	-0,029
-148,833	-200,000	0,008	0,076
-147,818	128,691	0,051	-0,047
-146,804	-200,000	-0,028	-0,094
-145,789	393,374	0,045	-0,068
-144,775	130,074	-0,046	-0,043
-143,760	723,839	0,035	0,069
-142,745	606,749	-0,018	-0,033
-141,731	-200,000	0,002	-0,025
-140,716	71,849	0,123	0,093
-139,702	-76,327	-0,091	-0,023
-138,687	-200,000	-0,016	-0,087
-137,672	-200,000	0,003	-0,058
-136,658	171,413	0,055	0,058
-135,643	-93,959	-0,123	-0,024
-134,629	35,432	0,089	-0,057
-133,614	422,741	-0,012	-0,018
-132,599	121,058	0,037	-0,034
-131,585	84,950	0,084	0,067
-130,570	95,456	0,120	0,099
-129,556	800,000	0,030	-0,065
-128,541	48,551	-0,047	-0,032
-127,526	135,576	0,076	0,072
-126,512	6,482	0,108	-0,058
-125,497	50,859	0,073	0,051
-124,483	800,000	0,039	0,114
-123,468	139,725	0,040	0,038
-122,453	742,097	0,035	0,068
-121,439	-200,000	-0,001	-0,065
-120,424	-94,158	-0,046	-0,009
-119,410	692,362	-0,054	0,104
