DTS Sentinel unit serial number:	SN410029Multiplexer serial number:	ORYXHardware model number:	OX2-SRSoftware version number:	ORYX F/W v4,00 Oryx Data Collector v3.7.2.0data status	okinstallation	B6 Nyhavnadifferential loss correction	single-endedforward channel	channel 2reverse channel	N/Adate	2023/12/07time	13:50:08forward acquisition time	300,00reverse acquisition time	0,00gamma	499,1914k internal	0,3200k external	0,3200temperature offset calibration	1,0000default loss term (dB/km)	0,3820temperature slope calibration	1,0000multiplexer offset coefficient	1,0000multiplexer slope coefficient	1,0000fibre end	0,00T internal ref (°C)	12,81T ext. ref 1 (°C)	-1,64T ext. ref 2 (°C)	-1,62length (m)	temperature (°C)	Stokes	anti-Stokes-744,400	201,383	0,042	0,047
-743,385	-86,102	-0,430	0,096
-742,371	-96,124	0,168	0,032
-741,356	-104,491	-0,251	0,042
-740,342	-93,500	0,136	-0,027
-739,327	-141,720	-0,318	-0,023
-738,312	35,512	0,069	-0,044
-737,298	-163,699	-0,346	0,012
-736,283	-21,271	0,102	0,045
-735,269	-155,145	-0,376	-0,018
-734,254	-7,648	0,167	0,082
-733,239	-46,035	-0,497	-0,177
-732,225	211,947	0,137	0,157
-731,210	-200,000	0,009	0,072
-730,196	-200,000	-0,001	-0,008
-729,181	800,000	-0,069	-0,141
-728,167	-200,000	0,002	-0,084
-727,152	-67,572	0,026	-0,007
-726,137	-200,000	-0,007	-0,039
-725,123	-200,000	-0,002	-0,087
-724,108	342,987	-0,136	-0,194
-723,094	-67,929	-0,199	-0,056
-722,079	-92,319	-0,131	-0,027
-721,064	148,866	0,034	-0,033
-720,050	800,000	-0,039	-0,122
-719,035	507,090	0,041	-0,070
-718,021	249,230	0,035	0,043
-717,006	-1,715	-0,135	-0,069
-715,991	146,357	-0,060	-0,058
-714,977	-111,119	-0,132	-0,019
-713,962	190,667	0,133	-0,146
-712,948	-72,673	0,033	-0,009
-711,933	-95,617	0,070	0,013
-710,918	141,063	-0,022	0,021
-709,904	-8,595	-0,018	-0,009
-708,889	53,876	-0,019	0,013
-707,875	361,017	-0,028	-0,041
-706,860	-41,258	-0,110	-0,041
-705,845	-105,193	-0,081	-0,013
-704,831	296,118	0,026	0,034
-703,816	13,193	-0,144	0,081
-702,802	-161,842	-0,035	-0,001
-701,787	-84,131	-0,237	-0,054
-700,772	-18,296	-0,017	-0,008
-699,758	-200,000	0,022	-0,095
-698,743	800,000	0,058	0,130
-697,729	-200,000	0,005	0,089
-696,714	33,760	-0,109	0,069
-695,699	-200,000	-0,009	-0,050
-694,685	-117,006	-0,146	-0,019
-693,670	415,717	0,028	0,043
-692,656	-55,871	-0,095	-0,031
-691,641	790,378	-0,071	-0,142
-690,627	208,810	0,061	0,069
-689,612	-97,450	-0,076	0,014
-688,597	-139,512	-0,060	0,005
-687,583	-92,531	-0,126	0,026
-686,568	43,803	0,073	0,048
-685,554	-98,300	-0,057	-0,010
-684,539	86,248	0,029	-0,023
-683,524	-5,867	0,070	0,035
-682,510	234,642	0,104	0,125
-681,495	-72,438	0,032	0,008
-680,481	-200,000	-0,010	0,057
-679,466	-200,000	0,005	0,042
-678,451	430,313	-0,021	-0,032
-677,437	800,000	0,038	-0,121
-676,422	-171,256	-0,192	0,005
-675,408	-71,257	-0,248	0,067
-674,393	363,103	-0,013	-0,019
-673,378	800,000	-0,068	-0,180
-672,364	47,545	-0,064	-0,043
-671,349	-151,468	-0,122	-0,006
-670,335	678,300	0,045	-0,086
-669,320	29,479	-0,088	-0,054
-668,305	109,811	0,051	0,044
-667,291	78,774	-0,080	0,062
-666,276	408,947	-0,031	0,048
-665,262	-105,833	-0,178	0,029
-664,247	549,872	-0,030	-0,052
-663,232	389,333	-0,049	0,073
-662,218	-46,747	0,097	0,034
-661,203	-101,713	0,161	-0,028
-660,189	290,843	0,076	-0,100
-659,174	71,547	-0,060	-0,045
-658,159	800,000	-0,029	-0,078
-657,145	186,575	0,078	-0,084
-656,130	800,000	-0,059	-0,124
-655,116	-200,000	0,000	0,020
-654,101	-151,391	0,119	-0,006
-653,086	-130,170	-0,081	0,008
-652,072	-200,000	-0,006	-0,083
-651,057	321,745	-0,028	-0,039
-650,043	-36,915	0,026	0,010
-649,028	-200,000	0,019	0,122
-648,014	88,182	0,140	-0,112
-646,999	-166,326	0,052	0,002
-645,984	-152,647	-0,109	0,006
-644,970	-64,641	0,055	0,016
-643,955	800,000	-0,018	-0,051
-642,941	285,237	-0,025	-0,033
-641,926	134,405	0,072	-0,068
-640,911	-200,000	0,001	-0,035
-639,897	800,000	-0,049	-0,149
-638,882	800,000	0,097	-0,214
-637,868	-72,279	0,111	0,030
-636,853	-200,000	-0,039	-0,170
-635,838	-28,400	0,159	-0,066
-634,824	141,128	0,059	-0,056
-633,809	-134,547	-0,047	-0,004
-632,795	800,000	0,026	0,082
-631,780	217,441	-0,057	0,066
-630,765	-200,000	0,009	-0,054
-629,751	63,869	-0,100	-0,073
-628,736	-165,456	-0,127	0,004
-627,722	-200,000	0,031	-0,117
-626,707	250,192	-0,072	0,088
-625,692	287,083	0,106	0,139
-624,678	-200,000	0,006	-0,062
-623,663	62,494	0,049	-0,035
-622,649	-84,873	-0,086	0,019
-621,634	260,539	0,038	0,047
-620,619	800,000	0,026	0,061
-619,605	-12,751	-0,051	0,024
-618,590	-110,929	-0,140	-0,021
-617,576	29,516	0,028	0,017
-616,561	-46,345	-0,075	0,026
-615,546	-122,016	-0,042	-0,005
-614,532	-200,000	0,024	-0,088
-613,517	800,000	0,029	0,071
-612,503	-59,902	0,101	0,031
-611,488	-112,825	-0,044	0,006
-610,474	512,990	-0,067	0,113
-609,459	137,968	0,034	-0,032
-608,444	-200,000	0,014	-0,094
-607,430	86,643	-0,034	-0,027
-606,415	173,793	0,074	-0,078
-605,401	-62,747	0,038	-0,011
-604,386	20,938	-0,027	0,016
-603,371	130,529	-0,047	-0,044
-602,357	288,352	-0,051	0,067
-601,342	310,109	-0,079	-0,107
-600,328	142,663	0,086	-0,083
-599,313	-112,206	-0,128	0,018
-598,298	-200,000	0,009	0,059
-597,284	800,000	0,061	0,145
-596,269	133,907	0,053	0,049
-595,255	67,613	0,067	0,050
-594,240	-200,000	0,005	0,087
-593,225	800,000	0,008	0,024
-592,211	84,543	-0,028	-0,023
-591,196	153,187	0,003	-0,003
-590,182	-16,265	0,070	-0,032
-589,167	17,403	-0,081	0,046
-588,152	135,240	0,021	0,020
-587,138	118,950	0,029	0,026
-586,123	23,591	0,067	0,040
-585,109	311,669	-0,092	0,125
-584,094	-79,373	0,029	-0,007
-583,079	-114,107	0,072	0,010
-582,065	453,880	0,069	0,111
-581,050	366,114	-0,049	0,072
-580,036	800,000	-0,022	0,064
-579,021	409,266	0,053	-0,081
-578,006	225,267	-0,053	-0,062
-576,992	-129,371	0,048	0,005
-575,977	-200,000	-0,011	-0,072
-574,963	-7,900	0,160	-0,078
-573,948	800,000	0,023	-0,059
-572,934	-104,055	0,089	-0,015
-571,919	-200,000	-0,012	0,040
-570,904	68,666	0,098	-0,073
-569,890	365,098	-0,059	-0,085
-568,875	2,917	0,078	-0,041
-567,861	185,798	-0,008	-0,009
-566,846	53,443	-0,080	0,055
-565,831	-54,800	-0,024	-0,008
-564,817	-121,353	0,070	-0,008
-563,802	426,868	0,046	0,072
-562,788	46,261	-0,169	-0,113
-561,773	-200,000	-0,001	-0,051
-560,758	65,266	0,074	-0,054
-559,744	7,772	0,146	0,079
-558,729	-200,000	-0,020	-0,070
-557,715	800,000	0,022	-0,059
-556,700	-200,000	0,037	-0,126
-555,685	85,862	-0,070	-0,055
-554,671	800,000	0,014	-0,036
-553,656	-200,000	0,004	0,084
-552,642	-200,000	0,012	0,065
-551,627	-132,018	0,080	0,007
-550,612	-200,000	-0,016	-0,079
-549,598	-25,752	-0,180	0,076
-548,583	265,756	-0,028	0,035
-547,569	52,276	-0,055	0,038
-546,554	-66,632	0,072	0,021
-545,539	-200,000	-0,041	0,192
-544,525	-66,323	-0,125	-0,036
-543,510	120,540	0,088	0,079
-542,496	-57,860	0,061	0,019
-541,481	-40,011	-0,084	0,032
-540,466	800,000	0,046	-0,128
-539,452	142,966	0,029	0,028
-538,437	-200,000	-0,005	0,028
-537,423	800,000	-0,026	-0,055
-536,408	314,225	-0,017	0,023
-535,393	523,547	-0,037	-0,063
-534,379	95,950	-0,069	0,057
-533,364	163,217	0,045	0,046
-532,350	492,407	-0,033	0,055
-531,335	-200,000	0,007	0,041
-530,321	-200,000	-0,045	0,177
-529,306	90,411	-0,085	-0,068
-528,291	800,000	-0,035	-0,078
-527,277	269,265	-0,007	0,008
-526,262	57,450	-0,102	0,072
-525,248	-94,535	0,074	-0,014
-524,233	800,000	-0,008	0,022
-523,218	224,551	0,053	0,062
-522,204	215,617	-0,066	0,076
-521,189	41,522	-0,127	-0,082
-520,175	629,948	-0,038	-0,069
-519,160	83,093	-0,093	-0,073
-518,145	-101,060	-0,080	0,014
-517,131	800,000	0,041	-0,117
-516,116	-159,913	-0,152	0,006
-515,102	81,287	0,091	0,071
-514,087	78,996	0,155	-0,119
-513,072	800,000	-0,038	-0,101
-512,058	-200,000	0,025	-0,112
-511,043	87,373	0,102	0,081
-510,029	-153,484	0,070	-0,003
-509,014	-200,000	0,020	0,094
-507,999	-200,000	-0,006	0,035
-506,985	800,000	-0,052	-0,136
-505,970	22,704	-0,024	-0,014
-504,956	-71,566	-0,153	0,041
-503,941	-155,202	-0,055	0,003
-502,926	-72,640	0,072	-0,019
-501,912	-94,637	0,099	-0,019
-500,897	800,000	-0,028	-0,063
-499,883	65,373	0,091	-0,067
-498,868	-138,983	0,120	-0,009
-497,853	-200,000	-0,014	-0,067
-496,839	-90,784	-0,073	0,015
-495,824	67,096	0,126	0,092
-494,810	327,627	0,075	0,104
-493,795	178,528	-0,021	0,022
-492,781	-200,000	-0,007	-0,058
-491,766	294,435	-0,013	-0,017
-490,751	800,000	0,043	-0,112
-489,737	-200,000	0,007	-0,132
-488,722	122,498	0,019	0,017
-487,708	800,000	-0,014	0,040
-486,693	-18,154	-0,118	-0,053
-485,678	800,000	0,050	-0,109
-484,664	800,000	-0,007	0,021
-483,649	-200,000	-0,043	-0,142
-482,635	800,000	0,046	-0,096
-481,620	-200,000	-0,005	0,024
-480,605	-85,459	0,110	-0,024
-479,591	-102,582	-0,018	-0,003
-478,576	-52,588	-0,092	-0,031
-477,562	18,575	-0,081	-0,046
-476,547	119,158	0,082	-0,073
-475,532	390,323	-0,078	-0,117
-474,518	-30,661	0,125	-0,051
-473,503	-91,189	-0,019	-0,004
-472,489	82,588	-0,068	0,053
-471,474	474,291	0,072	-0,118
-470,459	-85,388	-0,131	0,029
-469,445	-200,000	-0,010	0,067
-468,430	252,121	0,052	-0,064
-467,416	-200,000	0,009	-0,135
-466,401	-168,111	0,053	0,001
-465,386	-62,068	0,122	0,036
-464,372	560,098	-0,039	0,067
-463,357	800,000	0,040	0,092
-462,343	-54,688	-0,025	-0,008
-461,328	800,000	-0,022	-0,044
-460,313	-200,000	0,005	-0,149
-459,299	-70,989	0,022	-0,006
-458,284	-68,063	0,198	0,055
-457,270	0,060	0,069	0,035
-456,255	44,059	-0,059	-0,039
-455,241	441,568	-0,046	0,072
-454,226	536,094	0,040	-0,068
-453,211	1,412	-0,068	0,035
-452,197	-89,880	-0,031	0,007
-451,182	427,136	-0,035	0,054
-450,168	800,000	-0,041	-0,090
-449,153	-200,000	0,021	0,095
-448,138	267,609	-0,092	0,116
-447,124	-101,784	0,112	-0,019
-446,109	533,134	0,048	-0,082
-445,095	791,172	-0,100	0,199
-444,080	-72,626	-0,074	0,020
-443,065	-140,782	-0,052	0,004
-442,051	740,239	0,079	0,153
-441,036	-65,142	-0,023	0,007
-440,022	-200,000	0,010	-0,078
-439,007	-46,103	0,046	-0,016
-437,992	492,539	-0,043	0,072
-436,978	-200,000	-0,030	0,185
-435,963	-200,000	-0,041	0,178
-434,949	-200,000	-0,014	0,050
-433,934	800,000	-0,063	-0,164
-432,919	186,906	-0,049	-0,052
-431,905	-25,366	-0,059	0,025
-430,890	442,856	0,051	0,080
-429,876	-200,000	0,023	-0,150
-428,861	-134,735	0,127	-0,011
-427,846	776,637	-0,051	0,100
-426,832	219,179	-0,012	-0,014
-425,817	-58,028	-0,008	-0,003
-424,803	145,334	0,061	-0,058
-423,788	-12,740	0,094	0,044
-422,773	-200,000	0,004	0,079
-421,759	-42,165	0,136	-0,050
-420,744	-200,000	0,009	0,077
-419,730	546,402	-0,063	-0,109
-418,715	436,176	-0,058	-0,091
-417,701	800,000	0,060	-0,125
-416,686	-83,579	0,055	0,013
-415,671	205,339	-0,053	0,059
-414,657	-200,000	0,017	0,059
-413,642	66,448	-0,060	0,044
-412,628	-40,950	0,028	-0,010
-411,613	800,000	-0,035	-0,087
-410,598	83,994	-0,090	-0,071
-409,584	800,000	-0,063	0,158
-408,569	-111,739	0,090	0,013
-407,555	-200,000	0,009	0,073
-406,540	-101,339	-0,025	-0,004
-405,525	-76,204	-0,116	-0,029
-404,511	-54,954	0,117	-0,038
-403,496	33,139	-0,059	-0,037
-402,482	141,668	0,030	0,028
-401,467	-200,000	-0,005	0,082
-400,452	-200,000	0,030	-0,124
-399,438	35,884	0,061	0,039
-398,423	-12,422	-0,107	-0,050
-397,409	-32,455	-0,020	0,008
-396,394	45,343	0,048	0,031
-395,379	-87,428	0,122	-0,026
-394,365	-14,611	0,021	-0,010
-393,350	800,000	0,057	0,115
-392,336	194,935	0,027	0,029
-391,321	81,355	-0,037	-0,029
-390,306	800,000	-0,049	-0,120
-389,292	800,000	-0,058	-0,147
-388,277	781,180	0,016	-0,032
-387,263	-60,406	0,159	-0,048
-386,248	800,000	-0,017	0,043
-385,233	-14,177	-0,101	0,046
-384,219	-51,288	0,076	-0,025
-383,204	-200,000	-0,013	-0,114
-382,190	46,152	-0,026	-0,017
-381,175	57,922	-0,007	-0,005
-380,160	-43,018	-0,126	-0,046
-379,146	-177,737	0,068	-0,001
-378,131	77,191	0,086	-0,065
-377,117	262,949	-0,067	-0,083
-376,102	100,956	-0,093	-0,078
-375,088	-3,175	0,063	-0,031
-374,073	409,260	-0,030	-0,045
-373,058	-200,000	0,026	0,158
-372,044	172,568	-0,089	0,092
-371,029	-13,761	0,102	-0,047
-370,015	226,609	-0,067	-0,079
-369,000	-169,909	-0,032	0,001
-367,985	71,826	-0,105	0,078
-366,971	732,126	0,014	-0,028
-365,956	-81,475	0,171	-0,040
-364,942	800,000	0,017	0,048
-363,927	-35,141	0,088	0,034
-362,912	-200,000	0,030	0,103
-361,898	146,673	-0,124	0,119
-360,883	-109,245	0,043	0,007
-359,869	146,277	0,070	0,068
-358,854	365,175	-0,022	-0,031
-357,839	800,000	-0,045	0,102
-356,825	228,183	0,117	-0,137
-355,810	208,872	-0,072	0,081
-354,796	-79,954	0,170	-0,041
-353,781	-200,000	-0,014	0,053
-352,766	-125,725	-0,060	0,006
-351,752	-135,110	-0,049	-0,004
-350,737	251,769	0,056	-0,068
-349,723	350,049	0,024	0,034
-348,708	311,078	0,073	0,098
-347,693	67,609	-0,073	-0,054
-346,679	-53,069	-0,022	0,007
-345,664	-2,021	-0,167	-0,084
-344,650	-200,000	-0,055	0,177
-343,635	134,600	-0,050	0,047
-342,620	-29,090	0,149	-0,061
-341,606	-43,168	-0,136	0,049
-340,591	34,002	-0,030	0,019
-339,577	-9,475	-0,021	0,010
-338,562	-129,073	-0,152	-0,015
-337,548	-112,633	0,030	-0,004
-336,533	-134,933	0,209	0,018
-335,518	-200,000	0,001	0,061
-334,504	246,800	0,065	0,078
-333,489	-200,000	-0,006	0,064
-332,475	-137,625	-0,109	0,009
-331,460	-88,632	0,041	-0,009
-330,445	-200,000	0,007	0,094
-329,431	751,907	-0,057	-0,111
-328,416	-143,322	-0,079	0,005
-327,402	-200,000	0,041	0,142
-326,387	74,232	0,056	0,042
-325,372	-200,000	-0,016	0,078
-324,358	800,000	-0,091	-0,195
-323,343	-200,000	0,004	-0,024
-322,329	-200,000	0,023	0,134
-321,314	171,851	0,036	0,037
-320,299	-200,000	0,010	0,082
-319,285	99,011	0,021	-0,018
-318,270	-200,000	-0,027	-0,186
-317,256	45,988	0,067	0,044
-316,241	6,410	0,110	0,058
-315,226	-154,941	0,104	-0,005
-314,212	-138,537	0,126	0,010
-313,197	-200,000	0,020	-0,137
-312,183	320,706	0,067	0,091
-311,168	20,403	-0,127	-0,073
-310,153	703,683	-0,051	-0,097
-309,139	-200,000	-0,012	-0,113
-308,124	-112,770	-0,059	0,008
-307,110	-110,999	0,090	-0,013
-306,095	203,548	-0,048	0,053
-305,080	-200,000	0,008	-0,087
-304,066	373,840	-0,070	-0,101
-303,051	345,999	0,049	-0,069
-302,037	-200,000	0,001	-0,093
-301,022	189,916	-0,018	-0,020
-300,008	268,454	-0,067	-0,084
-298,993	-200,000	-0,001	-0,013
-297,978	68,143	0,024	0,018
-296,964	-200,000	0,005	-0,066
-295,949	-200,000	0,021	-0,073
-294,935	35,284	-0,082	-0,051
-293,920	75,213	-0,046	-0,035
-292,905	-200,000	0,006	0,024
-291,891	31,365	0,093	0,057
-290,876	51,346	0,024	-0,016
-289,862	800,000	0,054	-0,118
-288,847	-200,000	0,029	-0,128
-287,832	324,847	-0,037	-0,050
-286,818	-17,597	0,075	-0,033
-285,803	427,048	-0,031	-0,048
-284,789	321,664	-0,030	0,041
-283,774	800,000	-0,035	0,087
-282,759	-36,982	-0,180	-0,069
-281,745	-177,814	0,170	0,003
-280,730	-112,497	-0,073	0,010
-279,716	236,595	0,138	0,164
-278,701	-200,000	0,003	0,074
-277,686	800,000	0,022	0,059
-276,672	-200,000	-0,011	0,082
-275,657	800,000	0,035	0,097
-274,643	800,000	0,015	0,035
-273,628	199,348	-0,004	-0,005
-272,613	-18,818	0,031	-0,014
-271,599	385,000	0,147	0,217
-270,584	4,254	0,049	-0,025
-269,570	522,290	0,048	0,080
-268,555	-32,423	-0,079	-0,031
-267,540	800,000	-0,015	0,031
-266,526	94,965	0,069	0,056
-265,511	-200,000	-0,004	0,034
-264,497	-200,000	0,019	0,164
-263,482	800,000	-0,051	0,138
-262,467	661,241	-0,035	0,065
-261,453	-200,000	0,004	0,019
-260,438	136,294	-0,086	-0,080
-259,424	-200,000	0,038	-0,152
-258,409	77,326	0,095	0,072
-257,395	-28,780	-0,081	0,033
-256,380	800,000	0,047	0,131
-255,365	80,339	-0,036	0,027
-254,351	-200,000	0,023	0,131
-253,336	-200,000	0,008	-0,067
-252,322	182,142	-0,098	-0,103
-251,307	-118,185	-0,100	0,013
-250,292	-58,448	0,060	-0,018
-249,278	-200,000	0,002	0,119
-248,263	-137,048	0,137	0,011
-247,249	-200,000	-0,018	0,089
-246,234	288,965	0,028	0,037
-245,219	-21,616	-0,117	-0,051
-244,205	800,000	-0,026	-0,076
-243,190	-200,000	0,030	0,111
-242,176	387,173	-0,014	0,021
-241,161	800,000	0,002	-0,007
-240,146	27,989	0,059	-0,036
-239,132	3,137	-0,060	0,031
-238,117	74,934	0,049	-0,037
-237,103	-105,883	0,109	0,017
-236,088	-117,652	-0,052	-0,007
-235,073	-155,500	-0,049	0,002
-234,059	112,203	0,148	0,127
-233,044	-50,835	-0,074	-0,025
-232,030	123,325	0,113	-0,101
-231,015	-200,000	-0,080	0,000
-230,000	800,000	0,026	0,059
-228,986	358,215	0,035	-0,050
-227,971	45,699	0,125	-0,082
-226,957	-57,247	0,130	0,041
-225,942	800,000	-0,011	-0,025
-224,927	254,217	0,087	-0,106
-223,913	-147,043	-0,132	-0,008
-222,898	193,184	-0,016	-0,017
-221,884	800,000	-0,035	0,080
-220,869	-84,550	-0,132	-0,029
-219,855	-199,939	0,075	0,000
-218,840	-200,000	-0,026	-0,106
-217,825	-28,221	-0,139	-0,057
-216,811	-128,469	-0,067	0,007
-215,796	800,000	0,019	0,061
-214,782	-200,000	-0,024	-0,102
-213,767	-200,000	-0,019	0,067
-212,752	303,937	-0,090	0,119
-211,738	800,000	0,049	0,115
-210,723	-37,739	-0,152	0,057
-209,709	-200,000	-0,009	-0,067
-208,694	422,100	-0,028	0,042
-207,679	-19,373	-0,128	-0,056
-206,665	-40,179	-0,085	-0,031
-205,650	-18,316	0,087	-0,038
-204,636	318,918	-0,034	0,046
-203,621	800,000	-0,029	-0,059
-202,606	481,265	-0,040	-0,065
-201,592	-171,855	-0,060	-0,001
-200,577	-76,523	0,044	-0,011
-199,563	-99,831	0,102	0,018
-198,548	62,934	0,025	-0,018
-197,533	-200,000	-0,003	-0,089
-196,519	-48,718	-0,097	-0,033
-195,504	800,000	-0,026	0,073
-194,490	437,820	-0,047	-0,073
-193,475	-200,000	-0,011	0,077
-192,460	66,584	0,044	-0,031
-191,446	-50,790	0,070	0,023
-190,431	86,955	0,136	0,107
-189,417	-144,580	-0,121	0,008
-188,402	800,000	0,001	-0,002
-187,387	-200,000	-0,005	-0,020
-186,373	-200,000	0,004	-0,099
-185,358	276,050	0,045	0,057
-184,344	276,782	-0,072	0,092
-183,329	-200,000	-0,001	0,078
-182,315	800,000	-0,062	0,173
-181,300	-200,000	-0,002	0,046
-180,285	800,000	0,006	-0,013
-179,271	244,909	0,116	0,139
-178,256	-111,749	0,046	-0,007
-177,242	-200,000	0,042	-0,133
-176,227	50,166	0,041	0,028
-175,212	800,000	-0,042	0,099
-174,198	-182,849	-0,135	-0,002
-173,183	-200,000	-0,008	-0,059
-172,169	800,000	-0,037	-0,111
-171,154	295,055	-0,029	-0,037
-170,139	373,159	-0,028	-0,040
-169,125	36,725	0,049	0,031
-168,110	120,586	0,086	-0,076
-167,096	800,000	-0,057	0,131
-166,081	592,972	-0,043	0,075
-165,066	15,055	-0,108	0,060
-164,052	-200,000	-0,008	0,035
-163,037	67,664	0,065	-0,047
-162,023	-62,476	-0,087	-0,026
-161,008	800,000	-0,037	0,078
-159,993	-200,000	-0,019	-0,073
-158,979	-200,000	0,021	-0,075
-157,964	173,430	-0,072	0,074
-156,950	86,902	-0,102	0,080
-155,935	-5,058	0,081	0,039
-154,920	122,634	-0,089	0,080
-153,906	800,000	0,039	-0,081
-152,891	28,631	-0,054	-0,032
-151,877	-187,397	-0,121	0,001
-150,862	800,000	-0,027	-0,063
-149,847	79,266	0,093	-0,071
-148,833	85,370	0,022	-0,017
-147,818	479,798	0,054	0,087
-146,804	114,398	-0,041	0,035
-145,789	-200,000	0,029	0,116
-144,775	-144,819	-0,060	-0,004
-143,760	-39,577	-0,084	0,031
-142,745	-200,000	-0,016	-0,077
-141,731	466,911	0,086	-0,137
-140,716	-49,776	0,126	0,042
-139,702	-126,201	0,066	0,007
-138,687	800,000	-0,028	-0,081
-137,672	285,429	-0,022	0,028
-136,658	-200,000	-0,023	0,092
-135,643	18,654	-0,079	0,045
-134,629	-200,000	-0,010	0,063
-133,614	624,456	0,053	0,094
-132,599	800,000	0,039	-0,087
-131,585	213,650	-0,034	0,039
-130,570	-200,000	0,004	0,020
-129,556	295,457	-0,025	0,033
-128,541	160,294	0,027	-0,027
-127,526	17,607	-0,050	0,028
-126,512	-200,000	0,027	0,103
-125,497	168,572	0,138	0,140
-124,483	-126,097	-0,076	0,008
-123,468	-70,124	-0,075	0,020
-122,453	-57,821	-0,141	0,044
-121,439	-19,763	-0,093	0,041
-120,424	100,326	-0,111	-0,091
-119,410	39,601	0,080	-0,051
