DTS Sentinel unit serial number:	SN410029Multiplexer serial number:	ORYXHardware model number:	OX2-SRSoftware version number:	ORYX F/W v4,00 Oryx Data Collector v3.7.2.0data status	okinstallation	B6 Nyhavnadifferential loss correction	single-endedforward channel	channel 2reverse channel	N/Adate	2023/12/09time	23:40:08forward acquisition time	300,00reverse acquisition time	0,00gamma	499,1914k internal	0,3127k external	0,3127temperature offset calibration	1,0000default loss term (dB/km)	0,3820temperature slope calibration	1,0000multiplexer offset coefficient	1,0000multiplexer slope coefficient	1,0000fibre end	0,00T internal ref (°C)	21,75T ext. ref 1 (°C)	5,61T ext. ref 2 (°C)	5,59length (m)	temperature (°C)	Stokes	anti-Stokes-744,400	-159,222	0,043	-0,002
-743,385	326,283	-0,137	0,195
-742,371	-200,000	-0,004	-0,072
-741,356	-49,785	-0,329	0,116
-740,342	-200,000	0,011	0,068
-739,327	43,959	-0,159	0,108
-738,312	-52,261	0,062	-0,021
-737,298	-83,602	-0,260	-0,061
-736,283	140,392	0,084	-0,082
-735,269	-88,367	-0,301	0,066
-734,254	99,731	0,042	-0,036
-733,239	-105,806	-0,330	0,055
-732,225	-55,767	0,100	-0,033
-731,210	-136,706	-0,034	-0,003
-730,196	145,917	-0,069	-0,068
-729,181	295,963	-0,052	-0,071
-728,167	197,931	0,064	-0,073
-727,152	-92,125	-0,080	0,017
-726,137	-194,611	-0,159	-0,001
-725,123	10,508	-0,115	0,065
-724,108	46,581	-0,048	0,033
-723,094	-200,000	-0,011	-0,065
-722,079	800,000	-0,022	-0,045
-721,064	26,372	-0,134	-0,083
-720,050	729,909	-0,039	0,079
-719,035	-58,544	0,033	-0,011
-718,021	172,566	-0,066	-0,071
-717,006	-200,000	-0,017	-0,137
-715,991	237,387	-0,155	-0,191
-714,977	-200,000	0,013	-0,087
-713,962	-200,000	-0,004	-0,052
-712,948	-40,465	0,113	0,044
-711,933	-139,179	-0,064	0,005
-710,918	-41,632	-0,056	-0,021
-709,904	-79,955	-0,110	-0,027
-708,889	-4,400	0,071	0,036
-707,875	800,000	-0,075	-0,218
-706,860	78,533	-0,019	-0,015
-705,845	112,997	0,024	0,022
-704,831	-63,402	-0,077	-0,023
-703,816	-200,000	0,001	-0,020
-702,802	233,463	-0,082	-0,100
-701,787	79,059	-0,118	-0,094
-700,772	-168,826	0,075	-0,002
-699,758	800,000	0,024	-0,060
-698,743	-19,132	0,016	-0,007
-697,729	-96,525	0,114	-0,022
-696,714	-4,340	0,063	-0,032
-695,699	-106,303	-0,080	0,013
-694,685	-200,000	-0,020	-0,078
-693,670	-82,370	-0,094	-0,023
-692,656	354,538	-0,052	-0,077
-691,641	-200,000	-0,001	-0,092
-690,627	-200,000	-0,017	0,156
-689,612	800,000	0,014	0,031
-688,597	-200,000	-0,014	-0,129
-687,583	-37,192	-0,076	-0,030
-686,568	0,274	-0,176	0,093
-685,554	111,531	-0,075	-0,067
-684,539	-39,782	0,082	0,032
-683,524	-200,000	0,000	0,116
-682,510	-168,781	-0,063	-0,002
-681,495	-106,442	-0,071	0,012
-680,481	711,350	0,009	-0,019
-679,466	-200,000	0,012	-0,090
-678,451	166,960	0,015	-0,015
-677,437	-200,000	0,005	-0,121
-676,422	-200,000	-0,022	0,081
-675,408	96,662	0,076	0,064
-674,393	800,000	-0,052	-0,115
-673,378	57,696	0,039	-0,029
-672,364	27,125	-0,061	0,038
-671,349	-40,547	-0,145	0,056
-670,335	-200,000	-0,005	0,083
-669,320	281,192	-0,096	-0,128
-668,305	125,531	0,116	0,109
-667,291	-86,425	-0,086	0,020
-666,276	172,191	-0,017	0,018
-665,262	30,365	-0,097	-0,062
-664,247	-200,000	-0,006	-0,030
-663,232	-16,172	-0,097	0,045
-662,218	532,541	0,025	0,044
-661,203	-200,000	0,013	0,122
-660,189	12,716	0,024	0,014
-659,174	800,000	0,025	0,058
-658,159	800,000	-0,030	0,068
-657,145	230,765	0,042	0,051
-656,130	-200,000	0,013	0,044
-655,116	-53,122	0,086	0,029
-654,101	126,137	-0,029	-0,027
-653,086	-200,000	-0,003	-0,026
-652,072	619,436	-0,051	0,095
-651,057	526,306	-0,079	-0,139
-650,043	-101,357	-0,113	-0,020
-649,028	77,307	-0,065	0,051
-648,014	-98,253	-0,067	-0,013
-646,999	-169,824	0,043	-0,001
-645,984	346,243	0,055	0,081
-644,970	120,508	0,084	-0,078
-643,955	-31,185	-0,086	-0,036
-642,941	-2,500	-0,086	-0,045
-641,926	800,000	0,044	-0,139
-640,911	510,734	-0,086	-0,149
-639,897	800,000	0,067	0,139
-638,882	46,650	0,028	-0,019
-637,868	-200,000	0,000	-0,003
-636,853	92,084	-0,081	0,068
-635,838	-44,574	0,073	-0,027
-634,824	800,000	-0,025	-0,056
-633,809	-200,000	-0,028	-0,138
-632,795	-133,388	0,069	-0,006
-631,780	-200,000	-0,013	0,100
-630,765	16,197	-0,041	0,024
-629,751	-97,129	0,083	0,016
-628,736	393,018	-0,033	0,052
-627,722	-200,000	0,014	-0,090
-626,707	219,691	0,071	-0,084
-625,692	428,001	0,039	-0,063
-624,678	800,000	-0,013	0,030
-623,663	-62,344	0,006	-0,002
-622,649	-33,891	-0,138	0,056
-621,634	800,000	-0,039	-0,088
-620,619	-200,000	0,011	-0,098
-619,605	364,598	0,061	0,091
-618,590	257,727	-0,021	0,027
-617,576	-147,935	-0,048	-0,003
-616,561	-99,793	0,078	-0,014
-615,546	116,431	-0,064	0,058
-614,532	-67,887	-0,069	0,020
-613,517	-200,000	-0,020	-0,077
-612,503	-200,000	-0,003	-0,052
-611,488	-192,406	0,159	0,001
-610,474	-72,072	0,107	0,029
-609,459	800,000	-0,014	-0,035
-608,444	212,792	-0,101	-0,119
-607,430	-100,095	0,079	0,014
-606,415	-200,000	0,021	-0,195
-605,401	81,636	0,149	-0,119
-604,386	155,394	-0,038	-0,038
-603,371	-200,000	0,008	-0,076
-602,357	-200,000	-0,016	-0,085
-601,342	-48,994	-0,106	-0,037
-600,328	30,356	0,037	0,023
-599,313	-200,000	-0,011	0,042
-598,298	-144,637	-0,076	0,005
-597,284	800,000	-0,034	0,074
-596,269	-71,740	-0,091	-0,025
-595,255	-127,997	0,147	-0,015
-594,240	800,000	0,009	0,018
-593,225	-38,054	0,110	-0,043
-592,211	11,168	-0,043	-0,024
-591,196	624,622	0,013	-0,024
-590,182	-158,559	-0,115	0,005
-589,167	235,479	-0,025	-0,031
-588,152	-200,000	0,044	0,207
-587,138	274,623	-0,132	0,174
-586,123	59,745	0,095	-0,069
-585,109	-67,251	-0,164	-0,048
-584,094	800,000	-0,042	-0,105
-583,079	-200,000	0,030	-0,120
-582,065	-200,000	0,005	0,059
-581,050	23,730	-0,097	0,059
-580,036	79,984	-0,062	0,050
-579,021	320,657	-0,068	0,096
-578,006	176,326	-0,135	-0,146
-576,992	164,980	0,051	0,053
-575,977	-14,679	-0,048	-0,023
-574,963	-7,073	0,055	0,028
-573,948	-128,993	-0,022	0,002
-572,934	145,204	0,096	0,095
-571,919	432,752	-0,080	0,128
-570,904	800,000	-0,042	-0,126
-569,890	624,041	-0,021	0,040
-568,875	-101,824	-0,077	0,014
-567,861	800,000	-0,050	0,109
-566,846	-138,204	0,021	-0,002
-565,831	-60,487	-0,089	0,028
-564,817	27,956	-0,044	-0,027
-563,802	-14,557	-0,157	-0,074
-562,788	282,593	-0,063	0,084
-561,773	-200,000	0,001	-0,064
-560,758	800,000	0,020	-0,059
-559,744	29,446	-0,008	-0,005
-558,729	84,676	-0,057	0,046
-557,715	-200,000	-0,002	0,034
-556,700	-185,321	0,059	-0,001
-555,685	-200,000	-0,020	-0,084
-554,671	800,000	-0,016	-0,033
-553,656	-155,622	-0,122	0,006
-552,642	-12,325	-0,021	-0,010
-551,627	-200,000	-0,028	0,134
-550,612	800,000	0,039	-0,087
-549,598	-23,816	-0,035	0,015
-548,583	800,000	-0,069	-0,157
-547,569	-131,019	-0,063	-0,006
-546,554	184,917	0,075	0,082
-545,539	-95,603	-0,101	0,020
-544,525	49,848	-0,034	-0,024
-543,510	37,677	-0,109	-0,072
-542,496	-200,000	0,003	-0,129
-541,481	224,943	-0,057	0,068
-540,466	800,000	-0,056	0,139
-539,452	-110,899	0,224	0,034
-538,437	86,067	-0,060	-0,048
-537,423	1,946	-0,111	-0,059
-536,408	-109,641	-0,051	-0,008
-535,393	-110,944	0,065	-0,010
-534,379	-115,360	-0,049	-0,007
-533,364	71,486	-0,080	-0,061
-532,350	-93,805	0,090	-0,018
-531,335	232,477	0,047	0,057
-530,321	-125,899	0,130	-0,014
-529,306	-200,000	-0,006	-0,036
-528,291	-200,000	0,018	0,062
-527,277	-118,358	-0,160	-0,021
-526,262	-114,320	0,108	-0,015
-525,248	112,130	0,146	-0,131
-524,233	408,711	0,035	0,055
-523,218	175,728	-0,027	-0,029
-522,204	-122,607	-0,077	-0,009
-521,189	-200,000	0,004	-0,070
-520,175	532,290	0,088	0,155
-519,160	7,401	-0,120	-0,066
-518,145	-112,663	0,132	-0,019
-517,131	-94,197	-0,060	0,012
-516,116	-200,000	-0,030	0,125
-515,102	247,943	0,084	0,105
-514,087	-10,287	0,122	0,060
-513,072	-200,000	0,012	0,065
-512,058	71,446	-0,083	0,063
-511,043	-200,000	0,000	0,056
-510,029	-200,000	-0,001	-0,059
-509,014	-103,587	-0,068	0,012
-507,999	416,443	-0,045	0,072
-506,985	24,871	0,034	-0,021
-505,970	800,000	-0,020	-0,058
-504,956	-153,675	0,155	0,008
-503,941	-200,000	-0,000	0,111
-502,926	-114,139	0,025	-0,003
-501,912	17,698	0,056	0,033
-500,897	-85,716	-0,092	-0,021
-499,883	-47,386	-0,128	-0,046
-498,868	-98,008	-0,030	0,006
-497,853	621,288	-0,074	-0,138
-496,839	276,396	-0,058	-0,077
-495,824	-200,000	0,038	0,152
-494,810	59,614	0,055	0,040
-493,795	593,877	-0,016	0,030
-492,781	800,000	-0,030	0,073
-491,766	37,969	-0,109	-0,072
-490,751	-132,706	-0,040	-0,004
-489,737	-79,026	0,161	-0,040
-488,722	-70,653	0,096	-0,027
-487,708	162,807	0,016	0,017
-486,693	-200,000	0,021	-0,111
-485,678	69,756	-0,038	0,029
-484,664	-38,262	-0,117	-0,046
-483,649	145,294	-0,036	-0,036
-482,635	302,966	-0,028	0,039
-481,620	111,732	0,030	-0,027
-480,605	-8,939	-0,194	0,095
-479,591	-200,000	-0,017	0,204
-478,576	800,000	-0,027	-0,072
-477,562	-105,702	-0,142	0,023
-476,547	-200,000	-0,004	0,022
-475,532	92,593	-0,125	-0,104
-474,518	800,000	-0,026	-0,058
-473,503	-200,000	0,076	-0,295
-472,489	44,355	0,067	-0,045
-471,474	-106,037	0,146	-0,024
-470,459	-200,000	0,020	-0,126
-469,445	267,455	0,116	-0,150
-468,430	-27,429	-0,036	0,015
-467,416	-5,797	0,030	-0,015
-466,401	-75,139	0,038	-0,010
-465,386	-200,000	0,015	0,148
-464,372	-200,000	-0,003	-0,059
-463,357	-200,000	0,033	-0,167
-462,343	-179,849	-0,129	-0,002
-461,328	42,813	0,042	0,028
-460,313	-62,246	0,078	0,024
-459,299	-13,322	-0,109	0,052
-458,284	-159,648	0,153	0,006
-457,270	-200,000	0,024	0,146
-456,255	25,880	-0,101	-0,062
-455,241	-200,000	0,018	-0,090
-454,226	-200,000	-0,004	-0,085
-453,211	-169,728	0,087	0,002
-452,197	60,491	0,064	0,047
-451,182	-139,005	0,166	0,013
-450,168	-66,022	0,153	0,045
-449,153	0,347	0,055	-0,029
-448,138	-200,000	-0,002	-0,043
-447,124	-47,785	-0,146	-0,052
-446,109	800,000	0,026	-0,057
-445,095	84,640	-0,041	-0,033
-444,080	800,000	-0,019	-0,042
-443,065	-87,081	0,095	0,021
-442,051	779,453	0,007	0,014
-441,036	354,104	0,008	-0,011
-440,022	342,026	0,068	0,098
-439,007	-70,030	-0,045	0,013
-437,992	-20,830	0,065	0,029
-436,978	64,950	0,060	-0,045
-435,963	17,601	0,079	0,046
-434,949	-65,926	-0,101	-0,030
-433,934	-200,000	0,008	-0,037
-432,919	-43,503	-0,013	0,005
-431,905	-126,958	0,140	-0,015
-430,890	-176,440	0,145	0,003
-429,876	-200,000	0,003	0,058
-428,861	348,248	0,010	-0,015
-427,846	195,123	0,041	-0,046
-426,832	-200,000	0,002	-0,126
-425,817	-28,711	-0,113	-0,048
-424,803	800,000	-0,009	-0,028
-423,788	-42,971	0,155	0,058
-422,773	35,422	0,108	-0,069
-421,759	162,705	-0,067	0,069
-420,744	789,032	0,029	-0,059
-419,730	-200,000	-0,028	-0,185
-418,715	800,000	0,012	0,028
-417,701	-200,000	0,000	-0,078
-416,686	-40,665	0,077	-0,029
-415,671	-24,429	0,145	0,063
-414,657	203,621	0,071	0,081
-413,642	19,447	0,177	-0,104
-412,628	-17,124	0,056	-0,026
-411,613	-200,000	-0,010	-0,044
-410,598	354,188	0,021	-0,030
-409,584	-66,764	0,055	-0,016
-408,569	-29,191	0,142	0,059
-407,555	25,194	-0,024	0,015
-406,540	-200,000	-0,001	0,022
-405,525	800,000	-0,042	-0,113
-404,511	-54,759	-0,119	-0,039
-403,496	-200,000	0,035	0,136
-402,482	-93,606	-0,062	0,012
-401,467	146,509	0,036	-0,036
-400,452	-63,015	-0,093	-0,028
-399,438	-114,137	-0,083	-0,012
-398,423	-200,000	-0,021	-0,081
-397,409	-112,656	-0,073	-0,011
-396,394	-200,000	-0,011	0,059
-395,379	800,000	0,044	0,093
-394,365	-63,410	0,153	0,046
-393,350	117,324	0,100	-0,091
-392,336	320,558	-0,034	0,048
-391,321	-200,000	0,008	-0,079
-390,306	-166,446	-0,057	-0,002
-389,292	-8,202	-0,068	0,033
-388,277	312,895	0,065	0,090
-387,263	101,872	-0,097	0,083
-386,248	-200,000	0,017	0,109
-385,233	-103,126	-0,103	-0,018
-384,219	-14,786	0,093	0,044
-383,204	-200,000	-0,009	-0,083
-382,190	-200,000	-0,018	0,081
-381,175	64,826	0,069	-0,051
-380,160	670,633	-0,046	0,089
-379,146	-200,000	0,025	0,117
-378,131	-99,167	0,129	0,024
-377,117	-129,523	0,010	-0,001
-376,102	23,214	0,032	0,019
-375,088	-200,000	-0,005	0,063
-374,073	-200,000	-0,045	0,154
-373,058	800,000	-0,026	-0,073
-372,044	89,786	0,112	0,092
-371,029	652,996	-0,022	0,041
-370,015	-26,395	-0,085	0,036
-369,000	-26,560	0,071	-0,030
-367,985	-200,000	0,018	-0,099
-366,971	-52,594	0,052	0,018
-365,956	-52,977	0,008	-0,003
-364,942	98,110	0,093	0,078
-363,927	800,000	-0,030	-0,067
-362,912	499,630	-0,021	0,035
-361,898	-39,138	-0,040	0,015
-360,883	-200,000	0,019	-0,090
-359,869	91,548	-0,073	0,060
-358,854	85,373	-0,108	0,087
-357,839	-137,395	0,058	0,005
-356,825	503,070	0,073	0,124
-355,810	241,683	-0,047	0,057
-354,796	79,655	-0,078	0,062
-353,781	-200,000	0,004	0,031
-352,766	503,780	-0,046	-0,078
-351,752	-3,519	-0,076	-0,038
-350,737	-200,000	-0,006	0,026
-349,723	-75,032	0,040	-0,010
-348,708	800,000	0,029	0,065
-347,693	-200,000	0,001	0,027
-346,679	800,000	0,038	-0,097
-345,664	-110,402	-0,040	0,006
-344,650	127,830	0,021	-0,020
-343,635	-200,000	-0,006	0,036
-342,620	-200,000	-0,024	0,086
-341,606	264,867	-0,091	0,116
-340,591	513,158	-0,046	0,079
-339,577	800,000	-0,016	0,045
-338,562	205,581	0,015	-0,017
-337,548	402,392	-0,052	0,080
-336,533	-79,260	0,093	-0,023
-335,518	-180,886	-0,074	0,001
-334,504	81,596	0,039	0,031
-333,489	322,220	-0,009	-0,013
-332,475	-120,450	0,019	0,002
-331,460	-200,000	-0,020	-0,090
-330,445	546,361	0,039	-0,069
-329,431	335,536	0,033	-0,048
-328,416	349,216	0,013	-0,019
-327,402	475,710	0,060	-0,100
-326,387	685,321	0,044	-0,084
-325,372	-149,219	0,150	-0,009
-324,358	-128,892	-0,106	0,011
-323,343	343,097	0,048	-0,069
-322,329	37,821	0,089	0,058
-321,314	521,455	0,055	0,095
-320,299	57,226	0,089	0,063
-319,285	375,657	-0,034	0,051
-318,270	-159,030	0,057	0,002
-317,256	-126,210	0,029	0,003
-316,241	-200,000	0,005	0,025
-315,226	547,352	0,090	0,159
-314,212	-188,113	-0,090	0,001
-313,197	-7,617	0,077	-0,038
-312,183	-11,542	0,055	-0,026
-311,168	181,753	0,009	-0,010
-310,153	-200,000	-0,051	-0,230
-309,139	-16,914	-0,007	-0,003
-308,124	8,569	-0,136	0,075
-307,110	348,227	-0,073	-0,105
-306,095	536,367	-0,077	0,135
-305,080	27,801	0,081	-0,050
-304,066	800,000	0,068	-0,140
-303,051	-1,544	-0,078	0,040
-302,037	159,863	-0,028	0,028
-301,022	-200,000	-0,002	-0,049
-300,008	-153,752	0,100	0,005
-298,993	3,093	0,081	-0,043
-297,978	-6,656	0,086	-0,043
-296,964	-172,296	-0,113	-0,003
-295,949	-200,000	-0,031	0,123
-294,935	-200,000	0,000	-0,114
-293,920	616,727	0,023	0,043
-292,905	451,262	0,045	0,073
-291,891	-87,929	0,152	0,033
-290,876	-121,158	-0,081	-0,010
-289,862	-200,000	-0,017	-0,154
-288,847	-200,000	-0,047	-0,214
-287,832	-105,716	-0,124	0,020
-286,818	353,334	0,033	0,048
-285,803	800,000	0,028	0,083
-284,789	-106,413	-0,043	0,007
-283,774	-30,194	-0,143	0,059
-282,759	-87,245	-0,056	-0,012
-281,745	117,432	0,027	0,024
-280,730	-35,662	-0,028	0,011
-279,716	-200,000	0,010	-0,057
-278,701	800,000	0,029	-0,075
-277,686	301,291	0,033	-0,045
-276,672	-51,188	-0,057	0,019
-275,657	174,140	0,073	-0,077
-274,643	126,180	-0,061	-0,056
-273,628	483,499	0,038	-0,063
-272,613	485,493	-0,014	0,024
-271,599	-148,391	0,266	-0,016
-270,584	-200,000	-0,014	-0,045
-269,570	800,000	-0,010	-0,023
-268,555	-199,887	-0,029	0,000
-267,540	10,875	0,055	-0,030
-266,526	-160,052	-0,066	-0,003
-265,511	-167,066	-0,091	0,003
-264,497	-115,908	0,113	-0,015
-263,482	127,541	-0,036	-0,034
-262,467	-200,000	0,057	0,192
-261,453	60,884	-0,011	-0,008
-260,438	-200,000	-0,041	-0,154
-259,424	-160,900	-0,076	0,003
-258,409	-5,500	-0,041	-0,021
-257,395	575,820	0,089	0,159
-256,380	-200,000	-0,008	0,091
-255,365	-200,000	-0,003	0,162
-254,351	-38,375	-0,040	0,015
-253,336	94,779	-0,103	-0,086
-252,322	758,653	-0,042	-0,084
-251,307	47,565	-0,103	0,070
-250,292	32,138	0,074	0,047
-249,278	81,833	0,094	0,074
-248,263	-105,580	0,161	-0,026
-247,249	-106,897	0,071	0,011
-246,234	286,783	0,017	-0,022
-245,219	51,295	0,031	0,021
-244,205	24,339	-0,064	-0,038
-243,190	-36,348	0,070	0,027
-242,176	-150,647	-0,144	-0,008
-241,161	110,178	0,066	0,058
-240,146	-200,000	0,013	0,043
-239,132	-71,716	0,160	-0,043
-238,117	-120,693	-0,098	-0,012
-237,103	174,911	0,162	0,172
-236,088	-200,000	0,042	0,155
-235,073	518,623	-0,024	-0,042
-234,059	274,393	-0,088	-0,114
-233,044	-25,552	0,105	-0,045
-232,030	48,790	-0,051	0,035
-231,015	438,999	-0,033	-0,052
-230,000	800,000	-0,038	-0,081
-228,986	-200,000	0,022	0,086
-227,971	-200,000	-0,012	-0,090
-226,957	-200,000	0,010	0,108
-225,942	-129,631	-0,091	0,009
-224,927	49,958	-0,149	0,102
-223,913	-9,109	-0,097	0,047
-222,898	592,712	0,038	0,070
-221,884	682,593	0,056	0,107
-220,869	-48,747	0,066	-0,023
-219,855	-200,000	-0,021	-0,100
-218,840	286,020	-0,062	0,082
-217,825	12,319	0,102	-0,057
-216,811	656,747	-0,076	0,142
-215,796	-93,274	-0,098	0,020
-214,782	-58,246	0,133	-0,042
-213,767	0,574	0,047	0,025
-212,752	-158,036	0,134	-0,006
-211,738	-200,000	0,018	0,071
-210,723	48,379	0,074	0,050
-209,709	-32,403	-0,049	0,020
-208,694	130,951	-0,081	-0,076
-207,679	109,647	0,022	-0,019
-206,665	110,979	0,018	0,016
-205,650	-200,000	-0,006	0,187
-204,636	800,000	0,013	0,027
-203,621	-105,412	-0,105	0,017
-202,606	-82,797	-0,100	0,023
-201,592	-128,594	-0,141	-0,014
-200,577	235,410	0,048	-0,057
-199,563	-200,000	0,007	0,151
-198,548	413,131	0,079	0,123
-197,533	-129,605	-0,086	-0,009
-196,519	-22,814	0,006	0,002
-195,504	-5,280	0,096	-0,048
-194,490	-111,188	0,061	0,009
-193,475	-141,043	-0,066	0,005
-192,460	-10,301	0,122	0,059
-191,446	313,136	0,080	0,110
-190,431	646,117	-0,006	-0,011
-189,417	3,650	0,080	0,042
-188,402	309,267	-0,115	-0,157
-187,387	-200,000	-0,005	-0,023
-186,373	-50,621	-0,173	0,059
-185,358	800,000	0,060	0,155
-184,344	9,377	0,075	-0,041
-183,329	800,000	0,044	0,108
-182,315	357,206	-0,011	0,016
-181,300	-27,993	-0,080	-0,034
-180,285	197,961	0,053	0,059
-179,271	-178,424	0,013	-0,000
-178,256	-9,984	-0,185	0,089
-177,242	683,673	0,019	0,037
-176,227	-200,000	-0,003	-0,057
-175,212	7,431	-0,049	-0,027
-174,198	-198,927	0,129	0,000
-173,183	800,000	0,043	-0,104
-172,169	-11,925	-0,087	0,041
-171,154	6,582	-0,081	-0,044
-170,139	201,273	-0,013	0,015
-169,125	800,000	-0,033	0,073
-168,110	774,414	0,016	0,033
-167,096	-16,003	-0,063	-0,029
-166,081	6,490	-0,078	-0,042
-165,066	-200,000	0,016	-0,188
-164,052	-134,370	-0,160	-0,014
-163,037	249,155	0,068	-0,084
-162,023	-76,793	0,111	0,028
-161,008	-52,174	0,055	-0,018
-159,993	323,022	-0,030	-0,042
-158,979	116,863	-0,056	-0,050
-157,964	121,268	0,069	-0,063
-156,950	-1,872	-0,184	-0,094
-155,935	-51,096	0,100	-0,034
-154,920	97,025	-0,091	0,076
-153,906	-200,000	0,011	0,166
-152,891	-88,550	0,028	0,006
-151,877	729,966	0,034	-0,067
-150,862	-200,000	-0,010	-0,155
-149,847	71,958	-0,041	0,031
-148,833	-200,000	0,010	0,118
-147,818	204,217	0,044	0,050
-146,804	-200,000	-0,027	0,091
-145,789	800,000	-0,084	0,180
-144,775	-200,000	0,047	-0,238
-143,760	424,503	0,082	-0,129
-142,745	-103,492	-0,146	-0,025
-141,731	120,025	-0,054	-0,049
-140,716	800,000	0,038	-0,113
-139,702	97,746	0,090	-0,075
-138,687	-9,430	0,085	0,041
-137,672	-200,000	0,005	-0,238
-136,658	656,792	-0,055	-0,103
-135,643	800,000	0,019	0,059
-134,629	-200,000	-0,001	0,127
-133,614	-200,000	-0,003	0,115
-132,599	159,636	0,095	0,096
-131,585	-200,000	-0,001	0,048
-130,570	-200,000	0,007	0,106
-129,556	-35,555	-0,134	0,053
-128,541	180,866	0,008	0,009
-127,526	800,000	0,031	0,075
-126,512	92,157	-0,072	0,059
-125,497	-42,805	-0,118	-0,043
-124,483	-200,000	-0,022	0,134
-123,468	326,498	-0,079	0,110
-122,453	169,098	-0,105	-0,109
-121,439	104,322	-0,098	-0,083
-120,424	-138,041	-0,077	-0,006
