DTS Sentinel unit serial number:	SN410029Multiplexer serial number:	ORYXHardware model number:	OX2-SRSoftware version number:	ORYX F/W v4,00 Oryx Data Collector v3.7.2.0data status	okinstallation	B6 Nyhavnadifferential loss correction	single-endedforward channel	channel 2reverse channel	N/Adate	2023/12/09time	04:20:08forward acquisition time	300,00reverse acquisition time	0,00gamma	499,1914k internal	0,3148k external	0,3148temperature offset calibration	1,0000default loss term (dB/km)	0,3820temperature slope calibration	1,0000multiplexer offset coefficient	1,0000multiplexer slope coefficient	1,0000fibre end	0,00T internal ref (°C)	16,93T ext. ref 1 (°C)	1,50T ext. ref 2 (°C)	1,51length (m)	temperature (°C)	Stokes	anti-Stokes-744,400	800,000	0,056	-0,117
-743,385	-75,657	-0,137	0,036
-742,371	-61,846	0,183	-0,056
-741,356	-118,393	-0,365	0,047
-740,342	-158,913	0,164	0,007
-739,327	-155,608	-0,263	0,012
-738,312	436,606	0,017	-0,027
-737,298	-68,725	-0,287	-0,081
-736,283	37,566	0,097	-0,063
-735,269	-168,872	-0,168	-0,005
-734,254	-200,000	0,043	0,160
-733,239	0,091	-0,411	-0,216
-732,225	309,443	0,040	0,056
-731,210	-151,580	0,162	0,009
-730,196	-28,822	-0,105	0,044
-729,181	31,471	-0,067	-0,042
-728,167	582,183	0,060	-0,108
-727,152	167,298	0,126	-0,132
-726,137	44,893	-0,132	-0,090
-725,123	41,604	0,073	-0,049
-724,108	87,182	-0,081	-0,066
-723,094	549,187	-0,051	-0,090
-722,079	-200,000	-0,019	-0,124
-721,064	125,554	0,075	0,070
-720,050	-51,625	-0,114	-0,039
-719,035	-110,930	-0,032	0,005
-718,021	353,457	-0,074	-0,109
-717,006	-200,000	-0,032	-0,118
-715,991	-55,722	-0,091	-0,030
-714,977	800,000	-0,016	-0,046
-713,962	489,001	-0,058	0,098
-712,948	800,000	-0,056	0,153
-711,933	-200,000	0,001	0,026
-710,918	399,921	-0,045	-0,070
-709,904	-127,807	-0,100	0,011
-708,889	-200,000	0,027	0,132
-707,875	-64,536	-0,060	-0,018
-706,860	-138,879	0,089	-0,007
-705,845	642,414	-0,026	0,050
-704,831	133,650	0,051	0,049
-703,816	800,000	-0,036	0,092
-702,802	-113,103	0,168	0,024
-701,787	184,786	-0,075	-0,082
-700,772	800,000	-0,031	0,080
-699,758	-24,975	-0,136	-0,059
-698,743	-81,931	0,166	-0,040
-697,729	-48,400	0,030	-0,011
-696,714	-163,864	0,023	-0,001
-695,699	-200,000	0,009	-0,043
-694,685	-77,707	0,124	-0,031
-693,670	388,728	-0,047	-0,072
-692,656	-147,090	0,034	-0,002
-691,641	41,082	-0,047	0,031
-690,627	16,511	-0,117	0,068
-689,612	34,023	-0,022	-0,014
-688,597	138,578	-0,027	0,026
-687,583	-10,343	-0,091	-0,044
-686,568	-86,335	0,031	-0,007
-685,554	800,000	0,036	-0,107
-684,539	-200,000	0,022	0,161
-683,524	-200,000	0,001	0,110
-682,510	-141,330	0,178	0,013
-681,495	-200,000	-0,002	-0,034
-680,481	-200,000	0,029	0,127
-679,466	-117,681	-0,054	-0,007
-678,451	-200,000	0,016	0,093
-677,437	-200,000	0,019	0,071
-676,422	-67,469	-0,086	0,025
-675,408	-111,211	-0,071	0,011
-674,393	-30,401	-0,131	0,054
-673,378	800,000	-0,072	-0,174
-672,364	-6,700	-0,197	-0,098
-671,349	49,219	-0,137	-0,095
-670,335	-151,943	-0,037	-0,002
-669,320	-74,482	0,098	0,026
-668,305	-153,149	0,075	-0,004
-667,291	445,157	0,029	-0,047
-666,276	97,381	-0,150	-0,127
-665,262	-47,922	-0,104	-0,037
-664,247	271,375	0,060	0,078
-663,232	311,175	-0,126	-0,174
-662,218	-176,657	-0,013	-0,000
-661,203	385,229	0,035	-0,054
-660,189	221,477	0,056	0,067
-659,174	648,076	-0,089	-0,168
-658,159	321,375	0,050	-0,071
-657,145	-200,000	-0,014	-0,118
-656,130	190,780	-0,044	-0,049
-655,116	-64,233	0,050	-0,015
-654,101	-200,000	0,009	0,059
-653,086	131,288	0,077	-0,073
-652,072	-168,177	-0,084	0,002
-651,057	478,490	-0,046	0,077
-650,043	33,329	0,087	0,056
-649,028	-115,548	-0,053	-0,007
-648,014	129,623	0,097	-0,091
-646,999	18,036	-0,135	0,079
-645,984	800,000	-0,036	-0,111
-644,970	-42,738	0,100	0,037
-643,955	7,826	-0,068	0,037
-642,941	237,277	0,125	-0,152
-641,926	-110,467	0,106	0,016
-640,911	-94,818	-0,041	-0,008
-639,897	105,578	-0,133	0,116
-638,882	252,292	0,089	0,112
-637,868	72,417	0,081	-0,062
-636,853	800,000	-0,052	-0,116
-635,838	43,271	-0,040	-0,027
-634,824	-200,000	0,027	-0,130
-633,809	-200,000	-0,013	0,238
-632,795	-14,168	-0,146	-0,069
-631,780	-120,206	0,121	-0,015
-630,765	-105,545	-0,147	-0,024
-629,751	800,000	-0,039	-0,126
-628,736	-48,084	-0,126	-0,045
-627,722	-152,844	-0,063	0,003
-626,707	243,585	0,013	0,017
-625,692	-41,050	0,140	0,053
-624,678	-200,000	0,007	-0,033
-623,663	-4,945	-0,041	0,021
-622,649	327,045	-0,121	-0,171
-621,634	-59,696	0,118	0,037
-620,619	61,241	-0,056	-0,041
-619,605	-99,104	0,186	-0,034
-618,590	-22,515	0,083	-0,037
-617,576	319,409	0,016	0,023
-616,561	201,739	0,059	0,067
-615,546	-200,000	0,018	0,144
-614,532	-68,404	-0,061	-0,017
-613,517	275,235	0,065	-0,085
-612,503	8,760	-0,079	-0,043
-611,488	503,240	0,021	-0,036
-610,474	-200,000	-0,020	-0,119
-609,459	-43,108	0,036	0,013
-608,444	800,000	-0,030	0,087
-607,430	15,330	0,101	0,058
-606,415	-99,721	-0,145	-0,026
-605,401	-200,000	-0,002	0,013
-604,386	-26,377	0,241	0,104
-603,371	14,768	0,111	-0,064
-602,357	-127,608	-0,037	-0,004
-601,342	800,000	0,040	-0,085
-600,328	102,877	-0,093	-0,080
-599,313	195,830	0,031	-0,035
-598,298	11,346	-0,125	-0,070
-597,284	800,000	0,068	-0,140
-596,269	-95,918	0,164	-0,032
-595,255	-200,000	-0,009	0,065
-594,240	-200,000	0,022	-0,088
-593,225	-200,000	-0,021	0,106
-592,211	502,281	-0,040	-0,068
-591,196	-200,000	0,016	-0,126
-590,182	-184,448	0,034	0,000
-589,167	171,253	-0,115	-0,121
-588,152	51,805	0,033	0,023
-587,138	319,549	-0,110	-0,153
-586,123	67,419	0,039	0,029
-585,109	-200,000	-0,026	-0,103
-584,094	38,942	-0,043	-0,028
-583,079	-164,001	-0,041	0,001
-582,065	128,210	0,059	0,056
-581,050	205,754	0,030	0,034
-580,036	800,000	-0,044	0,094
-579,021	309,710	0,009	-0,013
-578,006	283,055	0,041	-0,054
-576,992	149,280	0,071	-0,071
-575,977	-96,007	0,048	0,009
-574,963	330,783	0,041	0,058
-573,948	132,581	-0,054	0,051
-572,934	-106,418	-0,088	-0,014
-571,919	-200,000	0,018	-0,147
-570,904	-66,678	-0,090	-0,026
-569,890	-200,000	0,005	0,070
-568,875	800,000	-0,014	-0,035
-567,861	58,219	0,100	-0,072
-566,846	800,000	0,055	0,115
-565,831	800,000	-0,011	-0,035
-564,817	800,000	-0,063	-0,183
-563,802	216,573	-0,038	-0,044
-562,788	-48,825	0,039	-0,014
-561,773	114,054	-0,096	0,086
-560,758	-200,000	-0,003	0,167
-559,744	-200,000	0,016	-0,073
-558,729	99,150	0,082	0,070
-557,715	800,000	-0,010	-0,023
-556,700	89,418	-0,095	0,077
-555,685	172,276	0,050	-0,053
-554,671	-21,517	0,137	0,061
-553,656	8,693	0,081	0,045
-552,642	360,594	-0,039	0,058
-551,627	-59,342	-0,022	0,007
-550,612	800,000	-0,023	0,056
-549,598	-200,000	-0,002	-0,034
-548,583	800,000	-0,021	-0,051
-547,569	-200,000	-0,007	0,148
-546,554	800,000	-0,030	-0,084
-545,539	-24,477	0,083	0,036
-544,525	95,103	0,111	0,092
-543,510	-150,807	-0,091	-0,005
-542,496	151,041	-0,083	-0,083
-541,481	73,831	-0,089	-0,069
-540,466	-200,000	-0,003	-0,052
-539,452	-200,000	0,005	0,161
-538,437	-200,000	0,013	0,119
-537,423	-85,930	-0,129	0,029
-536,408	192,750	0,098	-0,108
-535,393	-155,074	-0,095	-0,004
-534,379	-200,000	-0,015	-0,079
-533,364	-151,997	0,141	0,007
-532,350	-200,000	-0,002	0,009
-531,335	-139,284	0,248	0,019
-530,321	800,000	-0,021	0,060
-529,306	235,820	0,043	0,052
-528,291	796,934	-0,062	-0,126
-527,277	-39,421	-0,086	0,033
-526,262	308,257	0,014	-0,019
-525,248	621,076	0,071	-0,131
-524,233	800,000	-0,055	0,173
-523,218	-173,786	-0,058	-0,001
-522,204	-200,000	0,033	-0,108
-521,189	-139,524	-0,115	-0,009
-520,175	591,609	-0,034	-0,062
-519,160	-52,432	0,035	0,012
-518,145	800,000	-0,008	-0,024
-517,131	117,171	0,087	-0,078
-516,116	-200,000	0,017	-0,124
-515,102	-200,000	-0,037	-0,175
-514,087	-200,000	-0,022	-0,113
-513,072	310,550	0,049	-0,067
-512,058	18,067	0,103	-0,060
-511,043	-129,205	-0,104	0,011
-510,029	-81,766	0,132	-0,032
-509,014	563,667	0,047	-0,084
-507,999	41,032	-0,080	-0,053
-506,985	44,280	-0,012	-0,008
-505,970	800,000	0,026	-0,057
-504,956	58,679	-0,149	-0,107
-503,941	11,934	0,106	0,060
-502,926	800,000	0,040	0,095
-501,912	800,000	-0,023	-0,055
-500,897	38,414	0,074	-0,048
-499,883	259,963	-0,030	0,038
-498,868	296,472	-0,059	-0,079
-497,853	-112,453	0,027	0,004
-496,839	203,979	-0,015	-0,017
-495,824	118,260	-0,032	0,029
-494,810	-80,446	0,027	0,007
-493,795	-200,000	0,008	-0,119
-492,781	800,000	-0,016	-0,038
-491,766	110,030	0,043	0,037
-490,751	-76,955	-0,124	0,032
-489,737	-126,953	-0,163	0,017
-488,722	800,000	0,029	0,063
-487,708	-133,298	0,076	0,007
-486,693	524,235	-0,037	0,065
-485,678	-200,000	0,012	-0,104
-484,664	-200,000	-0,008	0,065
-483,649	800,000	-0,029	-0,078
-482,635	-75,593	-0,110	-0,028
-481,620	-185,964	0,130	0,001
-480,605	-200,000	-0,003	0,096
-479,591	232,088	-0,007	-0,009
-478,576	-123,933	0,108	-0,012
-477,562	-200,000	-0,022	-0,183
-476,547	385,835	-0,089	-0,135
-475,532	6,412	-0,026	0,014
-474,518	-59,927	0,049	0,015
-473,503	152,585	0,100	0,100
-472,489	-84,497	-0,082	0,019
-471,474	177,423	0,043	-0,046
-470,459	97,113	0,056	-0,047
-469,445	-25,514	0,184	-0,079
-468,430	-38,882	0,044	0,017
-467,416	18,859	-0,062	-0,036
-466,401	-61,363	0,081	-0,025
-465,386	710,980	-0,039	0,076
-464,372	117,086	0,043	0,039
-463,357	-200,000	-0,002	-0,059
-462,343	-5,021	-0,088	-0,044
-461,328	800,000	-0,027	0,062
-460,313	800,000	0,013	0,041
-459,299	-115,518	0,035	0,005
-458,284	110,758	0,080	-0,070
-457,270	-200,000	-0,010	-0,059
-456,255	718,547	0,020	0,038
-455,241	-63,639	-0,184	-0,055
-454,226	-200,000	0,006	0,035
-453,211	-200,000	-0,033	-0,121
-452,197	-200,000	0,040	0,143
-451,182	455,211	0,054	0,087
-450,168	67,331	-0,015	0,011
-449,153	428,732	-0,047	-0,074
-448,138	-39,643	0,127	-0,048
-447,124	403,097	0,020	-0,031
-446,109	-132,506	0,073	0,007
-445,095	-126,342	0,015	0,002
-444,080	-200,000	0,001	-0,161
-443,065	-52,065	0,040	0,013
-442,051	268,912	-0,070	0,091
-441,036	-125,078	-0,043	0,005
-440,022	-49,867	-0,137	-0,047
-439,007	-200,000	0,013	-0,051
-437,992	-200,000	-0,003	0,082
-436,978	-161,336	0,020	0,001
-435,963	78,666	0,038	-0,030
-434,949	152,606	0,106	-0,105
-433,934	-200,000	0,016	-0,072
-432,919	154,462	-0,085	-0,085
-431,905	800,000	0,021	0,065
-430,890	428,609	0,059	-0,094
-429,876	-12,494	0,052	0,025
-428,861	-200,000	-0,006	-0,062
-427,846	27,909	-0,035	-0,022
-426,832	-200,000	0,075	-0,242
-425,817	481,053	0,011	-0,018
-424,803	48,985	-0,057	0,039
-423,788	-1,473	0,030	-0,016
-422,773	-200,000	0,005	0,162
-421,759	-41,155	0,209	0,078
-420,744	-200,000	0,002	0,101
-419,730	532,328	0,039	0,067
-418,715	800,000	-0,050	-0,116
-417,701	-6,692	-0,100	-0,050
-416,686	800,000	0,059	-0,148
-415,671	-200,000	0,031	-0,221
-414,657	-14,840	-0,118	0,055
-413,642	-7,622	-0,082	0,041
-412,628	35,874	0,056	-0,036
-411,613	126,807	0,034	-0,032
-410,598	-37,780	-0,090	0,035
-409,584	-74,363	0,015	-0,004
-408,569	800,000	0,032	-0,068
-407,555	160,834	-0,026	0,027
-406,540	800,000	0,019	-0,049
-405,525	800,000	-0,052	-0,110
-404,511	76,778	-0,065	-0,050
-403,496	356,379	0,032	-0,046
-402,482	-119,908	0,118	0,015
-401,467	-8,256	0,111	0,054
-400,452	-120,960	0,053	0,006
-399,438	-200,000	-0,004	0,077
-398,423	-200,000	-0,007	-0,048
-397,409	-74,275	0,076	-0,020
-396,394	15,105	-0,124	-0,071
-395,379	-200,000	-0,022	0,096
-394,365	-182,291	0,071	0,001
-393,350	317,503	0,054	0,075
-392,336	-200,000	0,024	0,100
-391,321	318,386	-0,071	-0,098
-390,306	-200,000	-0,019	0,104
-389,292	-200,000	-0,002	-0,112
-388,277	-39,966	-0,096	-0,036
-387,263	800,000	0,030	-0,066
-386,248	-200,000	0,010	0,104
-385,233	-168,938	0,050	-0,001
-384,219	18,486	-0,037	0,021
-383,204	-49,233	-0,197	-0,068
-382,190	800,000	-0,026	-0,067
-381,175	500,378	-0,007	0,011
-380,160	-200,000	-0,021	0,147
-379,146	-185,321	-0,152	-0,002
-378,131	-114,466	0,119	-0,016
-377,117	-124,743	-0,084	0,009
-376,102	800,000	0,008	-0,024
-375,088	389,054	-0,082	0,125
-374,073	629,155	-0,034	-0,062
-373,058	-200,000	0,028	-0,276
-372,044	489,162	-0,093	0,156
-371,029	-23,019	0,062	-0,027
-370,015	33,668	0,051	-0,032
-369,000	-133,059	-0,146	-0,013
-367,985	800,000	0,027	0,057
-366,971	800,000	-0,020	0,044
-365,956	-33,778	0,214	-0,086
-364,942	288,933	-0,082	0,108
-363,927	-200,000	0,025	0,104
-362,912	-114,096	-0,024	-0,003
-361,898	-144,371	0,074	0,005
-360,883	-163,835	-0,044	0,001
-359,869	-200,000	0,001	-0,142
-358,854	-42,857	-0,075	-0,028
-357,839	-146,014	0,053	-0,003
-356,825	-28,396	0,052	0,022
-355,810	651,488	-0,073	0,137
-354,796	67,766	-0,101	-0,075
-353,781	283,155	-0,059	-0,077
-352,766	171,474	0,094	0,099
-351,752	41,947	-0,113	0,075
-350,737	-200,000	0,113	0,000
-349,723	67,970	0,082	0,061
-348,708	-200,000	0,007	0,164
-347,693	105,789	0,041	-0,036
-346,679	-158,210	-0,203	-0,008
-345,664	800,000	-0,038	-0,081
-344,650	257,195	0,151	-0,189
-343,635	-64,191	-0,036	0,011
-342,620	79,860	-0,065	0,051
-341,606	232,036	0,049	0,059
-340,591	-200,000	-0,003	-0,088
-339,577	157,859	-0,027	0,027
-338,562	134,782	-0,017	-0,016
-337,548	-1,099	-0,184	-0,095
-336,533	800,000	0,008	0,022
-335,518	-200,000	-0,010	0,136
-334,504	800,000	0,005	-0,015
-333,489	141,828	0,077	0,074
-332,475	-8,595	0,090	0,044
-331,460	-200,000	-0,000	-0,081
-330,445	4,757	-0,065	-0,035
-329,431	157,531	-0,058	0,059
-328,416	47,940	0,065	0,044
-327,402	104,907	0,063	0,054
-326,387	-164,636	-0,098	-0,003
-325,372	-47,082	-0,062	0,022
-324,358	154,277	0,084	-0,084
-323,343	-139,407	0,116	-0,009
-322,329	-200,000	0,021	0,198
-321,314	77,860	0,137	0,106
-320,299	-85,948	-0,040	0,009
-319,285	9,395	-0,134	-0,074
-318,270	721,815	0,074	-0,143
-317,256	-200,000	-0,005	-0,046
-316,241	46,151	-0,177	0,119
-315,226	158,497	0,040	-0,040
-314,212	150,419	0,070	-0,069
-313,197	800,000	0,027	0,079
-312,183	-110,387	0,061	0,009
-311,168	-200,000	-0,019	-0,084
-310,153	501,140	0,018	0,030
-309,139	195,716	0,092	-0,101
-308,124	800,000	0,047	0,148
-307,110	156,138	-0,029	-0,029
-306,095	-115,878	-0,085	-0,011
-305,080	-200,000	0,005	0,054
-304,066	147,215	-0,062	0,060
-303,051	644,456	0,080	0,149
-302,037	88,364	0,042	-0,034
-301,022	-169,926	-0,130	0,003
-300,008	-200,000	-0,009	-0,079
-298,993	-144,429	0,082	-0,005
-297,978	-200,000	0,017	-0,056
-296,964	800,000	-0,053	-0,123
-295,949	-63,432	0,054	-0,016
-294,935	106,389	-0,058	-0,050
-293,920	151,573	-0,083	-0,082
-292,905	800,000	0,036	0,089
-291,891	800,000	0,043	0,116
-290,876	27,259	0,060	0,037
-289,862	40,050	-0,080	0,052
-288,847	68,593	-0,106	0,079
-287,832	157,631	-0,091	-0,092
-286,818	631,877	-0,075	-0,138
-285,803	-74,627	0,141	-0,037
-284,789	800,000	0,058	0,172
-283,774	483,532	0,066	0,109
-282,759	-29,534	-0,091	-0,038
-281,745	175,094	0,049	-0,052
-280,730	800,000	0,079	-0,167
-279,716	-200,000	0,017	0,063
-278,701	-200,000	-0,011	-0,086
-277,686	-200,000	0,020	0,155
-276,672	-135,258	0,129	-0,011
-275,657	73,295	-0,058	-0,044
-274,643	794,239	-0,060	-0,120
-273,628	356,566	-0,043	-0,063
-272,613	-112,283	-0,093	0,013
-271,599	388,431	0,043	0,064
-270,584	181,899	0,096	0,102
-269,570	800,000	-0,072	0,164
-268,555	97,422	-0,133	0,111
-267,540	-105,179	-0,081	-0,013
-266,526	-9,606	-0,024	-0,011
-265,511	-140,617	-0,040	0,003
-264,497	-7,006	-0,085	0,042
-263,482	-51,527	0,120	-0,041
-262,467	-200,000	0,020	0,087
-261,453	-135,026	-0,089	-0,008
-260,438	800,000	-0,049	0,122
-259,424	-72,750	-0,130	-0,034
-258,409	302,006	-0,095	0,128
-257,395	302,081	0,035	-0,047
-256,380	683,727	0,034	0,065
-255,365	188,305	0,061	0,066
-254,351	-200,000	-0,038	0,164
-253,336	6,741	-0,081	0,044
-252,322	-33,654	0,062	0,025
-251,307	92,337	0,100	0,081
-250,292	200,439	0,068	0,076
-249,278	67,179	-0,050	0,037
-248,263	-142,159	-0,045	-0,003
-247,249	-146,929	-0,028	0,002
-246,234	363,838	-0,166	0,243
-245,219	-200,000	-0,042	0,159
-244,205	800,000	0,032	0,086
-243,190	-200,000	-0,010	-0,118
-242,176	-28,073	0,104	-0,043
-241,161	-200,000	-0,003	0,150
-240,146	209,906	-0,072	0,083
-239,132	168,861	0,122	-0,126
-238,117	-200,000	0,016	-0,055
-237,103	14,199	-0,060	-0,034
-236,088	241,348	0,020	0,024
-235,073	800,000	-0,050	0,128
-234,059	121,438	-0,062	0,056
-233,044	-113,662	0,103	-0,014
-232,030	800,000	-0,028	0,077
-231,015	800,000	0,012	0,025
-230,000	800,000	-0,010	0,027
-228,986	800,000	0,008	-0,021
-227,971	-137,926	0,036	-0,003
-226,957	256,985	-0,115	0,144
-225,942	732,091	-0,040	-0,078
-224,927	-113,369	0,054	-0,008
-223,913	-200,000	0,013	0,147
-222,898	18,460	-0,107	0,062
-221,884	-48,208	-0,099	-0,034
-220,869	1,616	-0,042	0,022
-219,855	-39,787	0,102	-0,038
-218,840	-108,901	0,036	0,006
-217,825	5,729	0,017	-0,009
-216,811	800,000	0,040	0,125
-215,796	-200,000	-0,027	0,128
-214,782	-200,000	-0,017	-0,072
-213,767	-40,057	-0,051	0,019
-212,752	-92,203	0,261	0,053
-211,738	172,800	0,126	0,131
-210,723	72,258	0,095	-0,072
-209,709	-41,267	0,084	-0,031
-208,694	201,976	-0,126	-0,141
-207,679	800,000	-0,032	0,094
-206,665	179,022	0,118	0,125
-205,650	213,788	0,090	0,103
-204,636	800,000	0,024	0,072
-203,621	12,751	-0,183	-0,102
-202,606	357,175	-0,008	0,012
-201,592	325,059	0,010	0,014
-200,577	-17,822	0,088	0,040
-199,563	-200,000	-0,001	0,054
-198,548	662,058	0,060	0,112
-197,533	-92,904	-0,124	-0,025
-196,519	-200,000	-0,014	-0,077
-195,504	45,614	-0,058	0,039
-194,490	-200,000	0,003	0,073
-193,475	447,534	-0,024	0,038
-192,460	-200,000	0,022	0,137
-191,446	-102,627	0,072	0,012
-190,431	-159,151	0,042	0,002
-189,417	-174,680	-0,034	-0,001
-188,402	-7,164	0,094	0,046
-187,387	26,484	-0,179	-0,108
-186,373	800,000	0,018	0,036
-185,358	-1,652	0,040	-0,021
-184,344	-200,000	-0,043	0,197
-183,329	146,856	-0,083	0,081
-182,315	-200,000	0,007	-0,104
-181,300	-52,538	0,092	0,030
-180,285	-200,000	-0,005	-0,099
-179,271	-200,000	0,000	-0,013
-178,256	-37,823	0,139	0,053
-177,242	563,434	0,036	-0,063
-176,227	617,915	0,036	0,066
-175,212	176,744	-0,160	0,169
-174,198	-57,774	-0,116	0,037
-173,183	63,816	-0,062	0,045
-172,169	-135,770	0,110	0,009
-171,154	-48,364	-0,084	0,029
-170,139	-200,000	0,029	0,127
-169,125	-11,689	-0,180	0,085
-168,110	166,254	-0,089	-0,091
-167,096	-200,000	-0,010	-0,114
-166,081	-37,630	0,069	0,026
-165,066	-200,000	0,022	0,071
-164,052	800,000	-0,006	0,013
-163,037	416,781	0,077	-0,120
-162,023	-71,546	0,166	0,044
-161,008	-74,761	-0,057	0,015
-159,993	-200,000	0,006	-0,039
-158,979	164,042	-0,094	0,096
-157,964	800,000	-0,058	-0,138
-156,950	-200,000	0,008	-0,116
-155,935	8,472	0,076	-0,041
-154,920	128,865	0,048	0,044
-153,906	800,000	0,009	0,025
-152,891	8,405	0,081	-0,044
-151,877	-200,000	0,017	-0,060
-150,862	-94,490	-0,160	-0,031
-149,847	-200,000	0,019	-0,118
-148,833	-83,327	-0,145	0,033
-147,818	-48,611	0,047	0,016
-146,804	-200,000	-0,020	0,066
-145,789	800,000	-0,041	0,088
-144,775	-89,939	-0,069	0,014
-143,760	164,045	-0,041	0,042
-142,745	-173,170	-0,116	-0,003
-141,731	464,740	0,074	-0,119
-140,716	-49,995	-0,073	-0,025
-139,702	-200,000	-0,027	-0,119
-138,687	-87,863	0,111	0,024
-137,672	283,130	0,088	0,114
-136,658	144,500	-0,062	-0,060
-135,643	-151,633	-0,021	-0,001
-134,629	76,832	-0,036	-0,028
-133,614	306,815	0,133	0,179
-132,599	249,456	-0,085	0,104
-131,585	162,093	-0,014	-0,014
-130,570	721,148	-0,099	0,192
-129,556	-200,000	-0,032	-0,159
-128,541	-79,757	-0,074	-0,018
-127,526	140,670	0,025	-0,024
-126,512	-36,808	-0,069	-0,027
-125,497	800,000	0,024	-0,055
-124,483	-55,487	0,094	0,030
-123,468	222,781	0,081	-0,094
-122,453	800,000	0,031	-0,068
-121,439	-62,034	0,063	-0,019
-120,424	141,901	0,105	0,101
-119,410	135,076	-0,018	0,017
