DTS Sentinel unit serial number:	SN410029Multiplexer serial number:	ORYXHardware model number:	OX2-SRSoftware version number:	ORYX F/W v4,00 Oryx Data Collector v3.7.2.0data status	okinstallation	B6 Nyhavnadifferential loss correction	single-endedforward channel	channel 2reverse channel	N/Adate	2023/12/07time	17:25:08forward acquisition time	300,00reverse acquisition time	0,00gamma	499,1914k internal	0,3164k external	0,3164temperature offset calibration	1,0000default loss term (dB/km)	0,3820temperature slope calibration	1,0000multiplexer offset coefficient	1,0000multiplexer slope coefficient	1,0000fibre end	0,00T internal ref (°C)	14,46T ext. ref 1 (°C)	-2,43T ext. ref 2 (°C)	-2,45length (m)	temperature (°C)	Stokes	anti-Stokes-744,400	-134,947	0,092	0,008
-743,385	-36,649	-0,279	-0,110
-742,371	38,272	0,050	0,033
-741,356	-159,184	-0,221	-0,009
-740,342	-70,139	0,093	0,026
-739,327	-150,937	-0,456	0,025
-738,312	210,500	0,100	0,116
-737,298	-91,527	-0,447	0,093
-736,283	219,828	0,093	0,109
-735,269	-174,675	-0,355	-0,007
-734,254	-200,000	-0,003	0,179
-733,239	-200,000	-0,536	0,002
-732,225	-151,889	0,220	-0,012
-731,210	-139,644	0,126	-0,010
-730,196	800,000	-0,019	-0,047
-729,181	-22,665	-0,060	0,026
-728,167	-33,375	0,091	0,037
-727,152	-200,000	0,010	-0,128
-726,137	438,516	-0,058	-0,093
-725,123	335,700	0,050	-0,072
-724,108	-200,000	0,008	-0,026
-723,094	800,000	-0,018	-0,051
-722,079	63,195	0,048	-0,035
-721,064	-39,365	-0,105	0,040
-720,050	-200,000	-0,007	0,046
-719,035	-87,404	0,064	-0,014
-718,021	-41,261	0,078	0,030
-717,006	125,997	-0,043	-0,040
-715,991	72,156	-0,166	0,127
-714,977	2,152	-0,203	0,107
-713,962	-15,616	-0,110	-0,052
-712,948	-129,806	-0,060	-0,006
-711,933	800,000	0,059	-0,166
-710,918	800,000	-0,039	-0,089
-709,904	-169,488	-0,119	-0,003
-708,889	800,000	-0,022	-0,066
-707,875	96,855	-0,106	-0,089
-706,860	-15,233	0,072	0,034
-705,845	-200,000	0,005	0,037
-704,831	383,498	0,046	0,069
-703,816	-140,319	0,046	0,003
-702,802	272,774	-0,055	0,072
-701,787	332,529	-0,033	-0,047
-700,772	-200,000	-0,024	-0,235
-699,758	-200,000	-0,007	0,094
-698,743	800,000	0,015	-0,038
-697,729	225,667	-0,023	0,027
-696,714	188,593	0,116	0,128
-695,699	800,000	0,071	-0,195
-694,685	467,680	-0,033	-0,054
-693,670	128,219	-0,135	-0,126
-692,656	4,864	0,054	-0,029
-691,641	185,178	0,089	-0,097
-690,627	-103,820	-0,085	-0,014
-689,612	-200,000	0,010	0,045
-688,597	158,963	0,087	0,089
-687,583	398,827	0,050	-0,077
-686,568	121,897	-0,020	0,018
-685,554	301,100	-0,063	-0,086
-684,539	-200,000	-0,001	0,007
-683,524	-200,000	0,017	0,103
-682,510	226,466	0,065	0,077
-681,495	-10,575	-0,128	-0,062
-680,481	-102,600	0,078	-0,014
-679,466	-98,402	-0,162	-0,030
-678,451	-200,000	-0,055	-0,186
-677,437	257,529	-0,024	-0,030
-676,422	800,000	-0,038	0,097
-675,408	800,000	-0,045	0,098
-674,393	145,150	0,022	-0,022
-673,378	-67,333	-0,152	0,043
-672,364	14,735	-0,093	0,053
-671,349	-200,000	-0,011	-0,269
-670,335	120,822	0,120	-0,110
-669,320	-200,000	0,014	0,049
-668,305	746,337	0,040	-0,080
-667,291	-101,605	-0,094	0,017
-666,276	800,000	-0,032	-0,068
-665,262	97,149	-0,110	-0,093
-664,247	800,000	-0,030	-0,091
-663,232	411,479	0,067	-0,105
-662,218	-85,633	-0,054	-0,012
-661,203	-200,000	-0,022	-0,147
-660,189	184,582	-0,066	-0,072
-659,174	143,138	-0,141	-0,138
-658,159	527,341	-0,070	0,121
-657,145	599,999	-0,040	0,074
-656,130	-41,985	0,069	-0,026
-655,116	54,609	-0,054	0,038
-654,101	90,719	0,044	-0,037
-653,086	143,458	0,032	-0,032
-652,072	800,000	-0,039	0,096
-651,057	-200,000	-0,038	-0,152
-650,043	800,000	-0,051	-0,111
-649,028	438,783	-0,104	-0,166
-648,014	-200,000	-0,006	-0,064
-646,999	800,000	0,039	-0,100
-645,984	642,968	-0,056	0,105
-644,970	34,233	-0,052	-0,033
-643,955	54,567	-0,044	-0,031
-642,941	-7,490	0,026	0,013
-641,926	-200,000	0,001	0,025
-640,911	800,000	0,040	0,087
-639,897	216,109	0,075	0,087
-638,882	735,267	-0,044	-0,087
-637,868	146,300	-0,055	-0,054
-636,853	-46,593	0,025	-0,009
-635,838	147,331	0,039	-0,038
-634,824	-200,000	-0,004	-0,025
-633,809	33,715	0,101	0,064
-632,795	364,106	0,055	0,082
-631,780	-156,748	0,063	0,003
-630,765	-97,837	-0,066	0,012
-629,751	-21,743	0,099	0,044
-628,736	54,269	0,056	0,040
-627,722	-200,000	-0,005	-0,208
-626,707	-200,000	-0,025	-0,088
-625,692	113,231	-0,059	-0,052
-624,678	355,406	0,043	0,063
-623,663	1,952	-0,039	-0,020
-622,649	800,000	-0,062	-0,151
-621,634	262,196	-0,062	0,079
-620,619	91,688	-0,040	-0,033
-619,605	-54,849	0,092	-0,030
-618,590	8,122	0,080	0,044
-617,576	-37,923	-0,044	0,017
-616,561	-200,000	-0,002	-0,118
-615,546	-168,303	0,020	-0,001
-614,532	-200,000	-0,031	-0,290
-613,517	-169,978	-0,178	-0,005
-612,503	-52,622	0,057	0,019
-611,488	-96,759	0,121	-0,023
-610,474	-39,132	0,017	-0,006
-609,459	-112,972	-0,113	0,016
-608,444	-200,000	-0,008	-0,088
-607,430	-200,000	-0,029	-0,164
-606,415	-13,867	-0,034	-0,016
-605,401	46,990	-0,040	0,027
-604,386	311,537	-0,078	0,107
-603,371	-54,810	-0,159	0,052
-602,357	155,734	0,087	0,088
-601,342	800,000	-0,025	-0,054
-600,328	-200,000	-0,002	-0,187
-599,313	359,032	0,026	0,038
-598,298	-200,000	0,021	-0,088
-597,284	-73,169	0,041	-0,011
-596,269	-200,000	-0,006	0,133
-595,255	-83,021	0,109	-0,026
-594,240	800,000	0,041	0,117
-593,225	-200,000	-0,016	0,127
-592,211	-29,725	-0,028	0,012
-591,196	130,070	0,137	-0,128
-590,182	43,762	0,143	-0,095
-589,167	36,675	0,107	0,069
-588,152	214,693	-0,049	-0,057
-587,138	178,122	0,055	0,059
-586,123	800,000	-0,035	0,088
-585,109	620,474	-0,078	0,144
-584,094	-5,146	-0,112	-0,056
-583,079	-200,000	0,012	0,066
-582,065	-93,113	-0,092	-0,019
-581,050	-57,665	0,027	-0,009
-580,036	36,762	0,110	-0,071
-579,021	42,636	-0,061	-0,041
-578,006	407,867	-0,045	-0,070
-576,992	32,310	0,071	-0,045
-575,977	113,495	-0,122	-0,108
-574,963	13,972	0,107	0,060
-573,948	-200,000	0,016	0,157
-572,934	611,295	-0,044	0,080
-571,919	86,142	-0,145	-0,117
-570,904	-74,788	-0,116	0,030
-569,890	-200,000	0,008	-0,123
-568,875	23,471	0,162	-0,097
-567,861	800,000	-0,055	-0,151
-566,846	-200,000	-0,023	0,128
-565,831	-149,554	0,072	0,004
-564,817	-200,000	-0,004	-0,137
-563,802	641,290	-0,112	-0,209
-562,788	-87,404	-0,049	0,011
-561,773	-90,652	0,073	0,015
-560,758	800,000	-0,019	-0,052
-559,744	672,713	0,020	-0,038
-558,729	50,549	-0,036	0,025
-557,715	26,253	-0,089	-0,054
-556,700	118,829	-0,133	-0,120
-555,685	52,254	-0,026	-0,018
-554,671	161,816	0,037	0,038
-553,656	49,377	0,078	-0,054
-552,642	-77,308	-0,085	-0,021
-551,627	-200,000	-0,015	-0,051
-550,612	-138,489	-0,115	-0,009
-549,598	-19,415	-0,129	-0,058
-548,583	-200,000	-0,005	-0,124
-547,569	31,853	-0,081	0,051
-546,554	800,000	0,062	0,169
-545,539	583,821	0,016	0,029
-544,525	-200,000	0,023	-0,106
-543,510	27,430	0,043	-0,026
-542,496	-142,304	-0,192	-0,014
-541,481	800,000	0,029	-0,083
-540,466	771,575	0,045	-0,091
-539,452	-104,953	0,102	0,017
-538,437	-200,000	0,011	0,109
-537,423	-200,000	0,017	0,110
-536,408	-33,153	-0,111	-0,045
-535,393	-100,220	-0,028	-0,005
-534,379	-200,000	-0,016	-0,065
-533,364	118,916	0,097	-0,087
-532,350	-39,665	-0,100	0,038
-531,335	-166,522	-0,112	0,003
-530,321	-18,455	-0,025	0,011
-529,306	-103,147	-0,220	-0,038
-528,291	-77,531	-0,086	-0,022
-527,277	-200,000	-0,019	0,077
-526,262	243,204	0,047	0,057
-525,248	-200,000	0,004	-0,025
-524,233	-15,616	0,078	0,036
-523,218	-200,000	0,004	0,057
-522,204	26,337	-0,118	-0,072
-521,189	800,000	-0,036	0,099
-520,175	-200,000	-0,010	0,066
-519,160	-90,026	0,109	-0,023
-518,145	800,000	0,057	0,146
-517,131	-200,000	0,001	0,088
-516,116	27,039	0,129	0,079
-515,102	-17,644	-0,050	-0,023
-514,087	467,526	0,021	-0,034
-513,072	-111,837	-0,100	-0,015
-512,058	58,870	-0,047	0,034
-511,043	169,319	0,031	0,033
-510,029	800,000	-0,037	0,082
-509,014	119,293	0,096	-0,087
-507,999	-91,369	0,075	-0,016
-506,985	-108,815	0,037	0,006
-505,970	800,000	-0,026	0,079
-504,956	32,826	0,117	0,074
-503,941	800,000	0,040	0,081
-502,926	53,941	0,125	0,087
-501,912	800,000	0,033	-0,072
-500,897	390,989	-0,069	0,105
-499,883	29,785	-0,018	-0,011
-498,868	685,300	0,045	-0,086
-497,853	-200,000	-0,013	-0,060
-496,839	575,861	-0,044	0,078
-495,824	-45,042	0,061	-0,022
-494,810	-1,250	-0,124	0,064
-493,795	-65,472	-0,059	0,017
-492,781	-9,067	-0,061	0,030
-491,766	386,689	0,062	0,093
-490,751	52,254	0,028	0,020
-489,737	-200,000	0,005	0,020
-488,722	800,000	-0,027	0,068
-487,708	-200,000	0,016	0,072
-486,693	-200,000	0,027	0,115
-485,678	-28,775	-0,154	-0,064
-484,664	-162,096	-0,121	0,004
-483,649	-8,726	0,170	0,083
-482,635	247,633	0,027	-0,033
-481,620	800,000	-0,017	0,053
-480,605	217,943	-0,074	0,086
-479,591	-82,659	-0,065	0,015
-478,576	-133,721	-0,113	-0,010
-477,562	121,468	0,139	-0,126
-476,547	-16,768	-0,035	0,016
-475,532	-14,184	0,083	-0,039
-474,518	-103,557	-0,043	-0,007
-473,503	101,356	-0,107	0,091
-472,489	304,346	0,133	0,180
-471,474	-13,639	-0,091	0,043
-470,459	-38,830	0,037	0,014
-469,445	-147,608	-0,059	-0,004
-468,430	-73,022	0,024	0,006
-467,416	2,933	-0,093	0,049
-466,401	139,819	-0,067	0,064
-465,386	191,981	0,034	0,037
-464,372	-159,946	0,041	-0,002
-463,357	242,661	-0,051	0,062
-462,343	-155,766	-0,097	-0,004
-461,328	121,401	0,081	-0,073
-460,313	198,741	0,022	-0,025
-459,299	14,202	-0,042	0,024
-458,284	295,376	-0,061	-0,082
-457,270	-120,945	0,111	-0,013
-456,255	-200,000	0,015	-0,098
-455,241	-200,000	0,015	-0,128
-454,226	123,250	-0,071	-0,065
-453,211	-200,000	-0,013	0,124
-452,197	-200,000	0,002	0,031
-451,182	-200,000	0,012	0,044
-450,168	-120,469	0,120	-0,015
-449,153	476,979	-0,019	-0,032
-448,138	-200,000	-0,007	0,077
-447,124	800,000	-0,033	0,092
-446,109	115,360	-0,110	0,098
-445,095	213,570	0,068	0,079
-444,080	601,060	0,097	0,176
-443,065	431,671	0,051	0,080
-442,051	-39,060	-0,085	0,032
-441,036	-79,037	0,061	0,015
-440,022	-98,459	0,049	-0,009
-439,007	-200,000	0,023	-0,097
-437,992	-200,000	0,050	0,219
-436,978	-200,000	0,010	0,057
-435,963	-200,000	0,002	-0,015
-434,949	800,000	-0,006	-0,014
-433,934	-148,643	-0,081	-0,005
-432,919	130,557	0,087	-0,081
-431,905	-100,523	0,020	-0,004
-430,890	512,731	0,119	0,202
-429,876	-131,026	0,070	-0,007
-428,861	31,244	0,124	0,077
-427,846	-200,000	0,009	-0,054
-426,832	282,676	0,027	-0,036
-425,817	-200,000	-0,038	-0,145
-424,803	-200,000	-0,016	-0,102
-423,788	-162,226	0,194	-0,007
-422,773	-130,523	-0,128	0,012
-421,759	-108,462	0,136	0,021
-420,744	11,213	0,116	-0,065
-419,730	297,994	-0,063	-0,084
-418,715	-19,732	0,061	0,027
-417,701	800,000	0,029	0,076
-416,686	510,279	0,047	0,079
-415,671	-24,309	0,052	-0,022
-414,657	-200,000	0,001	0,003
-413,642	-117,521	0,010	-0,001
-412,628	-140,625	-0,046	0,003
-411,613	74,587	-0,025	-0,019
-410,598	84,563	-0,057	-0,045
-409,584	735,618	-0,013	-0,025
-408,569	-56,124	0,140	0,045
-407,555	254,344	0,079	-0,099
-406,540	-52,929	-0,060	-0,020
-405,525	-100,273	0,091	-0,016
-404,511	-23,001	-0,112	-0,049
-403,496	149,247	0,045	-0,044
-402,482	210,361	-0,060	-0,069
-401,467	-64,068	-0,140	0,041
-400,452	-196,286	0,019	0,000
-399,438	-200,000	-0,014	0,099
-398,423	45,646	0,047	0,031
-397,409	-167,595	-0,118	-0,003
-396,394	210,975	0,073	-0,083
-395,379	-99,285	0,030	0,005
-394,365	91,437	-0,026	0,022
-393,350	-200,000	0,015	0,063
-392,336	593,246	-0,029	0,051
-391,321	167,720	-0,049	0,051
-390,306	-85,238	0,039	0,009
-389,292	406,831	-0,132	-0,203
-388,277	29,434	0,089	0,055
-387,263	319,915	0,097	0,134
-386,248	69,452	0,023	0,017
-385,233	203,459	0,105	0,119
-384,219	563,711	-0,046	-0,081
-383,204	151,143	0,078	0,077
-382,190	800,000	0,043	-0,088
-381,175	-12,850	0,042	-0,020
-380,160	109,607	-0,061	0,053
-379,146	-65,323	0,093	0,027
-378,131	-36,179	0,120	0,047
-377,117	558,005	0,049	0,086
-376,102	-200,000	0,007	-0,137
-375,088	-20,550	-0,103	-0,046
-374,073	28,488	-0,062	-0,038
-373,058	-200,000	0,002	-0,009
-372,044	268,995	-0,048	0,061
-371,029	132,743	0,012	-0,011
-370,015	-28,912	-0,120	0,050
-369,000	800,000	0,022	-0,065
-367,985	-12,584	-0,111	-0,052
-366,971	-66,327	0,210	0,060
-365,956	800,000	0,027	0,058
-364,942	-120,603	0,079	0,010
-363,927	86,309	0,014	0,012
-362,912	91,877	0,060	0,049
-361,898	94,971	0,017	-0,014
-360,883	-77,410	0,101	0,025
-359,869	-200,000	-0,009	0,070
-358,854	-95,704	-0,062	0,012
-357,839	91,941	0,148	-0,121
-356,825	-138,357	-0,103	0,008
-355,810	743,913	0,064	-0,126
-354,796	-70,842	0,027	0,007
-353,781	18,566	-0,131	0,076
-352,766	184,421	0,036	-0,039
-351,752	7,493	0,062	-0,034
-350,737	-5,992	-0,087	0,043
-349,723	-200,000	-0,015	0,071
-348,708	668,558	0,040	-0,074
-347,693	23,703	0,053	-0,032
-346,679	-24,618	0,111	-0,048
-345,664	-200,000	0,016	-0,085
-344,650	-58,348	0,110	0,034
-343,635	800,000	0,032	0,091
-342,620	-112,503	0,142	-0,020
-341,606	800,000	0,016	0,042
-340,591	800,000	0,037	-0,105
-339,577	-21,110	0,087	0,038
-338,562	-113,771	-0,160	0,022
-337,548	397,244	-0,080	-0,122
-336,533	800,000	-0,013	0,034
-335,518	-64,279	0,098	-0,029
-334,504	-105,090	0,049	-0,008
-333,489	62,912	0,174	-0,126
-332,475	110,324	-0,112	0,097
-331,460	172,566	0,041	-0,043
-330,445	292,291	-0,037	0,048
-329,431	-18,399	-0,043	0,019
-328,416	-200,000	0,035	0,120
-327,402	181,841	0,042	0,045
-326,387	-200,000	0,027	0,102
-325,372	585,085	0,026	0,047
-324,358	-200,000	-0,007	-0,097
-323,343	-19,981	-0,070	-0,031
-322,329	436,537	-0,038	-0,060
-321,314	800,000	-0,073	0,194
-320,299	-200,000	-0,022	0,084
-319,285	800,000	-0,025	-0,061
-318,270	-56,248	-0,036	-0,011
-317,256	-69,261	-0,154	-0,043
-316,241	457,054	0,090	-0,145
-315,226	38,973	0,073	-0,047
-314,212	-190,719	0,016	0,000
-313,197	162,911	0,077	0,078
-312,183	-24,478	-0,030	-0,013
-311,168	-9,915	0,037	0,018
-310,153	239,508	-0,053	0,064
-309,139	-124,173	-0,060	0,007
-308,124	800,000	-0,048	-0,128
-307,110	-89,043	0,264	0,056
-306,095	-158,172	0,127	-0,005
-305,080	800,000	0,009	0,021
-304,066	107,358	-0,153	0,131
-303,051	322,316	-0,062	-0,085
-302,037	-18,244	0,062	-0,028
-301,022	406,735	-0,100	-0,153
-300,008	404,680	0,093	0,141
-298,993	800,000	-0,023	0,046
-297,978	-67,983	0,015	0,004
-296,964	476,825	-0,058	0,095
-295,949	-200,000	-0,008	0,068
-294,935	-21,566	0,117	-0,051
-293,920	-3,763	-0,094	-0,047
-292,905	166,611	0,018	-0,019
-291,891	800,000	0,042	0,091
-290,876	171,845	-0,075	0,078
-289,862	-9,755	-0,074	0,036
-288,847	17,626	-0,048	0,028
-287,832	186,872	-0,088	-0,095
-286,818	-200,000	-0,003	-0,098
-285,803	220,918	0,014	0,016
-284,789	112,276	0,092	-0,081
-283,774	800,000	-0,009	0,024
-282,759	-65,973	-0,127	0,036
-281,745	-19,684	-0,106	-0,047
-280,730	-200,000	-0,023	-0,090
-279,716	-19,364	-0,164	0,073
-278,701	-200,000	-0,000	0,028
-277,686	-200,000	-0,034	0,113
-276,672	-200,000	0,021	0,074
-275,657	339,717	0,067	0,094
-274,643	-200,000	-0,007	-0,057
-273,628	8,661	0,155	-0,084
-272,613	203,083	-0,055	0,062
-271,599	800,000	0,044	0,098
-270,584	441,758	0,054	0,085
-269,570	-200,000	0,001	-0,063
-268,555	137,610	0,078	0,074
-267,540	800,000	-0,009	0,025
-266,526	-200,000	0,008	-0,076
-265,511	-86,451	-0,118	-0,026
-264,497	800,000	0,025	0,079
-263,482	12,207	-0,106	0,059
-262,467	-200,000	-0,014	0,118
-261,453	499,333	0,047	-0,079
-260,438	-200,000	0,029	-0,099
-259,424	-200,000	-0,024	-0,103
-258,409	87,838	-0,070	-0,056
-257,395	105,647	-0,096	0,082
-256,380	-200,000	0,005	0,018
-255,365	-65,203	0,107	0,031
-254,351	60,397	-0,094	0,067
-253,336	-25,031	0,028	-0,012
-252,322	-200,000	-0,028	-0,106
-251,307	-200,000	0,024	-0,083
-250,292	132,124	0,059	0,054
-249,278	800,000	0,067	0,205
-248,263	-200,000	-0,008	-0,140
-247,249	720,215	-0,021	0,041
-246,234	354,768	-0,069	-0,099
-245,219	-200,000	0,017	-0,091
-244,205	259,823	0,055	-0,069
-243,190	-170,904	-0,054	0,001
-242,176	-71,807	-0,086	0,023
-241,161	-65,342	-0,019	-0,005
-240,146	800,000	0,012	0,030
-239,132	527,406	0,080	-0,137
-238,117	190,423	-0,101	-0,110
-237,103	-79,063	-0,148	0,036
-236,088	260,706	0,018	0,022
-235,073	99,740	-0,062	-0,052
-234,059	328,059	0,048	-0,067
-233,044	107,577	-0,024	0,021
-232,030	800,000	0,055	-0,166
-231,015	-200,000	0,016	-0,176
-230,000	-86,473	-0,059	0,013
-228,986	800,000	-0,031	0,066
-227,971	800,000	0,025	0,063
-226,957	4,881	0,132	0,070
-225,942	310,053	-0,079	-0,107
-224,927	134,562	0,077	0,072
-223,913	-58,875	0,042	-0,013
-222,898	-200,000	-0,005	0,077
-221,884	-200,000	-0,003	0,027
-220,869	-60,039	0,150	0,046
-219,855	321,224	-0,071	0,097
-218,840	-200,000	0,036	-0,135
-217,825	401,386	0,029	-0,044
-216,811	-200,000	0,023	0,094
-215,796	721,015	-0,052	-0,099
-214,782	282,495	0,047	0,062
-213,767	-200,000	0,004	0,027
-212,752	-200,000	0,007	0,087
-211,738	800,000	0,012	-0,028
-210,723	-112,856	0,024	-0,003
-209,709	-19,436	-0,215	-0,096
-208,694	75,457	0,048	0,037
-207,679	61,304	-0,071	-0,051
-206,665	-10,834	-0,097	0,046
-205,650	800,000	0,030	-0,095
-204,636	102,523	-0,058	-0,049
-203,621	372,623	-0,035	-0,051
-202,606	-17,581	0,012	-0,005
-201,592	-200,000	0,009	-0,145
-200,577	-200,000	0,042	-0,166
-199,563	800,000	-0,051	0,129
-198,548	-200,000	0,020	0,155
-197,533	800,000	0,041	0,122
-196,519	-29,104	-0,031	0,013
-195,504	-8,196	-0,069	0,034
-194,490	373,700	-0,067	-0,099
-193,475	-91,976	0,049	-0,010
-192,460	258,599	0,017	0,022
-191,446	800,000	0,061	-0,136
-190,431	-66,465	0,087	0,025
-189,417	-200,000	-0,011	0,084
-188,402	-29,364	-0,085	0,035
-187,387	-87,348	-0,063	0,014
-186,373	-200,000	0,001	-0,043
-185,358	214,216	0,077	-0,088
-184,344	209,361	-0,077	0,087
-183,329	800,000	0,033	0,097
-182,315	-126,092	0,044	0,005
-181,300	156,127	-0,117	-0,116
-180,285	178,279	0,036	-0,037
-179,271	112,697	-0,163	0,142
-178,256	-200,000	0,010	-0,047
-177,242	800,000	-0,029	-0,058
-176,227	-70,554	0,091	-0,025
-175,212	-69,423	0,054	0,015
-174,198	-7,898	0,040	-0,020
-173,183	-168,342	-0,160	-0,004
-172,169	-70,570	-0,143	-0,039
-171,154	417,708	-0,030	-0,047
-170,139	-200,000	-0,045	0,147
-169,125	3,273	0,085	0,045
-168,110	-200,000	-0,019	-0,129
-167,096	52,911	-0,106	-0,073
-166,081	-61,730	-0,130	-0,039
-165,066	-200,000	0,046	0,148
-164,052	393,019	-0,034	0,051
-163,037	306,073	0,036	-0,049
-162,023	541,357	0,058	-0,099
-161,008	-58,737	0,212	0,066
-159,993	-200,000	-0,006	0,051
-158,979	86,428	-0,039	-0,031
-157,964	59,531	0,138	0,098
-156,950	-139,547	0,061	0,005
-155,935	-200,000	-0,005	-0,064
-154,920	-200,000	0,018	0,062
-153,906	-200,000	0,042	-0,180
-152,891	36,429	0,122	0,077
-151,877	-200,000	-0,003	0,034
-150,862	-200,000	0,004	-0,026
-149,847	578,165	-0,054	-0,095
-148,833	-136,752	-0,177	0,014
-147,818	-111,027	0,076	-0,011
-146,804	57,591	-0,068	-0,048
-145,789	53,981	-0,059	0,040
-144,775	161,710	-0,077	-0,077
-143,760	346,888	-0,113	-0,160
-142,745	-3,816	0,023	0,011
-141,731	283,184	-0,065	0,084
-140,716	-200,000	-0,027	0,145
-139,702	-38,951	0,139	-0,052
-138,687	23,993	0,048	0,029
-137,672	-67,615	0,085	0,024
-136,658	48,578	-0,128	-0,086
-135,643	800,000	-0,055	-0,125
-134,629	800,000	0,043	-0,106
-133,614	-19,287	-0,021	0,009
-132,599	534,317	0,065	0,111
-131,585	800,000	-0,013	-0,036
-130,570	-200,000	-0,003	-0,028
-129,556	38,723	0,099	0,064
-128,541	195,395	0,072	-0,079
-127,526	-200,000	-0,028	0,125
-126,512	-38,247	0,098	0,037
-125,497	-98,129	0,115	-0,021
-124,483	-101,273	-0,015	0,003
-123,468	-86,801	-0,036	0,008
-122,453	-118,468	-0,089	-0,011
-121,439	800,000	-0,042	0,113
-120,424	-14,534	0,104	-0,048
-119,410	-200,000	0,012	-0,127
-118,395	-75,593	0,044	0,011
