DTS Sentinel unit serial number:	SN410029Multiplexer serial number:	ORYXHardware model number:	OX2-SRSoftware version number:	ORYX F/W v4,00 Oryx Data Collector v3.7.2.0data status	okinstallation	B6 Nyhavnadifferential loss correction	single-endedforward channel	channel 2reverse channel	N/Adate	2023/12/11time	06:10:08forward acquisition time	300,00reverse acquisition time	0,00gamma	499,1914k internal	0,3126k external	0,3126temperature offset calibration	1,0000default loss term (dB/km)	0,3820temperature slope calibration	1,0000multiplexer offset coefficient	1,0000multiplexer slope coefficient	1,0000fibre end	0,00T internal ref (°C)	19,68T ext. ref 1 (°C)	2,82T ext. ref 2 (°C)	2,86length (m)	temperature (°C)	Stokes	anti-Stokes-744,400	-200,000	0,004	-0,053
-743,385	-137,180	-0,190	0,016
-742,371	102,498	-0,040	-0,034
-741,356	183,336	-0,168	0,185
-740,342	-200,000	0,005	-0,111
-739,327	-45,889	-0,201	0,073
-738,312	-21,280	0,056	0,025
-737,298	-8,038	-0,316	0,158
-736,283	800,000	0,064	0,151
-735,269	73,308	-0,157	0,122
-734,254	-129,813	0,176	-0,018
-733,239	-59,672	-0,408	-0,129
-732,225	-17,063	0,140	-0,066
-731,210	-200,000	0,006	-0,055
-730,196	26,490	0,089	0,055
-729,181	-98,313	-0,077	-0,014
-728,167	-60,832	-0,048	-0,015
-727,152	227,377	-0,140	-0,169
-726,137	-118,502	-0,108	-0,014
-725,123	800,000	-0,077	-0,164
-724,108	-110,604	-0,104	0,016
-723,094	-137,751	-0,096	-0,008
-722,079	-200,000	0,008	-0,123
-721,064	-3,794	-0,053	0,028
-720,050	-200,000	-0,005	-0,016
-719,035	800,000	-0,020	-0,062
-718,021	302,773	-0,092	-0,127
-717,006	170,143	0,053	-0,057
-715,991	172,103	-0,101	-0,108
-714,977	72,748	0,041	0,032
-713,962	135,066	-0,091	0,088
-712,948	-200,000	0,000	-0,043
-711,933	800,000	0,038	-0,093
-710,918	-48,561	0,058	0,021
-709,904	1,763	-0,171	-0,091
-708,889	-200,000	-0,033	-0,116
-707,875	33,260	-0,079	-0,051
-706,860	-41,634	-0,017	-0,006
-705,845	-200,000	0,012	-0,059
-704,831	-200,000	-0,017	0,110
-703,816	-62,521	0,060	-0,019
-702,802	661,776	-0,050	-0,097
-701,787	-200,000	0,014	0,088
-700,772	-200,000	-0,020	-0,095
-699,758	-200,000	-0,013	-0,065
-698,743	659,565	-0,013	0,025
-697,729	-200,000	0,000	-0,089
-696,714	2,163	-0,179	0,096
-695,699	-150,131	0,071	0,004
-694,685	34,277	-0,087	0,056
-693,670	-143,932	-0,038	0,003
-692,656	16,587	-0,072	-0,042
-691,641	-92,315	-0,053	-0,011
-690,627	628,734	0,046	0,086
-689,612	-200,000	-0,010	0,114
-688,597	211,562	-0,071	-0,083
-687,583	265,554	-0,079	-0,102
-686,568	-80,990	-0,101	-0,025
-685,554	-200,000	0,008	-0,046
-684,539	-200,000	0,007	-0,073
-683,524	-200,000	0,005	-0,048
-682,510	29,489	-0,113	-0,071
-681,495	368,357	-0,058	0,087
-680,481	598,235	-0,085	-0,157
-679,466	583,909	0,061	-0,112
-678,451	-83,736	-0,130	-0,031
-677,437	52,154	-0,141	-0,100
-676,422	-52,017	-0,113	0,039
-675,408	-200,000	0,032	-0,210
-674,393	342,043	-0,104	0,151
-673,378	-2,973	-0,033	-0,017
-672,364	208,203	-0,018	0,021
-671,349	800,000	0,028	0,064
-670,335	-125,111	0,144	-0,016
-669,320	129,554	-0,085	0,081
-668,305	474,615	-0,019	-0,031
-667,291	800,000	-0,044	0,119
-666,276	800,000	-0,018	-0,047
-665,262	-200,000	-0,031	-0,138
-664,247	800,000	-0,041	-0,122
-663,232	112,026	-0,157	0,141
-662,218	469,800	0,060	0,101
-661,203	800,000	0,017	0,038
-660,189	454,705	0,066	-0,109
-659,174	0,079	-0,082	0,043
-658,159	-200,000	0,004	0,065
-657,145	192,395	-0,009	-0,011
-656,130	800,000	0,031	-0,075
-655,116	392,799	-0,107	-0,166
-654,101	352,819	0,044	-0,065
-653,086	-70,909	0,046	0,013
-652,072	-66,943	0,059	0,017
-651,057	57,375	-0,074	0,054
-650,043	-77,193	-0,047	-0,012
-649,028	-200,000	-0,004	0,039
-648,014	-64,502	0,084	0,025
-646,999	-200,000	-0,008	0,166
-645,984	-78,576	-0,038	0,009
-644,970	-86,926	-0,129	-0,029
-643,955	102,951	-0,159	0,138
-642,941	-135,298	-0,181	0,016
-641,926	-175,123	0,080	0,002
-640,911	491,441	0,056	-0,096
-639,897	496,623	-0,042	0,072
-638,882	-62,765	0,057	0,017
-637,868	203,838	0,045	0,051
-636,853	-22,661	-0,209	-0,093
-635,838	-200,000	-0,037	-0,160
-634,824	45,015	-0,062	-0,042
-633,809	-34,905	0,082	-0,033
-632,795	-90,242	-0,061	0,013
-631,780	-200,000	-0,002	0,022
-630,765	-5,545	-0,096	0,049
-629,751	-116,979	-0,090	-0,012
-628,736	-200,000	0,009	-0,144
-627,722	51,350	-0,103	0,072
-626,707	76,232	0,050	-0,039
-625,692	-200,000	-0,019	-0,077
-624,678	276,571	0,007	0,009
-623,663	20,081	0,038	-0,022
-622,649	-146,970	-0,084	-0,005
-621,634	-200,000	-0,016	-0,093
-620,619	407,370	0,034	-0,054
-619,605	-200,000	0,013	0,066
-618,590	-200,000	0,003	0,025
-617,576	19,459	0,008	-0,005
-616,561	-200,000	-0,002	0,073
-615,546	-200,000	0,008	-0,086
-614,532	142,549	-0,100	-0,099
-613,517	439,481	0,030	-0,049
-612,503	-51,791	0,024	-0,008
-611,488	-74,021	-0,043	-0,011
-610,474	-116,939	-0,082	0,011
-609,459	-92,390	-0,144	0,030
-608,444	-110,930	-0,091	-0,014
-607,430	486,385	0,031	-0,053
-606,415	-51,785	0,129	-0,044
-605,401	657,063	-0,025	0,048
-604,386	126,187	0,104	0,097
-603,371	240,317	-0,041	-0,051
-602,357	-200,000	-0,001	0,141
-601,342	-110,982	-0,106	-0,016
-600,328	9,794	0,068	0,038
-599,313	134,737	0,031	0,030
-598,298	-88,515	0,101	0,022
-597,284	1,421	0,066	-0,035
-596,269	-150,107	0,093	-0,005
-595,255	-200,000	0,016	0,132
-594,240	220,848	0,084	-0,099
-593,225	258,721	-0,039	0,049
-592,211	-164,292	-0,062	0,002
-591,196	-6,223	0,087	0,044
-590,182	800,000	0,037	0,088
-589,167	-102,717	0,133	0,023
-588,152	134,391	0,057	-0,055
-587,138	-153,987	0,032	0,002
-586,123	278,160	-0,128	-0,169
-585,109	-200,000	0,018	-0,074
-584,094	103,963	0,023	-0,020
-583,079	127,419	-0,064	-0,061
-582,065	683,802	0,036	0,070
-581,050	-200,000	0,001	0,022
-580,036	93,734	0,103	-0,087
-579,021	800,000	-0,053	0,133
-578,006	-200,000	-0,012	0,058
-576,992	-157,466	-0,071	0,003
-575,977	50,447	0,052	0,036
-574,963	-200,000	0,028	0,185
-573,948	262,353	-0,133	0,171
-572,934	779,293	-0,079	0,160
-571,919	-126,834	0,059	-0,006
-570,904	111,806	0,046	-0,041
-569,890	81,799	0,088	0,070
-568,875	126,632	0,118	0,111
-567,861	639,571	-0,069	0,130
-566,846	131,925	-0,032	-0,030
-565,831	-60,474	0,144	0,045
-564,817	-2,058	0,046	-0,024
-563,802	-200,000	0,018	0,120
-562,788	-22,374	-0,064	-0,029
-561,773	256,507	0,080	0,102
-560,758	-105,228	-0,023	-0,004
-559,744	-37,732	-0,032	-0,013
-558,729	26,205	-0,093	0,058
-557,715	800,000	0,047	-0,141
-556,700	155,754	0,012	-0,013
-555,685	-200,000	0,022	-0,110
-554,671	800,000	0,022	-0,055
-553,656	66,985	0,055	0,041
-552,642	-69,950	-0,178	0,050
-551,627	114,238	0,132	-0,119
-550,612	-59,577	-0,083	-0,026
-549,598	8,181	0,034	0,019
-548,583	-200,000	-0,026	-0,106
-547,569	-173,043	-0,079	0,002
-546,554	493,347	0,099	-0,168
-545,539	-123,081	-0,070	0,008
-544,525	121,998	-0,071	-0,065
-543,510	-200,000	0,009	0,126
-542,496	-200,000	0,017	-0,103
-541,481	-200,000	-0,004	-0,129
-540,466	-41,391	0,082	-0,031
-539,452	-126,348	-0,052	-0,006
-538,437	-2,761	0,110	-0,057
-537,423	-62,290	0,035	0,011
-536,408	111,338	-0,017	-0,015
-535,393	184,212	0,042	-0,046
-534,379	-197,297	-0,050	-0,000
-533,364	-64,263	-0,074	-0,022
-532,350	384,664	-0,078	0,119
-531,335	79,140	0,062	0,049
-530,321	800,000	0,058	-0,130
-529,306	209,930	0,110	-0,128
-528,291	296,198	0,072	-0,097
-527,277	800,000	-0,084	-0,177
-526,262	800,000	-0,088	0,225
-525,248	800,000	-0,054	-0,156
-524,233	-200,000	-0,004	0,111
-523,218	263,989	0,041	-0,053
-522,204	221,077	0,054	-0,064
-521,189	-117,016	-0,112	-0,015
-520,175	2,602	-0,022	0,012
-519,160	800,000	0,012	0,030
-518,145	-200,000	0,013	-0,056
-517,131	800,000	-0,030	0,072
-516,116	128,208	0,123	-0,115
-515,102	-200,000	-0,072	-0,237
-514,087	55,909	-0,033	-0,024
-513,072	-97,672	-0,163	0,031
-512,058	71,253	0,148	-0,113
-511,043	268,150	-0,038	0,050
-510,029	-25,325	0,052	0,023
-509,014	-198,368	-0,058	0,000
-507,999	-166,076	0,092	-0,003
-506,985	-171,617	-0,168	0,004
-505,970	-48,595	-0,125	-0,044
-504,956	-200,000	-0,033	0,124
-503,941	-200,000	0,003	0,018
-502,926	480,819	0,088	0,148
-501,912	109,351	0,078	0,069
-500,897	524,768	-0,053	-0,092
-499,883	105,879	-0,110	0,096
-498,868	-128,960	0,041	0,004
-497,853	206,826	0,007	-0,008
-496,839	-51,931	0,135	-0,046
-495,824	53,419	-0,011	-0,008
-494,810	-92,827	0,154	0,031
-493,795	696,319	-0,028	0,055
-492,781	-200,000	0,026	0,148
-491,766	100,806	-0,113	-0,097
-490,751	-0,507	0,029	0,015
-489,737	172,418	-0,105	-0,111
-488,722	-200,000	0,009	0,036
-487,708	-28,958	-0,072	0,030
-486,693	-200,000	-0,023	0,140
-485,678	-52,171	0,080	0,027
-484,664	165,236	-0,054	0,056
-483,649	162,310	-0,110	-0,114
-482,635	6,423	0,135	-0,074
-481,620	-200,000	-0,010	-0,038
-480,605	-91,413	-0,081	0,017
-479,591	800,000	0,066	0,137
-478,576	75,167	-0,069	0,054
-477,562	-200,000	-0,030	-0,144
-476,547	-200,000	-0,016	0,054
-475,532	-38,695	-0,107	-0,042
-474,518	-200,000	-0,002	-0,022
-473,503	652,356	0,057	0,107
-472,489	-38,539	-0,091	-0,035
-471,474	126,997	-0,035	-0,032
-470,459	-127,397	-0,087	-0,009
-469,445	800,000	0,025	-0,055
-468,430	-99,224	0,090	0,017
-467,416	-200,000	0,005	-0,046
-466,401	800,000	0,053	0,108
-465,386	468,973	0,004	0,007
-464,372	27,676	0,107	0,066
-463,357	-200,000	-0,007	0,068
-462,343	-170,908	0,089	0,002
-461,328	75,223	-0,117	-0,091
-460,313	365,719	0,037	-0,055
-459,299	-200,000	0,002	-0,031
-458,284	-200,000	-0,005	0,069
-457,270	370,618	0,038	0,056
-456,255	-181,443	-0,114	-0,002
-455,241	800,000	0,018	-0,051
-454,226	263,852	-0,040	0,051
-453,211	800,000	-0,026	0,083
-452,197	545,591	0,017	-0,030
-451,182	-123,215	0,063	-0,007
-450,168	-141,222	0,072	0,005
-449,153	295,771	0,025	-0,034
-448,138	-200,000	0,013	-0,084
-447,124	101,365	0,012	0,010
-446,109	-200,000	-0,016	0,072
-445,095	-200,000	0,038	0,168
-444,080	44,309	0,045	-0,031
-443,065	523,935	-0,015	0,026
-442,051	18,141	-0,102	0,060
-441,036	655,742	0,036	-0,068
-440,022	-200,000	-0,019	-0,174
-439,007	193,134	-0,097	-0,108
-437,992	-200,000	0,002	0,029
-436,978	392,693	0,065	-0,100
-435,963	-103,683	-0,057	0,010
-434,949	-200,000	-0,006	-0,091
-433,934	-42,220	0,064	0,024
-432,919	109,964	-0,020	0,018
-431,905	-32,224	-0,061	-0,025
-430,890	-200,000	0,007	0,149
-429,876	149,243	0,045	0,045
-428,861	53,042	-0,008	0,006
-427,846	197,163	0,082	0,092
-426,832	-34,127	-0,097	-0,039
-425,817	-200,000	0,006	-0,066
-424,803	-57,967	0,118	-0,038
-423,788	-200,000	-0,002	0,020
-422,773	800,000	0,065	0,182
-421,759	342,513	-0,044	-0,063
-420,744	128,494	0,063	0,059
-419,730	-200,000	-0,036	-0,187
-418,715	197,941	-0,028	0,032
-417,701	-15,210	0,040	-0,019
-416,686	800,000	-0,007	-0,020
-415,671	494,818	-0,041	0,069
-414,657	-200,000	0,038	-0,171
-413,642	102,938	-0,099	0,085
-412,628	190,018	-0,048	0,053
-411,613	800,000	-0,024	0,058
-410,598	398,477	0,078	0,121
-409,584	-119,739	0,073	0,009
-408,569	-75,500	-0,040	-0,010
-407,555	742,524	-0,045	0,089
-406,540	-106,985	-0,039	-0,006
-405,525	60,397	0,020	-0,014
-404,511	-94,371	0,121	-0,024
-403,496	800,000	0,028	-0,085
-402,482	-200,000	-0,015	-0,137
-401,467	-135,631	-0,074	0,006
-400,452	-200,000	0,035	0,139
-399,438	-200,000	-0,007	-0,049
-398,423	-127,220	0,099	0,010
-397,409	-111,511	-0,085	-0,013
-396,394	-60,602	-0,161	0,050
-395,379	212,858	0,033	-0,038
-394,365	-39,018	0,161	0,062
-393,350	-63,692	-0,102	-0,031
-392,336	-136,257	-0,056	0,005
-391,321	-200,000	0,002	-0,052
-390,306	-0,042	0,058	0,030
-389,292	403,504	0,034	-0,053
-388,277	-200,000	0,004	-0,086
-387,263	-200,000	-0,015	-0,065
-386,248	800,000	0,021	0,052
-385,233	-22,042	-0,070	0,031
-384,219	-3,717	-0,050	0,025
-383,204	-136,363	0,034	0,003
-382,190	800,000	-0,046	0,098
-381,175	800,000	0,021	-0,051
-380,160	541,985	0,027	-0,047
-379,146	-99,940	0,148	0,027
-378,131	167,156	0,068	0,071
-377,117	-154,911	-0,071	0,003
-376,102	84,215	-0,137	-0,110
-375,088	2,807	-0,114	-0,061
-374,073	-200,000	0,035	-0,132
-373,058	-38,867	0,138	0,053
-372,044	800,000	-0,055	-0,132
-371,029	800,000	0,032	0,083
-370,015	479,235	-0,035	0,058
-369,000	46,791	0,028	0,019
-367,985	-200,000	-0,002	-0,028
-366,971	33,586	0,028	-0,018
-365,956	-166,303	-0,075	-0,002
-364,942	292,942	0,123	-0,165
-363,927	6,795	0,115	-0,063
-362,912	-6,666	-0,014	-0,007
-361,898	-200,000	0,013	-0,058
-360,883	242,400	0,061	-0,074
-359,869	76,507	0,121	-0,094
-358,854	161,425	-0,116	0,120
-357,839	800,000	0,058	0,162
-356,825	60,425	-0,074	-0,054
-355,810	38,590	0,004	-0,003
-354,796	52,416	-0,094	-0,066
-353,781	417,589	0,041	0,064
-352,766	70,084	-0,087	0,066
-351,752	2,638	0,018	0,009
-350,737	425,793	0,065	0,103
-349,723	28,719	0,025	0,016
-348,708	-83,016	0,078	0,018
-347,693	141,139	0,050	-0,049
-346,679	-200,000	0,022	-0,092
-345,664	44,547	-0,076	0,051
-344,650	227,990	0,033	-0,039
-343,635	-200,000	0,001	-0,149
-342,620	-200,000	0,017	0,063
-341,606	27,019	-0,027	0,017
-340,591	361,833	0,049	0,072
-339,577	-30,180	0,041	0,017
-338,562	-43,699	-0,149	-0,055
-337,548	-156,562	0,073	-0,003
-336,533	470,187	-0,042	-0,070
-335,518	1,404	-0,039	-0,020
-334,504	800,000	0,042	0,110
-333,489	-81,408	0,060	-0,014
-332,475	-68,905	-0,082	-0,023
-331,460	173,107	-0,102	0,108
-330,445	800,000	0,058	-0,126
-329,431	-200,000	0,031	0,181
-328,416	-19,937	0,083	-0,037
-327,402	-200,000	-0,031	0,104
-326,387	-59,413	0,093	-0,029
-325,372	-81,024	-0,121	-0,029
-324,358	302,397	-0,031	-0,042
-323,343	42,662	-0,077	-0,051
-322,329	-127,769	-0,071	-0,007
-321,314	181,882	-0,099	0,106
-320,299	136,815	-0,058	0,055
-319,285	800,000	0,062	-0,159
-318,270	102,924	-0,052	0,045
-317,256	31,076	-0,088	-0,055
-316,241	-114,664	0,044	-0,006
-315,226	381,434	-0,063	0,094
-314,212	-200,000	-0,015	0,108
-313,197	-33,755	0,044	-0,018
-312,183	-131,888	0,086	0,008
-311,168	130,491	-0,030	0,028
-310,153	29,798	-0,130	-0,081
-309,139	-125,186	-0,142	-0,016
-308,124	158,356	-0,039	0,040
-307,110	248,813	0,044	0,055
-306,095	-34,022	0,069	0,028
-305,080	515,790	-0,035	-0,060
-304,066	102,384	0,099	-0,084
-303,051	41,048	-0,061	0,040
-302,037	-73,583	-0,098	-0,026
-301,022	-97,944	0,084	-0,016
-300,008	280,961	-0,070	-0,092
-298,993	-157,986	0,117	0,005
-297,978	800,000	-0,046	-0,107
-296,964	-200,000	0,019	-0,106
-295,949	-150,731	0,205	-0,011
-294,935	357,837	0,100	-0,146
-293,920	-200,000	0,042	-0,210
-292,905	151,584	-0,041	-0,041
-291,891	273,615	-0,068	0,089
-290,876	-123,788	0,147	0,017
-289,862	155,333	0,063	0,064
-288,847	78,413	-0,057	0,045
-287,832	-105,463	-0,128	0,021
-286,818	-139,825	0,043	-0,003
-285,803	-115,957	0,136	0,018
-284,789	800,000	-0,040	0,102
-283,774	119,840	0,155	0,140
-282,759	400,385	0,021	-0,033
-281,745	-66,785	-0,153	0,044
-280,730	-200,000	-0,002	0,155
-279,716	-200,000	0,001	-0,146
-278,701	800,000	0,027	-0,082
-277,686	752,218	0,037	0,073
-276,672	-56,780	0,157	0,051
-275,657	-200,000	0,033	-0,122
-274,643	-81,828	-0,105	0,025
-273,628	800,000	0,044	0,122
-272,613	800,000	-0,048	0,124
-271,599	-38,934	0,213	0,081
-270,584	-200,000	0,005	0,035
-269,570	-200,000	0,006	-0,020
-268,555	259,714	-0,077	0,097
-267,540	-200,000	-0,003	0,087
-266,526	255,409	-0,074	-0,093
-265,511	-69,086	-0,032	-0,009
-264,497	-59,370	-0,057	0,018
-263,482	4,456	0,069	0,037
-262,467	642,341	0,027	0,051
-261,453	37,212	-0,080	-0,052
-260,438	117,660	0,064	-0,058
-259,424	800,000	-0,060	-0,164
-258,409	-200,000	-0,022	-0,115
-257,395	-136,497	0,026	-0,002
-256,380	-104,901	0,117	-0,019
-255,365	679,689	-0,012	-0,022
-254,351	-200,000	0,013	-0,082
-253,336	19,778	-0,052	0,030
-252,322	-200,000	-0,006	-0,071
-251,307	-20,584	-0,095	-0,043
-250,292	435,643	0,036	-0,057
-249,278	-200,000	-0,016	0,065
-248,263	800,000	0,092	0,193
-247,249	61,525	0,076	-0,055
-246,234	800,000	-0,019	-0,047
-245,219	243,163	-0,132	-0,161
-244,205	-13,698	0,066	-0,031
-243,190	256,778	-0,020	-0,025
-242,176	205,805	0,026	0,030
-241,161	162,325	0,024	0,024
-240,146	612,942	-0,049	-0,090
-239,132	800,000	0,022	0,070
-238,117	61,172	0,056	0,040
-237,103	25,912	-0,116	-0,071
-236,088	378,517	0,064	0,095
-235,073	-39,225	-0,010	-0,004
-234,059	275,238	-0,073	-0,095
-233,044	-156,400	-0,058	0,003
-232,030	800,000	0,017	-0,040
-231,015	-200,000	0,021	-0,100
-230,000	532,849	0,037	-0,064
-228,986	-39,820	0,094	0,036
-227,971	293,979	-0,023	-0,030
-226,957	-200,000	-0,017	0,189
-225,942	389,577	0,029	0,044
-224,927	-78,257	0,120	-0,030
-223,913	-200,000	-0,030	-0,116
-222,898	-50,200	-0,037	-0,013
-221,884	-162,848	-0,151	0,005
-220,869	-39,850	-0,091	0,035
-219,855	17,585	0,142	0,082
-218,840	570,086	0,048	0,086
-217,825	465,507	-0,022	0,035
-216,811	-73,264	-0,185	0,049
-215,796	-200,000	0,020	-0,070
-214,782	-102,530	0,076	0,013
-213,767	800,000	0,006	0,018
-212,752	93,282	0,081	-0,067
-211,738	-50,620	-0,173	-0,059
-210,723	800,000	-0,037	-0,099
-209,709	-46,835	0,113	-0,040
-208,694	-157,061	-0,146	0,006
-207,679	-144,066	-0,130	-0,009
-206,665	-154,915	0,093	-0,004
-205,650	203,145	-0,134	-0,151
-204,636	17,856	0,032	0,019
-203,621	-72,460	0,099	0,027
-202,606	-200,000	0,022	-0,087
-201,592	-120,525	-0,115	-0,014
-200,577	800,000	-0,009	0,025
-199,563	39,166	0,118	-0,077
-198,548	-53,123	0,106	0,035
-197,533	27,040	0,029	0,018
-196,519	-102,406	-0,007	-0,001
-195,504	800,000	0,037	0,084
-194,490	132,190	-0,041	0,038
-193,475	-200,000	-0,009	-0,038
-192,460	7,167	0,211	0,114
-191,446	208,414	-0,106	0,121
-190,431	800,000	0,003	-0,008
-189,417	-200,000	0,011	0,076
-188,402	303,504	0,055	0,075
-187,387	800,000	0,094	0,235
-186,373	800,000	-0,059	-0,127
-185,358	64,821	0,105	0,077
-184,344	-200,000	0,016	-0,054
-183,329	297,174	0,090	0,121
-182,315	-200,000	0,006	0,059
-181,300	-200,000	-0,018	0,069
-180,285	-167,511	-0,079	-0,002
-179,271	-90,251	0,080	-0,017
-178,256	211,651	0,041	0,047
-177,242	368,725	-0,058	-0,086
-176,227	100,581	0,042	-0,036
-175,212	800,000	-0,022	0,046
-174,198	-200,000	0,010	-0,058
-173,183	0,989	-0,047	0,024
-172,169	-60,966	0,107	-0,033
-171,154	-162,967	-0,075	0,003
-170,139	-139,744	0,061	0,005
-169,125	800,000	-0,041	-0,089
-168,110	-200,000	0,022	0,117
-167,096	-149,444	0,055	-0,003
-166,081	-152,472	-0,019	0,001
-165,066	114,925	0,020	-0,018
-164,052	-93,651	-0,032	0,006
-163,037	-6,271	0,030	-0,015
-162,023	107,141	0,136	0,118
-161,008	-49,929	-0,101	-0,035
-159,993	-63,528	0,100	-0,030
-158,979	85,342	-0,026	0,021
-157,964	-75,087	-0,120	0,031
-156,950	60,561	0,065	0,047
-155,935	98,054	-0,108	0,091
-154,920	-145,813	0,052	0,003
-153,906	-26,259	-0,142	0,061
-152,891	-85,885	0,071	0,016
-151,877	-103,376	-0,061	-0,010
-150,862	-200,000	-0,032	-0,121
-149,847	-200,000	-0,004	-0,048
-148,833	-105,963	-0,047	-0,008
-147,818	-200,000	-0,015	-0,083
-146,804	-200,000	-0,003	-0,018
-145,789	133,102	0,055	0,052
-144,775	471,573	-0,102	0,167
-143,760	-76,292	-0,072	0,018
-142,745	117,678	0,117	-0,105
-141,731	137,743	0,063	0,060
-140,716	-116,341	-0,077	0,010
-139,702	-29,852	0,028	-0,012
-138,687	501,047	-0,029	-0,049
-137,672	-200,000	0,003	0,052
-136,658	18,643	-0,105	-0,061
-135,643	227,338	-0,021	-0,025
-134,629	-200,000	-0,015	0,048
-133,614	438,110	-0,004	0,006
-132,599	34,411	0,152	-0,096
-131,585	800,000	0,007	0,019
-130,570	-200,000	-0,010	0,124
-129,556	800,000	-0,017	0,045
-128,541	-143,870	0,064	0,004
-127,526	-200,000	-0,004	-0,046
-126,512	-32,998	0,139	0,056
-125,497	-174,479	0,070	0,001
-124,483	-200,000	0,045	0,193
-123,468	-109,279	-0,031	0,005
-122,453	-142,225	-0,095	-0,007
-121,439	513,616	-0,028	0,047
-120,424	443,740	0,082	0,131
-119,410	49,924	-0,009	0,006
