DTS Sentinel unit serial number:	SN410029Multiplexer serial number:	ORYXHardware model number:	OX2-SRSoftware version number:	ORYX F/W v4,00 Oryx Data Collector v3.7.2.0data status	okinstallation	B6 Nyhavnadifferential loss correction	single-endedforward channel	channel 2reverse channel	N/Adate	2023/12/08time	03:35:08forward acquisition time	300,00reverse acquisition time	0,00gamma	499,1914k internal	0,3165k external	0,3165temperature offset calibration	1,0000default loss term (dB/km)	0,3820temperature slope calibration	1,0000multiplexer offset coefficient	1,0000multiplexer slope coefficient	1,0000fibre end	0,00T internal ref (°C)	13,12T ext. ref 1 (°C)	-3,77T ext. ref 2 (°C)	-3,77length (m)	temperature (°C)	Stokes	anti-Stokes-744,400	-64,949	0,118	-0,035
-743,385	-139,652	-0,228	0,018
-742,371	359,106	0,045	0,066
-741,356	-100,797	-0,407	0,073
-740,342	51,278	0,150	0,105
-739,327	-172,586	-0,337	0,008
-738,312	149,710	0,117	0,116
-737,298	-98,981	-0,284	-0,053
-736,283	-20,716	0,117	0,053
-735,269	-166,021	-0,285	-0,009
-734,254	60,928	0,122	0,089
-733,239	-21,542	-0,465	-0,208
-732,225	-169,872	0,209	0,005
-731,210	800,000	-0,044	-0,132
-730,196	22,914	-0,112	-0,068
-729,181	-120,220	0,108	-0,013
-728,167	87,658	-0,145	-0,118
-727,152	559,130	0,014	-0,025
-726,137	-64,591	-0,126	-0,037
-725,123	-200,000	-0,012	-0,055
-724,108	60,849	-0,134	-0,098
-723,094	-39,644	-0,180	-0,069
-722,079	-154,850	-0,199	0,010
-721,064	-13,313	0,110	0,052
-720,050	-11,327	-0,054	0,026
-719,035	442,711	-0,069	-0,112
-718,021	-200,000	-0,016	-0,112
-717,006	-32,864	-0,066	0,027
-715,991	489,732	-0,066	-0,111
-714,977	185,645	-0,002	0,002
-713,962	-200,000	-0,023	-0,084
-712,948	195,445	-0,045	-0,050
-711,933	-96,303	0,031	-0,006
-710,918	-4,068	-0,104	0,053
-709,904	-200,000	0,002	-0,081
-708,889	26,507	0,064	0,039
-707,875	-22,100	-0,101	-0,045
-706,860	-200,000	-0,007	-0,062
-705,845	458,264	-0,071	0,116
-704,831	204,198	0,052	0,059
-703,816	4,504	0,066	0,035
-702,802	-200,000	0,007	0,094
-701,787	-200,000	-0,109	0,000
-700,772	-178,420	-0,180	0,003
-699,758	800,000	-0,046	0,123
-698,743	36,353	0,043	0,028
-697,729	800,000	0,040	0,084
-696,714	239,989	-0,056	0,069
-695,699	-55,775	-0,069	0,022
-694,685	-200,000	0,013	-0,059
-693,670	-200,000	-0,028	-0,094
-692,656	-64,269	-0,197	-0,059
-691,641	8,821	-0,023	0,013
-690,627	-200,000	0,014	0,149
-689,612	708,359	-0,046	0,090
-688,597	21,202	-0,062	-0,037
-687,583	-155,759	-0,131	0,006
-686,568	800,000	0,031	-0,076
-685,554	58,139	-0,088	0,063
-684,539	134,226	0,057	0,054
-683,524	-131,040	-0,149	-0,014
-682,510	505,039	0,079	-0,135
-681,495	684,687	0,017	0,033
-680,481	7,281	-0,158	-0,087
-679,466	800,000	-0,058	-0,123
-678,451	-200,000	0,013	-0,078
-677,437	229,038	-0,025	0,029
-676,422	195,591	-0,021	0,023
-675,408	50,484	0,099	-0,069
-674,393	22,237	-0,072	-0,043
-673,378	800,000	-0,034	-0,092
-672,364	-106,820	-0,188	-0,030
-671,349	-200,000	0,044	-0,147
-670,335	-200,000	0,013	-0,060
-669,320	779,532	0,020	-0,040
-668,305	-88,673	0,040	-0,009
-667,291	-32,384	0,034	-0,014
-666,276	-8,491	-0,068	-0,033
-665,262	-174,282	0,057	-0,001
-664,247	-200,000	-0,010	-0,068
-663,232	261,554	0,057	-0,073
-662,218	-87,192	0,022	0,005
-661,203	-64,876	-0,095	0,028
-660,189	234,139	0,132	0,159
-659,174	107,248	-0,031	-0,027
-658,159	800,000	-0,033	-0,079
-657,145	-200,000	-0,009	-0,038
-656,130	-173,261	0,014	0,000
-655,116	85,831	-0,109	0,088
-654,101	101,599	-0,047	-0,040
-653,086	286,201	-0,031	0,041
-652,072	758,461	-0,038	-0,076
-651,057	797,142	-0,109	-0,221
-650,043	800,000	0,029	-0,078
-649,028	165,591	-0,049	-0,051
-648,014	-200,000	-0,013	-0,080
-646,999	-38,166	0,051	0,020
-645,984	-79,200	-0,017	0,004
-644,970	138,318	-0,039	0,038
-643,955	-200,000	0,014	0,055
-642,941	32,017	-0,051	-0,032
-641,926	-25,610	0,020	-0,008
-640,911	-87,508	-0,191	-0,042
-639,897	-19,273	0,104	-0,047
-638,882	296,141	0,068	-0,092
-637,868	379,937	-0,106	-0,159
-636,853	-122,714	0,029	-0,003
-635,838	-42,337	-0,147	-0,055
-634,824	432,924	-0,034	0,054
-633,809	-200,000	-0,001	-0,061
-632,795	-123,358	0,115	0,013
-631,780	800,000	-0,027	0,082
-630,765	28,488	-0,040	0,025
-629,751	-135,875	-0,026	-0,002
-628,736	318,596	-0,047	-0,065
-627,722	77,882	0,070	0,055
-626,707	273,095	0,058	0,076
-625,692	800,000	-0,011	0,024
-624,678	-99,108	0,031	0,006
-623,663	-11,778	0,213	0,102
-622,649	-144,246	-0,148	-0,010
-621,634	156,990	-0,071	0,072
-620,619	800,000	-0,033	-0,082
-619,605	387,116	0,052	-0,079
-618,590	395,415	-0,067	0,102
-617,576	-32,356	0,062	-0,025
-616,561	571,914	-0,057	-0,101
-615,546	60,347	-0,124	0,089
-614,532	-200,000	0,001	-0,114
-613,517	-200,000	-0,021	-0,084
-612,503	800,000	-0,073	0,169
-611,488	800,000	-0,026	-0,056
-610,474	800,000	-0,016	0,044
-609,459	21,198	0,027	0,016
-608,444	-6,996	-0,090	-0,045
-607,430	84,782	-0,137	-0,110
-606,415	800,000	0,033	-0,071
-605,401	800,000	-0,029	-0,064
-604,386	-59,015	0,111	0,035
-603,371	388,362	-0,029	0,045
-602,357	446,576	0,014	-0,023
-601,342	51,934	-0,059	0,041
-600,328	800,000	0,033	-0,069
-599,313	-200,000	-0,012	-0,083
-598,298	-200,000	-0,010	0,072
-597,284	58,893	-0,099	0,071
-596,269	232,033	0,063	0,076
-595,255	27,297	0,032	-0,020
-594,240	-35,699	-0,068	-0,027
-593,225	5,390	-0,094	0,051
-592,211	-153,247	-0,062	-0,003
-591,196	255,956	0,028	-0,036
-590,182	800,000	0,037	0,097
-589,167	-86,596	0,129	-0,029
-588,152	-200,000	-0,014	0,047
-587,138	11,966	0,089	0,050
-586,123	-60,432	-0,096	-0,030
-585,109	24,900	-0,140	-0,085
-584,094	238,276	-0,080	-0,098
-583,079	481,028	0,019	0,031
-582,065	368,703	-0,038	-0,056
-581,050	-113,568	-0,077	-0,011
-580,036	2,606	0,144	-0,076
-579,021	800,000	0,054	-0,116
-578,006	800,000	-0,065	-0,139
-576,992	418,740	-0,027	-0,042
-575,977	-103,998	-0,095	-0,016
-574,963	662,836	-0,024	-0,045
-573,948	121,280	-0,049	-0,045
-572,934	800,000	0,009	-0,021
-571,919	18,841	-0,036	-0,021
-570,904	800,000	0,024	-0,050
-569,890	-28,263	-0,059	-0,025
-568,875	-200,000	-0,054	0,186
-567,861	136,256	0,071	-0,068
-566,846	-38,301	0,103	0,040
-565,831	-32,455	-0,127	0,051
-564,817	49,831	0,113	-0,078
-563,802	257,368	-0,071	0,089
-562,788	164,166	0,074	0,076
-561,773	-200,000	-0,010	0,088
-560,758	109,120	0,057	0,050
-559,744	311,328	0,039	0,053
-558,729	-120,871	0,076	-0,009
-557,715	-53,989	-0,054	-0,018
-556,700	-9,130	0,033	-0,016
-555,685	-75,263	-0,094	0,024
-554,671	-162,109	0,051	0,002
-553,656	314,687	-0,072	0,099
-552,642	-116,098	0,092	0,012
-551,627	800,000	0,043	0,093
-550,612	-12,365	-0,030	0,014
-549,598	800,000	0,038	-0,103
-548,583	22,032	0,091	0,054
-547,569	-200,000	0,002	0,081
-546,554	800,000	0,033	-0,073
-545,539	220,932	-0,059	0,069
-544,525	152,205	0,106	-0,106
-543,510	-5,897	0,045	0,022
-542,496	112,874	0,055	-0,049
-541,481	447,087	-0,012	-0,019
-540,466	1,374	0,047	-0,024
-539,452	11,189	0,065	0,036
-538,437	-14,205	0,150	-0,070
-537,423	141,938	-0,100	0,097
-536,408	800,000	-0,048	-0,147
-535,393	118,030	-0,042	-0,038
-534,379	-162,286	-0,090	0,003
-533,364	570,001	-0,048	0,085
-532,350	-23,942	0,138	-0,060
-531,335	130,353	-0,025	0,023
-530,321	-31,668	0,071	-0,029
-529,306	-200,000	0,011	-0,075
-528,291	-115,729	-0,041	-0,006
-527,277	486,468	0,051	-0,085
-526,262	287,570	-0,021	-0,028
-525,248	-200,000	0,021	0,092
-524,233	-52,448	0,106	0,036
-523,218	-200,000	-0,022	0,098
-522,204	-164,035	-0,022	0,001
-521,189	-7,598	-0,105	0,052
-520,175	6,686	-0,086	0,047
-519,160	-26,017	0,007	0,003
-518,145	246,945	0,117	0,144
-517,131	-70,557	0,124	-0,034
-516,116	800,000	-0,087	0,175
-515,102	1,120	0,056	0,029
-514,087	21,690	-0,202	0,120
-513,072	301,081	-0,058	-0,079
-512,058	-3,191	0,048	-0,024
-511,043	-200,000	-0,018	-0,061
-510,029	-200,000	-0,008	0,046
-509,014	157,601	0,065	0,066
-507,999	-200,000	0,019	0,083
-506,985	17,119	-0,087	-0,050
-505,970	74,203	0,037	-0,029
-504,956	-19,673	0,064	-0,029
-503,941	-117,847	-0,062	-0,008
-502,926	-93,960	0,116	-0,023
-501,912	230,522	-0,080	0,095
-500,897	-136,999	-0,142	0,012
-499,883	18,379	0,090	-0,053
-498,868	33,570	-0,045	0,029
-497,853	-200,000	-0,018	-0,164
-496,839	-200,000	-0,036	0,123
-495,824	63,111	0,083	0,061
-494,810	45,009	-0,061	0,041
-493,795	388,002	0,078	-0,119
-492,781	800,000	-0,016	0,048
-491,766	-87,691	-0,016	-0,003
-490,751	-200,000	0,002	-0,102
-489,737	142,956	-0,036	-0,035
-488,722	49,511	-0,028	-0,019
-487,708	800,000	0,030	0,086
-486,693	800,000	-0,025	0,058
-485,678	-98,873	-0,100	0,018
-484,664	254,871	-0,062	-0,077
-483,649	116,772	-0,145	-0,129
-482,635	23,327	-0,045	0,027
-481,620	25,999	0,090	0,055
-480,605	800,000	0,025	-0,060
-479,591	87,940	-0,120	0,097
-478,576	-200,000	0,017	-0,094
-477,562	800,000	0,043	-0,128
-476,547	28,365	-0,097	-0,059
-475,532	591,897	-0,038	-0,068
-474,518	-200,000	0,014	0,048
-473,503	800,000	-0,008	0,020
-472,489	-200,000	0,006	-0,020
-471,474	46,347	0,112	0,075
-470,459	97,626	0,001	0,001
-469,445	-82,366	-0,165	0,039
-468,430	-34,178	0,044	-0,018
-467,416	61,309	0,048	-0,034
-466,401	-200,000	0,026	-0,132
-465,386	-197,085	0,044	0,000
-464,372	765,872	0,075	0,148
-463,357	-200,000	0,001	-0,020
-462,343	56,376	-0,056	-0,039
-461,328	58,169	-0,036	-0,026
-460,313	-200,000	-0,005	-0,147
-459,299	-200,000	-0,024	0,079
-458,284	-14,589	0,013	-0,006
-457,270	49,418	-0,053	0,036
-456,255	-200,000	-0,007	-0,107
-455,241	102,934	-0,039	-0,033
-454,226	1,757	-0,041	0,022
-453,211	-8,055	0,083	0,041
-452,197	522,239	0,019	-0,032
-451,182	62,351	0,066	-0,048
-450,168	800,000	-0,015	-0,033
-449,153	31,932	-0,034	0,021
-448,138	68,197	-0,080	0,060
-447,124	489,292	0,029	0,049
-446,109	-81,253	0,087	-0,021
-445,095	-145,313	-0,035	0,002
-444,080	-200,000	-0,031	0,142
-443,065	-200,000	-0,022	0,074
-442,051	-139,195	0,095	-0,007
-441,036	-24,817	-0,061	-0,026
-440,022	-41,002	-0,066	0,025
-439,007	-200,000	0,000	-0,074
-437,992	80,325	0,071	0,055
-436,978	-98,982	0,206	0,038
-435,963	-148,706	0,078	0,005
-434,949	-72,709	-0,088	0,023
-433,934	96,213	-0,060	0,050
-432,919	-70,159	0,043	-0,012
-431,905	-114,198	0,029	-0,004
-430,890	660,924	0,105	0,198
-429,876	800,000	0,035	-0,097
-428,861	-200,000	-0,028	-0,133
-427,846	442,524	-0,035	-0,056
-426,832	-200,000	0,009	0,031
-425,817	529,538	0,091	-0,157
-424,803	-200,000	0,013	-0,227
-423,788	219,102	-0,023	0,027
-422,773	0,579	0,010	0,005
-421,759	27,458	-0,077	-0,047
-420,744	-139,565	0,075	-0,006
-419,730	-89,352	0,117	-0,025
-418,715	-200,000	-0,018	0,071
-417,701	-95,717	0,086	-0,017
-416,686	4,631	0,153	0,081
-415,671	347,120	0,047	0,068
-414,657	800,000	0,031	0,070
-413,642	103,213	-0,096	0,082
-412,628	-77,987	-0,082	-0,020
-411,613	432,332	0,071	-0,112
-410,598	-122,222	-0,077	-0,009
-409,584	79,870	-0,029	0,022
-408,569	-149,573	0,088	0,005
-407,555	-200,000	-0,000	-0,042
-406,540	363,484	-0,114	0,167
-405,525	-161,521	0,145	0,005
-404,511	20,541	-0,137	-0,080
-403,496	46,196	0,055	0,037
-402,482	-127,247	0,067	0,007
-401,467	-200,000	0,011	0,102
-400,452	-147,988	0,069	0,004
-399,438	-200,000	0,000	0,087
-398,423	172,925	-0,057	0,059
-397,409	-114,658	0,111	-0,015
-396,394	178,755	-0,087	-0,092
-395,379	200,135	0,062	0,069
-394,365	595,749	0,089	0,161
-393,350	-200,000	0,024	-0,097
-392,336	170,185	-0,085	-0,088
-391,321	-43,834	-0,089	-0,032
-390,306	81,974	-0,114	-0,090
-389,292	-27,243	0,089	0,037
-388,277	13,955	-0,081	-0,046
-387,263	454,933	0,048	0,078
-386,248	260,683	-0,064	0,080
-385,233	-85,622	0,144	-0,032
-384,219	178,345	-0,057	-0,060
-383,204	104,760	-0,088	-0,075
-382,190	-27,022	-0,016	-0,007
-381,175	-15,844	0,072	0,033
-380,160	-92,363	0,047	-0,010
-379,146	465,324	-0,050	0,081
-378,131	87,335	0,071	0,057
-377,117	93,221	-0,036	0,029
-376,102	24,903	-0,064	-0,039
-375,088	-47,840	0,055	0,019
-374,073	478,146	0,040	0,067
-373,058	165,339	0,128	0,131
-372,044	644,358	-0,065	0,121
-371,029	-15,126	0,063	0,029
-370,015	281,174	-0,056	-0,072
-369,000	800,000	-0,066	-0,133
-367,985	175,532	-0,088	0,093
-366,971	-200,000	-0,036	-0,182
-365,956	264,651	-0,043	0,055
-364,942	-200,000	0,002	-0,020
-363,927	47,823	-0,087	0,059
-362,912	800,000	-0,042	0,102
-361,898	-200,000	-0,009	-0,137
-360,883	-125,924	-0,067	-0,007
-359,869	76,766	-0,126	-0,097
-358,854	-68,160	0,105	0,029
-357,839	398,112	-0,099	0,151
-356,825	-147,154	0,211	-0,013
-355,810	-200,000	0,035	-0,182
-354,796	-14,211	-0,114	-0,053
-353,781	-170,272	-0,060	0,001
-352,766	-191,830	-0,187	-0,001
-351,752	-200,000	0,011	-0,075
-350,737	-200,000	0,032	0,110
-349,723	384,394	0,048	0,071
-348,708	-200,000	0,006	0,031
-347,693	-123,293	-0,078	-0,009
-346,679	271,110	0,067	-0,086
-345,664	281,898	0,116	0,151
-344,650	-146,923	-0,076	0,005
-343,635	-36,825	0,072	-0,028
-342,620	-47,042	0,011	-0,004
-341,606	-200,000	-0,012	0,053
-340,591	-120,951	0,079	0,010
-339,577	84,676	0,034	-0,027
-338,562	-200,000	-0,021	-0,070
-337,548	50,884	-0,046	0,032
-336,533	40,071	-0,089	0,058
-335,518	800,000	-0,024	0,054
-334,504	-155,501	0,104	0,005
-333,489	-200,000	-0,002	0,117
-332,475	-108,673	-0,078	0,012
-331,460	-200,000	-0,044	-0,185
-330,445	-52,962	-0,076	0,025
-329,431	56,385	0,069	-0,048
-328,416	189,337	0,041	-0,045
-327,402	-200,000	-0,027	0,091
-326,387	236,845	-0,061	0,073
-325,372	800,000	-0,036	0,074
-324,358	-200,000	0,009	0,041
-323,343	-200,000	0,006	-0,062
-322,329	-200,000	-0,007	0,049
-321,314	42,288	0,089	0,058
-320,299	202,450	0,064	0,072
-319,285	78,461	0,065	0,050
-318,270	93,216	-0,092	-0,076
-317,256	-108,418	0,002	0,000
-316,241	328,055	-0,031	0,044
-315,226	-148,955	0,214	0,012
-314,212	530,517	-0,063	-0,108
-313,197	509,449	0,055	-0,093
-312,183	-93,176	-0,079	-0,016
-311,168	-8,123	-0,029	0,014
-310,153	800,000	0,043	0,119
-309,139	333,787	0,033	-0,046
-308,124	380,413	0,056	0,084
-307,110	-200,000	-0,004	-0,188
-306,095	131,458	0,123	0,114
-305,080	-46,461	0,062	-0,022
-304,066	-113,663	0,045	-0,006
-303,051	142,494	-0,010	0,010
-302,037	-200,000	-0,020	-0,110
-301,022	-200,000	-0,010	-0,141
-300,008	-200,000	0,008	0,060
-298,993	800,000	0,018	0,039
-297,978	-71,358	-0,096	0,026
-296,964	-200,000	-0,008	-0,068
-295,949	433,163	-0,012	0,019
-294,935	116,625	-0,034	0,030
-293,920	-99,479	0,087	-0,016
-292,905	-17,520	0,118	-0,053
-291,891	103,243	0,076	0,065
-290,876	-55,818	-0,081	-0,026
-289,862	800,000	0,030	-0,093
-288,847	800,000	0,010	0,031
-287,832	-200,000	-0,001	-0,103
-286,818	-89,079	0,141	-0,030
-285,803	69,152	0,134	-0,100
-284,789	-103,329	-0,091	-0,015
-283,774	-200,000	0,013	-0,107
-282,759	648,242	0,041	0,076
-281,745	-71,514	-0,032	-0,009
-280,730	-24,023	-0,048	-0,021
-279,716	-200,000	0,003	0,074
-278,701	-60,012	0,073	0,022
-277,686	241,625	0,061	0,074
-276,672	545,970	0,046	-0,080
-275,657	-24,114	0,094	0,040
-274,643	-200,000	-0,024	-0,108
-273,628	535,198	-0,039	-0,067
-272,613	84,084	-0,087	-0,069
-271,599	24,359	0,056	0,033
-270,584	585,226	0,079	0,142
-269,570	-200,000	0,004	-0,112
-268,555	15,132	-0,065	-0,036
-267,540	115,085	-0,091	-0,080
-266,526	57,018	-0,057	0,040
-265,511	104,809	-0,084	-0,071
-264,497	45,527	0,043	0,029
-263,482	-200,000	0,003	0,107
-262,467	-33,000	-0,046	0,018
-261,453	800,000	0,038	0,114
-260,438	800,000	-0,082	-0,193
-259,424	558,240	-0,014	-0,025
-258,409	-99,861	-0,111	0,020
-257,395	78,787	0,035	0,027
-256,380	169,597	0,052	0,054
-255,365	-171,619	-0,102	0,002
-254,351	-200,000	-0,032	0,142
-253,336	-154,796	-0,041	-0,002
-252,322	-30,859	0,061	-0,025
-251,307	-200,000	-0,052	-0,224
-250,292	85,559	0,028	-0,022
-249,278	-38,941	0,033	0,013
-248,263	-41,949	0,089	-0,033
-247,249	-200,000	0,005	0,050
-246,234	800,000	0,034	0,092
-245,219	287,720	-0,035	-0,046
-244,205	-6,621	-0,083	-0,041
-243,190	138,921	0,034	-0,032
-242,176	165,388	0,030	-0,031
-241,161	415,665	0,077	0,119
-240,146	-168,628	0,065	-0,002
-239,132	339,510	-0,030	0,043
-238,117	440,981	-0,058	-0,092
-237,103	134,330	-0,028	-0,027
-236,088	-12,887	-0,061	-0,028
-235,073	-125,634	0,144	-0,016
-234,059	75,615	0,064	0,049
-233,044	-130,728	0,104	-0,010
-232,030	-23,547	-0,071	0,031
-231,015	81,710	0,087	-0,068
-230,000	-179,479	-0,069	0,001
-228,986	682,576	-0,007	0,012
-227,971	800,000	-0,048	-0,128
-226,957	-81,184	0,048	-0,011
-225,942	240,957	0,075	0,090
-224,927	223,439	-0,072	-0,084
-223,913	64,826	0,048	-0,035
-222,898	171,644	-0,027	-0,028
-221,884	-200,000	0,001	0,035
-220,869	51,251	-0,027	0,019
-219,855	-200,000	-0,005	0,052
-218,840	800,000	-0,043	0,116
-217,825	-8,296	0,044	0,021
-216,811	-147,587	-0,070	-0,004
-215,796	19,478	-0,122	0,070
-214,782	-20,316	-0,202	0,089
-213,767	-108,416	0,131	-0,020
-212,752	4,927	0,086	0,045
-211,738	-200,000	-0,030	0,213
-210,723	-57,456	0,098	0,031
-209,709	191,355	0,021	0,022
-208,694	144,781	0,047	-0,046
-207,679	-70,332	-0,044	0,012
-206,665	301,106	-0,029	-0,039
-205,650	-5,748	0,116	0,057
-204,636	548,068	-0,034	0,059
-203,621	-64,673	-0,110	0,032
-202,606	-62,700	-0,074	0,022
-201,592	800,000	0,039	-0,114
-200,577	427,380	0,033	-0,051
-199,563	206,959	-0,080	0,089
-198,548	-78,961	0,080	-0,020
-197,533	-200,000	-0,002	0,018
-196,519	-12,166	0,172	-0,081
-195,504	-92,553	0,046	0,009
-194,490	-200,000	-0,004	0,089
-193,475	-26,533	-0,051	-0,021
-192,460	800,000	0,060	-0,142
-191,446	800,000	-0,007	-0,015
-190,431	-88,190	0,052	0,011
-189,417	43,711	0,057	0,038
-188,402	-200,000	-0,006	-0,021
-187,387	422,710	-0,033	-0,051
-186,373	800,000	-0,016	0,042
-185,358	85,274	-0,100	0,079
-184,344	-200,000	-0,014	0,110
-183,329	800,000	0,054	0,122
-182,315	-200,000	-0,003	0,064
-181,300	29,547	-0,044	0,027
-180,285	-200,000	0,055	-0,181
-179,271	-28,286	-0,156	-0,065
-178,256	-153,292	0,127	-0,006
-177,242	-200,000	-0,022	0,070
-176,227	196,153	-0,042	0,046
-175,212	800,000	0,035	0,075
-174,198	-200,000	-0,013	0,086
-173,183	32,559	-0,103	-0,064
-172,169	-23,706	-0,079	0,034
-171,154	-200,000	-0,014	-0,110
-170,139	242,503	-0,076	0,092
-169,125	-200,000	-0,006	0,089
-168,110	503,539	-0,051	0,085
-167,096	800,000	0,030	-0,067
-166,081	111,393	0,087	-0,075
-165,066	126,878	-0,097	-0,088
-164,052	350,943	0,034	-0,049
-163,037	-33,233	0,046	0,018
-162,023	56,734	0,057	-0,040
-161,008	-145,135	0,146	-0,009
-159,993	-119,741	-0,025	-0,003
-158,979	60,844	-0,117	0,083
-157,964	91,364	-0,089	-0,072
-156,950	165,084	0,119	-0,121
-155,935	-200,000	0,023	0,132
-154,920	800,000	-0,009	-0,028
-153,906	373,259	0,069	-0,101
-152,891	2,958	0,133	0,069
-151,877	174,429	-0,086	-0,089
-150,862	57,975	-0,063	-0,045
-149,847	319,962	0,084	0,115
-148,833	-22,735	0,111	0,048
-147,818	800,000	-0,083	-0,216
-146,804	-200,000	0,046	0,236
-145,789	336,810	0,035	-0,049
-144,775	800,000	0,021	0,050
-143,760	264,809	-0,086	0,108
-142,745	8,058	-0,087	0,047
-141,731	302,370	-0,042	-0,056
-140,716	353,005	0,072	0,103
-139,702	-85,021	-0,030	0,007
-138,687	648,086	-0,013	0,025
-137,672	97,404	0,059	0,049
-136,658	-21,922	-0,134	-0,058
-135,643	-197,617	0,027	0,000
-134,629	398,822	-0,030	-0,045
-133,614	800,000	0,024	-0,062
-132,599	98,433	-0,047	0,039
-131,585	-200,000	0,027	0,186
-130,570	651,618	-0,110	0,204
-129,556	48,457	-0,029	-0,019
-128,541	-8,303	-0,081	0,039
-127,526	-200,000	0,000	-0,052
-126,512	413,155	0,050	0,076
-125,497	-77,708	-0,048	-0,012
-124,483	477,152	0,061	0,100
-123,468	14,385	-0,075	-0,042
-122,453	800,000	0,003	0,008
-121,439	690,461	0,022	-0,042
-120,424	-86,703	0,076	-0,017
-119,410	53,522	0,059	0,040
-118,395	-200,000	-0,016	0,132
