DTS Sentinel unit serial number:	SN410029Multiplexer serial number:	ORYXHardware model number:	OX2-SRSoftware version number:	ORYX F/W v4,00 Oryx Data Collector v3.7.2.0data status	okinstallation	B6 Nyhavnadifferential loss correction	single-endedforward channel	channel 2reverse channel	N/Adate	2023/12/08time	07:00:08forward acquisition time	300,00reverse acquisition time	0,00gamma	499,1914k internal	0,3165k external	0,3165temperature offset calibration	1,0000default loss term (dB/km)	0,3820temperature slope calibration	1,0000multiplexer offset coefficient	1,0000multiplexer slope coefficient	1,0000fibre end	0,00T internal ref (°C)	13,07T ext. ref 1 (°C)	-3,49T ext. ref 2 (°C)	-3,48length (m)	temperature (°C)	Stokes	anti-Stokes-744,400	233,159	0,053	0,064
-743,385	11,458	-0,234	-0,132
-742,371	-114,370	0,241	0,034
-741,356	-131,933	-0,322	-0,031
-740,342	-200,000	0,025	0,128
-739,327	-106,390	-0,196	0,032
-738,312	-36,818	0,177	0,069
-737,298	-63,968	-0,428	0,128
-736,283	88,070	0,085	-0,069
-735,269	-152,806	-0,309	-0,016
-734,254	173,997	0,101	0,107
-733,239	-25,696	-0,498	-0,215
-732,225	-9,347	0,216	0,105
-731,210	800,000	-0,063	0,156
-730,196	281,505	0,047	0,062
-729,181	371,488	0,013	0,020
-728,167	271,450	0,067	-0,087
-727,152	800,000	-0,020	-0,048
-726,137	-60,540	-0,103	-0,032
-725,123	460,419	-0,053	-0,087
-724,108	800,000	0,043	-0,118
-723,094	800,000	-0,033	-0,067
-722,079	-133,697	-0,210	-0,019
-721,064	-200,000	0,024	0,122
-720,050	-200,000	0,006	-0,090
-719,035	390,471	-0,032	0,049
-718,021	292,670	-0,023	-0,031
-717,006	10,751	-0,111	-0,062
-715,991	71,133	-0,036	-0,027
-714,977	728,836	-0,062	-0,122
-713,962	-55,599	-0,061	0,020
-712,948	-30,036	-0,029	0,012
-711,933	-51,185	-0,124	-0,042
-710,918	238,621	0,129	-0,158
-709,904	591,264	-0,090	-0,164
-708,889	-200,000	-0,024	-0,108
-707,875	-16,568	-0,101	-0,047
-706,860	-47,964	-0,158	-0,056
-705,845	206,346	0,127	0,146
-704,831	-200,000	0,001	-0,013
-703,816	-102,530	-0,036	0,006
-702,802	-191,260	-0,128	-0,001
-701,787	-109,332	-0,104	0,016
-700,772	-200,000	-0,023	-0,124
-699,758	-3,041	0,012	-0,006
-698,743	72,064	0,132	0,101
-697,729	-24,959	-0,034	0,015
-696,714	110,192	0,055	-0,048
-695,699	-200,000	-0,006	0,080
-694,685	225,322	0,064	-0,077
-693,670	-124,278	-0,223	-0,025
-692,656	739,049	-0,034	-0,068
-691,641	-200,000	-0,008	0,045
-690,627	372,984	0,084	-0,126
-689,612	-64,771	-0,197	0,058
-688,597	-200,000	-0,012	-0,072
-687,583	-200,000	0,020	-0,079
-686,568	118,492	-0,127	-0,115
-685,554	57,674	0,061	-0,043
-684,539	132,381	-0,115	-0,109
-683,524	11,562	-0,054	-0,030
-682,510	-75,946	-0,096	-0,025
-681,495	77,627	-0,113	-0,088
-680,481	-128,836	-0,071	-0,007
-679,466	314,699	-0,070	-0,097
-678,451	132,623	0,085	-0,081
-677,437	49,085	-0,044	-0,030
-676,422	266,896	0,060	-0,077
-675,408	18,413	-0,165	0,097
-674,393	461,976	0,003	0,006
-673,378	24,430	-0,056	-0,034
-672,364	380,968	0,048	-0,073
-671,349	24,127	-0,144	0,087
-670,335	-200,000	0,002	-0,051
-669,320	-42,849	0,148	-0,055
-668,305	800,000	-0,019	-0,061
-667,291	148,545	0,077	0,077
-666,276	55,327	-0,052	-0,037
-665,262	318,874	0,009	-0,013
-664,247	-200,000	-0,030	-0,110
-663,232	-134,037	0,061	0,005
-662,218	-124,038	-0,083	-0,009
-661,203	561,660	0,036	-0,065
-660,189	300,028	0,004	-0,006
-659,174	-200,000	-0,020	0,066
-658,159	-71,012	-0,257	0,070
-657,145	800,000	-0,028	-0,078
-656,130	-137,434	-0,151	-0,012
-655,116	-44,664	0,017	-0,006
-654,101	-118,646	-0,043	-0,005
-653,086	-200,000	-0,029	0,099
-652,072	1,071	0,011	0,006
-651,057	-175,780	-0,065	-0,001
-650,043	57,621	-0,054	0,038
-649,028	267,652	0,061	0,078
-648,014	800,000	0,039	-0,109
-646,999	2,182	-0,058	-0,031
-645,984	-123,578	-0,075	-0,009
-644,970	131,839	-0,054	-0,051
-643,955	311,301	-0,056	-0,077
-642,941	295,291	-0,030	-0,040
-641,926	466,836	-0,088	-0,145
-640,911	361,956	0,091	-0,135
-639,897	85,868	-0,098	-0,079
-638,882	-95,152	0,067	-0,013
-637,868	531,286	-0,075	-0,131
-636,853	93,232	0,008	0,006
-635,838	800,000	-0,030	-0,095
-634,824	10,392	0,053	0,030
-633,809	-200,000	0,039	0,219
-632,795	-200,000	0,002	-0,045
-631,780	-200,000	0,012	0,051
-630,765	-65,982	-0,143	-0,042
-629,751	-200,000	0,008	-0,075
-628,736	310,926	-0,052	-0,072
-627,722	53,687	-0,038	0,026
-626,707	800,000	-0,045	0,107
-625,692	-200,000	0,006	0,099
-624,678	100,505	-0,085	-0,072
-623,663	573,715	0,043	-0,077
-622,649	-102,014	-0,078	0,014
-621,634	-200,000	-0,012	-0,045
-620,619	128,520	-0,128	-0,119
-619,605	-200,000	-0,135	0,000
-618,590	-142,224	0,022	-0,002
-617,576	-39,901	0,074	0,028
-616,561	178,801	0,039	-0,042
-615,546	800,000	-0,022	-0,052
-614,532	-194,864	-0,129	-0,001
-613,517	800,000	-0,030	-0,079
-612,503	800,000	-0,019	-0,058
-611,488	280,822	0,026	0,034
-610,474	67,540	0,027	0,020
-609,459	-200,000	0,024	0,145
-608,444	800,000	-0,070	-0,186
-607,430	-164,027	-0,038	-0,001
-606,415	-200,000	0,019	-0,083
-605,401	534,382	-0,088	-0,153
-604,386	347,905	0,088	0,127
-603,371	-200,000	0,008	0,052
-602,357	-166,770	-0,126	0,004
-601,342	-114,501	-0,065	0,009
-600,328	15,531	-0,116	0,066
-599,313	800,000	-0,058	-0,125
-598,298	-200,000	0,000	-0,112
-597,284	136,503	0,020	-0,019
-596,269	-200,000	0,019	0,110
-595,255	443,212	0,059	0,095
-594,240	-62,070	0,140	0,042
-593,225	-111,552	-0,242	-0,036
-592,211	-200,000	-0,016	-0,053
-591,196	-69,701	-0,068	0,019
-590,182	800,000	-0,035	-0,109
-589,167	236,236	0,082	0,099
-588,152	-135,593	0,122	0,010
-587,138	-112,989	-0,031	0,004
-586,123	-19,358	-0,115	0,052
-585,109	701,279	-0,004	-0,008
-584,094	-6,708	-0,075	-0,037
-583,079	-100,166	0,161	0,029
-582,065	-200,000	-0,003	0,120
-581,050	800,000	-0,003	-0,008
-580,036	245,254	-0,023	-0,029
-579,021	800,000	0,046	-0,110
-578,006	758,894	-0,068	-0,135
-576,992	800,000	0,020	-0,047
-575,977	414,783	-0,099	0,155
-574,963	800,000	0,038	-0,091
-573,948	-200,000	-0,002	-0,031
-572,934	674,156	0,036	-0,069
-571,919	215,452	-0,086	-0,100
-570,904	-75,108	-0,050	0,013
-569,890	-200,000	0,014	0,072
-568,875	144,738	-0,011	-0,011
-567,861	81,355	-0,143	0,112
-566,846	-100,667	-0,103	-0,018
-565,831	-63,849	-0,121	-0,036
-564,817	624,140	0,024	0,044
-563,802	-72,739	-0,054	-0,014
-562,788	-115,232	0,117	-0,016
-561,773	173,549	-0,125	0,132
-560,758	-200,000	0,002	-0,047
-559,744	-86,433	0,102	-0,023
-558,729	-49,106	0,106	0,037
-557,715	491,241	-0,031	-0,052
-556,700	-168,947	-0,079	-0,002
-555,685	18,160	0,065	0,038
-554,671	45,829	0,104	-0,070
-553,656	84,994	-0,052	0,041
-552,642	419,903	-0,016	0,025
-551,627	-200,000	0,013	-0,090
-550,612	-173,913	-0,145	0,003
-549,598	-200,000	-0,004	0,082
-548,583	453,826	-0,038	0,062
-547,569	-28,350	-0,095	-0,040
-546,554	-200,000	0,005	0,082
-545,539	76,492	0,068	0,052
-544,525	176,233	0,019	-0,020
-543,510	136,915	0,038	-0,036
-542,496	-59,674	-0,087	-0,027
-541,481	38,872	0,042	-0,028
-540,466	800,000	-0,048	0,116
-539,452	168,065	-0,053	0,055
-538,437	-81,490	0,158	-0,038
-537,423	18,493	-0,091	0,053
-536,408	-200,000	0,003	-0,083
-535,393	-51,481	0,058	-0,020
-534,379	-200,000	-0,023	-0,213
-533,364	126,478	0,054	0,050
-532,350	378,293	0,049	0,073
-531,335	436,056	0,065	-0,103
-530,321	-200,000	-0,002	-0,012
-529,306	-104,663	-0,133	-0,022
-528,291	33,165	0,102	0,064
-527,277	106,323	-0,094	0,081
-526,262	-26,491	-0,064	-0,027
-525,248	371,752	-0,052	0,077
-524,233	574,335	-0,051	-0,091
-523,218	26,580	0,044	0,027
-522,204	-11,276	-0,059	0,028
-521,189	797,407	-0,039	0,079
-520,175	800,000	0,041	0,107
-519,160	223,955	0,032	-0,038
-518,145	303,412	-0,011	-0,015
-517,131	-45,137	-0,096	0,034
-516,116	-0,060	-0,051	0,027
-515,102	-108,697	-0,079	-0,012
-514,087	107,125	-0,099	-0,085
-513,072	-200,000	0,005	-0,136
-512,058	-200,000	0,004	0,127
-511,043	118,958	0,061	-0,055
-510,029	214,456	0,017	0,020
-509,014	-22,957	-0,107	0,047
-507,999	235,900	0,096	0,116
-506,985	250,875	-0,051	-0,063
-505,970	135,266	-0,121	-0,114
-504,956	800,000	-0,037	0,101
-503,941	-200,000	-0,026	0,151
-502,926	270,840	0,010	-0,013
-501,912	64,511	0,144	0,106
-500,897	107,667	-0,050	-0,043
-499,883	-200,000	0,008	-0,090
-498,868	334,944	0,029	0,041
-497,853	-61,359	0,126	0,038
-496,839	113,497	0,124	-0,109
-495,824	-200,000	0,035	-0,116
-494,810	130,330	0,187	0,174
-493,795	-147,038	0,119	-0,007
-492,781	125,753	0,048	-0,044
-491,766	-131,351	-0,059	0,006
-490,751	-38,972	-0,108	-0,041
-489,737	-108,978	0,065	-0,010
-488,722	-200,000	-0,007	0,137
-487,708	240,646	0,062	-0,075
-486,693	-131,007	-0,090	-0,009
-485,678	-45,112	-0,048	-0,017
-484,664	-200,000	0,006	0,106
-483,649	800,000	-0,009	0,023
-482,635	-42,728	-0,044	0,016
-481,620	-158,499	0,117	-0,005
-480,605	800,000	-0,014	0,030
-479,591	-200,000	-0,011	0,036
-478,576	-122,710	0,073	-0,008
-477,562	-52,484	-0,081	0,027
-476,547	64,059	-0,094	-0,069
-475,532	212,043	-0,104	-0,120
-474,518	106,449	0,073	-0,063
-473,503	99,060	-0,008	-0,007
-472,489	-63,178	0,110	0,033
-471,474	161,638	-0,046	0,047
-470,459	-200,000	-0,007	-0,034
-469,445	-22,789	-0,065	-0,028
-468,430	200,631	0,033	-0,037
-467,416	-200,000	0,003	0,017
-466,401	2,690	0,082	0,043
-465,386	-50,340	0,132	-0,045
-464,372	15,994	0,170	-0,097
-463,357	-134,148	-0,107	-0,009
-462,343	672,784	0,089	-0,169
-461,328	-164,761	0,122	0,004
-460,313	800,000	0,006	0,018
-459,299	-186,104	-0,076	0,001
-458,284	127,662	-0,041	-0,038
-457,270	-200,000	0,010	-0,084
-456,255	78,274	-0,099	-0,077
-455,241	-200,000	0,005	0,019
-454,226	57,829	-0,078	0,055
-453,211	-4,615	0,071	-0,035
-452,197	-24,604	0,100	0,043
-451,182	38,846	0,052	0,034
-450,168	-107,154	-0,144	-0,023
-449,153	6,844	0,063	0,034
-448,138	-200,000	0,005	0,049
-447,124	142,592	-0,076	0,073
-446,109	-131,440	0,034	-0,003
-445,095	377,069	0,084	-0,125
-444,080	-109,586	-0,141	-0,021
-443,065	74,881	-0,020	0,015
-442,051	800,000	-0,030	0,086
-441,036	-200,000	0,021	0,112
-440,022	246,304	0,089	0,109
-439,007	24,199	-0,100	0,060
-437,992	-200,000	-0,011	0,060
-436,978	15,243	-0,070	0,040
-435,963	-200,000	0,019	-0,073
-434,949	-200,000	0,021	-0,077
-433,934	-1,448	0,040	0,020
-432,919	572,937	0,064	0,114
-431,905	104,250	0,037	-0,032
-430,890	-200,000	0,015	0,061
-429,876	175,579	0,039	-0,041
-428,861	-179,357	0,074	-0,001
-427,846	-200,000	-0,002	-0,024
-426,832	-200,000	-0,008	-0,177
-425,817	19,861	-0,086	-0,050
-424,803	-200,000	0,013	0,053
-423,788	16,087	0,059	0,034
-422,773	373,398	-0,079	0,117
-421,759	-41,474	0,176	0,065
-420,744	50,269	-0,052	0,036
-419,730	289,491	-0,076	-0,100
-418,715	87,601	-0,106	-0,085
-417,701	-63,653	0,079	-0,023
-416,686	690,123	0,036	0,069
-415,671	800,000	-0,047	0,114
-414,657	-153,608	0,148	-0,007
-413,642	-200,000	-0,011	-0,041
-412,628	-134,815	-0,043	-0,004
-411,613	-79,757	-0,087	-0,021
-410,598	107,173	0,096	-0,083
-409,584	246,767	0,023	0,028
-408,569	-53,699	0,133	-0,044
-407,555	-200,000	0,010	0,053
-406,540	67,477	0,031	0,023
-405,525	752,288	0,089	-0,175
-404,511	205,893	0,043	0,048
-403,496	-62,667	0,080	-0,024
-402,482	147,157	-0,007	-0,007
-401,467	591,985	-0,089	0,160
-400,452	-200,000	-0,009	0,086
-399,438	17,690	-0,097	0,056
-398,423	-200,000	0,004	0,192
-397,409	153,297	-0,080	-0,080
-396,394	-21,343	0,077	-0,034
-395,379	-57,185	-0,076	-0,024
-394,365	54,760	0,120	-0,084
-393,350	-200,000	-0,012	0,064
-392,336	-200,000	-0,021	0,088
-391,321	162,601	-0,059	0,061
-390,306	-200,000	-0,008	-0,039
-389,292	-76,200	0,034	0,009
-388,277	222,905	-0,093	-0,109
-387,263	61,470	0,038	0,027
-386,248	800,000	0,015	-0,037
-385,233	66,185	0,118	0,087
-384,219	23,189	0,095	0,056
-383,204	-98,770	0,086	0,016
-382,190	-12,518	0,039	-0,018
-381,175	-200,000	-0,005	-0,090
-380,160	-67,332	-0,108	0,030
-379,146	-200,000	0,008	-0,097
-378,131	-40,737	0,045	-0,017
-377,117	800,000	-0,014	-0,032
-376,102	-43,929	-0,038	0,014
-375,088	800,000	0,039	-0,102
-374,073	-200,000	-0,015	-0,055
-373,058	-144,787	0,156	0,010
-372,044	-86,311	-0,077	0,017
-371,029	-200,000	-0,009	0,032
-370,015	393,510	-0,068	-0,102
-369,000	-90,820	-0,061	0,013
-367,985	-27,728	0,017	0,007
-366,971	800,000	-0,014	-0,042
-365,956	-154,257	0,039	0,002
-364,942	-47,165	-0,046	0,016
-363,927	155,304	0,079	0,078
-362,912	-65,942	-0,045	-0,013
-361,898	432,976	-0,066	0,104
-360,883	-200,000	0,007	-0,025
-359,869	173,457	0,070	-0,073
-358,854	-200,000	0,003	-0,020
-357,839	612,973	0,070	0,127
-356,825	-88,315	0,048	-0,010
-355,810	31,057	0,057	0,035
-354,796	800,000	-0,026	0,078
-353,781	-200,000	0,006	-0,045
-352,766	47,509	0,048	-0,032
-351,752	94,044	-0,086	0,070
-350,737	-175,116	-0,090	0,002
-349,723	119,224	0,096	0,086
-348,708	-200,000	0,002	0,033
-347,693	-200,000	-0,003	-0,038
-346,679	-191,768	-0,178	0,001
-345,664	-140,617	-0,072	0,005
-344,650	219,022	0,049	-0,056
-343,635	-23,097	0,157	0,068
-342,620	71,409	0,013	0,010
-341,606	263,530	0,034	0,043
-340,591	-92,645	-0,145	0,029
-339,577	-200,000	0,039	-0,182
-338,562	-200,000	-0,007	-0,181
-337,548	-123,879	-0,120	-0,014
-336,533	-29,107	0,081	-0,034
-335,518	-48,044	0,109	0,038
-334,504	158,434	-0,007	-0,007
-333,489	-47,293	-0,031	0,011
-332,475	167,728	-0,041	0,042
-331,460	-77,952	-0,075	-0,019
-330,445	192,173	0,073	0,080
-329,431	-25,586	0,111	-0,047
-328,416	503,114	-0,057	0,096
-327,402	-97,237	0,086	0,016
-326,387	90,940	-0,030	-0,024
-325,372	522,147	-0,054	0,092
-324,358	-200,000	-0,021	0,089
-323,343	404,777	-0,057	0,087
-322,329	325,232	0,055	-0,076
-321,314	-200,000	0,006	0,057
-320,299	-68,035	-0,028	0,008
-319,285	635,845	-0,021	0,038
-318,270	800,000	-0,034	-0,081
-317,256	-200,000	0,006	0,107
-316,241	513,623	0,028	0,047
-315,226	108,710	-0,040	0,034
-314,212	-175,155	-0,008	0,000
-313,197	800,000	0,072	-0,217
-312,183	800,000	-0,067	0,138
-311,168	-63,559	-0,099	-0,029
-310,153	10,797	0,130	-0,072
-309,139	-200,000	-0,020	-0,140
-308,124	800,000	-0,045	0,091
-307,110	95,295	0,008	-0,007
-306,095	364,875	0,046	0,068
-305,080	800,000	-0,014	0,042
-304,066	-200,000	-0,008	-0,080
-303,051	-102,218	-0,109	0,019
-302,037	-115,079	0,068	0,009
-301,022	371,572	-0,054	0,080
-300,008	800,000	0,041	0,101
-298,993	-200,000	-0,005	-0,038
-297,978	800,000	-0,025	-0,064
-296,964	355,127	0,076	-0,110
-295,949	-119,370	0,088	0,011
-294,935	18,756	0,151	0,087
-293,920	53,168	0,003	0,002
-292,905	-172,541	0,195	0,004
-291,891	-200,000	0,057	0,187
-290,876	-73,031	0,100	0,026
-289,862	-13,963	-0,068	0,032
-288,847	796,829	-0,059	-0,118
-287,832	390,866	0,045	0,068
-286,818	-200,000	-0,004	-0,014
-285,803	232,614	0,099	0,118
-284,789	444,826	0,079	0,125
-283,774	75,552	0,110	0,084
-282,759	69,642	-0,044	-0,033
-281,745	-57,543	-0,125	0,039
-280,730	80,750	-0,092	-0,072
-279,716	800,000	0,016	0,035
-278,701	-200,000	0,042	0,191
-277,686	800,000	-0,029	0,064
-276,672	-14,126	0,108	-0,050
-275,657	-130,602	0,095	0,009
-274,643	531,223	-0,115	0,197
-273,628	34,269	0,066	-0,042
-272,613	459,271	-0,024	-0,039
-271,599	9,426	0,065	-0,036
-270,584	-200,000	-0,005	-0,050
-269,570	800,000	-0,040	0,090
-268,555	72,155	0,057	-0,043
-267,540	-10,544	-0,069	-0,033
-266,526	416,161	-0,029	0,045
-265,511	-200,000	-0,030	-0,187
-264,497	13,622	0,114	0,064
-263,482	-13,156	-0,063	-0,029
-262,467	-7,967	0,084	0,041
-261,453	-200,000	0,020	-0,065
-260,438	800,000	0,042	-0,086
-259,424	-160,991	0,065	0,002
-258,409	-49,605	-0,056	-0,019
-257,395	-200,000	0,092	0,305
-256,380	42,148	0,197	-0,129
-255,365	-102,465	-0,080	0,014
-254,351	-158,043	0,012	-0,001
-253,336	315,181	-0,033	0,045
-252,322	754,868	0,068	-0,133
-251,307	-31,518	-0,158	-0,064
-250,292	-95,806	-0,105	0,020
-249,278	-200,000	0,012	0,136
-248,263	187,389	0,076	0,082
-247,249	75,565	-0,032	0,025
-246,234	-200,000	0,030	-0,101
-245,219	290,059	-0,047	-0,062
-244,205	-103,598	0,076	0,013
-243,190	-200,000	0,005	0,083
-242,176	-36,612	-0,064	-0,025
-241,161	-13,564	0,140	-0,065
-240,146	-90,975	-0,043	-0,009
-239,132	105,137	-0,074	0,063
-238,117	80,624	-0,101	0,078
-237,103	284,512	-0,049	0,064
-236,088	-16,319	-0,070	0,032
-235,073	416,060	0,022	0,034
-234,059	-27,439	0,032	-0,013
-233,044	800,000	0,015	0,045
-232,030	769,660	-0,026	-0,051
-231,015	-67,797	0,039	0,011
-230,000	102,862	-0,092	0,077
-228,986	800,000	-0,020	-0,055
-227,971	-105,144	0,159	0,026
-226,957	-57,192	0,168	0,053
-225,942	265,241	-0,041	-0,052
-224,927	-136,309	0,165	0,014
-223,913	-200,000	0,005	0,032
-222,898	546,138	0,068	-0,118
-221,884	262,733	-0,013	0,017
-220,869	-173,798	0,142	-0,003
-219,855	-200,000	-0,003	0,055
-218,840	227,872	0,068	0,080
-217,825	800,000	-0,015	-0,037
-216,811	-200,000	-0,002	-0,083
-215,796	250,272	0,040	-0,049
-214,782	483,355	0,032	0,052
-213,767	501,079	-0,033	-0,055
-212,752	-118,761	-0,082	0,010
-211,738	-55,185	0,031	0,010
-210,723	58,273	-0,056	0,039
-209,709	18,162	-0,064	-0,037
-208,694	800,000	0,036	-0,083
-207,679	-11,320	-0,155	-0,073
-206,665	-91,382	0,040	0,008
-205,650	226,398	-0,041	-0,049
-204,636	69,428	0,172	-0,127
-203,621	209,269	-0,093	0,106
-202,606	800,000	-0,034	-0,079
-201,592	107,331	0,027	0,023
-200,577	-200,000	0,060	0,000
-199,563	204,525	-0,162	0,181
-198,548	-200,000	0,000	0,140
-197,533	160,229	-0,059	-0,059
-196,519	-69,907	0,036	-0,010
-195,504	800,000	0,041	0,084
-194,490	53,775	0,103	0,071
-193,475	-5,684	-0,063	-0,031
-192,460	800,000	0,069	-0,187
-191,446	-57,868	-0,098	0,031
-190,431	-128,422	-0,070	-0,007
-189,417	652,192	0,049	0,092
-188,402	800,000	-0,025	0,071
-187,387	109,861	0,045	0,038
-186,373	-200,000	0,001	-0,183
-185,358	558,474	0,050	-0,087
-184,344	97,395	0,063	-0,052
-183,329	93,060	-0,014	0,011
-182,315	745,319	-0,034	0,066
-181,300	-200,000	0,006	0,137
-180,285	-182,764	-0,072	0,001
-179,271	-48,810	-0,116	-0,040
-178,256	-120,117	-0,036	-0,004
-177,242	-200,000	0,006	0,080
-176,227	-49,575	0,067	0,023
-175,212	-200,000	0,048	0,192
-174,198	-200,000	-0,011	0,106
-173,183	30,987	-0,109	-0,067
-172,169	60,097	0,033	-0,024
-171,154	-200,000	-0,006	-0,031
-170,139	-200,000	0,003	-0,113
-169,125	-105,552	0,094	-0,015
-168,110	800,000	-0,012	0,028
-167,096	-5,384	-0,081	-0,040
-166,081	36,425	0,125	-0,079
-165,066	800,000	0,038	-0,109
-164,052	147,710	0,054	0,053
-163,037	800,000	-0,039	-0,088
-162,023	-200,000	-0,001	-0,058
-161,008	453,010	-0,070	0,111
-159,993	-9,379	0,071	-0,034
-158,979	-96,326	0,043	-0,008
-157,964	-56,604	0,050	-0,016
-156,950	-200,000	-0,051	-0,175
-155,935	10,934	-0,151	-0,083
-154,920	154,672	-0,016	0,016
-153,906	302,934	0,115	-0,153
-152,891	800,000	-0,022	0,054
-151,877	-120,424	-0,066	0,008
-150,862	-200,000	0,039	-0,176
-149,847	-103,801	0,043	-0,007
-148,833	253,899	0,043	-0,052
-147,818	800,000	0,032	-0,088
-146,804	22,611	-0,122	0,072
-145,789	-22,394	-0,017	-0,007
-144,775	-200,000	-0,004	-0,042
-143,760	-200,000	0,006	-0,059
-142,745	800,000	-0,039	0,122
-141,731	676,352	-0,069	-0,129
-140,716	-200,000	-0,001	0,142
-139,702	-147,872	0,074	0,004
-138,687	57,080	0,072	0,050
-137,672	297,185	0,067	0,089
-136,658	65,282	-0,070	-0,051
-135,643	800,000	-0,043	0,115
-134,629	111,061	-0,147	-0,127
-133,614	-54,385	0,012	-0,004
-132,599	59,768	-0,058	0,041
-131,585	-116,310	-0,107	0,014
-130,570	-200,000	0,000	-0,097
-129,556	-200,000	-0,007	0,031
-128,541	-19,142	-0,127	-0,056
-127,526	38,437	-0,126	-0,080
-126,512	-179,073	0,211	-0,003
-125,497	-125,131	-0,011	-0,001
-124,483	167,930	0,061	0,062
-123,468	10,892	-0,198	-0,108
-122,453	-200,000	0,003	0,037
-121,439	-69,798	-0,099	-0,027
-120,424	-200,000	-0,005	-0,055
