DTS Sentinel unit serial number:	SN410029Multiplexer serial number:	ORYXHardware model number:	OX2-SRSoftware version number:	ORYX F/W v4,00 Oryx Data Collector v3.7.2.0data status	okinstallation	B6 Nyhavnadifferential loss correction	single-endedforward channel	channel 2reverse channel	N/Adate	2023/12/07time	16:35:08forward acquisition time	300,00reverse acquisition time	0,00gamma	499,1914k internal	0,3164k external	0,3164temperature offset calibration	1,0000default loss term (dB/km)	0,3820temperature slope calibration	1,0000multiplexer offset coefficient	1,0000multiplexer slope coefficient	1,0000fibre end	0,00T internal ref (°C)	14,52T ext. ref 1 (°C)	-2,19T ext. ref 2 (°C)	-2,19length (m)	temperature (°C)	Stokes	anti-Stokes-744,400	-173,569	0,087	0,002
-743,385	-34,516	-0,147	-0,059
-742,371	-27,692	0,184	0,078
-741,356	-141,671	-0,216	0,016
-740,342	142,145	0,138	0,135
-739,327	-143,827	-0,392	0,027
-738,312	111,061	0,050	-0,045
-737,298	-88,682	-0,337	-0,073
-736,283	-96,564	0,183	-0,035
-735,269	-51,283	-0,306	0,105
-734,254	40,762	0,147	-0,097
-733,239	-119,044	-0,477	-0,061
-732,225	253,073	0,188	0,236
-731,210	-59,641	-0,146	0,046
-730,196	-129,010	0,195	-0,020
-729,181	-172,992	-0,055	-0,001
-728,167	28,839	-0,034	-0,021
-727,152	-200,000	0,005	-0,051
-726,137	-200,000	-0,003	0,032
-725,123	-36,901	-0,164	-0,064
-724,108	505,828	-0,096	-0,164
-723,094	-200,000	-0,036	-0,160
-722,079	11,953	-0,082	-0,046
-721,064	800,000	-0,056	-0,149
-720,050	-200,000	0,003	0,120
-719,035	126,049	-0,047	-0,043
-718,021	767,488	0,050	-0,101
-717,006	221,810	-0,161	-0,191
-715,991	371,082	-0,095	-0,142
-714,977	27,545	0,024	0,015
-713,962	-200,000	-0,023	0,098
-712,948	800,000	0,041	0,089
-711,933	-16,300	-0,077	0,036
-710,918	-172,179	-0,104	-0,002
-709,904	-75,167	0,038	0,010
-708,889	367,485	0,069	0,103
-707,875	-173,380	0,018	-0,000
-706,860	-200,000	0,010	0,065
-705,845	800,000	-0,005	0,012
-704,831	-91,252	0,068	-0,014
-703,816	91,197	0,055	-0,046
-702,802	76,903	-0,056	0,044
-701,787	-200,000	0,044	-0,199
-700,772	470,357	0,048	-0,079
-699,758	9,032	-0,140	-0,077
-698,743	-200,000	-0,012	-0,089
-697,729	293,425	-0,070	-0,094
-696,714	-162,696	-0,048	0,002
-695,699	178,796	-0,035	-0,038
-694,685	87,609	-0,120	-0,098
-693,670	60,865	-0,133	-0,097
-692,656	80,383	-0,074	-0,059
-691,641	198,319	-0,015	0,017
-690,627	131,194	0,066	0,062
-689,612	-111,604	-0,136	-0,020
-688,597	127,160	-0,042	-0,039
-687,583	-88,915	0,040	0,009
-686,568	253,852	-0,051	-0,064
-685,554	152,402	-0,046	0,046
-684,539	-103,741	-0,037	-0,006
-683,524	-110,767	-0,059	0,009
-682,510	800,000	0,041	-0,102
-681,495	-200,000	0,041	-0,136
-680,481	273,821	-0,051	-0,067
-679,466	221,654	-0,115	-0,136
-678,451	-24,078	-0,044	-0,019
-677,437	-134,978	-0,070	-0,006
-676,422	-95,385	-0,111	0,022
-675,408	-200,000	0,030	-0,142
-674,393	-200,000	-0,006	-0,084
-673,378	127,129	-0,131	-0,122
-672,364	468,249	-0,102	-0,169
-671,349	-14,209	-0,121	0,057
-670,335	-96,382	-0,087	-0,017
-669,320	43,307	0,035	-0,024
-668,305	-123,984	0,120	-0,014
-667,291	145,727	0,009	0,009
-666,276	-200,000	-0,016	-0,091
-665,262	379,751	-0,103	-0,155
-664,247	-70,426	0,089	-0,024
-663,232	-200,000	0,013	-0,123
-662,218	112,618	-0,073	-0,065
-661,203	443,471	0,011	0,018
-660,189	-78,327	-0,144	-0,036
-659,174	-200,000	0,009	-0,180
-658,159	-34,501	-0,084	-0,033
-657,145	-200,000	-0,016	-0,166
-656,130	-9,232	0,053	-0,026
-655,116	-184,599	0,052	-0,001
-654,101	209,601	-0,011	0,012
-653,086	-200,000	-0,012	-0,065
-652,072	-10,739	0,060	0,029
-651,057	252,770	0,043	-0,053
-650,043	16,226	-0,018	0,010
-649,028	-200,000	0,009	0,058
-648,014	101,215	0,020	-0,017
-646,999	95,794	0,073	-0,061
-645,984	-200,000	0,022	0,085
-644,970	2,480	-0,055	0,029
-643,955	-62,729	-0,103	0,031
-642,941	-128,323	0,138	-0,014
-641,926	800,000	0,008	0,019
-640,911	-200,000	-0,003	-0,054
-639,897	110,964	-0,112	-0,099
-638,882	-200,000	-0,003	-0,158
-637,868	513,001	-0,010	-0,016
-636,853	400,334	-0,059	-0,091
-635,838	215,570	-0,085	-0,099
-634,824	-128,394	-0,080	0,008
-633,809	-200,000	-0,003	-0,020
-632,795	-49,983	-0,091	-0,031
-631,780	151,994	-0,064	0,064
-630,765	638,311	0,046	0,086
-629,751	570,528	-0,067	-0,120
-628,736	-129,260	-0,094	0,009
-627,722	26,021	0,031	0,019
-626,707	151,044	-0,094	0,094
-625,692	800,000	-0,055	-0,115
-624,678	-200,000	-0,001	-0,190
-623,663	447,136	-0,007	0,011
-622,649	-110,193	-0,133	-0,020
-621,634	-181,149	-0,126	0,002
-620,619	800,000	0,022	0,056
-619,605	-112,262	0,067	0,010
-618,590	-200,000	0,023	-0,105
-617,576	457,019	0,036	0,058
-616,561	-200,000	0,007	0,106
-615,546	151,151	-0,081	-0,081
-614,532	-200,000	0,010	-0,113
-613,517	-185,417	-0,083	-0,001
-612,503	800,000	0,072	-0,203
-611,488	72,617	-0,032	0,024
-610,474	293,746	0,070	0,094
-609,459	-17,121	0,144	-0,066
-608,444	111,430	-0,093	-0,082
-607,430	-200,000	0,010	-0,044
-606,415	-200,000	-0,032	-0,116
-605,401	-92,803	0,068	0,014
-604,386	119,348	-0,068	-0,062
-603,371	244,513	0,059	0,073
-602,357	244,402	-0,072	0,088
-601,342	429,561	-0,073	-0,117
-600,328	-200,000	0,018	0,069
-599,313	211,019	-0,074	-0,085
-598,298	-75,357	0,064	0,016
-597,284	800,000	0,037	0,077
-596,269	74,512	0,061	0,047
-595,255	341,778	-0,110	0,158
-594,240	105,943	0,040	0,034
-593,225	-79,789	0,055	0,013
-592,211	668,993	-0,036	-0,068
-591,196	-123,738	-0,125	-0,014
-590,182	-200,000	0,021	0,098
-589,167	-37,831	-0,096	0,037
-588,152	-200,000	0,010	-0,087
-587,138	800,000	-0,052	-0,124
-586,123	800,000	-0,039	-0,082
-585,109	-200,000	-0,021	-0,152
-584,094	-200,000	-0,015	-0,057
-583,079	800,000	0,061	0,146
-582,065	-200,000	0,020	0,072
-581,050	-168,138	-0,154	0,004
-580,036	-98,336	-0,054	0,010
-579,021	210,249	0,094	0,108
-578,006	-141,267	0,126	0,009
-576,992	-125,439	-0,133	0,015
-575,977	106,182	-0,016	0,014
-574,963	146,275	0,102	0,100
-573,948	-33,710	0,113	-0,046
-572,934	29,317	-0,066	0,041
-571,919	-200,000	0,008	0,077
-570,904	-200,000	0,032	0,226
-569,890	-200,000	0,026	-0,089
-568,875	54,097	-0,093	-0,065
-567,861	-49,367	-0,063	-0,022
-566,846	418,579	-0,041	0,065
-565,831	-49,169	-0,101	0,035
-564,817	800,000	0,044	-0,092
-563,802	318,613	-0,057	-0,079
-562,788	-37,092	-0,060	-0,023
-561,773	-200,000	-0,004	-0,115
-560,758	70,610	0,066	-0,050
-559,744	-200,000	-0,011	0,193
-558,729	-45,291	0,038	-0,014
-557,715	72,772	-0,067	0,051
-556,700	70,986	0,068	-0,051
-555,685	-200,000	-0,005	0,027
-554,671	-115,760	-0,096	0,013
-553,656	-164,804	0,095	0,003
-552,642	393,868	0,054	-0,082
-551,627	556,302	-0,059	0,104
-550,612	-16,812	0,096	-0,044
-549,598	-17,578	0,118	0,054
-548,583	133,496	-0,036	-0,034
-547,569	800,000	0,042	0,121
-546,554	-58,507	-0,071	0,022
-545,539	-200,000	0,021	-0,190
-544,525	800,000	-0,036	0,086
-543,510	433,931	0,029	0,046
-542,496	800,000	-0,035	0,072
-541,481	-200,000	-0,031	0,113
-540,466	-200,000	-0,003	-0,059
-539,452	-27,680	0,043	0,018
-538,437	-108,907	-0,081	-0,012
-537,423	-69,295	0,098	-0,027
-536,408	-200,000	-0,009	0,044
-535,393	800,000	-0,021	-0,063
-534,379	-128,802	-0,139	0,014
-533,364	-62,995	0,092	-0,027
-532,350	-138,355	0,085	0,007
-531,335	-149,324	-0,033	-0,002
-530,321	-200,000	0,005	0,059
-529,306	-84,441	-0,083	0,019
-528,291	800,000	0,024	-0,056
-527,277	360,550	0,041	-0,059
-526,262	-200,000	-0,007	-0,065
-525,248	-200,000	-0,029	0,104
-524,233	287,988	0,153	0,203
-523,218	800,000	-0,044	0,110
-522,204	-129,477	0,071	-0,007
-521,189	800,000	-0,018	-0,052
-520,175	425,422	0,011	0,017
-519,160	-200,000	0,006	-0,057
-518,145	22,042	0,050	0,030
-517,131	-200,000	0,006	-0,033
-516,116	-135,876	0,082	0,007
-515,102	-200,000	-0,008	-0,055
-514,087	134,474	0,061	0,058
-513,072	205,733	-0,063	-0,072
-512,058	-36,356	-0,106	-0,041
-511,043	-48,205	-0,121	-0,042
-510,029	-200,000	0,016	-0,075
-509,014	-58,893	0,096	0,030
-507,999	-119,378	-0,067	0,008
-506,985	-200,000	0,007	0,080
-505,970	800,000	-0,018	-0,044
-504,956	226,424	0,082	-0,097
-503,941	356,636	0,059	-0,087
-502,926	94,959	0,083	0,069
-501,912	800,000	0,046	0,108
-500,897	158,099	0,006	0,006
-499,883	-200,000	-0,003	0,119
-498,868	227,892	0,057	-0,068
-497,853	-6,075	0,094	-0,047
-496,839	-200,000	0,004	-0,087
-495,824	-200,000	-0,022	0,081
-494,810	-111,443	0,028	0,004
-493,795	23,308	-0,065	0,039
-492,781	-200,000	0,025	-0,101
-491,766	-181,442	-0,160	0,002
-490,751	800,000	-0,060	-0,123
-489,737	-44,129	0,065	-0,024
-488,722	54,210	0,044	0,031
-487,708	-185,108	0,113	0,001
-486,693	800,000	-0,050	0,114
-485,678	-200,000	0,008	-0,027
-484,664	-49,206	0,047	0,016
-483,649	337,320	-0,060	-0,085
-482,635	172,366	0,066	-0,069
-481,620	329,553	0,040	0,056
-480,605	236,821	0,050	0,060
-479,591	-134,759	-0,037	0,003
-478,576	255,579	0,059	-0,073
-477,562	800,000	-0,032	-0,095
-476,547	-200,000	0,010	-0,060
-475,532	800,000	0,039	-0,103
-474,518	154,478	-0,079	0,079
-473,503	184,123	0,080	-0,086
-472,489	261,134	-0,043	-0,054
-471,474	53,721	0,079	-0,055
-470,459	-114,393	-0,128	-0,018
-469,445	-107,603	0,137	0,022
-468,430	-200,000	-0,016	0,144
-467,416	-200,000	-0,016	0,079
-466,401	-200,000	-0,007	0,260
-465,386	49,771	-0,092	0,063
-464,372	-15,887	-0,016	-0,007
-463,357	-200,000	0,003	-0,027
-462,343	33,320	-0,094	0,059
-461,328	-200,000	-0,003	-0,010
-460,313	484,070	0,048	0,079
-459,299	-104,798	0,051	-0,008
-458,284	800,000	-0,049	0,100
-457,270	-163,929	0,069	-0,002
-456,255	-148,186	-0,127	-0,008
-455,241	-84,736	0,123	0,028
-454,226	20,817	-0,081	0,048
-453,211	-164,182	0,048	0,002
-452,197	630,678	0,029	-0,054
-451,182	264,709	-0,025	-0,032
-450,168	198,362	0,013	0,014
-449,153	-200,000	0,017	-0,095
-448,138	-47,978	-0,097	-0,034
-447,124	199,919	0,027	-0,030
-446,109	-200,000	-0,016	0,076
-445,095	-52,841	0,027	0,009
-444,080	-38,548	0,061	-0,023
-443,065	94,621	0,067	0,056
-442,051	27,203	0,041	-0,025
-441,036	398,144	-0,081	-0,124
-440,022	-200,000	-0,003	-0,036
-439,007	363,246	-0,063	-0,092
-437,992	800,000	-0,017	0,038
-436,978	800,000	-0,015	0,039
-435,963	230,536	-0,003	0,004
-434,949	800,000	0,023	0,059
-433,934	-200,000	-0,013	0,113
-432,919	-81,883	-0,086	-0,020
-431,905	569,966	0,029	-0,051
-430,890	-140,101	-0,089	-0,007
-429,876	84,088	0,068	0,054
-428,861	282,596	0,047	0,061
-427,846	-200,000	-0,001	-0,008
-426,832	-46,740	-0,088	-0,031
-425,817	-126,174	-0,080	0,009
-424,803	68,837	-0,047	-0,035
-423,788	-81,064	0,145	-0,035
-422,773	90,212	0,148	-0,120
-421,759	105,863	-0,018	0,016
-420,744	-200,000	-0,013	-0,163
-419,730	800,000	0,026	-0,069
-418,715	47,339	-0,025	-0,017
-417,701	-62,249	-0,103	-0,031
-416,686	707,678	0,028	0,054
-415,671	-200,000	-0,011	-0,047
-414,657	378,487	0,045	-0,066
-413,642	-29,553	-0,080	-0,033
-412,628	248,200	0,027	0,033
-411,613	-121,827	0,142	0,017
-410,598	-0,250	0,101	-0,052
-409,584	322,902	0,027	0,037
-408,569	-131,026	0,162	-0,015
-407,555	169,704	0,021	0,022
-406,540	-200,000	0,008	-0,042
-405,525	-200,000	-0,008	0,038
-404,511	-200,000	-0,016	0,108
-403,496	-35,143	-0,031	0,012
-402,482	-200,000	-0,003	-0,023
-401,467	397,007	0,076	0,115
-400,452	68,129	-0,018	-0,014
-399,438	-128,962	0,074	0,007
-398,423	28,693	-0,138	-0,085
-397,409	575,410	-0,024	-0,043
-396,394	-200,000	0,002	-0,032
-395,379	160,815	0,021	-0,021
-394,365	-150,084	-0,173	0,010
-393,350	-200,000	0,018	0,101
-392,336	128,338	-0,075	-0,069
-391,321	-4,911	-0,065	-0,032
-390,306	-200,000	-0,008	-0,123
-389,292	-43,701	-0,125	-0,045
-388,277	40,347	0,013	0,008
-387,263	22,838	0,095	0,056
-386,248	12,269	0,076	-0,042
-385,233	800,000	0,044	-0,129
-384,219	23,211	-0,148	-0,088
-383,204	221,113	-0,042	-0,049
-382,190	-10,461	-0,032	0,015
-381,175	-68,011	-0,168	0,047
-380,160	279,982	0,038	-0,049
-379,146	-123,901	0,061	-0,007
-378,131	800,000	0,023	-0,055
-377,117	86,450	0,087	0,070
-376,102	16,898	0,046	0,026
-375,088	67,303	0,033	0,025
-374,073	-200,000	0,014	0,063
-373,058	-200,000	-0,006	-0,040
-372,044	-200,000	0,009	0,166
-371,029	262,804	0,065	-0,082
-370,015	266,034	0,031	0,039
-369,000	199,712	0,045	-0,050
-367,985	800,000	-0,007	-0,020
-366,971	-48,853	-0,077	-0,027
-365,956	-200,000	-0,016	0,081
-364,942	132,237	-0,060	-0,056
-363,927	153,954	0,094	-0,094
-362,912	30,237	0,053	-0,032
-361,898	-59,265	0,075	-0,023
-360,883	-73,402	-0,031	-0,008
-359,869	-114,044	0,037	0,005
-358,854	671,049	0,046	0,086
-357,839	241,601	-0,057	0,069
-356,825	-61,958	0,152	0,046
-355,810	800,000	-0,027	-0,082
-354,796	-76,604	0,045	0,011
-353,781	33,792	-0,175	-0,110
-352,766	-61,485	0,027	-0,008
-351,752	225,516	0,048	0,057
-350,737	-200,000	-0,034	0,116
-349,723	-22,514	0,127	0,055
-348,708	26,366	-0,105	-0,064
-347,693	46,173	0,064	-0,043
-346,679	-132,247	-0,094	0,009
-345,664	33,139	0,117	-0,074
-344,650	31,929	-0,085	-0,053
-343,635	-200,000	-0,014	0,104
-342,620	94,243	0,035	0,029
-341,606	-200,000	-0,029	0,111
-340,591	11,954	0,052	-0,029
-339,577	-144,298	-0,246	-0,016
-338,562	119,305	-0,121	-0,109
-337,548	-200,000	0,003	0,082
-336,533	-45,098	0,104	-0,037
-335,518	-91,321	0,100	-0,021
-334,504	-37,353	0,087	-0,033
-333,489	-171,438	-0,131	0,003
-332,475	-55,531	-0,207	-0,067
-331,460	800,000	-0,024	-0,076
-330,445	-200,000	-0,013	-0,074
-329,431	800,000	0,043	-0,133
-328,416	14,640	0,044	0,025
-327,402	-78,964	-0,108	0,026
-326,387	-10,686	0,085	0,040
-325,372	-200,000	-0,008	-0,118
-324,358	-200,000	0,049	-0,280
-323,343	-74,023	0,099	0,026
-322,329	800,000	0,017	-0,038
-321,314	-200,000	0,014	0,166
-320,299	800,000	0,020	0,059
-319,285	419,126	-0,040	-0,061
-318,270	-34,880	-0,124	0,049
-317,256	-200,000	-0,015	-0,093
-316,241	-200,000	-0,026	-0,128
-315,226	62,665	0,045	-0,033
-314,212	-92,929	-0,072	-0,014
-313,197	-76,189	0,118	0,030
-312,183	368,034	-0,065	0,096
-311,168	-54,860	0,138	-0,045
-310,153	-200,000	0,016	-0,067
-309,139	23,807	0,114	-0,068
-308,124	-136,519	0,123	0,010
-307,110	-200,000	-0,001	0,020
-306,095	119,491	0,039	-0,035
-305,080	-35,318	0,058	0,023
-304,066	-200,000	-0,029	-0,183
-303,051	146,084	-0,024	-0,023
-302,037	44,221	0,057	-0,038
-301,022	-85,094	0,147	0,033
-300,008	321,439	0,116	0,159
-298,993	-200,000	0,006	0,157
-297,978	48,946	0,046	-0,031
-296,964	-200,000	-0,082	0,000
-295,949	-200,000	0,016	-0,156
-294,935	800,000	-0,046	-0,130
-293,920	414,105	-0,055	-0,085
-292,905	-152,755	-0,056	-0,003
-291,891	378,004	0,157	0,233
-290,876	61,364	-0,089	0,064
-289,862	48,257	0,089	-0,060
-288,847	21,270	-0,081	-0,047
-287,832	306,260	-0,038	-0,052
-286,818	800,000	0,044	-0,107
-285,803	59,430	-0,021	0,015
-284,789	-200,000	0,060	0,000
-283,774	-104,797	0,100	0,016
-282,759	-141,079	-0,056	0,004
-281,745	-103,218	-0,101	0,017
-280,730	800,000	0,018	-0,046
-279,716	449,023	0,081	-0,129
-278,701	-74,631	0,012	0,003
-277,686	582,806	-0,086	-0,154
-276,672	25,256	0,094	-0,057
-275,657	47,739	-0,152	-0,102
-274,643	800,000	-0,037	0,100
-273,628	-38,215	-0,034	-0,013
-272,613	452,522	0,031	0,050
-271,599	269,328	0,005	0,006
-270,584	577,092	0,017	0,031
-269,570	75,542	0,033	0,025
-268,555	467,068	0,040	0,065
-267,540	800,000	0,027	-0,085
-266,526	-200,000	0,002	0,035
-265,511	306,039	-0,037	-0,050
-264,497	14,884	0,139	-0,078
-263,482	800,000	0,047	0,112
-262,467	-200,000	-0,033	0,223
-261,453	-200,000	-0,003	0,020
-260,438	-184,393	-0,147	0,002
-259,424	149,794	-0,081	-0,079
-258,409	-122,779	0,089	0,010
-257,395	800,000	-0,050	0,154
-256,380	-200,000	-0,013	0,148
-255,365	-200,000	-0,016	0,056
-254,351	-200,000	0,037	0,144
-253,336	169,705	-0,048	0,049
-252,322	49,702	-0,071	-0,049
-251,307	415,181	0,013	0,020
-250,292	4,872	-0,088	0,047
-249,278	-200,000	-0,008	0,077
-248,263	-200,000	-0,153	0,000
-247,249	782,993	-0,023	0,046
-246,234	-158,035	0,123	0,005
-245,219	-200,000	0,016	-0,075
-244,205	-200,000	-0,008	0,135
-243,190	-200,000	0,014	0,071
-242,176	268,137	0,057	0,072
-241,161	800,000	0,044	0,125
-240,146	-72,824	0,132	0,035
-239,132	270,815	0,126	0,161
-238,117	497,223	0,029	-0,049
-237,103	-117,505	0,034	-0,004
-236,088	598,429	0,064	0,116
-235,073	206,911	-0,047	0,052
-234,059	-200,000	0,008	0,108
-233,044	-81,148	0,048	0,011
-232,030	-73,020	0,062	0,016
-231,015	-200,000	-0,003	-0,112
-230,000	-200,000	0,018	-0,152
-228,986	42,521	-0,125	0,082
-227,971	22,300	0,091	0,054
-226,957	111,412	0,051	0,045
-225,942	21,592	0,013	0,008
-224,927	154,246	-0,062	0,061
-223,913	-3,100	-0,125	-0,063
-222,898	-200,000	-0,004	-0,036
-221,884	800,000	0,030	-0,075
-220,869	756,878	-0,021	-0,042
-219,855	-34,295	0,175	-0,069
-218,840	-200,000	0,002	0,080
-217,825	-200,000	-0,008	0,030
-216,811	800,000	0,041	-0,095
-215,796	20,953	-0,034	-0,020
-214,782	144,459	0,097	0,093
-213,767	-197,981	-0,139	-0,001
-212,752	117,093	0,136	0,120
-211,738	-132,235	0,042	0,004
-210,723	116,523	-0,106	0,094
-209,709	-200,000	0,002	0,114
-208,694	689,376	-0,068	0,129
-207,679	-200,000	0,001	0,024
-206,665	-200,000	0,015	-0,097
-205,650	-62,643	-0,155	0,046
-204,636	800,000	0,074	0,153
-203,621	-8,322	-0,065	0,031
-202,606	-200,000	0,000	-0,017
-201,592	-114,156	-0,097	-0,013
-200,577	68,843	-0,052	-0,038
-199,563	-200,000	-0,018	-0,134
-198,548	25,382	0,049	0,030
-197,533	-118,765	0,155	0,019
-196,519	800,000	-0,030	0,080
-195,504	400,926	0,063	0,096
-194,490	33,672	-0,114	-0,071
-193,475	416,124	-0,074	-0,114
-192,460	800,000	0,030	-0,066
-191,446	92,654	0,081	0,066
-190,431	-200,000	0,034	0,112
-189,417	-114,194	-0,125	0,017
-188,402	81,524	-0,083	-0,065
-187,387	-84,095	-0,107	0,024
-186,373	-200,000	0,025	0,105
-185,358	52,909	-0,051	-0,035
-184,344	115,423	0,114	0,100
-183,329	-159,958	0,079	-0,003
-182,315	-9,248	-0,118	-0,056
-181,300	800,000	0,037	-0,105
-180,285	409,300	0,044	-0,068
-179,271	431,731	-0,031	0,049
-178,256	396,096	0,020	0,029
-177,242	135,057	-0,060	0,057
-176,227	77,967	0,062	-0,047
-175,212	124,377	-0,064	-0,058
-174,198	800,000	0,052	0,152
-173,183	800,000	0,025	0,069
-172,169	23,602	-0,126	-0,074
-171,154	-200,000	0,014	0,101
-170,139	94,112	-0,018	0,015
-169,125	-200,000	0,028	0,134
-168,110	742,353	0,045	0,088
-167,096	800,000	-0,018	0,050
-166,081	564,689	0,034	0,060
-165,066	524,756	0,058	-0,098
-164,052	-200,000	-0,060	-0,193
-163,037	-154,310	0,128	-0,006
-162,023	-200,000	0,009	0,077
-161,008	800,000	-0,049	-0,120
-159,993	120,928	0,048	-0,043
-158,979	231,860	-0,106	0,126
-157,964	-33,838	-0,235	0,093
-156,950	-137,061	0,150	0,012
-155,935	-200,000	-0,003	-0,118
-154,920	403,508	-0,054	-0,082
-153,906	83,968	0,139	0,109
-152,891	355,982	0,020	0,029
-151,877	-200,000	-0,014	0,088
-150,862	3,007	-0,083	-0,043
-149,847	167,517	-0,054	0,055
-148,833	800,000	0,013	-0,033
-147,818	-58,905	-0,034	-0,011
-146,804	12,126	0,107	0,059
-145,789	800,000	-0,010	0,027
-144,775	-64,813	0,053	-0,015
-143,760	-26,140	-0,183	-0,077
-142,745	-10,500	-0,108	0,051
-141,731	454,639	0,014	-0,023
-140,716	800,000	-0,068	0,142
-139,702	-139,431	0,009	0,001
-138,687	100,781	-0,080	-0,067
-137,672	-141,640	0,079	0,006
-136,658	800,000	0,036	-0,082
-135,643	33,954	-0,032	0,020
-134,629	-72,333	-0,076	-0,020
-133,614	-200,000	-0,008	0,151
-132,599	612,070	0,047	0,085
-131,585	-48,832	0,002	0,001
-130,570	89,730	0,060	0,048
-129,556	-104,828	-0,115	-0,019
-128,541	310,616	-0,082	-0,111
-127,526	42,814	0,042	-0,028
-126,512	198,669	-0,028	-0,031
-125,497	-200,000	-0,004	-0,015
-124,483	47,748	-0,045	0,030
-123,468	299,488	0,070	-0,093
-122,453	612,323	-0,098	-0,177
-121,439	-165,437	0,051	0,002
-120,424	470,936	-0,045	0,073
