DTS Sentinel unit serial number:	SN410029Multiplexer serial number:	ORYXHardware model number:	OX2-SRSoftware version number:	ORYX F/W v4,00 Oryx Data Collector v3.7.2.0data status	okinstallation	B6 Nyhavnadifferential loss correction	single-endedforward channel	channel 2reverse channel	N/Adate	2023/12/08time	21:05:08forward acquisition time	300,00reverse acquisition time	0,00gamma	499,1914k internal	0,3158k external	0,3158temperature offset calibration	1,0000default loss term (dB/km)	0,3820temperature slope calibration	1,0000multiplexer offset coefficient	1,0000multiplexer slope coefficient	1,0000fibre end	0,00T internal ref (°C)	15,22T ext. ref 1 (°C)	-1,36T ext. ref 2 (°C)	-1,36length (m)	temperature (°C)	Stokes	anti-Stokes-744,400	126,040	0,064	0,060
-743,385	-119,286	-0,323	0,041
-742,371	97,804	0,072	0,061
-741,356	-148,131	-0,339	0,020
-740,342	-95,218	0,166	-0,033
-739,327	-89,577	-0,381	-0,082
-738,312	-66,204	0,120	0,035
-737,298	-27,946	-0,263	-0,112
-736,283	49,096	0,121	-0,084
-735,269	-48,293	-0,196	-0,069
-734,254	38,873	0,078	0,052
-733,239	-77,249	-0,508	-0,129
-732,225	-52,375	0,145	0,049
-731,210	-21,248	0,113	0,051
-730,196	-49,172	-0,049	0,017
-729,181	-200,000	0,007	0,025
-728,167	-82,109	0,095	0,023
-727,152	-200,000	-0,021	-0,097
-726,137	22,016	-0,064	-0,038
-725,123	-93,594	-0,147	-0,030
-724,108	800,000	-0,022	0,055
-723,094	116,536	-0,114	-0,103
-722,079	-166,644	-0,158	-0,005
-721,064	-200,000	0,007	-0,071
-720,050	-37,091	0,068	-0,027
-719,035	-200,000	-0,012	-0,085
-718,021	218,967	0,022	0,026
-717,006	67,276	-0,010	-0,007
-715,991	79,754	-0,123	-0,097
-714,977	-37,809	0,054	-0,021
-713,962	-146,167	0,072	-0,005
-712,948	-18,988	-0,041	-0,019
-711,933	482,014	-0,012	0,021
-710,918	-200,000	0,003	-0,143
-709,904	-200,000	0,014	-0,188
-708,889	33,311	-0,086	-0,055
-707,875	128,153	-0,033	0,031
-706,860	800,000	0,066	-0,184
-705,845	-200,000	0,009	-0,060
-704,831	-200,000	-0,017	-0,093
-703,816	-7,923	-0,073	-0,036
-702,802	47,539	-0,082	-0,056
-701,787	-200,000	-0,011	-0,149
-700,772	359,834	0,035	0,052
-699,758	-200,000	-0,020	0,070
-698,743	319,818	0,081	0,113
-697,729	800,000	-0,017	-0,050
-696,714	75,896	-0,123	-0,095
-695,699	148,402	-0,086	-0,086
-694,685	72,271	-0,109	-0,083
-693,670	-79,614	0,061	-0,015
-692,656	-37,310	-0,056	-0,022
-691,641	-200,000	0,009	-0,065
-690,627	169,618	0,027	-0,029
-689,612	-13,052	-0,078	-0,037
-688,597	316,913	-0,054	-0,075
-687,583	-200,000	-0,050	-0,223
-686,568	-200,000	-0,002	0,027
-685,554	800,000	0,018	-0,048
-684,539	117,699	0,050	0,045
-683,524	-200,000	-0,004	0,142
-682,510	-75,382	-0,084	0,022
-681,495	346,098	0,057	-0,083
-680,481	225,568	-0,106	-0,126
-679,466	37,315	0,118	-0,077
-678,451	-200,000	0,047	-0,161
-677,437	236,640	-0,098	-0,120
-676,422	-200,000	-0,012	0,086
-675,408	-200,000	0,012	-0,054
-674,393	142,259	0,076	-0,074
-673,378	-2,044	0,059	-0,030
-672,364	54,531	0,006	-0,004
-671,349	-40,796	-0,143	-0,054
-670,335	800,000	0,043	0,118
-669,320	2,696	0,194	0,103
-668,305	-200,000	0,004	-0,106
-667,291	371,115	-0,058	0,086
-666,276	-95,077	-0,013	0,003
-665,262	203,465	-0,114	-0,130
-664,247	106,297	0,015	-0,013
-663,232	234,798	0,067	-0,081
-662,218	-200,000	0,014	0,064
-661,203	-200,000	-0,012	-0,091
-660,189	-120,078	-0,061	-0,008
-659,174	800,000	0,047	-0,101
-658,159	-103,510	-0,191	-0,033
-657,145	-200,000	-0,019	-0,075
-656,130	-28,978	0,107	0,045
-655,116	-31,369	-0,079	-0,032
-654,101	132,378	0,106	0,100
-653,086	-200,000	-0,022	0,097
-652,072	106,231	0,077	-0,067
-651,057	440,519	0,049	-0,078
-650,043	800,000	-0,034	-0,082
-649,028	-113,059	0,111	0,016
-648,014	628,530	0,040	0,074
-646,999	313,046	0,034	0,047
-645,984	236,940	-0,134	0,164
-644,970	-44,795	-0,144	0,053
-643,955	136,254	-0,067	-0,064
-642,941	800,000	-0,011	-0,027
-641,926	-200,000	-0,006	0,041
-640,911	28,040	0,111	-0,069
-639,897	529,607	0,047	0,082
-638,882	-200,000	-0,001	0,026
-637,868	141,007	-0,041	0,040
-636,853	-200,000	-0,002	-0,088
-635,838	-33,642	0,012	0,005
-634,824	-200,000	0,006	-0,021
-633,809	236,535	-0,032	0,039
-632,795	800,000	0,049	0,116
-631,780	418,026	0,063	0,099
-630,765	310,353	0,077	-0,105
-629,751	-143,863	-0,116	-0,008
-628,736	-200,000	0,020	-0,102
-627,722	-129,638	0,064	0,006
-626,707	-200,000	0,000	-0,027
-625,692	-200,000	-0,024	0,097
-624,678	-83,255	0,054	-0,013
-623,663	-99,769	-0,030	0,005
-622,649	-200,000	0,026	0,140
-621,634	-200,000	-0,022	-0,080
-620,619	305,358	-0,015	0,020
-619,605	-50,640	-0,119	0,041
-618,590	151,541	0,091	0,091
-617,576	396,849	-0,062	0,096
-616,561	677,396	-0,023	-0,045
-615,546	-200,000	-0,002	-0,180
-614,532	800,000	0,031	-0,087
-613,517	-155,625	0,099	-0,005
-612,503	-200,000	0,021	-0,072
-611,488	-64,133	-0,027	-0,008
-610,474	800,000	-0,007	-0,020
-609,459	-97,536	-0,246	-0,046
-608,444	-159,581	-0,095	0,004
-607,430	-200,000	0,038	-0,160
-606,415	-40,050	0,104	-0,040
-605,401	-131,511	0,041	-0,004
-604,386	-200,000	0,008	0,147
-603,371	-200,000	-0,014	0,116
-602,357	777,506	0,063	0,127
-601,342	275,869	-0,026	-0,033
-600,328	184,320	-0,065	-0,071
-599,313	510,638	-0,048	-0,083
-598,298	5,655	0,088	-0,047
-597,284	-200,000	-0,003	0,063
-596,269	83,408	-0,045	-0,036
-595,255	182,369	0,092	-0,099
-594,240	50,710	-0,110	-0,076
-593,225	-200,000	0,000	-0,141
-592,211	-122,000	-0,065	0,008
-591,196	-7,958	0,097	-0,048
-590,182	-90,039	-0,091	0,019
-589,167	-200,000	0,026	-0,090
-588,152	728,923	0,027	0,054
-587,138	137,920	-0,098	-0,095
-586,123	318,279	-0,084	-0,117
-585,109	-91,910	-0,065	-0,013
-584,094	-65,294	0,136	-0,040
-583,079	2,168	0,148	0,078
-582,065	133,147	-0,124	0,117
-581,050	-39,042	-0,117	-0,045
-580,036	6,911	-0,108	-0,059
-579,021	-200,000	-0,008	0,073
-578,006	2,504	-0,087	-0,046
-576,992	-200,000	-0,023	-0,078
-575,977	800,000	0,066	-0,208
-574,963	49,502	-0,056	0,038
-573,948	8,412	0,130	0,071
-572,934	297,020	-0,016	-0,021
-571,919	-23,433	0,063	-0,027
-570,904	209,101	-0,052	0,059
-569,890	-58,698	0,072	-0,023
-568,875	58,784	0,177	0,127
-567,861	-200,000	0,012	0,108
-566,846	-127,384	-0,042	-0,004
-565,831	-200,000	0,034	0,183
-564,817	-200,000	-0,028	-0,291
-563,802	36,020	-0,092	-0,059
-562,788	234,886	0,043	0,052
-561,773	-17,714	0,073	-0,033
-560,758	597,006	-0,034	0,061
-559,744	-200,000	-0,004	-0,028
-558,729	-173,297	0,077	-0,002
-557,715	-200,000	0,001	-0,078
-556,700	-200,000	-0,021	0,075
-555,685	5,544	-0,114	-0,062
-554,671	-200,000	0,024	0,085
-553,656	800,000	0,028	0,070
-552,642	-39,004	0,177	-0,068
-551,627	-200,000	-0,002	-0,062
-550,612	359,019	0,028	0,040
-549,598	-200,000	-0,017	-0,068
-548,583	79,033	0,095	0,074
-547,569	112,147	-0,033	0,029
-546,554	-191,749	0,131	0,001
-545,539	-200,000	0,013	-0,105
-544,525	-21,111	0,200	0,089
-543,510	-200,000	-0,001	0,021
-542,496	268,306	-0,031	0,040
-541,481	800,000	-0,031	0,075
-540,466	-60,125	-0,034	0,011
-539,452	55,141	0,067	-0,047
-538,437	384,064	0,076	0,115
-537,423	-200,000	0,030	0,101
-536,408	63,025	0,049	-0,036
-535,393	-122,807	-0,020	-0,002
-534,379	137,535	0,063	-0,060
-533,364	-83,320	-0,090	-0,021
-532,350	127,428	0,081	0,075
-531,335	800,000	0,022	0,069
-530,321	54,949	0,078	-0,055
-529,306	415,596	0,061	0,095
-528,291	-187,545	-0,166	0,002
-527,277	-98,044	-0,024	-0,004
-526,262	-45,634	0,075	-0,027
-525,248	33,164	-0,013	0,008
-524,233	161,568	-0,069	0,070
-523,218	800,000	0,031	0,067
-522,204	28,631	-0,078	0,048
-521,189	-52,010	0,016	-0,005
-520,175	-139,000	-0,082	-0,006
-519,160	-31,077	0,035	-0,015
-518,145	-25,072	0,088	0,038
-517,131	-134,090	0,057	0,005
-516,116	-200,000	-0,001	0,040
-515,102	87,673	0,071	0,057
-514,087	-43,418	-0,154	-0,057
-513,072	335,830	0,040	0,057
-512,058	396,796	0,071	-0,109
-511,043	-200,000	-0,022	0,099
-510,029	-125,614	-0,049	0,005
-509,014	-79,708	0,081	-0,020
-507,999	106,775	0,047	-0,041
-506,985	48,967	-0,021	0,015
-505,970	204,776	0,015	-0,016
-504,956	-172,817	0,154	-0,003
-503,941	800,000	0,018	-0,040
-502,926	-200,000	0,004	0,104
-501,912	38,033	0,026	0,017
-500,897	-77,062	0,054	-0,014
-499,883	-125,880	-0,254	0,028
-498,868	800,000	0,028	-0,067
-497,853	-78,017	-0,124	-0,031
-496,839	70,414	0,110	-0,083
-495,824	-19,264	0,158	-0,071
-494,810	433,953	-0,015	0,023
-493,795	-90,764	-0,074	0,015
-492,781	553,712	-0,070	-0,123
-491,766	287,351	-0,077	-0,102
-490,751	-200,000	-0,006	-0,034
-489,737	-200,000	0,009	-0,101
-488,722	342,198	0,040	0,058
-487,708	-200,000	0,006	0,114
-486,693	800,000	-0,088	0,228
-485,678	126,042	0,045	-0,041
-484,664	-89,917	0,034	0,007
-483,649	-200,000	0,023	-0,178
-482,635	800,000	-0,004	-0,013
-481,620	369,243	0,015	-0,022
-480,605	724,025	0,032	-0,063
-479,591	800,000	0,048	0,114
-478,576	-200,000	-0,020	0,080
-477,562	-69,711	0,119	0,033
-476,547	800,000	0,009	-0,025
-475,532	105,229	-0,100	-0,086
-474,518	800,000	0,038	0,087
-473,503	-200,000	0,010	0,186
-472,489	800,000	0,062	0,126
-471,474	-200,000	0,022	0,073
-470,459	30,285	-0,111	-0,069
-469,445	-200,000	-0,027	0,096
-468,430	800,000	-0,039	-0,088
-467,416	66,627	-0,029	0,021
-466,401	488,302	0,054	-0,090
-465,386	0,705	0,096	0,050
-464,372	-200,000	-0,018	-0,116
-463,357	56,497	-0,014	-0,010
-462,343	-200,000	-0,007	-0,090
-461,328	-22,177	0,129	-0,057
-460,313	-18,827	-0,029	-0,013
-459,299	592,714	-0,039	0,071
-458,284	168,747	0,071	-0,074
-457,270	503,364	0,038	0,064
-456,255	168,101	-0,080	-0,083
-455,241	-200,000	0,015	-0,058
-454,226	-200,000	0,019	-0,071
-453,211	-41,752	0,121	0,045
-452,197	49,892	0,060	-0,041
-451,182	-52,684	-0,108	0,036
-450,168	-69,815	0,079	0,022
-449,153	800,000	0,045	-0,095
-448,138	181,957	-0,042	-0,046
-447,124	76,747	-0,060	-0,047
-446,109	-200,000	0,040	-0,163
-445,095	-149,238	0,025	-0,001
-444,080	-132,367	0,121	0,011
-443,065	-19,091	0,013	-0,006
-442,051	-110,646	0,048	0,007
-441,036	-200,000	-0,009	-0,105
-440,022	52,070	0,010	-0,007
-439,007	-75,568	-0,105	0,027
-437,992	-200,000	0,001	0,107
-436,978	800,000	0,025	0,077
-435,963	-200,000	0,026	0,101
-434,949	-200,000	0,017	-0,062
-433,934	-52,159	-0,081	-0,027
-432,919	751,453	-0,069	-0,136
-431,905	184,221	-0,115	-0,124
-430,890	609,646	0,068	0,124
-429,876	-200,000	-0,022	0,075
-428,861	-200,000	-0,057	0,203
-427,846	-90,838	-0,072	0,015
-426,832	-200,000	0,002	-0,137
-425,817	-65,243	-0,042	-0,012
-424,803	19,361	0,083	-0,048
-423,788	86,773	0,031	0,025
-422,773	-90,396	0,035	0,007
-421,759	-127,590	-0,033	0,003
-420,744	800,000	0,018	0,056
-419,730	-116,380	0,121	0,016
-418,715	38,424	-0,168	-0,108
-417,701	-200,000	0,011	-0,119
-416,686	-200,000	0,003	-0,060
-415,671	-200,000	0,014	-0,118
-414,657	-57,539	-0,067	0,021
-413,642	-166,367	0,055	0,002
-412,628	-15,014	0,040	0,019
-411,613	-89,966	-0,072	-0,015
-410,598	-200,000	0,022	0,116
-409,584	692,321	0,060	-0,115
-408,569	352,551	0,021	0,031
-407,555	34,546	-0,108	0,068
-406,540	-63,789	0,162	-0,048
-405,525	-104,514	-0,144	0,024
-404,511	222,984	-0,051	-0,060
-403,496	255,620	-0,078	-0,097
-402,482	530,125	-0,112	-0,193
-401,467	27,476	-0,041	0,025
-400,452	331,541	0,060	0,084
-399,438	211,475	-0,104	-0,119
-398,423	-200,000	0,032	-0,158
-397,409	800,000	0,025	0,051
-396,394	375,033	0,040	-0,060
-395,379	14,039	-0,098	-0,055
-394,365	-200,000	0,003	-0,061
-393,350	-90,541	0,084	-0,017
-392,336	-200,000	-0,015	0,207
-391,321	543,170	0,052	0,090
-390,306	-69,970	-0,100	0,027
-389,292	800,000	-0,038	-0,082
-388,277	-200,000	0,002	0,033
-387,263	170,993	-0,051	-0,053
-386,248	530,966	0,066	0,113
-385,233	800,000	0,003	0,010
-384,219	-200,000	-0,039	-0,188
-383,204	800,000	-0,047	-0,126
-382,190	-200,000	0,002	-0,103
-381,175	1,069	-0,110	0,057
-380,160	362,295	-0,027	-0,040
-379,146	-55,289	0,090	-0,029
-378,131	-32,771	0,109	0,044
-377,117	800,000	-0,062	0,182
-376,102	-200,000	-0,023	-0,095
-375,088	93,285	-0,014	0,012
-374,073	-200,000	0,031	-0,128
-373,058	-132,613	0,114	0,010
-372,044	703,279	-0,038	-0,073
-371,029	123,408	-0,115	-0,105
-370,015	379,803	-0,062	0,092
-369,000	-200,000	0,002	0,019
-367,985	758,148	0,061	-0,121
-366,971	699,295	-0,019	-0,037
-365,956	-166,164	0,056	0,002
-364,942	156,304	0,030	0,030
-363,927	50,818	-0,093	0,064
-362,912	800,000	-0,022	0,056
-361,898	70,487	-0,075	0,056
-360,883	723,743	0,063	-0,122
-359,869	-200,000	-0,011	-0,043
-358,854	371,680	0,020	0,029
-357,839	-95,822	-0,022	0,004
-356,825	-106,673	0,044	-0,007
-355,810	-150,782	0,099	-0,005
-354,796	650,049	-0,066	0,124
-353,781	-49,094	-0,156	0,054
-352,766	-200,000	-0,035	0,137
-351,752	-134,817	0,063	-0,005
-350,737	-65,212	0,050	0,015
-349,723	-200,000	0,046	0,161
-348,708	800,000	-0,030	0,063
-347,693	-200,000	-0,008	-0,048
-346,679	207,498	-0,043	-0,049
-345,664	306,388	-0,084	0,113
-344,650	-122,083	0,082	0,010
-343,635	163,650	0,025	0,026
-342,620	681,093	-0,054	0,103
-341,606	297,640	-0,015	0,020
-340,591	341,942	-0,076	0,108
-339,577	2,181	0,037	-0,019
-338,562	-8,493	-0,144	-0,070
-337,548	-170,367	-0,132	-0,003
-336,533	337,805	0,069	-0,098
-335,518	800,000	0,081	0,246
-334,504	28,750	-0,084	-0,051
-333,489	-200,000	-0,011	0,077
-332,475	-200,000	0,012	-0,094
-331,460	35,447	0,054	0,034
-330,445	-163,361	0,039	0,001
-329,431	113,114	-0,067	0,059
-328,416	151,661	-0,017	-0,017
-327,402	-200,000	-0,058	-0,000
-326,387	-60,674	0,100	-0,031
-325,372	800,000	-0,045	-0,102
-324,358	-200,000	0,026	-0,151
-323,343	800,000	-0,015	-0,047
-322,329	205,555	0,071	0,080
-321,314	-200,000	0,044	0,145
-320,299	171,639	0,077	0,080
-319,285	800,000	0,014	-0,040
-318,270	-200,000	-0,009	-0,033
-317,256	32,485	-0,039	0,024
-316,241	-65,034	0,078	-0,023
-315,226	-52,980	0,079	-0,026
-314,212	384,744	0,069	0,103
-313,197	30,792	0,168	-0,104
-312,183	282,911	0,017	0,023
-311,168	282,824	-0,067	0,087
-310,153	-89,084	0,154	0,033
-309,139	524,556	0,038	-0,065
-308,124	-157,289	0,108	0,005
-307,110	-200,000	-0,004	0,029
-306,095	74,661	0,097	0,074
-305,080	215,786	-0,091	-0,104
-304,066	235,601	0,068	0,081
-303,051	-141,023	-0,126	-0,009
-302,037	-200,000	-0,002	-0,058
-301,022	315,150	0,068	-0,093
-300,008	-71,166	0,061	-0,016
-298,993	-98,527	0,185	0,034
-297,978	28,639	0,062	0,038
-296,964	-200,000	0,004	-0,094
-295,949	162,669	-0,083	-0,084
-294,935	-200,000	0,000	0,052
-293,920	-200,000	0,006	-0,026
-292,905	-100,799	0,039	0,007
-291,891	-0,562	0,049	0,025
-290,876	523,079	0,073	-0,125
-289,862	-32,656	0,098	0,039
-288,847	-200,000	-0,019	0,106
-287,832	800,000	0,015	-0,040
-286,818	-10,348	-0,046	0,022
-285,803	167,265	-0,031	-0,031
-284,789	-23,553	0,093	0,040
-283,774	470,399	0,022	0,036
-282,759	-115,665	-0,020	0,003
-281,745	-200,000	-0,031	0,128
-280,730	800,000	-0,017	0,045
-279,716	6,913	-0,040	-0,022
-278,701	-60,733	0,092	-0,028
-277,686	238,757	-0,120	0,144
-276,672	203,671	0,108	0,122
-275,657	51,498	-0,080	-0,055
-274,643	800,000	0,044	-0,097
-273,628	541,853	-0,087	-0,151
-272,613	-112,464	-0,126	0,018
-271,599	-200,000	-0,001	0,078
-270,584	-164,510	0,075	-0,002
-269,570	-200,000	-0,001	0,149
-268,555	144,820	-0,071	-0,068
-267,540	-48,894	-0,055	-0,019
-266,526	439,655	-0,108	-0,172
-265,511	90,958	0,085	-0,069
-264,497	503,144	0,022	-0,036
-263,482	-114,482	0,132	0,018
-262,467	-200,000	-0,014	-0,053
-261,453	-200,000	-0,004	-0,080
-260,438	-200,000	-0,017	-0,076
-259,424	-70,347	-0,075	-0,020
-258,409	-17,239	0,071	-0,032
-257,395	34,404	-0,188	0,118
-256,380	-140,697	0,112	0,008
-255,365	-200,000	0,008	-0,148
-254,351	361,263	-0,084	0,121
-253,336	12,294	-0,073	0,041
-252,322	674,662	-0,066	-0,124
-251,307	800,000	-0,045	-0,110
-250,292	-95,218	-0,053	0,010
-249,278	-151,274	0,129	0,007
-248,263	662,728	0,031	0,058
-247,249	536,782	-0,010	-0,017
-246,234	-8,126	-0,094	-0,046
-245,219	175,634	0,049	-0,051
-244,205	342,083	0,075	0,106
-243,190	-72,329	-0,044	-0,012
-242,176	-67,814	-0,099	0,028
-241,161	530,372	-0,075	0,129
-240,146	-31,401	0,040	0,016
-239,132	136,431	0,087	-0,082
-238,117	337,269	0,043	-0,060
-237,103	410,535	-0,053	-0,082
-236,088	-3,276	-0,013	0,007
-235,073	79,919	-0,011	0,008
-234,059	115,772	0,067	-0,059
-233,044	-200,000	0,013	0,064
-232,030	-13,891	-0,035	0,016
-231,015	-79,726	-0,148	-0,036
-230,000	-131,412	0,101	0,010
-228,986	27,579	0,058	-0,035
-227,971	800,000	0,050	0,135
-226,957	150,865	-0,083	0,082
-225,942	-200,000	0,004	0,038
-224,927	-200,000	-0,021	0,108
-223,913	-200,000	-0,002	-0,047
-222,898	-87,055	-0,164	-0,036
-221,884	800,000	-0,075	-0,206
-220,869	-131,004	0,185	-0,018
-219,855	-200,000	0,019	-0,108
-218,840	-200,000	0,014	0,095
-217,825	-200,000	-0,001	0,191
-216,811	597,002	0,065	0,116
-215,796	-79,198	-0,088	0,021
-214,782	800,000	-0,062	-0,142
-213,767	-165,226	-0,102	-0,003
-212,752	-36,136	0,069	0,027
-211,738	800,000	0,063	0,153
-210,723	134,731	-0,019	0,018
-209,709	-119,106	-0,097	-0,012
-208,694	5,230	-0,101	-0,054
-207,679	800,000	-0,038	0,079
-206,665	276,052	0,024	0,031
-205,650	-10,555	0,168	0,080
-204,636	299,595	-0,079	-0,105
-203,621	57,232	0,103	-0,072
-202,606	332,015	0,031	0,044
-201,592	71,519	-0,038	-0,029
-200,577	-6,919	0,099	0,049
-199,563	185,226	0,084	0,090
-198,548	132,140	-0,070	-0,065
-197,533	-200,000	-0,024	0,087
-196,519	-115,106	-0,070	0,009
-195,504	-5,133	-0,047	-0,023
-194,490	59,832	-0,102	-0,072
-193,475	18,844	-0,075	-0,043
-192,460	207,248	0,021	0,024
-191,446	231,757	0,085	0,100
-190,431	460,696	-0,089	0,143
-189,417	519,555	0,092	-0,156
-188,402	243,303	-0,082	0,099
-187,387	156,542	0,060	-0,060
-186,373	-35,716	-0,143	0,056
-185,358	169,938	-0,047	0,048
-184,344	-13,367	0,081	0,038
-183,329	-147,443	0,071	0,004
-182,315	185,779	-0,085	0,092
-181,300	39,070	-0,091	0,059
-180,285	134,074	0,088	0,082
-179,271	-200,000	-0,018	-0,124
-178,256	800,000	0,043	-0,095
-177,242	313,986	0,011	-0,014
-176,227	270,043	0,050	-0,064
-175,212	-200,000	-0,007	0,095
-174,198	370,498	0,022	0,032
-173,183	213,494	0,072	0,082
-172,169	-90,089	-0,141	0,029
-171,154	-77,982	0,083	-0,020
-170,139	-96,226	-0,096	0,018
-169,125	-78,986	0,131	-0,032
-168,110	-53,769	0,057	-0,019
-167,096	-149,124	-0,124	0,007
-166,081	-117,183	-0,162	0,021
-165,066	268,236	-0,089	-0,113
-164,052	21,880	0,080	0,047
-163,037	-200,000	-0,006	-0,047
-162,023	245,855	0,041	0,050
-161,008	286,619	-0,004	0,005
-159,993	800,000	0,053	0,135
-158,979	-55,355	-0,109	0,035
-157,964	108,883	-0,160	-0,138
-156,950	157,669	-0,143	-0,143
-155,935	-115,592	0,083	0,011
-154,920	604,407	-0,067	0,121
-153,906	800,000	0,051	0,107
-152,891	61,889	-0,104	0,074
-151,877	-42,743	0,008	-0,003
-150,862	-200,000	0,028	-0,168
-149,847	160,103	0,065	0,065
-148,833	-200,000	0,017	-0,093
-147,818	-200,000	-0,003	0,143
-146,804	260,472	0,099	0,124
-145,789	167,618	0,028	-0,029
-144,775	278,200	-0,100	0,129
-143,760	-200,000	-0,008	0,063
-142,745	33,470	-0,089	-0,056
-141,731	800,000	0,046	0,117
-140,716	685,465	-0,047	-0,089
-139,702	-1,894	-0,035	-0,017
-138,687	65,270	-0,007	0,005
-137,672	12,376	-0,065	0,036
-136,658	46,339	-0,060	-0,040
-135,643	-200,000	0,022	-0,119
-134,629	-39,807	0,086	-0,032
-133,614	481,654	-0,078	-0,128
-132,599	-22,746	0,161	0,070
-131,585	14,652	-0,106	-0,059
-130,570	72,160	0,081	-0,061
-129,556	-200,000	0,004	-0,063
-128,541	800,000	-0,089	-0,229
-127,526	-200,000	0,000	0,049
-126,512	261,078	-0,077	0,097
-125,497	-200,000	0,004	0,038
-124,483	51,846	-0,047	-0,032
-123,468	242,116	0,043	-0,051
-122,453	148,722	0,075	-0,073
-121,439	-200,000	-0,001	-0,099
-120,424	800,000	0,033	0,079
-119,410	-6,768	0,121	0,059
