DTS Sentinel unit serial number:	SN410029Multiplexer serial number:	ORYXHardware model number:	OX2-SRSoftware version number:	ORYX F/W v4,00 Oryx Data Collector v3.7.2.0data status	okinstallation	B6 Nyhavnadifferential loss correction	single-endedforward channel	channel 2reverse channel	N/Adate	2023/12/08time	16:40:08forward acquisition time	300,00reverse acquisition time	0,00gamma	499,1914k internal	0,3159k external	0,3159temperature offset calibration	1,0000default loss term (dB/km)	0,3820temperature slope calibration	1,0000multiplexer offset coefficient	1,0000multiplexer slope coefficient	1,0000fibre end	0,00T internal ref (°C)	15,12T ext. ref 1 (°C)	-1,40T ext. ref 2 (°C)	-1,41length (m)	temperature (°C)	Stokes	anti-Stokes-744,400	241,437	0,092	0,113
-743,385	-46,227	-0,481	0,174
-742,371	257,415	0,157	0,199
-741,356	-130,480	-0,334	0,033
-740,342	-31,886	0,273	0,112
-739,327	-31,284	-0,312	0,129
-738,312	-79,255	0,150	0,037
-737,298	-150,257	-0,332	0,019
-736,283	-73,075	0,183	0,049
-735,269	-54,757	-0,274	0,090
-734,254	307,808	0,078	0,107
-733,239	-79,418	-0,372	-0,092
-732,225	-44,259	0,144	0,053
-731,210	-46,226	0,025	-0,009
-730,196	52,243	0,096	0,067
-729,181	22,783	-0,107	-0,064
-728,167	-124,944	0,133	0,015
-727,152	-121,731	0,096	0,012
-726,137	-141,143	-0,187	-0,014
-725,123	800,000	-0,040	0,099
-724,108	-200,000	-0,022	-0,198
-723,094	-99,923	-0,225	-0,041
-722,079	335,469	-0,025	-0,036
-721,064	-37,562	-0,019	0,008
-720,050	-200,000	-0,021	-0,072
-719,035	59,761	0,140	-0,102
-718,021	-76,517	-0,144	0,037
-717,006	-14,079	0,046	-0,022
-715,991	-125,462	-0,032	-0,003
-714,977	-200,000	-0,031	-0,173
-713,962	-200,000	0,012	0,123
-712,948	-200,000	-0,015	-0,120
-711,933	-200,000	-0,011	0,100
-710,918	-200,000	-0,004	-0,016
-709,904	-45,637	0,082	-0,030
-708,889	233,881	-0,025	0,030
-707,875	-200,000	0,046	-0,158
-706,860	-200,000	-0,000	-0,148
-705,845	199,692	0,027	0,030
-704,831	-129,492	0,086	0,009
-703,816	86,224	-0,055	-0,044
-702,802	-27,227	0,096	-0,041
-701,787	800,000	0,018	0,052
-700,772	-2,528	-0,075	0,038
-699,758	175,625	-0,051	0,054
-698,743	-200,000	-0,019	0,075
-697,729	145,385	-0,075	0,074
-696,714	-200,000	-0,009	-0,080
-695,699	399,907	-0,047	0,073
-694,685	-195,412	-0,142	-0,001
-693,670	-200,000	-0,019	-0,312
-692,656	-200,000	-0,045	-0,245
-691,641	-124,542	0,082	-0,009
-690,627	53,781	0,123	-0,087
-689,612	-81,693	0,010	-0,002
-688,597	-1,261	-0,035	-0,018
-687,583	279,900	-0,068	-0,089
-686,568	57,474	-0,086	-0,062
-685,554	114,889	-0,131	-0,118
-684,539	-2,623	-0,070	0,036
-683,524	-16,167	0,109	0,051
-682,510	-200,000	-0,030	-0,101
-681,495	-8,640	0,020	0,010
-680,481	-200,000	-0,001	-0,102
-679,466	213,302	-0,057	0,066
-678,451	-200,000	0,039	-0,128
-677,437	676,265	-0,042	0,081
-676,422	800,000	0,044	0,126
-675,408	800,000	0,060	-0,132
-674,393	-200,000	-0,012	-0,115
-673,378	-96,377	0,039	-0,008
-672,364	66,403	-0,075	-0,056
-671,349	240,155	-0,084	0,103
-670,335	-113,386	-0,045	-0,006
-669,320	-200,000	-0,006	0,071
-668,305	-200,000	0,026	0,112
-667,291	-200,000	-0,025	0,094
-666,276	1,970	-0,058	-0,031
-665,262	800,000	0,018	-0,038
-664,247	-200,000	0,029	0,114
-663,232	-200,000	-0,005	-0,022
-662,218	4,077	-0,027	0,014
-661,203	-200,000	0,014	0,094
-660,189	-200,000	-0,002	-0,010
-659,174	772,405	-0,037	-0,074
-658,159	94,551	-0,088	-0,074
-657,145	-200,000	-0,021	-0,105
-656,130	-25,202	-0,008	0,004
-655,116	579,092	0,054	0,098
-654,101	-200,000	0,010	0,053
-653,086	800,000	0,014	0,042
-652,072	24,635	-0,112	-0,068
-651,057	3,647	-0,124	0,066
-650,043	26,087	-0,073	-0,045
-649,028	345,972	0,097	-0,140
-648,014	-2,523	-0,012	0,006
-646,999	653,270	0,055	0,103
-645,984	35,373	-0,061	-0,040
-644,970	-12,643	0,028	0,014
-643,955	352,833	0,056	-0,081
-642,941	-102,989	-0,133	-0,023
-641,926	800,000	0,033	-0,106
-640,911	333,922	0,051	-0,072
-639,897	388,819	0,044	0,067
-638,882	-200,000	0,011	0,231
-637,868	338,754	-0,048	-0,068
-636,853	-200,000	0,005	-0,036
-635,838	-113,157	-0,077	0,011
-634,824	442,362	0,038	-0,061
-633,809	-59,549	-0,092	0,029
-632,795	239,537	0,048	0,059
-631,780	800,000	0,026	0,080
-630,765	-97,240	0,034	-0,007
-629,751	610,331	-0,013	0,025
-628,736	-91,244	0,085	0,018
-627,722	701,597	0,046	-0,090
-626,707	-132,528	0,084	0,008
-625,692	800,000	-0,069	-0,211
-624,678	-136,769	-0,008	-0,001
-623,663	-200,000	0,043	0,193
-622,649	75,511	0,087	0,067
-621,634	-2,685	-0,089	0,045
-620,619	601,989	-0,046	-0,084
-619,605	581,027	0,037	-0,066
-618,590	-41,333	-0,073	0,027
-617,576	-200,000	0,020	-0,070
-616,561	-62,295	-0,044	0,013
-615,546	-90,003	-0,087	-0,018
-614,532	800,000	0,031	-0,068
-613,517	38,907	-0,029	0,019
-612,503	-76,662	-0,073	-0,019
-611,488	315,577	-0,038	-0,052
-610,474	-3,799	0,033	-0,017
-609,459	17,809	0,040	-0,023
-608,444	800,000	0,015	-0,045
-607,430	120,503	-0,027	0,025
-606,415	464,147	0,027	-0,044
-605,401	-174,922	0,119	0,002
-604,386	-83,835	0,110	-0,026
-603,371	800,000	-0,019	-0,050
-602,357	86,381	-0,075	-0,061
-601,342	3,189	-0,121	0,065
-600,328	-30,037	-0,108	0,045
-599,313	800,000	0,024	-0,056
-598,298	-200,000	0,005	-0,167
-597,284	-111,578	0,056	-0,008
-596,269	800,000	0,023	0,048
-595,255	-116,335	0,065	-0,009
-594,240	800,000	-0,048	-0,103
-593,225	800,000	-0,036	0,089
-592,211	-81,333	-0,152	0,036
-591,196	35,669	0,097	-0,062
-590,182	-200,000	-0,054	0,200
-589,167	-105,600	-0,100	-0,016
-588,152	329,014	-0,045	0,064
-587,138	-62,503	0,066	0,020
-586,123	-200,000	-0,013	-0,116
-585,109	-67,300	0,203	-0,058
-584,094	214,213	0,034	0,040
-583,079	800,000	-0,023	-0,056
-582,065	-200,000	-0,001	0,013
-581,050	173,953	-0,027	-0,028
-580,036	-200,000	0,105	0,000
-579,021	-56,425	-0,233	-0,075
-578,006	224,069	-0,034	-0,040
-576,992	-200,000	-0,010	0,047
-575,977	-200,000	0,001	-0,025
-574,963	800,000	-0,055	0,148
-573,948	-200,000	0,025	-0,134
-572,934	-200,000	-0,003	0,052
-571,919	242,200	-0,046	-0,057
-570,904	2,872	-0,108	-0,057
-569,890	800,000	-0,048	-0,155
-568,875	800,000	0,044	0,090
-567,861	-97,822	-0,123	-0,023
-566,846	-16,023	0,043	-0,020
-565,831	-49,979	0,099	0,034
-564,817	245,259	-0,100	-0,124
-563,802	-12,746	0,104	0,050
-562,788	-200,000	-0,003	-0,087
-561,773	9,593	-0,125	-0,069
-560,758	-54,173	0,115	-0,038
-559,744	-70,594	-0,071	0,019
-558,729	-200,000	0,003	0,156
-557,715	-92,422	-0,061	-0,012
-556,700	-200,000	0,035	-0,146
-555,685	766,871	-0,082	-0,164
-554,671	-163,312	0,110	0,004
-553,656	-200,000	-0,021	0,083
-552,642	-146,553	-0,109	-0,007
-551,627	-200,000	0,005	0,076
-550,612	152,826	0,093	0,093
-549,598	-200,000	0,011	0,039
-548,583	-200,000	0,009	-0,052
-547,569	800,000	0,041	0,128
-546,554	-155,974	0,149	-0,007
-545,539	318,147	-0,039	0,054
-544,525	406,414	0,009	0,014
-543,510	-104,794	0,084	-0,014
-542,496	737,533	0,027	-0,053
-541,481	182,105	0,019	-0,021
-540,466	-101,620	-0,049	0,009
-539,452	-200,000	0,001	0,023
-538,437	800,000	0,011	-0,023
-537,423	-200,000	0,017	0,056
-536,408	-91,920	0,072	-0,015
-535,393	-15,607	0,103	-0,048
-534,379	-3,797	-0,035	0,018
-533,364	58,838	-0,058	0,041
-532,350	216,506	-0,042	-0,049
-531,335	288,483	-0,087	0,115
-530,321	29,380	-0,072	0,044
-529,306	-68,640	0,135	0,038
-528,291	-68,652	-0,007	-0,002
-527,277	229,713	-0,070	-0,084
-526,262	-200,000	0,019	-0,116
-525,248	-200,000	-0,001	-0,058
-524,233	800,000	-0,062	-0,146
-523,218	315,531	0,080	-0,111
-522,204	-200,000	0,010	0,121
-521,189	-200,000	-0,001	-0,120
-520,175	-184,401	-0,018	-0,000
-519,160	-200,000	-0,005	-0,047
-518,145	76,658	0,166	0,128
-517,131	249,040	-0,048	-0,059
-516,116	415,838	0,057	0,089
-515,102	4,468	-0,024	-0,013
-514,087	32,452	0,009	-0,006
-513,072	559,307	-0,109	-0,192
-512,058	-48,355	-0,097	0,034
-511,043	-9,060	0,085	-0,042
-510,029	-31,845	-0,022	0,009
-509,014	-5,172	-0,059	0,030
-507,999	-200,000	0,004	-0,019
-506,985	599,372	-0,067	-0,122
-505,970	-200,000	0,030	-0,247
-504,956	359,704	-0,019	-0,027
-503,941	43,510	-0,091	-0,061
-502,926	-200,000	0,018	0,117
-501,912	-67,193	0,088	0,025
-500,897	800,000	0,016	0,051
-499,883	186,819	0,012	-0,014
-498,868	-200,000	-0,012	-0,067
-497,853	43,569	0,154	0,102
-496,839	500,192	-0,080	-0,135
-495,824	-200,000	-0,007	-0,060
-494,810	-200,000	-0,042	-0,141
-493,795	226,492	-0,075	0,088
-492,781	-40,419	0,103	-0,039
-491,766	800,000	-0,019	-0,051
-490,751	-200,000	-0,012	-0,072
-489,737	313,651	-0,064	-0,088
-488,722	415,571	-0,012	-0,019
-487,708	-82,648	0,006	0,001
-486,693	-140,376	-0,047	0,004
-485,678	-54,521	-0,047	-0,016
-484,664	521,225	-0,030	-0,051
-483,649	-79,353	0,112	0,028
-482,635	-26,783	-0,120	0,051
-481,620	-169,156	0,081	-0,002
-480,605	-200,000	0,006	0,108
-479,591	54,601	0,112	-0,079
-478,576	-200,000	-0,002	0,023
-477,562	800,000	-0,040	-0,091
-476,547	-6,843	0,105	-0,052
-475,532	-200,000	0,016	-0,089
-474,518	-0,962	0,106	-0,055
-473,503	17,147	0,051	0,029
-472,489	314,160	0,096	0,132
-471,474	72,019	-0,088	0,067
-470,459	-200,000	0,015	0,053
-469,445	-12,759	-0,015	0,007
-468,430	134,106	-0,046	-0,043
-467,416	-200,000	0,002	0,080
-466,401	441,391	0,043	-0,069
-465,386	181,576	-0,013	0,014
-464,372	-46,210	0,099	0,035
-463,357	800,000	-0,012	-0,031
-462,343	-37,383	0,029	-0,011
-461,328	-28,656	-0,023	-0,010
-460,313	-76,554	0,136	-0,035
-459,299	-200,000	0,020	0,097
-458,284	393,339	0,078	0,119
-457,270	28,561	0,063	0,039
-456,255	-200,000	-0,011	0,064
-455,241	800,000	0,014	0,034
-454,226	104,831	0,047	0,041
-453,211	-200,000	-0,007	0,144
-452,197	253,567	-0,051	-0,064
-451,182	-40,470	0,117	-0,044
-450,168	-200,000	-0,020	0,121
-449,153	229,815	-0,098	-0,117
-448,138	0,689	0,082	0,043
-447,124	-143,298	-0,031	0,002
-446,109	5,606	0,037	0,020
-445,095	-200,000	-0,003	-0,012
-444,080	7,866	0,058	-0,031
-443,065	538,470	-0,021	0,037
-442,051	-150,291	0,124	-0,007
-441,036	-200,000	0,013	-0,090
-440,022	800,000	0,015	0,039
-439,007	424,022	0,012	0,019
-437,992	177,045	0,055	-0,058
-436,978	89,417	-0,077	0,063
-435,963	-91,444	0,133	-0,027
-434,949	800,000	0,017	0,037
-433,934	-200,000	-0,006	0,054
-432,919	800,000	0,041	0,093
-431,905	300,519	0,043	-0,058
-430,890	371,442	0,077	0,113
-429,876	-15,906	-0,072	0,033
-428,861	800,000	0,019	0,050
-427,846	216,448	-0,078	-0,090
-426,832	37,304	-0,104	0,067
-425,817	143,538	-0,032	0,031
-424,803	-200,000	-0,007	-0,079
-423,788	800,000	-0,016	-0,048
-422,773	-61,014	-0,019	-0,006
-421,759	800,000	0,027	0,074
-420,744	-27,519	0,099	-0,042
-419,730	-89,358	-0,139	0,030
-418,715	-200,000	0,009	-0,122
-417,701	326,866	0,085	0,118
-416,686	0,897	-0,097	-0,051
-415,671	-74,965	0,124	-0,032
-414,657	160,084	-0,100	0,101
-413,642	-200,000	-0,037	0,141
-412,628	406,219	-0,064	-0,098
-411,613	-200,000	-0,000	-0,019
-410,598	31,864	0,120	-0,075
-409,584	-89,264	-0,114	-0,024
-408,569	45,239	0,080	-0,054
-407,555	-103,204	0,101	-0,017
-406,540	6,019	0,153	0,082
-405,525	-200,000	-0,071	-0,240
-404,511	480,689	-0,060	-0,099
-403,496	-46,166	-0,034	0,012
-402,482	-141,918	0,101	-0,007
-401,467	-200,000	0,029	0,139
-400,452	188,233	0,077	-0,084
-399,438	-63,908	-0,189	0,056
-398,423	800,000	-0,031	0,093
-397,409	-54,644	-0,180	-0,059
-396,394	-0,942	0,056	0,029
-395,379	800,000	-0,021	-0,057
-394,365	-120,281	0,012	0,002
-393,350	218,671	-0,090	-0,104
-392,336	-74,316	-0,077	-0,020
-391,321	800,000	0,051	-0,114
-390,306	263,149	0,033	-0,041
-389,292	57,073	-0,023	-0,016
-388,277	111,534	-0,035	0,031
-387,263	-109,089	0,180	-0,028
-386,248	12,797	-0,027	0,015
-385,233	124,491	0,036	0,033
-384,219	-200,000	-0,005	-0,077
-383,204	-87,201	-0,014	0,003
-382,190	455,497	0,036	0,059
-381,175	-200,000	-0,003	0,091
-380,160	62,768	-0,049	-0,036
-379,146	-149,474	0,161	0,009
-378,131	-200,000	0,002	-0,029
-377,117	740,621	-0,068	-0,133
-376,102	-109,402	-0,038	0,006
-375,088	-164,782	-0,102	-0,003
-374,073	-200,000	0,003	0,038
-373,058	-48,213	-0,110	-0,038
-372,044	142,737	-0,051	-0,050
-371,029	701,754	-0,029	-0,056
-370,015	800,000	-0,036	-0,084
-369,000	33,688	-0,089	0,056
-367,985	-117,837	0,111	0,014
-366,971	4,554	-0,090	-0,048
-365,956	-106,339	0,072	0,012
-364,942	2,786	0,089	-0,047
-363,927	-56,852	0,153	0,049
-362,912	-200,000	-0,002	-0,017
-361,898	-200,000	-0,005	0,032
-360,883	800,000	-0,003	0,008
-359,869	-176,472	0,077	0,001
-358,854	-105,262	-0,052	0,008
-357,839	-101,234	0,058	-0,010
-356,825	-200,000	0,008	-0,064
-355,810	-118,034	0,024	0,003
-354,796	510,322	-0,019	0,032
-353,781	265,225	0,022	0,028
-352,766	-200,000	0,025	0,158
-351,752	53,858	0,030	-0,021
-350,737	-200,000	-0,006	0,075
-349,723	-200,000	-0,000	0,044
-348,708	800,000	-0,029	0,081
-347,693	-75,240	-0,017	-0,004
-346,679	67,420	0,062	0,046
-345,664	63,671	-0,197	-0,143
-344,650	638,486	0,088	0,163
-343,635	99,950	0,103	0,086
-342,620	-4,900	0,077	-0,038
-341,606	-200,000	-0,011	-0,068
-340,591	98,725	-0,133	-0,111
-339,577	54,617	0,043	-0,030
-338,562	-36,834	-0,078	-0,030
-337,548	-182,790	0,109	-0,001
-336,533	-120,492	0,042	-0,005
-335,518	53,879	0,045	0,032
-334,504	626,599	-0,075	0,139
-333,489	-17,881	0,026	-0,012
-332,475	-114,916	0,038	-0,005
-331,460	-134,764	-0,133	-0,012
-330,445	-200,000	-0,017	-0,076
-329,431	-87,914	0,094	-0,020
-328,416	-200,000	-0,031	0,107
-327,402	215,231	0,110	0,127
-326,387	-142,152	0,077	0,005
-325,372	-10,766	0,105	0,050
-324,358	178,487	0,063	-0,067
-323,343	-122,162	-0,116	0,014
-322,329	381,367	0,044	0,065
-321,314	236,975	0,042	-0,050
-320,299	-128,014	-0,030	0,003
-319,285	735,064	-0,032	0,062
-318,270	-173,526	0,018	0,000
-317,256	41,220	-0,165	0,108
-316,241	52,295	-0,052	-0,036
-315,226	-8,540	-0,117	0,057
-314,212	110,022	0,064	0,055
-313,197	-186,622	0,044	0,000
-312,183	-200,000	0,014	0,052
-311,168	-10,713	-0,137	0,066
-310,153	156,886	-0,089	-0,089
-309,139	-103,463	-0,087	-0,015
-308,124	277,638	0,107	0,138
-307,110	-150,757	0,072	0,004
-306,095	493,801	0,107	0,179
-305,080	128,274	0,050	0,046
-304,066	800,000	-0,034	0,096
-303,051	800,000	0,044	-0,108
-302,037	800,000	-0,015	-0,035
-301,022	536,629	0,053	0,092
-300,008	-12,108	0,030	0,014
-298,993	-200,000	0,060	0,264
-297,978	186,008	0,016	0,017
-296,964	-200,000	-0,014	-0,063
-295,949	-200,000	0,047	-0,194
-294,935	180,922	-0,084	-0,090
-293,920	-186,795	0,168	-0,002
-292,905	-200,000	0,036	0,139
-291,891	502,847	0,068	-0,114
-290,876	68,238	-0,097	-0,072
-289,862	141,485	0,087	-0,083
-288,847	800,000	0,071	-0,218
-287,832	428,043	-0,058	0,091
-286,818	82,661	-0,066	0,052
-285,803	-170,233	0,041	0,001
-284,789	45,750	0,102	0,068
-283,774	71,341	0,108	0,081
-282,759	-2,498	-0,059	0,030
-281,745	-200,000	-0,013	0,090
-280,730	800,000	0,006	0,020
-279,716	-82,912	-0,179	0,041
-278,701	-200,000	-0,013	0,140
-277,686	800,000	-0,052	-0,105
-276,672	800,000	0,041	-0,127
-275,657	107,812	0,036	-0,031
-274,643	-200,000	-0,006	-0,134
-273,628	-83,411	-0,034	-0,008
-272,613	800,000	0,060	-0,146
-271,599	308,707	0,035	-0,048
-270,584	-14,650	0,134	0,062
-269,570	-200,000	-0,009	0,090
-268,555	-118,133	-0,137	-0,017
-267,540	800,000	-0,021	-0,066
-266,526	397,440	0,075	-0,114
-265,511	800,000	0,052	0,143
-264,497	554,068	-0,063	0,111
-263,482	-200,000	-0,011	0,201
-262,467	28,754	0,167	0,102
-261,453	188,165	-0,053	0,057
-260,438	143,510	0,020	-0,019
-259,424	-171,854	0,049	-0,001
-258,409	-139,381	-0,092	-0,007
-257,395	53,194	-0,076	-0,053
-256,380	-200,000	-0,025	0,157
-255,365	800,000	-0,064	0,142
-254,351	639,058	-0,007	-0,013
-253,336	-200,000	-0,020	-0,066
-252,322	-200,000	0,005	-0,024
-251,307	-110,917	-0,119	-0,018
-250,292	-146,345	0,047	-0,003
-249,278	129,728	-0,030	-0,028
-248,263	85,507	-0,022	-0,017
-247,249	305,127	0,036	-0,049
-246,234	725,612	-0,008	-0,015
-245,219	800,000	-0,051	-0,146
-244,205	-153,732	0,080	0,004
-243,190	-200,000	-0,003	0,011
-242,176	-65,679	0,086	0,025
-241,161	-57,489	0,092	0,029
-240,146	409,164	0,092	-0,142
-239,132	800,000	0,015	0,036
-238,117	-74,404	-0,199	0,051
-237,103	522,670	-0,005	0,009
-236,088	42,770	-0,111	-0,073
-235,073	-152,596	0,035	0,002
-234,059	205,291	0,065	0,073
-233,044	187,994	-0,119	0,129
-232,030	-56,119	0,029	-0,009
-231,015	800,000	-0,035	0,077
-230,000	-99,045	0,039	-0,007
-228,986	-10,152	0,114	-0,054
-227,971	800,000	0,024	0,059
-226,957	74,837	0,074	-0,056
-225,942	-67,826	-0,191	-0,053
-224,927	150,344	-0,047	-0,046
-223,913	118,449	-0,063	0,056
-222,898	602,589	-0,064	-0,116
-221,884	-85,549	-0,142	0,032
-220,869	-168,205	0,058	0,002
-219,855	-200,000	-0,001	0,118
-218,840	800,000	0,058	-0,116
-217,825	362,857	-0,106	0,154
-216,811	168,019	-0,084	0,087
-215,796	-200,000	0,008	0,050
-214,782	-16,833	-0,128	0,058
-213,767	800,000	-0,043	-0,099
-212,752	-157,414	-0,027	0,001
-211,738	-200,000	-0,050	0,185
-210,723	-41,113	0,073	0,027
-209,709	-150,288	0,045	0,002
-208,694	800,000	0,058	0,117
-207,679	-85,441	0,063	-0,014
-206,665	-200,000	0,011	0,056
-205,650	256,836	-0,017	-0,021
-204,636	276,127	0,068	0,088
-203,621	395,449	-0,076	0,115
-202,606	406,471	-0,051	-0,078
-201,592	-200,000	0,003	-0,036
-200,577	9,915	-0,048	-0,026
-199,563	280,071	0,055	-0,071
-198,548	182,547	0,098	0,105
-197,533	-7,676	-0,035	0,017
-196,519	-200,000	-0,003	-0,051
-195,504	110,007	0,050	0,044
-194,490	66,112	-0,103	0,075
-193,475	208,313	0,117	-0,132
-192,460	-200,000	-0,008	0,086
-191,446	17,117	-0,084	0,048
-190,431	585,397	-0,061	-0,109
-189,417	-43,228	-0,156	-0,057
-188,402	-89,124	0,125	-0,026
-187,387	30,005	0,031	-0,019
-186,373	17,032	-0,170	0,097
-185,358	432,126	-0,038	-0,060
-184,344	394,680	0,037	0,056
-183,329	-30,022	-0,080	0,033
-182,315	-92,948	0,091	-0,018
-181,300	194,979	-0,075	-0,082
-180,285	-200,000	-0,004	0,026
-179,271	-41,705	-0,007	0,003
-178,256	-200,000	0,015	-0,101
-177,242	211,451	0,066	0,075
-176,227	457,938	-0,024	-0,038
-175,212	-86,068	-0,165	0,036
-174,198	46,458	0,023	-0,015
-173,183	165,769	-0,040	-0,041
-172,169	-84,903	0,098	0,022
-171,154	-148,404	-0,123	0,007
-170,139	116,019	0,089	0,078
-169,125	190,651	0,063	0,068
-168,110	35,943	-0,100	0,063
-167,096	-200,000	0,028	0,096
-166,081	-142,262	-0,088	-0,006
-165,066	-104,563	-0,141	-0,023
-164,052	-125,058	0,012	-0,001
-163,037	-83,622	-0,138	-0,032
-162,023	-62,365	0,066	-0,020
-161,008	-200,000	0,017	0,100
-159,993	428,811	-0,052	0,081
-158,979	-89,931	0,103	0,021
-157,964	-1,811	-0,115	-0,058
-156,950	709,561	0,063	-0,120
-155,935	-200,000	-0,025	-0,137
-154,920	-147,603	0,063	0,004
-153,906	431,210	-0,080	0,126
-152,891	-200,000	0,012	0,057
-151,877	-0,663	-0,075	0,038
-150,862	-90,075	-0,142	0,030
-149,847	-200,000	-0,011	-0,181
-148,833	200,558	-0,054	0,059
-147,818	-59,900	0,078	0,024
-146,804	-13,494	-0,042	0,019
-145,789	30,112	0,032	-0,019
-144,775	800,000	-0,028	-0,068
-143,760	161,717	0,105	0,106
-142,745	141,430	-0,045	0,043
-141,731	483,863	0,051	0,084
-140,716	-23,082	-0,022	0,009
-139,702	-200,000	0,028	0,093
-138,687	-58,319	0,048	0,015
-137,672	-200,000	0,006	0,159
-136,658	-200,000	0,010	0,081
-135,643	12,581	-0,073	0,040
-134,629	-18,705	0,105	0,047
-133,614	214,267	0,051	0,058
-132,599	170,406	-0,090	0,092
-131,585	-200,000	0,037	0,140
-130,570	10,306	0,046	-0,025
-129,556	16,168	0,049	0,028
-128,541	-7,666	-0,145	-0,070
-127,526	-50,672	0,107	0,036
-126,512	-94,178	-0,071	-0,014
-125,497	733,949	0,020	-0,039
-124,483	-21,114	-0,088	0,039
-123,468	-200,000	0,001	0,133
-122,453	-138,509	-0,086	0,007
-121,439	-200,000	0,002	-0,041
-120,424	69,010	-0,111	-0,082
-119,410	-200,000	0,002	0,070
