DTS Sentinel unit serial number:	SN410029Multiplexer serial number:	ORYXHardware model number:	OX2-SRSoftware version number:	ORYX F/W v4,00 Oryx Data Collector v3.7.2.0data status	okinstallation	B6 Nyhavnadifferential loss correction	single-endedforward channel	channel 2reverse channel	N/Adate	2023/12/08time	20:10:08forward acquisition time	300,00reverse acquisition time	0,00gamma	499,1914k internal	0,3158k external	0,3158temperature offset calibration	1,0000default loss term (dB/km)	0,3820temperature slope calibration	1,0000multiplexer offset coefficient	1,0000multiplexer slope coefficient	1,0000fibre end	0,00T internal ref (°C)	15,20T ext. ref 1 (°C)	-1,39T ext. ref 2 (°C)	-1,41length (m)	temperature (°C)	Stokes	anti-Stokes-744,400	-200,000	0,008	-0,041
-743,385	-157,420	-0,289	0,013
-742,371	-115,494	0,223	0,031
-741,356	-144,577	-0,305	0,020
-740,342	217,172	0,097	0,114
-739,327	-147,991	-0,228	0,014
-738,312	260,993	-0,041	0,053
-737,298	-75,609	-0,243	-0,063
-736,283	-14,009	0,103	0,049
-735,269	-160,554	-0,281	0,011
-734,254	800,000	0,032	0,073
-733,239	60,800	-0,401	-0,292
-732,225	-44,706	0,128	-0,047
-731,210	244,283	0,049	-0,060
-730,196	210,547	0,055	-0,064
-729,181	64,778	-0,055	-0,041
-728,167	-9,202	0,060	-0,029
-727,152	27,183	-0,040	0,025
-726,137	-200,000	0,011	0,081
-725,123	739,975	-0,092	-0,184
-724,108	378,929	-0,068	-0,103
-723,094	-80,685	-0,144	-0,035
-722,079	-66,892	-0,083	-0,024
-721,064	84,229	-0,084	-0,068
-720,050	75,088	-0,026	-0,020
-719,035	7,964	-0,061	0,034
-718,021	31,475	0,011	-0,007
-717,006	39,313	-0,138	-0,091
-715,991	800,000	-0,026	-0,070
-714,977	357,289	-0,058	0,085
-713,962	-200,000	0,003	0,101
-712,948	-31,434	0,080	-0,033
-711,933	-27,605	-0,102	0,044
-710,918	-90,787	-0,072	0,015
-709,904	-105,977	-0,156	-0,026
-708,889	-200,000	-0,008	-0,082
-707,875	-126,979	-0,039	-0,004
-706,860	-200,000	0,006	-0,047
-705,845	197,839	0,050	-0,057
-704,831	800,000	0,052	0,127
-703,816	-35,518	-0,103	-0,041
-702,802	217,960	-0,121	-0,142
-701,787	-200,000	0,011	-0,050
-700,772	-66,841	-0,089	0,026
-699,758	-83,618	0,056	0,013
-698,743	343,487	-0,070	0,101
-697,729	-40,584	0,034	0,013
-696,714	-23,680	-0,061	-0,027
-695,699	-32,179	-0,081	-0,033
-694,685	-200,000	0,001	-0,104
-693,670	-200,000	-0,014	-0,113
-692,656	-164,167	0,083	0,003
-691,641	189,205	-0,104	-0,114
-690,627	-200,000	-0,001	-0,038
-689,612	800,000	0,045	0,092
-688,597	800,000	0,017	0,048
-687,583	398,783	0,023	-0,035
-686,568	-57,667	0,163	-0,052
-685,554	88,887	0,024	0,020
-684,539	-200,000	-0,040	0,177
-683,524	551,053	0,080	0,142
-682,510	-13,368	0,069	-0,033
-681,495	-200,000	0,008	0,030
-680,481	-48,914	-0,109	-0,038
-679,466	139,787	-0,147	-0,142
-678,451	-88,885	0,140	-0,030
-677,437	-200,000	-0,028	-0,108
-676,422	18,695	0,051	0,030
-675,408	-121,774	-0,026	0,003
-674,393	-139,989	-0,049	0,004
-673,378	-200,000	-0,042	-0,150
-672,364	321,898	-0,075	0,105
-671,349	-78,556	0,056	0,014
-670,335	85,014	-0,068	0,055
-669,320	800,000	0,071	0,189
-668,305	742,312	-0,093	0,185
-667,291	697,141	0,030	-0,058
-666,276	-111,788	-0,190	-0,028
-665,262	25,035	-0,068	-0,041
-664,247	234,813	-0,070	-0,085
-663,232	800,000	-0,053	-0,115
-662,218	302,823	0,033	-0,045
-661,203	-200,000	0,007	-0,078
-660,189	400,522	0,057	-0,087
-659,174	800,000	-0,042	-0,097
-658,159	-200,000	-0,017	-0,059
-657,145	25,722	-0,073	-0,044
-656,130	-86,490	0,170	0,038
-655,116	242,040	-0,023	0,028
-654,101	-30,669	0,111	0,046
-653,086	322,575	0,100	-0,141
-652,072	-200,000	0,022	-0,072
-651,057	-200,000	-0,034	-0,157
-650,043	-200,000	-0,005	0,087
-649,028	800,000	0,052	-0,122
-648,014	134,839	0,089	-0,085
-646,999	11,098	0,115	0,064
-645,984	-200,000	0,007	0,050
-644,970	-19,209	-0,101	-0,046
-643,955	579,235	-0,069	0,125
-642,941	564,637	-0,049	-0,087
-641,926	-116,135	-0,115	0,015
-640,911	442,180	0,025	0,040
-639,897	-113,653	-0,018	-0,003
-638,882	45,610	-0,062	-0,042
-637,868	122,835	-0,099	0,091
-636,853	-110,306	-0,149	-0,022
-635,838	-145,253	-0,026	-0,002
-634,824	103,891	0,043	-0,037
-633,809	-200,000	0,022	0,214
-632,795	-142,607	-0,088	0,006
-631,780	-44,886	-0,036	-0,013
-630,765	-200,000	-0,010	0,043
-629,751	220,312	0,031	0,036
-628,736	-200,000	-0,018	-0,075
-627,722	131,927	-0,098	0,093
-626,707	800,000	0,039	-0,106
-625,692	-200,000	0,024	-0,092
-624,678	42,904	-0,043	0,029
-623,663	585,549	0,072	0,130
-622,649	210,167	0,010	-0,012
-621,634	518,600	-0,088	-0,151
-620,619	-110,327	-0,102	-0,015
-619,605	-141,528	-0,020	-0,001
-618,590	482,335	0,017	0,028
-617,576	-37,843	0,060	-0,023
-616,561	267,250	-0,009	0,012
-615,546	-133,020	0,038	-0,004
-614,532	-1,884	-0,091	0,047
-613,517	-200,000	0,011	-0,063
-612,503	124,641	0,072	0,067
-611,488	-154,803	0,171	0,008
-610,474	103,835	-0,049	-0,042
-609,459	-98,752	0,021	0,004
-608,444	662,936	-0,040	0,077
-607,430	466,544	-0,056	-0,092
-606,415	-73,396	-0,069	-0,018
-605,401	305,047	0,040	0,055
-604,386	-77,253	-0,090	-0,023
-603,371	571,349	-0,012	-0,021
-602,357	-200,000	-0,009	-0,103
-601,342	-7,670	-0,075	0,037
-600,328	-51,007	-0,094	0,032
-599,313	221,384	0,032	-0,038
-598,298	800,000	0,022	0,053
-597,284	514,509	0,052	-0,089
-596,269	88,889	-0,081	0,066
-595,255	188,642	0,138	0,151
-594,240	800,000	-0,019	-0,043
-593,225	-200,000	-0,003	0,086
-592,211	-134,430	0,079	-0,007
-591,196	-91,123	0,018	-0,004
-590,182	26,154	0,117	-0,071
-589,167	569,484	0,071	0,127
-588,152	240,066	-0,019	-0,023
-587,138	-83,925	-0,044	0,010
-586,123	-66,098	-0,167	0,049
-585,109	-41,807	0,181	-0,068
-584,094	157,913	-0,016	-0,017
-583,079	-200,000	-0,014	-0,093
-582,065	-11,303	-0,105	-0,050
-581,050	105,568	0,102	-0,088
-580,036	-69,649	0,135	-0,037
-579,021	-145,116	-0,095	0,006
-578,006	58,051	0,099	-0,071
-576,992	4,353	-0,057	0,031
-575,977	-200,000	-0,001	-0,060
-574,963	-135,164	-0,106	-0,009
-573,948	-200,000	-0,023	0,091
-572,934	-200,000	-0,005	0,022
-571,919	68,069	-0,054	-0,040
-570,904	164,760	-0,075	-0,078
-569,890	104,543	-0,066	-0,056
-568,875	-179,222	0,037	-0,001
-567,861	800,000	0,036	-0,076
-566,846	16,526	0,113	0,065
-565,831	-103,802	0,082	-0,014
-564,817	308,062	-0,051	-0,070
-563,802	800,000	-0,020	-0,042
-562,788	217,281	0,068	0,079
-561,773	18,258	0,091	-0,053
-560,758	800,000	0,022	0,045
-559,744	-160,280	0,059	-0,002
-558,729	57,469	-0,043	-0,031
-557,715	332,956	-0,063	-0,089
-556,700	-200,000	-0,024	-0,100
-555,685	800,000	-0,036	-0,075
-554,671	157,233	-0,057	0,058
-553,656	4,405	0,039	0,021
-552,642	31,032	-0,171	-0,107
-551,627	-135,295	0,073	-0,006
-550,612	-30,202	-0,106	0,044
-549,598	-200,000	0,006	-0,025
-548,583	-105,341	0,055	0,009
-547,569	63,506	-0,119	0,087
-546,554	576,798	0,106	-0,191
-545,539	257,975	-0,068	0,086
-544,525	-118,939	0,017	-0,002
-543,510	-120,654	-0,069	0,008
-542,496	-99,862	-0,122	-0,022
-541,481	800,000	0,051	0,126
-540,466	240,331	-0,047	-0,057
-539,452	-96,932	-0,087	-0,017
-538,437	94,757	0,134	0,111
-537,423	-173,724	-0,046	-0,001
-536,408	800,000	0,050	-0,114
-535,393	-44,823	-0,068	-0,025
-534,379	446,970	0,056	-0,091
-533,364	-200,000	-0,000	0,047
-532,350	145,105	0,076	0,074
-531,335	-67,307	0,073	0,021
-530,321	-200,000	0,000	0,111
-529,306	-134,191	0,182	0,016
-528,291	92,018	0,027	-0,023
-527,277	44,940	-0,110	0,074
-526,262	257,839	-0,045	-0,057
-525,248	-27,599	-0,134	-0,056
-524,233	760,325	0,040	-0,081
-523,218	-200,000	-0,029	-0,135
-522,204	187,689	-0,016	0,018
-521,189	531,459	0,022	-0,038
-520,175	44,299	0,057	0,038
-519,160	-132,189	0,062	0,006
-518,145	-200,000	-0,027	-0,103
-517,131	-4,033	-0,073	-0,037
-516,116	800,000	-0,008	0,017
-515,102	31,024	-0,071	0,044
-514,087	145,251	0,034	0,034
-513,072	-47,816	-0,167	-0,059
-512,058	22,075	-0,071	-0,042
-511,043	-200,000	0,006	-0,100
-510,029	12,667	-0,038	0,021
-509,014	-200,000	0,017	-0,075
-507,999	-11,216	-0,052	-0,025
-506,985	800,000	-0,049	-0,148
-505,970	22,665	-0,109	0,065
-504,956	-200,000	0,004	-0,044
-503,941	-200,000	0,019	0,082
-502,926	-142,604	-0,149	-0,010
-501,912	800,000	-0,023	0,074
-500,897	-41,736	0,085	0,032
-499,883	-200,000	0,001	-0,056
-498,868	-196,552	-0,043	0,000
-497,853	-137,422	0,052	-0,004
-496,839	175,990	-0,041	0,044
-495,824	522,580	-0,032	0,056
-494,810	283,763	-0,075	0,098
-493,795	92,689	0,023	-0,019
-492,781	-200,000	-0,002	0,087
-491,766	-200,000	0,016	0,090
-490,751	-200,000	0,026	0,091
-489,737	-66,633	0,071	0,020
-488,722	109,400	-0,112	0,098
-487,708	-49,907	-0,068	0,023
-486,693	800,000	0,037	0,081
-485,678	666,834	0,029	-0,055
-484,664	-200,000	-0,007	0,068
-483,649	539,636	-0,064	0,111
-482,635	-75,514	-0,090	-0,023
-481,620	-90,077	0,098	0,021
-480,605	800,000	0,024	0,050
-479,591	-141,251	-0,097	-0,007
-478,576	-200,000	-0,015	0,050
-477,562	-73,377	-0,141	-0,037
-476,547	255,781	-0,038	-0,047
-475,532	4,601	-0,047	0,025
-474,518	-200,000	0,021	0,105
-473,503	-200,000	-0,012	-0,055
-472,489	-21,740	0,029	-0,013
-471,474	-200,000	-0,001	0,064
-470,459	-200,000	-0,019	-0,121
-469,445	-173,191	-0,087	0,002
-468,430	-200,000	0,003	-0,144
-467,416	275,864	-0,071	-0,092
-466,401	-104,036	-0,069	-0,012
-465,386	800,000	0,049	0,109
-464,372	-42,201	-0,096	0,036
-463,357	-159,685	-0,083	-0,003
-462,343	66,991	-0,053	0,039
-461,328	-91,313	0,086	0,018
-460,313	-200,000	0,016	-0,062
-459,299	117,949	-0,093	0,083
-458,284	-129,808	0,075	0,007
-457,270	297,378	-0,071	-0,095
-456,255	112,252	-0,042	-0,037
-455,241	-57,288	-0,108	0,035
-454,226	-200,000	0,004	-0,187
-453,211	-200,000	0,003	-0,161
-452,197	598,424	0,071	0,128
-451,182	356,575	-0,079	0,116
-450,168	800,000	0,080	0,164
-449,153	-114,307	-0,134	-0,019
-448,138	488,703	0,072	0,121
-447,124	-200,000	0,000	-0,119
-446,109	-200,000	0,034	-0,130
-445,095	-200,000	-0,008	0,033
-444,080	-5,194	0,009	-0,005
-443,065	21,532	0,108	0,064
-442,051	-7,936	-0,151	-0,074
-441,036	17,503	0,045	-0,026
-440,022	195,442	-0,061	-0,068
-439,007	-200,000	-0,003	0,110
-437,992	18,014	0,073	0,042
-436,978	19,403	0,031	-0,018
-435,963	-113,953	0,107	0,015
-434,949	800,000	0,054	-0,150
-433,934	71,185	-0,143	-0,108
-432,919	-200,000	-0,029	-0,111
-431,905	-20,202	-0,035	0,016
-430,890	1,336	0,130	-0,068
-429,876	-15,316	0,149	0,069
-428,861	-200,000	0,058	-0,209
-427,846	800,000	-0,028	0,060
-426,832	75,515	-0,125	-0,096
-425,817	-27,748	-0,012	-0,005
-424,803	800,000	-0,025	-0,069
-423,788	-200,000	0,003	0,012
-422,773	-171,612	0,145	0,003
-421,759	234,563	0,021	-0,025
-420,744	-200,000	0,016	0,084
-419,730	275,993	-0,028	-0,036
-418,715	-63,651	0,008	-0,002
-417,701	68,009	0,079	-0,059
-416,686	-114,298	0,162	-0,023
-415,671	800,000	-0,028	0,069
-414,657	372,472	0,097	0,144
-413,642	-121,066	-0,114	-0,014
-412,628	260,628	-0,102	-0,129
-411,613	82,601	-0,017	-0,014
-410,598	-34,933	0,124	-0,049
-409,584	800,000	-0,020	0,061
-408,569	212,288	-0,085	0,098
-407,555	199,526	-0,088	0,098
-406,540	800,000	-0,065	0,167
-405,525	800,000	0,057	-0,129
-404,511	99,983	-0,035	-0,030
-403,496	360,223	-0,072	-0,106
-402,482	-150,357	0,081	0,004
-401,467	247,187	-0,090	0,111
-400,452	800,000	0,036	0,088
-399,438	800,000	0,008	0,020
-398,423	-200,000	0,013	0,050
-397,409	470,934	0,028	0,045
-396,394	-200,000	-0,029	-0,119
-395,379	800,000	0,053	0,133
-394,365	-200,000	0,019	0,100
-393,350	93,167	0,077	-0,063
-392,336	14,824	-0,044	0,025
-391,321	324,205	-0,023	0,032
-390,306	800,000	0,015	-0,035
-389,292	800,000	-0,034	0,081
-388,277	-33,631	0,156	0,062
-387,263	16,923	0,077	-0,044
-386,248	-200,000	0,026	-0,105
-385,233	800,000	-0,016	-0,033
-384,219	-71,945	-0,065	-0,017
-383,204	76,112	-0,033	0,025
-382,190	-60,044	-0,044	-0,013
-381,175	15,222	0,077	0,044
-380,160	-33,559	0,114	-0,046
-379,146	-121,267	0,084	0,010
-378,131	-200,000	-0,003	0,066
-377,117	-200,000	0,003	0,202
-376,102	800,000	-0,085	0,176
-375,088	-200,000	0,026	0,100
-374,073	800,000	0,029	-0,072
-373,058	-200,000	-0,002	0,064
-372,044	-119,688	-0,105	0,013
-371,029	-200,000	0,047	0,181
-370,015	295,666	-0,078	0,104
-369,000	800,000	0,043	-0,091
-367,985	-200,000	-0,006	-0,037
-366,971	116,287	0,074	-0,066
-365,956	-200,000	-0,015	-0,075
-364,942	-200,000	0,010	0,110
-363,927	800,000	-0,055	-0,119
-362,912	800,000	-0,019	-0,056
-361,898	-200,000	0,027	0,132
-360,883	800,000	0,021	-0,047
-359,869	105,773	-0,062	0,053
-358,854	-61,024	0,130	0,040
-357,839	-29,242	0,050	0,021
-356,825	148,634	-0,070	0,069
-355,810	-200,000	-0,022	-0,080
-354,796	243,921	-0,043	0,052
-353,781	-200,000	-0,000	0,034
-352,766	-103,598	-0,040	0,007
-351,752	510,916	0,100	0,169
-350,737	-200,000	0,026	-0,099
-349,723	714,877	-0,044	-0,085
-348,708	-30,370	0,059	0,024
-347,693	-41,312	0,121	-0,045
-346,679	486,381	-0,079	-0,131
-345,664	800,000	0,031	0,093
-344,650	369,174	-0,040	-0,059
-343,635	-200,000	-0,002	0,028
-342,620	-200,000	0,000	0,179
-341,606	169,010	0,060	0,062
-340,591	-200,000	-0,001	0,159
-339,577	237,866	-0,060	-0,073
-338,562	196,638	-0,067	-0,074
-337,548	-200,000	0,002	-0,096
-336,533	101,489	0,106	0,090
-335,518	-200,000	-0,015	-0,051
-334,504	-200,000	0,006	0,062
-333,489	167,487	0,071	-0,074
-332,475	-53,114	0,037	-0,012
-331,460	343,652	-0,044	0,062
-330,445	553,287	0,035	-0,061
-329,431	-200,000	0,000	-0,075
-328,416	703,001	-0,045	-0,087
-327,402	124,207	0,105	0,096
-326,387	7,514	0,088	0,048
-325,372	408,379	0,045	0,069
-324,358	241,447	-0,038	0,046
-323,343	69,857	-0,065	-0,049
-322,329	5,327	0,035	0,019
-321,314	39,217	0,054	0,035
-320,299	-200,000	0,027	0,157
-319,285	594,499	0,042	0,076
-318,270	800,000	-0,057	0,171
-317,256	772,475	-0,037	-0,073
-316,241	427,920	-0,077	-0,121
-315,226	-29,456	0,128	0,053
-314,212	800,000	0,051	-0,149
-313,197	-200,000	0,011	0,082
-312,183	-117,207	-0,072	0,009
-311,168	-200,000	-0,004	0,126
-310,153	-10,064	-0,056	0,027
-309,139	637,827	-0,089	-0,164
-308,124	-130,702	0,072	-0,007
-307,110	800,000	0,065	0,157
-306,095	-93,175	-0,112	-0,022
-305,080	800,000	0,032	0,095
-304,066	39,466	-0,096	0,062
-303,051	800,000	-0,100	-0,206
-302,037	476,946	0,017	-0,028
-301,022	-53,263	0,023	0,008
-300,008	-27,537	-0,058	-0,024
-298,993	-200,000	0,021	0,086
-297,978	295,025	-0,034	-0,046
-296,964	557,701	0,065	-0,114
-295,949	-60,201	-0,041	-0,013
-294,935	-36,233	-0,035	-0,014
-293,920	350,206	0,032	-0,046
-292,905	-200,000	0,023	0,120
-291,891	103,915	0,081	0,069
-290,876	37,082	0,077	-0,049
-289,862	800,000	0,039	-0,124
-288,847	800,000	-0,046	-0,132
-287,832	-200,000	-0,004	-0,112
-286,818	-24,653	-0,076	0,032
-285,803	246,808	0,126	0,154
-284,789	65,830	-0,035	-0,026
-283,774	697,031	0,070	0,134
-282,759	494,105	-0,064	-0,106
-281,745	-182,703	0,134	0,002
-280,730	-103,617	-0,094	-0,016
-279,716	-163,335	0,140	-0,005
-278,701	-200,000	-0,016	-0,071
-277,686	734,642	0,072	0,140
-276,672	68,713	-0,006	0,004
-275,657	-164,406	0,044	-0,001
-274,643	17,964	0,122	-0,070
-273,628	-200,000	-0,022	-0,149
-272,613	244,136	0,075	-0,091
-271,599	-200,000	0,001	0,099
-270,584	800,000	0,038	0,108
-269,570	800,000	0,020	0,048
-268,555	67,494	0,127	0,094
-267,540	-134,289	0,212	-0,019
-266,526	-26,680	-0,109	-0,046
-265,511	800,000	-0,072	-0,160
-264,497	-200,000	-0,042	0,157
-263,482	25,799	0,037	-0,022
-262,467	-200,000	0,076	0,249
-261,453	154,213	-0,058	-0,058
-260,438	-130,643	-0,092	0,009
-259,424	127,143	0,111	-0,102
-258,409	140,697	-0,035	-0,033
-257,395	-200,000	0,008	0,072
-256,380	20,797	-0,055	0,032
-255,365	-200,000	-0,010	-0,086
-254,351	-200,000	-0,005	0,019
-253,336	173,175	0,024	-0,025
-252,322	59,089	0,130	-0,092
-251,307	29,674	0,051	0,031
-250,292	-105,278	0,080	0,013
-249,278	26,419	-0,069	0,042
-248,263	164,447	-0,079	0,081
-247,249	-99,416	0,112	0,020
-246,234	-49,464	-0,046	0,016
-245,219	-69,067	-0,128	-0,035
-244,205	326,531	-0,061	-0,084
-243,190	-10,195	0,147	-0,070
-242,176	-200,000	0,004	-0,013
-241,161	71,041	0,080	0,060
-240,146	800,000	0,051	-0,102
-239,132	-83,321	0,058	-0,013
-238,117	-117,618	-0,172	-0,022
-237,103	-200,000	0,021	-0,141
-236,088	-200,000	-0,003	0,072
-235,073	46,894	-0,065	0,043
-234,059	327,346	-0,072	0,100
-233,044	557,548	-0,014	-0,024
-232,030	800,000	-0,035	-0,077
-231,015	-200,000	-0,054	-0,214
-230,000	55,897	-0,108	-0,075
-228,986	-72,879	0,096	-0,025
-227,971	800,000	0,058	0,168
-226,957	-200,000	-0,004	0,092
-225,942	146,923	0,150	0,146
-224,927	-62,074	0,077	0,023
-223,913	800,000	-0,046	-0,109
-222,898	-200,000	-0,004	-0,095
-221,884	-200,000	0,031	-0,119
-220,869	-60,166	0,107	0,033
-219,855	800,000	0,036	-0,089
-218,840	800,000	-0,037	0,095
-217,825	-38,781	0,080	-0,030
-216,811	-7,237	-0,085	0,041
-215,796	-91,226	-0,030	0,006
-214,782	480,095	0,061	-0,101
-213,767	288,943	0,045	0,060
-212,752	70,625	-0,040	0,030
-211,738	-124,697	0,049	0,005
-210,723	-15,898	0,073	0,033
-209,709	266,437	-0,011	-0,014
-208,694	-200,000	-0,041	0,253
-207,679	800,000	0,062	-0,130
-206,665	588,450	0,056	-0,100
-205,650	723,020	0,040	0,077
-204,636	139,796	0,115	0,109
-203,621	-200,000	0,017	0,078
-202,606	800,000	0,013	-0,027
-201,592	396,528	-0,053	-0,080
-200,577	56,310	-0,126	-0,088
-199,563	495,985	0,066	-0,110
-198,548	8,485	-0,019	-0,010
-197,533	-67,112	-0,081	0,023
-196,519	800,000	0,019	-0,040
-195,504	-104,212	-0,069	-0,011
-194,490	-59,452	-0,015	-0,005
-193,475	-200,000	0,010	-0,120
-192,460	-200,000	-0,023	0,084
-191,446	340,903	0,011	0,016
-190,431	-66,161	0,097	0,028
-189,417	95,893	0,163	0,134
-188,402	3,807	-0,064	0,034
-187,387	800,000	-0,052	-0,109
-186,373	800,000	-0,046	-0,118
-185,358	157,331	0,086	-0,086
-184,344	-175,887	0,189	0,004
-183,329	485,034	0,027	-0,045
-182,315	-6,354	0,084	-0,041
-181,300	-76,571	0,159	0,040
-180,285	112,620	-0,109	-0,095
-179,271	237,538	-0,082	-0,098
-178,256	65,967	0,068	0,049
-177,242	399,209	0,027	0,042
-176,227	-200,000	-0,027	0,126
-175,212	-44,956	-0,066	0,024
-174,198	-200,000	-0,004	0,149
-173,183	73,071	-0,104	-0,078
-172,169	800,000	0,021	-0,064
-171,154	214,647	-0,061	-0,069
-170,139	-200,000	0,006	-0,034
-169,125	800,000	-0,075	0,155
-168,110	-79,411	0,145	-0,035
-167,096	-59,062	0,082	0,025
-166,081	-49,378	0,054	-0,019
-165,066	-42,257	-0,144	-0,053
-164,052	26,740	-0,088	0,053
-163,037	133,511	-0,101	0,094
-162,023	-200,000	-0,030	0,130
-161,008	243,653	0,078	0,094
-159,993	-124,920	0,078	-0,009
-158,979	800,000	0,030	-0,092
-157,964	-81,339	-0,095	-0,022
-156,950	-120,301	-0,096	0,012
-155,935	800,000	0,092	-0,207
-154,920	-73,933	0,217	-0,056
-153,906	-33,297	-0,020	0,008
-152,891	-93,205	-0,159	0,031
-151,877	-103,832	0,159	0,026
-150,862	800,000	-0,069	0,165
-149,847	207,596	-0,025	-0,028
-148,833	271,606	0,108	0,137
-147,818	710,891	0,039	-0,074
-146,804	-130,315	0,057	0,005
-145,789	326,217	0,037	-0,051
-144,775	-45,662	0,053	-0,019
-143,760	800,000	0,034	-0,072
-142,745	-200,000	0,022	-0,086
-141,731	-200,000	-0,005	0,117
-140,716	-200,000	0,005	0,085
-139,702	800,000	-0,015	0,034
-138,687	276,190	0,074	0,095
-137,672	95,209	-0,030	-0,025
-136,658	-171,287	-0,062	0,001
-135,643	-200,000	-0,013	-0,069
-134,629	254,963	0,036	0,045
-133,614	273,236	-0,054	0,068
-132,599	-200,000	0,007	-0,048
-131,585	-200,000	0,019	-0,078
-130,570	-94,300	-0,047	0,009
-129,556	800,000	0,029	-0,082
-128,541	-200,000	-0,021	-0,097
-127,526	65,601	0,087	-0,063
-126,512	-75,289	-0,051	-0,013
-125,497	-21,518	0,153	0,067
-124,483	-117,588	0,046	-0,006
-123,468	-55,903	-0,059	0,019
-122,453	-169,370	0,048	-0,001
-121,439	-200,000	-0,004	-0,030
-120,424	569,537	0,067	-0,118
