DTS Sentinel unit serial number:	SN410029Multiplexer serial number:	ORYXHardware model number:	OX2-SRSoftware version number:	ORYX F/W v4,00 Oryx Data Collector v3.7.2.0data status	okinstallation	B6 Nyhavnadifferential loss correction	single-endedforward channel	channel 2reverse channel	N/Adate	2023/12/09time	05:40:08forward acquisition time	300,00reverse acquisition time	0,00gamma	499,1914k internal	0,3142k external	0,3142temperature offset calibration	1,0000default loss term (dB/km)	0,3820temperature slope calibration	1,0000multiplexer offset coefficient	1,0000multiplexer slope coefficient	1,0000fibre end	0,00T internal ref (°C)	18,05T ext. ref 1 (°C)	2,32T ext. ref 2 (°C)	2,35length (m)	temperature (°C)	Stokes	anti-Stokes-744,400	800,000	0,039	0,092
-743,385	-98,322	-0,282	-0,053
-742,371	402,764	0,088	-0,137
-741,356	3,553	-0,107	0,058
-740,342	173,159	0,098	0,105
-739,327	-61,247	-0,305	0,094
-738,312	370,576	0,064	-0,097
-737,298	-35,534	-0,363	0,145
-736,283	-73,239	0,205	-0,055
-735,269	-68,335	-0,214	0,061
-734,254	87,660	-0,021	0,018
-733,239	-54,064	-0,513	-0,172
-732,225	-110,319	0,143	-0,022
-731,210	-4,844	0,195	0,099
-730,196	-63,591	0,085	-0,026
-729,181	-104,739	-0,114	0,019
-728,167	215,446	-0,085	-0,100
-727,152	-200,000	-0,006	0,075
-726,137	10,468	-0,047	0,026
-725,123	-200,000	0,024	-0,158
-724,108	-200,000	-0,005	-0,097
-723,094	-200,000	-0,027	-0,163
-722,079	-182,015	-0,102	0,001
-721,064	13,569	-0,056	-0,032
-720,050	-86,776	-0,017	0,004
-719,035	800,000	-0,017	0,042
-718,021	-5,589	0,016	0,008
-717,006	334,044	-0,083	-0,119
-715,991	140,588	-0,096	-0,094
-714,977	-159,418	-0,100	0,004
-713,962	190,716	-0,040	-0,045
-712,948	110,330	0,021	0,019
-711,933	-53,256	-0,121	0,041
-710,918	83,623	-0,077	0,062
-709,904	499,349	-0,022	-0,037
-708,889	15,226	-0,017	-0,010
-707,875	-97,541	0,058	-0,011
-706,860	623,544	-0,016	0,030
-705,845	-200,000	0,009	0,136
-704,831	800,000	-0,007	0,020
-703,816	800,000	-0,060	0,168
-702,802	62,055	-0,050	0,037
-701,787	-83,763	-0,127	0,030
-700,772	-200,000	-0,009	-0,084
-699,758	44,848	-0,035	-0,024
-698,743	247,884	0,075	0,094
-697,729	-76,030	0,133	-0,035
-696,714	146,178	-0,115	0,115
-695,699	-200,000	-0,000	-0,014
-694,685	-35,740	-0,126	-0,050
-693,670	-38,864	-0,163	-0,063
-692,656	26,654	-0,144	0,089
-691,641	800,000	0,004	-0,011
-690,627	188,119	0,058	0,064
-689,612	544,721	0,092	0,163
-688,597	-56,521	-0,106	0,035
-687,583	-52,204	0,105	-0,036
-686,568	-142,463	-0,090	0,006
-685,554	-200,000	-0,002	-0,061
-684,539	-81,295	0,059	-0,014
-683,524	-117,575	0,030	-0,004
-682,510	-51,491	0,029	-0,010
-681,495	51,259	-0,125	-0,088
-680,481	510,624	-0,042	-0,073
-679,466	-14,257	-0,065	-0,031
-678,451	800,000	0,067	-0,191
-677,437	800,000	0,027	-0,071
-676,422	81,787	-0,050	0,040
-675,408	-105,956	-0,130	-0,021
-674,393	-36,541	-0,060	-0,024
-673,378	-200,000	0,008	0,039
-672,364	10,037	-0,045	0,025
-671,349	-200,000	0,020	-0,097
-670,335	800,000	-0,016	0,036
-669,320	-96,547	0,049	0,009
-668,305	105,959	0,064	0,056
-667,291	-142,211	-0,033	-0,002
-666,276	-124,060	-0,202	-0,023
-665,262	-57,934	-0,062	0,020
-664,247	189,913	0,031	-0,034
-663,232	800,000	0,064	-0,134
-662,218	482,791	-0,026	0,044
-661,203	-66,820	-0,037	-0,011
-660,189	48,379	-0,112	-0,077
-659,174	800,000	0,022	0,051
-658,159	-200,000	0,008	-0,186
-657,145	652,722	-0,032	0,062
-656,130	256,503	-0,046	-0,059
-655,116	49,110	0,083	-0,057
-654,101	-84,954	-0,018	0,004
-653,086	-200,000	-0,011	0,068
-652,072	-200,000	0,001	0,106
-651,057	-200,000	0,018	0,127
-650,043	85,786	-0,099	0,081
-649,028	209,174	-0,140	-0,162
-648,014	-48,604	0,056	0,020
-646,999	-30,086	0,036	0,015
-645,984	-200,000	0,001	0,102
-644,970	26,299	0,039	-0,024
-643,955	166,126	0,051	0,054
-642,941	800,000	-0,027	-0,056
-641,926	-41,126	-0,130	-0,049
-640,911	-200,000	0,008	-0,076
-639,897	222,324	0,084	0,100
-638,882	-61,951	-0,104	-0,032
-637,868	800,000	0,054	0,137
-636,853	341,282	0,048	-0,070
-635,838	800,000	-0,024	-0,051
-634,824	94,301	-0,033	-0,028
-633,809	-91,151	-0,034	-0,007
-632,795	-36,136	-0,047	0,019
-631,780	-200,000	0,016	-0,116
-630,765	-200,000	0,026	-0,102
-629,751	800,000	-0,011	-0,029
-628,736	800,000	-0,097	-0,210
-627,722	-144,086	0,205	-0,014
-626,707	397,109	-0,014	-0,021
-625,692	-183,199	0,181	-0,002
-624,678	655,774	0,058	-0,111
-623,663	-78,279	-0,035	0,009
-622,649	-200,000	-0,002	-0,026
-621,634	-82,108	-0,044	0,010
-620,619	219,181	0,086	-0,102
-619,605	-149,044	0,039	-0,002
-618,590	-200,000	-0,009	0,046
-617,576	800,000	0,026	0,056
-616,561	156,959	0,042	0,043
-615,546	-67,217	-0,112	0,032
-614,532	-45,987	0,145	-0,052
-613,517	-200,000	-0,001	0,030
-612,503	227,606	0,035	-0,042
-611,488	-161,569	0,132	-0,005
-610,474	-56,557	-0,082	-0,027
-609,459	-23,025	0,066	-0,029
-608,444	-157,002	-0,122	-0,005
-607,430	-70,423	-0,016	-0,004
-606,415	-103,663	-0,083	-0,014
-605,401	-40,558	0,049	-0,019
-604,386	-2,743	-0,096	-0,049
-603,371	-99,227	0,110	0,020
-602,357	-200,000	-0,007	-0,065
-601,342	309,183	-0,014	-0,020
-600,328	-6,013	-0,086	-0,043
-599,313	76,148	0,068	0,053
-598,298	495,261	-0,050	0,086
-597,284	188,799	0,039	0,043
-596,269	-151,642	-0,059	0,003
-595,255	128,510	0,078	0,073
-594,240	-200,000	-0,031	0,113
-593,225	-57,257	0,109	-0,035
-592,211	81,267	-0,085	-0,068
-591,196	-80,334	0,116	-0,028
-590,182	-162,669	0,067	0,002
-589,167	800,000	-0,010	-0,026
-588,152	-73,644	0,056	0,015
-587,138	112,733	-0,065	-0,058
-586,123	-200,000	0,004	-0,023
-585,109	474,217	0,060	-0,100
-584,094	179,170	-0,028	-0,030
-583,079	335,259	0,054	0,077
-582,065	-200,000	0,021	-0,070
-581,050	-131,046	0,054	0,005
-580,036	163,542	0,071	-0,073
-579,021	94,056	-0,108	-0,091
-578,006	-15,840	-0,070	0,033
-576,992	-200,000	0,007	0,058
-575,977	-200,000	0,001	-0,005
-574,963	800,000	-0,070	-0,178
-573,948	-16,091	-0,052	0,024
-572,934	-112,672	-0,122	-0,018
-571,919	-200,000	0,024	-0,108
-570,904	-200,000	-0,037	-0,155
-569,890	800,000	-0,041	-0,126
-568,875	116,302	0,009	-0,008
-567,861	105,263	-0,088	-0,076
-566,846	223,350	0,028	-0,033
-565,831	-36,189	0,024	-0,009
-564,817	800,000	-0,035	0,075
-563,802	-161,455	-0,072	0,003
-562,788	218,504	-0,073	-0,086
-561,773	-53,593	0,030	-0,010
-560,758	-17,646	-0,035	0,016
-559,744	-94,514	-0,087	-0,017
-558,729	36,488	0,064	0,041
-557,715	-71,704	-0,042	-0,012
-556,700	13,140	-0,057	0,032
-555,685	-200,000	0,036	-0,165
-554,671	140,174	-0,058	-0,057
-553,656	800,000	-0,039	0,085
-552,642	504,815	0,042	0,072
-551,627	-103,061	-0,096	-0,017
-550,612	-58,995	-0,031	-0,010
-549,598	-53,127	0,114	-0,038
-548,583	-149,418	-0,050	0,003
-547,569	663,246	0,061	0,116
-546,554	-86,837	0,045	0,010
-545,539	-199,390	-0,057	0,000
-544,525	-200,000	0,005	0,110
-543,510	-167,450	-0,038	-0,001
-542,496	-55,467	0,029	0,010
-541,481	-200,000	-0,003	-0,026
-540,466	204,916	0,082	-0,093
-539,452	-75,365	-0,040	0,010
-538,437	290,071	-0,028	0,037
-537,423	800,000	-0,051	0,134
-536,408	-80,837	0,138	-0,034
-535,393	53,618	-0,155	-0,109
-534,379	-87,244	-0,134	-0,030
-533,364	-190,761	0,113	0,001
-532,350	-200,000	0,005	-0,126
-531,335	800,000	-0,047	-0,111
-530,321	800,000	-0,044	0,139
-529,306	-26,414	-0,088	0,038
-528,291	-200,000	-0,009	-0,080
-527,277	-45,321	-0,156	0,057
-526,262	-200,000	-0,002	-0,049
-525,248	-48,024	0,092	0,032
-524,233	146,474	0,080	-0,079
-523,218	229,100	0,108	0,130
-522,204	800,000	-0,018	-0,056
-521,189	-200,000	0,030	-0,132
-520,175	-22,649	0,080	0,035
-519,160	-24,701	0,038	-0,017
-518,145	24,275	-0,051	-0,031
-517,131	78,888	0,134	0,106
-516,116	-200,000	-0,013	-0,063
-515,102	-79,654	-0,101	0,025
-514,087	-159,507	0,059	0,002
-513,072	180,548	-0,040	-0,043
-512,058	124,657	-0,078	-0,072
-511,043	392,368	0,072	-0,109
-510,029	-200,000	-0,016	0,085
-509,014	163,993	0,018	-0,019
-507,999	-60,966	0,056	0,017
-506,985	710,914	-0,048	-0,094
-505,970	-200,000	0,012	0,157
-504,956	-200,000	0,007	0,035
-503,941	101,009	-0,018	0,015
-502,926	543,761	-0,031	0,055
-501,912	-133,037	0,110	0,010
-500,897	50,636	0,153	0,106
-499,883	11,141	-0,118	0,066
-498,868	-200,000	0,027	-0,113
-497,853	-200,000	0,005	-0,064
-496,839	701,700	0,079	0,153
-495,824	59,438	-0,058	0,042
-494,810	-155,751	-0,089	-0,004
-493,795	-200,000	-0,014	0,085
-492,781	800,000	-0,034	-0,079
-491,766	-200,000	-0,001	-0,087
-490,751	164,647	-0,058	-0,060
-489,737	-104,528	-0,120	-0,020
-488,722	-145,132	0,018	-0,001
-487,708	-200,000	0,006	-0,108
-486,693	-200,000	0,001	-0,052
-485,678	23,808	0,052	0,032
-484,664	-200,000	-0,013	-0,090
-483,649	-132,596	0,016	0,001
-482,635	-143,002	0,085	-0,006
-481,620	770,504	-0,020	0,040
-480,605	-39,409	0,216	0,083
-479,591	-200,000	-0,013	0,044
-478,576	-197,167	-0,239	-0,001
-477,562	-39,982	0,112	0,043
-476,547	-200,000	-0,013	0,085
-475,532	-200,000	0,019	-0,133
-474,518	-0,460	0,084	0,044
-473,503	-190,782	0,068	0,001
-472,489	115,992	-0,020	-0,018
-471,474	-6,431	-0,131	-0,065
-470,459	-28,498	0,057	0,024
-469,445	-200,000	-0,001	-0,004
-468,430	195,804	-0,058	0,064
-467,416	545,052	-0,050	0,089
-466,401	-200,000	-0,033	-0,150
-465,386	-17,473	-0,047	0,022
-464,372	-200,000	0,019	0,101
-463,357	-200,000	-0,046	-0,161
-462,343	-26,900	-0,084	-0,036
-461,328	-1,275	-0,120	-0,062
-460,313	247,012	-0,039	-0,049
-459,299	-75,474	0,112	0,029
-458,284	106,175	0,107	0,093
-457,270	-200,000	0,008	0,047
-456,255	132,843	0,034	-0,033
-455,241	-200,000	0,013	-0,113
-454,226	362,715	-0,058	0,085
-453,211	250,125	0,041	0,051
-452,197	-31,889	0,067	0,027
-451,182	-20,551	-0,087	0,039
-450,168	-200,000	0,016	0,103
-449,153	25,712	0,050	-0,030
-448,138	-200,000	0,008	-0,101
-447,124	800,000	0,106	-0,232
-446,109	250,607	-0,014	-0,018
-445,095	6,027	0,023	0,013
-444,080	430,991	0,039	-0,062
-443,065	-200,000	0,019	0,107
-442,051	-72,837	0,125	-0,033
-441,036	-200,000	-0,004	-0,033
-440,022	-200,000	0,020	-0,086
-439,007	650,934	0,034	-0,063
-437,992	-159,677	-0,057	0,002
-436,978	-45,847	0,058	0,021
-435,963	800,000	-0,061	0,197
-434,949	800,000	-0,035	0,086
-433,934	-200,000	-0,027	-0,099
-432,919	-200,000	0,015	-0,114
-431,905	46,218	0,019	0,013
-430,890	-110,124	0,045	0,007
-429,876	-41,912	-0,036	-0,014
-428,861	800,000	0,017	0,039
-427,846	-200,000	0,011	0,058
-426,832	748,108	0,023	0,046
-425,817	-14,288	-0,110	0,052
-424,803	-127,623	0,139	0,015
-423,788	800,000	0,085	0,172
-422,773	19,773	0,021	0,012
-421,759	800,000	0,032	0,085
-420,744	-200,000	-0,029	-0,145
-419,730	-63,944	-0,112	0,033
-418,715	-200,000	0,018	-0,140
-417,701	800,000	-0,082	-0,197
-416,686	800,000	0,034	0,097
-415,671	-200,000	-0,004	0,078
-414,657	24,262	-0,083	0,050
-413,642	7,687	0,078	0,043
-412,628	-52,113	-0,068	0,023
-411,613	800,000	-0,036	-0,076
-410,598	-4,277	-0,090	-0,045
-409,584	-87,349	0,087	0,019
-408,569	800,000	-0,023	-0,063
-407,555	241,136	0,047	-0,058
-406,540	-200,000	0,005	-0,123
-405,525	800,000	-0,049	-0,102
-404,511	-62,887	-0,120	-0,036
-403,496	-64,998	-0,020	-0,006
-402,482	-151,684	-0,026	0,001
-401,467	192,100	-0,073	-0,081
-400,452	3,426	0,050	0,027
-399,438	800,000	-0,044	0,101
-398,423	-97,655	-0,165	-0,031
-397,409	-144,356	0,145	0,010
-396,394	-156,212	-0,091	-0,004
-395,379	-134,495	0,081	0,007
-394,365	800,000	0,037	0,108
-393,350	343,475	0,025	0,036
-392,336	-87,085	0,053	-0,012
-391,321	-108,235	-0,062	-0,010
-390,306	32,377	0,160	-0,101
-389,292	543,657	-0,067	-0,117
-388,277	448,910	-0,026	-0,043
-387,263	-200,000	0,021	0,149
-386,248	800,000	0,037	0,114
-385,233	-57,352	0,062	0,020
-384,219	-200,000	-0,001	-0,029
-383,204	-126,363	-0,051	0,006
-382,190	-200,000	-0,011	0,071
-381,175	191,096	-0,017	-0,019
-380,160	454,867	-0,025	-0,041
-379,146	-179,873	0,014	-0,000
-378,131	-152,563	-0,072	-0,004
-377,117	-200,000	-0,013	0,095
-376,102	125,272	0,028	0,025
-375,088	-22,075	-0,086	0,038
-374,073	-122,431	-0,034	-0,004
-373,058	94,835	0,071	0,059
-372,044	800,000	-0,043	-0,092
-371,029	-34,783	-0,197	-0,078
-370,015	3,508	-0,110	-0,058
-369,000	-200,000	-0,040	0,158
-367,985	-200,000	-0,042	-0,195
-366,971	20,169	0,040	-0,023
-365,956	800,000	0,026	0,057
-364,942	-53,724	0,043	0,014
-363,927	800,000	-0,025	-0,068
-362,912	530,634	0,054	0,093
-361,898	-87,149	0,168	-0,037
-360,883	-107,722	-0,015	-0,002
-359,869	-3,599	-0,078	-0,040
-358,854	-200,000	-0,106	-0,000
-357,839	-79,374	0,038	0,009
-356,825	-81,716	0,150	0,036
-355,810	800,000	0,083	0,189
-354,796	800,000	0,060	-0,162
-353,781	-200,000	0,011	-0,067
-352,766	-81,673	-0,061	0,014
-351,752	-44,213	-0,107	0,039
-350,737	143,550	-0,054	0,052
-349,723	-200,000	0,005	0,056
-348,708	-128,944	0,021	-0,002
-347,693	27,795	0,143	-0,088
-346,679	145,196	-0,055	-0,053
-345,664	-113,464	-0,065	-0,009
-344,650	-200,000	0,017	0,055
-343,635	-200,000	0,010	0,044
-342,620	-12,651	0,102	0,048
-341,606	-84,912	0,054	-0,012
-340,591	146,294	-0,110	0,108
-339,577	628,347	-0,044	0,081
-338,562	-200,000	-0,007	-0,056
-337,548	-17,843	0,126	0,057
-336,533	544,571	0,056	0,099
-335,518	81,727	0,097	0,076
-334,504	-41,997	-0,126	-0,047
-333,489	-38,730	-0,044	0,017
-332,475	-72,423	0,071	-0,019
-331,460	800,000	-0,036	-0,104
-330,445	-200,000	-0,045	0,179
-329,431	76,479	-0,025	0,019
-328,416	-131,341	-0,056	-0,005
-327,402	-200,000	-0,010	-0,073
-326,387	-200,000	-0,025	-0,106
-325,372	-200,000	0,011	-0,078
-324,358	800,000	-0,042	0,100
-323,343	-124,403	-0,132	0,015
-322,329	-200,000	-0,011	0,092
-321,314	-15,008	-0,060	-0,028
-320,299	639,803	-0,067	-0,125
-319,285	16,242	-0,173	0,099
-318,270	-79,211	0,029	-0,007
-317,256	-150,245	0,070	0,004
-316,241	437,250	0,022	-0,034
-315,226	800,000	0,016	0,035
-314,212	-30,776	0,052	-0,021
-313,197	431,198	-0,030	0,048
-312,183	-53,798	-0,135	0,044
-311,168	174,853	-0,022	-0,023
-310,153	-200,000	0,026	-0,172
-309,139	800,000	-0,055	-0,164
-308,124	-200,000	-0,003	0,102
-307,110	-6,435	0,162	0,080
-306,095	-200,000	0,040	0,130
-305,080	-175,797	-0,013	-0,000
-304,066	-200,000	-0,018	0,065
-303,051	-200,000	-0,002	-0,018
-302,037	150,544	-0,061	-0,060
-301,022	209,617	0,059	0,068
-300,008	26,679	0,081	0,049
-298,993	-128,263	-0,117	-0,012
-297,978	234,860	0,037	-0,044
-296,964	-200,000	-0,013	0,050
-295,949	-72,398	0,117	0,031
-294,935	726,787	-0,024	0,046
-293,920	84,369	0,095	0,075
-292,905	-200,000	-0,014	0,128
-291,891	-200,000	0,000	0,066
-290,876	800,000	0,030	-0,085
-289,862	800,000	-0,045	0,120
-288,847	169,728	0,054	-0,056
-287,832	800,000	-0,017	0,039
-286,818	-200,000	-0,033	-0,107
-285,803	98,366	-0,087	-0,073
-284,789	-200,000	0,053	0,181
-283,774	80,202	0,087	0,068
-282,759	64,730	-0,033	-0,024
-281,745	-46,227	0,177	0,063
-280,730	470,878	0,032	-0,052
-279,716	91,824	0,120	-0,098
-278,701	78,383	-0,083	0,064
-277,686	295,854	0,069	-0,092
-276,672	68,269	-0,041	-0,031
-275,657	127,826	-0,001	0,001
-274,643	458,691	-0,010	0,016
-273,628	22,374	-0,105	-0,062
-272,613	800,000	0,016	-0,047
-271,599	-200,000	0,019	0,088
-270,584	-200,000	0,018	0,188
-269,570	-139,509	0,051	0,004
-268,555	19,857	-0,053	-0,031
-267,540	-200,000	0,010	0,075
-266,526	-200,000	0,004	-0,104
-265,511	800,000	-0,024	-0,056
-264,497	92,410	0,028	0,023
-263,482	99,831	0,148	0,124
-262,467	170,261	-0,061	0,064
-261,453	-3,312	0,122	-0,061
-260,438	9,176	0,051	-0,028
-259,424	-200,000	-0,004	-0,145
-258,409	68,075	0,013	-0,010
-257,395	-200,000	-0,006	0,078
-256,380	467,450	0,063	0,103
-255,365	800,000	-0,043	0,122
-254,351	-200,000	-0,016	0,116
-253,336	86,153	-0,065	0,052
-252,322	-161,110	-0,070	-0,003
-251,307	-200,000	0,026	-0,099
-250,292	-59,574	0,067	0,021
-249,278	-200,000	0,015	0,142
-248,263	75,716	0,010	0,008
-247,249	800,000	0,048	0,107
-246,234	-134,510	-0,081	0,007
-245,219	800,000	0,031	0,068
-244,205	292,807	-0,045	0,060
-243,190	800,000	-0,042	-0,104
-242,176	-73,244	0,050	-0,013
-241,161	55,741	0,010	-0,007
-240,146	-48,833	0,183	-0,063
-239,132	-112,814	-0,166	0,024
-238,117	58,918	-0,034	-0,024
-237,103	-200,000	-0,002	0,055
-236,088	-129,163	-0,006	0,001
-235,073	274,062	0,045	0,057
-234,059	-169,111	-0,076	0,002
-233,044	800,000	-0,056	0,127
-232,030	-195,864	0,092	-0,000
-231,015	235,693	0,008	-0,010
-230,000	800,000	0,030	0,073
-228,986	800,000	0,033	-0,086
-227,971	-49,873	0,123	0,042
-226,957	800,000	0,033	0,079
-225,942	307,840	0,069	0,094
-224,927	-200,000	-0,005	0,082
-223,913	-105,518	-0,246	0,040
-222,898	-66,148	-0,033	-0,009
-221,884	800,000	-0,022	0,061
-220,869	-94,794	0,098	-0,019
-219,855	-25,864	0,128	-0,055
-218,840	-200,000	0,023	0,083
-217,825	-38,118	0,032	0,012
-216,811	-80,292	0,115	-0,028
-215,796	183,476	0,090	-0,096
-214,782	-200,000	-0,034	-0,155
-213,767	99,108	-0,101	-0,085
-212,752	-200,000	0,007	0,052
-211,738	-200,000	0,035	0,197
-210,723	-27,728	0,012	-0,005
-209,709	-200,000	0,001	-0,049
-208,694	-73,260	-0,074	-0,019
-207,679	-1,609	0,032	0,016
-206,665	800,000	0,014	-0,037
-205,650	324,275	0,006	0,008
-204,636	-200,000	-0,004	-0,076
-203,621	-200,000	-0,002	0,116
-202,606	-42,371	-0,092	-0,034
-201,592	-142,393	-0,137	-0,010
-200,577	-103,069	0,116	0,020
-199,563	481,554	-0,013	0,021
-198,548	-200,000	-0,003	-0,044
-197,533	17,384	-0,153	0,088
-196,519	-123,328	-0,098	0,011
-195,504	800,000	-0,027	0,064
-194,490	-55,250	0,017	0,005
-193,475	237,200	-0,116	-0,140
-192,460	137,630	0,084	-0,080
-191,446	-53,210	-0,030	0,010
-190,431	-200,000	-0,027	0,087
-189,417	302,310	-0,068	0,092
-188,402	-200,000	0,003	-0,090
-187,387	-200,000	0,006	-0,050
-186,373	-117,963	-0,014	-0,002
-185,358	-70,104	0,117	-0,032
-184,344	507,831	0,027	-0,046
-183,329	-115,448	0,031	-0,004
-182,315	78,118	-0,040	0,031
-181,300	-104,984	-0,061	-0,010
-180,285	-91,616	0,056	-0,011
-179,271	800,000	-0,020	0,064
-178,256	-96,349	0,131	-0,025
-177,242	-31,860	-0,108	0,044
-176,227	800,000	0,043	0,109
-175,212	-154,324	0,082	-0,004
-174,198	-200,000	0,033	-0,166
-173,183	-72,750	-0,137	-0,036
-172,169	280,183	0,033	0,042
-171,154	-44,134	-0,122	-0,044
-170,139	100,167	-0,086	0,072
-169,125	11,034	0,016	-0,009
-168,110	219,037	0,104	0,120
-167,096	-43,892	-0,120	0,043
-166,081	193,331	0,021	0,023
-165,066	405,920	0,042	0,065
-164,052	-200,000	0,026	-0,138
-163,037	131,167	0,077	-0,072
-162,023	-200,000	-0,026	0,096
-161,008	-200,000	0,006	0,110
-159,993	250,469	0,079	0,098
-158,979	-11,142	0,119	-0,056
-157,964	800,000	-0,012	0,033
-156,950	274,992	0,038	0,049
-155,935	800,000	0,028	-0,076
-154,920	73,581	-0,026	0,019
-153,906	79,150	0,040	0,031
-152,891	-127,753	-0,095	0,010
-151,877	607,336	-0,010	-0,018
-150,862	-99,686	-0,081	-0,015
-149,847	-200,000	-0,023	-0,130
-148,833	28,247	-0,073	-0,044
-147,818	-12,227	-0,065	0,031
-146,804	300,350	0,028	0,038
-145,789	-200,000	-0,012	0,055
-144,775	-200,000	0,001	0,084
-143,760	-169,625	-0,088	0,002
-142,745	215,198	-0,048	-0,055
-141,731	777,710	-0,046	-0,092
-140,716	800,000	-0,062	-0,149
-139,702	301,915	0,041	0,055
-138,687	178,362	0,050	-0,053
-137,672	-98,494	0,047	0,009
-136,658	393,520	-0,029	0,044
-135,643	-200,000	0,010	-0,068
-134,629	16,364	-0,082	0,047
-133,614	720,460	0,046	0,089
-132,599	-137,568	-0,039	0,003
-131,585	-166,117	0,097	0,003
-130,570	8,953	0,091	-0,050
-129,556	15,643	0,057	0,032
-128,541	207,912	-0,078	-0,088
-127,526	-40,087	0,007	0,002
-126,512	204,254	-0,031	0,035
-125,497	224,983	0,103	0,121
-124,483	-200,000	-0,018	0,096
-123,468	-112,063	0,068	-0,010
-122,453	491,601	-0,076	-0,126
-121,439	72,399	-0,062	-0,047
-120,424	-12,725	0,091	-0,043
