DTS Sentinel unit serial number:	SN410029Multiplexer serial number:	ORYXHardware model number:	OX2-SRSoftware version number:	ORYX F/W v4,00 Oryx Data Collector v3.7.2.0data status	okinstallation	B6 Nyhavnadifferential loss correction	single-endedforward channel	channel 2reverse channel	N/Adate	2023/12/07time	21:45:08forward acquisition time	300,00reverse acquisition time	0,00gamma	499,1914k internal	0,3165k external	0,3165temperature offset calibration	1,0000default loss term (dB/km)	0,3820temperature slope calibration	1,0000multiplexer offset coefficient	1,0000multiplexer slope coefficient	1,0000fibre end	0,00T internal ref (°C)	13,67T ext. ref 1 (°C)	-3,27T ext. ref 2 (°C)	-3,28length (m)	temperature (°C)	Stokes	anti-Stokes-744,400	-200,000	0,033	0,130
-743,385	-115,905	-0,253	-0,034
-742,371	260,542	0,051	0,064
-741,356	-3,386	-0,297	0,152
-740,342	34,471	0,030	0,019
-739,327	-129,835	-0,425	0,042
-738,312	-138,195	0,046	-0,004
-737,298	-91,640	-0,398	-0,083
-736,283	-29,595	0,190	0,079
-735,269	-100,941	-0,193	0,035
-734,254	-16,584	0,077	-0,036
-733,239	-48,238	-0,574	-0,203
-732,225	127,349	0,089	-0,083
-731,210	141,186	0,086	0,083
-730,196	339,038	0,018	0,026
-729,181	800,000	0,037	-0,098
-728,167	154,033	0,123	-0,124
-727,152	-200,000	-0,034	-0,138
-726,137	-51,684	-0,024	-0,008
-725,123	-200,000	0,014	-0,088
-724,108	800,000	0,044	-0,128
-723,094	-194,374	-0,155	0,001
-722,079	-94,408	-0,052	0,010
-721,064	40,158	0,098	0,065
-720,050	102,691	-0,020	-0,017
-719,035	-200,000	0,003	0,027
-718,021	-23,634	-0,092	0,040
-717,006	-200,000	-0,007	-0,051
-715,991	-122,982	-0,080	0,009
-714,977	-56,423	-0,153	-0,050
-713,962	-51,139	0,097	-0,033
-712,948	-200,000	0,012	-0,071
-711,933	69,477	0,026	-0,019
-710,918	-146,026	-0,139	0,009
-709,904	253,234	-0,035	0,043
-708,889	550,521	-0,060	-0,106
-707,875	800,000	0,023	-0,069
-706,860	800,000	-0,042	0,121
-705,845	500,112	-0,041	0,070
-704,831	186,553	-0,090	0,098
-703,816	-90,288	0,028	-0,006
-702,802	800,000	-0,010	0,031
-701,787	800,000	0,027	-0,064
-700,772	-200,000	-0,002	-0,020
-699,758	800,000	0,048	-0,139
-698,743	6,327	0,066	-0,036
-697,729	-28,708	0,086	0,036
-696,714	800,000	-0,041	0,087
-695,699	-133,711	0,143	0,013
-694,685	81,607	-0,070	-0,055
-693,670	800,000	-0,028	0,075
-692,656	-42,625	-0,085	0,031
-691,641	-200,000	0,142	0,000
-690,627	431,608	0,125	0,199
-689,612	720,643	-0,038	0,075
-688,597	138,713	0,045	-0,043
-687,583	-41,864	-0,148	0,055
-686,568	413,528	0,025	0,039
-685,554	-22,317	0,051	-0,022
-684,539	-200,000	0,016	0,118
-683,524	698,771	0,066	0,129
-682,510	-200,000	0,003	0,187
-681,495	-53,424	0,049	0,016
-680,481	-98,017	-0,064	-0,012
-679,466	-101,087	0,073	0,013
-678,451	-200,000	0,028	-0,145
-677,437	127,962	0,120	0,112
-676,422	118,525	0,043	-0,039
-675,408	220,941	-0,042	0,049
-674,393	125,027	-0,129	0,119
-673,378	31,170	-0,122	-0,076
-672,364	157,219	0,046	0,047
-671,349	-200,000	0,005	-0,022
-670,335	-130,611	0,078	0,008
-669,320	800,000	0,015	-0,041
-668,305	10,631	-0,036	0,020
-667,291	219,679	0,006	-0,007
-666,276	-200,000	-0,001	-0,109
-665,262	-200,000	0,001	0,086
-664,247	-30,863	-0,109	-0,045
-663,232	-43,526	0,035	0,013
-662,218	-89,659	-0,042	-0,009
-661,203	278,590	0,069	-0,091
-660,189	304,505	0,025	0,034
-659,174	82,988	0,084	0,067
-658,159	800,000	0,052	-0,148
-657,145	213,570	-0,117	-0,136
-656,130	-115,504	0,118	-0,016
-655,116	31,876	0,062	0,039
-654,101	-109,232	0,186	-0,029
-653,086	296,523	0,067	-0,090
-652,072	198,096	-0,025	0,028
-651,057	-200,000	0,001	0,176
-650,043	39,843	-0,127	-0,083
-649,028	800,000	0,062	0,135
-648,014	172,256	-0,054	-0,057
-646,999	422,764	0,062	0,098
-645,984	64,077	0,047	-0,034
-644,970	-169,604	0,115	0,003
-643,955	800,000	-0,047	-0,098
-642,941	-57,612	-0,121	0,039
-641,926	299,463	0,076	-0,102
-640,911	637,867	0,026	-0,049
-639,897	-200,000	-0,004	0,190
-638,882	800,000	-0,039	0,112
-637,868	-61,409	0,102	-0,031
-636,853	34,107	-0,198	-0,126
-635,838	-200,000	-0,008	-0,056
-634,824	21,764	-0,027	-0,016
-633,809	121,110	-0,050	-0,045
-632,795	167,707	-0,070	-0,073
-631,780	-111,638	-0,186	0,027
-630,765	239,082	0,028	0,034
-629,751	-175,351	-0,089	0,002
-628,736	800,000	-0,027	0,084
-627,722	-33,370	-0,077	-0,031
-626,707	-200,000	0,005	-0,109
-625,692	-200,000	-0,022	0,091
-624,678	-200,000	-0,011	0,098
-623,663	-7,730	-0,128	0,063
-622,649	-51,896	0,107	-0,036
-621,634	345,405	-0,118	-0,170
-620,619	-200,000	-0,005	-0,046
-619,605	-102,872	0,077	-0,013
-618,590	-200,000	-0,002	0,135
-617,576	-87,390	0,097	-0,021
-616,561	15,454	-0,105	0,060
-615,546	800,000	-0,033	0,101
-614,532	-47,916	-0,038	-0,013
-613,517	240,479	-0,107	-0,131
-612,503	125,508	0,067	0,062
-611,488	-14,028	-0,077	-0,036
-610,474	85,595	0,048	0,039
-609,459	-157,623	-0,053	0,002
-608,444	39,239	-0,020	0,013
-607,430	-115,700	-0,061	0,008
-606,415	63,314	0,009	-0,007
-605,401	46,384	0,114	0,077
-604,386	-200,000	-0,020	0,073
-603,371	-93,661	0,044	-0,009
-602,357	-63,741	-0,081	0,024
-601,342	-200,000	-0,032	0,112
-600,328	24,769	0,048	0,029
-599,313	530,270	-0,037	-0,064
-598,298	800,000	-0,032	-0,094
-597,284	207,893	-0,080	0,092
-596,269	113,129	-0,033	-0,029
-595,255	271,225	0,038	0,049
-594,240	-200,000	0,009	-0,167
-593,225	416,040	-0,015	0,024
-592,211	31,790	-0,031	0,020
-591,196	660,927	-0,052	-0,098
-590,182	579,402	-0,048	-0,086
-589,167	40,197	0,031	-0,020
-588,152	32,205	-0,095	-0,060
-587,138	47,077	0,094	0,064
-586,123	391,100	0,038	0,058
-585,109	78,942	0,020	0,015
-584,094	-113,409	-0,066	0,009
-583,079	280,940	-0,103	-0,135
-582,065	40,329	-0,040	0,026
-581,050	-200,000	0,005	-0,051
-580,036	-200,000	0,013	-0,064
-579,021	800,000	-0,058	-0,131
-578,006	-60,885	-0,110	-0,034
-576,992	85,932	0,103	0,083
-575,977	609,455	0,030	-0,055
-574,963	-108,736	0,020	0,003
-573,948	-200,000	0,003	-0,013
-572,934	800,000	0,023	0,063
-571,919	41,540	-0,100	-0,066
-570,904	125,840	0,064	0,059
-569,890	107,396	-0,042	0,036
-568,875	104,787	-0,075	0,064
-567,861	-120,294	-0,091	0,011
-566,846	95,100	0,170	0,141
-565,831	287,545	0,047	-0,062
-564,817	-121,204	-0,070	-0,008
-563,802	-76,282	-0,120	0,031
-562,788	106,584	-0,093	-0,081
-561,773	-64,658	-0,117	-0,034
-560,758	-8,148	0,062	0,030
-559,744	634,427	0,061	0,113
-558,729	-27,669	-0,093	-0,039
-557,715	569,452	0,065	-0,116
-556,700	125,512	0,045	0,041
-555,685	-138,682	-0,085	-0,007
-554,671	800,000	0,048	-0,151
-553,656	-200,000	-0,022	-0,073
-552,642	-2,620	0,087	-0,044
-551,627	330,121	-0,018	0,025
-550,612	526,796	-0,021	0,036
-549,598	62,734	-0,046	-0,033
-548,583	-66,357	-0,164	0,047
-547,569	-7,271	0,198	-0,098
-546,554	-200,000	-0,008	0,041
-545,539	9,498	0,017	0,009
-544,525	690,341	-0,092	0,176
-543,510	42,499	-0,076	0,050
-542,496	12,927	0,130	-0,073
-541,481	-191,819	-0,043	0,000
-540,466	-74,448	0,142	0,037
-539,452	142,528	0,021	-0,021
-538,437	286,478	-0,053	-0,070
-537,423	-200,000	0,024	0,118
-536,408	-107,081	-0,076	-0,012
-535,393	800,000	-0,042	-0,091
-534,379	-200,000	-0,003	0,034
-533,364	5,772	-0,133	0,072
-532,350	-200,000	0,038	0,163
-531,335	800,000	0,048	0,154
-530,321	-200,000	0,016	-0,089
-529,306	489,803	0,073	0,123
-528,291	800,000	-0,036	-0,113
-527,277	-200,000	0,032	-0,140
-526,262	-29,696	0,115	-0,048
-525,248	-93,806	0,070	-0,014
-524,233	-200,000	0,010	0,101
-523,218	697,249	-0,063	0,121
-522,204	-200,000	-0,002	0,092
-521,189	110,641	-0,050	-0,044
-520,175	49,514	-0,038	0,026
-519,160	364,547	-0,087	-0,128
-518,145	-43,435	-0,053	-0,020
-517,131	-200,000	-0,029	-0,111
-516,116	800,000	0,028	-0,083
-515,102	-170,487	-0,110	-0,003
-514,087	139,669	0,065	-0,063
-513,072	-200,000	-0,003	-0,150
-512,058	-39,835	0,062	-0,023
-511,043	800,000	0,026	0,063
-510,029	-200,000	-0,006	-0,038
-509,014	-200,000	-0,022	0,071
-507,999	-86,876	-0,059	0,013
-506,985	743,762	-0,081	0,159
-505,970	221,101	0,046	-0,054
-504,956	-96,514	-0,049	-0,009
-503,941	800,000	0,025	0,073
-502,926	-145,273	0,099	-0,006
-501,912	-200,000	-0,006	-0,034
-500,897	800,000	0,042	-0,107
-499,883	-33,225	-0,135	-0,054
-498,868	-111,685	-0,014	-0,002
-497,853	800,000	-0,070	-0,168
-496,839	-200,000	0,034	-0,129
-495,824	-24,046	0,154	0,067
-494,810	120,201	0,146	0,132
-493,795	538,743	0,048	0,083
-492,781	-94,672	-0,008	-0,002
-491,766	800,000	-0,059	-0,123
-490,751	141,998	-0,116	-0,113
-489,737	-200,000	-0,023	0,088
-488,722	-48,551	0,060	0,021
-487,708	124,282	-0,057	0,052
-486,693	401,498	0,065	0,099
-485,678	-200,000	0,015	-0,090
-484,664	-159,458	-0,117	-0,005
-483,649	-200,000	-0,038	0,179
-482,635	-200,000	-0,009	-0,048
-481,620	318,790	0,080	0,110
-480,605	-200,000	0,027	0,100
-479,591	37,072	0,059	-0,038
-478,576	-52,959	0,173	-0,057
-477,562	-200,000	0,001	-0,037
-476,547	-200,000	0,010	0,087
-475,532	149,428	0,030	-0,030
-474,518	800,000	-0,041	0,086
-473,503	283,704	-0,057	0,074
-472,489	60,577	0,039	-0,028
-471,474	555,288	0,039	-0,068
-470,459	343,640	-0,082	-0,117
-469,445	-200,000	0,035	-0,149
-468,430	-200,000	-0,010	0,040
-467,416	11,145	0,175	0,097
-466,401	2,381	-0,060	-0,032
-465,386	36,986	-0,104	0,067
-464,372	104,756	0,030	-0,026
-463,357	800,000	-0,025	0,071
-462,343	-29,069	-0,152	0,063
-461,328	167,980	0,053	0,055
-460,313	800,000	0,036	0,085
-459,299	-48,248	-0,104	-0,036
-458,284	-200,000	-0,006	-0,036
-457,270	-200,000	-0,004	0,161
-456,255	-200,000	0,005	0,046
-455,241	90,021	-0,043	0,035
-454,226	66,081	0,115	-0,085
-453,211	612,749	0,023	-0,042
-452,197	16,497	-0,052	0,030
-451,182	800,000	-0,034	-0,075
-450,168	46,922	0,095	0,064
-449,153	-200,000	-0,022	-0,136
-448,138	800,000	0,039	-0,114
-447,124	-14,037	-0,073	-0,034
-446,109	-97,897	-0,143	0,027
-445,095	237,547	0,090	0,109
-444,080	58,499	0,120	0,085
-443,065	-58,361	0,089	-0,028
-442,051	88,051	-0,038	-0,031
-441,036	25,501	-0,058	-0,035
-440,022	-200,000	0,012	0,170
-439,007	-200,000	0,005	0,112
-437,992	-200,000	-0,007	-0,065
-436,978	-200,000	0,024	0,094
-435,963	177,838	-0,085	0,090
-434,949	63,366	0,009	-0,007
-433,934	50,930	-0,168	0,115
-432,919	334,613	-0,049	-0,069
-431,905	65,025	0,032	-0,023
-430,890	800,000	0,084	0,175
-429,876	-53,022	-0,047	0,016
-428,861	64,436	0,047	-0,034
-427,846	19,809	0,088	-0,051
-426,832	800,000	0,005	-0,014
-425,817	-43,436	-0,134	-0,049
-424,803	11,894	-0,135	-0,075
-423,788	-177,863	0,100	0,002
-422,773	800,000	0,020	-0,041
-421,759	51,147	0,061	-0,042
-420,744	-200,000	-0,033	-0,115
-419,730	149,541	0,034	-0,034
-418,715	-105,811	-0,095	-0,015
-417,701	265,912	0,076	0,097
-416,686	34,032	-0,094	0,059
-415,671	-200,000	0,010	0,038
-414,657	800,000	-0,052	0,129
-413,642	-9,659	-0,073	-0,035
-412,628	427,902	0,018	-0,028
-411,613	-193,733	0,077	-0,000
-410,598	800,000	0,030	-0,067
-409,584	-200,000	0,025	-0,166
-408,569	73,714	-0,021	0,016
-407,555	174,409	0,016	0,017
-406,540	114,660	0,101	0,089
-405,525	204,428	-0,023	0,026
-404,511	774,313	-0,021	-0,042
-403,496	-35,714	0,099	-0,039
-402,482	-200,000	0,025	-0,104
-401,467	223,606	-0,074	0,086
-400,452	149,784	0,026	-0,026
-399,438	-159,692	0,039	-0,002
-398,423	800,000	-0,014	0,031
-397,409	441,037	-0,088	-0,139
-396,394	-45,944	-0,082	-0,029
-395,379	-200,000	0,007	-0,067
-394,365	320,440	0,115	-0,158
-393,350	-13,348	-0,058	-0,027
-392,336	-33,939	0,147	-0,059
-391,321	-162,060	-0,091	-0,003
-390,306	116,662	-0,063	-0,056
-389,292	322,573	-0,046	0,063
-388,277	-200,000	0,009	-0,064
-387,263	143,809	0,073	-0,070
-386,248	-200,000	0,015	-0,060
-385,233	-200,000	-0,010	0,108
-384,219	-200,000	-0,008	-0,109
-383,204	800,000	-0,053	-0,126
-382,190	556,997	-0,063	-0,110
-381,175	15,757	0,076	0,043
-380,160	-78,801	0,010	0,003
-379,146	576,507	0,008	0,014
-378,131	58,989	0,109	0,078
-377,117	104,308	0,042	0,036
-376,102	-75,366	-0,048	-0,012
-375,088	-200,000	0,020	-0,113
-374,073	260,110	0,076	0,095
-373,058	800,000	0,053	0,122
-372,044	800,000	-0,044	0,098
-371,029	-132,719	-0,083	-0,008
-370,015	800,000	-0,046	-0,123
-369,000	-61,466	-0,021	0,006
-367,985	-33,799	-0,043	-0,017
-366,971	-143,370	0,162	-0,011
-365,956	-103,179	0,268	-0,046
-364,942	478,780	0,017	0,028
-363,927	800,000	0,048	0,120
-362,912	196,064	0,069	0,076
-361,898	-109,140	-0,077	-0,012
-360,883	-142,089	0,011	-0,001
-359,869	-81,355	0,111	0,026
-358,854	79,806	0,042	-0,033
-357,839	-200,000	0,008	-0,040
-356,825	-17,717	-0,071	-0,032
-355,810	46,775	-0,122	0,082
-354,796	-9,870	-0,135	-0,065
-353,781	-200,000	0,015	0,056
-352,766	-200,000	0,002	-0,105
-351,752	91,829	0,065	0,053
-350,737	209,627	-0,089	0,101
-349,723	7,281	0,136	-0,073
-348,708	800,000	-0,050	0,103
-347,693	-92,620	-0,060	0,012
-346,679	161,650	0,135	-0,137
-345,664	-200,000	0,013	-0,078
-344,650	7,293	0,082	0,044
-343,635	504,663	-0,005	-0,009
-342,620	22,714	0,087	0,051
-341,606	800,000	0,020	0,059
-340,591	58,876	0,076	0,054
-339,577	-200,000	0,003	0,069
-338,562	39,334	0,111	-0,072
-337,548	-200,000	-0,001	-0,104
-336,533	-103,785	-0,064	0,011
-335,518	-81,549	0,118	0,028
-334,504	-155,606	0,162	0,007
-333,489	-134,003	0,080	0,007
-332,475	41,581	-0,121	-0,079
-331,460	-200,000	0,030	-0,124
-330,445	-88,824	-0,100	-0,021
-329,431	-200,000	0,032	0,141
-328,416	-72,850	-0,112	-0,030
-327,402	92,755	0,067	-0,055
-326,387	800,000	0,033	0,067
-325,372	-53,610	-0,125	0,041
-324,358	-17,385	0,036	0,016
-323,343	800,000	-0,028	-0,087
-322,329	-52,882	0,087	0,029
-321,314	86,941	0,052	0,041
-320,299	-23,274	0,087	0,038
-319,285	-200,000	0,003	0,060
-318,270	112,873	-0,016	-0,014
-317,256	-10,392	-0,111	-0,053
-316,241	128,694	0,037	0,034
-315,226	-200,000	0,002	-0,129
-314,212	800,000	0,018	0,046
-313,197	405,849	0,036	0,055
-312,183	-200,000	-0,010	-0,035
-311,168	185,104	0,018	0,020
-310,153	-24,200	0,100	0,043
-309,139	800,000	-0,060	0,154
-308,124	36,554	-0,044	0,028
-307,110	-23,980	-0,041	0,018
-306,095	-200,000	0,003	-0,074
-305,080	373,185	0,069	-0,101
-304,066	-200,000	0,009	0,085
-303,051	-86,995	0,046	0,010
-302,037	800,000	-0,048	-0,152
-301,022	603,840	0,054	-0,098
-300,008	-141,399	0,062	0,005
-298,993	99,610	-0,061	0,051
-297,978	-2,580	0,028	0,014
-296,964	-61,649	0,111	-0,034
-295,949	-200,000	0,006	0,128
-294,935	42,419	-0,065	0,042
-293,920	125,819	0,113	-0,103
-292,905	800,000	0,026	0,069
-291,891	104,025	0,111	0,095
-290,876	-47,409	-0,035	-0,012
-289,862	32,405	-0,065	-0,041
-288,847	-146,083	-0,004	0,000
-287,832	-43,403	0,150	-0,054
-286,818	-117,223	-0,048	0,006
-285,803	-200,000	0,019	0,134
-284,789	294,052	-0,041	0,054
-283,774	800,000	0,021	0,042
-282,759	-65,737	-0,099	0,028
-281,745	-70,912	-0,076	-0,021
-280,730	-88,388	0,132	0,028
-279,716	800,000	-0,033	-0,097
-278,701	19,311	-0,032	0,019
-277,686	-125,453	-0,117	-0,013
-276,672	40,826	0,073	-0,047
-275,657	-17,344	-0,074	0,033
-274,643	9,543	0,018	-0,010
-273,628	-185,274	-0,082	-0,001
-272,613	800,000	0,053	0,106
-271,599	64,970	0,127	0,093
-270,584	-117,434	0,110	0,014
-269,570	-64,887	0,239	0,069
-268,555	800,000	-0,058	0,120
-267,540	-200,000	0,001	0,032
-266,526	-82,283	0,120	0,028
-265,511	-200,000	0,006	-0,045
-264,497	-76,338	-0,115	-0,029
-263,482	-47,492	0,080	-0,028
-262,467	800,000	0,021	0,042
-261,453	162,640	-0,075	-0,076
-260,438	272,675	-0,066	-0,085
-259,424	-48,737	0,101	-0,035
-258,409	-29,196	0,056	-0,023
-257,395	206,072	-0,017	-0,019
-256,380	-200,000	0,003	-0,149
-255,365	408,367	0,092	-0,141
-254,351	130,090	-0,038	-0,035
-253,336	-200,000	0,000	-0,145
-252,322	78,662	-0,133	-0,103
-251,307	800,000	-0,027	-0,085
-250,292	480,313	-0,034	0,056
-249,278	800,000	0,022	-0,054
-248,263	279,487	0,040	0,051
-247,249	-200,000	-0,039	0,187
-246,234	-200,000	-0,129	0,000
-245,219	-47,192	-0,097	-0,034
-244,205	-65,290	-0,089	0,026
-243,190	-25,714	-0,129	0,054
-242,176	-131,169	0,068	-0,006
-241,161	-22,261	-0,105	-0,046
-240,146	-166,633	0,063	0,002
-239,132	-135,203	-0,058	0,005
-238,117	109,240	-0,048	-0,041
-237,103	217,910	-0,081	0,093
-236,088	441,450	0,018	0,028
-235,073	7,347	0,047	0,025
-234,059	90,473	0,057	0,046
-233,044	52,349	-0,033	0,023
-232,030	453,451	-0,017	0,027
-231,015	-24,563	0,128	0,054
-230,000	444,987	-0,061	-0,097
-228,986	-21,672	0,099	0,043
-227,971	-67,912	-0,081	0,023
-226,957	233,095	-0,037	0,044
-225,942	312,257	-0,051	0,070
-224,927	-114,107	0,151	-0,021
-223,913	-200,000	-0,007	0,032
-222,898	97,786	0,087	-0,072
-221,884	-3,184	-0,074	0,037
-220,869	800,000	-0,054	0,120
-219,855	12,900	-0,032	-0,018
-218,840	150,753	0,075	-0,074
-217,825	-200,000	-0,008	0,096
-216,811	-200,000	0,001	0,055
-215,796	-20,046	-0,063	0,028
-214,782	-124,077	0,056	-0,006
-213,767	-15,986	0,107	0,049
-212,752	-64,447	0,051	-0,015
-211,738	287,158	0,026	-0,033
-210,723	243,918	-0,039	0,047
-209,709	-10,696	0,171	0,081
-208,694	300,385	-0,020	0,026
-207,679	-1,996	-0,144	-0,073
-206,665	505,047	0,087	-0,146
-205,650	197,321	-0,020	0,022
-204,636	463,819	0,061	0,098
-203,621	210,215	0,052	0,059
-202,606	-200,000	-0,021	0,125
-201,592	-200,000	0,002	-0,031
-200,577	800,000	0,049	-0,101
-199,563	-200,000	0,007	-0,024
-198,548	-180,591	0,077	-0,001
-197,533	-20,126	-0,047	-0,021
-196,519	95,631	-0,096	0,079
-195,504	-116,068	0,149	0,020
-194,490	-25,851	0,071	-0,030
-193,475	-92,306	0,147	0,030
-192,460	-101,823	0,087	-0,015
-191,446	-131,216	0,057	-0,005
-190,431	-36,305	0,058	-0,022
-189,417	-200,000	0,017	-0,088
-188,402	-200,000	-0,017	-0,069
-187,387	345,072	-0,101	-0,143
-186,373	-200,000	-0,008	0,091
-185,358	-200,000	0,018	0,081
-184,344	-200,000	-0,019	-0,090
-183,329	-200,000	0,010	0,051
-182,315	131,520	-0,069	0,064
-181,300	347,349	0,049	-0,069
-180,285	-91,320	-0,046	-0,009
-179,271	149,270	-0,049	-0,048
-178,256	-200,000	0,004	-0,118
-177,242	-200,000	-0,007	0,071
-176,227	150,309	-0,080	0,078
-175,212	-200,000	-0,039	0,141
-174,198	-200,000	-0,027	-0,092
-173,183	-90,226	-0,117	0,024
-172,169	447,664	0,033	0,053
-171,154	-200,000	-0,013	0,045
-170,139	-200,000	0,014	0,095
-169,125	-165,210	0,139	0,004
-168,110	53,026	0,075	0,051
-167,096	43,500	-0,066	0,044
-166,081	60,281	-0,045	-0,032
-165,066	252,756	0,102	-0,125
-164,052	-200,000	-0,024	-0,083
-163,037	800,000	0,012	0,035
-162,023	-200,000	-0,003	0,109
-161,008	-200,000	-0,018	0,133
-159,993	800,000	0,039	-0,096
-158,979	-57,712	-0,093	0,029
-157,964	7,954	-0,121	-0,065
-156,950	-200,000	0,009	-0,128
-155,935	800,000	-0,072	-0,169
-154,920	800,000	-0,039	-0,080
-153,906	-200,000	-0,006	0,049
-152,891	-200,000	-0,009	-0,049
-151,877	18,201	-0,059	0,034
-150,862	-20,362	-0,055	-0,024
-149,847	-106,655	-0,088	-0,014
-148,833	754,210	0,026	-0,050
-147,818	234,678	0,082	0,098
-146,804	82,394	0,039	-0,030
-145,789	-48,697	-0,007	-0,003
-144,775	-8,199	-0,105	-0,051
-143,760	-135,369	0,084	0,007
-142,745	800,000	0,041	-0,113
-141,731	154,988	0,047	-0,046
-140,716	558,091	-0,046	-0,081
-139,702	21,267	0,121	0,071
-138,687	317,392	-0,072	0,098
-137,672	-200,000	-0,000	-0,093
-136,658	110,454	-0,034	0,029
-135,643	335,844	0,056	-0,078
-134,629	-200,000	-0,010	0,136
-133,614	5,438	0,042	0,022
-132,599	215,733	0,033	-0,037
-131,585	333,102	0,125	0,174
-130,570	-200,000	0,006	-0,178
-129,556	-52,152	-0,086	-0,028
-128,541	89,299	-0,057	-0,046
-127,526	-61,890	0,058	0,017
-126,512	-189,873	0,071	0,001
-125,497	-200,000	-0,044	0,149
-124,483	471,829	-0,044	0,072
-123,468	96,829	-0,176	0,144
-122,453	-107,728	-0,105	0,016
-121,439	800,000	-0,005	-0,010
-120,424	-200,000	0,026	-0,114
-119,410	13,248	0,131	0,073
-118,395	139,769	-0,116	0,110
