DTS Sentinel unit serial number:	SN410029Multiplexer serial number:	ORYXHardware model number:	OX2-SRSoftware version number:	ORYX F/W v4,00 Oryx Data Collector v3.7.2.0data status	okinstallation	B6 Nyhavnadifferential loss correction	single-endedforward channel	channel 2reverse channel	N/Adate	2023/12/08time	10:50:08forward acquisition time	300,00reverse acquisition time	0,00gamma	499,1914k internal	0,3162k external	0,3162temperature offset calibration	1,0000default loss term (dB/km)	0,3820temperature slope calibration	1,0000multiplexer offset coefficient	1,0000multiplexer slope coefficient	1,0000fibre end	0,00T internal ref (°C)	14,66T ext. ref 1 (°C)	-1,32T ext. ref 2 (°C)	-1,26length (m)	temperature (°C)	Stokes	anti-Stokes-744,400	-117,859	0,160	-0,021
-743,385	-60,036	-0,342	-0,107
-742,371	-82,390	0,152	0,036
-741,356	-99,894	-0,368	0,067
-740,342	125,704	0,115	0,107
-739,327	-117,307	-0,327	-0,043
-738,312	145,203	0,105	0,103
-737,298	-80,158	-0,220	0,054
-736,283	12,940	0,061	-0,035
-735,269	-149,938	-0,238	0,013
-734,254	-168,761	0,132	0,004
-733,239	-34,417	-0,452	-0,182
-732,225	-25,328	0,194	0,084
-731,210	188,230	0,005	0,006
-730,196	-200,000	-0,021	-0,088
-729,181	-31,956	-0,131	-0,054
-728,167	-112,898	-0,130	0,019
-727,152	69,288	-0,056	0,042
-726,137	-200,000	-0,049	-0,177
-725,123	-11,258	-0,190	-0,092
-724,108	-200,000	-0,007	-0,091
-723,094	48,536	-0,117	-0,080
-722,079	-200,000	-0,007	-0,093
-721,064	607,941	0,030	-0,056
-720,050	-53,710	-0,079	-0,026
-719,035	590,571	0,007	0,013
-718,021	326,176	0,066	0,094
-717,006	560,347	-0,033	-0,059
-715,991	576,133	-0,007	-0,012
-714,977	605,861	0,027	0,050
-713,962	221,233	0,027	-0,032
-712,948	-200,000	0,027	0,187
-711,933	764,993	-0,053	0,106
-710,918	-147,781	0,068	-0,004
-709,904	18,196	-0,149	0,087
-708,889	82,040	0,039	0,031
-707,875	800,000	-0,038	-0,096
-706,860	248,209	-0,091	-0,113
-705,845	516,960	-0,044	-0,077
-704,831	-71,978	-0,054	0,015
-703,816	207,152	0,084	0,096
-702,802	-165,203	-0,060	0,002
-701,787	-4,665	-0,159	-0,081
-700,772	25,834	-0,145	-0,088
-699,758	715,983	0,064	0,125
-698,743	800,000	-0,021	-0,044
-697,729	9,110	-0,052	-0,029
-696,714	-200,000	-0,015	-0,050
-695,699	-200,000	-0,006	0,152
-694,685	233,152	-0,153	-0,185
-693,670	800,000	-0,022	-0,069
-692,656	232,746	-0,033	0,039
-691,641	-47,482	0,087	0,031
-690,627	658,257	0,033	-0,062
-689,612	251,087	0,085	-0,107
-688,597	246,414	0,064	-0,080
-687,583	168,204	-0,145	-0,152
-686,568	202,578	-0,065	-0,074
-685,554	67,035	-0,028	0,021
-684,539	-200,000	-0,010	-0,159
-683,524	116,352	0,047	-0,042
-682,510	290,519	0,051	-0,069
-681,495	36,388	-0,056	-0,036
-680,481	64,742	-0,064	-0,047
-679,466	-49,041	-0,072	-0,025
-678,451	-70,937	-0,172	0,047
-677,437	405,738	-0,113	-0,176
-676,422	410,543	0,028	0,044
-675,408	692,936	0,045	-0,088
-674,393	800,000	0,025	-0,052
-673,378	-25,517	-0,124	0,053
-672,364	435,416	-0,050	-0,079
-671,349	-200,000	0,033	-0,127
-670,335	800,000	0,028	0,061
-669,320	12,656	0,019	0,011
-668,305	800,000	-0,038	0,103
-667,291	111,985	-0,097	-0,086
-666,276	497,851	0,018	-0,030
-665,262	-4,457	-0,141	0,071
-664,247	-158,608	-0,140	0,006
-663,232	-53,802	0,028	0,009
-662,218	-51,442	-0,203	-0,069
-661,203	258,323	-0,040	0,051
-660,189	-200,000	0,008	-0,046
-659,174	8,602	0,014	0,008
-658,159	-143,143	-0,122	0,009
-657,145	800,000	-0,011	-0,023
-656,130	-200,000	-0,006	0,020
-655,116	534,419	-0,011	0,019
-654,101	800,000	0,015	0,035
-653,086	800,000	-0,075	0,157
-652,072	136,953	-0,156	-0,149
-651,057	173,317	-0,084	-0,089
-650,043	-61,095	-0,081	-0,025
-649,028	-200,000	0,011	-0,061
-648,014	-200,000	0,024	0,080
-646,999	12,254	0,062	-0,035
-645,984	130,183	-0,079	-0,074
-644,970	100,048	0,028	-0,024
-643,955	2,237	0,009	-0,005
-642,941	174,372	-0,045	0,048
-641,926	-94,803	0,100	-0,020
-640,911	-200,000	-0,006	0,031
-639,897	-200,000	-0,015	0,050
-638,882	306,273	-0,038	0,052
-637,868	482,670	-0,020	0,034
-636,853	78,913	-0,127	0,099
-635,838	-200,000	-0,013	-0,062
-634,824	-170,140	-0,164	-0,004
-633,809	-81,950	-0,154	-0,037
-632,795	-200,000	0,023	0,096
-631,780	73,819	-0,087	0,067
-630,765	40,022	-0,080	-0,052
-629,751	-110,358	-0,034	-0,005
-628,736	471,895	0,074	-0,123
-627,722	-200,000	-0,031	0,115
-626,707	271,513	-0,025	-0,032
-625,692	-200,000	0,002	-0,079
-624,678	9,515	-0,047	0,026
-623,663	87,075	-0,102	0,082
-622,649	800,000	0,015	0,040
-621,634	650,305	-0,087	-0,165
-620,619	-200,000	0,010	-0,047
-619,605	-20,349	0,141	-0,063
-618,590	800,000	0,036	-0,103
-617,576	52,666	-0,113	0,079
-616,561	-200,000	0,043	0,204
-615,546	800,000	0,074	0,229
-614,532	139,230	-0,077	0,074
-613,517	249,782	-0,044	-0,055
-612,503	-200,000	0,012	0,068
-611,488	-200,000	-0,007	0,059
-610,474	571,191	0,072	-0,128
-609,459	278,025	-0,066	-0,087
-608,444	-91,157	-0,083	0,017
-607,430	-200,000	0,009	0,070
-606,415	-143,628	-0,141	0,010
-605,401	35,024	0,125	-0,080
-604,386	-25,259	-0,099	0,043
-603,371	117,949	0,053	0,048
-602,357	87,105	-0,119	-0,096
-601,342	-140,579	-0,041	-0,003
-600,328	-83,658	0,095	0,022
-599,313	-200,000	-0,015	-0,118
-598,298	-200,000	0,016	-0,159
-597,284	47,079	-0,015	0,010
-596,269	-200,000	-0,016	0,091
-595,255	-114,272	-0,220	0,031
-594,240	800,000	-0,026	0,054
-593,225	-85,302	-0,068	0,015
-592,211	-200,000	0,001	-0,149
-591,196	-15,194	0,086	0,040
-590,182	124,922	-0,067	-0,062
-589,167	-120,804	0,142	0,017
-588,152	-120,224	0,095	-0,012
-587,138	-7,607	-0,046	0,023
-586,123	169,028	-0,024	-0,025
-585,109	-200,000	0,031	-0,113
-584,094	-200,000	0,002	-0,040
-583,079	32,458	0,072	-0,045
-582,065	800,000	0,052	0,165
-581,050	355,764	-0,034	0,049
-580,036	800,000	-0,019	0,049
-579,021	21,571	0,105	0,062
-578,006	275,937	-0,046	-0,060
-576,992	-129,789	0,049	0,005
-575,977	-200,000	0,011	-0,115
-574,963	85,157	0,032	-0,026
-573,948	116,370	-0,103	-0,093
-572,934	0,415	-0,047	-0,025
-571,919	800,000	-0,026	-0,064
-570,904	-200,000	0,022	-0,140
-569,890	207,534	-0,047	-0,053
-568,875	-200,000	-0,004	-0,022
-567,861	-26,291	0,086	0,037
-566,846	154,470	0,141	0,141
-565,831	43,026	0,021	0,014
-564,817	-0,613	0,063	0,033
-563,802	235,818	0,015	-0,018
-562,788	-200,000	0,032	0,185
-561,773	-1,167	-0,074	0,038
-560,758	15,868	0,097	-0,056
-559,744	78,820	0,096	-0,075
-558,729	-83,956	0,047	-0,011
-557,715	-155,107	-0,042	0,002
-556,700	1,900	-0,036	0,019
-555,685	67,165	0,123	-0,092
-554,671	800,000	0,049	0,146
-553,656	90,014	-0,140	0,114
-552,642	-148,142	0,157	-0,009
-551,627	-200,000	-0,023	-0,095
-550,612	1,282	-0,100	0,052
-549,598	-54,135	-0,090	-0,030
-548,583	284,304	-0,025	-0,033
-547,569	-200,000	0,012	-0,107
-546,554	36,817	0,054	-0,035
-545,539	297,019	0,058	-0,078
-544,525	-78,939	0,022	-0,005
-543,510	-90,711	-0,195	-0,041
-542,496	112,813	-0,062	0,055
-541,481	343,410	0,041	0,059
-540,466	220,220	-0,011	0,013
-539,452	315,160	-0,008	0,011
-538,437	59,470	0,043	0,031
-537,423	-200,000	0,020	0,103
-536,408	800,000	-0,048	0,107
-535,393	800,000	-0,046	-0,136
-534,379	-200,000	-0,014	-0,142
-533,364	-200,000	-0,009	-0,032
-532,350	-172,459	0,108	0,002
-531,335	169,433	0,126	0,132
-530,321	800,000	-0,009	-0,025
-529,306	-68,783	0,078	0,022
-528,291	45,205	-0,081	-0,054
-527,277	-200,000	-0,003	-0,104
-526,262	301,334	-0,060	-0,082
-525,248	-46,964	-0,056	-0,020
-524,233	-137,249	0,071	0,006
-523,218	800,000	0,025	-0,070
-522,204	-31,531	-0,025	-0,010
-521,189	-15,947	-0,067	0,031
-520,175	800,000	-0,047	-0,098
-519,160	-151,653	-0,105	-0,006
-518,145	-75,006	0,058	0,015
-517,131	-200,000	-0,007	0,056
-516,116	800,000	0,019	-0,040
-515,102	-200,000	-0,006	0,082
-514,087	-103,872	0,049	0,008
-513,072	51,244	-0,041	-0,029
-512,058	-67,860	0,057	-0,016
-511,043	-200,000	0,050	0,177
-510,029	-200,000	0,011	0,134
-509,014	-200,000	0,008	0,037
-507,999	-104,817	-0,024	-0,004
-506,985	-200,000	-0,036	-0,119
-505,970	225,823	0,082	-0,098
-504,956	-8,991	0,027	0,013
-503,941	800,000	0,052	0,157
-502,926	-91,560	0,065	0,013
-501,912	59,342	-0,055	-0,040
-500,897	-200,000	0,005	-0,144
-499,883	-78,185	0,083	-0,021
-498,868	-200,000	0,003	-0,041
-497,853	144,855	-0,049	-0,048
-496,839	-5,906	-0,065	0,032
-495,824	-40,085	0,152	0,058
-494,810	-200,000	-0,012	-0,052
-493,795	-200,000	-0,011	-0,050
-492,781	319,050	0,069	0,096
-491,766	-200,000	-0,028	-0,100
-490,751	14,906	-0,103	-0,059
-489,737	-200,000	0,023	0,162
-488,722	-82,478	-0,076	-0,018
-487,708	-66,135	-0,101	0,029
-486,693	800,000	-0,038	-0,101
-485,678	-200,000	-0,029	0,110
-484,664	-200,000	-0,020	-0,096
-483,649	412,722	0,022	-0,034
-482,635	-76,079	0,052	-0,013
-481,620	-200,000	-0,003	0,048
-480,605	-119,362	0,103	0,013
-479,591	72,151	-0,104	-0,079
-478,576	203,154	0,046	0,051
-477,562	366,412	-0,095	-0,140
-476,547	-13,689	-0,006	0,003
-475,532	510,300	-0,009	-0,016
-474,518	200,920	0,005	-0,005
-473,503	-200,000	0,039	0,143
-472,489	24,315	0,064	0,038
-471,474	-152,979	0,133	-0,007
-470,459	-200,000	0,022	-0,211
-469,445	800,000	-0,060	-0,168
-468,430	-200,000	-0,021	-0,114
-467,416	-200,000	0,035	-0,212
-466,401	-149,599	0,041	0,002
-465,386	147,104	0,035	-0,034
-464,372	-44,097	0,014	-0,005
-463,357	-129,319	0,109	-0,011
-462,343	288,282	-0,020	0,026
-461,328	10,873	-0,072	0,040
-460,313	13,200	0,075	-0,042
-459,299	744,407	0,082	-0,162
-458,284	-51,299	-0,040	0,013
-457,270	-200,000	-0,016	-0,073
-456,255	-70,844	0,049	-0,013
-455,241	214,700	-0,104	-0,120
-454,226	-187,615	-0,100	-0,001
-453,211	-200,000	0,009	-0,037
-452,197	-104,674	-0,033	0,006
-451,182	356,943	0,038	0,055
-450,168	800,000	0,021	0,043
-449,153	-133,316	-0,086	-0,008
-448,138	800,000	0,032	0,097
-447,124	22,374	0,018	-0,011
-446,109	186,642	0,068	-0,074
-445,095	181,384	0,026	0,028
-444,080	-43,538	0,142	0,052
-443,065	-138,001	-0,112	-0,009
-442,051	44,080	-0,101	0,068
-441,036	800,000	0,024	-0,059
-440,022	693,440	-0,063	-0,122
-439,007	677,734	0,043	0,081
-437,992	24,020	0,076	0,046
-436,978	296,764	-0,014	0,018
-435,963	-200,000	0,002	0,049
-434,949	-200,000	0,014	-0,046
-433,934	-61,496	-0,106	0,032
-432,919	458,527	0,036	0,058
-431,905	212,905	-0,062	0,071
-430,890	-104,441	0,038	0,006
-429,876	-200,000	-0,001	0,058
-428,861	-200,000	0,006	0,041
-427,846	10,737	-0,057	-0,032
-426,832	555,540	-0,085	-0,149
-425,817	67,078	0,116	-0,086
-424,803	98,295	0,032	0,027
-423,788	38,287	-0,116	-0,075
-422,773	40,199	0,161	-0,105
-421,759	571,019	-0,031	0,055
-420,744	11,938	-0,054	0,030
-419,730	1,397	0,052	0,027
-418,715	800,000	-0,070	-0,153
-417,701	800,000	-0,046	-0,146
-416,686	63,323	-0,048	-0,035
-415,671	451,086	0,035	0,056
-414,657	388,824	0,025	0,038
-413,642	-129,322	-0,051	0,005
-412,628	709,573	0,040	0,077
-411,613	800,000	0,029	-0,091
-410,598	319,681	-0,109	-0,151
-409,584	-37,726	0,134	-0,051
-408,569	-200,000	0,041	0,179
-407,555	68,113	-0,064	0,047
-406,540	-2,939	-0,131	0,066
-405,525	324,824	-0,060	0,083
-404,511	-200,000	0,016	0,095
-403,496	800,000	-0,013	-0,027
-402,482	-200,000	-0,002	0,074
-401,467	-200,000	0,079	0,000
-400,452	-47,994	0,048	0,017
-399,438	-14,820	0,100	-0,046
-398,423	800,000	0,057	-0,136
-397,409	-200,000	0,017	-0,227
-396,394	-200,000	0,013	-0,057
-395,379	322,778	-0,028	-0,039
-394,365	144,385	-0,035	0,034
-393,350	55,831	0,056	0,039
-392,336	-200,000	-0,012	0,060
-391,321	335,450	-0,010	0,015
-390,306	-116,757	-0,119	-0,016
-389,292	800,000	0,028	0,087
-388,277	654,917	-0,029	-0,055
-387,263	87,919	0,118	0,095
-386,248	370,551	0,064	0,095
-385,233	-200,000	0,006	-0,155
-384,219	38,307	-0,015	-0,010
-383,204	-200,000	0,012	-0,142
-382,190	800,000	0,042	-0,092
-381,175	-122,140	-0,093	-0,011
-380,160	42,111	0,086	0,057
-379,146	330,774	0,019	0,027
-378,131	-200,000	0,028	0,095
-377,117	-200,000	0,007	0,040
-376,102	-200,000	0,031	0,121
-375,088	336,791	0,029	0,041
-374,073	-200,000	0,006	-0,055
-373,058	-56,907	-0,034	0,011
-372,044	149,582	0,046	0,045
-371,029	491,148	0,045	0,074
-370,015	-200,000	-0,035	0,126
-369,000	342,348	-0,071	0,101
-367,985	-11,790	0,045	0,021
-366,971	800,000	0,025	0,057
-365,956	800,000	-0,011	0,035
-364,942	-14,138	0,158	0,073
-363,927	-200,000	-0,029	0,098
-362,912	63,783	0,064	0,047
-361,898	14,250	0,142	0,080
-360,883	0,452	0,044	0,022
-359,869	-123,294	0,034	-0,004
-358,854	-62,841	-0,137	0,041
-357,839	-200,000	0,009	-0,115
-356,825	475,142	-0,037	-0,061
-355,810	674,763	0,015	-0,028
-354,796	800,000	0,011	-0,035
-353,781	800,000	-0,029	-0,075
-352,766	23,274	0,057	-0,034
-351,752	800,000	-0,053	0,145
-350,737	473,969	-0,089	0,147
-349,723	7,119	0,062	-0,033
-348,708	216,660	0,112	0,129
-347,693	-200,000	-0,015	-0,053
-346,679	800,000	0,024	-0,052
-345,664	198,304	0,054	-0,059
-344,650	307,388	-0,079	-0,108
-343,635	-200,000	0,015	0,053
-342,620	-116,749	-0,056	-0,007
-341,606	-109,537	-0,076	-0,012
-340,591	213,129	-0,067	0,076
-339,577	800,000	0,054	-0,151
-338,562	-124,322	-0,011	-0,001
-337,548	302,668	-0,045	-0,061
-336,533	-66,117	0,076	0,022
-335,518	-16,080	0,136	-0,062
-334,504	40,245	-0,047	0,030
-333,489	84,253	-0,045	0,036
-332,475	-200,000	-0,031	-0,174
-331,460	146,152	-0,078	0,076
-330,445	-200,000	-0,004	-0,056
-329,431	-92,801	0,154	0,031
-328,416	800,000	0,072	0,212
-327,402	-200,000	0,022	0,073
-326,387	-200,000	-0,002	0,012
-325,372	-93,082	-0,071	-0,014
-324,358	-120,512	-0,097	-0,012
-323,343	-200,000	0,015	0,057
-322,329	-2,313	-0,041	0,021
-321,314	800,000	0,090	0,184
-320,299	-200,000	0,002	0,049
-319,285	800,000	-0,010	-0,029
-318,270	-176,492	0,132	0,002
-317,256	-200,000	-0,002	-0,010
-316,241	-184,775	0,041	0,000
-315,226	-169,053	0,044	0,001
-314,212	-55,718	0,158	0,051
-313,197	550,343	0,069	0,120
-312,183	16,467	-0,060	-0,034
-311,168	64,267	-0,027	0,020
-310,153	-89,827	-0,063	-0,013
-309,139	439,207	-0,043	-0,068
-308,124	-131,445	0,088	-0,008
-307,110	690,532	0,008	-0,015
-306,095	158,885	0,102	0,103
-305,080	-68,003	0,078	0,022
-304,066	-87,172	-0,108	0,023
-303,051	800,000	-0,056	0,119
-302,037	265,540	-0,061	-0,077
-301,022	455,501	0,046	-0,074
-300,008	58,977	0,092	-0,065
-298,993	204,643	-0,042	-0,047
-297,978	-200,000	-0,011	-0,116
-296,964	-105,039	-0,046	-0,008
-295,949	114,388	-0,058	-0,051
-294,935	-153,888	-0,228	0,011
-293,920	367,921	-0,035	-0,052
-292,905	-46,664	0,071	0,025
-291,891	81,270	0,093	-0,073
-290,876	-47,390	0,084	0,029
-289,862	140,310	0,063	-0,061
-288,847	-200,000	-0,046	-0,199
-287,832	-200,000	-0,015	0,071
-286,818	-73,164	-0,096	-0,025
-285,803	5,845	0,150	0,080
-284,789	140,774	0,041	0,040
-283,774	-200,000	-0,036	0,214
-282,759	-28,416	0,053	0,022
-281,745	17,251	-0,136	-0,078
-280,730	-162,082	-0,114	0,004
-279,716	-200,000	-0,030	-0,104
-278,701	-183,043	-0,071	-0,001
-277,686	-200,000	-0,041	0,139
-276,672	-38,064	-0,130	0,050
-275,657	-200,000	-0,012	-0,071
-274,643	-200,000	0,005	-0,080
-273,628	427,421	-0,052	-0,082
-272,613	131,493	-0,046	-0,043
-271,599	-200,000	-0,026	0,169
-270,584	87,181	-0,028	0,022
-269,570	-200,000	0,004	0,062
-268,555	-170,704	0,151	-0,004
-267,540	-71,778	-0,116	-0,031
-266,526	800,000	-0,020	0,049
-265,511	-200,000	-0,087	0,297
-264,497	800,000	0,045	0,118
-263,482	800,000	0,025	0,079
-262,467	-151,798	-0,079	-0,004
-261,453	-200,000	-0,002	-0,062
-260,438	800,000	0,061	-0,122
-259,424	-200,000	-0,006	0,067
-258,409	800,000	-0,049	0,119
-257,395	-200,000	-0,007	-0,028
-256,380	-184,807	0,113	0,001
-255,365	193,013	0,160	0,175
-254,351	-200,000	-0,032	-0,139
-253,336	-18,489	0,084	-0,038
-252,322	800,000	0,024	-0,048
-251,307	800,000	-0,006	0,013
-250,292	-61,732	-0,121	-0,036
-249,278	-200,000	-0,009	-0,063
-248,263	800,000	-0,004	0,012
-247,249	3,290	-0,049	0,026
-246,234	389,297	-0,025	0,037
-245,219	-9,623	-0,107	-0,051
-244,205	12,327	-0,096	0,053
-243,190	415,435	0,088	0,136
-242,176	-7,707	0,047	0,023
-241,161	216,414	-0,089	0,102
-240,146	66,504	0,057	0,042
-239,132	75,838	-0,036	-0,027
-238,117	-60,786	-0,107	-0,032
-237,103	800,000	0,023	-0,064
-236,088	-200,000	0,000	-0,074
-235,073	800,000	-0,046	0,117
-234,059	-34,427	0,057	0,022
-233,044	515,788	0,035	-0,059
-232,030	-200,000	-0,024	0,083
-231,015	-144,160	0,070	0,005
-230,000	-73,582	-0,122	-0,032
-228,986	-200,000	0,020	-0,071
-227,971	-157,157	0,149	-0,006
-226,957	7,320	0,126	0,068
-225,942	-65,357	0,023	0,007
-224,927	304,908	0,065	0,088
-223,913	-109,593	-0,086	0,013
-222,898	3,167	-0,006	-0,003
-221,884	-56,698	-0,092	-0,029
-220,869	800,000	0,075	-0,156
-219,855	589,514	0,062	0,110
-218,840	-75,978	0,080	-0,020
-217,825	59,095	-0,046	-0,033
-216,811	-200,000	-0,022	-0,116
-215,796	-200,000	-0,021	-0,108
-214,782	800,000	0,049	0,120
-213,767	-200,000	0,009	0,065
-212,752	-100,755	-0,021	0,004
-211,738	-200,000	0,049	-0,164
-210,723	-200,000	0,027	0,089
-209,709	-126,419	-0,126	-0,013
-208,694	-104,181	0,083	0,014
-207,679	-46,072	-0,149	0,053
-206,665	-200,000	0,004	-0,037
-205,650	-179,123	0,105	-0,002
-204,636	-124,667	-0,085	-0,009
-203,621	82,247	0,143	0,112
-202,606	-44,177	0,083	0,030
-201,592	280,730	0,127	-0,164
-200,577	-57,974	-0,099	-0,031
-199,563	-26,734	-0,153	-0,064
-198,548	93,624	0,175	0,143
-197,533	-200,000	-0,017	0,126
-196,519	73,215	0,076	0,058
-195,504	-69,317	-0,065	0,018
-194,490	83,585	-0,157	-0,123
-193,475	206,752	-0,124	-0,139
-192,460	695,953	0,020	-0,039
-191,446	-13,239	0,252	0,118
-190,431	346,454	-0,050	0,071
-189,417	242,154	-0,066	-0,080
-188,402	74,201	-0,100	0,075
-187,387	382,341	-0,069	0,102
-186,373	-122,235	0,073	-0,008
-185,358	800,000	0,029	-0,077
-184,344	190,015	0,066	-0,072
-183,329	671,635	-0,024	-0,045
-182,315	368,054	0,062	0,091
-181,300	-50,622	0,145	0,049
-180,285	129,220	-0,011	-0,010
-179,271	-91,470	-0,088	0,018
-178,256	-200,000	0,001	0,038
-177,242	-1,829	0,084	0,042
-176,227	46,544	0,033	0,022
-175,212	125,034	0,043	-0,039
-174,198	-200,000	-0,007	0,112
-173,183	58,270	-0,067	-0,047
-172,169	-200,000	-0,012	-0,086
-171,154	-200,000	-0,008	-0,030
-170,139	800,000	-0,011	0,022
-169,125	-97,145	-0,032	-0,006
-168,110	-200,000	0,002	-0,103
-167,096	511,964	-0,046	-0,077
-166,081	-24,652	-0,087	-0,037
-165,066	-200,000	0,016	-0,061
-164,052	-200,000	-0,009	-0,090
-163,037	-200,000	-0,016	0,117
-162,023	-160,154	0,047	-0,002
-161,008	55,222	0,067	-0,047
-159,993	-119,356	0,169	0,021
-158,979	-14,510	-0,047	-0,022
-157,964	134,435	-0,036	-0,034
-156,950	-143,668	-0,096	0,006
-155,935	61,689	-0,092	0,066
-154,920	199,029	0,068	0,075
-153,906	-93,660	0,045	-0,009
-152,891	76,920	-0,132	0,101
-151,877	347,514	0,017	-0,024
-150,862	207,905	-0,063	-0,071
-149,847	454,529	-0,098	-0,156
-148,833	-200,000	0,018	-0,170
-147,818	156,180	0,121	0,121
-146,804	-17,204	-0,107	-0,048
-145,789	291,136	-0,065	-0,085
-144,775	1,543	-0,048	-0,025
-143,760	130,801	-0,097	-0,089
-142,745	800,000	-0,056	0,121
-141,731	-200,000	-0,010	0,043
-140,716	332,401	-0,051	0,071
-139,702	-200,000	0,034	0,120
-138,687	-174,619	0,080	0,002
-137,672	493,652	0,014	0,022
-136,658	3,720	-0,075	0,039
-135,643	151,861	-0,029	-0,028
-134,629	539,530	0,092	-0,158
-133,614	800,000	0,028	0,058
-132,599	-200,000	0,005	-0,030
-131,585	-200,000	-0,014	0,123
-130,570	437,488	0,036	-0,056
-129,556	685,631	-0,088	-0,166
-128,541	-200,000	-0,021	-0,226
-127,526	293,055	0,062	0,081
-126,512	-137,639	-0,041	-0,003
-125,497	-200,000	-0,022	0,075
-124,483	800,000	-0,036	0,104
-123,468	-58,545	-0,078	-0,024
-122,453	-200,000	-0,014	-0,166
-121,439	230,282	0,051	0,060
-120,424	800,000	0,044	0,105
-119,410	380,064	0,115	0,170
