DTS Sentinel unit serial number:	SN410029Multiplexer serial number:	ORYXHardware model number:	OX2-SRSoftware version number:	ORYX F/W v4,00 Oryx Data Collector v3.7.2.0data status	okinstallation	B6 Nyhavnadifferential loss correction	single-endedforward channel	channel 2reverse channel	N/Adate	2023/12/10time	14:25:08forward acquisition time	300,00reverse acquisition time	0,00gamma	499,1914k internal	0,3122k external	0,3122temperature offset calibration	1,0000default loss term (dB/km)	0,3820temperature slope calibration	1,0000multiplexer offset coefficient	1,0000multiplexer slope coefficient	1,0000fibre end	0,00T internal ref (°C)	22,62T ext. ref 1 (°C)	6,11T ext. ref 2 (°C)	6,12length (m)	temperature (°C)	Stokes	anti-Stokes-744,400	-200,000	-0,023	-0,197
-743,385	-42,198	-0,329	0,125
-742,371	-162,509	0,096	-0,003
-741,356	797,791	-0,055	0,115
-740,342	15,227	0,064	0,037
-739,327	135,326	-0,103	0,100
-738,312	-37,578	-0,071	-0,028
-737,298	-133,786	-0,364	0,033
-736,283	145,385	-0,063	0,063
-735,269	-11,412	-0,154	0,075
-734,254	-72,787	-0,077	-0,021
-733,239	-134,177	-0,366	-0,033
-732,225	-119,512	0,227	-0,029
-731,210	800,000	-0,065	0,162
-730,196	778,953	-0,015	0,030
-729,181	-46,612	0,067	-0,024
-728,167	-200,000	0,008	0,085
-727,152	-200,000	-0,007	-0,074
-726,137	387,306	-0,049	-0,076
-725,123	36,848	-0,078	-0,051
-724,108	800,000	-0,025	-0,081
-723,094	5,173	-0,092	0,051
-722,079	40,305	-0,077	0,052
-721,064	64,065	-0,022	-0,016
-720,050	775,853	-0,038	0,078
-719,035	-200,000	0,016	0,080
-718,021	36,682	-0,158	0,103
-717,006	-145,544	-0,192	0,013
-715,991	351,454	0,045	-0,067
-714,977	3,690	-0,009	-0,005
-713,962	20,951	-0,031	-0,019
-712,948	-69,553	0,108	0,031
-711,933	167,883	0,017	0,018
-710,918	-44,400	0,033	0,012
-709,904	-86,276	-0,075	0,017
-708,889	551,246	-0,082	-0,147
-707,875	15,005	-0,057	-0,033
-706,860	59,624	-0,062	-0,046
-705,845	-200,000	0,026	-0,100
-704,831	69,429	0,118	0,090
-703,816	799,381	0,026	0,053
-702,802	99,098	-0,072	0,062
-701,787	85,205	0,030	0,024
-700,772	-28,042	-0,109	-0,047
-699,758	-124,585	-0,143	-0,016
-698,743	-200,000	0,013	0,088
-697,729	58,899	-0,084	-0,061
-696,714	11,902	0,024	-0,014
-695,699	-200,000	-0,005	-0,057
-694,685	541,958	0,068	0,121
-693,670	-200,000	0,014	-0,101
-692,656	800,000	-0,042	-0,126
-691,641	538,762	0,061	0,109
-690,627	391,440	-0,039	0,060
-689,612	58,870	0,063	-0,046
-688,597	-43,175	-0,120	0,045
-687,583	481,777	-0,059	-0,100
-686,568	800,000	-0,044	-0,142
-685,554	57,265	-0,029	-0,021
-684,539	-121,821	-0,099	0,012
-683,524	-200,000	0,022	0,159
-682,510	-200,000	-0,004	0,095
-681,495	290,021	-0,035	-0,047
-680,481	25,050	0,037	0,023
-679,466	-103,719	0,046	0,008
-678,451	-47,823	-0,184	0,066
-677,437	-13,028	0,119	-0,058
-676,422	200,792	0,077	-0,088
-675,408	137,378	-0,024	0,023
-674,393	-151,883	-0,120	-0,006
-673,378	800,000	-0,073	-0,197
-672,364	705,285	-0,047	-0,094
-671,349	-137,611	-0,086	-0,007
-670,335	-26,757	-0,135	-0,058
-669,320	-1,106	0,081	-0,042
-668,305	69,402	0,041	-0,031
-667,291	-55,912	0,102	-0,033
-666,276	800,000	-0,051	0,119
-665,262	-200,000	0,003	-0,020
-664,247	-134,033	0,067	0,006
-663,232	232,068	0,042	0,052
-662,218	800,000	-0,007	0,015
-661,203	50,905	-0,127	0,090
-660,189	0,380	-0,104	-0,055
-659,174	-166,319	0,046	-0,001
-658,159	187,462	-0,051	-0,056
-657,145	-69,380	-0,140	-0,040
-656,130	-200,000	-0,017	-0,086
-655,116	678,203	-0,053	0,102
-654,101	92,237	-0,033	0,028
-653,086	-114,911	0,087	-0,012
-652,072	327,179	-0,023	0,034
-651,057	-200,000	-0,005	-0,019
-650,043	40,133	-0,029	-0,019
-649,028	102,325	-0,084	0,073
-648,014	800,000	-0,045	0,131
-646,999	-75,167	0,022	0,006
-645,984	-146,752	0,028	-0,002
-644,970	-5,419	0,078	-0,040
-643,955	769,506	-0,026	0,053
-642,941	51,611	-0,068	-0,048
-641,926	38,544	0,051	0,034
-640,911	85,225	0,068	-0,056
-639,897	56,389	-0,074	-0,054
-638,882	284,348	-0,021	-0,029
-637,868	-200,000	0,017	0,100
-636,853	275,416	-0,029	0,039
-635,838	354,750	0,019	-0,028
-634,824	-17,110	-0,043	0,020
-633,809	-5,002	0,103	-0,053
-632,795	55,912	0,100	-0,072
-631,780	-70,461	0,063	0,018
-630,765	-200,000	0,019	-0,068
-629,751	-200,000	0,042	-0,193
-628,736	-67,967	-0,149	-0,043
-627,722	298,954	-0,045	-0,061
-626,707	-200,000	0,007	-0,128
-625,692	-97,383	-0,094	0,018
-624,678	791,949	0,047	0,097
-623,663	610,375	0,046	-0,086
-622,649	129,901	-0,053	0,051
-621,634	800,000	-0,060	-0,140
-620,619	-200,000	0,011	-0,085
-619,605	-200,000	-0,019	-0,078
-618,590	-200,000	0,002	0,090
-617,576	151,197	0,064	0,065
-616,561	-74,129	-0,106	0,028
-615,546	-44,018	-0,017	0,006
-614,532	-91,279	0,099	0,021
-613,517	800,000	-0,028	0,058
-612,503	295,602	-0,004	0,005
-611,488	296,193	-0,089	0,121
-610,474	-200,000	0,018	-0,102
-609,459	25,069	-0,069	0,042
-608,444	518,541	-0,042	-0,074
-607,430	223,301	-0,039	-0,046
-606,415	-54,174	-0,083	0,028
-605,401	110,591	0,061	0,054
-604,386	-200,000	0,011	0,069
-603,371	-51,365	-0,083	0,029
-602,357	81,356	0,057	0,045
-601,342	63,435	-0,096	0,071
-600,328	-154,858	0,056	0,003
-599,313	-64,478	-0,081	-0,024
-598,298	60,850	0,101	-0,074
-597,284	-161,704	-0,152	-0,006
-596,269	105,537	-0,053	-0,046
-595,255	56,793	-0,070	0,050
-594,240	-74,399	0,110	0,029
-593,225	-127,015	-0,098	0,011
-592,211	667,512	0,057	0,110
-591,196	-58,207	-0,105	0,034
-590,182	-140,857	0,042	0,003
-589,167	-33,686	-0,023	0,009
-588,152	114,845	-0,058	-0,052
-587,138	-200,000	0,006	-0,058
-586,123	210,554	-0,090	-0,105
-585,109	-200,000	-0,013	-0,160
-584,094	-200,000	0,002	-0,123
-583,079	-200,000	0,004	0,021
-582,065	-73,616	-0,122	-0,033
-581,050	265,274	-0,057	0,073
-580,036	11,860	-0,063	0,036
-579,021	218,246	0,066	0,078
-578,006	-200,000	0,030	0,103
-576,992	-200,000	0,004	-0,016
-575,977	-200,000	-0,019	-0,140
-574,963	-177,790	0,041	0,001
-573,948	422,591	-0,027	-0,043
-572,934	14,021	-0,046	0,026
-571,919	-125,268	-0,087	-0,010
-570,904	800,000	-0,037	-0,077
-569,890	199,506	-0,037	0,042
-568,875	-188,966	0,004	0,000
-567,861	-200,000	0,022	0,121
-566,846	-113,710	0,052	-0,007
-565,831	27,374	0,079	0,049
-564,817	75,093	0,060	-0,047
-563,802	590,675	-0,030	0,054
-562,788	-200,000	-0,001	0,015
-561,773	-171,637	0,050	-0,001
-560,758	600,943	-0,028	0,051
-559,744	150,290	0,074	-0,075
-558,729	43,311	-0,125	-0,085
-557,715	-82,557	-0,144	-0,034
-556,700	800,000	0,041	-0,106
-555,685	28,975	0,051	0,032
-554,671	-18,497	-0,090	0,041
-553,656	800,000	-0,007	0,016
-552,642	-68,765	-0,121	0,034
-551,627	142,295	0,003	0,002
-550,612	-98,332	-0,144	0,027
-549,598	-27,707	-0,062	-0,027
-548,583	-200,000	0,006	0,040
-547,569	326,004	-0,025	0,036
-546,554	458,243	0,033	0,055
-545,539	285,431	0,023	-0,031
-544,525	-3,554	0,037	0,019
-543,510	201,526	-0,051	0,059
-542,496	320,100	-0,063	0,089
-541,481	248,859	-0,096	-0,120
-540,466	-78,239	0,100	0,025
-539,452	395,486	0,044	0,068
-538,437	-111,649	-0,088	-0,013
-537,423	457,763	0,076	0,125
-536,408	800,000	-0,002	-0,005
-535,393	800,000	-0,033	0,095
-534,379	333,686	-0,061	-0,087
-533,364	-200,000	-0,009	-0,046
-532,350	-200,000	-0,041	0,150
-531,335	395,200	0,030	-0,047
-530,321	-25,046	0,087	0,038
-529,306	-200,000	-0,011	-0,092
-528,291	-200,000	0,011	-0,048
-527,277	-57,995	0,052	-0,017
-526,262	-200,000	-0,026	-0,102
-525,248	39,353	0,063	-0,041
-524,233	48,866	-0,018	-0,012
-523,218	314,469	-0,161	0,225
-522,204	-66,621	0,051	0,015
-521,189	171,356	0,096	-0,102
-520,175	6,955	0,052	-0,028
-519,160	414,020	0,065	0,102
-518,145	-200,000	-0,008	0,068
-517,131	40,500	0,144	0,095
-516,116	800,000	-0,061	0,154
-515,102	-10,167	0,090	0,044
-514,087	-200,000	-0,010	-0,122
-513,072	-200,000	0,012	-0,050
-512,058	-200,000	-0,031	0,190
-511,043	-200,000	0,019	0,148
-510,029	-200,000	0,001	0,059
-509,014	-200,000	0,005	0,073
-507,999	-200,000	0,020	0,109
-506,985	718,152	0,025	-0,048
-505,970	-142,022	-0,187	-0,014
-504,956	182,135	-0,042	0,046
-503,941	146,202	0,015	-0,015
-502,926	243,925	0,024	-0,030
-501,912	-115,963	0,025	0,003
-500,897	-200,000	0,007	0,117
-499,883	627,235	-0,032	0,060
-498,868	-200,000	0,009	0,034
-497,853	-112,233	-0,074	-0,011
-496,839	-200,000	0,027	-0,092
-495,824	690,530	0,078	-0,152
-494,810	-200,000	-0,010	-0,109
-493,795	-44,772	0,077	-0,028
-492,781	800,000	-0,015	0,035
-491,766	-200,000	-0,007	0,028
-490,751	-136,760	0,032	-0,003
-489,737	800,000	-0,069	-0,172
-488,722	-167,672	0,150	0,004
-487,708	-159,315	-0,083	-0,003
-486,693	-93,233	0,112	0,023
-485,678	-138,468	0,114	0,009
-484,664	-1,985	-0,092	0,047
-483,649	-200,000	-0,022	0,121
-482,635	-27,996	0,025	-0,010
-481,620	36,322	-0,163	-0,106
-480,605	-153,274	0,047	0,002
-479,591	114,142	-0,057	0,051
-478,576	-200,000	-0,040	0,162
-477,562	281,683	-0,026	0,035
-476,547	89,463	-0,046	-0,038
-475,532	390,733	0,056	-0,086
-474,518	-78,210	0,151	0,038
-473,503	-200,000	0,019	0,095
-472,489	300,178	-0,015	0,021
-471,474	-200,000	-0,004	-0,032
-470,459	558,913	-0,026	-0,047
-469,445	-57,592	0,062	0,020
-468,430	358,140	-0,014	-0,021
-467,416	22,609	0,087	-0,053
-466,401	800,000	-0,041	0,090
-465,386	800,000	0,037	0,087
-464,372	-200,000	0,020	0,078
-463,357	-200,000	-0,002	-0,013
-462,343	645,957	-0,056	0,107
-461,328	800,000	-0,053	0,115
-460,313	-200,000	0,009	-0,043
-459,299	4,393	0,118	-0,064
-458,284	1,875	-0,070	0,037
-457,270	526,033	0,023	0,041
-456,255	785,463	-0,020	-0,040
-455,241	-200,000	0,011	-0,051
-454,226	-200,000	-0,010	-0,034
-453,211	-46,714	-0,086	-0,031
-452,197	327,895	-0,025	-0,036
-451,182	101,696	-0,044	-0,038
-450,168	114,252	-0,032	-0,029
-449,153	124,347	-0,070	-0,065
-448,138	357,902	0,059	-0,087
-447,124	197,768	-0,056	-0,063
-446,109	-200,000	0,005	0,070
-445,095	153,783	-0,059	-0,059
-444,080	-200,000	-0,004	0,072
-443,065	497,449	0,073	0,124
-442,051	662,251	0,084	-0,160
-441,036	-200,000	0,002	-0,024
-440,022	800,000	0,068	-0,148
-439,007	-200,000	-0,016	-0,069
-437,992	1,806	-0,061	-0,033
-436,978	72,771	0,054	-0,042
-435,963	23,620	0,119	0,072
-434,949	15,140	-0,066	0,038
-433,934	-44,361	-0,056	0,020
-432,919	41,817	0,088	0,059
-431,905	-200,000	-0,003	-0,034
-430,890	-88,545	0,169	-0,037
-429,876	-39,958	0,148	-0,057
-428,861	121,645	0,056	-0,051
-427,846	31,523	-0,043	0,027
-426,832	800,000	0,037	-0,112
-425,817	800,000	0,004	0,009
-424,803	-200,000	0,014	0,089
-423,788	134,988	0,066	-0,063
-422,773	79,779	0,095	0,075
-421,759	800,000	0,079	0,223
-420,744	-200,000	0,008	-0,027
-419,730	-200,000	-0,019	0,084
-418,715	-200,000	0,039	-0,162
-417,701	23,628	-0,086	0,052
-416,686	800,000	-0,016	-0,034
-415,671	-200,000	0,015	-0,062
-414,657	221,207	0,102	-0,121
-413,642	700,530	-0,091	-0,178
-412,628	-45,831	-0,044	-0,016
-411,613	-77,032	-0,103	0,026
-410,598	316,051	-0,042	-0,058
-409,584	-200,000	0,004	-0,013
-408,569	-97,287	0,074	-0,014
-407,555	-200,000	-0,012	0,126
-406,540	20,269	-0,091	0,054
-405,525	420,208	-0,043	0,069
-404,511	24,876	-0,081	-0,049
-403,496	-200,000	0,015	-0,076
-402,482	-83,270	0,012	0,003
-401,467	-29,365	0,062	0,026
-400,452	-84,181	0,065	0,015
-399,438	375,048	0,089	-0,134
-398,423	-200,000	0,001	0,007
-397,409	-200,000	0,037	-0,169
-396,394	-200,000	-0,035	-0,171
-395,379	13,913	0,048	-0,027
-394,365	-200,000	-0,007	0,087
-393,350	47,204	0,047	0,032
-392,336	800,000	0,013	0,038
-391,321	-106,568	-0,101	-0,016
-390,306	412,259	-0,087	-0,136
-389,292	-33,281	0,020	0,008
-388,277	39,315	-0,102	-0,067
-387,263	800,000	0,101	-0,237
-386,248	-200,000	0,001	-0,057
-385,233	-82,648	-0,191	-0,045
-384,219	800,000	0,002	0,005
-383,204	366,450	0,035	0,052
-382,190	-146,855	0,134	-0,008
-381,175	800,000	0,016	-0,038
-380,160	-93,878	0,087	0,017
-379,146	-200,000	0,020	0,114
-378,131	-173,466	0,126	-0,003
-377,117	-80,390	-0,113	0,028
-376,102	159,363	0,106	-0,108
-375,088	-200,000	-0,006	0,029
-374,073	-200,000	-0,022	-0,092
-373,058	-97,822	-0,061	-0,011
-372,044	-85,044	0,088	-0,020
-371,029	66,767	-0,183	-0,137
-370,015	800,000	0,012	0,026
-369,000	-50,090	-0,113	0,039
-367,985	465,550	-0,037	-0,061
-366,971	-20,721	-0,100	-0,045
-365,956	-200,000	-0,016	0,089
-364,942	-123,999	0,038	-0,004
-363,927	800,000	-0,006	0,019
-362,912	800,000	-0,072	0,147
-361,898	5,774	0,084	-0,046
-360,883	-200,000	0,040	-0,259
-359,869	-51,570	-0,041	-0,014
-358,854	471,624	-0,049	-0,081
-357,839	1,203	0,042	-0,022
-356,825	112,081	0,071	0,063
-355,810	-65,135	-0,198	0,058
-354,796	-52,114	-0,088	-0,030
-353,781	-46,477	0,065	-0,023
-352,766	-18,944	-0,174	0,079
-351,752	800,000	-0,036	-0,098
-350,737	-200,000	0,010	0,059
-349,723	63,106	0,168	0,124
-348,708	-200,000	0,002	0,064
-347,693	181,077	-0,078	0,085
-346,679	-18,875	-0,054	0,025
-345,664	-52,259	-0,069	-0,023
-344,650	650,713	-0,017	0,032
-343,635	-14,018	0,100	-0,047
-342,620	93,547	0,048	-0,040
-341,606	-136,930	-0,071	-0,006
-340,591	-47,932	0,077	0,027
-339,577	598,600	0,071	-0,129
-338,562	800,000	-0,036	-0,093
-337,548	368,924	0,084	-0,125
-336,533	628,170	0,059	-0,110
-335,518	149,950	0,073	0,072
-334,504	800,000	-0,073	0,170
-333,489	-96,031	-0,019	-0,004
-332,475	-109,526	-0,168	-0,026
-331,460	23,620	0,058	0,035
-330,445	55,574	0,095	0,067
-329,431	-131,153	-0,129	0,012
-328,416	128,027	0,070	0,066
-327,402	143,672	-0,040	-0,039
-326,387	767,428	-0,061	-0,122
-325,372	-171,206	-0,181	0,004
-324,358	-200,000	-0,011	-0,054
-323,343	-28,251	0,118	0,050
-322,329	200,109	-0,045	-0,051
-321,314	26,084	0,093	0,057
-320,299	-200,000	0,007	0,035
-319,285	-91,584	0,130	0,027
-318,270	230,707	0,035	0,042
-317,256	800,000	0,049	-0,107
-316,241	-200,000	0,000	-0,017
-315,226	-127,644	0,134	0,014
-314,212	-12,621	0,053	-0,025
-313,197	-200,000	0,002	0,106
-312,183	-200,000	-0,006	0,093
-311,168	479,257	-0,026	0,043
-310,153	-200,000	-0,042	-0,158
-309,139	-200,000	-0,002	-0,120
-308,124	-11,283	-0,020	0,009
-307,110	17,177	0,124	-0,072
-306,095	-35,493	0,113	0,045
-305,080	156,685	0,073	-0,073
-304,066	17,906	-0,056	0,032
-303,051	800,000	0,061	0,154
-302,037	3,126	0,144	0,077
-301,022	332,364	-0,034	0,048
-300,008	525,073	0,089	0,154
-298,993	92,968	-0,067	-0,056
-297,978	311,681	0,068	0,094
-296,964	503,538	0,098	-0,167
-295,949	149,662	0,106	0,105
-294,935	-116,289	-0,041	0,005
-293,920	-200,000	-0,014	-0,135
-292,905	0,621	0,026	0,014
-291,891	472,407	-0,060	0,099
-290,876	415,512	0,069	0,108
-289,862	-200,000	0,015	-0,095
-288,847	-68,848	-0,141	-0,040
-287,832	-126,006	0,123	-0,013
-286,818	800,000	0,053	-0,154
-285,803	-4,090	0,065	-0,033
-284,789	138,455	0,082	-0,079
-283,774	-15,746	-0,010	-0,005
-282,759	588,122	-0,072	-0,130
-281,745	79,319	-0,045	-0,035
-280,730	509,784	0,034	-0,057
-279,716	-40,480	0,087	0,033
-278,701	34,824	-0,021	-0,013
-277,686	310,932	0,073	0,101
-276,672	-50,400	-0,091	-0,031
-275,657	-96,020	-0,010	0,002
-274,643	161,952	-0,046	0,047
-273,628	-53,559	0,046	0,015
-272,613	42,744	0,066	-0,044
-271,599	47,164	-0,032	-0,022
-270,584	-43,113	-0,021	0,008
-269,570	84,084	-0,121	0,097
-268,555	800,000	-0,017	-0,049
-267,540	800,000	0,056	-0,116
-266,526	37,452	-0,074	-0,048
-265,511	125,282	-0,045	0,041
-264,497	84,687	0,075	-0,060
-263,482	20,734	-0,125	0,074
-262,467	315,912	0,084	0,116
-261,453	-157,832	-0,218	0,009
-260,438	-200,000	-0,014	0,078
-259,424	-200,000	0,010	-0,172
-258,409	800,000	0,031	-0,069
-257,395	-171,831	0,051	-0,001
-256,380	80,391	-0,033	0,026
-255,365	-200,000	-0,000	-0,011
-254,351	-200,000	-0,001	-0,007
-253,336	-25,197	0,094	-0,040
-252,322	144,475	0,052	0,050
-251,307	-50,799	0,170	0,058
-250,292	-200,000	-0,003	0,123
-249,278	230,982	-0,046	-0,055
-248,263	325,349	0,054	0,076
-247,249	470,719	0,031	0,051
-246,234	353,469	-0,039	-0,057
-245,219	-200,000	0,008	-0,120
-244,205	-101,428	0,134	0,024
-243,190	160,661	0,069	-0,071
-242,176	-35,484	0,060	-0,024
-241,161	-200,000	-0,001	-0,059
-240,146	800,000	0,077	0,169
-239,132	571,130	-0,016	-0,029
-238,117	-200,000	-0,037	-0,154
-237,103	164,294	-0,081	-0,084
-236,088	800,000	-0,043	-0,104
-235,073	-200,000	-0,013	-0,043
-234,059	800,000	0,028	-0,063
-233,044	527,224	-0,036	-0,063
-232,030	-63,976	0,046	0,014
-231,015	118,857	-0,051	-0,046
-230,000	-200,000	-0,001	-0,034
-228,986	800,000	0,028	-0,083
-227,971	181,310	0,050	0,054
-226,957	41,099	-0,045	0,030
-225,942	-55,150	0,036	0,012
-224,927	-21,815	-0,082	-0,036
-223,913	-200,000	-0,014	0,232
-222,898	622,708	0,022	0,042
-221,884	-83,370	0,029	-0,007
-220,869	-200,000	0,005	-0,061
-219,855	800,000	-0,036	-0,082
-218,840	278,397	0,110	0,144
-217,825	174,908	-0,157	0,166
-216,811	98,349	-0,101	0,085
-215,796	521,617	0,065	0,111
-214,782	136,286	0,037	-0,035
-213,767	-200,000	-0,019	0,097
-212,752	-101,018	0,095	0,017
-211,738	402,639	-0,030	-0,046
-210,723	23,738	0,132	0,079
-209,709	-93,886	-0,187	-0,037
-208,694	193,500	-0,081	-0,089
-207,679	-132,590	0,093	0,009
-206,665	-46,848	0,084	-0,030
-205,650	-132,044	0,172	0,016
-204,636	288,083	0,020	-0,026
-203,621	316,114	-0,016	0,022
-202,606	-32,606	-0,076	-0,031
-201,592	76,943	-0,087	0,067
-200,577	-123,558	-0,085	0,010
-199,563	197,363	-0,048	-0,054
-198,548	-65,591	0,126	-0,037
-197,533	800,000	0,007	0,021
-196,519	343,556	0,052	-0,075
-195,504	-142,473	0,118	-0,008
-194,490	-122,842	-0,147	-0,017
-193,475	-58,745	-0,096	0,030
-192,460	59,018	0,087	0,062
-191,446	82,401	0,079	0,063
-190,431	-19,910	0,077	0,035
-189,417	-41,788	0,132	0,049
-188,402	272,768	0,080	0,103
-187,387	-57,549	-0,037	0,012
-186,373	-200,000	-0,017	-0,095
-185,358	319,017	-0,091	-0,126
-184,344	62,827	-0,020	-0,015
-183,329	-99,931	-0,097	-0,018
-182,315	111,606	0,097	0,085
-181,300	-135,879	-0,050	0,004
-180,285	800,000	-0,047	-0,145
-179,271	67,874	0,103	0,077
-178,256	-167,337	-0,075	-0,002
-177,242	84,984	-0,119	0,095
-176,227	354,081	-0,031	0,045
-175,212	132,123	-0,060	0,057
-174,198	800,000	0,017	-0,040
-173,183	-200,000	-0,013	-0,115
-172,169	-105,157	-0,042	-0,007
-171,154	175,386	-0,076	-0,081
-170,139	96,862	-0,063	0,052
-169,125	264,825	0,070	0,089
-168,110	201,576	0,075	0,084
-167,096	39,700	0,070	-0,046
-166,081	93,184	-0,054	0,044
-165,066	-200,000	0,006	0,104
-164,052	-200,000	0,010	-0,041
-163,037	267,843	0,076	0,098
-162,023	-200,000	-0,044	0,165
-161,008	-200,000	-0,019	0,147
-159,993	-155,628	-0,150	0,007
-158,979	295,955	0,063	0,084
-157,964	204,497	0,046	-0,052
-156,950	35,686	-0,162	0,103
-155,935	280,795	-0,080	0,104
-154,920	-93,595	0,109	0,022
-153,906	-200,000	0,016	0,116
-152,891	-200,000	0,017	0,066
-151,877	180,666	0,053	0,056
-150,862	-144,790	-0,091	-0,006
-149,847	800,000	-0,044	-0,124
-148,833	94,454	-0,111	0,092
-147,818	-200,000	-0,007	0,115
-146,804	800,000	-0,030	0,097
-145,789	800,000	-0,059	0,185
-144,775	-200,000	0,022	-0,140
-143,760	-64,500	-0,100	-0,029
-142,745	800,000	-0,058	-0,121
-141,731	180,347	0,046	-0,049
-140,716	549,344	-0,040	-0,070
-139,702	-96,909	-0,091	0,017
-138,687	-8,693	0,096	0,047
-137,672	242,281	-0,044	-0,054
-136,658	124,556	-0,078	-0,071
-135,643	138,550	0,060	-0,057
-134,629	39,679	-0,073	0,047
-133,614	610,759	-0,101	0,184
-132,599	72,414	0,183	0,139
-131,585	72,197	0,086	-0,065
-130,570	-200,000	-0,016	-0,065
-129,556	124,044	-0,037	-0,034
-128,541	800,000	0,038	-0,099
-127,526	-200,000	0,004	-0,037
-126,512	545,122	-0,027	0,047
-125,497	-200,000	0,018	-0,141
-124,483	800,000	0,027	0,087
-123,468	86,417	-0,083	0,067
-122,453	800,000	0,058	0,124
-121,439	130,913	0,061	-0,057
-120,424	100,282	0,051	-0,043
-119,410	357,680	0,053	0,077
-118,395	-162,227	0,013	-0,000
