DTS Sentinel unit serial number:	SN410029Multiplexer serial number:	ORYXHardware model number:	OX2-SRSoftware version number:	ORYX F/W v4,00 Oryx Data Collector v3.7.2.0data status	okinstallation	B6 Nyhavnadifferential loss correction	single-endedforward channel	channel 2reverse channel	N/Adate	2023/12/08time	07:25:08forward acquisition time	300,00reverse acquisition time	0,00gamma	499,1914k internal	0,3165k external	0,3165temperature offset calibration	1,0000default loss term (dB/km)	0,3820temperature slope calibration	1,0000multiplexer offset coefficient	1,0000multiplexer slope coefficient	1,0000fibre end	0,00T internal ref (°C)	13,17T ext. ref 1 (°C)	-3,30T ext. ref 2 (°C)	-3,29length (m)	temperature (°C)	Stokes	anti-Stokes-744,400	-73,009	0,269	0,072
-743,385	44,620	-0,335	0,226
-742,371	210,008	0,075	0,086
-741,356	-27,154	-0,238	-0,101
-740,342	10,761	0,102	0,057
-739,327	-171,209	-0,382	-0,009
-738,312	-200,000	0,006	-0,068
-737,298	-127,378	-0,319	-0,034
-736,283	-28,126	0,152	-0,064
-735,269	-24,224	-0,294	-0,128
-734,254	-200,000	0,007	0,128
-733,239	4,950	-0,544	-0,294
-732,225	-101,368	0,170	0,030
-731,210	334,079	0,072	0,103
-730,196	-200,000	-0,016	-0,097
-729,181	273,710	-0,052	-0,068
-728,167	-157,336	0,169	-0,007
-727,152	107,584	-0,030	0,026
-726,137	-117,243	-0,049	-0,007
-725,123	-89,867	-0,152	-0,032
-724,108	-200,000	-0,008	0,032
-723,094	239,574	-0,079	0,096
-722,079	116,210	-0,138	-0,125
-721,064	800,000	-0,008	-0,023
-720,050	-6,694	-0,114	-0,057
-719,035	-114,668	-0,038	0,005
-718,021	-51,175	-0,179	-0,061
-717,006	-200,000	-0,008	-0,082
-715,991	-100,270	-0,138	0,025
-714,977	169,923	-0,025	0,027
-713,962	-170,246	0,069	-0,002
-712,948	-200,000	-0,006	0,045
-711,933	195,083	-0,080	-0,089
-710,918	672,151	0,013	0,025
-709,904	-200,000	0,003	0,106
-708,889	-200,000	0,021	-0,114
-707,875	230,611	-0,102	-0,123
-706,860	-104,504	-0,044	-0,007
-705,845	-200,000	0,002	-0,055
-704,831	11,363	0,037	0,021
-703,816	-200,000	-0,017	-0,111
-702,802	-47,634	-0,030	-0,011
-701,787	-200,000	-0,018	-0,137
-700,772	-66,465	0,168	0,049
-699,758	-34,562	0,029	-0,012
-698,743	800,000	-0,037	-0,109
-697,729	273,549	-0,026	0,034
-696,714	548,166	-0,034	-0,060
-695,699	-38,140	-0,043	-0,017
-694,685	-200,000	0,014	0,056
-693,670	-21,288	0,101	-0,045
-692,656	-116,825	0,072	0,010
-691,641	-200,000	-0,004	0,032
-690,627	-23,856	0,191	-0,084
-689,612	35,893	0,096	-0,062
-688,597	-91,067	-0,142	0,030
-687,583	247,101	-0,064	0,080
-686,568	800,000	-0,008	-0,018
-685,554	-200,000	-0,008	-0,034
-684,539	800,000	0,027	0,076
-683,524	800,000	-0,055	0,156
-682,510	109,841	0,065	0,057
-681,495	-92,645	-0,160	0,033
-680,481	-167,924	-0,031	0,001
-679,466	-6,576	-0,041	-0,021
-678,451	45,797	-0,088	-0,059
-677,437	-200,000	0,008	0,032
-676,422	-139,503	0,105	-0,008
-675,408	-22,855	-0,032	0,014
-674,393	18,573	0,097	-0,057
-673,378	-167,537	-0,048	0,001
-672,364	112,017	-0,031	-0,028
-671,349	800,000	-0,036	-0,076
-670,335	-75,570	-0,197	-0,051
-669,320	800,000	0,069	0,164
-668,305	800,000	0,035	-0,076
-667,291	210,456	-0,036	-0,042
-666,276	-200,000	-0,013	-0,219
-665,262	395,072	0,007	-0,011
-664,247	-200,000	-0,006	-0,068
-663,232	800,000	0,059	0,154
-662,218	-100,302	0,043	-0,008
-661,203	377,944	0,007	-0,010
-660,189	-200,000	0,030	-0,109
-659,174	263,530	-0,084	-0,108
-658,159	-200,000	0,008	0,091
-657,145	-200,000	0,002	0,066
-656,130	-152,206	0,134	-0,007
-655,116	-200,000	-0,003	-0,013
-654,101	237,321	-0,032	-0,039
-653,086	-12,348	-0,063	0,030
-652,072	-127,751	-0,056	-0,006
-651,057	-60,611	-0,093	0,029
-650,043	-200,000	0,005	0,053
-649,028	61,412	0,076	0,055
-648,014	-200,000	0,023	-0,093
-646,999	-200,000	-0,032	0,150
-645,984	701,495	0,066	0,128
-644,970	-85,840	-0,120	0,027
-643,955	28,014	-0,111	0,069
-642,941	800,000	-0,013	-0,036
-641,926	-200,000	0,016	-0,064
-640,911	800,000	0,047	0,104
-639,897	-200,000	-0,005	0,174
-638,882	78,105	-0,147	0,115
-637,868	30,016	-0,012	0,008
-636,853	-200,000	-0,010	-0,083
-635,838	-158,286	0,044	0,002
-634,824	270,365	-0,061	-0,079
-633,809	-157,656	0,056	0,002
-632,795	-16,919	0,148	0,068
-631,780	-200,000	0,009	0,111
-630,765	-111,585	0,077	-0,011
-629,751	-105,959	-0,103	0,017
-628,736	-101,747	-0,166	-0,029
-627,722	-121,734	0,126	0,015
-626,707	-144,525	-0,039	-0,003
-625,692	800,000	-0,031	0,075
-624,678	38,878	0,022	0,014
-623,663	-200,000	0,014	-0,103
-622,649	-200,000	0,001	0,029
-621,634	-200,000	-0,002	0,072
-620,619	113,586	-0,045	0,040
-619,605	107,294	0,043	0,037
-618,590	19,355	-0,045	-0,026
-617,576	756,761	0,054	-0,107
-616,561	97,633	-0,064	-0,053
-615,546	-105,010	0,037	-0,006
-614,532	77,833	-0,032	-0,025
-613,517	-6,642	-0,044	0,022
-612,503	-200,000	-0,006	0,059
-611,488	-1,017	0,038	0,020
-610,474	-200,000	-0,015	-0,086
-609,459	-16,392	-0,108	-0,050
-608,444	800,000	-0,048	-0,109
-607,430	-124,916	-0,039	0,004
-606,415	800,000	-0,022	-0,050
-605,401	-200,000	0,016	-0,082
-604,386	86,745	-0,092	0,074
-603,371	546,695	0,016	0,028
-602,357	-200,000	0,010	-0,040
-601,342	161,748	0,061	-0,063
-600,328	327,505	-0,079	0,111
-599,313	39,010	0,037	0,024
-598,298	-87,290	0,130	-0,029
-597,284	28,892	0,055	0,034
-596,269	-200,000	-0,044	-0,206
-595,255	-143,038	0,174	0,012
-594,240	15,687	-0,125	-0,072
-593,225	-134,409	-0,098	-0,009
-592,211	-200,000	0,007	-0,075
-591,196	-88,851	0,213	-0,046
-590,182	-152,509	-0,096	0,005
-589,167	800,000	0,077	-0,163
-588,152	-200,000	0,008	-0,047
-587,138	20,994	-0,047	-0,028
-586,123	800,000	0,035	-0,080
-585,109	175,813	-0,035	0,037
-584,094	-31,441	0,062	-0,025
-583,079	188,719	0,060	-0,066
-582,065	88,232	0,155	0,126
-581,050	-10,699	-0,092	-0,044
-580,036	-46,043	0,159	-0,057
-579,021	-106,402	-0,149	0,024
-578,006	141,080	0,045	-0,043
-576,992	-133,872	0,233	-0,021
-575,977	-141,301	0,140	-0,010
-574,963	-129,456	-0,084	0,008
-573,948	-200,000	0,001	0,011
-572,934	-93,463	-0,105	0,021
-571,919	140,501	-0,015	-0,014
-570,904	8,834	0,058	0,032
-569,890	368,344	-0,016	0,023
-568,875	-200,000	0,021	0,113
-567,861	31,942	0,049	-0,031
-566,846	193,701	-0,020	0,022
-565,831	107,347	-0,155	0,135
-564,817	202,063	-0,086	-0,097
-563,802	-22,920	0,027	-0,012
-562,788	-200,000	0,011	-0,047
-561,773	664,294	0,087	0,165
-560,758	800,000	0,035	0,106
-559,744	-55,598	-0,119	0,039
-558,729	-200,000	-0,001	0,101
-557,715	-200,000	-0,054	-0,191
-556,700	-3,544	-0,060	-0,030
-555,685	-3,842	-0,047	-0,024
-554,671	70,731	-0,024	-0,018
-553,656	-200,000	0,015	0,174
-552,642	124,177	0,090	0,083
-551,627	-200,000	-0,001	0,055
-550,612	329,299	-0,118	-0,167
-549,598	800,000	-0,057	-0,177
-548,583	-27,732	-0,085	0,036
-547,569	-57,998	-0,203	-0,064
-546,554	800,000	-0,026	0,083
-545,539	352,468	0,109	0,158
-544,525	-28,976	-0,074	0,031
-543,510	800,000	-0,039	-0,083
-542,496	-118,202	-0,008	-0,001
-541,481	38,547	-0,139	-0,090
-540,466	-39,507	-0,090	0,034
-539,452	800,000	0,052	0,117
-538,437	55,510	0,054	-0,038
-537,423	-200,000	-0,016	0,127
-536,408	-200,000	-0,042	-0,158
-535,393	-200,000	0,038	-0,126
-534,379	-62,331	-0,080	-0,024
-533,364	312,298	-0,029	-0,039
-532,350	291,030	0,031	0,041
-531,335	-27,872	0,113	0,048
-530,321	-10,558	-0,084	-0,040
-529,306	445,429	0,037	-0,060
-528,291	-200,000	0,010	-0,036
-527,277	-200,000	-0,016	-0,054
-526,262	146,414	-0,038	-0,037
-525,248	199,769	-0,073	0,082
-524,233	336,675	-0,034	0,049
-523,218	-200,000	-0,001	0,058
-522,204	800,000	0,056	0,153
-521,189	136,496	-0,099	0,094
-520,175	-22,997	-0,144	0,063
-519,160	138,717	-0,025	-0,024
-518,145	106,219	0,101	0,087
-517,131	-200,000	-0,019	0,120
-516,116	43,488	0,114	0,076
-515,102	-129,736	0,036	0,004
-514,087	-200,000	0,004	-0,024
-513,072	105,994	0,039	0,033
-512,058	800,000	0,051	-0,126
-511,043	-72,212	0,075	-0,020
-510,029	-200,000	-0,011	0,046
-509,014	529,694	-0,055	-0,095
-507,999	331,603	-0,007	-0,010
-506,985	-29,432	-0,188	-0,078
-505,970	592,138	-0,028	-0,050
-504,956	220,109	-0,048	-0,056
-503,941	800,000	-0,026	-0,074
-502,926	228,594	-0,025	-0,029
-501,912	53,092	0,056	0,039
-500,897	-200,000	0,011	0,038
-499,883	-78,375	-0,084	-0,021
-498,868	260,515	-0,095	-0,120
-497,853	359,749	-0,070	0,103
-496,839	800,000	0,049	0,142
-495,824	132,699	0,077	-0,073
-494,810	150,533	-0,088	0,087
-493,795	-99,164	0,105	-0,019
-492,781	797,421	0,033	-0,066
-491,766	-200,000	-0,009	0,039
-490,751	-154,083	0,020	0,001
-489,737	-143,335	0,089	-0,006
-488,722	-88,727	0,074	0,016
-487,708	182,089	-0,070	0,075
-486,693	-104,539	0,124	0,021
-485,678	284,777	0,040	0,052
-484,664	-50,666	-0,069	-0,024
-483,649	-200,000	-0,010	-0,125
-482,635	391,372	-0,027	-0,042
-481,620	-159,259	0,014	0,001
-480,605	-200,000	-0,007	0,041
-479,591	-66,201	-0,094	-0,027
-478,576	62,104	-0,100	-0,072
-477,562	-56,325	-0,074	-0,024
-476,547	-42,325	0,151	-0,056
-475,532	154,018	-0,184	-0,183
-474,518	22,163	0,068	0,040
-473,503	5,458	0,069	0,037
-472,489	-189,819	0,043	-0,000
-471,474	427,314	0,006	0,010
-470,459	-163,324	0,089	-0,003
-469,445	-200,000	0,004	-0,274
-468,430	43,066	-0,068	0,045
-467,416	535,918	0,037	-0,064
-466,401	245,955	-0,069	-0,084
-465,386	67,790	0,096	0,071
-464,372	-200,000	0,003	0,099
-463,357	447,526	-0,080	-0,129
-462,343	-11,743	-0,046	-0,022
-461,328	-97,206	-0,023	0,004
-460,313	-200,000	0,003	0,090
-459,299	480,415	-0,089	0,148
-458,284	-97,300	0,203	0,038
-457,270	-174,321	-0,095	0,002
-456,255	-200,000	0,006	-0,061
-455,241	144,791	0,054	0,053
-454,226	-178,074	-0,046	-0,001
-453,211	246,888	0,012	-0,014
-452,197	-70,205	-0,104	-0,029
-451,182	95,459	-0,042	0,035
-450,168	-36,551	0,022	0,009
-449,153	324,510	0,020	0,028
-448,138	-107,122	-0,079	-0,013
-447,124	-87,300	-0,125	-0,027
-446,109	92,421	-0,068	0,056
-445,095	-200,000	0,014	0,080
-444,080	710,079	0,073	0,141
-443,065	-176,323	-0,034	-0,001
-442,051	58,516	0,045	-0,032
-441,036	-200,000	-0,007	-0,120
-440,022	258,150	0,073	-0,091
-439,007	800,000	-0,035	0,077
-437,992	95,524	0,168	0,139
-436,978	-116,988	0,008	0,001
-435,963	43,002	0,031	-0,020
-434,949	800,000	0,060	-0,152
-433,934	-22,970	-0,086	0,037
-432,919	-200,000	-0,026	-0,106
-431,905	-200,000	0,019	-0,072
-430,890	25,556	0,053	0,032
-429,876	592,990	-0,041	0,074
-428,861	708,562	0,044	0,084
-427,846	-25,972	-0,061	-0,026
-426,832	-1,208	-0,124	-0,064
-425,817	-38,216	0,139	-0,053
-424,803	-110,432	-0,142	-0,021
-423,788	-81,687	-0,159	0,038
-422,773	-39,438	-0,028	-0,011
-421,759	800,000	0,040	0,100
-420,744	-200,000	0,004	-0,035
-419,730	-200,000	-0,040	-0,201
-418,715	-19,666	-0,083	-0,037
-417,701	31,060	0,042	-0,026
-416,686	15,423	-0,092	0,052
-415,671	-200,000	-0,002	-0,021
-414,657	-200,000	0,013	-0,082
-413,642	-200,000	-0,009	0,044
-412,628	95,887	-0,031	0,026
-411,613	800,000	0,015	0,038
-410,598	-200,000	0,019	0,138
-409,584	37,445	-0,077	0,049
-408,569	-200,000	0,003	0,051
-407,555	-100,503	-0,043	0,008
-406,540	800,000	0,034	0,077
-405,525	-96,333	-0,097	0,018
-404,511	800,000	0,014	0,041
-403,496	-120,478	-0,033	0,004
-402,482	-200,000	0,004	0,028
-401,467	130,922	0,093	0,087
-400,452	-12,991	-0,048	-0,022
-399,438	-200,000	0,010	-0,100
-398,423	61,279	0,074	0,054
-397,409	473,043	-0,042	0,068
-396,394	-13,437	0,032	0,015
-395,379	-58,157	-0,054	0,017
-394,365	-200,000	-0,025	0,103
-393,350	-200,000	0,015	0,084
-392,336	-200,000	-0,006	0,145
-391,321	80,089	0,016	0,012
-390,306	-200,000	-0,009	0,144
-389,292	53,397	-0,075	-0,052
-388,277	-77,387	-0,140	0,035
-387,263	49,760	0,150	-0,102
-386,248	-200,000	-0,001	-0,065
-385,233	-200,000	0,008	-0,050
-384,219	-142,269	0,015	0,001
-383,204	-121,883	-0,094	-0,011
-382,190	24,146	-0,123	-0,074
-381,175	-50,365	0,053	-0,018
-380,160	111,706	0,125	0,109
-379,146	-156,489	0,150	0,007
-378,131	-75,526	0,136	0,035
-377,117	-200,000	0,015	0,120
-376,102	-33,845	-0,049	-0,019
-375,088	90,589	-0,091	-0,074
-374,073	-146,253	0,081	-0,005
-373,058	555,518	0,047	-0,082
-372,044	35,119	0,093	0,059
-371,029	155,640	-0,025	0,025
-370,015	59,844	0,104	-0,074
-369,000	75,228	0,030	0,023
-367,985	-56,136	-0,034	0,011
-366,971	-200,000	0,013	0,051
-365,956	248,661	0,048	-0,059
-364,942	800,000	0,053	-0,136
-363,927	208,676	-0,094	0,107
-362,912	-200,000	-0,002	-0,021
-361,898	800,000	0,080	-0,164
-360,883	800,000	-0,039	-0,091
-359,869	-200,000	0,012	-0,062
-358,854	114,695	-0,038	-0,033
-357,839	35,028	-0,023	-0,015
-356,825	-133,042	0,013	0,001
-355,810	-200,000	-0,016	-0,067
-354,796	-130,750	-0,017	0,002
-353,781	-200,000	-0,015	-0,062
-352,766	87,100	-0,015	-0,012
-351,752	107,415	0,033	0,029
-350,737	800,000	0,006	0,014
-349,723	-200,000	-0,013	0,109
-348,708	-200,000	0,005	-0,020
-347,693	-200,000	-0,003	-0,055
-346,679	75,996	0,059	0,045
-345,664	16,992	0,020	0,011
-344,650	-200,000	-0,009	0,067
-343,635	-200,000	0,002	-0,124
-342,620	298,183	-0,098	-0,130
-341,606	-200,000	-0,009	0,224
-340,591	-200,000	-0,114	0,000
-339,577	-200,000	0,031	-0,105
-338,562	-200,000	-0,036	-0,123
-337,548	325,859	0,025	-0,035
-336,533	75,846	0,093	0,071
-335,518	800,000	0,032	-0,074
-334,504	-200,000	0,010	0,118
-333,489	-200,000	0,004	-0,076
-332,475	94,682	0,139	-0,114
-331,460	-200,000	-0,000	-0,077
-330,445	800,000	-0,066	0,137
-329,431	-173,269	-0,111	0,002
-328,416	-200,000	0,015	0,089
-327,402	-89,988	-0,040	0,008
-326,387	-200,000	0,007	-0,026
-325,372	130,077	-0,056	-0,052
-324,358	-200,000	0,003	-0,042
-323,343	380,109	-0,083	0,124
-322,329	800,000	-0,043	-0,123
-321,314	-200,000	0,002	0,077
-320,299	-200,000	0,034	0,137
-319,285	180,895	-0,034	-0,036
-318,270	740,419	-0,055	-0,108
-317,256	40,602	0,096	-0,063
-316,241	-87,890	-0,030	-0,007
-315,226	800,000	-0,013	0,031
-314,212	6,599	0,107	-0,057
-313,197	-50,701	0,075	-0,025
-312,183	68,974	-0,059	-0,044
-311,168	-150,340	-0,044	0,002
-310,153	800,000	-0,041	-0,101
-309,139	216,923	0,021	0,024
-308,124	-66,224	0,023	-0,007
-307,110	800,000	-0,032	-0,092
-306,095	147,266	0,112	0,109
-305,080	-135,642	0,044	0,004
-304,066	-200,000	-0,006	-0,123
-303,051	-31,458	-0,109	-0,044
-302,037	289,994	-0,043	-0,056
-301,022	-23,358	0,117	-0,051
-300,008	-6,647	-0,092	0,045
-298,993	393,453	0,050	0,075
-297,978	-200,000	0,050	0,162
-296,964	800,000	-0,032	-0,099
-295,949	26,781	-0,058	-0,035
-294,935	800,000	0,046	-0,127
-293,920	800,000	0,024	-0,051
-292,905	-200,000	0,012	0,156
-291,891	800,000	0,043	-0,109
-290,876	144,168	0,070	0,067
-289,862	800,000	-0,019	0,057
-288,847	-200,000	-0,001	-0,196
-287,832	-200,000	0,030	-0,127
-286,818	277,980	-0,023	-0,030
-285,803	303,159	-0,091	0,122
-284,789	-200,000	0,001	-0,007
-283,774	2,672	-0,094	0,049
-282,759	-200,000	0,013	-0,048
-281,745	-36,571	-0,094	-0,036
-280,730	98,625	0,093	0,078
-279,716	472,524	0,038	-0,063
-278,701	-200,000	0,006	0,070
-277,686	113,247	0,074	-0,065
-276,672	-200,000	-0,014	0,098
-275,657	9,227	0,035	0,019
-274,643	-104,206	-0,203	-0,034
-273,628	800,000	-0,025	-0,062
-272,613	-77,910	-0,024	-0,006
-271,599	451,302	0,051	0,081
-270,584	-200,000	-0,020	0,079
-269,570	334,408	0,014	0,020
-268,555	-200,000	0,010	-0,043
-267,540	-49,996	-0,096	-0,033
-266,526	-131,519	-0,016	0,002
-265,511	-104,552	-0,085	-0,014
-264,497	-20,582	-0,102	0,045
-263,482	-91,962	0,049	-0,010
-262,467	53,142	0,068	0,047
-261,453	71,231	-0,048	0,036
-260,438	800,000	-0,043	0,112
-259,424	4,602	0,047	0,025
-258,409	-200,000	-0,011	-0,049
-257,395	800,000	-0,008	-0,018
-256,380	-127,626	0,151	0,016
-255,365	-200,000	-0,030	-0,176
-254,351	468,187	0,048	0,078
-253,336	77,136	-0,006	-0,005
-252,322	-25,094	-0,027	-0,012
-251,307	188,769	0,074	-0,080
-250,292	-200,000	0,008	-0,048
-249,278	-29,841	0,069	0,028
-248,263	-44,868	0,143	0,051
-247,249	81,567	0,038	-0,030
-246,234	63,838	-0,074	0,053
-245,219	40,581	-0,057	-0,037
-244,205	-96,029	-0,062	-0,012
-243,190	-152,916	0,043	0,002
-242,176	-34,428	0,148	-0,058
-241,161	-154,441	0,102	0,005
-240,146	800,000	0,003	0,008
-239,132	89,306	0,075	0,060
-238,117	-40,207	-0,053	-0,020
-237,103	-84,099	0,079	-0,018
-236,088	-200,000	-0,003	0,058
-235,073	-200,000	-0,015	0,095
-234,059	44,087	0,213	-0,141
-233,044	349,446	0,109	0,155
-232,030	-189,979	-0,012	0,000
-231,015	-23,059	-0,077	-0,033
-230,000	171,993	-0,046	-0,048
-228,986	-8,215	-0,143	0,069
-227,971	167,178	0,068	0,069
-226,957	733,473	0,013	0,024
-225,942	-15,602	0,007	-0,003
-224,927	-200,000	0,016	-0,058
-223,913	-200,000	0,012	-0,056
-222,898	800,000	0,027	0,081
-221,884	-200,000	-0,007	-0,148
-220,869	-94,220	0,113	-0,022
-219,855	692,264	-0,026	-0,050
-218,840	90,445	0,097	0,078
-217,825	-50,939	0,039	0,013
-216,811	235,600	0,028	-0,034
-215,796	-56,561	0,058	0,018
-214,782	-26,544	-0,032	0,013
-213,767	800,000	0,067	0,178
-212,752	34,797	0,123	0,077
-211,738	-31,788	0,102	0,041
-210,723	800,000	-0,014	0,035
-209,709	-100,255	0,107	-0,019
-208,694	650,619	0,050	-0,093
-207,679	800,000	0,023	0,071
-206,665	-200,000	0,010	0,097
-205,650	123,860	-0,038	0,035
-204,636	121,452	0,040	-0,036
-203,621	237,575	-0,059	-0,070
-202,606	116,473	-0,040	0,035
-201,592	108,029	-0,107	-0,092
-200,577	-140,119	-0,137	0,010
-199,563	-200,000	0,007	-0,112
-198,548	-200,000	0,009	-0,084
-197,533	800,000	0,037	0,081
-196,519	-200,000	-0,006	0,060
-195,504	78,456	-0,038	0,029
-194,490	272,840	0,066	-0,083
-193,475	-200,000	-0,032	-0,126
-192,460	-200,000	0,003	0,012
-191,446	313,977	-0,045	0,061
-190,431	800,000	-0,035	0,074
-189,417	800,000	0,010	0,027
-188,402	211,187	-0,048	-0,054
-187,387	466,680	0,019	-0,031
-186,373	92,334	-0,070	0,057
-185,358	800,000	0,020	0,047
-184,344	-200,000	0,012	0,093
-183,329	-200,000	-0,013	0,065
-182,315	-101,040	0,089	0,016
-181,300	-199,846	-0,059	-0,000
-180,285	102,427	0,013	-0,011
-179,271	42,402	0,109	0,071
-178,256	-3,670	-0,043	0,021
-177,242	-200,000	-0,002	0,058
-176,227	800,000	0,051	0,140
-175,212	406,330	0,026	0,040
-174,198	-36,124	0,058	0,022
-173,183	30,151	-0,074	0,045
-172,169	264,225	0,027	0,034
-171,154	-1,157	0,064	-0,032
-170,139	-1,666	0,060	-0,030
-169,125	243,485	0,074	-0,090
-168,110	48,031	0,127	0,085
-167,096	-78,467	-0,066	0,016
-166,081	-140,852	0,147	-0,011
-165,066	800,000	-0,035	0,073
-164,052	208,176	0,040	-0,045
-163,037	-45,729	0,060	0,021
-162,023	101,765	0,094	0,079
-161,008	800,000	-0,026	-0,077
-159,993	94,706	0,127	-0,104
-158,979	-41,762	-0,061	-0,022
-157,964	-14,726	-0,203	-0,093
-156,950	-200,000	-0,009	-0,053
-155,935	-130,186	-0,106	0,010
-154,920	-44,653	0,101	0,036
-153,906	-147,323	0,018	-0,001
-152,891	97,827	-0,053	-0,044
-151,877	90,506	0,027	-0,022
-150,862	800,000	-0,007	-0,019
-149,847	-162,363	-0,073	0,003
-148,833	-200,000	-0,011	-0,037
-147,818	-200,000	-0,026	-0,090
-146,804	800,000	0,046	-0,139
-145,789	430,294	-0,097	0,151
-144,775	456,992	-0,036	0,057
-143,760	-200,000	-0,002	0,079
-142,745	800,000	-0,089	-0,200
-141,731	121,994	0,150	0,134
-140,716	-20,600	0,068	0,030
-139,702	800,000	-0,026	-0,066
-138,687	-74,039	-0,046	-0,012
-137,672	-90,377	0,056	-0,012
-136,658	17,522	0,054	-0,031
-135,643	-200,000	0,005	0,031
-134,629	-117,353	-0,071	0,009
-133,614	800,000	0,051	0,122
-132,599	6,167	0,089	-0,047
-131,585	-58,289	0,081	-0,025
-130,570	-200,000	-0,004	-0,075
-129,556	556,411	0,055	-0,096
-128,541	800,000	-0,047	-0,118
-127,526	-200,000	-0,010	-0,057
-126,512	-99,690	0,064	-0,011
-125,497	800,000	-0,034	-0,082
-124,483	800,000	-0,024	0,050
-123,468	64,188	0,016	0,012
-122,453	121,472	0,046	0,041
-121,439	146,043	-0,026	-0,025
-120,424	-62,772	0,107	-0,032
