DTS Sentinel unit serial number:	SN410029Multiplexer serial number:	ORYXHardware model number:	OX2-SRSoftware version number:	ORYX F/W v4,00 Oryx Data Collector v3.7.2.0data status	okinstallation	B6 Nyhavnadifferential loss correction	single-endedforward channel	channel 2reverse channel	N/Adate	2023/12/09time	07:20:08forward acquisition time	300,00reverse acquisition time	0,00gamma	499,1914k internal	0,3138k external	0,3138temperature offset calibration	1,0000default loss term (dB/km)	0,3820temperature slope calibration	1,0000multiplexer offset coefficient	1,0000multiplexer slope coefficient	1,0000fibre end	0,00T internal ref (°C)	18,57T ext. ref 1 (°C)	2,04T ext. ref 2 (°C)	2,05length (m)	temperature (°C)	Stokes	anti-Stokes-744,400	-61,995	0,171	-0,053
-743,385	-16,756	-0,307	0,144
-742,371	4,680	0,107	0,058
-741,356	-135,590	-0,210	-0,018
-740,342	-192,625	0,066	-0,000
-739,327	-137,421	-0,268	0,022
-738,312	-16,487	0,019	-0,009
-737,298	-149,216	-0,291	-0,017
-736,283	-42,120	0,139	0,053
-735,269	-75,378	-0,253	0,066
-734,254	10,163	0,102	0,057
-733,239	-160,115	-0,404	0,016
-732,225	-57,680	0,164	-0,053
-731,210	800,000	0,095	0,220
-730,196	26,028	0,032	-0,020
-729,181	159,363	-0,037	-0,038
-728,167	-129,295	0,075	0,008
-727,152	-75,092	0,093	0,024
-726,137	109,164	-0,117	-0,104
-725,123	-138,351	-0,049	0,004
-724,108	-28,836	-0,156	-0,066
-723,094	-200,000	-0,004	-0,158
-722,079	-200,000	-0,002	-0,172
-721,064	667,861	0,026	-0,051
-720,050	117,746	0,064	0,058
-719,035	67,495	-0,025	0,019
-718,021	800,000	0,023	-0,055
-717,006	434,952	-0,032	0,052
-715,991	-200,000	0,004	-0,042
-714,977	84,694	-0,054	0,044
-713,962	800,000	-0,026	-0,075
-712,948	-91,225	0,102	-0,022
-711,933	197,857	-0,116	-0,132
-710,918	182,833	-0,035	-0,039
-709,904	79,823	-0,122	-0,097
-708,889	-200,000	-0,005	-0,048
-707,875	93,901	-0,037	-0,031
-706,860	143,225	-0,050	0,050
-705,845	456,218	0,062	0,102
-704,831	34,935	0,192	-0,124
-703,816	-105,835	0,078	-0,013
-702,802	-200,000	-0,004	-0,083
-701,787	124,087	0,148	-0,138
-700,772	-200,000	0,005	-0,164
-699,758	656,988	0,002	0,004
-698,743	-73,324	0,029	0,008
-697,729	-193,132	0,052	-0,000
-696,714	-113,886	0,116	0,016
-695,699	22,462	-0,137	-0,083
-694,685	-100,324	-0,019	0,004
-693,670	-200,000	-0,003	0,011
-692,656	-200,000	-0,072	0,000
-691,641	-103,816	0,061	0,010
-690,627	440,652	0,035	-0,057
-689,612	-104,155	-0,082	0,014
-688,597	-108,429	-0,159	-0,025
-687,583	201,835	-0,107	-0,122
-686,568	-126,818	-0,110	0,012
-685,554	800,000	-0,027	0,056
-684,539	800,000	0,020	0,060
-683,524	800,000	-0,056	-0,142
-682,510	159,543	-0,019	0,020
-681,495	552,925	-0,056	-0,101
-680,481	23,620	-0,040	-0,024
-679,466	-200,000	-0,015	-0,058
-678,451	800,000	0,044	-0,107
-677,437	-72,250	0,086	0,024
-676,422	429,191	-0,098	-0,158
-675,408	289,967	-0,081	-0,109
-674,393	-200,000	0,008	0,111
-673,378	381,445	0,123	-0,188
-672,364	-200,000	-0,024	-0,154
-671,349	-200,000	-0,009	0,032
-670,335	10,797	-0,083	-0,047
-669,320	391,297	0,060	-0,092
-668,305	36,772	0,075	0,049
-667,291	658,792	0,059	-0,113
-666,276	-127,740	0,022	0,002
-665,262	-200,000	-0,003	-0,063
-664,247	-170,139	-0,068	-0,002
-663,232	-200,000	-0,014	-0,077
-662,218	800,000	-0,048	-0,113
-661,203	-65,262	0,067	0,020
-660,189	-24,547	-0,037	-0,016
-659,174	800,000	0,037	0,084
-658,159	800,000	-0,065	-0,189
-657,145	568,140	-0,026	-0,047
-656,130	29,847	0,165	-0,103
-655,116	174,913	0,007	0,007
-654,101	-12,324	-0,072	-0,035
-653,086	-11,406	0,054	-0,026
-652,072	317,853	-0,048	0,067
-651,057	692,693	-0,024	-0,047
-650,043	-25,623	-0,101	-0,044
-649,028	123,400	0,108	0,100
-648,014	613,047	0,021	0,039
-646,999	114,924	-0,108	0,097
-645,984	98,625	0,099	0,085
-644,970	800,000	-0,024	-0,077
-643,955	-50,024	0,048	-0,017
-642,941	615,746	0,037	-0,069
-641,926	36,935	0,047	0,031
-640,911	83,900	-0,062	-0,050
-639,897	-15,421	0,117	-0,055
-638,882	-35,856	0,087	0,035
-637,868	-22,986	-0,045	0,020
-636,853	-32,696	-0,096	0,039
-635,838	298,564	-0,036	-0,049
-634,824	-9,094	-0,061	-0,030
-633,809	609,407	-0,093	0,173
-632,795	110,656	0,033	0,030
-631,780	-133,120	0,039	-0,004
-630,765	800,000	0,029	0,060
-629,751	-145,500	0,025	-0,002
-628,736	81,060	-0,043	0,034
-627,722	-200,000	-0,003	0,167
-626,707	-115,103	-0,189	0,026
-625,692	-200,000	-0,021	0,149
-624,678	102,405	-0,072	0,062
-623,663	800,000	-0,033	0,070
-622,649	-200,000	-0,012	-0,120
-621,634	-106,977	-0,066	0,011
-620,619	101,367	0,101	0,087
-619,605	-58,900	0,089	-0,028
-618,590	-122,809	-0,094	-0,011
-617,576	-25,305	-0,122	0,053
-616,561	10,686	-0,140	0,079
-615,546	-200,000	0,015	0,199
-614,532	72,586	-0,078	-0,060
-613,517	207,743	-0,038	-0,044
-612,503	-200,000	-0,000	-0,082
-611,488	-17,356	0,112	-0,052
-610,474	354,021	-0,059	-0,086
-609,459	50,902	0,037	-0,026
-608,444	-96,031	-0,072	-0,014
-607,430	286,085	0,092	-0,123
-606,415	22,053	0,048	-0,029
-605,401	800,000	0,077	-0,193
-604,386	800,000	0,030	0,078
-603,371	-200,000	0,011	-0,037
-602,357	800,000	-0,065	0,191
-601,342	79,036	0,083	0,066
-600,328	-200,000	-0,010	-0,045
-599,313	800,000	-0,028	-0,064
-598,298	-200,000	0,005	0,153
-597,284	11,420	-0,056	0,031
-596,269	-107,311	0,105	-0,017
-595,255	800,000	-0,024	-0,070
-594,240	154,730	0,159	-0,162
-593,225	230,709	-0,059	-0,071
-592,211	-79,818	0,019	0,005
-591,196	207,012	-0,033	0,037
-590,182	800,000	0,008	-0,023
-589,167	800,000	-0,033	0,092
-588,152	-42,380	-0,147	-0,055
-587,138	747,388	-0,035	-0,070
-586,123	-12,129	-0,011	0,005
-585,109	800,000	-0,025	-0,076
-584,094	61,108	0,078	0,057
-583,079	-136,184	0,057	0,005
-582,065	214,376	-0,088	0,103
-581,050	-200,000	-0,001	-0,006
-580,036	-99,837	0,077	0,014
-579,021	-83,619	-0,154	-0,036
-578,006	-55,379	-0,169	-0,056
-576,992	800,000	0,013	0,030
-575,977	426,344	0,010	-0,016
-574,963	73,707	0,022	-0,017
-573,948	446,574	0,051	0,083
-572,934	-69,509	-0,173	0,049
-571,919	97,793	-0,044	0,037
-570,904	-200,000	-0,040	-0,133
-569,890	800,000	0,078	-0,236
-568,875	4,329	0,135	-0,073
-567,861	-109,545	0,059	-0,009
-566,846	49,727	-0,054	0,038
-565,831	129,379	-0,075	0,070
-564,817	-89,816	0,097	0,021
-563,802	91,341	-0,040	0,033
-562,788	309,858	-0,023	-0,032
-561,773	-200,000	-0,021	0,110
-560,758	-200,000	0,019	0,064
-559,744	800,000	-0,019	-0,058
-558,729	-200,000	0,003	0,017
-557,715	-108,931	-0,187	-0,029
-556,700	800,000	-0,051	-0,138
-555,685	217,006	-0,049	0,057
-554,671	22,407	0,074	0,044
-553,656	298,860	0,053	-0,071
-552,642	-101,038	0,030	-0,005
-551,627	-134,279	0,010	-0,001
-550,612	800,000	0,026	-0,057
-549,598	15,449	-0,084	0,048
-548,583	242,487	-0,055	-0,068
-547,569	223,317	-0,032	-0,038
-546,554	800,000	0,012	-0,027
-545,539	-120,360	-0,084	-0,010
-544,525	164,009	0,017	0,018
-543,510	233,667	-0,084	0,102
-542,496	124,217	-0,021	0,019
-541,481	32,199	0,071	-0,045
-540,466	-35,595	0,102	-0,041
-539,452	133,401	0,030	0,029
-538,437	5,314	0,056	-0,030
-537,423	-200,000	0,011	0,070
-536,408	347,040	0,053	0,077
-535,393	21,298	-0,072	-0,043
-534,379	127,185	0,069	-0,065
-533,364	800,000	-0,019	-0,058
-532,350	800,000	0,038	-0,092
-531,335	59,935	0,057	0,042
-530,321	701,124	0,040	-0,079
-529,306	283,895	0,041	0,055
-528,291	-89,741	-0,130	-0,028
-527,277	69,971	-0,053	0,040
-526,262	4,878	0,064	0,035
-525,248	585,391	0,061	0,110
-524,233	-200,000	-0,039	0,247
-523,218	58,266	-0,023	-0,017
-522,204	83,313	0,111	0,089
-521,189	36,492	0,065	-0,042
-520,175	-151,015	0,099	0,005
-519,160	19,809	-0,110	0,065
-518,145	800,000	0,061	-0,164
-517,131	361,954	0,060	-0,089
-516,116	503,248	-0,043	0,074
-515,102	598,669	-0,031	0,056
-514,087	-200,000	-0,005	-0,152
-513,072	-200,000	0,020	-0,086
-512,058	-200,000	-0,018	-0,094
-511,043	-98,678	0,084	-0,016
-510,029	800,000	0,030	0,063
-509,014	800,000	0,035	0,087
-507,999	800,000	-0,028	0,090
-506,985	-200,000	0,036	-0,146
-505,970	-25,909	-0,065	-0,028
-504,956	691,269	-0,016	-0,032
-503,941	242,063	-0,064	-0,079
-502,926	-20,811	-0,056	0,025
-501,912	761,439	0,012	0,025
-500,897	-71,504	-0,025	0,007
-499,883	-200,000	-0,039	0,134
-498,868	152,347	0,079	-0,079
-497,853	327,596	-0,074	-0,105
-496,839	296,427	-0,027	-0,037
-495,824	45,619	0,100	-0,068
-494,810	-130,787	0,071	-0,007
-493,795	111,796	-0,084	0,075
-492,781	314,036	0,068	0,095
-491,766	172,468	-0,022	-0,024
-490,751	546,993	0,039	0,069
-489,737	800,000	-0,020	-0,053
-488,722	554,095	0,051	-0,090
-487,708	-75,546	0,023	-0,006
-486,693	-131,779	0,021	-0,002
-485,678	31,458	-0,063	0,040
-484,664	126,738	0,080	-0,074
-483,649	152,049	-0,095	-0,095
-482,635	194,304	0,053	-0,060
-481,620	132,136	0,046	0,043
-480,605	569,460	-0,020	-0,037
-479,591	90,511	0,053	0,044
-478,576	16,967	0,066	-0,038
-477,562	-200,000	0,013	-0,116
-476,547	-92,599	-0,104	0,021
-475,532	8,617	0,111	0,061
-474,518	359,260	-0,100	0,147
-473,503	7,142	0,066	-0,036
-472,489	-156,963	-0,034	0,002
-471,474	800,000	0,018	0,046
-470,459	-104,161	-0,151	0,025
-469,445	-109,174	0,083	0,013
-468,430	2,549	-0,084	-0,044
-467,416	-29,254	-0,116	0,049
-466,401	800,000	-0,044	0,131
-465,386	738,946	0,024	0,047
-464,372	525,458	-0,053	0,092
-463,357	357,496	-0,036	-0,053
-462,343	14,576	-0,068	-0,039
-461,328	-197,648	-0,045	0,000
-460,313	-17,491	-0,078	-0,036
-459,299	800,000	0,054	0,125
-458,284	177,647	-0,130	0,139
-457,270	800,000	-0,029	0,082
-456,255	800,000	-0,050	0,134
-455,241	-200,000	-0,022	-0,076
-454,226	483,339	-0,031	-0,052
-453,211	-75,634	0,101	0,026
-452,197	-200,000	-0,003	0,038
-451,182	800,000	0,049	0,144
-450,168	462,192	0,042	-0,070
-449,153	-123,823	0,027	0,003
-448,138	-200,000	0,015	-0,104
-447,124	-200,000	-0,005	-0,117
-446,109	-200,000	0,029	-0,162
-445,095	214,804	0,070	-0,081
-444,080	-200,000	-0,004	0,014
-443,065	99,607	-0,073	0,062
-442,051	800,000	-0,014	-0,032
-441,036	-200,000	0,053	0,000
-440,022	133,290	-0,042	-0,040
-439,007	67,148	0,038	0,029
-437,992	-200,000	-0,005	-0,090
-436,978	-110,221	-0,006	-0,001
-435,963	185,164	0,040	-0,043
-434,949	800,000	0,046	-0,118
-433,934	92,454	0,125	-0,103
-432,919	-200,000	-0,023	-0,167
-431,905	-200,000	-0,035	0,128
-430,890	623,550	-0,046	0,085
-429,876	5,165	0,198	0,107
-428,861	391,512	0,021	-0,031
-427,846	95,076	0,074	-0,061
-426,832	390,032	0,054	-0,083
-425,817	146,793	-0,144	-0,142
-424,803	222,630	-0,047	-0,055
-423,788	356,681	0,035	0,052
-422,773	800,000	0,036	-0,094
-421,759	199,445	0,108	0,121
-420,744	14,437	-0,074	-0,042
-419,730	-98,522	-0,185	-0,034
-418,715	-200,000	-0,018	-0,079
-417,701	-75,183	-0,077	-0,020
-416,686	252,234	0,070	-0,088
-415,671	343,195	0,047	0,067
-414,657	-101,644	-0,077	-0,014
-413,642	-200,000	0,000	0,004
-412,628	63,677	0,061	0,045
-411,613	35,499	-0,071	0,045
-410,598	-93,810	0,118	-0,024
-409,584	-135,811	0,099	0,008
-408,569	-106,900	0,025	-0,004
-407,555	-200,000	-0,026	0,102
-406,540	-97,508	-0,137	-0,026
-405,525	32,715	-0,032	-0,020
-404,511	233,706	-0,062	-0,075
-403,496	2,794	0,126	-0,067
-402,482	-200,000	0,020	-0,116
-401,467	-200,000	0,003	0,031
-400,452	800,000	0,057	0,135
-399,438	8,161	-0,073	0,040
-398,423	800,000	0,016	-0,044
-397,409	361,157	0,043	-0,063
-396,394	217,835	-0,064	0,074
-395,379	-200,000	-0,003	0,013
-394,365	70,010	-0,032	-0,024
-393,350	73,263	-0,053	-0,040
-392,336	7,539	0,140	-0,077
-391,321	-153,266	-0,097	0,005
-390,306	-200,000	0,011	0,038
-389,292	159,499	0,084	-0,085
-388,277	-131,710	0,112	-0,011
-387,263	-121,028	0,163	0,020
-386,248	153,275	-0,058	-0,058
-385,233	800,000	-0,065	-0,136
-384,219	800,000	-0,043	-0,100
-383,204	800,000	0,056	0,162
-382,190	-78,265	-0,113	0,028
-381,175	100,837	0,060	0,051
-380,160	-200,000	0,022	0,086
-379,146	111,248	-0,058	-0,051
-378,131	-3,800	-0,003	0,002
-377,117	-200,000	0,101	0,000
-376,102	-200,000	-0,013	-0,148
-375,088	-200,000	-0,020	0,111
-374,073	465,496	0,091	0,149
-373,058	-57,578	-0,036	0,012
-372,044	-200,000	0,006	-0,034
-371,029	800,000	-0,022	0,044
-370,015	29,110	-0,050	-0,031
-369,000	91,583	-0,135	-0,111
-367,985	236,100	0,023	0,027
-366,971	-155,074	0,094	0,004
-365,956	4,717	0,087	0,047
-364,942	-65,340	0,165	-0,048
-363,927	-200,000	-0,001	0,163
-362,912	-200,000	-0,012	0,065
-361,898	89,693	-0,040	-0,032
-360,883	800,000	0,026	0,060
-359,869	800,000	0,045	-0,093
-358,854	763,245	-0,035	0,070
-357,839	183,785	0,042	0,046
-356,825	-139,225	0,093	0,007
-355,810	294,899	-0,019	0,026
-354,796	300,853	0,038	-0,051
-353,781	-149,011	-0,069	0,004
-352,766	105,264	0,080	0,069
-351,752	-200,000	0,019	0,092
-350,737	110,156	0,081	-0,071
-349,723	-200,000	0,011	-0,039
-348,708	510,490	0,077	0,132
-347,693	349,993	0,111	-0,160
-346,679	241,250	-0,078	-0,095
-345,664	800,000	-0,044	-0,101
-344,650	-200,000	-0,029	-0,117
-343,635	-200,000	-0,010	0,064
-342,620	-83,718	0,151	-0,035
-341,606	-200,000	0,043	0,158
-340,591	-78,338	-0,104	-0,026
-339,577	-89,524	-0,149	-0,032
-338,562	315,647	-0,064	-0,089
-337,548	221,153	-0,038	0,045
-336,533	0,761	-0,073	-0,038
-335,518	231,181	0,080	0,095
-334,504	-41,580	-0,060	0,022
-333,489	-19,353	-0,090	0,040
-332,475	800,000	-0,040	0,114
-331,460	-0,635	0,067	0,034
-330,445	-199,005	-0,030	-0,000
-329,431	-100,925	-0,101	0,018
-328,416	-84,297	-0,105	0,024
-327,402	10,789	-0,051	-0,028
-326,387	103,686	0,153	0,131
-325,372	5,070	-0,055	0,029
-324,358	24,785	-0,085	-0,051
-323,343	-144,540	-0,103	-0,007
-322,329	40,696	-0,054	-0,035
-321,314	800,000	0,039	0,089
-320,299	71,523	0,113	-0,086
-319,285	306,860	-0,028	0,038
-318,270	800,000	0,040	-0,127
-317,256	-200,000	-0,001	-0,086
-316,241	338,449	0,063	0,089
-315,226	-200,000	-0,011	-0,051
-314,212	223,751	-0,036	-0,042
-313,197	-56,700	0,133	-0,043
-312,183	-200,000	0,003	0,120
-311,168	-157,502	0,096	-0,004
-310,153	781,841	-0,047	0,095
-309,139	-137,846	-0,108	0,009
-308,124	-27,740	0,118	-0,050
-307,110	284,386	0,061	0,080
-306,095	-115,467	0,129	-0,017
-305,080	-173,554	-0,077	-0,002
-304,066	-130,826	-0,107	-0,010
-303,051	113,694	0,024	-0,021
-302,037	164,632	-0,027	0,028
-301,022	-148,334	-0,081	-0,005
-300,008	181,511	0,071	-0,077
-298,993	-200,000	0,010	0,081
-297,978	-200,000	-0,005	0,093
-296,964	-200,000	0,009	-0,133
-295,949	-100,458	-0,128	0,023
-294,935	219,232	0,052	-0,061
-293,920	82,669	0,094	0,074
-292,905	98,382	0,147	0,123
-291,891	-86,001	0,055	0,012
-290,876	189,263	0,092	0,100
-289,862	-200,000	0,010	0,093
-288,847	-6,330	-0,020	0,010
-287,832	14,542	0,101	-0,058
-286,818	-107,226	0,080	0,013
-285,803	311,204	0,028	-0,038
-284,789	790,261	0,034	-0,068
-283,774	-200,000	-0,003	0,018
-282,759	161,234	-0,120	0,123
-281,745	800,000	0,005	0,010
-280,730	248,952	0,022	-0,027
-279,716	-200,000	0,043	-0,197
-278,701	71,848	0,104	0,079
-277,686	182,169	0,033	-0,035
-276,672	-200,000	-0,032	-0,109
-275,657	-35,426	-0,041	0,016
-274,643	-46,938	-0,098	0,035
-273,628	-34,349	-0,078	-0,031
-272,613	800,000	0,014	0,044
-271,599	800,000	-0,007	-0,022
-270,584	519,519	0,090	-0,153
-269,570	127,978	0,047	-0,044
-268,555	-83,576	-0,151	-0,035
-267,540	17,162	0,078	-0,045
-266,526	-200,000	-0,012	-0,106
-265,511	546,823	0,034	-0,059
-264,497	51,756	0,039	0,027
-263,482	-136,359	0,049	-0,004
-262,467	108,545	-0,081	-0,070
-261,453	-200,000	-0,014	-0,068
-260,438	163,782	-0,041	0,042
-259,424	-200,000	-0,013	-0,116
-258,409	18,099	0,089	0,052
-257,395	800,000	-0,047	-0,102
-256,380	800,000	0,005	-0,011
-255,365	800,000	-0,041	0,111
-254,351	396,710	-0,073	0,111
-253,336	13,698	-0,149	-0,084
-252,322	-83,132	-0,009	0,002
-251,307	117,426	0,198	-0,177
-250,292	493,151	-0,041	0,068
-249,278	-5,329	0,016	0,008
-248,263	-72,771	-0,033	-0,009
-247,249	-79,349	-0,045	-0,011
-246,234	-159,577	-0,049	0,002
-245,219	-200,000	-0,037	-0,163
-244,205	-172,994	-0,084	-0,002
-243,190	-132,835	-0,110	-0,010
-242,176	-69,778	-0,050	0,014
-241,161	165,829	0,221	0,228
-240,146	-200,000	0,010	0,075
-239,132	-75,087	0,049	-0,013
-238,117	-104,360	-0,113	-0,019
-237,103	-57,620	0,085	-0,027
-236,088	29,929	-0,004	0,002
-235,073	242,003	-0,030	-0,037
-234,059	800,000	-0,025	-0,077
-233,044	314,213	0,062	0,085
-232,030	-200,000	-0,076	0,000
-231,015	-200,000	0,007	0,063
-230,000	158,868	-0,069	-0,070
-228,986	-200,000	0,004	-0,069
-227,971	40,125	-0,058	0,038
-226,957	431,536	-0,076	0,120
-225,942	630,547	0,030	0,056
-224,927	800,000	-0,072	-0,182
-223,913	-112,194	0,098	-0,014
-222,898	108,119	-0,081	-0,070
-221,884	-200,000	0,012	-0,094
-220,869	-7,203	0,068	-0,034
-219,855	-200,000	-0,010	0,038
-218,840	-10,377	-0,050	-0,024
-217,825	-200,000	0,009	-0,081
-216,811	-47,735	-0,064	0,022
-215,796	317,040	0,034	0,047
-214,782	-200,000	-0,002	0,019
-213,767	-112,857	-0,189	0,027
-212,752	41,412	0,100	0,065
-211,738	84,888	0,074	-0,059
-210,723	328,488	0,077	0,108
-209,709	-200,000	0,008	0,071
-208,694	1,469	-0,097	-0,051
-207,679	-121,119	-0,102	-0,012
-206,665	705,310	0,003	-0,005
-205,650	362,217	0,096	0,140
-204,636	596,308	0,021	0,038
-203,621	511,703	0,031	0,053
-202,606	-12,093	-0,100	-0,047
-201,592	198,690	-0,094	-0,105
-200,577	53,774	0,067	-0,047
-199,563	800,000	0,016	-0,036
-198,548	455,597	-0,037	0,060
-197,533	-45,164	0,066	0,024
-196,519	-200,000	0,034	0,109
-195,504	-200,000	-0,013	0,086
-194,490	31,276	-0,056	0,035
-193,475	-74,942	-0,042	0,011
-192,460	-136,724	0,085	0,007
-191,446	216,722	-0,080	-0,093
-190,431	-122,744	0,052	-0,006
-189,417	-49,072	-0,147	0,051
-188,402	-16,144	0,111	-0,051
-187,387	296,925	0,050	0,067
-186,373	2,027	-0,086	-0,045
-185,358	-200,000	0,018	0,073
-184,344	-180,340	0,052	-0,001
-183,329	800,000	0,012	0,025
-182,315	-200,000	-0,019	0,154
-181,300	81,907	0,062	-0,049
-180,285	239,451	-0,089	-0,108
-179,271	208,574	-0,100	-0,114
-178,256	-19,866	0,075	-0,033
-177,242	145,716	0,147	0,143
-176,227	283,313	0,038	0,050
-175,212	108,610	0,114	0,099
-174,198	-200,000	0,011	-0,052
-173,183	-49,365	0,033	-0,011
-172,169	-21,910	0,048	0,021
-171,154	-26,938	0,082	0,035
-170,139	14,363	0,187	0,105
-169,125	-200,000	-0,036	0,145
-168,110	-138,505	-0,012	0,001
-167,096	-200,000	0,013	-0,075
-166,081	491,947	0,049	-0,082
-165,066	15,492	-0,074	-0,042
-164,052	-200,000	-0,014	-0,064
-163,037	758,664	-0,005	-0,010
-162,023	-200,000	-0,001	0,231
-161,008	-200,000	0,004	-0,027
-159,993	443,754	-0,061	-0,097
-158,979	800,000	0,012	-0,035
-157,964	88,056	-0,019	0,015
-156,950	-30,934	-0,107	0,043
-155,935	147,894	0,052	0,050
-154,920	-148,601	-0,044	0,003
-153,906	-200,000	-0,009	0,085
-152,891	141,273	-0,031	0,029
-151,877	424,367	0,094	-0,147
-150,862	10,154	0,062	0,034
-149,847	-47,341	0,091	0,032
-148,833	800,000	0,026	0,065
-147,818	129,556	-0,107	0,099
-146,804	-200,000	-0,002	0,303
-145,789	-200,000	0,030	0,207
-144,775	800,000	-0,051	-0,118
-143,760	-92,487	0,081	-0,016
-142,745	276,373	0,097	-0,125
-141,731	-47,531	-0,171	0,060
-140,716	18,029	-0,042	0,024
-139,702	130,634	0,066	-0,061
-138,687	-1,407	-0,059	0,030
-137,672	28,494	0,120	0,073
-136,658	800,000	-0,018	0,041
-135,643	363,250	-0,032	0,047
-134,629	601,744	0,046	-0,083
-133,614	-53,065	0,025	0,008
-132,599	99,548	-0,133	0,112
-131,585	486,562	0,067	-0,111
-130,570	-64,682	0,055	0,016
-129,556	42,488	-0,135	-0,089
-128,541	-200,000	0,010	-0,058
-127,526	-200,000	0,039	-0,140
-126,512	70,203	-0,064	-0,048
-125,497	24,799	0,043	-0,026
-124,483	-60,361	0,130	0,040
-123,468	99,110	0,027	-0,023
-122,453	-73,122	0,065	0,017
-121,439	-84,816	-0,101	-0,023
-120,424	349,932	0,067	0,097
-119,410	800,000	-0,059	0,121
-118,395	596,365	0,065	0,116
