DTS Sentinel unit serial number:	SN410029Multiplexer serial number:	ORYXHardware model number:	OX2-SRSoftware version number:	ORYX F/W v4,00 Oryx Data Collector v3.7.2.0data status	okinstallation	B6 Nyhavnadifferential loss correction	single-endedforward channel	channel 2reverse channel	N/Adate	2023/12/07time	14:10:08forward acquisition time	300,00reverse acquisition time	0,00gamma	499,1914k internal	0,3198k external	0,3198temperature offset calibration	1,0000default loss term (dB/km)	0,3820temperature slope calibration	1,0000multiplexer offset coefficient	1,0000multiplexer slope coefficient	1,0000fibre end	0,00T internal ref (°C)	13,34T ext. ref 1 (°C)	-1,73T ext. ref 2 (°C)	-1,72length (m)	temperature (°C)	Stokes	anti-Stokes-744,400	-131,288	0,206	0,020
-743,385	-87,223	-0,243	0,053
-742,371	5,758	0,122	0,066
-741,356	-129,732	-0,360	-0,036
-740,342	18,531	0,127	-0,074
-739,327	-137,543	-0,259	-0,021
-738,312	366,663	0,041	0,061
-737,298	-82,270	-0,449	-0,106
-736,283	-141,177	0,201	-0,015
-735,269	-161,124	-0,287	0,011
-734,254	800,000	0,028	0,086
-733,239	-181,563	-0,399	0,006
-732,225	88,933	0,209	0,169
-731,210	526,553	-0,059	0,101
-730,196	760,861	-0,060	-0,118
-729,181	110,191	-0,092	-0,080
-728,167	-200,000	0,007	-0,052
-727,152	800,000	0,010	-0,028
-726,137	-46,266	0,087	-0,031
-725,123	235,788	-0,041	-0,049
-724,108	800,000	-0,054	0,120
-723,094	211,998	0,022	0,026
-722,079	434,530	-0,038	-0,060
-721,064	-169,987	0,093	0,002
-720,050	-58,795	0,140	0,044
-719,035	-161,037	-0,017	0,001
-718,021	211,098	-0,039	0,044
-717,006	325,771	-0,099	-0,139
-715,991	800,000	-0,044	-0,131
-714,977	233,825	-0,055	-0,066
-713,962	-200,000	-0,008	-0,122
-712,948	-200,000	-0,027	-0,091
-711,933	-105,842	-0,136	0,022
-710,918	-8,426	-0,052	-0,025
-709,904	-200,000	-0,004	-0,088
-708,889	-34,374	-0,043	0,017
-707,875	-65,247	-0,236	-0,069
-706,860	800,000	-0,022	0,051
-705,845	800,000	-0,068	0,195
-704,831	513,416	0,021	-0,036
-703,816	7,750	-0,028	0,015
-702,802	800,000	-0,063	-0,141
-701,787	148,804	0,141	-0,139
-700,772	-18,175	-0,166	-0,075
-699,758	7,728	-0,002	-0,001
-698,743	-200,000	-0,005	0,075
-697,729	620,465	0,034	-0,062
-696,714	800,000	0,030	-0,084
-695,699	69,518	0,107	0,080
-694,685	-200,000	-0,037	0,171
-693,670	-80,036	-0,051	0,012
-692,656	-52,585	0,069	0,023
-691,641	353,425	0,063	0,091
-690,627	75,963	0,004	0,003
-689,612	63,175	-0,028	0,020
-688,597	-200,000	0,023	0,115
-687,583	800,000	0,043	0,106
-686,568	-94,410	-0,057	-0,011
-685,554	0,693	-0,089	-0,046
-684,539	-200,000	0,014	-0,047
-683,524	769,100	-0,014	-0,029
-682,510	800,000	-0,025	-0,076
-681,495	-200,000	-0,020	-0,121
-680,481	-123,885	0,107	-0,012
-679,466	20,057	0,021	0,012
-678,451	-144,920	0,064	0,004
-677,437	-156,425	-0,098	-0,004
-676,422	43,909	0,103	0,068
-675,408	64,637	-0,032	0,024
-674,393	90,140	-0,086	0,069
-673,378	18,117	-0,091	-0,052
-672,364	228,802	0,039	-0,046
-671,349	79,369	0,058	0,045
-670,335	-200,000	0,006	-0,064
-669,320	800,000	-0,043	0,132
-668,305	-33,650	0,091	0,036
-667,291	-200,000	-0,019	-0,102
-666,276	497,754	0,047	-0,079
-665,262	52,749	-0,059	-0,041
-664,247	-164,128	-0,039	-0,001
-663,232	-28,341	0,178	0,074
-662,218	-111,138	0,163	0,024
-661,203	-200,000	0,034	-0,195
-660,189	-185,202	0,089	-0,001
-659,174	-99,606	0,119	-0,021
-658,159	-84,962	-0,147	-0,033
-657,145	-88,702	-0,016	0,003
-656,130	-98,420	0,113	0,021
-655,116	47,816	-0,123	-0,083
-654,101	-200,000	-0,008	-0,079
-653,086	800,000	0,013	-0,032
-652,072	93,629	-0,096	0,079
-651,057	550,619	-0,089	-0,155
-650,043	800,000	-0,040	-0,112
-649,028	-13,318	-0,116	0,055
-648,014	60,448	0,146	0,105
-646,999	-35,072	0,065	0,026
-645,984	-16,203	-0,051	-0,023
-644,970	-92,671	0,055	-0,011
-643,955	136,069	0,131	-0,124
-642,941	-200,000	0,002	0,014
-641,926	489,932	0,097	-0,162
-640,911	-200,000	0,021	-0,091
-639,897	-200,000	0,009	0,098
-638,882	-94,985	0,130	-0,025
-637,868	-28,989	0,070	-0,029
-636,853	-78,266	0,069	-0,017
-635,838	-200,000	-0,009	0,049
-634,824	135,375	0,016	0,016
-633,809	-200,000	-0,003	0,090
-632,795	-2,893	0,129	0,065
-631,780	-131,811	0,091	-0,009
-630,765	-200,000	-0,005	-0,064
-629,751	-110,381	-0,029	-0,004
-628,736	-200,000	-0,026	-0,110
-627,722	404,110	0,072	-0,109
-626,707	232,163	-0,036	0,043
-625,692	-200,000	0,018	0,066
-624,678	-55,319	0,221	-0,071
-623,663	800,000	-0,038	-0,079
-622,649	-200,000	-0,008	-0,030
-621,634	699,275	-0,048	0,093
-620,619	800,000	0,027	-0,080
-619,605	676,072	0,061	-0,115
-618,590	800,000	-0,029	-0,073
-617,576	257,885	-0,014	0,017
-616,561	-63,890	-0,092	0,027
-615,546	92,599	0,099	-0,081
-614,532	-200,000	0,021	0,135
-613,517	-157,817	0,021	-0,001
-612,503	-200,000	0,000	-0,069
-611,488	-200,000	-0,002	0,103
-610,474	-29,116	0,042	0,017
-609,459	-112,149	-0,058	0,008
-608,444	-88,062	-0,068	-0,015
-607,430	-200,000	0,016	-0,054
-606,415	132,991	-0,076	0,071
-605,401	13,033	0,130	-0,072
-604,386	-200,000	0,014	0,095
-603,371	-200,000	0,010	-0,050
-602,357	17,736	-0,193	0,111
-601,342	-200,000	-0,020	-0,078
-600,328	-41,973	-0,084	0,031
-599,313	173,430	-0,051	-0,054
-598,298	128,549	0,049	-0,045
-597,284	-144,687	-0,063	-0,004
-596,269	646,417	-0,033	0,061
-595,255	762,357	0,063	0,125
-594,240	-102,360	-0,118	-0,020
-593,225	-20,442	-0,104	0,046
-592,211	424,097	0,072	-0,113
-591,196	2,959	0,081	-0,042
-590,182	117,104	-0,071	-0,063
-589,167	-200,000	-0,004	0,064
-588,152	50,215	0,023	-0,015
-587,138	-200,000	-0,033	0,136
-586,123	270,524	0,042	0,054
-585,109	-18,300	-0,157	-0,071
-584,094	-91,229	-0,074	-0,015
-583,079	-200,000	-0,020	0,142
-582,065	-200,000	0,004	-0,030
-581,050	800,000	0,024	-0,059
-580,036	385,076	-0,133	-0,199
-579,021	-200,000	-0,024	-0,087
-578,006	70,634	-0,083	-0,062
-576,992	-200,000	-0,003	0,093
-575,977	300,399	-0,057	0,076
-574,963	-200,000	-0,005	-0,082
-573,948	90,931	-0,124	0,101
-572,934	800,000	0,055	0,127
-571,919	800,000	-0,064	-0,148
-570,904	456,469	0,089	-0,143
-569,890	-95,746	0,044	0,009
-568,875	-34,867	0,166	0,065
-567,861	-200,000	-0,003	0,186
-566,846	-91,181	0,058	0,012
-565,831	-21,730	-0,094	0,041
-564,817	157,430	0,063	-0,063
-563,802	-200,000	-0,006	0,077
-562,788	-2,863	-0,069	0,035
-561,773	800,000	0,006	-0,019
-560,758	-200,000	-0,046	-0,149
-559,744	82,328	-0,076	-0,060
-558,729	-200,000	-0,015	0,140
-557,715	800,000	0,023	-0,064
-556,700	-139,465	0,048	-0,004
-555,685	23,485	-0,088	0,052
-554,671	-200,000	0,003	0,031
-553,656	800,000	-0,011	0,035
-552,642	83,462	0,018	-0,014
-551,627	800,000	0,012	-0,035
-550,612	-200,000	0,039	-0,137
-549,598	-112,865	-0,078	0,011
-548,583	10,993	-0,038	-0,021
-547,569	800,000	0,016	0,033
-546,554	-110,915	0,061	0,009
-545,539	-200,000	0,018	0,061
-544,525	-200,000	0,036	0,207
-543,510	270,172	0,058	0,073
-542,496	-200,000	-0,001	-0,090
-541,481	800,000	-0,008	0,022
-540,466	-95,072	-0,060	0,012
-539,452	-200,000	0,139	-0,000
-538,437	-112,453	-0,089	0,013
-537,423	800,000	0,030	0,093
-536,408	130,534	0,073	-0,068
-535,393	263,949	-0,093	-0,117
-534,379	800,000	0,013	-0,035
-533,364	-200,000	-0,024	0,143
-532,350	-200,000	0,016	0,107
-531,335	-200,000	-0,013	-0,060
-530,321	11,184	-0,112	-0,062
-529,306	800,000	0,013	0,039
-528,291	224,233	0,068	-0,080
-527,277	87,389	0,099	-0,079
-526,262	535,467	-0,062	-0,106
-525,248	25,212	0,111	-0,067
-524,233	-10,282	-0,100	-0,048
-523,218	-0,139	-0,086	-0,044
-522,204	800,000	0,012	0,034
-521,189	-200,000	-0,023	0,114
-520,175	37,659	-0,069	-0,044
-519,160	-184,845	-0,118	-0,001
-518,145	-200,000	0,006	0,068
-517,131	800,000	-0,031	0,069
-516,116	191,293	-0,054	0,058
-515,102	126,918	-0,097	0,089
-514,087	3,929	-0,104	-0,055
-513,072	-200,000	0,011	0,043
-512,058	800,000	-0,023	-0,067
-511,043	-200,000	0,019	-0,100
-510,029	-128,901	0,123	0,012
-509,014	-200,000	0,048	-0,193
-507,999	641,562	0,014	0,025
-506,985	-16,401	0,073	-0,033
-505,970	-102,136	-0,052	0,009
-504,956	800,000	0,004	-0,014
-503,941	-29,768	0,085	0,035
-502,926	-46,877	-0,042	-0,015
-501,912	696,096	-0,036	0,068
-500,897	125,757	0,011	0,010
-499,883	-0,444	0,086	0,044
-498,868	65,986	0,121	-0,088
-497,853	14,742	-0,074	0,042
-496,839	800,000	0,027	-0,060
-495,824	800,000	0,051	0,121
-494,810	-80,830	-0,074	0,018
-493,795	800,000	0,062	0,166
-492,781	192,106	-0,028	-0,030
-491,766	-98,581	0,031	-0,006
-490,751	332,852	0,048	-0,067
-489,737	-1,081	-0,097	-0,049
-488,722	-200,000	0,015	0,120
-487,708	-97,973	0,173	-0,032
-486,693	-134,270	-0,082	-0,007
-485,678	-59,679	-0,113	0,035
-484,664	199,698	-0,060	0,066
-483,649	683,869	-0,044	-0,083
-482,635	-70,943	-0,087	0,023
-481,620	800,000	0,071	-0,147
-480,605	23,292	-0,104	0,062
-479,591	279,532	0,048	0,062
-478,576	-150,800	-0,133	-0,007
-477,562	-200,000	0,010	0,112
-476,547	-5,009	-0,057	0,028
-475,532	-56,687	-0,074	-0,023
-474,518	800,000	-0,036	0,099
-473,503	657,957	-0,034	0,064
-472,489	800,000	-0,031	0,065
-471,474	-200,000	-0,007	0,031
-470,459	422,136	-0,017	-0,026
-469,445	126,869	-0,152	-0,139
-468,430	-91,547	-0,033	0,007
-467,416	800,000	-0,020	-0,049
-466,401	-200,000	-0,029	0,098
-465,386	304,057	0,063	0,084
-464,372	-200,000	0,012	0,105
-463,357	800,000	-0,017	-0,040
-462,343	396,592	-0,063	0,095
-461,328	145,974	-0,094	-0,091
-460,313	63,577	0,066	0,048
-459,299	-200,000	-0,004	-0,080
-458,284	-76,494	-0,192	0,048
-457,270	-200,000	0,014	-0,068
-456,255	106,300	-0,044	-0,038
-455,241	-200,000	0,001	-0,125
-454,226	-8,913	-0,086	-0,041
-453,211	-200,000	0,006	-0,092
-452,197	800,000	0,045	0,103
-451,182	800,000	-0,032	0,077
-450,168	-20,040	0,046	0,020
-449,153	-77,585	-0,093	0,023
-448,138	-87,720	-0,052	0,011
-447,124	49,005	-0,039	0,026
-446,109	79,928	0,040	0,031
-445,095	-69,944	0,140	-0,038
-444,080	0,691	-0,032	-0,017
-443,065	622,509	0,065	0,118
-442,051	-200,000	0,001	-0,082
-441,036	691,106	0,078	-0,148
-440,022	38,716	-0,044	-0,028
-439,007	-26,676	-0,030	-0,013
-437,992	-200,000	0,005	-0,022
-436,978	-69,057	0,168	0,046
-435,963	-75,194	-0,050	-0,013
-434,949	131,741	-0,034	0,032
-433,934	345,165	-0,083	-0,117
-432,919	800,000	0,007	0,021
-431,905	205,818	0,026	0,029
-430,890	-200,000	0,021	0,141
-429,876	-200,000	0,012	0,111
-428,861	-200,000	-0,012	0,097
-427,846	438,084	-0,028	-0,044
-426,832	280,894	0,035	-0,045
-425,817	-35,155	0,014	-0,006
-424,803	800,000	-0,033	-0,087
-423,788	446,511	-0,083	-0,132
-422,773	-67,696	0,044	0,012
-421,759	800,000	-0,013	-0,026
-420,744	800,000	-0,015	-0,039
-419,730	172,568	-0,100	-0,103
-418,715	28,818	0,086	-0,052
-417,701	-171,669	0,057	-0,001
-416,686	-77,242	-0,134	0,033
-415,671	-200,000	-0,017	0,101
-414,657	101,003	0,066	-0,055
-413,642	-200,000	-0,001	0,065
-412,628	-26,091	0,004	0,002
-411,613	134,765	-0,063	-0,059
-410,598	-200,000	0,035	-0,110
-409,584	101,110	0,061	0,051
-408,569	-54,311	0,067	-0,022
-407,555	-200,000	0,031	-0,124
-406,540	207,454	-0,073	0,082
-405,525	800,000	-0,011	-0,025
-404,511	800,000	-0,056	0,133
-403,496	-200,000	0,004	-0,119
-402,482	-25,807	0,068	0,029
-401,467	4,166	0,076	0,040
-400,452	-59,149	0,099	0,030
-399,438	800,000	-0,064	0,141
-398,423	-191,935	0,079	0,001
-397,409	-200,000	-0,007	0,084
-396,394	169,145	-0,081	0,084
-395,379	98,117	0,008	-0,006
-394,365	-48,528	-0,062	-0,021
-393,350	80,510	0,061	-0,047
-392,336	373,168	-0,135	0,197
-391,321	800,000	0,086	0,176
-390,306	-92,540	-0,069	-0,014
-389,292	800,000	-0,023	0,055
-388,277	-200,000	0,007	0,125
-387,263	75,756	0,169	0,128
-386,248	-200,000	-0,030	0,142
-385,233	-83,555	0,067	-0,015
-384,219	124,830	-0,049	-0,044
-383,204	-200,000	0,001	-0,071
-382,190	-66,392	-0,145	-0,041
-381,175	-162,667	-0,084	0,003
-380,160	-50,273	0,042	-0,014
-379,146	44,859	0,156	0,103
-378,131	-78,575	-0,196	0,048
-377,117	80,897	-0,067	-0,052
-376,102	141,650	0,029	-0,028
-375,088	-108,868	0,031	-0,005
-374,073	800,000	-0,028	-0,067
-373,058	70,959	-0,079	-0,058
-372,044	800,000	0,036	-0,072
-371,029	362,086	-0,038	-0,055
-370,015	605,055	-0,062	0,110
-369,000	92,363	0,100	0,080
-367,985	434,145	0,063	-0,098
-366,971	-120,070	0,037	-0,004
-365,956	509,535	0,006	0,010
-364,942	38,193	-0,079	-0,050
-363,927	-97,203	0,063	0,012
-362,912	-200,000	0,001	-0,045
-361,898	147,586	-0,077	-0,074
-360,883	73,059	-0,037	-0,027
-359,869	147,488	0,033	-0,032
-358,854	266,900	0,064	0,081
-357,839	14,628	-0,079	0,044
-356,825	800,000	0,020	0,061
-355,810	800,000	0,045	-0,091
-354,796	186,930	-0,071	-0,076
-353,781	-43,664	-0,076	0,027
-352,766	143,643	0,011	0,011
-351,752	204,732	0,094	0,104
-350,737	-98,562	0,145	-0,026
-349,723	-162,279	-0,111	0,004
-348,708	460,976	0,075	-0,120
-347,693	800,000	0,051	0,157
-346,679	93,835	-0,108	-0,088
-345,664	-63,483	-0,095	0,028
-344,650	800,000	0,071	0,170
-343,635	-200,000	0,003	-0,042
-342,620	-200,000	0,013	-0,076
-341,606	-200,000	-0,017	0,092
-340,591	-35,130	-0,042	0,016
-339,577	444,666	0,050	0,079
-338,562	-115,641	-0,089	0,012
-337,548	-200,000	-0,007	-0,142
-336,533	-111,541	0,049	0,007
-335,518	473,352	-0,136	0,220
-334,504	-8,626	0,028	0,014
-333,489	-79,620	-0,100	0,024
-332,475	-200,000	-0,006	-0,071
-331,460	68,288	-0,035	-0,025
-330,445	800,000	-0,017	0,034
-329,431	182,306	0,047	-0,050
-328,416	-200,000	-0,021	0,192
-327,402	12,729	0,124	0,068
-326,387	16,503	-0,090	0,051
-325,372	800,000	-0,025	-0,063
-324,358	800,000	-0,043	-0,091
-323,343	700,638	0,065	0,122
-322,329	-107,542	0,095	0,015
-321,314	-122,139	-0,092	0,011
-320,299	-77,691	0,074	0,018
-319,285	800,000	0,047	-0,114
-318,270	79,036	0,043	-0,033
-317,256	80,986	-0,051	0,040
-316,241	333,067	0,046	0,064
-315,226	800,000	0,010	-0,022
-314,212	-200,000	-0,011	0,073
-313,197	-200,000	-0,002	0,189
-312,183	187,692	0,089	-0,096
-311,168	-153,631	-0,138	0,007
-310,153	279,393	-0,078	-0,099
-309,139	800,000	0,042	-0,085
-308,124	-30,047	0,032	0,013
-307,110	-200,000	0,025	0,136
-306,095	-86,907	0,131	0,028
-305,080	-70,368	-0,070	0,019
-304,066	-93,454	0,145	-0,029
-303,051	176,980	-0,129	-0,135
-302,037	111,045	-0,044	-0,038
-301,022	-12,817	-0,033	0,015
-300,008	175,853	0,042	0,044
-298,993	196,707	0,021	0,023
-297,978	104,361	0,028	0,024
-296,964	86,966	-0,157	-0,124
-295,949	-100,910	-0,031	-0,005
-294,935	-40,421	0,140	-0,052
-293,920	-114,787	-0,057	0,008
-292,905	-200,000	0,001	-0,042
-291,891	610,084	0,023	-0,041
-290,876	-139,576	0,039	-0,003
-289,862	-200,000	0,017	0,075
-288,847	144,326	-0,083	-0,079
-287,832	-79,129	-0,094	-0,023
-286,818	-200,000	0,018	-0,073
-285,803	132,293	-0,076	-0,070
-284,789	-200,000	0,003	-0,099
-283,774	14,807	0,044	0,025
-282,759	220,739	-0,153	-0,175
-281,745	269,639	-0,111	-0,140
-280,730	-64,565	0,019	0,005
-279,716	11,757	0,127	-0,069
-278,701	-200,000	-0,016	-0,075
-277,686	2,056	0,011	0,006
-276,672	84,318	0,101	-0,079
-275,657	-200,000	0,004	-0,047
-274,643	-125,953	-0,113	0,012
-273,628	582,348	0,038	-0,066
-272,613	-138,313	0,039	0,003
-271,599	-91,638	0,100	-0,020
-270,584	-200,000	0,025	0,234
-269,570	-200,000	0,014	-0,053
-268,555	800,000	0,007	0,016
-267,540	-15,842	0,030	-0,014
-266,526	-200,000	0,019	-0,108
-265,511	-46,000	-0,088	0,031
-264,497	800,000	0,035	0,095
-263,482	84,112	0,127	0,099
-262,467	476,265	0,033	0,054
-261,453	-147,956	-0,107	0,006
-260,438	-200,000	0,015	-0,107
-259,424	2,635	-0,087	-0,045
-258,409	-100,573	0,075	-0,013
-257,395	-85,695	0,062	0,014
-256,380	-164,504	0,135	0,004
-255,365	3,558	0,023	0,012
-254,351	-67,529	-0,031	-0,009
-253,336	30,598	0,019	0,012
-252,322	170,692	-0,070	-0,071
-251,307	313,981	-0,105	-0,142
-250,292	-112,132	0,038	-0,005
-249,278	-200,000	0,022	0,101
-248,263	616,399	0,028	-0,051
-247,249	-200,000	0,059	0,209
-246,234	-200,000	-0,011	0,057
-245,219	294,930	0,058	-0,076
-244,205	-200,000	0,015	-0,100
-243,190	-29,774	-0,058	-0,023
-242,176	-200,000	0,007	-0,045
-241,161	-145,150	0,072	0,005
-240,146	20,594	-0,132	0,076
-239,132	-200,000	0,046	-0,168
-238,117	-195,026	-0,020	0,000
-237,103	800,000	0,037	-0,110
-236,088	11,178	-0,021	0,011
-235,073	107,464	0,028	-0,024
-234,059	-83,310	-0,170	0,039
-233,044	14,175	0,086	-0,048
-232,030	-200,000	0,039	0,166
-231,015	-200,000	-0,004	0,027
-230,000	-108,805	-0,089	0,013
-228,986	268,011	0,046	0,058
-227,971	226,157	0,051	0,059
-226,957	206,021	-0,051	-0,057
-225,942	48,241	0,170	-0,113
-224,927	152,559	-0,128	0,125
-223,913	-200,000	0,013	-0,123
-222,898	-108,016	0,147	-0,023
-221,884	-103,402	0,066	-0,011
-220,869	-200,000	0,008	-0,089
-219,855	-200,000	0,012	0,048
-218,840	-134,701	0,103	-0,009
-217,825	800,000	-0,020	0,048
-216,811	800,000	-0,035	-0,071
-215,796	800,000	-0,026	-0,076
-214,782	-200,000	-0,039	-0,165
-213,767	74,287	-0,125	0,093
-212,752	-57,992	0,067	-0,021
-211,738	-38,219	0,184	0,069
-210,723	-121,087	-0,052	-0,006
-209,709	800,000	0,026	0,071
-208,694	73,874	0,021	-0,016
-207,679	-200,000	0,026	-0,183
-206,665	432,361	0,063	0,097
-205,650	360,960	-0,035	0,050
-204,636	800,000	-0,039	0,087
-203,621	800,000	-0,054	0,145
-202,606	-200,000	0,016	0,080
-201,592	234,554	-0,154	-0,182
-200,577	8,089	0,153	-0,081
-199,563	-101,179	0,084	-0,014
-198,548	-200,000	0,013	-0,055
-197,533	14,596	-0,047	-0,026
-196,519	210,725	0,039	0,044
-195,504	-7,335	0,055	-0,026
-194,490	23,995	0,116	0,068
-193,475	157,237	-0,060	-0,059
-192,460	-192,721	-0,132	0,001
-191,446	182,713	0,053	-0,056
-190,431	-7,940	0,079	0,038
-189,417	0,883	-0,015	-0,008
-188,402	800,000	0,046	-0,100
-187,387	192,798	0,096	-0,103
-186,373	-200,000	0,010	-0,072
-185,358	0,346	0,092	0,046
-184,344	-200,000	0,022	0,167
-183,329	-67,013	0,083	-0,023
-182,315	-59,865	0,148	0,045
-181,300	-88,229	0,066	-0,014
-180,285	-26,241	-0,180	-0,075
-179,271	-103,660	-0,033	-0,006
-178,256	-75,622	0,087	0,022
-177,242	800,000	0,087	0,211
-176,227	17,067	0,064	0,036
-175,212	-200,000	0,023	0,123
-174,198	178,904	-0,035	-0,037
-173,183	353,518	-0,049	-0,069
-172,169	439,498	0,037	-0,058
-171,154	43,343	0,055	0,036
-170,139	87,138	-0,075	-0,059
-169,125	14,353	0,068	0,038
-168,110	-1,577	0,021	-0,011
-167,096	-200,000	-0,013	0,112
-166,081	-5,021	-0,042	-0,020
-165,066	117,872	-0,111	-0,097
-164,052	-152,443	0,089	-0,004
-163,037	-200,000	0,010	0,079
-162,023	186,379	0,050	-0,053
-161,008	-39,670	0,083	-0,031
-159,993	-200,000	0,009	-0,067
-158,979	-200,000	0,008	-0,027
-157,964	192,920	-0,033	0,035
-156,950	139,344	-0,134	-0,125
-155,935	-46,725	0,049	0,017
-154,920	356,961	0,053	0,075
-153,906	-200,000	-0,045	0,277
-152,891	55,270	-0,041	-0,028
-151,877	-200,000	0,015	-0,122
-150,862	30,942	-0,106	-0,064
-149,847	-200,000	0,017	-0,127
-148,833	376,080	-0,098	0,143
-147,818	46,355	0,050	0,033
-146,804	594,807	0,105	0,186
-145,789	90,272	-0,014	0,011
-144,775	214,497	-0,080	-0,090
-143,760	-79,086	-0,062	0,015
-142,745	-200,000	0,019	-0,084
-141,731	800,000	0,057	0,120
-140,716	800,000	0,035	-0,091
-139,702	361,337	0,045	0,064
-138,687	787,534	0,024	-0,046
-137,672	800,000	-0,022	-0,061
-136,658	-26,279	0,031	0,013
-135,643	-96,900	-0,283	-0,052
-134,629	-200,000	-0,004	-0,090
-133,614	-108,249	0,193	-0,029
-132,599	-200,000	0,007	0,038
-131,585	-200,000	-0,017	0,054
-130,570	-123,560	0,056	-0,006
-129,556	-138,917	-0,130	0,010
-128,541	-200,000	0,022	-0,112
-127,526	-1,330	0,149	0,074
-126,512	166,967	0,054	0,055
-125,497	329,525	-0,005	0,007
-124,483	-200,000	0,026	-0,091
-123,468	-127,734	0,147	-0,015
-122,453	122,161	-0,082	-0,073
-121,439	-131,068	0,054	0,005
-120,424	252,216	-0,123	-0,150
-119,410	-126,216	0,100	-0,010
-118,395	-200,000	-0,014	-0,104
