DTS Sentinel unit serial number:	SN410029Multiplexer serial number:	ORYXHardware model number:	OX2-SRSoftware version number:	ORYX F/W v4,00 Oryx Data Collector v3.7.2.0data status	okinstallation	B6 Nyhavnadifferential loss correction	single-endedforward channel	channel 2reverse channel	N/Adate	2023/12/10time	00:55:08forward acquisition time	300,00reverse acquisition time	0,00gamma	499,1914k internal	0,3126k external	0,3126temperature offset calibration	1,0000default loss term (dB/km)	0,3820temperature slope calibration	1,0000multiplexer offset coefficient	1,0000multiplexer slope coefficient	1,0000fibre end	0,00T internal ref (°C)	21,88T ext. ref 1 (°C)	5,68T ext. ref 2 (°C)	5,67length (m)	temperature (°C)	Stokes	anti-Stokes-744,400	-200,000	0,020	-0,067
-743,385	-131,417	-0,314	0,030
-742,371	-19,123	0,033	-0,015
-741,356	112,107	-0,135	0,121
-740,342	-73,324	0,134	0,036
-739,327	31,676	-0,272	0,174
-738,312	800,000	0,022	0,070
-737,298	-23,629	-0,118	0,053
-736,283	-76,135	0,058	0,015
-735,269	-7,135	-0,238	0,120
-734,254	-200,000	0,016	0,061
-733,239	-93,248	-0,434	-0,089
-732,225	12,393	0,064	-0,037
-731,210	-25,067	-0,043	0,019
-730,196	-63,739	-0,115	0,035
-729,181	-144,414	0,040	0,003
-728,167	-200,000	-0,017	-0,083
-727,152	215,552	-0,033	0,039
-726,137	-0,235	-0,070	0,037
-725,123	-200,000	0,004	0,057
-724,108	800,000	-0,031	0,088
-723,094	-78,774	-0,160	-0,040
-722,079	362,412	0,039	0,058
-721,064	-200,000	-0,034	-0,153
-720,050	78,099	0,037	-0,029
-719,035	171,095	-0,126	-0,135
-718,021	-52,889	0,071	0,024
-717,006	59,050	-0,249	-0,182
-715,991	612,668	-0,084	-0,157
-714,977	-2,104	0,191	-0,099
-713,962	192,671	-0,034	-0,038
-712,948	800,000	0,002	-0,004
-711,933	800,000	-0,039	0,123
-710,918	-28,517	-0,032	0,014
-709,904	6,101	-0,155	-0,085
-708,889	-129,920	-0,173	-0,017
-707,875	-63,337	-0,141	-0,043
-706,860	70,827	-0,059	-0,046
-705,845	43,595	0,036	0,025
-704,831	54,359	-0,096	-0,069
-703,816	-29,757	-0,115	0,048
-702,802	46,568	0,062	-0,042
-701,787	-200,000	-0,001	-0,029
-700,772	-54,214	0,074	-0,025
-699,758	104,203	-0,052	-0,045
-698,743	-138,460	0,069	0,006
-697,729	-200,000	0,016	0,090
-696,714	-1,144	-0,100	-0,053
-695,699	163,500	0,063	-0,066
-694,685	-159,205	-0,157	-0,006
-693,670	800,000	0,042	-0,131
-692,656	-13,306	0,052	-0,025
-691,641	-23,547	0,155	0,069
-690,627	294,892	0,059	0,081
-689,612	68,665	0,088	-0,067
-688,597	289,376	0,060	-0,081
-687,583	-47,039	-0,215	-0,078
-686,568	800,000	-0,036	-0,108
-685,554	-118,127	0,057	0,007
-684,539	800,000	0,026	-0,066
-683,524	-9,709	-0,113	-0,056
-682,510	-137,877	0,078	0,006
-681,495	10,771	-0,051	0,029
-680,481	107,952	-0,062	-0,054
-679,466	326,099	-0,045	-0,064
-678,451	-200,000	0,001	-0,174
-677,437	340,239	0,085	-0,124
-676,422	323,276	0,083	0,118
-675,408	-200,000	-0,001	-0,016
-674,393	-94,573	-0,110	0,022
-673,378	-200,000	-0,022	-0,121
-672,364	147,815	-0,141	0,141
-671,349	705,175	-0,015	-0,029
-670,335	65,097	0,068	0,051
-669,320	-105,354	-0,082	0,014
-668,305	324,253	0,046	-0,065
-667,291	83,958	0,024	-0,019
-666,276	-97,047	-0,162	-0,031
-665,262	-200,000	0,017	-0,100
-664,247	311,991	0,023	0,032
-663,232	800,000	0,018	0,057
-662,218	-200,000	0,015	0,228
-661,203	-107,697	0,062	0,010
-660,189	403,510	-0,058	0,091
-659,174	207,902	-0,031	0,036
-658,159	-200,000	0,012	-0,143
-657,145	-60,547	0,048	-0,015
-656,130	-200,000	-0,001	0,127
-655,116	11,763	0,097	0,055
-654,101	-200,000	-0,006	0,118
-653,086	411,600	-0,042	0,066
-652,072	-200,000	-0,029	-0,120
-651,057	101,078	-0,046	-0,040
-650,043	-200,000	-0,014	-0,057
-649,028	635,126	-0,103	-0,195
-648,014	281,595	0,167	-0,222
-646,999	-4,767	0,045	0,023
-645,984	268,892	-0,075	-0,097
-644,970	304,855	-0,049	-0,068
-643,955	-200,000	0,003	-0,025
-642,941	560,092	-0,074	0,134
-641,926	388,141	-0,025	-0,038
-640,911	393,926	-0,027	0,042
-639,897	-200,000	0,027	0,191
-638,882	-26,950	-0,072	0,031
-637,868	-200,000	-0,010	0,101
-636,853	143,689	-0,048	0,048
-635,838	217,103	-0,085	-0,100
-634,824	-20,514	0,094	-0,043
-633,809	-69,002	-0,031	0,009
-632,795	800,000	0,051	0,110
-631,780	-111,675	-0,137	-0,020
-630,765	12,749	-0,007	0,004
-629,751	-71,640	-0,152	-0,042
-628,736	139,185	-0,084	0,082
-627,722	364,745	0,065	0,097
-626,707	800,000	0,023	-0,062
-625,692	289,528	-0,023	-0,032
-624,678	-91,349	0,033	0,007
-623,663	146,289	-0,042	0,042
-622,649	-200,000	-0,010	-0,047
-621,634	-143,965	-0,059	-0,004
-620,619	800,000	-0,072	-0,177
-619,605	-26,574	0,150	0,065
-618,590	-23,706	-0,146	0,065
-617,576	-168,316	-0,114	-0,003
-616,561	-117,490	0,021	-0,003
-615,546	-200,000	0,010	-0,088
-614,532	-180,390	-0,064	-0,001
-613,517	-28,014	0,105	0,045
-612,503	161,881	-0,028	-0,029
-611,488	111,848	0,108	0,097
-610,474	800,000	-0,073	0,189
-609,459	-103,604	-0,019	-0,003
-608,444	-14,064	-0,103	-0,049
-607,430	800,000	0,030	0,093
-606,415	-32,863	-0,050	-0,021
-605,401	800,000	0,083	-0,219
-604,386	131,452	0,072	0,069
-603,371	800,000	-0,026	0,074
-602,357	-45,591	-0,168	0,061
-601,342	-98,617	-0,030	-0,006
-600,328	-158,624	-0,140	0,006
-599,313	-200,000	-0,057	-0,198
-598,298	-200,000	0,007	-0,105
-597,284	-125,701	0,047	0,005
-596,269	-67,295	0,077	0,022
-595,255	800,000	0,014	-0,037
-594,240	144,437	-0,052	-0,051
-593,225	95,955	-0,127	-0,108
-592,211	-200,000	0,008	-0,111
-591,196	-200,000	-0,026	0,101
-590,182	289,844	0,058	0,078
-589,167	273,260	-0,065	0,085
-588,152	165,190	-0,072	0,075
-587,138	-200,000	0,030	0,109
-586,123	193,495	-0,085	0,096
-585,109	-200,000	0,008	0,092
-584,094	-150,639	-0,060	0,003
-583,079	-200,000	-0,002	-0,053
-582,065	-81,253	-0,104	-0,025
-581,050	273,899	0,034	0,045
-580,036	-91,465	-0,042	0,009
-579,021	27,295	-0,082	0,051
-578,006	800,000	-0,079	0,165
-576,992	800,000	0,082	0,176
-575,977	433,034	0,058	-0,093
-574,963	271,703	0,028	-0,037
-573,948	-200,000	-0,028	-0,151
-572,934	339,203	-0,082	-0,119
-571,919	-65,789	-0,116	0,034
-570,904	-53,584	-0,084	-0,028
-569,890	233,383	0,011	0,014
-568,875	-200,000	-0,022	-0,125
-567,861	800,000	0,014	0,032
-566,846	169,816	-0,069	0,073
-565,831	800,000	-0,033	-0,081
-564,817	-39,965	-0,118	-0,045
-563,802	-38,724	-0,112	0,044
-562,788	67,782	-0,128	-0,097
-561,773	-200,000	-0,000	-0,029
-560,758	-200,000	-0,021	0,143
-559,744	-127,675	0,111	-0,012
-558,729	120,352	-0,073	-0,067
-557,715	113,218	-0,077	-0,069
-556,700	-200,000	-0,018	-0,084
-555,685	-79,021	-0,045	0,011
-554,671	-43,727	0,122	-0,045
-553,656	-88,678	-0,059	-0,013
-552,642	-129,055	0,058	-0,006
-551,627	503,176	0,002	-0,003
-550,612	263,635	0,027	0,035
-549,598	800,000	-0,072	-0,174
-548,583	192,239	0,064	0,072
-547,569	272,695	0,059	0,077
-546,554	41,803	0,074	0,049
-545,539	523,809	-0,033	-0,057
-544,525	-94,913	-0,128	0,025
-543,510	22,262	-0,090	0,054
-542,496	28,149	0,143	0,089
-541,481	284,902	-0,074	0,099
-540,466	-75,122	0,054	0,014
-539,452	140,075	-0,068	0,067
-538,437	724,508	-0,019	0,037
-537,423	400,614	0,011	0,018
-536,408	535,535	-0,097	0,171
-535,393	54,190	0,082	0,058
-534,379	339,006	0,017	-0,024
-533,364	-131,168	-0,129	-0,013
-532,350	-103,316	0,027	-0,005
-531,335	-200,000	-0,008	0,095
-530,321	193,536	-0,022	0,025
-529,306	75,825	0,105	-0,082
-528,291	40,171	-0,133	-0,088
-527,277	-93,095	0,065	0,013
-526,262	200,990	0,089	-0,101
-525,248	-115,276	-0,120	-0,017
-524,233	-200,000	0,032	0,111
-523,218	800,000	-0,064	0,177
-522,204	41,980	-0,047	-0,032
-521,189	-81,608	-0,129	0,031
-520,175	-95,626	-0,147	0,029
-519,160	-156,585	-0,103	-0,005
-518,145	97,031	0,038	-0,032
-517,131	239,115	0,066	0,082
-516,116	-200,000	0,027	0,100
-515,102	-200,000	-0,013	0,126
-514,087	-89,156	-0,123	0,026
-513,072	-200,000	0,000	-0,048
-512,058	47,881	-0,058	-0,040
-511,043	-200,000	0,031	0,158
-510,029	-200,000	0,005	0,084
-509,014	-74,308	-0,141	-0,037
-507,999	800,000	0,013	0,032
-506,985	-106,321	-0,106	0,017
-505,970	-79,558	0,053	0,013
-504,956	-200,000	-0,010	-0,146
-503,941	-128,253	-0,035	0,004
-502,926	-50,708	0,141	-0,049
-501,912	205,345	0,096	0,110
-500,897	203,416	-0,039	-0,045
-499,883	-200,000	0,052	-0,192
-498,868	10,213	-0,152	-0,085
-497,853	800,000	0,026	0,065
-496,839	75,959	-0,033	-0,026
-495,824	88,242	-0,071	0,058
-494,810	-200,000	0,026	0,092
-493,795	-179,743	-0,058	0,001
-492,781	197,601	-0,058	-0,066
-491,766	422,622	-0,030	-0,048
-490,751	-67,725	0,133	-0,038
-489,737	-71,744	-0,020	-0,006
-488,722	-200,000	0,095	0,000
-487,708	-200,000	0,003	0,043
-486,693	-24,267	0,084	0,037
-485,678	-4,386	0,022	-0,011
-484,664	-53,793	-0,093	-0,031
-483,649	-200,000	0,009	-0,143
-482,635	800,000	0,049	-0,122
-481,620	-175,815	0,047	0,001
-480,605	108,209	0,021	0,019
-479,591	457,260	0,013	0,021
-478,576	245,691	-0,016	-0,020
-477,562	-200,000	-0,004	-0,015
-476,547	800,000	0,036	-0,115
-475,532	93,807	0,032	0,026
-474,518	447,059	0,092	-0,150
-473,503	-73,336	-0,018	0,005
-472,489	327,482	0,076	0,108
-471,474	172,247	-0,063	0,067
-470,459	-200,000	0,005	0,056
-469,445	163,620	0,030	0,031
-468,430	-0,124	0,081	-0,042
-467,416	-115,498	0,066	-0,009
-466,401	-19,805	0,044	-0,020
-465,386	-200,000	0,036	0,127
-464,372	4,550	-0,121	0,065
-463,357	-77,871	0,098	0,025
-462,343	-95,941	0,076	0,015
-461,328	-200,000	-0,001	0,004
-460,313	174,101	0,149	0,159
-459,299	-200,000	0,002	-0,006
-458,284	296,559	-0,062	-0,084
-457,270	800,000	-0,040	0,091
-456,255	-200,000	-0,002	-0,031
-455,241	800,000	-0,080	0,169
-454,226	53,567	-0,056	-0,040
-453,211	-6,960	0,090	-0,045
-452,197	-200,000	-0,003	0,116
-451,182	109,058	0,113	0,099
-450,168	557,164	0,078	0,139
-449,153	-168,457	-0,249	-0,007
-448,138	4,733	-0,101	-0,055
-447,124	800,000	-0,046	-0,110
-446,109	-69,412	-0,087	0,024
-445,095	-159,348	-0,114	-0,005
-444,080	-9,188	0,111	0,055
-443,065	-58,043	0,063	-0,020
-442,051	263,104	-0,064	-0,083
-441,036	800,000	-0,014	0,041
-440,022	-200,000	0,000	-0,087
-439,007	-42,640	0,055	-0,020
-437,992	433,101	0,063	0,101
-436,978	382,858	0,087	0,132
-435,963	130,905	0,068	-0,064
-434,949	-200,000	0,003	-0,050
-433,934	197,619	-0,044	0,049
-432,919	-184,151	-0,105	-0,001
-431,905	-200,000	0,039	-0,193
-430,890	-7,523	-0,025	-0,012
-429,876	-163,512	0,101	0,003
-428,861	-200,000	-0,014	0,140
-427,846	-200,000	0,034	-0,129
-426,832	-176,412	0,085	-0,002
-425,817	12,803	-0,036	-0,021
-424,803	-200,000	-0,001	0,016
-423,788	-200,000	-0,003	-0,022
-422,773	2,599	-0,070	0,037
-421,759	-200,000	0,017	-0,055
-420,744	-200,000	-0,048	-0,161
-419,730	-3,912	0,173	-0,088
-418,715	-131,892	-0,094	0,009
-417,701	434,362	0,032	-0,051
-416,686	-3,630	0,083	-0,042
-415,671	54,808	0,127	-0,090
-414,657	-200,000	0,035	-0,129
-413,642	111,152	0,089	0,078
-412,628	354,188	-0,054	0,080
-411,613	-140,880	-0,074	0,006
-410,598	-43,973	-0,044	-0,016
-409,584	-46,299	0,056	0,020
-408,569	800,000	0,034	0,098
-407,555	800,000	0,055	0,156
-406,540	-126,024	0,097	0,011
-405,525	-200,000	0,012	-0,044
-404,511	-200,000	-0,013	-0,095
-403,496	-74,374	0,107	-0,028
-402,482	-200,000	-0,014	0,071
-401,467	-48,061	0,103	-0,036
-400,452	313,439	0,055	0,076
-399,438	10,985	0,207	0,116
-398,423	85,786	-0,040	-0,032
-397,409	800,000	-0,032	-0,095
-396,394	-200,000	-0,013	0,092
-395,379	91,150	-0,053	0,044
-394,365	113,798	0,092	0,082
-393,350	-44,444	0,165	0,060
-392,336	196,442	0,078	0,087
-391,321	-43,934	-0,090	-0,033
-390,306	655,488	0,041	-0,078
-389,292	10,279	-0,220	-0,123
-388,277	-131,537	-0,087	0,008
-387,263	257,051	0,032	-0,040
-386,248	-102,608	0,108	-0,019
-385,233	-200,000	-0,018	-0,073
-384,219	-200,000	-0,032	-0,132
-383,204	-29,790	-0,076	-0,032
-382,190	405,821	-0,080	-0,124
-381,175	340,979	-0,044	0,063
-380,160	753,434	-0,042	-0,084
-379,146	7,173	0,113	-0,062
-378,131	148,364	-0,075	0,075
-377,117	414,208	-0,026	-0,040
-376,102	-156,190	0,101	-0,005
-375,088	-200,000	-0,009	-0,037
-374,073	-41,503	0,089	-0,034
-373,058	-200,000	-0,049	0,163
-372,044	-166,072	-0,122	-0,004
-371,029	456,613	0,064	0,105
-370,015	-3,693	-0,054	-0,027
-369,000	-139,588	-0,125	0,010
-367,985	-45,272	-0,092	0,033
-366,971	178,226	0,064	-0,069
-365,956	800,000	-0,021	0,061
-364,942	-119,213	0,103	-0,013
-363,927	-200,000	-0,027	-0,132
-362,912	-103,086	0,105	0,018
-361,898	601,217	0,028	0,052
-360,883	-58,539	-0,143	-0,045
-359,869	-98,892	-0,107	0,020
-358,854	547,750	0,073	0,129
-357,839	239,862	0,099	0,121
-356,825	249,342	0,075	-0,094
-355,810	-200,000	-0,001	-0,071
-354,796	126,932	0,043	-0,040
-353,781	-144,739	0,086	-0,006
-352,766	86,321	-0,116	-0,094
-351,752	-28,408	0,107	-0,045
-350,737	61,805	0,054	-0,039
-349,723	87,254	0,046	0,037
-348,708	-200,000	0,016	-0,189
-347,693	744,333	0,019	-0,038
-346,679	83,474	-0,057	-0,045
-345,664	-200,000	-0,020	-0,087
-344,650	-67,710	0,053	0,015
-343,635	154,387	-0,065	0,065
-342,620	15,864	0,087	0,050
-341,606	-6,525	-0,044	-0,022
-340,591	-83,096	-0,072	-0,017
-339,577	800,000	-0,043	-0,105
-338,562	-200,000	-0,007	-0,094
-337,548	800,000	-0,021	0,045
-336,533	360,135	0,054	0,079
-335,518	104,197	0,086	0,075
-334,504	-164,864	0,074	0,002
-333,489	-200,000	0,029	0,114
-332,475	111,547	-0,152	0,134
-331,460	800,000	-0,048	-0,142
-330,445	-200,000	0,032	-0,129
-329,431	-200,000	-0,001	-0,047
-328,416	-200,000	0,007	0,127
-327,402	26,164	0,113	0,069
-326,387	160,472	0,038	0,039
-325,372	27,590	0,035	-0,021
-324,358	75,079	-0,036	0,028
-323,343	-93,678	-0,117	-0,023
-322,329	-200,000	-0,016	0,144
-321,314	-200,000	0,000	0,173
-320,299	-79,231	0,128	0,032
-319,285	476,758	-0,058	0,097
-318,270	-150,865	0,041	-0,002
-317,256	-39,883	-0,135	-0,051
-316,241	800,000	-0,028	-0,067
-315,226	-200,000	0,002	0,026
-314,212	-144,924	0,187	-0,012
-313,197	4,780	0,139	-0,075
-312,183	-200,000	-0,008	0,144
-311,168	84,586	-0,088	-0,071
-310,153	216,851	0,040	0,047
-309,139	71,034	-0,031	-0,023
-308,124	800,000	-0,067	0,155
-307,110	-200,000	-0,011	0,107
-306,095	480,376	0,054	0,090
-305,080	-200,000	-0,008	0,058
-304,066	-39,427	-0,004	-0,002
-303,051	205,051	-0,079	-0,090
-302,037	-31,457	0,043	0,018
-301,022	-69,865	-0,076	0,021
-300,008	195,014	-0,033	0,037
-298,993	-68,901	0,037	-0,010
-297,978	742,425	0,091	-0,181
-296,964	-82,225	-0,069	-0,016
-295,949	-43,950	-0,145	-0,053
-294,935	307,002	0,084	-0,114
-293,920	607,261	0,083	0,152
-292,905	-54,842	0,205	0,067
-291,891	800,000	0,067	0,182
-290,876	-20,316	0,151	0,068
-289,862	-32,957	0,079	0,032
-288,847	-200,000	0,026	-0,144
-287,832	800,000	0,030	-0,067
-286,818	69,436	0,057	-0,043
-285,803	-3,201	-0,072	0,036
-284,789	-54,354	-0,010	0,003
-283,774	-200,000	-0,008	-0,069
-282,759	-61,218	-0,050	-0,015
-281,745	62,362	0,119	-0,087
-280,730	27,623	-0,045	-0,028
-279,716	97,035	-0,017	0,014
-278,701	-200,000	-0,010	0,048
-277,686	-77,062	0,079	0,020
-276,672	-200,000	0,024	0,137
-275,657	-200,000	0,005	0,034
-274,643	353,976	0,081	0,117
-273,628	174,339	0,013	-0,014
-272,613	-44,090	-0,048	-0,018
-271,599	-56,513	0,064	0,021
-270,584	31,809	0,115	0,072
-269,570	22,351	-0,071	0,042
-268,555	68,248	-0,024	0,018
-267,540	-200,000	-0,008	-0,072
-266,526	-200,000	-0,003	-0,015
-265,511	-43,061	-0,025	-0,009
-264,497	38,915	0,133	-0,087
-263,482	284,415	0,081	0,107
-262,467	-200,000	0,001	-0,026
-261,453	259,704	0,074	0,094
-260,438	-200,000	-0,000	-0,044
-259,424	-130,344	-0,164	0,016
-258,409	327,251	0,093	-0,130
-257,395	525,568	-0,023	0,040
-256,380	-36,209	0,050	-0,020
-255,365	-200,000	-0,001	-0,021
-254,351	-63,648	0,083	-0,025
-253,336	-110,060	0,012	0,002
-252,322	-200,000	-0,012	-0,107
-251,307	-200,000	-0,001	-0,045
-250,292	41,042	-0,103	-0,068
-249,278	251,918	0,035	-0,043
-248,263	124,270	0,080	0,074
-247,249	20,217	-0,094	0,055
-246,234	-107,302	0,150	-0,024
-245,219	-33,525	-0,069	0,028
-244,205	359,859	-0,017	0,024
-243,190	168,833	-0,020	-0,021
-242,176	-25,594	0,087	-0,037
-241,161	169,329	0,060	0,063
-240,146	51,843	0,041	-0,028
-239,132	-130,886	-0,051	-0,005
-238,117	800,000	0,048	-0,110
-237,103	33,707	0,032	-0,020
-236,088	800,000	0,012	-0,029
-235,073	292,941	-0,066	-0,088
-234,059	361,157	0,076	0,111
-233,044	-30,809	0,120	0,049
-232,030	800,000	0,057	-0,122
-231,015	13,784	-0,091	-0,051
-230,000	800,000	-0,018	-0,044
-228,986	214,347	0,052	0,060
-227,971	-65,135	-0,086	0,025
-226,957	-104,034	0,143	0,024
-225,942	-32,514	0,096	-0,039
-224,927	182,162	-0,092	0,099
-223,913	386,419	-0,014	-0,021
-222,898	800,000	-0,015	-0,033
-221,884	-200,000	-0,010	0,132
-220,869	-107,967	0,117	0,018
-219,855	359,243	0,058	-0,084
-218,840	200,136	0,090	0,101
-217,825	-66,821	-0,109	0,031
-216,811	179,516	-0,070	-0,075
-215,796	87,574	-0,092	-0,074
-214,782	-15,532	-0,065	-0,030
-213,767	-200,000	-0,019	0,210
-212,752	220,712	-0,012	-0,015
-211,738	-3,412	-0,162	-0,082
-210,723	88,305	0,174	-0,141
-209,709	-60,685	0,046	-0,014
-208,694	-145,871	-0,069	-0,004
-207,679	-76,279	-0,098	0,025
-206,665	415,968	0,080	0,125
-205,650	800,000	0,028	0,058
-204,636	-155,807	0,085	-0,004
-203,621	-200,000	-0,003	-0,075
-202,606	38,373	-0,074	-0,048
-201,592	-50,023	-0,066	-0,023
-200,577	115,968	-0,075	-0,067
-199,563	-169,659	-0,007	-0,000
-198,548	-78,099	0,166	-0,041
-197,533	-200,000	-0,008	0,031
-196,519	-200,000	-0,012	-0,053
-195,504	-12,082	-0,048	-0,023
-194,490	-78,734	-0,108	-0,027
-193,475	92,183	-0,089	-0,073
-192,460	800,000	0,033	-0,087
-191,446	64,271	0,081	0,059
-190,431	35,961	-0,037	0,023
-189,417	251,590	-0,045	-0,056
-188,402	800,000	-0,044	-0,093
-187,387	-200,000	-0,010	0,139
-186,373	-200,000	0,026	-0,099
-185,358	32,103	0,023	0,015
-184,344	-200,000	-0,026	0,107
-183,329	800,000	0,048	-0,099
-182,315	163,225	-0,047	-0,048
-181,300	-96,512	0,060	0,011
-180,285	800,000	0,035	-0,102
-179,271	99,359	0,107	-0,090
-178,256	-49,440	0,064	0,022
-177,242	46,131	0,059	-0,039
-176,227	-64,734	0,109	0,032
-175,212	-37,312	0,101	-0,039
-174,198	101,765	0,042	-0,036
-173,183	-24,995	-0,117	-0,050
-172,169	121,024	-0,071	0,065
-171,154	88,925	0,061	0,049
-170,139	-200,000	0,002	0,034
-169,125	-62,039	0,069	0,021
-168,110	-7,588	0,115	0,056
-167,096	-200,000	-0,006	-0,038
-166,081	71,482	-0,023	-0,017
-165,066	-200,000	-0,026	0,118
-164,052	-119,990	0,039	0,005
-163,037	-200,000	-0,004	-0,064
-162,023	-190,580	-0,100	0,001
-161,008	90,136	0,094	-0,077
-159,993	630,768	0,028	-0,052
-158,979	-59,049	-0,077	-0,024
-157,964	-200,000	0,006	0,032
-156,950	800,000	-0,029	-0,094
-155,935	24,543	-0,064	-0,038
-154,920	-200,000	0,008	0,046
-153,906	-117,277	0,016	0,002
-152,891	-52,959	-0,017	-0,006
-151,877	37,613	0,055	-0,036
-150,862	-97,300	-0,088	-0,016
-149,847	-50,063	0,039	0,013
-148,833	178,977	-0,074	-0,079
-147,818	229,971	0,018	-0,022
-146,804	-200,000	-0,003	-0,029
-145,789	39,808	-0,113	0,074
-144,775	-150,045	-0,061	-0,003
-143,760	93,325	0,064	0,052
-142,745	-200,000	0,010	0,051
-141,731	800,000	-0,029	-0,064
-140,716	-200,000	0,004	0,049
-139,702	-200,000	-0,013	0,047
-138,687	-112,501	-0,048	-0,007
-137,672	73,565	-0,061	0,046
-136,658	129,604	0,040	-0,038
-135,643	-196,679	-0,116	0,001
-134,629	-131,881	0,059	0,006
-133,614	800,000	0,040	0,122
-132,599	-200,000	-0,017	-0,124
-131,585	-200,000	0,018	-0,075
-130,570	-200,000	-0,025	-0,102
-129,556	-200,000	0,001	-0,090
-128,541	66,723	-0,007	0,005
-127,526	-200,000	0,005	0,039
-126,512	514,431	0,073	-0,124
-125,497	800,000	0,037	0,094
-124,483	-200,000	-0,007	0,051
-123,468	-42,797	-0,038	-0,014
-122,453	-200,000	-0,008	-0,076
-121,439	11,822	-0,113	0,063
-120,424	191,017	-0,010	-0,011
-119,410	-28,405	0,115	0,048
