DTS Sentinel unit serial number:	SN410029Multiplexer serial number:	ORYXHardware model number:	OX2-SRSoftware version number:	ORYX F/W v4,00 Oryx Data Collector v3.7.2.0data status	okinstallation	B6 Nyhavnadifferential loss correction	single-endedforward channel	channel 2reverse channel	N/Adate	2023/12/11time	08:30:08forward acquisition time	300,00reverse acquisition time	0,00gamma	499,1914k internal	0,3130k external	0,3130temperature offset calibration	1,0000default loss term (dB/km)	0,3820temperature slope calibration	1,0000multiplexer offset coefficient	1,0000multiplexer slope coefficient	1,0000fibre end	0,00T internal ref (°C)	17,81T ext. ref 1 (°C)	0,09T ext. ref 2 (°C)	0,09length (m)	temperature (°C)	Stokes	anti-Stokes-744,400	-143,939	0,171	-0,012
-743,385	-188,780	-0,370	-0,003
-742,371	-140,502	0,089	-0,007
-741,356	20,229	-0,218	0,130
-740,342	-9,850	-0,032	0,016
-739,327	-54,007	-0,233	0,078
-738,312	-47,021	0,119	0,043
-737,298	-181,958	-0,285	-0,004
-736,283	274,007	0,064	-0,084
-735,269	7,690	-0,357	0,198
-734,254	25,744	0,151	0,093
-733,239	-39,012	-0,430	-0,167
-732,225	-107,181	0,246	0,040
-731,210	800,000	0,017	0,050
-730,196	314,631	0,020	-0,029
-729,181	-76,630	0,132	-0,034
-728,167	226,844	0,026	0,032
-727,152	264,165	-0,028	0,037
-726,137	-55,519	-0,226	-0,075
-725,123	-200,000	0,025	-0,137
-724,108	-102,910	-0,072	0,013
-723,094	119,540	-0,128	0,118
-722,079	351,814	0,019	0,028
-721,064	-23,961	0,068	-0,030
-720,050	80,177	-0,050	-0,040
-719,035	-200,000	0,007	0,072
-718,021	224,359	-0,011	-0,013
-717,006	-200,000	0,006	0,034
-715,991	-92,304	-0,131	0,027
-714,977	564,012	-0,039	-0,070
-713,962	800,000	-0,047	-0,121
-712,948	21,867	-0,102	-0,062
-711,933	-128,292	-0,068	0,007
-710,918	-200,000	-0,007	0,084
-709,904	-82,134	-0,101	-0,024
-708,889	-200,000	0,029	-0,097
-707,875	548,482	-0,112	-0,200
-706,860	-115,014	-0,043	0,006
-705,845	118,702	0,025	0,023
-704,831	-127,402	0,045	-0,005
-703,816	-83,977	0,029	-0,007
-702,802	-68,809	0,080	-0,023
-701,787	42,782	-0,191	-0,129
-700,772	137,843	0,082	0,080
-699,758	308,998	0,060	-0,083
-698,743	-43,809	0,143	0,053
-697,729	125,643	0,068	0,063
-696,714	32,835	-0,084	0,054
-695,699	-166,793	0,126	0,004
-694,685	50,836	-0,085	-0,060
-693,670	139,947	0,067	-0,066
-692,656	-200,000	0,017	-0,058
-691,641	-200,000	-0,001	0,018
-690,627	144,277	-0,109	-0,108
-689,612	74,615	0,099	-0,077
-688,597	191,467	-0,113	-0,126
-687,583	-84,955	-0,118	0,027
-686,568	587,438	0,057	-0,105
-685,554	-81,906	0,050	-0,012
-684,539	-74,919	-0,107	-0,028
-683,524	593,738	0,070	-0,129
-682,510	378,110	0,062	-0,095
-681,495	385,536	0,030	0,046
-680,481	-200,000	-0,016	-0,059
-679,466	12,772	-0,133	0,076
-678,451	73,959	0,013	0,010
-677,437	264,817	0,044	-0,056
-676,422	800,000	0,015	0,042
-675,408	45,206	-0,140	0,096
-674,393	-200,000	-0,016	0,079
-673,378	-3,379	-0,183	-0,094
-672,364	-12,065	-0,083	-0,040
-671,349	101,051	-0,115	-0,099
-670,335	-200,000	0,038	-0,129
-669,320	-168,278	0,135	-0,004
-668,305	72,441	-0,074	0,057
-667,291	-69,529	-0,070	0,020
-666,276	326,983	-0,027	0,038
-665,262	124,852	0,077	0,072
-664,247	615,083	-0,025	-0,047
-663,232	-47,547	-0,093	0,033
-662,218	800,000	-0,032	0,077
-661,203	3,238	-0,057	0,031
-660,189	-34,379	-0,043	-0,018
-659,174	49,518	-0,179	-0,125
-658,159	115,160	-0,087	-0,079
-657,145	-200,000	-0,006	0,046
-656,130	-7,866	0,058	0,029
-655,116	800,000	0,043	-0,089
-654,101	-112,166	0,055	0,008
-653,086	60,578	-0,057	0,042
-652,072	309,751	0,017	-0,024
-651,057	-81,422	0,156	0,038
-650,043	791,775	0,051	-0,104
-649,028	-120,325	-0,048	-0,006
-648,014	-115,132	-0,060	0,008
-646,999	-200,000	-0,005	0,059
-645,984	20,064	0,070	0,042
-644,970	97,413	-0,061	0,052
-643,955	-70,189	-0,038	-0,011
-642,941	376,603	-0,038	-0,058
-641,926	28,092	0,027	-0,017
-640,911	207,815	-0,064	-0,074
-639,897	-200,000	-0,024	0,101
-638,882	356,425	-0,054	-0,080
-637,868	-49,553	0,037	0,013
-636,853	-200,000	-0,031	-0,104
-635,838	204,846	0,012	-0,014
-634,824	-116,893	-0,037	0,005
-633,809	689,753	0,029	0,057
-632,795	162,781	0,077	-0,080
-631,780	45,675	0,056	-0,039
-630,765	312,668	-0,071	-0,098
-629,751	76,015	-0,049	-0,038
-628,736	416,809	-0,012	0,019
-627,722	32,546	0,114	0,073
-626,707	-200,000	-0,008	0,071
-625,692	-144,108	0,125	-0,009
-624,678	117,772	0,089	-0,081
-623,663	-76,983	-0,073	0,019
-622,649	117,103	0,072	0,065
-621,634	-56,126	-0,147	-0,048
-620,619	57,634	-0,097	0,070
-619,605	800,000	-0,006	0,018
-618,590	132,942	0,086	0,082
-617,576	-35,889	0,054	-0,022
-616,561	82,092	-0,030	-0,024
-615,546	720,866	-0,021	0,043
-614,532	-73,640	-0,082	0,022
-613,517	-200,000	0,014	-0,140
-612,503	-200,000	0,001	-0,006
-611,488	-78,782	0,118	-0,030
-610,474	60,417	0,041	0,030
-609,459	-200,000	-0,001	-0,036
-608,444	-49,513	-0,134	0,047
-607,430	-200,000	-0,019	0,136
-606,415	384,246	-0,042	-0,064
-605,401	110,704	0,063	-0,056
-604,386	-200,000	-0,001	0,134
-603,371	355,140	0,047	-0,070
-602,357	-200,000	0,002	-0,030
-601,342	-200,000	-0,018	-0,109
-600,328	155,214	-0,042	-0,042
-599,313	146,237	-0,054	0,054
-598,298	800,000	-0,024	-0,068
-597,284	-200,000	0,029	0,102
-596,269	39,996	-0,021	0,014
-595,255	237,514	0,110	-0,135
-594,240	800,000	0,057	0,138
-593,225	800,000	0,031	0,066
-592,211	99,853	-0,050	-0,042
-591,196	-107,267	-0,019	0,003
-590,182	-200,000	-0,000	0,011
-589,167	-8,750	0,077	-0,038
-588,152	-120,122	-0,079	-0,010
-587,138	328,196	0,071	-0,100
-586,123	800,000	-0,007	-0,021
-585,109	107,422	-0,055	0,048
-584,094	-168,585	0,082	-0,002
-583,079	90,234	-0,051	0,042
-582,065	162,204	0,126	0,130
-581,050	-200,000	-0,001	0,075
-580,036	181,521	0,013	-0,015
-579,021	-200,000	-0,016	-0,065
-578,006	-55,675	-0,024	0,008
-576,992	-98,595	-0,075	-0,014
-575,977	-200,000	-0,001	-0,076
-574,963	569,047	-0,069	0,124
-573,948	-59,649	-0,027	0,009
-572,934	800,000	0,022	0,051
-571,919	199,820	0,070	0,080
-570,904	-50,372	-0,108	0,037
-569,890	439,635	0,053	0,086
-568,875	800,000	0,044	0,098
-567,861	659,979	0,017	-0,032
-566,846	-45,476	-0,082	-0,030
-565,831	-200,000	-0,001	0,181
-564,817	754,155	-0,055	-0,109
-563,802	800,000	0,068	-0,170
-562,788	142,755	0,052	-0,051
-561,773	800,000	0,027	-0,062
-560,758	-200,000	-0,024	0,079
-559,744	569,984	0,055	-0,098
-558,729	-200,000	-0,016	-0,069
-557,715	-42,615	-0,043	0,016
-556,700	500,135	-0,047	0,080
-555,685	36,335	-0,061	-0,040
-554,671	-183,061	-0,019	-0,000
-553,656	23,544	-0,055	-0,033
-552,642	-82,957	-0,087	0,020
-551,627	274,654	0,049	-0,064
-550,612	343,090	-0,092	0,133
-549,598	-5,604	-0,110	-0,055
-548,583	-71,493	-0,166	-0,046
-547,569	-200,000	0,026	0,173
-546,554	-200,000	-0,012	0,061
-545,539	-53,622	-0,034	0,011
-544,525	133,459	0,040	-0,038
-543,510	-107,307	-0,036	0,006
-542,496	750,755	0,036	-0,072
-541,481	-200,000	-0,008	-0,204
-540,466	610,611	-0,062	0,116
-539,452	-200,000	0,023	0,079
-538,437	800,000	0,073	0,196
-537,423	800,000	0,019	-0,051
-536,408	111,576	-0,109	0,097
-535,393	800,000	0,079	-0,184
-534,379	-200,000	-0,025	-0,177
-533,364	-200,000	-0,017	0,060
-532,350	433,623	0,058	-0,094
-531,335	800,000	-0,018	-0,049
-530,321	-64,925	0,135	0,040
-529,306	223,905	0,025	-0,030
-528,291	128,518	-0,067	0,063
-527,277	800,000	-0,007	0,017
-526,262	-29,891	-0,038	-0,016
-525,248	-83,299	-0,080	0,019
-524,233	2,858	0,071	0,038
-523,218	-75,666	0,105	0,027
-522,204	787,092	-0,028	0,056
-521,189	171,977	-0,075	0,079
-520,175	-200,000	-0,011	-0,077
-519,160	800,000	-0,033	0,086
-518,145	-200,000	0,025	0,171
-517,131	800,000	0,027	-0,066
-516,116	-127,882	0,220	-0,023
-515,102	-200,000	-0,008	0,062
-514,087	800,000	0,059	0,154
-513,072	170,010	-0,080	0,085
-512,058	64,216	0,069	-0,051
-511,043	-200,000	-0,001	-0,087
-510,029	800,000	0,017	0,052
-509,014	149,500	0,107	0,107
-507,999	-200,000	-0,031	0,120
-506,985	-200,000	0,007	0,094
-505,970	-40,360	0,057	0,022
-504,956	800,000	-0,058	-0,172
-503,941	-68,446	-0,028	-0,008
-502,926	15,656	0,092	0,053
-501,912	-167,103	0,072	0,002
-500,897	277,820	-0,085	-0,111
-499,883	-177,688	-0,159	0,003
-498,868	-200,000	0,020	0,067
-497,853	-200,000	-0,022	-0,104
-496,839	-3,259	0,083	-0,043
-495,824	-98,846	-0,020	0,004
-494,810	-148,983	0,094	0,006
-493,795	166,108	0,076	0,079
-492,781	-200,000	-0,030	-0,155
-491,766	97,939	-0,067	-0,057
-490,751	-100,321	-0,157	-0,028
-489,737	260,261	-0,092	0,118
-488,722	353,911	0,048	0,070
-487,708	-200,000	-0,001	-0,007
-486,693	-88,699	0,044	-0,010
-485,678	387,089	-0,037	0,057
-484,664	-2,607	-0,110	0,057
-483,649	343,596	0,037	-0,054
-482,635	-200,000	0,012	-0,045
-481,620	-26,154	-0,019	0,008
-480,605	-162,490	-0,048	0,002
-479,591	-168,151	0,088	0,002
-478,576	-200,000	-0,036	-0,148
-477,562	56,557	-0,084	-0,060
-476,547	-60,876	0,095	-0,029
-475,532	-200,000	-0,002	-0,182
-474,518	-200,000	-0,003	0,014
-473,503	13,730	0,084	-0,048
-472,489	-69,794	0,161	-0,045
-471,474	-65,582	-0,117	0,034
-470,459	-200,000	0,010	0,064
-469,445	352,461	-0,068	-0,100
-468,430	-200,000	0,017	-0,070
-467,416	-200,000	-0,014	-0,051
-466,401	800,000	-0,004	-0,011
-465,386	180,019	0,138	0,149
-464,372	-200,000	0,006	-0,089
-463,357	-29,143	0,068	0,028
-462,343	-24,048	-0,222	-0,097
-461,328	-200,000	0,017	-0,081
-460,313	-200,000	0,031	0,156
-459,299	800,000	0,057	0,126
-458,284	508,296	-0,054	0,093
-457,270	142,078	0,051	0,049
-456,255	-3,200	-0,083	0,042
-455,241	2,015	-0,167	-0,088
-454,226	137,694	-0,097	-0,094
-453,211	3,392	0,074	0,039
-452,197	22,926	-0,166	0,100
-451,182	145,117	0,057	0,056
-450,168	-200,000	-0,014	-0,120
-449,153	65,324	-0,168	-0,125
-448,138	92,519	-0,092	0,076
-447,124	800,000	0,011	0,033
-446,109	15,712	0,076	0,044
-445,095	-87,453	0,069	0,015
-444,080	-200,000	0,068	0,231
-443,065	-89,400	0,038	-0,008
-442,051	-138,628	-0,090	0,007
-441,036	-200,000	-0,022	-0,162
-440,022	-55,168	0,063	0,021
-439,007	-15,962	-0,068	0,032
-437,992	-94,252	-0,092	0,018
-436,978	210,715	0,059	-0,068
-435,963	227,205	-0,136	-0,163
-434,949	63,562	-0,057	-0,042
-433,934	-19,540	-0,080	-0,036
-432,919	-200,000	0,004	-0,147
-431,905	800,000	-0,007	-0,017
-430,890	45,478	0,143	-0,097
-429,876	-151,897	0,031	0,002
-428,861	10,529	0,103	0,058
-427,846	800,000	-0,038	0,109
-426,832	-63,848	-0,144	0,043
-425,817	-25,070	-0,125	-0,054
-424,803	-144,170	-0,130	0,009
-423,788	6,793	0,090	-0,049
-422,773	27,642	0,017	-0,011
-421,759	669,513	-0,020	0,039
-420,744	-94,659	0,075	0,015
-419,730	-200,000	-0,011	-0,082
-418,715	-200,000	-0,011	0,060
-417,701	-107,127	-0,085	-0,014
-416,686	-86,602	0,056	-0,013
-415,671	34,267	-0,092	0,059
-414,657	-95,080	0,058	0,011
-413,642	62,255	-0,088	-0,064
-412,628	-29,144	0,109	0,046
-411,613	-200,000	-0,028	-0,114
-410,598	-27,234	0,166	-0,071
-409,584	-200,000	-0,016	0,164
-408,569	-81,646	0,107	0,026
-407,555	113,864	0,125	-0,112
-406,540	347,958	0,019	-0,028
-405,525	-200,000	-0,003	-0,024
-404,511	-144,257	-0,100	-0,007
-403,496	41,902	0,069	-0,046
-402,482	-42,494	-0,103	0,038
-401,467	90,311	0,016	-0,013
-400,452	626,041	0,068	-0,127
-399,438	-200,000	0,016	0,179
-398,423	-200,000	0,009	0,078
-397,409	149,410	-0,093	-0,093
-396,394	19,761	-0,116	-0,068
-395,379	-200,000	-0,018	-0,134
-394,365	-115,352	-0,058	-0,008
-393,350	-200,000	-0,006	0,041
-392,336	-99,737	0,067	0,012
-391,321	-200,000	-0,031	-0,115
-390,306	-200,000	0,031	-0,127
-389,292	-30,937	-0,062	0,026
-388,277	-200,000	0,015	0,140
-387,263	-101,732	0,071	-0,013
-386,248	19,248	0,079	0,047
-385,233	-200,000	0,001	0,032
-384,219	82,203	-0,124	-0,099
-383,204	-91,452	0,120	-0,025
-382,190	-68,579	-0,106	-0,030
-381,175	-69,469	-0,041	0,011
-380,160	-200,000	0,008	0,058
-379,146	303,117	0,011	-0,015
-378,131	462,976	-0,051	0,084
-377,117	276,939	0,102	-0,133
-376,102	517,451	-0,029	-0,050
-375,088	-200,000	-0,002	-0,040
-374,073	48,619	-0,040	-0,028
-373,058	-0,196	0,089	0,046
-372,044	-91,283	0,134	0,028
-371,029	172,039	0,116	0,123
-370,015	-83,104	0,098	-0,023
-369,000	264,836	-0,051	0,065
-367,985	636,691	-0,017	-0,032
-366,971	800,000	-0,067	0,161
-365,956	-4,401	0,049	-0,025
-364,942	-74,381	-0,058	0,015
-363,927	-125,546	0,141	0,016
-362,912	-69,867	0,184	-0,051
-361,898	-200,000	0,012	-0,048
-360,883	480,569	-0,127	-0,212
-359,869	-200,000	0,001	-0,037
-358,854	-200,000	0,021	0,072
-357,839	-200,000	-0,005	0,103
-356,825	92,589	0,099	-0,082
-355,810	-200,000	0,010	-0,038
-354,796	-200,000	0,021	-0,074
-353,781	800,000	-0,056	0,128
-352,766	800,000	-0,018	0,041
-351,752	-200,000	0,020	0,139
-350,737	-200,000	0,009	-0,055
-349,723	-200,000	0,008	-0,083
-348,708	-200,000	-0,006	0,026
-347,693	41,462	0,077	0,051
-346,679	-200,000	-0,007	-0,140
-345,664	75,438	-0,093	-0,072
-344,650	-200,000	0,013	0,117
-343,635	60,163	0,087	0,063
-342,620	-200,000	-0,005	-0,091
-341,606	-39,550	-0,056	-0,021
-340,591	-109,388	0,170	0,026
-339,577	800,000	0,055	-0,122
-338,562	4,831	-0,087	0,047
-337,548	257,745	0,029	-0,037
-336,533	-63,821	0,081	-0,024
-335,518	-41,063	-0,062	0,023
-334,504	86,563	0,031	-0,025
-333,489	-200,000	-0,005	-0,038
-332,475	-200,000	-0,004	-0,030
-331,460	549,137	0,061	0,108
-330,445	-69,777	0,021	-0,006
-329,431	-50,514	0,043	-0,015
-328,416	58,003	-0,065	0,047
-327,402	226,617	0,035	0,042
-326,387	381,857	0,019	0,029
-325,372	-93,304	0,173	0,035
-324,358	-200,000	-0,066	0,000
-323,343	800,000	-0,005	-0,014
-322,329	-200,000	0,005	0,019
-321,314	137,233	-0,061	0,059
-320,299	87,392	0,138	0,112
-319,285	-16,595	0,124	-0,057
-318,270	-200,000	0,010	-0,055
-317,256	286,767	-0,102	-0,135
-316,241	44,137	-0,096	-0,064
-315,226	93,222	-0,120	0,099
-314,212	-200,000	0,001	-0,100
-313,197	70,646	0,090	0,068
-312,183	45,771	0,051	0,034
-311,168	-200,000	-0,006	0,094
-310,153	100,542	-0,159	-0,135
-309,139	38,941	0,077	0,050
-308,124	-200,000	-0,016	0,113
-307,110	-200,000	0,004	0,177
-306,095	121,535	-0,138	0,126
-305,080	199,779	-0,036	0,041
-304,066	800,000	0,051	0,148
-303,051	26,020	-0,059	0,036
-302,037	-124,057	-0,058	-0,007
-301,022	222,845	0,032	0,038
-300,008	-58,659	0,076	0,024
-298,993	-163,737	0,034	0,001
-297,978	359,370	0,061	0,089
-296,964	-135,535	-0,071	-0,006
-295,949	93,321	0,080	-0,066
-294,935	68,375	-0,128	0,096
-293,920	-77,186	-0,063	-0,016
-292,905	202,164	-0,152	-0,171
-291,891	800,000	0,017	0,051
-290,876	-77,736	0,130	0,033
-289,862	769,994	0,028	0,056
-288,847	-73,599	0,098	-0,026
-287,832	20,587	-0,042	0,025
-286,818	-50,279	-0,095	-0,033
-285,803	-55,981	0,068	-0,022
-284,789	275,816	0,076	-0,099
-283,774	136,882	-0,100	0,096
-282,759	-32,560	-0,023	0,009
-281,745	356,457	-0,076	-0,111
-280,730	-200,000	-0,005	-0,030
-279,716	507,571	-0,052	-0,088
-278,701	55,882	0,096	0,068
-277,686	106,338	0,116	0,100
-276,672	-200,000	0,023	0,127
-275,657	-43,741	0,067	-0,025
-274,643	36,079	-0,092	-0,059
-273,628	609,060	0,028	-0,050
-272,613	698,574	-0,082	-0,158
-271,599	-115,939	-0,050	0,007
-270,584	-46,175	-0,058	0,021
-269,570	68,431	0,131	0,098
-268,555	332,505	0,028	-0,039
-267,540	-200,000	0,014	0,055
-266,526	364,784	-0,124	-0,183
-265,511	-200,000	-0,002	-0,142
-264,497	800,000	0,007	0,024
-263,482	189,717	0,090	0,098
-262,467	98,363	-0,081	0,068
-261,453	-200,000	-0,027	0,178
-260,438	-57,034	0,140	-0,045
-259,424	86,893	-0,056	-0,045
-258,409	183,862	0,127	-0,137
-257,395	64,888	-0,121	-0,089
-256,380	535,625	-0,072	-0,125
-255,365	126,310	-0,001	-0,001
-254,351	-76,380	-0,083	-0,021
-253,336	-200,000	-0,028	0,113
-252,322	800,000	0,044	-0,096
-251,307	547,324	-0,067	0,117
-250,292	336,308	0,052	0,074
-249,278	-137,031	0,109	-0,009
-248,263	-173,226	0,068	0,001
-247,249	619,168	-0,064	0,117
-246,234	704,591	0,021	0,041
-245,219	138,433	-0,030	-0,029
-244,205	729,379	-0,061	-0,119
-243,190	-38,384	0,101	0,039
-242,176	-13,733	-0,106	0,050
-241,161	-50,692	0,106	-0,036
-240,146	-200,000	-0,032	0,146
-239,132	617,908	0,061	0,112
-238,117	41,693	0,034	0,023
-237,103	-140,361	-0,063	-0,005
-236,088	-123,399	0,195	-0,022
-235,073	130,971	-0,039	-0,036
-234,059	332,424	-0,087	0,124
-233,044	800,000	-0,028	0,061
-232,030	800,000	0,023	-0,070
-231,015	321,579	0,024	0,034
-230,000	-46,440	0,080	0,028
-228,986	-65,603	0,105	0,031
-227,971	-200,000	0,006	0,028
-226,957	-40,865	0,055	-0,021
-225,942	800,000	0,051	-0,126
-224,927	-109,942	0,069	0,010
-223,913	800,000	-0,075	-0,158
-222,898	-200,000	0,020	-0,098
-221,884	800,000	-0,059	0,172
-220,869	510,904	0,038	-0,065
-219,855	66,334	-0,027	0,020
-218,840	-200,000	0,022	0,098
-217,825	258,707	-0,131	-0,165
-216,811	-119,248	0,186	0,023
-215,796	-103,777	0,044	0,007
-214,782	753,716	-0,060	-0,118
-213,767	73,256	0,079	-0,060
-212,752	502,243	0,015	-0,026
-211,738	-60,958	-0,140	-0,043
-210,723	-74,105	-0,110	0,029
-209,709	-200,000	-0,011	0,119
-208,694	-44,623	-0,020	-0,007
-207,679	300,026	0,065	-0,087
-206,665	800,000	0,007	0,016
-205,650	-200,000	0,002	0,052
-204,636	-200,000	0,004	0,068
-203,621	9,225	-0,101	-0,055
-202,606	-10,763	0,029	-0,014
-201,592	89,599	-0,024	0,019
-200,577	-68,039	-0,065	-0,018
-199,563	-200,000	0,003	-0,048
-198,548	180,030	0,052	-0,056
-197,533	-200,000	-0,013	-0,067
-196,519	347,905	0,036	0,051
-195,504	-95,326	-0,181	-0,035
-194,490	-121,794	0,125	-0,015
-193,475	-121,968	0,102	-0,012
-192,460	174,843	0,010	-0,010
-191,446	-200,000	-0,012	0,081
-190,431	-200,000	-0,020	-0,069
-189,417	-103,776	-0,096	-0,016
-188,402	800,000	0,063	-0,130
-187,387	266,152	-0,040	-0,051
-186,373	-170,283	0,232	0,006
-185,358	439,615	-0,045	-0,072
-184,344	131,247	0,065	-0,061
-183,329	98,351	0,054	0,045
-182,315	800,000	0,038	0,116
-181,300	-152,463	-0,087	-0,004
-180,285	-200,000	-0,019	-0,210
-179,271	-95,824	-0,070	0,013
-178,256	-200,000	-0,001	-0,030
-177,242	-200,000	0,010	0,069
-176,227	630,966	0,040	0,073
-175,212	-200,000	-0,004	0,049
-174,198	569,193	0,032	0,057
-173,183	489,000	0,030	0,050
-172,169	800,000	0,003	0,007
-171,154	-56,811	0,128	0,041
-170,139	371,017	-0,111	0,165
-169,125	-133,486	0,046	0,004
-168,110	-163,305	0,124	-0,004
-167,096	-15,800	-0,091	-0,042
-166,081	12,114	-0,051	-0,029
-165,066	-200,000	-0,035	-0,118
-164,052	52,588	-0,124	-0,086
-163,037	-200,000	0,002	-0,015
-162,023	165,349	-0,068	0,070
-161,008	184,279	-0,046	-0,050
-159,993	95,545	0,068	0,056
-158,979	116,943	-0,058	-0,052
-157,964	-188,175	-0,083	0,001
-156,950	-200,000	-0,005	0,030
-155,935	-100,802	0,117	0,021
-154,920	353,304	-0,050	0,073
-153,906	-200,000	0,012	0,071
-152,891	-1,403	0,079	0,040
-151,877	-2,571	0,142	0,072
-150,862	800,000	0,035	-0,085
-149,847	-200,000	-0,023	0,076
-148,833	-200,000	-0,002	0,027
-147,818	-200,000	-0,035	0,136
-146,804	-142,787	0,058	-0,004
-145,789	-34,547	-0,149	-0,059
-144,775	800,000	0,058	0,124
-143,760	37,292	-0,133	-0,085
-142,745	-24,419	-0,100	0,043
-141,731	-159,889	-0,099	0,004
-140,716	-99,396	-0,171	0,031
-139,702	800,000	0,049	-0,143
-138,687	-200,000	-0,003	-0,018
-137,672	-76,121	-0,036	-0,009
-136,658	-110,135	-0,071	-0,011
-135,643	-133,240	0,085	-0,008
-134,629	-119,477	0,158	0,020
-133,614	215,726	0,050	-0,058
-132,599	-6,049	0,045	-0,022
-131,585	431,539	0,073	0,115
-130,570	-200,000	0,002	-0,097
-129,556	-139,447	0,141	0,011
-128,541	-155,665	-0,098	0,005
-127,526	18,939	0,087	0,050
-126,512	-66,052	-0,050	0,014
-125,497	-57,051	-0,021	-0,007
-124,483	-200,000	-0,012	0,083
-123,468	-103,544	0,065	-0,011
-122,453	145,203	0,072	-0,070
-121,439	-158,699	-0,082	-0,003
-120,424	51,549	0,048	-0,033
-119,410	-108,529	-0,059	-0,009
