DTS Sentinel unit serial number:	SN410029Multiplexer serial number:	ORYXHardware model number:	OX2-SRSoftware version number:	ORYX F/W v4,00 Oryx Data Collector v3.7.2.0data status	okinstallation	B6 Nyhavnadifferential loss correction	single-endedforward channel	channel 2reverse channel	N/Adate	2023/12/07time	14:25:08forward acquisition time	300,00reverse acquisition time	0,00gamma	499,1914k internal	0,3197k external	0,3197temperature offset calibration	1,0000default loss term (dB/km)	0,3820temperature slope calibration	1,0000multiplexer offset coefficient	1,0000multiplexer slope coefficient	1,0000fibre end	0,00T internal ref (°C)	13,64T ext. ref 1 (°C)	-1,74T ext. ref 2 (°C)	-1,73length (m)	temperature (°C)	Stokes	anti-Stokes-744,400	27,495	0,148	0,090
-743,385	-81,425	-0,256	0,061
-742,371	-55,352	0,141	-0,046
-741,356	-94,243	-0,298	-0,059
-740,342	-40,490	0,155	0,058
-739,327	-178,198	-0,339	-0,006
-738,312	9,600	0,119	-0,066
-737,298	-154,860	-0,358	-0,017
-736,283	347,921	0,141	0,203
-735,269	-159,209	-0,270	0,011
-734,254	-128,261	0,231	0,024
-733,239	-68,233	-0,611	-0,172
-732,225	-82,216	0,176	0,041
-731,210	76,178	-0,068	0,052
-730,196	800,000	0,028	-0,064
-729,181	-177,171	-0,186	0,003
-728,167	800,000	0,065	-0,177
-727,152	800,000	0,020	0,042
-726,137	-200,000	-0,019	-0,122
-725,123	15,496	-0,086	-0,049
-724,108	-200,000	0,009	-0,057
-723,094	800,000	-0,040	-0,110
-722,079	67,560	0,020	0,015
-721,064	-86,167	0,038	0,008
-720,050	-200,000	0,040	-0,144
-719,035	84,567	-0,064	0,051
-718,021	-92,926	-0,104	0,021
-717,006	-195,781	-0,116	0,001
-715,991	114,074	-0,100	0,089
-714,977	315,633	-0,038	0,052
-713,962	109,004	-0,065	-0,057
-712,948	800,000	0,026	0,075
-711,933	-32,194	-0,172	0,069
-710,918	295,248	0,039	0,051
-709,904	-9,072	0,034	-0,017
-708,889	313,195	-0,077	0,105
-707,875	-9,927	-0,127	0,061
-706,860	148,573	0,111	-0,110
-705,845	-186,002	0,096	0,001
-704,831	26,231	-0,139	0,084
-703,816	800,000	-0,039	-0,124
-702,802	477,332	-0,052	-0,086
-701,787	148,405	0,044	-0,043
-700,772	-200,000	-0,010	0,040
-699,758	-89,046	-0,131	-0,028
-698,743	632,047	0,010	-0,018
-697,729	4,533	-0,179	0,095
-696,714	132,549	-0,060	0,056
-695,699	430,881	-0,062	0,098
-694,685	-21,174	-0,059	-0,026
-693,670	463,102	-0,049	-0,080
-692,656	-200,000	-0,005	0,040
-691,641	-200,000	0,007	-0,051
-690,627	107,579	0,113	-0,098
-689,612	-5,565	-0,044	-0,022
-688,597	60,457	-0,056	0,040
-687,583	-195,905	-0,071	0,000
-686,568	-200,000	0,002	-0,048
-685,554	800,000	-0,026	-0,076
-684,539	800,000	0,040	-0,092
-683,524	-50,973	-0,072	0,025
-682,510	800,000	-0,050	0,126
-681,495	-183,570	0,139	-0,002
-680,481	-9,109	0,055	-0,027
-679,466	199,139	0,095	-0,106
-678,451	705,180	0,015	-0,030
-677,437	-53,981	0,038	-0,013
-676,422	-200,000	0,015	0,098
-675,408	-166,718	-0,049	0,001
-674,393	-200,000	0,013	-0,148
-673,378	-100,869	0,036	-0,006
-672,364	-116,807	-0,089	0,012
-671,349	-200,000	-0,002	0,044
-670,335	-200,000	-0,016	0,084
-669,320	112,700	0,046	0,041
-668,305	624,019	0,098	0,180
-667,291	-200,000	-0,025	-0,100
-666,276	-161,314	-0,054	-0,002
-665,262	149,495	0,109	-0,108
-664,247	-63,056	-0,087	0,026
-663,232	-200,000	-0,003	-0,181
-662,218	523,545	0,030	0,051
-661,203	-167,360	-0,071	-0,002
-660,189	184,064	-0,093	0,101
-659,174	395,181	-0,050	-0,076
-658,159	-14,835	-0,148	-0,069
-657,145	161,605	-0,056	-0,057
-656,130	-182,402	0,078	0,001
-655,116	448,866	0,038	0,061
-654,101	27,382	0,115	0,070
-653,086	95,741	-0,141	-0,117
-652,072	-150,697	-0,096	-0,005
-651,057	800,000	0,010	0,029
-650,043	-200,000	0,003	-0,078
-649,028	36,886	-0,068	-0,044
-648,014	-146,232	0,039	0,002
-646,999	36,364	0,033	-0,021
-645,984	554,205	-0,054	0,094
-644,970	-22,384	-0,113	0,049
-643,955	82,683	-0,050	0,039
-642,941	-200,000	-0,021	-0,133
-641,926	89,678	-0,082	0,066
-640,911	-200,000	0,036	0,115
-639,897	-24,908	0,110	0,047
-638,882	160,349	0,033	-0,033
-637,868	-200,000	0,028	0,113
-636,853	-200,000	-0,030	-0,135
-635,838	-200,000	-0,001	-0,038
-634,824	49,308	0,056	-0,038
-633,809	-20,406	-0,038	0,017
-632,795	-200,000	0,038	0,126
-631,780	-200,000	0,003	0,047
-630,765	-200,000	0,002	-0,036
-629,751	-200,000	0,011	-0,119
-628,736	800,000	-0,070	-0,161
-627,722	800,000	0,068	-0,162
-626,707	-87,767	-0,012	-0,003
-625,692	-17,771	-0,096	0,043
-624,678	30,499	0,042	0,026
-623,663	-12,833	-0,109	-0,051
-622,649	51,073	0,163	-0,112
-621,634	14,246	-0,073	-0,041
-620,619	800,000	-0,021	-0,049
-619,605	-117,858	0,100	-0,013
-618,590	117,071	0,138	-0,123
-617,576	-200,000	-0,001	0,074
-616,561	-200,000	-0,004	0,020
-615,546	-22,050	-0,156	0,068
-614,532	148,843	-0,117	-0,114
-613,517	-200,000	-0,012	-0,113
-612,503	75,696	-0,070	-0,054
-611,488	23,088	0,052	-0,031
-610,474	-99,742	-0,024	0,004
-609,459	165,287	-0,064	0,066
-608,444	-200,000	0,011	-0,165
-607,430	178,763	0,100	-0,106
-606,415	800,000	0,028	-0,084
-605,401	-200,000	0,029	0,125
-604,386	-4,510	0,065	-0,033
-603,371	31,831	-0,132	0,082
-602,357	800,000	-0,019	0,040
-601,342	800,000	-0,042	0,088
-600,328	477,646	-0,085	-0,140
-599,313	-200,000	-0,009	-0,050
-598,298	761,875	0,048	0,095
-597,284	-111,305	-0,098	-0,014
-596,269	800,000	-0,024	0,068
-595,255	-200,000	0,002	-0,114
-594,240	78,419	0,044	-0,034
-593,225	403,921	-0,039	-0,060
-592,211	118,499	-0,087	-0,077
-591,196	188,338	-0,060	-0,065
-590,182	680,055	0,037	0,070
-589,167	-200,000	0,017	0,097
-588,152	-25,748	-0,107	-0,045
-587,138	553,745	0,049	0,086
-586,123	12,121	-0,160	-0,089
-585,109	141,909	-0,074	-0,071
-584,094	0,802	0,005	0,003
-583,079	-200,000	-0,027	0,140
-582,065	57,692	0,146	0,103
-581,050	-6,259	-0,041	-0,020
-580,036	778,980	-0,040	-0,079
-579,021	-115,995	-0,048	0,006
-578,006	136,618	-0,054	-0,051
-576,992	-200,000	0,004	-0,041
-575,977	-200,000	-0,016	-0,135
-574,963	800,000	-0,037	-0,118
-573,948	3,036	0,100	0,052
-572,934	29,820	-0,075	0,046
-571,919	-200,000	-0,002	-0,054
-570,904	-170,198	0,110	0,003
-569,890	137,193	-0,066	0,062
-568,875	17,498	-0,094	0,054
-567,861	-200,000	0,011	-0,105
-566,846	800,000	-0,044	-0,110
-565,831	66,859	-0,045	-0,033
-564,817	220,608	0,060	-0,070
-563,802	-200,000	0,014	-0,058
-562,788	153,628	-0,067	-0,066
-561,773	-124,318	0,096	0,011
-560,758	83,228	0,136	0,107
-559,744	-21,511	-0,063	0,027
-558,729	-34,636	0,070	-0,028
-557,715	-49,277	0,050	0,017
-556,700	672,050	0,083	0,157
-555,685	122,032	-0,065	0,059
-554,671	-128,933	0,140	-0,014
-553,656	-200,000	0,015	-0,088
-552,642	317,659	-0,031	-0,043
-551,627	-200,000	0,025	0,151
-550,612	800,000	-0,043	-0,090
-549,598	-172,048	-0,053	0,001
-548,583	303,867	-0,063	-0,085
-547,569	344,640	0,066	0,093
-546,554	-200,000	0,007	-0,027
-545,539	20,961	-0,072	-0,042
-544,525	-181,996	-0,037	-0,000
-543,510	800,000	-0,038	-0,110
-542,496	415,403	0,040	-0,063
-541,481	-80,809	-0,172	-0,041
-540,466	800,000	0,030	-0,063
-539,452	-155,839	-0,111	-0,005
-538,437	-107,987	0,148	-0,023
-537,423	-78,060	-0,147	0,036
-536,408	145,025	0,122	0,118
-535,393	-14,905	-0,166	0,077
-534,379	-83,079	-0,158	-0,036
-533,364	761,933	0,053	-0,104
-532,350	336,606	-0,014	-0,019
-531,335	800,000	0,077	0,156
-530,321	133,219	0,102	0,095
-529,306	-200,000	-0,170	0,000
-528,291	-95,858	0,130	0,025
-527,277	800,000	-0,020	-0,051
-526,262	-200,000	-0,024	-0,083
-525,248	-66,795	-0,064	0,018
-524,233	601,493	0,050	0,091
-523,218	800,000	-0,042	0,101
-522,204	-148,795	0,145	-0,008
-521,189	15,989	0,042	-0,024
-520,175	-200,000	0,027	-0,099
-519,160	-92,470	0,049	-0,010
-518,145	151,141	-0,059	-0,058
-517,131	800,000	0,021	0,052
-516,116	800,000	-0,019	-0,050
-515,102	226,059	-0,029	0,034
-514,087	-200,000	-0,008	-0,058
-513,072	59,876	-0,033	-0,023
-512,058	800,000	-0,035	-0,085
-511,043	-200,000	-0,028	-0,097
-510,029	220,033	-0,060	0,069
-509,014	-65,526	0,023	0,007
-507,999	-39,702	0,004	-0,001
-506,985	128,568	0,035	-0,032
-505,970	-165,052	0,036	-0,001
-504,956	457,254	0,036	-0,058
-503,941	-200,000	-0,001	0,052
-502,926	667,668	0,022	0,041
-501,912	-200,000	-0,017	0,085
-500,897	-5,979	-0,075	-0,037
-499,883	-200,000	-0,006	-0,036
-498,868	-200,000	-0,008	-0,041
-497,853	-200,000	-0,000	-0,126
-496,839	65,233	0,073	0,053
-495,824	75,718	0,059	-0,045
-494,810	196,412	-0,055	0,061
-493,795	140,812	-0,054	-0,052
-492,781	-200,000	-0,006	0,172
-491,766	-166,532	0,071	0,002
-490,751	118,229	-0,031	-0,027
-489,737	-100,710	-0,027	-0,005
-488,722	12,333	0,111	0,061
-487,708	66,619	-0,105	-0,077
-486,693	165,454	-0,044	0,045
-485,678	-13,254	0,079	0,037
-484,664	184,514	0,032	0,034
-483,649	-9,784	-0,039	-0,019
-482,635	87,478	0,158	-0,126
-481,620	17,449	-0,034	0,019
-480,605	-121,239	0,129	-0,015
-479,591	800,000	-0,022	0,053
-478,576	-21,645	-0,056	0,025
-477,562	-50,159	0,014	0,005
-476,547	-129,799	-0,118	-0,012
-475,532	-89,961	-0,042	-0,009
-474,518	-53,987	0,115	-0,038
-473,503	-200,000	0,017	-0,060
-472,489	-143,180	0,077	-0,005
-471,474	-200,000	-0,005	-0,026
-470,459	-175,191	-0,170	-0,003
-469,445	800,000	-0,043	-0,104
-468,430	45,769	-0,042	-0,028
-467,416	78,067	0,053	-0,041
-466,401	-40,855	-0,064	-0,024
-465,386	-200,000	-0,023	0,091
-464,372	21,703	-0,050	0,030
-463,357	800,000	0,040	0,091
-462,343	-107,597	-0,005	-0,001
-461,328	-84,181	-0,174	-0,039
-460,313	-200,000	0,007	0,060
-459,299	58,909	-0,079	0,056
-458,284	-176,941	-0,035	-0,001
-457,270	-200,000	-0,011	0,084
-456,255	-200,000	-0,018	0,181
-455,241	29,009	0,133	-0,081
-454,226	477,033	-0,040	-0,066
-453,211	-54,903	0,156	-0,050
-452,197	800,000	0,015	0,044
-451,182	-132,424	-0,107	0,010
-450,168	800,000	0,066	0,132
-449,153	-55,108	-0,068	-0,022
-448,138	-132,571	-0,090	-0,008
-447,124	193,792	0,034	-0,037
-446,109	-80,770	-0,111	-0,026
-445,095	-54,426	0,042	-0,014
-444,080	12,482	0,044	-0,024
-443,065	-200,000	0,001	-0,026
-442,051	-200,000	0,009	-0,130
-441,036	83,036	-0,071	0,055
-440,022	314,673	-0,067	-0,091
-439,007	800,000	-0,017	0,050
-437,992	-200,000	-0,009	0,086
-436,978	-200,000	-0,015	0,180
-435,963	208,025	0,116	-0,131
-434,949	389,837	-0,069	-0,103
-433,934	585,030	-0,043	0,076
-432,919	800,000	0,020	-0,048
-431,905	149,255	0,039	-0,038
-430,890	221,298	-0,011	0,013
-429,876	36,506	0,037	0,023
-428,861	177,917	-0,096	-0,101
-427,846	800,000	-0,013	-0,037
-426,832	-10,439	0,138	-0,065
-425,817	402,965	-0,022	-0,033
-424,803	800,000	-0,025	0,070
-423,788	257,656	-0,038	0,047
-422,773	211,275	-0,004	0,004
-421,759	42,861	-0,026	-0,017
-420,744	800,000	-0,032	0,087
-419,730	-200,000	-0,008	-0,076
-418,715	-200,000	0,021	-0,156
-417,701	-29,664	-0,139	-0,057
-416,686	-200,000	0,003	0,095
-415,671	405,713	0,106	0,162
-414,657	-200,000	0,006	0,021
-413,642	-200,000	0,002	0,017
-412,628	240,267	0,014	-0,017
-411,613	-30,938	0,081	0,033
-410,598	-3,288	-0,120	-0,060
-409,584	115,798	0,063	0,056
-408,569	108,059	0,045	0,038
-407,555	-200,000	0,044	0,153
-406,540	158,472	-0,025	-0,025
-405,525	-200,000	0,043	-0,192
-404,511	-14,282	0,098	0,045
-403,496	55,025	-0,126	-0,087
-402,482	11,869	0,102	-0,056
-401,467	216,601	-0,086	0,098
-400,452	109,252	0,118	0,102
-399,438	-28,933	0,031	-0,013
-398,423	92,859	-0,019	0,015
-397,409	423,214	0,005	-0,008
-396,394	117,302	-0,124	0,109
-395,379	-200,000	-0,001	-0,011
-394,365	-68,107	-0,122	-0,034
-393,350	-64,592	0,076	0,022
-392,336	-102,500	0,040	0,007
-391,321	-2,025	0,046	0,023
-390,306	-149,150	-0,203	-0,012
-389,292	148,524	0,032	0,031
-388,277	800,000	0,034	0,071
-387,263	323,028	-0,091	-0,126
-386,248	800,000	-0,031	0,066
-385,233	187,917	0,084	0,090
-384,219	-47,724	0,015	-0,005
-383,204	219,598	0,084	0,096
-382,190	-200,000	-0,012	-0,062
-381,175	-26,060	0,074	-0,031
-380,160	55,900	0,063	-0,044
-379,146	30,508	0,153	0,094
-378,131	800,000	0,043	0,110
-377,117	-200,000	0,002	0,083
-376,102	-200,000	0,036	-0,153
-375,088	-57,971	-0,109	-0,034
-374,073	-32,949	-0,131	-0,052
-373,058	800,000	-0,018	-0,047
-372,044	-80,376	0,036	0,009
-371,029	800,000	-0,023	-0,059
-370,015	44,195	0,060	0,040
-369,000	-99,154	-0,189	0,034
-367,985	800,000	0,030	-0,071
-366,971	800,000	0,014	0,034
-365,956	-131,402	0,065	0,006
-364,942	48,356	0,054	0,036
-363,927	-55,281	0,041	0,013
-362,912	144,341	-0,087	0,084
-361,898	-200,000	0,008	0,075
-360,883	-56,309	0,054	-0,017
-359,869	-200,000	-0,027	-0,123
-358,854	-200,000	-0,046	0,199
-357,839	-200,000	-0,017	0,177
-356,825	-82,200	0,061	-0,014
-355,810	13,072	0,065	-0,036
-354,796	-200,000	-0,013	-0,109
-353,781	-0,259	-0,084	0,042
-352,766	-200,000	0,010	0,054
-351,752	6,749	0,107	-0,057
-350,737	-23,761	-0,087	-0,037
-349,723	800,000	0,039	0,122
-348,708	0,226	0,160	-0,082
-347,693	-200,000	0,011	-0,054
-346,679	612,914	0,018	0,032
-345,664	-112,666	-0,091	-0,013
-344,650	-49,305	-0,086	0,029
-343,635	-135,852	0,030	-0,003
-342,620	-200,000	0,003	-0,061
-341,606	-108,047	-0,107	-0,016
-340,591	73,966	0,106	0,079
-339,577	-200,000	0,022	-0,123
-338,562	91,752	0,055	-0,044
-337,548	-200,000	0,001	0,032
-336,533	-55,894	0,134	0,043
-335,518	-155,225	-0,121	0,006
-334,504	-96,178	0,100	-0,019
-333,489	145,638	-0,062	-0,059
-332,475	-200,000	0,005	-0,127
-331,460	-112,328	0,119	0,017
-330,445	188,330	0,152	0,163
-329,431	800,000	0,041	0,121
-328,416	-200,000	0,036	0,157
-327,402	378,623	0,046	-0,068
-326,387	104,153	-0,077	0,065
-325,372	800,000	0,025	0,052
-324,358	361,583	0,031	0,045
-323,343	-115,120	0,210	0,028
-322,329	211,367	0,070	-0,079
-321,314	-9,303	0,031	0,015
-320,299	-65,680	-0,089	0,025
-319,285	42,866	-0,068	0,045
-318,270	-114,651	0,134	-0,018
-317,256	161,489	0,095	-0,096
-316,241	72,784	0,009	-0,006
-315,226	-85,958	0,077	-0,017
-314,212	800,000	-0,006	0,011
-313,197	-200,000	0,007	0,095
-312,183	800,000	-0,041	-0,102
-311,168	409,621	-0,099	-0,151
-310,153	-200,000	-0,013	-0,063
-309,139	20,915	-0,181	-0,105
-308,124	-19,549	0,068	-0,030
-307,110	-166,944	0,156	-0,004
-306,095	-200,000	-0,001	0,044
-305,080	16,920	-0,079	0,045
-304,066	-200,000	0,005	0,020
-303,051	383,407	-0,036	-0,053
-302,037	-15,637	-0,091	0,042
-301,022	-111,447	0,115	0,017
-300,008	43,449	-0,156	-0,102
-298,993	45,782	0,074	-0,049
-297,978	-86,346	-0,101	0,022
-296,964	-31,513	-0,196	0,078
-295,949	-200,000	-0,019	-0,099
-294,935	-200,000	0,032	-0,170
-293,920	-200,000	0,003	-0,059
-292,905	217,344	0,019	0,021
-291,891	23,371	0,071	0,041
-290,876	-5,660	0,067	-0,033
-289,862	-42,781	0,105	0,038
-288,847	228,714	-0,029	-0,034
-287,832	800,000	0,016	-0,044
-286,818	-200,000	-0,004	-0,058
-285,803	-200,000	-0,040	0,131
-284,789	83,110	-0,050	0,039
-283,774	-200,000	-0,024	0,116
-282,759	800,000	0,064	0,144
-281,745	-25,047	-0,047	-0,020
-280,730	800,000	-0,014	-0,037
-279,716	-182,475	0,065	-0,001
-278,701	62,970	0,018	0,013
-277,686	787,939	0,022	0,043
-276,672	14,466	-0,126	-0,070
-275,657	-29,967	0,103	0,042
-274,643	112,488	0,029	0,025
-273,628	25,670	-0,031	0,019
-272,613	-200,000	0,003	0,176
-271,599	-200,000	-0,010	0,109
-270,584	800,000	0,032	0,097
-269,570	800,000	0,025	0,075
-268,555	472,558	-0,087	0,141
-267,540	211,219	0,063	-0,071
-266,526	-24,720	0,024	-0,010
-265,511	-135,345	0,088	-0,007
-264,497	-200,000	0,030	0,202
-263,482	-81,838	0,097	0,022
-262,467	367,620	0,063	0,092
-261,453	800,000	-0,059	-0,134
-260,438	-200,000	-0,043	-0,191
-259,424	-107,805	-0,036	-0,005
-258,409	-24,117	0,167	0,071
-257,395	609,641	0,011	-0,020
-256,380	47,697	-0,056	0,037
-255,365	482,204	0,036	0,059
-254,351	-200,000	0,003	0,055
-253,336	64,216	0,089	0,064
-252,322	-200,000	-0,037	-0,135
-251,307	-90,587	0,079	-0,016
-250,292	-62,091	-0,178	-0,053
-249,278	35,683	0,175	0,110
-248,263	-200,000	0,007	0,055
-247,249	-152,264	0,056	0,003
-246,234	800,000	0,011	-0,025
-245,219	138,339	-0,033	-0,031
-244,205	800,000	-0,005	0,010
-243,190	800,000	-0,045	0,094
-242,176	-31,412	0,129	0,052
-241,161	601,008	0,047	0,084
-240,146	13,044	-0,092	0,051
-239,132	63,713	0,055	0,039
-238,117	109,846	0,171	-0,146
-237,103	43,218	-0,104	-0,067
-236,088	27,822	0,013	0,008
-235,073	-1,182	-0,177	0,089
-234,059	800,000	-0,074	0,196
-233,044	125,839	-0,098	0,088
-232,030	-52,573	-0,116	0,038
-231,015	-127,017	-0,031	-0,003
-230,000	-200,000	0,025	-0,138
-228,986	-200,000	0,010	-0,117
-227,971	-60,512	0,079	-0,024
-226,957	-20,657	0,024	0,011
-225,942	19,935	-0,009	0,005
-224,927	275,076	-0,061	0,077
-223,913	800,000	0,031	0,075
-222,898	-95,825	0,119	-0,023
-221,884	800,000	0,014	-0,037
-220,869	457,657	-0,100	-0,159
-219,855	-136,440	0,089	-0,007
-218,840	-200,000	0,000	0,081
-217,825	-17,625	-0,091	-0,041
-216,811	330,057	-0,083	0,114
-215,796	-200,000	-0,040	-0,133
-214,782	-200,000	-0,033	0,127
-213,767	800,000	-0,052	0,163
-212,752	740,883	-0,060	0,116
-211,738	150,744	0,035	0,034
-210,723	264,145	-0,019	-0,024
-209,709	798,528	0,099	0,196
-208,694	-67,165	0,085	-0,024
-207,679	-200,000	-0,048	-0,249
-206,665	-110,892	0,040	0,006
-205,650	179,616	-0,075	0,078
-204,636	-43,952	0,114	0,041
-203,621	-51,912	0,144	-0,048
-202,606	-6,195	-0,039	-0,019
-201,592	-57,686	0,030	-0,009
-200,577	-200,000	0,007	0,052
-199,563	-200,000	0,006	0,084
-198,548	123,985	0,023	0,021
-197,533	-4,964	0,066	-0,032
-196,519	800,000	-0,025	0,065
-195,504	101,134	-0,069	-0,057
-194,490	-200,000	0,000	0,017
-193,475	-200,000	-0,012	-0,105
-192,460	-200,000	0,029	-0,103
-191,446	220,736	0,059	-0,068
-190,431	124,660	0,013	-0,012
-189,417	58,824	-0,048	-0,034
-188,402	-45,846	-0,052	-0,018
-187,387	-200,000	-0,009	0,030
-186,373	87,448	-0,079	-0,062
-185,358	697,540	0,021	0,040
-184,344	-200,000	0,020	-0,100
-183,329	800,000	-0,021	0,048
-182,315	798,807	0,052	-0,102
-181,300	-187,620	-0,041	0,000
-180,285	17,130	-0,037	0,021
-179,271	-200,000	-0,005	-0,042
-178,256	580,064	-0,048	0,085
-177,242	78,235	0,089	-0,067
-176,227	-51,262	0,103	0,034
-175,212	800,000	0,040	0,111
-174,198	277,917	0,077	0,098
-173,183	585,495	0,071	-0,125
-172,169	-131,303	0,071	0,007
-171,154	39,724	-0,040	0,026
-170,139	800,000	0,070	-0,148
-169,125	-1,227	0,150	-0,075
-168,110	46,788	0,097	-0,064
-167,096	-20,167	-0,084	-0,037
-166,081	-151,251	-0,092	-0,005
-165,066	-136,647	-0,219	-0,018
-164,052	140,000	-0,070	-0,065
-163,037	388,881	-0,053	0,079
-162,023	50,625	-0,090	-0,061
-161,008	561,115	-0,059	0,102
-159,993	-10,799	0,058	-0,027
-158,979	-200,000	0,031	0,100
-157,964	-8,971	0,040	0,019
-156,950	-125,057	0,149	0,016
-155,935	-69,146	-0,081	0,022
-154,920	294,812	0,040	0,052
-153,906	800,000	0,022	-0,057
-152,891	-200,000	-0,007	0,086
-151,877	89,875	-0,087	0,069
-150,862	-200,000	-0,024	0,149
-149,847	-63,184	0,094	-0,027
-148,833	292,323	0,067	-0,086
-147,818	365,485	0,062	-0,089
-146,804	354,559	-0,067	0,095
-145,789	-43,464	0,082	0,029
-144,775	70,796	-0,055	-0,040
-143,760	-68,575	-0,104	-0,029
-142,745	139,422	-0,082	-0,077
-141,731	-83,327	0,204	-0,046
-140,716	240,550	-0,046	0,054
-139,702	459,740	-0,034	0,054
-138,687	-8,190	-0,093	0,044
-137,672	58,631	0,096	-0,067
-136,658	63,849	-0,058	0,041
-135,643	-101,006	-0,062	-0,011
-134,629	-200,000	-0,002	0,053
-133,614	-200,000	0,002	-0,043
-132,599	-68,156	0,156	0,043
-131,585	471,001	0,125	0,200
-130,570	208,172	-0,047	0,053
-129,556	-127,142	-0,066	-0,007
-128,541	-121,548	-0,085	-0,010
-127,526	-200,000	0,078	0,000
-126,512	-69,235	0,017	-0,004
-125,497	800,000	-0,057	-0,114
-124,483	-144,710	0,095	-0,006
-123,468	96,907	0,070	0,057
-122,453	496,112	-0,029	0,047
-121,439	800,000	-0,030	0,060
-120,424	85,825	-0,047	-0,037
-119,410	91,534	0,094	0,075
-118,395	-97,539	0,094	0,017
