DTS Sentinel unit serial number:	SN410029Multiplexer serial number:	ORYXHardware model number:	OX2-SRSoftware version number:	ORYX F/W v4,00 Oryx Data Collector v3.7.2.0data status	okinstallation	B6 Nyhavnadifferential loss correction	single-endedforward channel	channel 2reverse channel	N/Adate	2023/12/08time	22:30:08forward acquisition time	300,00reverse acquisition time	0,00gamma	499,1914k internal	0,3157k external	0,3157temperature offset calibration	1,0000default loss term (dB/km)	0,3820temperature slope calibration	1,0000multiplexer offset coefficient	1,0000multiplexer slope coefficient	1,0000fibre end	0,00T internal ref (°C)	15,33T ext. ref 1 (°C)	-1,07T ext. ref 2 (°C)	-1,08length (m)	temperature (°C)	Stokes	anti-Stokes-744,400	-45,604	0,123	-0,045
-743,385	-125,827	-0,266	-0,029
-742,371	128,627	0,094	0,089
-741,356	-132,102	-0,253	-0,024
-740,342	8,401	0,064	-0,035
-739,327	-138,796	-0,254	-0,020
-738,312	-132,931	0,092	0,009
-737,298	-117,333	-0,218	-0,029
-736,283	688,508	0,033	-0,063
-735,269	-160,678	-0,347	0,013
-734,254	800,000	0,040	0,120
-733,239	-64,327	-0,533	-0,159
-732,225	-118,168	0,208	-0,027
-731,210	-200,000	-0,004	0,093
-730,196	95,906	-0,073	-0,061
-729,181	-74,436	-0,105	-0,028
-728,167	-200,000	-0,009	-0,058
-727,152	800,000	0,030	-0,066
-726,137	91,152	-0,023	-0,019
-725,123	800,000	-0,056	0,127
-724,108	654,144	-0,031	-0,059
-723,094	800,000	-0,043	-0,103
-722,079	11,510	-0,059	0,033
-721,064	9,167	0,089	0,049
-720,050	-200,000	0,011	-0,146
-719,035	-200,000	0,007	-0,128
-718,021	-200,000	0,015	-0,077
-717,006	-99,353	-0,081	-0,015
-715,991	64,440	-0,179	-0,133
-714,977	800,000	-0,041	-0,104
-713,962	533,057	-0,067	-0,118
-712,948	-192,823	-0,061	0,000
-711,933	635,420	-0,029	-0,055
-710,918	243,879	-0,065	-0,081
-709,904	-200,000	0,003	-0,076
-708,889	-52,315	-0,141	-0,048
-707,875	449,138	0,060	-0,098
-706,860	-200,000	-0,019	0,075
-705,845	800,000	-0,014	-0,029
-704,831	800,000	-0,082	0,226
-703,816	-64,614	-0,014	-0,004
-702,802	-200,000	-0,048	-0,206
-701,787	800,000	-0,060	-0,178
-700,772	-200,000	0,023	-0,130
-699,758	800,000	-0,039	-0,101
-698,743	-200,000	-0,023	-0,145
-697,729	-25,388	-0,063	0,027
-696,714	-8,218	-0,096	0,047
-695,699	182,770	-0,034	-0,037
-694,685	-120,769	-0,192	-0,024
-693,670	-200,000	0,014	-0,104
-692,656	229,165	-0,055	0,066
-691,641	-3,179	-0,050	-0,026
-690,627	-109,078	0,078	-0,012
-689,612	-102,616	-0,078	-0,014
-688,597	11,779	-0,092	0,052
-687,583	27,676	-0,175	0,108
-686,568	800,000	0,045	-0,103
-685,554	767,642	0,080	-0,161
-684,539	-200,000	-0,024	-0,084
-683,524	1,581	0,090	0,048
-682,510	-116,120	-0,039	-0,005
-681,495	-108,230	-0,126	0,020
-680,481	479,111	-0,061	-0,103
-679,466	800,000	-0,009	-0,027
-678,451	-69,270	0,073	-0,020
-677,437	-200,000	-0,010	-0,157
-676,422	-32,253	-0,068	0,028
-675,408	800,000	-0,030	-0,098
-674,393	105,745	0,090	-0,078
-673,378	207,947	-0,025	0,029
-672,364	-58,776	-0,149	-0,047
-671,349	800,000	-0,041	-0,118
-670,335	-6,609	0,095	-0,047
-669,320	31,843	0,032	0,020
-668,305	86,996	0,076	-0,062
-667,291	-200,000	0,009	-0,085
-666,276	-200,000	0,025	-0,191
-665,262	-44,954	-0,067	-0,024
-664,247	-54,233	0,064	-0,021
-663,232	137,142	0,045	-0,043
-662,218	-200,000	-0,007	-0,113
-661,203	-73,279	-0,024	0,006
-660,189	156,220	-0,007	-0,007
-659,174	800,000	-0,007	0,021
-658,159	-200,000	-0,026	-0,107
-657,145	107,371	-0,047	-0,041
-656,130	344,147	0,054	0,078
-655,116	51,533	-0,056	0,039
-654,101	302,678	0,046	0,063
-653,086	133,987	0,072	-0,069
-652,072	-152,675	-0,041	-0,002
-651,057	505,310	-0,108	-0,185
-650,043	800,000	0,059	-0,148
-649,028	-34,761	-0,100	0,040
-648,014	800,000	-0,033	-0,077
-646,999	16,345	0,101	-0,059
-645,984	40,287	-0,081	-0,053
-644,970	-81,328	-0,048	0,011
-643,955	33,349	-0,027	0,017
-642,941	-42,806	-0,166	0,061
-641,926	-4,623	-0,074	-0,037
-640,911	220,858	0,060	-0,071
-639,897	-200,000	-0,005	0,019
-638,882	-200,000	-0,009	-0,051
-637,868	-149,038	0,104	0,006
-636,853	-7,516	-0,115	-0,057
-635,838	-200,000	-0,010	-0,176
-634,824	800,000	0,061	-0,190
-633,809	-105,064	0,081	0,013
-632,795	-200,000	-0,015	0,061
-631,780	-144,784	0,055	0,004
-630,765	-138,830	0,078	0,006
-629,751	107,339	-0,111	-0,097
-628,736	-13,858	-0,100	-0,047
-627,722	578,543	-0,093	-0,168
-626,707	-14,584	0,035	0,017
-625,692	-200,000	0,011	0,056
-624,678	-200,000	0,020	0,088
-623,663	107,829	-0,092	0,080
-622,649	-127,321	-0,009	-0,001
-621,634	-97,448	-0,203	-0,038
-620,619	656,139	-0,043	-0,081
-619,605	598,743	0,054	-0,099
-618,590	-200,000	0,018	-0,065
-617,576	-22,323	-0,060	0,027
-616,561	800,000	-0,040	-0,082
-615,546	-200,000	0,017	-0,071
-614,532	-200,000	-0,002	-0,096
-613,517	-200,000	0,007	-0,110
-612,503	338,351	-0,097	-0,139
-611,488	-147,971	0,155	-0,009
-610,474	144,069	-0,014	0,014
-609,459	391,194	-0,057	0,087
-608,444	42,480	0,063	0,042
-607,430	800,000	-0,031	0,096
-606,415	548,748	-0,034	-0,060
-605,401	133,534	0,086	0,082
-604,386	800,000	-0,062	0,177
-603,371	41,300	-0,006	0,004
-602,357	800,000	-0,034	-0,078
-601,342	800,000	-0,047	-0,106
-600,328	71,462	-0,069	0,052
-599,313	-90,652	-0,082	-0,017
-598,298	800,000	0,026	0,072
-597,284	800,000	0,018	-0,049
-596,269	89,024	0,024	-0,019
-595,255	-200,000	-0,011	0,045
-594,240	-200,000	0,007	-0,079
-593,225	11,264	-0,070	0,039
-592,211	396,940	0,090	-0,138
-591,196	94,344	-0,065	0,054
-590,182	-180,615	0,175	-0,003
-589,167	22,795	-0,085	0,051
-588,152	99,846	-0,080	-0,068
-587,138	127,103	0,050	-0,046
-586,123	-6,253	0,086	-0,043
-585,109	58,284	0,112	-0,081
-584,094	153,488	-0,072	-0,073
-583,079	800,000	0,061	0,184
-582,065	-29,114	0,055	0,023
-581,050	-113,625	-0,078	0,011
-580,036	800,000	0,034	-0,103
-579,021	410,578	-0,083	0,129
-578,006	-153,875	-0,122	-0,006
-576,992	-45,544	-0,081	0,029
-575,977	-95,739	0,090	-0,017
-574,963	-200,000	-0,012	-0,047
-573,948	328,194	-0,051	-0,072
-572,934	465,413	0,073	-0,121
-571,919	-131,715	0,026	0,003
-570,904	521,383	-0,061	-0,106
-569,890	800,000	0,042	0,116
-568,875	220,971	0,020	-0,023
-567,861	800,000	-0,035	0,076
-566,846	37,669	0,105	-0,068
-565,831	-127,301	-0,096	-0,010
-564,817	-200,000	0,020	0,066
-563,802	50,174	-0,076	-0,053
-562,788	-200,000	-0,008	-0,066
-561,773	322,540	-0,006	-0,009
-560,758	265,209	-0,064	-0,082
-559,744	323,457	-0,132	0,184
-558,729	75,578	0,051	0,039
-557,715	800,000	0,024	0,068
-556,700	130,798	-0,023	0,021
-555,685	-200,000	0,012	0,052
-554,671	-98,431	-0,108	0,020
-553,656	-122,065	-0,043	-0,005
-552,642	486,747	0,038	-0,063
-551,627	-108,919	0,043	0,007
-550,612	-200,000	-0,013	-0,154
-549,598	138,462	-0,050	-0,048
-548,583	-200,000	0,002	-0,020
-547,569	800,000	0,029	0,087
-546,554	718,147	-0,041	0,080
-545,539	701,237	-0,004	-0,008
-544,525	575,773	0,014	0,026
-543,510	441,941	0,056	0,090
-542,496	-32,961	-0,167	0,068
-541,481	73,801	0,186	-0,142
-540,466	-200,000	0,012	-0,051
-539,452	-200,000	-0,014	0,074
-538,437	402,614	-0,066	0,101
-537,423	-52,895	-0,087	0,029
-536,408	691,023	0,031	0,059
-535,393	-200,000	0,007	-0,029
-534,379	2,004	-0,066	0,035
-533,364	445,110	0,084	0,136
-532,350	-67,022	0,054	-0,015
-531,335	800,000	0,055	-0,136
-530,321	-76,437	-0,131	0,033
-529,306	763,075	-0,072	0,143
-528,291	687,815	-0,019	0,037
-527,277	-115,545	-0,156	-0,021
-526,262	-200,000	-0,011	-0,050
-525,248	-200,000	0,005	-0,083
-524,233	192,813	0,103	0,114
-523,218	476,849	0,060	0,100
-522,204	-184,591	-0,088	-0,001
-521,189	-200,000	-0,019	-0,163
-520,175	-200,000	0,022	-0,186
-519,160	-82,190	0,033	-0,008
-518,145	-200,000	0,013	-0,059
-517,131	739,413	-0,040	0,080
-516,116	101,730	-0,068	0,058
-515,102	155,846	-0,079	-0,080
-514,087	69,530	0,054	-0,041
-513,072	230,455	-0,076	-0,092
-512,058	218,858	-0,019	0,023
-511,043	153,466	-0,016	0,016
-510,029	752,800	-0,052	0,103
-509,014	-200,000	0,022	0,125
-507,999	800,000	0,029	-0,070
-506,985	-17,230	-0,101	-0,046
-505,970	155,940	0,038	-0,039
-504,956	-159,107	-0,123	0,005
-503,941	38,528	0,057	0,037
-502,926	-170,625	0,213	-0,005
-501,912	-168,770	-0,059	0,002
-500,897	241,863	-0,016	0,019
-499,883	-200,000	-0,003	-0,080
-498,868	800,000	0,038	-0,093
-497,853	-91,866	-0,068	0,014
-496,839	201,867	-0,020	0,022
-495,824	-155,268	-0,124	0,006
-494,810	65,223	-0,058	0,043
-493,795	704,183	0,027	0,053
-492,781	410,389	0,069	0,107
-491,766	800,000	0,048	-0,148
-490,751	-200,000	-0,006	-0,023
-489,737	800,000	-0,040	0,096
-488,722	-99,055	0,018	0,003
-487,708	-200,000	-0,000	0,220
-486,693	186,609	0,051	0,055
-485,678	271,213	0,040	0,052
-484,664	-200,000	-0,043	-0,153
-483,649	48,306	0,035	-0,024
-482,635	153,688	0,047	0,047
-481,620	363,418	0,049	-0,071
-480,605	642,602	0,038	0,071
-479,591	-98,613	0,155	-0,029
-478,576	800,000	0,039	-0,082
-477,562	47,275	-0,052	-0,036
-476,547	-200,000	-0,017	-0,076
-475,532	489,954	0,022	-0,037
-474,518	800,000	-0,022	-0,058
-473,503	-44,808	-0,091	-0,033
-472,489	-66,694	0,100	-0,029
-471,474	-200,000	-0,037	-0,132
-470,459	-200,000	-0,005	0,056
-469,445	99,946	0,035	0,030
-468,430	-200,000	-0,011	0,058
-467,416	93,196	0,066	0,055
-466,401	555,143	0,011	0,020
-465,386	800,000	-0,024	-0,054
-464,372	116,540	-0,049	0,044
-463,357	-83,554	0,044	-0,010
-462,343	8,577	-0,121	-0,066
-461,328	-0,261	-0,035	0,018
-460,313	-134,095	0,093	-0,008
-459,299	59,426	-0,097	-0,069
-458,284	106,894	0,080	-0,069
-457,270	-183,095	0,049	0,001
-456,255	193,753	-0,055	-0,061
-455,241	800,000	-0,007	-0,020
-454,226	68,378	0,093	-0,070
-453,211	251,555	-0,066	-0,082
-452,197	-200,000	-0,045	0,154
-451,182	-49,279	-0,038	0,013
-450,168	-79,148	-0,133	-0,033
-449,153	-200,000	0,022	-0,245
-448,138	800,000	-0,056	-0,124
-447,124	-98,685	-0,095	0,017
-446,109	800,000	0,011	0,032
-445,095	800,000	0,026	-0,064
-444,080	65,167	0,093	0,068
-443,065	-102,335	-0,153	0,026
-442,051	-200,000	0,016	-0,078
-441,036	-123,218	-0,145	-0,017
-440,022	-200,000	-0,022	-0,184
-439,007	97,681	0,113	0,094
-437,992	-4,261	-0,072	0,036
-436,978	205,479	-0,004	0,005
-435,963	-138,051	-0,141	0,011
-434,949	-125,201	0,072	-0,008
-433,934	268,504	0,010	0,013
-432,919	-7,520	-0,236	-0,116
-431,905	138,518	0,072	-0,069
-430,890	800,000	0,033	0,093
-429,876	-166,147	0,094	0,003
-428,861	-200,000	-0,017	0,061
-427,846	-194,601	-0,062	0,000
-426,832	175,417	-0,099	-0,105
-425,817	262,375	0,040	-0,050
-424,803	-16,743	-0,133	0,061
-423,788	114,255	0,026	-0,023
-422,773	57,184	-0,081	-0,057
-421,759	-200,000	0,003	-0,043
-420,744	92,130	0,075	0,061
-419,730	800,000	-0,037	-0,077
-418,715	-112,357	-0,070	-0,010
-417,701	-200,000	0,029	0,093
-416,686	240,068	-0,013	-0,016
-415,671	800,000	-0,052	-0,112
-414,657	56,882	0,035	-0,024
-413,642	31,243	0,108	-0,067
-412,628	13,259	-0,040	-0,022
-411,613	331,324	0,040	-0,057
-410,598	149,303	0,101	-0,099
-409,584	-85,997	-0,092	0,020
-408,569	214,800	0,061	-0,071
-407,555	146,417	0,062	0,060
-406,540	-111,072	0,167	0,025
-405,525	64,969	-0,085	0,062
-404,511	432,090	-0,060	-0,095
-403,496	-200,000	-0,005	0,021
-402,482	-130,656	-0,093	0,009
-401,467	326,817	-0,013	0,018
-400,452	-78,806	0,091	0,022
-399,438	85,040	0,080	0,064
-398,423	-200,000	0,006	0,020
-397,409	12,702	-0,075	0,042
-396,394	-4,815	0,061	0,030
-395,379	-135,228	0,062	0,005
-394,365	-141,228	0,039	-0,003
-393,350	-76,029	0,135	0,034
-392,336	-200,000	-0,021	0,102
-391,321	783,360	0,051	-0,102
-390,306	-73,800	0,049	-0,013
-389,292	48,003	0,013	-0,009
-388,277	188,133	-0,064	-0,069
-387,263	-200,000	-0,014	-0,068
-386,248	-116,108	0,168	0,022
-385,233	546,463	-0,049	0,086
-384,219	-143,995	-0,125	0,008
-383,204	173,110	-0,119	-0,125
-382,190	129,645	-0,026	-0,024
-381,175	-89,877	-0,100	0,021
-380,160	96,392	0,073	-0,060
-379,146	84,623	0,084	0,067
-378,131	332,019	0,047	-0,067
-377,117	-96,710	0,049	0,009
-376,102	91,881	-0,017	0,014
-375,088	533,388	-0,006	-0,011
-374,073	-81,125	0,108	-0,026
-373,058	800,000	0,006	-0,016
-372,044	-200,000	0,026	0,104
-371,029	800,000	-0,025	-0,078
-370,015	159,026	-0,033	0,033
-369,000	800,000	-0,027	-0,077
-367,985	-66,039	-0,089	-0,026
-366,971	393,776	-0,035	0,053
-365,956	-59,510	-0,089	0,028
-364,942	800,000	-0,010	-0,022
-363,927	-93,816	-0,101	0,020
-362,912	800,000	-0,049	-0,126
-361,898	-200,000	-0,009	-0,062
-360,883	-200,000	-0,002	0,082
-359,869	800,000	-0,025	0,052
-358,854	47,456	0,077	0,052
-357,839	98,571	0,144	0,120
-356,825	706,002	0,039	0,075
-355,810	-200,000	0,004	0,057
-354,796	76,239	-0,048	0,037
-353,781	-151,697	-0,092	0,005
-352,766	800,000	-0,033	0,094
-351,752	22,817	0,084	-0,050
-350,737	-49,277	0,097	0,033
-349,723	357,685	0,138	0,201
-348,708	188,811	0,040	0,043
-347,693	800,000	0,057	0,117
-346,679	-200,000	-0,002	0,091
-345,664	70,355	-0,044	-0,033
-344,650	-200,000	-0,003	-0,138
-343,635	-200,000	0,004	0,045
-342,620	-200,000	0,003	0,121
-341,606	-50,673	-0,124	-0,042
-340,591	-180,777	0,069	0,001
-339,577	258,663	-0,076	0,095
-338,562	671,318	0,017	0,032
-337,548	-58,094	0,087	0,027
-336,533	574,043	0,086	-0,153
-335,518	-131,389	-0,039	-0,004
-334,504	269,956	0,075	0,095
-333,489	182,719	-0,034	-0,037
-332,475	-200,000	0,002	-0,056
-331,460	78,158	0,063	0,049
-330,445	231,839	0,018	-0,022
-329,431	-16,794	-0,062	-0,029
-328,416	-130,900	-0,071	-0,007
-327,402	-144,070	-0,121	-0,008
-326,387	617,241	0,038	-0,070
-325,372	474,018	0,042	0,069
-324,358	-89,875	-0,157	-0,033
-323,343	122,635	0,113	0,102
-322,329	-62,543	0,084	0,025
-321,314	-200,000	-0,017	0,067
-320,299	-31,254	-0,110	-0,045
-319,285	-100,946	0,021	-0,004
-318,270	-200,000	-0,008	-0,089
-317,256	87,284	0,118	0,095
-316,241	-55,392	0,117	0,038
-315,226	21,363	0,077	0,045
-314,212	-13,280	0,093	0,044
-313,197	-67,356	0,123	0,035
-312,183	-143,657	-0,049	-0,003
-311,168	-57,531	0,087	-0,027
-310,153	-57,476	-0,065	-0,020
-309,139	-72,070	0,125	0,033
-308,124	-111,089	0,050	0,007
-307,110	-200,000	0,002	0,015
-306,095	224,468	-0,053	-0,062
-305,080	294,969	-0,048	0,064
-304,066	321,892	0,035	-0,049
-303,051	108,980	0,121	-0,105
-302,037	-200,000	-0,019	-0,118
-301,022	216,642	0,068	0,078
-300,008	135,589	0,028	0,026
-298,993	-69,630	0,048	0,013
-297,978	267,231	0,030	0,038
-296,964	-186,872	0,124	-0,001
-295,949	-105,662	-0,164	0,027
-294,935	-145,238	0,098	0,006
-293,920	289,421	0,033	0,044
-292,905	-17,660	0,028	0,013
-291,891	-42,149	0,046	0,017
-290,876	38,285	0,122	-0,079
-289,862	-119,615	-0,108	0,013
-288,847	546,868	-0,084	-0,146
-287,832	14,090	-0,112	-0,063
-286,818	92,698	0,070	-0,057
-285,803	347,097	0,047	0,068
-284,789	219,916	0,026	0,030
-283,774	61,675	0,065	0,047
-282,759	794,805	-0,026	0,053
-281,745	-200,000	-0,011	0,054
-280,730	-113,350	0,113	-0,016
-279,716	-46,389	-0,103	-0,036
-278,701	800,000	-0,023	0,059
-277,686	-124,471	0,063	0,007
-276,672	-104,516	0,062	-0,010
-275,657	687,964	-0,027	-0,051
-274,643	-200,000	-0,001	0,103
-273,628	278,073	0,033	0,043
-272,613	800,000	0,027	-0,071
-271,599	-148,057	0,139	0,008
-270,584	-167,171	0,018	0,001
-269,570	-16,631	-0,042	0,019
-268,555	167,460	0,026	0,027
-267,540	60,549	-0,021	-0,015
-266,526	-200,000	-0,005	-0,077
-265,511	-190,474	-0,159	0,001
-264,497	138,655	0,085	0,081
-263,482	800,000	-0,017	0,050
-262,467	532,829	0,035	-0,060
-261,453	-200,000	-0,021	0,076
-260,438	581,522	-0,028	-0,050
-259,424	255,649	-0,137	0,170
-258,409	-79,343	0,079	-0,019
-257,395	800,000	-0,048	0,124
-256,380	279,817	0,039	0,050
-255,365	-174,712	-0,037	-0,001
-254,351	-183,869	0,066	-0,001
-253,336	138,802	0,045	0,043
-252,322	186,494	-0,047	0,051
-251,307	-200,000	0,012	-0,050
-250,292	-200,000	-0,034	0,168
-249,278	260,519	-0,102	0,127
-248,263	-78,820	0,052	-0,013
-247,249	147,269	-0,020	0,019
-246,234	424,833	0,079	0,124
-245,219	-200,000	-0,002	0,091
-244,205	-134,642	-0,134	0,012
-243,190	248,338	0,115	0,141
-242,176	-200,000	0,019	-0,076
-241,161	-28,884	-0,035	-0,014
-240,146	800,000	0,078	0,180
-239,132	41,619	0,020	0,013
-238,117	-200,000	-0,016	-0,083
-237,103	-200,000	-0,012	-0,097
-236,088	-154,606	-0,138	-0,007
-235,073	800,000	-0,025	0,057
-234,059	425,050	0,117	0,183
-233,044	372,463	-0,027	0,040
-232,030	800,000	-0,066	0,136
-231,015	299,656	-0,027	-0,036
-230,000	175,384	0,048	-0,051
-228,986	429,808	0,061	0,096
-227,971	381,707	-0,023	0,035
-226,957	447,201	0,027	-0,043
-225,942	58,234	0,091	0,064
-224,927	-32,741	-0,148	-0,059
-223,913	-56,685	-0,013	-0,004
-222,898	274,933	-0,023	-0,029
-221,884	51,110	0,080	-0,055
-220,869	800,000	-0,053	-0,122
-219,855	-200,000	0,018	0,079
-218,840	684,857	-0,033	0,062
-217,825	137,935	-0,056	0,053
-216,811	155,010	0,065	0,065
-215,796	-121,908	-0,083	0,010
-214,782	54,547	-0,096	-0,067
-213,767	-18,092	-0,135	-0,061
-212,752	495,970	0,030	-0,051
-211,738	16,851	0,020	0,011
-210,723	52,188	0,149	0,103
-209,709	-200,000	0,014	-0,175
-208,694	-70,237	-0,041	-0,011
-207,679	800,000	0,024	-0,060
-206,665	543,983	-0,064	0,112
-205,650	-106,488	0,181	0,029
-204,636	-200,000	0,019	0,082
-203,621	562,938	-0,051	-0,089
-202,606	800,000	0,040	-0,115
-201,592	-200,000	0,005	0,058
-200,577	800,000	0,031	0,070
-199,563	-74,213	0,042	0,011
-198,548	436,474	0,031	0,048
-197,533	148,104	-0,055	-0,054
-196,519	-94,640	0,058	0,011
-195,504	-66,570	-0,029	-0,008
-194,490	627,948	0,087	0,159
-193,475	-12,051	-0,061	-0,029
-192,460	800,000	0,035	0,097
-191,446	61,817	0,091	0,065
-190,431	800,000	0,039	0,097
-189,417	16,990	-0,059	0,034
-188,402	-14,887	0,030	0,014
-187,387	-200,000	-0,002	-0,061
-186,373	800,000	-0,033	-0,105
-185,358	506,512	-0,043	0,073
-184,344	-200,000	0,026	0,095
-183,329	62,540	0,120	0,087
-182,315	23,849	0,102	0,061
-181,300	123,329	-0,096	0,086
-180,285	-200,000	0,006	-0,077
-179,271	103,036	-0,085	-0,072
-178,256	241,022	0,079	-0,095
-177,242	118,636	0,032	0,029
-176,227	-56,428	0,099	-0,031
-175,212	77,415	0,037	0,029
-174,198	-91,286	-0,165	0,034
-173,183	725,313	-0,038	-0,074
-172,169	168,729	0,020	0,020
-171,154	-58,330	-0,080	-0,025
-170,139	-200,000	0,002	-0,007
-169,125	800,000	0,024	-0,064
-168,110	334,910	0,134	0,188
-167,096	-160,278	-0,097	-0,004
-166,081	135,596	0,051	-0,048
-165,066	121,829	-0,101	-0,091
-164,052	190,613	-0,091	-0,099
-163,037	302,285	0,030	0,039
-162,023	-46,187	0,115	-0,041
-161,008	500,921	-0,022	-0,037
-159,993	800,000	0,065	0,135
-158,979	-200,000	0,016	-0,058
-157,964	800,000	-0,036	-0,072
-156,950	-147,506	0,042	-0,003
-155,935	224,153	0,051	-0,060
-154,920	446,223	0,055	-0,088
-153,906	-103,928	0,159	-0,026
-152,891	2,085	0,121	0,063
-151,877	-166,098	0,039	-0,001
-150,862	29,310	0,016	0,009
-149,847	800,000	-0,080	-0,161
-148,833	-79,298	-0,123	0,030
-147,818	148,305	-0,049	-0,048
-146,804	59,671	0,089	0,063
-145,789	-25,513	-0,034	-0,014
-144,775	132,902	0,090	-0,084
-143,760	-200,000	-0,002	-0,032
-142,745	164,884	-0,058	0,059
-141,731	158,515	-0,051	0,051
-140,716	57,926	-0,038	0,027
-139,702	207,984	0,023	-0,026
-138,687	22,180	0,049	0,028
-137,672	395,056	0,050	-0,075
-136,658	-1,513	-0,089	0,045
-135,643	138,053	0,001	0,001
-134,629	-200,000	-0,024	-0,098
-133,614	800,000	0,049	0,099
-132,599	-200,000	-0,010	0,064
-131,585	-200,000	-0,007	0,030
-130,570	-69,329	0,187	-0,051
-129,556	178,586	-0,075	-0,079
-128,541	-51,346	-0,066	0,022
-127,526	376,064	0,051	-0,075
-126,512	158,498	-0,035	-0,035
-125,497	-51,360	0,063	-0,021
-124,483	800,000	0,060	-0,169
-123,468	13,975	-0,133	-0,074
-122,453	-78,110	-0,113	0,028
-121,439	-74,263	-0,122	-0,031
-120,424	-99,566	0,118	-0,021
-119,410	47,152	-0,029	0,020
