DTS Sentinel unit serial number:	SN410029Multiplexer serial number:	ORYXHardware model number:	OX2-SRSoftware version number:	ORYX F/W v4,00 Oryx Data Collector v3.7.2.0data status	okinstallation	B6 Nyhavnadifferential loss correction	single-endedforward channel	channel 2reverse channel	N/Adate	2023/12/07time	12:30:08forward acquisition time	300,00reverse acquisition time	0,00gamma	499,1914k internal	0,3203k external	0,3203temperature offset calibration	1,0000default loss term (dB/km)	0,3820temperature slope calibration	1,0000multiplexer offset coefficient	1,0000multiplexer slope coefficient	1,0000fibre end	0,00T internal ref (°C)	10,19T ext. ref 1 (°C)	-3,32T ext. ref 2 (°C)	-3,30length (m)	temperature (°C)	Stokes	anti-Stokes-744,400	-19,995	0,159	0,071
-743,385	34,861	-0,308	-0,195
-742,371	-200,000	-0,004	0,050
-741,356	-52,557	-0,400	-0,134
-740,342	-144,775	0,166	-0,011
-739,327	-95,339	-0,463	-0,090
-738,312	-66,200	0,057	0,016
-737,298	-64,926	-0,379	-0,111
-736,283	19,931	-0,064	0,037
-735,269	-35,746	-0,359	-0,141
-734,254	93,463	0,183	0,151
-733,239	-47,560	-0,436	-0,153
-732,225	-143,888	0,317	0,021
-731,210	97,212	0,073	-0,061
-730,196	800,000	-0,072	-0,213
-729,181	-5,384	0,019	0,010
-728,167	-25,908	-0,086	-0,037
-727,152	-200,000	-0,012	-0,164
-726,137	-200,000	-0,017	-0,066
-725,123	-164,676	-0,212	-0,007
-724,108	380,313	-0,016	0,024
-723,094	-35,823	-0,212	-0,083
-722,079	800,000	-0,026	-0,064
-721,064	-200,000	-0,024	-0,187
-720,050	163,609	0,014	-0,014
-719,035	515,783	-0,052	-0,088
-718,021	628,721	0,059	-0,109
-717,006	341,131	-0,052	-0,074
-715,991	-200,000	-0,005	-0,081
-714,977	414,305	-0,091	-0,141
-713,962	800,000	-0,024	-0,061
-712,948	178,063	-0,049	0,052
-711,933	-17,722	-0,080	-0,036
-710,918	481,132	0,025	0,042
-709,904	-76,001	-0,107	0,027
-708,889	-200,000	0,000	-0,077
-707,875	232,766	0,085	0,102
-706,860	-200,000	-0,026	0,113
-705,845	-22,451	0,056	-0,025
-704,831	-200,000	-0,001	0,036
-703,816	-200,000	0,000	-0,006
-702,802	-99,133	-0,078	0,014
-701,787	495,972	-0,067	-0,112
-700,772	69,672	-0,149	-0,111
-699,758	-170,062	-0,038	-0,001
-698,743	227,658	-0,061	0,072
-697,729	800,000	-0,034	-0,103
-696,714	-9,943	-0,068	0,033
-695,699	235,900	-0,104	0,125
-694,685	359,581	-0,028	-0,041
-693,670	398,150	0,047	-0,071
-692,656	-143,820	0,101	-0,007
-691,641	-39,805	0,081	-0,031
-690,627	-200,000	-0,002	0,035
-689,612	38,295	0,022	0,014
-688,597	19,248	0,161	0,093
-687,583	800,000	-0,074	-0,184
-686,568	800,000	-0,050	-0,152
-685,554	100,419	-0,044	0,037
-684,539	11,932	0,164	-0,091
-683,524	768,550	-0,031	0,061
-682,510	-22,734	0,182	-0,079
-681,495	800,000	0,071	-0,195
-680,481	-200,000	-0,010	0,109
-679,466	800,000	0,062	-0,130
-678,451	-200,000	0,031	-0,110
-677,437	82,822	-0,074	0,058
-676,422	-200,000	-0,008	0,117
-675,408	52,328	-0,030	-0,021
-674,393	274,798	0,100	0,129
-673,378	-70,365	0,068	0,019
-672,364	156,400	-0,066	-0,066
-671,349	-42,351	0,066	-0,024
-670,335	-43,127	-0,091	-0,033
-669,320	535,809	-0,036	0,063
-668,305	314,402	0,087	0,119
-667,291	-200,000	0,011	-0,101
-666,276	-27,214	-0,166	0,070
-665,262	133,324	-0,056	-0,053
-664,247	-200,000	-0,002	-0,088
-663,232	51,254	-0,020	-0,014
-662,218	-116,148	-0,159	-0,021
-661,203	124,886	0,102	0,093
-660,189	306,569	-0,089	-0,120
-659,174	19,763	0,086	-0,050
-658,159	-200,000	-0,006	-0,156
-657,145	-200,000	-0,009	-0,097
-656,130	22,772	0,084	-0,050
-655,116	-82,113	-0,130	-0,031
-654,101	800,000	0,071	0,157
-653,086	23,101	-0,027	0,016
-652,072	-145,570	-0,090	-0,006
-651,057	-56,468	-0,026	-0,008
-650,043	-200,000	0,001	-0,044
-649,028	-200,000	-0,000	-0,095
-648,014	-56,898	-0,067	-0,021
-646,999	-200,000	-0,001	-0,152
-645,984	-127,079	0,057	0,006
-644,970	96,138	-0,041	-0,034
-643,955	-200,000	0,043	-0,224
-642,941	141,056	-0,059	-0,056
-641,926	-129,844	-0,083	0,008
-640,911	-76,763	0,032	0,008
-639,897	72,579	-0,021	-0,016
-638,882	369,918	0,058	-0,085
-637,868	642,672	0,038	0,071
-636,853	-93,923	-0,031	0,006
-635,838	-87,054	-0,108	-0,024
-634,824	-97,707	-0,018	0,003
-633,809	609,915	0,021	0,039
-632,795	800,000	0,036	-0,086
-631,780	99,422	-0,065	0,054
-630,765	212,547	-0,090	0,103
-629,751	-194,052	0,135	-0,001
-628,736	-200,000	0,002	-0,097
-627,722	10,650	-0,138	0,076
-626,707	-200,000	-0,005	-0,019
-625,692	556,872	-0,037	0,064
-624,678	98,984	0,107	0,089
-623,663	-106,163	-0,140	0,023
-622,649	-111,931	0,039	0,006
-621,634	-200,000	0,003	-0,060
-620,619	-88,613	0,089	-0,019
-619,605	-128,757	0,117	-0,012
-618,590	-200,000	0,033	0,125
-617,576	337,520	0,043	0,061
-616,561	-156,589	-0,176	-0,008
-615,546	-73,591	-0,107	-0,028
-614,532	-62,423	-0,101	-0,030
-613,517	339,985	-0,066	-0,093
-612,503	-200,000	0,013	-0,113
-611,488	800,000	-0,017	0,039
-610,474	-51,969	0,123	0,041
-609,459	-121,534	-0,059	0,007
-608,444	119,299	0,076	-0,068
-607,430	-200,000	-0,025	-0,146
-606,415	-161,469	-0,198	-0,007
-605,401	521,214	0,053	-0,091
-604,386	-28,390	0,015	-0,006
-603,371	-39,676	-0,049	-0,018
-602,357	-101,749	0,156	0,027
-601,342	-191,081	-0,004	0,000
-600,328	567,162	-0,033	0,057
-599,313	12,914	-0,105	-0,059
-598,298	423,867	0,042	0,065
-597,284	-116,708	-0,147	0,019
-596,269	340,592	0,074	-0,104
-595,255	92,204	-0,063	-0,051
-594,240	433,086	-0,032	0,051
-593,225	-200,000	0,023	-0,089
-592,211	-127,885	0,093	-0,010
-591,196	239,869	0,075	0,090
-590,182	23,891	-0,029	0,017
-589,167	-200,000	-0,005	-0,029
-588,152	-200,000	-0,011	-0,082
-587,138	-83,645	0,054	-0,012
-586,123	-21,967	-0,119	-0,052
-585,109	800,000	0,042	-0,089
-584,094	-94,115	-0,092	-0,018
-583,079	48,360	0,082	0,055
-582,065	-14,476	0,072	0,033
-581,050	-198,149	-0,072	0,000
-580,036	50,285	-0,094	-0,064
-579,021	-200,000	0,003	-0,073
-578,006	105,077	-0,079	0,068
-576,992	-84,744	-0,036	-0,008
-575,977	46,849	0,084	0,056
-574,963	800,000	0,020	-0,042
-573,948	142,487	0,104	-0,099
-572,934	58,358	0,071	-0,050
-571,919	-113,982	-0,014	-0,002
-570,904	-110,580	-0,059	-0,009
-569,890	-23,362	-0,164	0,071
-568,875	-200,000	0,020	0,147
-567,861	78,151	0,041	0,031
-566,846	-200,000	0,051	0,190
-565,831	-75,941	-0,031	-0,008
-564,817	356,578	-0,048	-0,069
-563,802	243,319	0,040	0,048
-562,788	-157,970	-0,066	0,003
-561,773	63,196	0,096	-0,069
-560,758	138,606	0,120	0,114
-559,744	-200,000	0,061	0,198
-558,729	-112,754	-0,053	-0,007
-557,715	-200,000	0,013	-0,074
-556,700	-143,501	0,087	0,006
-555,685	-29,123	-0,056	0,023
-554,671	-7,053	-0,068	-0,033
-553,656	210,850	0,053	0,060
-552,642	-200,000	-0,030	-0,101
-551,627	-200,000	-0,003	-0,041
-550,612	-200,000	0,058	0,000
-549,598	-200,000	-0,000	-0,066
-548,583	-40,594	0,048	0,018
-547,569	800,000	0,007	0,022
-546,554	-98,656	0,093	0,017
-545,539	800,000	0,017	-0,039
-544,525	-19,502	0,038	0,017
-543,510	-140,063	0,032	0,002
-542,496	-200,000	-0,013	-0,097
-541,481	56,083	-0,087	-0,061
-540,466	10,556	0,035	-0,019
-539,452	-165,074	0,083	-0,003
-538,437	411,434	0,034	0,051
-537,423	-26,972	0,119	0,050
-536,408	-200,000	0,005	0,218
-535,393	-145,819	-0,118	0,007
-534,379	173,219	0,056	-0,058
-533,364	-200,000	-0,004	-0,129
-532,350	-200,000	0,026	0,092
-531,335	73,210	0,032	-0,024
-530,321	-152,961	0,011	-0,001
-529,306	-118,690	-0,143	-0,018
-528,291	-200,000	0,001	0,021
-527,277	55,357	0,019	-0,013
-526,262	46,673	0,094	-0,063
-525,248	-174,788	-0,054	0,001
-524,233	-77,882	0,065	0,016
-523,218	-113,535	0,109	0,015
-522,204	26,058	-0,096	-0,058
-521,189	-167,729	-0,093	-0,003
-520,175	-200,000	0,016	-0,073
-519,160	-200,000	-0,004	-0,033
-518,145	57,800	-0,088	-0,062
-517,131	-51,382	0,152	0,051
-516,116	271,991	0,059	-0,075
-515,102	-200,000	-0,015	0,060
-514,087	-26,054	0,068	-0,029
-513,072	-123,827	-0,096	0,011
-512,058	-50,949	-0,126	0,042
-511,043	441,872	-0,031	0,049
-510,029	103,635	0,099	-0,083
-509,014	457,463	-0,009	-0,015
-507,999	-4,513	0,079	0,039
-506,985	-6,758	-0,123	-0,060
-505,970	418,879	-0,032	0,049
-504,956	800,000	-0,028	0,063
-503,941	-21,690	-0,010	0,005
-502,926	-77,621	-0,129	-0,032
-501,912	-200,000	0,006	0,054
-500,897	-41,829	0,057	-0,021
-499,883	-67,815	0,050	0,014
-498,868	-117,593	-0,083	-0,011
-497,853	158,262	-0,048	-0,048
-496,839	-200,000	0,017	0,075
-495,824	155,648	0,052	0,052
-494,810	-104,854	-0,157	-0,026
-493,795	800,000	0,008	-0,024
-492,781	36,343	0,025	-0,016
-491,766	-95,674	0,075	-0,014
-490,751	51,311	-0,180	0,123
-489,737	163,612	0,104	-0,105
-488,722	-200,000	0,007	-0,046
-487,708	-140,349	0,186	-0,014
-486,693	800,000	0,046	0,130
-485,678	19,057	-0,051	0,030
-484,664	142,544	-0,061	0,059
-483,649	-200,000	-0,011	0,075
-482,635	-200,000	-0,013	-0,064
-481,620	-200,000	-0,005	0,063
-480,605	-21,789	0,087	0,038
-479,591	799,244	0,041	0,083
-478,576	-148,135	-0,181	0,011
-477,562	11,001	0,090	-0,049
-476,547	-200,000	0,012	-0,079
-475,532	46,146	-0,029	-0,020
-474,518	71,779	0,038	-0,029
-473,503	295,639	0,013	0,017
-472,489	-200,000	0,022	0,075
-471,474	224,326	-0,102	-0,119
-470,459	-73,004	0,084	-0,022
-469,445	-200,000	-0,004	0,025
-468,430	-107,850	-0,112	-0,017
-467,416	-42,597	0,081	0,030
-466,401	-200,000	0,019	0,093
-465,386	-200,000	0,028	-0,135
-464,372	96,979	0,059	-0,049
-463,357	49,251	0,083	-0,056
-462,343	235,275	-0,097	-0,115
-461,328	-18,509	0,037	-0,016
-460,313	800,000	0,065	-0,145
-459,299	-200,000	-0,022	-0,079
-458,284	441,642	0,020	0,031
-457,270	103,588	-0,033	-0,028
-456,255	-200,000	0,014	-0,049
-455,241	0,766	0,171	-0,088
-454,226	-83,159	0,076	-0,017
-453,211	-152,696	0,070	0,004
-452,197	69,795	0,105	0,078
-451,182	218,649	-0,114	0,131
-450,168	-139,341	-0,128	-0,010
-449,153	185,643	-0,065	-0,070
-448,138	77,472	-0,083	-0,064
-447,124	-148,448	-0,072	0,004
-446,109	83,507	0,046	-0,036
-445,095	800,000	-0,012	0,027
-444,080	-114,134	0,108	-0,015
-443,065	34,747	0,098	-0,061
-442,051	-59,698	-0,146	0,045
-441,036	44,731	-0,001	-0,001
-440,022	131,808	-0,056	-0,052
-439,007	-0,201	0,168	0,086
-437,992	-67,746	0,080	0,022
-436,978	116,545	0,036	0,032
-435,963	-200,000	0,038	0,144
-434,949	-93,418	0,038	0,007
-433,934	-7,428	-0,115	-0,056
-432,919	-154,679	-0,113	-0,005
-431,905	-41,214	0,054	0,020
-430,890	800,000	0,028	0,066
-429,876	-115,304	0,043	0,006
-428,861	-91,901	-0,010	-0,002
-427,846	-200,000	0,002	0,101
-426,832	57,787	-0,027	0,019
-425,817	-122,942	-0,070	0,008
-424,803	-200,000	0,016	0,094
-423,788	205,771	-0,030	-0,034
-422,773	-153,115	-0,069	0,003
-421,759	161,337	0,092	0,093
-420,744	626,329	0,096	0,175
-419,730	743,141	0,048	-0,093
-418,715	-70,797	-0,134	-0,036
-417,701	130,589	0,077	-0,071
-416,686	-200,000	0,011	-0,080
-415,671	800,000	0,054	-0,149
-414,657	64,233	-0,071	0,051
-413,642	800,000	0,025	0,058
-412,628	43,541	-0,121	-0,079
-411,613	-200,000	-0,014	-0,094
-410,598	-75,061	0,096	0,025
-409,584	-200,000	-0,013	0,054
-408,569	-200,000	-0,026	0,000
-407,555	-200,000	-0,001	0,018
-406,540	-168,318	0,023	0,001
-405,525	167,465	-0,102	0,104
-404,511	-200,000	-0,003	-0,124
-403,496	96,397	0,060	-0,049
-402,482	-57,574	0,098	0,031
-401,467	-200,000	-0,039	0,173
-400,452	121,702	-0,158	0,142
-399,438	48,481	0,088	0,059
-398,423	400,219	-0,055	-0,083
-397,409	345,466	0,048	-0,068
-396,394	-105,267	-0,094	-0,015
-395,379	10,349	0,134	0,073
-394,365	-200,000	0,007	-0,135
-393,350	-200,000	0,018	0,081
-392,336	-200,000	-0,003	0,030
-391,321	-62,517	-0,036	0,011
-390,306	-168,330	-0,073	-0,002
-389,292	-200,000	-0,003	0,044
-388,277	800,000	-0,030	0,062
-387,263	142,232	0,130	0,123
-386,248	-200,000	-0,025	0,136
-385,233	-129,975	0,038	0,004
-384,219	131,385	-0,076	-0,070
-383,204	-200,000	0,030	-0,096
-382,190	62,260	-0,031	-0,022
-381,175	-36,333	0,154	-0,059
-380,160	66,242	0,018	0,013
-379,146	-200,000	0,006	0,043
-378,131	-82,872	0,066	-0,015
-377,117	-20,529	0,062	0,027
-376,102	-161,974	0,072	0,003
-375,088	-200,000	0,009	-0,059
-374,073	593,656	0,020	-0,035
-373,058	99,332	0,147	-0,122
-372,044	-181,283	0,073	-0,001
-371,029	-46,039	-0,131	0,046
-370,015	-12,759	-0,116	0,054
-369,000	322,629	-0,063	-0,086
-367,985	800,000	0,087	0,189
-366,971	208,930	-0,078	-0,088
-365,956	348,863	-0,027	-0,038
-364,942	30,308	0,022	-0,014
-363,927	-200,000	-0,033	0,108
-362,912	208,533	0,027	-0,031
-361,898	242,753	0,009	-0,011
-360,883	220,547	-0,068	-0,078
-359,869	-200,000	-0,004	-0,023
-358,854	-29,021	0,064	0,026
-357,839	-33,115	0,063	0,025
-356,825	-53,070	-0,052	0,017
-355,810	-74,059	0,044	0,011
-354,796	-61,633	0,085	0,025
-353,781	-200,000	-0,014	-0,103
-352,766	-189,021	-0,013	0,000
-351,752	-200,000	-0,046	-0,160
-350,737	6,626	0,040	-0,021
-349,723	-87,898	0,088	-0,019
-348,708	-25,550	0,018	-0,008
-347,693	62,011	-0,053	0,037
-346,679	144,761	-0,068	-0,065
-345,664	-200,000	0,028	-0,128
-344,650	-69,855	0,115	0,031
-343,635	-121,660	-0,086	-0,010
-342,620	-28,203	0,161	0,066
-341,606	334,362	-0,057	-0,079
-340,591	-5,993	0,070	-0,034
-339,577	-7,292	-0,064	-0,031
-338,562	-24,650	-0,041	0,017
-337,548	800,000	0,057	-0,164
-336,533	248,186	0,048	-0,058
-335,518	-98,727	-0,031	-0,006
-334,504	-81,242	0,021	0,005
-333,489	-126,122	-0,141	-0,015
-332,475	427,896	0,048	0,074
-331,460	-200,000	-0,046	0,150
-330,445	800,000	0,104	-0,223
-329,431	253,200	0,065	0,079
-328,416	51,360	-0,082	0,056
-327,402	-200,000	0,018	0,183
-326,387	-65,196	-0,109	0,031
-325,372	132,172	0,035	-0,032
-324,358	23,801	-0,094	0,055
-323,343	23,825	0,090	0,053
-322,329	-200,000	0,002	0,045
-321,314	81,237	0,058	0,044
-320,299	405,685	-0,079	-0,119
-319,285	-200,000	-0,018	-0,085
-318,270	-13,331	0,100	-0,046
-317,256	99,312	-0,072	-0,059
-316,241	240,588	-0,014	0,017
-315,226	182,323	-0,018	0,019
-314,212	-200,000	-0,005	0,199
-313,197	-77,979	0,082	0,020
-312,183	-200,000	0,027	-0,150
-311,168	263,443	0,016	-0,020
-310,153	118,741	-0,072	0,063
-309,139	-200,000	-0,001	0,013
-308,124	-200,000	0,013	0,061
-307,110	-200,000	0,018	-0,095
-306,095	800,000	0,030	0,086
-305,080	-200,000	-0,016	0,082
-304,066	126,708	0,027	0,025
-303,051	-124,221	-0,077	-0,008
-302,037	-200,000	0,022	0,088
-301,022	-200,000	-0,032	-0,173
-300,008	-69,843	0,026	-0,007
-298,993	-194,070	0,043	-0,000
-297,978	676,629	0,014	-0,027
-296,964	-200,000	0,003	-0,037
-295,949	800,000	-0,071	-0,148
-294,935	-200,000	-0,017	0,085
-293,920	-38,133	-0,103	-0,039
-292,905	9,965	0,084	-0,045
-291,891	-200,000	0,003	-0,025
-290,876	63,880	0,119	-0,086
-289,862	6,037	-0,028	-0,015
-288,847	-140,606	-0,119	0,009
-287,832	298,927	-0,079	-0,104
-286,818	800,000	0,004	0,010
-285,803	800,000	-0,051	0,126
-284,789	-200,000	0,017	0,062
-283,774	604,654	0,053	0,094
-282,759	24,951	-0,105	-0,062
-281,745	133,696	0,050	-0,046
-280,730	-86,593	-0,054	-0,012
-279,716	800,000	0,045	-0,107
-278,701	417,422	0,068	-0,103
-277,686	100,155	-0,021	-0,017
-276,672	-9,878	-0,077	-0,036
-275,657	35,101	0,097	0,061
-274,643	55,266	-0,070	0,049
-273,628	800,000	0,017	0,050
-272,613	-200,000	0,043	0,147
-271,599	-200,000	-0,013	0,126
-270,584	157,688	0,056	0,056
-269,570	-200,000	-0,017	0,098
-268,555	-83,304	-0,179	-0,041
-267,540	-80,409	-0,122	-0,029
-266,526	-200,000	0,021	-0,155
-265,511	-200,000	0,011	0,141
-264,497	800,000	0,051	0,148
-263,482	108,469	-0,084	-0,071
-262,467	131,979	0,110	0,101
-261,453	-200,000	0,015	-0,055
-260,438	-200,000	-0,003	-0,105
-259,424	-76,559	-0,036	-0,009
-258,409	-36,879	0,136	-0,052
-257,395	393,921	0,023	-0,034
-256,380	-164,049	0,079	0,003
-255,365	-6,154	0,037	0,018
-254,351	76,751	-0,123	0,093
-253,336	208,436	-0,032	-0,035
-252,322	800,000	-0,025	0,065
-251,307	122,886	0,027	-0,024
-250,292	111,884	-0,071	-0,061
-249,278	-200,000	0,019	-0,190
-248,263	-22,035	0,063	0,027
-247,249	325,241	-0,028	0,039
-246,234	-28,268	-0,092	-0,038
-245,219	800,000	0,035	0,101
-244,205	800,000	0,042	-0,103
-243,190	-49,414	-0,039	0,013
-242,176	800,000	0,030	-0,084
-241,161	-200,000	0,019	-0,152
-240,146	-200,000	0,045	0,171
-239,132	5,738	-0,021	-0,011
-238,117	726,205	-0,016	-0,031
-237,103	86,207	-0,095	0,075
-236,088	-96,770	-0,185	0,034
-235,073	-160,278	0,006	0,000
-234,059	-200,000	0,005	0,043
-233,044	-200,000	0,003	-0,093
-232,030	139,447	-0,002	-0,002
-231,015	800,000	-0,056	0,111
-230,000	800,000	-0,013	-0,029
-228,986	-122,442	0,065	-0,007
-227,971	-111,668	0,093	-0,013
-226,957	-70,001	-0,011	0,003
-225,942	96,669	0,099	0,081
-224,927	331,909	0,081	-0,111
-223,913	800,000	-0,012	-0,030
-222,898	-200,000	0,025	-0,159
-221,884	-200,000	0,022	-0,082
-220,869	40,238	0,122	0,078
-219,855	127,186	0,039	0,035
-218,840	800,000	0,057	0,119
-217,825	-157,811	-0,097	-0,004
-216,811	210,792	-0,052	-0,058
-215,796	137,968	-0,045	0,042
-214,782	-200,000	0,005	0,044
-213,767	219,229	0,038	0,043
-212,752	53,443	-0,051	-0,034
-211,738	-76,132	0,129	0,032
-210,723	-95,934	-0,064	0,012
-209,709	84,504	0,024	-0,019
-208,694	-87,935	-0,071	0,015
-207,679	-72,463	0,061	0,016
-206,665	350,830	0,044	0,062
-205,650	304,789	0,045	0,060
-204,636	-200,000	-0,021	0,176
-203,621	-200,000	-0,008	0,119
-202,606	-200,000	0,030	0,096
-201,592	-36,281	-0,235	0,090
-200,577	25,621	-0,059	0,035
-199,563	135,355	0,097	0,090
-198,548	750,522	0,025	0,048
-197,533	104,256	-0,082	0,069
-196,519	62,405	0,141	0,100
-195,504	-200,000	0,011	0,076
-194,490	67,387	-0,026	0,019
-193,475	-200,000	0,020	0,084
-192,460	-200,000	0,004	0,067
-191,446	613,116	-0,008	0,014
-190,431	800,000	-0,028	0,069
-189,417	313,075	0,052	-0,069
-188,402	434,583	0,091	-0,142
-187,387	37,321	-0,077	0,048
-186,373	800,000	-0,059	0,120
-185,358	-48,973	0,118	0,040
-184,344	71,199	0,131	-0,097
-183,329	101,845	-0,099	0,082
-182,315	-200,000	-0,045	0,158
-181,300	-9,005	-0,080	0,038
-180,285	800,000	-0,027	-0,082
-179,271	91,896	0,041	-0,033
-178,256	-8,125	0,079	-0,038
-177,242	-200,000	0,145	0,000
-176,227	800,000	0,044	0,095
-175,212	63,788	-0,050	-0,036
-174,198	-27,419	-0,117	0,048
-173,183	624,306	-0,027	-0,049
-172,169	796,441	-0,013	-0,026
-171,154	-123,011	-0,060	0,007
-170,139	-189,757	-0,151	0,001
-169,125	115,845	0,029	0,025
-168,110	-200,000	-0,002	-0,009
-167,096	30,685	-0,068	-0,041
-166,081	-125,404	-0,087	-0,009
-165,066	252,362	-0,032	0,039
-164,052	800,000	-0,040	-0,092
-163,037	-200,000	0,034	-0,113
-162,023	577,328	-0,031	0,054
-161,008	233,266	-0,056	0,066
-159,993	-117,769	-0,011	-0,001
-158,979	90,327	0,078	0,062
-157,964	535,657	-0,027	-0,046
-156,950	283,670	-0,057	-0,072
-155,935	800,000	0,052	-0,148
-154,920	800,000	-0,025	-0,067
-153,906	-200,000	-0,012	0,095
-152,891	-49,221	-0,040	0,014
-151,877	30,891	-0,094	0,057
-150,862	-200,000	0,002	0,034
-149,847	-141,596	-0,043	-0,003
-148,833	-200,000	-0,006	-0,116
-147,818	-200,000	-0,000	-0,013
-146,804	-200,000	0,013	-0,087
-145,789	513,248	-0,027	-0,046
-144,775	-200,000	0,025	-0,080
-143,760	-200,000	-0,026	-0,126
-142,745	-86,331	-0,064	0,014
-141,731	-200,000	-0,020	0,086
-140,716	364,067	-0,046	-0,066
-139,702	-149,373	0,111	-0,006
-138,687	62,561	-0,088	-0,063
-137,672	44,082	-0,066	-0,043
-136,658	-34,128	-0,036	-0,014
-135,643	-200,000	-0,018	-0,070
-134,629	184,799	0,018	-0,019
-133,614	-98,873	0,085	-0,015
-132,599	511,403	0,045	0,074
-131,585	-200,000	-0,008	0,136
-130,570	-75,301	-0,153	-0,038
-129,556	317,388	0,029	-0,039
-128,541	156,943	-0,054	-0,053
-127,526	-200,000	0,017	-0,059
-126,512	-200,000	-0,028	0,125
-125,497	495,759	-0,034	0,056
-124,483	-200,000	-0,014	0,147
-123,468	-200,000	0,010	0,137
-122,453	-1,808	-0,114	-0,057
-121,439	-196,046	-0,112	-0,001
-120,424	367,988	0,062	-0,090
