DTS Sentinel unit serial number:	SN410029Multiplexer serial number:	ORYXHardware model number:	OX2-SRSoftware version number:	ORYX F/W v4,00 Oryx Data Collector v3.7.2.0data status	okinstallation	B6 Nyhavnadifferential loss correction	single-endedforward channel	channel 2reverse channel	N/Adate	2023/12/10time	04:45:08forward acquisition time	300,00reverse acquisition time	0,00gamma	499,1914k internal	0,3125k external	0,3125temperature offset calibration	1,0000default loss term (dB/km)	0,3820temperature slope calibration	1,0000multiplexer offset coefficient	1,0000multiplexer slope coefficient	1,0000fibre end	0,00T internal ref (°C)	22,26T ext. ref 1 (°C)	6,34T ext. ref 2 (°C)	6,31length (m)	temperature (°C)	Stokes	anti-Stokes-744,400	402,463	0,142	-0,223
-743,385	-66,832	-0,230	0,067
-742,371	-13,435	0,099	-0,048
-741,356	-6,262	-0,097	0,049
-740,342	356,403	0,039	0,059
-739,327	-132,806	-0,209	0,020
-738,312	-11,317	-0,041	-0,020
-737,298	91,934	-0,212	0,178
-736,283	51,753	0,110	-0,078
-735,269	41,882	-0,227	0,153
-734,254	204,398	0,072	-0,083
-733,239	-124,641	-0,457	-0,052
-732,225	30,138	0,230	-0,146
-731,210	598,011	0,034	0,063
-730,196	-200,000	-0,001	0,024
-729,181	157,189	0,053	0,055
-728,167	-162,679	0,070	-0,003
-727,152	-72,090	-0,118	0,032
-726,137	85,837	-0,052	0,043
-725,123	104,667	-0,165	-0,145
-724,108	-200,000	-0,005	-0,020
-723,094	-57,727	-0,202	-0,066
-722,079	-200,000	-0,005	0,022
-721,064	-112,304	-0,159	-0,023
-720,050	165,658	-0,071	-0,075
-719,035	-3,624	-0,157	-0,081
-718,021	61,986	0,087	-0,064
-717,006	-200,000	0,009	-0,038
-715,991	213,674	-0,098	-0,115
-714,977	-20,288	-0,087	-0,040
-713,962	-200,000	-0,003	-0,143
-712,948	-102,219	0,080	0,014
-711,933	-70,611	0,144	-0,040
-710,918	91,254	0,100	0,084
-709,904	-200,000	-0,009	0,143
-708,889	354,969	0,014	0,021
-707,875	-200,000	0,019	-0,120
-706,860	335,007	-0,047	-0,069
-705,845	-74,468	0,164	-0,044
-704,831	-200,000	0,002	0,050
-703,816	113,109	-0,133	-0,120
-702,802	800,000	-0,017	-0,040
-701,787	-113,374	0,029	-0,004
-700,772	194,930	0,051	0,057
-699,758	-200,000	0,002	0,017
-698,743	-200,000	0,014	0,067
-697,729	-52,139	-0,067	0,023
-696,714	100,112	-0,028	-0,024
-695,699	-200,000	0,031	-0,120
-694,685	-43,540	-0,111	0,042
-693,670	529,954	-0,040	0,070
-692,656	-13,798	-0,095	0,045
-691,641	162,466	0,112	-0,117
-690,627	147,530	0,057	0,057
-689,612	133,465	-0,067	-0,065
-688,597	622,596	-0,012	0,022
-687,583	-200,000	0,013	-0,126
-686,568	-200,000	0,026	-0,162
-685,554	-200,000	-0,016	-0,057
-684,539	-138,272	0,139	0,011
-683,524	41,197	0,104	0,070
-682,510	119,655	-0,107	-0,098
-681,495	-200,000	-0,007	-0,175
-680,481	20,311	-0,147	0,088
-679,466	-9,027	-0,019	-0,009
-678,451	146,548	-0,022	0,022
-677,437	-21,346	-0,089	0,040
-676,422	28,403	-0,104	-0,065
-675,408	-20,908	0,112	0,051
-674,393	-106,383	0,128	-0,021
-673,378	175,709	-0,083	-0,089
-672,364	191,490	-0,088	-0,098
-671,349	459,588	-0,090	-0,150
-670,335	795,643	0,031	-0,063
-669,320	-116,933	0,083	0,011
-668,305	31,358	-0,100	0,063
-667,291	-75,762	-0,112	-0,029
-666,276	35,297	-0,061	0,040
-665,262	798,798	-0,091	-0,187
-664,247	553,620	-0,120	-0,216
-663,232	-200,000	0,026	-0,090
-662,218	146,544	-0,065	-0,065
-661,203	219,460	0,069	0,082
-660,189	60,030	0,068	0,050
-659,174	138,717	-0,133	-0,129
-658,159	-200,000	0,025	-0,168
-657,145	-42,174	-0,092	-0,035
-656,130	-200,000	-0,030	0,106
-655,116	-200,000	0,006	0,031
-654,101	517,073	0,053	-0,093
-653,086	-122,367	0,028	0,003
-652,072	62,517	-0,051	0,038
-651,057	-153,017	-0,018	0,001
-650,043	-44,278	0,084	0,031
-649,028	-200,000	-0,023	-0,083
-648,014	-79,885	-0,038	-0,009
-646,999	26,931	-0,014	0,009
-645,984	381,521	0,083	-0,127
-644,970	123,231	-0,017	-0,015
-643,955	800,000	-0,026	-0,079
-642,941	-126,812	-0,143	0,015
-641,926	800,000	0,029	-0,068
-640,911	-75,144	-0,095	0,025
-639,897	26,459	0,104	0,064
-638,882	-200,000	0,007	0,105
-637,868	196,275	0,092	-0,104
-636,853	-200,000	-0,005	-0,084
-635,838	-200,000	-0,007	-0,071
-634,824	209,460	-0,105	-0,123
-633,809	119,184	0,048	0,044
-632,795	394,907	0,076	0,118
-631,780	254,762	0,040	0,051
-630,765	-117,013	-0,024	-0,003
-629,751	-121,913	-0,063	-0,008
-628,736	-200,000	0,002	-0,089
-627,722	-129,222	-0,052	-0,005
-626,707	768,845	-0,028	-0,056
-625,692	-163,654	0,093	-0,003
-624,678	-200,000	0,003	-0,017
-623,663	-200,000	0,010	0,040
-622,649	-200,000	-0,001	0,110
-621,634	-200,000	0,006	0,021
-620,619	800,000	-0,041	-0,106
-619,605	177,370	0,012	0,013
-618,590	-200,000	0,001	-0,027
-617,576	294,038	-0,039	-0,052
-616,561	304,382	0,027	0,037
-615,546	-199,633	-0,071	0,000
-614,532	-12,557	-0,154	-0,074
-613,517	788,980	0,021	0,042
-612,503	282,539	-0,064	0,086
-611,488	-200,000	0,014	0,070
-610,474	113,540	0,089	-0,080
-609,459	-200,000	0,009	0,063
-608,444	-11,353	0,072	0,035
-607,430	68,852	-0,101	-0,077
-606,415	-200,000	0,017	-0,079
-605,401	800,000	-0,022	-0,058
-604,386	-200,000	0,011	0,063
-603,371	-178,630	0,165	0,003
-602,357	223,881	0,065	0,078
-601,342	-16,279	-0,088	-0,041
-600,328	800,000	-0,032	-0,093
-599,313	800,000	-0,042	-0,115
-598,298	-200,000	-0,011	-0,096
-597,284	202,421	-0,122	0,140
-596,269	311,151	-0,081	0,113
-595,255	161,764	0,040	0,042
-594,240	-65,950	0,058	-0,017
-593,225	770,348	-0,021	-0,043
-592,211	-200,000	0,009	-0,140
-591,196	528,522	-0,065	-0,115
-590,182	207,615	0,041	-0,047
-589,167	800,000	0,003	-0,006
-588,152	106,714	0,009	-0,008
-587,138	-123,654	0,071	-0,008
-586,123	-200,000	0,001	-0,102
-585,109	343,627	0,118	-0,172
-584,094	-200,000	0,020	0,082
-583,079	-188,071	-0,052	0,000
-582,065	-200,000	0,009	0,097
-581,050	110,170	0,071	-0,063
-580,036	30,735	-0,140	-0,088
-579,021	28,460	0,031	-0,019
-578,006	345,062	-0,043	-0,062
-576,992	-200,000	-0,002	-0,182
-575,977	72,633	0,062	-0,048
-574,963	-200,000	-0,028	0,145
-573,948	800,000	-0,043	-0,101
-572,934	-9,177	0,106	0,052
-571,919	-200,000	-0,027	0,116
-570,904	203,598	-0,058	-0,067
-569,890	-41,632	0,067	-0,025
-568,875	-180,047	0,166	-0,003
-567,861	747,803	-0,081	0,162
-566,846	800,000	-0,006	0,012
-565,831	138,757	0,024	0,024
-564,817	290,866	0,081	-0,110
-563,802	602,358	-0,057	-0,105
-562,788	19,707	0,040	-0,024
-561,773	-200,000	0,022	0,081
-560,758	-200,000	0,016	0,123
-559,744	128,245	-0,099	0,093
-558,729	-200,000	-0,008	-0,028
-557,715	427,276	0,016	0,025
-556,700	-110,143	-0,121	-0,018
-555,685	88,705	0,067	0,055
-554,671	80,099	0,088	-0,070
-553,656	-200,000	0,014	0,074
-552,642	-200,000	-0,008	0,043
-551,627	-20,633	0,067	-0,030
-550,612	800,000	0,040	0,094
-549,598	-200,000	0,024	-0,103
-548,583	19,468	-0,058	-0,034
-547,569	-82,861	0,018	-0,004
-546,554	16,609	-0,060	-0,035
-545,539	12,686	0,107	-0,061
-544,525	191,477	-0,074	0,083
-543,510	800,000	-0,044	-0,093
-542,496	45,356	-0,095	-0,065
-541,481	-32,204	-0,147	0,061
-540,466	3,535	0,018	0,010
-539,452	-112,957	-0,121	0,018
-538,437	-200,000	0,022	-0,090
-537,423	84,882	0,050	-0,040
-536,408	158,198	0,072	0,074
-535,393	800,000	0,033	-0,080
-534,379	220,707	0,032	0,038
-533,364	26,598	0,130	0,080
-532,350	-59,970	-0,031	-0,010
-531,335	800,000	-0,044	0,125
-530,321	17,532	-0,046	-0,027
-529,306	800,000	-0,043	-0,125
-528,291	274,097	0,023	0,031
-527,277	800,000	-0,033	-0,076
-526,262	800,000	0,024	-0,070
-525,248	322,245	0,129	-0,182
-524,233	-65,487	-0,092	0,027
-523,218	60,658	-0,091	0,067
-522,204	-200,000	-0,009	0,046
-521,189	698,912	0,012	0,023
-520,175	800,000	0,061	-0,141
-519,160	-200,000	0,016	-0,054
-518,145	-30,134	0,028	-0,012
-517,131	800,000	0,047	0,106
-516,116	235,236	0,047	-0,058
-515,102	-200,000	-0,033	-0,110
-514,087	236,330	0,101	-0,124
-513,072	-97,562	0,085	-0,016
-512,058	414,119	0,056	0,089
-511,043	569,747	0,055	-0,099
-510,029	521,197	-0,037	-0,065
-509,014	-174,936	-0,068	0,001
-507,999	-131,556	0,053	0,005
-506,985	800,000	-0,025	-0,054
-505,970	800,000	-0,031	-0,070
-504,956	800,000	0,017	0,051
-503,941	291,009	0,047	-0,063
-502,926	-76,481	0,033	-0,008
-501,912	800,000	0,017	-0,051
-500,897	-113,605	0,074	-0,011
-499,883	-200,000	0,001	0,127
-498,868	-200,000	0,000	-0,018
-497,853	-47,576	-0,120	-0,043
-496,839	-200,000	0,017	-0,068
-495,824	-200,000	-0,011	0,066
-494,810	15,113	0,115	0,066
-493,795	54,466	-0,057	0,040
-492,781	-114,467	0,104	-0,015
-491,766	381,801	-0,048	0,073
-490,751	-31,427	-0,129	0,053
-489,737	-200,000	0,003	0,079
-488,722	-38,266	0,081	-0,031
-487,708	144,624	-0,048	0,047
-486,693	65,913	0,083	0,062
-485,678	-200,000	-0,010	0,090
-484,664	800,000	-0,058	0,157
-483,649	-71,179	-0,077	0,021
-482,635	87,326	-0,031	-0,026
-481,620	-4,689	0,049	0,025
-480,605	-45,815	0,129	-0,047
-479,591	778,099	0,072	0,147
-478,576	449,967	-0,069	-0,112
-477,562	-46,165	-0,115	0,042
-476,547	355,004	-0,109	0,161
-475,532	239,579	0,054	0,067
-474,518	41,860	-0,092	-0,061
-473,503	-97,530	0,042	0,008
-472,489	-200,000	-0,018	0,081
-471,474	-200,000	-0,039	-0,162
-470,459	-200,000	-0,014	-0,050
-469,445	-200,000	-0,014	-0,211
-468,430	-124,464	-0,138	0,016
-467,416	54,760	0,035	0,025
-466,401	441,687	0,095	0,154
-465,386	185,518	-0,107	0,117
-464,372	-200,000	0,004	0,027
-463,357	800,000	-0,022	0,052
-462,343	-33,199	-0,052	-0,021
-461,328	-108,560	0,029	0,004
-460,313	800,000	-0,054	-0,141
-459,299	-200,000	0,041	-0,158
-458,284	-65,715	-0,088	-0,026
-457,270	-2,359	-0,055	0,028
-456,255	-4,346	-0,134	-0,068
-455,241	-171,952	-0,053	-0,001
-454,226	221,688	0,031	0,037
-453,211	-200,000	0,013	-0,129
-452,197	-123,172	0,099	-0,012
-451,182	-200,000	0,008	-0,038
-450,168	459,144	-0,075	0,124
-449,153	-55,670	0,066	-0,022
-448,138	127,794	0,082	0,077
-447,124	-27,104	-0,030	-0,013
-446,109	800,000	0,041	-0,132
-445,095	-85,429	0,114	0,026
-444,080	-146,735	0,085	-0,005
-443,065	134,766	0,066	-0,063
-442,051	-200,000	-0,020	-0,087
-441,036	7,706	0,050	-0,027
-440,022	389,791	0,059	-0,090
-439,007	-142,624	0,154	0,011
-437,992	53,819	-0,028	0,020
-436,978	-17,174	-0,016	0,007
-435,963	395,918	0,020	-0,031
-434,949	-200,000	0,011	0,043
-433,934	87,228	-0,021	-0,017
-432,919	-153,089	-0,090	0,005
-431,905	-200,000	0,009	0,046
-430,890	-72,952	0,136	-0,036
-429,876	-55,840	0,184	0,060
-428,861	-12,334	0,170	0,082
-427,846	126,695	-0,091	-0,084
-426,832	88,759	-0,096	0,078
-425,817	800,000	0,051	-0,108
-424,803	-161,924	0,060	0,002
-423,788	-37,065	0,054	-0,021
-422,773	322,591	0,043	-0,060
-421,759	-200,000	0,022	-0,119
-420,744	-85,651	0,084	0,019
-419,730	800,000	-0,057	-0,125
-418,715	-159,862	-0,148	0,006
-417,701	-200,000	-0,037	-0,121
-416,686	-56,917	0,074	-0,024
-415,671	-200,000	0,004	0,047
-414,657	-80,433	0,091	0,022
-413,642	204,417	0,041	-0,047
-412,628	371,136	0,002	0,003
-411,613	439,495	-0,025	0,040
-410,598	-29,490	0,128	0,053
-409,584	800,000	0,031	-0,069
-408,569	-200,000	-0,006	0,054
-407,555	-72,443	-0,068	-0,018
-406,540	16,045	-0,098	0,057
-405,525	88,701	-0,084	-0,068
-404,511	-104,026	0,019	-0,003
-403,496	-107,268	0,174	-0,028
-402,482	-26,114	0,117	-0,050
-401,467	183,728	0,071	-0,077
-400,452	-200,000	-0,029	-0,119
-399,438	244,951	0,081	0,100
-398,423	-35,733	-0,079	0,031
-397,409	-38,534	0,089	0,034
-396,394	-123,381	0,079	-0,009
-395,379	306,665	0,037	-0,051
-394,365	800,000	-0,037	0,096
-393,350	-121,123	0,142	0,017
-392,336	334,518	-0,035	0,050
-391,321	-46,480	0,132	0,047
-390,306	474,673	-0,062	0,103
-389,292	-135,356	-0,078	0,007
-388,277	-200,000	0,010	0,034
-387,263	392,596	0,065	0,100
-386,248	800,000	0,045	0,113
-385,233	-200,000	-0,039	0,153
-384,219	-98,874	-0,100	-0,019
-383,204	-200,000	0,022	0,098
-382,190	-137,489	-0,147	0,012
-381,175	-155,055	-0,101	-0,005
-380,160	407,312	0,037	0,057
-379,146	-200,000	0,033	0,135
-378,131	-200,000	-0,016	-0,056
-377,117	-200,000	0,008	0,038
-376,102	597,437	-0,009	0,016
-375,088	-87,266	-0,114	-0,025
-374,073	174,912	-0,092	-0,098
-373,058	-94,018	-0,076	-0,015
-372,044	-36,667	0,044	-0,017
-371,029	-200,000	-0,070	0,244
-370,015	-30,903	-0,078	-0,032
-369,000	800,000	-0,025	-0,060
-367,985	-173,635	-0,113	0,002
-366,971	-120,669	0,047	-0,006
-365,956	-200,000	0,004	-0,051
-364,942	200,749	0,036	-0,041
-363,927	-15,665	-0,098	0,046
-362,912	800,000	0,034	0,083
-361,898	800,000	0,059	-0,121
-360,883	187,729	-0,055	0,061
-359,869	-112,599	-0,072	0,010
-358,854	124,647	-0,118	0,109
-357,839	179,116	0,049	0,053
-356,825	800,000	-0,086	0,195
-355,810	527,957	0,086	0,149
-354,796	-200,000	0,011	0,040
-353,781	-81,651	-0,167	0,040
-352,766	800,000	0,053	-0,113
-351,752	-91,776	0,116	-0,024
-350,737	-200,000	-0,036	0,162
-349,723	-144,201	0,231	-0,016
-348,708	-132,799	-0,012	-0,001
-347,693	358,819	-0,051	0,075
-346,679	53,778	-0,069	-0,049
-345,664	800,000	0,064	-0,150
-344,650	-200,000	0,032	0,120
-343,635	499,450	0,031	-0,052
-342,620	242,226	0,029	0,035
-341,606	-0,937	-0,022	0,011
-340,591	-200,000	0,001	-0,060
-339,577	-22,375	-0,060	-0,027
-338,562	44,896	-0,058	-0,039
-337,548	312,807	0,030	-0,042
-336,533	-181,794	0,010	-0,000
-335,518	800,000	-0,018	-0,040
-334,504	-200,000	-0,005	-0,027
-333,489	-200,000	-0,035	0,169
-332,475	800,000	-0,043	0,099
-331,460	-67,216	-0,043	0,012
-330,445	-40,381	0,103	-0,039
-329,431	79,855	0,070	0,055
-328,416	-200,000	0,014	0,099
-327,402	-200,000	0,002	0,118
-326,387	555,483	-0,034	-0,061
-325,372	229,576	-0,104	-0,124
-324,358	-77,660	-0,135	0,034
-323,343	-187,126	0,137	0,001
-322,329	-127,425	0,147	-0,015
-321,314	-200,000	-0,015	0,065
-320,299	-114,557	0,084	-0,012
-319,285	73,064	0,050	-0,039
-318,270	22,998	-0,096	-0,057
-317,256	-200,000	0,014	-0,046
-316,241	11,157	-0,055	-0,030
-315,226	-140,724	-0,069	-0,005
-314,212	9,251	0,074	0,041
-313,197	445,130	-0,029	-0,047
-312,183	-65,588	0,092	0,027
-311,168	-97,084	0,071	0,013
-310,153	-127,065	0,109	0,012
-309,139	-11,695	0,077	0,037
-308,124	-95,225	0,139	-0,027
-307,110	44,573	0,098	0,066
-306,095	577,483	-0,019	0,034
-305,080	16,345	0,090	0,052
-304,066	13,621	0,018	-0,010
-303,051	-68,967	0,087	0,024
-302,037	43,614	-0,109	0,073
-301,022	364,660	0,050	0,073
-300,008	62,918	-0,087	0,064
-298,993	800,000	0,031	0,096
-297,978	-12,024	-0,094	0,045
-296,964	-75,257	-0,131	-0,034
-295,949	410,887	0,024	0,037
-294,935	23,141	0,053	-0,032
-293,920	169,327	-0,097	-0,101
-292,905	-200,000	-0,002	-0,014
-291,891	351,929	0,108	0,157
-290,876	-200,000	0,010	-0,040
-289,862	702,686	0,045	0,088
-288,847	-200,000	-0,006	-0,074
-287,832	800,000	-0,061	-0,169
-286,818	-163,920	0,095	0,003
-285,803	89,458	0,019	-0,015
-284,789	-18,159	-0,056	0,026
-283,774	251,090	-0,035	0,043
-282,759	800,000	-0,019	-0,059
-281,745	52,053	-0,018	-0,013
-280,730	284,498	0,055	-0,072
-279,716	210,395	-0,030	0,034
-278,701	309,911	-0,096	0,132
-277,686	559,775	-0,007	-0,012
-276,672	-143,068	-0,083	0,006
-275,657	-71,935	-0,095	0,026
-274,643	-200,000	0,023	-0,084
-273,628	-200,000	-0,005	-0,122
-272,613	-89,012	-0,099	0,021
-271,599	-97,454	0,049	0,009
-270,584	800,000	-0,027	-0,067
-269,570	-200,000	-0,004	0,022
-268,555	70,126	-0,046	-0,035
-267,540	-89,848	-0,015	-0,003
-266,526	181,022	-0,032	0,035
-265,511	-200,000	-0,008	-0,197
-264,497	-12,974	0,019	-0,009
-263,482	-13,880	-0,012	0,006
-262,467	-92,219	-0,017	0,003
-261,453	190,727	-0,045	0,049
-260,438	-62,726	-0,054	0,016
-259,424	-200,000	-0,003	0,131
-258,409	-89,629	-0,143	-0,030
-257,395	-43,183	0,200	0,074
-256,380	800,000	0,013	0,036
-255,365	-200,000	0,003	-0,014
-254,351	800,000	0,042	0,115
-253,336	-150,143	-0,078	-0,004
-252,322	604,973	-0,003	-0,005
-251,307	180,640	0,038	-0,041
-250,292	337,066	-0,022	0,031
-249,278	-200,000	-0,004	0,025
-248,263	-140,643	0,063	0,005
-247,249	-9,979	0,120	0,058
-246,234	-151,689	0,052	0,003
-245,219	511,819	-0,065	-0,111
-244,205	222,981	0,071	-0,083
-243,190	-200,000	-0,015	0,098
-242,176	226,363	-0,072	0,085
-241,161	-200,000	0,008	0,191
-240,146	190,183	0,032	0,035
-239,132	800,000	-0,045	0,098
-238,117	257,554	-0,083	-0,105
-237,103	800,000	-0,019	0,047
-236,088	5,129	0,126	-0,068
-235,073	-200,000	0,009	-0,059
-234,059	92,277	-0,065	0,054
-233,044	-35,046	-0,056	-0,022
-232,030	652,143	-0,066	0,125
-231,015	-200,000	-0,026	-0,112
-230,000	-174,869	-0,148	0,003
-228,986	88,555	0,038	-0,031
-227,971	800,000	-0,075	0,185
-226,957	49,908	0,047	0,032
-225,942	-200,000	0,015	0,139
-224,927	-66,844	-0,017	0,005
-223,913	-200,000	-0,004	-0,036
-222,898	-200,000	0,001	-0,013
-221,884	800,000	-0,035	0,096
-220,869	152,933	0,020	0,020
-219,855	96,043	0,042	0,035
-218,840	61,972	0,099	0,072
-217,825	141,241	-0,119	0,115
-216,811	-98,770	-0,075	0,014
-215,796	11,669	-0,164	-0,092
-214,782	-77,832	0,014	-0,003
-213,767	-200,000	0,007	-0,099
-212,752	283,049	0,023	0,030
-211,738	-125,447	-0,057	-0,006
-210,723	5,074	-0,037	0,020
-209,709	205,255	0,070	0,079
-208,694	-3,596	0,073	-0,037
-207,679	42,303	0,097	-0,064
-206,665	-200,000	-0,025	0,108
-205,650	-200,000	-0,014	-0,048
-204,636	258,782	-0,018	0,023
-203,621	-84,300	0,027	0,006
-202,606	-112,058	0,076	-0,011
-201,592	-200,000	0,021	-0,180
-200,577	-32,827	0,164	-0,066
-199,563	176,170	-0,030	-0,032
-198,548	395,778	0,068	-0,103
-197,533	-66,191	0,108	0,031
-196,519	359,053	-0,024	0,034
-195,504	-200,000	-0,022	0,083
-194,490	137,080	-0,067	-0,064
-193,475	-172,417	-0,140	0,003
-192,460	-173,194	0,001	0,000
-191,446	800,000	0,022	0,066
-190,431	-88,279	0,141	-0,030
-189,417	113,479	0,066	0,058
-188,402	193,083	-0,046	-0,051
-187,387	34,956	0,039	-0,025
-186,373	11,086	-0,023	0,013
-185,358	-77,049	-0,168	0,042
-184,344	292,935	-0,056	-0,075
-183,329	800,000	0,009	0,022
-182,315	13,347	0,062	0,035
-181,300	-200,000	-0,007	-0,055
-180,285	150,750	-0,058	-0,058
-179,271	-115,418	-0,054	0,007
-178,256	194,977	-0,073	-0,081
-177,242	-81,878	0,157	0,037
-176,227	163,591	0,032	0,033
-175,212	-200,000	0,011	0,053
-174,198	-200,000	-0,037	0,197
-173,183	2,034	-0,158	0,083
-172,169	60,738	-0,112	0,081
-171,154	-127,949	-0,063	0,007
-170,139	-30,275	0,041	0,017
-169,125	-200,000	0,009	-0,055
-168,110	116,111	-0,064	-0,057
-167,096	-200,000	-0,033	0,117
-166,081	92,949	-0,094	-0,077
-165,066	800,000	0,068	-0,160
-164,052	-20,333	0,039	-0,017
-163,037	800,000	-0,082	-0,191
-162,023	-200,000	-0,002	-0,067
-161,008	-200,000	0,013	0,051
-159,993	-29,165	0,073	-0,030
-158,979	514,984	0,028	-0,048
-157,964	528,600	-0,067	-0,116
-156,950	-11,231	-0,141	-0,068
-155,935	-107,936	0,096	-0,015
-154,920	-200,000	-0,002	0,081
-153,906	24,717	-0,022	0,013
-152,891	111,606	-0,004	-0,003
-151,877	147,301	0,035	0,034
-150,862	-6,618	0,067	0,033
-149,847	-54,032	0,146	-0,048
-148,833	644,359	-0,054	0,100
-147,818	-200,000	-0,065	-0,234
-146,804	800,000	0,020	0,043
-145,789	800,000	-0,000	0,001
-144,775	250,892	-0,119	-0,147
-143,760	333,238	0,092	-0,130
-142,745	4,629	0,023	-0,012
-141,731	-76,141	0,038	0,010
-140,716	170,804	-0,019	0,020
-139,702	241,980	-0,074	0,091
-138,687	678,164	0,016	-0,031
-137,672	-50,501	-0,153	-0,052
-136,658	213,399	-0,068	0,078
-135,643	110,166	0,075	-0,065
-134,629	-200,000	-0,015	-0,119
-133,614	800,000	0,030	-0,090
-132,599	473,027	-0,025	0,042
-131,585	800,000	-0,080	0,171
-130,570	-158,356	-0,028	-0,001
-129,556	114,317	-0,010	-0,009
-128,541	-200,000	0,016	-0,082
-127,526	-7,001	0,099	-0,049
-126,512	-200,000	0,022	-0,141
-125,497	800,000	-0,068	-0,140
-124,483	-200,000	-0,041	0,161
-123,468	127,423	-0,028	-0,026
-122,453	-200,000	-0,008	-0,119
-121,439	-200,000	-0,027	0,124
-120,424	-200,000	0,016	0,069
-119,410	179,231	0,018	0,019
