DTS Sentinel unit serial number:	SN410029Multiplexer serial number:	ORYXHardware model number:	OX2-SRSoftware version number:	ORYX F/W v4,00 Oryx Data Collector v3.7.2.0data status	okinstallation	B6 Nyhavnadifferential loss correction	single-endedforward channel	channel 2reverse channel	N/Adate	2023/12/10time	09:15:08forward acquisition time	300,00reverse acquisition time	0,00gamma	499,1914k internal	0,3123k external	0,3123temperature offset calibration	1,0000default loss term (dB/km)	0,3820temperature slope calibration	1,0000multiplexer offset coefficient	1,0000multiplexer slope coefficient	1,0000fibre end	0,00T internal ref (°C)	22,56T ext. ref 1 (°C)	6,30T ext. ref 2 (°C)	6,32length (m)	temperature (°C)	Stokes	anti-Stokes-744,400	-200,000	-0,007	-0,085
-743,385	58,087	-0,261	0,190
-742,371	-200,000	-0,007	0,043
-741,356	-94,735	-0,170	0,034
-740,342	65,211	0,160	-0,120
-739,327	43,774	-0,160	0,109
-738,312	11,635	-0,106	0,061
-737,298	29,676	-0,280	0,177
-736,283	-200,000	-0,022	-0,102
-735,269	409,809	-0,120	0,191
-734,254	50,683	0,131	0,092
-733,239	-128,009	-0,406	-0,043
-732,225	-152,862	0,116	0,006
-731,210	-200,000	0,007	0,047
-730,196	-200,000	0,005	-0,060
-729,181	-53,753	0,042	-0,014
-728,167	-200,000	0,009	-0,170
-727,152	-32,031	-0,025	-0,010
-726,137	-200,000	0,012	0,055
-725,123	-200,000	-0,011	0,113
-724,108	800,000	0,029	-0,070
-723,094	800,000	-0,052	-0,143
-722,079	30,629	-0,030	-0,019
-721,064	-133,806	-0,064	0,006
-720,050	161,294	0,059	0,062
-719,035	-7,084	-0,172	0,087
-718,021	-200,000	0,018	-0,095
-717,006	-74,069	0,079	-0,021
-715,991	325,694	-0,055	-0,079
-714,977	95,344	0,038	-0,032
-713,962	800,000	-0,024	0,062
-712,948	7,991	0,016	-0,009
-711,933	-15,634	-0,112	0,053
-710,918	699,630	-0,030	-0,060
-709,904	800,000	0,048	-0,120
-708,889	111,408	-0,049	-0,044
-707,875	360,103	-0,022	-0,034
-706,860	-200,000	0,018	0,101
-705,845	-16,613	0,060	0,028
-704,831	-48,966	0,093	0,033
-703,816	125,686	-0,085	-0,080
-702,802	-89,578	-0,106	0,023
-701,787	169,087	-0,150	-0,159
-700,772	147,996	0,024	0,024
-699,758	18,965	-0,072	0,043
-698,743	-58,051	0,120	-0,039
-697,729	204,050	0,068	-0,078
-696,714	-122,416	0,116	-0,014
-695,699	800,000	-0,027	-0,058
-694,685	259,919	-0,075	-0,097
-693,670	353,843	-0,034	-0,050
-692,656	-169,014	0,195	-0,005
-691,641	8,753	0,033	0,018
-690,627	-75,834	-0,038	-0,010
-689,612	-28,736	0,083	-0,036
-688,597	-200,000	-0,011	-0,080
-687,583	-37,957	-0,040	-0,016
-686,568	-200,000	0,019	-0,081
-685,554	-48,428	0,146	0,052
-684,539	-141,923	0,137	-0,010
-683,524	116,865	-0,009	-0,008
-682,510	86,384	-0,061	0,050
-681,495	6,069	-0,052	-0,028
-680,481	86,399	0,079	-0,065
-679,466	-66,736	0,049	0,014
-678,451	342,692	-0,064	-0,094
-677,437	800,000	0,037	-0,097
-676,422	89,124	-0,113	0,093
-675,408	-200,000	-0,012	0,129
-674,393	800,000	-0,025	-0,073
-673,378	293,812	-0,096	-0,131
-672,364	-200,000	-0,038	-0,142
-671,349	-200,000	-0,013	-0,053
-670,335	-91,178	0,112	0,024
-669,320	-98,804	-0,186	-0,035
-668,305	-51,013	0,087	0,030
-667,291	259,237	-0,073	-0,094
-666,276	295,575	-0,060	-0,081
-665,262	-71,185	0,037	0,010
-664,247	245,376	-0,075	-0,094
-663,232	208,468	0,138	0,160
-662,218	125,513	0,099	-0,093
-661,203	57,926	-0,021	-0,015
-660,189	800,000	0,059	-0,126
-659,174	113,710	0,030	0,027
-658,159	154,369	-0,111	-0,113
-657,145	24,774	-0,172	-0,106
-656,130	-123,590	-0,149	-0,017
-655,116	-97,108	-0,081	0,016
-654,101	399,300	0,009	0,014
-653,086	16,389	-0,137	-0,080
-652,072	2,741	-0,067	0,036
-651,057	-104,861	-0,012	0,002
-650,043	-45,093	-0,063	0,023
-649,028	138,692	0,098	0,095
-648,014	-39,334	0,088	-0,034
-646,999	-200,000	0,005	-0,114
-645,984	-200,000	-0,007	0,053
-644,970	367,533	-0,007	-0,011
-643,955	-144,393	-0,197	0,013
-642,941	16,267	-0,107	-0,062
-641,926	-52,571	-0,101	0,034
-640,911	-200,000	0,014	0,105
-639,897	800,000	-0,024	0,056
-638,882	-46,749	0,069	-0,025
-637,868	45,342	-0,077	0,053
-636,853	800,000	0,050	-0,164
-635,838	-200,000	0,014	-0,334
-634,824	-200,000	-0,004	-0,138
-633,809	-109,771	0,110	-0,017
-632,795	800,000	0,043	0,122
-631,780	486,542	-0,015	0,025
-630,765	-200,000	-0,035	-0,143
-629,751	800,000	-0,034	0,080
-628,736	689,573	0,061	0,119
-627,722	-127,350	-0,069	-0,007
-626,707	12,261	-0,067	-0,038
-625,692	-68,883	-0,014	0,004
-624,678	-200,000	0,009	-0,051
-623,663	167,493	-0,106	-0,112
-622,649	-88,022	-0,162	0,036
-621,634	-183,747	-0,063	-0,001
-620,619	-133,226	0,025	0,002
-619,605	-200,000	0,003	0,037
-618,590	-200,000	0,004	0,166
-617,576	58,057	0,032	0,023
-616,561	800,000	0,013	-0,040
-615,546	-27,697	-0,072	-0,031
-614,532	-154,079	-0,109	0,005
-613,517	306,162	-0,058	-0,081
-612,503	-38,298	-0,098	0,038
-611,488	-200,000	0,009	0,077
-610,474	321,735	0,045	0,064
-609,459	-200,000	0,008	0,107
-608,444	149,198	-0,105	-0,105
-607,430	-107,726	0,020	-0,003
-606,415	-200,000	-0,002	-0,056
-605,401	170,290	-0,087	-0,093
-604,386	-14,890	-0,045	0,021
-603,371	69,870	-0,085	0,065
-602,357	631,556	0,010	0,019
-601,342	-54,451	-0,079	-0,026
-600,328	-84,859	0,090	0,021
-599,313	-200,000	-0,009	0,113
-598,298	-103,560	-0,125	-0,022
-597,284	699,253	0,049	0,097
-596,269	323,423	0,017	0,025
-595,255	-26,818	0,047	-0,020
-594,240	59,904	-0,049	0,036
-593,225	-200,000	-0,013	-0,057
-592,211	29,443	-0,042	0,026
-591,196	84,458	0,017	0,013
-590,182	26,344	0,120	0,074
-589,167	-200,000	0,002	0,049
-588,152	26,614	0,078	0,048
-587,138	187,178	0,011	-0,013
-586,123	635,612	0,051	-0,096
-585,109	269,151	-0,051	0,066
-584,094	-51,632	-0,074	0,026
-583,079	-200,000	-0,047	0,203
-582,065	25,014	-0,139	-0,085
-581,050	-102,071	0,156	0,028
-580,036	800,000	0,023	-0,064
-579,021	-136,633	-0,069	-0,006
-578,006	99,515	-0,036	0,031
-576,992	-90,312	-0,051	0,011
-575,977	497,479	0,089	0,152
-574,963	800,000	-0,047	-0,100
-573,948	243,531	-0,029	0,036
-572,934	61,114	-0,065	0,048
-571,919	63,820	0,122	0,091
-570,904	800,000	-0,066	0,137
-569,890	-19,078	-0,088	0,040
-568,875	-97,316	0,170	-0,032
-567,861	12,613	0,127	0,072
-566,846	-180,592	0,043	0,001
-565,831	-97,684	-0,141	0,027
-564,817	-146,959	-0,104	-0,006
-563,802	-92,140	0,042	0,009
-562,788	-29,787	-0,069	0,029
-561,773	211,503	0,146	-0,170
-560,758	396,941	-0,029	-0,046
-559,744	16,026	0,027	0,016
-558,729	-141,273	-0,050	-0,004
-557,715	391,630	0,016	0,025
-556,700	800,000	-0,016	0,047
-555,685	-200,000	-0,040	-0,224
-554,671	-74,297	-0,066	-0,017
-553,656	-102,950	0,102	0,018
-552,642	-200,000	0,027	0,110
-551,627	292,869	-0,115	-0,155
-550,612	182,042	0,087	-0,095
-549,598	800,000	-0,008	0,022
-548,583	98,559	-0,125	-0,106
-547,569	581,910	-0,054	-0,099
-546,554	-89,833	0,057	0,012
-545,539	-200,000	-0,010	-0,113
-544,525	-200,000	-0,017	-0,058
-543,510	800,000	0,023	0,061
-542,496	51,500	-0,013	0,009
-541,481	-134,327	0,074	0,007
-540,466	290,295	0,069	-0,092
-539,452	131,183	-0,041	-0,039
-538,437	5,339	-0,047	-0,026
-537,423	-200,000	-0,016	0,150
-536,408	800,000	0,014	-0,038
-535,393	99,374	-0,034	-0,029
-534,379	-200,000	0,021	-0,113
-533,364	-200,000	-0,007	0,028
-532,350	-200,000	0,013	0,056
-531,335	-157,551	0,043	-0,002
-530,321	-73,092	0,129	-0,035
-529,306	144,933	-0,112	0,111
-528,291	-122,021	0,013	0,002
-527,277	-38,720	-0,104	-0,040
-526,262	-57,188	-0,024	-0,008
-525,248	63,640	0,145	-0,108
-524,233	-147,515	0,108	-0,007
-523,218	178,712	-0,024	-0,026
-522,204	800,000	0,044	0,139
-521,189	11,735	0,147	-0,083
-520,175	25,521	-0,106	-0,065
-519,160	-85,646	0,095	-0,022
-518,145	1,903	0,029	0,015
-517,131	227,541	0,039	-0,047
-516,116	93,167	0,101	-0,085
-515,102	800,000	0,034	0,079
-514,087	166,620	-0,072	-0,075
-513,072	800,000	-0,040	-0,106
-512,058	45,455	0,017	-0,011
-511,043	-83,043	0,039	-0,009
-510,029	-126,122	0,170	-0,019
-509,014	-200,000	0,008	-0,030
-507,999	-11,732	0,063	-0,030
-506,985	-200,000	0,001	-0,026
-505,970	-6,454	-0,101	-0,051
-504,956	484,498	-0,042	0,071
-503,941	800,000	-0,008	-0,025
-502,926	800,000	0,027	-0,067
-501,912	18,137	0,061	0,036
-500,897	-178,560	-0,064	0,001
-499,883	-200,000	-0,022	0,074
-498,868	800,000	-0,050	-0,130
-497,853	212,336	-0,040	-0,047
-496,839	-200,000	-0,001	0,024
-495,824	-30,092	0,152	0,063
-494,810	118,062	0,159	0,145
-493,795	156,807	-0,093	0,095
-492,781	-62,101	-0,051	0,016
-491,766	-200,000	0,001	-0,104
-490,751	51,858	0,015	-0,010
-489,737	-109,908	0,057	-0,009
-488,722	800,000	-0,081	0,197
-487,708	93,617	-0,062	-0,052
-486,693	-200,000	-0,031	-0,125
-485,678	-200,000	0,001	-0,112
-484,664	190,139	0,021	-0,024
-483,649	58,271	-0,064	0,046
-482,635	11,573	0,135	-0,076
-481,620	-200,000	-0,003	-0,014
-480,605	71,632	0,077	0,059
-479,591	-200,000	0,017	0,068
-478,576	190,503	0,070	0,078
-477,562	177,883	-0,011	0,012
-476,547	98,515	0,162	-0,138
-475,532	-92,957	-0,087	0,018
-474,518	-124,399	0,083	-0,009
-473,503	632,952	0,045	0,084
-472,489	77,949	0,036	0,028
-471,474	-141,928	0,009	0,001
-470,459	44,555	-0,036	-0,025
-469,445	234,444	-0,033	-0,040
-468,430	-22,915	-0,025	-0,011
-467,416	-134,179	-0,069	-0,006
-466,401	379,677	-0,033	-0,050
-465,386	800,000	-0,036	0,106
-464,372	-200,000	-0,020	0,070
-463,357	-200,000	-0,004	-0,025
-462,343	259,767	0,081	-0,103
-461,328	-49,849	-0,159	-0,055
-460,313	9,692	0,067	0,037
-459,299	40,995	0,038	-0,025
-458,284	800,000	0,012	0,038
-457,270	-157,474	0,072	0,003
-456,255	17,228	-0,092	0,053
-455,241	800,000	0,026	0,079
-454,226	131,501	0,062	0,059
-453,211	18,652	0,053	-0,031
-452,197	-200,000	-0,012	0,149
-451,182	-55,482	0,090	0,029
-450,168	8,216	-0,133	-0,074
-449,153	-26,731	-0,159	-0,068
-448,138	-200,000	0,026	-0,125
-447,124	-92,278	-0,063	0,013
-446,109	-200,000	0,041	-0,145
-445,095	-200,000	0,022	0,221
-444,080	-14,392	0,178	-0,084
-443,065	191,590	0,040	-0,045
-442,051	-59,172	0,057	-0,018
-441,036	-30,619	-0,090	-0,037
-440,022	800,000	0,026	0,067
-439,007	12,716	0,066	-0,037
-437,992	128,336	0,127	0,119
-436,978	274,563	0,018	0,023
-435,963	227,688	-0,111	0,134
-434,949	-73,417	0,086	-0,023
-433,934	-200,000	-0,004	-0,102
-432,919	-200,000	-0,033	-0,155
-431,905	-200,000	0,003	0,073
-430,890	-200,000	-0,008	0,030
-429,876	522,102	0,037	0,064
-428,861	-2,421	0,024	-0,012
-427,846	800,000	-0,034	-0,102
-426,832	-200,000	-0,001	0,111
-425,817	-62,204	-0,018	0,005
-424,803	800,000	0,053	-0,128
-423,788	-200,000	-0,011	0,053
-422,773	-53,198	0,106	0,036
-421,759	143,313	0,063	-0,062
-420,744	800,000	-0,048	-0,123
-419,730	-200,000	0,007	-0,072
-418,715	-22,458	-0,111	-0,049
-417,701	-200,000	-0,005	-0,132
-416,686	492,449	0,037	-0,062
-415,671	98,167	0,116	0,099
-414,657	-200,000	-0,003	0,082
-413,642	-200,000	-0,020	0,076
-412,628	-200,000	0,005	0,115
-411,613	-200,000	-0,010	0,039
-410,598	152,959	-0,076	0,077
-409,584	800,000	-0,022	0,065
-408,569	-116,043	0,089	-0,012
-407,555	-200,000	0,011	0,044
-406,540	-76,684	0,121	-0,031
-405,525	-116,828	0,044	-0,006
-404,511	741,062	0,029	0,058
-403,496	-200,000	-0,009	-0,081
-402,482	800,000	0,043	-0,090
-401,467	-90,525	0,084	0,018
-400,452	-12,067	0,057	0,027
-399,438	-200,000	-0,012	0,069
-398,423	125,616	0,077	0,072
-397,409	455,208	0,096	-0,157
-396,394	-97,978	0,081	-0,015
-395,379	-200,000	-0,025	-0,159
-394,365	115,013	0,057	0,051
-393,350	484,642	0,032	0,053
-392,336	-200,000	0,028	0,121
-391,321	-151,101	-0,143	0,008
-390,306	96,059	-0,015	-0,012
-389,292	-200,000	-0,036	-0,164
-388,277	-200,000	0,007	-0,156
-387,263	27,519	-0,060	-0,037
-386,248	351,658	0,092	-0,134
-385,233	61,700	0,032	-0,023
-384,219	99,454	0,063	0,054
-383,204	-28,715	-0,079	-0,033
-382,190	-200,000	0,028	-0,123
-381,175	800,000	-0,007	-0,016
-380,160	800,000	0,047	0,139
-379,146	-128,158	0,177	-0,018
-378,131	652,338	-0,044	0,084
-377,117	-200,000	0,039	-0,165
-376,102	680,114	-0,029	-0,056
-375,088	39,828	-0,159	-0,104
-374,073	48,777	0,102	-0,070
-373,058	-95,042	0,024	-0,005
-372,044	564,897	0,115	0,205
-371,029	-200,000	0,008	0,045
-370,015	-200,000	0,059	0,000
-369,000	800,000	0,051	-0,108
-367,985	-200,000	-0,028	-0,099
-366,971	100,838	-0,045	-0,038
-365,956	56,837	0,056	0,040
-364,942	-200,000	0,025	0,192
-363,927	-36,584	0,029	-0,011
-362,912	294,320	0,049	0,066
-361,898	-70,705	-0,147	0,040
-360,883	-51,299	0,059	0,020
-359,869	-95,902	0,088	0,017
-358,854	-110,084	0,056	-0,009
-357,839	800,000	-0,022	-0,053
-356,825	-200,000	-0,020	0,112
-355,810	44,279	0,059	0,040
-354,796	226,486	-0,033	0,039
-353,781	800,000	-0,028	-0,059
-352,766	595,638	-0,016	-0,030
-351,752	-200,000	0,009	0,107
-350,737	-51,698	0,036	-0,012
-349,723	-200,000	-0,008	-0,092
-348,708	-200,000	0,013	0,120
-347,693	27,103	-0,058	0,036
-346,679	68,648	-0,122	-0,092
-345,664	76,602	-0,092	-0,072
-344,650	-20,750	0,056	0,025
-343,635	800,000	0,052	-0,141
-342,620	800,000	0,040	0,082
-341,606	272,550	0,065	-0,085
-340,591	94,948	-0,100	-0,084
-339,577	-46,336	0,099	-0,035
-338,562	126,470	-0,096	-0,089
-337,548	-50,672	0,086	-0,030
-336,533	-106,873	-0,066	-0,011
-335,518	-200,000	0,004	0,138
-334,504	800,000	0,031	0,070
-333,489	-16,355	0,041	-0,019
-332,475	11,620	-0,156	-0,087
-331,460	416,654	-0,119	-0,187
-330,445	19,191	0,057	-0,034
-329,431	12,162	0,041	0,023
-328,416	800,000	0,060	0,136
-327,402	11,040	-0,040	-0,023
-326,387	-150,521	0,009	0,001
-325,372	800,000	-0,046	-0,119
-324,358	-51,766	0,090	0,031
-323,343	666,039	-0,060	-0,114
-322,329	-133,901	0,111	-0,010
-321,314	-200,000	-0,018	0,190
-320,299	-91,346	0,103	-0,021
-319,285	536,393	0,067	-0,117
-318,270	-97,636	-0,117	-0,022
-317,256	-54,016	-0,123	0,041
-316,241	-200,000	-0,010	-0,217
-315,226	11,510	0,100	0,056
-314,212	-200,000	-0,004	0,050
-313,197	800,000	-0,057	0,137
-312,183	257,116	-0,019	0,024
-311,168	-200,000	-0,019	-0,114
-310,153	800,000	0,045	-0,110
-309,139	254,146	-0,122	-0,153
-308,124	-200,000	0,015	0,162
-307,110	200,537	0,027	0,030
-306,095	-200,000	-0,014	0,074
-305,080	-200,000	-0,020	0,128
-304,066	442,039	-0,028	-0,046
-303,051	81,929	-0,096	-0,076
-302,037	94,555	-0,028	0,023
-301,022	266,739	0,129	-0,166
-300,008	-55,542	-0,045	0,015
-298,993	108,703	0,075	0,066
-297,978	-7,620	-0,091	-0,045
-296,964	772,351	-0,033	-0,066
-295,949	-8,060	-0,032	0,016
-294,935	-200,000	-0,056	0,230
-293,920	19,674	0,042	-0,024
-292,905	214,266	0,106	0,124
-291,891	800,000	-0,020	-0,044
-290,876	-94,015	0,037	-0,007
-289,862	157,836	-0,098	-0,099
-288,847	85,022	0,053	0,043
-287,832	-98,562	-0,081	-0,015
-286,818	-3,960	0,034	0,017
-285,803	149,008	0,059	0,058
-284,789	-119,466	-0,046	-0,006
-283,774	-200,000	0,010	0,048
-282,759	-200,000	-0,043	-0,163
-281,745	-76,674	-0,159	0,040
-280,730	-81,304	-0,167	-0,040
-279,716	220,544	-0,103	0,122
-278,701	-200,000	-0,004	0,025
-277,686	800,000	0,041	0,089
-276,672	-200,000	0,001	0,029
-275,657	-141,526	-0,120	0,009
-274,643	800,000	-0,037	0,076
-273,628	-103,947	-0,097	-0,016
-272,613	-134,383	0,075	0,007
-271,599	-200,000	0,025	-0,081
-270,584	496,830	0,098	0,165
-269,570	476,278	0,074	0,122
-268,555	4,307	-0,084	0,045
-267,540	546,063	0,041	-0,072
-266,526	492,905	-0,078	-0,132
-265,511	800,000	0,003	-0,010
-264,497	800,000	0,038	0,111
-263,482	-200,000	-0,004	0,083
-262,467	800,000	0,025	0,064
-261,453	800,000	-0,059	0,132
-260,438	-113,117	-0,125	-0,018
-259,424	1,170	-0,160	-0,084
-258,409	132,572	0,033	0,031
-257,395	-126,371	0,034	-0,004
-256,380	-93,420	0,037	0,007
-255,365	35,199	-0,063	-0,040
-254,351	-200,000	-0,013	0,228
-253,336	9,444	-0,091	-0,050
-252,322	800,000	0,036	0,087
-251,307	-86,783	-0,164	0,036
-250,292	46,881	-0,098	0,067
-249,278	-13,569	0,045	-0,021
-248,263	-200,000	0,037	0,124
-247,249	192,933	-0,085	0,094
-246,234	-42,165	-0,048	0,018
-245,219	69,788	0,038	0,028
-244,205	-141,274	-0,053	-0,004
-243,190	-16,963	0,018	-0,008
-242,176	655,265	-0,044	0,082
-241,161	160,248	-0,111	0,113
-240,146	48,683	0,119	0,081
-239,132	156,744	-0,051	-0,052
-238,117	800,000	-0,047	-0,134
-237,103	-172,084	-0,102	0,002
-236,088	-1,049	0,090	-0,046
-235,073	30,670	0,090	-0,056
-234,059	-25,056	0,095	0,041
-233,044	8,748	0,082	0,045
-232,030	-200,000	-0,029	0,100
-231,015	-94,968	-0,101	0,020
-230,000	-79,899	-0,071	0,017
-228,986	246,332	0,073	0,090
-227,971	213,119	0,086	-0,100
-226,957	534,215	0,029	0,051
-225,942	72,381	-0,034	-0,026
-224,927	800,000	0,031	0,076
-223,913	-200,000	-0,028	-0,189
-222,898	-200,000	-0,021	-0,120
-221,884	-47,389	-0,080	0,028
-220,869	-82,486	0,090	0,021
-219,855	665,275	-0,024	-0,045
-218,840	465,783	0,017	0,028
-217,825	-4,153	-0,102	0,051
-216,811	800,000	-0,038	-0,114
-215,796	-200,000	0,022	-0,112
-214,782	75,481	0,120	0,092
-213,767	800,000	-0,045	0,113
-212,752	-14,170	0,093	0,043
-211,738	-71,158	-0,042	-0,011
-210,723	-200,000	-0,033	0,113
-209,709	108,938	-0,083	0,072
-208,694	800,000	0,060	-0,136
-207,679	228,254	-0,016	-0,020
-206,665	-22,070	0,073	0,032
-205,650	-57,899	0,100	0,032
-204,636	-200,000	0,039	0,138
-203,621	-173,821	-0,147	0,003
-202,606	-200,000	-0,013	0,123
-201,592	-33,365	-0,097	0,039
-200,577	-200,000	-0,039	-0,000
-199,563	65,725	0,050	-0,037
-198,548	-155,293	-0,055	0,003
-197,533	800,000	0,031	0,084
-196,519	800,000	-0,065	-0,139
-195,504	-200,000	0,010	-0,061
-194,490	71,862	-0,071	-0,054
-193,475	800,000	0,033	-0,084
-192,460	753,937	0,070	-0,139
-191,446	-200,000	-0,013	-0,119
-190,431	62,664	0,013	-0,009
-189,417	-200,000	0,027	0,137
-188,402	-93,663	0,134	0,027
-187,387	374,748	-0,051	-0,076
-186,373	-200,000	0,002	-0,163
-185,358	800,000	-0,017	-0,039
-184,344	-200,000	-0,006	0,099
-183,329	-55,037	0,076	-0,025
-182,315	-147,722	-0,048	0,003
-181,300	-200,000	-0,022	0,164
-180,285	-65,272	-0,088	-0,026
-179,271	-200,000	0,003	-0,155
-178,256	60,479	-0,042	0,030
-177,242	-120,612	0,100	0,012
-176,227	-134,284	0,033	-0,003
-175,212	-200,000	0,029	0,123
-174,198	663,579	0,054	0,102
-173,183	276,014	-0,092	0,119
-172,169	-40,465	-0,045	0,017
-171,154	243,539	0,058	-0,071
-170,139	800,000	-0,031	0,089
-169,125	27,261	0,107	-0,066
-168,110	17,964	0,056	0,033
-167,096	-200,000	0,002	-0,181
-166,081	482,551	0,034	0,056
-165,066	-200,000	0,028	-0,168
-164,052	123,636	-0,038	-0,035
-163,037	-1,145	0,120	0,062
-162,023	-200,000	0,016	0,053
-161,008	-200,000	-0,012	-0,071
-159,993	-45,109	-0,107	0,038
-158,979	-200,000	-0,021	-0,112
-157,964	138,088	-0,064	0,061
-156,950	496,415	0,048	-0,081
-155,935	238,212	-0,021	-0,025
-154,920	800,000	-0,031	0,069
-153,906	110,464	0,113	0,099
-152,891	485,162	0,066	0,110
-151,877	335,221	-0,064	-0,090
-150,862	-200,000	-0,037	-0,227
-149,847	-200,000	0,013	-0,101
-148,833	-200,000	-0,015	-0,142
-147,818	800,000	0,020	-0,048
-146,804	319,974	-0,025	0,034
-145,789	117,204	0,038	0,034
-144,775	-200,000	0,004	-0,043
-143,760	800,000	0,064	-0,129
-142,745	800,000	-0,041	-0,116
-141,731	348,339	-0,017	-0,025
-140,716	408,443	-0,048	-0,073
-139,702	800,000	0,035	0,103
-138,687	-32,727	0,124	0,050
-137,672	800,000	0,023	0,053
-136,658	192,179	0,136	-0,150
-135,643	555,353	-0,092	-0,161
-134,629	-26,676	0,167	-0,071
-133,614	-77,913	0,134	-0,033
-132,599	263,500	-0,038	0,048
-131,585	36,328	-0,104	0,067
-130,570	-200,000	0,017	0,283
-129,556	331,345	-0,068	0,096
-128,541	800,000	-0,075	-0,164
-127,526	800,000	0,051	-0,153
-126,512	529,265	0,078	-0,134
-125,497	800,000	-0,019	-0,059
-124,483	-200,000	-0,006	0,092
-123,468	-200,000	0,003	0,032
-122,453	334,870	0,016	0,023
-121,439	-13,141	-0,072	-0,034
-120,424	-200,000	0,014	-0,086
-119,410	-10,070	0,132	0,064
-118,395	-38,864	-0,039	0,015
