DTS Sentinel unit serial number:	SN410029Multiplexer serial number:	ORYXHardware model number:	OX2-SRSoftware version number:	ORYX F/W v4,00 Oryx Data Collector v3.7.2.0data status	okinstallation	B6 Nyhavnadifferential loss correction	single-endedforward channel	channel 2reverse channel	N/Adate	2023/12/08time	21:25:08forward acquisition time	300,00reverse acquisition time	0,00gamma	499,1914k internal	0,3158k external	0,3158temperature offset calibration	1,0000default loss term (dB/km)	0,3820temperature slope calibration	1,0000multiplexer offset coefficient	1,0000multiplexer slope coefficient	1,0000fibre end	0,00T internal ref (°C)	15,23T ext. ref 1 (°C)	-1,33T ext. ref 2 (°C)	-1,33length (m)	temperature (°C)	Stokes	anti-Stokes-744,400	142,257	0,072	-0,070
-743,385	-98,900	-0,255	0,047
-742,371	-158,287	0,119	0,005
-741,356	-45,796	-0,109	0,039
-740,342	44,791	0,116	0,078
-739,327	-75,562	-0,270	0,070
-738,312	800,000	0,103	0,262
-737,298	-92,634	-0,374	-0,077
-736,283	108,045	0,092	0,081
-735,269	-55,685	-0,243	0,080
-734,254	-200,000	0,006	0,197
-733,239	-78,735	-0,492	-0,123
-732,225	-123,638	0,203	0,023
-731,210	135,046	0,136	-0,130
-730,196	800,000	0,026	0,073
-729,181	-200,000	-0,004	0,117
-728,167	75,736	0,097	0,075
-727,152	-2,561	-0,090	0,046
-726,137	30,487	-0,083	0,052
-725,123	800,000	-0,060	-0,138
-724,108	-200,000	0,015	-0,064
-723,094	367,770	-0,049	-0,073
-722,079	143,421	0,087	-0,085
-721,064	213,537	-0,024	-0,028
-720,050	-119,566	0,165	0,021
-719,035	-200,000	0,026	-0,111
-718,021	-200,000	-0,032	-0,123
-717,006	-200,000	-0,027	-0,092
-715,991	150,792	-0,149	-0,150
-714,977	-25,271	-0,036	-0,015
-713,962	60,202	0,077	-0,056
-712,948	124,008	-0,020	0,019
-711,933	800,000	0,017	0,053
-710,918	58,789	-0,094	0,068
-709,904	407,387	-0,009	0,014
-708,889	504,537	-0,058	-0,099
-707,875	759,074	-0,052	-0,105
-706,860	-200,000	0,033	-0,174
-705,845	800,000	-0,082	0,188
-704,831	-200,000	0,007	0,063
-703,816	-49,202	0,059	-0,021
-702,802	-200,000	-0,003	-0,111
-701,787	-119,709	0,069	0,009
-700,772	30,894	-0,067	-0,042
-699,758	684,335	-0,012	-0,023
-698,743	19,139	0,070	0,041
-697,729	95,138	0,038	0,032
-696,714	27,498	-0,112	0,069
-695,699	700,377	-0,040	-0,077
-694,685	-21,512	0,039	0,017
-693,670	-200,000	-0,001	-0,095
-692,656	800,000	-0,035	0,090
-691,641	-200,000	0,068	0,252
-690,627	103,423	-0,067	-0,058
-689,612	-28,722	0,105	0,044
-688,597	144,972	0,027	0,027
-687,583	800,000	-0,047	-0,133
-686,568	57,745	-0,075	-0,054
-685,554	800,000	-0,050	-0,142
-684,539	-82,188	0,034	0,008
-683,524	760,791	-0,029	-0,058
-682,510	800,000	0,024	0,061
-681,495	-200,000	-0,009	0,031
-680,481	479,750	-0,057	0,095
-679,466	713,892	-0,011	0,021
-678,451	490,977	0,034	-0,057
-677,437	-200,000	-0,011	-0,077
-676,422	1,646	0,131	0,069
-675,408	800,000	0,015	-0,042
-674,393	-11,186	0,036	0,017
-673,378	-85,208	-0,164	0,037
-672,364	288,800	-0,044	-0,058
-671,349	39,973	0,036	-0,024
-670,335	9,996	-0,078	0,043
-669,320	800,000	-0,031	0,086
-668,305	35,892	0,111	-0,072
-667,291	288,316	-0,091	-0,122
-666,276	298,179	-0,100	-0,136
-665,262	-25,821	-0,062	-0,027
-664,247	-200,000	0,001	-0,220
-663,232	123,949	-0,105	-0,097
-662,218	104,791	0,036	-0,031
-661,203	-196,840	-0,146	0,001
-660,189	-200,000	-0,024	0,166
-659,174	72,357	0,146	0,112
-658,159	-108,518	-0,102	0,016
-657,145	53,039	-0,079	-0,056
-656,130	-173,097	0,046	-0,001
-655,116	-39,161	0,103	-0,039
-654,101	800,000	-0,016	0,035
-653,086	-200,000	-0,012	0,069
-652,072	-195,517	-0,133	-0,001
-651,057	-38,157	-0,106	0,041
-650,043	186,496	-0,046	-0,050
-649,028	-200,000	-0,001	0,011
-648,014	91,811	0,059	0,049
-646,999	-77,964	-0,083	0,021
-645,984	-170,297	0,130	0,003
-644,970	122,797	-0,194	0,178
-643,955	186,260	-0,059	-0,064
-642,941	203,243	-0,007	-0,008
-641,926	425,910	0,023	-0,036
-640,911	-156,948	0,069	0,003
-639,897	-200,000	0,004	-0,073
-638,882	69,239	-0,132	-0,100
-637,868	-200,000	0,016	-0,082
-636,853	-76,813	-0,098	-0,025
-635,838	-57,864	-0,163	-0,052
-634,824	-128,469	-0,057	0,006
-633,809	-110,847	-0,026	0,004
-632,795	800,000	0,072	-0,187
-631,780	93,140	0,034	-0,028
-630,765	-21,134	-0,148	0,066
-629,751	800,000	0,022	0,056
-628,736	-85,356	-0,084	-0,019
-627,722	77,678	0,031	0,024
-626,707	-166,890	-0,089	0,003
-625,692	15,020	-0,029	0,016
-624,678	26,945	-0,081	-0,050
-623,663	800,000	-0,032	-0,069
-622,649	198,628	0,042	-0,047
-621,634	-115,843	0,146	0,020
-620,619	46,092	-0,023	0,016
-619,605	78,301	-0,112	-0,088
-618,590	-131,064	-0,059	0,006
-617,576	-200,000	-0,008	-0,044
-616,561	290,900	0,023	0,030
-615,546	-200,000	0,049	-0,221
-614,532	2,230	-0,234	-0,124
-613,517	518,840	-0,042	-0,072
-612,503	-200,000	0,004	0,054
-611,488	208,312	0,019	-0,022
-610,474	-200,000	-0,008	-0,027
-609,459	774,919	0,042	-0,084
-608,444	-51,671	0,028	-0,010
-607,430	-13,754	-0,080	-0,038
-606,415	56,091	0,072	-0,051
-605,401	45,292	-0,058	0,039
-604,386	-200,000	-0,037	0,132
-603,371	149,138	0,103	0,102
-602,357	-124,532	0,124	-0,014
-601,342	-159,512	-0,131	0,005
-600,328	-79,555	0,069	-0,017
-599,313	-82,938	-0,106	0,025
-598,298	24,576	-0,055	-0,033
-597,284	30,774	0,049	-0,031
-596,269	202,223	-0,074	0,084
-595,255	-73,127	-0,073	-0,019
-594,240	800,000	-0,038	-0,082
-593,225	-141,197	-0,076	0,006
-592,211	800,000	-0,038	-0,084
-591,196	800,000	-0,029	-0,084
-590,182	494,532	-0,050	-0,084
-589,167	800,000	0,030	0,079
-588,152	-200,000	-0,003	-0,089
-587,138	-200,000	-0,009	-0,077
-586,123	394,821	-0,061	0,094
-585,109	307,873	0,046	-0,063
-584,094	57,333	-0,105	-0,075
-583,079	12,882	0,070	0,040
-582,065	-200,000	0,003	-0,029
-581,050	-108,554	0,110	0,017
-580,036	28,132	-0,017	-0,011
-579,021	187,848	-0,061	-0,067
-578,006	-41,303	-0,045	0,017
-576,992	-85,197	0,039	0,009
-575,977	-107,576	0,089	0,014
-574,963	-200,000	-0,023	-0,079
-573,948	800,000	0,002	-0,007
-572,934	286,551	-0,057	-0,076
-571,919	491,303	-0,100	-0,169
-570,904	512,328	0,086	-0,147
-569,890	800,000	0,031	0,065
-568,875	40,714	0,027	-0,018
-567,861	242,059	0,088	0,108
-566,846	-200,000	-0,007	-0,075
-565,831	-200,000	-0,010	-0,038
-564,817	277,795	0,034	-0,045
-563,802	696,871	-0,046	-0,089
-562,788	800,000	-0,058	0,118
-561,773	800,000	-0,039	0,082
-560,758	-114,501	-0,105	0,015
-559,744	44,098	0,103	0,069
-558,729	-200,000	0,036	0,153
-557,715	381,112	-0,069	0,105
-556,700	40,403	-0,134	-0,088
-555,685	597,902	-0,082	-0,149
-554,671	-200,000	0,011	-0,094
-553,656	3,773	0,074	0,040
-552,642	800,000	-0,020	0,051
-551,627	800,000	0,037	0,081
-550,612	-200,000	0,010	-0,039
-549,598	-132,378	-0,143	-0,013
-548,583	800,000	0,018	-0,047
-547,569	-200,000	-0,004	0,233
-546,554	-92,208	-0,108	0,022
-545,539	-200,000	-0,004	0,046
-544,525	382,163	-0,080	0,121
-543,510	-150,878	0,005	-0,000
-542,496	800,000	0,027	0,068
-541,481	-59,385	-0,075	-0,023
-540,466	104,122	-0,045	0,038
-539,452	800,000	-0,009	0,023
-538,437	-82,015	-0,027	-0,006
-537,423	109,503	-0,093	-0,081
-536,408	-11,692	-0,089	-0,043
-535,393	-12,422	-0,033	0,016
-534,379	-81,943	-0,117	0,028
-533,364	-44,199	0,060	-0,022
-532,350	-200,000	0,006	0,077
-531,335	-60,773	-0,064	-0,020
-530,321	-200,000	0,004	0,026
-529,306	-33,729	0,082	-0,033
-528,291	-7,371	-0,126	0,062
-527,277	-101,394	-0,047	0,008
-526,262	205,587	0,064	0,073
-525,248	499,581	0,015	0,026
-524,233	4,974	0,114	-0,061
-523,218	-200,000	-0,000	-0,053
-522,204	128,000	-0,063	0,058
-521,189	-155,894	0,134	-0,006
-520,175	18,854	0,110	0,064
-519,160	-200,000	-0,015	-0,076
-518,145	-53,412	-0,141	-0,047
-517,131	-72,088	0,129	-0,035
-516,116	800,000	-0,048	0,103
-515,102	149,836	0,091	0,090
-514,087	-18,156	0,041	-0,019
-513,072	-200,000	-0,035	-0,124
-512,058	-166,718	-0,119	0,004
-511,043	-200,000	-0,004	-0,033
-510,029	-29,723	0,142	0,059
-509,014	-200,000	0,007	0,080
-507,999	167,879	-0,046	-0,048
-506,985	-200,000	-0,007	0,053
-505,970	-101,822	0,064	-0,011
-504,956	493,045	-0,059	0,099
-503,941	-200,000	0,030	0,108
-502,926	112,107	0,104	0,092
-501,912	800,000	0,022	0,069
-500,897	629,391	0,054	0,101
-499,883	9,273	-0,041	0,023
-498,868	-200,000	0,007	-0,025
-497,853	-200,000	0,001	0,048
-496,839	59,980	-0,048	-0,034
-495,824	37,526	0,124	0,080
-494,810	98,809	0,104	0,088
-493,795	155,759	-0,097	-0,097
-492,781	-200,000	-0,057	-0,199
-491,766	-200,000	0,002	-0,051
-490,751	-27,670	-0,067	0,028
-489,737	800,000	0,057	0,153
-488,722	-35,159	-0,049	0,019
-487,708	-38,185	0,048	0,019
-486,693	-11,127	0,085	0,041
-485,678	206,121	-0,109	0,124
-484,664	138,502	-0,082	-0,079
-483,649	-25,362	-0,085	0,036
-482,635	-5,226	-0,053	-0,026
-481,620	-77,527	-0,020	0,005
-480,605	-200,000	0,007	-0,027
-479,591	-20,657	0,120	0,053
-478,576	8,169	-0,107	-0,059
-477,562	-200,000	-0,000	-0,084
-476,547	-200,000	0,020	-0,139
-475,532	249,857	0,094	-0,117
-474,518	87,916	-0,065	-0,053
-473,503	800,000	0,035	-0,093
-472,489	-9,519	-0,077	0,037
-471,474	94,607	-0,019	-0,016
-470,459	800,000	0,058	-0,125
-469,445	-73,657	0,031	0,008
-468,430	-200,000	0,027	0,099
-467,416	-35,707	0,056	0,022
-466,401	126,589	-0,026	-0,024
-465,386	218,151	-0,032	-0,037
-464,372	515,665	-0,018	-0,031
-463,357	-200,000	0,032	0,000
-462,343	146,711	0,045	-0,044
-461,328	-63,265	-0,095	0,028
-460,313	-200,000	0,004	0,113
-459,299	-94,786	-0,009	0,002
-458,284	195,076	0,045	0,050
-457,270	80,444	-0,085	-0,066
-456,255	5,131	-0,023	-0,012
-455,241	-69,939	0,122	-0,034
-454,226	-200,000	0,028	0,108
-453,211	62,636	0,055	0,040
-452,197	800,000	-0,035	0,089
-451,182	161,270	-0,060	0,061
-450,168	-103,347	0,084	-0,014
-449,153	-54,540	0,090	-0,029
-448,138	75,595	-0,014	0,010
-447,124	401,551	0,058	-0,089
-446,109	209,928	0,029	0,033
-445,095	380,262	-0,010	0,015
-444,080	-200,000	0,042	0,155
-443,065	-200,000	-0,011	0,040
-442,051	506,240	0,025	-0,043
-441,036	-200,000	-0,002	-0,137
-440,022	-174,365	-0,198	-0,004
-439,007	203,172	0,073	0,083
-437,992	-200,000	0,025	0,097
-436,978	-200,000	0,001	0,127
-435,963	-36,944	0,052	-0,020
-434,949	125,849	0,022	-0,020
-433,934	22,011	-0,082	-0,048
-432,919	312,896	0,011	0,015
-431,905	69,190	-0,094	-0,070
-430,890	-13,346	-0,051	-0,024
-429,876	143,726	0,063	-0,062
-428,861	54,497	-0,029	-0,020
-427,846	691,553	0,060	-0,116
-426,832	348,240	0,088	0,127
-425,817	-200,000	-0,001	-0,016
-424,803	-200,000	-0,024	-0,101
-423,788	-110,080	0,126	-0,019
-422,773	-90,226	0,150	-0,031
-421,759	232,882	-0,065	0,078
-420,744	4,465	0,048	0,025
-419,730	147,535	-0,027	-0,026
-418,715	15,417	-0,098	0,056
-417,701	-200,000	0,001	-0,028
-416,686	800,000	-0,021	-0,058
-415,671	54,833	0,033	0,023
-414,657	-190,172	0,116	-0,001
-413,642	-192,456	0,022	0,000
-412,628	-95,491	-0,170	-0,033
-411,613	-151,503	0,104	0,006
-410,598	800,000	0,030	-0,060
-409,584	65,657	-0,046	-0,034
-408,569	800,000	0,017	-0,036
-407,555	-198,421	0,063	0,000
-406,540	-200,000	0,012	-0,138
-405,525	-136,388	0,064	-0,005
-404,511	800,000	-0,054	-0,123
-403,496	800,000	-0,034	-0,097
-402,482	37,112	0,064	-0,041
-401,467	90,686	0,107	0,087
-400,452	-200,000	-0,011	0,054
-399,438	463,282	0,008	0,014
-398,423	-106,523	-0,068	-0,011
-397,409	140,270	-0,121	-0,116
-396,394	800,000	-0,030	-0,070
-395,379	-200,000	-0,006	-0,127
-394,365	800,000	0,030	0,077
-393,350	118,455	-0,018	-0,016
-392,336	-16,914	-0,148	0,068
-391,321	292,162	-0,065	-0,087
-390,306	-65,095	-0,073	0,021
-389,292	42,106	-0,130	-0,085
-388,277	800,000	0,026	-0,072
-387,263	-200,000	0,007	0,062
-386,248	500,307	0,018	-0,031
-385,233	-146,005	-0,027	-0,002
-384,219	0,209	-0,081	-0,042
-383,204	-30,621	0,125	-0,051
-382,190	-200,000	0,017	0,117
-381,175	-200,000	0,011	0,105
-380,160	-200,000	0,010	0,128
-379,146	196,401	-0,079	-0,088
-378,131	85,271	0,069	0,055
-377,117	-200,000	-0,022	-0,089
-376,102	-200,000	0,012	-0,072
-375,088	118,633	-0,144	0,129
-374,073	583,423	-0,041	-0,073
-373,058	289,313	0,086	-0,114
-372,044	41,969	0,159	-0,105
-371,029	415,174	0,067	0,104
-370,015	138,925	0,055	0,053
-369,000	-58,797	0,039	-0,012
-367,985	253,631	-0,071	0,088
-366,971	438,911	0,008	-0,013
-365,956	800,000	0,030	0,094
-364,942	582,467	0,096	0,171
-363,927	-200,000	0,033	0,202
-362,912	-200,000	0,001	0,089
-361,898	110,810	0,077	0,067
-360,883	-200,000	-0,016	-0,054
-359,869	-200,000	-0,021	-0,078
-358,854	465,123	0,097	0,158
-357,839	-200,000	0,024	0,087
-356,825	360,482	0,052	0,076
-355,810	800,000	0,008	0,018
-354,796	518,186	0,034	-0,058
-353,781	102,705	0,039	-0,033
-352,766	-154,265	0,077	0,004
-351,752	-145,975	0,102	0,006
-350,737	-200,000	0,013	0,108
-349,723	416,922	0,052	0,080
-348,708	-42,312	0,082	-0,030
-347,693	-20,465	-0,053	0,023
-346,679	-35,142	-0,158	-0,062
-345,664	-12,107	-0,039	0,019
-344,650	176,084	-0,012	0,013
-343,635	70,033	-0,017	0,013
-342,620	-200,000	-0,011	-0,083
-341,606	50,515	-0,048	0,033
-340,591	-67,955	0,070	-0,020
-339,577	-185,196	-0,035	0,000
-338,562	453,182	-0,078	0,125
-337,548	353,738	-0,004	0,006
-336,533	314,102	0,007	0,010
-335,518	800,000	-0,036	0,105
-334,504	-121,629	-0,096	-0,011
-333,489	-200,000	0,015	-0,079
-332,475	800,000	-0,025	0,054
-331,460	-14,955	-0,117	0,054
-330,445	0,155	0,073	0,037
-329,431	-33,903	0,099	0,039
-328,416	-200,000	-0,005	-0,031
-327,402	-150,603	0,047	0,003
-326,387	720,052	-0,030	0,058
-325,372	279,099	0,081	0,106
-324,358	324,056	0,034	-0,047
-323,343	-200,000	0,024	-0,118
-322,329	52,955	0,066	0,045
-321,314	800,000	-0,015	0,039
-320,299	-107,014	-0,050	0,008
-319,285	-39,801	-0,186	0,070
-318,270	-148,097	0,094	-0,006
-317,256	-200,000	-0,024	-0,165
-316,241	-200,000	-0,018	0,087
-315,226	-200,000	-0,008	-0,036
-314,212	-200,000	-0,008	0,037
-313,197	-70,315	0,132	-0,036
-312,183	-47,337	0,107	0,038
-311,168	-152,449	-0,064	-0,003
-310,153	2,702	-0,110	-0,058
-309,139	-200,000	0,013	-0,111
-308,124	249,412	-0,038	-0,047
-307,110	69,687	-0,028	0,021
-306,095	514,770	-0,059	0,100
-305,080	-8,645	-0,012	0,006
-304,066	-84,789	0,083	-0,019
-303,051	-200,000	-0,017	-0,071
-302,037	-38,674	0,052	0,020
-301,022	-0,971	0,171	-0,087
-300,008	-72,908	-0,182	-0,048
-298,993	-200,000	0,019	-0,165
-297,978	-200,000	-0,007	0,100
-296,964	208,847	0,073	0,082
-295,949	591,758	-0,021	0,038
-294,935	-200,000	0,020	0,124
-293,920	-44,487	-0,097	0,035
-292,905	-200,000	-0,009	0,037
-291,891	-200,000	-0,024	0,087
-290,876	800,000	-0,034	0,082
-289,862	800,000	0,016	-0,038
-288,847	382,281	-0,090	-0,135
-287,832	193,495	0,069	-0,076
-286,818	443,336	0,057	-0,091
-285,803	800,000	0,043	0,096
-284,789	-200,000	0,006	0,235
-283,774	26,102	0,008	-0,005
-282,759	-200,000	-0,011	-0,089
-281,745	800,000	-0,011	0,023
-280,730	-200,000	0,031	-0,110
-279,716	163,510	0,043	0,044
-278,701	-73,981	-0,131	-0,034
-277,686	-200,000	0,010	0,041
-276,672	800,000	0,018	0,054
-275,657	-200,000	-0,053	0,172
-274,643	2,722	-0,103	0,054
-273,628	800,000	0,022	-0,045
-272,613	405,309	-0,069	0,105
-271,599	-200,000	0,004	0,083
-270,584	299,280	-0,019	-0,025
-269,570	-200,000	-0,007	-0,067
-268,555	289,806	-0,038	-0,049
-267,540	71,181	0,066	0,049
-266,526	161,599	-0,073	0,074
-265,511	800,000	0,010	-0,023
-264,497	-13,352	0,185	-0,087
-263,482	800,000	-0,047	0,096
-262,467	-83,836	-0,064	0,015
-261,453	-200,000	0,006	-0,039
-260,438	112,230	-0,060	0,053
-259,424	800,000	0,019	-0,055
-258,409	0,571	-0,126	-0,065
-257,395	-151,715	0,131	0,007
-256,380	-108,909	0,107	0,016
-255,365	215,843	0,114	0,132
-254,351	23,038	-0,093	0,055
-253,336	15,705	0,023	0,013
-252,322	330,750	0,030	0,041
-251,307	-55,230	0,045	-0,015
-250,292	-58,819	-0,086	-0,027
-249,278	-12,992	-0,051	0,024
-248,263	-20,038	0,094	-0,042
-247,249	-156,613	0,095	-0,004
-246,234	-200,000	-0,028	0,113
-245,219	-200,000	-0,007	0,064
-244,205	305,292	-0,030	-0,041
-243,190	-200,000	0,000	-0,064
-242,176	800,000	0,063	0,181
-241,161	33,360	0,046	0,029
-240,146	-31,948	0,074	-0,030
-239,132	-84,077	-0,088	-0,020
-238,117	-75,513	-0,081	0,021
-237,103	-200,000	-0,006	0,037
-236,088	-72,820	0,248	0,066
-235,073	-31,755	0,061	-0,024
-234,059	91,918	0,088	0,071
-233,044	673,656	0,069	0,131
-232,030	97,141	-0,027	-0,022
-231,015	-107,128	0,085	-0,013
-230,000	-20,305	-0,145	-0,064
-228,986	225,377	0,053	-0,062
-227,971	800,000	0,063	-0,172
-226,957	-109,364	-0,031	0,005
-225,942	800,000	0,035	0,078
-224,927	149,828	-0,081	0,079
-223,913	497,605	-0,029	-0,049
-222,898	-96,317	0,057	-0,011
-221,884	800,000	0,020	0,054
-220,869	-200,000	0,013	-0,135
-219,855	800,000	0,069	0,141
-218,840	82,087	0,111	-0,087
-217,825	-200,000	-0,012	-0,067
-216,811	-93,680	-0,066	0,013
-215,796	123,164	-0,105	0,095
-214,782	71,670	0,044	-0,033
-213,767	129,441	0,074	-0,068
-212,752	721,559	0,062	0,120
-211,738	111,732	-0,050	-0,043
-210,723	-91,248	0,148	0,030
-209,709	4,823	-0,036	0,019
-208,694	-200,000	0,003	-0,104
-207,679	-200,000	0,013	-0,082
-206,665	108,231	0,017	-0,015
-205,650	396,098	0,038	-0,057
-204,636	53,857	0,168	0,116
-203,621	-200,000	0,007	-0,112
-202,606	26,569	0,058	-0,035
-201,592	-118,225	0,085	0,011
-200,577	-159,331	0,123	0,005
-199,563	774,140	0,053	0,104
-198,548	-200,000	-0,007	-0,028
-197,533	-72,679	0,132	-0,035
-196,519	-7,261	-0,041	0,020
-195,504	7,598	-0,129	-0,069
-194,490	-200,000	-0,028	-0,105
-193,475	2,427	-0,038	-0,020
-192,460	800,000	-0,025	-0,076
-191,446	4,632	0,123	-0,065
-190,431	-200,000	-0,021	-0,112
-189,417	-200,000	0,009	0,031
-188,402	93,296	0,030	0,025
-187,387	-1,569	0,068	0,035
-186,373	107,560	-0,138	-0,118
-185,358	515,039	-0,097	0,164
-184,344	-200,000	0,004	-0,077
-183,329	148,786	0,062	-0,061
-182,315	111,122	0,100	-0,087
-181,300	48,518	0,039	0,026
-180,285	-200,000	0,010	-0,064
-179,271	99,521	0,081	-0,068
-178,256	-85,669	0,041	0,009
-177,242	144,394	-0,032	-0,031
-176,227	-200,000	0,002	-0,060
-175,212	75,911	0,082	0,062
-174,198	-37,498	0,054	-0,021
-173,183	-200,000	-0,010	-0,056
-172,169	374,724	-0,051	-0,076
-171,154	224,791	0,072	0,084
-170,139	800,000	0,025	0,062
-169,125	207,514	-0,044	0,050
-168,110	294,646	0,059	0,078
-167,096	126,862	-0,031	0,028
-166,081	54,871	0,067	-0,047
-165,066	-9,774	0,058	0,028
-164,052	-25,770	-0,104	-0,044
-163,037	128,168	0,070	0,065
-162,023	182,238	-0,033	0,035
-161,008	59,788	0,047	-0,033
-159,993	270,948	-0,045	-0,057
-158,979	-75,332	-0,133	-0,034
-157,964	68,085	0,069	0,051
-156,950	151,826	-0,050	0,049
-155,935	-120,502	-0,095	-0,012
-154,920	-81,487	-0,047	-0,011
-153,906	-44,921	0,087	0,031
-152,891	-27,477	-0,148	-0,062
-151,877	-200,000	-0,039	-0,143
-150,862	161,167	-0,125	-0,126
-149,847	29,942	0,095	0,058
-148,833	55,528	0,064	0,044
-147,818	220,790	0,055	0,064
-146,804	800,000	0,053	-0,125
-145,789	800,000	-0,029	-0,087
-144,775	-144,322	0,119	0,008
-143,760	161,476	-0,105	0,106
-142,745	52,250	-0,038	-0,026
-141,731	-50,956	0,102	-0,034
-140,716	-145,728	0,168	-0,011
-139,702	160,000	-0,027	0,027
-138,687	800,000	0,080	0,172
-137,672	107,649	0,066	-0,057
-136,658	51,629	-0,034	0,023
-135,643	-200,000	-0,011	-0,043
-134,629	-200,000	-0,012	-0,060
-133,614	800,000	0,015	-0,042
-132,599	40,633	0,059	0,038
-131,585	-200,000	-0,030	0,110
-130,570	-200,000	-0,018	-0,059
-129,556	-200,000	-0,018	-0,059
-128,541	-200,000	0,008	-0,041
-127,526	-14,027	0,082	-0,038
-126,512	87,255	0,061	-0,048
-125,497	800,000	0,056	0,112
-124,483	-200,000	-0,012	0,084
-123,468	800,000	0,034	0,100
-122,453	67,094	0,034	-0,025
-121,439	-200,000	0,000	-0,049
-120,424	273,982	0,061	0,078
-119,410	746,388	-0,025	0,048
-118,395	-36,403	0,068	0,026
