DTS Sentinel unit serial number:	SN410029Multiplexer serial number:	ORYXHardware model number:	OX2-SRSoftware version number:	ORYX F/W v4,00 Oryx Data Collector v3.7.2.0data status	okinstallation	B6 Nyhavnadifferential loss correction	single-endedforward channel	channel 2reverse channel	N/Adate	2023/12/09time	16:55:08forward acquisition time	300,00reverse acquisition time	0,00gamma	499,1914k internal	0,3131k external	0,3131temperature offset calibration	1,0000default loss term (dB/km)	0,3820temperature slope calibration	1,0000multiplexer offset coefficient	1,0000multiplexer slope coefficient	1,0000fibre end	0,00T internal ref (°C)	20,94T ext. ref 1 (°C)	4,69T ext. ref 2 (°C)	4,69length (m)	temperature (°C)	Stokes	anti-Stokes-744,400	-107,850	0,013	-0,002
-743,385	-137,435	-0,276	0,023
-742,371	11,336	0,131	0,074
-741,356	171,822	-0,116	0,124
-740,342	-42,901	0,063	0,024
-739,327	-52,654	-0,240	0,082
-738,312	-13,938	0,129	-0,062
-737,298	-179,704	-0,261	0,004
-736,283	-200,000	-0,002	0,099
-735,269	-102,945	-0,180	0,032
-734,254	97,476	0,129	-0,110
-733,239	68,957	-0,369	-0,281
-732,225	165,332	0,022	0,023
-731,210	800,000	0,033	0,088
-730,196	-200,000	-0,032	-0,142
-729,181	174,281	-0,068	-0,073
-728,167	107,259	-0,082	0,072
-727,152	110,493	0,091	-0,081
-726,137	-68,618	-0,060	0,017
-725,123	-200,000	0,001	-0,013
-724,108	-200,000	0,021	-0,091
-723,094	-40,246	-0,149	-0,057
-722,079	287,494	0,076	-0,103
-721,064	-75,339	0,092	-0,024
-720,050	-71,756	-0,037	0,010
-719,035	89,983	0,054	-0,045
-718,021	152,836	0,050	-0,051
-717,006	26,504	-0,135	-0,083
-715,991	800,000	-0,015	-0,032
-714,977	800,000	-0,072	-0,206
-713,962	-200,000	0,012	-0,067
-712,948	800,000	-0,034	0,094
-711,933	-118,246	-0,135	-0,018
-710,918	800,000	-0,081	-0,192
-709,904	77,114	-0,044	-0,035
-708,889	-88,909	0,100	-0,022
-707,875	148,992	0,123	-0,123
-706,860	71,003	-0,080	-0,061
-705,845	419,499	-0,091	0,146
-704,831	13,211	0,023	-0,013
-703,816	-200,000	-0,009	0,066
-702,802	-24,975	-0,037	-0,016
-701,787	423,086	-0,084	-0,135
-700,772	-10,799	0,035	-0,017
-699,758	-200,000	0,002	-0,030
-698,743	800,000	-0,013	0,032
-697,729	-200,000	-0,042	0,204
-696,714	26,989	0,126	0,078
-695,699	611,631	0,032	0,059
-694,685	800,000	0,018	0,041
-693,670	130,328	-0,115	-0,109
-692,656	-27,958	0,094	0,040
-691,641	800,000	-0,048	-0,104
-690,627	-124,217	0,061	-0,007
-689,612	800,000	-0,019	-0,044
-688,597	-83,611	0,108	-0,025
-687,583	134,503	-0,022	-0,021
-686,568	-160,667	0,101	-0,004
-685,554	800,000	0,036	-0,075
-684,539	-171,278	-0,173	-0,004
-683,524	162,233	-0,105	-0,110
-682,510	-79,239	0,126	-0,032
-681,495	-74,053	-0,047	0,013
-680,481	150,836	-0,055	-0,056
-679,466	61,449	-0,184	0,135
-678,451	-154,475	0,091	-0,004
-677,437	-58,008	-0,106	0,034
-676,422	232,636	0,061	0,074
-675,408	-191,031	0,086	0,001
-674,393	220,165	0,108	0,128
-673,378	-29,635	-0,073	-0,031
-672,364	-200,000	-0,017	-0,079
-671,349	419,218	-0,083	-0,133
-670,335	800,000	-0,018	-0,043
-669,320	-200,000	0,015	-0,096
-668,305	800,000	-0,055	-0,160
-667,291	599,931	0,061	-0,113
-666,276	104,200	-0,106	-0,092
-665,262	102,895	-0,127	-0,110
-664,247	-78,858	0,048	0,012
-663,232	-69,074	0,063	0,018
-662,218	-200,000	-0,001	-0,102
-661,203	-69,089	0,122	-0,035
-660,189	-200,000	0,003	-0,043
-659,174	-200,000	-0,004	-0,021
-658,159	93,784	0,108	-0,091
-657,145	-87,048	-0,069	-0,016
-656,130	-62,670	-0,037	0,011
-655,116	-81,680	0,116	-0,028
-654,101	12,435	-0,026	0,015
-653,086	800,000	-0,023	0,055
-652,072	-200,000	-0,003	-0,135
-651,057	771,338	-0,069	-0,141
-650,043	-200,000	0,008	-0,035
-649,028	-42,932	0,139	-0,052
-648,014	628,160	-0,033	0,063
-646,999	-31,764	-0,103	0,042
-645,984	11,442	-0,062	0,035
-644,970	800,000	0,038	0,081
-643,955	187,347	-0,127	-0,140
-642,941	24,829	-0,134	-0,082
-641,926	149,456	0,045	0,045
-640,911	55,623	-0,037	0,027
-639,897	800,000	0,022	0,050
-638,882	653,073	-0,028	-0,053
-637,868	-200,000	-0,024	-0,210
-636,853	-8,939	-0,097	-0,048
-635,838	-200,000	0,007	-0,076
-634,824	573,557	-0,003	-0,006
-633,809	-200,000	0,008	-0,077
-632,795	225,211	-0,064	-0,077
-631,780	540,135	0,044	0,079
-630,765	-92,780	-0,055	-0,011
-629,751	201,927	-0,080	0,092
-628,736	-118,554	-0,088	0,011
-627,722	-200,000	-0,012	0,041
-626,707	-69,614	0,031	0,009
-625,692	79,841	0,055	0,044
-624,678	-200,000	0,000	-0,031
-623,663	-114,197	-0,075	0,011
-622,649	-43,198	-0,043	0,016
-621,634	-200,000	0,000	-0,014
-620,619	-46,492	0,083	-0,030
-619,605	456,895	-0,023	0,037
-618,590	800,000	-0,082	0,180
-617,576	320,815	0,086	0,122
-616,561	-60,098	-0,021	-0,007
-615,546	-81,611	0,055	-0,013
-614,532	7,175	-0,015	-0,008
-613,517	-200,000	-0,006	-0,127
-612,503	-200,000	-0,007	0,079
-611,488	800,000	0,052	-0,144
-610,474	-200,000	-0,012	0,055
-609,459	43,072	-0,112	0,076
-608,444	11,550	-0,154	0,087
-607,430	496,817	-0,055	-0,094
-606,415	-74,354	-0,085	-0,023
-605,401	-200,000	0,015	0,108
-604,386	19,799	0,013	-0,008
-603,371	800,000	-0,076	0,161
-602,357	145,405	0,029	-0,029
-601,342	22,996	-0,012	0,007
-600,328	-81,788	-0,105	-0,025
-599,313	-50,566	-0,065	-0,022
-598,298	32,698	-0,026	-0,017
-597,284	13,554	0,056	-0,032
-596,269	402,854	-0,043	0,067
-595,255	24,529	-0,051	0,031
-594,240	800,000	0,039	-0,100
-593,225	110,172	-0,069	-0,062
-592,211	-100,923	-0,024	0,004
-591,196	308,132	0,059	-0,081
-590,182	-15,521	-0,111	-0,052
-589,167	22,496	0,081	-0,049
-588,152	-30,894	0,092	0,038
-587,138	800,000	0,061	0,134
-586,123	-200,000	-0,007	-0,031
-585,109	-200,000	0,014	0,072
-584,094	381,360	-0,117	-0,178
-583,079	138,059	-0,043	-0,042
-582,065	327,735	-0,059	0,083
-581,050	-8,764	0,031	0,015
-580,036	-59,380	0,114	0,036
-579,021	-30,285	-0,069	-0,029
-578,006	212,025	0,055	-0,064
-576,992	259,514	0,134	-0,171
-575,977	183,378	0,045	0,049
-574,963	-81,735	-0,028	0,007
-573,948	-81,016	-0,046	-0,011
-572,934	-200,000	0,017	0,125
-571,919	-200,000	-0,004	-0,014
-570,904	800,000	-0,027	-0,074
-569,890	150,118	0,061	-0,062
-568,875	800,000	0,073	0,153
-567,861	-132,561	-0,171	-0,016
-566,846	64,862	-0,079	0,059
-565,831	-200,000	0,007	-0,079
-564,817	-200,000	-0,002	-0,114
-563,802	-122,790	0,029	0,003
-562,788	800,000	-0,009	-0,019
-561,773	-166,519	0,054	-0,002
-560,758	91,212	-0,026	0,022
-559,744	75,702	0,025	-0,020
-558,729	-65,516	0,065	0,019
-557,715	245,173	0,035	-0,044
-556,700	-50,534	-0,071	0,025
-555,685	-200,000	-0,028	0,138
-554,671	-200,000	0,015	-0,119
-553,656	343,662	-0,012	0,018
-552,642	-123,856	0,020	-0,002
-551,627	-175,867	-0,034	-0,001
-550,612	-200,000	0,033	-0,196
-549,598	800,000	-0,025	-0,055
-548,583	11,054	0,107	-0,060
-547,569	800,000	0,034	-0,095
-546,554	800,000	0,055	-0,152
-545,539	413,348	-0,039	0,061
-544,525	-200,000	0,032	-0,105
-543,510	-200,000	-0,009	-0,133
-542,496	800,000	0,025	0,058
-541,481	117,122	-0,081	-0,074
-540,466	130,561	0,052	-0,050
-539,452	-58,287	0,104	0,033
-538,437	-11,584	0,070	-0,034
-537,423	444,939	0,043	0,070
-536,408	53,816	0,071	0,051
-535,393	-175,776	0,095	0,002
-534,379	-22,629	-0,100	-0,045
-533,364	-200,000	-0,002	-0,033
-532,350	-38,757	0,042	-0,016
-531,335	223,423	0,034	-0,040
-530,321	269,984	0,027	0,035
-529,306	238,372	-0,032	-0,039
-528,291	-200,000	0,001	-0,012
-527,277	-200,000	0,034	-0,115
-526,262	-77,698	-0,059	-0,015
-525,248	800,000	0,005	-0,011
-524,233	96,882	0,105	0,088
-523,218	-97,292	-0,152	0,029
-522,204	473,641	-0,024	0,040
-521,189	-200,000	0,016	-0,067
-520,175	-200,000	-0,004	0,041
-519,160	190,704	0,010	0,011
-518,145	111,141	0,066	-0,058
-517,131	181,753	0,067	-0,073
-516,116	-200,000	0,004	-0,016
-515,102	11,045	-0,103	0,058
-514,087	35,220	-0,137	-0,088
-513,072	629,470	-0,038	0,072
-512,058	419,051	0,034	0,054
-511,043	-200,000	0,012	-0,100
-510,029	148,571	-0,091	-0,090
-509,014	-19,363	-0,016	-0,007
-507,999	-141,401	-0,119	0,009
-506,985	66,010	0,036	0,027
-505,970	646,864	-0,040	-0,076
-504,956	-200,000	-0,003	-0,079
-503,941	-33,906	0,069	-0,028
-502,926	259,877	-0,018	-0,023
-501,912	431,866	-0,033	0,054
-500,897	-200,000	0,011	0,053
-499,883	-200,000	0,007	0,051
-498,868	800,000	0,013	-0,034
-497,853	-200,000	-0,051	-0,196
-496,839	-23,035	0,093	-0,041
-495,824	459,153	0,025	0,041
-494,810	-200,000	0,009	0,073
-493,795	248,931	0,031	0,039
-492,781	-93,383	0,051	0,010
-491,766	108,737	-0,109	-0,096
-490,751	-134,157	-0,047	0,004
-489,737	464,060	0,065	0,107
-488,722	-21,808	-0,032	0,014
-487,708	505,229	0,093	0,159
-486,693	-200,000	-0,012	0,068
-485,678	-44,563	0,009	0,003
-484,664	-2,457	0,009	0,005
-483,649	370,698	-0,046	0,069
-482,635	-173,695	-0,101	0,002
-481,620	509,025	0,023	0,039
-480,605	-200,000	0,029	0,165
-479,591	-188,838	0,036	0,000
-478,576	800,000	-0,050	0,103
-477,562	-27,046	-0,013	-0,006
-476,547	-103,975	-0,048	0,008
-475,532	-40,959	-0,193	-0,073
-474,518	800,000	-0,019	-0,058
-473,503	-40,219	0,195	-0,074
-472,489	250,072	0,029	-0,037
-471,474	210,276	0,056	0,065
-470,459	61,199	-0,127	-0,093
-469,445	359,287	0,082	-0,121
-468,430	-7,725	0,040	-0,020
-467,416	302,614	0,054	0,074
-466,401	83,022	0,110	-0,088
-465,386	-3,367	-0,040	-0,020
-464,372	197,615	-0,028	0,032
-463,357	33,679	-0,027	0,017
-462,343	-200,000	-0,014	-0,107
-461,328	-123,945	-0,060	-0,007
-460,313	-119,428	0,061	0,008
-459,299	-129,793	0,185	-0,018
-458,284	-34,163	-0,076	0,031
-457,270	2,949	-0,057	0,030
-456,255	3,335	-0,060	0,032
-455,241	-200,000	0,000	0,050
-454,226	344,872	0,038	-0,054
-453,211	-200,000	-0,010	0,118
-452,197	48,289	-0,047	0,032
-451,182	800,000	0,029	0,089
-450,168	-101,766	-0,132	0,023
-449,153	389,627	0,034	-0,053
-448,138	71,940	-0,120	-0,092
-447,124	418,939	-0,031	0,048
-446,109	-101,142	0,204	-0,036
-445,095	148,520	0,100	-0,100
-444,080	217,955	0,068	-0,080
-443,065	0,752	-0,008	-0,004
-442,051	-117,818	0,195	0,025
-441,036	118,303	-0,037	-0,034
-440,022	178,123	-0,080	-0,086
-439,007	445,433	-0,057	0,092
-437,992	188,513	0,064	0,071
-436,978	-200,000	-0,002	-0,072
-435,963	-200,000	0,008	0,099
-434,949	82,185	0,028	0,022
-433,934	190,416	-0,034	-0,037
-432,919	-200,000	0,011	-0,091
-431,905	-200,000	-0,012	0,084
-430,890	-37,117	-0,090	0,035
-429,876	-75,813	-0,108	0,028
-428,861	-200,000	0,050	0,230
-427,846	-200,000	-0,007	-0,077
-426,832	-107,937	-0,135	0,021
-425,817	-200,000	0,019	-0,098
-424,803	-200,000	0,017	-0,069
-423,788	-28,305	0,111	-0,047
-422,773	16,772	-0,054	0,031
-421,759	-141,472	0,086	-0,006
-420,744	-200,000	-0,006	0,020
-419,730	800,000	0,041	-0,108
-418,715	-200,000	-0,001	-0,188
-417,701	49,091	0,031	-0,021
-416,686	-200,000	0,014	-0,050
-415,671	-200,000	0,031	-0,118
-414,657	-200,000	0,016	0,086
-413,642	-200,000	-0,003	0,078
-412,628	163,924	0,012	-0,012
-411,613	185,632	0,048	-0,052
-410,598	-200,000	0,001	0,053
-409,584	82,074	0,059	-0,047
-408,569	-200,000	0,023	0,145
-407,555	-200,000	0,034	0,128
-406,540	800,000	-0,030	-0,073
-405,525	68,748	-0,054	-0,041
-404,511	-40,090	0,035	0,013
-403,496	-200,000	-0,004	0,089
-402,482	40,711	0,102	0,067
-401,467	684,984	-0,069	0,133
-400,452	159,668	0,115	-0,118
-399,438	-106,028	-0,237	0,039
-398,423	60,609	-0,130	-0,094
-397,409	-200,000	0,024	0,153
-396,394	-200,000	0,004	0,052
-395,379	49,580	0,049	-0,033
-394,365	-200,000	0,025	0,117
-393,350	800,000	-0,041	0,097
-392,336	-200,000	0,024	-0,135
-391,321	-200,000	-0,012	-0,137
-390,306	479,919	0,029	0,048
-389,292	107,088	0,079	-0,069
-388,277	149,883	-0,051	-0,051
-387,263	-90,855	0,139	0,029
-386,248	-200,000	-0,001	0,101
-385,233	-159,912	0,055	0,002
-384,219	-170,541	-0,047	0,001
-383,204	-200,000	0,022	-0,072
-382,190	-39,899	-0,038	-0,014
-381,175	-200,000	-0,004	-0,038
-380,160	-84,524	0,010	0,002
-379,146	-71,392	0,119	0,032
-378,131	639,627	0,073	0,137
-377,117	-31,099	-0,068	0,028
-376,102	62,584	-0,040	-0,029
-375,088	183,747	-0,106	-0,115
-374,073	-200,000	0,007	0,039
-373,058	288,073	0,139	0,185
-372,044	-193,438	-0,016	0,000
-371,029	94,426	-0,056	0,046
-370,015	337,286	0,077	-0,109
-369,000	-200,000	-0,003	-0,076
-367,985	-3,556	-0,094	-0,048
-366,971	-33,226	0,094	-0,038
-365,956	730,221	0,019	0,038
-364,942	-31,231	0,034	-0,014
-363,927	800,000	-0,049	0,126
-362,912	370,233	0,022	-0,033
-361,898	-200,000	0,005	-0,059
-360,883	-200,000	-0,002	0,127
-359,869	194,170	0,073	0,081
-358,854	-200,000	-0,018	-0,072
-357,839	785,625	0,061	-0,124
-356,825	-200,000	0,019	-0,091
-355,810	-9,568	-0,092	0,045
-354,796	75,069	-0,027	0,021
-353,781	354,988	0,051	-0,074
-352,766	800,000	-0,029	-0,071
-351,752	17,653	0,128	0,075
-350,737	800,000	0,021	0,056
-349,723	-189,823	-0,041	-0,000
-348,708	-200,000	0,028	0,095
-347,693	-200,000	0,008	0,067
-346,679	105,297	-0,092	-0,079
-345,664	167,040	0,080	-0,084
-344,650	-200,000	0,016	0,213
-343,635	800,000	0,059	-0,121
-342,620	-200,000	0,002	-0,050
-341,606	-171,441	-0,154	-0,004
-340,591	68,152	0,030	0,022
-339,577	-200,000	0,007	-0,061
-338,562	445,104	-0,045	-0,073
-337,548	-200,000	0,006	0,044
-336,533	-200,000	-0,011	0,062
-335,518	704,545	0,042	0,082
-334,504	255,983	-0,048	-0,061
-333,489	298,410	0,079	0,106
-332,475	-6,753	-0,019	-0,010
-331,460	-126,946	-0,021	-0,002
-330,445	216,870	-0,050	-0,059
-329,431	46,018	0,119	0,080
-328,416	470,683	-0,067	0,110
-327,402	-200,000	0,018	0,096
-326,387	264,397	0,013	0,016
-325,372	236,494	-0,010	0,013
-324,358	800,000	-0,047	-0,136
-323,343	-145,836	-0,090	-0,006
-322,329	-200,000	-0,030	-0,190
-321,314	352,597	0,072	0,105
-320,299	-200,000	0,020	0,160
-319,285	800,000	0,033	0,097
-318,270	644,909	0,032	0,060
-317,256	-71,368	-0,108	0,029
-316,241	-157,499	-0,065	0,003
-315,226	-65,704	0,105	-0,030
-314,212	460,662	0,154	0,252
-313,197	800,000	-0,035	0,089
-312,183	-200,000	-0,044	0,150
-311,168	47,193	0,049	-0,033
-310,153	290,984	0,007	0,010
-309,139	-21,433	-0,062	0,027
-308,124	-200,000	0,046	0,181
-307,110	37,784	0,097	0,063
-306,095	-200,000	-0,018	0,069
-305,080	507,023	0,010	-0,018
-304,066	-52,532	-0,110	0,037
-303,051	-200,000	-0,007	-0,052
-302,037	-200,000	-0,019	0,158
-301,022	201,497	-0,051	0,058
-300,008	755,545	0,100	0,199
-298,993	800,000	-0,057	0,145
-297,978	800,000	-0,026	0,059
-296,964	-98,626	-0,041	-0,008
-295,949	-12,552	-0,152	-0,072
-294,935	-24,683	-0,100	-0,043
-293,920	800,000	-0,044	-0,106
-292,905	-200,000	-0,016	0,058
-291,891	-61,762	0,014	0,004
-290,876	-96,071	-0,137	-0,026
-289,862	-200,000	-0,017	-0,062
-288,847	347,562	-0,075	-0,109
-287,832	93,116	0,004	-0,003
-286,818	68,472	0,049	0,036
-285,803	-200,000	0,005	-0,029
-284,789	800,000	-0,055	0,121
-283,774	-200,000	-0,014	-0,079
-282,759	317,902	-0,013	0,018
-281,745	-200,000	0,024	0,121
-280,730	-200,000	0,034	-0,156
-279,716	-36,583	-0,035	0,014
-278,701	800,000	0,075	0,152
-277,686	486,295	-0,007	0,013
-276,672	-49,454	0,114	0,039
-275,657	800,000	0,042	-0,102
-274,643	800,000	0,012	0,030
-273,628	-96,629	0,031	-0,006
-272,613	103,157	-0,094	0,080
-271,599	-17,847	0,103	-0,047
-270,584	221,764	0,040	0,047
-269,570	800,000	0,062	-0,143
-268,555	12,411	-0,198	-0,111
-267,540	-40,805	0,050	0,019
-266,526	-200,000	-0,018	-0,146
-265,511	-200,000	0,003	-0,065
-264,497	244,184	-0,042	0,052
-263,482	134,124	0,049	0,046
-262,467	-200,000	-0,011	0,084
-261,453	32,607	-0,020	-0,013
-260,438	-44,762	0,041	-0,015
-259,424	606,043	0,017	0,031
-258,409	-95,028	-0,140	-0,027
-257,395	33,508	0,102	0,065
-256,380	31,156	-0,055	-0,035
-255,365	27,267	0,120	0,074
-254,351	42,812	0,024	0,016
-253,336	-88,100	0,009	-0,002
-252,322	-56,444	0,083	0,027
-251,307	-200,000	0,024	-0,085
-250,292	77,740	0,048	-0,038
-249,278	-40,601	-0,037	0,014
-248,263	183,229	-0,063	-0,068
-247,249	-128,219	0,044	-0,005
-246,234	800,000	-0,050	-0,123
-245,219	782,856	-0,018	0,037
-244,205	-200,000	0,006	-0,020
-243,190	-200,000	0,008	0,144
-242,176	-200,000	-0,013	0,065
-241,161	-156,077	-0,043	-0,002
-240,146	-105,007	-0,053	-0,009
-239,132	-200,000	-0,014	-0,089
-238,117	-72,089	0,006	0,002
-237,103	323,625	-0,042	-0,059
-236,088	800,000	0,036	-0,114
-235,073	-161,191	0,133	-0,005
-234,059	-96,448	0,132	-0,025
-233,044	120,092	0,095	0,086
-232,030	-200,000	0,007	-0,046
-231,015	-36,583	-0,156	-0,061
-230,000	-200,000	0,006	-0,057
-228,986	248,924	-0,085	0,105
-227,971	-200,000	-0,010	0,200
-226,957	800,000	0,060	0,152
-225,942	171,848	0,026	-0,028
-224,927	-75,059	-0,075	-0,019
-223,913	-200,000	0,011	0,046
-222,898	781,076	-0,069	-0,138
-221,884	-160,361	0,048	-0,002
-220,869	-200,000	0,011	-0,101
-219,855	375,855	0,025	0,038
-218,840	800,000	0,032	0,066
-217,825	96,411	0,050	0,041
-216,811	800,000	-0,027	-0,083
-215,796	-200,000	-0,000	-0,103
-214,782	-152,301	-0,044	0,002
-213,767	243,840	-0,095	-0,116
-212,752	11,158	0,155	0,086
-211,738	193,340	-0,062	0,069
-210,723	493,420	0,027	0,045
-209,709	677,066	-0,039	-0,075
-208,694	-200,000	-0,012	-0,090
-207,679	180,160	0,081	-0,087
-206,665	168,167	-0,039	0,041
-205,650	111,124	0,020	-0,018
-204,636	-200,000	0,009	0,119
-203,621	-35,881	-0,208	0,082
-202,606	-22,656	0,125	0,055
-201,592	66,118	0,083	-0,061
-200,577	285,320	0,097	-0,127
-199,563	-200,000	0,004	0,065
-198,548	88,075	0,056	-0,045
-197,533	-25,158	-0,055	0,024
-196,519	-26,501	0,092	-0,039
-195,504	-11,549	-0,061	-0,029
-194,490	-47,852	-0,033	-0,011
-193,475	745,892	0,013	-0,025
-192,460	102,723	-0,063	-0,053
-191,446	287,598	-0,023	-0,030
-190,431	-61,740	0,174	0,053
-189,417	800,000	-0,044	0,104
-188,402	47,822	0,093	0,063
-187,387	117,301	-0,012	0,011
-186,373	-7,202	-0,131	0,064
-185,358	-95,432	-0,074	-0,014
-184,344	165,294	-0,081	0,084
-183,329	-6,837	-0,033	-0,016
-182,315	39,664	-0,069	-0,045
-181,300	-46,984	0,051	0,018
-180,285	800,000	0,018	-0,055
-179,271	294,564	0,029	-0,039
-178,256	-76,429	0,115	0,029
-177,242	-12,053	-0,103	-0,049
-176,227	800,000	-0,050	0,106
-175,212	-200,000	0,000	-0,030
-174,198	-200,000	-0,006	-0,118
-173,183	656,800	-0,017	-0,031
-172,169	-200,000	0,007	-0,045
-171,154	304,555	0,089	0,120
-170,139	-200,000	0,012	-0,072
-169,125	-200,000	-0,003	-0,075
-168,110	-200,000	0,030	0,133
-167,096	70,703	0,037	-0,028
-166,081	65,163	0,107	-0,078
-165,066	794,998	0,070	-0,141
-164,052	303,345	-0,085	-0,114
-163,037	408,791	-0,073	-0,112
-162,023	800,000	0,059	0,131
-161,008	-200,000	0,010	0,035
-159,993	-146,747	0,127	-0,008
-158,979	-80,201	-0,019	0,005
-157,964	51,866	-0,090	-0,062
-156,950	-200,000	-0,004	-0,037
-155,935	-200,000	0,038	-0,140
-154,920	58,809	0,156	0,111
-153,906	800,000	-0,049	0,140
-152,891	170,838	0,060	0,063
-151,877	-117,889	-0,109	-0,014
-150,862	-0,800	0,069	-0,036
-149,847	-200,000	-0,016	-0,074
-148,833	800,000	0,027	0,058
-147,818	-105,695	0,163	-0,026
-146,804	246,634	0,042	-0,051
-145,789	-200,000	-0,004	-0,020
-144,775	-140,008	0,056	0,004
-143,760	-45,634	-0,083	0,030
-142,745	52,955	-0,108	-0,075
-141,731	-3,329	0,111	0,056
-140,716	14,462	0,143	0,081
-139,702	-200,000	0,019	-0,130
-138,687	-200,000	0,045	0,000
-137,672	800,000	0,025	-0,055
-136,658	604,983	-0,042	0,076
-135,643	-41,946	-0,120	-0,044
-134,629	282,417	-0,127	-0,165
-133,614	-53,802	0,031	0,010
-132,599	-200,000	-0,016	0,063
-131,585	800,000	-0,031	0,093
-130,570	-145,567	-0,086	0,005
-129,556	296,652	0,052	-0,070
-128,541	-200,000	0,001	0,022
-127,526	46,350	0,175	-0,118
-126,512	634,352	-0,013	0,024
-125,497	-200,000	-0,000	-0,013
-124,483	13,467	-0,016	-0,009
-123,468	787,384	0,083	0,165
-122,453	422,812	0,055	0,087
-121,439	29,047	-0,024	-0,015
-120,424	-145,840	-0,055	-0,003
-119,410	-12,746	0,059	0,028
