DTS Sentinel unit serial number:	SN410029Multiplexer serial number:	ORYXHardware model number:	OX2-SRSoftware version number:	ORYX F/W v4,00 Oryx Data Collector v3.7.2.0data status	okinstallation	B6 Nyhavnadifferential loss correction	single-endedforward channel	channel 2reverse channel	N/Adate	2023/12/09time	12:00:08forward acquisition time	300,00reverse acquisition time	0,00gamma	499,1914k internal	0,3140k external	0,3140temperature offset calibration	1,0000default loss term (dB/km)	0,3820temperature slope calibration	1,0000multiplexer offset coefficient	1,0000multiplexer slope coefficient	1,0000fibre end	0,00T internal ref (°C)	19,12T ext. ref 1 (°C)	3,40T ext. ref 2 (°C)	3,38length (m)	temperature (°C)	Stokes	anti-Stokes-744,400	-81,427	0,103	-0,025
-743,385	-83,298	-0,374	-0,088
-742,371	-7,656	0,133	0,066
-741,356	-38,999	-0,272	0,106
-740,342	-67,719	0,018	-0,005
-739,327	-29,130	-0,323	0,137
-738,312	339,194	-0,049	-0,071
-737,298	-135,235	-0,245	0,022
-736,283	-200,000	0,006	-0,032
-735,269	-170,129	-0,264	-0,007
-734,254	-109,110	-0,046	0,007
-733,239	-83,725	-0,441	-0,103
-732,225	105,187	0,062	-0,054
-731,210	-32,709	-0,110	0,045
-730,196	315,317	-0,039	0,055
-729,181	-120,247	-0,107	0,013
-728,167	-59,423	-0,061	0,019
-727,152	146,690	0,092	0,092
-726,137	-102,296	-0,080	-0,014
-725,123	-200,000	-0,041	-0,221
-724,108	76,926	-0,144	-0,113
-723,094	10,366	-0,098	-0,055
-722,079	-200,000	0,005	-0,094
-721,064	-148,470	-0,080	0,005
-720,050	-95,903	-0,029	-0,006
-719,035	800,000	-0,042	-0,131
-718,021	16,762	-0,081	-0,048
-717,006	-91,932	0,122	-0,025
-715,991	-26,536	-0,199	-0,086
-714,977	-200,000	0,024	-0,091
-713,962	422,667	-0,051	0,082
-712,948	-55,135	0,084	-0,028
-711,933	-200,000	0,023	0,091
-710,918	-30,084	-0,124	0,052
-709,904	-95,883	0,076	-0,015
-708,889	-200,000	-0,013	-0,139
-707,875	800,000	0,006	-0,017
-706,860	71,458	-0,069	-0,053
-705,845	-44,747	0,029	-0,011
-704,831	-200,000	0,018	-0,095
-703,816	165,166	0,036	0,038
-702,802	-35,739	-0,133	-0,053
-701,787	62,313	-0,125	-0,092
-700,772	-51,816	-0,034	-0,012
-699,758	43,653	-0,023	-0,015
-698,743	615,573	-0,049	-0,092
-697,729	-15,875	0,014	-0,006
-696,714	163,949	0,059	-0,061
-695,699	800,000	0,021	-0,068
-694,685	-27,743	-0,080	0,034
-693,670	-200,000	-0,130	0,000
-692,656	-200,000	-0,034	-0,149
-691,641	39,350	0,033	0,022
-690,627	509,657	0,062	0,107
-689,612	-200,000	-0,001	-0,102
-688,597	-83,708	-0,073	0,017
-687,583	208,117	-0,123	-0,143
-686,568	-200,000	0,036	-0,182
-685,554	-22,932	-0,141	-0,063
-684,539	800,000	0,036	0,092
-683,524	456,234	-0,105	0,173
-682,510	106,552	0,104	0,091
-681,495	-200,000	-0,009	-0,113
-680,481	-80,454	-0,054	-0,013
-679,466	800,000	-0,019	-0,045
-678,451	-17,447	0,025	-0,012
-677,437	164,484	0,107	-0,111
-676,422	-15,732	0,120	-0,056
-675,408	-200,000	-0,007	0,110
-674,393	-89,591	-0,123	0,026
-673,378	241,758	0,099	-0,122
-672,364	597,907	0,088	0,161
-671,349	226,617	0,017	-0,020
-670,335	336,229	-0,028	-0,041
-669,320	11,731	0,119	-0,067
-668,305	269,750	-0,019	0,025
-667,291	-200,000	-0,012	0,066
-666,276	800,000	-0,046	-0,147
-665,262	105,237	-0,033	-0,029
-664,247	800,000	0,061	-0,135
-663,232	-49,790	-0,111	-0,039
-662,218	51,487	-0,111	-0,078
-661,203	-167,893	0,106	0,003
-660,189	-200,000	0,016	-0,101
-659,174	-200,000	-0,007	-0,065
-658,159	800,000	0,029	-0,074
-657,145	-52,029	-0,107	0,037
-656,130	72,053	-0,054	-0,041
-655,116	-200,000	-0,012	-0,139
-654,101	61,073	0,070	-0,051
-653,086	8,510	-0,033	-0,018
-652,072	301,036	-0,037	-0,051
-651,057	-200,000	-0,012	0,068
-650,043	-31,118	0,089	0,037
-649,028	51,946	0,136	-0,096
-648,014	200,743	-0,094	0,107
-646,999	20,655	0,039	-0,023
-645,984	433,440	-0,061	0,099
-644,970	-35,519	0,052	0,021
-643,955	150,870	-0,051	-0,051
-642,941	104,120	0,116	-0,101
-641,926	-22,431	-0,166	-0,074
-640,911	-56,267	0,174	0,057
-639,897	303,229	-0,107	0,147
-638,882	-17,165	-0,154	0,071
-637,868	-47,568	0,047	0,017
-636,853	800,000	-0,041	-0,120
-635,838	-200,000	0,014	-0,179
-634,824	-200,000	-0,002	-0,025
-633,809	257,468	-0,063	0,080
-632,795	222,291	-0,026	-0,031
-631,780	36,640	0,023	0,015
-630,765	-200,000	-0,005	-0,052
-629,751	800,000	-0,060	0,141
-628,736	800,000	0,015	-0,048
-627,722	414,518	0,014	-0,023
-626,707	-154,838	0,033	0,002
-625,692	-150,953	0,160	0,009
-624,678	-200,000	-0,024	-0,119
-623,663	650,726	-0,040	-0,075
-622,649	81,692	0,042	-0,033
-621,634	15,911	0,058	0,033
-620,619	-76,755	-0,208	-0,053
-619,605	-44,527	0,133	-0,049
-618,590	-200,000	-0,010	0,062
-617,576	58,367	-0,042	-0,030
-616,561	40,123	-0,032	0,021
-615,546	800,000	-0,007	-0,017
-614,532	-200,000	0,004	0,062
-613,517	-16,777	-0,073	-0,034
-612,503	638,858	0,058	-0,109
-611,488	81,150	0,104	0,083
-610,474	52,087	-0,100	-0,071
-609,459	208,953	0,112	0,129
-608,444	30,133	-0,114	0,072
-607,430	800,000	-0,056	-0,128
-606,415	184,448	0,051	-0,055
-605,401	800,000	-0,030	0,074
-604,386	10,714	0,086	-0,048
-603,371	-124,490	0,113	-0,013
-602,357	-200,000	-0,029	-0,113
-601,342	-85,333	0,051	-0,012
-600,328	800,000	-0,016	0,046
-599,313	743,780	-0,048	-0,095
-598,298	800,000	-0,004	-0,011
-597,284	-109,834	-0,100	0,015
-596,269	37,648	0,068	-0,045
-595,255	-200,000	-0,017	0,112
-594,240	130,952	0,074	-0,070
-593,225	-139,734	-0,097	0,007
-592,211	800,000	-0,018	0,041
-591,196	-8,301	0,026	-0,013
-590,182	189,568	0,062	0,068
-589,167	800,000	0,042	-0,106
-588,152	-111,327	-0,004	-0,001
-587,138	-37,951	0,039	-0,015
-586,123	107,284	0,030	-0,026
-585,109	9,520	-0,079	-0,044
-584,094	-200,000	0,010	-0,080
-583,079	-76,964	0,149	-0,038
-582,065	315,898	-0,051	0,071
-581,050	-102,619	-0,022	-0,004
-580,036	-200,000	0,017	-0,141
-579,021	391,638	-0,008	-0,012
-578,006	-122,709	-0,104	-0,012
-576,992	23,229	0,102	0,062
-575,977	-96,293	0,115	-0,022
-574,963	-19,635	0,047	0,021
-573,948	-81,939	-0,064	-0,015
-572,934	-200,000	0,018	-0,080
-571,919	68,151	0,010	-0,007
-570,904	-189,529	-0,107	0,001
-569,890	-92,034	-0,109	-0,022
-568,875	-200,000	0,012	-0,082
-567,861	-152,217	0,068	-0,004
-566,846	108,531	-0,061	-0,054
-565,831	-200,000	-0,003	0,019
-564,817	-200,000	0,007	-0,055
-563,802	-200,000	0,003	-0,078
-562,788	800,000	-0,011	0,026
-561,773	-153,169	-0,074	0,004
-560,758	155,054	-0,077	-0,078
-559,744	-200,000	-0,004	-0,056
-558,729	-76,769	0,155	0,040
-557,715	-53,109	-0,134	0,045
-556,700	-100,141	-0,061	-0,011
-555,685	-200,000	-0,013	0,098
-554,671	-131,813	0,097	0,009
-553,656	16,683	-0,021	0,012
-552,642	460,015	-0,023	0,038
-551,627	-8,474	-0,063	-0,031
-550,612	800,000	-0,022	0,065
-549,598	163,418	-0,147	-0,153
-548,583	-95,528	0,060	-0,012
-547,569	105,274	0,077	-0,067
-546,554	-138,761	0,071	0,006
-545,539	-200,000	0,006	0,106
-544,525	-97,481	-0,143	0,027
-543,510	-68,450	0,091	-0,026
-542,496	-78,141	-0,102	0,026
-541,481	-1,745	0,134	-0,069
-540,466	800,000	-0,035	0,082
-539,452	-107,467	-0,030	-0,005
-538,437	-200,000	-0,020	0,086
-537,423	380,973	-0,020	0,031
-536,408	-200,000	-0,049	-0,180
-535,393	-150,475	0,092	-0,005
-534,379	800,000	0,011	0,029
-533,364	425,291	-0,018	-0,029
-532,350	44,122	0,031	-0,021
-531,335	-63,159	0,027	-0,008
-530,321	48,429	-0,051	-0,035
-529,306	-200,000	-0,004	-0,028
-528,291	-200,000	-0,002	-0,037
-527,277	-14,862	-0,092	-0,043
-526,262	-150,997	-0,168	-0,009
-525,248	-44,601	0,007	0,003
-524,233	-128,031	0,150	0,016
-523,218	609,829	-0,036	0,066
-522,204	-200,000	-0,012	0,055
-521,189	-200,000	0,003	-0,042
-520,175	39,896	-0,093	0,061
-519,160	264,145	0,027	-0,035
-518,145	93,119	0,061	0,050
-517,131	-200,000	-0,005	0,083
-516,116	-39,793	0,064	-0,024
-515,102	197,132	-0,065	0,073
-514,087	201,961	-0,068	-0,078
-513,072	-39,607	0,035	0,013
-512,058	33,828	-0,162	-0,103
-511,043	337,591	-0,038	0,055
-510,029	-65,009	-0,127	-0,037
-509,014	-179,361	0,117	-0,002
-507,999	-200,000	0,006	-0,043
-506,985	-134,164	-0,100	-0,009
-505,970	266,015	0,043	-0,055
-504,956	-38,725	-0,071	0,028
-503,941	84,610	-0,067	-0,054
-502,926	421,419	0,028	0,045
-501,912	800,000	-0,018	0,054
-500,897	-122,869	-0,058	0,007
-499,883	200,910	0,038	-0,043
-498,868	-2,627	-0,070	0,036
-497,853	287,860	-0,059	0,079
-496,839	100,998	-0,017	-0,014
-495,824	-98,214	0,152	-0,028
-494,810	-76,293	0,050	-0,013
-493,795	-129,886	-0,031	0,003
-492,781	-65,933	0,068	0,020
-491,766	654,959	-0,025	-0,047
-490,751	-85,420	-0,015	-0,003
-489,737	722,730	-0,028	-0,054
-488,722	24,673	-0,049	-0,030
-487,708	800,000	0,069	0,155
-486,693	-116,784	0,034	0,005
-485,678	154,853	-0,121	0,122
-484,664	535,348	-0,070	-0,121
-483,649	800,000	-0,025	-0,061
-482,635	-200,000	-0,001	-0,009
-481,620	-146,677	0,041	-0,003
-480,605	-200,000	-0,003	-0,117
-479,591	69,967	0,127	0,096
-478,576	-93,143	-0,129	-0,026
-477,562	-200,000	0,023	-0,083
-476,547	-23,522	-0,010	0,004
-475,532	-134,171	-0,110	-0,010
-474,518	-191,503	0,108	-0,001
-473,503	408,531	-0,034	-0,053
-472,489	-121,789	0,159	0,019
-471,474	-200,000	-0,020	0,116
-470,459	-200,000	0,002	-0,094
-469,445	800,000	0,041	-0,125
-468,430	800,000	-0,027	-0,068
-467,416	800,000	-0,046	0,119
-466,401	-200,000	0,008	-0,059
-465,386	12,948	0,072	-0,041
-464,372	422,011	0,029	0,046
-463,357	800,000	0,030	0,087
-462,343	-156,607	0,070	0,003
-461,328	178,484	-0,028	0,030
-460,313	-51,277	0,056	-0,019
-459,299	494,385	0,039	0,066
-458,284	10,001	0,026	0,014
-457,270	-81,057	0,085	-0,020
-456,255	800,000	0,035	0,077
-455,241	-161,214	0,043	-0,002
-454,226	-55,821	-0,089	0,029
-453,211	1,797	0,099	-0,052
-452,197	333,257	0,052	0,075
-451,182	23,397	0,089	0,054
-450,168	448,959	0,045	0,072
-449,153	3,407	0,049	0,026
-448,138	89,413	-0,105	-0,085
-447,124	2,104	-0,027	-0,014
-446,109	65,697	-0,087	0,064
-445,095	50,336	-0,074	-0,051
-444,080	-200,000	-0,006	0,190
-443,065	-116,868	0,124	-0,016
-442,051	257,659	-0,078	0,099
-441,036	258,466	0,186	-0,236
-440,022	-70,204	0,093	-0,026
-439,007	15,010	-0,134	0,077
-437,992	-198,857	0,106	0,000
-436,978	425,871	0,065	0,103
-435,963	238,514	-0,025	-0,030
-434,949	262,276	-0,078	0,099
-433,934	317,361	-0,034	-0,047
-432,919	345,696	0,134	0,193
-431,905	-142,528	-0,040	-0,003
-430,890	-40,972	0,067	0,025
-429,876	1,963	0,051	-0,027
-428,861	-200,000	-0,012	-0,106
-427,846	264,015	-0,091	0,116
-426,832	-200,000	0,018	-0,108
-425,817	800,000	0,061	-0,147
-424,803	141,198	-0,096	0,093
-423,788	-200,000	0,003	-0,018
-422,773	-200,000	-0,012	0,134
-421,759	96,212	-0,131	0,110
-420,744	86,580	-0,082	0,067
-419,730	365,922	0,022	-0,033
-418,715	800,000	-0,021	0,054
-417,701	-200,000	0,011	-0,080
-416,686	101,313	-0,028	0,024
-415,671	-200,000	0,001	-0,053
-414,657	800,000	-0,033	0,093
-413,642	-106,260	-0,103	0,017
-412,628	-100,066	-0,129	-0,023
-411,613	-111,184	-0,075	0,011
-410,598	-200,000	-0,008	-0,029
-409,584	114,829	0,065	-0,058
-408,569	358,478	0,055	0,081
-407,555	165,001	-0,010	0,010
-406,540	800,000	-0,023	-0,070
-405,525	-200,000	-0,010	-0,050
-404,511	-8,178	0,023	-0,011
-403,496	257,798	-0,089	0,112
-402,482	109,228	0,097	-0,085
-401,467	114,838	0,106	0,095
-400,452	7,530	0,167	0,091
-399,438	391,512	-0,036	0,056
-398,423	800,000	-0,018	-0,048
-397,409	43,034	-0,110	-0,073
-396,394	485,526	-0,047	-0,078
-395,379	-87,635	-0,046	0,010
-394,365	-51,086	0,098	-0,033
-393,350	800,000	0,046	0,136
-392,336	-200,000	0,021	0,090
-391,321	-200,000	-0,009	0,055
-390,306	-200,000	-0,001	0,078
-389,292	36,064	-0,081	-0,052
-388,277	-200,000	-0,018	-0,100
-387,263	800,000	0,071	-0,196
-386,248	81,140	0,056	0,044
-385,233	71,344	0,084	0,064
-384,219	31,644	0,093	-0,058
-383,204	800,000	0,026	-0,065
-382,190	-6,109	-0,048	-0,024
-381,175	-26,503	0,127	-0,054
-380,160	69,966	0,141	0,107
-379,146	269,407	-0,028	0,036
-378,131	118,851	-0,051	-0,046
-377,117	-200,000	-0,014	0,063
-376,102	528,224	0,042	-0,072
-375,088	370,076	-0,097	-0,144
-374,073	489,830	-0,039	-0,066
-373,058	-64,262	0,052	-0,015
-372,044	-160,719	0,087	-0,003
-371,029	-48,855	0,113	-0,039
-370,015	-85,285	-0,121	-0,027
-369,000	-92,231	0,019	0,004
-367,985	-200,000	-0,002	0,020
-366,971	-200,000	0,012	-0,068
-365,956	76,342	-0,031	-0,024
-364,942	2,033	0,053	-0,028
-363,927	-200,000	0,009	0,064
-362,912	-82,200	-0,154	-0,036
-361,898	204,937	-0,071	0,080
-360,883	392,795	0,022	-0,034
-359,869	-200,000	0,014	0,082
-358,854	5,055	0,102	0,055
-357,839	-200,000	-0,015	0,164
-356,825	75,256	-0,057	0,044
-355,810	-35,875	-0,052	0,021
-354,796	-200,000	0,024	0,082
-353,781	-84,067	-0,199	0,046
-352,766	-200,000	-0,013	0,130
-351,752	-60,729	0,037	0,011
-350,737	349,439	0,052	-0,075
-349,723	565,284	0,090	0,160
-348,708	178,117	0,100	0,107
-347,693	-77,771	-0,077	0,019
-346,679	-73,976	-0,102	-0,027
-345,664	-8,082	0,127	0,062
-344,650	-33,300	0,015	-0,006
-343,635	91,146	0,048	0,039
-342,620	-131,414	0,077	-0,007
-341,606	275,273	-0,063	0,081
-340,591	800,000	-0,056	-0,119
-339,577	736,492	0,025	-0,049
-338,562	130,026	-0,072	0,067
-337,548	131,792	0,077	0,072
-336,533	800,000	-0,016	-0,047
-335,518	-200,000	0,013	-0,114
-334,504	461,496	0,050	0,081
-333,489	-200,000	-0,024	-0,146
-332,475	-119,611	0,041	-0,005
-331,460	-200,000	-0,008	-0,048
-330,445	520,240	0,047	-0,081
-329,431	322,014	0,030	0,042
-328,416	-200,000	-0,024	-0,096
-327,402	76,882	-0,057	0,044
-326,387	-159,529	-0,071	-0,003
-325,372	216,903	0,032	0,037
-324,358	419,175	0,029	0,045
-323,343	354,267	-0,041	-0,059
-322,329	35,304	-0,053	0,034
-321,314	-84,963	0,036	0,008
-320,299	261,009	0,050	0,064
-319,285	-152,538	-0,136	-0,007
-318,270	-200,000	-0,011	0,114
-317,256	71,751	0,056	-0,043
-316,241	-25,392	-0,030	0,013
-315,226	212,051	0,058	0,067
-314,212	34,919	-0,103	0,065
-313,197	41,621	-0,070	-0,046
-312,183	-137,422	0,096	-0,008
-311,168	-13,182	-0,059	-0,028
-310,153	-200,000	-0,010	0,071
-309,139	-55,749	0,160	-0,052
-308,124	800,000	-0,023	-0,052
-307,110	-23,638	-0,113	0,049
-306,095	108,665	0,099	0,086
-305,080	685,641	0,054	-0,103
-304,066	800,000	-0,010	-0,030
-303,051	800,000	0,071	-0,181
-302,037	113,657	-0,103	-0,091
-301,022	92,132	0,032	-0,026
-300,008	-200,000	0,003	0,098
-298,993	167,729	0,058	0,060
-297,978	-74,931	0,105	0,027
-296,964	9,588	-0,085	-0,047
-295,949	-200,000	0,026	-0,150
-294,935	800,000	-0,023	-0,050
-293,920	53,358	-0,100	0,070
-292,905	4,684	0,084	-0,045
-291,891	-23,132	-0,024	-0,011
-290,876	-68,393	-0,073	0,020
-289,862	-200,000	0,010	-0,037
-288,847	-120,669	-0,067	-0,008
-287,832	-200,000	-0,019	-0,086
-286,818	-52,912	-0,134	0,045
-285,803	-200,000	0,179	0,000
-284,789	297,386	-0,078	0,104
-283,774	424,773	0,025	0,039
-282,759	-200,000	-0,007	0,024
-281,745	51,340	-0,146	-0,101
-280,730	0,403	0,065	0,033
-279,716	-200,000	0,018	0,069
-278,701	766,715	-0,052	-0,104
-277,686	-55,174	-0,056	-0,018
-276,672	194,064	-0,058	0,064
-275,657	219,083	0,094	0,109
-274,643	63,518	0,044	-0,032
-273,628	800,000	-0,035	-0,092
-272,613	365,151	0,072	-0,105
-271,599	800,000	0,037	0,095
-270,584	800,000	-0,042	-0,085
-269,570	128,465	0,060	0,055
-268,555	55,321	-0,055	-0,039
-267,540	-125,226	-0,058	0,006
-266,526	315,510	0,078	-0,108
-265,511	361,209	-0,049	0,071
-264,497	-200,000	0,012	0,087
-263,482	-200,000	-0,003	0,039
-262,467	-88,627	0,033	-0,007
-261,453	-41,810	0,044	-0,016
-260,438	32,487	-0,079	-0,050
-259,424	800,000	-0,030	0,062
-258,409	-200,000	-0,002	-0,031
-257,395	-200,000	-0,025	-0,091
-256,380	-73,195	0,193	-0,051
-255,365	130,041	0,192	0,179
-254,351	-179,227	-0,149	-0,002
-253,336	-200,000	-0,015	0,091
-252,322	800,000	0,023	0,071
-251,307	15,291	-0,201	-0,114
-250,292	-200,000	-0,004	0,095
-249,278	95,071	0,064	0,053
-248,263	106,535	0,052	-0,045
-247,249	-178,562	0,133	-0,002
-246,234	53,814	-0,030	-0,021
-245,219	-52,522	-0,120	0,040
-244,205	-200,000	-0,007	0,038
-243,190	-56,539	0,068	-0,022
-242,176	-200,000	-0,022	-0,077
-241,161	800,000	0,047	0,098
-240,146	-6,920	-0,133	0,065
-239,132	238,685	0,080	0,097
-238,117	-138,340	0,053	0,004
-237,103	800,000	-0,016	0,049
-236,088	160,320	-0,049	0,050
-235,073	-84,341	0,035	-0,008
-234,059	-200,000	0,020	0,067
-233,044	-200,000	0,013	-0,048
-232,030	-34,699	-0,101	-0,040
-231,015	-200,000	0,005	0,023
-230,000	-178,255	-0,102	-0,002
-228,986	-63,722	0,099	-0,029
-227,971	-29,432	0,021	0,009
-226,957	-22,695	0,061	0,027
-225,942	-200,000	-0,018	0,062
-224,927	-107,121	0,106	0,017
-223,913	-179,810	-0,051	0,001
-222,898	98,088	0,049	-0,041
-221,884	166,803	0,098	-0,101
-220,869	60,670	-0,105	0,076
-219,855	219,296	-0,058	-0,067
-218,840	9,706	-0,114	-0,063
-217,825	89,898	0,075	-0,060
-216,811	338,235	0,050	0,070
-215,796	116,223	0,020	0,018
-214,782	696,866	0,042	-0,080
-213,767	800,000	0,043	-0,138
-212,752	289,473	-0,016	0,021
-211,738	-200,000	-0,002	0,018
-210,723	-18,497	-0,041	0,019
-209,709	128,128	0,075	-0,069
-208,694	-200,000	0,010	-0,078
-207,679	425,816	-0,036	-0,057
-206,665	101,525	0,127	0,107
-205,650	63,750	0,042	0,030
-204,636	340,183	0,036	0,051
-203,621	20,293	-0,069	-0,041
-202,606	219,780	0,018	0,020
-201,592	-200,000	0,009	-0,046
-200,577	-76,919	0,100	-0,025
-199,563	0,365	0,017	-0,009
-198,548	-62,122	-0,106	0,032
-197,533	-84,843	0,115	0,026
-196,519	301,501	-0,034	-0,046
-195,504	-200,000	0,035	-0,154
-194,490	214,974	-0,066	-0,075
-193,475	-18,224	0,057	-0,026
-192,460	296,685	-0,061	-0,081
-191,446	-200,000	-0,024	0,103
-190,431	-200,000	0,053	0,186
-189,417	-200,000	0,010	-0,061
-188,402	51,491	0,048	-0,033
-187,387	-200,000	0,002	-0,070
-186,373	800,000	-0,042	-0,123
-185,358	75,364	-0,028	0,021
-184,344	-200,000	-0,025	-0,106
-183,329	318,275	0,082	0,112
-182,315	163,963	-0,021	-0,022
-181,300	-56,523	-0,158	0,050
-180,285	-200,000	0,001	-0,049
-179,271	360,676	-0,035	0,052
-178,256	-160,946	-0,095	0,004
-177,242	56,670	0,050	-0,035
-176,227	133,512	0,013	0,012
-175,212	-200,000	0,005	-0,024
-174,198	-200,000	-0,039	0,214
-173,183	-200,000	0,003	-0,023
-172,169	461,907	-0,067	-0,108
-171,154	183,098	-0,105	0,112
-170,139	-200,000	0,027	0,108
-169,125	17,958	0,196	0,113
-168,110	-200,000	0,010	-0,058
-167,096	650,916	-0,012	0,022
-166,081	336,204	-0,076	0,107
-165,066	800,000	0,075	-0,156
-164,052	800,000	0,049	0,107
-163,037	-76,269	0,068	-0,017
-162,023	-200,000	-0,008	0,050
-161,008	-93,623	0,100	0,020
-159,993	-30,954	-0,122	0,050
-158,979	49,710	-0,056	0,038
-157,964	-41,628	-0,017	0,006
-156,950	69,251	-0,126	-0,094
-155,935	-156,051	0,099	-0,004
-154,920	800,000	-0,053	0,117
-153,906	593,098	-0,058	0,104
-152,891	-9,371	0,087	-0,042
-151,877	-71,344	0,077	-0,021
-150,862	-200,000	0,026	-0,152
-149,847	-200,000	0,013	-0,075
-148,833	-200,000	0,016	-0,060
-147,818	-30,517	0,114	0,047
-146,804	-185,154	0,090	0,001
-145,789	699,720	0,020	-0,039
-144,775	-12,113	0,029	-0,014
-143,760	-107,829	0,161	-0,025
-142,745	67,020	-0,095	-0,070
-141,731	590,290	-0,047	0,084
-140,716	6,563	-0,007	-0,004
-139,702	83,904	-0,099	-0,078
-138,687	70,580	0,097	0,073
-137,672	94,774	-0,118	-0,097
-136,658	-30,688	-0,043	-0,018
-135,643	251,327	-0,029	-0,036
-134,629	464,082	0,069	0,112
-133,614	-116,963	0,043	0,006
-132,599	-200,000	-0,013	-0,088
-131,585	-159,028	0,086	-0,003
-130,570	145,826	0,082	0,080
-129,556	34,816	0,084	-0,053
-128,541	345,840	0,093	-0,133
-127,526	23,608	0,063	-0,037
-126,512	-200,000	0,019	0,111
-125,497	-50,654	0,072	0,024
-124,483	800,000	0,037	0,075
-123,468	-200,000	0,032	0,132
-122,453	359,745	0,018	-0,025
-121,439	168,246	-0,081	-0,084
-120,424	-200,000	-0,041	0,150
-119,410	-200,000	0,012	-0,151
