DTS Sentinel unit serial number:	SN410029Multiplexer serial number:	ORYXHardware model number:	OX2-SRSoftware version number:	ORYX F/W v4,00 Oryx Data Collector v3.7.2.0data status	okinstallation	B6 Nyhavnadifferential loss correction	single-endedforward channel	channel 2reverse channel	N/Adate	2023/12/08time	18:55:08forward acquisition time	300,00reverse acquisition time	0,00gamma	499,1914k internal	0,3158k external	0,3158temperature offset calibration	1,0000default loss term (dB/km)	0,3820temperature slope calibration	1,0000multiplexer offset coefficient	1,0000multiplexer slope coefficient	1,0000fibre end	0,00T internal ref (°C)	15,25T ext. ref 1 (°C)	-1,38T ext. ref 2 (°C)	-1,38length (m)	temperature (°C)	Stokes	anti-Stokes-744,400	800,000	0,016	-0,046
-743,385	-119,719	-0,306	0,038
-742,371	-104,394	0,298	0,050
-741,356	-14,905	-0,280	-0,132
-740,342	354,583	0,086	-0,126
-739,327	-98,432	-0,268	0,050
-738,312	-26,974	0,021	-0,009
-737,298	-117,876	-0,437	0,057
-736,283	43,292	0,126	0,085
-735,269	-138,536	-0,431	-0,034
-734,254	-200,000	0,002	0,143
-733,239	-21,421	-0,540	-0,242
-732,225	-200,000	0,034	-0,137
-731,210	685,518	0,057	0,111
-730,196	800,000	0,034	-0,104
-729,181	270,323	0,048	-0,062
-728,167	85,873	-0,094	0,076
-727,152	20,138	-0,094	0,056
-726,137	800,000	-0,062	-0,129
-725,123	-30,435	-0,095	0,040
-724,108	102,143	-0,094	-0,081
-723,094	-200,000	-0,021	-0,135
-722,079	-58,938	-0,151	-0,048
-721,064	232,177	-0,051	-0,061
-720,050	84,896	-0,018	0,014
-719,035	117,596	-0,115	-0,104
-718,021	-53,288	-0,026	-0,009
-717,006	8,602	-0,073	-0,041
-715,991	16,614	-0,059	0,034
-714,977	-9,668	-0,079	-0,038
-713,962	800,000	-0,028	-0,059
-712,948	328,120	0,053	0,076
-711,933	-25,093	-0,077	0,034
-710,918	-153,271	-0,049	-0,002
-709,904	139,214	0,042	-0,040
-708,889	-6,242	-0,233	-0,117
-707,875	-76,737	-0,060	-0,015
-706,860	-15,975	0,102	-0,047
-705,845	26,815	0,017	-0,010
-704,831	-61,706	-0,087	-0,027
-703,816	25,155	-0,054	-0,033
-702,802	-99,585	-0,092	0,017
-701,787	-200,000	0,121	-0,000
-700,772	-142,717	-0,070	-0,005
-699,758	135,179	-0,103	0,099
-698,743	-44,633	0,201	-0,074
-697,729	242,340	-0,014	0,018
-696,714	48,929	0,093	-0,064
-695,699	-82,417	-0,114	-0,027
-694,685	16,676	-0,105	-0,061
-693,670	106,660	-0,072	-0,063
-692,656	-94,856	-0,016	0,003
-691,641	-25,628	0,043	0,018
-690,627	-200,000	0,021	0,092
-689,612	-6,246	0,146	-0,073
-688,597	38,697	-0,194	-0,127
-687,583	-200,000	-0,015	-0,079
-686,568	-129,402	0,059	0,006
-685,554	-64,101	0,097	0,029
-684,539	-200,000	0,003	-0,039
-683,524	-0,304	-0,075	-0,039
-682,510	14,994	0,073	0,042
-681,495	-200,000	-0,012	0,043
-680,481	48,036	0,060	0,041
-679,466	167,139	-0,124	-0,130
-678,451	-64,612	-0,019	0,006
-677,437	-200,000	0,030	-0,221
-676,422	-102,333	0,105	0,018
-675,408	708,148	0,055	0,107
-674,393	800,000	-0,067	0,140
-673,378	800,000	-0,004	-0,011
-672,364	63,518	0,029	-0,021
-671,349	800,000	-0,050	-0,122
-670,335	-97,123	0,112	0,021
-669,320	800,000	-0,033	0,067
-668,305	-74,621	0,075	-0,020
-667,291	164,571	0,023	0,024
-666,276	-200,000	0,043	-0,178
-665,262	69,672	0,032	0,024
-664,247	3,379	-0,154	-0,082
-663,232	48,614	0,069	-0,047
-662,218	49,609	0,122	0,084
-661,203	411,408	-0,058	-0,090
-660,189	-200,000	0,009	-0,146
-659,174	-0,614	0,049	0,025
-658,159	70,108	-0,063	-0,048
-657,145	-200,000	-0,007	-0,051
-656,130	-200,000	0,002	0,122
-655,116	468,690	0,056	0,092
-654,101	-200,000	0,002	0,137
-653,086	-200,000	0,016	-0,135
-652,072	686,189	0,054	-0,104
-651,057	195,261	0,030	0,033
-650,043	-200,000	-0,030	-0,166
-649,028	132,374	0,100	0,095
-648,014	-200,000	0,015	-0,062
-646,999	132,882	0,098	0,093
-645,984	-37,219	0,037	-0,014
-644,970	-200,000	0,041	-0,138
-643,955	177,861	0,073	-0,078
-642,941	96,240	0,053	0,045
-641,926	-158,261	0,028	-0,001
-640,911	800,000	-0,057	0,169
-639,897	-15,503	-0,082	-0,038
-638,882	-151,986	0,161	-0,008
-637,868	313,393	0,062	0,086
-636,853	-200,000	-0,053	-0,172
-635,838	-143,573	-0,054	0,004
-634,824	130,640	0,018	0,017
-633,809	-200,000	-0,030	-0,136
-632,795	-23,371	0,077	0,034
-631,780	-50,955	-0,034	-0,012
-630,765	22,356	-0,148	-0,089
-629,751	8,005	-0,031	-0,017
-628,736	-96,265	-0,014	0,003
-627,722	80,445	0,073	-0,057
-626,707	-200,000	0,003	0,101
-625,692	-200,000	0,033	-0,119
-624,678	-45,804	0,050	0,018
-623,663	-200,000	0,022	-0,089
-622,649	800,000	-0,041	-0,092
-621,634	800,000	0,022	0,062
-620,619	577,902	-0,023	-0,042
-619,605	-90,640	0,037	0,008
-618,590	724,379	0,019	-0,038
-617,576	-200,000	-0,009	0,106
-616,561	23,529	0,079	-0,048
-615,546	-80,694	-0,124	-0,030
-614,532	87,591	-0,143	-0,116
-613,517	135,506	0,079	0,076
-612,503	-63,197	-0,043	-0,013
-611,488	-10,092	0,071	0,034
-610,474	-200,000	-0,038	-0,176
-609,459	-142,371	-0,041	-0,003
-608,444	188,000	-0,059	0,065
-607,430	-106,739	-0,085	0,014
-606,415	-9,162	-0,051	-0,025
-605,401	472,446	0,117	0,194
-604,386	-108,707	-0,083	0,013
-603,371	800,000	-0,018	-0,042
-602,357	98,603	0,095	-0,080
-601,342	-55,769	-0,096	0,031
-600,328	464,823	-0,028	0,046
-599,313	86,832	0,086	-0,070
-598,298	-40,822	0,021	0,008
-597,284	6,671	0,118	-0,064
-596,269	800,000	0,068	-0,160
-595,255	546,251	-0,087	0,153
-594,240	215,846	-0,047	0,055
-593,225	129,283	0,038	0,035
-592,211	-30,686	-0,029	0,012
-591,196	-200,000	-0,002	0,108
-590,182	800,000	-0,018	0,055
-589,167	800,000	-0,059	-0,147
-588,152	-101,042	0,048	-0,009
-587,138	800,000	0,069	-0,192
-586,123	61,061	0,007	0,005
-585,109	-99,130	-0,134	-0,025
-584,094	-200,000	0,009	-0,045
-583,079	14,081	-0,066	0,037
-582,065	-200,000	-0,009	-0,066
-581,050	-200,000	0,011	0,094
-580,036	-200,000	-0,046	0,156
-579,021	370,430	-0,036	-0,054
-578,006	-9,516	-0,065	-0,031
-576,992	298,959	0,089	-0,120
-575,977	-110,774	0,078	-0,012
-574,963	3,723	0,010	-0,005
-573,948	-188,076	-0,064	-0,001
-572,934	-37,267	0,081	0,031
-571,919	800,000	0,045	-0,093
-570,904	800,000	-0,047	-0,126
-569,890	-200,000	0,004	0,058
-568,875	150,645	-0,110	0,109
-567,861	-6,636	0,194	-0,097
-566,846	378,030	-0,125	-0,188
-565,831	576,341	0,052	-0,093
-564,817	-21,029	0,057	0,026
-563,802	-200,000	-0,009	0,037
-562,788	-139,192	-0,052	0,004
-561,773	800,000	0,020	-0,064
-560,758	96,927	0,118	0,099
-559,744	800,000	0,038	0,102
-558,729	800,000	0,020	-0,043
-557,715	103,933	0,054	0,046
-556,700	-82,317	0,037	0,009
-555,685	-200,000	0,013	0,047
-554,671	5,120	0,074	0,040
-553,656	-102,519	-0,059	0,010
-552,642	-23,947	0,084	0,037
-551,627	800,000	-0,024	0,061
-550,612	7,676	-0,081	0,045
-549,598	800,000	0,019	0,052
-548,583	168,486	0,062	0,065
-547,569	151,774	0,051	-0,051
-546,554	-200,000	0,003	-0,180
-545,539	-200,000	-0,020	0,068
-544,525	800,000	-0,045	0,104
-543,510	-154,929	0,197	-0,009
-542,496	680,069	0,044	0,085
-541,481	800,000	-0,029	0,088
-540,466	-113,768	0,072	0,010
-539,452	5,451	-0,105	0,057
-538,437	387,572	0,103	-0,156
-537,423	-70,507	0,122	0,034
-536,408	-122,314	0,121	0,014
-535,393	121,792	-0,108	0,099
-534,379	-200,000	-0,011	-0,100
-533,364	-200,000	0,006	-0,064
-532,350	-200,000	-0,002	0,055
-531,335	132,230	0,105	0,099
-530,321	201,878	0,141	0,159
-529,306	-200,000	0,003	0,018
-528,291	163,068	-0,029	0,030
-527,277	-200,000	0,016	-0,078
-526,262	-102,495	-0,070	-0,012
-525,248	-102,813	0,072	-0,012
-524,233	-200,000	0,019	0,189
-523,218	-200,000	0,000	-0,070
-522,204	-40,970	-0,094	0,035
-521,189	-58,969	0,068	-0,021
-520,175	134,632	-0,092	-0,088
-519,160	800,000	-0,040	-0,099
-518,145	-93,992	-0,071	-0,014
-517,131	-200,000	-0,007	-0,121
-516,116	-200,000	0,008	-0,077
-515,102	800,000	0,027	0,065
-514,087	-11,238	0,098	0,047
-513,072	34,305	-0,091	-0,058
-512,058	651,029	-0,062	0,117
-511,043	800,000	0,019	-0,059
-510,029	-94,159	0,068	-0,014
-509,014	800,000	-0,061	-0,129
-507,999	-200,000	0,000	-0,058
-506,985	681,202	0,073	-0,139
-505,970	-52,726	0,046	-0,015
-504,956	-200,000	-0,008	-0,284
-503,941	734,969	-0,077	-0,151
-502,926	800,000	0,037	0,099
-501,912	156,179	0,006	-0,006
-500,897	3,743	0,097	0,052
-499,883	-108,592	-0,083	0,013
-498,868	-200,000	-0,013	-0,070
-497,853	131,108	-0,128	-0,120
-496,839	-76,033	0,147	0,038
-495,824	800,000	0,035	0,093
-494,810	-200,000	-0,030	0,209
-493,795	43,300	0,046	-0,031
-492,781	-102,192	-0,205	-0,036
-491,766	554,612	0,055	-0,097
-490,751	146,855	-0,127	-0,125
-489,737	42,691	-0,044	0,029
-488,722	-200,000	0,004	0,015
-487,708	-200,000	0,007	0,035
-486,693	-35,723	0,050	-0,020
-485,678	-113,794	-0,019	-0,003
-484,664	800,000	0,009	-0,027
-483,649	407,975	-0,062	0,096
-482,635	750,883	-0,029	-0,058
-481,620	-14,581	-0,036	-0,017
-480,605	-6,658	0,069	0,034
-479,591	-30,998	-0,046	0,019
-478,576	-15,535	-0,088	-0,041
-477,562	-200,000	-0,025	-0,123
-476,547	800,000	0,008	-0,016
-475,532	204,176	-0,041	0,047
-474,518	120,929	0,016	0,015
-473,503	500,252	0,047	-0,080
-472,489	92,021	-0,092	0,076
-471,474	183,420	-0,151	-0,163
-470,459	164,141	-0,057	0,058
-469,445	227,230	-0,024	0,029
-468,430	-129,646	0,049	0,005
-467,416	65,967	-0,054	0,040
-466,401	-25,932	-0,140	-0,060
-465,386	109,295	0,067	-0,058
-464,372	800,000	-0,019	0,056
-463,357	-200,000	-0,007	-0,175
-462,343	-79,140	0,085	-0,021
-461,328	112,086	-0,094	0,083
-460,313	56,617	0,052	0,037
-459,299	485,980	0,047	0,079
-458,284	129,077	-0,017	0,016
-457,270	11,274	0,043	-0,024
-456,255	800,000	-0,027	-0,064
-455,241	470,857	0,069	-0,113
-454,226	-31,723	0,069	0,028
-453,211	15,369	0,155	0,089
-452,197	-200,000	-0,003	0,110
-451,182	800,000	0,011	-0,028
-450,168	-84,409	-0,108	-0,025
-449,153	18,427	0,126	-0,073
-448,138	-31,527	0,057	-0,023
-447,124	-200,000	-0,010	-0,047
-446,109	800,000	0,037	0,076
-445,095	-29,692	0,099	0,041
-444,080	278,927	-0,075	0,097
-443,065	10,607	-0,141	0,078
-442,051	16,365	0,090	0,052
-441,036	639,462	-0,042	-0,078
-440,022	-200,000	-0,023	0,166
-439,007	-200,000	-0,006	-0,027
-437,992	120,442	-0,034	-0,031
-436,978	493,564	0,023	0,038
-435,963	-104,768	0,112	-0,019
-434,949	63,346	0,026	-0,019
-433,934	-57,342	-0,162	0,052
-432,919	-200,000	0,034	0,136
-431,905	-9,744	-0,096	0,046
-430,890	800,000	0,025	0,068
-429,876	164,342	-0,059	0,061
-428,861	284,460	0,071	-0,093
-427,846	800,000	0,006	-0,014
-426,832	-93,480	-0,163	-0,032
-425,817	102,125	-0,018	-0,015
-424,803	800,000	-0,044	0,097
-423,788	-49,752	-0,099	-0,034
-422,773	81,432	-0,075	-0,059
-421,759	170,818	-0,029	-0,030
-420,744	394,622	0,069	0,105
-419,730	362,417	-0,067	-0,098
-418,715	127,770	0,118	-0,109
-417,701	-200,000	-0,008	-0,067
-416,686	226,774	0,112	0,133
-415,671	55,071	-0,064	0,045
-414,657	111,948	-0,088	-0,078
-413,642	800,000	-0,081	0,168
-412,628	-200,000	-0,029	-0,166
-411,613	6,069	0,046	-0,025
-410,598	192,028	0,097	0,107
-409,584	-147,620	-0,026	0,002
-408,569	228,594	-0,081	0,097
-407,555	69,288	-0,036	-0,027
-406,540	64,149	-0,028	-0,021
-405,525	369,479	0,085	-0,125
-404,511	23,012	-0,057	0,034
-403,496	-200,000	-0,020	-0,068
-402,482	-200,000	-0,005	-0,032
-401,467	-152,179	0,122	0,006
-400,452	268,411	-0,087	0,111
-399,438	-77,147	0,040	-0,010
-398,423	-200,000	0,005	-0,093
-397,409	-113,394	-0,142	0,020
-396,394	-14,737	0,076	-0,035
-395,379	-200,000	-0,002	0,049
-394,365	-57,713	-0,071	-0,022
-393,350	261,055	0,098	0,123
-392,336	800,000	0,072	0,190
-391,321	-167,860	0,033	-0,001
-390,306	138,261	-0,143	-0,137
-389,292	-200,000	0,034	-0,141
-388,277	684,349	-0,028	-0,054
-387,263	-52,197	0,041	0,014
-386,248	-72,648	0,047	0,013
-385,233	-62,080	0,028	-0,009
-384,219	800,000	0,091	-0,193
-383,204	800,000	-0,041	0,104
-382,190	72,881	-0,090	-0,068
-381,175	-4,612	0,130	-0,065
-380,160	404,145	0,026	-0,041
-379,146	-200,000	0,015	0,151
-378,131	209,975	0,029	0,033
-377,117	-112,107	-0,056	0,008
-376,102	800,000	-0,028	-0,077
-375,088	45,307	-0,102	-0,068
-374,073	-170,563	-0,044	0,001
-373,058	-128,744	0,028	-0,003
-372,044	19,211	-0,055	0,032
-371,029	-200,000	-0,024	0,114
-370,015	-19,587	-0,057	-0,026
-369,000	769,375	0,046	0,091
-367,985	800,000	-0,001	-0,003
-366,971	-200,000	-0,057	-0,216
-365,956	350,119	0,038	-0,055
-364,942	270,257	0,133	-0,170
-363,927	-85,418	0,138	0,031
-362,912	-52,920	-0,132	-0,044
-361,898	784,488	0,024	-0,047
-360,883	800,000	-0,017	0,055
-359,869	-200,000	0,003	0,046
-358,854	782,830	-0,059	-0,118
-357,839	-200,000	-0,011	-0,046
-356,825	394,524	-0,060	-0,091
-355,810	800,000	0,019	0,058
-354,796	8,153	-0,149	-0,081
-353,781	-79,540	-0,130	0,032
-352,766	97,058	0,122	0,102
-351,752	-102,494	0,103	-0,018
-350,737	467,008	0,052	0,085
-349,723	194,765	-0,025	-0,028
-348,708	-25,813	0,043	-0,018
-347,693	414,831	-0,023	-0,035
-346,679	-55,197	0,040	0,013
-345,664	800,000	-0,043	0,089
-344,650	-200,000	-0,012	-0,118
-343,635	-200,000	-0,006	0,067
-342,620	-146,489	-0,076	0,005
-341,606	277,316	0,050	0,065
-340,591	800,000	0,038	-0,121
-339,577	-69,802	-0,029	-0,008
-338,562	-200,000	-0,003	0,024
-337,548	-87,051	-0,042	0,009
-336,533	800,000	0,016	0,045
-335,518	95,936	0,088	0,073
-334,504	-59,262	-0,073	-0,023
-333,489	-200,000	0,019	-0,145
-332,475	133,109	0,104	-0,097
-331,460	547,800	-0,085	-0,149
-330,445	800,000	0,016	0,035
-329,431	59,663	0,063	-0,045
-328,416	-2,400	0,075	-0,038
-327,402	-200,000	-0,005	0,135
-326,387	-122,536	-0,055	-0,006
-325,372	-129,915	-0,067	-0,007
-324,358	445,636	-0,075	-0,120
-323,343	-94,321	-0,087	-0,017
-322,329	800,000	0,046	-0,093
-321,314	-98,577	0,072	0,013
-320,299	130,329	0,018	-0,017
-319,285	379,067	-0,054	0,080
-318,270	-58,766	-0,021	-0,006
-317,256	187,882	0,045	0,048
-316,241	-101,901	0,043	-0,007
-315,226	24,321	-0,076	-0,045
-314,212	-125,249	-0,057	-0,006
-313,197	800,000	-0,022	0,062
-312,183	224,877	0,090	-0,105
-311,168	466,279	-0,033	0,053
-310,153	206,823	0,055	-0,062
-309,139	-11,171	0,013	-0,006
-308,124	-51,714	-0,082	-0,028
-307,110	396,481	-0,080	0,121
-306,095	26,365	0,094	0,057
-305,080	674,666	0,032	0,060
-304,066	-14,203	-0,096	0,045
-303,051	800,000	0,028	0,089
-302,037	-56,611	0,069	-0,022
-301,022	79,982	-0,084	-0,066
-300,008	-111,530	0,219	0,032
-298,993	176,412	0,036	0,038
-297,978	800,000	0,048	0,135
-296,964	70,648	-0,105	0,078
-295,949	697,734	0,080	-0,153
-294,935	800,000	-0,030	-0,085
-293,920	66,216	0,212	-0,156
-292,905	-147,266	0,142	-0,009
-291,891	800,000	0,031	0,066
-290,876	494,845	0,092	-0,154
-289,862	-200,000	-0,038	-0,219
-288,847	-135,972	0,048	0,004
-287,832	-101,867	0,061	0,011
-286,818	-200,000	0,023	-0,105
-285,803	800,000	0,012	0,029
-284,789	570,237	0,072	0,128
-283,774	731,532	-0,011	-0,022
-282,759	51,339	0,061	-0,042
-281,745	-30,887	-0,094	0,038
-280,730	-200,000	0,008	0,062
-279,716	-200,000	-0,022	0,120
-278,701	-200,000	0,033	0,133
-277,686	154,084	0,050	0,049
-276,672	800,000	-0,041	0,105
-275,657	-13,790	0,081	0,038
-274,643	-66,692	-0,070	0,020
-273,628	-38,105	0,038	0,014
-272,613	-8,356	-0,153	-0,074
-271,599	221,493	-0,054	-0,062
-270,584	-200,000	0,000	0,053
-269,570	200,692	0,072	0,080
-268,555	800,000	0,022	0,051
-267,540	40,197	-0,084	-0,054
-266,526	-22,473	-0,022	-0,010
-265,511	-200,000	-0,023	0,104
-264,497	-200,000	0,002	0,060
-263,482	-200,000	0,045	0,159
-262,467	800,000	0,035	-0,072
-261,453	-48,549	0,139	0,048
-260,438	800,000	0,008	-0,022
-259,424	-200,000	0,007	-0,044
-258,409	505,256	0,030	0,050
-257,395	-130,050	0,125	0,012
-256,380	46,769	-0,027	0,018
-255,365	-200,000	0,006	0,057
-254,351	38,321	0,049	-0,032
-253,336	52,359	-0,038	0,026
-252,322	57,138	-0,013	0,009
-251,307	-200,000	0,014	0,076
-250,292	-82,113	0,108	0,025
-249,278	25,927	-0,054	0,033
-248,263	305,111	-0,021	0,029
-247,249	-87,411	0,132	-0,029
-246,234	219,964	-0,051	0,059
-245,219	-200,000	0,011	0,095
-244,205	-200,000	-0,001	-0,046
-243,190	800,000	0,027	0,081
-242,176	321,911	0,054	-0,075
-241,161	-200,000	0,006	0,093
-240,146	-103,042	-0,062	0,011
-239,132	165,876	-0,068	0,070
-238,117	8,559	0,089	0,048
-237,103	-73,653	0,105	-0,027
-236,088	-200,000	0,029	0,100
-235,073	800,000	-0,037	-0,093
-234,059	-200,000	-0,002	0,028
-233,044	-23,290	-0,166	0,072
-232,030	-122,547	0,079	-0,009
-231,015	3,019	-0,203	-0,106
-230,000	800,000	0,059	-0,140
-228,986	-2,695	-0,022	0,011
-227,971	-200,000	-0,005	-0,029
-226,957	-35,108	-0,180	0,071
-225,942	800,000	0,085	0,206
-224,927	-200,000	-0,000	0,082
-223,913	371,007	0,076	-0,111
-222,898	10,642	-0,065	0,036
-221,884	-35,610	-0,050	-0,020
-220,869	-200,000	0,004	0,032
-219,855	78,088	0,035	-0,027
-218,840	705,553	-0,050	0,096
-217,825	523,098	0,045	0,077
-216,811	40,300	-0,069	0,045
-215,796	-15,456	-0,070	0,032
-214,782	-200,000	-0,000	-0,091
-213,767	-31,471	-0,055	0,022
-212,752	-171,673	0,091	0,002
-211,738	-95,749	0,016	0,003
-210,723	800,000	0,055	0,119
-209,709	396,396	-0,033	-0,050
-208,694	-48,831	-0,116	-0,040
-207,679	-95,835	-0,020	-0,004
-206,665	473,476	-0,055	-0,089
-205,650	-200,000	-0,003	0,065
-204,636	-127,216	-0,110	0,012
-203,621	-66,976	-0,032	-0,009
-202,606	-200,000	0,002	-0,016
-201,592	-35,699	-0,076	-0,029
-200,577	-200,000	0,010	-0,039
-199,563	373,466	0,051	0,075
-198,548	-133,014	-0,031	0,003
-197,533	23,229	0,050	-0,029
-196,519	-119,632	0,121	-0,015
-195,504	150,321	-0,021	-0,020
-194,490	-7,040	-0,117	-0,057
-193,475	800,000	-0,072	-0,145
-192,460	-200,000	0,006	0,032
-191,446	-200,000	-0,004	0,050
-190,431	-136,353	-0,023	-0,002
-189,417	768,903	-0,038	-0,075
-188,402	249,963	-0,059	0,072
-187,387	148,455	-0,079	0,077
-186,373	800,000	-0,013	0,042
-185,358	-160,631	0,086	0,003
-184,344	-59,162	-0,098	-0,030
-183,329	800,000	-0,016	-0,051
-182,315	-171,947	0,143	-0,003
-181,300	800,000	-0,021	0,060
-180,285	-74,019	-0,082	-0,021
-179,271	216,927	0,027	0,031
-178,256	27,360	-0,025	-0,015
-177,242	-21,021	0,020	0,009
-176,227	800,000	-0,021	-0,050
-175,212	161,385	0,056	0,056
-174,198	-200,000	-0,034	0,160
-173,183	-178,528	-0,127	0,002
-172,169	800,000	-0,075	0,181
-171,154	-24,842	0,055	0,023
-170,139	-196,235	-0,099	-0,000
-169,125	-200,000	0,045	0,174
-168,110	-84,300	0,161	0,037
-167,096	-200,000	0,036	0,117
-166,081	148,627	0,025	-0,025
-165,066	517,893	-0,041	-0,069
-164,052	-61,520	0,015	-0,004
-163,037	-61,820	-0,076	0,023
-162,023	115,940	0,103	0,090
-161,008	-50,784	-0,075	0,025
-159,993	2,687	-0,087	0,045
-158,979	92,148	0,106	-0,086
-157,964	-200,000	0,009	0,032
-156,950	714,769	0,040	-0,077
-155,935	-118,189	-0,077	-0,010
-154,920	-22,627	-0,061	0,026
-153,906	-51,991	-0,017	-0,006
-152,891	38,031	-0,106	-0,068
-151,877	357,441	-0,081	-0,116
-150,862	800,000	-0,027	0,069
-149,847	-84,474	-0,073	0,016
-148,833	-200,000	0,023	-0,122
-147,818	-200,000	0,019	-0,085
-146,804	123,226	-0,040	0,037
-145,789	37,633	0,057	0,036
-144,775	668,763	0,016	-0,030
-143,760	-200,000	-0,019	-0,211
-142,745	800,000	0,053	-0,135
-141,731	-137,659	0,080	-0,006
-140,716	800,000	-0,036	0,088
-139,702	-200,000	0,002	0,010
-138,687	-55,481	-0,139	0,045
-137,672	-200,000	0,003	0,030
-136,658	-58,996	-0,176	0,054
-135,643	43,517	-0,086	-0,057
-134,629	-91,569	-0,111	-0,023
-133,614	333,179	-0,084	0,118
-132,599	-102,425	-0,032	-0,005
-131,585	465,141	-0,020	0,033
-130,570	-9,059	-0,092	-0,044
-129,556	104,438	-0,119	-0,101
-128,541	-200,000	-0,008	0,034
-127,526	110,734	0,092	0,079
-126,512	-45,004	0,013	0,005
-125,497	-200,000	0,014	-0,157
-124,483	53,736	-0,088	-0,061
-123,468	-67,455	-0,066	-0,019
-122,453	800,000	0,019	0,057
-121,439	-200,000	0,035	-0,129
-120,424	-151,276	-0,090	0,005
-119,410	-104,515	0,027	0,004
-118,395	757,911	0,027	0,052
