DTS Sentinel unit serial number:	SN410029Multiplexer serial number:	ORYXHardware model number:	OX2-SRSoftware version number:	ORYX F/W v4,00 Oryx Data Collector v3.7.2.0data status	okinstallation	B6 Nyhavnadifferential loss correction	single-endedforward channel	channel 2reverse channel	N/Adate	2023/12/10time	01:50:08forward acquisition time	300,00reverse acquisition time	0,00gamma	499,1914k internal	0,3125k external	0,3125temperature offset calibration	1,0000default loss term (dB/km)	0,3820temperature slope calibration	1,0000multiplexer offset coefficient	1,0000multiplexer slope coefficient	1,0000fibre end	0,00T internal ref (°C)	21,94T ext. ref 1 (°C)	5,68T ext. ref 2 (°C)	5,68length (m)	temperature (°C)	Stokes	anti-Stokes-744,400	-200,000	0,012	-0,114
-743,385	-177,539	-0,137	0,002
-742,371	-56,365	0,174	-0,057
-741,356	-86,047	-0,222	0,051
-740,342	800,000	-0,039	-0,089
-739,327	130,169	-0,175	0,167
-738,312	275,677	0,102	0,135
-737,298	-142,215	-0,271	-0,020
-736,283	24,922	-0,066	-0,041
-735,269	-9,968	-0,294	0,145
-734,254	800,000	0,054	0,126
-733,239	-137,126	-0,494	-0,041
-732,225	-196,548	0,201	-0,001
-731,210	-77,724	0,017	0,004
-730,196	174,119	0,065	-0,070
-729,181	-200,000	0,011	-0,120
-728,167	326,547	0,063	0,090
-727,152	-82,096	0,080	0,019
-726,137	-102,361	-0,084	-0,015
-725,123	800,000	-0,067	-0,162
-724,108	-200,000	-0,053	-0,231
-723,094	-134,896	-0,176	0,016
-722,079	-200,000	-0,022	-0,128
-721,064	88,386	-0,005	0,004
-720,050	445,036	-0,068	0,111
-719,035	215,893	-0,065	-0,077
-718,021	40,295	-0,089	-0,059
-717,006	-143,472	-0,038	-0,003
-715,991	-25,474	-0,148	-0,065
-714,977	-76,965	-0,071	0,018
-713,962	-49,325	-0,043	0,015
-712,948	406,077	-0,080	0,126
-711,933	-200,000	-0,007	-0,093
-710,918	-200,000	0,018	-0,064
-709,904	-121,940	0,008	-0,001
-708,889	732,367	-0,014	-0,029
-707,875	46,141	-0,181	-0,124
-706,860	143,609	0,104	-0,103
-705,845	-200,000	0,000	-0,020
-704,831	-36,891	0,084	0,033
-703,816	177,352	-0,090	-0,097
-702,802	6,180	0,098	0,054
-701,787	153,835	-0,129	-0,132
-700,772	393,568	-0,046	-0,071
-699,758	232,491	-0,029	-0,035
-698,743	-200,000	0,029	0,114
-697,729	50,413	0,059	-0,041
-696,714	-30,683	-0,091	-0,038
-695,699	-200,000	-0,010	0,084
-694,685	589,769	-0,077	-0,141
-693,670	800,000	0,055	-0,123
-692,656	-200,000	-0,007	0,115
-691,641	14,671	-0,047	-0,027
-690,627	579,017	-0,041	-0,075
-689,612	-166,244	-0,123	0,004
-688,597	-200,000	0,013	0,158
-687,583	-17,568	-0,056	-0,026
-686,568	17,762	-0,061	0,036
-685,554	711,627	0,087	-0,172
-684,539	800,000	-0,037	-0,105
-683,524	-66,692	0,031	-0,009
-682,510	-200,000	-0,030	-0,111
-681,495	800,000	-0,023	0,048
-680,481	63,441	-0,095	-0,070
-679,466	-140,289	-0,109	-0,008
-678,451	193,288	-0,026	-0,029
-677,437	-88,700	0,028	-0,006
-676,422	-200,000	0,011	0,059
-675,408	377,086	0,044	0,067
-674,393	-38,023	-0,064	-0,025
-673,378	174,190	-0,132	-0,142
-672,364	40,206	-0,043	0,029
-671,349	-108,245	-0,106	-0,017
-670,335	98,467	0,106	-0,091
-669,320	-88,746	-0,013	0,003
-668,305	60,621	-0,039	0,028
-667,291	53,520	0,086	0,061
-666,276	137,564	-0,023	-0,022
-665,262	800,000	-0,027	0,071
-664,247	153,735	-0,031	0,032
-663,232	800,000	0,036	-0,112
-662,218	197,617	-0,065	0,074
-661,203	-82,280	-0,043	0,010
-660,189	4,261	-0,010	0,005
-659,174	-93,258	-0,065	-0,013
-658,159	-44,311	-0,153	-0,057
-657,145	-152,789	-0,112	0,006
-656,130	-200,000	-0,034	0,124
-655,116	800,000	0,009	0,022
-654,101	-72,392	-0,121	0,033
-653,086	-200,000	0,009	0,110
-652,072	800,000	0,021	-0,052
-651,057	27,549	-0,116	-0,072
-650,043	-200,000	-0,047	-0,168
-649,028	-114,431	0,012	0,002
-648,014	-200,000	-0,013	0,073
-646,999	53,004	-0,104	0,074
-645,984	-200,000	-0,006	-0,082
-644,970	74,397	-0,082	-0,064
-643,955	-91,950	-0,073	0,015
-642,941	86,921	0,055	-0,045
-641,926	678,053	0,037	0,071
-640,911	-200,000	-0,019	0,066
-639,897	89,969	0,060	0,050
-638,882	-200,000	0,022	0,151
-637,868	-200,000	0,017	0,095
-636,853	-200,000	-0,001	0,056
-635,838	549,425	-0,010	0,017
-634,824	-200,000	-0,016	-0,098
-633,809	-104,904	-0,109	0,018
-632,795	136,218	0,036	-0,035
-631,780	-112,394	-0,047	-0,007
-630,765	-200,000	0,007	-0,197
-629,751	36,668	-0,049	0,032
-628,736	-96,893	-0,095	-0,018
-627,722	68,596	-0,048	0,036
-626,707	800,000	0,016	-0,047
-625,692	110,956	-0,048	-0,043
-624,678	18,232	0,162	0,095
-623,663	800,000	-0,026	-0,080
-622,649	-13,108	-0,041	-0,019
-621,634	800,000	-0,025	0,054
-620,619	-22,629	-0,061	-0,027
-619,605	-73,565	0,189	0,051
-618,590	549,437	-0,092	0,163
-617,576	800,000	0,060	0,131
-616,561	800,000	0,024	0,064
-615,546	-78,268	-0,104	0,026
-614,532	203,423	-0,071	-0,081
-613,517	185,447	0,009	0,010
-612,503	366,211	0,077	-0,115
-611,488	-32,734	0,095	0,039
-610,474	120,280	-0,105	0,097
-609,459	614,323	0,036	0,067
-608,444	-200,000	0,016	-0,149
-607,430	-57,859	-0,098	-0,031
-606,415	-145,701	0,065	0,004
-605,401	-66,215	0,041	-0,012
-604,386	137,057	0,072	0,070
-603,371	-80,333	0,202	0,050
-602,357	419,619	0,086	-0,137
-601,342	-39,161	-0,067	-0,026
-600,328	-106,108	-0,229	-0,038
-599,313	183,091	-0,088	0,096
-598,298	-200,000	-0,013	-0,075
-597,284	-200,000	-0,008	0,166
-596,269	-66,003	-0,060	0,018
-595,255	-122,678	-0,103	0,012
-594,240	-33,559	-0,148	0,060
-593,225	-200,000	0,011	-0,100
-592,211	-200,000	0,011	-0,102
-591,196	793,521	-0,027	0,056
-590,182	396,320	0,031	0,048
-589,167	800,000	0,035	-0,080
-588,152	-200,000	0,033	0,185
-587,138	-162,121	-0,170	-0,006
-586,123	1,991	-0,197	-0,105
-585,109	541,529	-0,066	0,116
-584,094	-200,000	0,004	-0,048
-583,079	110,517	-0,038	-0,034
-582,065	61,114	0,162	-0,119
-581,050	0,757	-0,099	0,052
-580,036	-54,628	0,117	-0,039
-579,021	-200,000	0,016	0,140
-578,006	-200,000	0,057	-0,216
-576,992	78,760	0,112	-0,089
-575,977	498,726	-0,055	-0,095
-574,963	69,135	0,097	0,074
-573,948	800,000	-0,031	0,065
-572,934	-152,010	-0,050	0,003
-571,919	800,000	0,043	-0,114
-570,904	-200,000	-0,020	-0,067
-569,890	361,331	0,080	-0,119
-568,875	800,000	-0,028	-0,070
-567,861	-87,438	0,070	-0,015
-566,846	-174,878	0,039	-0,001
-565,831	-79,594	0,038	0,009
-564,817	203,470	0,046	-0,052
-563,802	-75,719	0,048	0,013
-562,788	-119,513	-0,064	0,008
-561,773	-164,130	-0,074	0,002
-560,758	550,987	-0,043	0,076
-559,744	38,439	0,078	0,052
-558,729	-200,000	0,018	-0,069
-557,715	550,284	-0,033	-0,059
-556,700	-200,000	-0,014	-0,137
-555,685	-200,000	-0,008	-0,046
-554,671	-122,721	-0,091	0,011
-553,656	-171,877	0,087	0,002
-552,642	308,830	-0,016	-0,023
-551,627	116,996	0,164	0,149
-550,612	103,267	0,011	0,009
-549,598	173,575	-0,166	-0,177
-548,583	800,000	-0,061	-0,141
-547,569	800,000	-0,021	0,050
-546,554	67,217	-0,023	0,017
-545,539	-200,000	0,002	0,172
-544,525	-200,000	0,040	0,134
-543,510	800,000	-0,061	-0,162
-542,496	-41,558	-0,083	-0,031
-541,481	-15,472	-0,107	-0,050
-540,466	800,000	-0,044	0,113
-539,452	-71,127	0,034	0,009
-538,437	74,185	0,199	0,155
-537,423	800,000	-0,014	0,030
-536,408	151,780	0,053	0,054
-535,393	-200,000	-0,004	-0,078
-534,379	-200,000	0,025	-0,084
-533,364	-0,499	-0,094	0,049
-532,350	-133,265	-0,106	-0,010
-531,335	18,812	-0,133	-0,078
-530,321	-49,628	0,043	-0,015
-529,306	-17,993	0,030	-0,014
-528,291	343,129	-0,076	-0,110
-527,277	-1,508	-0,144	-0,075
-526,262	800,000	0,037	0,108
-525,248	505,814	0,055	0,094
-524,233	12,569	0,064	0,036
-523,218	88,622	-0,095	-0,078
-522,204	685,063	0,055	-0,106
-521,189	-11,086	0,085	0,041
-520,175	-126,032	-0,086	0,009
-519,160	-200,000	0,032	0,150
-518,145	-200,000	-0,044	0,147
-517,131	800,000	-0,040	0,081
-516,116	-200,000	-0,010	0,095
-515,102	-200,000	0,009	0,076
-514,087	62,476	-0,097	-0,071
-513,072	613,738	0,040	-0,074
-512,058	715,521	-0,043	0,084
-511,043	-97,903	-0,185	-0,035
-510,029	-200,000	0,023	0,125
-509,014	50,040	0,085	-0,059
-507,999	110,091	0,162	0,143
-506,985	-7,262	-0,034	-0,017
-505,970	57,540	-0,122	-0,088
-504,956	-200,000	0,016	0,116
-503,941	-200,000	0,008	0,047
-502,926	800,000	0,019	-0,039
-501,912	97,558	-0,011	-0,009
-500,897	70,658	-0,083	-0,063
-499,883	-200,000	0,016	0,081
-498,868	-55,785	-0,072	0,024
-497,853	-33,328	-0,046	-0,019
-496,839	122,810	0,025	-0,023
-495,824	800,000	-0,050	-0,106
-494,810	-200,000	-0,003	-0,014
-493,795	366,086	0,078	0,117
-492,781	800,000	-0,014	-0,038
-491,766	137,296	-0,077	-0,074
-490,751	-55,663	-0,129	-0,042
-489,737	-107,385	-0,087	-0,014
-488,722	20,895	0,136	-0,081
-487,708	-200,000	-0,003	0,107
-486,693	179,692	-0,068	-0,073
-485,678	110,848	0,079	-0,070
-484,664	800,000	-0,033	0,080
-483,649	-200,000	0,023	-0,115
-482,635	-82,858	-0,024	0,006
-481,620	41,308	-0,040	-0,027
-480,605	-139,371	0,111	0,009
-479,591	-200,000	0,009	0,108
-478,576	63,645	0,097	0,071
-477,562	800,000	-0,028	-0,065
-476,547	-200,000	-0,009	-0,051
-475,532	229,445	-0,085	-0,103
-474,518	-200,000	-0,027	-0,095
-473,503	130,476	0,067	-0,063
-472,489	-200,000	-0,011	0,083
-471,474	-94,776	-0,135	0,027
-470,459	-71,255	-0,073	-0,020
-469,445	78,592	-0,092	-0,073
-468,430	358,558	-0,057	-0,085
-467,416	-76,770	0,038	0,010
-466,401	53,702	0,230	0,162
-465,386	8,164	0,091	0,050
-464,372	91,106	-0,023	-0,019
-463,357	278,979	-0,045	0,060
-462,343	-50,147	-0,062	-0,021
-461,328	345,460	-0,061	0,088
-460,313	-148,144	0,128	-0,008
-459,299	800,000	0,006	-0,018
-458,284	122,760	0,083	0,076
-457,270	800,000	-0,052	0,109
-456,255	-32,192	0,051	0,021
-455,241	-127,876	-0,099	-0,010
-454,226	108,104	-0,103	-0,090
-453,211	-200,000	0,032	-0,127
-452,197	800,000	0,041	-0,084
-451,182	-200,000	0,002	0,097
-450,168	26,850	-0,139	0,086
-449,153	-200,000	0,007	0,058
-448,138	-200,000	0,014	0,053
-447,124	-145,215	0,024	-0,002
-446,109	444,356	-0,049	0,079
-445,095	71,647	0,016	-0,012
-444,080	72,167	0,065	0,049
-443,065	5,726	0,104	0,057
-442,051	-119,266	-0,078	-0,010
-441,036	-151,829	0,152	0,008
-440,022	-86,924	-0,079	0,018
-439,007	-200,000	0,013	-0,084
-437,992	800,000	-0,039	0,099
-436,978	417,993	-0,034	0,054
-435,963	534,936	-0,036	-0,063
-434,949	173,374	-0,054	-0,057
-433,934	755,255	-0,052	-0,105
-432,919	-82,978	-0,088	-0,021
-431,905	-109,377	-0,069	-0,011
-430,890	800,000	-0,060	-0,161
-429,876	45,068	0,079	-0,054
-428,861	-87,115	-0,079	0,018
-427,846	678,094	-0,052	0,099
-426,832	-200,000	0,035	-0,128
-425,817	800,000	0,007	-0,021
-424,803	-88,798	0,093	0,020
-423,788	425,581	0,074	0,118
-422,773	56,606	0,073	0,052
-421,759	73,128	0,080	0,061
-420,744	242,427	-0,043	-0,053
-419,730	460,027	-0,048	-0,078
-418,715	-106,213	-0,084	0,014
-417,701	272,208	0,110	-0,143
-416,686	327,882	0,031	-0,044
-415,671	-200,000	0,008	0,040
-414,657	212,644	0,061	0,070
-413,642	299,943	0,071	0,096
-412,628	-32,746	-0,134	-0,054
-411,613	2,937	-0,097	-0,052
-410,598	178,223	0,033	-0,035
-409,584	-13,411	-0,093	0,044
-408,569	115,502	-0,104	0,093
-407,555	-50,731	-0,057	-0,020
-406,540	-200,000	-0,019	-0,134
-405,525	-66,083	-0,084	-0,024
-404,511	399,905	0,045	-0,070
-403,496	-200,000	-0,019	0,077
-402,482	-39,966	-0,068	0,026
-401,467	-200,000	-0,002	-0,050
-400,452	800,000	-0,029	0,087
-399,438	800,000	0,028	0,070
-398,423	577,116	0,041	-0,075
-397,409	-67,752	-0,058	0,017
-396,394	124,617	0,055	0,051
-395,379	186,561	-0,031	-0,033
-394,365	31,580	-0,037	-0,023
-393,350	-125,844	0,040	-0,004
-392,336	-68,795	-0,106	0,030
-391,321	-30,166	0,049	-0,020
-390,306	-38,416	0,026	0,010
-389,292	136,620	0,063	-0,061
-388,277	208,837	0,036	0,042
-387,263	191,131	0,141	0,156
-386,248	171,134	-0,042	0,045
-385,233	776,314	0,070	0,141
-384,219	62,014	0,017	-0,012
-383,204	-200,000	0,003	-0,092
-382,190	-79,582	-0,165	-0,041
-381,175	-95,158	0,091	-0,018
-380,160	-200,000	-0,003	-0,014
-379,146	800,000	0,021	-0,052
-378,131	550,174	0,051	-0,091
-377,117	-33,177	-0,057	-0,023
-376,102	-200,000	-0,001	-0,111
-375,088	35,332	-0,095	-0,061
-374,073	24,844	0,039	-0,024
-373,058	83,438	0,120	0,096
-372,044	409,795	-0,039	0,060
-371,029	755,732	-0,052	0,103
-370,015	-98,773	0,083	0,015
-369,000	-200,000	0,004	-0,034
-367,985	-200,000	0,019	-0,103
-366,971	92,995	-0,079	-0,065
-365,956	52,057	0,046	0,032
-364,942	-35,958	0,127	0,050
-363,927	358,327	-0,048	0,070
-362,912	800,000	-0,031	0,081
-361,898	-200,000	-0,004	0,079
-360,883	800,000	0,036	0,113
-359,869	219,616	-0,029	-0,034
-358,854	-200,000	0,032	0,131
-357,839	-5,412	-0,074	0,037
-356,825	800,000	0,017	-0,037
-355,810	-16,621	-0,141	0,065
-354,796	-185,384	0,070	-0,001
-353,781	-58,154	-0,015	0,005
-352,766	-145,895	0,081	0,005
-351,752	376,708	-0,096	0,144
-350,737	599,107	-0,019	0,035
-349,723	-200,000	0,012	0,080
-348,708	800,000	0,050	0,132
-347,693	141,961	-0,126	0,123
-346,679	34,002	0,087	-0,056
-345,664	-87,243	-0,075	0,017
-344,650	188,030	-0,044	0,049
-343,635	239,605	0,042	0,051
-342,620	-52,942	0,047	0,016
-341,606	127,635	-0,038	0,035
-340,591	275,582	-0,081	-0,106
-339,577	-200,000	-0,009	-0,060
-338,562	-200,000	-0,017	-0,104
-337,548	222,973	-0,036	-0,043
-336,533	-200,000	-0,006	0,147
-335,518	-200,000	-0,025	0,172
-334,504	10,792	0,064	0,036
-333,489	-33,098	0,112	-0,046
-332,475	-117,528	-0,042	0,006
-331,460	-200,000	0,002	-0,016
-330,445	420,588	0,018	-0,028
-329,431	800,000	0,045	0,096
-328,416	800,000	0,064	0,155
-327,402	800,000	-0,027	0,073
-326,387	119,179	-0,033	0,029
-325,372	-200,000	0,029	-0,127
-324,358	-149,256	-0,150	-0,009
-323,343	43,827	0,055	-0,037
-322,329	69,770	-0,074	0,056
-321,314	118,475	0,066	0,059
-320,299	232,059	-0,056	0,067
-319,285	-42,528	0,122	-0,045
-318,270	-200,000	0,012	-0,076
-317,256	-100,469	-0,044	-0,008
-316,241	-58,613	0,081	-0,026
-315,226	-200,000	0,007	0,049
-314,212	-81,012	-0,076	0,018
-313,197	652,351	0,045	-0,086
-312,183	-200,000	0,001	0,066
-311,168	-170,572	0,067	-0,002
-310,153	-50,592	0,150	-0,052
-309,139	782,456	-0,071	-0,142
-308,124	-200,000	0,137	0,000
-307,110	29,073	0,188	0,116
-306,095	-150,017	0,058	-0,003
-305,080	-42,138	0,069	0,026
-304,066	-76,715	-0,030	-0,008
-303,051	-120,095	0,128	-0,016
-302,037	-200,000	-0,003	-0,079
-301,022	60,192	0,031	-0,022
-300,008	84,181	0,044	0,035
-298,993	-104,854	0,101	-0,017
-297,978	165,115	-0,090	-0,093
-296,964	-167,675	0,097	0,003
-295,949	-63,749	-0,061	-0,018
-294,935	-150,776	-0,049	0,003
-293,920	-45,711	0,042	-0,015
-292,905	-35,204	0,146	-0,058
-291,891	21,778	-0,020	-0,012
-290,876	-200,000	-0,004	-0,023
-289,862	-118,653	-0,204	-0,026
-288,847	-200,000	0,017	-0,067
-287,832	800,000	-0,040	-0,121
-286,818	178,454	0,031	0,033
-285,803	-41,269	0,089	-0,033
-284,789	-115,935	0,131	0,018
-283,774	-200,000	-0,008	0,107
-282,759	741,740	0,039	-0,078
-281,745	-162,916	-0,124	0,004
-280,730	108,509	0,076	0,066
-279,716	-15,430	0,055	0,026
-278,701	-14,752	0,089	-0,042
-277,686	-200,000	0,007	0,082
-276,672	-200,000	0,027	-0,191
-275,657	49,130	-0,118	-0,081
-274,643	169,797	-0,073	-0,076
-273,628	-134,252	-0,066	-0,006
-272,613	-126,155	0,068	0,007
-271,599	91,136	0,070	-0,058
-270,584	-115,157	0,097	-0,013
-269,570	-200,000	-0,012	0,060
-268,555	-37,247	-0,141	0,055
-267,540	-107,294	0,155	-0,025
-266,526	-90,386	-0,069	0,014
-265,511	-22,016	-0,048	-0,021
-264,497	64,908	0,034	0,025
-263,482	800,000	0,083	-0,192
-262,467	-89,053	0,049	-0,010
-261,453	171,894	0,103	0,108
-260,438	38,179	0,054	0,035
-259,424	165,971	-0,049	-0,050
-258,409	-200,000	-0,001	-0,122
-257,395	-63,790	0,058	-0,017
-256,380	553,058	0,040	0,071
-255,365	800,000	-0,006	0,016
-254,351	-137,869	0,093	-0,007
-253,336	576,315	0,011	0,020
-252,322	326,711	-0,076	-0,106
-251,307	501,745	0,089	-0,151
-250,292	-14,367	-0,034	-0,016
-249,278	338,976	-0,072	-0,103
-248,263	-124,621	0,077	0,009
-247,249	-114,595	0,023	-0,003
-246,234	-40,987	-0,056	0,021
-245,219	-7,994	-0,043	0,021
-244,205	722,003	-0,030	-0,059
-243,190	-98,994	0,088	0,016
-242,176	-44,398	0,108	0,039
-241,161	-200,000	0,031	0,122
-240,146	800,000	-0,028	0,081
-239,132	-49,700	-0,036	-0,013
-238,117	-76,240	-0,024	0,006
-237,103	-62,578	0,023	0,007
-236,088	-134,138	0,151	-0,013
-235,073	557,222	0,019	0,034
-234,059	328,938	-0,052	0,073
-233,044	-12,054	-0,118	0,056
-232,030	135,669	-0,052	0,049
-231,015	800,000	-0,050	-0,114
-230,000	800,000	-0,030	-0,075
-228,986	-90,898	-0,107	-0,022
-227,971	78,272	0,172	-0,134
-226,957	-113,496	0,066	0,009
-225,942	-16,304	0,019	0,009
-224,927	-200,000	-0,007	-0,024
-223,913	-200,000	0,012	-0,083
-222,898	-200,000	0,006	0,029
-221,884	361,972	-0,048	-0,070
-220,869	595,073	-0,039	0,071
-219,855	723,442	-0,039	0,076
-218,840	-200,000	0,042	0,136
-217,825	-200,000	-0,022	-0,148
-216,811	-66,628	-0,081	0,023
-215,796	-9,742	-0,063	-0,031
-214,782	-110,825	-0,103	0,015
-213,767	791,832	-0,027	0,055
-212,752	-200,000	0,042	0,142
-211,738	271,675	0,067	-0,087
-210,723	-130,262	-0,074	-0,007
-209,709	1,412	-0,037	-0,019
-208,694	21,236	-0,097	-0,058
-207,679	-117,802	-0,072	0,009
-206,665	-39,612	0,107	0,041
-205,650	-200,000	-0,013	-0,097
-204,636	100,067	0,063	-0,053
-203,621	-140,739	-0,054	-0,004
-202,606	124,649	-0,034	0,032
-201,592	30,493	0,066	-0,041
-200,577	800,000	0,035	-0,103
-199,563	-200,000	0,032	0,104
-198,548	331,427	0,100	0,141
-197,533	-108,097	0,123	-0,019
-196,519	-200,000	0,008	-0,032
-195,504	-200,000	-0,004	0,015
-194,490	-200,000	0,027	-0,089
-193,475	800,000	-0,020	0,051
-192,460	-200,000	-0,001	0,005
-191,446	-56,145	0,135	-0,044
-190,431	56,705	-0,158	0,112
-189,417	-109,379	0,021	-0,003
-188,402	88,400	-0,127	0,103
-187,387	-200,000	0,046	-0,171
-186,373	123,181	-0,023	0,021
-185,358	189,090	0,060	-0,066
-184,344	-38,923	0,091	0,035
-183,329	-45,848	-0,028	-0,010
-182,315	-166,584	0,084	-0,002
-181,300	68,762	-0,058	-0,044
-180,285	63,275	-0,113	0,082
-179,271	-200,000	0,032	-0,117
-178,256	78,206	0,045	-0,035
-177,242	-68,076	0,106	-0,030
-176,227	329,522	0,014	0,019
-175,212	-200,000	0,005	0,042
-174,198	-200,000	0,007	-0,059
-173,183	379,478	-0,119	-0,178
-172,169	-28,212	0,054	-0,023
-171,154	93,922	0,074	-0,061
-170,139	-16,328	0,148	-0,068
-169,125	22,680	0,061	0,036
-168,110	-143,117	0,200	-0,014
-167,096	114,021	-0,042	0,037
-166,081	-200,000	-0,057	-0,187
-165,066	102,256	-0,063	-0,053
-164,052	34,181	0,020	-0,013
-163,037	-200,000	0,053	0,170
-162,023	-200,000	-0,006	0,152
-161,008	14,289	-0,205	-0,116
-159,993	133,108	0,013	-0,012
-158,979	11,910	-0,093	-0,052
-157,964	241,633	0,082	0,100
-156,950	145,725	0,037	0,036
-155,935	-7,725	-0,072	0,035
-154,920	378,933	0,032	0,048
-153,906	-103,800	0,220	0,037
-152,891	54,486	0,045	0,032
-151,877	-200,000	-0,016	0,065
-150,862	-200,000	-0,002	0,097
-149,847	1,213	-0,061	0,032
-148,833	167,770	0,039	0,040
-147,818	-200,000	-0,032	0,127
-146,804	800,000	-0,008	-0,022
-145,789	169,414	0,086	0,090
-144,775	151,178	-0,090	0,089
-143,760	114,069	0,035	0,031
-142,745	-158,977	-0,153	-0,006
-141,731	175,780	0,120	0,127
-140,716	82,570	0,107	0,085
-139,702	-3,234	0,110	0,056
-138,687	182,957	0,073	-0,078
-137,672	159,952	-0,172	0,174
-136,658	-23,208	-0,083	-0,036
-135,643	-40,544	-0,054	-0,020
-134,629	228,253	-0,075	-0,089
-133,614	-92,256	0,048	-0,010
-132,599	272,251	-0,085	0,109
-131,585	57,109	0,047	0,033
-130,570	-38,991	0,062	-0,024
-129,556	12,745	-0,118	-0,066
-128,541	-200,000	0,020	-0,113
-127,526	-15,220	-0,081	-0,038
-126,512	239,117	-0,071	0,086
-125,497	289,189	0,053	-0,070
-124,483	-2,479	0,031	0,016
-123,468	107,345	0,112	0,096
-122,453	458,169	0,027	0,044
-121,439	32,100	0,071	-0,044
-120,424	65,490	0,137	-0,101
-119,410	-200,000	-0,011	0,091
