DTS Sentinel unit serial number:	SN410029Multiplexer serial number:	ORYXHardware model number:	OX2-SRSoftware version number:	ORYX F/W v4,00 Oryx Data Collector v3.7.2.0data status	okinstallation	B6 Nyhavnadifferential loss correction	single-endedforward channel	channel 2reverse channel	N/Adate	2023/12/07time	22:10:08forward acquisition time	300,00reverse acquisition time	0,00gamma	499,1914k internal	0,3165k external	0,3165temperature offset calibration	1,0000default loss term (dB/km)	0,3820temperature slope calibration	1,0000multiplexer offset coefficient	1,0000multiplexer slope coefficient	1,0000fibre end	0,00T internal ref (°C)	13,62T ext. ref 1 (°C)	-3,32T ext. ref 2 (°C)	-3,31length (m)	temperature (°C)	Stokes	anti-Stokes-744,400	253,640	0,144	0,181
-743,385	-199,725	-0,195	-0,001
-742,371	-56,822	0,088	-0,028
-741,356	-141,750	-0,253	-0,018
-740,342	-53,137	0,131	-0,044
-739,327	-120,903	-0,297	-0,036
-738,312	800,000	-0,023	-0,059
-737,298	-12,477	-0,272	-0,130
-736,283	-49,566	0,074	0,026
-735,269	-150,610	-0,314	0,017
-734,254	3,806	0,211	0,113
-733,239	-11,171	-0,452	-0,218
-732,225	-177,805	0,144	-0,002
-731,210	127,268	-0,112	0,105
-730,196	-112,187	0,084	0,012
-729,181	-129,812	-0,132	0,013
-728,167	-32,508	-0,068	-0,028
-727,152	-200,000	-0,011	-0,066
-726,137	-19,789	0,128	-0,058
-725,123	703,727	0,028	-0,054
-724,108	-89,528	-0,141	0,030
-723,094	195,653	-0,093	-0,104
-722,079	22,619	0,187	0,112
-721,064	37,308	-0,096	0,062
-720,050	81,258	0,074	0,059
-719,035	-73,408	-0,051	-0,014
-718,021	-200,000	0,033	-0,147
-717,006	21,778	-0,130	0,078
-715,991	268,230	-0,103	-0,133
-714,977	800,000	-0,006	0,015
-713,962	207,647	0,089	-0,102
-712,948	800,000	-0,007	0,019
-711,933	234,287	0,058	0,071
-710,918	-144,650	-0,114	-0,008
-709,904	48,301	0,063	-0,043
-708,889	301,771	-0,059	-0,081
-707,875	137,421	-0,082	0,079
-706,860	-200,000	-0,008	0,128
-705,845	-106,737	0,082	0,013
-704,831	-174,456	-0,086	0,002
-703,816	-200,000	0,028	0,171
-702,802	-200,000	0,003	0,011
-701,787	51,405	-0,033	0,023
-700,772	89,044	-0,089	-0,073
-699,758	122,554	-0,028	0,026
-698,743	-175,374	0,085	0,002
-697,729	71,494	-0,028	0,021
-696,714	800,000	-0,048	0,101
-695,699	713,626	-0,030	0,059
-694,685	-200,000	-0,032	-0,111
-693,670	225,672	-0,084	-0,101
-692,656	212,624	-0,025	-0,029
-691,641	-58,702	-0,100	0,032
-690,627	-200,000	-0,012	-0,122
-689,612	-24,613	0,100	0,044
-688,597	-138,167	-0,080	0,006
-687,583	649,321	-0,048	-0,091
-686,568	632,412	0,062	-0,115
-685,554	205,661	-0,087	-0,099
-684,539	-51,209	0,066	-0,023
-683,524	442,661	0,103	0,167
-682,510	-170,521	-0,037	-0,001
-681,495	237,734	0,077	0,094
-680,481	-200,000	-0,009	-0,038
-679,466	-200,000	-0,016	-0,129
-678,451	186,407	0,044	-0,049
-677,437	197,128	0,051	-0,057
-676,422	-200,000	-0,003	-0,038
-675,408	-63,083	0,118	-0,036
-674,393	-200,000	0,000	-0,170
-673,378	-128,014	-0,127	0,013
-672,364	-63,700	-0,134	-0,040
-671,349	-152,225	-0,072	-0,004
-670,335	-200,000	-0,000	-0,016
-669,320	-200,000	0,023	0,152
-668,305	170,513	0,079	0,083
-667,291	-149,058	-0,214	-0,012
-666,276	-58,610	-0,076	-0,024
-665,262	127,518	0,078	-0,073
-664,247	800,000	-0,068	0,153
-663,232	53,343	-0,019	0,013
-662,218	71,350	-0,099	0,075
-661,203	-93,357	-0,095	0,019
-660,189	-200,000	-0,021	0,082
-659,174	-200,000	-0,006	0,072
-658,159	-200,000	-0,019	-0,130
-657,145	-200,000	0,004	0,111
-656,130	372,424	-0,007	0,010
-655,116	115,125	-0,050	-0,044
-654,101	-200,000	0,026	0,089
-653,086	-130,576	-0,104	0,010
-652,072	800,000	0,059	-0,146
-651,057	-17,287	-0,146	-0,067
-650,043	174,500	0,057	-0,061
-649,028	-103,692	0,059	-0,010
-648,014	-111,061	0,146	-0,022
-646,999	-57,167	0,022	0,007
-645,984	331,326	-0,031	0,044
-644,970	-125,992	-0,048	0,005
-643,955	-122,536	0,051	-0,006
-642,941	-7,469	-0,114	-0,056
-641,926	-200,000	-0,003	-0,025
-640,911	630,931	-0,042	-0,078
-639,897	-0,994	-0,152	0,079
-638,882	342,733	-0,079	0,114
-637,868	-105,348	0,085	0,014
-636,853	138,621	-0,067	-0,064
-635,838	532,068	-0,059	-0,104
-634,824	-200,000	-0,020	0,083
-633,809	86,696	-0,027	0,022
-632,795	180,522	0,040	-0,043
-631,780	41,695	-0,027	-0,018
-630,765	0,031	-0,085	-0,044
-629,751	-53,161	-0,097	-0,032
-628,736	-102,161	-0,144	-0,025
-627,722	-112,612	0,061	-0,009
-626,707	247,225	-0,030	-0,037
-625,692	-61,099	0,123	-0,038
-624,678	-1,110	-0,104	0,054
-623,663	139,780	-0,125	0,120
-622,649	800,000	0,038	0,119
-621,634	-127,309	-0,103	0,011
-620,619	-56,639	-0,037	-0,012
-619,605	800,000	0,044	0,103
-618,590	-200,000	-0,002	0,063
-617,576	3,822	0,057	-0,031
-616,561	800,000	-0,039	0,090
-615,546	76,856	-0,147	-0,114
-614,532	457,293	0,034	-0,056
-613,517	-112,518	-0,152	-0,022
-612,503	279,339	-0,029	-0,037
-611,488	8,215	0,088	-0,048
-610,474	800,000	-0,044	-0,108
-609,459	800,000	-0,031	-0,066
-608,444	-200,000	-0,004	0,016
-607,430	92,972	-0,062	-0,052
-606,415	800,000	0,075	-0,203
-605,401	-113,788	-0,056	-0,008
-604,386	-200,000	-0,005	-0,062
-603,371	274,599	-0,038	-0,050
-602,357	-200,000	-0,014	-0,049
-601,342	96,285	0,132	0,110
-600,328	23,966	-0,070	-0,042
-599,313	692,342	0,024	-0,047
-598,298	800,000	0,044	-0,139
-597,284	243,919	-0,029	0,036
-596,269	128,385	0,099	0,092
-595,255	-68,047	0,023	0,007
-594,240	77,356	-0,107	-0,083
-593,225	-5,612	-0,148	-0,074
-592,211	-46,137	0,057	-0,020
-591,196	-200,000	-0,023	-0,102
-590,182	-200,000	0,003	-0,027
-589,167	-20,604	0,067	-0,030
-588,152	218,348	-0,065	-0,076
-587,138	-5,691	0,079	-0,039
-586,123	-200,000	0,002	-0,088
-585,109	-200,000	0,018	-0,162
-584,094	280,450	0,057	-0,075
-583,079	518,451	0,046	-0,079
-582,065	800,000	-0,055	-0,131
-581,050	326,837	-0,044	0,062
-580,036	-200,000	0,007	0,027
-579,021	800,000	-0,065	-0,154
-578,006	499,087	-0,052	-0,088
-576,992	508,614	-0,037	0,062
-575,977	501,605	0,023	0,039
-574,963	-34,205	-0,127	0,051
-573,948	-200,000	-0,005	0,116
-572,934	99,217	-0,014	-0,012
-571,919	-200,000	-0,037	-0,145
-570,904	399,458	-0,067	-0,103
-569,890	250,832	-0,063	-0,079
-568,875	-76,575	0,052	0,013
-567,861	800,000	0,047	0,099
-566,846	186,178	0,042	0,046
-565,831	100,855	-0,155	0,131
-564,817	-200,000	-0,014	0,060
-563,802	-200,000	-0,040	-0,218
-562,788	-22,011	-0,087	-0,039
-561,773	-107,666	0,071	0,011
-560,758	750,081	0,057	0,113
-559,744	-200,000	-0,009	0,032
-558,729	-25,169	0,065	0,028
-557,715	323,820	-0,031	0,043
-556,700	386,190	-0,037	-0,056
-555,685	289,446	-0,070	-0,093
-554,671	-200,000	-0,010	-0,153
-553,656	-68,379	0,117	0,033
-552,642	-38,532	0,121	0,046
-551,627	128,176	-0,063	0,059
-550,612	-66,599	0,088	-0,025
-549,598	-60,846	0,049	-0,015
-548,583	-200,000	-0,064	0,207
-547,569	-67,255	0,059	-0,017
-546,554	42,779	0,032	-0,021
-545,539	-178,843	0,053	-0,001
-544,525	800,000	0,075	-0,171
-543,510	-46,353	-0,138	0,049
-542,496	62,503	0,015	0,011
-541,481	-8,922	-0,039	-0,019
-540,466	45,894	-0,043	0,029
-539,452	-25,431	0,102	0,044
-538,437	-200,000	-0,001	0,022
-537,423	-80,442	-0,075	-0,018
-536,408	-200,000	0,001	0,041
-535,393	800,000	-0,036	0,079
-534,379	132,243	-0,082	-0,077
-533,364	28,477	-0,121	-0,074
-532,350	141,284	-0,055	0,053
-531,335	428,217	0,089	0,141
-530,321	-40,122	0,150	0,057
-529,306	225,783	-0,008	-0,010
-528,291	-200,000	-0,008	-0,089
-527,277	-200,000	-0,009	-0,073
-526,262	-86,110	0,065	-0,014
-525,248	-200,000	-0,006	0,102
-524,233	-48,879	0,089	-0,031
-523,218	61,306	-0,107	-0,078
-522,204	237,383	0,099	0,120
-521,189	-140,478	-0,103	-0,008
-520,175	-180,005	-0,047	-0,001
-519,160	-14,007	-0,076	-0,035
-518,145	-82,676	0,099	0,023
-517,131	-11,392	0,063	0,030
-516,116	-84,199	0,078	0,018
-515,102	489,983	0,029	0,049
-514,087	-200,000	0,002	0,017
-513,072	800,000	0,046	-0,104
-512,058	800,000	0,045	-0,125
-511,043	27,108	-0,073	0,045
-510,029	185,303	0,055	0,060
-509,014	418,680	0,035	0,054
-507,999	800,000	0,036	-0,074
-506,985	-200,000	-0,003	-0,141
-505,970	-200,000	-0,001	-0,009
-504,956	-133,746	-0,069	0,006
-503,941	-200,000	0,020	-0,164
-502,926	800,000	-0,056	0,160
-501,912	106,247	0,019	-0,016
-500,897	-46,791	0,109	0,039
-499,883	-200,000	0,013	-0,106
-498,868	-14,603	-0,026	-0,012
-497,853	83,515	-0,014	0,011
-496,839	329,729	-0,068	0,096
-495,824	-200,000	0,006	0,145
-494,810	268,585	-0,076	0,097
-493,795	233,800	0,062	-0,075
-492,781	-200,000	0,030	-0,131
-491,766	-200,000	0,005	-0,033
-490,751	-35,606	-0,034	-0,013
-489,737	-200,000	0,009	0,121
-488,722	-200,000	-0,037	-0,130
-487,708	-40,788	-0,160	0,060
-486,693	495,249	0,030	0,051
-485,678	-120,492	-0,129	-0,016
-484,664	370,681	0,053	0,079
-483,649	-155,698	-0,093	0,004
-482,635	-200,000	-0,008	0,055
-481,620	579,913	-0,020	-0,035
-480,605	-57,773	0,077	0,024
-479,591	29,895	0,014	-0,009
-478,576	51,665	-0,011	0,008
-477,562	800,000	0,023	0,069
-476,547	800,000	-0,016	0,047
-475,532	193,349	0,067	-0,074
-474,518	-157,284	0,125	0,005
-473,503	75,132	0,146	0,112
-472,489	-71,705	0,006	0,002
-471,474	-200,000	0,016	-0,058
-470,459	403,000	0,054	0,083
-469,445	7,272	-0,109	-0,059
-468,430	-200,000	-0,032	0,168
-467,416	-34,503	0,123	0,049
-466,401	-35,540	-0,076	0,030
-465,386	-31,641	0,092	0,037
-464,372	241,470	0,081	-0,099
-463,357	263,514	0,067	-0,085
-462,343	-28,242	0,032	-0,013
-461,328	621,139	0,030	0,055
-460,313	800,000	0,057	0,120
-459,299	-200,000	0,007	0,057
-458,284	-200,000	-0,010	-0,096
-457,270	93,311	0,014	-0,011
-456,255	-200,000	-0,010	-0,051
-455,241	-200,000	-0,011	0,100
-454,226	116,353	0,096	-0,086
-453,211	-200,000	0,024	0,160
-452,197	129,149	0,125	-0,116
-451,182	31,812	-0,142	-0,089
-450,168	-200,000	-0,033	0,140
-449,153	37,162	-0,120	-0,077
-448,138	-148,246	0,201	0,012
-447,124	624,103	0,017	0,032
-446,109	-104,344	-0,099	0,017
-445,095	-200,000	-0,005	-0,035
-444,080	800,000	-0,051	-0,122
-443,065	83,308	0,012	0,010
-442,051	27,250	0,042	-0,025
-441,036	-33,227	-0,084	-0,034
-440,022	-135,976	-0,157	-0,013
-439,007	800,000	0,053	0,109
-437,992	800,000	0,017	-0,039
-436,978	-200,000	-0,004	0,047
-435,963	134,351	-0,072	0,068
-434,949	-3,556	0,072	-0,036
-433,934	184,857	-0,104	-0,112
-432,919	77,130	-0,052	-0,040
-431,905	79,030	0,143	-0,111
-430,890	-200,000	0,011	0,120
-429,876	129,177	0,065	-0,061
-428,861	402,980	0,057	-0,087
-427,846	-154,565	-0,211	0,010
-426,832	-159,037	0,044	-0,002
-425,817	-194,786	0,078	-0,000
-424,803	15,027	0,155	-0,088
-423,788	-119,134	0,033	-0,004
-422,773	89,105	-0,053	0,043
-421,759	147,404	0,110	0,107
-420,744	800,000	-0,038	-0,119
-419,730	460,223	-0,006	0,010
-418,715	-52,218	-0,114	-0,038
-417,701	-200,000	-0,032	-0,105
-416,686	292,230	-0,035	-0,047
-415,671	723,660	-0,054	0,106
-414,657	-200,000	0,008	-0,034
-413,642	159,993	-0,074	0,075
-412,628	-133,221	0,164	0,015
-411,613	-200,000	-0,006	-0,023
-410,598	800,000	0,016	0,044
-409,584	207,042	0,011	0,012
-408,569	280,208	-0,061	0,079
-407,555	-11,637	-0,059	0,028
-406,540	800,000	0,043	0,089
-405,525	0,311	-0,029	0,015
-404,511	-95,981	-0,163	-0,031
-403,496	161,774	-0,068	0,069
-402,482	259,903	0,036	0,046
-401,467	-52,665	0,096	-0,032
-400,452	-200,000	0,009	0,234
-399,438	-120,500	-0,080	0,010
-398,423	69,880	-0,022	0,016
-397,409	362,936	0,068	0,099
-396,394	6,997	-0,058	0,031
-395,379	223,486	-0,100	-0,117
-394,365	530,728	0,076	-0,131
-393,350	800,000	0,079	0,170
-392,336	184,242	0,092	0,099
-391,321	11,201	0,087	0,048
-390,306	322,920	0,030	-0,042
-389,292	-200,000	0,044	-0,166
-388,277	800,000	0,067	0,192
-387,263	33,936	0,068	0,043
-386,248	-200,000	-0,026	0,148
-385,233	-29,784	0,097	0,040
-384,219	-123,178	-0,035	-0,004
-383,204	-200,000	0,001	-0,057
-382,190	-0,301	-0,023	0,012
-381,175	714,023	0,059	-0,113
-380,160	-200,000	-0,026	-0,144
-379,146	90,932	0,080	-0,065
-378,131	190,393	-0,082	-0,089
-377,117	203,984	-0,058	-0,065
-376,102	122,862	0,033	-0,030
-375,088	-200,000	-0,011	0,067
-374,073	-200,000	0,018	0,077
-373,058	241,659	-0,050	0,061
-372,044	-146,384	0,096	-0,006
-371,029	-200,000	-0,008	0,031
-370,015	376,009	-0,032	-0,047
-369,000	486,791	0,067	-0,111
-367,985	800,000	-0,056	-0,116
-366,971	587,320	-0,007	-0,013
-365,956	164,794	0,011	0,011
-364,942	425,435	0,054	0,084
-363,927	-66,396	0,130	-0,037
-362,912	28,152	-0,021	-0,013
-361,898	-200,000	-0,006	-0,041
-360,883	605,943	-0,085	-0,154
-359,869	-200,000	-0,026	-0,145
-358,854	-200,000	-0,028	-0,099
-357,839	800,000	0,042	-0,123
-356,825	633,083	-0,040	0,074
-355,810	-118,237	-0,055	-0,007
-354,796	72,088	0,016	0,012
-353,781	800,000	0,050	-0,123
-352,766	99,982	-0,017	0,014
-351,752	49,608	0,021	0,014
-350,737	800,000	0,059	0,155
-349,723	167,242	-0,108	0,111
-348,708	-74,818	-0,109	-0,028
-347,693	-200,000	-0,019	0,081
-346,679	800,000	0,008	0,023
-345,664	-122,375	-0,031	0,004
-344,650	51,590	0,074	-0,051
-343,635	-200,000	0,001	-0,047
-342,620	235,006	0,046	0,055
-341,606	-200,000	-0,007	-0,103
-340,591	46,358	-0,095	-0,064
-339,577	236,252	0,024	0,029
-338,562	11,365	0,109	0,060
-337,548	109,286	0,095	-0,082
-336,533	110,717	0,060	0,052
-335,518	15,149	0,022	0,012
-334,504	-200,000	0,016	0,071
-333,489	8,972	0,076	-0,041
-332,475	800,000	-0,003	-0,007
-331,460	-200,000	0,027	0,113
-330,445	800,000	-0,034	0,090
-329,431	-200,000	-0,005	0,047
-328,416	80,406	0,126	0,098
-327,402	10,839	-0,053	0,029
-326,387	-200,000	0,003	-0,133
-325,372	89,802	-0,071	-0,058
-324,358	55,206	-0,045	0,031
-323,343	800,000	-0,073	-0,159
-322,329	-17,234	0,108	0,049
-321,314	729,385	0,060	0,117
-320,299	27,877	0,164	0,100
-319,285	-173,815	-0,080	-0,002
-318,270	33,814	0,032	0,020
-317,256	-200,000	-0,015	-0,090
-316,241	800,000	0,008	0,021
-315,226	-120,222	0,138	-0,017
-314,212	-117,222	0,071	-0,009
-313,197	-100,681	0,072	-0,013
-312,183	800,000	0,032	0,086
-311,168	300,902	-0,028	-0,037
-310,153	16,313	-0,028	0,016
-309,139	-12,844	-0,107	-0,050
-308,124	336,778	-0,028	0,040
-307,110	133,326	0,094	0,088
-306,095	-72,019	0,034	-0,009
-305,080	130,512	-0,112	0,103
-304,066	272,312	-0,067	-0,086
-303,051	264,617	-0,031	-0,039
-302,037	210,152	0,033	-0,037
-301,022	6,799	0,078	0,042
-300,008	206,233	-0,083	0,094
-298,993	-200,000	-0,004	0,098
-297,978	601,139	-0,042	-0,076
-296,964	-173,341	0,043	-0,001
-295,949	774,116	-0,050	0,098
-294,935	-200,000	-0,018	0,064
-293,920	193,223	0,067	-0,073
-292,905	-31,338	0,116	-0,047
-291,891	320,468	-0,010	0,014
-290,876	800,000	0,022	0,046
-289,862	-54,311	-0,061	-0,020
-288,847	46,613	-0,079	0,053
-287,832	192,770	0,075	-0,082
-286,818	-140,875	0,102	-0,008
-285,803	-8,589	-0,050	-0,024
-284,789	85,592	0,055	0,044
-283,774	-76,585	0,118	0,030
-282,759	-34,102	0,121	0,048
-281,745	-200,000	0,004	-0,110
-280,730	317,288	-0,074	0,101
-279,716	800,000	0,007	-0,016
-278,701	-91,069	-0,083	0,017
-277,686	26,162	0,114	-0,068
-276,672	125,050	-0,109	0,099
-275,657	-68,128	-0,068	-0,019
-274,643	353,685	-0,099	-0,142
-273,628	-119,802	-0,030	-0,004
-272,613	762,230	-0,032	-0,063
-271,599	800,000	0,043	0,091
-270,584	13,255	0,032	-0,018
-269,570	725,194	-0,027	-0,052
-268,555	-36,415	0,184	-0,071
-267,540	-153,625	-0,090	-0,004
-266,526	800,000	-0,064	-0,144
-265,511	-200,000	0,029	-0,102
-264,497	-200,000	0,017	0,055
-263,482	301,194	-0,100	-0,134
-262,467	800,000	0,019	0,059
-261,453	-132,114	-0,116	0,011
-260,438	-200,000	0,037	-0,123
-259,424	800,000	0,031	0,091
-258,409	112,576	0,107	-0,094
-257,395	93,841	0,071	-0,058
-256,380	-19,292	-0,056	-0,025
-255,365	-24,319	0,049	0,021
-254,351	-200,000	-0,002	0,109
-253,336	-26,095	0,083	0,035
-252,322	-200,000	0,014	-0,114
-251,307	-158,294	0,037	-0,002
-250,292	-106,175	0,112	-0,018
-249,278	-142,700	-0,026	0,002
-248,263	44,372	0,064	-0,042
-247,249	-3,096	0,078	0,039
-246,234	-200,000	-0,004	0,047
-245,219	-198,300	-0,026	-0,000
-244,205	-200,000	-0,008	0,064
-243,190	40,522	-0,104	0,068
-242,176	800,000	0,015	-0,046
-241,161	93,801	-0,016	-0,013
-240,146	-12,743	-0,163	-0,076
-239,132	-0,083	0,074	-0,038
-238,117	-200,000	-0,007	0,050
-237,103	15,406	-0,088	-0,049
-236,088	-65,428	0,057	0,016
-235,073	-93,390	0,078	-0,015
-234,059	-200,000	0,002	-0,023
-233,044	728,612	-0,075	0,145
-232,030	111,092	-0,031	-0,027
-231,015	-98,113	-0,088	0,016
-230,000	-103,658	0,051	-0,008
-228,986	-200,000	0,007	0,066
-227,971	303,616	-0,080	0,108
-226,957	-200,000	0,010	0,074
-225,942	-25,729	0,069	0,029
-224,927	-23,582	0,043	-0,019
-223,913	-200,000	0,019	-0,070
-222,898	-41,363	-0,179	-0,066
-221,884	-200,000	-0,037	-0,118
-220,869	106,433	-0,057	-0,049
-219,855	277,350	0,047	0,060
-218,840	50,322	-0,075	0,051
-217,825	294,829	-0,066	0,087
-216,811	118,570	0,089	-0,079
-215,796	-97,335	0,148	0,027
-214,782	-142,140	-0,121	-0,009
-213,767	-147,886	-0,081	-0,005
-212,752	-200,000	0,018	0,070
-211,738	148,857	0,015	-0,015
-210,723	800,000	0,049	-0,101
-209,709	-33,400	-0,156	-0,062
-208,694	281,972	0,029	0,038
-207,679	800,000	0,009	0,028
-206,665	612,535	-0,033	0,060
-205,650	91,326	-0,044	-0,035
-204,636	161,606	-0,071	0,072
-203,621	-115,217	-0,142	-0,019
-202,606	-196,502	0,115	0,001
-201,592	-150,216	-0,084	0,005
-200,577	3,089	0,127	0,066
-199,563	-61,571	0,041	0,012
-198,548	-29,805	0,063	-0,026
-197,533	800,000	-0,011	0,023
-196,519	479,334	-0,025	0,041
-195,504	800,000	-0,012	0,031
-194,490	-101,778	0,076	0,013
-193,475	-113,333	0,069	-0,010
-192,460	229,678	0,088	0,103
-191,446	-190,119	-0,132	-0,001
-190,431	140,636	0,125	0,119
-189,417	134,669	-0,032	-0,030
-188,402	800,000	0,051	0,105
-187,387	188,176	-0,120	0,129
-186,373	-200,000	0,005	-0,118
-185,358	310,077	0,148	0,200
-184,344	-200,000	0,013	0,071
-183,329	486,952	0,057	0,093
-182,315	-94,993	0,024	-0,005
-181,300	-76,302	-0,068	0,017
-180,285	-0,468	0,083	0,042
-179,271	509,008	-0,056	0,094
-178,256	800,000	-0,038	-0,110
-177,242	410,688	0,043	0,066
-176,227	-200,000	0,036	0,160
-175,212	156,669	-0,047	0,046
-174,198	293,063	-0,008	-0,011
-173,183	-150,119	-0,099	-0,005
-172,169	36,647	-0,045	0,028
-171,154	-97,166	0,101	0,019
-170,139	-16,753	0,039	0,018
-169,125	-200,000	-0,046	0,152
-168,110	800,000	-0,033	-0,072
-167,096	173,080	-0,103	-0,107
-166,081	-102,242	-0,068	0,012
-165,066	-200,000	0,003	-0,104
-164,052	325,129	0,056	-0,077
-163,037	-151,962	-0,039	-0,002
-162,023	135,660	-0,028	0,026
-161,008	800,000	-0,024	0,072
-159,993	-20,496	0,112	-0,049
-158,979	-115,253	0,061	-0,008
-157,964	191,812	-0,035	-0,038
-156,950	-91,782	-0,042	-0,008
-155,935	-200,000	0,015	0,051
-154,920	85,064	-0,102	0,081
-153,906	21,788	0,060	0,035
-152,891	797,495	0,044	0,088
-151,877	122,998	-0,102	0,092
-150,862	64,126	-0,037	-0,027
-149,847	-200,000	0,014	-0,156
-148,833	226,936	-0,023	0,027
-147,818	81,696	-0,043	-0,033
-146,804	3,299	-0,071	0,037
-145,789	800,000	0,023	0,050
-144,775	-171,889	-0,167	0,004
-143,760	-200,000	0,007	-0,030
-142,745	231,313	0,104	0,123
-141,731	-200,000	-0,013	0,045
-140,716	-90,130	-0,092	0,019
-139,702	800,000	-0,055	0,129
-138,687	-83,851	0,092	-0,021
-137,672	-200,000	0,032	-0,108
-136,658	236,254	0,058	-0,069
-135,643	-114,041	-0,045	-0,006
-134,629	0,996	0,064	0,033
-133,614	458,978	-0,040	0,064
-132,599	800,000	-0,020	0,041
-131,585	706,864	0,056	0,107
-130,570	-200,000	0,011	-0,040
-129,556	196,978	-0,072	-0,079
-128,541	-49,054	0,049	-0,017
-127,526	800,000	-0,029	0,082
-126,512	800,000	-0,039	0,090
-125,497	223,085	0,075	0,087
-124,483	800,000	0,055	0,129
-123,468	76,117	-0,062	-0,047
-122,453	-149,317	-0,080	-0,004
-121,439	462,704	-0,071	-0,114
-120,424	660,815	0,075	-0,140
-119,410	96,158	-0,017	0,014
