DTS Sentinel unit serial number:	SN410029Multiplexer serial number:	ORYXHardware model number:	OX2-SRSoftware version number:	ORYX F/W v4,00 Oryx Data Collector v3.7.2.0data status	okinstallation	B6 Nyhavnadifferential loss correction	single-endedforward channel	channel 2reverse channel	N/Adate	2023/12/09time	13:40:08forward acquisition time	300,00reverse acquisition time	0,00gamma	499,1914k internal	0,3135k external	0,3135temperature offset calibration	1,0000default loss term (dB/km)	0,3820temperature slope calibration	1,0000multiplexer offset coefficient	1,0000multiplexer slope coefficient	1,0000fibre end	0,00T internal ref (°C)	20,29T ext. ref 1 (°C)	4,53T ext. ref 2 (°C)	4,53length (m)	temperature (°C)	Stokes	anti-Stokes-744,400	800,000	-0,027	-0,073
-743,385	151,742	-0,156	0,158
-742,371	-60,566	0,126	0,039
-741,356	136,097	-0,101	0,097
-740,342	319,123	-0,105	-0,149
-739,327	-50,574	-0,310	0,108
-738,312	344,872	0,069	-0,100
-737,298	59,394	-0,062	0,045
-736,283	-200,000	0,020	-0,086
-735,269	6,388	-0,223	0,123
-734,254	695,160	0,103	-0,202
-733,239	-63,995	-0,596	-0,180
-732,225	-34,361	0,134	0,054
-731,210	25,351	0,112	0,069
-730,196	800,000	0,089	-0,182
-729,181	339,132	-0,072	-0,105
-728,167	167,598	0,132	-0,140
-727,152	-200,000	-0,006	0,064
-726,137	109,576	-0,142	0,126
-725,123	-200,000	-0,007	-0,115
-724,108	430,375	0,031	0,050
-723,094	106,858	-0,126	-0,111
-722,079	-200,000	0,002	-0,098
-721,064	-200,000	0,026	-0,118
-720,050	85,722	-0,034	-0,028
-719,035	-137,140	0,033	0,003
-718,021	311,261	0,010	-0,014
-717,006	-51,271	-0,146	0,050
-715,991	-200,000	0,007	-0,093
-714,977	-98,441	-0,105	-0,020
-713,962	-14,283	-0,104	-0,049
-712,948	-128,841	0,031	-0,003
-711,933	144,283	-0,116	-0,115
-710,918	800,000	-0,023	-0,065
-709,904	-200,000	-0,010	-0,069
-708,889	-147,542	-0,032	-0,002
-707,875	-54,477	-0,072	0,024
-706,860	643,965	-0,019	-0,035
-705,845	47,480	0,067	-0,046
-704,831	100,765	-0,047	0,040
-703,816	-147,125	0,077	0,005
-702,802	-91,832	0,134	0,028
-701,787	271,493	-0,038	-0,050
-700,772	132,638	-0,049	-0,047
-699,758	195,398	-0,050	0,056
-698,743	-146,406	-0,098	0,006
-697,729	93,016	0,131	-0,110
-696,714	-200,000	0,012	0,140
-695,699	637,548	-0,041	0,077
-694,685	42,544	-0,045	0,030
-693,670	-153,483	0,099	-0,005
-692,656	197,200	-0,106	0,120
-691,641	698,322	-0,048	0,093
-690,627	-200,000	0,108	-0,000
-689,612	-46,144	0,035	0,013
-688,597	12,765	-0,085	-0,049
-687,583	117,638	0,020	0,019
-686,568	74,719	0,019	0,015
-685,554	-40,284	-0,017	0,007
-684,539	-200,000	0,012	0,120
-683,524	-1,094	0,127	0,066
-682,510	800,000	0,038	-0,106
-681,495	71,952	-0,067	-0,051
-680,481	182,899	-0,066	-0,073
-679,466	406,603	-0,046	-0,072
-678,451	-149,388	0,048	0,003
-677,437	-176,943	0,039	0,001
-676,422	-200,000	-0,001	0,135
-675,408	-200,000	-0,003	-0,073
-674,393	-200,000	-0,068	-0,257
-673,378	800,000	-0,024	-0,073
-672,364	-200,000	0,004	-0,015
-671,349	-200,000	0,010	-0,044
-670,335	129,801	0,051	0,048
-669,320	-53,323	0,157	-0,053
-668,305	190,491	0,113	0,126
-667,291	33,376	0,026	-0,017
-666,276	-200,000	-0,003	-0,023
-665,262	-65,528	-0,139	-0,041
-664,247	452,876	-0,045	-0,075
-663,232	800,000	0,031	-0,095
-662,218	441,039	-0,040	-0,065
-661,203	-200,000	-0,024	-0,128
-660,189	-200,000	0,042	0,140
-659,174	396,929	0,067	-0,105
-658,159	282,913	-0,082	-0,109
-657,145	246,445	0,059	-0,073
-656,130	136,791	0,098	-0,095
-655,116	-200,000	0,006	-0,100
-654,101	-200,000	-0,001	-0,102
-653,086	-172,123	0,085	-0,002
-652,072	-67,353	0,058	0,017
-651,057	229,054	-0,091	0,110
-650,043	-200,000	-0,024	-0,080
-649,028	800,000	0,059	-0,124
-648,014	191,197	0,050	0,056
-646,999	-81,166	0,054	-0,013
-645,984	647,157	0,056	0,107
-644,970	-75,163	-0,123	-0,032
-643,955	228,642	0,040	0,048
-642,941	-122,699	-0,034	-0,004
-641,926	-200,000	-0,021	-0,180
-640,911	337,535	0,120	0,173
-639,897	-200,000	0,004	0,014
-638,882	-81,562	0,033	0,008
-637,868	-200,000	0,027	-0,109
-636,853	-200,000	-0,007	0,062
-635,838	-47,954	0,023	-0,008
-634,824	204,057	-0,036	0,041
-633,809	-108,542	0,135	-0,021
-632,795	96,504	0,053	-0,045
-631,780	542,304	0,050	-0,088
-630,765	296,340	0,049	-0,066
-629,751	206,783	0,044	0,050
-628,736	-5,449	-0,062	0,031
-627,722	185,975	0,049	-0,054
-626,707	52,498	-0,036	-0,025
-625,692	94,315	0,141	0,119
-624,678	186,298	0,087	0,096
-623,663	-103,769	-0,192	-0,033
-622,649	38,537	-0,067	0,044
-621,634	89,945	-0,088	-0,073
-620,619	-200,000	-0,039	-0,160
-619,605	258,103	-0,037	0,048
-618,590	-200,000	-0,014	0,158
-617,576	339,163	-0,054	0,077
-616,561	64,589	0,056	-0,041
-615,546	22,162	0,026	0,016
-614,532	-69,415	0,025	-0,007
-613,517	-184,189	-0,121	-0,001
-612,503	-82,341	-0,051	0,012
-611,488	-200,000	-0,025	0,112
-610,474	-127,001	0,091	-0,010
-609,459	-200,000	0,008	-0,033
-608,444	430,397	0,032	-0,051
-607,430	-70,832	-0,124	-0,034
-606,415	-121,347	-0,069	-0,008
-605,401	-108,979	0,149	-0,023
-604,386	-126,111	0,065	0,007
-603,371	664,715	0,026	-0,051
-602,357	-200,000	0,048	0,164
-601,342	-191,835	-0,086	0,001
-600,328	800,000	0,035	-0,078
-599,313	157,514	-0,019	-0,020
-598,298	800,000	-0,027	0,058
-597,284	-200,000	0,018	0,112
-596,269	-115,332	-0,100	-0,014
-595,255	-95,075	0,086	0,017
-594,240	-47,195	-0,093	-0,033
-593,225	-18,007	-0,046	-0,021
-592,211	-200,000	0,007	-0,119
-591,196	800,000	0,037	-0,088
-590,182	800,000	0,059	0,183
-589,167	-93,529	0,134	-0,027
-588,152	165,733	0,099	-0,103
-587,138	-200,000	-0,007	-0,048
-586,123	-120,251	0,182	0,023
-585,109	6,766	-0,139	-0,076
-584,094	-200,000	-0,026	-0,107
-583,079	151,182	0,041	-0,042
-582,065	250,993	0,032	-0,041
-581,050	73,283	0,068	-0,052
-580,036	93,415	0,132	-0,110
-579,021	800,000	-0,028	-0,071
-578,006	180,326	-0,075	-0,081
-576,992	-34,716	0,090	-0,036
-575,977	-200,000	-0,012	0,060
-574,963	-200,000	-0,006	0,098
-573,948	515,599	-0,081	0,141
-572,934	-123,396	-0,105	-0,012
-571,919	800,000	0,029	-0,062
-570,904	-200,000	0,012	-0,084
-569,890	-114,603	0,023	-0,003
-568,875	-106,448	-0,147	0,024
-567,861	216,117	0,092	0,108
-566,846	-77,827	0,088	-0,022
-565,831	-200,000	-0,017	0,060
-564,817	-200,000	-0,004	0,158
-563,802	147,499	-0,092	-0,091
-562,788	-10,150	0,011	0,005
-561,773	-30,782	0,071	-0,029
-560,758	500,529	0,084	0,144
-559,744	141,662	-0,101	-0,098
-558,729	703,072	-0,050	-0,098
-557,715	-200,000	-0,024	-0,081
-556,700	-200,000	0,010	-0,044
-555,685	77,788	-0,050	-0,039
-554,671	13,014	0,059	-0,034
-553,656	103,364	-0,061	0,052
-552,642	800,000	0,039	-0,104
-551,627	130,854	0,144	0,137
-550,612	104,515	-0,059	0,051
-549,598	-200,000	-0,005	-0,074
-548,583	311,185	0,031	-0,043
-547,569	-119,089	-0,053	0,007
-546,554	-51,729	-0,044	-0,015
-545,539	-51,887	0,057	-0,019
-544,525	0,874	0,088	0,046
-543,510	-42,938	-0,068	0,025
-542,496	-112,319	0,061	-0,009
-541,481	-158,571	-0,104	-0,004
-540,466	-200,000	0,012	-0,045
-539,452	-94,585	0,071	-0,014
-538,437	-200,000	0,008	0,072
-537,423	420,690	-0,040	0,063
-536,408	309,668	0,054	-0,074
-535,393	-71,592	-0,130	-0,035
-534,379	-12,187	-0,107	-0,052
-533,364	-35,129	-0,052	-0,021
-532,350	41,223	0,097	-0,065
-531,335	87,828	0,053	0,043
-530,321	-200,000	-0,018	0,085
-529,306	254,818	0,040	0,051
-528,291	247,259	0,041	-0,051
-527,277	606,783	0,035	-0,065
-526,262	551,191	0,029	0,051
-525,248	800,000	0,045	0,106
-524,233	-200,000	-0,016	0,058
-523,218	-83,325	-0,054	0,013
-522,204	-15,622	0,100	-0,047
-521,189	-7,952	-0,021	-0,011
-520,175	800,000	0,031	0,078
-519,160	-200,000	-0,001	0,083
-518,145	-140,162	-0,106	-0,008
-517,131	5,260	0,197	-0,107
-516,116	-200,000	-0,002	-0,043
-515,102	-29,665	-0,058	0,024
-514,087	-200,000	0,038	-0,141
-513,072	-69,100	-0,124	-0,035
-512,058	800,000	0,043	0,119
-511,043	243,742	-0,029	0,036
-510,029	-200,000	0,024	-0,092
-509,014	-49,821	0,022	-0,008
-507,999	63,060	0,117	-0,086
-506,985	536,433	-0,066	-0,115
-505,970	-5,669	-0,141	-0,071
-504,956	-200,000	0,008	-0,094
-503,941	800,000	-0,003	-0,010
-502,926	777,645	0,029	0,058
-501,912	-15,368	-0,040	0,019
-500,897	-36,476	0,048	0,019
-499,883	57,078	-0,051	0,036
-498,868	-200,000	-0,031	-0,115
-497,853	-200,000	0,004	-0,027
-496,839	-73,961	0,115	0,030
-495,824	-117,150	0,176	-0,023
-494,810	-24,325	-0,221	0,097
-493,795	138,533	0,072	0,070
-492,781	-200,000	0,005	-0,075
-491,766	62,152	0,119	-0,087
-490,751	800,000	-0,040	0,120
-489,737	800,000	0,045	0,120
-488,722	-60,105	0,140	0,044
-487,708	0,455	0,021	-0,011
-486,693	-200,000	-0,006	0,145
-485,678	-200,000	-0,014	0,092
-484,664	-2,275	0,066	0,034
-483,649	-64,394	0,106	-0,032
-482,635	234,841	0,104	-0,126
-481,620	522,982	-0,015	0,026
-480,605	16,820	0,086	-0,050
-479,591	371,868	0,011	0,017
-478,576	-89,102	-0,033	0,007
-477,562	-200,000	0,014	-0,176
-476,547	800,000	-0,056	-0,162
-475,532	800,000	0,024	0,071
-474,518	336,558	-0,044	-0,063
-473,503	-96,085	-0,018	0,004
-472,489	204,218	0,083	0,094
-471,474	-200,000	-0,025	-0,085
-470,459	800,000	0,011	0,026
-469,445	213,084	0,048	0,056
-468,430	800,000	-0,039	-0,088
-467,416	-29,523	-0,058	0,024
-466,401	-57,832	-0,139	-0,045
-465,386	800,000	-0,028	0,078
-464,372	252,185	-0,097	0,122
-463,357	30,019	-0,140	0,087
-462,343	-200,000	-0,012	0,061
-461,328	470,324	0,043	-0,072
-460,313	-31,951	0,019	-0,008
-459,299	17,668	-0,055	-0,032
-458,284	-3,670	0,003	-0,002
-457,270	-87,500	-0,035	0,008
-456,255	-200,000	0,012	-0,050
-455,241	-72,952	0,123	-0,033
-454,226	-23,739	-0,078	-0,034
-453,211	-200,000	0,013	0,075
-452,197	-200,000	0,013	0,081
-451,182	-60,351	0,086	0,027
-450,168	-36,994	0,104	0,041
-449,153	800,000	-0,039	0,098
-448,138	257,636	0,069	-0,088
-447,124	-54,660	-0,033	-0,011
-446,109	201,528	0,009	-0,010
-445,095	800,000	-0,013	0,040
-444,080	-200,000	-0,011	-0,041
-443,065	-40,593	-0,110	0,042
-442,051	158,089	0,127	0,130
-441,036	-49,076	-0,202	-0,071
-440,022	-200,000	0,008	-0,140
-439,007	-200,000	-0,000	0,006
-437,992	-200,000	0,007	0,126
-436,978	56,322	-0,045	0,032
-435,963	-6,201	0,037	-0,018
-434,949	55,504	-0,154	0,109
-433,934	-46,824	-0,162	0,058
-432,919	-100,735	0,170	0,030
-431,905	800,000	-0,027	0,066
-430,890	-188,010	0,148	0,001
-429,876	6,907	0,036	-0,019
-428,861	28,646	0,090	0,056
-427,846	13,525	-0,059	-0,034
-426,832	-200,000	0,004	-0,075
-425,817	128,517	-0,045	-0,042
-424,803	-200,000	-0,014	0,100
-423,788	-200,000	0,001	-0,071
-422,773	-200,000	0,001	0,047
-421,759	-200,000	0,009	0,045
-420,744	-28,944	-0,083	-0,035
-419,730	472,142	-0,029	0,048
-418,715	186,738	-0,067	-0,073
-417,701	186,481	0,030	-0,033
-416,686	-7,196	-0,096	0,048
-415,671	-200,000	0,025	0,109
-414,657	-44,403	0,091	0,033
-413,642	800,000	0,015	0,041
-412,628	34,287	-0,028	0,018
-411,613	53,310	-0,048	0,034
-410,598	28,844	-0,064	-0,040
-409,584	-17,018	0,070	-0,032
-408,569	-200,000	0,012	0,077
-407,555	-200,000	0,020	0,100
-406,540	27,347	0,084	-0,052
-405,525	-200,000	-0,005	0,037
-404,511	193,852	-0,025	0,027
-403,496	102,674	-0,034	0,029
-402,482	-200,000	-0,007	0,028
-401,467	103,384	-0,014	-0,012
-400,452	-38,093	0,125	0,048
-399,438	800,000	-0,056	0,142
-398,423	50,950	-0,038	0,026
-397,409	768,158	0,038	-0,076
-396,394	-126,630	-0,199	0,021
-395,379	800,000	-0,037	-0,105
-394,365	221,022	-0,029	0,035
-393,350	800,000	0,023	0,065
-392,336	-70,276	0,142	-0,039
-391,321	-29,502	-0,040	-0,017
-390,306	128,285	-0,069	-0,064
-389,292	2,205	0,130	-0,069
-388,277	-127,769	0,093	0,010
-387,263	-200,000	0,012	0,111
-386,248	15,431	-0,022	0,013
-385,233	288,765	-0,011	0,015
-384,219	-104,772	-0,049	-0,008
-383,204	-200,000	-0,017	-0,132
-382,190	-87,819	-0,099	0,022
-381,175	-200,000	0,012	-0,068
-380,160	244,545	-0,080	-0,098
-379,146	-168,425	0,140	0,004
-378,131	800,000	-0,042	0,088
-377,117	84,537	-0,056	0,045
-376,102	-22,904	-0,099	-0,043
-375,088	-200,000	0,032	0,169
-374,073	-200,000	0,008	-0,077
-373,058	-200,000	0,017	0,059
-372,044	-200,000	-0,008	0,043
-371,029	-200,000	0,001	-0,056
-370,015	294,772	0,027	0,037
-369,000	95,441	0,062	-0,051
-367,985	350,000	0,054	0,078
-366,971	41,548	0,123	0,081
-365,956	322,447	-0,042	-0,058
-364,942	113,947	0,036	0,032
-363,927	9,603	-0,067	-0,037
-362,912	42,634	0,064	-0,042
-361,898	124,177	0,074	-0,068
-360,883	396,476	-0,012	-0,019
-359,869	131,341	-0,018	0,017
-358,854	-145,310	0,029	0,002
-357,839	800,000	0,024	0,078
-356,825	43,301	-0,097	0,065
-355,810	-93,752	0,082	0,016
-354,796	800,000	-0,041	-0,084
-353,781	43,693	-0,119	-0,080
-352,766	-41,718	-0,031	-0,011
-351,752	-16,890	-0,005	-0,002
-350,737	800,000	0,049	0,116
-349,723	216,118	0,055	-0,064
-348,708	248,014	-0,113	-0,140
-347,693	28,273	0,080	0,049
-346,679	299,101	0,048	0,064
-345,664	-200,000	-0,008	0,104
-344,650	800,000	0,024	-0,061
-343,635	136,745	0,096	-0,092
-342,620	418,769	-0,044	0,069
-341,606	-95,808	-0,041	0,008
-340,591	-200,000	0,028	0,104
-339,577	48,480	-0,055	-0,037
-338,562	0,852	-0,135	0,070
-337,548	-145,628	-0,041	-0,003
-336,533	-200,000	-0,054	0,177
-335,518	-41,232	0,084	-0,031
-334,504	-84,979	0,010	0,002
-333,489	-200,000	0,003	0,084
-332,475	321,884	0,048	-0,067
-331,460	42,098	-0,139	-0,092
-330,445	86,944	0,063	-0,051
-329,431	-166,984	0,153	-0,004
-328,416	-125,349	-0,043	-0,005
-327,402	-74,938	0,056	0,015
-326,387	-200,000	-0,013	-0,111
-325,372	800,000	-0,040	-0,109
-324,358	800,000	-0,029	-0,074
-323,343	-45,812	-0,073	-0,026
-322,329	452,008	-0,031	-0,050
-321,314	-200,000	-0,003	-0,026
-320,299	800,000	-0,053	-0,151
-319,285	428,306	0,092	-0,146
-318,270	-200,000	0,020	0,086
-317,256	800,000	0,039	0,122
-316,241	375,337	-0,005	-0,007
-315,226	-164,255	0,143	0,005
-314,212	800,000	-0,028	0,079
-313,197	10,788	-0,041	0,023
-312,183	83,953	-0,110	-0,087
-311,168	-200,000	-0,004	-0,014
-310,153	148,596	0,122	-0,121
-309,139	98,550	-0,101	0,085
-308,124	-102,678	-0,029	0,005
-307,110	-200,000	0,015	-0,078
-306,095	-80,686	0,017	-0,004
-305,080	104,593	0,052	0,045
-304,066	-47,606	0,177	0,062
-303,051	-108,499	-0,089	0,014
-302,037	660,519	-0,055	-0,104
-301,022	-200,000	-0,032	0,140
-300,008	87,913	0,114	-0,092
-298,993	-55,612	-0,059	-0,019
-297,978	-93,102	-0,142	-0,029
-296,964	-200,000	0,028	-0,123
-295,949	61,203	-0,115	-0,084
-294,935	-68,670	-0,165	-0,046
-293,920	-200,000	0,002	0,063
-292,905	-200,000	0,014	-0,047
-291,891	800,000	0,019	0,059
-290,876	800,000	-0,038	0,111
-289,862	-8,619	0,103	0,050
-288,847	-166,408	-0,149	-0,004
-287,832	800,000	0,018	-0,052
-286,818	-34,761	-0,071	0,028
-285,803	800,000	-0,029	-0,076
-284,789	-184,495	0,069	-0,001
-283,774	800,000	-0,067	0,142
-282,759	-200,000	-0,006	0,106
-281,745	-60,048	-0,165	0,051
-280,730	471,306	-0,107	-0,176
-279,716	800,000	0,005	0,014
-278,701	-140,176	-0,054	0,004
-277,686	-200,000	0,003	-0,048
-276,672	80,289	0,152	-0,119
-275,657	800,000	-0,051	0,128
-274,643	-184,490	0,043	0,000
-273,628	25,415	-0,094	-0,057
-272,613	83,053	-0,173	0,137
-271,599	138,380	-0,049	-0,046
-270,584	605,880	0,043	0,078
-269,570	-44,630	0,033	-0,012
-268,555	-200,000	0,002	-0,068
-267,540	-168,715	0,033	-0,001
-266,526	406,973	-0,059	-0,091
-265,511	-147,082	-0,038	0,002
-264,497	-49,623	-0,084	-0,029
-263,482	722,849	-0,030	-0,059
-262,467	94,265	0,119	0,098
-261,453	37,340	0,088	-0,057
-260,438	-94,331	-0,083	0,016
-259,424	800,000	0,022	-0,066
-258,409	199,863	0,104	-0,117
-257,395	47,716	0,147	-0,100
-256,380	-200,000	0,049	0,162
-255,365	-200,000	-0,007	0,085
-254,351	13,308	-0,063	0,036
-253,336	-200,000	0,025	-0,091
-252,322	-200,000	-0,042	-0,216
-251,307	-24,723	-0,037	0,016
-250,292	86,779	0,027	0,022
-249,278	451,335	0,054	-0,087
-248,263	8,104	0,197	0,107
-247,249	800,000	0,033	0,070
-246,234	-107,056	-0,087	0,014
-245,219	-57,484	-0,098	-0,031
-244,205	93,496	-0,134	-0,111
-243,190	800,000	0,038	0,084
-242,176	-55,999	0,057	0,018
-241,161	-86,177	-0,132	-0,029
-240,146	82,088	-0,058	0,045
-239,132	572,209	-0,048	0,086
-238,117	-33,990	-0,121	-0,048
-237,103	-111,422	0,132	0,019
-236,088	-69,439	-0,088	0,024
-235,073	-97,667	0,026	0,005
-234,059	-200,000	0,030	0,118
-233,044	-20,283	0,025	0,011
-232,030	-200,000	0,000	0,013
-231,015	-105,252	0,018	0,003
-230,000	-200,000	-0,013	-0,221
-228,986	-200,000	0,017	-0,066
-227,971	8,229	0,073	-0,040
-226,957	-25,611	0,119	-0,051
-225,942	-200,000	-0,018	0,130
-224,927	29,175	0,054	0,033
-223,913	54,159	-0,057	-0,040
-222,898	-200,000	-0,013	-0,047
-221,884	157,409	0,054	-0,054
-220,869	156,378	0,124	0,124
-219,855	-0,690	0,075	0,038
-218,840	-200,000	0,002	0,091
-217,825	-0,813	-0,031	0,016
-216,811	-200,000	0,001	-0,019
-215,796	94,921	-0,046	0,038
-214,782	800,000	0,032	0,084
-213,767	-68,317	-0,048	0,014
-212,752	-86,093	0,074	-0,016
-211,738	155,373	-0,080	0,080
-210,723	-66,185	-0,118	0,034
-209,709	-29,475	0,163	-0,067
-208,694	-126,251	-0,054	0,006
-207,679	-200,000	0,015	-0,077
-206,665	800,000	-0,082	0,176
-205,650	19,908	-0,084	0,049
-204,636	-200,000	0,034	0,136
-203,621	341,219	-0,024	-0,035
-202,606	39,980	-0,081	-0,053
-201,592	58,412	0,089	-0,064
-200,577	572,128	-0,033	-0,058
-199,563	562,252	0,039	0,070
-198,548	562,109	-0,044	0,078
-197,533	660,887	-0,002	-0,004
-196,519	-94,182	0,149	0,029
-195,504	-64,096	-0,075	-0,022
-194,490	85,444	-0,144	-0,115
-193,475	800,000	0,060	-0,179
-192,460	116,012	0,064	0,057
-191,446	280,598	0,024	0,032
-190,431	-200,000	-0,028	-0,122
-189,417	39,890	0,113	0,073
-188,402	69,691	-0,078	-0,058
-187,387	800,000	-0,011	0,023
-186,373	47,137	-0,093	-0,063
-185,358	-75,837	0,069	-0,018
-184,344	-46,177	0,046	0,016
-183,329	-200,000	-0,017	0,156
-182,315	109,993	-0,026	-0,022
-181,300	527,005	0,023	-0,039
-180,285	800,000	-0,040	-0,096
-179,271	417,608	-0,041	0,064
-178,256	800,000	0,047	-0,109
-177,242	653,470	0,048	-0,089
-176,227	35,813	-0,029	0,018
-175,212	-200,000	0,042	0,153
-174,198	34,684	0,063	-0,040
-173,183	-40,039	-0,091	-0,034
-172,169	114,461	0,052	-0,046
-171,154	-20,379	0,061	-0,027
-170,139	-200,000	0,003	0,068
-169,125	38,067	0,073	0,047
-168,110	-200,000	-0,017	0,147
-167,096	-200,000	0,031	0,135
-166,081	-200,000	-0,014	0,080
-165,066	59,741	-0,069	0,050
-164,052	469,070	0,052	-0,086
-163,037	-200,000	0,016	-0,100
-162,023	104,613	0,100	-0,085
-161,008	-200,000	0,023	0,204
-159,993	-74,539	-0,104	0,027
-158,979	-123,045	-0,113	-0,013
-157,964	40,350	-0,172	-0,112
-156,950	-64,600	-0,066	-0,019
-155,935	-200,000	-0,017	-0,059
-154,920	-125,218	0,041	-0,004
-153,906	-200,000	-0,047	0,153
-152,891	-200,000	-0,017	-0,065
-151,877	574,214	-0,052	-0,093
-150,862	-132,927	-0,208	0,019
-149,847	-81,242	0,093	0,022
-148,833	800,000	0,030	-0,062
-147,818	195,071	0,072	0,079
-146,804	-181,403	0,143	-0,002
-145,789	-200,000	0,010	-0,044
-144,775	-200,000	-0,026	-0,094
-143,760	-200,000	-0,001	-0,051
-142,745	800,000	-0,026	-0,064
-141,731	800,000	0,053	-0,108
-140,716	-61,282	-0,044	-0,013
-139,702	-200,000	0,031	0,108
-138,687	-16,113	-0,096	-0,044
-137,672	-75,043	0,015	0,004
-136,658	-23,623	-0,038	-0,016
-135,643	800,000	-0,031	-0,088
-134,629	800,000	0,047	0,095
-133,614	40,415	0,070	-0,045
-132,599	800,000	-0,028	0,088
-131,585	800,000	-0,013	0,039
-130,570	-200,000	-0,012	-0,056
-129,556	86,674	0,085	0,068
-128,541	-63,562	-0,107	-0,032
-127,526	518,744	0,033	0,056
-126,512	506,380	0,061	-0,103
-125,497	513,292	0,041	-0,070
-124,483	557,572	0,019	-0,034
-123,468	-200,000	-0,028	-0,133
-122,453	189,812	0,049	-0,053
-121,439	-200,000	0,010	-0,121
-120,424	800,000	0,028	-0,072
-119,410	-136,853	0,026	0,002
