DTS Sentinel unit serial number:	SN410029Multiplexer serial number:	ORYXHardware model number:	OX2-SRSoftware version number:	ORYX F/W v4,00 Oryx Data Collector v3.7.2.0data status	okinstallation	B6 Nyhavnadifferential loss correction	single-endedforward channel	channel 2reverse channel	N/Adate	2023/12/10time	23:05:08forward acquisition time	300,00reverse acquisition time	0,00gamma	499,1914k internal	0,3122k external	0,3122temperature offset calibration	1,0000default loss term (dB/km)	0,3820temperature slope calibration	1,0000multiplexer offset coefficient	1,0000multiplexer slope coefficient	1,0000fibre end	0,00T internal ref (°C)	22,40T ext. ref 1 (°C)	6,13T ext. ref 2 (°C)	6,14length (m)	temperature (°C)	Stokes	anti-Stokes-744,400	-200,000	-0,005	-0,051
-743,385	-173,315	-0,130	-0,003
-742,371	29,175	0,068	0,043
-741,356	800,000	-0,080	0,201
-740,342	-100,468	0,164	0,030
-739,327	5,128	-0,247	0,135
-738,312	-200,000	0,008	0,076
-737,298	-136,475	-0,151	-0,013
-736,283	69,132	-0,092	-0,071
-735,269	-77,736	-0,207	0,053
-734,254	-123,963	-0,050	-0,006
-733,239	-140,336	-0,330	-0,025
-732,225	-200,000	-0,002	0,024
-731,210	-164,601	0,102	0,003
-730,196	265,926	-0,026	0,034
-729,181	-200,000	-0,007	-0,027
-728,167	-103,607	-0,120	-0,021
-727,152	800,000	0,014	-0,033
-726,137	778,728	-0,038	-0,078
-725,123	3,047	-0,220	-0,119
-724,108	-200,000	-0,026	0,087
-723,094	100,431	-0,109	-0,094
-722,079	14,372	-0,022	-0,013
-721,064	-200,000	0,000	0,057
-720,050	31,760	0,118	-0,075
-719,035	213,075	-0,084	0,099
-718,021	189,316	-0,022	0,025
-717,006	-78,490	-0,119	-0,030
-715,991	-200,000	-0,020	-0,192
-714,977	-46,121	0,044	-0,016
-713,962	6,627	-0,090	0,050
-712,948	142,977	0,018	-0,018
-711,933	-155,981	-0,156	0,007
-710,918	-200,000	-0,014	0,093
-709,904	51,095	0,035	-0,025
-708,889	153,336	0,066	0,068
-707,875	535,365	-0,079	-0,140
-706,860	-200,000	0,018	-0,080
-705,845	-200,000	0,008	0,037
-704,831	-76,971	-0,056	-0,014
-703,816	-140,476	0,154	-0,012
-702,802	-19,352	-0,128	-0,059
-701,787	-200,000	0,009	-0,095
-700,772	-21,913	-0,066	0,030
-699,758	-170,183	-0,139	0,004
-698,743	-109,412	0,054	-0,008
-697,729	-103,378	0,084	0,015
-696,714	-47,621	0,033	-0,012
-695,699	800,000	-0,013	-0,029
-694,685	-200,000	-0,017	-0,078
-693,670	-140,201	-0,100	-0,008
-692,656	287,518	0,031	0,042
-691,641	209,602	-0,049	0,057
-690,627	-153,349	-0,120	0,006
-689,612	-200,000	0,047	0,158
-688,597	800,000	0,012	-0,035
-687,583	-2,685	0,046	-0,024
-686,568	800,000	-0,069	-0,147
-685,554	-200,000	-0,026	0,085
-684,539	392,776	0,052	0,081
-683,524	-200,000	-0,031	0,166
-682,510	-121,517	-0,106	-0,013
-681,495	487,771	-0,045	0,077
-680,481	-151,061	-0,189	0,010
-679,466	-40,361	-0,152	-0,058
-678,451	41,028	-0,053	0,035
-677,437	79,252	0,114	0,091
-676,422	443,368	-0,045	0,073
-675,408	-14,575	0,057	-0,027
-674,393	-59,095	-0,099	-0,031
-673,378	-7,551	-0,073	-0,036
-672,364	-200,000	0,029	-0,112
-671,349	39,393	-0,065	-0,043
-670,335	-103,475	0,144	0,025
-669,320	-200,000	0,020	-0,071
-668,305	421,432	-0,061	-0,098
-667,291	5,092	-0,081	0,044
-666,276	488,912	-0,050	-0,085
-665,262	67,345	-0,100	-0,076
-664,247	-200,000	-0,009	-0,095
-663,232	-200,000	-0,033	-0,120
-662,218	-200,000	-0,003	-0,025
-661,203	112,761	0,049	0,044
-660,189	-200,000	-0,005	0,094
-659,174	-43,279	-0,098	0,037
-658,159	-74,066	0,041	-0,011
-657,145	555,744	-0,065	-0,117
-656,130	64,417	0,072	-0,054
-655,116	-54,046	0,134	0,045
-654,101	-99,890	0,119	0,022
-653,086	-64,286	-0,059	0,018
-652,072	67,125	0,046	-0,035
-651,057	800,000	-0,064	-0,174
-650,043	174,170	-0,056	0,060
-649,028	35,075	-0,104	0,068
-648,014	800,000	-0,047	-0,113
-646,999	-2,564	-0,159	0,082
-645,984	-89,821	-0,030	-0,006
-644,970	59,345	0,084	-0,061
-643,955	-200,000	-0,018	-0,124
-642,941	800,000	0,031	0,082
-641,926	28,504	0,033	0,020
-640,911	-200,000	-0,011	0,074
-639,897	-200,000	0,034	0,192
-638,882	-200,000	-0,005	0,083
-637,868	800,000	-0,044	0,100
-636,853	106,326	-0,092	0,081
-635,838	217,046	-0,009	-0,011
-634,824	-200,000	0,003	-0,154
-633,809	276,966	-0,053	-0,070
-632,795	67,460	-0,066	-0,050
-631,780	800,000	-0,052	0,127
-630,765	-89,076	-0,031	0,007
-629,751	-98,136	0,042	0,008
-628,736	298,758	-0,027	0,036
-627,722	180,662	0,045	-0,049
-626,707	-134,446	-0,118	0,011
-625,692	705,575	-0,030	-0,059
-624,678	279,754	-0,056	0,074
-623,663	429,782	-0,055	0,088
-622,649	-200,000	-0,005	-0,069
-621,634	-200,000	-0,014	-0,134
-620,619	800,000	-0,045	-0,116
-619,605	171,579	0,046	0,049
-618,590	-30,616	-0,033	0,014
-617,576	-110,277	0,013	0,002
-616,561	141,751	-0,079	0,078
-615,546	-200,000	-0,014	0,066
-614,532	-57,698	-0,144	0,047
-613,517	137,423	0,043	-0,042
-612,503	-99,088	-0,057	-0,011
-611,488	-189,173	-0,030	0,000
-610,474	21,035	0,025	-0,015
-609,459	593,736	0,032	-0,058
-608,444	-90,741	-0,016	0,003
-607,430	-32,900	-0,116	-0,047
-606,415	-200,000	0,016	-0,143
-605,401	800,000	-0,023	0,055
-604,386	-168,713	0,138	0,004
-603,371	-100,177	-0,049	0,009
-602,357	51,681	-0,084	0,059
-601,342	800,000	-0,041	0,109
-600,328	266,102	-0,009	-0,012
-599,313	11,694	-0,088	0,050
-598,298	-24,298	-0,022	-0,010
-597,284	-56,408	-0,074	0,024
-596,269	800,000	-0,003	-0,007
-595,255	800,000	-0,065	0,141
-594,240	22,212	-0,062	-0,037
-593,225	-44,205	-0,054	0,020
-592,211	597,479	0,080	-0,147
-591,196	-200,000	0,011	0,078
-590,182	639,544	-0,040	0,076
-589,167	-72,543	-0,024	0,007
-588,152	-42,242	0,026	0,010
-587,138	-200,000	-0,001	-0,060
-586,123	800,000	-0,054	-0,121
-585,109	92,580	0,039	-0,033
-584,094	-200,000	-0,004	0,051
-583,079	-200,000	-0,000	-0,078
-582,065	101,512	0,040	-0,035
-581,050	800,000	0,039	0,107
-580,036	-31,040	-0,086	-0,036
-579,021	614,190	-0,073	-0,136
-578,006	-40,833	-0,167	0,064
-576,992	-200,000	-0,019	-0,122
-575,977	9,285	0,050	-0,028
-574,963	-200,000	-0,047	0,215
-573,948	-200,000	0,018	0,137
-572,934	14,977	0,024	-0,014
-571,919	291,801	0,078	-0,106
-570,904	-200,000	-0,009	-0,107
-569,890	104,292	-0,029	-0,025
-568,875	29,232	0,091	-0,057
-567,861	183,098	0,055	-0,060
-566,846	269,685	0,044	-0,058
-565,831	-159,379	-0,087	-0,004
-564,817	-200,000	-0,012	-0,053
-563,802	800,000	-0,020	-0,052
-562,788	242,237	-0,032	-0,039
-561,773	111,974	-0,080	-0,071
-560,758	800,000	0,041	-0,102
-559,744	-200,000	-0,005	0,030
-558,729	-84,733	-0,124	0,029
-557,715	47,240	-0,057	0,039
-556,700	-83,749	-0,037	0,009
-555,685	-200,000	-0,010	-0,062
-554,671	800,000	-0,005	0,016
-553,656	-200,000	0,008	0,120
-552,642	-200,000	0,001	0,059
-551,627	143,620	-0,104	0,102
-550,612	800,000	-0,014	-0,041
-549,598	188,348	-0,114	-0,126
-548,583	800,000	-0,046	-0,125
-547,569	-104,123	0,089	0,015
-546,554	298,282	-0,046	0,063
-545,539	210,382	0,057	0,066
-544,525	-60,988	0,075	-0,023
-543,510	127,760	-0,089	0,084
-542,496	215,494	0,081	-0,095
-541,481	800,000	0,015	0,034
-540,466	-170,744	0,123	0,003
-539,452	-51,808	-0,032	0,011
-538,437	-200,000	0,000	0,039
-537,423	-109,668	0,042	-0,006
-536,408	800,000	0,027	-0,070
-535,393	-200,000	0,010	0,122
-534,379	-39,489	0,008	0,003
-533,364	-50,032	0,063	0,022
-532,350	430,683	0,026	-0,042
-531,335	-138,713	0,122	-0,010
-530,321	800,000	-0,020	0,048
-529,306	-200,000	0,013	-0,083
-528,291	-200,000	-0,006	0,104
-527,277	-105,590	0,081	-0,013
-526,262	-40,490	-0,126	-0,048
-525,248	677,971	-0,029	0,056
-524,233	-200,000	0,006	0,054
-523,218	700,432	0,025	0,049
-522,204	-108,140	-0,057	-0,009
-521,189	-200,000	-0,000	0,136
-520,175	556,960	0,095	-0,171
-519,160	-70,271	0,120	-0,034
-518,145	190,194	-0,012	0,014
-517,131	645,774	0,047	-0,089
-516,116	-72,877	0,063	-0,017
-515,102	-50,752	-0,211	0,073
-514,087	800,000	0,041	-0,119
-513,072	-200,000	-0,025	-0,139
-512,058	800,000	0,053	-0,135
-511,043	-200,000	0,001	0,052
-510,029	-200,000	0,002	-0,060
-509,014	151,668	-0,040	-0,041
-507,999	-200,000	-0,022	-0,089
-506,985	-200,000	-0,014	-0,101
-505,970	-200,000	0,013	-0,046
-504,956	129,880	-0,059	0,056
-503,941	-200,000	0,026	-0,169
-502,926	22,597	0,066	-0,040
-501,912	215,689	0,065	-0,077
-500,897	-200,000	0,008	-0,033
-499,883	800,000	0,019	0,045
-498,868	17,108	0,047	-0,027
-497,853	-101,512	0,076	-0,014
-496,839	800,000	0,033	-0,082
-495,824	141,283	0,057	0,056
-494,810	219,250	0,144	0,170
-493,795	-17,613	-0,084	0,039
-492,781	72,524	0,017	-0,013
-491,766	-53,458	0,090	-0,030
-490,751	422,434	-0,081	-0,128
-489,737	107,110	0,070	0,061
-488,722	-200,000	-0,004	0,023
-487,708	234,113	0,068	0,083
-486,693	18,461	-0,136	0,080
-485,678	315,708	-0,050	0,070
-484,664	800,000	-0,040	-0,110
-483,649	-200,000	0,021	-0,111
-482,635	800,000	0,019	-0,060
-481,620	206,780	-0,053	-0,061
-480,605	664,794	0,026	0,049
-479,591	29,654	-0,163	-0,102
-478,576	-200,000	0,010	0,064
-477,562	-156,035	-0,135	0,006
-476,547	299,323	0,081	-0,110
-475,532	68,248	-0,044	0,033
-474,518	-200,000	-0,003	-0,038
-473,503	-43,646	-0,116	0,043
-472,489	-35,956	0,112	0,044
-471,474	717,028	0,010	0,019
-470,459	800,000	0,048	0,107
-469,445	-93,673	-0,198	-0,040
-468,430	800,000	0,027	-0,081
-467,416	800,000	0,029	-0,059
-466,401	800,000	-0,017	0,049
-465,386	-200,000	0,039	0,207
-464,372	-24,300	-0,112	-0,049
-463,357	334,691	-0,083	0,119
-462,343	-200,000	-0,011	-0,046
-461,328	-110,009	0,054	0,008
-460,313	53,142	-0,103	0,073
-459,299	13,327	0,055	0,031
-458,284	12,604	0,054	-0,030
-457,270	166,430	-0,105	0,110
-456,255	-200,000	-0,002	0,044
-455,241	-4,464	-0,038	-0,019
-454,226	-2,278	-0,066	0,034
-453,211	69,467	-0,082	0,062
-452,197	228,527	-0,034	0,041
-451,182	-187,579	0,117	0,001
-450,168	-140,873	0,159	-0,012
-449,153	-200,000	0,003	0,063
-448,138	-68,607	-0,076	-0,022
-447,124	-61,657	-0,086	0,026
-446,109	800,000	0,008	-0,019
-445,095	-34,762	0,021	-0,008
-444,080	-125,153	0,050	0,006
-443,065	223,581	0,070	0,084
-442,051	42,312	-0,055	0,037
-441,036	-200,000	0,022	-0,078
-440,022	-166,685	-0,040	0,001
-439,007	-7,663	-0,073	0,036
-437,992	579,603	0,079	0,143
-436,978	-200,000	-0,035	0,139
-435,963	400,752	-0,018	0,027
-434,949	-200,000	-0,000	0,076
-433,934	709,773	-0,047	-0,091
-432,919	7,084	-0,142	-0,078
-431,905	10,590	-0,035	0,020
-430,890	-200,000	-0,009	0,100
-429,876	-118,437	-0,114	0,015
-428,861	432,334	0,057	-0,091
-427,846	438,609	-0,053	-0,086
-426,832	137,942	-0,094	-0,091
-425,817	408,542	-0,032	-0,050
-424,803	800,000	0,054	0,113
-423,788	-110,229	0,151	0,023
-422,773	800,000	0,028	0,060
-421,759	-100,244	0,188	0,034
-420,744	800,000	-0,005	0,013
-419,730	-55,371	-0,084	-0,028
-418,715	57,252	-0,090	0,064
-417,701	103,793	-0,030	-0,026
-416,686	-103,178	0,106	-0,018
-415,671	-200,000	0,009	-0,037
-414,657	731,712	0,058	0,114
-413,642	-200,000	0,020	0,117
-412,628	170,853	0,091	0,096
-411,613	290,244	-0,084	-0,112
-410,598	654,154	0,016	-0,031
-409,584	519,820	0,044	0,076
-408,569	69,003	0,040	0,030
-407,555	173,441	-0,021	0,022
-406,540	-81,747	0,098	-0,023
-405,525	193,381	0,047	0,052
-404,511	-200,000	-0,002	0,130
-403,496	-200,000	-0,085	0,000
-402,482	800,000	0,019	0,056
-401,467	66,137	-0,127	0,095
-400,452	-57,455	0,088	0,028
-399,438	-138,555	0,147	0,012
-398,423	-78,054	-0,070	0,018
-397,409	-60,956	0,051	0,016
-396,394	-200,000	-0,004	-0,061
-395,379	446,844	-0,044	0,071
-394,365	669,494	-0,088	0,168
-393,350	94,134	0,117	0,098
-392,336	21,720	0,047	0,028
-391,321	-200,000	0,009	0,077
-390,306	201,818	-0,076	0,086
-389,292	-169,464	-0,114	-0,003
-388,277	800,000	0,019	-0,056
-387,263	50,800	-0,028	-0,020
-386,248	-119,468	-0,101	-0,013
-385,233	43,644	-0,103	0,069
-384,219	-168,208	-0,076	-0,002
-383,204	-200,000	0,017	-0,164
-382,190	25,049	0,070	-0,042
-381,175	800,000	-0,039	-0,091
-380,160	-200,000	-0,016	0,117
-379,146	740,226	-0,016	-0,031
-378,131	800,000	0,042	0,112
-377,117	800,000	-0,040	-0,085
-376,102	-136,887	-0,097	-0,008
-375,088	447,486	0,036	0,059
-374,073	-106,278	0,069	-0,011
-373,058	-10,229	0,104	-0,050
-372,044	-15,323	0,084	-0,039
-371,029	81,160	0,051	-0,040
-370,015	-200,000	-0,022	0,094
-369,000	800,000	0,057	-0,157
-367,985	404,161	0,064	-0,099
-366,971	391,802	-0,025	0,039
-365,956	-58,470	-0,022	0,007
-364,942	452,865	-0,089	0,146
-363,927	40,351	0,135	0,089
-362,912	-168,635	-0,111	0,003
-361,898	-200,000	-0,001	-0,069
-360,883	662,129	-0,032	-0,062
-359,869	-200,000	0,026	-0,106
-358,854	217,640	0,026	-0,031
-357,839	800,000	-0,051	0,130
-356,825	-87,233	0,082	0,018
-355,810	363,587	-0,009	-0,013
-354,796	-200,000	0,016	-0,186
-353,781	308,502	-0,050	-0,069
-352,766	-200,000	-0,001	-0,187
-351,752	800,000	-0,009	0,021
-350,737	55,212	0,036	0,025
-349,723	294,834	0,055	0,074
-348,708	-60,429	-0,044	-0,014
-347,693	17,436	-0,137	-0,080
-346,679	209,679	0,066	-0,076
-345,664	-200,000	0,029	-0,105
-344,650	266,153	0,092	-0,118
-343,635	-77,101	0,090	-0,023
-342,620	139,111	0,100	0,096
-341,606	-68,272	0,066	0,019
-340,591	267,525	0,075	0,096
-339,577	-200,000	-0,000	0,008
-338,562	-200,000	0,014	-0,137
-337,548	-41,231	0,130	-0,049
-336,533	800,000	0,028	0,076
-335,518	-200,000	-0,024	0,097
-334,504	-5,224	0,105	0,053
-333,489	-200,000	0,008	-0,061
-332,475	14,096	0,036	-0,021
-331,460	103,034	0,039	0,034
-330,445	-125,299	-0,084	-0,009
-329,431	290,687	0,087	0,117
-328,416	-200,000	-0,021	0,113
-327,402	-99,785	-0,124	-0,023
-326,387	-49,264	-0,056	-0,020
-325,372	-102,511	-0,097	-0,017
-324,358	325,166	0,031	0,044
-323,343	144,180	0,060	-0,058
-322,329	-127,052	0,033	-0,004
-321,314	105,757	0,080	-0,069
-320,299	430,321	-0,076	0,121
-319,285	800,000	0,035	-0,107
-318,270	116,452	-0,092	0,083
-317,256	-200,000	-0,006	-0,190
-316,241	-5,398	-0,020	-0,010
-315,226	-68,303	0,062	0,018
-314,212	508,341	0,119	0,203
-313,197	-200,000	0,013	-0,067
-312,183	328,400	-0,048	0,068
-311,168	-106,663	0,099	0,016
-310,153	747,977	0,049	-0,097
-309,139	-65,826	0,055	-0,016
-308,124	-200,000	-0,000	0,108
-307,110	-200,000	-0,011	0,136
-306,095	-51,551	-0,045	-0,015
-305,080	-82,113	0,061	0,014
-304,066	800,000	-0,055	-0,135
-303,051	-200,000	-0,005	0,034
-302,037	-200,000	0,009	-0,057
-301,022	-200,000	-0,002	0,066
-300,008	-107,518	0,035	0,006
-298,993	89,456	0,023	-0,019
-297,978	-88,697	0,076	-0,017
-296,964	-200,000	-0,039	-0,132
-295,949	-144,075	-0,041	-0,003
-294,935	49,426	0,111	0,076
-293,920	163,329	0,057	0,059
-292,905	-200,000	0,024	0,129
-291,891	-37,724	-0,060	0,023
-290,876	-200,000	-0,027	-0,093
-289,862	-100,008	0,158	-0,029
-288,847	800,000	0,053	-0,171
-287,832	800,000	-0,025	0,067
-286,818	-43,754	0,083	-0,031
-285,803	124,763	0,027	0,025
-284,789	800,000	0,076	-0,184
-283,774	242,052	0,109	0,134
-282,759	176,749	0,047	-0,050
-281,745	-200,000	-0,012	-0,055
-280,730	800,000	-0,014	0,045
-279,716	-200,000	-0,006	-0,085
-278,701	800,000	-0,072	0,184
-277,686	800,000	-0,046	0,112
-276,672	-200,000	0,039	0,135
-275,657	800,000	-0,052	-0,129
-274,643	-200,000	-0,014	0,051
-273,628	-26,074	0,123	0,053
-272,613	-200,000	-0,001	-0,094
-271,599	800,000	-0,023	0,052
-270,584	202,525	0,017	0,020
-269,570	-146,822	0,155	0,010
-268,555	-112,378	0,134	0,019
-267,540	800,000	-0,014	-0,044
-266,526	-61,781	-0,078	-0,024
-265,511	150,870	0,094	-0,094
-264,497	-200,000	-0,011	-0,085
-263,482	800,000	-0,061	-0,168
-262,467	19,186	0,122	-0,071
-261,453	193,158	0,076	-0,085
-260,438	294,461	-0,081	-0,109
-259,424	180,045	-0,076	0,082
-258,409	261,731	0,046	0,058
-257,395	13,067	0,060	0,034
-256,380	-97,694	0,119	0,022
-255,365	534,460	0,102	-0,177
-254,351	-116,880	0,166	0,022
-253,336	-45,368	-0,064	0,023
-252,322	-39,480	-0,033	-0,013
-251,307	-58,346	0,012	0,004
-250,292	637,484	-0,064	-0,119
-249,278	-84,301	0,063	0,014
-248,263	-200,000	0,005	0,028
-247,249	-101,598	0,066	-0,012
-246,234	-23,737	0,070	0,030
-245,219	-140,508	-0,046	0,003
-244,205	-162,144	0,121	0,004
-243,190	-100,874	0,105	-0,019
-242,176	316,818	0,064	0,089
-241,161	469,181	-0,064	0,106
-240,146	48,179	-0,097	0,067
-239,132	26,964	-0,066	0,040
-238,117	-111,573	-0,097	0,014
-237,103	56,138	0,060	-0,043
-236,088	721,582	-0,029	0,056
-235,073	-118,657	-0,060	-0,008
-234,059	-109,021	0,108	-0,017
-233,044	-200,000	-0,005	0,045
-232,030	-200,000	-0,016	-0,187
-231,015	-200,000	-0,006	-0,047
-230,000	-79,805	-0,051	-0,012
-228,986	800,000	0,011	-0,035
-227,971	-165,961	-0,030	-0,001
-226,957	-49,253	0,044	-0,015
-225,942	-200,000	-0,008	0,097
-224,927	-50,080	-0,073	0,025
-223,913	-200,000	-0,009	-0,078
-222,898	800,000	-0,013	0,029
-221,884	-5,289	-0,073	-0,037
-220,869	-34,000	0,025	-0,010
-219,855	800,000	0,047	0,104
-218,840	-113,524	0,035	-0,005
-217,825	63,656	0,099	-0,073
-216,811	800,000	-0,022	0,065
-215,796	152,022	-0,108	-0,107
-214,782	103,988	0,168	-0,144
-213,767	30,603	-0,051	-0,031
-212,752	-200,000	-0,010	0,138
-211,738	284,611	0,070	-0,092
-210,723	-84,034	0,033	0,008
-209,709	-87,819	-0,036	0,008
-208,694	-200,000	0,014	-0,055
-207,679	197,045	-0,056	-0,063
-206,665	-84,973	0,142	0,032
-205,650	91,820	0,083	-0,068
-204,636	-200,000	0,055	-0,199
-203,621	-63,852	-0,081	0,024
-202,606	124,914	-0,100	0,092
-201,592	800,000	-0,042	-0,135
-200,577	107,954	-0,097	-0,085
-199,563	751,944	0,103	-0,203
-198,548	-33,050	0,049	0,020
-197,533	-47,137	0,038	0,014
-196,519	-200,000	0,023	0,134
-195,504	133,814	-0,044	-0,041
-194,490	32,504	-0,089	-0,056
-193,475	34,306	0,086	0,055
-192,460	-200,000	0,018	0,073
-191,446	-200,000	0,022	0,111
-190,431	-81,795	0,037	0,009
-189,417	-200,000	-0,015	-0,057
-188,402	-92,849	-0,055	-0,011
-187,387	31,046	-0,088	-0,055
-186,373	-200,000	-0,034	-0,110
-185,358	-200,000	-0,001	0,054
-184,344	-46,290	0,094	-0,033
-183,329	-200,000	-0,017	0,145
-182,315	-200,000	0,046	0,175
-181,300	-82,897	-0,143	0,034
-180,285	-22,170	0,033	0,015
-179,271	-92,997	-0,018	-0,004
-178,256	-68,817	-0,010	0,003
-177,242	-142,611	-0,208	-0,015
-176,227	519,059	0,084	0,144
-175,212	800,000	-0,011	-0,027
-174,198	643,221	0,049	-0,091
-173,183	800,000	-0,063	0,135
-172,169	800,000	-0,030	-0,074
-171,154	-200,000	0,006	-0,071
-170,139	-200,000	0,015	-0,071
-169,125	118,561	0,092	0,082
-168,110	494,038	-0,029	0,049
-167,096	430,229	-0,026	-0,041
-166,081	-115,193	-0,058	-0,008
-165,066	137,473	-0,044	0,042
-164,052	298,450	-0,045	-0,060
-163,037	456,879	0,071	0,115
-162,023	595,059	0,058	0,105
-161,008	-15,402	-0,082	0,038
-159,993	800,000	-0,037	0,116
-158,979	800,000	-0,018	0,042
-157,964	120,734	-0,160	-0,145
-156,950	-200,000	-0,015	-0,067
-155,935	79,219	0,039	0,031
-154,920	-200,000	-0,001	0,020
-153,906	-2,900	0,126	-0,064
-152,891	-200,000	0,003	0,090
-151,877	-123,170	-0,174	-0,020
-150,862	21,188	-0,047	0,028
-149,847	-146,768	0,140	0,009
-148,833	800,000	-0,060	0,127
-147,818	-129,460	0,052	-0,005
-146,804	133,107	0,095	0,090
-145,789	195,097	0,148	0,164
-144,775	-200,000	0,002	0,096
-143,760	-200,000	-0,003	0,071
-142,745	-176,576	-0,108	0,002
-141,731	-200,000	0,009	0,068
-140,716	800,000	0,032	-0,097
-139,702	-126,504	0,060	0,006
-138,687	-34,926	0,159	-0,063
-137,672	800,000	-0,058	-0,118
-136,658	607,522	0,011	-0,021
-135,643	70,712	-0,094	0,071
-134,629	800,000	0,015	0,046
-133,614	-200,000	0,000	0,007
-132,599	800,000	-0,031	0,077
-131,585	143,737	0,076	0,074
-130,570	-152,779	-0,065	-0,003
-129,556	342,960	0,044	-0,063
-128,541	800,000	0,014	0,035
-127,526	-58,968	0,047	-0,015
-126,512	-200,000	0,012	0,059
-125,497	-200,000	0,014	0,144
-124,483	648,245	0,036	-0,067
-123,468	-83,800	0,084	-0,019
-122,453	541,430	0,032	-0,055
-121,439	404,628	0,099	-0,153
-120,424	200,811	0,147	-0,165
