DTS Sentinel unit serial number:	SN410029Multiplexer serial number:	ORYXHardware model number:	OX2-SRSoftware version number:	ORYX F/W v4,00 Oryx Data Collector v3.7.2.0data status	okinstallation	B6 Nyhavnadifferential loss correction	single-endedforward channel	channel 2reverse channel	N/Adate	2023/12/09time	09:15:08forward acquisition time	300,00reverse acquisition time	0,00gamma	499,1914k internal	0,3138k external	0,3138temperature offset calibration	1,0000default loss term (dB/km)	0,3820temperature slope calibration	1,0000multiplexer offset coefficient	1,0000multiplexer slope coefficient	1,0000fibre end	0,00T internal ref (°C)	18,44T ext. ref 1 (°C)	2,02T ext. ref 2 (°C)	2,01length (m)	temperature (°C)	Stokes	anti-Stokes-744,400	-200,000	-0,008	0,154
-743,385	-113,967	-0,230	0,033
-742,371	-200,000	0,021	0,085
-741,356	-71,908	-0,202	0,055
-740,342	683,834	0,101	0,196
-739,327	-3,592	-0,323	0,166
-738,312	-75,183	-0,047	0,012
-737,298	-11,226	-0,257	0,125
-736,283	70,842	0,021	-0,016
-735,269	-79,013	-0,268	0,067
-734,254	316,862	-0,051	0,072
-733,239	-87,296	-0,465	-0,104
-732,225	-79,463	0,131	-0,033
-731,210	26,538	-0,106	0,065
-730,196	519,166	0,073	0,128
-729,181	-200,000	0,002	0,085
-728,167	800,000	0,068	-0,196
-727,152	169,587	0,068	0,072
-726,137	-4,424	-0,225	0,115
-725,123	-107,261	-0,115	0,019
-724,108	2,117	-0,025	-0,014
-723,094	-200,000	0,038	-0,151
-722,079	115,714	-0,152	-0,138
-721,064	-200,000	-0,005	-0,082
-720,050	800,000	-0,025	0,065
-719,035	800,000	-0,014	-0,043
-718,021	-200,000	-0,022	0,077
-717,006	-22,510	-0,058	-0,026
-715,991	-174,547	-0,086	-0,002
-714,977	347,351	-0,053	-0,078
-713,962	278,803	-0,100	-0,132
-712,948	-0,689	0,140	0,073
-711,933	-200,000	-0,002	0,060
-710,918	-200,000	-0,003	0,044
-709,904	-87,982	-0,111	0,024
-708,889	-200,000	-0,004	-0,129
-707,875	800,000	-0,069	-0,191
-706,860	156,227	0,041	-0,042
-705,845	399,171	0,091	-0,141
-704,831	25,410	0,145	0,089
-703,816	-79,593	-0,112	0,028
-702,802	124,934	-0,063	-0,059
-701,787	-200,000	0,005	-0,059
-700,772	800,000	0,050	-0,159
-699,758	800,000	-0,045	0,095
-698,743	325,372	-0,053	0,075
-697,729	-14,873	-0,121	-0,058
-696,714	51,870	0,043	-0,031
-695,699	11,173	0,128	0,072
-694,685	153,586	0,078	0,079
-693,670	-77,769	-0,101	0,026
-692,656	-200,000	-0,034	0,114
-691,641	-44,764	0,169	0,062
-690,627	477,614	-0,033	0,055
-689,612	751,586	0,061	0,123
-688,597	119,848	-0,089	0,082
-687,583	-200,000	-0,006	-0,213
-686,568	-200,000	-0,002	0,022
-685,554	800,000	0,040	-0,114
-684,539	-200,000	-0,018	-0,142
-683,524	67,366	0,051	0,038
-682,510	-200,000	0,006	-0,028
-681,495	-110,761	-0,055	0,008
-680,481	-89,440	-0,128	-0,028
-679,466	800,000	-0,058	-0,126
-678,451	-200,000	-0,015	-0,116
-677,437	-200,000	-0,002	-0,112
-676,422	-130,561	0,094	0,009
-675,408	192,791	0,064	0,072
-674,393	198,709	0,083	-0,094
-673,378	46,919	-0,076	-0,052
-672,364	-89,431	-0,080	0,017
-671,349	10,630	0,035	0,019
-670,335	-200,000	0,007	-0,061
-669,320	687,606	-0,052	-0,101
-668,305	800,000	-0,042	-0,091
-667,291	-124,211	0,038	-0,004
-666,276	-200,000	-0,021	-0,079
-665,262	165,144	0,037	-0,039
-664,247	-44,215	0,020	0,007
-663,232	418,959	-0,065	0,104
-662,218	245,002	0,046	-0,057
-661,203	164,288	0,062	-0,064
-660,189	425,402	-0,014	0,022
-659,174	102,390	-0,146	-0,126
-658,159	342,956	-0,063	0,091
-657,145	592,507	0,022	-0,041
-656,130	604,590	0,058	-0,107
-655,116	800,000	-0,041	-0,091
-654,101	262,820	-0,127	0,163
-653,086	-45,455	-0,159	-0,058
-652,072	-74,195	-0,018	-0,005
-651,057	-144,510	-0,054	-0,004
-650,043	355,681	0,022	0,033
-649,028	-200,000	0,013	-0,045
-648,014	532,015	0,048	0,085
-646,999	800,000	0,027	-0,083
-645,984	283,855	-0,101	0,134
-644,970	-2,398	0,086	-0,045
-643,955	-200,000	0,049	-0,207
-642,941	800,000	0,067	-0,159
-641,926	636,157	-0,019	-0,035
-640,911	36,115	-0,077	0,050
-639,897	230,806	0,060	0,073
-638,882	115,865	0,146	-0,132
-637,868	308,981	0,037	0,051
-636,853	-80,424	-0,107	0,026
-635,838	82,198	0,070	0,056
-634,824	12,182	0,051	-0,029
-633,809	794,582	0,047	-0,096
-632,795	-46,637	-0,094	0,034
-631,780	89,885	0,121	-0,100
-630,765	84,291	0,046	0,037
-629,751	114,058	-0,145	-0,131
-628,736	800,000	0,040	-0,087
-627,722	5,735	-0,171	-0,093
-626,707	-28,344	0,093	-0,039
-625,692	-118,287	0,055	0,007
-624,678	-47,938	0,075	0,027
-623,663	800,000	0,021	0,051
-622,649	-200,000	-0,018	-0,085
-621,634	-200,000	-0,008	-0,042
-620,619	-4,438	0,088	-0,045
-619,605	800,000	0,027	-0,067
-618,590	658,509	0,055	0,105
-617,576	800,000	-0,033	0,075
-616,561	84,651	-0,116	-0,094
-615,546	800,000	0,026	0,077
-614,532	67,922	-0,024	-0,018
-613,517	767,458	-0,019	0,038
-612,503	-33,604	-0,017	-0,007
-611,488	-44,744	0,090	0,033
-610,474	-200,000	-0,013	0,092
-609,459	-52,551	-0,034	0,011
-608,444	278,185	0,037	0,049
-607,430	-100,035	-0,061	-0,011
-606,415	163,554	-0,032	-0,033
-605,401	533,230	-0,078	0,136
-604,386	-200,000	-0,038	0,172
-603,371	800,000	-0,029	0,086
-602,357	-200,000	-0,021	-0,138
-601,342	27,339	-0,039	-0,024
-600,328	150,879	0,017	-0,017
-599,313	138,378	-0,061	-0,059
-598,298	46,908	0,090	0,061
-597,284	-200,000	0,009	0,094
-596,269	168,898	0,038	0,040
-595,255	-109,142	0,057	0,009
-594,240	-200,000	0,007	-0,038
-593,225	-153,441	-0,121	-0,006
-592,211	237,162	-0,089	-0,109
-591,196	93,822	0,068	-0,057
-590,182	195,057	-0,114	-0,128
-589,167	-16,748	-0,089	-0,041
-588,152	47,151	-0,034	0,023
-587,138	-78,936	-0,123	0,031
-586,123	347,089	-0,042	-0,061
-585,109	-164,281	-0,034	-0,001
-584,094	101,232	0,015	-0,013
-583,079	-200,000	0,039	0,145
-582,065	800,000	0,012	0,029
-581,050	652,021	0,080	0,152
-580,036	202,918	-0,076	-0,087
-579,021	-161,752	0,216	0,008
-578,006	-200,000	-0,001	-0,037
-576,992	22,956	0,015	-0,009
-575,977	800,000	0,016	-0,050
-574,963	141,739	0,020	-0,020
-573,948	-200,000	0,041	0,137
-572,934	-200,000	0,006	0,047
-571,919	-27,335	-0,205	-0,088
-570,904	-59,649	-0,091	-0,029
-569,890	-200,000	-0,013	-0,059
-568,875	-42,510	-0,065	-0,024
-567,861	210,344	0,039	0,045
-566,846	-172,040	-0,016	0,000
-565,831	-85,083	-0,193	-0,044
-564,817	140,895	-0,066	-0,064
-563,802	-200,000	-0,003	0,073
-562,788	-22,003	-0,150	-0,067
-561,773	-200,000	0,012	0,071
-560,758	800,000	0,030	0,087
-559,744	654,595	-0,022	0,042
-558,729	800,000	0,038	0,110
-557,715	-188,244	-0,101	-0,001
-556,700	250,067	-0,075	0,093
-555,685	-8,834	0,059	0,029
-554,671	-40,955	0,084	-0,032
-553,656	800,000	0,033	0,073
-552,642	-169,465	0,072	0,002
-551,627	131,600	0,032	-0,030
-550,612	800,000	-0,023	-0,064
-549,598	-200,000	0,019	-0,082
-548,583	-43,058	0,037	0,014
-547,569	800,000	0,007	0,017
-546,554	146,386	-0,057	-0,056
-545,539	150,510	-0,098	0,098
-544,525	-106,601	0,064	0,010
-543,510	-16,788	-0,042	-0,019
-542,496	-123,441	-0,120	-0,014
-541,481	102,297	-0,079	-0,068
-540,466	-200,000	-0,027	-0,157
-539,452	-65,964	-0,074	-0,022
-538,437	130,205	0,134	-0,126
-537,423	-80,662	-0,046	0,011
-536,408	74,564	0,053	0,041
-535,393	-200,000	-0,022	0,236
-534,379	-111,385	-0,018	0,003
-533,364	5,474	0,128	0,069
-532,350	800,000	-0,022	0,071
-531,335	114,774	0,086	-0,078
-530,321	380,232	-0,021	-0,032
-529,306	-22,946	0,015	-0,007
-528,291	800,000	-0,023	0,051
-527,277	67,501	0,019	-0,014
-526,262	-66,813	0,107	-0,031
-525,248	-200,000	0,007	0,073
-524,233	-35,403	0,091	-0,036
-523,218	250,784	-0,073	0,091
-522,204	-131,420	-0,025	-0,002
-521,189	226,413	-0,023	0,028
-520,175	-200,000	-0,011	-0,062
-519,160	-126,561	-0,057	-0,006
-518,145	-103,428	0,036	0,006
-517,131	742,324	0,041	0,081
-516,116	23,725	-0,108	0,065
-515,102	-86,408	-0,166	-0,037
-514,087	706,146	0,041	-0,080
-513,072	196,558	-0,039	-0,043
-512,058	9,294	0,120	0,066
-511,043	489,252	-0,100	0,169
-510,029	-49,284	-0,065	0,023
-509,014	-200,000	0,032	0,137
-507,999	-200,000	0,010	0,117
-506,985	-172,129	-0,114	-0,003
-505,970	-200,000	-0,000	0,052
-504,956	630,091	0,016	-0,029
-503,941	-200,000	0,005	0,049
-502,926	-200,000	-0,016	-0,064
-501,912	800,000	-0,069	0,159
-500,897	-63,704	-0,091	0,027
-499,883	-118,986	-0,137	-0,017
-498,868	337,082	-0,105	-0,150
-497,853	335,669	-0,026	-0,038
-496,839	-200,000	0,011	-0,047
-495,824	48,480	0,048	0,033
-494,810	149,022	-0,087	0,087
-493,795	-141,307	-0,102	-0,008
-492,781	59,720	0,036	-0,026
-491,766	-99,823	0,027	-0,005
-490,751	-200,000	-0,008	0,067
-489,737	-200,000	-0,010	0,078
-488,722	-200,000	0,030	0,110
-487,708	-103,517	0,073	0,012
-486,693	800,000	0,030	0,097
-485,678	-200,000	0,022	0,097
-484,664	-6,749	-0,077	0,038
-483,649	596,661	0,036	-0,065
-482,635	800,000	0,036	-0,102
-481,620	-65,272	-0,118	0,035
-480,605	-76,370	0,075	0,019
-479,591	-200,000	-0,047	0,190
-478,576	222,166	0,063	0,075
-477,562	6,882	0,061	-0,033
-476,547	800,000	0,042	-0,093
-475,532	800,000	-0,063	-0,134
-474,518	800,000	-0,032	0,103
-473,503	20,299	0,072	0,043
-472,489	387,238	0,033	0,050
-471,474	-200,000	0,002	0,026
-470,459	81,674	0,072	0,058
-469,445	800,000	-0,041	-0,119
-468,430	-39,456	0,051	-0,019
-467,416	-48,858	-0,063	-0,022
-466,401	-200,000	-0,002	0,047
-465,386	-200,000	0,030	0,130
-464,372	93,405	-0,058	-0,048
-463,357	19,157	-0,052	-0,030
-462,343	140,839	-0,125	0,121
-461,328	-61,622	-0,103	0,032
-460,313	-200,000	0,010	0,104
-459,299	800,000	-0,007	-0,018
-458,284	-88,339	0,039	-0,008
-457,270	800,000	0,026	-0,075
-456,255	-88,681	-0,092	-0,020
-455,241	19,097	-0,027	0,016
-454,226	800,000	0,020	-0,048
-453,211	-200,000	-0,117	-0,000
-452,197	-200,000	0,021	-0,088
-451,182	-84,950	0,086	0,020
-450,168	-6,047	-0,016	-0,008
-449,153	800,000	-0,059	0,146
-448,138	800,000	-0,046	-0,093
-447,124	800,000	-0,046	-0,122
-446,109	625,449	-0,090	-0,167
-445,095	-102,172	-0,056	0,010
-444,080	-30,320	-0,092	0,038
-443,065	-53,115	0,066	0,022
-442,051	-200,000	-0,005	0,058
-441,036	-134,637	0,077	0,007
-440,022	179,162	-0,049	-0,053
-439,007	54,570	0,025	0,018
-437,992	774,482	0,029	0,059
-436,978	85,075	-0,030	0,024
-435,963	1,297	0,071	-0,038
-434,949	-144,962	0,183	-0,012
-433,934	-200,000	-0,013	-0,140
-432,919	-200,000	0,001	-0,044
-431,905	-66,609	0,161	-0,047
-430,890	-49,791	0,061	0,021
-429,876	-200,000	0,020	0,147
-428,861	800,000	0,046	-0,122
-427,846	114,000	0,033	0,030
-426,832	-83,934	-0,117	-0,027
-425,817	-200,000	0,015	-0,070
-424,803	-200,000	0,015	0,066
-423,788	132,414	0,022	-0,021
-422,773	37,173	-0,032	-0,021
-421,759	-48,262	0,051	-0,018
-420,744	200,687	-0,058	-0,065
-419,730	-200,000	-0,011	0,071
-418,715	-200,000	-0,003	0,012
-417,701	161,349	0,084	0,086
-416,686	458,267	-0,071	0,116
-415,671	-10,006	0,167	0,081
-414,657	-152,781	0,014	0,001
-413,642	-171,602	-0,107	0,003
-412,628	-200,000	0,013	0,053
-411,613	281,008	-0,067	-0,088
-410,598	180,051	-0,145	-0,156
-409,584	22,242	0,091	0,054
-408,569	-200,000	-0,012	0,047
-407,555	-200,000	0,026	0,135
-406,540	-93,087	0,088	-0,018
-405,525	-0,180	-0,070	-0,036
-404,511	202,097	0,087	-0,099
-403,496	-200,000	-0,005	-0,125
-402,482	-129,575	-0,188	0,019
-401,467	186,964	0,065	0,071
-400,452	-6,985	0,127	-0,063
-399,438	28,539	0,070	0,043
-398,423	-200,000	0,016	-0,105
-397,409	800,000	-0,034	-0,078
-396,394	-200,000	0,018	-0,067
-395,379	725,271	0,063	-0,123
-394,365	-99,634	-0,051	-0,009
-393,350	338,836	0,082	0,117
-392,336	800,000	-0,046	-0,136
-391,321	319,473	0,038	-0,053
-390,306	800,000	-0,059	-0,128
-389,292	466,401	-0,081	-0,133
-388,277	43,953	0,127	0,085
-387,263	131,929	0,101	0,095
-386,248	-168,188	0,161	-0,004
-385,233	-200,000	-0,033	0,177
-384,219	800,000	0,081	0,165
-383,204	-200,000	0,011	-0,043
-382,190	-200,000	-0,017	-0,085
-381,175	-200,000	-0,002	-0,072
-380,160	-47,079	0,085	0,030
-379,146	435,868	-0,076	-0,121
-378,131	150,459	-0,049	-0,048
-377,117	-60,179	-0,082	-0,025
-376,102	-70,888	0,028	0,008
-375,088	36,994	0,092	-0,059
-374,073	95,968	-0,042	0,035
-373,058	-187,803	-0,029	-0,000
-372,044	403,182	0,042	-0,065
-371,029	214,680	0,035	0,040
-370,015	-175,836	-0,093	0,002
-369,000	-7,262	-0,088	-0,044
-367,985	800,000	0,017	0,052
-366,971	-200,000	0,023	-0,127
-365,956	-183,528	-0,180	-0,002
-364,942	-200,000	0,009	0,082
-363,927	-1,306	-0,186	-0,096
-362,912	2,258	0,077	0,040
-361,898	596,585	-0,024	-0,044
-360,883	-200,000	-0,022	-0,120
-359,869	19,723	-0,063	0,037
-358,854	-104,811	0,190	0,032
-357,839	-200,000	0,002	0,035
-356,825	-106,833	0,034	0,005
-355,810	-57,424	-0,087	0,028
-354,796	800,000	-0,031	-0,087
-353,781	779,321	-0,070	-0,141
-352,766	-20,863	-0,039	-0,017
-351,752	-200,000	-0,031	-0,142
-350,737	234,029	0,126	0,152
-349,723	-200,000	-0,003	0,014
-348,708	289,896	0,086	-0,115
-347,693	-37,124	-0,085	0,033
-346,679	-24,425	0,021	-0,009
-345,664	800,000	0,054	-0,166
-344,650	93,580	0,064	-0,053
-343,635	-16,901	0,073	-0,034
-342,620	255,125	-0,037	0,046
-341,606	-39,532	0,041	0,016
-340,591	-200,000	0,001	0,066
-339,577	49,237	-0,060	0,041
-338,562	-200,000	-0,014	0,060
-337,548	110,226	-0,115	0,101
-336,533	196,048	0,043	-0,048
-335,518	249,091	-0,054	0,067
-334,504	-65,257	-0,022	-0,007
-333,489	176,096	-0,099	-0,105
-332,475	-200,000	0,036	-0,125
-331,460	5,568	-0,007	-0,004
-330,445	-64,574	-0,010	0,003
-329,431	-174,114	0,189	-0,004
-328,416	264,606	0,082	0,105
-327,402	-200,000	0,001	0,003
-326,387	800,000	0,051	-0,149
-325,372	800,000	-0,076	-0,210
-324,358	72,264	-0,082	-0,062
-323,343	-200,000	-0,000	0,048
-322,329	181,677	0,027	-0,029
-321,314	-148,524	0,036	-0,002
-320,299	191,496	-0,077	0,085
-319,285	73,995	0,107	0,082
-318,270	800,000	0,046	-0,138
-317,256	789,175	-0,032	0,064
-316,241	-57,341	-0,041	0,013
-315,226	-14,871	0,020	-0,010
-314,212	99,090	0,137	-0,116
-313,197	244,802	0,039	0,047
-312,183	800,000	0,047	0,118
-311,168	-4,182	0,130	-0,065
-310,153	-44,679	0,110	-0,040
-309,139	444,568	-0,019	0,030
-308,124	130,730	-0,060	-0,056
-307,110	-200,000	0,024	0,113
-306,095	521,778	-0,065	0,112
-305,080	68,228	0,063	0,047
-304,066	-81,354	0,054	0,013
-303,051	-76,908	-0,044	0,011
-302,037	-40,117	-0,117	0,044
-301,022	-154,991	0,104	0,005
-300,008	-200,000	0,011	0,068
-298,993	-77,520	0,091	-0,023
-297,978	-200,000	-0,028	0,104
-296,964	-142,671	-0,133	-0,009
-295,949	-88,075	-0,144	0,031
-294,935	26,306	0,037	-0,022
-293,920	134,229	0,109	-0,103
-292,905	-143,191	0,170	0,012
-291,891	43,577	-0,112	-0,074
-290,876	562,713	-0,055	-0,098
-289,862	92,639	0,105	0,086
-288,847	800,000	-0,030	0,088
-287,832	-162,546	-0,145	0,005
-286,818	-5,536	-0,006	0,003
-285,803	-200,000	-0,002	-0,096
-284,789	601,513	0,066	0,121
-283,774	30,004	-0,057	0,035
-282,759	-122,235	-0,035	0,004
-281,745	-200,000	0,013	-0,043
-280,730	31,636	-0,172	-0,107
-279,716	-200,000	0,045	-0,253
-278,701	156,384	0,031	0,031
-277,686	171,612	0,107	0,112
-276,672	51,004	-0,085	0,059
-275,657	378,489	0,019	0,028
-274,643	751,452	0,018	-0,035
-273,628	435,613	-0,046	0,073
-272,613	800,000	0,014	-0,029
-271,599	448,919	0,086	-0,139
-270,584	-34,236	-0,009	0,004
-269,570	116,508	0,035	-0,031
-268,555	-61,958	0,076	-0,023
-267,540	-75,638	-0,075	-0,019
-266,526	-200,000	-0,030	-0,152
-265,511	111,446	0,093	-0,082
-264,497	351,072	0,039	-0,056
-263,482	-88,951	-0,114	0,024
-262,467	-122,136	0,064	0,008
-261,453	470,568	0,062	0,102
-260,438	-200,000	0,005	-0,028
-259,424	24,418	0,029	-0,017
-258,409	-200,000	-0,034	-0,126
-257,395	-94,305	-0,058	-0,011
-256,380	166,948	-0,135	0,140
-255,365	-138,417	0,126	-0,010
-254,351	16,997	-0,057	0,033
-253,336	-89,581	-0,048	-0,010
-252,322	-174,942	-0,138	0,003
-251,307	-123,648	-0,072	-0,008
-250,292	800,000	-0,062	0,137
-249,278	-200,000	0,008	0,039
-248,263	800,000	-0,021	-0,049
-247,249	57,714	-0,020	0,014
-246,234	220,868	0,080	-0,094
-245,219	767,543	-0,071	-0,142
-244,205	-42,138	0,109	-0,040
-243,190	-96,794	-0,097	0,018
-242,176	-122,741	0,048	-0,006
-241,161	-82,350	0,053	0,012
-240,146	276,483	0,089	0,115
-239,132	495,413	0,060	-0,100
-238,117	-200,000	0,049	-0,233
-237,103	67,699	-0,061	-0,046
-236,088	-82,499	-0,057	-0,013
-235,073	-52,515	-0,055	-0,018
-234,059	800,000	0,038	-0,089
-233,044	126,581	0,050	0,046
-232,030	86,483	0,024	-0,019
-231,015	-92,435	-0,129	-0,026
-230,000	443,454	0,020	0,032
-228,986	800,000	-0,017	-0,044
-227,971	192,570	0,052	-0,057
-226,957	800,000	0,037	0,080
-225,942	-57,498	0,124	0,039
-224,927	455,964	-0,051	-0,082
-223,913	-200,000	-0,002	0,044
-222,898	-30,507	-0,145	-0,059
-221,884	195,776	0,033	0,037
-220,869	-200,000	-0,029	0,158
-219,855	800,000	0,078	0,171
-218,840	-200,000	0,034	0,135
-217,825	-200,000	-0,014	0,163
-216,811	-200,000	0,034	-0,119
-215,796	-200,000	0,025	-0,109
-214,782	-200,000	-0,001	0,048
-213,767	800,000	0,066	-0,164
-212,752	-200,000	-0,003	0,100
-211,738	-143,991	0,028	-0,002
-210,723	-146,716	0,121	-0,008
-209,709	-137,212	-0,104	-0,008
-208,694	-200,000	0,000	0,022
-207,679	-200,000	0,017	-0,106
-206,665	-200,000	-0,007	0,073
-205,650	-70,521	0,111	0,030
-204,636	-200,000	0,058	0,218
-203,621	-200,000	0,011	0,073
-202,606	100,893	-0,088	-0,074
-201,592	-200,000	-0,003	-0,019
-200,577	1,807	0,077	0,040
-199,563	-200,000	0,001	0,187
-198,548	259,339	-0,031	0,039
-197,533	69,443	0,119	0,089
-196,519	-15,307	0,065	0,030
-195,504	582,233	-0,120	-0,215
-194,490	800,000	-0,045	-0,103
-193,475	57,042	0,062	-0,044
-192,460	-53,774	0,140	0,046
-191,446	9,493	-0,024	-0,013
-190,431	-200,000	0,033	0,116
-189,417	116,157	-0,045	-0,040
-188,402	-43,457	-0,099	0,036
-187,387	-79,758	-0,034	-0,008
-186,373	-200,000	-0,034	0,171
-185,358	-200,000	0,004	0,031
-184,344	-175,680	0,071	-0,001
-183,329	512,112	0,085	0,145
-182,315	-140,173	-0,140	0,011
-181,300	-34,520	0,113	-0,045
-180,285	-181,277	0,058	0,001
-179,271	-200,000	-0,018	0,065
-178,256	-81,397	0,076	-0,018
-177,242	-90,016	-0,009	-0,002
-176,227	160,343	0,022	0,022
-175,212	314,100	0,027	-0,036
-174,198	-31,231	-0,051	-0,021
-173,183	800,000	0,041	0,090
-172,169	58,134	0,091	-0,065
-171,154	-99,199	0,104	0,019
-170,139	-96,254	0,040	-0,008
-169,125	-0,745	-0,060	0,031
-168,110	800,000	-0,048	-0,103
-167,096	-200,000	-0,017	0,086
-166,081	-200,000	0,016	0,120
-165,066	800,000	-0,030	-0,084
-164,052	-200,000	-0,013	-0,157
-163,037	126,482	-0,062	0,057
-162,023	94,680	0,062	-0,051
-161,008	339,149	0,035	0,050
-159,993	179,921	-0,172	0,183
-158,979	-200,000	0,047	-0,162
-157,964	-126,566	-0,046	-0,005
-156,950	-152,448	0,098	-0,005
-155,935	296,703	0,037	-0,050
-154,920	52,614	-0,053	-0,037
-153,906	21,677	0,198	0,117
-152,891	-200,000	0,023	0,191
-151,877	800,000	-0,050	0,132
-150,862	106,252	-0,132	-0,113
-149,847	-200,000	0,001	-0,056
-148,833	239,705	-0,104	-0,126
-147,818	171,419	0,086	0,089
-146,804	-200,000	0,053	0,193
-145,789	-200,000	0,022	-0,100
-144,775	-200,000	-0,019	0,147
-143,760	-153,956	0,117	-0,006
-142,745	-200,000	0,013	-0,089
-141,731	-4,032	-0,081	-0,041
-140,716	800,000	0,077	0,155
-139,702	-200,000	-0,024	0,078
-138,687	-63,794	-0,086	0,025
-137,672	50,359	-0,030	-0,021
-136,658	800,000	0,050	-0,122
-135,643	66,552	-0,077	-0,056
-134,629	-200,000	0,012	-0,037
-133,614	-130,733	0,090	0,009
-132,599	521,045	0,064	0,110
-131,585	224,782	0,048	-0,057
-130,570	-104,486	0,119	-0,020
-129,556	-31,796	-0,130	0,053
-128,541	-11,174	0,013	0,006
-127,526	615,418	0,061	0,111
-126,512	284,678	0,046	0,061
-125,497	-200,000	0,017	0,065
-124,483	364,785	0,036	0,052
-123,468	426,048	-0,071	-0,110
-122,453	-200,000	-0,001	0,011
-121,439	-125,370	-0,169	-0,018
-120,424	-183,435	0,110	0,001
-119,410	-73,253	-0,022	-0,006
