DTS Sentinel unit serial number:	SN410029Multiplexer serial number:	ORYXHardware model number:	OX2-SRSoftware version number:	ORYX F/W v4,00 Oryx Data Collector v3.7.2.0data status	okinstallation	B6 Nyhavnadifferential loss correction	single-endedforward channel	channel 2reverse channel	N/Adate	2023/12/11time	09:15:08forward acquisition time	300,00reverse acquisition time	0,00gamma	499,1914k internal	0,3137k external	0,3137temperature offset calibration	1,0000default loss term (dB/km)	0,3820temperature slope calibration	1,0000multiplexer offset coefficient	1,0000multiplexer slope coefficient	1,0000fibre end	0,00T internal ref (°C)	16,92T ext. ref 1 (°C)	-0,65T ext. ref 2 (°C)	-0,66length (m)	temperature (°C)	Stokes	anti-Stokes-744,400	269,822	0,034	0,045
-743,385	-2,041	-0,156	-0,081
-742,371	31,716	0,117	0,074
-741,356	-49,978	-0,169	-0,059
-740,342	-200,000	0,023	-0,084
-739,327	-78,166	-0,384	0,097
-738,312	177,515	0,102	0,111
-737,298	-180,456	-0,360	-0,005
-736,283	-70,448	0,053	-0,015
-735,269	35,585	-0,151	0,098
-734,254	-200,000	0,005	0,035
-733,239	-64,129	-0,441	-0,133
-732,225	-174,985	0,085	0,002
-731,210	145,689	0,163	0,162
-730,196	-200,000	0,004	-0,040
-729,181	-186,318	-0,145	-0,002
-728,167	225,298	-0,036	0,043
-727,152	800,000	0,040	-0,099
-726,137	105,034	-0,081	-0,071
-725,123	-108,193	0,014	0,002
-724,108	800,000	0,077	-0,195
-723,094	-95,108	-0,208	-0,041
-722,079	-200,000	-0,023	0,136
-721,064	-200,000	0,017	0,068
-720,050	-93,261	-0,091	-0,019
-719,035	-71,129	-0,071	0,020
-718,021	275,997	-0,012	-0,015
-717,006	-145,611	-0,193	-0,013
-715,991	721,162	-0,051	-0,101
-714,977	505,560	-0,026	0,045
-713,962	381,307	0,051	-0,078
-712,948	33,399	0,030	-0,019
-711,933	-200,000	-0,014	-0,193
-710,918	191,417	-0,016	0,018
-709,904	106,911	-0,040	-0,036
-708,889	800,000	0,032	0,091
-707,875	800,000	-0,031	-0,086
-706,860	800,000	0,015	0,035
-705,845	582,540	-0,051	-0,093
-704,831	800,000	0,040	-0,088
-703,816	-200,000	-0,008	0,075
-702,802	149,989	-0,022	-0,023
-701,787	129,335	-0,055	0,052
-700,772	-128,873	-0,107	0,011
-699,758	800,000	-0,026	0,064
-698,743	-185,305	0,126	0,001
-697,729	-200,000	0,007	0,096
-696,714	470,048	-0,074	-0,123
-695,699	-122,934	-0,026	0,003
-694,685	94,883	-0,066	-0,056
-693,670	-200,000	-0,019	-0,102
-692,656	-200,000	0,001	-0,153
-691,641	11,084	0,138	-0,078
-690,627	430,733	0,102	-0,165
-689,612	-17,541	-0,012	0,006
-688,597	-200,000	-0,011	0,084
-687,583	-108,637	-0,058	0,009
-686,568	800,000	0,039	-0,087
-685,554	197,708	0,063	0,071
-684,539	800,000	0,023	-0,052
-683,524	-195,493	0,226	-0,001
-682,510	21,599	-0,029	0,017
-681,495	225,204	-0,036	0,043
-680,481	114,668	-0,103	-0,093
-679,466	800,000	-0,050	-0,124
-678,451	609,071	0,047	-0,087
-677,437	-18,920	0,060	0,028
-676,422	45,924	-0,083	0,057
-675,408	618,721	-0,055	0,102
-674,393	364,313	0,028	-0,042
-673,378	-40,076	-0,133	-0,051
-672,364	800,000	0,036	-0,087
-671,349	800,000	0,002	0,006
-670,335	-30,802	-0,153	-0,064
-669,320	-43,412	-0,033	-0,012
-668,305	-200,000	-0,046	0,157
-667,291	-37,231	0,079	-0,031
-666,276	-64,593	-0,047	-0,014
-665,262	-137,385	-0,055	-0,005
-664,247	-42,130	-0,118	-0,044
-663,232	499,259	0,114	0,195
-662,218	487,612	-0,078	0,132
-661,203	60,382	0,037	0,027
-660,189	54,110	0,048	-0,034
-659,174	271,246	0,027	-0,036
-658,159	-200,000	0,010	-0,158
-657,145	-200,000	-0,003	-0,049
-656,130	-200,000	0,013	-0,071
-655,116	-57,517	-0,166	-0,053
-654,101	-200,000	-0,042	-0,162
-653,086	-94,230	-0,131	-0,026
-652,072	595,289	0,039	-0,071
-651,057	129,256	-0,085	-0,080
-650,043	650,267	-0,028	-0,054
-649,028	285,253	0,086	-0,115
-648,014	-200,000	0,010	0,044
-646,999	800,000	0,081	0,219
-645,984	-82,806	-0,067	0,016
-644,970	800,000	0,017	-0,044
-643,955	164,744	0,064	-0,066
-642,941	-144,314	-0,112	-0,008
-641,926	183,868	0,062	-0,068
-640,911	650,127	0,052	0,100
-639,897	154,998	-0,083	0,085
-638,882	-29,189	-0,039	-0,017
-637,868	487,317	-0,048	-0,081
-636,853	-200,000	-0,016	-0,177
-635,838	789,749	0,045	0,091
-634,824	595,787	0,033	-0,061
-633,809	-173,005	-0,087	-0,002
-632,795	-109,004	0,076	-0,012
-631,780	800,000	0,028	-0,082
-630,765	-200,000	-0,021	-0,126
-629,751	-123,881	-0,129	-0,015
-628,736	-200,000	-0,004	-0,028
-627,722	31,205	-0,165	-0,104
-626,707	-65,141	-0,162	0,048
-625,692	-53,611	0,088	0,030
-624,678	-142,795	-0,079	-0,006
-623,663	-200,000	-0,016	-0,146
-622,649	-136,091	-0,149	-0,013
-621,634	254,025	0,052	-0,066
-620,619	-130,311	-0,035	-0,003
-619,605	779,557	0,014	-0,027
-618,590	800,000	-0,017	0,041
-617,576	332,417	-0,051	-0,073
-616,561	75,339	-0,056	-0,044
-615,546	-89,129	0,046	0,010
-614,532	-200,000	0,010	-0,197
-613,517	301,919	0,109	0,149
-612,503	-126,741	-0,019	-0,002
-611,488	-200,000	-0,020	-0,129
-610,474	-200,000	-0,004	-0,061
-609,459	-110,205	-0,067	-0,010
-608,444	-78,886	-0,076	0,019
-607,430	-85,674	-0,045	-0,010
-606,415	37,074	0,056	-0,037
-605,401	-200,000	-0,009	-0,139
-604,386	-113,586	0,153	-0,022
-603,371	-200,000	0,004	0,029
-602,357	-27,774	-0,072	0,031
-601,342	-200,000	-0,017	0,113
-600,328	362,654	-0,030	-0,045
-599,313	-35,980	0,047	-0,019
-598,298	800,000	0,019	-0,057
-597,284	800,000	-0,024	0,076
-596,269	213,897	0,077	0,090
-595,255	403,084	-0,093	0,145
-594,240	235,854	0,057	-0,070
-593,225	248,231	-0,039	-0,049
-592,211	0,816	-0,069	-0,036
-591,196	17,741	-0,140	-0,082
-590,182	180,509	0,009	0,010
-589,167	195,273	0,053	0,059
-588,152	180,501	0,073	0,079
-587,138	-132,027	-0,084	0,008
-586,123	800,000	0,055	-0,150
-585,109	-200,000	0,029	-0,097
-584,094	186,621	-0,072	-0,079
-583,079	-52,927	0,187	0,063
-582,065	-200,000	0,026	0,126
-581,050	-200,000	-0,006	-0,062
-580,036	85,447	0,010	-0,008
-579,021	800,000	0,028	-0,061
-578,006	-200,000	-0,009	0,159
-576,992	800,000	-0,032	-0,072
-575,977	-168,702	0,131	-0,004
-574,963	-200,000	0,021	-0,082
-573,948	242,112	0,039	-0,048
-572,934	627,691	-0,076	-0,143
-571,919	800,000	-0,029	-0,086
-570,904	198,784	-0,076	-0,086
-569,890	-129,008	0,051	0,005
-568,875	43,929	-0,083	0,056
-567,861	572,878	-0,039	0,070
-566,846	-200,000	-0,006	0,215
-565,831	-49,245	-0,101	0,035
-564,817	44,087	0,031	-0,021
-563,802	-61,234	0,099	-0,030
-562,788	-114,670	-0,108	0,015
-561,773	351,108	0,036	0,053
-560,758	-200,000	-0,014	-0,077
-559,744	29,943	-0,125	-0,078
-558,729	-200,000	-0,008	0,087
-557,715	116,400	-0,084	0,076
-556,700	18,666	-0,044	0,026
-555,685	-88,632	-0,079	-0,017
-554,671	571,362	0,011	0,020
-553,656	-81,020	0,096	0,023
-552,642	170,127	0,045	0,048
-551,627	-200,000	0,009	0,031
-550,612	800,000	0,003	0,008
-549,598	-200,000	-0,018	-0,160
-548,583	-80,610	-0,036	0,009
-547,569	800,000	-0,014	-0,029
-546,554	-200,000	0,041	0,153
-545,539	-103,103	0,104	0,018
-544,525	800,000	0,037	0,084
-543,510	516,876	0,020	0,034
-542,496	224,345	-0,022	0,026
-541,481	-22,089	-0,110	0,049
-540,466	-45,504	-0,146	-0,053
-539,452	800,000	0,023	-0,054
-538,437	-126,878	0,100	0,011
-537,423	47,644	0,047	-0,033
-536,408	204,678	0,045	-0,052
-535,393	-161,291	-0,090	-0,003
-534,379	800,000	-0,051	-0,138
-533,364	-200,000	-0,002	0,083
-532,350	-140,858	0,104	0,008
-531,335	-117,154	-0,099	-0,013
-530,321	-91,891	-0,060	-0,012
-529,306	-200,000	0,016	-0,079
-528,291	49,780	0,045	0,031
-527,277	-54,136	-0,008	0,003
-526,262	-56,952	0,100	-0,032
-525,248	-10,868	-0,048	-0,023
-524,233	599,411	0,044	-0,081
-523,218	-200,000	0,003	-0,026
-522,204	800,000	0,065	0,161
-521,189	-35,044	-0,123	-0,049
-520,175	198,109	-0,102	-0,115
-519,160	-200,000	0,010	-0,155
-518,145	166,711	-0,076	-0,080
-517,131	431,005	-0,045	0,073
-516,116	-200,000	-0,008	-0,057
-515,102	68,577	-0,070	-0,052
-514,087	800,000	-0,013	-0,038
-513,072	-200,000	0,007	-0,101
-512,058	89,776	0,042	-0,035
-511,043	231,769	-0,010	0,013
-510,029	31,170	0,015	0,009
-509,014	-200,000	0,004	-0,020
-507,999	-128,596	-0,051	0,005
-506,985	426,481	-0,035	0,055
-505,970	266,150	0,049	-0,063
-504,956	800,000	-0,085	-0,223
-503,941	-151,386	-0,040	-0,002
-502,926	399,139	-0,017	0,026
-501,912	-169,324	0,126	-0,003
-500,897	-200,000	-0,015	0,066
-499,883	800,000	-0,047	0,098
-498,868	121,925	-0,065	-0,060
-497,853	-117,125	-0,094	-0,012
-496,839	800,000	0,032	-0,087
-495,824	800,000	-0,008	-0,024
-494,810	77,192	-0,088	0,069
-493,795	800,000	-0,034	-0,085
-492,781	-200,000	-0,045	-0,231
-491,766	718,347	-0,058	-0,113
-490,751	-8,699	-0,082	0,040
-489,737	800,000	0,056	-0,164
-488,722	800,000	-0,030	0,087
-487,708	-200,000	0,016	0,170
-486,693	-73,484	0,111	0,029
-485,678	-88,465	-0,173	0,038
-484,664	183,466	-0,051	-0,055
-483,649	-101,346	0,064	0,011
-482,635	-200,000	-0,002	-0,073
-481,620	-83,100	0,180	-0,042
-480,605	-90,505	0,018	-0,004
-479,591	60,590	-0,074	0,054
-478,576	297,783	-0,113	0,152
-477,562	800,000	-0,049	0,107
-476,547	-82,524	-0,104	0,025
-475,532	800,000	-0,043	-0,136
-474,518	15,223	-0,069	-0,040
-473,503	800,000	0,042	0,104
-472,489	800,000	-0,029	0,079
-471,474	-200,000	-0,012	-0,075
-470,459	773,335	0,071	-0,143
-469,445	-106,714	0,088	0,014
-468,430	-128,364	0,087	0,009
-467,416	800,000	-0,030	-0,090
-466,401	-200,000	0,005	0,083
-465,386	-132,619	-0,041	-0,004
-464,372	-200,000	-0,022	0,116
-463,357	-88,647	0,054	0,012
-462,343	-77,179	-0,081	-0,021
-461,328	800,000	-0,071	-0,166
-460,313	-136,736	0,089	0,007
-459,299	800,000	0,041	0,096
-458,284	-200,000	-0,006	0,049
-457,270	-38,250	0,032	0,012
-456,255	-200,000	0,002	-0,050
-455,241	295,706	0,055	-0,075
-454,226	60,308	-0,077	-0,056
-453,211	-200,000	0,022	-0,073
-452,197	256,745	0,041	0,051
-451,182	740,361	0,049	0,098
-450,168	78,608	0,083	-0,065
-449,153	24,510	-0,099	0,060
-448,138	108,137	-0,053	0,047
-447,124	47,433	-0,053	-0,036
-446,109	148,720	-0,093	-0,092
-445,095	-200,000	0,017	0,058
-444,080	-200,000	-0,007	0,070
-443,065	800,000	-0,029	0,069
-442,051	-55,352	0,103	0,034
-441,036	-116,311	-0,099	0,013
-440,022	-79,283	0,094	-0,023
-439,007	800,000	0,045	0,139
-437,992	-153,946	0,068	-0,003
-436,978	188,118	0,044	0,049
-435,963	303,708	0,033	-0,045
-434,949	-81,275	-0,098	0,023
-433,934	-177,453	-0,079	0,001
-432,919	800,000	-0,074	0,169
-431,905	78,714	-0,050	-0,039
-430,890	800,000	-0,027	-0,061
-429,876	-26,684	0,059	0,025
-428,861	178,429	-0,092	0,099
-427,846	800,000	0,002	0,005
-426,832	21,433	-0,116	-0,069
-425,817	-6,675	0,131	-0,065
-424,803	800,000	-0,058	-0,136
-423,788	-13,273	0,129	-0,061
-422,773	239,837	0,025	-0,030
-421,759	135,145	0,085	0,081
-420,744	239,265	-0,037	-0,045
-419,730	-40,919	-0,096	-0,036
-418,715	-200,000	-0,001	-0,122
-417,701	-200,000	0,014	0,142
-416,686	-200,000	-0,009	0,123
-415,671	800,000	-0,033	0,105
-414,657	-200,000	-0,014	0,159
-413,642	-200,000	-0,018	0,109
-412,628	71,726	-0,110	-0,083
-411,613	246,918	0,036	-0,044
-410,598	-69,559	0,038	0,010
-409,584	108,196	-0,029	-0,025
-408,569	-175,678	0,095	0,002
-407,555	-200,000	0,007	0,086
-406,540	194,808	-0,071	-0,079
-405,525	-71,164	0,038	-0,010
-404,511	-109,827	-0,088	0,013
-403,496	33,128	0,071	-0,045
-402,482	-108,697	-0,060	0,009
-401,467	-200,000	0,002	0,118
-400,452	-200,000	0,014	0,099
-399,438	673,925	0,043	-0,081
-398,423	-34,347	-0,126	-0,050
-397,409	82,145	0,145	0,115
-396,394	-165,253	-0,058	0,002
-395,379	800,000	0,033	-0,067
-394,365	-121,876	0,108	-0,013
-393,350	-200,000	0,001	-0,041
-392,336	800,000	-0,018	-0,044
-391,321	-200,000	-0,017	-0,113
-390,306	297,732	0,033	-0,044
-389,292	-200,000	-0,014	-0,057
-388,277	800,000	0,064	-0,147
-387,263	800,000	0,041	0,116
-386,248	355,017	0,082	0,120
-385,233	-200,000	-0,033	0,109
-384,219	98,006	-0,071	0,060
-383,204	-102,830	-0,068	0,012
-382,190	-26,733	0,116	-0,049
-381,175	-200,000	0,026	-0,094
-380,160	800,000	0,070	0,206
-379,146	800,000	-0,047	0,101
-378,131	152,276	0,022	0,022
-377,117	393,560	-0,027	0,042
-376,102	-5,768	-0,069	-0,035
-375,088	1,366	-0,088	-0,046
-374,073	-200,000	0,024	-0,141
-373,058	347,122	0,020	0,028
-372,044	65,294	0,038	0,028
-371,029	800,000	0,007	0,015
-370,015	-137,812	0,064	0,005
-369,000	-32,436	-0,072	0,029
-367,985	113,093	0,045	-0,040
-366,971	40,788	0,074	-0,048
-365,956	-23,267	0,127	-0,056
-364,942	177,161	0,087	0,093
-363,927	-179,393	-0,096	-0,002
-362,912	-200,000	0,011	0,117
-361,898	800,000	0,026	0,061
-360,883	175,804	0,085	0,091
-359,869	107,884	0,053	-0,046
-358,854	247,567	0,062	0,077
-357,839	225,209	0,062	-0,074
-356,825	-23,798	-0,043	0,019
-355,810	2,903	-0,069	-0,037
-354,796	10,492	0,136	0,075
-353,781	28,744	0,104	-0,064
-352,766	92,568	-0,066	-0,054
-351,752	34,231	0,040	0,026
-350,737	800,000	0,034	0,105
-349,723	135,165	0,035	-0,033
-348,708	-52,766	0,081	0,027
-347,693	-22,073	-0,169	0,075
-346,679	486,436	-0,045	0,075
-345,664	-16,985	-0,079	0,036
-344,650	290,407	0,105	0,139
-343,635	27,149	0,042	0,026
-342,620	-200,000	0,159	0,000
-341,606	-92,416	0,068	0,014
-340,591	-200,000	-0,021	0,120
-339,577	-144,264	-0,060	-0,004
-338,562	-200,000	0,012	-0,052
-337,548	114,749	-0,081	-0,072
-336,533	-110,933	0,041	0,006
-335,518	-174,425	-0,026	0,001
-334,504	-144,792	-0,106	-0,007
-333,489	-200,000	-0,010	0,073
-332,475	-150,173	0,149	0,008
-331,460	800,000	-0,039	-0,090
-330,445	231,290	-0,097	-0,117
-329,431	800,000	0,024	0,062
-328,416	-137,913	-0,046	0,004
-327,402	116,311	0,078	0,070
-326,387	88,029	-0,074	0,060
-325,372	600,724	-0,059	-0,108
-324,358	74,550	-0,048	-0,037
-323,343	800,000	0,059	0,122
-322,329	-200,000	0,013	-0,116
-321,314	-200,000	0,048	-0,158
-320,299	-139,700	0,039	0,003
-319,285	-127,961	0,043	-0,004
-318,270	800,000	0,052	-0,166
-317,256	-200,000	0,011	-0,154
-316,241	-27,861	0,185	-0,078
-315,226	97,515	-0,086	-0,072
-314,212	800,000	0,061	0,125
-313,197	-200,000	-0,030	0,139
-312,183	443,382	-0,047	-0,076
-311,168	72,636	0,050	0,038
-310,153	-200,000	0,014	-0,094
-309,139	417,381	-0,024	-0,038
-308,124	-93,518	0,094	-0,019
-307,110	427,006	0,083	0,131
-306,095	800,000	0,050	0,130
-305,080	55,689	-0,013	-0,009
-304,066	-79,998	-0,137	-0,033
-303,051	-3,242	0,039	-0,020
-302,037	-140,458	-0,027	0,002
-301,022	-101,753	0,106	-0,018
-300,008	15,853	0,091	0,052
-298,993	-200,000	-0,001	0,021
-297,978	20,704	0,068	0,040
-296,964	-139,968	-0,053	-0,004
-295,949	628,500	-0,048	-0,088
-294,935	-127,620	-0,168	-0,017
-293,920	164,446	0,116	-0,119
-292,905	-174,678	0,101	0,002
-291,891	-54,702	-0,093	-0,030
-290,876	-9,992	0,080	-0,039
-289,862	-200,000	-0,012	0,044
-288,847	-149,967	-0,212	0,012
-287,832	-200,000	-0,011	0,157
-286,818	-200,000	-0,031	-0,113
-285,803	160,592	-0,047	0,048
-284,789	-200,000	0,012	0,113
-283,774	-108,563	0,075	-0,012
-282,759	-200,000	0,007	0,128
-281,745	800,000	-0,034	0,073
-280,730	-24,222	-0,069	-0,030
-279,716	107,838	-0,117	0,102
-278,701	564,009	0,033	0,059
-277,686	-200,000	0,004	-0,052
-276,672	558,648	-0,033	-0,058
-275,657	-200,000	0,016	-0,104
-274,643	-200,000	-0,026	0,150
-273,628	711,843	-0,026	0,051
-272,613	486,660	0,040	0,066
-271,599	652,522	0,050	-0,093
-270,584	89,545	0,087	0,071
-269,570	-150,209	0,084	0,005
-268,555	65,616	0,036	0,027
-267,540	53,391	-0,053	-0,037
-266,526	-10,682	-0,076	0,036
-265,511	346,803	-0,056	0,081
-264,497	22,918	0,140	0,084
-263,482	-169,146	-0,102	-0,003
-262,467	-47,786	0,071	-0,025
-261,453	253,772	-0,100	-0,125
-260,438	-83,110	-0,131	-0,030
-259,424	-200,000	-0,009	-0,134
-258,409	-2,112	-0,112	-0,057
-257,395	358,538	0,033	0,048
-256,380	-65,027	0,130	-0,038
-255,365	27,060	-0,092	0,056
-254,351	39,208	0,078	0,050
-253,336	59,124	-0,149	-0,106
-252,322	-95,831	-0,008	0,002
-251,307	580,079	-0,014	-0,026
-250,292	800,000	0,040	0,084
-249,278	715,168	0,063	0,122
-248,263	-200,000	0,006	0,083
-247,249	-104,445	-0,178	-0,030
-246,234	599,596	-0,022	-0,041
-245,219	-48,131	-0,115	0,040
-244,205	-200,000	0,014	-0,056
-243,190	800,000	-0,020	-0,064
-242,176	800,000	0,010	0,030
-241,161	60,499	0,098	0,070
-240,146	40,807	0,045	-0,029
-239,132	126,438	0,059	0,054
-238,117	-200,000	-0,013	-0,053
-237,103	-86,144	-0,075	0,017
-236,088	-131,918	0,083	0,008
-235,073	686,701	-0,080	-0,153
-234,059	138,905	0,060	0,057
-233,044	-200,000	-0,003	-0,030
-232,030	-39,502	0,132	0,050
-231,015	-200,000	-0,019	0,119
-230,000	39,808	-0,057	-0,037
-228,986	475,285	-0,036	-0,060
-227,971	-200,000	-0,003	0,052
-226,957	-200,000	-0,012	0,112
-225,942	800,000	-0,018	0,057
-224,927	95,815	0,015	-0,013
-223,913	267,034	-0,107	0,137
-222,898	800,000	0,027	-0,055
-221,884	-54,752	0,043	-0,014
-220,869	96,873	0,046	0,038
-219,855	240,438	-0,053	0,064
-218,840	-82,294	0,072	-0,017
-217,825	501,993	-0,044	0,075
-216,811	459,023	0,067	-0,108
-215,796	47,221	-0,077	-0,052
-214,782	-69,943	-0,052	-0,014
-213,767	435,542	0,023	-0,037
-212,752	-200,000	-0,037	0,151
-211,738	-15,679	0,037	0,017
-210,723	83,025	0,068	-0,054
-209,709	-200,000	-0,007	-0,132
-208,694	-200,000	0,018	0,113
-207,679	-47,616	-0,031	0,011
-206,665	-200,000	0,008	0,042
-205,650	71,932	0,101	0,076
-204,636	261,443	-0,060	0,076
-203,621	800,000	-0,006	0,016
-202,606	-200,000	0,011	-0,130
-201,592	44,332	0,061	0,041
-200,577	-13,551	0,097	-0,046
-199,563	-66,287	-0,105	0,030
-198,548	-18,020	0,109	0,049
-197,533	800,000	0,048	0,098
-196,519	111,962	0,083	0,073
-195,504	63,023	0,085	0,061
-194,490	800,000	-0,055	-0,140
-193,475	257,690	0,037	0,047
-192,460	-6,633	-0,118	-0,058
-191,446	376,434	0,069	0,102
-190,431	151,050	0,161	0,159
-189,417	-35,232	-0,094	-0,037
-188,402	-115,004	0,077	0,010
-187,387	128,133	0,063	-0,058
-186,373	-200,000	-0,029	-0,124
-185,358	-144,264	-0,207	0,014
-184,344	-200,000	-0,007	0,169
-183,329	-40,073	0,137	0,051
-182,315	330,002	0,037	-0,052
-181,300	-200,000	-0,011	0,040
-180,285	-87,459	-0,038	0,008
-179,271	-183,762	0,143	0,002
-178,256	170,690	-0,129	0,135
-177,242	129,848	0,150	0,140
-176,227	-90,300	-0,083	0,017
-175,212	188,079	-0,076	-0,082
-174,198	247,337	0,124	0,153
-173,183	129,282	0,037	-0,034
-172,169	-200,000	-0,021	-0,093
-171,154	-200,000	0,016	-0,086
-170,139	-66,218	0,026	-0,008
-169,125	-200,000	0,023	0,077
-168,110	800,000	0,022	-0,056
-167,096	34,492	0,046	-0,029
-166,081	28,459	0,019	0,011
-165,066	-200,000	-0,003	-0,066
-164,052	800,000	-0,015	-0,046
-163,037	66,510	0,129	-0,095
-162,023	800,000	-0,061	0,128
-161,008	174,021	0,068	0,071
-159,993	-180,132	0,080	-0,001
-158,979	-8,478	-0,075	-0,037
-157,964	-200,000	0,013	-0,068
-156,950	341,384	0,134	-0,191
-155,935	-141,560	0,068	-0,005
-154,920	800,000	-0,026	-0,068
-153,906	261,587	0,080	0,100
-152,891	342,504	0,066	0,094
-151,877	56,728	0,048	-0,034
-150,862	-35,371	-0,021	-0,008
-149,847	-9,826	-0,079	0,038
-148,833	314,813	-0,042	0,058
-147,818	284,286	0,094	0,123
-146,804	-200,000	0,013	0,071
-145,789	-200,000	-0,011	-0,065
-144,775	-200,000	-0,001	-0,099
-143,760	-37,008	0,085	-0,033
-142,745	696,707	-0,021	-0,040
-141,731	-200,000	0,003	-0,057
-140,716	-200,000	0,015	-0,079
-139,702	-200,000	-0,019	0,107
-138,687	238,626	-0,055	0,066
-137,672	-200,000	-0,010	0,094
-136,658	-131,505	0,106	-0,010
-135,643	-153,395	0,109	-0,005
-134,629	-200,000	0,005	0,048
-133,614	800,000	-0,032	0,077
-132,599	800,000	-0,044	0,113
-131,585	352,442	-0,058	0,084
-130,570	-200,000	-0,014	0,194
-129,556	-200,000	0,003	0,050
-128,541	800,000	0,031	-0,075
-127,526	290,757	0,040	-0,053
-126,512	-47,482	0,154	-0,054
-125,497	800,000	-0,003	0,006
-124,483	-200,000	-0,022	0,127
-123,468	222,641	-0,037	0,043
-122,453	17,116	-0,107	-0,061
-121,439	201,167	0,071	-0,079
-120,424	326,868	-0,076	-0,105
