DTS Sentinel unit serial number:	SN410029Multiplexer serial number:	ORYXHardware model number:	OX2-SRSoftware version number:	ORYX F/W v4,00 Oryx Data Collector v3.7.2.0data status	okinstallation	B6 Nyhavnadifferential loss correction	single-endedforward channel	channel 2reverse channel	N/Adate	2023/12/08time	11:00:08forward acquisition time	300,00reverse acquisition time	0,00gamma	499,1914k internal	0,3162k external	0,3162temperature offset calibration	1,0000default loss term (dB/km)	0,3820temperature slope calibration	1,0000multiplexer offset coefficient	1,0000multiplexer slope coefficient	1,0000fibre end	0,00T internal ref (°C)	14,76T ext. ref 1 (°C)	-1,36T ext. ref 2 (°C)	-1,33length (m)	temperature (°C)	Stokes	anti-Stokes-744,400	198,307	0,138	0,156
-743,385	-89,571	-0,357	-0,076
-742,371	42,385	0,153	0,102
-741,356	-68,333	-0,192	0,054
-740,342	-200,000	-0,033	0,140
-739,327	-89,959	-0,293	0,062
-738,312	211,147	0,068	0,079
-737,298	-68,905	-0,316	-0,089
-736,283	69,159	0,174	0,131
-735,269	-120,007	-0,379	-0,047
-734,254	3,403	0,069	0,037
-733,239	4,577	-0,638	-0,344
-732,225	145,687	0,044	0,044
-731,210	-200,000	0,030	0,142
-730,196	-200,000	-0,003	-0,029
-729,181	178,342	-0,070	-0,075
-728,167	-133,197	-0,055	0,005
-727,152	800,000	-0,056	0,125
-726,137	108,075	-0,077	-0,068
-725,123	123,637	-0,102	-0,094
-724,108	-45,335	-0,138	0,050
-723,094	800,000	-0,040	0,093
-722,079	20,367	-0,103	-0,061
-721,064	225,005	-0,052	-0,061
-720,050	-135,677	0,041	0,004
-719,035	-60,469	-0,129	0,040
-718,021	-19,563	-0,093	0,042
-717,006	-200,000	-0,025	0,091
-715,991	-200,000	0,005	0,088
-714,977	251,303	-0,090	-0,113
-713,962	800,000	-0,018	-0,049
-712,948	-4,977	0,044	-0,022
-711,933	191,672	0,043	0,048
-710,918	317,608	-0,024	0,034
-709,904	-53,711	-0,146	-0,049
-708,889	-135,243	-0,098	-0,009
-707,875	-10,236	0,077	-0,037
-706,860	210,715	0,119	0,138
-705,845	-73,645	-0,076	0,020
-704,831	-71,299	0,097	0,027
-703,816	-28,805	0,064	-0,027
-702,802	-200,000	0,005	-0,077
-701,787	-200,000	0,002	-0,055
-700,772	-200,000	0,002	-0,175
-699,758	-200,000	-0,005	-0,072
-698,743	-6,830	0,196	0,098
-697,729	39,233	0,044	-0,029
-696,714	631,581	-0,033	-0,061
-695,699	415,587	0,042	-0,066
-694,685	-200,000	-0,023	-0,094
-693,670	-200,000	0,021	-0,226
-692,656	800,000	0,034	-0,086
-691,641	-200,000	-0,052	0,000
-690,627	-61,457	0,099	-0,030
-689,612	-3,272	-0,081	0,042
-688,597	800,000	-0,022	-0,047
-687,583	244,708	-0,083	-0,103
-686,568	631,613	-0,025	-0,047
-685,554	-147,294	-0,087	0,005
-684,539	53,100	-0,089	-0,062
-683,524	7,830	0,045	-0,025
-682,510	800,000	0,039	0,102
-681,495	72,221	0,060	-0,046
-680,481	-200,000	-0,002	-0,042
-679,466	366,010	-0,073	-0,108
-678,451	-17,878	0,091	-0,042
-677,437	-12,751	0,027	0,013
-676,422	84,897	-0,076	0,062
-675,408	156,877	-0,054	0,055
-674,393	-200,000	-0,006	-0,140
-673,378	-200,000	0,010	-0,090
-672,364	-179,755	-0,079	-0,001
-671,349	-200,000	-0,018	0,112
-670,335	391,190	0,082	0,126
-669,320	340,512	0,055	0,079
-668,305	-200,000	0,043	0,151
-667,291	160,903	0,070	-0,072
-666,276	697,189	-0,044	-0,086
-665,262	-200,000	0,005	-0,041
-664,247	-200,000	-0,010	-0,042
-663,232	159,338	-0,073	0,075
-662,218	15,401	-0,126	0,072
-661,203	0,616	0,077	0,040
-660,189	579,444	-0,039	-0,070
-659,174	-200,000	0,027	-0,112
-658,159	-200,000	-0,076	0,000
-657,145	50,700	-0,044	0,031
-656,130	800,000	0,060	-0,145
-655,116	217,690	-0,105	0,123
-654,101	-200,000	0,009	0,060
-653,086	-45,250	-0,121	0,044
-652,072	-128,145	0,029	0,003
-651,057	-105,857	0,106	-0,017
-650,043	38,386	0,024	-0,016
-649,028	-70,584	0,102	0,028
-648,014	-200,000	-0,022	-0,074
-646,999	129,539	-0,142	0,133
-645,984	-117,883	-0,048	-0,006
-644,970	160,614	-0,113	0,116
-643,955	644,815	0,114	-0,215
-642,941	-200,000	0,032	-0,115
-641,926	-200,000	-0,013	-0,074
-640,911	-200,000	0,008	0,101
-639,897	800,000	-0,038	0,095
-638,882	157,047	-0,055	-0,055
-637,868	-18,659	-0,097	0,044
-636,853	-200,000	-0,007	-0,072
-635,838	-10,899	-0,095	-0,046
-634,824	-159,794	-0,091	-0,004
-633,809	-200,000	-0,002	0,069
-632,795	800,000	-0,034	0,083
-631,780	-56,019	0,040	0,013
-630,765	23,252	-0,080	-0,048
-629,751	800,000	0,023	-0,064
-628,736	-200,000	0,021	0,129
-627,722	-80,993	-0,045	-0,011
-626,707	-84,995	0,172	0,039
-625,692	-88,719	-0,123	0,027
-624,678	-153,414	0,087	-0,004
-623,663	800,000	0,101	-0,217
-622,649	433,028	-0,044	-0,071
-621,634	170,603	0,102	-0,107
-620,619	-97,569	-0,169	-0,032
-619,605	-200,000	-0,026	0,148
-618,590	307,405	0,078	0,106
-617,576	-200,000	-0,000	-0,087
-616,561	-200,000	0,004	-0,052
-615,546	-153,227	0,086	-0,004
-614,532	-169,357	-0,075	-0,002
-613,517	-64,018	-0,018	-0,005
-612,503	-10,593	-0,116	-0,056
-611,488	-200,000	0,015	0,134
-610,474	186,796	0,059	-0,064
-609,459	74,992	-0,009	-0,007
-608,444	-187,534	-0,156	0,001
-607,430	1,742	-0,098	-0,051
-606,415	307,321	-0,092	-0,125
-605,401	800,000	0,021	0,065
-604,386	228,625	0,082	0,098
-603,371	800,000	-0,021	-0,045
-602,357	800,000	-0,042	-0,103
-601,342	178,742	-0,024	-0,026
-600,328	-29,058	-0,086	-0,036
-599,313	-200,000	-0,022	-0,099
-598,298	-200,000	-0,008	-0,058
-597,284	109,001	-0,043	-0,038
-596,269	-200,000	-0,008	0,053
-595,255	-150,532	-0,046	0,003
-594,240	-61,524	0,083	0,025
-593,225	158,440	-0,048	0,049
-592,211	60,789	-0,106	-0,077
-591,196	167,134	-0,086	-0,089
-590,182	113,335	0,131	0,116
-589,167	-0,964	0,036	-0,019
-588,152	-67,191	0,045	0,013
-587,138	800,000	-0,051	-0,109
-586,123	419,093	-0,067	-0,105
-585,109	-200,000	0,022	-0,075
-584,094	53,541	0,150	0,105
-583,079	686,229	0,071	0,137
-582,065	800,000	0,003	0,009
-581,050	208,576	0,065	0,075
-580,036	276,569	-0,070	-0,092
-579,021	388,746	-0,092	0,140
-578,006	-132,387	0,102	-0,010
-576,992	-200,000	-0,015	0,119
-575,977	-200,000	-0,009	0,055
-574,963	352,282	0,071	0,103
-573,948	-69,186	0,062	0,017
-572,934	-19,199	0,081	0,036
-571,919	-63,750	-0,098	0,029
-570,904	503,101	-0,047	-0,079
-569,890	-123,542	0,063	-0,007
-568,875	-32,945	-0,024	-0,010
-567,861	-66,480	0,067	-0,019
-566,846	13,468	0,111	0,063
-565,831	-50,556	-0,206	0,070
-564,817	-200,000	0,023	-0,096
-563,802	459,115	0,050	-0,081
-562,788	-200,000	-0,026	0,244
-561,773	-200,000	0,000	0,003
-560,758	-21,660	0,078	-0,035
-559,744	-22,157	0,072	0,032
-558,729	146,571	-0,029	0,028
-557,715	294,723	-0,013	-0,017
-556,700	-24,083	-0,016	-0,007
-555,685	219,061	0,024	0,029
-554,671	-30,395	-0,071	0,029
-553,656	-101,525	-0,038	-0,007
-552,642	274,971	0,066	0,085
-551,627	80,235	0,044	0,035
-550,612	82,099	-0,026	-0,021
-549,598	-200,000	-0,039	-0,170
-548,583	800,000	0,041	-0,121
-547,569	-200,000	-0,011	-0,091
-546,554	-200,000	-0,019	0,071
-545,539	-200,000	-0,006	0,084
-544,525	293,505	0,088	0,118
-543,510	222,385	0,076	-0,089
-542,496	-200,000	0,046	-0,178
-541,481	170,368	0,051	-0,054
-540,466	-147,776	-0,080	0,005
-539,452	-200,000	0,003	-0,090
-538,437	-55,328	-0,095	0,031
-537,423	800,000	0,044	-0,106
-536,408	-1,265	-0,137	0,070
-535,393	-47,409	-0,101	0,036
-534,379	800,000	0,027	-0,056
-533,364	746,153	-0,043	-0,084
-532,350	143,503	-0,153	-0,148
-531,335	28,627	0,220	-0,136
-530,321	420,164	0,032	-0,050
-529,306	-200,000	-0,007	-0,109
-528,291	-12,629	-0,069	-0,033
-527,277	-64,362	-0,103	0,031
-526,262	139,251	-0,062	0,060
-525,248	211,717	-0,078	-0,090
-524,233	0,327	0,113	0,059
-523,218	-181,179	0,140	-0,002
-522,204	-13,184	-0,166	0,079
-521,189	57,496	-0,105	-0,075
-520,175	-200,000	0,009	-0,105
-519,160	553,826	0,007	-0,013
-518,145	-16,880	0,058	0,026
-517,131	800,000	-0,027	0,085
-516,116	-134,616	0,189	-0,017
-515,102	353,931	-0,091	-0,132
-514,087	109,676	0,055	-0,049
-513,072	-128,755	-0,105	-0,011
-512,058	49,933	-0,063	-0,043
-511,043	-133,643	-0,131	-0,012
-510,029	-74,358	0,172	0,045
-509,014	800,000	0,029	-0,078
-507,999	-6,324	0,125	-0,062
-506,985	-64,062	-0,126	0,037
-505,970	-49,193	-0,034	0,012
-504,956	-200,000	0,008	-0,092
-503,941	-13,634	-0,055	0,026
-502,926	196,500	0,059	-0,065
-501,912	53,356	-0,081	-0,057
-500,897	800,000	0,026	-0,055
-499,883	343,801	-0,024	-0,035
-498,868	-200,000	-0,021	-0,083
-497,853	718,987	-0,017	-0,034
-496,839	27,340	-0,077	-0,047
-495,824	-61,725	0,062	0,019
-494,810	-200,000	-0,009	0,083
-493,795	-200,000	-0,013	-0,079
-492,781	-95,761	-0,150	-0,029
-491,766	-68,919	0,094	-0,026
-490,751	-64,886	0,057	-0,017
-489,737	-200,000	-0,003	-0,098
-488,722	-66,869	-0,063	0,018
-487,708	129,716	0,072	0,067
-486,693	-105,538	-0,054	0,009
-485,678	-200,000	0,007	-0,065
-484,664	-200,000	-0,071	-0,000
-483,649	151,299	-0,106	-0,106
-482,635	7,793	0,096	0,052
-481,620	289,411	-0,059	-0,078
-480,605	-105,281	0,098	0,016
-479,591	800,000	0,029	0,069
-478,576	800,000	0,053	-0,107
-477,562	-145,598	-0,040	0,003
-476,547	-80,122	-0,094	-0,023
-475,532	6,294	0,063	-0,034
-474,518	319,630	-0,019	-0,027
-473,503	270,392	0,066	-0,085
-472,489	642,054	-0,010	-0,018
-471,474	-200,000	0,014	-0,168
-470,459	60,302	-0,140	-0,101
-469,445	94,772	-0,071	-0,059
-468,430	-103,230	0,125	0,021
-467,416	800,000	-0,072	0,156
-466,401	47,541	0,094	0,064
-465,386	81,591	0,077	-0,061
-464,372	-95,275	0,048	-0,009
-463,357	-73,219	-0,207	-0,055
-462,343	-200,000	-0,007	-0,157
-461,328	800,000	-0,039	-0,105
-460,313	-200,000	-0,057	0,233
-459,299	201,584	0,066	-0,074
-458,284	-200,000	0,013	-0,084
-457,270	-200,000	0,004	0,034
-456,255	-200,000	0,022	-0,101
-455,241	-200,000	-0,008	-0,104
-454,226	800,000	-0,028	-0,079
-453,211	-200,000	0,031	0,106
-452,197	-200,000	0,026	-0,124
-451,182	446,444	-0,036	-0,058
-450,168	-52,622	0,032	-0,011
-449,153	236,274	-0,103	-0,124
-448,138	359,608	-0,071	0,103
-447,124	-111,337	0,081	0,012
-446,109	-91,143	0,070	-0,014
-445,095	32,493	0,197	0,124
-444,080	800,000	0,023	0,056
-443,065	111,497	0,059	-0,052
-442,051	336,461	0,039	-0,056
-441,036	-68,861	0,017	-0,005
-440,022	476,853	-0,033	0,055
-439,007	66,584	0,042	-0,031
-437,992	-200,000	-0,018	0,124
-436,978	212,903	0,031	-0,035
-435,963	-200,000	-0,013	0,077
-434,949	-120,510	-0,037	-0,005
-433,934	602,260	-0,032	0,058
-432,919	-200,000	-0,014	-0,059
-431,905	-200,000	0,011	-0,044
-430,890	-83,436	0,127	0,029
-429,876	-23,893	0,068	0,029
-428,861	-200,000	0,003	0,091
-427,846	-126,473	0,209	0,022
-426,832	37,388	-0,068	-0,044
-425,817	-53,119	-0,116	0,039
-424,803	93,305	0,105	-0,087
-423,788	-85,164	0,101	-0,023
-422,773	601,667	-0,006	-0,011
-421,759	-121,099	0,061	0,007
-420,744	-117,930	-0,123	0,016
-419,730	467,139	0,092	0,151
-418,715	-48,044	-0,012	-0,004
-417,701	-25,559	0,103	0,044
-416,686	-83,088	0,027	0,006
-415,671	-200,000	-0,007	-0,045
-414,657	130,001	0,109	0,101
-413,642	58,099	0,087	0,062
-412,628	128,757	0,096	-0,089
-411,613	-200,000	0,002	0,075
-410,598	-200,000	0,004	-0,112
-409,584	-14,343	0,096	0,045
-408,569	-200,000	-0,007	-0,034
-407,555	-172,960	0,041	-0,001
-406,540	110,246	0,033	0,029
-405,525	-60,974	-0,068	-0,021
-404,511	-200,000	-0,001	0,007
-403,496	53,427	0,010	0,007
-402,482	-166,879	-0,086	-0,003
-401,467	-78,521	0,197	0,049
-400,452	751,175	-0,027	-0,054
-399,438	186,356	-0,048	-0,052
-398,423	-158,235	0,028	0,001
-397,409	-65,930	0,080	-0,023
-396,394	-9,003	-0,130	0,063
-395,379	-200,000	0,002	0,078
-394,365	-75,379	0,148	0,038
-393,350	353,739	0,057	-0,083
-392,336	-200,000	0,012	0,161
-391,321	-200,000	-0,001	0,011
-390,306	800,000	-0,038	-0,111
-389,292	169,331	-0,087	-0,090
-388,277	-200,000	0,020	0,068
-387,263	-72,236	0,120	0,032
-386,248	-200,000	-0,000	0,048
-385,233	94,089	-0,066	-0,055
-384,219	-87,397	0,059	-0,013
-383,204	467,864	-0,057	-0,094
-382,190	16,608	-0,038	-0,022
-381,175	-200,000	0,003	-0,118
-380,160	35,732	-0,055	-0,035
-379,146	-200,000	-0,003	0,100
-378,131	800,000	0,077	0,158
-377,117	-17,117	-0,187	-0,085
-376,102	-200,000	0,025	-0,083
-375,088	-98,385	0,060	0,011
-374,073	54,693	-0,102	0,071
-373,058	-200,000	-0,002	0,033
-372,044	-119,674	0,048	0,006
-371,029	-200,000	0,023	0,077
-370,015	-200,000	0,027	0,201
-369,000	-77,426	0,036	-0,009
-367,985	-147,494	-0,180	0,011
-366,971	292,366	-0,033	0,043
-365,956	-157,478	0,020	0,001
-364,942	-200,000	-0,012	0,116
-363,927	800,000	-0,022	-0,057
-362,912	-200,000	0,003	0,060
-361,898	128,888	0,050	-0,046
-360,883	131,960	0,044	-0,041
-359,869	36,885	-0,051	0,033
-358,854	800,000	0,065	0,136
-357,839	209,420	-0,101	-0,115
-356,825	514,361	0,044	-0,074
-355,810	800,000	-0,039	0,087
-354,796	-172,525	0,093	-0,002
-353,781	800,000	0,044	-0,111
-352,766	65,123	-0,061	-0,044
-351,752	-43,175	-0,038	0,014
-350,737	-168,431	0,140	-0,004
-349,723	381,508	0,020	0,030
-348,708	139,747	0,101	0,096
-347,693	-191,862	0,105	0,001
-346,679	355,149	-0,019	0,028
-345,664	-57,344	-0,100	0,032
-344,650	-159,106	-0,077	0,003
-343,635	150,659	-0,117	0,116
-342,620	39,295	-0,085	-0,055
-341,606	-103,729	0,134	0,023
-340,591	-200,000	0,002	-0,049
-339,577	305,858	-0,097	-0,131
-338,562	-129,348	-0,075	0,007
-337,548	-67,488	-0,047	-0,013
-336,533	-62,977	0,055	0,016
-335,518	-200,000	-0,009	0,047
-334,504	13,417	0,015	-0,008
-333,489	84,630	0,030	-0,024
-332,475	-45,382	-0,115	-0,041
-331,460	127,982	0,061	-0,056
-330,445	185,719	0,055	0,059
-329,431	-200,000	-0,003	-0,029
-328,416	79,533	0,113	0,088
-327,402	-200,000	-0,033	0,124
-326,387	800,000	0,020	0,041
-325,372	156,140	-0,063	-0,063
-324,358	-165,167	-0,111	-0,003
-323,343	122,209	-0,089	-0,080
-322,329	-18,967	0,106	0,048
-321,314	-105,275	0,131	0,021
-320,299	800,000	0,020	0,058
-319,285	-200,000	0,019	0,109
-318,270	-200,000	-0,000	0,130
-317,256	175,324	-0,076	0,079
-316,241	-69,019	0,029	0,008
-315,226	800,000	0,061	-0,161
-314,212	74,086	-0,019	-0,015
-313,197	-200,000	-0,003	0,085
-312,183	108,385	0,059	0,051
-311,168	-200,000	-0,000	0,044
-310,153	800,000	-0,038	-0,077
-309,139	-200,000	-0,051	0,182
-308,124	800,000	-0,012	-0,034
-307,110	-200,000	0,003	0,046
-306,095	-38,942	0,088	-0,034
-305,080	333,408	0,031	-0,043
-304,066	-200,000	-0,002	-0,012
-303,051	-200,000	-0,014	-0,104
-302,037	800,000	-0,021	0,052
-301,022	176,467	-0,054	0,057
-300,008	-117,435	-0,047	0,006
-298,993	-153,246	0,130	0,006
-297,978	-86,630	0,198	0,044
-296,964	-39,164	-0,007	0,003
-295,949	-4,407	-0,094	0,047
-294,935	800,000	0,019	-0,047
-293,920	-135,983	0,096	0,008
-292,905	-88,399	-0,094	-0,020
-291,891	-2,268	0,104	0,052
-290,876	227,379	0,093	0,110
-289,862	43,569	-0,138	-0,091
-288,847	-45,765	0,072	0,026
-287,832	-200,000	0,023	0,133
-286,818	800,000	0,031	-0,073
-285,803	-134,207	-0,062	0,005
-284,789	704,262	0,061	0,117
-283,774	720,002	-0,031	-0,059
-282,759	259,216	-0,034	-0,042
-281,745	-200,000	0,013	-0,058
-280,730	141,320	-0,075	0,072
-279,716	583,139	0,067	0,119
-278,701	-200,000	0,008	-0,025
-277,686	180,217	0,067	-0,071
-276,672	-86,612	-0,078	0,017
-275,657	800,000	-0,023	0,057
-274,643	-200,000	-0,020	-0,082
-273,628	-200,000	0,044	0,143
-272,613	44,502	0,055	-0,036
-271,599	676,164	0,028	-0,052
-270,584	800,000	0,019	0,049
-269,570	-148,385	0,075	-0,004
-268,555	800,000	-0,008	-0,024
-267,540	800,000	0,039	-0,111
-266,526	-200,000	0,004	-0,121
-265,511	-33,800	0,059	0,023
-264,497	-200,000	0,009	0,066
-263,482	-200,000	-0,011	0,147
-262,467	316,488	0,065	0,089
-261,453	-113,199	0,103	-0,015
-260,438	458,828	-0,047	0,077
-259,424	800,000	0,019	-0,046
-258,409	-37,493	0,116	0,045
-257,395	169,794	-0,027	-0,028
-256,380	-200,000	-0,032	0,138
-255,365	401,022	0,094	0,144
-254,351	397,619	-0,037	-0,056
-253,336	800,000	0,020	0,060
-252,322	800,000	0,052	-0,117
-251,307	-200,000	-0,012	0,083
-250,292	211,927	0,108	0,123
-249,278	-91,037	-0,052	0,011
-248,263	-200,000	0,017	0,075
-247,249	-96,247	0,056	-0,011
-246,234	90,083	0,051	0,041
-245,219	-200,000	-0,014	-0,103
-244,205	296,449	-0,033	-0,044
-243,190	16,096	-0,171	0,097
-242,176	-200,000	0,014	0,049
-241,161	-44,837	0,055	-0,020
-240,146	800,000	-0,041	-0,082
-239,132	-92,872	-0,142	0,028
-238,117	-73,232	0,144	-0,038
-237,103	-47,130	-0,066	-0,023
-236,088	-200,000	0,012	-0,106
-235,073	-200,000	-0,018	-0,062
-234,059	225,234	-0,096	0,113
-233,044	785,101	0,014	0,029
-232,030	-200,000	-0,003	0,143
-231,015	72,358	0,112	-0,084
-230,000	478,242	-0,024	-0,040
-228,986	800,000	-0,035	-0,092
-227,971	-200,000	-0,011	0,138
-226,957	640,881	0,042	0,077
-225,942	190,043	0,121	-0,131
-224,927	-200,000	-0,006	-0,067
-223,913	-40,415	-0,175	-0,065
-222,898	-200,000	-0,005	0,016
-221,884	-11,253	0,103	0,049
-220,869	-200,000	0,024	0,132
-219,855	800,000	0,015	-0,040
-218,840	485,429	0,052	-0,085
-217,825	216,361	-0,065	-0,075
-216,811	-44,118	-0,038	-0,014
-215,796	-40,533	0,095	-0,035
-214,782	324,234	0,028	-0,038
-213,767	-200,000	0,025	0,080
-212,752	-200,000	-0,010	0,110
-211,738	590,785	-0,045	0,081
-210,723	518,675	-0,062	0,104
-209,709	-131,615	-0,142	0,013
-208,694	54,521	0,089	-0,062
-207,679	352,998	-0,071	0,102
-206,665	198,365	-0,096	0,106
-205,650	-200,000	0,024	0,078
-204,636	169,849	-0,085	0,088
-203,621	-25,137	-0,134	0,057
-202,606	-69,136	-0,115	0,032
-201,592	597,813	0,064	-0,114
-200,577	173,625	0,074	-0,077
-199,563	800,000	0,015	0,034
-198,548	1,564	0,064	0,033
-197,533	12,707	0,042	0,023
-196,519	68,800	0,060	-0,045
-195,504	-147,727	0,109	-0,007
-194,490	-200,000	-0,005	-0,157
-193,475	377,900	0,031	0,045
-192,460	127,731	-0,094	0,086
-191,446	761,344	0,063	-0,123
-190,431	-106,194	-0,102	0,016
-189,417	69,818	-0,115	0,085
-188,402	775,121	0,043	0,085
-187,387	1,291	-0,112	-0,058
-186,373	108,962	-0,082	-0,071
-185,358	800,000	0,025	-0,066
-184,344	47,736	0,113	-0,076
-183,329	800,000	0,065	0,166
-182,315	5,063	0,040	-0,021
-181,300	-83,005	-0,066	-0,015
-180,285	-151,388	-0,113	-0,006
-179,271	76,115	-0,074	-0,057
-178,256	232,648	-0,126	0,149
-177,242	-132,486	-0,030	0,003
-176,227	-38,401	-0,115	-0,043
-175,212	480,956	0,057	0,094
-174,198	-95,155	-0,070	0,013
-173,183	-17,221	-0,097	-0,044
-172,169	216,381	-0,075	-0,086
-171,154	800,000	0,038	0,106
-170,139	-112,604	-0,155	-0,022
-169,125	-200,000	0,021	0,153
-168,110	800,000	0,036	0,089
-167,096	-200,000	0,044	0,152
-166,081	-200,000	0,017	0,074
-165,066	-200,000	-0,020	0,133
-164,052	487,749	0,057	0,094
-163,037	309,131	-0,027	-0,036
-162,023	462,067	-0,041	0,067
-161,008	169,643	0,061	-0,063
-159,993	129,345	0,060	0,055
-158,979	-146,228	0,033	-0,002
-157,964	163,057	-0,150	-0,152
-156,950	800,000	-0,036	-0,092
-155,935	-9,248	0,092	-0,044
-154,920	53,033	0,042	-0,029
-153,906	-200,000	-0,011	-0,056
-152,891	-200,000	-0,009	-0,074
-151,877	-81,724	0,041	-0,010
-150,862	-200,000	0,001	0,024
-149,847	800,000	-0,045	0,090
-148,833	-200,000	0,028	-0,146
-147,818	-200,000	-0,022	-0,090
-146,804	800,000	0,029	0,062
-145,789	97,465	0,108	0,089
-144,775	35,590	-0,043	-0,027
-143,760	550,044	0,037	-0,063
-142,745	13,267	-0,039	0,022
-141,731	40,104	0,069	0,045
-140,716	108,148	0,002	-0,002
-139,702	-87,236	-0,015	-0,003
-138,687	-59,355	0,033	0,010
-137,672	293,154	0,020	0,027
-136,658	800,000	0,021	-0,062
-135,643	800,000	-0,046	0,137
-134,629	-137,978	-0,126	-0,010
-133,614	117,577	-0,031	0,028
-132,599	-200,000	0,009	0,060
-131,585	508,954	0,095	0,159
-130,570	-101,467	0,086	0,015
-129,556	-200,000	-0,022	0,082
-128,541	79,503	-0,107	0,083
-127,526	800,000	-0,049	-0,112
-126,512	-200,000	0,020	-0,066
-125,497	607,740	-0,085	0,152
-124,483	227,633	-0,036	0,042
-123,468	-125,288	-0,052	0,006
-122,453	-99,151	-0,125	0,022
-121,439	-156,546	0,079	-0,003
-120,424	-200,000	-0,005	-0,068
