DTS Sentinel unit serial number:	SN410029Multiplexer serial number:	ORYXHardware model number:	OX2-SRSoftware version number:	ORYX F/W v4,00 Oryx Data Collector v3.7.2.0data status	okinstallation	B6 Nyhavnadifferential loss correction	single-endedforward channel	channel 2reverse channel	N/Adate	2023/12/08time	06:05:08forward acquisition time	300,00reverse acquisition time	0,00gamma	499,1914k internal	0,3165k external	0,3165temperature offset calibration	1,0000default loss term (dB/km)	0,3820temperature slope calibration	1,0000multiplexer offset coefficient	1,0000multiplexer slope coefficient	1,0000fibre end	0,00T internal ref (°C)	13,00T ext. ref 1 (°C)	-3,80T ext. ref 2 (°C)	-3,80length (m)	temperature (°C)	Stokes	anti-Stokes-744,400	-72,416	0,090	-0,024
-743,385	-132,947	-0,318	-0,029
-742,371	8,111	0,209	0,115
-741,356	-45,100	-0,241	0,088
-740,342	160,487	0,109	0,112
-739,327	11,164	-0,254	-0,142
-738,312	298,296	-0,023	0,031
-737,298	-78,770	-0,313	-0,078
-736,283	-9,862	0,100	0,049
-735,269	-122,166	-0,391	0,046
-734,254	-197,430	0,310	0,001
-733,239	-22,574	-0,458	-0,203
-732,225	17,600	0,143	0,083
-731,210	800,000	0,033	0,071
-730,196	-200,000	-0,002	0,058
-729,181	-20,650	-0,141	-0,063
-728,167	155,093	-0,097	-0,098
-727,152	113,532	0,075	0,067
-726,137	-200,000	-0,009	0,055
-725,123	-200,000	0,004	-0,043
-724,108	-200,000	-0,006	-0,146
-723,094	800,000	-0,036	-0,105
-722,079	365,322	0,010	-0,015
-721,064	71,629	0,042	-0,032
-720,050	22,629	-0,161	0,097
-719,035	-169,779	-0,182	-0,005
-718,021	141,925	-0,070	-0,068
-717,006	-200,000	0,010	-0,049
-715,991	-200,000	0,002	-0,061
-714,977	-200,000	0,004	0,017
-713,962	-60,700	-0,063	-0,020
-712,948	-144,956	0,087	0,006
-711,933	-200,000	-0,006	0,057
-710,918	-200,000	-0,009	-0,055
-709,904	-75,151	-0,178	-0,046
-708,889	-18,459	-0,118	-0,054
-707,875	-55,660	-0,076	-0,025
-706,860	-200,000	-0,010	0,040
-705,845	-22,758	-0,174	0,077
-704,831	-43,137	0,074	-0,027
-703,816	-200,000	0,016	0,135
-702,802	-200,000	0,014	-0,120
-701,787	-16,904	0,019	-0,009
-700,772	35,182	0,026	-0,017
-699,758	800,000	-0,045	-0,106
-698,743	-200,000	0,029	0,114
-697,729	25,911	-0,164	0,100
-696,714	12,099	0,096	-0,054
-695,699	-200,000	-0,017	-0,098
-694,685	-129,033	-0,102	-0,010
-693,670	244,528	-0,111	-0,137
-692,656	-5,004	-0,058	-0,029
-691,641	112,348	-0,030	-0,027
-690,627	-173,010	0,018	-0,000
-689,612	-200,000	0,010	-0,107
-688,597	-200,000	-0,062	-0,000
-687,583	-12,509	-0,242	-0,115
-686,568	-123,390	0,036	0,004
-685,554	72,140	0,092	-0,070
-684,539	-200,000	0,015	-0,114
-683,524	-13,431	0,037	-0,018
-682,510	-172,249	0,063	0,001
-681,495	-133,205	0,016	0,001
-680,481	-12,739	-0,014	-0,006
-679,466	-200,000	-0,009	-0,103
-678,451	-200,000	-0,026	-0,159
-677,437	800,000	0,011	0,033
-676,422	72,236	0,088	-0,067
-675,408	-200,000	-0,017	0,142
-674,393	-150,239	-0,081	-0,004
-673,378	-200,000	-0,002	-0,036
-672,364	5,939	-0,115	-0,062
-671,349	-200,000	0,024	-0,110
-670,335	-166,802	-0,217	-0,006
-669,320	5,149	0,099	0,053
-668,305	-1,377	0,160	-0,083
-667,291	-147,442	-0,107	-0,007
-666,276	83,136	-0,078	-0,062
-665,262	800,000	-0,046	-0,096
-664,247	25,540	-0,018	0,011
-663,232	153,068	0,053	-0,053
-662,218	-96,074	0,079	0,015
-661,203	-99,948	-0,033	-0,006
-660,189	-29,355	0,050	0,021
-659,174	65,290	0,125	0,092
-658,159	-91,813	-0,109	-0,022
-657,145	-53,653	-0,144	0,048
-656,130	-200,000	-0,002	0,025
-655,116	-180,786	-0,046	-0,001
-654,101	-200,000	-0,010	0,046
-653,086	162,463	0,020	0,020
-652,072	800,000	-0,034	0,095
-651,057	702,229	0,069	-0,135
-650,043	-200,000	0,018	-0,203
-649,028	-200,000	0,015	-0,130
-648,014	699,304	0,026	-0,050
-646,999	282,316	0,030	0,040
-645,984	-86,089	0,072	-0,016
-644,970	194,627	-0,112	-0,124
-643,955	800,000	-0,124	-0,258
-642,941	-200,000	0,001	-0,118
-641,926	800,000	0,014	-0,031
-640,911	-166,716	0,079	0,002
-639,897	183,787	-0,036	0,039
-638,882	127,589	0,038	-0,035
-637,868	114,464	-0,086	-0,077
-636,853	80,436	0,070	0,055
-635,838	-200,000	0,005	0,043
-634,824	432,607	0,108	-0,173
-633,809	614,179	0,017	-0,030
-632,795	-200,000	0,033	0,118
-631,780	760,757	-0,022	0,044
-630,765	-70,299	-0,071	-0,020
-629,751	415,158	0,038	-0,059
-628,736	146,041	-0,093	0,092
-627,722	362,267	0,118	-0,175
-626,707	91,488	-0,012	0,010
-625,692	-200,000	0,024	0,000
-624,678	-151,895	0,009	-0,000
-623,663	-200,000	0,000	-0,151
-622,649	-38,235	-0,068	-0,026
-621,634	21,446	-0,158	-0,094
-620,619	800,000	-0,046	-0,097
-619,605	284,339	-0,062	-0,082
-618,590	215,960	-0,064	-0,075
-617,576	800,000	-0,044	-0,099
-616,561	-88,586	-0,080	-0,017
-615,546	-200,000	0,024	-0,099
-614,532	46,427	0,006	-0,004
-613,517	-129,902	-0,068	-0,007
-612,503	316,097	0,078	0,109
-611,488	427,011	-0,010	-0,015
-610,474	-100,523	-0,110	-0,020
-609,459	-135,204	0,094	0,008
-608,444	800,000	0,017	-0,053
-607,430	132,323	-0,051	0,048
-606,415	727,877	0,013	-0,026
-605,401	153,548	-0,048	0,048
-604,386	-85,403	0,037	-0,008
-603,371	-40,721	-0,042	-0,016
-602,357	-9,810	0,142	0,069
-601,342	150,576	-0,087	-0,087
-600,328	-91,679	-0,021	0,004
-599,313	44,509	-0,081	-0,054
-598,298	258,422	-0,060	0,075
-597,284	197,510	-0,086	0,096
-596,269	505,201	0,030	0,051
-595,255	-14,267	0,052	0,024
-594,240	800,000	-0,052	-0,106
-593,225	506,647	-0,054	-0,091
-592,211	650,725	-0,106	-0,200
-591,196	-155,509	-0,053	-0,002
-590,182	141,198	0,049	0,048
-589,167	-200,000	0,045	-0,185
-588,152	800,000	-0,016	0,041
-587,138	11,513	0,085	0,048
-586,123	600,793	0,046	-0,083
-585,109	154,431	-0,036	-0,037
-584,094	-151,388	0,046	0,002
-583,079	800,000	0,028	0,068
-582,065	-139,070	0,203	-0,016
-581,050	-200,000	0,004	0,107
-580,036	219,133	-0,028	-0,033
-579,021	128,675	0,083	0,077
-578,006	-200,000	0,025	-0,131
-576,992	11,786	-0,070	-0,039
-575,977	-68,701	-0,092	-0,026
-574,963	-200,000	-0,012	0,113
-573,948	-74,084	0,149	0,039
-572,934	504,821	-0,069	0,118
-571,919	73,476	-0,053	-0,041
-570,904	-200,000	0,035	0,175
-569,890	467,947	0,052	-0,085
-568,875	-200,000	-0,011	-0,086
-567,861	726,321	0,077	0,150
-566,846	50,307	0,166	-0,115
-565,831	-97,598	0,164	0,031
-564,817	258,520	0,022	-0,028
-563,802	119,216	-0,103	0,093
-562,788	-11,793	0,178	0,085
-561,773	-200,000	-0,006	-0,053
-560,758	-200,000	-0,003	-0,075
-559,744	-74,793	0,088	0,023
-558,729	-196,291	0,052	0,000
-557,715	699,888	-0,053	0,103
-556,700	760,516	0,041	-0,082
-555,685	305,115	-0,059	-0,080
-554,671	-49,593	0,111	-0,038
-553,656	186,297	0,023	-0,025
-552,642	205,196	-0,103	0,117
-551,627	-2,734	0,031	-0,016
-550,612	-84,675	0,041	-0,009
-549,598	-131,128	-0,169	-0,016
-548,583	76,228	0,142	0,109
-547,569	-115,851	-0,107	-0,014
-546,554	-53,219	0,126	-0,042
-545,539	-200,000	-0,006	0,057
-544,525	68,279	0,053	0,040
-543,510	800,000	-0,023	0,050
-542,496	-200,000	0,006	-0,081
-541,481	800,000	0,051	-0,128
-540,466	-200,000	0,000	-0,021
-539,452	800,000	0,030	0,082
-538,437	453,271	0,006	0,010
-537,423	-200,000	0,013	-0,189
-536,408	-109,021	-0,084	0,013
-535,393	59,225	0,132	-0,095
-534,379	-200,000	-0,013	-0,059
-533,364	218,868	0,091	-0,107
-532,350	17,453	-0,025	0,015
-531,335	310,159	0,078	-0,107
-530,321	715,135	-0,017	-0,032
-529,306	-200,000	0,000	-0,017
-528,291	-22,010	-0,098	-0,043
-527,277	-200,000	-0,012	-0,098
-526,262	-200,000	0,028	-0,144
-525,248	144,167	0,093	0,090
-524,233	177,017	0,158	0,168
-523,218	-200,000	0,015	0,171
-522,204	-200,000	-0,005	0,049
-521,189	-200,000	-0,007	-0,049
-520,175	331,067	0,070	-0,098
-519,160	202,368	-0,027	0,031
-518,145	800,000	0,014	-0,036
-517,131	321,492	0,069	0,096
-516,116	-82,454	-0,055	0,013
-515,102	-200,000	-0,001	-0,053
-514,087	-36,165	0,116	0,046
-513,072	209,601	-0,103	-0,118
-512,058	-200,000	0,038	0,136
-511,043	800,000	-0,003	-0,007
-510,029	99,767	-0,061	-0,052
-509,014	287,863	-0,016	0,021
-507,999	-6,924	-0,032	-0,016
-506,985	-200,000	0,004	-0,042
-505,970	-103,403	0,127	0,022
-504,956	268,289	-0,104	-0,133
-503,941	440,542	0,080	-0,127
-502,926	-200,000	-0,010	-0,219
-501,912	-200,000	0,005	-0,033
-500,897	8,540	0,043	-0,023
-499,883	74,160	0,113	-0,087
-498,868	-58,213	-0,040	-0,013
-497,853	300,143	-0,014	-0,019
-496,839	800,000	-0,011	0,033
-495,824	-97,647	0,012	0,002
-494,810	-45,717	0,136	-0,049
-493,795	-13,431	-0,025	0,012
-492,781	-102,108	-0,166	0,029
-491,766	88,006	0,146	-0,118
-490,751	800,000	0,029	0,088
-489,737	-67,720	-0,100	0,028
-488,722	-200,000	0,025	0,186
-487,708	-200,000	0,005	0,098
-486,693	566,438	-0,056	-0,100
-485,678	-48,916	0,100	-0,035
-484,664	5,860	-0,098	-0,053
-483,649	-118,658	-0,032	0,004
-482,635	-200,000	0,021	0,092
-481,620	800,000	-0,052	-0,119
-480,605	608,189	-0,012	0,022
-479,591	-84,947	0,108	-0,024
-478,576	-67,960	-0,140	0,039
-477,562	158,576	-0,080	-0,081
-476,547	163,331	-0,101	-0,103
-475,532	-200,000	0,014	-0,111
-474,518	-200,000	0,001	0,105
-473,503	-42,285	0,116	-0,043
-472,489	-200,000	-0,006	-0,036
-471,474	800,000	0,013	-0,033
-470,459	-175,488	-0,077	0,001
-469,445	-137,109	0,060	0,005
-468,430	305,167	0,016	-0,022
-467,416	-200,000	0,019	0,099
-466,401	-36,137	0,091	-0,035
-465,386	94,214	0,059	-0,049
-464,372	-48,493	-0,103	0,036
-463,357	-41,648	0,063	0,023
-462,343	45,313	0,042	-0,028
-461,328	-33,689	-0,139	0,056
-460,313	378,436	-0,072	-0,108
-459,299	92,900	0,038	-0,031
-458,284	418,642	-0,042	-0,066
-457,270	800,000	0,028	0,086
-456,255	244,168	-0,054	0,066
-455,241	800,000	0,018	-0,039
-454,226	232,237	0,045	-0,054
-453,211	53,162	-0,167	0,116
-452,197	-111,016	0,124	-0,018
-451,182	-43,682	0,113	0,041
-450,168	73,463	0,015	0,011
-449,153	-200,000	-0,029	-0,211
-448,138	364,566	-0,032	0,047
-447,124	800,000	0,041	0,097
-446,109	-200,000	0,003	-0,135
-445,095	-131,933	-0,043	0,004
-444,080	215,785	-0,036	-0,042
-443,065	138,723	-0,082	0,078
-442,051	293,623	-0,069	-0,092
-441,036	73,759	-0,165	-0,126
-440,022	-200,000	-0,053	-0,180
-439,007	800,000	0,037	-0,104
-437,992	191,280	0,092	0,101
-436,978	389,674	-0,040	0,060
-435,963	-200,000	0,002	0,021
-434,949	-49,272	-0,078	-0,027
-433,934	-154,616	0,053	-0,003
-432,919	-49,574	-0,076	-0,026
-431,905	213,334	0,065	0,075
-430,890	-200,000	0,018	0,136
-429,876	186,530	-0,063	-0,068
-428,861	88,903	-0,080	0,065
-427,846	538,186	0,039	0,067
-426,832	75,793	0,052	-0,040
-425,817	-148,299	0,111	0,007
-424,803	68,694	0,041	-0,031
-423,788	-200,000	0,010	0,059
-422,773	-200,000	0,014	0,085
-421,759	-63,128	0,019	-0,006
-420,744	103,424	0,115	-0,098
-419,730	-148,191	-0,099	-0,006
-418,715	-106,723	-0,148	0,024
-417,701	-174,786	0,080	0,002
-416,686	800,000	0,058	-0,143
-415,671	800,000	-0,030	-0,072
-414,657	7,670	0,160	0,087
-413,642	-147,211	0,106	0,006
-412,628	-200,000	0,013	-0,132
-411,613	457,015	-0,034	-0,054
-410,598	-85,292	0,045	-0,010
-409,584	-200,000	-0,011	0,053
-408,569	57,565	0,080	0,057
-407,555	-117,765	0,079	0,010
-406,540	-200,000	-0,003	-0,051
-405,525	327,627	0,089	-0,124
-404,511	-18,535	-0,059	-0,026
-403,496	800,000	-0,023	-0,062
-402,482	-200,000	0,012	0,057
-401,467	-200,000	0,019	0,109
-400,452	134,080	0,074	0,069
-399,438	-134,902	0,116	-0,010
-398,423	118,940	0,118	0,106
-397,409	-88,159	-0,125	-0,027
-396,394	-200,000	-0,045	0,158
-395,379	-200,000	-0,004	0,047
-394,365	-142,240	0,063	0,004
-393,350	-200,000	-0,019	0,114
-392,336	-53,937	0,097	0,032
-391,321	2,141	-0,167	-0,088
-390,306	69,119	-0,165	-0,123
-389,292	240,409	-0,039	0,047
-388,277	-44,627	-0,077	0,028
-387,263	-167,535	-0,121	0,003
-386,248	-200,000	-0,056	0,242
-385,233	800,000	-0,000	-0,001
-384,219	-200,000	-0,002	-0,009
-383,204	192,670	-0,052	0,057
-382,190	-49,285	-0,045	-0,015
-381,175	-46,518	-0,098	0,035
-380,160	42,623	0,046	-0,030
-379,146	1,402	0,058	0,030
-378,131	-115,711	0,094	0,013
-377,117	-51,623	0,095	0,032
-376,102	47,386	-0,067	-0,045
-375,088	18,216	-0,063	-0,036
-374,073	-200,000	0,006	-0,097
-373,058	109,610	-0,081	-0,070
-372,044	-174,425	0,088	-0,002
-371,029	-200,000	-0,000	0,063
-370,015	73,043	-0,043	0,033
-369,000	-137,073	0,099	0,008
-367,985	-40,297	-0,046	0,017
-366,971	97,067	-0,083	-0,069
-365,956	-25,612	-0,077	0,033
-364,942	662,303	0,070	-0,131
-363,927	-72,776	-0,047	0,013
-362,912	327,224	-0,065	0,091
-361,898	800,000	-0,028	0,076
-360,883	417,014	-0,045	-0,070
-359,869	-200,000	-0,007	0,067
-358,854	202,010	0,067	0,074
-357,839	96,431	0,100	0,083
-356,825	-128,082	0,058	0,006
-355,810	83,645	-0,030	-0,024
-354,796	-31,292	-0,116	0,047
-353,781	46,836	-0,056	-0,038
-352,766	196,877	-0,102	-0,112
-351,752	155,190	0,089	-0,089
-350,737	-160,214	-0,044	0,002
-349,723	455,336	-0,025	0,040
-348,708	8,814	-0,076	0,042
-347,693	112,193	0,076	-0,066
-346,679	-200,000	0,039	-0,128
-345,664	76,667	-0,102	-0,078
-344,650	-158,691	-0,157	-0,006
-343,635	48,333	0,087	0,059
-342,620	174,835	0,092	-0,096
-341,606	-26,098	-0,141	0,060
-340,591	112,034	0,076	0,066
-339,577	662,445	0,036	-0,068
-338,562	-200,000	-0,026	-0,104
-337,548	-200,000	-0,014	-0,064
-336,533	-95,477	-0,042	-0,008
-335,518	800,000	0,047	0,143
-334,504	-10,207	0,041	-0,019
-333,489	97,969	0,068	-0,057
-332,475	800,000	-0,026	0,079
-331,460	800,000	0,004	-0,009
-330,445	13,610	0,146	-0,082
-329,431	-143,125	0,068	0,005
-328,416	-181,871	0,178	-0,002
-327,402	33,191	-0,032	-0,020
-326,387	-200,000	-0,004	0,039
-325,372	51,128	-0,042	0,029
-324,358	211,976	-0,035	0,040
-323,343	-8,143	-0,068	-0,033
-322,329	-37,574	-0,022	0,008
-321,314	-200,000	-0,017	-0,072
-320,299	-200,000	-0,006	0,133
-319,285	-95,306	-0,120	0,023
-318,270	11,177	0,083	-0,046
-317,256	800,000	-0,056	-0,156
-316,241	-200,000	-0,007	-0,172
-315,226	-200,000	-0,000	-0,122
-314,212	-98,944	-0,051	-0,009
-313,197	724,977	0,069	0,134
-312,183	800,000	0,031	0,077
-311,168	-200,000	-0,026	-0,098
-310,153	214,525	-0,096	-0,110
-309,139	31,109	-0,110	-0,068
-308,124	-40,677	0,173	0,064
-307,110	800,000	0,017	-0,049
-306,095	6,091	0,138	-0,074
-305,080	284,780	-0,060	0,079
-304,066	-200,000	0,001	0,108
-303,051	104,045	-0,061	-0,052
-302,037	-200,000	-0,006	-0,084
-301,022	340,173	0,068	0,096
-300,008	-17,100	-0,173	0,078
-298,993	93,031	-0,097	-0,079
-297,978	-162,317	0,146	0,005
-296,964	115,102	-0,154	0,136
-295,949	-79,733	-0,169	0,041
-294,935	110,183	-0,040	-0,034
-293,920	-156,966	-0,204	-0,009
-292,905	-200,000	0,008	0,029
-291,891	94,972	-0,051	-0,042
-290,876	-2,466	0,114	0,058
-289,862	421,442	0,035	0,055
-288,847	179,268	-0,084	-0,089
-287,832	-102,101	-0,196	-0,034
-286,818	-167,948	-0,030	-0,001
-285,803	-194,373	0,072	0,000
-284,789	137,507	0,043	0,041
-283,774	148,466	0,030	0,030
-282,759	39,931	-0,067	-0,043
-281,745	800,000	-0,037	-0,096
-280,730	-200,000	-0,010	0,039
-279,716	72,483	-0,036	0,027
-278,701	-97,349	0,239	0,045
-277,686	209,504	0,037	0,042
-276,672	57,698	0,084	0,059
-275,657	-200,000	0,020	0,111
-274,643	74,178	-0,145	0,110
-273,628	800,000	-0,011	-0,034
-272,613	-77,149	0,042	0,010
-271,599	800,000	0,032	-0,064
-270,584	178,973	-0,056	-0,059
-269,570	-56,920	0,131	-0,041
-268,555	-200,000	-0,006	-0,052
-267,540	-200,000	-0,016	0,081
-266,526	-200,000	-0,012	0,114
-265,511	98,076	0,040	-0,034
-264,497	-21,664	0,076	0,033
-263,482	-200,000	-0,023	0,121
-262,467	504,046	0,060	0,100
-261,453	-13,882	0,063	0,029
-260,438	148,745	-0,103	0,101
-259,424	800,000	-0,040	-0,107
-258,409	-123,222	0,023	-0,003
-257,395	-32,153	-0,036	0,015
-256,380	-200,000	0,012	-0,082
-255,365	800,000	-0,008	-0,020
-254,351	-200,000	-0,022	-0,105
-253,336	-200,000	-0,012	-0,056
-252,322	606,911	0,027	-0,049
-251,307	800,000	0,018	0,045
-250,292	800,000	0,063	0,137
-249,278	800,000	0,061	0,153
-248,263	204,287	-0,071	0,079
-247,249	542,232	0,067	0,116
-246,234	-200,000	0,019	0,130
-245,219	-115,349	-0,055	0,007
-244,205	-77,558	0,093	0,023
-243,190	-200,000	-0,008	-0,055
-242,176	-136,456	0,044	0,004
-241,161	156,679	-0,066	0,066
-240,146	800,000	-0,023	0,054
-239,132	-106,549	-0,031	0,005
-238,117	39,775	-0,026	0,017
-237,103	-200,000	0,027	0,089
-236,088	-148,980	0,137	-0,008
-235,073	-51,542	-0,018	0,006
-234,059	149,961	0,138	0,135
-233,044	-6,752	-0,063	-0,031
-232,030	-200,000	0,000	-0,080
-231,015	258,326	-0,049	-0,061
-230,000	-45,627	0,071	0,025
-228,986	239,382	-0,048	0,058
-227,971	4,687	0,027	0,014
-226,957	-143,827	0,168	-0,011
-225,942	800,000	0,046	0,138
-224,927	40,688	0,057	0,037
-223,913	-86,351	-0,080	-0,018
-222,898	-200,000	-0,032	0,139
-221,884	326,425	-0,141	-0,196
-220,869	-91,022	0,071	0,015
-219,855	398,566	-0,105	0,160
-218,840	-200,000	0,001	0,037
-217,825	-77,156	-0,122	-0,031
-216,811	-200,000	0,002	-0,013
-215,796	-193,783	0,080	0,000
-214,782	203,705	0,064	0,072
-213,767	213,611	-0,075	0,085
-212,752	-55,364	0,140	0,045
-211,738	-200,000	0,026	0,171
-210,723	800,000	-0,042	0,107
-209,709	-153,653	-0,256	-0,012
-208,694	-147,357	-0,085	-0,005
-207,679	27,567	0,053	-0,032
-206,665	423,341	0,122	0,190
-205,650	-93,507	0,141	0,028
-204,636	670,741	-0,050	0,094
-203,621	-39,844	-0,029	0,011
-202,606	480,544	-0,049	0,080
-201,592	800,000	-0,086	-0,189
-200,577	143,897	0,075	-0,072
-199,563	-146,106	0,047	0,003
-198,548	800,000	0,038	0,097
-197,533	180,477	-0,088	0,093
-196,519	57,018	0,063	0,044
-195,504	-123,896	-0,181	-0,020
-194,490	43,335	-0,091	-0,060
-193,475	-13,227	-0,145	-0,068
-192,460	-99,415	0,042	-0,007
-191,446	-200,000	0,006	0,081
-190,431	-200,000	-0,034	0,135
-189,417	7,128	-0,080	0,043
-188,402	112,502	-0,129	0,112
-187,387	106,951	-0,066	-0,056
-186,373	-13,444	-0,080	-0,037
-185,358	-200,000	-0,000	0,082
-184,344	24,655	0,063	-0,037
-183,329	-200,000	0,041	0,173
-182,315	336,443	-0,024	-0,034
-181,300	-200,000	-0,008	0,047
-180,285	-73,785	0,104	0,027
-179,271	-68,561	-0,043	0,012
-178,256	-200,000	-0,004	-0,067
-177,242	-200,000	-0,008	0,103
-176,227	-126,524	0,158	-0,017
-175,212	227,357	-0,035	-0,041
-174,198	800,000	0,039	0,083
-173,183	-150,061	0,083	0,005
-172,169	-33,970	-0,091	0,036
-171,154	44,355	-0,149	-0,098
-170,139	-139,825	0,090	0,007
-169,125	-39,659	0,037	0,014
-168,110	-200,000	0,026	0,097
-167,096	-106,602	0,058	-0,009
-166,081	800,000	0,033	0,097
-165,066	107,999	-0,063	-0,054
-164,052	400,655	0,064	0,097
-163,037	108,184	0,109	0,093
-162,023	255,840	-0,047	-0,058
-161,008	6,938	0,142	0,076
-159,993	-200,000	0,046	0,163
-158,979	-118,153	-0,129	0,016
-157,964	-40,598	-0,196	0,073
-156,950	241,594	-0,050	-0,060
-155,935	-97,735	-0,048	-0,009
-154,920	12,418	0,094	0,052
-153,906	41,379	0,063	0,041
-152,891	-109,325	0,115	0,017
-151,877	-56,490	0,076	-0,024
-150,862	41,130	-0,093	-0,060
-149,847	-200,000	0,006	0,142
-148,833	-200,000	-0,006	0,122
-147,818	-87,409	0,076	-0,016
-146,804	800,000	-0,033	-0,071
-145,789	6,835	0,087	-0,046
-144,775	427,921	-0,033	0,051
-143,760	1,563	-0,121	-0,063
-142,745	-200,000	-0,026	-0,108
-141,731	-200,000	0,026	-0,098
-140,716	15,739	0,029	-0,016
-139,702	-114,297	0,029	0,004
-138,687	8,346	-0,032	-0,017
-137,672	-200,000	-0,018	0,092
-136,658	-200,000	0,002	-0,105
-135,643	-200,000	-0,009	-0,044
-134,629	-72,827	-0,046	0,012
-133,614	-38,445	-0,090	0,034
-132,599	-200,000	-0,020	0,144
-131,585	800,000	0,071	0,147
-130,570	-151,346	0,098	-0,005
-129,556	-155,319	0,085	-0,004
-128,541	258,605	0,065	0,081
-127,526	-8,795	-0,022	-0,010
-126,512	609,102	-0,058	0,104
-125,497	54,875	0,092	-0,063
-124,483	800,000	-0,043	-0,092
-123,468	800,000	-0,005	0,014
-122,453	440,091	0,070	0,110
-121,439	800,000	0,018	-0,049
-120,424	235,697	-0,052	-0,062
-119,410	-5,608	-0,086	-0,042
