DTS Sentinel unit serial number:	SN410029Multiplexer serial number:	ORYXHardware model number:	OX2-SRSoftware version number:	ORYX F/W v4,00 Oryx Data Collector v3.7.2.0data status	okinstallation	B6 Nyhavnadifferential loss correction	single-endedforward channel	channel 2reverse channel	N/Adate	2023/12/10time	11:00:08forward acquisition time	300,00reverse acquisition time	0,00gamma	499,1914k internal	0,3123k external	0,3123temperature offset calibration	1,0000default loss term (dB/km)	0,3820temperature slope calibration	1,0000multiplexer offset coefficient	1,0000multiplexer slope coefficient	1,0000fibre end	0,00T internal ref (°C)	22,62T ext. ref 1 (°C)	6,49T ext. ref 2 (°C)	6,49length (m)	temperature (°C)	Stokes	anti-Stokes-744,400	-112,499	-0,110	0,016
-743,385	170,359	-0,213	0,227
-742,371	-200,000	0,009	0,036
-741,356	446,954	-0,182	0,300
-740,342	75,564	0,094	0,074
-739,327	-91,685	-0,242	0,051
-738,312	-108,833	0,064	0,010
-737,298	-15,155	-0,315	0,150
-736,283	-200,000	-0,003	0,042
-735,269	310,695	-0,120	0,167
-734,254	-166,655	0,072	0,002
-733,239	-45,579	-0,472	-0,173
-732,225	-73,926	0,025	0,007
-731,210	-200,000	-0,004	-0,042
-730,196	-106,220	0,037	0,006
-729,181	254,810	-0,085	-0,108
-728,167	800,000	-0,022	-0,055
-727,152	223,824	-0,073	0,088
-726,137	343,857	0,072	-0,105
-725,123	302,482	-0,031	-0,042
-724,108	-134,081	-0,157	0,014
-723,094	800,000	-0,022	0,049
-722,079	-200,000	-0,017	0,090
-721,064	-7,374	-0,055	0,027
-720,050	-200,000	0,000	0,022
-719,035	800,000	-0,072	-0,183
-718,021	800,000	0,023	0,060
-717,006	236,462	-0,107	-0,132
-715,991	-114,143	-0,066	0,009
-714,977	105,264	-0,067	-0,059
-713,962	-151,746	0,026	0,001
-712,948	594,918	-0,041	-0,075
-711,933	116,816	-0,065	-0,059
-710,918	78,748	0,078	0,062
-709,904	-200,000	0,023	-0,102
-708,889	7,624	-0,222	-0,123
-707,875	36,196	0,036	0,024
-706,860	579,177	0,063	0,115
-705,845	-200,000	0,030	-0,182
-704,831	-200,000	-0,008	-0,036
-703,816	133,120	0,015	-0,015
-702,802	-200,000	-0,025	0,149
-701,787	-85,712	-0,122	-0,028
-700,772	-200,000	0,001	0,071
-699,758	326,812	0,052	0,074
-698,743	800,000	-0,069	0,168
-697,729	34,305	0,125	0,081
-696,714	12,040	0,079	-0,045
-695,699	-200,000	0,001	0,003
-694,685	190,182	-0,058	-0,065
-693,670	48,012	-0,134	-0,093
-692,656	-25,907	0,051	-0,022
-691,641	800,000	-0,021	0,044
-690,627	-20,720	0,184	0,084
-689,612	307,545	-0,030	-0,042
-688,597	174,405	0,016	0,018
-687,583	45,070	-0,079	-0,054
-686,568	-195,016	-0,172	0,001
-685,554	275,909	-0,071	0,094
-684,539	-80,499	0,083	-0,021
-683,524	-200,000	0,020	-0,150
-682,510	-4,084	0,081	0,042
-681,495	87,662	-0,123	0,101
-680,481	800,000	-0,010	0,030
-679,466	800,000	0,011	-0,027
-678,451	196,661	-0,018	0,020
-677,437	-111,917	-0,148	0,022
-676,422	-200,000	0,012	-0,129
-675,408	-125,849	0,213	-0,024
-674,393	-200,000	-0,019	0,184
-673,378	-178,105	-0,070	0,001
-672,364	80,538	-0,046	0,037
-671,349	-154,607	0,062	0,003
-670,335	-200,000	0,018	0,063
-669,320	800,000	-0,046	0,135
-668,305	-200,000	-0,008	0,032
-667,291	86,122	-0,086	-0,070
-666,276	92,615	-0,078	-0,066
-665,262	-50,110	-0,149	-0,052
-664,247	800,000	0,012	0,029
-663,232	241,371	-0,026	0,032
-662,218	-200,000	-0,006	-0,062
-661,203	-92,971	0,080	0,016
-660,189	289,402	-0,032	-0,043
-659,174	440,402	-0,034	-0,055
-658,159	99,795	-0,046	0,040
-657,145	-76,742	-0,084	-0,022
-656,130	0,913	-0,131	-0,070
-655,116	122,132	0,053	0,049
-654,101	752,797	-0,043	-0,087
-653,086	-48,167	-0,108	0,038
-652,072	-200,000	-0,042	-0,000
-651,057	-114,920	-0,031	0,004
-650,043	629,627	-0,051	0,097
-649,028	230,738	-0,122	-0,148
-648,014	53,718	0,122	-0,087
-646,999	64,048	0,132	-0,098
-645,984	-200,000	0,033	0,121
-644,970	-200,000	-0,025	-0,092
-643,955	-179,044	0,018	0,000
-642,941	733,303	0,013	0,026
-641,926	-200,000	0,004	0,061
-640,911	119,964	0,032	0,029
-639,897	599,716	-0,058	0,107
-638,882	79,657	-0,026	-0,021
-637,868	176,292	0,044	-0,047
-636,853	800,000	0,019	0,046
-635,838	577,103	0,025	-0,046
-634,824	-8,560	-0,015	-0,008
-633,809	365,895	-0,089	-0,133
-632,795	-48,644	0,099	-0,035
-631,780	-105,601	0,112	-0,019
-630,765	176,412	0,076	-0,082
-629,751	-61,065	-0,052	0,016
-628,736	-200,000	0,006	-0,025
-627,722	-25,184	0,104	-0,046
-626,707	-200,000	-0,019	0,125
-625,692	-11,205	0,045	-0,022
-624,678	496,725	-0,016	-0,028
-623,663	6,126	0,064	-0,035
-622,649	-17,127	0,087	-0,040
-621,634	-200,000	-0,037	0,176
-620,619	-200,000	-0,023	0,105
-619,605	-200,000	0,000	-0,055
-618,590	-200,000	0,031	0,111
-617,576	-42,140	0,129	-0,049
-616,561	-107,241	0,092	-0,015
-615,546	-200,000	-0,004	0,163
-614,532	800,000	-0,023	0,065
-613,517	189,436	-0,054	-0,060
-612,503	-200,000	-0,004	0,039
-611,488	717,608	0,035	-0,069
-610,474	-200,000	-0,018	-0,123
-609,459	691,767	0,031	-0,061
-608,444	-9,452	0,043	-0,021
-607,430	0,666	-0,161	0,085
-606,415	-200,000	0,038	-0,126
-605,401	-58,292	0,061	-0,019
-604,386	32,100	-0,050	0,032
-603,371	17,528	0,074	-0,044
-602,357	-59,437	0,100	-0,032
-601,342	241,348	-0,046	0,057
-600,328	-83,659	0,110	0,026
-599,313	800,000	-0,063	-0,141
-598,298	244,857	0,103	0,129
-597,284	27,162	-0,049	0,030
-596,269	800,000	0,006	-0,016
-595,255	-134,630	-0,055	0,005
-594,240	124,342	-0,100	-0,093
-593,225	800,000	-0,028	-0,089
-592,211	-25,910	-0,074	-0,032
-591,196	-109,308	-0,111	0,017
-590,182	732,017	-0,064	0,128
-589,167	-200,000	0,019	0,150
-588,152	365,532	0,012	0,018
-587,138	-120,838	-0,057	0,007
-586,123	-200,000	0,011	-0,190
-585,109	-5,100	0,010	0,005
-584,094	-14,407	-0,145	-0,069
-583,079	799,192	0,046	0,094
-582,065	344,523	-0,024	0,035
-581,050	800,000	-0,053	-0,112
-580,036	223,979	0,012	-0,015
-579,021	238,631	-0,019	0,024
-578,006	86,571	-0,040	-0,033
-576,992	476,395	-0,042	-0,070
-575,977	-43,414	-0,041	0,015
-574,963	-15,420	-0,052	-0,024
-573,948	-5,548	-0,178	0,090
-572,934	-131,802	0,044	-0,004
-571,919	800,000	-0,051	-0,129
-570,904	800,000	0,044	-0,091
-569,890	-84,766	-0,098	-0,023
-568,875	800,000	0,035	-0,097
-567,861	194,590	-0,033	0,037
-566,846	543,690	0,079	0,140
-565,831	42,872	-0,081	-0,054
-564,817	266,411	-0,030	-0,039
-563,802	-2,136	0,108	0,056
-562,788	-200,000	0,006	-0,112
-561,773	380,628	-0,013	-0,020
-560,758	504,214	0,048	0,083
-559,744	-173,283	0,040	0,001
-558,729	-200,000	-0,090	-0,000
-557,715	-200,000	-0,003	0,062
-556,700	-4,315	-0,114	-0,058
-555,685	800,000	0,089	-0,186
-554,671	-36,081	0,119	-0,047
-553,656	36,257	0,078	0,051
-552,642	-66,444	-0,121	-0,035
-551,627	130,607	0,112	0,106
-550,612	-200,000	-0,042	0,178
-549,598	-82,963	0,012	0,003
-548,583	594,512	-0,014	0,026
-547,569	-200,000	-0,009	-0,030
-546,554	-5,003	0,095	0,048
-545,539	337,890	-0,024	-0,035
-544,525	-126,724	0,077	-0,008
-543,510	173,890	0,037	-0,040
-542,496	429,225	-0,067	-0,107
-541,481	1,206	-0,089	-0,047
-540,466	-200,000	-0,004	-0,106
-539,452	-120,268	0,151	0,019
-538,437	-200,000	0,027	0,125
-537,423	800,000	0,015	-0,050
-536,408	-200,000	0,001	0,028
-535,393	641,071	-0,067	0,126
-534,379	-200,000	-0,017	-0,060
-533,364	800,000	0,031	-0,077
-532,350	-200,000	0,004	0,143
-531,335	-200,000	-0,003	0,016
-530,321	-200,000	0,017	0,071
-529,306	43,874	-0,060	-0,040
-528,291	-7,659	-0,135	0,067
-527,277	20,854	-0,039	-0,024
-526,262	290,545	-0,017	0,022
-525,248	87,583	0,095	-0,078
-524,233	-1,084	0,112	-0,058
-523,218	-82,059	0,162	0,039
-522,204	800,000	-0,059	-0,126
-521,189	-200,000	0,035	-0,132
-520,175	-59,452	0,080	-0,025
-519,160	483,302	-0,037	-0,062
-518,145	318,863	0,068	-0,096
-517,131	-200,000	0,013	0,047
-516,116	800,000	0,034	0,105
-515,102	92,528	0,034	0,029
-514,087	30,658	0,050	-0,031
-513,072	-148,106	-0,081	-0,005
-512,058	-200,000	0,005	-0,058
-511,043	117,977	0,011	-0,010
-510,029	51,938	0,040	-0,028
-509,014	-36,997	-0,049	0,019
-507,999	-146,391	0,101	-0,006
-506,985	175,685	0,030	0,032
-505,970	-200,000	0,010	-0,087
-504,956	-140,953	-0,039	0,003
-503,941	222,864	-0,058	-0,069
-502,926	800,000	0,028	0,063
-501,912	-132,298	-0,067	0,006
-500,897	-200,000	-0,030	-0,102
-499,883	-111,852	-0,025	-0,004
-498,868	800,000	-0,046	-0,105
-497,853	-200,000	-0,017	-0,129
-496,839	84,902	-0,017	0,014
-495,824	-17,338	0,049	-0,023
-494,810	378,059	0,020	0,031
-493,795	-200,000	0,011	0,039
-492,781	-71,425	-0,081	0,022
-491,766	-12,520	-0,061	-0,029
-490,751	-200,000	0,037	-0,195
-489,737	-200,000	-0,017	-0,141
-488,722	67,757	0,076	-0,057
-487,708	223,477	0,037	0,045
-486,693	-200,000	0,026	-0,111
-485,678	800,000	0,044	-0,134
-484,664	334,706	-0,030	-0,043
-483,649	-120,805	-0,132	0,016
-482,635	-91,743	-0,081	-0,017
-481,620	-126,897	-0,129	0,014
-480,605	92,191	0,132	0,109
-479,591	183,327	0,024	0,027
-478,576	124,137	-0,032	-0,030
-477,562	-200,000	-0,007	-0,054
-476,547	-2,580	-0,060	0,031
-475,532	-16,498	0,025	0,011
-474,518	-200,000	0,017	-0,105
-473,503	-113,094	0,048	-0,007
-472,489	800,000	-0,040	0,084
-471,474	800,000	-0,017	0,038
-470,459	-200,000	0,013	0,126
-469,445	-17,093	-0,094	0,043
-468,430	87,098	-0,017	0,014
-467,416	-200,000	-0,008	0,047
-466,401	337,599	0,040	0,058
-465,386	-66,945	-0,077	0,022
-464,372	6,994	-0,066	0,036
-463,357	208,886	-0,009	0,010
-462,343	193,477	0,026	0,029
-461,328	-200,000	0,023	-0,139
-460,313	269,712	0,045	0,059
-459,299	-200,000	-0,036	0,000
-458,284	-200,000	-0,011	0,112
-457,270	-68,718	-0,049	-0,014
-456,255	-30,190	-0,105	-0,044
-455,241	-0,596	-0,029	-0,015
-454,226	-97,860	0,057	-0,011
-453,211	403,233	0,062	-0,097
-452,197	179,674	-0,063	-0,068
-451,182	-200,000	-0,021	0,088
-450,168	-200,000	0,026	-0,100
-449,153	-151,494	-0,142	0,008
-448,138	-200,000	0,020	-0,192
-447,124	800,000	-0,017	-0,052
-446,109	-200,000	0,066	-0,234
-445,095	-172,807	0,100	0,002
-444,080	-144,923	0,155	0,010
-443,065	-60,430	-0,041	-0,013
-442,051	800,000	-0,059	-0,177
-441,036	-200,000	-0,006	-0,045
-440,022	0,415	0,103	-0,054
-439,007	235,529	-0,065	0,079
-437,992	-200,000	-0,032	0,158
-436,978	-45,498	0,099	0,036
-435,963	800,000	-0,022	0,054
-434,949	-22,865	0,052	-0,023
-433,934	477,625	-0,019	-0,032
-432,919	414,127	-0,114	-0,179
-431,905	75,980	-0,049	0,038
-430,890	800,000	-0,016	-0,042
-429,876	-44,982	-0,059	-0,021
-428,861	11,199	0,043	-0,024
-427,846	800,000	0,034	-0,069
-426,832	602,432	-0,026	-0,047
-425,817	-58,188	-0,144	0,046
-424,803	345,685	0,051	0,075
-423,788	106,504	-0,050	0,043
-422,773	637,177	-0,051	0,095
-421,759	-34,103	0,048	-0,019
-420,744	58,387	-0,021	-0,015
-419,730	-123,655	-0,151	0,017
-418,715	-200,000	-0,003	-0,070
-417,701	-110,269	-0,095	0,014
-416,686	130,903	-0,084	0,079
-415,671	-103,314	0,084	0,014
-414,657	34,983	0,045	0,029
-413,642	-200,000	0,023	0,091
-412,628	-200,000	0,025	-0,106
-411,613	800,000	0,043	-0,118
-410,598	-52,174	-0,087	0,029
-409,584	-118,164	0,118	-0,015
-408,569	-3,705	-0,141	-0,072
-407,555	800,000	0,017	-0,042
-406,540	-88,897	-0,076	-0,016
-405,525	389,917	-0,019	-0,029
-404,511	195,398	0,049	0,054
-403,496	469,655	-0,041	0,068
-402,482	-131,618	0,135	-0,013
-401,467	-200,000	-0,007	-0,055
-400,452	-81,456	0,097	0,023
-399,438	210,287	-0,018	0,021
-398,423	-92,477	-0,124	-0,026
-397,409	-124,305	-0,032	-0,004
-396,394	273,012	-0,095	-0,124
-395,379	-200,000	0,001	-0,069
-394,365	-200,000	-0,052	0,203
-393,350	-200,000	0,014	0,185
-392,336	406,147	0,020	0,031
-391,321	-47,308	0,126	0,045
-390,306	161,082	-0,101	-0,104
-389,292	185,180	-0,068	0,075
-388,277	-200,000	0,002	-0,035
-387,263	271,824	-0,012	0,016
-386,248	-27,014	-0,063	0,027
-385,233	-47,899	0,114	0,040
-384,219	165,338	-0,097	-0,100
-383,204	-137,425	-0,081	-0,007
-382,190	-61,593	0,039	0,012
-381,175	-200,000	0,010	0,076
-380,160	60,160	0,084	0,061
-379,146	33,697	-0,057	0,037
-378,131	162,757	-0,035	-0,036
-377,117	369,223	0,010	0,015
-376,102	-200,000	-0,009	0,098
-375,088	800,000	0,031	-0,087
-374,073	-200,000	-0,002	-0,064
-373,058	603,767	0,046	-0,085
-372,044	-149,680	0,017	0,001
-371,029	800,000	-0,013	0,030
-370,015	135,607	0,036	0,034
-369,000	40,324	0,046	-0,030
-367,985	800,000	-0,021	-0,064
-366,971	174,198	-0,037	-0,039
-365,956	-23,291	0,107	-0,047
-364,942	-38,020	0,130	0,051
-363,927	-200,000	-0,011	0,088
-362,912	316,750	0,040	0,056
-361,898	800,000	-0,016	0,043
-360,883	-200,000	-0,013	-0,045
-359,869	-84,884	-0,087	0,020
-358,854	102,916	0,031	0,027
-357,839	-107,881	0,023	-0,004
-356,825	-130,402	0,067	-0,007
-355,810	800,000	-0,016	-0,037
-354,796	-200,000	0,000	-0,013
-353,781	185,727	0,087	-0,095
-352,766	-133,431	0,068	-0,006
-351,752	800,000	0,088	0,196
-350,737	-27,746	0,120	-0,051
-349,723	800,000	-0,054	0,165
-348,708	-200,000	-0,017	0,124
-347,693	-72,585	0,031	-0,008
-346,679	134,900	-0,058	-0,055
-345,664	-200,000	-0,016	0,085
-344,650	31,279	-0,088	0,056
-343,635	-77,111	0,159	0,040
-342,620	28,813	0,060	-0,037
-341,606	-200,000	-0,003	0,165
-340,591	800,000	-0,022	0,069
-339,577	-66,181	-0,092	-0,027
-338,562	545,697	0,014	-0,025
-337,548	300,356	0,048	0,065
-336,533	-200,000	-0,003	-0,094
-335,518	-200,000	-0,003	-0,046
-334,504	-200,000	0,010	-0,041
-333,489	97,577	-0,094	-0,079
-332,475	12,294	-0,070	0,040
-331,460	800,000	0,016	-0,047
-330,445	312,062	0,112	-0,154
-329,431	-32,651	-0,017	0,007
-328,416	-146,285	0,045	0,003
-327,402	-200,000	0,010	-0,114
-326,387	800,000	-0,081	0,204
-325,372	5,684	0,081	-0,044
-324,358	-200,000	0,025	-0,103
-323,343	234,543	-0,044	0,053
-322,329	-200,000	0,012	0,069
-321,314	-200,000	-0,019	0,085
-320,299	-86,179	-0,033	0,007
-319,285	-200,000	-0,016	0,099
-318,270	-200,000	0,015	-0,127
-317,256	64,449	-0,108	-0,079
-316,241	37,139	0,109	0,071
-315,226	42,753	0,126	-0,084
-314,212	732,346	0,035	-0,068
-313,197	-186,322	-0,092	0,001
-312,183	140,348	0,047	0,046
-311,168	-154,224	0,130	0,006
-310,153	-200,000	-0,007	-0,042
-309,139	-41,041	0,121	0,045
-308,124	175,885	-0,034	0,036
-307,110	-25,014	0,114	0,050
-306,095	335,086	-0,052	0,074
-305,080	168,780	0,132	0,138
-304,066	720,725	-0,050	-0,098
-303,051	800,000	0,049	-0,112
-302,037	-86,308	0,056	-0,013
-301,022	-200,000	-0,005	0,072
-300,008	-200,000	0,003	0,075
-298,993	34,814	0,071	-0,045
-297,978	365,073	-0,050	0,074
-296,964	-200,000	-0,030	-0,132
-295,949	-58,507	-0,036	0,011
-294,935	-189,537	-0,029	-0,000
-293,920	64,268	0,107	-0,079
-292,905	568,626	0,047	0,085
-291,891	-200,000	0,018	0,102
-290,876	2,376	0,114	-0,060
-289,862	-200,000	0,012	-0,099
-288,847	800,000	-0,033	-0,107
-287,832	-34,273	0,075	0,030
-286,818	248,452	-0,033	-0,041
-285,803	-148,948	-0,141	-0,008
-284,789	800,000	0,085	0,236
-283,774	518,282	0,091	0,156
-282,759	800,000	-0,026	-0,071
-281,745	73,998	0,113	0,087
-280,730	102,212	0,065	0,056
-279,716	-124,199	-0,030	-0,003
-278,701	52,827	-0,013	0,009
-277,686	-20,331	-0,128	0,057
-276,672	-30,025	0,079	0,033
-275,657	38,097	0,106	0,069
-274,643	706,278	-0,027	0,053
-273,628	-153,633	0,056	-0,003
-272,613	-28,112	-0,096	-0,040
-271,599	661,615	-0,038	-0,073
-270,584	-200,000	-0,012	0,164
-269,570	310,104	-0,056	0,077
-268,555	-174,300	0,126	-0,003
-267,540	-145,173	-0,094	0,006
-266,526	305,950	0,009	0,012
-265,511	284,770	0,010	0,014
-264,497	124,157	-0,071	-0,065
-263,482	16,523	0,078	0,045
-262,467	-200,000	-0,009	-0,084
-261,453	800,000	0,017	-0,055
-260,438	21,320	-0,077	-0,045
-259,424	163,555	-0,081	-0,083
-258,409	10,052	0,046	-0,026
-257,395	-17,987	0,058	-0,026
-256,380	133,143	0,024	0,023
-255,365	207,082	0,070	0,080
-254,351	-75,867	-0,103	0,027
-253,336	32,859	-0,011	-0,007
-252,322	-31,344	-0,103	0,042
-251,307	18,525	0,055	0,032
-250,292	11,612	-0,018	0,010
-249,278	-200,000	0,027	0,152
-248,263	655,839	-0,051	-0,096
-247,249	123,986	0,020	-0,019
-246,234	-51,680	-0,107	0,036
-245,219	197,853	-0,141	0,157
-244,205	92,216	-0,039	0,032
-243,190	118,944	-0,032	0,029
-242,176	-132,832	0,048	-0,004
-241,161	84,135	0,040	0,032
-240,146	-22,284	0,123	-0,054
-239,132	164,381	-0,056	-0,058
-238,117	-112,208	0,132	0,019
-237,103	234,709	0,037	0,045
-236,088	108,345	-0,060	0,052
-235,073	23,833	0,185	-0,111
-234,059	-200,000	-0,007	0,050
-233,044	-157,373	-0,033	0,001
-232,030	26,211	0,076	-0,046
-231,015	89,848	-0,034	0,028
-230,000	129,039	-0,087	-0,081
-228,986	-63,471	-0,123	0,037
-227,971	58,012	0,106	0,075
-226,957	262,929	0,033	0,042
-225,942	441,657	-0,046	0,073
-224,927	310,039	-0,012	0,017
-223,913	366,077	-0,075	0,111
-222,898	29,596	0,056	0,035
-221,884	-200,000	-0,004	0,036
-220,869	-76,931	-0,178	0,045
-219,855	800,000	-0,015	-0,047
-218,840	-200,000	0,035	0,174
-217,825	800,000	-0,030	0,085
-216,811	57,098	-0,126	0,090
-215,796	-200,000	0,013	-0,082
-214,782	60,209	-0,046	-0,033
-213,767	8,664	-0,092	0,051
-212,752	-200,000	-0,021	0,072
-211,738	298,034	0,042	0,057
-210,723	800,000	-0,028	0,075
-209,709	-200,000	-0,002	0,079
-208,694	331,232	-0,135	-0,191
-207,679	-200,000	0,013	-0,099
-206,665	-144,268	-0,144	0,010
-205,650	-200,000	0,016	-0,102
-204,636	-71,055	0,097	0,026
-203,621	-78,408	0,144	-0,036
-202,606	-42,905	-0,089	-0,033
-201,592	-92,323	-0,130	0,027
-200,577	-46,096	0,026	-0,009
-199,563	-200,000	-0,017	0,099
-198,548	510,882	0,057	0,097
-197,533	-200,000	-0,028	0,137
-196,519	800,000	-0,021	0,064
-195,504	278,285	-0,133	-0,173
-194,490	-154,052	-0,062	0,003
-193,475	-200,000	0,023	0,102
-192,460	-82,705	0,073	0,017
-191,446	-119,256	0,054	-0,007
-190,431	-66,520	-0,018	0,005
-189,417	-200,000	0,004	0,016
-188,402	-200,000	0,037	0,145
-187,387	196,976	0,046	-0,051
-186,373	20,728	-0,100	0,059
-185,358	-200,000	-0,001	0,142
-184,344	121,072	0,119	0,108
-183,329	-200,000	-0,002	0,112
-182,315	-200,000	-0,024	0,085
-181,300	155,876	0,002	-0,002
-180,285	800,000	-0,042	0,131
-179,271	-131,670	0,135	-0,013
-178,256	-200,000	0,022	-0,197
-177,242	-61,145	-0,021	0,007
-176,227	800,000	-0,055	0,127
-175,212	-200,000	0,030	0,131
-174,198	324,545	-0,067	0,093
-173,183	-109,159	0,053	0,008
-172,169	-200,000	-0,011	0,115
-171,154	-140,913	0,049	-0,004
-170,139	109,720	0,091	-0,079
-169,125	-38,184	0,232	0,089
-168,110	800,000	-0,057	-0,147
-167,096	548,858	-0,050	-0,088
-166,081	414,842	-0,105	-0,163
-165,066	-200,000	-0,010	-0,059
-164,052	-112,277	-0,052	-0,008
-163,037	280,037	-0,038	0,050
-162,023	230,876	-0,038	0,045
-161,008	171,593	0,051	-0,053
-159,993	65,628	-0,103	-0,076
-158,979	800,000	-0,066	-0,174
-157,964	94,913	0,085	-0,070
-156,950	657,269	-0,018	-0,033
-155,935	14,273	0,087	-0,050
-154,920	722,351	-0,035	0,069
-153,906	-200,000	-0,035	-0,144
-152,891	10,530	-0,048	0,027
-151,877	-129,018	-0,108	-0,011
-150,862	-90,430	-0,116	0,024
-149,847	23,348	-0,133	-0,080
-148,833	331,683	-0,057	0,080
-147,818	-200,000	-0,016	-0,072
-146,804	-71,535	0,090	0,024
-145,789	-108,147	-0,087	-0,014
-144,775	288,334	-0,089	0,117
-143,760	-122,199	0,133	0,016
-142,745	-79,133	-0,085	0,021
-141,731	47,437	0,034	-0,023
-140,716	347,734	-0,046	0,066
-139,702	31,265	0,074	0,046
-138,687	-120,368	-0,059	-0,007
-137,672	128,454	-0,044	0,041
-136,658	360,200	-0,053	-0,078
-135,643	800,000	0,021	0,051
-134,629	64,085	-0,126	-0,092
-133,614	-200,000	0,024	0,103
-132,599	37,342	0,072	0,047
-131,585	-48,324	0,144	0,050
-130,570	188,473	-0,055	0,060
-129,556	-200,000	0,003	0,155
-128,541	528,522	-0,020	0,034
-127,526	-200,000	0,007	-0,051
-126,512	-7,883	0,038	0,019
-125,497	109,492	0,088	-0,076
-124,483	-58,030	0,091	0,029
-123,468	800,000	0,060	-0,141
-122,453	-75,426	-0,037	-0,010
-121,439	170,839	-0,070	-0,073
-120,424	494,550	0,019	-0,031
-119,410	-200,000	0,006	0,231
