DTS Sentinel unit serial number:	SN410029Multiplexer serial number:	ORYXHardware model number:	OX2-SRSoftware version number:	ORYX F/W v4,00 Oryx Data Collector v3.7.2.0data status	okinstallation	B6 Nyhavnadifferential loss correction	single-endedforward channel	channel 2reverse channel	N/Adate	2023/12/11time	09:40:08forward acquisition time	300,00reverse acquisition time	0,00gamma	499,1914k internal	0,3140k external	0,3140temperature offset calibration	1,0000default loss term (dB/km)	0,3820temperature slope calibration	1,0000multiplexer offset coefficient	1,0000multiplexer slope coefficient	1,0000fibre end	0,00T internal ref (°C)	16,49T ext. ref 1 (°C)	-0,95T ext. ref 2 (°C)	-0,97length (m)	temperature (°C)	Stokes	anti-Stokes-744,400	325,751	0,058	-0,082
-743,385	-193,706	-0,329	0,002
-742,371	141,556	0,081	-0,079
-741,356	69,410	-0,111	0,085
-740,342	-200,000	0,023	0,106
-739,327	-57,350	-0,250	-0,081
-738,312	-8,981	0,091	0,045
-737,298	-151,935	-0,313	0,017
-736,283	74,681	0,193	0,151
-735,269	-139,729	-0,285	0,022
-734,254	172,279	0,048	0,051
-733,239	-97,501	-0,304	-0,058
-732,225	-39,515	0,089	0,034
-731,210	285,946	-0,030	-0,040
-730,196	-7,415	0,029	0,015
-729,181	800,000	-0,069	-0,155
-728,167	-200,000	-0,018	-0,167
-727,152	-102,798	0,141	0,025
-726,137	220,600	-0,052	-0,062
-725,123	800,000	0,029	-0,086
-724,108	-78,510	-0,193	-0,049
-723,094	-180,169	-0,038	-0,001
-722,079	-123,844	-0,074	0,009
-721,064	-55,742	0,020	0,006
-720,050	-200,000	0,011	0,095
-719,035	-71,370	-0,066	0,018
-718,021	-51,064	-0,195	0,067
-717,006	800,000	-0,020	0,062
-715,991	145,355	-0,118	-0,117
-714,977	-200,000	0,002	-0,021
-713,962	-107,785	0,181	-0,029
-712,948	-114,544	-0,173	0,024
-711,933	800,000	-0,016	0,042
-710,918	62,593	-0,081	0,060
-709,904	193,820	0,023	-0,026
-708,889	-83,009	-0,052	-0,012
-707,875	-69,108	-0,137	-0,039
-706,860	20,529	0,091	0,054
-705,845	-9,878	0,109	-0,054
-704,831	40,359	0,099	0,066
-703,816	-200,000	-0,000	-0,066
-702,802	-200,000	-0,004	0,031
-701,787	-22,866	-0,125	-0,056
-700,772	-200,000	-0,010	-0,121
-699,758	-200,000	-0,011	-0,081
-698,743	473,366	-0,030	-0,051
-697,729	-200,000	0,016	0,053
-696,714	437,069	-0,049	0,079
-695,699	-154,131	-0,222	0,011
-694,685	195,643	0,086	-0,096
-693,670	104,127	0,073	-0,064
-692,656	132,317	0,034	0,032
-691,641	-200,000	0,003	-0,027
-690,627	-110,899	0,159	-0,024
-689,612	440,256	-0,073	-0,119
-688,597	219,433	-0,055	-0,066
-687,583	-200,000	0,008	0,120
-686,568	136,709	-0,185	-0,178
-685,554	-182,971	0,062	0,001
-684,539	-83,714	0,206	0,048
-683,524	800,000	0,010	0,023
-682,510	66,454	0,113	0,085
-681,495	-35,709	0,118	0,047
-680,481	359,117	-0,110	-0,163
-679,466	-200,000	0,020	-0,237
-678,451	-7,543	0,032	0,016
-677,437	-200,000	-0,021	-0,116
-676,422	-200,000	-0,005	0,055
-675,408	86,262	0,038	0,031
-674,393	138,129	-0,031	-0,030
-673,378	-200,000	-0,014	-0,079
-672,364	-194,977	-0,086	-0,000
-671,349	-0,361	-0,070	0,036
-670,335	57,292	0,083	-0,060
-669,320	-32,490	0,150	0,061
-668,305	800,000	0,055	0,125
-667,291	800,000	0,044	0,118
-666,276	-200,000	0,006	-0,108
-665,262	-90,064	0,077	-0,016
-664,247	-200,000	0,013	-0,047
-663,232	-200,000	-0,006	0,184
-662,218	800,000	0,078	0,165
-661,203	-200,000	-0,015	0,065
-660,189	487,857	-0,083	-0,140
-659,174	29,217	-0,084	-0,053
-658,159	-200,000	-0,034	-0,227
-657,145	-163,921	-0,181	-0,006
-656,130	-200,000	-0,020	-0,114
-655,116	-13,594	0,177	0,084
-654,101	-23,792	-0,080	0,035
-653,086	609,805	-0,081	0,150
-652,072	800,000	0,022	-0,056
-651,057	94,804	-0,208	-0,175
-650,043	800,000	0,042	-0,127
-649,028	144,499	0,070	0,069
-648,014	518,987	-0,016	0,028
-646,999	257,552	-0,020	0,026
-645,984	268,846	-0,060	-0,078
-644,970	800,000	-0,037	-0,080
-643,955	-54,525	0,080	-0,027
-642,941	351,416	0,039	-0,057
-641,926	204,779	-0,099	0,113
-640,911	-200,000	-0,002	0,075
-639,897	-200,000	-0,018	0,144
-638,882	292,627	-0,016	-0,021
-637,868	-200,000	-0,004	-0,047
-636,853	-122,379	-0,039	-0,005
-635,838	-200,000	-0,008	-0,089
-634,824	-200,000	0,030	0,118
-633,809	-140,152	-0,032	-0,002
-632,795	45,992	-0,061	-0,042
-631,780	-187,889	-0,074	-0,001
-630,765	-117,675	-0,165	-0,022
-629,751	72,169	-0,132	0,102
-628,736	248,483	-0,036	-0,045
-627,722	-173,902	0,103	-0,002
-626,707	800,000	-0,064	-0,138
-625,692	-93,500	0,106	0,022
-624,678	370,119	0,018	-0,027
-623,663	-200,000	0,005	-0,102
-622,649	-200,000	-0,016	-0,078
-621,634	481,671	-0,030	-0,050
-620,619	-200,000	-0,018	-0,072
-619,605	-200,000	0,008	-0,183
-618,590	-54,664	0,020	-0,007
-617,576	800,000	0,055	0,140
-616,561	686,906	0,053	0,103
-615,546	-45,810	-0,179	-0,065
-614,532	-200,000	-0,046	-0,159
-613,517	800,000	-0,064	-0,134
-612,503	46,609	0,085	-0,058
-611,488	-121,492	0,140	-0,017
-610,474	800,000	0,018	0,038
-609,459	160,896	-0,064	-0,066
-608,444	-69,446	-0,031	0,009
-607,430	-200,000	-0,024	0,133
-606,415	-200,000	0,006	-0,065
-605,401	258,514	0,046	-0,059
-604,386	-152,154	0,032	-0,002
-603,371	110,523	0,077	0,069
-602,357	-90,788	-0,078	0,016
-601,342	-22,148	-0,031	0,014
-600,328	72,899	-0,034	-0,027
-599,313	-200,000	-0,015	-0,103
-598,298	-38,181	-0,026	0,010
-597,284	-96,624	0,118	0,023
-596,269	-60,496	-0,209	-0,065
-595,255	-97,315	0,110	-0,021
-594,240	221,098	0,059	-0,070
-593,225	-200,000	0,006	-0,033
-592,211	-27,500	0,061	-0,026
-591,196	-171,991	-0,146	0,003
-590,182	-171,087	0,135	-0,003
-589,167	116,368	-0,063	-0,057
-588,152	57,909	-0,098	0,070
-587,138	800,000	-0,011	0,029
-586,123	6,183	-0,106	-0,058
-585,109	47,344	-0,022	-0,015
-584,094	103,932	0,015	-0,013
-583,079	-84,042	0,056	0,013
-582,065	-200,000	0,034	0,138
-581,050	-118,835	-0,062	0,008
-580,036	800,000	-0,050	-0,127
-579,021	197,224	-0,070	0,079
-578,006	-200,000	0,003	0,087
-576,992	319,163	-0,044	-0,062
-575,977	800,000	0,039	-0,116
-574,963	-200,000	0,008	0,054
-573,948	-117,252	0,123	0,016
-572,934	797,836	0,006	0,013
-571,919	800,000	-0,039	-0,114
-570,904	-52,755	-0,108	0,037
-569,890	152,013	-0,046	0,046
-568,875	-79,687	0,033	-0,008
-567,861	-135,941	-0,122	0,010
-566,846	576,270	-0,019	-0,035
-565,831	5,965	0,070	-0,038
-564,817	800,000	-0,041	-0,117
-563,802	800,000	-0,044	-0,096
-562,788	-51,144	0,048	-0,016
-561,773	10,498	0,091	-0,051
-560,758	-200,000	-0,015	0,064
-559,744	-200,000	-0,005	0,064
-558,729	135,211	0,047	0,045
-557,715	607,861	0,028	0,051
-556,700	780,277	-0,031	0,064
-555,685	-200,000	-0,005	0,034
-554,671	-200,000	0,003	0,036
-553,656	108,206	0,064	0,056
-552,642	59,927	0,022	0,016
-551,627	-200,000	0,007	-0,034
-550,612	-200,000	-0,011	-0,091
-549,598	-12,932	0,064	0,030
-548,583	-53,412	0,084	-0,028
-547,569	800,000	0,016	-0,034
-546,554	-200,000	0,006	0,088
-545,539	316,709	0,073	0,102
-544,525	-200,000	0,013	0,098
-543,510	-49,805	0,079	-0,027
-542,496	198,528	0,049	-0,056
-541,481	-79,697	-0,026	-0,006
-540,466	800,000	-0,017	-0,050
-539,452	-142,634	0,116	0,008
-538,437	-200,000	0,015	-0,051
-537,423	-200,000	0,012	0,055
-536,408	237,811	-0,020	-0,024
-535,393	405,027	-0,062	0,097
-534,379	322,456	0,040	-0,056
-533,364	-12,258	-0,093	-0,045
-532,350	-200,000	-0,020	-0,068
-531,335	-117,573	0,053	0,007
-530,321	-47,966	0,039	-0,014
-529,306	-200,000	-0,018	-0,061
-528,291	126,123	0,066	-0,061
-527,277	7,763	-0,103	0,057
-526,262	78,381	-0,078	0,061
-525,248	-150,025	-0,038	-0,002
-524,233	-69,256	0,126	0,035
-523,218	-28,877	-0,014	-0,006
-522,204	174,188	0,078	0,083
-521,189	51,928	-0,126	-0,088
-520,175	-95,223	0,046	0,009
-519,160	-71,591	0,117	-0,032
-518,145	65,069	0,107	0,079
-517,131	94,299	0,068	-0,057
-516,116	128,416	-0,075	0,070
-515,102	-137,142	-0,103	-0,008
-514,087	800,000	-0,003	-0,007
-513,072	156,953	0,043	0,044
-512,058	800,000	0,023	-0,071
-511,043	-200,000	-0,004	-0,144
-510,029	375,085	0,041	-0,062
-509,014	-200,000	0,021	0,079
-507,999	140,713	-0,116	0,113
-506,985	115,090	-0,075	0,067
-505,970	-200,000	-0,009	-0,039
-504,956	243,647	-0,089	-0,109
-503,941	-200,000	0,022	0,083
-502,926	-118,558	0,033	0,004
-501,912	-82,972	0,053	0,012
-500,897	800,000	0,094	0,199
-499,883	146,696	-0,063	0,062
-498,868	150,724	0,097	-0,096
-497,853	-200,000	-0,030	-0,188
-496,839	228,555	-0,096	-0,115
-495,824	762,985	-0,032	0,065
-494,810	-200,000	0,021	0,099
-493,795	195,562	0,022	0,024
-492,781	225,954	0,016	0,019
-491,766	3,816	-0,080	0,043
-490,751	-200,000	0,007	0,083
-489,737	-133,694	-0,059	0,005
-488,722	-200,000	0,022	0,140
-487,708	-15,874	-0,084	0,039
-486,693	800,000	0,029	-0,082
-485,678	-200,000	0,000	0,065
-484,664	800,000	-0,029	0,059
-483,649	134,138	0,050	-0,048
-482,635	-21,086	0,114	0,051
-481,620	69,422	-0,108	0,082
-480,605	-166,873	-0,045	0,001
-479,591	56,342	-0,073	-0,052
-478,576	-200,000	0,001	-0,173
-477,562	84,228	-0,078	0,063
-476,547	-61,434	-0,096	-0,029
-475,532	171,949	-0,018	-0,019
-474,518	196,344	-0,089	-0,099
-473,503	-44,379	0,195	-0,071
-472,489	186,977	-0,074	0,081
-471,474	-200,000	-0,016	0,078
-470,459	-63,163	-0,147	0,044
-469,445	-95,704	-0,088	0,017
-468,430	800,000	-0,008	0,021
-467,416	32,800	-0,026	0,016
-466,401	-200,000	0,014	0,058
-465,386	800,000	0,038	-0,091
-464,372	-116,025	-0,114	0,015
-463,357	32,128	0,058	0,037
-462,343	1,821	0,006	0,003
-461,328	-200,000	0,020	-0,242
-460,313	42,837	-0,035	-0,023
-459,299	-200,000	0,016	0,115
-458,284	-3,407	0,124	0,063
-457,270	69,946	-0,095	0,072
-456,255	800,000	0,033	-0,077
-455,241	-200,000	-0,021	-0,112
-454,226	124,258	0,033	-0,031
-453,211	800,000	0,051	0,146
-452,197	129,904	0,097	0,091
-451,182	800,000	0,049	0,155
-450,168	-200,000	-0,016	0,102
-449,153	9,470	0,079	0,044
-448,138	90,163	-0,118	-0,097
-447,124	594,668	-0,033	-0,061
-446,109	92,966	-0,052	-0,043
-445,095	-123,114	0,101	-0,012
-444,080	21,532	-0,015	0,009
-443,065	-29,747	0,072	0,030
-442,051	38,423	0,032	0,021
-441,036	61,401	-0,105	0,077
-440,022	266,393	0,028	-0,036
-439,007	150,237	0,075	0,075
-437,992	79,594	0,151	0,119
-436,978	-200,000	0,023	-0,075
-435,963	305,194	0,070	-0,096
-434,949	18,726	0,106	-0,062
-433,934	-200,000	-0,020	0,079
-432,919	-91,036	-0,090	-0,019
-431,905	671,024	-0,017	-0,033
-430,890	-55,743	0,052	0,017
-429,876	800,000	0,067	0,143
-428,861	-128,170	-0,162	0,017
-427,846	-74,742	0,045	-0,012
-426,832	800,000	-0,034	-0,103
-425,817	-200,000	-0,011	-0,082
-424,803	491,646	-0,077	-0,129
-423,788	-172,049	0,208	-0,005
-422,773	359,293	-0,103	0,151
-421,759	800,000	0,028	0,069
-420,744	343,690	-0,021	-0,031
-419,730	-200,000	-0,003	-0,146
-418,715	-200,000	-0,031	-0,122
-417,701	-200,000	0,003	-0,071
-416,686	-10,761	-0,055	-0,027
-415,671	45,644	0,066	0,045
-414,657	119,397	0,042	-0,038
-413,642	1,691	-0,077	0,041
-412,628	38,408	0,071	-0,046
-411,613	-77,126	-0,113	0,029
-410,598	16,412	0,150	0,086
-409,584	800,000	0,043	0,116
-408,569	87,436	-0,012	-0,010
-407,555	215,436	0,086	0,101
-406,540	-200,000	-0,005	-0,040
-405,525	37,069	0,072	-0,047
-404,511	800,000	-0,046	-0,126
-403,496	-11,318	0,096	-0,046
-402,482	-200,000	0,001	-0,089
-401,467	-54,669	0,055	-0,018
-400,452	800,000	-0,008	0,021
-399,438	-113,368	0,140	-0,020
-398,423	301,292	0,053	0,072
-397,409	-200,000	-0,001	-0,027
-396,394	4,496	0,101	-0,054
-395,379	157,139	-0,038	-0,039
-394,365	4,482	-0,100	-0,054
-393,350	160,584	0,128	0,131
-392,336	733,671	-0,004	0,008
-391,321	290,623	-0,022	0,029
-390,306	200,058	0,018	-0,020
-389,292	-127,191	0,031	0,003
-388,277	359,594	0,044	0,065
-387,263	-200,000	0,044	0,179
-386,248	77,764	-0,025	0,020
-385,233	800,000	0,032	-0,083
-384,219	-100,988	0,089	0,016
-383,204	800,000	-0,060	-0,150
-382,190	157,733	0,010	-0,011
-381,175	-200,000	-0,017	0,087
-380,160	346,258	0,051	0,073
-379,146	170,839	0,048	0,050
-378,131	-167,695	0,071	0,002
-377,117	-2,091	0,108	-0,055
-376,102	-200,000	-0,018	-0,161
-375,088	-200,000	0,023	0,085
-374,073	-126,707	0,048	0,005
-373,058	-99,243	0,054	0,010
-372,044	-159,513	0,025	-0,001
-371,029	147,586	0,138	-0,136
-370,015	-200,000	-0,008	0,091
-369,000	-52,254	0,036	0,012
-367,985	-200,000	-0,017	-0,062
-366,971	298,753	0,050	-0,067
-365,956	-200,000	0,003	0,050
-364,942	-32,394	0,025	0,010
-363,927	-96,264	-0,031	0,006
-362,912	800,000	0,055	-0,126
-361,898	-25,044	-0,113	-0,049
-360,883	61,031	-0,088	-0,064
-359,869	-29,397	-0,087	0,036
-358,854	254,725	-0,044	-0,055
-357,839	-200,000	-0,025	0,096
-356,825	751,458	-0,056	-0,111
-355,810	178,037	-0,056	0,060
-354,796	463,410	0,021	-0,034
-353,781	-200,000	-0,026	-0,091
-352,766	-200,000	-0,009	-0,088
-351,752	-112,164	-0,026	-0,004
-350,737	330,712	-0,044	0,062
-349,723	-57,720	0,106	-0,034
-348,708	-88,677	0,126	-0,027
-347,693	-3,007	0,059	-0,030
-346,679	-34,382	-0,156	-0,062
-345,664	315,039	0,051	-0,071
-344,650	311,562	0,076	0,105
-343,635	65,908	0,065	-0,048
-342,620	-200,000	0,031	0,109
-341,606	157,604	0,088	-0,089
-340,591	-65,266	-0,044	-0,013
-339,577	326,492	0,067	-0,094
-338,562	108,719	-0,141	-0,123
-337,548	-122,066	0,145	0,017
-336,533	356,374	0,020	0,029
-335,518	-37,940	0,084	-0,033
-334,504	800,000	-0,011	-0,025
-333,489	-131,489	-0,039	-0,004
-332,475	296,459	-0,060	-0,080
-331,460	800,000	0,052	-0,158
-330,445	-200,000	0,001	-0,113
-329,431	275,161	0,037	-0,048
-328,416	-200,000	0,010	-0,091
-327,402	800,000	0,031	0,065
-326,387	-200,000	0,023	0,134
-325,372	-126,825	-0,065	-0,007
-324,358	598,600	-0,038	0,068
-323,343	344,485	-0,069	-0,099
-322,329	228,314	-0,071	0,084
-321,314	-200,000	0,002	0,098
-320,299	-200,000	0,005	-0,103
-319,285	-70,919	0,088	0,024
-318,270	-64,381	-0,056	-0,017
-317,256	-175,464	-0,159	0,003
-316,241	-25,274	0,087	0,037
-315,226	256,247	-0,062	0,078
-314,212	6,528	-0,052	-0,028
-313,197	203,497	-0,076	0,086
-312,183	248,377	0,082	0,101
-311,168	89,040	-0,084	0,068
-310,153	39,312	-0,115	-0,075
-309,139	415,477	0,032	-0,049
-308,124	800,000	0,034	0,073
-307,110	67,384	0,096	0,071
-306,095	-124,191	-0,067	-0,008
-305,080	127,831	-0,021	0,020
-304,066	-200,000	0,019	0,155
-303,051	-97,969	-0,045	-0,008
-302,037	616,812	-0,078	-0,144
-301,022	800,000	0,006	-0,018
-300,008	-200,000	0,008	0,148
-298,993	-200,000	-0,006	0,109
-297,978	-200,000	0,016	-0,053
-296,964	102,899	0,175	-0,150
-295,949	54,561	-0,128	-0,090
-294,935	647,882	-0,015	0,028
-293,920	63,288	0,121	-0,088
-292,905	-200,000	-0,015	0,112
-291,891	46,371	0,139	0,094
-290,876	-200,000	0,002	0,110
-289,862	-39,424	-0,049	-0,019
-288,847	-200,000	-0,012	0,074
-287,832	800,000	0,013	0,038
-286,818	90,355	-0,028	0,022
-285,803	145,267	0,032	0,031
-284,789	-200,000	0,022	0,138
-283,774	-72,264	-0,035	-0,009
-282,759	212,862	-0,052	-0,060
-281,745	-61,454	-0,123	-0,037
-280,730	-72,575	0,098	0,026
-279,716	-200,000	-0,017	-0,077
-278,701	9,211	-0,049	0,027
-277,686	800,000	0,032	0,080
-276,672	-85,525	-0,032	0,007
-275,657	351,572	-0,081	0,118
-274,643	800,000	0,033	-0,095
-273,628	51,518	0,085	0,058
-272,613	62,564	0,092	-0,067
-271,599	-60,461	-0,144	0,044
-270,584	800,000	-0,060	-0,129
-269,570	-113,876	0,162	0,023
-268,555	-200,000	-0,010	-0,043
-267,540	-81,262	-0,037	-0,009
-266,526	195,269	-0,163	-0,180
-265,511	301,587	-0,080	-0,108
-264,497	800,000	-0,040	0,089
-263,482	-23,112	-0,020	0,009
-262,467	72,016	-0,024	0,018
-261,453	562,121	-0,109	0,193
-260,438	-200,000	0,002	0,047
-259,424	47,164	-0,068	0,046
-258,409	173,514	0,075	-0,079
-257,395	167,947	0,177	0,183
-256,380	-200,000	0,014	0,142
-255,365	-200,000	-0,015	0,055
-254,351	50,877	-0,042	0,029
-253,336	384,180	-0,105	-0,158
-252,322	559,235	-0,044	0,077
-251,307	-102,464	-0,168	-0,029
-250,292	-200,000	-0,007	0,108
-249,278	-200,000	0,005	-0,031
-248,263	800,000	0,012	-0,024
-247,249	52,457	-0,060	-0,042
-246,234	-3,589	-0,032	0,016
-245,219	-127,591	0,070	0,007
-244,205	205,152	-0,033	-0,038
-243,190	-86,050	0,200	-0,044
-242,176	800,000	0,018	0,051
-241,161	800,000	0,043	0,093
-240,146	474,794	-0,024	-0,040
-239,132	25,112	-0,045	0,027
-238,117	800,000	-0,050	-0,107
-237,103	-200,000	-0,019	-0,068
-236,088	321,954	0,072	-0,100
-235,073	10,378	-0,085	0,047
-234,059	-200,000	0,161	-0,000
-233,044	-105,460	0,037	0,006
-232,030	266,509	0,072	-0,092
-231,015	-197,416	-0,059	0,000
-230,000	-94,217	0,075	0,015
-228,986	84,689	0,077	0,061
-227,971	800,000	-0,060	-0,124
-226,957	-109,382	0,029	-0,004
-225,942	365,915	-0,072	0,106
-224,927	-66,539	-0,145	0,042
-223,913	137,767	-0,068	0,065
-222,898	-7,644	-0,168	-0,082
-221,884	-109,590	-0,037	-0,006
-220,869	800,000	0,059	0,149
-219,855	-64,109	-0,068	-0,020
-218,840	-94,706	-0,079	0,015
-217,825	-200,000	-0,005	-0,067
-216,811	68,100	0,077	0,057
-215,796	401,730	-0,016	-0,024
-214,782	-200,000	-0,029	0,149
-213,767	246,448	-0,029	-0,036
-212,752	155,514	0,102	0,102
-211,738	328,267	0,098	0,137
-210,723	762,361	-0,027	0,054
-209,709	254,337	-0,088	0,110
-208,694	800,000	0,071	0,188
-207,679	-200,000	-0,001	0,171
-206,665	-200,000	0,158	-0,000
-205,650	597,201	0,014	0,026
-204,636	-53,630	-0,176	0,058
-203,621	-12,027	0,153	-0,073
-202,606	85,658	-0,032	0,026
-201,592	274,663	-0,067	0,086
-200,577	-200,000	0,000	0,049
-199,563	-200,000	-0,003	0,056
-198,548	277,248	0,048	-0,062
-197,533	-200,000	0,010	0,050
-196,519	-122,714	0,084	-0,010
-195,504	251,208	-0,053	-0,066
-194,490	-14,190	-0,065	-0,031
-193,475	-86,208	0,048	0,011
-192,460	800,000	0,010	-0,022
-191,446	-29,002	0,067	-0,028
-190,431	-5,658	0,044	-0,022
-189,417	-20,702	0,059	0,026
-188,402	800,000	-0,033	-0,096
-187,387	-11,573	-0,068	-0,032
-186,373	52,885	-0,073	-0,051
-185,358	-37,939	0,044	0,017
-184,344	282,761	-0,115	-0,150
-183,329	800,000	0,053	0,159
-182,315	163,468	0,087	-0,089
-181,300	-164,956	-0,076	-0,002
-180,285	800,000	0,034	-0,076
-179,271	324,420	-0,104	-0,144
-178,256	800,000	-0,025	0,054
-177,242	405,160	0,046	0,071
-176,227	-74,748	0,058	-0,015
-175,212	-128,823	-0,041	-0,004
-174,198	-51,984	-0,123	0,041
-173,183	-16,124	0,126	0,058
-172,169	555,649	-0,044	-0,077
-171,154	800,000	-0,064	-0,183
-170,139	389,585	0,026	0,039
-169,125	-200,000	0,013	-0,062
-168,110	-10,422	0,151	-0,072
-167,096	-42,772	-0,099	0,036
-166,081	413,550	0,036	0,056
-165,066	-109,222	0,087	0,013
-164,052	537,074	-0,075	-0,130
-163,037	800,000	0,047	-0,100
-162,023	386,563	-0,037	0,055
-161,008	-148,105	0,085	-0,005
-159,993	238,715	-0,028	-0,034
-158,979	177,577	-0,078	-0,083
-157,964	61,127	0,015	-0,011
-156,950	71,548	-0,083	0,063
-155,935	0,730	0,062	-0,032
-154,920	281,159	0,064	0,084
-153,906	-200,000	-0,043	0,146
-152,891	800,000	-0,051	0,139
-151,877	800,000	-0,016	0,041
-150,862	-110,458	-0,112	-0,017
-149,847	800,000	0,016	0,048
-148,833	-75,817	-0,092	-0,023
-147,818	800,000	-0,044	0,127
-146,804	-148,848	0,100	0,006
-145,789	16,766	0,095	-0,054
-144,775	-6,157	0,080	-0,040
-143,760	75,961	-0,054	0,042
-142,745	-200,000	-0,012	0,143
-141,731	281,736	-0,021	-0,027
-140,716	133,665	0,021	0,020
-139,702	-80,431	0,054	-0,013
-138,687	-200,000	0,002	0,075
-137,672	-178,391	-0,035	0,001
-136,658	-95,919	0,089	-0,017
-135,643	-86,905	0,074	0,016
-134,629	211,639	0,017	0,020
-133,614	800,000	-0,015	-0,031
-132,599	800,000	0,060	-0,121
-131,585	30,639	0,091	0,056
-130,570	800,000	0,005	0,010
-129,556	-200,000	-0,018	-0,111
-128,541	-200,000	0,002	0,011
-127,526	-89,225	0,107	0,023
-126,512	105,776	0,041	0,035
-125,497	800,000	-0,025	0,065
-124,483	299,142	0,068	0,090
-123,468	800,000	0,008	-0,019
-122,453	-200,000	-0,038	-0,151
-121,439	-200,000	0,017	0,111
-120,424	-173,406	0,109	0,002
-119,410	-108,567	-0,087	-0,013
