DTS Sentinel unit serial number:	SN410029Multiplexer serial number:	ORYXHardware model number:	OX2-SRSoftware version number:	ORYX F/W v4,00 Oryx Data Collector v3.7.2.0data status	okinstallation	B6 Nyhavnadifferential loss correction	single-endedforward channel	channel 2reverse channel	N/Adate	2023/12/07time	18:30:08forward acquisition time	300,00reverse acquisition time	0,00gamma	499,1914k internal	0,3164k external	0,3164temperature offset calibration	1,0000default loss term (dB/km)	0,3820temperature slope calibration	1,0000multiplexer offset coefficient	1,0000multiplexer slope coefficient	1,0000fibre end	0,00T internal ref (°C)	14,25T ext. ref 1 (°C)	-2,73T ext. ref 2 (°C)	-2,73length (m)	temperature (°C)	Stokes	anti-Stokes-744,400	-87,194	0,152	-0,034
-743,385	-89,229	-0,283	-0,061
-742,371	-200,000	0,027	0,163
-741,356	-85,780	-0,246	-0,056
-740,342	-98,521	0,161	0,030
-739,327	-149,716	-0,368	0,021
-738,312	3,154	0,157	-0,084
-737,298	-19,826	-0,271	-0,123
-736,283	52,543	0,119	0,083
-735,269	-78,350	-0,261	-0,065
-734,254	97,263	0,091	-0,076
-733,239	-21,212	-0,437	-0,196
-732,225	-117,769	0,246	0,032
-731,210	-200,000	0,070	0,000
-730,196	-200,000	0,001	-0,010
-729,181	271,998	-0,141	-0,183
-728,167	800,000	-0,022	-0,065
-727,152	118,699	-0,063	-0,057
-726,137	-200,000	0,001	0,093
-725,123	589,504	-0,054	-0,098
-724,108	-26,750	-0,064	0,027
-723,094	26,865	0,059	-0,036
-722,079	-200,000	-0,002	-0,023
-721,064	800,000	-0,029	-0,080
-720,050	-194,093	-0,112	0,001
-719,035	-200,000	-0,043	-0,161
-718,021	800,000	-0,059	-0,124
-717,006	-200,000	-0,019	-0,107
-715,991	79,318	-0,162	-0,128
-714,977	-200,000	-0,014	-0,099
-713,962	31,683	-0,136	-0,086
-712,948	-200,000	-0,000	-0,051
-711,933	576,806	-0,020	-0,036
-710,918	-48,655	0,124	-0,043
-709,904	-200,000	0,012	-0,105
-708,889	800,000	-0,072	-0,234
-707,875	800,000	-0,043	-0,135
-706,860	248,238	-0,033	-0,041
-705,845	-195,607	0,169	0,001
-704,831	-200,000	-0,010	-0,068
-703,816	636,292	-0,054	-0,102
-702,802	16,393	0,114	-0,066
-701,787	258,384	-0,053	-0,067
-700,772	-97,141	-0,119	-0,023
-699,758	-200,000	0,047	0,000
-698,743	-85,736	0,024	0,005
-697,729	800,000	-0,012	0,034
-696,714	-73,620	0,035	-0,009
-695,699	12,382	-0,051	-0,029
-694,685	-134,115	-0,261	0,023
-693,670	163,804	0,016	-0,017
-692,656	58,665	-0,098	0,071
-691,641	778,225	0,036	0,072
-690,627	-200,000	-0,011	-0,113
-689,612	-101,332	-0,087	-0,015
-688,597	-200,000	0,014	-0,074
-687,583	-13,640	-0,015	-0,007
-686,568	-200,000	0,028	0,095
-685,554	244,365	0,047	-0,058
-684,539	-90,985	0,056	0,012
-683,524	-200,000	0,036	-0,157
-682,510	-200,000	-0,010	-0,034
-681,495	-200,000	-0,009	-0,063
-680,481	404,214	-0,061	-0,094
-679,466	470,339	-0,110	-0,182
-678,451	-200,000	-0,009	0,047
-677,437	676,384	-0,022	-0,043
-676,422	509,307	-0,070	0,119
-675,408	-78,601	0,064	0,016
-674,393	-200,000	-0,026	-0,223
-673,378	-18,737	-0,073	-0,033
-672,364	-200,000	0,002	-0,032
-671,349	-78,935	0,093	-0,023
-670,335	494,200	-0,011	0,018
-669,320	-51,481	0,046	0,016
-668,305	544,463	0,036	0,064
-667,291	-165,489	-0,038	0,001
-666,276	800,000	-0,070	-0,144
-665,262	-5,321	-0,153	-0,077
-664,247	-34,388	0,030	-0,012
-663,232	-200,000	0,005	-0,078
-662,218	-200,000	-0,002	0,050
-661,203	71,656	0,069	0,053
-660,189	-11,664	0,075	-0,036
-659,174	-4,173	-0,074	-0,038
-658,159	800,000	0,022	-0,068
-657,145	57,490	-0,065	-0,047
-656,130	-171,465	0,058	-0,001
-655,116	253,253	-0,102	0,128
-654,101	40,649	0,168	-0,111
-653,086	101,565	-0,025	0,022
-652,072	-100,918	-0,095	-0,017
-651,057	596,578	-0,068	-0,124
-650,043	139,974	-0,025	-0,024
-649,028	800,000	0,013	-0,033
-648,014	159,786	-0,043	0,044
-646,999	4,408	-0,063	0,034
-645,984	28,247	-0,041	-0,025
-644,970	213,866	0,054	-0,062
-643,955	800,000	0,013	-0,026
-642,941	-12,972	-0,013	0,006
-641,926	-200,000	-0,002	0,063
-640,911	-89,581	0,084	0,018
-639,897	288,011	0,064	0,085
-638,882	-200,000	-0,017	-0,059
-637,868	-119,899	-0,140	0,017
-636,853	-94,281	-0,133	-0,026
-635,838	-161,191	-0,170	0,006
-634,824	133,500	-0,112	0,106
-633,809	-99,492	0,037	-0,007
-632,795	110,640	-0,093	0,082
-631,780	215,063	0,072	0,084
-630,765	155,545	-0,087	-0,087
-629,751	-200,000	0,016	-0,065
-628,736	-43,892	-0,035	0,013
-627,722	92,298	-0,017	-0,014
-626,707	-30,682	0,037	0,015
-625,692	0,590	-0,058	0,030
-624,678	-62,497	0,076	0,023
-623,663	184,266	0,046	0,050
-622,649	-200,000	0,027	-0,225
-621,634	800,000	-0,078	-0,170
-620,619	800,000	0,012	-0,034
-619,605	703,259	-0,016	0,030
-618,590	-108,191	0,056	-0,009
-617,576	-200,000	-0,000	-0,059
-616,561	73,043	-0,026	0,020
-615,546	-200,000	-0,014	-0,103
-614,532	-37,978	-0,078	-0,030
-613,517	-171,100	-0,112	0,003
-612,503	800,000	0,021	0,047
-611,488	160,206	0,062	-0,063
-610,474	-200,000	-0,020	-0,204
-609,459	34,447	-0,076	0,048
-608,444	800,000	-0,053	-0,134
-607,430	229,418	-0,035	-0,042
-606,415	-46,463	0,064	-0,023
-605,401	-200,000	-0,040	0,145
-604,386	-57,243	0,139	-0,044
-603,371	319,354	0,029	-0,040
-602,357	-9,681	0,084	-0,041
-601,342	-200,000	0,024	0,123
-600,328	222,290	-0,072	-0,085
-599,313	-85,838	0,156	-0,035
-598,298	-18,649	-0,121	0,055
-597,284	492,955	-0,082	0,138
-596,269	66,408	-0,030	-0,022
-595,255	800,000	-0,046	0,133
-594,240	-137,328	0,057	0,005
-593,225	564,790	-0,053	0,094
-592,211	64,638	0,098	-0,072
-591,196	-98,725	0,031	0,006
-590,182	213,899	-0,047	-0,054
-589,167	800,000	-0,042	0,130
-588,152	498,152	-0,079	0,133
-587,138	-99,049	0,109	0,020
-586,123	-92,700	-0,080	0,016
-585,109	800,000	-0,025	0,065
-584,094	-200,000	0,017	0,092
-583,079	-200,000	0,008	-0,086
-582,065	800,000	0,016	-0,034
-581,050	442,809	0,026	-0,041
-580,036	-23,492	-0,044	-0,019
-579,021	3,833	-0,119	0,064
-578,006	24,069	0,058	-0,035
-576,992	-200,000	0,010	0,065
-575,977	-38,702	-0,029	0,011
-574,963	295,445	-0,048	-0,065
-573,948	-200,000	-0,001	-0,043
-572,934	204,411	0,104	-0,119
-571,919	-9,794	-0,036	0,017
-570,904	408,095	-0,037	0,057
-569,890	-200,000	-0,004	-0,020
-568,875	322,289	-0,012	-0,016
-567,861	75,945	-0,012	0,009
-566,846	-200,000	0,021	0,103
-565,831	-200,000	0,026	-0,101
-564,817	227,235	0,002	0,002
-563,802	-200,000	0,007	-0,092
-562,788	236,365	-0,109	-0,132
-561,773	-60,567	0,102	-0,031
-560,758	34,449	-0,048	-0,031
-559,744	488,335	0,062	-0,104
-558,729	367,706	-0,015	-0,022
-557,715	800,000	0,033	0,083
-556,700	63,282	-0,055	0,040
-555,685	91,727	-0,105	0,086
-554,671	31,915	0,125	0,079
-553,656	-41,971	0,088	0,033
-552,642	-80,280	-0,177	0,043
-551,627	800,000	0,019	0,047
-550,612	671,253	0,068	-0,129
-549,598	-71,521	0,038	0,010
-548,583	-200,000	0,024	-0,141
-547,569	85,997	0,031	0,025
-546,554	6,637	-0,070	0,038
-545,539	-70,499	0,131	0,036
-544,525	55,657	-0,095	0,067
-543,510	-200,000	-0,045	0,172
-542,496	-124,677	-0,015	-0,002
-541,481	87,963	-0,128	-0,104
-540,466	-200,000	0,026	0,132
-539,452	146,501	-0,040	0,040
-538,437	-200,000	0,000	0,106
-537,423	-200,000	-0,001	0,030
-536,408	-129,774	0,066	-0,007
-535,393	-200,000	0,015	-0,135
-534,379	287,937	-0,045	-0,060
-533,364	-186,971	0,012	0,000
-532,350	-200,000	-0,020	0,116
-531,335	-200,000	0,019	0,069
-530,321	772,018	0,075	0,149
-529,306	-143,697	-0,027	0,002
-528,291	26,371	-0,061	-0,037
-527,277	332,292	0,036	-0,051
-526,262	-95,341	-0,043	0,008
-525,248	-76,293	0,056	0,014
-524,233	122,037	0,019	0,017
-523,218	-200,000	0,027	-0,155
-522,204	-87,422	-0,080	-0,018
-521,189	402,095	0,040	0,061
-520,175	-200,000	-0,022	-0,139
-519,160	-200,000	0,011	-0,064
-518,145	-200,000	-0,016	0,070
-517,131	212,180	0,047	-0,054
-516,116	-47,198	-0,043	-0,015
-515,102	-67,285	-0,013	0,004
-514,087	101,562	0,048	-0,041
-513,072	-168,571	-0,096	0,003
-512,058	65,116	0,062	-0,046
-511,043	101,071	-0,033	0,028
-510,029	-200,000	-0,003	0,027
-509,014	-200,000	-0,015	0,131
-507,999	303,445	0,062	-0,084
-506,985	-20,890	0,093	0,041
-505,970	-146,284	-0,019	-0,001
-504,956	800,000	-0,036	-0,117
-503,941	-200,000	-0,030	0,133
-502,926	-125,593	0,083	-0,009
-501,912	-200,000	-0,033	0,121
-500,897	-200,000	-0,033	0,140
-499,883	800,000	-0,031	0,074
-498,868	10,954	0,125	-0,069
-497,853	-48,386	0,118	0,041
-496,839	20,170	-0,150	-0,088
-495,824	-79,220	-0,124	-0,030
-494,810	-26,510	0,041	-0,017
-493,795	-200,000	-0,002	0,095
-492,781	-44,041	-0,070	0,026
-491,766	205,759	-0,118	-0,133
-490,751	-163,550	-0,102	0,003
-489,737	679,982	0,084	0,161
-488,722	800,000	-0,063	-0,139
-487,708	563,357	-0,044	-0,078
-486,693	-30,233	0,014	0,006
-485,678	158,108	-0,076	0,077
-484,664	-200,000	-0,027	-0,100
-483,649	-200,000	-0,065	-0,274
-482,635	41,178	0,075	-0,049
-481,620	181,630	0,063	0,067
-480,605	-200,000	0,006	0,054
-479,591	153,152	-0,123	0,122
-478,576	-200,000	0,026	0,084
-477,562	-64,726	-0,107	-0,031
-476,547	34,870	0,056	-0,036
-475,532	-25,260	-0,028	-0,012
-474,518	172,258	-0,040	0,042
-473,503	-51,352	0,042	-0,014
-472,489	-117,678	-0,113	-0,015
-471,474	-14,410	-0,123	0,057
-470,459	770,506	-0,022	-0,045
-469,445	4,834	0,147	-0,078
-468,430	-114,976	-0,104	-0,014
-467,416	-136,141	0,066	0,006
-466,401	-55,045	-0,041	-0,013
-465,386	-5,377	0,012	0,006
-464,372	37,922	0,091	-0,059
-463,357	618,347	0,055	-0,100
-462,343	243,391	0,088	-0,107
-461,328	-200,000	0,027	0,095
-460,313	338,862	0,033	-0,047
-459,299	-74,351	0,090	-0,023
-458,284	-116,460	-0,053	0,007
-457,270	111,514	-0,001	-0,001
-456,255	800,000	0,013	0,029
-455,241	-126,210	-0,097	-0,010
-454,226	33,523	0,091	0,057
-453,211	-200,000	-0,012	0,038
-452,197	346,288	0,059	0,085
-451,182	96,511	-0,105	-0,088
-450,168	-200,000	0,018	0,089
-449,153	-200,000	0,018	-0,134
-448,138	800,000	-0,031	-0,070
-447,124	779,650	0,021	-0,042
-446,109	800,000	0,008	-0,020
-445,095	202,316	0,045	-0,050
-444,080	39,120	0,074	-0,048
-443,065	502,894	-0,024	0,041
-442,051	181,038	0,033	0,035
-441,036	-200,000	0,002	0,076
-440,022	-200,000	0,023	-0,109
-439,007	-130,645	-0,091	-0,009
-437,992	800,000	-0,055	0,159
-436,978	4,587	0,061	-0,032
-435,963	-147,386	-0,063	0,004
-434,949	-102,679	0,225	-0,039
-433,934	-124,425	-0,103	-0,012
-432,919	530,611	-0,009	-0,016
-431,905	490,139	-0,073	-0,122
-430,890	-131,654	0,051	-0,005
-429,876	800,000	-0,031	0,066
-428,861	-200,000	0,001	0,018
-427,846	-29,235	-0,113	0,047
-426,832	-62,571	-0,140	0,042
-425,817	250,819	0,110	-0,136
-424,803	-200,000	0,031	-0,126
-423,788	800,000	-0,021	-0,043
-422,773	-133,456	0,062	0,006
-421,759	-200,000	-0,019	0,102
-420,744	206,175	0,013	-0,015
-419,730	-67,804	-0,131	-0,037
-418,715	800,000	0,049	-0,134
-417,701	800,000	-0,011	0,033
-416,686	-200,000	0,017	-0,103
-415,671	319,518	-0,024	-0,033
-414,657	758,704	-0,018	0,036
-413,642	-104,602	0,180	-0,030
-412,628	-74,157	0,152	-0,040
-411,613	800,000	-0,036	-0,113
-410,598	196,866	-0,119	-0,131
-409,584	225,203	0,032	-0,038
-408,569	605,872	0,047	-0,085
-407,555	147,119	-0,034	0,034
-406,540	234,313	0,017	-0,020
-405,525	193,514	-0,030	-0,033
-404,511	-200,000	-0,035	-0,179
-403,496	719,601	0,026	-0,050
-402,482	-200,000	0,053	-0,207
-401,467	800,000	-0,035	0,102
-400,452	378,829	-0,036	0,053
-399,438	-45,402	-0,143	0,051
-398,423	-200,000	-0,001	0,088
-397,409	127,025	0,069	0,063
-396,394	122,834	0,069	-0,063
-395,379	-200,000	0,010	0,107
-394,365	2,495	0,139	0,073
-393,350	-200,000	-0,013	-0,118
-392,336	46,960	0,112	0,075
-391,321	-91,312	0,096	0,020
-390,306	-11,157	-0,057	-0,027
-389,292	120,964	-0,086	0,077
-388,277	39,841	-0,152	0,099
-387,263	-200,000	-0,015	-0,062
-386,248	-50,751	-0,072	-0,024
-385,233	-178,385	-0,086	0,001
-384,219	-200,000	0,008	0,133
-383,204	-200,000	0,006	0,059
-382,190	40,195	0,057	-0,037
-381,175	95,108	-0,027	0,023
-380,160	-121,836	0,108	0,013
-379,146	239,858	0,095	0,114
-378,131	-102,950	-0,019	0,003
-377,117	786,113	0,059	0,118
-376,102	396,271	-0,042	0,063
-375,088	-9,536	0,107	0,052
-374,073	-92,010	0,080	-0,016
-373,058	800,000	-0,048	0,103
-372,044	-9,809	-0,064	-0,031
-371,029	-130,238	0,101	0,010
-370,015	186,049	0,153	0,165
-369,000	166,880	-0,061	-0,062
-367,985	-200,000	0,020	-0,086
-366,971	-200,000	-0,014	-0,055
-365,956	166,330	-0,102	0,105
-364,942	42,239	0,186	0,122
-363,927	241,229	0,030	0,037
-362,912	-34,179	-0,076	0,030
-361,898	800,000	-0,035	-0,109
-360,883	-200,000	-0,006	0,027
-359,869	-200,000	-0,022	-0,103
-358,854	800,000	-0,016	0,036
-357,839	-200,000	0,002	0,060
-356,825	322,655	0,054	0,075
-355,810	419,877	0,073	0,114
-354,796	-130,276	-0,052	-0,005
-353,781	-200,000	-0,028	0,134
-352,766	25,676	-0,103	-0,062
-351,752	182,260	0,108	-0,116
-350,737	53,178	0,152	-0,105
-349,723	800,000	0,030	0,074
-348,708	423,944	0,089	0,139
-347,693	155,439	0,028	0,028
-346,679	-120,434	-0,108	-0,013
-345,664	343,270	-0,023	0,032
-344,650	-23,505	0,129	0,056
-343,635	-200,000	0,017	0,089
-342,620	243,019	-0,022	0,027
-341,606	800,000	-0,006	0,018
-340,591	-150,739	-0,136	0,007
-339,577	-75,031	-0,036	0,009
-338,562	800,000	-0,027	-0,064
-337,548	-200,000	-0,016	-0,069
-336,533	800,000	0,075	-0,182
-335,518	610,611	0,040	-0,072
-334,504	-118,684	0,099	-0,013
-333,489	320,170	-0,026	-0,035
-332,475	800,000	0,093	-0,222
-331,460	472,532	-0,062	-0,102
-330,445	61,819	0,029	-0,021
-329,431	-106,306	-0,072	0,012
-328,416	229,428	0,098	0,116
-327,402	-200,000	0,006	-0,038
-326,387	56,216	0,059	0,041
-325,372	558,211	-0,042	0,074
-324,358	-29,003	-0,191	0,079
-323,343	-67,737	0,010	-0,003
-322,329	778,232	-0,048	0,094
-321,314	-200,000	0,018	0,093
-320,299	-107,463	0,080	-0,013
-319,285	800,000	-0,020	-0,061
-318,270	79,387	-0,039	0,030
-317,256	141,381	0,028	-0,026
-316,241	66,078	-0,138	0,101
-315,226	231,372	0,105	0,125
-314,212	63,830	0,009	0,006
-313,197	-200,000	0,018	0,122
-312,183	-200,000	-0,024	0,141
-311,168	800,000	0,014	-0,030
-310,153	66,390	-0,097	0,071
-309,139	-7,460	-0,122	0,060
-308,124	42,603	-0,038	-0,025
-307,110	93,823	-0,058	0,048
-306,095	182,471	0,030	-0,032
-305,080	-200,000	-0,003	0,060
-304,066	172,663	-0,040	-0,042
-303,051	-200,000	0,015	-0,082
-302,037	800,000	-0,031	-0,067
-301,022	258,677	-0,044	-0,055
-300,008	136,670	0,054	-0,051
-298,993	-18,836	0,125	-0,056
-297,978	-200,000	-0,027	0,140
-296,964	471,373	0,078	-0,127
-295,949	800,000	-0,037	-0,104
-294,935	-60,931	0,066	0,020
-293,920	-200,000	-0,002	-0,009
-292,905	-200,000	0,004	0,106
-291,891	-200,000	0,024	0,142
-290,876	-200,000	0,010	0,044
-289,862	92,383	-0,071	0,057
-288,847	800,000	0,081	-0,182
-287,832	450,011	-0,037	-0,059
-286,818	-102,626	-0,009	-0,002
-285,803	355,906	-0,097	0,141
-284,789	120,791	0,070	0,063
-283,774	-51,937	0,040	-0,013
-282,759	-131,405	-0,063	-0,006
-281,745	800,000	-0,029	0,085
-280,730	745,556	-0,057	-0,112
-279,716	-85,227	0,153	0,034
-278,701	390,074	0,044	0,066
-277,686	-200,000	0,024	0,100
-276,672	800,000	-0,026	0,079
-275,657	104,970	-0,050	0,042
-274,643	-200,000	-0,014	-0,131
-273,628	-200,000	0,029	-0,109
-272,613	244,556	0,048	0,059
-271,599	307,783	0,039	-0,052
-270,584	152,941	0,080	-0,079
-269,570	-39,041	0,054	0,021
-268,555	-39,076	-0,123	0,047
-267,540	23,926	-0,174	0,103
-266,526	278,427	0,045	0,058
-265,511	-125,121	0,047	0,005
-264,497	148,656	0,058	-0,057
-263,482	-165,688	0,071	0,002
-262,467	23,933	-0,116	0,069
-261,453	193,188	0,037	-0,041
-260,438	552,102	0,050	-0,087
-259,424	-200,000	0,003	-0,033
-258,409	-200,000	-0,010	-0,048
-257,395	-84,004	0,120	0,027
-256,380	366,358	-0,030	0,044
-255,365	-200,000	-0,017	0,148
-254,351	-200,000	0,076	0,278
-253,336	624,559	-0,014	-0,025
-252,322	26,785	-0,123	-0,074
-251,307	-57,181	-0,069	-0,022
-250,292	145,571	0,058	-0,057
-249,278	-35,015	0,097	-0,038
-248,263	-200,000	0,009	0,085
-247,249	51,544	0,085	0,058
-246,234	-32,799	0,110	-0,044
-245,219	350,495	-0,056	-0,079
-244,205	-160,667	-0,063	0,002
-243,190	-37,777	-0,048	0,018
-242,176	-143,817	0,109	-0,007
-241,161	-200,000	0,023	-0,120
-240,146	15,653	-0,061	0,035
-239,132	-63,140	0,016	-0,005
-238,117	138,811	0,062	-0,059
-237,103	-200,000	-0,018	0,077
-236,088	-61,358	-0,150	-0,045
-235,073	37,536	0,083	0,053
-234,059	800,000	-0,057	-0,115
-233,044	76,244	-0,055	-0,042
-232,030	39,198	0,080	0,051
-231,015	695,308	0,063	-0,121
-230,000	41,439	0,094	0,061
-228,986	136,403	0,093	0,087
-227,971	484,190	0,063	-0,103
-226,957	298,140	0,030	0,040
-225,942	331,347	0,046	-0,064
-224,927	-64,487	-0,071	0,021
-223,913	124,349	-0,027	-0,025
-222,898	200,866	-0,050	-0,056
-221,884	152,897	-0,131	-0,129
-220,869	-165,578	0,049	-0,001
-219,855	-69,186	0,101	-0,028
-218,840	-200,000	-0,025	0,124
-217,825	398,702	-0,014	-0,021
-216,811	374,968	-0,040	-0,059
-215,796	-53,299	0,086	0,028
-214,782	123,289	-0,066	0,060
-213,767	-36,035	0,104	-0,040
-212,752	-200,000	-0,008	0,112
-211,738	763,862	-0,044	0,087
-210,723	800,000	0,005	0,012
-209,709	485,096	-0,010	-0,017
-208,694	800,000	0,053	-0,159
-207,679	-78,734	-0,092	0,022
-206,665	-56,950	-0,089	-0,028
-205,650	16,239	0,147	0,083
-204,636	291,188	-0,068	0,090
-203,621	790,072	0,060	0,120
-202,606	-200,000	-0,001	0,042
-201,592	800,000	0,064	-0,186
-200,577	647,737	-0,049	-0,091
-199,563	-104,105	0,157	-0,026
-198,548	-79,427	0,070	-0,017
-197,533	800,000	0,075	-0,165
-196,519	189,375	0,034	0,037
-195,504	-200,000	-0,000	0,046
-194,490	259,679	0,051	-0,063
-193,475	-41,809	0,048	-0,017
-192,460	132,343	0,128	-0,119
-191,446	800,000	-0,041	0,087
-190,431	800,000	0,044	0,134
-189,417	15,841	-0,096	0,054
-188,402	-55,301	-0,053	-0,017
-187,387	80,146	-0,050	0,039
-186,373	125,726	-0,073	-0,066
-185,358	65,855	0,036	-0,026
-184,344	302,805	0,069	0,092
-183,329	324,138	-0,097	0,134
-182,315	-14,742	0,018	-0,008
-181,300	676,754	-0,035	-0,065
-180,285	-94,496	0,098	-0,019
-179,271	-200,000	0,005	-0,168
-178,256	242,924	-0,054	-0,066
-177,242	74,377	0,027	0,021
-176,227	112,524	-0,049	0,042
-175,212	-200,000	-0,000	0,015
-174,198	-89,961	-0,019	0,004
-173,183	-200,000	0,023	-0,087
-172,169	742,083	-0,031	-0,061
-171,154	-200,000	-0,012	-0,052
-170,139	-122,476	0,040	-0,005
-169,125	-45,628	-0,130	-0,046
-168,110	387,069	0,041	-0,062
-167,096	800,000	-0,015	0,034
-166,081	-44,430	0,052	0,018
-165,066	-200,000	0,007	-0,023
-164,052	-200,000	-0,007	-0,065
-163,037	-200,000	-0,008	-0,032
-162,023	-130,438	-0,042	0,004
-161,008	-193,400	-0,090	0,001
-159,993	-200,000	-0,003	-0,028
-158,979	-200,000	-0,020	-0,086
-157,964	324,672	-0,052	0,072
-156,950	-200,000	-0,007	0,204
-155,935	-12,043	-0,094	-0,044
-154,920	118,729	0,086	0,077
-153,906	339,701	0,116	0,163
-152,891	800,000	0,027	-0,083
-151,877	800,000	-0,023	-0,056
-150,862	-200,000	-0,003	0,028
-149,847	-69,394	0,059	-0,016
-148,833	-99,063	-0,034	-0,006
-147,818	-106,471	0,111	-0,018
-146,804	-49,273	-0,147	0,050
-145,789	-17,009	-0,035	0,016
-144,775	-200,000	-0,025	0,094
-143,760	-77,819	0,107	-0,026
-142,745	-65,592	0,074	0,021
-141,731	118,919	0,066	0,059
-140,716	460,230	-0,007	-0,011
-139,702	359,067	0,074	-0,107
-138,687	-200,000	0,003	-0,081
-137,672	-138,927	0,170	0,013
-136,658	-200,000	-0,007	-0,083
-135,643	646,045	-0,053	-0,097
-134,629	800,000	0,065	0,163
-133,614	800,000	0,006	0,016
-132,599	800,000	-0,040	0,094
-131,585	800,000	0,044	0,102
-130,570	160,626	0,076	0,077
-129,556	-200,000	-0,015	-0,073
-128,541	156,010	0,166	-0,165
-127,526	800,000	-0,054	0,118
-126,512	-78,647	-0,139	0,034
-125,497	-148,216	-0,095	0,006
-124,483	-136,427	0,014	-0,001
-123,468	1,064	-0,052	0,027
-122,453	-49,123	0,042	0,014
-121,439	397,824	0,011	-0,017
-120,424	800,000	-0,047	-0,131
