DTS Sentinel unit serial number:	SN410029Multiplexer serial number:	ORYXHardware model number:	OX2-SRSoftware version number:	ORYX F/W v4,00 Oryx Data Collector v3.7.2.0data status	okinstallation	B6 Nyhavnadifferential loss correction	single-endedforward channel	channel 2reverse channel	N/Adate	2023/12/07time	18:20:08forward acquisition time	300,00reverse acquisition time	0,00gamma	499,1914k internal	0,3164k external	0,3164temperature offset calibration	1,0000default loss term (dB/km)	0,3820temperature slope calibration	1,0000multiplexer offset coefficient	1,0000multiplexer slope coefficient	1,0000fibre end	0,00T internal ref (°C)	14,27T ext. ref 1 (°C)	-2,68T ext. ref 2 (°C)	-2,69length (m)	temperature (°C)	Stokes	anti-Stokes-744,400	-200,000	-0,024	0,152
-743,385	-97,929	-0,232	-0,044
-742,371	-91,430	0,181	-0,038
-741,356	10,786	-0,251	0,141
-740,342	27,600	0,071	-0,044
-739,327	-103,038	-0,238	-0,041
-738,312	280,085	0,079	-0,105
-737,298	-59,150	-0,205	-0,065
-736,283	800,000	0,027	0,058
-735,269	-157,492	-0,314	0,014
-734,254	-165,858	0,086	-0,003
-733,239	70,325	-0,417	-0,317
-732,225	-13,515	0,205	0,097
-731,210	-108,393	0,092	0,014
-730,196	-200,000	-0,033	-0,121
-729,181	800,000	-0,022	-0,052
-728,167	-200,000	0,021	0,090
-727,152	800,000	0,007	-0,022
-726,137	127,881	-0,102	-0,096
-725,123	-106,306	-0,132	-0,021
-724,108	-200,000	-0,011	-0,085
-723,094	-200,000	-0,032	-0,104
-722,079	-21,785	0,031	0,014
-721,064	-153,412	-0,174	0,009
-720,050	4,267	-0,027	0,014
-719,035	-78,375	-0,097	-0,024
-718,021	-66,588	-0,078	0,023
-717,006	-188,196	0,024	-0,000
-715,991	-125,419	-0,113	-0,012
-714,977	643,522	-0,083	-0,156
-713,962	-11,926	-0,094	0,045
-712,948	186,509	0,090	0,098
-711,933	44,347	-0,034	0,023
-710,918	112,290	0,047	-0,042
-709,904	-63,000	0,083	0,025
-708,889	-200,000	-0,015	-0,055
-707,875	20,743	-0,138	-0,082
-706,860	-200,000	0,002	0,012
-705,845	-200,000	-0,008	0,058
-704,831	33,365	0,115	0,073
-703,816	281,673	-0,009	0,012
-702,802	-200,000	0,020	0,110
-701,787	800,000	-0,067	-0,142
-700,772	-29,224	-0,070	-0,029
-699,758	127,105	0,033	0,030
-698,743	493,249	0,040	0,067
-697,729	515,080	0,044	0,076
-696,714	357,057	-0,066	-0,097
-695,699	-12,476	0,086	-0,041
-694,685	-97,178	0,030	0,006
-693,670	12,508	-0,068	-0,038
-692,656	495,043	-0,076	-0,129
-691,641	455,940	0,016	0,025
-690,627	800,000	0,076	0,230
-689,612	-144,386	0,020	0,001
-688,597	175,705	0,076	0,081
-687,583	376,692	-0,100	0,151
-686,568	483,144	-0,053	0,088
-685,554	78,261	-0,037	0,029
-684,539	-200,000	-0,000	0,071
-683,524	-113,718	-0,073	-0,010
-682,510	172,124	-0,097	0,102
-681,495	-200,000	0,004	-0,041
-680,481	381,383	-0,059	-0,090
-679,466	-116,641	-0,063	-0,008
-678,451	-137,536	-0,102	0,008
-677,437	800,000	0,050	-0,112
-676,422	-108,447	0,065	0,010
-675,408	-112,698	0,093	0,013
-674,393	14,501	-0,113	-0,065
-673,378	-29,269	-0,130	0,054
-672,364	-200,000	0,009	0,051
-671,349	96,834	-0,088	-0,074
-670,335	-86,562	-0,163	0,036
-669,320	-108,878	0,129	-0,020
-668,305	77,656	0,086	0,067
-667,291	730,499	0,047	-0,093
-666,276	-200,000	-0,011	-0,055
-665,262	-165,946	-0,148	0,005
-664,247	-171,763	0,083	-0,002
-663,232	285,907	-0,068	-0,090
-662,218	800,000	-0,077	0,168
-661,203	415,538	-0,050	0,078
-660,189	800,000	-0,011	0,033
-659,174	267,624	0,084	-0,108
-658,159	-184,607	-0,234	-0,003
-657,145	-23,720	-0,027	-0,012
-656,130	-93,569	-0,079	0,016
-655,116	800,000	0,012	0,037
-654,101	6,543	0,010	0,006
-653,086	-39,607	0,021	0,008
-652,072	-200,000	0,016	-0,074
-651,057	800,000	-0,067	-0,147
-650,043	3,547	0,045	-0,024
-649,028	171,579	-0,102	-0,107
-648,014	150,559	0,081	-0,081
-646,999	687,413	0,058	-0,111
-645,984	-199,236	-0,058	-0,000
-644,970	-200,000	-0,002	-0,038
-643,955	68,528	-0,089	-0,067
-642,941	-82,402	-0,039	0,009
-641,926	114,549	0,092	0,082
-640,911	124,707	-0,021	0,019
-639,897	72,018	0,147	-0,112
-638,882	800,000	-0,021	-0,052
-637,868	139,816	-0,081	-0,078
-636,853	-43,560	-0,105	-0,039
-635,838	-200,000	0,027	-0,149
-634,824	-13,132	-0,082	-0,039
-633,809	-200,000	-0,016	0,128
-632,795	800,000	0,073	-0,162
-631,780	-200,000	0,018	-0,199
-630,765	-12,507	0,090	0,043
-629,751	800,000	0,039	0,087
-628,736	125,958	-0,053	-0,049
-627,722	536,865	0,025	-0,043
-626,707	58,327	-0,061	0,044
-625,692	7,798	0,062	0,034
-624,678	-200,000	-0,009	0,040
-623,663	201,082	-0,075	-0,085
-622,649	-158,125	-0,070	0,003
-621,634	-200,000	-0,007	-0,118
-620,619	-200,000	-0,016	-0,096
-619,605	-1,146	0,055	0,028
-618,590	277,965	0,106	0,139
-617,576	-200,000	-0,007	-0,023
-616,561	192,986	-0,044	0,049
-615,546	-142,403	-0,037	-0,003
-614,532	-120,714	-0,064	0,008
-613,517	-200,000	-0,012	-0,210
-612,503	-93,960	-0,054	-0,011
-611,488	800,000	-0,042	0,089
-610,474	-200,000	-0,006	-0,058
-609,459	-93,498	-0,066	0,013
-608,444	230,301	0,024	0,028
-607,430	-69,911	-0,056	0,016
-606,415	14,768	0,087	-0,049
-605,401	-56,158	-0,160	-0,052
-604,386	-111,465	0,007	-0,001
-603,371	-200,000	0,014	0,165
-602,357	-200,000	0,009	-0,071
-601,342	-200,000	-0,029	-0,095
-600,328	34,140	0,029	-0,019
-599,313	538,606	0,013	0,023
-598,298	800,000	0,057	-0,134
-597,284	376,059	0,020	0,030
-596,269	294,161	-0,057	-0,076
-595,255	-200,000	0,007	-0,022
-594,240	-20,855	-0,198	0,088
-593,225	800,000	-0,009	-0,021
-592,211	278,209	-0,059	-0,077
-591,196	15,415	-0,108	-0,062
-590,182	-84,754	-0,078	0,018
-589,167	350,176	0,114	0,166
-588,152	-200,000	-0,025	0,241
-587,138	-200,000	-0,006	-0,119
-586,123	381,485	0,040	-0,060
-585,109	154,882	-0,102	-0,102
-584,094	135,450	0,095	0,091
-583,079	-160,794	0,031	-0,001
-582,065	800,000	-0,037	-0,088
-581,050	800,000	0,019	-0,045
-580,036	-200,000	0,009	-0,032
-579,021	221,650	-0,043	0,051
-578,006	-48,515	0,085	0,030
-576,992	-83,601	-0,072	-0,017
-575,977	-59,566	-0,070	-0,022
-574,963	800,000	0,036	-0,100
-573,948	800,000	-0,006	0,015
-572,934	-51,864	-0,063	0,021
-571,919	-200,000	-0,014	-0,176
-570,904	-29,216	0,099	-0,041
-569,890	-200,000	-0,002	0,087
-568,875	-200,000	-0,003	-0,056
-567,861	800,000	-0,019	-0,055
-566,846	-200,000	0,003	-0,068
-565,831	61,267	0,161	-0,117
-564,817	-200,000	-0,028	-0,103
-563,802	-76,912	-0,101	0,026
-562,788	496,573	0,003	0,005
-561,773	-137,058	0,059	0,005
-560,758	396,077	0,099	0,151
-559,744	127,125	0,036	-0,033
-558,729	800,000	0,069	0,161
-557,715	399,211	-0,067	-0,104
-556,700	-200,000	0,010	-0,095
-555,685	-173,138	-0,026	0,001
-554,671	145,525	-0,048	0,047
-553,656	140,823	-0,077	-0,074
-552,642	-64,904	0,079	0,023
-551,627	166,785	-0,118	0,122
-550,612	355,137	-0,087	-0,126
-549,598	34,434	-0,119	-0,075
-548,583	237,981	-0,046	0,056
-547,569	21,530	0,097	-0,057
-546,554	315,026	0,058	0,079
-545,539	5,975	-0,059	0,032
-544,525	-77,214	0,073	0,018
-543,510	-112,185	-0,119	0,017
-542,496	-200,000	0,001	-0,148
-541,481	800,000	-0,021	0,054
-540,466	-200,000	0,007	0,041
-539,452	-177,013	-0,062	0,001
-538,437	-200,000	0,040	0,129
-537,423	-200,000	0,016	0,099
-536,408	34,618	-0,043	0,027
-535,393	-12,172	0,097	0,046
-534,379	-164,343	0,257	0,008
-533,364	201,385	-0,060	0,068
-532,350	341,042	0,038	0,054
-531,335	800,000	0,074	0,205
-530,321	-200,000	-0,007	0,137
-529,306	183,029	-0,006	0,006
-528,291	800,000	-0,042	0,112
-527,277	-88,225	-0,165	0,036
-526,262	-0,348	-0,121	-0,062
-525,248	47,231	-0,086	0,058
-524,233	800,000	0,026	0,077
-523,218	-200,000	0,007	0,118
-522,204	-35,585	0,148	0,058
-521,189	-140,656	0,062	-0,005
-520,175	197,081	-0,038	-0,042
-519,160	246,681	0,131	0,162
-518,145	800,000	-0,065	0,135
-517,131	34,836	0,040	0,025
-516,116	241,428	0,184	0,224
-515,102	-200,000	0,018	-0,078
-514,087	-30,511	-0,113	0,046
-513,072	-200,000	-0,000	-0,125
-512,058	325,231	-0,067	0,094
-511,043	800,000	0,057	0,144
-510,029	313,720	-0,022	0,030
-509,014	-18,241	0,129	-0,059
-507,999	800,000	-0,074	0,151
-506,985	-41,730	0,071	-0,027
-505,970	10,736	-0,094	-0,052
-504,956	177,695	-0,091	-0,097
-503,941	166,787	0,041	0,043
-502,926	-200,000	0,043	-0,140
-501,912	800,000	0,001	-0,002
-500,897	171,771	-0,131	0,137
-499,883	-200,000	0,021	0,115
-498,868	-200,000	-0,015	0,077
-497,853	451,644	0,035	-0,056
-496,839	800,000	0,007	-0,018
-495,824	138,820	-0,032	-0,030
-494,810	-200,000	0,007	0,043
-493,795	-200,000	0,000	-0,040
-492,781	-72,609	0,097	-0,026
-491,766	-70,155	-0,076	0,021
-490,751	800,000	0,015	0,037
-489,737	-200,000	-0,016	0,057
-488,722	228,912	0,058	0,068
-487,708	43,679	0,106	0,071
-486,693	20,762	0,023	-0,013
-485,678	-200,000	-0,028	-0,114
-484,664	294,160	-0,106	-0,142
-483,649	-37,431	-0,166	-0,064
-482,635	215,589	-0,023	0,027
-481,620	159,736	-0,111	0,113
-480,605	-200,000	0,001	0,152
-479,591	-52,041	-0,042	0,014
-478,576	403,742	0,044	-0,067
-477,562	284,796	0,012	0,016
-476,547	-154,670	-0,154	-0,007
-475,532	-34,323	-0,051	-0,020
-474,518	-200,000	-0,037	-0,190
-473,503	230,863	0,070	0,083
-472,489	13,118	0,109	0,061
-471,474	800,000	-0,013	-0,035
-470,459	237,958	0,017	-0,020
-469,445	-200,000	0,005	-0,094
-468,430	-17,613	-0,019	-0,009
-467,416	3,360	0,126	-0,067
-466,401	-200,000	-0,008	0,155
-465,386	-200,000	0,014	-0,079
-464,372	243,265	0,084	-0,103
-463,357	-200,000	-0,002	-0,022
-462,343	-120,828	-0,139	-0,017
-461,328	93,845	0,058	-0,048
-460,313	-104,264	0,013	-0,002
-459,299	800,000	0,041	-0,104
-458,284	15,684	-0,161	0,092
-457,270	189,689	0,075	-0,082
-456,255	-60,693	-0,109	-0,033
-455,241	-200,000	-0,018	-0,166
-454,226	-200,000	0,009	-0,075
-453,211	-105,389	-0,043	0,007
-452,197	800,000	-0,044	0,122
-451,182	-98,927	0,101	-0,018
-450,168	95,682	0,079	-0,065
-449,153	-200,000	0,010	-0,105
-448,138	-71,942	0,055	0,015
-447,124	-57,790	-0,092	0,029
-446,109	24,522	-0,071	-0,043
-445,095	800,000	-0,035	-0,099
-444,080	-200,000	0,007	0,044
-443,065	333,665	0,040	-0,057
-442,051	-94,296	-0,194	0,038
-441,036	350,328	-0,040	-0,058
-440,022	120,735	0,055	-0,050
-439,007	800,000	-0,018	0,053
-437,992	81,583	0,053	0,041
-436,978	690,019	0,019	0,036
-435,963	117,364	0,026	0,023
-434,949	-64,495	-0,090	0,026
-433,934	-200,000	0,008	-0,059
-432,919	310,134	0,057	0,077
-431,905	800,000	-0,029	0,068
-430,890	360,868	0,092	-0,134
-429,876	-200,000	0,008	0,147
-428,861	-3,910	-0,014	-0,007
-427,846	47,323	-0,027	-0,018
-426,832	-200,000	0,008	0,066
-425,817	800,000	0,024	-0,062
-424,803	800,000	0,028	-0,088
-423,788	269,635	0,031	-0,039
-422,773	800,000	0,028	-0,063
-421,759	429,744	0,046	-0,073
-420,744	-200,000	-0,026	0,113
-419,730	800,000	-0,040	-0,090
-418,715	-158,441	-0,047	-0,002
-417,701	-200,000	0,010	0,041
-416,686	-200,000	-0,000	0,122
-415,671	-77,076	0,108	-0,027
-414,657	-200,000	-0,011	0,115
-413,642	-200,000	0,003	0,039
-412,628	388,276	0,048	0,072
-411,613	42,851	-0,093	-0,061
-410,598	604,239	-0,035	0,064
-409,584	-129,073	-0,069	-0,007
-408,569	223,935	-0,053	0,063
-407,555	113,532	0,022	0,019
-406,540	-20,593	-0,085	-0,038
-405,525	-70,700	0,044	0,012
-404,511	-131,151	-0,051	-0,005
-403,496	-200,000	-0,008	-0,076
-402,482	56,778	0,023	0,017
-401,467	238,574	0,037	0,045
-400,452	800,000	0,054	-0,148
-399,438	800,000	0,045	-0,112
-398,423	257,779	-0,031	-0,039
-397,409	-200,000	-0,002	-0,063
-396,394	293,582	0,084	-0,112
-395,379	228,179	-0,183	-0,217
-394,365	-174,260	0,094	0,002
-393,350	199,749	0,070	-0,078
-392,336	-200,000	-0,010	-0,051
-391,321	-138,451	0,166	0,013
-390,306	350,583	-0,088	-0,127
-389,292	-4,925	-0,054	-0,027
-388,277	263,290	0,083	0,105
-387,263	800,000	0,050	0,106
-386,248	-200,000	-0,002	-0,119
-385,233	98,441	0,124	0,104
-384,219	-200,000	-0,018	0,059
-383,204	-200,000	-0,028	-0,153
-382,190	800,000	-0,087	-0,183
-381,175	222,250	-0,031	0,037
-380,160	-83,698	-0,038	0,009
-379,146	-12,427	0,057	-0,027
-378,131	225,949	-0,124	0,146
-377,117	-10,112	0,082	0,040
-376,102	-14,919	-0,119	0,055
-375,088	90,593	-0,078	0,063
-374,073	-143,960	0,092	0,006
-373,058	-111,733	0,063	0,009
-372,044	-24,981	-0,046	0,020
-371,029	-29,184	0,057	0,024
-370,015	-200,000	0,003	0,098
-369,000	288,484	-0,041	-0,054
-367,985	283,634	0,064	-0,084
-366,971	-89,691	-0,070	-0,015
-365,956	-46,963	0,147	0,052
-364,942	-169,982	0,074	0,002
-363,927	-58,859	0,105	-0,033
-362,912	800,000	-0,040	0,110
-361,898	649,059	0,049	0,091
-360,883	800,000	0,037	-0,105
-359,869	-111,402	-0,032	-0,005
-358,854	-61,252	0,112	0,034
-357,839	-75,999	-0,118	0,030
-356,825	87,085	0,110	0,088
-355,810	-66,200	-0,041	0,012
-354,796	-116,248	0,096	-0,013
-353,781	-200,000	0,010	-0,078
-352,766	-200,000	0,009	-0,110
-351,752	-200,000	-0,001	-0,018
-350,737	52,457	0,105	0,072
-349,723	-200,000	-0,009	0,049
-348,708	116,115	-0,143	0,127
-347,693	-131,180	0,087	0,008
-346,679	535,408	-0,040	-0,068
-345,664	800,000	-0,028	0,061
-344,650	201,015	0,047	-0,053
-343,635	295,589	0,097	-0,129
-342,620	800,000	-0,076	0,177
-341,606	43,290	0,060	0,040
-340,591	-133,416	-0,240	-0,022
-339,577	-97,718	-0,105	0,019
-338,562	284,670	-0,060	-0,079
-337,548	-11,120	0,176	0,084
-336,533	800,000	0,025	-0,073
-335,518	-200,000	0,001	-0,016
-334,504	-200,000	0,016	0,076
-333,489	-19,813	-0,074	-0,033
-332,475	-200,000	0,038	-0,130
-331,460	-200,000	0,021	-0,224
-330,445	800,000	-0,031	-0,070
-329,431	-18,348	0,058	0,026
-328,416	-32,052	-0,089	0,036
-327,402	211,586	-0,065	-0,074
-326,387	223,642	-0,079	0,092
-325,372	-200,000	-0,014	-0,109
-324,358	800,000	-0,022	0,055
-323,343	420,566	-0,028	-0,043
-322,329	-200,000	0,029	0,110
-321,314	-200,000	0,007	0,075
-320,299	-37,906	0,103	-0,040
-319,285	52,595	0,079	0,054
-318,270	-17,589	0,094	0,042
-317,256	524,376	-0,022	0,038
-316,241	800,000	-0,052	-0,127
-315,226	-200,000	0,022	-0,096
-314,212	133,043	0,101	0,094
-313,197	-181,143	0,085	-0,001
-312,183	800,000	0,046	-0,099
-311,168	-200,000	0,020	-0,078
-310,153	164,097	-0,158	0,161
-309,139	-200,000	-0,002	0,020
-308,124	-74,388	0,124	0,032
-307,110	307,246	-0,019	-0,026
-306,095	42,415	-0,106	0,069
-305,080	376,290	0,031	0,046
-304,066	-200,000	0,005	0,081
-303,051	141,768	-0,091	0,087
-302,037	-28,878	-0,099	-0,041
-301,022	-200,000	0,002	-0,084
-300,008	-148,725	0,072	-0,004
-298,993	150,920	0,106	0,104
-297,978	-15,665	0,187	-0,086
-296,964	430,861	-0,042	0,066
-295,949	800,000	0,034	0,098
-294,935	-67,135	-0,066	-0,019
-293,920	110,638	0,071	0,062
-292,905	800,000	0,032	0,097
-291,891	291,534	0,103	0,136
-290,876	-200,000	0,043	0,173
-289,862	800,000	-0,042	-0,091
-288,847	-85,693	-0,049	-0,011
-287,832	5,980	-0,122	0,065
-286,818	381,210	-0,094	0,140
-285,803	68,654	0,132	0,097
-284,789	145,719	-0,068	0,066
-283,774	-200,000	-0,016	0,082
-282,759	720,176	0,025	-0,049
-281,745	-200,000	-0,043	-0,157
-280,730	800,000	-0,028	0,077
-279,716	800,000	0,021	0,046
-278,701	137,240	-0,026	-0,025
-277,686	-45,523	-0,051	-0,018
-276,672	-35,772	0,092	0,036
-275,657	-200,000	0,009	-0,077
-274,643	30,227	0,054	0,033
-273,628	800,000	-0,032	-0,095
-272,613	547,935	-0,079	-0,137
-271,599	-91,996	0,091	-0,018
-270,584	15,427	0,094	0,053
-269,570	-37,046	0,055	-0,021
-268,555	-139,908	0,096	0,007
-267,540	800,000	0,007	-0,018
-266,526	-23,518	-0,074	-0,032
-265,511	629,324	-0,034	0,062
-264,497	-42,659	-0,015	0,006
-263,482	543,022	0,007	-0,012
-262,467	-130,731	-0,087	0,008
-261,453	-109,866	0,068	0,010
-260,438	110,276	-0,055	-0,048
-259,424	-4,088	-0,108	-0,054
-258,409	62,320	0,085	-0,061
-257,395	-63,972	0,077	0,023
-256,380	498,305	-0,059	0,098
-255,365	800,000	-0,021	0,058
-254,351	800,000	0,040	0,108
-253,336	-200,000	0,007	-0,045
-252,322	-200,000	-0,000	-0,053
-251,307	85,482	0,101	-0,080
-250,292	-111,765	0,033	-0,005
-249,278	107,485	0,108	0,093
-248,263	-200,000	0,015	0,125
-247,249	136,651	-0,064	0,060
-246,234	10,808	0,085	-0,047
-245,219	-80,954	-0,049	-0,012
-244,205	-200,000	-0,038	-0,123
-243,190	800,000	0,041	-0,113
-242,176	-200,000	-0,028	-0,097
-241,161	-200,000	-0,001	0,026
-240,146	154,886	0,124	-0,123
-239,132	-50,781	-0,076	0,026
-238,117	800,000	-0,036	0,078
-237,103	212,615	0,085	0,097
-236,088	155,918	-0,076	0,076
-235,073	800,000	0,026	-0,056
-234,059	129,767	-0,068	-0,062
-233,044	251,889	0,068	0,084
-232,030	800,000	-0,050	0,136
-231,015	-40,110	-0,083	-0,031
-230,000	-200,000	-0,028	-0,144
-228,986	-200,000	0,006	0,065
-227,971	32,074	0,061	0,038
-226,957	800,000	-0,013	-0,034
-225,942	676,220	0,046	-0,086
-224,927	98,745	-0,109	-0,090
-223,913	248,620	-0,101	-0,124
-222,898	-186,125	-0,171	0,002
-221,884	205,325	-0,040	-0,044
-220,869	250,135	0,090	-0,110
-219,855	48,460	0,062	-0,041
-218,840	-133,602	0,092	-0,008
-217,825	-62,445	0,016	0,005
-216,811	800,000	-0,044	-0,093
-215,796	-200,000	-0,015	-0,051
-214,782	233,036	0,065	0,078
-213,767	330,043	0,045	0,063
-212,752	114,999	0,065	-0,057
-211,738	125,037	-0,032	0,029
-210,723	104,024	-0,053	-0,045
-209,709	224,645	0,076	-0,089
-208,694	269,612	-0,077	-0,097
-207,679	113,445	-0,080	-0,070
-206,665	-37,154	0,128	0,049
-205,650	93,084	0,060	0,049
-204,636	-27,136	0,087	0,037
-203,621	-200,000	-0,031	0,124
-202,606	-27,934	-0,080	0,033
-201,592	-200,000	-0,028	0,107
-200,577	800,000	-0,018	-0,037
-199,563	-200,000	-0,018	0,058
-198,548	-200,000	0,010	0,061
-197,533	-46,118	-0,186	-0,066
-196,519	119,651	0,107	-0,095
-195,504	-119,056	-0,107	-0,013
-194,490	-184,167	0,044	-0,001
-193,475	129,155	0,053	0,049
-192,460	471,611	-0,053	0,086
-191,446	611,176	0,056	0,101
-190,431	-167,075	0,108	-0,003
-189,417	-200,000	-0,010	0,044
-188,402	175,476	-0,069	-0,072
-187,387	-75,889	0,170	-0,043
-186,373	254,409	-0,045	-0,056
-185,358	45,933	-0,109	0,073
-184,344	-139,580	0,263	0,020
-183,329	-122,820	0,054	-0,006
-182,315	800,000	-0,021	0,046
-181,300	209,302	-0,089	0,100
-180,285	-131,239	-0,144	-0,014
-179,271	-200,000	0,010	0,068
-178,256	63,035	0,091	0,066
-177,242	-22,811	-0,032	0,014
-176,227	-200,000	-0,003	0,075
-175,212	514,101	0,025	-0,042
-174,198	-37,921	-0,159	0,060
-173,183	54,330	0,097	-0,067
-172,169	75,704	-0,041	-0,031
-171,154	200,648	0,036	-0,040
-170,139	383,222	0,012	-0,017
-169,125	-200,000	0,018	0,095
-168,110	-200,000	0,002	0,104
-167,096	-3,541	-0,099	-0,049
-166,081	-60,108	0,084	0,026
-165,066	-200,000	0,019	0,096
-164,052	299,770	0,062	-0,082
-163,037	-200,000	-0,009	0,034
-162,023	437,154	-0,009	0,014
-161,008	-98,457	0,079	-0,014
-159,993	-200,000	0,012	-0,053
-158,979	800,000	-0,014	0,036
-157,964	800,000	-0,044	0,127
-156,950	-63,155	-0,046	0,014
-155,935	-107,837	-0,075	0,012
-154,920	-38,150	0,122	0,046
-153,906	309,936	0,108	0,145
-152,891	800,000	-0,057	-0,124
-151,877	354,199	0,034	-0,049
-150,862	-80,611	-0,107	0,025
-149,847	173,772	0,106	0,110
-148,833	268,933	0,073	-0,093
-147,818	159,434	0,078	-0,078
-146,804	-160,202	0,093	0,004
-145,789	-151,131	-0,056	0,003
-144,775	122,634	-0,063	0,056
-143,760	354,716	0,020	0,029
-142,745	-92,530	0,036	0,007
-141,731	77,719	0,031	-0,024
-140,716	-41,408	0,044	0,016
-139,702	-81,584	0,121	-0,028
-138,687	208,885	0,067	-0,075
-137,672	-112,850	-0,146	-0,021
-136,658	-200,000	-0,017	-0,218
-135,643	-28,227	0,024	-0,010
-134,629	600,840	0,045	-0,081
-133,614	-200,000	-0,004	0,060
-132,599	-200,000	0,004	-0,079
-131,585	234,468	-0,018	0,021
-130,570	295,279	0,074	-0,098
-129,556	-72,167	-0,068	0,018
-128,541	115,420	-0,111	0,097
-127,526	190,255	0,051	-0,055
-126,512	800,000	0,032	0,076
-125,497	101,672	0,083	0,069
-124,483	-68,790	-0,065	0,018
-123,468	-200,000	-0,006	0,125
-122,453	800,000	-0,024	0,048
-121,439	-15,632	-0,077	0,035
-120,424	-123,787	-0,074	0,008
-119,410	191,049	-0,046	0,050
