DTS Sentinel unit serial number:	SN410029Multiplexer serial number:	ORYXHardware model number:	OX2-SRSoftware version number:	ORYX F/W v4,00 Oryx Data Collector v3.7.2.0data status	okinstallation	B6 Nyhavnadifferential loss correction	single-endedforward channel	channel 2reverse channel	N/Adate	2023/12/09time	12:25:08forward acquisition time	300,00reverse acquisition time	0,00gamma	499,1914k internal	0,3138k external	0,3138temperature offset calibration	1,0000default loss term (dB/km)	0,3820temperature slope calibration	1,0000multiplexer offset coefficient	1,0000multiplexer slope coefficient	1,0000fibre end	0,00T internal ref (°C)	19,28T ext. ref 1 (°C)	3,89T ext. ref 2 (°C)	3,87length (m)	temperature (°C)	Stokes	anti-Stokes-744,400	800,000	0,026	0,083
-743,385	-113,709	-0,261	0,037
-742,371	-49,470	0,189	0,066
-741,356	91,608	-0,201	0,167
-740,342	-200,000	0,002	0,095
-739,327	-28,615	-0,328	0,140
-738,312	-200,000	-0,031	-0,115
-737,298	-151,033	-0,330	-0,018
-736,283	-82,735	0,153	0,037
-735,269	89,352	-0,247	0,204
-734,254	16,088	0,089	0,052
-733,239	-149,500	-0,497	-0,029
-732,225	49,931	0,138	-0,096
-731,210	276,671	-0,059	-0,079
-730,196	7,939	0,081	-0,045
-729,181	653,620	-0,060	0,115
-728,167	407,725	-0,046	-0,072
-727,152	-97,325	0,055	0,011
-726,137	-162,463	0,072	-0,003
-725,123	98,021	-0,095	-0,081
-724,108	46,436	-0,130	-0,089
-723,094	-85,722	-0,115	-0,026
-722,079	-146,162	-0,109	-0,007
-721,064	183,977	0,076	0,084
-720,050	158,212	0,041	-0,042
-719,035	800,000	-0,057	-0,153
-718,021	103,560	-0,114	0,100
-717,006	191,364	-0,084	-0,094
-715,991	-200,000	0,025	-0,174
-714,977	-52,071	-0,088	-0,030
-713,962	-46,206	-0,094	-0,034
-712,948	-200,000	0,004	0,053
-711,933	31,324	-0,064	0,040
-710,918	-200,000	0,010	-0,045
-709,904	-105,522	-0,091	0,015
-708,889	-200,000	-0,033	-0,137
-707,875	-200,000	0,022	-0,106
-706,860	-68,298	-0,033	0,009
-705,845	-200,000	0,013	0,048
-704,831	800,000	0,028	-0,082
-703,816	45,688	-0,083	-0,057
-702,802	-8,297	-0,154	-0,077
-701,787	42,185	0,030	0,020
-700,772	800,000	0,060	-0,167
-699,758	159,687	0,175	0,180
-698,743	210,418	-0,038	-0,044
-697,729	-134,648	0,012	0,001
-696,714	-110,721	0,126	-0,019
-695,699	800,000	-0,076	0,194
-694,685	214,593	-0,070	0,082
-693,670	537,036	0,051	-0,090
-692,656	274,852	0,059	0,078
-691,641	800,000	0,083	0,172
-690,627	-200,000	-0,009	0,092
-689,612	-7,979	-0,048	-0,024
-688,597	-200,000	0,019	0,000
-687,583	-37,051	-0,230	-0,091
-686,568	136,992	-0,045	-0,044
-685,554	-200,000	-0,011	0,120
-684,539	223,024	0,072	-0,086
-683,524	-5,418	-0,090	-0,046
-682,510	-200,000	-0,042	-0,230
-681,495	43,619	-0,035	0,024
-680,481	87,684	-0,061	0,050
-679,466	800,000	-0,057	-0,149
-678,451	333,777	0,082	0,118
-677,437	-26,667	0,097	-0,042
-676,422	101,958	-0,070	0,060
-675,408	-99,108	-0,063	-0,012
-674,393	341,684	-0,047	-0,069
-673,378	142,365	-0,057	-0,056
-672,364	111,960	0,062	0,055
-671,349	587,365	0,033	-0,061
-670,335	-200,000	0,016	0,067
-669,320	276,052	-0,058	-0,076
-668,305	53,359	0,066	0,047
-667,291	273,635	-0,085	0,112
-666,276	281,596	-0,074	-0,098
-665,262	800,000	-0,011	-0,026
-664,247	41,265	-0,116	0,078
-663,232	-51,848	-0,065	0,022
-662,218	252,615	0,087	0,109
-661,203	4,982	0,047	-0,025
-660,189	-73,674	0,059	0,016
-659,174	-15,078	-0,127	-0,060
-658,159	211,816	-0,046	0,054
-657,145	97,660	0,060	-0,051
-656,130	-200,000	-0,028	-0,100
-655,116	-15,936	0,028	-0,013
-654,101	-50,579	-0,153	0,053
-653,086	-200,000	-0,025	0,106
-652,072	-128,975	-0,088	-0,009
-651,057	-96,717	-0,211	0,041
-650,043	-79,713	0,099	-0,025
-649,028	115,663	-0,065	0,059
-648,014	-98,091	0,055	-0,010
-646,999	255,189	-0,110	-0,140
-645,984	302,939	0,031	0,043
-644,970	75,798	0,046	-0,036
-643,955	-200,000	-0,002	-0,148
-642,941	-54,071	-0,071	-0,024
-641,926	37,435	-0,133	-0,087
-640,911	-52,301	-0,057	0,019
-639,897	167,615	0,005	-0,006
-638,882	392,229	0,035	0,053
-637,868	-200,000	-0,014	0,055
-636,853	9,139	-0,015	0,009
-635,838	-200,000	0,008	0,055
-634,824	-135,507	-0,063	-0,006
-633,809	267,747	0,078	0,101
-632,795	-116,777	0,194	0,026
-631,780	181,766	0,055	0,060
-630,765	276,651	-0,020	0,027
-629,751	800,000	0,023	-0,064
-628,736	-200,000	0,011	-0,143
-627,722	-63,174	-0,054	-0,016
-626,707	524,766	-0,022	-0,038
-625,692	-44,590	0,146	-0,054
-624,678	800,000	0,025	0,063
-623,663	4,129	0,124	-0,067
-622,649	57,320	0,094	0,068
-621,634	-56,564	-0,057	0,018
-620,619	180,960	0,076	-0,083
-619,605	241,222	-0,097	0,119
-618,590	116,858	0,024	-0,022
-617,576	-6,410	-0,045	0,023
-616,561	800,000	-0,053	-0,128
-615,546	800,000	-0,060	-0,133
-614,532	-200,000	-0,035	-0,125
-613,517	-82,473	-0,049	-0,012
-612,503	390,888	-0,045	-0,069
-611,488	-200,000	0,001	0,004
-610,474	800,000	0,050	-0,136
-609,459	-138,910	-0,078	-0,006
-608,444	465,013	-0,026	0,044
-607,430	-85,683	-0,153	-0,035
-606,415	-48,241	-0,116	-0,041
-605,401	223,762	-0,030	-0,036
-604,386	201,776	-0,055	0,063
-603,371	122,660	-0,076	-0,071
-602,357	645,395	-0,019	-0,036
-601,342	-127,550	-0,042	0,004
-600,328	33,534	-0,115	-0,074
-599,313	171,701	-0,035	-0,037
-598,298	369,059	-0,024	-0,036
-597,284	-48,750	0,104	-0,037
-596,269	-147,023	-0,047	-0,003
-595,255	0,964	-0,031	-0,016
-594,240	-133,299	-0,111	0,010
-593,225	250,575	0,045	-0,056
-592,211	97,936	0,137	-0,117
-591,196	113,943	0,074	-0,066
-590,182	17,970	0,120	-0,070
-589,167	800,000	0,030	0,064
-588,152	-200,000	0,001	-0,036
-587,138	-85,243	-0,187	0,043
-586,123	564,433	-0,037	0,066
-585,109	-103,425	0,116	-0,020
-584,094	-200,000	0,020	0,139
-583,079	-8,539	0,165	0,082
-582,065	-200,000	-0,010	0,067
-581,050	-74,651	0,090	0,024
-580,036	-103,387	-0,070	-0,012
-579,021	133,387	0,052	-0,050
-578,006	115,577	-0,037	0,033
-576,992	-200,000	-0,026	-0,127
-575,977	-35,858	-0,069	-0,028
-574,963	108,441	0,018	-0,016
-573,948	-191,916	0,077	-0,001
-572,934	-95,397	-0,018	-0,004
-571,919	-27,737	-0,020	0,008
-570,904	-65,144	0,080	-0,024
-569,890	-72,618	0,066	-0,018
-568,875	16,757	0,054	0,031
-567,861	40,401	0,121	-0,080
-566,846	-200,000	-0,002	-0,136
-565,831	353,202	0,069	-0,101
-564,817	-158,572	-0,132	0,006
-563,802	-100,666	-0,170	0,031
-562,788	-103,823	-0,128	-0,022
-561,773	-200,000	-0,021	0,092
-560,758	-53,691	0,070	0,023
-559,744	-200,000	-0,032	0,106
-558,729	-200,000	-0,003	0,082
-557,715	-200,000	-0,016	-0,056
-556,700	76,549	-0,094	-0,073
-555,685	25,917	-0,062	-0,038
-554,671	-200,000	0,013	-0,076
-553,656	-148,266	0,099	-0,006
-552,642	14,292	0,116	0,067
-551,627	800,000	0,052	0,113
-550,612	-200,000	-0,005	0,016
-549,598	172,283	-0,122	0,129
-548,583	133,006	-0,109	-0,104
-547,569	-200,000	-0,012	-0,114
-546,554	53,466	0,056	-0,040
-545,539	103,377	-0,055	0,047
-544,525	800,000	0,034	0,089
-543,510	-2,103	-0,078	0,040
-542,496	184,429	-0,087	-0,094
-541,481	30,682	-0,020	0,012
-540,466	157,086	0,067	-0,068
-539,452	800,000	-0,027	-0,060
-538,437	153,266	0,059	0,059
-537,423	-26,224	0,056	-0,024
-536,408	446,269	-0,084	0,136
-535,393	648,294	-0,025	0,047
-534,379	546,568	0,066	-0,116
-533,364	319,811	0,048	0,067
-532,350	-179,609	-0,138	0,002
-531,335	-19,109	0,041	-0,019
-530,321	182,201	0,074	0,080
-529,306	-93,640	0,098	0,020
-528,291	544,308	0,065	0,115
-527,277	217,634	-0,025	0,029
-526,262	177,794	-0,073	-0,078
-525,248	-52,620	0,124	0,042
-524,233	-200,000	0,023	0,099
-523,218	-200,000	-0,002	0,084
-522,204	-70,051	-0,096	-0,027
-521,189	43,337	0,080	0,054
-520,175	120,609	0,069	-0,063
-519,160	24,950	-0,036	0,022
-518,145	-200,000	-0,026	0,104
-517,131	-200,000	-0,010	0,037
-516,116	429,310	0,046	0,074
-515,102	-200,000	0,010	-0,075
-514,087	163,907	-0,088	0,091
-513,072	110,729	-0,117	-0,103
-512,058	-200,000	-0,009	-0,112
-511,043	3,268	-0,151	-0,081
-510,029	78,758	0,053	0,041
-509,014	-200,000	0,000	0,017
-507,999	-117,409	0,063	0,008
-506,985	-39,768	0,152	0,058
-505,970	-23,144	-0,082	0,036
-504,956	-78,298	-0,047	-0,012
-503,941	-200,000	-0,003	0,034
-502,926	-21,214	0,010	0,005
-501,912	-25,320	-0,102	0,044
-500,897	10,193	-0,090	0,050
-499,883	-16,181	0,084	-0,039
-498,868	38,974	-0,108	-0,071
-497,853	-175,306	-0,087	0,002
-496,839	168,665	0,040	-0,042
-495,824	99,368	0,140	0,119
-494,810	189,472	-0,039	0,043
-493,795	-56,679	-0,085	0,027
-492,781	11,856	-0,115	-0,065
-491,766	772,436	0,016	0,031
-490,751	-115,541	-0,125	-0,017
-489,737	28,570	-0,041	0,025
-488,722	-54,833	0,069	-0,023
-487,708	316,707	0,007	-0,009
-486,693	-70,895	0,076	-0,021
-485,678	12,205	0,051	0,029
-484,664	28,668	-0,063	-0,039
-483,649	148,210	0,046	-0,046
-482,635	-0,021	0,111	0,058
-481,620	800,000	-0,044	0,138
-480,605	173,664	0,055	-0,058
-479,591	800,000	-0,029	0,074
-478,576	-45,571	-0,051	0,018
-477,562	-95,361	0,066	-0,013
-476,547	-106,570	-0,070	-0,011
-475,532	20,045	0,100	0,059
-474,518	-200,000	0,010	0,113
-473,503	-153,309	0,060	-0,003
-472,489	-200,000	0,033	0,124
-471,474	124,771	0,054	0,050
-470,459	800,000	-0,025	0,064
-469,445	800,000	0,047	-0,106
-468,430	43,365	0,049	-0,033
-467,416	800,000	-0,028	0,081
-466,401	10,789	0,076	-0,043
-465,386	800,000	-0,018	-0,051
-464,372	127,172	0,064	-0,060
-463,357	-200,000	-0,023	-0,139
-462,343	-200,000	-0,003	-0,071
-461,328	-200,000	0,026	-0,204
-460,313	265,423	-0,072	-0,093
-459,299	-200,000	0,010	0,052
-458,284	-67,315	0,064	-0,018
-457,270	422,390	-0,052	0,082
-456,255	-200,000	-0,041	-0,144
-455,241	-106,569	-0,089	-0,014
-454,226	-152,041	-0,109	-0,006
-453,211	800,000	-0,034	-0,105
-452,197	176,050	-0,044	0,047
-451,182	-93,061	0,090	-0,018
-450,168	214,267	0,026	-0,030
-449,153	-200,000	0,006	-0,066
-448,138	-169,614	-0,124	0,003
-447,124	103,012	-0,049	0,042
-446,109	800,000	-0,042	0,116
-445,095	347,075	0,086	0,124
-444,080	705,734	0,060	0,117
-443,065	-200,000	-0,036	0,139
-442,051	189,448	-0,027	0,030
-441,036	257,352	-0,028	-0,036
-440,022	-9,846	0,054	0,026
-439,007	-200,000	0,006	0,068
-437,992	-70,593	0,032	-0,009
-436,978	-16,481	0,113	0,052
-435,963	23,690	-0,044	-0,027
-434,949	-200,000	-0,025	-0,155
-433,934	-35,460	-0,054	-0,021
-432,919	38,361	-0,012	0,008
-431,905	-93,738	-0,119	-0,024
-430,890	-99,295	0,140	-0,026
-429,876	-200,000	-0,003	0,025
-428,861	-165,016	0,132	-0,004
-427,846	132,595	-0,052	0,049
-426,832	672,777	-0,047	-0,090
-425,817	800,000	-0,073	0,158
-424,803	-200,000	-0,007	0,043
-423,788	-200,000	-0,004	0,105
-422,773	-2,173	0,121	-0,062
-421,759	298,595	0,038	-0,052
-420,744	32,573	0,051	-0,032
-419,730	13,283	-0,040	-0,023
-418,715	224,725	-0,048	-0,057
-417,701	-200,000	0,064	-0,244
-416,686	-33,956	-0,107	-0,043
-415,671	-200,000	0,040	0,167
-414,657	-21,676	-0,110	0,049
-413,642	112,122	0,142	-0,126
-412,628	-80,447	-0,098	-0,024
-411,613	-62,321	-0,081	-0,025
-410,598	-138,944	0,150	0,012
-409,584	-200,000	0,001	0,054
-408,569	800,000	-0,060	0,130
-407,555	266,776	-0,066	0,085
-406,540	-99,855	-0,121	-0,022
-405,525	-28,092	-0,131	0,055
-404,511	-200,000	0,002	0,015
-403,496	-35,209	-0,133	-0,053
-402,482	87,416	-0,061	-0,050
-401,467	-144,934	0,070	-0,005
-400,452	40,530	0,074	0,049
-399,438	183,559	0,032	-0,035
-398,423	295,846	-0,051	-0,068
-397,409	422,958	-0,028	-0,044
-396,394	216,919	0,110	-0,128
-395,379	-109,457	-0,078	-0,012
-394,365	166,753	0,026	0,027
-393,350	-200,000	-0,003	0,174
-392,336	-200,000	-0,011	-0,098
-391,321	156,701	0,046	-0,047
-390,306	80,692	0,101	-0,080
-389,292	-137,119	0,051	-0,004
-388,277	-110,121	-0,102	0,015
-387,263	-144,665	0,078	0,005
-386,248	33,170	-0,051	-0,033
-385,233	-103,926	0,057	-0,010
-384,219	-6,336	-0,070	-0,035
-383,204	75,335	-0,084	0,065
-382,190	-200,000	0,006	0,139
-381,175	-200,000	0,016	0,109
-380,160	313,174	-0,033	0,045
-379,146	58,484	0,085	0,061
-378,131	-62,535	0,004	0,001
-377,117	-32,801	-0,118	-0,048
-376,102	190,986	0,095	0,105
-375,088	15,548	0,046	-0,026
-374,073	36,577	-0,200	0,129
-373,058	-135,467	0,131	0,011
-372,044	-200,000	0,027	0,101
-371,029	-85,858	0,062	-0,014
-370,015	-200,000	0,007	0,123
-369,000	-187,804	0,069	-0,001
-367,985	-22,900	-0,078	-0,034
-366,971	245,771	0,071	-0,088
-365,956	741,539	-0,066	0,129
-364,942	19,391	-0,026	0,015
-363,927	-200,000	-0,026	0,198
-362,912	265,216	-0,046	0,059
-361,898	-200,000	0,011	-0,186
-360,883	23,034	-0,098	0,059
-359,869	697,949	0,019	0,036
-358,854	-200,000	0,058	-0,000
-357,839	-200,000	0,016	0,053
-356,825	-200,000	0,005	0,050
-355,810	75,718	0,082	0,063
-354,796	719,434	0,011	0,021
-353,781	-95,428	0,079	-0,015
-352,766	55,007	0,078	0,055
-351,752	-200,000	0,014	-0,048
-350,737	90,961	-0,051	-0,042
-349,723	800,000	0,031	0,096
-348,708	-200,000	0,013	0,093
-347,693	-200,000	0,013	0,062
-346,679	126,894	0,061	0,057
-345,664	-200,000	-0,015	-0,104
-344,650	-7,912	0,073	0,036
-343,635	-46,358	0,098	-0,035
-342,620	-200,000	-0,046	-0,201
-341,606	93,758	-0,065	-0,054
-340,591	-176,871	0,048	-0,001
-339,577	-111,696	0,042	-0,006
-338,562	800,000	-0,030	-0,077
-337,548	-53,016	-0,108	-0,036
-336,533	336,867	0,044	0,063
-335,518	17,175	-0,059	0,034
-334,504	-102,958	-0,088	0,015
-333,489	-66,749	-0,039	-0,011
-332,475	-200,000	0,009	-0,050
-331,460	-200,000	0,002	-0,038
-330,445	-26,376	0,138	-0,059
-329,431	98,683	0,072	-0,061
-328,416	800,000	0,049	0,140
-327,402	800,000	-0,022	0,062
-326,387	800,000	0,030	0,066
-325,372	121,864	-0,053	-0,048
-324,358	-200,000	0,011	-0,038
-323,343	2,190	0,093	0,049
-322,329	-41,065	-0,099	0,037
-321,314	-112,006	0,176	0,026
-320,299	150,008	-0,034	0,033
-319,285	159,534	-0,082	0,083
-318,270	800,000	0,063	-0,169
-317,256	-200,000	-0,019	-0,137
-316,241	66,686	-0,052	-0,039
-315,226	-200,000	-0,003	0,130
-314,212	-200,000	0,045	0,151
-313,197	-200,000	0,000	-0,014
-312,183	-128,503	0,093	0,010
-311,168	216,639	-0,038	-0,044
-310,153	800,000	-0,066	-0,150
-309,139	-126,689	-0,090	-0,010
-308,124	800,000	0,029	0,079
-307,110	37,524	-0,036	-0,023
-306,095	-200,000	-0,005	0,089
-305,080	-200,000	0,023	0,111
-304,066	-200,000	0,001	0,075
-303,051	-200,000	0,045	-0,173
-302,037	-32,750	0,005	-0,002
-301,022	-46,992	-0,058	0,020
-300,008	39,123	0,120	-0,078
-298,993	-200,000	-0,006	-0,057
-297,978	67,822	0,026	-0,020
-296,964	-200,000	0,007	-0,059
-295,949	-200,000	0,007	0,071
-294,935	800,000	-0,016	-0,050
-293,920	294,884	0,092	-0,123
-292,905	-11,640	0,011	0,005
-291,891	232,616	0,036	0,043
-290,876	-52,946	0,045	0,015
-289,862	-200,000	-0,013	-0,104
-288,847	-67,066	-0,113	0,032
-287,832	194,896	-0,045	0,050
-286,818	250,313	-0,092	-0,115
-285,803	377,239	0,017	-0,026
-284,789	0,522	-0,092	-0,048
-283,774	-162,825	-0,071	-0,002
-282,759	-29,305	-0,089	-0,037
-281,745	240,878	0,044	0,054
-280,730	-3,297	0,041	-0,021
-279,716	800,000	-0,065	-0,134
-278,701	800,000	0,018	0,050
-277,686	79,452	-0,043	-0,034
-276,672	-200,000	0,011	-0,044
-275,657	428,313	0,059	-0,094
-274,643	-122,573	-0,199	0,023
-273,628	168,813	0,008	-0,008
-272,613	-200,000	0,010	-0,115
-271,599	7,198	0,140	-0,076
-270,584	800,000	0,025	-0,051
-269,570	-200,000	-0,019	-0,126
-268,555	-178,728	-0,027	-0,000
-267,540	-200,000	-0,013	0,152
-266,526	28,785	-0,136	-0,084
-265,511	659,348	0,019	-0,036
-264,497	800,000	-0,040	-0,088
-263,482	-200,000	0,041	0,146
-262,467	152,460	0,078	0,078
-261,453	-200,000	0,010	0,041
-260,438	0,525	-0,108	-0,056
-259,424	-81,988	-0,130	-0,031
-258,409	532,433	-0,096	-0,167
-257,395	800,000	0,045	-0,098
-256,380	-107,374	0,117	0,019
-255,365	-64,023	-0,065	-0,019
-254,351	-200,000	0,017	-0,064
-253,336	-200,000	-0,070	-0,235
-252,322	-33,508	-0,190	-0,076
-251,307	-99,464	0,071	-0,013
-250,292	358,838	0,056	0,082
-249,278	800,000	0,035	0,084
-248,263	321,362	-0,050	0,069
-247,249	-87,034	0,143	0,031
-246,234	-80,259	-0,053	0,013
-245,219	-74,467	-0,044	0,012
-244,205	-11,770	-0,074	-0,035
-243,190	689,611	0,064	-0,123
-242,176	51,837	0,056	0,039
-241,161	-35,002	0,158	-0,062
-240,146	154,706	0,158	0,158
-239,132	556,458	-0,074	0,131
-238,117	-118,007	-0,023	0,003
-237,103	185,109	-0,103	-0,111
-236,088	-160,923	-0,118	0,004
-235,073	-200,000	0,034	0,177
-234,059	460,241	0,032	0,052
-233,044	-200,000	0,003	-0,063
-232,030	-174,363	0,115	0,002
-231,015	-200,000	-0,033	-0,120
-230,000	-80,678	0,027	0,006
-228,986	224,611	0,072	-0,085
-227,971	33,351	0,068	0,043
-226,957	-25,844	-0,041	-0,018
-225,942	800,000	0,056	0,119
-224,927	-166,291	-0,130	0,004
-223,913	-200,000	0,015	-0,067
-222,898	800,000	0,048	-0,111
-221,884	-20,086	0,031	-0,014
-220,869	-102,402	-0,220	0,038
-219,855	373,873	0,106	-0,157
-218,840	232,148	0,040	-0,048
-217,825	-46,173	-0,081	-0,029
-216,811	-200,000	-0,018	0,102
-215,796	-6,874	-0,030	-0,015
-214,782	-200,000	-0,003	-0,146
-213,767	-183,030	0,059	0,001
-212,752	-200,000	-0,003	0,053
-211,738	84,513	-0,134	0,106
-210,723	-167,584	0,026	-0,001
-209,709	9,503	0,056	-0,031
-208,694	-107,592	-0,090	0,014
-207,679	-9,740	0,123	0,059
-206,665	-114,650	-0,045	-0,006
-205,650	129,031	0,082	-0,076
-204,636	-184,624	0,170	-0,002
-203,621	-200,000	-0,003	-0,103
-202,606	-85,871	-0,229	0,051
-201,592	167,127	0,052	-0,054
-200,577	174,706	-0,072	-0,076
-199,563	-200,000	0,009	0,130
-198,548	-130,537	-0,137	0,013
-197,533	275,015	0,073	0,095
-196,519	157,320	0,038	-0,038
-195,504	-20,413	-0,046	-0,021
-194,490	-200,000	-0,013	-0,091
-193,475	-12,058	-0,032	-0,015
-192,460	-125,939	0,086	0,009
-191,446	-5,154	-0,062	0,031
-190,431	229,656	-0,097	0,115
-189,417	-69,359	0,029	-0,008
-188,402	-200,000	0,003	-0,023
-187,387	-52,244	0,074	-0,025
-186,373	-200,000	0,012	-0,075
-185,358	-152,789	0,062	-0,003
-184,344	290,626	-0,026	0,034
-183,329	-34,649	0,111	0,044
-182,315	-111,046	-0,066	0,010
-181,300	-200,000	0,016	-0,128
-180,285	107,396	0,037	0,032
-179,271	-122,826	-0,013	0,002
-178,256	-61,503	0,096	0,029
-177,242	545,497	0,042	0,073
-176,227	357,886	0,128	0,185
-175,212	-54,019	0,085	0,028
-174,198	50,030	0,180	0,123
-173,183	122,282	-0,095	0,086
-172,169	627,162	-0,058	0,107
-171,154	-79,391	0,103	-0,025
-170,139	274,696	0,107	0,138
-169,125	-200,000	-0,026	0,104
-168,110	800,000	0,039	0,096
-167,096	284,148	-0,041	0,053
-166,081	-67,777	0,073	0,021
-165,066	-56,292	-0,043	-0,014
-164,052	344,995	-0,039	0,056
-163,037	30,129	-0,092	0,057
-162,023	-200,000	-0,013	-0,128
-161,008	106,798	-0,030	0,026
-159,993	-168,189	0,137	-0,004
-158,979	-200,000	-0,001	-0,060
-157,964	61,678	-0,099	0,072
-156,950	106,823	0,166	0,143
-155,935	387,100	-0,051	0,076
-154,920	-200,000	0,017	0,057
-153,906	-78,523	0,289	0,071
-152,891	15,458	0,054	-0,031
-151,877	277,425	0,028	-0,036
-150,862	800,000	-0,026	0,063
-149,847	-200,000	-0,004	-0,115
-148,833	-103,222	-0,050	0,009
-147,818	12,612	0,053	0,030
-146,804	800,000	0,046	0,106
-145,789	11,949	0,095	-0,053
-144,775	-200,000	0,019	0,075
-143,760	-200,000	-0,009	0,135
-142,745	-200,000	-0,015	-0,071
-141,731	800,000	0,025	-0,058
-140,716	-88,136	0,153	-0,033
-139,702	250,962	-0,099	0,122
-138,687	-14,073	-0,179	-0,084
-137,672	4,257	0,089	0,047
-136,658	-200,000	-0,004	-0,069
-135,643	242,668	-0,097	-0,118
-134,629	460,403	-0,058	-0,095
-133,614	527,110	-0,033	0,056
-132,599	-200,000	-0,004	0,090
-131,585	126,497	0,038	-0,035
-130,570	-200,000	-0,022	0,102
-129,556	-154,173	-0,038	0,002
-128,541	-4,689	-0,046	0,023
-127,526	-200,000	0,025	0,088
-126,512	800,000	0,054	0,154
-125,497	-5,888	0,215	-0,106
-124,483	576,679	-0,055	0,098
-123,468	-68,693	0,169	-0,047
-122,453	800,000	-0,042	-0,126
-121,439	-163,482	0,125	0,004
-120,424	-155,870	-0,217	-0,010
-119,410	-200,000	-0,010	0,051
