DTS Sentinel unit serial number:	SN410029Multiplexer serial number:	ORYXHardware model number:	OX2-SRSoftware version number:	ORYX F/W v4,00 Oryx Data Collector v3.7.2.0data status	okinstallation	B6 Nyhavnadifferential loss correction	single-endedforward channel	channel 2reverse channel	N/Adate	2023/12/10time	16:30:08forward acquisition time	300,00reverse acquisition time	0,00gamma	499,1914k internal	0,3123k external	0,3123temperature offset calibration	1,0000default loss term (dB/km)	0,3820temperature slope calibration	1,0000multiplexer offset coefficient	1,0000multiplexer slope coefficient	1,0000fibre end	0,00T internal ref (°C)	22,37T ext. ref 1 (°C)	6,14T ext. ref 2 (°C)	6,16length (m)	temperature (°C)	Stokes	anti-Stokes-744,400	-200,000	0,013	-0,151
-743,385	-37,756	-0,170	0,067
-742,371	174,063	0,072	0,077
-741,356	-133,282	-0,296	-0,027
-740,342	-200,000	0,001	-0,121
-739,327	-48,348	-0,278	0,099
-738,312	409,200	0,059	-0,094
-737,298	-58,125	-0,246	0,079
-736,283	-156,822	0,112	0,005
-735,269	51,014	-0,250	0,176
-734,254	-200,000	0,032	-0,108
-733,239	-138,356	-0,348	-0,028
-732,225	-40,319	0,146	-0,056
-731,210	-179,294	0,114	0,002
-730,196	-200,000	-0,000	0,038
-729,181	435,171	-0,097	-0,158
-728,167	147,587	0,068	0,068
-727,152	-121,343	-0,025	0,003
-726,137	637,079	-0,067	-0,128
-725,123	44,972	-0,080	0,055
-724,108	7,385	-0,244	-0,135
-723,094	5,261	0,098	0,054
-722,079	480,014	-0,039	-0,065
-721,064	-200,000	-0,020	-0,158
-720,050	18,527	0,109	-0,065
-719,035	87,948	0,080	-0,066
-718,021	-147,901	-0,055	-0,003
-717,006	-200,000	-0,001	-0,032
-715,991	-200,000	-0,022	-0,160
-714,977	-58,114	-0,082	0,026
-713,962	800,000	0,025	0,053
-712,948	-200,000	0,017	0,068
-711,933	-141,018	0,054	-0,004
-710,918	167,080	-0,093	-0,098
-709,904	-29,946	-0,084	-0,036
-708,889	489,756	0,105	0,179
-707,875	-200,000	-0,017	-0,200
-706,860	209,148	-0,058	-0,068
-705,845	-115,598	0,006	-0,001
-704,831	-200,000	0,013	-0,060
-703,816	6,128	0,045	-0,025
-702,802	-2,413	-0,083	-0,043
-701,787	-200,000	-0,003	-0,087
-700,772	-32,856	0,132	-0,055
-699,758	-200,000	0,005	0,054
-698,743	391,339	-0,046	0,071
-697,729	-200,000	-0,008	0,031
-696,714	-200,000	-0,021	0,071
-695,699	242,766	-0,084	0,104
-694,685	26,392	0,035	-0,022
-693,670	-137,102	-0,113	-0,009
-692,656	-200,000	0,016	0,133
-691,641	-200,000	-0,004	-0,025
-690,627	-13,913	-0,092	-0,044
-689,612	379,338	-0,127	0,195
-688,597	-172,859	-0,072	-0,002
-687,583	-200,000	-0,015	-0,071
-686,568	539,462	-0,030	-0,054
-685,554	283,106	-0,011	-0,015
-684,539	-200,000	0,003	0,041
-683,524	17,357	0,058	-0,034
-682,510	154,534	0,054	0,055
-681,495	408,210	-0,030	-0,047
-680,481	-39,878	-0,134	0,052
-679,466	-200,000	-0,017	-0,109
-678,451	-94,363	0,191	0,038
-677,437	37,810	-0,036	-0,024
-676,422	-200,000	-0,021	-0,092
-675,408	321,350	-0,052	-0,074
-674,393	-200,000	0,019	-0,094
-673,378	141,075	-0,085	-0,083
-672,364	-132,821	-0,120	-0,011
-671,349	-200,000	-0,043	-0,150
-670,335	-80,453	-0,132	-0,033
-669,320	-200,000	0,000	0,062
-668,305	382,209	0,067	0,103
-667,291	-200,000	-0,010	-0,064
-666,276	-22,027	-0,113	0,051
-665,262	-200,000	0,020	-0,069
-664,247	111,016	-0,100	0,089
-663,232	-200,000	0,009	0,065
-662,218	-107,870	-0,055	0,009
-661,203	-200,000	-0,010	0,074
-660,189	-168,999	-0,147	0,004
-659,174	-172,836	0,087	-0,002
-658,159	219,898	-0,070	-0,083
-657,145	800,000	-0,039	-0,084
-656,130	800,000	0,009	0,028
-655,116	52,262	-0,116	0,082
-654,101	-21,582	0,084	0,038
-653,086	-67,065	-0,087	0,025
-652,072	-200,000	-0,034	0,157
-651,057	-200,000	0,016	0,054
-650,043	-200,000	-0,003	-0,028
-649,028	-159,954	0,087	-0,003
-648,014	-200,000	-0,010	-0,074
-646,999	-17,059	0,134	-0,063
-645,984	800,000	-0,022	0,070
-644,970	647,089	-0,059	-0,112
-643,955	3,064	-0,064	-0,034
-642,941	1,440	-0,104	-0,056
-641,926	-67,047	0,092	0,027
-640,911	1,848	0,121	0,064
-639,897	107,203	0,071	-0,062
-638,882	46,014	-0,050	0,034
-637,868	8,206	-0,086	-0,048
-636,853	51,226	-0,164	-0,115
-635,838	-200,000	0,008	-0,071
-634,824	490,294	-0,033	-0,056
-633,809	132,976	0,039	0,037
-632,795	800,000	-0,017	-0,042
-631,780	-35,645	-0,023	0,009
-630,765	-56,219	-0,049	0,016
-629,751	-88,927	0,148	-0,032
-628,736	42,661	-0,127	-0,085
-627,722	-12,817	0,029	-0,014
-626,707	-44,594	0,093	0,034
-625,692	-200,000	0,015	0,068
-624,678	-97,634	-0,057	-0,011
-623,663	664,644	-0,056	-0,107
-622,649	-200,000	0,002	-0,128
-621,634	177,204	-0,136	-0,148
-620,619	-94,325	-0,035	0,007
-619,605	719,315	0,067	0,133
-618,590	180,785	0,097	0,106
-617,576	-47,910	-0,085	-0,030
-616,561	-73,156	0,028	0,008
-615,546	109,281	-0,012	-0,010
-614,532	800,000	-0,022	-0,068
-613,517	-122,098	-0,037	-0,004
-612,503	18,486	0,118	0,070
-611,488	-54,085	0,073	-0,024
-610,474	-80,457	0,145	0,036
-609,459	203,591	0,082	0,094
-608,444	395,623	-0,053	0,082
-607,430	-200,000	-0,004	0,054
-606,415	720,971	-0,040	-0,080
-605,401	-13,766	0,092	-0,044
-604,386	66,485	-0,101	-0,076
-603,371	52,422	-0,146	0,103
-602,357	-115,011	-0,163	0,023
-601,342	-87,693	0,122	0,027
-600,328	-200,000	-0,001	-0,070
-599,313	449,654	0,060	0,099
-598,298	207,376	0,025	-0,030
-597,284	-200,000	-0,001	-0,102
-596,269	-200,000	-0,031	-0,135
-595,255	800,000	0,023	0,061
-594,240	-200,000	-0,007	-0,112
-593,225	279,931	0,072	-0,096
-592,211	-3,438	-0,090	-0,046
-591,196	27,094	0,059	0,037
-590,182	800,000	0,039	0,104
-589,167	251,167	0,090	-0,114
-588,152	327,542	0,007	-0,010
-587,138	-200,000	0,000	-0,189
-586,123	-31,806	-0,068	-0,028
-585,109	607,237	-0,038	-0,070
-584,094	-42,463	-0,128	0,048
-583,079	142,457	-0,049	-0,048
-582,065	-95,015	0,175	-0,035
-581,050	-200,000	0,034	0,116
-580,036	289,381	0,033	0,045
-579,021	72,459	0,081	-0,062
-578,006	800,000	-0,057	0,131
-576,992	91,252	-0,120	-0,099
-575,977	-140,274	0,135	0,010
-574,963	-80,644	0,059	-0,014
-573,948	36,662	-0,014	-0,009
-572,934	-200,000	-0,002	0,066
-571,919	104,629	-0,094	-0,082
-570,904	800,000	-0,038	-0,093
-569,890	-35,504	-0,048	-0,019
-568,875	-70,674	0,084	0,023
-567,861	17,601	0,117	0,069
-566,846	205,938	0,058	0,067
-565,831	-200,000	-0,001	0,026
-564,817	451,750	-0,091	-0,149
-563,802	29,061	0,103	-0,065
-562,788	117,705	-0,037	0,033
-561,773	800,000	0,010	0,021
-560,758	364,313	0,090	0,135
-559,744	293,430	-0,055	-0,074
-558,729	283,900	-0,029	0,039
-557,715	800,000	0,045	-0,093
-556,700	156,650	0,015	0,015
-555,685	-173,031	0,023	0,001
-554,671	-175,561	0,082	0,002
-553,656	328,339	0,040	0,057
-552,642	256,883	-0,107	0,136
-551,627	-78,868	0,028	-0,007
-550,612	-200,000	-0,025	0,166
-549,598	214,656	-0,049	-0,058
-548,583	-200,000	-0,007	-0,037
-547,569	800,000	-0,050	0,115
-546,554	273,326	0,060	0,079
-545,539	514,052	-0,079	-0,137
-544,525	49,992	0,059	-0,041
-543,510	0,381	-0,044	-0,023
-542,496	-200,000	-0,006	0,048
-541,481	61,640	-0,070	-0,051
-540,466	800,000	-0,013	-0,040
-539,452	294,948	-0,028	0,038
-538,437	189,534	0,049	0,055
-537,423	-200,000	0,040	0,136
-536,408	320,999	-0,097	-0,136
-535,393	-32,059	-0,140	-0,058
-534,379	87,079	0,084	-0,068
-533,364	536,126	-0,037	0,066
-532,350	372,882	-0,018	0,028
-531,335	-200,000	0,018	0,152
-530,321	-143,864	-0,110	-0,008
-529,306	-116,627	0,101	-0,014
-528,291	245,207	-0,018	-0,022
-527,277	325,569	-0,039	-0,055
-526,262	798,264	0,027	-0,056
-525,248	61,015	-0,053	-0,039
-524,233	160,730	0,020	-0,021
-523,218	627,823	-0,067	-0,125
-522,204	-200,000	-0,007	-0,052
-521,189	-53,502	0,049	-0,016
-520,175	-92,961	-0,098	-0,020
-519,160	-200,000	-0,002	-0,129
-518,145	-69,471	-0,053	-0,015
-517,131	6,434	-0,102	0,056
-516,116	-200,000	0,006	-0,047
-515,102	787,320	-0,002	0,004
-514,087	327,263	0,086	-0,122
-513,072	800,000	-0,035	-0,102
-512,058	800,000	0,005	-0,015
-511,043	-10,053	-0,112	-0,055
-510,029	82,105	-0,129	0,103
-509,014	-200,000	0,002	0,216
-507,999	797,171	0,012	-0,025
-506,985	800,000	-0,036	0,083
-505,970	-63,552	0,058	0,018
-504,956	800,000	-0,030	-0,092
-503,941	80,002	-0,005	-0,004
-502,926	-200,000	-0,018	-0,103
-501,912	-93,406	-0,112	0,023
-500,897	683,582	0,009	0,017
-499,883	102,798	-0,026	0,023
-498,868	800,000	0,055	-0,120
-497,853	-37,324	-0,106	0,042
-496,839	507,943	-0,095	0,164
-495,824	276,708	-0,025	-0,032
-494,810	-22,722	0,083	-0,037
-493,795	-200,000	-0,012	0,118
-492,781	-200,000	-0,002	0,062
-491,766	-8,253	-0,046	-0,023
-490,751	481,498	-0,080	-0,135
-489,737	800,000	-0,033	0,102
-488,722	600,388	0,047	0,087
-487,708	-56,445	0,079	0,026
-486,693	152,297	-0,056	-0,057
-485,678	-175,545	0,044	0,001
-484,664	92,864	0,047	0,039
-483,649	800,000	0,015	0,035
-482,635	367,190	-0,082	-0,122
-481,620	800,000	0,019	0,041
-480,605	-111,497	0,176	0,026
-479,591	355,449	0,050	-0,074
-478,576	206,857	0,033	0,038
-477,562	-68,805	0,082	-0,023
-476,547	172,586	-0,090	0,096
-475,532	215,423	0,015	-0,018
-474,518	100,006	0,126	0,108
-473,503	-200,000	0,012	0,069
-472,489	48,493	0,102	0,071
-471,474	-7,035	-0,123	0,061
-470,459	468,476	-0,023	-0,039
-469,445	543,924	-0,050	0,088
-468,430	-200,000	0,004	-0,057
-467,416	-62,401	0,045	0,014
-466,401	93,772	0,066	0,055
-465,386	-121,506	0,096	0,012
-464,372	295,337	-0,123	-0,166
-463,357	-68,517	-0,010	-0,003
-462,343	-64,513	-0,066	0,020
-461,328	277,554	-0,049	0,064
-460,313	-200,000	-0,024	-0,084
-459,299	-200,000	0,016	0,059
-458,284	-200,000	-0,035	0,124
-457,270	-43,206	-0,067	-0,025
-456,255	-157,236	-0,043	-0,002
-455,241	800,000	0,025	-0,071
-454,226	224,817	0,082	-0,098
-453,211	10,681	0,028	-0,016
-452,197	-32,341	0,109	0,045
-451,182	-200,000	-0,029	0,108
-450,168	-200,000	-0,015	0,122
-449,153	-200,000	-0,018	0,083
-448,138	612,343	-0,048	-0,089
-447,124	-157,265	-0,064	0,003
-446,109	18,191	0,074	0,043
-445,095	-148,836	-0,039	-0,002
-444,080	-68,981	0,104	0,029
-443,065	346,131	-0,033	0,047
-442,051	-200,000	0,002	-0,106
-441,036	102,430	-0,051	-0,044
-440,022	529,033	-0,041	-0,072
-439,007	-54,598	-0,094	0,031
-437,992	-57,898	-0,054	0,017
-436,978	89,102	0,074	0,061
-435,963	-56,928	-0,053	0,017
-434,949	72,854	-0,103	0,079
-433,934	-200,000	0,001	-0,035
-432,919	-13,450	-0,091	-0,044
-431,905	-71,144	-0,063	-0,017
-430,890	-52,901	0,039	0,013
-429,876	255,153	0,106	0,134
-428,861	-70,322	-0,028	-0,008
-427,846	-81,424	-0,130	0,031
-426,832	-20,208	-0,014	0,006
-425,817	204,550	-0,069	0,079
-424,803	800,000	0,058	-0,161
-423,788	-200,000	0,011	0,044
-422,773	796,375	-0,013	0,027
-421,759	500,057	0,051	0,087
-420,744	42,824	-0,167	-0,112
-419,730	329,409	-0,071	-0,101
-418,715	94,594	0,070	-0,058
-417,701	45,235	0,112	-0,076
-416,686	359,975	-0,010	-0,015
-415,671	-82,925	0,146	-0,034
-414,657	-200,000	0,000	0,020
-413,642	225,060	-0,081	0,096
-412,628	-59,116	-0,016	0,005
-411,613	187,727	-0,165	-0,182
-410,598	-22,007	0,075	-0,033
-409,584	248,892	0,034	-0,043
-408,569	-81,100	0,079	-0,019
-407,555	-200,000	-0,008	0,147
-406,540	-200,000	0,030	-0,100
-405,525	-46,952	-0,152	-0,054
-404,511	-69,177	0,082	-0,023
-403,496	151,069	0,026	-0,026
-402,482	-200,000	-0,005	-0,080
-401,467	518,135	-0,007	0,012
-400,452	65,414	0,148	0,110
-399,438	800,000	0,027	-0,067
-398,423	49,950	-0,012	0,008
-397,409	-200,000	0,042	-0,166
-396,394	216,437	-0,109	-0,128
-395,379	372,975	0,041	-0,061
-394,365	-200,000	0,026	0,092
-393,350	286,941	-0,024	0,032
-392,336	-141,839	-0,141	-0,010
-391,321	69,956	-0,048	-0,036
-390,306	800,000	0,055	-0,130
-389,292	-69,396	0,083	0,023
-388,277	-200,000	0,022	-0,181
-387,263	-4,125	-0,018	-0,009
-386,248	103,981	0,166	0,143
-385,233	-44,359	-0,034	-0,012
-384,219	800,000	-0,067	-0,148
-383,204	339,482	0,014	-0,020
-382,190	-66,231	0,065	-0,019
-381,175	133,996	-0,067	0,063
-380,160	-200,000	0,004	0,084
-379,146	-71,395	0,161	0,044
-378,131	-66,803	-0,083	0,024
-377,117	-200,000	0,007	0,030
-376,102	269,419	0,091	-0,117
-375,088	-200,000	-0,228	-0,000
-374,073	-89,836	0,074	0,016
-373,058	-116,175	0,066	-0,009
-372,044	800,000	0,051	0,108
-371,029	5,900	0,127	-0,069
-370,015	800,000	0,004	0,009
-369,000	800,000	-0,034	0,080
-367,985	800,000	0,038	0,097
-366,971	-41,159	0,036	0,014
-365,956	343,031	0,045	0,065
-364,942	326,129	0,070	0,099
-363,927	529,384	0,059	0,102
-362,912	-125,891	0,090	-0,010
-361,898	800,000	-0,015	-0,041
-360,883	225,451	-0,030	0,036
-359,869	-7,855	0,017	-0,008
-358,854	-40,199	0,024	-0,009
-357,839	-139,776	0,052	-0,004
-356,825	-147,912	0,073	0,004
-355,810	800,000	-0,010	-0,021
-354,796	-200,000	0,025	-0,173
-353,781	-164,118	-0,081	-0,003
-352,766	361,950	-0,027	-0,041
-351,752	68,024	-0,037	-0,028
-350,737	104,722	0,106	-0,092
-349,723	46,705	0,154	0,105
-348,708	246,400	0,111	0,138
-347,693	121,838	0,067	0,061
-346,679	34,858	-0,067	0,043
-345,664	800,000	0,028	0,065
-344,650	-200,000	0,049	0,174
-343,635	-120,110	0,128	-0,016
-342,620	-101,828	0,114	0,020
-341,606	-106,458	0,032	0,005
-340,591	120,642	-0,105	-0,096
-339,577	-74,946	-0,056	-0,015
-338,562	59,536	-0,024	-0,017
-337,548	-200,000	0,011	0,092
-336,533	284,178	0,044	0,058
-335,518	296,809	0,032	0,044
-334,504	-53,682	-0,040	-0,013
-333,489	-118,052	0,082	-0,011
-332,475	-24,660	-0,067	-0,029
-331,460	800,000	0,011	-0,032
-330,445	-200,000	-0,009	0,053
-329,431	-2,949	-0,051	-0,026
-328,416	184,896	0,086	0,093
-327,402	-41,101	0,108	0,041
-326,387	57,929	-0,016	-0,011
-325,372	800,000	0,028	-0,088
-324,358	108,272	0,109	-0,096
-323,343	389,596	-0,073	0,112
-322,329	189,129	0,068	0,075
-321,314	-200,000	0,028	-0,115
-320,299	-64,741	0,026	-0,008
-319,285	800,000	-0,029	-0,067
-318,270	-200,000	0,009	-0,122
-317,256	-30,910	-0,142	-0,058
-316,241	-200,000	0,008	-0,049
-315,226	61,444	-0,065	0,047
-314,212	-200,000	0,003	0,018
-313,197	-42,895	-0,053	0,020
-312,183	-200,000	0,010	0,133
-311,168	-48,516	0,070	0,025
-310,153	218,776	-0,071	0,084
-309,139	-125,261	-0,029	-0,003
-308,124	52,965	0,062	0,044
-307,110	800,000	0,074	0,171
-306,095	285,221	-0,064	-0,084
-305,080	-200,000	-0,005	0,033
-304,066	-200,000	0,008	0,031
-303,051	-135,240	-0,156	-0,013
-302,037	152,131	-0,067	-0,067
-301,022	800,000	0,045	-0,105
-300,008	679,769	0,044	-0,085
-298,993	497,159	0,060	-0,102
-297,978	44,252	-0,144	0,097
-296,964	331,376	-0,077	-0,109
-295,949	-200,000	0,036	0,150
-294,935	-200,000	-0,005	-0,085
-293,920	-143,111	0,097	0,007
-292,905	-63,555	0,032	-0,010
-291,891	458,571	-0,038	-0,062
-290,876	223,781	-0,121	0,143
-289,862	150,578	0,030	0,030
-288,847	-200,000	-0,012	-0,124
-287,832	-44,272	0,148	0,054
-286,818	-0,066	-0,024	-0,013
-285,803	567,801	-0,023	0,041
-284,789	-35,241	0,101	0,040
-283,774	800,000	0,022	0,056
-282,759	202,869	-0,111	0,126
-281,745	37,996	0,103	-0,067
-280,730	516,469	-0,073	-0,126
-279,716	800,000	0,039	-0,099
-278,701	-106,880	0,085	0,014
-277,686	-12,624	0,099	0,047
-276,672	800,000	-0,028	-0,076
-275,657	-44,825	0,051	0,019
-274,643	256,916	-0,053	-0,067
-273,628	-72,023	-0,118	0,032
-272,613	-200,000	-0,005	-0,021
-271,599	-200,000	0,008	-0,062
-270,584	-96,184	0,094	0,018
-269,570	338,824	0,135	0,193
-268,555	-59,227	0,108	0,034
-267,540	132,689	-0,018	0,017
-266,526	-130,420	0,104	0,010
-265,511	800,000	-0,019	0,042
-264,497	9,327	-0,008	-0,005
-263,482	97,641	0,094	-0,079
-262,467	62,833	-0,096	-0,071
-261,453	18,102	-0,077	0,045
-260,438	78,712	0,155	0,121
-259,424	-200,000	-0,012	0,149
-258,409	-180,313	-0,051	0,001
-257,395	50,446	0,062	-0,043
-256,380	-91,604	0,143	-0,029
-255,365	800,000	0,066	-0,163
-254,351	-34,079	-0,067	0,027
-253,336	-200,000	0,006	-0,056
-252,322	-200,000	0,021	-0,090
-251,307	150,322	0,076	-0,076
-250,292	-138,665	-0,093	-0,007
-249,278	-108,869	-0,063	0,010
-248,263	-200,000	-0,025	0,124
-247,249	-200,000	0,002	0,032
-246,234	-22,060	-0,018	-0,008
-245,219	800,000	-0,024	-0,056
-244,205	253,616	-0,008	-0,010
-243,190	-72,469	-0,044	-0,012
-242,176	800,000	0,023	0,048
-241,161	119,531	-0,045	-0,041
-240,146	800,000	0,059	0,184
-239,132	507,091	-0,079	-0,134
-238,117	30,305	-0,031	0,019
-237,103	-200,000	0,002	-0,046
-236,088	-160,498	-0,031	0,001
-235,073	-200,000	0,001	0,037
-234,059	-26,671	0,060	0,025
-233,044	-4,837	-0,092	-0,046
-232,030	-200,000	0,000	-0,120
-231,015	-54,949	0,129	-0,042
-230,000	-35,917	0,107	-0,042
-228,986	-9,731	-0,063	-0,030
-227,971	-118,249	0,190	0,024
-226,957	160,305	0,064	0,066
-225,942	800,000	-0,029	-0,087
-224,927	-97,098	-0,076	-0,014
-223,913	434,549	-0,080	0,127
-222,898	-46,652	-0,188	0,067
-221,884	227,086	0,097	-0,115
-220,869	-9,183	-0,038	-0,019
-219,855	-200,000	-0,005	-0,078
-218,840	-193,857	-0,060	-0,000
-217,825	-200,000	-0,025	-0,096
-216,811	-64,273	0,106	-0,031
-215,796	-200,000	0,002	0,009
-214,782	799,496	0,043	0,087
-213,767	74,523	-0,056	-0,043
-212,752	55,208	-0,088	0,062
-211,738	487,686	0,021	0,035
-210,723	784,620	-0,025	0,051
-209,709	-200,000	0,010	0,048
-208,694	800,000	-0,038	0,107
-207,679	800,000	-0,032	0,096
-206,665	214,321	0,008	-0,009
-205,650	-108,410	-0,056	0,009
-204,636	500,673	0,054	-0,091
-203,621	36,003	-0,146	-0,094
-202,606	293,525	0,021	0,029
-201,592	75,368	-0,174	0,134
-200,577	-42,890	-0,179	0,066
-199,563	-30,856	-0,120	-0,049
-198,548	-200,000	0,018	0,069
-197,533	687,609	-0,064	0,122
-196,519	129,272	0,019	0,018
-195,504	126,041	-0,073	0,067
-194,490	73,331	-0,065	0,049
-193,475	60,929	-0,011	-0,008
-192,460	-63,976	-0,038	-0,011
-191,446	169,136	0,059	0,062
-190,431	509,784	-0,053	0,090
-189,417	-200,000	0,011	-0,072
-188,402	-99,681	0,068	0,012
-187,387	-200,000	-0,006	0,104
-186,373	-94,771	0,115	-0,023
-185,358	-169,285	-0,143	0,004
-184,344	800,000	0,040	0,123
-183,329	800,000	0,054	0,151
-182,315	100,070	0,022	0,018
-181,300	42,432	-0,136	0,090
-180,285	-200,000	-0,018	0,157
-179,271	800,000	0,051	-0,153
-178,256	258,698	0,046	0,058
-177,242	-200,000	-0,019	0,095
-176,227	800,000	-0,012	0,038
-175,212	-140,814	-0,122	0,009
-174,198	-200,000	-0,024	-0,101
-173,183	800,000	-0,016	-0,048
-172,169	-200,000	0,021	0,207
-171,154	483,725	0,038	-0,063
-170,139	-36,463	0,086	-0,034
-169,125	800,000	-0,010	0,027
-168,110	-46,509	0,058	0,021
-167,096	800,000	0,010	-0,029
-166,081	491,230	-0,055	-0,092
-165,066	-200,000	0,034	0,120
-164,052	-57,414	-0,062	-0,020
-163,037	-17,991	0,068	0,031
-162,023	800,000	-0,006	0,013
-161,008	-56,902	-0,054	0,017
-159,993	-128,522	0,153	0,016
-158,979	235,410	0,076	-0,092
-157,964	597,765	0,013	-0,023
-156,950	-60,736	-0,105	-0,032
-155,935	78,098	-0,052	-0,040
-154,920	752,585	0,080	-0,158
-153,906	800,000	-0,019	0,052
-152,891	-23,045	-0,063	-0,027
-151,877	-115,323	-0,145	-0,020
-150,862	335,139	0,033	-0,047
-149,847	-95,931	-0,063	0,012
-148,833	560,418	0,024	0,042
-147,818	750,335	-0,014	0,029
-146,804	44,981	-0,106	0,071
-145,789	604,887	0,054	0,098
-144,775	291,241	0,062	-0,082
-143,760	-200,000	-0,015	-0,144
-142,745	-165,546	0,104	0,003
-141,731	-27,592	-0,125	-0,053
-140,716	-92,935	0,135	-0,027
-139,702	-32,237	0,123	0,050
-138,687	-200,000	0,025	0,083
-137,672	249,356	-0,063	-0,077
-136,658	-200,000	0,009	-0,101
-135,643	-45,993	-0,024	0,009
-134,629	-200,000	-0,002	-0,049
-133,614	-78,225	0,104	-0,026
-132,599	48,441	0,160	0,109
-131,585	-141,051	-0,111	0,008
-130,570	-200,000	-0,016	0,153
-129,556	800,000	0,029	0,088
-128,541	-49,941	-0,129	0,044
-127,526	800,000	0,014	0,038
-126,512	-140,969	0,050	0,004
-125,497	-200,000	-0,009	-0,062
-124,483	161,225	0,054	0,055
-123,468	-20,628	0,055	0,024
-122,453	800,000	-0,020	-0,062
-121,439	-200,000	-0,001	0,011
-120,424	40,122	0,064	-0,042
-119,410	214,694	0,082	-0,095
