DTS Sentinel unit serial number:	SN410029Multiplexer serial number:	ORYXHardware model number:	OX2-SRSoftware version number:	ORYX F/W v4,00 Oryx Data Collector v3.7.2.0data status	okinstallation	B6 Nyhavnadifferential loss correction	single-endedforward channel	channel 2reverse channel	N/Adate	2023/12/07time	22:00:08forward acquisition time	300,00reverse acquisition time	0,00gamma	499,1914k internal	0,3164k external	0,3164temperature offset calibration	1,0000default loss term (dB/km)	0,3820temperature slope calibration	1,0000multiplexer offset coefficient	1,0000multiplexer slope coefficient	1,0000fibre end	0,00T internal ref (°C)	13,63T ext. ref 1 (°C)	-3,31T ext. ref 2 (°C)	-3,32length (m)	temperature (°C)	Stokes	anti-Stokes-744,400	120,888	0,128	-0,117
-743,385	-123,830	-0,386	0,044
-742,371	272,882	0,104	0,136
-741,356	-200,000	-0,297	0,000
-740,342	-200,000	0,031	0,233
-739,327	-68,431	-0,245	-0,069
-738,312	800,000	0,066	0,141
-737,298	-102,724	-0,328	-0,057
-736,283	-36,713	0,232	0,091
-735,269	-138,639	-0,350	-0,028
-734,254	146,968	0,145	0,144
-733,239	-90,183	-0,521	-0,111
-732,225	92,473	0,196	0,162
-731,210	800,000	0,023	0,073
-730,196	-200,000	-0,014	-0,064
-729,181	-1,443	-0,078	-0,040
-728,167	-200,000	-0,032	-0,136
-727,152	-200,000	0,000	-0,128
-726,137	-55,517	-0,142	-0,046
-725,123	636,867	-0,049	-0,092
-724,108	160,954	-0,124	-0,127
-723,094	78,677	-0,213	-0,167
-722,079	800,000	0,046	-0,110
-721,064	303,090	0,024	-0,033
-720,050	-87,872	0,017	-0,004
-719,035	-200,000	-0,016	-0,103
-718,021	-200,000	-0,008	-0,093
-717,006	215,715	-0,127	-0,148
-715,991	-200,000	-0,011	-0,118
-714,977	43,720	0,104	0,070
-713,962	-200,000	0,005	0,095
-712,948	-102,150	0,010	-0,002
-711,933	800,000	0,045	0,099
-710,918	-117,250	-0,209	0,028
-709,904	800,000	-0,009	0,030
-708,889	-143,229	-0,161	0,011
-707,875	-200,000	0,027	-0,121
-706,860	-17,669	-0,090	-0,041
-705,845	683,284	0,034	-0,065
-704,831	256,239	-0,067	0,084
-703,816	-17,489	0,065	0,030
-702,802	451,646	-0,036	0,059
-701,787	195,782	-0,164	-0,183
-700,772	-46,792	0,073	-0,026
-699,758	3,202	-0,033	-0,018
-698,743	-200,000	-0,012	0,091
-697,729	101,091	-0,082	0,070
-696,714	-90,020	-0,122	-0,026
-695,699	-13,459	-0,043	0,020
-694,685	-200,000	-0,006	-0,065
-693,670	800,000	0,028	0,078
-692,656	-200,000	0,015	0,152
-691,641	11,451	0,118	-0,066
-690,627	-23,355	0,062	-0,027
-689,612	70,872	-0,022	-0,017
-688,597	251,671	-0,073	0,091
-687,583	47,206	0,097	0,066
-686,568	-175,224	-0,092	0,002
-685,554	-91,311	-0,038	0,008
-684,539	531,102	-0,059	0,104
-683,524	94,287	0,043	-0,035
-682,510	438,657	0,013	0,020
-681,495	-200,000	-0,002	-0,032
-680,481	-200,000	0,000	0,051
-679,466	646,433	-0,052	-0,098
-678,451	-137,219	-0,072	0,006
-677,437	449,682	0,025	0,040
-676,422	668,364	0,019	-0,036
-675,408	-40,118	0,053	0,020
-674,393	117,024	0,038	0,034
-673,378	-43,269	-0,183	0,067
-672,364	253,047	0,036	0,045
-671,349	-200,000	-0,008	-0,129
-670,335	272,003	-0,069	0,090
-669,320	-200,000	0,001	-0,024
-668,305	-200,000	0,009	-0,036
-667,291	-27,204	0,141	0,060
-666,276	800,000	-0,051	-0,130
-665,262	-200,000	0,020	-0,102
-664,247	12,046	-0,094	0,053
-663,232	800,000	-0,018	-0,058
-662,218	787,885	0,046	0,094
-661,203	553,668	-0,042	0,074
-660,189	152,639	-0,066	0,066
-659,174	357,486	-0,078	-0,114
-658,159	44,383	-0,033	0,022
-657,145	509,355	0,003	0,005
-656,130	-200,000	-0,070	0,242
-655,116	800,000	-0,016	-0,038
-654,101	-121,967	-0,073	0,009
-653,086	69,231	0,060	0,045
-652,072	125,914	-0,098	-0,090
-651,057	-100,181	-0,081	0,015
-650,043	607,585	0,030	-0,056
-649,028	-107,513	-0,073	0,012
-648,014	-200,000	0,003	0,111
-646,999	-19,922	0,088	-0,040
-645,984	-200,000	0,010	0,076
-644,970	-1,137	0,030	0,015
-643,955	-200,000	-0,009	-0,111
-642,941	65,314	-0,082	-0,060
-641,926	301,703	-0,046	-0,063
-640,911	86,780	-0,049	-0,039
-639,897	-78,670	-0,077	0,019
-638,882	-178,033	-0,031	0,001
-637,868	237,054	-0,067	-0,081
-636,853	602,308	-0,089	-0,162
-635,838	800,000	-0,046	-0,135
-634,824	207,429	-0,076	-0,087
-633,809	800,000	-0,032	0,092
-632,795	146,167	0,058	0,057
-631,780	-200,000	0,004	-0,116
-630,765	-62,584	-0,066	0,020
-629,751	97,400	-0,097	-0,082
-628,736	-200,000	-0,003	-0,011
-627,722	-200,000	-0,000	-0,068
-626,707	209,381	0,036	-0,041
-625,692	12,157	0,089	-0,050
-624,678	180,633	-0,014	-0,015
-623,663	55,045	-0,113	-0,080
-622,649	800,000	-0,031	-0,087
-621,634	3,528	0,019	0,010
-620,619	110,569	-0,066	-0,058
-619,605	548,309	-0,051	0,090
-618,590	36,153	-0,099	0,064
-617,576	186,068	0,136	-0,148
-616,561	136,101	-0,048	0,046
-615,546	-200,000	0,009	-0,093
-614,532	85,758	-0,050	0,040
-613,517	800,000	-0,077	0,177
-612,503	-143,104	0,115	0,008
-611,488	612,491	-0,119	0,220
-610,474	-102,105	0,118	0,021
-609,459	-56,479	0,029	0,009
-608,444	271,636	-0,055	-0,071
-607,430	-3,172	-0,066	0,034
-606,415	-119,939	-0,175	-0,022
-605,401	-45,211	0,133	-0,048
-604,386	-200,000	0,019	0,089
-603,371	162,125	0,076	0,078
-602,357	65,239	0,068	0,050
-601,342	435,438	0,077	0,123
-600,328	-124,268	0,055	-0,006
-599,313	800,000	-0,026	-0,056
-598,298	130,975	0,090	-0,085
-597,284	800,000	0,028	0,060
-596,269	-90,617	0,115	-0,024
-595,255	164,823	-0,152	-0,157
-594,240	800,000	-0,044	-0,104
-593,225	244,484	0,082	-0,102
-592,211	-125,572	-0,204	-0,022
-591,196	-200,000	0,011	-0,060
-590,182	-200,000	-0,022	-0,109
-589,167	800,000	-0,038	0,087
-588,152	38,851	-0,077	0,050
-587,138	800,000	0,053	0,133
-586,123	-155,364	-0,053	0,002
-585,109	47,605	-0,033	0,022
-584,094	237,364	-0,047	0,057
-583,079	-200,000	-0,010	0,136
-582,065	60,464	-0,116	-0,084
-581,050	-200,000	-0,024	-0,090
-580,036	-200,000	0,001	0,037
-579,021	468,180	-0,122	-0,201
-578,006	-200,000	-0,009	-0,064
-576,992	-144,484	0,065	-0,004
-575,977	-14,033	-0,072	-0,034
-574,963	800,000	0,035	0,085
-573,948	208,316	-0,026	-0,030
-572,934	-69,943	-0,119	0,033
-571,919	-151,600	-0,132	-0,007
-570,904	41,211	0,010	-0,007
-569,890	65,900	-0,115	-0,085
-568,875	539,348	0,045	-0,079
-567,861	-32,188	-0,064	-0,026
-566,846	-70,496	0,073	0,020
-565,831	-200,000	0,002	0,015
-564,817	-73,621	-0,071	0,019
-563,802	800,000	-0,045	-0,102
-562,788	-7,766	0,050	0,024
-561,773	-200,000	0,039	-0,193
-560,758	119,841	-0,054	0,049
-559,744	-40,328	-0,028	-0,011
-558,729	730,762	0,059	0,116
-557,715	800,000	0,009	-0,020
-556,700	800,000	-0,042	-0,110
-555,685	196,125	-0,050	0,056
-554,671	800,000	0,010	0,031
-553,656	745,237	0,063	-0,125
-552,642	81,581	0,060	0,047
-551,627	207,881	-0,035	0,040
-550,612	-15,666	-0,131	0,061
-549,598	130,838	-0,081	-0,076
-548,583	69,569	0,053	-0,040
-547,569	800,000	-0,059	-0,119
-546,554	152,430	-0,063	0,063
-545,539	8,124	0,012	0,006
-544,525	-59,930	-0,061	0,019
-543,510	800,000	-0,052	-0,124
-542,496	67,245	-0,009	-0,007
-541,481	-200,000	0,011	-0,063
-540,466	104,848	0,021	0,018
-539,452	-129,483	-0,028	-0,003
-538,437	800,000	-0,019	0,044
-537,423	306,798	-0,035	0,047
-536,408	139,472	-0,037	0,036
-535,393	731,132	-0,050	0,097
-534,379	-5,910	-0,056	0,028
-533,364	-4,316	-0,069	-0,035
-532,350	26,261	0,163	-0,099
-531,335	245,614	-0,025	0,031
-530,321	79,908	0,104	0,081
-529,306	-127,877	0,122	0,013
-528,291	142,350	0,075	-0,072
-527,277	490,174	-0,042	-0,070
-526,262	-104,550	0,112	-0,019
-525,248	-29,652	0,106	-0,044
-524,233	-163,852	-0,045	0,002
-523,218	-0,725	0,197	0,101
-522,204	22,300	-0,212	0,126
-521,189	723,226	-0,043	-0,083
-520,175	113,200	-0,075	-0,067
-519,160	-15,057	-0,100	-0,047
-518,145	-35,192	0,093	-0,037
-517,131	384,391	-0,050	0,075
-516,116	644,893	0,032	0,060
-515,102	800,000	0,016	-0,034
-514,087	-84,260	0,056	-0,013
-513,072	-79,743	-0,109	0,026
-512,058	58,471	-0,092	-0,066
-511,043	41,560	-0,049	0,032
-510,029	800,000	0,076	-0,154
-509,014	-172,243	-0,118	-0,003
-507,999	-145,771	-0,081	-0,005
-506,985	182,939	0,051	-0,055
-505,970	-200,000	-0,012	-0,123
-504,956	-200,000	-0,004	-0,025
-503,941	-200,000	0,028	0,118
-502,926	-10,111	0,039	-0,019
-501,912	479,240	0,026	-0,043
-500,897	-46,778	-0,084	0,030
-499,883	-80,168	0,122	-0,030
-498,868	-2,116	0,102	0,052
-497,853	329,126	-0,085	0,119
-496,839	-200,000	-0,015	-0,180
-495,824	8,544	-0,065	0,036
-494,810	-33,700	0,066	0,026
-493,795	-200,000	-0,010	0,038
-492,781	207,452	-0,016	0,018
-491,766	307,309	0,024	-0,033
-490,751	-137,259	0,111	0,009
-489,737	-66,851	-0,061	-0,017
-488,722	149,944	0,046	0,045
-487,708	-200,000	0,009	0,095
-486,693	-110,180	0,086	0,013
-485,678	-164,557	0,090	0,003
-484,664	-200,000	0,025	0,101
-483,649	800,000	-0,043	-0,108
-482,635	-44,618	-0,087	0,031
-481,620	380,538	-0,070	0,105
-480,605	-200,000	-0,013	0,122
-479,591	-200,000	0,033	-0,157
-478,576	683,757	0,077	0,148
-477,562	-200,000	0,006	0,126
-476,547	800,000	-0,027	-0,056
-475,532	213,651	0,026	-0,030
-474,518	-13,808	0,137	0,064
-473,503	626,173	0,033	0,061
-472,489	-200,000	0,023	0,096
-471,474	23,706	-0,090	-0,054
-470,459	250,079	-0,064	-0,079
-469,445	507,296	0,014	0,024
-468,430	281,951	-0,057	0,074
-467,416	170,404	0,019	0,019
-466,401	-200,000	0,008	0,137
-465,386	-200,000	0,007	-0,037
-464,372	-200,000	-0,007	0,080
-463,357	-38,774	-0,117	0,045
-462,343	348,119	-0,029	-0,042
-461,328	-200,000	-0,037	0,120
-460,313	-90,099	-0,042	0,009
-459,299	800,000	-0,018	-0,048
-458,284	-127,328	0,215	0,023
-457,270	-66,700	-0,058	0,017
-456,255	800,000	-0,020	0,061
-455,241	122,361	-0,037	-0,034
-454,226	-24,300	0,035	-0,015
-453,211	192,334	-0,032	0,035
-452,197	49,884	0,118	-0,081
-451,182	121,618	-0,034	-0,031
-450,168	738,871	0,035	0,069
-449,153	151,270	0,029	-0,029
-448,138	800,000	-0,015	-0,040
-447,124	-200,000	0,014	-0,154
-446,109	-90,938	0,096	0,020
-445,095	428,116	-0,039	-0,062
-444,080	-200,000	-0,035	0,115
-443,065	-149,884	0,149	0,008
-442,051	800,000	0,017	0,040
-441,036	-71,286	-0,044	-0,012
-440,022	-175,059	-0,125	0,002
-439,007	343,278	-0,022	0,032
-437,992	112,040	0,027	0,023
-436,978	194,176	0,200	0,220
-435,963	-39,940	-0,123	0,046
-434,949	783,151	-0,018	0,035
-433,934	-200,000	0,013	-0,080
-432,919	789,364	0,014	0,029
-431,905	222,640	-0,089	0,104
-430,890	364,816	-0,130	0,190
-429,876	-149,345	-0,171	0,010
-428,861	105,454	0,076	0,065
-427,846	140,908	0,074	0,072
-426,832	151,134	-0,145	-0,143
-425,817	-1,265	0,062	-0,032
-424,803	-200,000	0,025	-0,114
-423,788	129,610	0,021	-0,019
-422,773	-66,083	0,050	-0,014
-421,759	-200,000	0,008	-0,041
-420,744	141,040	0,040	-0,039
-419,730	156,470	0,037	-0,037
-418,715	130,055	-0,033	0,031
-417,701	-36,894	-0,025	-0,010
-416,686	-154,938	0,129	0,006
-415,671	183,838	-0,036	-0,038
-414,657	-16,772	-0,063	0,029
-413,642	-41,983	0,044	-0,016
-412,628	-32,626	-0,009	0,003
-411,613	800,000	-0,029	0,075
-410,598	800,000	-0,006	-0,017
-409,584	-43,776	0,063	0,023
-408,569	-142,645	0,151	-0,011
-407,555	124,070	0,038	0,035
-406,540	-200,000	0,041	0,139
-405,525	319,198	0,074	-0,102
-404,511	-117,617	-0,126	0,016
-403,496	-200,000	0,007	0,091
-402,482	-200,000	0,003	0,047
-401,467	248,003	-0,048	0,059
-400,452	501,878	-0,078	0,132
-399,438	498,598	-0,077	0,129
-398,423	800,000	-0,062	0,132
-397,409	19,510	-0,105	-0,061
-396,394	800,000	0,012	-0,039
-395,379	-200,000	0,024	0,107
-394,365	298,815	0,085	-0,114
-393,350	-200,000	0,015	0,083
-392,336	563,066	0,033	0,058
-391,321	-61,856	-0,055	0,017
-390,306	-200,000	0,031	-0,098
-389,292	800,000	0,025	0,063
-388,277	800,000	-0,008	0,018
-387,263	91,241	0,120	0,098
-386,248	140,709	0,033	0,032
-385,233	-42,015	-0,054	-0,020
-384,219	-63,374	0,101	-0,030
-383,204	199,563	-0,105	-0,117
-382,190	585,891	-0,058	-0,105
-381,175	800,000	0,044	-0,104
-380,160	-33,123	0,112	-0,045
-379,146	-200,000	-0,008	0,075
-378,131	-200,000	-0,007	0,047
-377,117	165,356	-0,016	-0,017
-376,102	94,799	-0,064	0,053
-375,088	15,494	0,160	0,091
-374,073	70,578	-0,057	0,042
-373,058	147,574	0,043	0,042
-372,044	-200,000	0,006	0,040
-371,029	100,722	-0,025	-0,021
-370,015	34,377	0,118	-0,074
-369,000	-20,637	-0,022	-0,010
-367,985	18,564	-0,075	0,043
-366,971	-9,773	-0,105	-0,051
-365,956	-53,218	0,038	0,012
-364,942	-111,944	0,124	-0,018
-363,927	-77,728	0,083	0,021
-362,912	800,000	-0,030	0,072
-361,898	-200,000	0,020	-0,079
-360,883	320,435	-0,065	-0,090
-359,869	-200,000	-0,008	-0,119
-358,854	800,000	-0,045	-0,095
-357,839	-101,398	0,125	0,022
-356,825	-38,108	0,148	0,056
-355,810	-200,000	0,008	0,055
-354,796	800,000	-0,043	-0,100
-353,781	98,418	0,066	-0,055
-352,766	38,225	-0,052	-0,034
-351,752	160,468	0,115	0,116
-350,737	800,000	0,021	0,054
-349,723	-40,150	0,095	0,036
-348,708	-200,000	-0,004	0,024
-347,693	-160,674	0,060	-0,002
-346,679	112,326	-0,072	0,063
-345,664	-110,280	-0,031	-0,005
-344,650	20,572	-0,132	0,077
-343,635	-31,944	-0,031	-0,013
-342,620	800,000	-0,006	-0,018
-341,606	-200,000	0,009	0,058
-340,591	43,620	-0,105	0,069
-339,577	-91,828	0,123	-0,025
-338,562	800,000	-0,004	0,009
-337,548	446,251	0,081	0,129
-336,533	402,006	0,050	0,076
-335,518	212,764	0,012	0,013
-334,504	222,156	-0,057	0,067
-333,489	-108,282	-0,085	-0,013
-332,475	117,537	0,081	-0,072
-331,460	800,000	-0,058	-0,174
-330,445	-200,000	0,011	-0,041
-329,431	-200,000	0,029	0,111
-328,416	-19,552	0,189	0,085
-327,402	131,580	-0,035	0,033
-326,387	94,261	-0,044	0,036
-325,372	448,259	-0,044	0,071
-324,358	179,679	-0,018	-0,019
-323,343	-19,562	-0,102	-0,045
-322,329	353,713	0,030	-0,043
-321,314	-200,000	0,002	0,042
-320,299	53,501	0,091	0,063
-319,285	-200,000	-0,019	-0,070
-318,270	-60,062	0,036	0,011
-317,256	-200,000	-0,014	0,047
-316,241	-200,000	-0,050	-0,170
-315,226	32,661	0,027	0,017
-314,212	-10,747	-0,049	0,023
-313,197	459,654	-0,054	0,087
-312,183	-115,927	0,111	0,015
-311,168	35,734	-0,093	0,059
-310,153	271,027	-0,032	0,041
-309,139	-102,510	-0,133	0,023
-308,124	207,980	0,014	-0,016
-307,110	800,000	-0,053	0,110
-306,095	7,339	0,137	0,074
-305,080	93,706	-0,124	0,102
-304,066	-5,815	-0,116	-0,057
-303,051	61,471	0,111	0,080
-302,037	102,248	-0,020	-0,017
-301,022	-200,000	-0,024	-0,115
-300,008	555,709	0,003	0,006
-298,993	600,970	0,038	-0,068
-297,978	577,076	-0,015	0,027
-296,964	-112,483	-0,045	-0,006
-295,949	18,290	0,131	-0,075
-294,935	-85,717	-0,058	-0,013
-293,920	-103,678	0,024	-0,004
-292,905	179,689	-0,089	-0,095
-291,891	45,959	0,116	-0,078
-290,876	290,961	-0,080	-0,105
-289,862	-82,222	-0,081	0,019
-288,847	-200,000	-0,012	-0,071
-287,832	-200,000	0,011	0,106
-286,818	158,811	0,080	-0,081
-285,803	222,293	0,088	0,102
-284,789	-200,000	-0,002	0,018
-283,774	800,000	0,024	0,057
-282,759	9,027	0,121	0,066
-281,745	-35,205	-0,089	-0,035
-280,730	-19,884	-0,018	0,008
-279,716	154,774	-0,053	0,053
-278,701	682,149	-0,023	-0,043
-277,686	-124,833	-0,032	-0,004
-276,672	800,000	0,064	0,153
-275,657	285,939	0,017	0,022
-274,643	-31,446	0,143	0,058
-273,628	37,094	-0,052	0,033
-272,613	137,075	-0,051	0,049
-271,599	800,000	-0,046	0,112
-270,584	800,000	-0,014	-0,028
-269,570	-153,728	0,051	-0,002
-268,555	-200,000	0,000	0,043
-267,540	-200,000	0,016	-0,051
-266,526	-160,421	-0,136	0,005
-265,511	-200,000	0,013	-0,108
-264,497	800,000	0,012	0,029
-263,482	111,776	0,131	-0,114
-262,467	151,833	-0,017	-0,017
-261,453	-135,598	-0,061	-0,005
-260,438	63,765	0,179	-0,130
-259,424	62,464	-0,127	0,091
-258,409	-200,000	0,010	-0,106
-257,395	-77,212	0,148	0,037
-256,380	250,645	0,059	0,072
-255,365	-68,699	-0,025	0,007
-254,351	60,193	0,075	0,054
-253,336	-200,000	-0,007	-0,109
-252,322	800,000	0,049	-0,103
-251,307	249,139	0,109	-0,133
-250,292	-29,923	0,063	-0,026
-249,278	267,807	0,050	-0,063
-248,263	-200,000	-0,013	-0,110
-247,249	79,508	0,024	-0,018
-246,234	-38,110	-0,028	0,011
-245,219	86,741	-0,104	-0,083
-244,205	-133,779	-0,043	0,004
-243,190	361,295	-0,065	0,094
-242,176	77,771	0,049	-0,037
-241,161	110,731	0,068	0,059
-240,146	800,000	0,019	-0,058
-239,132	256,655	-0,025	0,031
-238,117	-102,433	-0,028	-0,005
-237,103	399,864	0,076	-0,115
-236,088	800,000	-0,026	0,054
-235,073	736,996	-0,055	-0,107
-234,059	-3,954	0,126	-0,063
-233,044	-66,603	-0,053	0,015
-232,030	-21,044	-0,138	0,061
-231,015	-200,000	-0,011	0,040
-230,000	-96,742	-0,049	0,009
-228,986	-200,000	0,005	0,059
-227,971	-51,624	0,188	-0,063
-226,957	195,672	0,064	0,071
-225,942	800,000	0,023	-0,049
-224,927	99,711	0,160	-0,133
-223,913	67,696	-0,126	-0,093
-222,898	-200,000	0,001	-0,075
-221,884	51,709	-0,045	-0,031
-220,869	193,420	0,035	0,039
-219,855	-8,200	-0,051	0,025
-218,840	32,296	0,116	0,072
-217,825	106,293	0,034	-0,029
-216,811	-200,000	-0,021	0,079
-215,796	437,491	0,041	-0,065
-214,782	800,000	-0,033	0,070
-213,767	-39,841	-0,026	-0,010
-212,752	-76,121	0,127	0,032
-211,738	-52,954	-0,062	-0,020
-210,723	-63,623	0,193	0,057
-209,709	-200,000	-0,014	-0,071
-208,694	-200,000	-0,010	-0,077
-207,679	-71,574	-0,105	0,028
-206,665	-125,079	0,054	0,006
-205,650	-200,000	0,004	0,055
-204,636	-200,000	0,009	0,165
-203,621	-200,000	-0,022	-0,077
-202,606	196,462	0,096	-0,105
-201,592	-150,722	0,070	0,004
-200,577	-200,000	-0,014	-0,062
-199,563	-168,044	0,047	0,001
-198,548	96,788	-0,073	-0,060
-197,533	-200,000	0,004	-0,074
-196,519	-110,800	0,079	-0,012
-195,504	-86,180	0,092	0,020
-194,490	-49,350	-0,078	-0,027
-193,475	366,707	-0,101	-0,147
-192,460	-154,011	0,027	0,001
-191,446	29,193	0,080	-0,049
-190,431	194,549	0,098	-0,107
-189,417	13,591	0,095	0,053
-188,402	496,552	0,081	-0,135
-187,387	231,868	-0,075	-0,088
-186,373	504,188	-0,029	-0,048
-185,358	-89,298	0,097	-0,020
-184,344	-200,000	0,002	-0,060
-183,329	-200,000	-0,009	-0,035
-182,315	-121,524	0,046	-0,005
-181,300	-82,117	-0,192	-0,045
-180,285	800,000	-0,057	-0,116
-179,271	118,642	-0,105	-0,093
-178,256	114,067	0,100	0,087
-177,242	137,660	0,046	0,044
-176,227	-49,706	0,141	0,048
-175,212	-200,000	0,000	-0,075
-174,198	244,519	-0,026	-0,032
-173,183	-200,000	-0,001	-0,135
-172,169	445,877	-0,078	0,123
-171,154	6,094	-0,016	0,009
-170,139	169,284	-0,077	-0,079
-169,125	293,884	0,102	0,134
-168,110	800,000	-0,039	-0,087
-167,096	-83,971	0,100	-0,023
-166,081	80,864	-0,133	0,103
-165,066	-68,446	-0,095	-0,026
-164,052	349,591	0,046	0,066
-163,037	39,035	0,032	0,021
-162,023	178,834	0,085	0,089
-161,008	-46,018	0,038	0,013
-159,993	800,000	0,035	-0,074
-158,979	457,868	0,029	0,047
-157,964	-23,970	-0,086	0,037
-156,950	219,831	-0,070	0,081
-155,935	323,821	0,080	0,110
-154,920	-200,000	-0,019	0,089
-153,906	-200,000	0,012	0,201
-152,891	-200,000	0,048	0,155
-151,877	59,114	-0,062	-0,044
-150,862	18,219	0,071	0,040
-149,847	-200,000	0,038	-0,161
-148,833	-200,000	-0,001	0,054
-147,818	-200,000	-0,015	0,064
-146,804	-63,858	0,067	-0,020
-145,789	-68,844	0,165	-0,045
-144,775	-35,084	-0,078	-0,030
-143,760	-79,738	-0,164	0,039
-142,745	-29,437	0,065	0,027
-141,731	-100,484	0,009	-0,002
-140,716	800,000	0,061	0,166
-139,702	214,466	-0,052	0,060
-138,687	-133,228	-0,007	-0,001
-137,672	82,750	0,090	0,071
-136,658	-170,446	-0,145	-0,004
-135,643	-200,000	-0,002	-0,010
-134,629	800,000	0,063	-0,135
-133,614	-200,000	-0,010	0,078
-132,599	41,637	0,136	-0,089
-131,585	-120,891	-0,033	-0,004
-130,570	62,360	-0,144	0,103
-129,556	-200,000	0,000	0,039
-128,541	162,579	-0,045	0,045
-127,526	-200,000	0,046	-0,213
-126,512	20,084	-0,032	-0,019
-125,497	800,000	0,008	0,018
-124,483	718,744	0,021	0,040
-123,468	-184,771	0,106	0,001
-122,453	40,542	-0,118	-0,076
-121,439	-45,029	-0,111	-0,039
-120,424	-200,000	0,026	-0,094
-119,410	-200,000	-0,001	-0,047
-118,395	-148,038	0,149	0,009
