DTS Sentinel unit serial number:	SN410029Multiplexer serial number:	ORYXHardware model number:	OX2-SRSoftware version number:	ORYX F/W v4,00 Oryx Data Collector v3.7.2.0data status	okinstallation	B6 Nyhavnadifferential loss correction	single-endedforward channel	channel 2reverse channel	N/Adate	2023/12/09time	00:30:08forward acquisition time	300,00reverse acquisition time	0,00gamma	499,1914k internal	0,3157k external	0,3157temperature offset calibration	1,0000default loss term (dB/km)	0,3820temperature slope calibration	1,0000multiplexer offset coefficient	1,0000multiplexer slope coefficient	1,0000fibre end	0,00T internal ref (°C)	15,60T ext. ref 1 (°C)	-0,81T ext. ref 2 (°C)	-0,83length (m)	temperature (°C)	Stokes	anti-Stokes-744,400	-146,268	0,053	0,003
-743,385	71,934	-0,041	0,031
-742,371	-152,102	0,108	-0,006
-741,356	-59,856	-0,267	0,084
-740,342	73,672	-0,041	0,032
-739,327	-144,412	-0,243	-0,016
-738,312	343,414	0,079	0,114
-737,298	-86,140	-0,207	0,047
-736,283	489,977	0,035	0,060
-735,269	-181,578	-0,328	0,005
-734,254	422,103	0,123	0,196
-733,239	-111,207	-0,435	-0,065
-732,225	6,227	0,194	-0,106
-731,210	-200,000	0,007	0,044
-730,196	-45,302	-0,079	-0,029
-729,181	-145,503	-0,084	0,005
-728,167	-6,479	0,053	-0,027
-727,152	142,012	-0,018	-0,018
-726,137	-200,000	0,017	-0,083
-725,123	-37,824	-0,152	-0,059
-724,108	-141,273	-0,275	0,020
-723,094	-200,000	0,002	-0,048
-722,079	-200,000	-0,008	-0,113
-721,064	167,018	-0,093	0,097
-720,050	99,375	0,120	-0,102
-719,035	7,495	-0,135	0,074
-718,021	0,739	0,042	0,022
-717,006	800,000	0,048	-0,141
-715,991	-200,000	0,005	-0,041
-714,977	-200,000	-0,021	-0,097
-713,962	-200,000	0,000	-0,065
-712,948	-200,000	0,005	-0,036
-711,933	800,000	-0,017	0,038
-710,918	131,576	-0,090	-0,085
-709,904	-200,000	0,018	-0,179
-708,889	19,664	0,031	-0,018
-707,875	800,000	-0,079	-0,162
-706,860	52,841	0,111	-0,078
-705,845	-52,732	-0,063	0,021
-704,831	-69,557	0,039	0,011
-703,816	-102,027	-0,066	0,012
-702,802	-37,543	-0,098	0,038
-701,787	-19,094	0,048	-0,022
-700,772	-200,000	-0,012	0,136
-699,758	800,000	-0,079	0,187
-698,743	-200,000	-0,001	-0,017
-697,729	216,239	0,046	-0,054
-696,714	-200,000	-0,031	0,145
-695,699	59,562	-0,162	-0,117
-694,685	5,151	0,037	0,020
-693,670	-77,005	-0,152	-0,039
-692,656	194,491	-0,135	-0,151
-691,641	800,000	-0,014	0,031
-690,627	-77,778	-0,010	-0,002
-689,612	177,775	-0,208	0,224
-688,597	-41,577	-0,054	-0,020
-687,583	-111,239	-0,073	-0,011
-686,568	-200,000	0,016	-0,103
-685,554	-200,000	-0,008	-0,047
-684,539	-200,000	0,027	-0,099
-683,524	2,626	-0,021	-0,011
-682,510	-110,735	0,120	0,018
-681,495	342,250	-0,090	-0,130
-680,481	-108,059	-0,050	-0,008
-679,466	-63,054	-0,129	-0,039
-678,451	-200,000	0,004	0,073
-677,437	173,465	0,053	0,056
-676,422	-200,000	0,012	0,045
-675,408	7,304	-0,099	0,054
-674,393	146,622	-0,123	0,122
-673,378	36,592	0,040	-0,026
-672,364	-200,000	-0,022	-0,099
-671,349	-200,000	0,024	-0,100
-670,335	-200,000	0,001	0,051
-669,320	-200,000	-0,003	-0,026
-668,305	800,000	0,044	-0,095
-667,291	-100,791	0,094	0,017
-666,276	-200,000	0,009	0,061
-665,262	-79,165	-0,126	0,031
-664,247	800,000	-0,037	0,098
-663,232	800,000	0,058	-0,163
-662,218	-116,562	0,104	-0,014
-661,203	126,003	0,063	0,059
-660,189	-144,955	-0,042	0,003
-659,174	-52,270	0,130	-0,044
-658,159	63,432	-0,115	-0,085
-657,145	154,847	-0,073	-0,074
-656,130	-200,000	0,066	0,241
-655,116	-51,525	-0,086	-0,029
-654,101	200,393	0,016	0,018
-653,086	-3,861	0,088	-0,045
-652,072	-80,142	-0,035	0,009
-651,057	-200,000	-0,005	-0,022
-650,043	-144,557	-0,025	0,002
-649,028	-72,824	0,009	-0,002
-648,014	138,184	-0,038	0,037
-646,999	-38,638	0,070	-0,027
-645,984	84,807	-0,073	-0,058
-644,970	-159,558	-0,069	-0,003
-643,955	-121,653	-0,176	-0,021
-642,941	-65,298	-0,106	-0,031
-641,926	252,815	-0,087	-0,109
-640,911	800,000	-0,081	0,206
-639,897	800,000	-0,014	0,041
-638,882	-89,655	-0,055	0,012
-637,868	-200,000	-0,033	-0,117
-636,853	81,796	-0,099	-0,078
-635,838	800,000	-0,017	-0,044
-634,824	65,329	-0,118	-0,088
-633,809	665,844	0,078	-0,148
-632,795	800,000	0,062	-0,145
-631,780	11,204	0,100	0,056
-630,765	1,141	-0,144	0,075
-629,751	666,860	0,013	-0,024
-628,736	81,240	-0,098	-0,078
-627,722	-200,000	0,010	0,039
-626,707	-200,000	-0,016	-0,142
-625,692	78,741	-0,094	0,073
-624,678	-197,688	0,058	0,000
-623,663	119,435	-0,095	0,086
-622,649	262,676	-0,044	-0,056
-621,634	211,057	-0,044	0,051
-620,619	-39,569	0,030	-0,011
-619,605	-84,392	-0,085	-0,019
-618,590	-166,254	0,086	0,003
-617,576	328,361	0,074	0,105
-616,561	393,185	0,036	0,056
-615,546	11,580	0,094	0,053
-614,532	-141,300	-0,120	-0,009
-613,517	-200,000	0,021	-0,106
-612,503	-200,000	-0,019	-0,061
-611,488	-200,000	-0,023	0,088
-610,474	-200,000	-0,007	-0,157
-609,459	-200,000	-0,005	0,080
-608,444	0,147	-0,129	0,068
-607,430	-200,000	-0,014	-0,142
-606,415	247,878	0,105	-0,131
-605,401	-200,000	-0,013	0,106
-604,386	-128,023	0,081	-0,008
-603,371	-43,109	0,053	0,020
-602,357	35,127	-0,127	0,082
-601,342	-11,074	-0,076	-0,037
-600,328	-200,000	0,015	0,057
-599,313	-57,098	0,105	-0,034
-598,298	101,842	-0,024	-0,021
-597,284	387,468	-0,018	0,028
-596,269	-200,000	0,013	-0,075
-595,255	800,000	0,005	0,011
-594,240	-200,000	0,020	0,156
-593,225	128,152	-0,118	-0,110
-592,211	31,995	0,065	-0,041
-591,196	116,604	0,118	-0,106
-590,182	77,710	-0,078	-0,061
-589,167	-200,000	-0,141	-0,000
-588,152	-200,000	-0,005	-0,043
-587,138	179,758	0,119	-0,128
-586,123	152,158	-0,058	-0,058
-585,109	344,126	-0,057	-0,082
-584,094	-200,000	-0,009	-0,107
-583,079	53,746	-0,103	-0,072
-582,065	-200,000	0,028	-0,183
-581,050	-200,000	-0,000	-0,064
-580,036	-53,768	0,032	0,011
-579,021	6,140	-0,102	-0,055
-578,006	-200,000	-0,043	-0,163
-576,992	111,715	0,128	0,113
-575,977	-35,003	-0,121	0,048
-574,963	-200,000	0,015	-0,075
-573,948	60,651	0,047	0,034
-572,934	-23,322	0,088	0,038
-571,919	-23,005	-0,055	-0,024
-570,904	-200,000	0,001	0,060
-569,890	-117,902	-0,079	0,010
-568,875	800,000	0,066	0,190
-567,861	-180,841	0,065	-0,001
-566,846	-200,000	0,029	0,096
-565,831	30,390	0,028	0,017
-564,817	-74,484	-0,118	-0,031
-563,802	-28,190	-0,049	-0,021
-562,788	44,284	0,101	-0,068
-561,773	644,750	-0,077	0,145
-560,758	13,689	-0,163	-0,092
-559,744	-200,000	-0,040	0,147
-558,729	99,763	-0,054	-0,046
-557,715	-200,000	-0,025	-0,089
-556,700	227,159	-0,065	0,077
-555,685	-200,000	-0,003	0,125
-554,671	-115,407	0,051	-0,007
-553,656	-70,801	0,060	-0,016
-552,642	-200,000	0,017	-0,109
-551,627	800,000	-0,011	-0,028
-550,612	87,519	-0,072	-0,058
-549,598	-116,820	0,086	-0,011
-548,583	-61,652	0,135	0,041
-547,569	350,460	0,016	0,023
-546,554	17,999	0,199	-0,116
-545,539	-106,891	-0,044	-0,007
-544,525	344,845	0,027	0,038
-543,510	-200,000	0,008	0,032
-542,496	-44,074	-0,109	0,040
-541,481	800,000	0,052	-0,137
-540,466	-200,000	-0,014	-0,126
-539,452	70,152	-0,055	0,041
-538,437	95,122	0,035	0,029
-537,423	-200,000	-0,002	0,129
-536,408	421,641	0,055	-0,086
-535,393	-200,000	-0,006	-0,124
-534,379	210,541	-0,045	0,052
-533,364	76,760	-0,031	-0,024
-532,350	368,216	0,045	0,067
-531,335	-146,674	0,103	-0,006
-530,321	-65,098	0,051	0,015
-529,306	-71,866	-0,103	0,028
-528,291	541,671	0,015	-0,026
-527,277	34,256	-0,034	-0,022
-526,262	-200,000	0,018	-0,099
-525,248	-95,186	-0,101	0,020
-524,233	800,000	-0,014	-0,034
-523,218	-130,165	0,026	-0,003
-522,204	-159,786	0,113	0,004
-521,189	-127,893	-0,148	0,015
-520,175	800,000	0,033	0,067
-519,160	26,910	0,051	0,031
-518,145	-36,800	0,012	0,005
-517,131	261,570	-0,072	-0,091
-516,116	-94,295	0,133	-0,026
-515,102	607,301	-0,013	-0,023
-514,087	-200,000	-0,030	-0,110
-513,072	-4,380	-0,059	-0,030
-512,058	-65,139	0,129	-0,038
-511,043	-148,302	-0,021	-0,001
-510,029	45,934	0,068	0,046
-509,014	69,108	0,062	0,046
-507,999	-200,000	-0,040	0,131
-506,985	327,548	0,073	0,102
-505,970	476,085	-0,055	-0,092
-504,956	-200,000	0,005	-0,036
-503,941	-200,000	0,024	-0,084
-502,926	220,267	0,100	-0,117
-501,912	-60,964	0,059	-0,018
-500,897	370,608	-0,079	-0,118
-499,883	-69,387	-0,070	0,019
-498,868	137,446	0,072	-0,069
-497,853	-200,000	-0,025	-0,093
-496,839	-93,378	0,026	0,005
-495,824	-22,548	0,137	0,060
-494,810	167,014	0,031	-0,033
-493,795	10,181	-0,028	0,015
-492,781	800,000	-0,062	-0,164
-491,766	-16,931	-0,107	-0,049
-490,751	-200,000	0,015	-0,086
-489,737	-200,000	0,039	-0,168
-488,722	145,476	0,007	0,007
-487,708	171,114	0,103	-0,108
-486,693	-200,000	-0,001	0,010
-485,678	6,047	-0,059	0,032
-484,664	90,347	0,047	-0,038
-483,649	-95,247	0,107	0,021
-482,635	-44,080	-0,080	-0,029
-481,620	393,173	0,054	0,082
-480,605	-70,470	0,055	-0,015
-479,591	497,054	-0,085	0,144
-478,576	-42,155	0,065	-0,024
-477,562	-80,445	0,122	-0,029
-476,547	-200,000	0,008	-0,035
-475,532	-200,000	-0,014	0,126
-474,518	800,000	0,029	0,083
-473,503	249,884	0,049	0,061
-472,489	-14,981	0,146	0,068
-471,474	-200,000	0,025	-0,199
-470,459	736,717	0,013	0,025
-469,445	-200,000	-0,001	0,031
-468,430	-9,667	0,070	0,034
-467,416	-145,783	0,082	0,005
-466,401	68,244	-0,130	-0,097
-465,386	-200,000	0,009	-0,070
-464,372	-200,000	-0,005	0,053
-463,357	-200,000	-0,039	0,135
-462,343	88,809	-0,082	0,066
-461,328	-29,569	-0,074	0,031
-460,313	-58,160	-0,091	0,029
-459,299	-6,648	0,133	0,066
-458,284	208,830	-0,037	-0,042
-457,270	-200,000	-0,003	0,058
-456,255	67,961	0,045	0,034
-455,241	213,420	-0,157	-0,181
-454,226	89,442	0,116	-0,095
-453,211	549,224	0,011	-0,020
-452,197	-200,000	-0,013	0,092
-451,182	-200,000	0,043	0,166
-450,168	42,380	-0,106	0,070
-449,153	668,242	0,063	0,120
-448,138	-44,038	-0,151	0,055
-447,124	30,153	-0,092	-0,057
-446,109	-160,906	0,061	0,002
-445,095	199,921	0,043	-0,048
-444,080	800,000	-0,049	0,153
-443,065	794,080	-0,034	-0,068
-442,051	-200,000	0,014	-0,057
-441,036	-101,565	-0,047	-0,008
-440,022	-200,000	-0,027	-0,128
-439,007	-200,000	0,008	0,182
-437,992	320,856	0,102	0,141
-436,978	-200,000	0,005	0,104
-435,963	231,434	0,054	-0,064
-434,949	229,825	-0,066	-0,079
-433,934	534,664	0,062	-0,108
-432,919	169,818	0,068	0,071
-431,905	92,808	0,073	0,060
-430,890	227,280	0,068	0,081
-429,876	14,943	-0,044	0,025
-428,861	800,000	0,024	0,077
-427,846	18,811	0,070	0,041
-426,832	5,296	0,080	-0,043
-425,817	-121,013	-0,094	-0,011
-424,803	-200,000	-0,035	-0,150
-423,788	336,072	0,038	-0,054
-422,773	97,983	0,101	0,084
-421,759	-200,000	-0,028	0,142
-420,744	-57,061	-0,053	0,017
-419,730	-200,000	0,038	0,224
-418,715	670,077	-0,064	-0,122
-417,701	-111,713	0,128	-0,019
-416,686	-200,000	-0,017	0,065
-415,671	64,954	0,062	0,046
-414,657	173,382	-0,009	0,009
-413,642	50,297	0,149	0,102
-412,628	-140,084	-0,071	0,005
-411,613	-54,853	-0,081	0,027
-410,598	-153,037	-0,050	-0,003
-409,584	-200,000	0,015	-0,093
-408,569	97,637	0,073	0,061
-407,555	-200,000	0,014	0,088
-406,540	800,000	-0,044	-0,095
-405,525	55,372	-0,030	-0,021
-404,511	324,793	-0,087	-0,121
-403,496	-200,000	0,008	-0,028
-402,482	227,514	-0,062	0,073
-401,467	800,000	0,029	0,066
-400,452	-200,000	-0,009	-0,079
-399,438	-59,588	-0,041	-0,013
-398,423	-94,375	0,063	-0,012
-397,409	-200,000	-0,040	-0,141
-396,394	-200,000	-0,003	0,022
-395,379	800,000	-0,030	0,069
-394,365	53,842	0,107	0,075
-393,350	-66,111	0,055	0,016
-392,336	3,234	-0,056	-0,030
-391,321	-35,315	0,017	0,007
-390,306	800,000	0,020	-0,044
-389,292	314,902	0,079	0,109
-388,277	-200,000	0,009	0,038
-387,263	-200,000	0,020	-0,073
-386,248	184,638	0,057	-0,061
-385,233	558,030	0,042	-0,074
-384,219	-84,492	-0,094	-0,021
-383,204	311,270	0,056	-0,077
-382,190	-99,762	0,011	-0,002
-381,175	-139,796	0,023	0,002
-380,160	288,616	-0,018	0,024
-379,146	-14,470	0,042	0,019
-378,131	800,000	0,020	0,041
-377,117	113,645	-0,102	0,091
-376,102	-200,000	0,001	0,035
-375,088	-14,584	-0,114	-0,053
-374,073	243,120	-0,040	0,049
-373,058	800,000	0,047	0,104
-372,044	135,770	-0,071	0,067
-371,029	295,385	-0,071	0,094
-370,015	-200,000	-0,006	0,030
-369,000	297,641	-0,101	-0,135
-367,985	-200,000	-0,046	-0,198
-366,971	27,798	-0,059	0,036
-365,956	800,000	0,018	0,042
-364,942	-137,593	0,093	0,007
-363,927	206,182	0,059	-0,067
-362,912	113,423	-0,076	-0,067
-361,898	207,770	0,009	0,010
-360,883	39,269	-0,036	0,023
-359,869	186,018	0,084	0,091
-358,854	800,000	0,041	0,087
-357,839	-66,869	0,139	0,040
-356,825	-150,102	0,058	-0,003
-355,810	800,000	-0,038	0,098
-354,796	-200,000	-0,017	0,074
-353,781	125,984	0,025	0,023
-352,766	375,859	-0,064	-0,095
-351,752	-200,000	0,014	0,062
-350,737	199,775	0,036	-0,040
-349,723	-200,000	-0,006	-0,101
-348,708	-11,444	0,020	0,010
-347,693	99,041	0,111	0,093
-346,679	-14,869	-0,207	-0,096
-345,664	-196,691	-0,058	-0,000
-344,650	-200,000	0,005	0,138
-343,635	-200,000	0,019	0,073
-342,620	-183,558	0,103	-0,001
-341,606	800,000	-0,044	-0,107
-340,591	-200,000	0,019	0,067
-339,577	-52,034	-0,113	0,038
-338,562	-95,571	0,073	-0,014
-337,548	-116,993	-0,094	0,012
-336,533	-73,018	0,018	0,005
-335,518	-83,494	-0,028	-0,006
-334,504	-22,008	0,076	0,034
-333,489	119,794	-0,056	-0,050
-332,475	29,224	0,161	-0,099
-331,460	-200,000	-0,009	-0,027
-330,445	240,972	0,080	0,097
-329,431	363,347	0,068	0,100
-328,416	212,173	0,102	0,117
-327,402	22,557	0,081	0,048
-326,387	564,187	-0,036	-0,063
-325,372	-200,000	0,007	-0,122
-324,358	-109,507	0,018	-0,003
-323,343	235,486	0,076	0,092
-322,329	42,181	0,111	0,073
-321,314	43,922	0,024	0,016
-320,299	39,020	0,079	-0,051
-319,285	128,608	-0,148	-0,137
-318,270	740,491	-0,012	-0,024
-317,256	-200,000	0,010	-0,070
-316,241	-200,000	0,010	-0,112
-315,226	-35,099	-0,091	0,036
-314,212	800,000	-0,035	-0,076
-313,197	-182,330	0,185	0,002
-312,183	-123,537	0,089	-0,010
-311,168	-4,057	-0,109	-0,055
-310,153	-73,072	0,053	-0,014
-309,139	-9,609	-0,095	0,046
-308,124	-139,932	0,073	0,006
-307,110	520,585	-0,074	0,127
-306,095	361,107	-0,039	0,057
-305,080	72,216	0,012	-0,009
-304,066	-117,224	0,025	0,003
-303,051	583,088	0,015	0,027
-302,037	129,789	-0,029	-0,027
-301,022	-200,000	0,008	-0,056
-300,008	70,064	0,082	0,061
-298,993	229,399	-0,025	0,030
-297,978	-27,620	-0,165	0,069
-296,964	41,874	-0,079	0,052
-295,949	-23,740	-0,024	-0,010
-294,935	-200,000	0,021	-0,140
-293,920	800,000	-0,041	0,118
-292,905	189,440	-0,015	-0,016
-291,891	48,167	0,074	-0,050
-290,876	-200,000	-0,033	0,156
-289,862	135,000	0,054	0,051
-288,847	73,551	0,113	0,085
-287,832	-171,586	-0,118	-0,003
-286,818	504,556	0,048	0,082
-285,803	81,150	-0,055	-0,043
-284,789	800,000	-0,010	0,021
-283,774	355,591	-0,057	-0,083
-282,759	227,472	-0,108	-0,127
-281,745	185,515	-0,083	-0,090
-280,730	155,817	-0,073	0,073
-279,716	-119,718	0,069	-0,008
-278,701	22,559	0,071	0,042
-277,686	-38,635	0,057	-0,022
-276,672	31,510	0,063	0,039
-275,657	300,465	-0,110	0,147
-274,643	97,426	0,087	0,072
-273,628	-200,000	0,004	0,062
-272,613	-120,361	0,070	-0,009
-271,599	-200,000	0,008	0,063
-270,584	-200,000	0,003	0,119
-269,570	228,070	-0,045	-0,053
-268,555	84,631	-0,083	0,066
-267,540	800,000	0,019	0,043
-266,526	800,000	-0,033	0,074
-265,511	-200,000	-0,025	-0,184
-264,497	-59,083	-0,078	-0,024
-263,482	713,950	-0,060	0,115
-262,467	43,715	0,041	0,027
-261,453	151,962	0,091	0,090
-260,438	264,350	0,081	0,102
-259,424	-200,000	-0,001	0,047
-258,409	-200,000	-0,017	0,055
-257,395	-166,095	0,137	0,004
-256,380	-53,361	0,121	0,040
-255,365	-200,000	-0,025	0,116
-254,351	-11,335	-0,114	0,054
-253,336	-200,000	-0,020	0,146
-252,322	232,115	-0,091	-0,109
-251,307	-149,929	0,089	-0,005
-250,292	-200,000	0,005	0,099
-249,278	-200,000	0,007	0,061
-248,263	203,642	0,084	-0,094
-247,249	-200,000	-0,014	-0,051
-246,234	431,054	-0,026	-0,042
-245,219	-6,714	-0,094	0,046
-244,205	0,330	-0,128	-0,066
-243,190	-200,000	-0,012	-0,096
-242,176	240,795	-0,063	-0,076
-241,161	496,984	0,037	-0,061
-240,146	-200,000	-0,031	-0,106
-239,132	594,555	-0,026	0,047
-238,117	-200,000	0,003	-0,116
-237,103	690,027	-0,121	-0,231
-236,088	176,924	0,081	-0,085
-235,073	632,805	-0,068	0,126
-234,059	321,148	-0,051	0,070
-233,044	-42,977	-0,065	-0,024
-232,030	-200,000	-0,011	0,054
-231,015	-38,728	-0,101	0,038
-230,000	-69,850	0,057	0,015
-228,986	130,049	-0,108	-0,100
-227,971	107,354	0,095	-0,082
-226,957	-19,113	0,115	0,051
-225,942	-200,000	0,011	0,058
-224,927	258,261	0,114	0,142
-223,913	192,422	-0,041	0,045
-222,898	26,168	-0,114	-0,069
-221,884	-54,268	0,021	-0,007
-220,869	211,507	-0,089	0,101
-219,855	800,000	0,024	-0,051
-218,840	800,000	0,037	0,077
-217,825	-119,465	-0,057	0,007
-216,811	-200,000	-0,037	-0,153
-215,796	800,000	0,010	-0,030
-214,782	-200,000	0,009	-0,038
-213,767	165,522	0,004	0,004
-212,752	218,875	0,141	0,163
-211,738	-19,936	-0,035	0,016
-210,723	622,828	0,062	0,114
-209,709	-150,360	-0,056	0,003
-208,694	-75,969	-0,071	-0,018
-207,679	-200,000	-0,035	0,124
-206,665	-64,387	0,067	0,020
-205,650	46,608	0,123	0,082
-204,636	588,888	-0,033	-0,059
-203,621	800,000	0,071	-0,176
-202,606	215,421	0,022	-0,025
-201,592	800,000	-0,043	-0,101
-200,577	800,000	0,031	0,087
-199,563	-188,907	-0,045	-0,000
-198,548	184,058	0,108	-0,116
-197,533	-65,242	0,184	0,053
-196,519	-125,956	0,118	-0,013
-195,504	-121,589	-0,100	0,012
-194,490	535,088	-0,029	0,050
-193,475	-75,400	-0,015	-0,004
-192,460	263,126	-0,027	-0,034
-191,446	136,060	-0,062	-0,058
-190,431	148,412	0,067	0,065
-189,417	-30,669	0,096	0,039
-188,402	73,386	0,136	0,103
-187,387	-200,000	0,033	-0,165
-186,373	426,561	-0,068	-0,106
-185,358	-84,523	-0,093	0,021
-184,344	-33,695	0,141	-0,056
-183,329	-200,000	-0,003	0,100
-182,315	130,995	0,115	0,106
-181,300	748,365	-0,019	-0,037
-180,285	-200,000	0,003	0,011
-179,271	262,378	0,041	0,051
-178,256	-137,795	-0,164	0,013
-177,242	-71,625	0,018	-0,005
-176,227	85,201	0,084	0,066
-175,212	-200,000	0,003	0,092
-174,198	-200,000	0,003	0,077
-173,183	262,459	-0,080	-0,101
-172,169	-76,011	-0,052	0,013
-171,154	800,000	-0,041	0,103
-170,139	795,197	0,028	0,057
-169,125	-200,000	-0,007	-0,063
-168,110	-200,000	0,052	-0,180
-167,096	335,938	0,054	0,076
-166,081	74,491	-0,117	-0,089
-165,066	-41,992	0,043	0,016
-164,052	800,000	0,025	-0,058
-163,037	-132,746	0,036	-0,003
-162,023	800,000	-0,040	-0,098
-161,008	-200,000	0,006	-0,057
-159,993	-23,829	0,050	0,022
-158,979	175,373	-0,064	-0,067
-157,964	689,039	-0,042	0,080
-156,950	121,487	-0,083	-0,074
-155,935	284,512	-0,087	-0,113
-154,920	-77,101	-0,144	-0,036
-153,906	-86,859	0,171	0,037
-152,891	-200,000	0,031	0,146
-151,877	187,277	0,024	-0,026
-150,862	13,386	0,071	-0,040
-149,847	327,325	-0,105	0,145
-148,833	-184,478	-0,081	-0,001
-147,818	-14,540	0,106	-0,049
-146,804	800,000	-0,031	0,075
-145,789	51,096	0,073	0,049
-144,775	-112,532	-0,090	0,013
-143,760	-70,118	-0,070	-0,019
-142,745	-200,000	-0,004	-0,126
-141,731	-125,661	0,140	-0,015
-140,716	21,545	0,032	0,019
-139,702	156,598	-0,069	0,069
-138,687	-200,000	0,023	0,080
-137,672	800,000	0,020	0,057
-136,658	421,448	0,018	-0,028
-135,643	530,968	0,051	0,087
-134,629	90,631	0,071	0,057
-133,614	-0,587	-0,049	0,025
-132,599	-13,818	-0,066	0,031
-131,585	-200,000	-0,011	0,054
-130,570	91,584	-0,090	0,073
-129,556	43,652	0,030	-0,020
-128,541	196,245	-0,082	-0,090
-127,526	-200,000	0,007	-0,048
-126,512	334,535	-0,037	0,052
-125,497	800,000	0,018	0,047
-124,483	-64,375	0,101	-0,029
-123,468	-200,000	0,002	-0,059
-122,453	99,417	0,052	0,043
-121,439	261,287	-0,038	-0,048
-120,424	-64,348	-0,143	0,042
-119,410	647,647	0,149	0,274
-118,395	-200,000	-0,005	-0,106
