DTS Sentinel unit serial number:	SN410029Multiplexer serial number:	ORYXHardware model number:	OX2-SRSoftware version number:	ORYX F/W v4,00 Oryx Data Collector v3.7.2.0data status	okinstallation	B6 Nyhavnadifferential loss correction	single-endedforward channel	channel 2reverse channel	N/Adate	2023/12/10time	07:55:08forward acquisition time	300,00reverse acquisition time	0,00gamma	499,1914k internal	0,3123k external	0,3123temperature offset calibration	1,0000default loss term (dB/km)	0,3820temperature slope calibration	1,0000multiplexer offset coefficient	1,0000multiplexer slope coefficient	1,0000fibre end	0,00T internal ref (°C)	22,57T ext. ref 1 (°C)	6,35T ext. ref 2 (°C)	6,35length (m)	temperature (°C)	Stokes	anti-Stokes-744,400	197,518	-0,051	-0,058
-743,385	-17,872	-0,240	0,112
-742,371	-126,668	0,078	-0,008
-741,356	67,493	-0,168	0,128
-740,342	42,086	0,086	-0,058
-739,327	-116,831	-0,188	0,025
-738,312	-121,367	0,156	-0,019
-737,298	-34,542	-0,309	0,126
-736,283	-200,000	0,035	-0,151
-735,269	-52,024	-0,167	0,058
-734,254	-200,000	0,009	0,037
-733,239	-112,147	-0,343	-0,051
-732,225	-53,374	0,111	0,038
-731,210	15,306	0,033	0,020
-730,196	701,336	0,029	-0,057
-729,181	-64,608	-0,049	-0,015
-728,167	-200,000	-0,003	0,032
-727,152	119,098	-0,060	-0,055
-726,137	800,000	-0,017	-0,040
-725,123	310,081	0,046	-0,064
-724,108	187,617	-0,056	-0,062
-723,094	-186,123	-0,110	0,001
-722,079	-200,000	-0,033	-0,162
-721,064	-45,175	-0,097	-0,036
-720,050	-200,000	0,006	0,280
-719,035	-200,000	-0,002	0,066
-718,021	-84,215	-0,045	0,011
-717,006	-200,000	-0,034	-0,152
-715,991	-200,000	-0,017	-0,212
-714,977	742,889	-0,061	-0,122
-713,962	-116,639	-0,184	-0,025
-712,948	-44,436	0,094	0,035
-711,933	800,000	-0,016	-0,044
-710,918	-200,000	-0,005	-0,099
-709,904	800,000	0,085	-0,184
-708,889	689,385	-0,086	-0,169
-707,875	769,948	-0,013	-0,026
-706,860	320,223	-0,063	0,089
-705,845	800,000	-0,031	0,070
-704,831	-136,114	0,138	0,012
-703,816	-200,000	-0,007	0,032
-702,802	91,578	0,065	-0,055
-701,787	-114,724	-0,095	-0,013
-700,772	-125,894	0,050	-0,006
-699,758	302,081	0,057	-0,078
-698,743	-200,000	0,022	0,092
-697,729	-115,305	0,152	0,021
-696,714	-200,000	0,030	0,140
-695,699	-200,000	-0,011	-0,060
-694,685	228,165	0,061	0,075
-693,670	76,637	0,061	0,048
-692,656	800,000	0,012	0,025
-691,641	413,156	-0,070	0,111
-690,627	-200,000	0,029	0,120
-689,612	-25,301	0,039	-0,017
-688,597	30,719	-0,088	0,056
-687,583	-200,000	-0,026	-0,135
-686,568	-32,950	0,144	-0,059
-685,554	137,222	-0,085	0,083
-684,539	580,446	0,060	-0,110
-683,524	57,972	-0,099	0,072
-682,510	98,582	-0,045	0,038
-681,495	-11,131	-0,072	-0,035
-680,481	800,000	-0,013	-0,034
-679,466	800,000	-0,052	-0,112
-678,451	236,721	-0,064	-0,079
-677,437	-200,000	0,033	0,163
-676,422	800,000	-0,026	-0,059
-675,408	-200,000	-0,009	0,060
-674,393	27,610	-0,051	-0,032
-673,378	800,000	0,022	0,058
-672,364	-78,299	0,129	-0,033
-671,349	-9,585	-0,064	-0,032
-670,335	106,351	0,038	-0,033
-669,320	329,980	-0,055	-0,078
-668,305	332,730	-0,090	0,129
-667,291	124,725	0,130	0,122
-666,276	90,302	0,051	-0,042
-665,262	-17,255	-0,250	-0,117
-664,247	-200,000	-0,006	0,079
-663,232	-29,173	-0,111	0,047
-662,218	-200,000	-0,007	0,049
-661,203	800,000	-0,011	0,024
-660,189	-200,000	0,013	-0,056
-659,174	-200,000	0,016	-0,079
-658,159	-58,231	-0,078	0,025
-657,145	12,976	-0,107	-0,061
-656,130	-102,508	-0,092	-0,016
-655,116	410,923	-0,053	0,085
-654,101	590,281	-0,027	-0,050
-653,086	67,036	0,019	-0,015
-652,072	344,855	-0,069	-0,101
-651,057	-26,853	-0,190	-0,082
-650,043	204,942	-0,061	-0,071
-649,028	337,509	0,040	-0,058
-648,014	-200,000	-0,023	-0,122
-646,999	-79,011	0,102	-0,026
-645,984	-26,329	-0,021	0,009
-644,970	-100,064	0,046	-0,008
-643,955	-86,711	-0,069	-0,016
-642,941	-13,778	0,032	0,015
-641,926	209,154	0,052	-0,060
-640,911	11,566	0,127	0,072
-639,897	-200,000	-0,012	0,152
-638,882	-200,000	-0,036	-0,141
-637,868	-200,000	-0,005	-0,086
-636,853	155,258	-0,055	-0,057
-635,838	-40,365	-0,168	0,064
-634,824	-200,000	0,001	-0,082
-633,809	18,549	0,109	-0,065
-632,795	-200,000	0,011	0,108
-631,780	50,200	0,117	0,082
-630,765	111,944	0,129	-0,116
-629,751	-101,752	-0,098	-0,018
-628,736	-94,600	-0,046	0,009
-627,722	-200,000	-0,008	-0,063
-626,707	-200,000	0,004	0,085
-625,692	368,251	0,059	-0,088
-624,678	516,833	0,041	0,071
-623,663	-46,290	-0,090	-0,033
-622,649	515,723	-0,038	-0,067
-621,634	800,000	-0,040	0,104
-620,619	52,881	-0,119	-0,084
-619,605	-200,000	-0,020	-0,080
-618,590	-200,000	-0,023	0,094
-617,576	-169,610	-0,028	0,001
-616,561	10,215	-0,053	0,030
-615,546	508,905	-0,035	-0,060
-614,532	800,000	-0,043	-0,103
-613,517	396,936	-0,073	-0,113
-612,503	-89,776	0,098	-0,021
-611,488	635,966	0,068	-0,129
-610,474	662,103	0,020	-0,038
-609,459	800,000	-0,031	-0,064
-608,444	-25,043	-0,103	-0,045
-607,430	-200,000	-0,025	0,105
-606,415	-121,794	-0,097	0,012
-605,401	-200,000	-0,003	-0,183
-604,386	-200,000	-0,012	-0,059
-603,371	-93,143	-0,102	-0,021
-602,357	-117,560	0,046	0,006
-601,342	-200,000	0,027	-0,092
-600,328	168,609	0,027	-0,029
-599,313	26,200	0,130	-0,081
-598,298	-87,268	0,079	-0,018
-597,284	115,486	0,067	0,061
-596,269	-200,000	-0,009	-0,139
-595,255	-200,000	0,010	0,079
-594,240	-77,704	0,033	0,008
-593,225	133,191	-0,086	-0,083
-592,211	-69,402	-0,085	0,024
-591,196	418,820	-0,056	0,088
-590,182	-87,943	0,104	0,023
-589,167	-36,294	-0,070	-0,028
-588,152	-174,882	0,087	-0,002
-587,138	800,000	-0,040	-0,092
-586,123	240,228	-0,043	-0,053
-585,109	-200,000	0,045	-0,198
-584,094	-41,349	-0,107	0,041
-583,079	-107,307	0,152	-0,025
-582,065	800,000	0,025	0,051
-581,050	-200,000	-0,003	0,051
-580,036	800,000	0,018	-0,055
-579,021	-200,000	0,005	-0,045
-578,006	43,677	-0,069	0,047
-576,992	73,479	-0,104	0,080
-575,977	351,278	-0,046	-0,067
-574,963	258,094	0,062	0,079
-573,948	470,372	0,024	0,040
-572,934	800,000	0,029	-0,070
-571,919	800,000	-0,041	-0,134
-570,904	29,831	-0,050	-0,032
-569,890	44,883	-0,089	-0,061
-568,875	-200,000	-0,001	0,048
-567,861	-24,000	0,102	-0,045
-566,846	-123,233	0,110	0,013
-565,831	101,914	-0,140	0,121
-564,817	-17,112	0,040	-0,019
-563,802	386,513	-0,035	-0,054
-562,788	116,960	-0,120	-0,109
-561,773	-200,000	-0,011	-0,112
-560,758	-200,000	-0,032	-0,143
-559,744	-72,728	0,085	-0,023
-558,729	-200,000	0,008	-0,063
-557,715	582,593	0,008	0,015
-556,700	-200,000	0,014	0,063
-555,685	177,695	-0,047	-0,050
-554,671	192,890	-0,083	-0,092
-553,656	49,696	-0,141	-0,098
-552,642	-200,000	-0,012	0,093
-551,627	-200,000	0,018	-0,070
-550,612	29,039	-0,050	-0,031
-549,598	66,745	0,070	0,053
-548,583	327,019	-0,104	-0,148
-547,569	392,569	-0,071	-0,110
-546,554	201,159	0,040	-0,046
-545,539	800,000	0,035	0,081
-544,525	-133,133	-0,180	-0,017
-543,510	768,734	-0,050	-0,100
-542,496	96,625	-0,076	-0,064
-541,481	-125,141	-0,118	0,013
-540,466	-200,000	-0,008	-0,122
-539,452	33,979	-0,057	-0,037
-538,437	-120,604	0,074	-0,009
-537,423	20,563	-0,018	0,011
-536,408	-48,666	-0,061	-0,022
-535,393	-100,168	0,023	-0,004
-534,379	-200,000	0,005	0,028
-533,364	-7,583	0,024	0,012
-532,350	123,977	0,090	0,084
-531,335	237,570	0,006	-0,007
-530,321	-44,409	0,067	-0,025
-529,306	800,000	0,026	0,075
-528,291	800,000	-0,062	-0,182
-527,277	-200,000	-0,016	-0,056
-526,262	-97,271	-0,065	-0,012
-525,248	-89,366	-0,067	-0,014
-524,233	-200,000	-0,013	0,104
-523,218	174,173	0,060	-0,064
-522,204	83,084	-0,063	-0,051
-521,189	-41,458	-0,056	-0,021
-520,175	800,000	0,014	0,032
-519,160	93,595	0,012	-0,010
-518,145	-108,610	0,123	-0,019
-517,131	-163,384	0,189	-0,007
-516,116	341,272	-0,003	-0,005
-515,102	286,997	-0,023	0,031
-514,087	-6,137	0,170	0,085
-513,072	68,872	-0,036	0,027
-512,058	-200,000	-0,009	-0,059
-511,043	-107,095	0,143	-0,023
-510,029	102,807	-0,084	-0,073
-509,014	-161,654	0,022	0,001
-507,999	-200,000	-0,003	0,167
-506,985	654,312	-0,057	-0,108
-505,970	-200,000	0,001	-0,216
-504,956	-121,868	-0,101	-0,012
-503,941	-23,574	0,011	-0,005
-502,926	-200,000	-0,001	0,139
-501,912	-200,000	0,052	0,186
-500,897	414,950	-0,011	0,017
-499,883	800,000	-0,029	-0,074
-498,868	101,517	0,047	0,040
-497,853	-67,260	-0,031	-0,009
-496,839	-42,115	-0,158	0,059
-495,824	312,887	0,068	0,095
-494,810	-200,000	0,004	0,123
-493,795	61,309	0,096	0,070
-492,781	-200,000	0,008	0,028
-491,766	111,223	-0,013	0,011
-490,751	-200,000	0,018	-0,148
-489,737	111,396	0,037	0,033
-488,722	125,221	-0,012	-0,011
-487,708	30,565	-0,098	0,062
-486,693	-153,931	-0,018	-0,001
-485,678	800,000	0,050	0,123
-484,664	442,991	-0,061	-0,098
-483,649	-200,000	-0,037	-0,129
-482,635	800,000	0,029	-0,090
-481,620	800,000	-0,054	0,112
-480,605	-200,000	0,005	-0,025
-479,591	281,637	0,034	-0,045
-478,576	800,000	0,065	0,188
-477,562	280,257	-0,064	-0,085
-476,547	-200,000	-0,011	-0,064
-475,532	-200,000	0,024	-0,130
-474,518	-200,000	-0,030	-0,139
-473,503	548,824	0,071	-0,127
-472,489	-85,997	0,106	0,024
-471,474	800,000	-0,011	-0,029
-470,459	85,691	-0,102	0,083
-469,445	191,224	0,095	0,105
-468,430	89,992	-0,042	-0,035
-467,416	160,692	-0,087	-0,089
-466,401	-200,000	0,035	0,177
-465,386	-200,000	-0,023	-0,122
-464,372	-69,133	-0,122	0,034
-463,357	-200,000	-0,007	0,050
-462,343	-118,715	-0,051	0,007
-461,328	-146,346	0,124	0,008
-460,313	-64,104	-0,064	0,019
-459,299	167,035	-0,049	-0,051
-458,284	-200,000	-0,008	0,055
-457,270	402,421	-0,058	0,091
-456,255	209,584	-0,053	0,062
-455,241	227,839	-0,013	0,016
-454,226	193,064	0,061	0,068
-453,211	-63,397	0,049	0,015
-452,197	149,038	0,062	0,062
-451,182	-9,859	-0,049	0,024
-450,168	175,971	-0,066	-0,071
-449,153	-200,000	0,011	0,074
-448,138	-10,764	0,042	-0,020
-447,124	-200,000	0,008	0,100
-446,109	7,556	0,095	0,052
-445,095	-108,209	-0,066	-0,010
-444,080	90,555	-0,049	0,041
-443,065	-101,140	0,137	0,024
-442,051	131,801	-0,103	0,098
-441,036	800,000	-0,017	0,038
-440,022	-56,321	-0,063	-0,020
-439,007	-15,648	-0,021	-0,010
-437,992	45,682	0,139	0,094
-436,978	-200,000	0,001	-0,013
-435,963	-200,000	0,010	0,033
-434,949	-200,000	0,004	-0,018
-433,934	800,000	0,045	-0,145
-432,919	800,000	-0,027	-0,064
-431,905	-135,952	-0,031	-0,003
-430,890	-67,324	-0,081	0,023
-429,876	75,026	0,123	0,095
-428,861	-49,384	-0,146	0,051
-427,846	-200,000	0,034	0,126
-426,832	291,903	-0,113	0,152
-425,817	-200,000	0,014	0,081
-424,803	270,467	-0,028	-0,036
-423,788	-130,119	0,058	0,006
-422,773	361,041	-0,063	0,093
-421,759	-200,000	0,023	0,149
-420,744	53,718	-0,131	0,093
-419,730	-200,000	0,001	0,039
-418,715	18,459	-0,087	0,051
-417,701	-200,000	-0,046	-0,169
-416,686	-51,177	0,084	0,029
-415,671	-89,632	0,063	-0,013
-414,657	473,557	0,035	0,059
-413,642	800,000	0,050	0,114
-412,628	-0,780	-0,111	0,058
-411,613	-200,000	-0,018	0,234
-410,598	33,234	-0,045	0,029
-409,584	-67,229	0,137	-0,039
-408,569	-53,494	-0,146	-0,049
-407,555	9,813	0,048	-0,027
-406,540	462,553	-0,025	0,041
-405,525	-0,365	-0,138	-0,072
-404,511	139,672	-0,147	-0,142
-403,496	800,000	-0,046	0,099
-402,482	-200,000	-0,042	0,139
-401,467	-200,000	0,022	0,102
-400,452	-172,414	0,072	-0,002
-399,438	110,870	0,022	-0,020
-398,423	24,774	-0,056	-0,034
-397,409	-200,000	0,026	-0,096
-396,394	141,885	-0,130	-0,126
-395,379	-156,236	0,117	-0,005
-394,365	800,000	0,068	0,157
-393,350	49,957	0,147	0,102
-392,336	-200,000	-0,006	-0,058
-391,321	800,000	-0,044	0,098
-390,306	-200,000	-0,001	0,061
-389,292	-137,190	0,075	0,006
-388,277	-155,732	-0,074	0,003
-387,263	113,487	-0,089	0,079
-386,248	38,732	0,073	-0,048
-385,233	-200,000	0,037	-0,141
-384,219	80,046	-0,081	0,064
-383,204	-200,000	0,011	0,074
-382,190	-124,291	0,168	0,019
-381,175	-200,000	-0,002	0,044
-380,160	-98,654	0,144	-0,027
-379,146	155,362	-0,039	-0,039
-378,131	800,000	0,034	0,095
-377,117	-200,000	-0,001	-0,017
-376,102	-200,000	0,020	-0,105
-375,088	-200,000	-0,018	0,093
-374,073	779,383	0,045	-0,090
-373,058	-200,000	0,029	-0,154
-372,044	-76,083	0,050	0,013
-371,029	800,000	-0,033	0,068
-370,015	544,392	0,083	0,146
-369,000	135,051	0,071	-0,068
-367,985	200,771	0,097	0,109
-366,971	800,000	-0,036	0,084
-365,956	30,997	0,133	-0,084
-364,942	77,730	0,076	0,059
-363,927	-200,000	-0,030	0,101
-362,912	569,704	-0,017	-0,030
-361,898	156,887	-0,078	-0,079
-360,883	800,000	-0,079	-0,169
-359,869	212,706	0,118	-0,137
-358,854	292,748	0,025	-0,033
-357,839	171,000	0,088	0,092
-356,825	332,713	0,019	0,027
-355,810	-200,000	-0,009	0,071
-354,796	-200,000	-0,015	0,054
-353,781	-100,747	0,049	-0,009
-352,766	268,774	0,011	-0,014
-351,752	252,962	0,055	0,069
-350,737	302,389	-0,041	0,056
-349,723	72,580	0,063	0,048
-348,708	-200,000	0,003	-0,122
-347,693	-137,867	0,054	0,004
-346,679	-100,278	0,046	0,008
-345,664	-24,402	0,114	-0,050
-344,650	450,004	0,042	0,068
-343,635	474,777	0,097	0,161
-342,620	205,455	-0,067	0,076
-341,606	-148,213	0,085	0,005
-340,591	213,078	-0,071	0,082
-339,577	114,460	-0,131	-0,117
-338,562	38,330	-0,156	-0,102
-337,548	-46,938	0,053	-0,019
-336,533	-5,257	0,035	-0,018
-335,518	236,583	-0,012	-0,014
-334,504	-200,000	0,021	0,158
-333,489	-42,504	0,018	0,007
-332,475	-51,269	0,088	0,030
-331,460	-200,000	-0,017	0,127
-330,445	233,081	0,093	0,112
-329,431	415,843	-0,091	0,143
-328,416	-93,731	0,102	0,020
-327,402	800,000	-0,054	0,121
-326,387	-66,074	0,095	-0,028
-325,372	63,040	0,041	0,030
-324,358	599,310	0,059	-0,108
-323,343	-200,000	0,010	0,172
-322,329	-200,000	0,049	0,281
-321,314	-200,000	-0,016	0,067
-320,299	-16,509	-0,065	0,030
-319,285	-200,000	-0,012	0,046
-318,270	44,042	-0,042	0,028
-317,256	-126,107	-0,091	-0,010
-316,241	4,530	-0,084	-0,045
-315,226	104,492	0,072	0,062
-314,212	362,194	0,072	0,106
-313,197	-37,255	0,078	0,031
-312,183	-90,623	-0,107	-0,023
-311,168	-96,496	0,006	-0,001
-310,153	320,693	0,014	-0,019
-309,139	222,532	-0,047	-0,056
-308,124	69,311	-0,137	-0,103
-307,110	800,000	0,015	0,040
-306,095	800,000	-0,028	0,064
-305,080	-8,489	-0,082	0,040
-304,066	-30,973	-0,105	-0,043
-303,051	-170,969	0,041	-0,001
-302,037	504,197	0,035	-0,060
-301,022	12,094	-0,120	-0,067
-300,008	-200,000	0,012	-0,073
-298,993	157,586	0,036	-0,036
-297,978	39,076	-0,070	-0,046
-296,964	147,566	0,026	-0,025
-295,949	-200,000	0,022	-0,099
-294,935	800,000	-0,040	0,100
-293,920	336,763	0,109	0,155
-292,905	79,704	-0,033	-0,026
-291,891	-200,000	0,009	0,094
-290,876	-110,180	0,049	-0,007
-289,862	-200,000	0,005	-0,096
-288,847	-200,000	0,033	-0,224
-287,832	258,109	-0,059	-0,075
-286,818	-142,219	-0,130	-0,009
-285,803	-82,288	0,103	0,024
-284,789	56,728	-0,055	0,039
-283,774	222,324	0,079	0,094
-282,759	196,456	0,087	-0,097
-281,745	36,099	0,037	-0,024
-280,730	800,000	0,026	-0,061
-279,716	800,000	-0,075	-0,210
-278,701	800,000	-0,012	0,033
-277,686	-200,000	0,013	0,050
-276,672	-160,009	0,050	-0,002
-275,657	-112,806	-0,085	0,012
-274,643	117,789	-0,151	-0,136
-273,628	800,000	0,021	-0,059
-272,613	-30,283	-0,073	0,030
-271,599	-200,000	-0,004	-0,027
-270,584	480,687	0,050	0,083
-269,570	67,447	0,081	0,060
-268,555	-200,000	-0,006	-0,046
-267,540	-98,787	-0,089	0,016
-266,526	32,865	0,045	-0,028
-265,511	157,230	-0,079	-0,080
-264,497	-50,955	-0,021	-0,007
-263,482	382,805	-0,061	0,092
-262,467	-92,500	0,085	-0,017
-261,453	180,679	-0,100	0,108
-260,438	-200,000	0,025	0,096
-259,424	-154,377	-0,118	0,006
-258,409	-200,000	0,003	0,083
-257,395	-92,592	0,045	0,009
-256,380	-9,130	0,102	0,050
-255,365	556,850	-0,041	-0,072
-254,351	-200,000	0,015	0,136
-253,336	111,364	0,037	0,032
-252,322	-200,000	-0,002	0,036
-251,307	-162,932	0,162	-0,006
-250,292	-80,532	-0,147	0,036
-249,278	800,000	-0,014	-0,036
-248,263	800,000	-0,010	0,023
-247,249	26,549	0,015	0,009
-246,234	-22,282	-0,078	0,034
-245,219	298,735	-0,053	-0,071
-244,205	85,712	0,119	-0,096
-243,190	-79,166	-0,060	0,015
-242,176	2,291	0,026	-0,014
-241,161	-200,000	0,032	-0,155
-240,146	-51,222	0,023	-0,008
-239,132	-123,446	0,060	-0,007
-238,117	44,981	0,069	0,046
-237,103	-200,000	0,015	-0,066
-236,088	131,859	-0,044	0,041
-235,073	78,976	-0,034	-0,027
-234,059	-200,000	-0,032	0,132
-233,044	-99,917	0,070	0,013
-232,030	44,285	0,078	0,052
-231,015	-200,000	0,004	-0,020
-230,000	353,113	-0,033	0,047
-228,986	-200,000	0,011	0,142
-227,971	-200,000	0,002	0,088
-226,957	457,882	0,052	-0,085
-225,942	-78,109	0,051	0,013
-224,927	-200,000	-0,017	-0,123
-223,913	187,461	0,067	0,073
-222,898	481,608	0,039	0,065
-221,884	-200,000	-0,024	-0,106
-220,869	83,096	-0,072	-0,057
-219,855	399,113	0,050	-0,076
-218,840	100,294	-0,085	-0,072
-217,825	30,595	0,068	0,042
-216,811	-23,640	-0,057	-0,025
-215,796	-162,084	0,017	0,001
-214,782	-111,158	0,077	0,011
-213,767	-200,000	0,009	-0,092
-212,752	-200,000	-0,033	0,137
-211,738	41,368	0,052	-0,034
-210,723	50,761	0,023	-0,016
-209,709	131,969	-0,043	-0,040
-208,694	-200,000	-0,006	-0,056
-207,679	24,003	0,152	-0,091
-206,665	259,434	0,068	0,086
-205,650	-200,000	-0,041	0,167
-204,636	-88,723	0,081	-0,017
-203,621	360,913	-0,032	0,047
-202,606	61,835	0,098	-0,071
-201,592	-200,000	-0,001	0,043
-200,577	68,854	-0,029	-0,022
-199,563	169,009	-0,029	-0,030
-198,548	-141,267	0,054	-0,004
-197,533	-200,000	0,014	0,142
-196,519	-110,852	0,051	0,008
-195,504	-103,610	0,109	0,019
-194,490	51,971	-0,128	0,089
-193,475	-67,845	-0,057	-0,016
-192,460	-200,000	0,020	-0,150
-191,446	800,000	0,015	-0,046
-190,431	-142,109	0,153	-0,011
-189,417	509,826	0,078	0,133
-188,402	154,452	-0,068	-0,068
-187,387	410,267	-0,035	-0,054
-186,373	-92,353	0,040	-0,008
-185,358	-200,000	0,016	0,073
-184,344	800,000	-0,048	0,152
-183,329	181,851	0,068	-0,073
-182,315	800,000	0,047	0,114
-181,300	-15,393	-0,047	0,022
-180,285	2,631	-0,115	0,061
-179,271	257,499	0,064	-0,080
-178,256	-94,467	0,023	-0,005
-177,242	-108,628	0,041	-0,006
-176,227	5,009	-0,123	-0,066
-175,212	71,699	0,024	-0,018
-174,198	-42,743	-0,211	0,078
-173,183	-200,000	0,030	-0,171
-172,169	-200,000	-0,007	-0,174
-171,154	145,115	-0,056	-0,055
-170,139	158,145	-0,072	0,072
-169,125	262,304	0,022	-0,028
-168,110	1,741	0,174	-0,091
-167,096	505,815	-0,029	-0,050
-166,081	126,588	-0,081	-0,075
-165,066	-200,000	-0,023	-0,096
-164,052	800,000	-0,013	-0,033
-163,037	-102,689	0,100	-0,017
-162,023	333,238	0,034	0,049
-161,008	122,640	0,063	0,057
-159,993	112,516	-0,019	0,016
-158,979	15,093	0,045	-0,026
-157,964	-38,557	0,103	0,040
-156,950	-200,000	-0,005	-0,099
-155,935	-200,000	0,019	0,095
-154,920	73,140	-0,108	0,082
-153,906	-59,778	0,079	-0,024
-152,891	46,083	-0,085	0,057
-151,877	800,000	0,056	0,166
-150,862	-118,147	0,096	-0,012
-149,847	257,603	-0,071	-0,089
-148,833	340,505	0,054	-0,077
-147,818	67,526	0,120	-0,089
-146,804	10,312	0,004	-0,002
-145,789	-163,617	-0,121	0,004
-144,775	-92,796	0,100	-0,020
-143,760	167,560	0,013	-0,014
-142,745	800,000	-0,022	-0,057
-141,731	-35,874	0,188	-0,074
-140,716	-200,000	0,015	-0,104
-139,702	121,898	0,172	0,156
-138,687	-113,393	0,152	0,021
-137,672	800,000	0,051	-0,123
-136,658	-200,000	0,005	0,039
-135,643	-64,088	0,046	0,014
-134,629	-200,000	0,000	0,157
-133,614	89,885	-0,061	0,049
-132,599	-109,129	-0,106	0,016
-131,585	-200,000	-0,018	0,144
-130,570	330,713	-0,080	-0,113
-129,556	-200,000	-0,009	0,071
-128,541	-71,874	0,052	0,014
-127,526	172,645	-0,079	-0,082
-126,512	800,000	-0,005	-0,013
-125,497	393,905	-0,052	0,079
-124,483	-20,270	-0,093	0,041
-123,468	-165,657	0,114	0,004
-122,453	-120,977	0,206	0,025
-121,439	202,683	0,071	0,080
-120,424	221,325	-0,014	0,016
