DTS Sentinel unit serial number:	SN410029Multiplexer serial number:	ORYXHardware model number:	OX2-SRSoftware version number:	ORYX F/W v4,00 Oryx Data Collector v3.7.2.0data status	okinstallation	B6 Nyhavnadifferential loss correction	single-endedforward channel	channel 2reverse channel	N/Adate	2023/12/07time	16:50:08forward acquisition time	300,00reverse acquisition time	0,00gamma	499,1914k internal	0,3164k external	0,3164temperature offset calibration	1,0000default loss term (dB/km)	0,3820temperature slope calibration	1,0000multiplexer offset coefficient	1,0000multiplexer slope coefficient	1,0000fibre end	0,00T internal ref (°C)	14,51T ext. ref 1 (°C)	-2,22T ext. ref 2 (°C)	-2,23length (m)	temperature (°C)	Stokes	anti-Stokes-744,400	-7,644	0,042	0,021
-743,385	1,736	-0,194	0,102
-742,371	800,000	-0,042	0,120
-741,356	-106,833	-0,250	0,040
-740,342	-200,000	-0,012	0,165
-739,327	-18,737	-0,337	0,154
-738,312	-144,025	0,119	0,008
-737,298	28,838	-0,261	0,163
-736,283	-17,989	0,149	0,068
-735,269	36,524	-0,151	0,098
-734,254	800,000	0,049	0,117
-733,239	-5,546	-0,476	-0,239
-732,225	134,995	0,157	0,150
-731,210	800,000	0,037	-0,109
-730,196	-200,000	-0,018	-0,124
-729,181	-200,000	0,008	-0,138
-728,167	-31,050	0,044	-0,018
-727,152	610,461	-0,077	-0,142
-726,137	415,834	0,046	0,072
-725,123	800,000	-0,023	-0,065
-724,108	800,000	-0,038	0,121
-723,094	800,000	-0,026	-0,065
-722,079	278,206	-0,042	-0,055
-721,064	-200,000	0,027	0,113
-720,050	-55,553	-0,137	-0,045
-719,035	48,303	0,024	-0,017
-718,021	-200,000	0,017	-0,179
-717,006	741,990	0,071	-0,140
-715,991	94,728	0,101	-0,084
-714,977	-61,483	-0,125	0,038
-713,962	407,015	-0,029	-0,045
-712,948	-114,878	-0,051	0,007
-711,933	-25,601	0,091	0,039
-710,918	-8,443	0,079	-0,039
-709,904	-74,535	-0,060	0,016
-708,889	0,617	-0,057	0,030
-707,875	50,330	-0,055	-0,038
-706,860	-200,000	-0,002	0,123
-705,845	800,000	-0,027	0,068
-704,831	276,895	0,060	0,078
-703,816	-91,785	0,046	0,010
-702,802	5,545	-0,073	0,039
-701,787	-200,000	0,017	-0,115
-700,772	159,612	0,018	-0,019
-699,758	-76,867	-0,018	0,005
-698,743	-200,000	-0,019	0,114
-697,729	-55,706	0,044	0,014
-696,714	-159,371	-0,149	-0,006
-695,699	-200,000	0,022	0,130
-694,685	376,371	-0,043	0,064
-693,670	-200,000	0,038	-0,249
-692,656	64,365	-0,028	-0,021
-691,641	-200,000	-0,044	0,186
-690,627	-200,000	0,005	0,053
-689,612	-200,000	-0,010	0,036
-688,597	-200,000	-0,007	-0,055
-687,583	-128,094	-0,248	-0,026
-686,568	399,206	0,092	-0,142
-685,554	800,000	-0,048	-0,104
-684,539	-175,542	-0,062	0,001
-683,524	-200,000	0,003	-0,055
-682,510	-54,537	0,044	-0,015
-681,495	-122,461	-0,127	-0,015
-680,481	-200,000	-0,026	0,130
-679,466	94,279	-0,072	-0,060
-678,451	184,533	-0,093	-0,101
-677,437	4,335	0,041	-0,022
-676,422	626,001	-0,035	-0,066
-675,408	161,622	0,022	0,023
-674,393	382,509	-0,073	0,110
-673,378	-200,000	-0,008	-0,064
-672,364	250,954	0,046	-0,058
-671,349	45,713	0,077	0,052
-670,335	160,265	-0,047	-0,048
-669,320	-122,908	-0,079	-0,009
-668,305	800,000	-0,019	0,045
-667,291	26,188	0,031	-0,019
-666,276	-200,000	-0,013	-0,072
-665,262	-135,067	-0,125	-0,011
-664,247	76,545	-0,034	0,027
-663,232	-12,461	0,046	0,022
-662,218	-141,480	-0,116	-0,009
-661,203	84,543	-0,082	0,066
-660,189	-200,000	-0,001	0,008
-659,174	-18,353	-0,057	0,026
-658,159	-200,000	0,004	-0,040
-657,145	-99,163	0,098	0,018
-656,130	570,638	-0,036	-0,064
-655,116	-200,000	-0,023	0,110
-654,101	800,000	-0,034	0,086
-653,086	-200,000	0,002	0,047
-652,072	645,798	0,032	0,060
-651,057	800,000	-0,046	-0,103
-650,043	-200,000	-0,025	-0,096
-649,028	-21,734	-0,105	-0,047
-648,014	156,561	0,140	-0,142
-646,999	245,523	-0,113	-0,140
-645,984	-18,602	-0,057	-0,026
-644,970	-68,036	-0,121	0,034
-643,955	3,354	-0,027	-0,015
-642,941	800,000	-0,029	-0,070
-641,926	800,000	-0,039	-0,100
-640,911	191,719	0,087	-0,097
-639,897	-93,900	-0,084	0,017
-638,882	-177,091	0,042	-0,001
-637,868	70,375	-0,100	0,076
-636,853	142,510	-0,158	-0,154
-635,838	109,326	-0,065	0,057
-634,824	10,229	-0,041	-0,023
-633,809	56,901	-0,055	-0,039
-632,795	-200,000	0,044	0,160
-631,780	-200,000	-0,032	0,167
-630,765	-73,048	0,074	-0,020
-629,751	-123,384	-0,068	-0,008
-628,736	298,664	-0,049	-0,067
-627,722	800,000	-0,014	-0,031
-626,707	427,412	0,040	0,063
-625,692	-111,658	0,149	0,022
-624,678	222,054	-0,048	0,057
-623,663	-200,000	-0,022	0,089
-622,649	209,284	-0,071	0,082
-621,634	-55,873	-0,143	-0,046
-620,619	-200,000	0,008	-0,070
-619,605	-120,157	0,040	0,005
-618,590	-33,883	0,052	0,021
-617,576	800,000	-0,015	0,037
-616,561	186,586	0,096	0,105
-615,546	113,827	-0,092	-0,082
-614,532	171,827	0,097	0,103
-613,517	-61,859	0,027	0,008
-612,503	-200,000	0,004	-0,093
-611,488	800,000	0,063	0,150
-610,474	-87,271	-0,119	-0,026
-609,459	127,810	0,051	-0,048
-608,444	-74,329	-0,094	0,025
-607,430	-200,000	-0,006	-0,039
-606,415	800,000	-0,026	-0,074
-605,401	330,949	-0,052	-0,073
-604,386	800,000	0,051	0,116
-603,371	25,624	0,200	-0,122
-602,357	800,000	0,053	0,157
-601,342	734,313	0,013	-0,026
-600,328	786,778	-0,041	-0,083
-599,313	49,993	0,060	-0,041
-598,298	-25,795	0,077	0,033
-597,284	-31,304	0,064	0,026
-596,269	-28,517	0,125	-0,052
-595,255	800,000	-0,011	0,025
-594,240	-91,149	-0,147	-0,031
-593,225	-64,212	0,068	-0,020
-592,211	-24,781	0,077	-0,033
-591,196	33,184	0,073	-0,046
-590,182	401,276	0,011	-0,017
-589,167	-200,000	0,048	0,000
-588,152	-163,288	0,079	-0,003
-587,138	368,303	0,009	0,013
-586,123	-124,379	0,067	-0,008
-585,109	-117,092	-0,081	-0,011
-584,094	-200,000	0,017	-0,088
-583,079	-146,067	0,080	0,005
-582,065	384,090	-0,040	0,061
-581,050	379,916	0,036	0,053
-580,036	286,631	0,052	-0,068
-579,021	230,564	0,040	-0,048
-578,006	60,210	0,015	0,010
-576,992	-17,460	-0,019	-0,009
-575,977	580,422	0,028	0,051
-574,963	-200,000	-0,029	0,128
-573,948	-200,000	-0,012	-0,076
-572,934	-129,605	-0,116	0,012
-571,919	-7,150	-0,071	0,035
-570,904	2,586	-0,032	0,017
-569,890	-200,000	0,008	-0,091
-568,875	-146,130	0,015	-0,001
-567,861	281,240	0,087	0,114
-566,846	-200,000	0,012	-0,104
-565,831	-200,000	-0,005	-0,020
-564,817	-137,788	-0,094	0,008
-563,802	-0,199	-0,138	-0,071
-562,788	-200,000	-0,003	0,102
-561,773	48,596	-0,052	-0,036
-560,758	-200,000	0,014	-0,058
-559,744	69,595	0,030	0,023
-558,729	-113,407	-0,073	0,010
-557,715	-23,262	0,120	-0,053
-556,700	156,787	-0,027	-0,028
-555,685	126,579	-0,072	-0,066
-554,671	71,670	-0,024	-0,018
-553,656	-39,390	0,134	0,051
-552,642	229,112	0,045	-0,053
-551,627	183,748	0,129	0,140
-550,612	-200,000	-0,003	0,011
-549,598	-200,000	-0,002	-0,068
-548,583	-7,426	-0,087	-0,043
-547,569	-73,038	0,185	0,049
-546,554	-72,890	0,018	0,005
-545,539	-200,000	-0,019	-0,166
-544,525	685,492	-0,068	0,130
-543,510	80,918	0,061	0,048
-542,496	-200,000	-0,000	-0,072
-541,481	-13,538	0,016	-0,007
-540,466	800,000	-0,059	0,136
-539,452	-200,000	-0,018	0,111
-538,437	-200,000	-0,006	-0,027
-537,423	395,894	0,061	0,093
-536,408	412,113	-0,061	-0,095
-535,393	522,556	-0,113	-0,195
-534,379	23,404	-0,188	-0,112
-533,364	-200,000	-0,008	0,056
-532,350	-175,325	0,029	0,001
-531,335	-200,000	-0,025	-0,224
-530,321	686,305	-0,031	0,059
-529,306	-200,000	0,016	0,097
-528,291	-200,000	-0,012	-0,118
-527,277	71,658	-0,054	0,041
-526,262	800,000	0,055	0,116
-525,248	-33,823	0,072	-0,029
-524,233	311,977	0,025	0,035
-523,218	-200,000	-0,006	0,063
-522,204	-40,970	0,051	0,019
-521,189	-141,930	0,062	0,004
-520,175	800,000	-0,007	-0,017
-519,160	1,195	-0,089	-0,046
-518,145	75,950	-0,123	-0,095
-517,131	-122,193	0,089	-0,010
-516,116	-200,000	0,002	0,037
-515,102	306,296	-0,062	-0,085
-514,087	-200,000	0,037	-0,129
-513,072	338,024	0,029	-0,042
-512,058	-42,990	-0,065	0,024
-511,043	6,871	0,156	-0,084
-510,029	800,000	-0,049	0,150
-509,014	338,001	-0,015	-0,021
-507,999	4,148	-0,026	0,014
-506,985	-182,585	0,116	0,002
-505,970	-163,135	-0,087	-0,003
-504,956	-200,000	0,006	-0,072
-503,941	264,414	-0,047	-0,060
-502,926	356,558	0,031	-0,045
-501,912	-200,000	0,028	-0,099
-500,897	-27,943	0,096	0,040
-499,883	-50,223	0,066	-0,023
-498,868	-200,000	-0,013	-0,051
-497,853	-155,138	0,158	-0,007
-496,839	6,149	-0,037	0,020
-495,824	-200,000	-0,007	-0,100
-494,810	188,578	-0,016	-0,017
-493,795	165,723	0,044	-0,046
-492,781	-52,049	-0,084	-0,028
-491,766	91,312	0,132	0,108
-490,751	-71,858	-0,063	0,017
-489,737	609,847	0,040	-0,073
-488,722	-103,613	-0,043	-0,007
-487,708	144,595	0,076	0,074
-486,693	278,755	0,056	-0,073
-485,678	289,173	0,030	-0,040
-484,664	368,525	-0,036	0,053
-483,649	90,000	0,135	0,110
-482,635	-200,000	0,050	-0,180
-481,620	33,381	0,079	0,050
-480,605	63,935	-0,042	-0,031
-479,591	96,557	0,071	-0,059
-478,576	800,000	-0,030	-0,095
-477,562	-200,000	0,001	0,040
-476,547	268,736	-0,087	-0,111
-475,532	196,758	-0,082	-0,091
-474,518	-28,134	-0,028	-0,012
-473,503	800,000	-0,034	0,102
-472,489	-200,000	-0,015	-0,106
-471,474	7,528	-0,021	0,011
-470,459	98,337	-0,002	0,002
-469,445	-132,879	-0,078	-0,007
-468,430	37,365	-0,026	-0,017
-467,416	-47,380	-0,094	0,033
-466,401	-106,267	-0,102	-0,016
-465,386	579,272	0,067	0,120
-464,372	-200,000	0,011	0,149
-463,357	103,972	-0,136	-0,116
-462,343	86,349	-0,031	0,025
-461,328	11,549	0,109	-0,060
-460,313	214,142	0,057	0,065
-459,299	-77,300	0,075	0,019
-458,284	748,869	-0,039	0,077
-457,270	525,219	-0,014	-0,025
-456,255	-108,289	-0,042	0,006
-455,241	87,612	-0,107	-0,086
-454,226	368,110	-0,065	-0,095
-453,211	82,126	-0,103	0,081
-452,197	-200,000	0,003	0,043
-451,182	-43,908	0,025	-0,009
-450,168	800,000	-0,042	0,107
-449,153	1,661	-0,052	-0,027
-448,138	800,000	0,014	-0,037
-447,124	-5,003	-0,046	-0,023
-446,109	-60,410	0,132	0,041
-445,095	800,000	-0,022	0,062
-444,080	745,775	-0,048	0,094
-443,065	-106,258	0,078	0,013
-442,051	112,428	0,053	-0,047
-441,036	158,557	-0,048	-0,048
-440,022	-200,000	0,029	-0,134
-439,007	-200,000	0,012	-0,071
-437,992	285,096	-0,066	0,087
-436,978	-12,243	0,155	0,074
-435,963	-25,561	0,042	0,018
-434,949	800,000	-0,035	0,090
-433,934	-105,224	-0,027	-0,004
-432,919	800,000	0,014	-0,031
-431,905	800,000	-0,032	0,065
-430,890	800,000	0,030	-0,063
-429,876	101,324	-0,052	-0,044
-428,861	694,242	-0,013	0,025
-427,846	662,298	0,069	-0,130
-426,832	62,455	-0,074	-0,054
-425,817	66,899	-0,033	0,024
-424,803	-94,349	0,174	0,034
-423,788	336,957	-0,025	-0,035
-422,773	12,731	-0,018	0,010
-421,759	210,409	0,097	0,111
-420,744	-115,377	-0,114	-0,016
-419,730	33,271	-0,061	-0,038
-418,715	88,464	-0,150	0,121
-417,701	800,000	0,031	-0,069
-416,686	388,985	-0,069	0,104
-415,671	-78,304	-0,115	0,028
-414,657	-40,019	-0,095	0,036
-413,642	-200,000	-0,003	-0,016
-412,628	-142,877	0,054	-0,004
-411,613	800,000	-0,036	-0,078
-410,598	800,000	0,017	0,046
-409,584	-7,298	0,092	0,045
-408,569	168,276	0,063	0,065
-407,555	4,638	-0,062	0,033
-406,540	800,000	-0,023	0,051
-405,525	183,803	-0,025	-0,027
-404,511	-46,377	0,108	-0,038
-403,496	-200,000	-0,024	0,125
-402,482	98,051	-0,054	-0,045
-401,467	61,089	-0,126	0,091
-400,452	-102,821	0,126	0,022
-399,438	-92,928	-0,055	0,011
-398,423	93,619	0,010	0,008
-397,409	800,000	-0,042	0,085
-396,394	740,482	0,095	0,186
-395,379	800,000	-0,052	-0,135
-394,365	-200,000	0,004	-0,165
-393,350	800,000	0,051	0,132
-392,336	-34,503	0,021	0,008
-391,321	75,450	-0,086	0,066
-390,306	-42,091	0,090	-0,033
-389,292	-200,000	0,003	0,036
-388,277	-169,287	-0,055	0,001
-387,263	-90,807	0,072	-0,015
-386,248	-37,836	0,037	0,014
-385,233	-200,000	-0,008	-0,067
-384,219	800,000	0,019	-0,047
-383,204	800,000	-0,037	-0,077
-382,190	-100,447	-0,128	-0,023
-381,175	-51,691	-0,053	0,018
-380,160	-6,991	0,104	-0,051
-379,146	-28,076	0,197	-0,082
-378,131	632,410	0,042	0,078
-377,117	-86,199	-0,034	-0,008
-376,102	481,416	0,030	-0,050
-375,088	1,303	-0,023	-0,012
-374,073	-148,396	0,133	0,008
-373,058	-27,812	0,011	0,005
-372,044	-200,000	-0,000	0,104
-371,029	800,000	-0,039	0,102
-370,015	52,450	0,041	-0,028
-369,000	552,097	-0,053	-0,093
-367,985	800,000	0,035	0,074
-366,971	27,517	0,119	-0,072
-365,956	-101,702	-0,116	-0,020
-364,942	-200,000	0,027	0,094
-363,927	-5,935	0,021	0,011
-362,912	-49,971	0,167	0,057
-361,898	800,000	-0,045	-0,135
-360,883	-200,000	0,002	-0,071
-359,869	15,651	-0,039	0,022
-358,854	44,607	0,090	0,060
-357,839	172,179	0,082	-0,086
-356,825	800,000	0,027	0,070
-355,810	30,403	-0,064	-0,039
-354,796	219,698	-0,095	0,111
-353,781	-200,000	-0,009	-0,115
-352,766	255,007	-0,068	-0,085
-351,752	-200,000	0,019	0,067
-350,737	800,000	0,047	0,097
-349,723	83,955	0,025	0,020
-348,708	337,028	-0,052	-0,073
-347,693	-200,000	-0,022	0,129
-346,679	-53,357	0,026	-0,008
-345,664	-200,000	-0,005	-0,073
-344,650	72,194	0,080	-0,061
-343,635	-135,801	-0,073	0,006
-342,620	800,000	0,015	0,033
-341,606	450,799	-0,042	0,068
-340,591	25,097	-0,114	-0,069
-339,577	-200,000	-0,019	-0,082
-338,562	-31,347	0,053	0,022
-337,548	82,212	-0,068	0,053
-336,533	463,411	0,106	0,172
-335,518	-103,588	-0,097	-0,016
-334,504	-200,000	0,010	-0,054
-333,489	260,388	-0,036	-0,045
-332,475	503,691	-0,035	-0,059
-331,460	-200,000	0,000	-0,060
-330,445	42,539	-0,149	0,098
-329,431	499,952	0,054	-0,091
-328,416	354,669	-0,104	0,150
-327,402	437,903	0,090	0,142
-326,387	-200,000	0,000	0,136
-325,372	440,054	-0,007	0,012
-324,358	101,372	-0,116	-0,098
-323,343	-200,000	0,008	-0,118
-322,329	476,150	0,081	-0,133
-321,314	11,045	0,144	0,079
-320,299	135,372	-0,044	-0,041
-319,285	-44,837	-0,106	-0,038
-318,270	-18,675	-0,111	-0,050
-317,256	653,683	0,034	0,063
-316,241	-27,669	-0,033	0,014
-315,226	-171,350	-0,051	0,001
-314,212	28,437	0,089	0,055
-313,197	111,631	-0,144	0,126
-312,183	800,000	-0,052	-0,163
-311,168	-140,260	-0,094	-0,007
-310,153	-11,461	-0,087	0,041
-309,139	221,511	-0,072	-0,084
-308,124	-200,000	-0,014	-0,065
-307,110	-200,000	-0,041	0,157
-306,095	-200,000	-0,018	0,104
-305,080	800,000	0,060	0,140
-304,066	20,630	0,059	0,034
-303,051	-28,461	-0,113	-0,047
-302,037	-200,000	-0,000	-0,045
-301,022	-71,110	0,078	-0,021
-300,008	-200,000	-0,012	-0,075
-298,993	298,781	-0,056	0,074
-297,978	-12,063	-0,038	-0,018
-296,964	800,000	-0,091	0,188
-295,949	-200,000	-0,004	-0,048
-294,935	-39,498	0,019	0,007
-293,920	202,468	-0,072	0,080
-292,905	-97,163	0,152	-0,028
-291,891	-29,458	0,045	0,019
-290,876	-53,137	-0,112	-0,037
-289,862	771,340	-0,038	0,076
-288,847	-200,000	-0,006	-0,073
-287,832	154,611	0,056	-0,055
-286,818	-200,000	0,032	-0,117
-285,803	236,532	-0,073	0,087
-284,789	-34,221	0,021	-0,008
-283,774	493,783	0,090	0,150
-282,759	-200,000	0,001	-0,034
-281,745	74,360	0,091	-0,069
-280,730	305,158	0,063	-0,085
-279,716	800,000	-0,010	0,026
-278,701	-49,488	-0,111	-0,038
-277,686	-200,000	0,022	0,078
-276,672	800,000	0,020	0,053
-275,657	800,000	-0,016	0,046
-274,643	-200,000	-0,007	-0,028
-273,628	-200,000	-0,009	-0,067
-272,613	777,251	0,044	-0,087
-271,599	382,479	0,015	0,023
-270,584	-104,533	-0,166	0,027
-269,570	74,258	0,007	0,005
-268,555	-200,000	0,021	-0,072
-267,540	115,519	0,098	-0,086
-266,526	-200,000	-0,005	-0,064
-265,511	-200,000	0,008	0,068
-264,497	-10,289	0,046	0,022
-263,482	-200,000	-0,012	-0,055
-262,467	181,834	0,012	-0,012
-261,453	-200,000	0,007	0,075
-260,438	172,710	0,090	-0,094
-259,424	-22,147	0,111	0,049
-258,409	-64,515	0,122	-0,036
-257,395	-153,458	-0,053	-0,003
-256,380	-170,014	-0,149	-0,004
-255,365	-74,779	0,101	0,026
-254,351	-15,790	0,148	-0,068
-253,336	38,907	0,081	0,052
-252,322	-200,000	-0,008	-0,038
-251,307	203,807	0,104	-0,116
-250,292	-200,000	-0,006	0,020
-249,278	-200,000	-0,009	0,047
-248,263	-73,032	0,129	0,034
-247,249	266,912	0,074	-0,093
-246,234	690,248	-0,044	-0,084
-245,219	-200,000	-0,012	-0,093
-244,205	50,835	-0,063	-0,043
-243,190	-173,656	-0,118	0,002
-242,176	82,972	0,081	0,063
-241,161	-193,669	0,109	-0,001
-240,146	-69,830	0,139	-0,038
-239,132	-200,000	0,030	-0,158
-238,117	655,046	0,040	0,075
-237,103	-200,000	-0,027	0,102
-236,088	317,530	0,060	-0,082
-235,073	-55,534	0,106	0,034
-234,059	-200,000	-0,030	0,132
-233,044	-93,674	0,026	-0,005
-232,030	309,288	0,041	-0,056
-231,015	-125,923	-0,090	-0,010
-230,000	-200,000	0,021	-0,084
-228,986	-200,000	-0,017	-0,105
-227,971	210,182	0,071	0,080
-226,957	180,044	0,046	0,048
-225,942	539,144	0,069	0,119
-224,927	-200,000	-0,010	0,094
-223,913	-123,283	0,117	-0,013
-222,898	722,423	0,054	0,103
-221,884	-200,000	0,030	0,107
-220,869	-32,687	0,111	-0,044
-219,855	-11,574	0,059	0,028
-218,840	-200,000	-0,011	0,062
-217,825	342,222	0,014	-0,020
-216,811	-28,640	-0,068	-0,028
-215,796	800,000	0,016	-0,032
-214,782	2,315	0,057	-0,029
-213,767	-90,197	0,054	0,011
-212,752	-87,918	0,023	0,005
-211,738	154,310	-0,031	0,031
-210,723	-85,913	0,129	0,029
-209,709	180,846	-0,061	-0,064
-208,694	-65,268	-0,070	0,020
-207,679	114,614	-0,088	-0,077
-206,665	150,963	-0,081	0,080
-205,650	700,813	0,060	-0,115
-204,636	-46,682	-0,072	-0,025
-203,621	681,964	0,073	0,138
-202,606	-7,582	-0,126	-0,061
-201,592	-200,000	0,002	0,059
-200,577	-77,428	0,127	-0,031
-199,563	-200,000	0,005	0,054
-198,548	-46,021	0,088	-0,031
-197,533	-123,196	0,036	0,004
-196,519	-47,719	-0,026	0,009
-195,504	-200,000	0,034	0,192
-194,490	64,081	0,101	0,073
-193,475	-200,000	0,030	-0,135
-192,460	-200,000	-0,016	0,121
-191,446	420,605	0,028	0,043
-190,431	-200,000	-0,012	0,041
-189,417	-37,312	-0,089	-0,034
-188,402	800,000	0,020	-0,051
-187,387	70,225	-0,105	0,078
-186,373	800,000	-0,050	-0,145
-185,358	-162,709	-0,098	0,003
-184,344	411,361	0,070	0,108
-183,329	83,313	-0,012	0,010
-182,315	-200,000	-0,001	0,092
-181,300	-200,000	0,025	-0,107
-180,285	196,051	-0,164	-0,180
-179,271	108,479	-0,075	-0,064
-178,256	72,570	0,074	0,056
-177,242	-200,000	-0,012	-0,062
-176,227	-200,000	0,045	0,154
-175,212	193,806	0,039	0,042
-174,198	-134,348	-0,093	0,008
-173,183	230,905	-0,121	0,143
-172,169	247,585	-0,044	0,053
-171,154	-200,000	0,038	-0,134
-170,139	800,000	0,037	0,096
-169,125	-54,758	-0,107	0,034
-168,110	-18,448	-0,091	-0,041
-167,096	315,140	-0,037	-0,051
-166,081	-200,000	-0,005	-0,075
-165,066	800,000	-0,017	-0,042
-164,052	-143,640	-0,202	-0,014
-163,037	309,963	-0,044	-0,059
-162,023	-86,646	0,053	-0,012
-161,008	-200,000	-0,039	0,123
-159,993	239,473	-0,066	0,079
-158,979	800,000	0,010	-0,023
-157,964	-200,000	0,023	0,078
-156,950	800,000	-0,059	0,157
-155,935	-200,000	0,003	0,022
-154,920	39,928	0,091	0,059
-153,906	191,537	-0,075	0,081
-152,891	-92,227	0,165	0,033
-151,877	-137,971	-0,033	-0,003
-150,862	494,659	-0,085	-0,141
-149,847	82,026	-0,065	0,051
-148,833	531,046	-0,034	0,058
-147,818	-200,000	0,008	0,144
-146,804	88,006	0,059	0,047
-145,789	-82,919	0,023	-0,005
-144,775	800,000	-0,048	0,097
-143,760	-82,122	-0,124	0,029
-142,745	369,641	-0,081	0,118
-141,731	-200,000	0,009	0,148
-140,716	12,666	-0,047	0,026
-139,702	-96,584	-0,044	0,008
-138,687	424,722	-0,010	-0,016
-137,672	-55,875	-0,054	0,017
-136,658	-47,141	-0,064	-0,022
-135,643	-16,714	-0,026	-0,012
-134,629	-99,952	0,104	-0,018
-133,614	-200,000	0,010	0,089
-132,599	77,467	0,015	0,011
-131,585	800,000	-0,003	0,008
-130,570	-200,000	0,007	0,046
-129,556	-200,000	-0,016	0,124
-128,541	415,364	-0,024	0,037
-127,526	295,701	0,072	-0,095
-126,512	28,955	-0,152	0,092
-125,497	-125,297	-0,091	-0,010
-124,483	-200,000	0,017	0,201
-123,468	-42,777	-0,038	-0,014
-122,453	50,764	-0,142	-0,096
-121,439	800,000	-0,050	-0,130
-120,424	665,659	0,082	-0,153
-119,410	-200,000	-0,001	0,033
