DTS Sentinel unit serial number:	SN410029Multiplexer serial number:	ORYXHardware model number:	OX2-SRSoftware version number:	ORYX F/W v4,00 Oryx Data Collector v3.7.2.0data status	okinstallation	B6 Nyhavnadifferential loss correction	single-endedforward channel	channel 2reverse channel	N/Adate	2023/12/10time	01:05:08forward acquisition time	300,00reverse acquisition time	0,00gamma	499,1914k internal	0,3126k external	0,3126temperature offset calibration	1,0000default loss term (dB/km)	0,3820temperature slope calibration	1,0000multiplexer offset coefficient	1,0000multiplexer slope coefficient	1,0000fibre end	0,00T internal ref (°C)	21,88T ext. ref 1 (°C)	5,70T ext. ref 2 (°C)	5,69length (m)	temperature (°C)	Stokes	anti-Stokes-744,400	800,000	-0,038	0,123
-743,385	-49,946	-0,174	0,061
-742,371	-132,368	0,172	-0,016
-741,356	79,255	-0,180	0,144
-740,342	800,000	-0,049	0,117
-739,327	-38,434	-0,160	0,063
-738,312	-200,000	-0,002	-0,035
-737,298	-135,673	-0,293	0,025
-736,283	800,000	0,039	-0,094
-735,269	112,348	-0,145	0,131
-734,254	-79,534	0,054	0,013
-733,239	-24,319	-0,313	-0,139
-732,225	-200,000	0,031	0,108
-731,210	-94,711	-0,091	-0,018
-730,196	800,000	0,018	-0,056
-729,181	-200,000	-0,003	0,011
-728,167	-107,748	0,084	-0,014
-727,152	-53,064	0,051	0,017
-726,137	250,488	-0,074	0,093
-725,123	33,514	-0,059	0,038
-724,108	-39,369	-0,089	-0,035
-723,094	800,000	0,029	-0,083
-722,079	-200,000	0,001	-0,069
-721,064	79,457	0,153	-0,122
-720,050	340,850	-0,074	-0,107
-719,035	627,275	0,041	-0,078
-718,021	82,805	0,033	-0,027
-717,006	125,480	-0,042	-0,040
-715,991	219,135	-0,084	0,100
-714,977	-78,094	-0,127	-0,032
-713,962	-110,459	-0,056	0,009
-712,948	-200,000	0,034	0,111
-711,933	47,311	-0,067	-0,046
-710,918	591,238	-0,049	-0,090
-709,904	-24,040	-0,033	-0,015
-708,889	-200,000	-0,033	-0,126
-707,875	202,883	-0,090	-0,104
-706,860	800,000	0,040	0,088
-705,845	8,504	0,086	0,048
-704,831	800,000	-0,062	0,142
-703,816	-3,636	-0,056	0,029
-702,802	55,695	0,133	-0,096
-701,787	2,946	-0,144	-0,078
-700,772	-200,000	-0,008	-0,091
-699,758	7,723	0,048	-0,027
-698,743	-21,815	0,037	0,017
-697,729	-68,544	-0,026	0,007
-696,714	155,169	0,027	0,027
-695,699	800,000	-0,041	0,112
-694,685	96,319	-0,045	0,039
-693,670	-200,000	-0,013	-0,049
-692,656	-200,000	0,022	-0,100
-691,641	-200,000	-0,023	-0,139
-690,627	-112,988	-0,088	0,013
-689,612	-7,334	-0,052	0,026
-688,597	9,991	-0,065	-0,036
-687,583	-13,660	-0,147	-0,071
-686,568	800,000	-0,044	-0,104
-685,554	-89,255	-0,082	0,018
-684,539	-140,731	0,110	-0,008
-683,524	463,825	-0,026	0,043
-682,510	-101,063	-0,053	0,010
-681,495	-200,000	-0,065	-0,228
-680,481	378,330	-0,025	-0,038
-679,466	-200,000	-0,014	-0,084
-678,451	-200,000	-0,003	0,011
-677,437	-200,000	-0,044	-0,191
-676,422	253,669	0,038	0,048
-675,408	-163,616	0,094	0,003
-674,393	-93,721	0,024	-0,005
-673,378	291,555	0,075	0,102
-672,364	-41,517	-0,088	-0,033
-671,349	800,000	-0,039	-0,092
-670,335	-72,333	-0,042	0,011
-669,320	368,954	-0,076	0,115
-668,305	-141,415	-0,042	0,003
-667,291	-200,000	-0,006	0,121
-666,276	507,130	-0,049	-0,085
-665,262	-52,331	0,098	0,033
-664,247	-200,000	0,004	-0,064
-663,232	800,000	0,011	-0,035
-662,218	100,265	0,090	-0,078
-661,203	121,164	0,044	-0,041
-660,189	-200,000	-0,017	-0,075
-659,174	-200,000	0,018	-0,122
-658,159	-144,042	-0,147	-0,010
-657,145	1,709	0,053	0,028
-656,130	-81,451	-0,133	0,032
-655,116	277,700	-0,039	-0,052
-654,101	800,000	-0,026	0,072
-653,086	-200,000	-0,017	0,155
-652,072	79,041	-0,133	0,105
-651,057	-200,000	-0,069	-0,241
-650,043	616,744	-0,035	0,065
-649,028	-105,336	-0,109	0,018
-648,014	-163,624	0,169	0,006
-646,999	-26,209	0,132	-0,057
-645,984	-98,080	-0,011	0,002
-644,970	800,000	0,025	-0,072
-643,955	254,457	-0,048	-0,061
-642,941	158,041	-0,040	0,041
-641,926	800,000	-0,018	0,056
-640,911	-200,000	-0,005	0,020
-639,897	-200,000	0,015	0,095
-638,882	-70,968	0,052	0,015
-637,868	210,509	-0,062	-0,072
-636,853	800,000	0,027	-0,075
-635,838	800,000	0,036	0,097
-634,824	24,799	0,041	-0,025
-633,809	175,179	0,056	-0,060
-632,795	375,383	-0,042	-0,063
-631,780	-200,000	-0,029	-0,111
-630,765	8,007	-0,021	-0,012
-629,751	-83,438	-0,033	-0,008
-628,736	-125,164	-0,089	0,010
-627,722	-200,000	0,017	0,081
-626,707	659,656	0,036	0,068
-625,692	-148,125	0,143	0,009
-624,678	221,561	0,073	-0,087
-623,663	42,243	-0,022	-0,015
-622,649	54,790	-0,162	-0,116
-621,634	74,521	-0,033	-0,025
-620,619	-114,013	0,014	-0,002
-619,605	-200,000	0,019	0,095
-618,590	-165,722	0,151	0,005
-617,576	-200,000	-0,016	0,073
-616,561	-200,000	-0,005	0,139
-615,546	-53,551	0,051	-0,017
-614,532	-28,538	0,098	0,042
-613,517	-90,551	0,066	0,014
-612,503	127,095	-0,042	0,039
-611,488	-200,000	-0,022	0,084
-610,474	-129,264	-0,169	-0,017
-609,459	-200,000	0,008	-0,107
-608,444	-200,000	-0,007	0,070
-607,430	-200,000	0,002	0,016
-606,415	112,821	-0,029	-0,026
-605,401	-200,000	0,014	0,093
-604,386	85,350	-0,026	-0,021
-603,371	214,822	0,045	0,053
-602,357	-80,543	0,076	-0,019
-601,342	-200,000	-0,008	0,099
-600,328	-200,000	-0,010	-0,047
-599,313	54,649	0,025	-0,018
-598,298	-200,000	-0,003	-0,230
-597,284	78,994	-0,070	0,056
-596,269	22,457	-0,138	0,084
-595,255	-122,664	0,103	-0,012
-594,240	-145,131	-0,145	0,010
-593,225	64,026	-0,101	0,075
-592,211	313,774	-0,083	-0,116
-591,196	539,229	-0,054	0,095
-590,182	111,177	-0,024	0,021
-589,167	-200,000	0,023	0,091
-588,152	-200,000	0,007	-0,058
-587,138	22,947	0,039	-0,024
-586,123	800,000	-0,028	-0,086
-585,109	-200,000	0,026	-0,156
-584,094	129,547	-0,023	-0,022
-583,079	-13,054	0,055	-0,026
-582,065	165,949	-0,013	0,014
-581,050	200,234	-0,048	0,054
-580,036	-200,000	0,014	-0,055
-579,021	76,584	-0,028	0,022
-578,006	800,000	-0,028	-0,086
-576,992	25,498	-0,088	0,054
-575,977	-200,000	-0,009	0,086
-574,963	160,239	-0,013	0,014
-573,948	-200,000	-0,010	-0,139
-572,934	800,000	-0,021	-0,053
-571,919	-22,194	-0,045	-0,020
-570,904	-17,611	-0,070	0,033
-569,890	270,917	0,091	0,119
-568,875	91,472	0,048	-0,040
-567,861	-200,000	-0,029	-0,096
-566,846	716,759	-0,035	0,069
-565,831	-200,000	0,006	0,112
-564,817	33,672	0,104	-0,067
-563,802	726,976	-0,053	-0,104
-562,788	800,000	0,006	0,012
-561,773	103,071	0,006	-0,006
-560,758	186,693	0,121	-0,133
-559,744	-66,284	0,136	-0,040
-558,729	-104,268	-0,132	-0,022
-557,715	680,386	-0,044	0,086
-556,700	101,492	-0,127	-0,109
-555,685	217,686	0,035	-0,042
-554,671	57,267	0,067	-0,048
-553,656	-50,895	0,114	0,039
-552,642	-78,939	-0,154	-0,038
-551,627	800,000	0,032	0,092
-550,612	129,992	0,045	0,042
-549,598	-56,665	-0,198	-0,064
-548,583	321,705	0,075	0,105
-547,569	-51,678	-0,178	-0,061
-546,554	107,406	0,107	0,094
-545,539	-200,000	0,005	0,072
-544,525	7,899	-0,077	0,043
-543,510	-142,472	-0,209	0,015
-542,496	-76,477	-0,093	0,024
-541,481	274,112	-0,058	-0,076
-540,466	106,416	-0,042	-0,037
-539,452	35,231	0,149	0,096
-538,437	169,705	-0,052	-0,055
-537,423	648,736	-0,018	0,034
-536,408	33,964	0,092	-0,059
-535,393	-10,496	-0,085	-0,041
-534,379	44,323	0,032	-0,022
-533,364	57,375	-0,039	0,028
-532,350	-200,000	0,029	0,156
-531,335	-45,628	-0,079	0,029
-530,321	231,166	-0,036	0,044
-529,306	-88,092	-0,081	-0,018
-528,291	-200,000	-0,009	-0,158
-527,277	-95,452	-0,152	-0,030
-526,262	-200,000	0,012	-0,067
-525,248	-200,000	0,008	-0,053
-524,233	8,988	0,087	-0,048
-523,218	-161,233	0,040	0,001
-522,204	-200,000	0,051	0,165
-521,189	-78,590	0,033	-0,008
-520,175	287,740	-0,085	-0,113
-519,160	-70,761	-0,043	-0,012
-518,145	20,229	0,171	0,101
-517,131	-200,000	-0,008	-0,049
-516,116	-114,552	0,069	0,010
-515,102	432,802	0,059	0,094
-514,087	400,482	-0,065	-0,101
-513,072	-200,000	0,020	0,100
-512,058	212,790	0,059	-0,069
-511,043	44,144	0,069	-0,047
-510,029	-200,000	0,098	0,000
-509,014	800,000	0,042	0,117
-507,999	71,746	-0,077	-0,059
-506,985	-76,245	-0,037	0,010
-505,970	335,861	-0,113	-0,163
-504,956	9,252	0,127	-0,071
-503,941	-200,000	-0,017	0,063
-502,926	-200,000	-0,006	0,037
-501,912	11,216	-0,057	0,032
-500,897	792,045	-0,015	-0,031
-499,883	406,554	0,024	-0,037
-498,868	-128,916	-0,119	0,012
-497,853	-40,378	-0,096	-0,037
-496,839	-90,215	0,112	-0,024
-495,824	541,156	0,049	0,087
-494,810	-133,118	0,060	0,005
-493,795	-111,272	0,075	-0,011
-492,781	-150,437	-0,157	0,009
-491,766	-88,269	-0,154	0,034
-490,751	-200,000	-0,031	-0,140
-489,737	-200,000	0,049	-0,219
-488,722	800,000	0,019	-0,044
-487,708	127,228	0,091	-0,085
-486,693	483,933	-0,036	-0,061
-485,678	7,005	-0,048	0,026
-484,664	-200,000	0,001	-0,071
-483,649	800,000	-0,056	0,125
-482,635	-75,267	-0,054	0,014
-481,620	355,954	-0,020	-0,030
-480,605	470,321	0,043	0,071
-479,591	209,914	0,078	0,090
-478,576	217,980	-0,087	-0,103
-477,562	-148,077	-0,095	-0,006
-476,547	9,371	-0,083	-0,046
-475,532	644,200	0,015	0,028
-474,518	139,329	0,070	0,068
-473,503	-68,501	0,032	0,009
-472,489	462,139	0,070	-0,116
-471,474	-200,000	-0,004	-0,034
-470,459	-19,720	0,018	-0,008
-469,445	-200,000	0,002	0,023
-468,430	285,004	0,078	-0,104
-467,416	122,832	0,013	0,012
-466,401	-22,811	0,025	0,011
-465,386	-54,511	-0,134	0,044
-464,372	30,802	0,080	0,051
-463,357	94,692	-0,014	-0,012
-462,343	311,666	-0,085	0,118
-461,328	623,932	0,033	-0,061
-460,313	-200,000	-0,035	-0,161
-459,299	-18,521	0,099	-0,045
-458,284	157,533	-0,036	0,037
-457,270	-200,000	0,014	0,088
-456,255	-200,000	0,018	-0,065
-455,241	614,187	-0,032	0,060
-454,226	-200,000	0,010	0,072
-453,211	79,857	0,183	0,144
-452,197	160,383	0,010	0,011
-451,182	-200,000	0,039	0,155
-450,168	-200,000	0,049	0,204
-449,153	800,000	-0,026	0,065
-448,138	23,014	-0,063	0,038
-447,124	-14,256	-0,134	-0,063
-446,109	121,226	0,056	-0,051
-445,095	-200,000	0,024	0,088
-444,080	-78,730	0,097	-0,024
-443,065	-171,024	-0,057	0,001
-442,051	-12,072	0,090	-0,043
-441,036	-200,000	0,000	-0,050
-440,022	423,211	-0,043	-0,068
-439,007	61,595	0,144	-0,105
-437,992	168,544	0,058	0,061
-436,978	-28,793	0,220	0,093
-435,963	530,464	0,051	-0,090
-434,949	556,189	-0,059	0,105
-433,934	-200,000	-0,016	0,120
-432,919	800,000	-0,012	0,030
-431,905	-49,135	-0,068	0,024
-430,890	17,711	-0,040	0,024
-429,876	366,150	0,008	0,011
-428,861	-120,917	0,101	0,012
-427,846	-83,509	-0,026	-0,006
-426,832	204,700	-0,061	-0,069
-425,817	-200,000	0,058	-0,190
-424,803	-39,248	-0,103	-0,039
-423,788	800,000	-0,015	0,034
-422,773	-105,828	-0,083	0,014
-421,759	-200,000	0,000	0,129
-420,744	103,737	0,055	0,047
-419,730	-163,962	-0,200	-0,007
-418,715	-125,399	-0,141	0,016
-417,701	-5,756	0,035	-0,018
-416,686	-64,421	-0,181	0,054
-415,671	65,250	0,089	0,066
-414,657	-199,252	0,088	-0,000
-413,642	-200,000	0,000	-0,033
-412,628	98,572	0,016	0,014
-411,613	122,966	-0,063	-0,058
-410,598	-200,000	-0,027	-0,116
-409,584	800,000	0,011	0,032
-408,569	413,150	0,017	-0,026
-407,555	-200,000	0,110	0,000
-406,540	373,549	0,032	-0,048
-405,525	5,777	0,125	0,068
-404,511	-36,157	-0,136	-0,054
-403,496	-200,000	0,010	0,142
-402,482	283,801	0,101	0,134
-401,467	516,772	-0,069	0,118
-400,452	-200,000	0,013	0,065
-399,438	-200,000	-0,018	0,114
-398,423	-82,263	-0,046	-0,011
-397,409	-18,107	-0,087	-0,040
-396,394	139,218	0,068	-0,066
-395,379	-200,000	0,031	-0,193
-394,365	189,633	-0,028	0,031
-393,350	-72,935	0,064	0,017
-392,336	-200,000	0,000	0,021
-391,321	-112,222	0,079	-0,012
-390,306	-200,000	-0,014	-0,053
-389,292	18,194	-0,108	-0,063
-388,277	-200,000	0,010	-0,057
-387,263	-68,022	0,136	-0,039
-386,248	59,711	-0,037	-0,027
-385,233	537,943	0,016	0,029
-384,219	363,988	0,081	-0,120
-383,204	-38,195	-0,140	-0,054
-382,190	20,453	-0,051	-0,030
-381,175	236,756	-0,069	0,084
-380,160	10,589	-0,029	-0,016
-379,146	-200,000	-0,006	-0,023
-378,131	800,000	-0,036	0,075
-377,117	742,123	-0,044	0,086
-376,102	196,450	-0,116	-0,129
-375,088	92,845	0,065	0,054
-374,073	95,446	-0,151	-0,126
-373,058	70,078	-0,064	0,048
-372,044	-52,784	0,118	-0,040
-371,029	-200,000	-0,007	0,105
-370,015	-65,102	-0,007	-0,002
-369,000	185,864	-0,101	0,110
-367,985	172,346	0,100	0,106
-366,971	-70,241	0,036	-0,010
-365,956	363,948	0,057	-0,085
-364,942	71,269	-0,041	-0,031
-363,927	-200,000	-0,001	0,092
-362,912	800,000	0,026	-0,059
-361,898	-200,000	-0,045	0,151
-360,883	800,000	0,048	-0,143
-359,869	-200,000	0,002	0,064
-358,854	214,282	0,043	0,050
-357,839	-46,088	0,086	-0,031
-356,825	30,254	0,104	-0,065
-355,810	-141,811	-0,077	0,006
-354,796	-200,000	0,016	-0,085
-353,781	156,712	0,046	-0,047
-352,766	451,780	0,097	-0,158
-351,752	800,000	-0,040	-0,090
-350,737	-91,540	0,032	0,007
-349,723	-200,000	-0,009	-0,038
-348,708	-200,000	-0,002	-0,100
-347,693	-200,000	0,019	0,063
-346,679	-45,849	-0,091	-0,033
-345,664	-9,700	-0,101	-0,049
-344,650	47,418	0,045	-0,031
-343,635	-22,482	0,202	-0,089
-342,620	231,907	0,033	0,039
-341,606	310,631	0,019	0,026
-340,591	-134,892	0,068	0,006
-339,577	-200,000	-0,005	0,046
-338,562	-200,000	0,005	-0,086
-337,548	-19,858	0,096	-0,043
-336,533	311,415	0,056	0,078
-335,518	-200,000	0,001	0,153
-334,504	-200,000	0,014	0,066
-333,489	-200,000	-0,008	0,113
-332,475	37,042	0,059	-0,038
-331,460	86,690	-0,052	0,042
-330,445	168,860	-0,080	0,083
-329,431	22,759	0,033	0,020
-328,416	-200,000	0,006	0,106
-327,402	246,444	0,042	0,052
-326,387	748,519	0,017	0,034
-325,372	-175,095	-0,081	0,002
-324,358	800,000	-0,043	-0,089
-323,343	-79,905	0,122	0,030
-322,329	-200,000	-0,001	0,064
-321,314	94,360	0,095	0,079
-320,299	800,000	-0,013	0,033
-319,285	-200,000	0,012	0,130
-318,270	-200,000	0,004	0,042
-317,256	-200,000	0,005	-0,037
-316,241	800,000	0,038	-0,083
-315,226	-139,887	-0,174	-0,013
-314,212	-90,446	-0,087	0,018
-313,197	15,302	0,136	-0,078
-312,183	83,169	0,009	0,007
-311,168	-200,000	-0,001	0,059
-310,153	800,000	0,052	-0,133
-309,139	-200,000	-0,014	0,054
-308,124	-200,000	-0,019	0,124
-307,110	-29,058	0,119	-0,050
-306,095	-28,206	-0,076	0,032
-305,080	428,389	-0,090	0,142
-304,066	-85,163	0,109	-0,025
-303,051	669,177	0,015	-0,028
-302,037	9,911	0,078	0,043
-301,022	-200,000	0,015	-0,100
-300,008	594,683	0,015	-0,028
-298,993	13,422	0,038	0,022
-297,978	-12,096	-0,157	0,075
-296,964	800,000	0,008	0,021
-295,949	-88,847	0,080	0,017
-294,935	-125,818	0,084	0,009
-293,920	29,873	0,145	0,090
-292,905	25,949	-0,070	-0,043
-291,891	-25,678	-0,036	0,015
-290,876	800,000	0,038	-0,107
-289,862	483,949	0,033	0,055
-288,847	436,458	-0,013	-0,021
-287,832	-200,000	-0,021	-0,172
-286,818	800,000	0,012	-0,032
-285,803	-138,815	0,240	0,019
-284,789	46,354	0,071	0,048
-283,774	108,238	0,038	-0,033
-282,759	2,767	0,037	0,019
-281,745	-80,117	-0,176	-0,043
-280,730	-200,000	-0,031	-0,122
-279,716	228,070	0,056	0,067
-278,701	-122,034	-0,094	0,011
-277,686	412,991	-0,083	0,129
-276,672	-200,000	0,013	-0,079
-275,657	-200,000	-0,012	0,099
-274,643	800,000	0,038	-0,114
-273,628	800,000	0,018	-0,050
-272,613	-200,000	0,005	-0,146
-271,599	-98,489	-0,135	0,025
-270,584	-200,000	0,024	0,090
-269,570	79,750	-0,025	0,019
-268,555	800,000	-0,028	0,068
-267,540	-77,663	-0,236	-0,059
-266,526	-56,994	-0,075	-0,024
-265,511	55,743	0,009	0,006
-264,497	576,865	0,055	-0,099
-263,482	-119,629	0,100	-0,012
-262,467	-200,000	0,003	-0,035
-261,453	-98,514	-0,133	-0,025
-260,438	614,876	-0,029	-0,053
-259,424	800,000	0,014	-0,036
-258,409	254,280	-0,091	-0,114
-257,395	-200,000	0,021	-0,071
-256,380	2,957	0,128	-0,068
-255,365	800,000	-0,046	0,138
-254,351	-200,000	0,001	0,086
-253,336	189,918	0,083	0,091
-252,322	589,237	-0,048	-0,086
-251,307	-63,644	-0,142	-0,042
-250,292	219,505	0,074	-0,087
-249,278	-23,903	-0,039	0,017
-248,263	14,401	0,041	0,023
-247,249	56,908	0,039	0,028
-246,234	-125,966	-0,080	-0,009
-245,219	396,221	-0,084	-0,129
-244,205	39,145	-0,169	-0,110
-243,190	15,856	-0,017	0,010
-242,176	-200,000	-0,015	-0,132
-241,161	-31,750	0,133	-0,054
-240,146	-200,000	0,014	-0,073
-239,132	13,597	0,064	0,036
-238,117	74,686	0,027	0,020
-237,103	-15,379	-0,111	0,052
-236,088	-5,392	-0,129	-0,065
-235,073	52,068	0,046	-0,032
-234,059	-133,132	0,130	0,012
-233,044	-65,653	0,072	0,021
-232,030	-43,198	0,085	0,031
-231,015	-3,835	0,003	-0,002
-230,000	800,000	0,037	-0,113
-228,986	7,640	0,005	-0,003
-227,971	69,770	-0,110	0,083
-226,957	26,564	0,207	0,126
-225,942	800,000	-0,002	0,006
-224,927	-200,000	0,008	0,053
-223,913	225,516	-0,063	0,074
-222,898	-39,416	-0,058	0,022
-221,884	144,567	0,158	0,154
-220,869	-68,642	0,071	-0,020
-219,855	-200,000	-0,007	0,026
-218,840	-200,000	0,002	0,103
-217,825	-200,000	-0,014	0,074
-216,811	-200,000	-0,009	-0,068
-215,796	-156,749	0,056	0,002
-214,782	800,000	0,024	-0,059
-213,767	-42,303	0,032	-0,012
-212,752	-200,000	0,025	0,141
-211,738	439,991	0,087	-0,140
-210,723	152,033	-0,075	0,075
-209,709	22,193	-0,130	-0,077
-208,694	-200,000	-0,005	-0,084
-207,679	-137,723	0,007	-0,001
-206,665	-43,563	0,171	-0,063
-205,650	570,247	0,061	0,109
-204,636	800,000	0,071	0,204
-203,621	342,325	-0,070	0,100
-202,606	653,437	-0,034	-0,064
-201,592	31,068	-0,075	-0,047
-200,577	-59,029	-0,027	0,009
-199,563	217,125	0,074	0,086
-198,548	80,238	-0,059	0,046
-197,533	-30,256	0,089	-0,037
-196,519	-200,000	-0,024	0,251
-195,504	-195,454	0,060	0,000
-194,490	169,835	-0,074	-0,077
-193,475	800,000	0,004	0,012
-192,460	543,166	-0,065	-0,113
-191,446	-57,679	0,065	-0,021
-190,431	143,601	0,103	0,100
-189,417	-144,034	-0,088	0,006
-188,402	-200,000	-0,021	-0,074
-187,387	-44,809	-0,044	0,016
-186,373	116,803	0,047	-0,042
-185,358	-122,784	-0,103	-0,012
-184,344	800,000	0,102	0,214
-183,329	284,643	0,067	0,088
-182,315	-189,918	0,084	-0,001
-181,300	-200,000	-0,032	-0,131
-180,285	314,011	0,024	-0,033
-179,271	-91,522	-0,151	-0,031
-178,256	-31,041	-0,099	0,040
-177,242	471,493	0,037	0,060
-176,227	-86,180	0,110	0,024
-175,212	800,000	-0,031	-0,068
-174,198	447,726	-0,035	0,056
-173,183	-200,000	0,014	0,089
-172,169	56,133	0,027	-0,019
-171,154	276,865	-0,065	-0,084
-170,139	800,000	-0,019	0,048
-169,125	209,952	0,055	0,062
-168,110	606,001	0,010	-0,018
-167,096	377,180	0,087	0,130
-166,081	57,624	0,112	0,079
-165,066	-88,942	-0,159	-0,034
-164,052	203,231	0,089	-0,100
-163,037	261,986	-0,033	0,042
-162,023	-200,000	0,008	0,128
-161,008	752,175	-0,083	0,164
-159,993	-200,000	0,038	-0,190
-158,979	-200,000	-0,023	-0,167
-157,964	371,948	-0,059	-0,088
-156,950	-42,754	-0,038	-0,014
-155,935	-71,912	0,033	0,009
-154,920	-200,000	-0,046	-0,151
-153,906	-200,000	-0,008	-0,182
-152,891	447,835	-0,074	0,119
-151,877	-15,382	0,129	-0,060
-150,862	-200,000	0,020	-0,149
-149,847	-66,419	-0,130	0,037
-148,833	-56,465	0,211	-0,068
-147,818	664,824	-0,026	-0,050
-146,804	800,000	0,034	0,083
-145,789	-200,000	0,013	-0,049
-144,775	-61,956	0,048	0,014
-143,760	800,000	-0,045	-0,113
-142,745	69,193	-0,072	0,054
-141,731	-18,178	0,129	0,059
-140,716	800,000	0,019	0,042
-139,702	-170,138	0,063	0,002
-138,687	-200,000	0,001	0,086
-137,672	-35,817	0,038	0,015
-136,658	256,076	0,063	-0,079
-135,643	52,872	-0,038	0,027
-134,629	-200,000	0,022	-0,071
-133,614	798,357	0,033	0,066
-132,599	800,000	-0,018	0,055
-131,585	-200,000	-0,040	0,165
-130,570	58,662	-0,146	0,104
-129,556	-200,000	-0,003	0,024
-128,541	-200,000	-0,005	-0,051
-127,526	-200,000	0,018	0,130
-126,512	800,000	-0,017	0,055
-125,497	-89,631	0,036	0,008
-124,483	-16,683	-0,074	0,034
-123,468	74,920	0,034	0,026
-122,453	123,790	0,009	-0,008
-121,439	800,000	-0,038	0,110
-120,424	575,086	0,020	0,036
-119,410	625,147	0,055	0,102
-118,395	81,057	0,101	0,079
