DTS Sentinel unit serial number:	SN410029Multiplexer serial number:	ORYXHardware model number:	OX2-SRSoftware version number:	ORYX F/W v4,00 Oryx Data Collector v3.7.2.0data status	okinstallation	B6 Nyhavnadifferential loss correction	single-endedforward channel	channel 2reverse channel	N/Adate	2023/12/11time	00:45:08forward acquisition time	300,00reverse acquisition time	0,00gamma	499,1914k internal	0,3122k external	0,3122temperature offset calibration	1,0000default loss term (dB/km)	0,3820temperature slope calibration	1,0000multiplexer offset coefficient	1,0000multiplexer slope coefficient	1,0000fibre end	0,00T internal ref (°C)	22,28T ext. ref 1 (°C)	5,70T ext. ref 2 (°C)	5,73length (m)	temperature (°C)	Stokes	anti-Stokes-744,400	-200,000	-0,004	-0,106
-743,385	9,324	-0,209	-0,118
-742,371	-80,365	0,055	-0,014
-741,356	14,115	-0,230	0,133
-740,342	-37,484	0,091	0,036
-739,327	67,693	-0,206	0,157
-738,312	-77,039	-0,085	0,022
-737,298	-147,076	-0,263	-0,016
-736,283	63,477	0,098	-0,073
-735,269	745,217	-0,049	0,100
-734,254	800,000	0,073	-0,172
-733,239	-55,782	-0,433	-0,143
-732,225	-51,030	0,218	-0,076
-731,210	61,802	0,025	0,019
-730,196	314,422	-0,074	0,104
-729,181	167,036	0,056	0,059
-728,167	75,436	-0,080	-0,063
-727,152	-102,880	0,149	-0,026
-726,137	-154,248	-0,022	0,001
-725,123	168,564	-0,069	0,074
-724,108	-177,977	-0,201	0,003
-723,094	-200,000	-0,003	0,010
-722,079	-27,973	-0,040	0,017
-721,064	114,770	-0,108	0,098
-720,050	800,000	-0,013	-0,034
-719,035	-200,000	0,012	-0,064
-718,021	-102,966	0,147	-0,026
-717,006	-91,908	-0,004	-0,001
-715,991	-63,145	-0,022	0,007
-714,977	800,000	-0,045	-0,139
-713,962	-75,683	-0,227	-0,059
-712,948	800,000	-0,068	-0,167
-711,933	-48,022	0,036	-0,013
-710,918	-72,071	-0,122	0,033
-709,904	505,336	-0,018	-0,030
-708,889	-61,637	0,053	-0,016
-707,875	115,320	-0,123	-0,112
-706,860	800,000	0,029	-0,085
-705,845	-16,155	-0,061	-0,029
-704,831	188,717	-0,097	0,109
-703,816	170,292	-0,023	0,024
-702,802	283,102	-0,081	0,109
-701,787	447,881	-0,078	-0,129
-700,772	-152,233	-0,073	-0,004
-699,758	383,781	0,046	-0,071
-698,743	-74,809	-0,078	0,021
-697,729	-104,191	0,140	-0,024
-696,714	-200,000	-0,006	0,030
-695,699	178,707	-0,194	-0,211
-694,685	-200,000	0,012	0,047
-693,670	-200,000	-0,013	-0,185
-692,656	215,387	-0,036	0,042
-691,641	454,231	0,078	-0,129
-690,627	-200,000	-0,180	-0,001
-689,612	47,480	0,040	-0,028
-688,597	-60,753	-0,031	0,010
-687,583	304,112	-0,045	-0,062
-686,568	-69,452	-0,062	-0,018
-685,554	-63,582	0,063	-0,019
-684,539	800,000	-0,063	0,173
-683,524	144,723	0,054	0,053
-682,510	-200,000	0,014	0,059
-681,495	-142,511	-0,054	-0,004
-680,481	-7,106	-0,100	-0,050
-679,466	-200,000	0,025	-0,155
-678,451	-200,000	-0,012	-0,122
-677,437	535,124	-0,026	0,046
-676,422	-18,419	0,038	-0,018
-675,408	107,530	-0,056	0,050
-674,393	-200,000	0,002	-0,037
-673,378	-94,339	-0,066	0,013
-672,364	-91,445	-0,080	-0,017
-671,349	-104,249	0,126	0,022
-670,335	-200,000	0,020	0,135
-669,320	42,997	0,101	-0,068
-668,305	-100,555	0,037	0,007
-667,291	-38,227	0,076	-0,030
-666,276	165,331	-0,049	0,051
-665,262	53,379	-0,147	-0,104
-664,247	541,812	0,001	-0,001
-663,232	-200,000	0,001	0,086
-662,218	246,659	-0,062	0,077
-661,203	-60,516	-0,100	0,031
-660,189	-200,000	0,020	0,116
-659,174	70,366	-0,054	-0,041
-658,159	-99,218	-0,061	-0,011
-657,145	-45,358	0,048	0,018
-656,130	-173,586	0,068	-0,001
-655,116	-29,625	-0,051	-0,021
-654,101	800,000	-0,022	-0,073
-653,086	800,000	0,050	0,136
-652,072	800,000	-0,018	-0,050
-651,057	171,091	-0,084	-0,089
-650,043	0,828	0,081	0,043
-649,028	509,976	0,046	0,080
-648,014	64,193	0,086	0,065
-646,999	0,189	-0,145	0,076
-645,984	-31,870	0,162	-0,067
-644,970	115,813	-0,069	-0,063
-643,955	113,993	-0,045	0,041
-642,941	800,000	0,030	0,095
-641,926	109,355	-0,068	-0,061
-640,911	12,850	-0,032	0,018
-639,897	93,574	0,070	0,059
-638,882	61,107	-0,051	0,037
-637,868	325,808	0,063	-0,090
-636,853	-58,615	0,047	-0,015
-635,838	-200,000	0,023	-0,111
-634,824	5,948	-0,068	-0,037
-633,809	800,000	-0,040	0,126
-632,795	11,049	-0,023	-0,013
-631,780	254,754	0,053	0,068
-630,765	-107,221	-0,070	0,011
-629,751	147,251	-0,102	-0,102
-628,736	525,469	-0,070	-0,122
-627,722	-8,299	-0,035	-0,018
-626,707	800,000	0,044	0,096
-625,692	443,283	0,059	0,096
-624,678	-200,000	-0,010	-0,060
-623,663	21,313	-0,040	-0,024
-622,649	0,529	0,052	-0,027
-621,634	-200,000	-0,097	0,000
-620,619	-200,000	0,005	0,040
-619,605	4,804	-0,093	-0,051
-618,590	194,506	-0,023	-0,026
-617,576	29,104	-0,081	0,051
-616,561	-200,000	0,014	0,092
-615,546	165,256	-0,132	0,139
-614,532	-200,000	0,011	-0,067
-613,517	-200,000	0,015	-0,112
-612,503	619,140	-0,027	-0,051
-611,488	222,107	0,012	-0,014
-610,474	8,680	0,020	0,011
-609,459	-39,901	-0,172	-0,066
-608,444	24,223	0,047	0,029
-607,430	-73,733	0,117	-0,031
-606,415	-139,032	0,128	-0,010
-605,401	392,375	-0,117	0,182
-604,386	154,310	0,040	-0,041
-603,371	143,713	-0,064	0,063
-602,357	66,471	0,086	-0,065
-601,342	-200,000	0,007	-0,039
-600,328	526,522	0,071	-0,125
-599,313	102,139	-0,097	-0,084
-598,298	219,954	0,038	-0,045
-597,284	315,426	0,036	0,051
-596,269	800,000	-0,020	0,061
-595,255	-126,644	-0,141	-0,015
-594,240	194,796	-0,045	0,051
-593,225	-200,000	-0,031	-0,138
-592,211	145,041	-0,114	-0,113
-591,196	800,000	-0,025	-0,057
-590,182	-156,570	0,137	0,006
-589,167	-131,546	0,185	0,018
-588,152	-101,979	-0,071	-0,013
-587,138	611,839	-0,029	0,053
-586,123	-194,469	-0,098	0,001
-585,109	-200,000	0,006	-0,028
-584,094	-200,000	0,007	0,100
-583,079	-200,000	0,005	0,036
-582,065	-200,000	0,018	-0,062
-581,050	34,890	0,031	-0,020
-580,036	-200,000	0,014	-0,103
-579,021	194,463	-0,058	0,065
-578,006	-45,601	-0,163	0,060
-576,992	-200,000	-0,004	-0,084
-575,977	-200,000	0,021	-0,132
-574,963	147,005	-0,060	0,060
-573,948	-27,907	-0,087	0,037
-572,934	58,807	0,079	-0,057
-571,919	-94,958	0,010	0,002
-570,904	-97,169	-0,123	-0,024
-569,890	800,000	-0,089	-0,244
-568,875	457,036	-0,035	-0,058
-567,861	282,039	0,036	0,048
-566,846	82,527	-0,046	0,037
-565,831	-183,088	-0,124	-0,002
-564,817	241,262	0,074	-0,091
-563,802	-139,943	-0,094	-0,007
-562,788	-31,094	0,020	0,008
-561,773	-27,779	-0,015	-0,006
-560,758	187,125	0,094	0,104
-559,744	-77,921	0,141	0,036
-558,729	-158,115	0,089	0,004
-557,715	-7,847	-0,097	0,048
-556,700	2,989	-0,102	-0,055
-555,685	800,000	-0,021	-0,063
-554,671	-3,773	-0,082	0,042
-553,656	-200,000	0,008	-0,080
-552,642	-200,000	0,001	-0,044
-551,627	800,000	0,021	-0,056
-550,612	-73,083	-0,073	-0,020
-549,598	68,013	-0,116	-0,088
-548,583	212,204	-0,055	0,065
-547,569	-44,520	0,026	-0,010
-546,554	795,406	0,029	-0,059
-545,539	485,762	-0,029	0,050
-544,525	199,017	0,124	0,141
-543,510	268,374	-0,089	-0,115
-542,496	297,436	-0,110	-0,150
-541,481	-141,984	0,119	-0,009
-540,466	250,849	-0,033	0,042
-539,452	-200,000	0,002	-0,082
-538,437	-66,469	-0,064	-0,019
-537,423	-99,414	-0,040	-0,007
-536,408	443,846	-0,090	-0,146
-535,393	54,778	-0,104	0,074
-534,379	-110,737	0,067	0,010
-533,364	-45,150	-0,081	-0,030
-532,350	617,718	-0,017	0,032
-531,335	279,540	0,054	-0,072
-530,321	-200,000	-0,005	0,157
-529,306	91,657	-0,024	-0,020
-528,291	240,286	0,063	0,077
-527,277	-25,747	-0,084	-0,036
-526,262	800,000	-0,036	-0,097
-525,248	150,045	-0,034	0,034
-524,233	-70,592	-0,054	0,015
-523,218	120,786	-0,047	-0,043
-522,204	41,350	-0,059	-0,039
-521,189	33,607	-0,078	-0,050
-520,175	507,100	-0,045	-0,077
-519,160	82,231	0,109	-0,087
-518,145	-200,000	0,037	-0,147
-517,131	800,000	0,038	0,081
-516,116	-200,000	0,020	0,074
-515,102	-74,093	-0,017	-0,005
-514,087	800,000	-0,062	-0,200
-513,072	36,728	0,111	-0,072
-512,058	-43,892	-0,051	0,019
-511,043	-27,134	0,086	-0,037
-510,029	223,065	-0,065	-0,078
-509,014	-200,000	-0,016	-0,077
-507,999	-200,000	0,005	0,075
-506,985	800,000	0,012	-0,028
-505,970	-200,000	-0,004	-0,058
-504,956	201,662	0,103	-0,117
-503,941	800,000	-0,016	0,032
-502,926	800,000	-0,055	0,113
-501,912	-15,354	0,085	-0,040
-500,897	-31,655	-0,112	0,046
-499,883	-200,000	-0,020	0,065
-498,868	-74,200	-0,132	0,035
-497,853	-113,661	0,065	0,009
-496,839	-111,301	0,041	0,006
-495,824	98,742	-0,045	-0,039
-494,810	-92,224	0,132	-0,027
-493,795	-155,334	0,107	-0,005
-492,781	-91,126	0,141	0,030
-491,766	50,966	-0,110	0,077
-490,751	-90,548	0,128	-0,027
-489,737	70,343	-0,040	-0,031
-488,722	-200,000	0,022	0,096
-487,708	84,615	0,046	0,037
-486,693	-200,000	-0,010	0,104
-485,678	-174,923	0,073	-0,001
-484,664	239,682	0,060	-0,073
-483,649	-11,679	-0,030	0,014
-482,635	-64,165	-0,078	0,023
-481,620	550,497	-0,092	-0,163
-480,605	80,933	0,118	0,094
-479,591	342,998	-0,031	0,045
-478,576	-200,000	0,001	-0,068
-477,562	-137,281	0,067	0,006
-476,547	280,517	-0,050	0,066
-475,532	-200,000	-0,002	0,063
-474,518	329,323	0,032	-0,046
-473,503	-200,000	-0,005	0,083
-472,489	800,000	0,089	0,203
-471,474	-200,000	-0,002	0,113
-470,459	800,000	-0,045	0,109
-469,445	50,791	-0,028	0,019
-468,430	306,444	-0,047	0,064
-467,416	-60,006	-0,033	-0,010
-466,401	-200,000	0,007	-0,072
-465,386	736,704	-0,021	0,043
-464,372	-17,362	-0,102	-0,047
-463,357	46,646	-0,077	-0,053
-462,343	-109,451	0,040	-0,006
-461,328	115,956	0,071	-0,064
-460,313	-200,000	-0,038	-0,177
-459,299	790,594	-0,066	0,135
-458,284	-41,160	0,106	0,040
-457,270	-138,609	0,098	0,008
-456,255	86,321	0,064	-0,052
-455,241	-200,000	0,006	-0,114
-454,226	800,000	-0,006	0,018
-453,211	89,640	0,115	0,094
-452,197	271,583	-0,020	0,027
-451,182	-120,916	0,062	-0,008
-450,168	-200,000	0,022	-0,104
-449,153	-4,815	-0,054	0,028
-448,138	11,634	0,091	-0,051
-447,124	676,551	0,052	-0,099
-446,109	-32,159	-0,075	0,031
-445,095	398,573	0,031	0,048
-444,080	800,000	0,064	0,169
-443,065	517,319	0,057	0,098
-442,051	-148,682	-0,083	0,005
-441,036	-130,918	-0,118	-0,012
-440,022	-15,193	-0,091	0,043
-439,007	-200,000	-0,000	0,017
-437,992	41,325	0,169	0,113
-436,978	-86,376	0,016	0,004
-435,963	-147,059	-0,047	-0,003
-434,949	-133,527	-0,058	-0,005
-433,934	430,072	-0,087	-0,139
-432,919	-95,444	-0,028	-0,006
-431,905	-200,000	-0,006	-0,082
-430,890	148,762	0,095	-0,094
-429,876	-77,357	-0,059	0,015
-428,861	-133,074	0,094	0,009
-427,846	-94,202	0,131	-0,026
-426,832	176,817	-0,067	-0,072
-425,817	-200,000	-0,021	-0,088
-424,803	234,334	0,013	-0,016
-423,788	-200,000	0,018	0,088
-422,773	-61,739	0,097	-0,030
-421,759	74,938	-0,036	0,028
-420,744	-200,000	-0,015	0,088
-419,730	29,982	-0,034	-0,021
-418,715	-164,534	-0,088	-0,003
-417,701	-46,700	-0,109	0,039
-416,686	298,109	-0,083	0,113
-415,671	-160,935	0,056	-0,002
-414,657	-82,722	-0,098	0,023
-413,642	-200,000	0,007	-0,074
-412,628	-107,918	-0,226	-0,036
-411,613	-106,979	0,089	-0,014
-410,598	800,000	-0,028	-0,064
-409,584	-128,527	-0,102	0,010
-408,569	61,751	0,039	0,029
-407,555	8,933	0,201	-0,111
-406,540	635,585	-0,049	-0,092
-405,525	371,766	-0,063	0,094
-404,511	-59,286	-0,127	0,040
-403,496	-65,512	0,025	-0,007
-402,482	130,080	0,043	-0,041
-401,467	-107,773	-0,065	-0,010
-400,452	77,714	0,055	-0,043
-399,438	-200,000	-0,011	0,216
-398,423	-3,901	-0,078	-0,039
-397,409	85,235	0,127	-0,102
-396,394	-200,000	-0,021	-0,110
-395,379	-200,000	0,007	-0,096
-394,365	-200,000	0,011	0,048
-393,350	183,865	0,059	-0,064
-392,336	-200,000	-0,012	0,052
-391,321	67,870	0,010	-0,007
-390,306	-200,000	-0,010	-0,052
-389,292	-83,135	-0,062	-0,015
-388,277	6,545	0,146	0,079
-387,263	800,000	-0,002	0,006
-386,248	-200,000	0,017	-0,064
-385,233	124,562	0,088	-0,082
-384,219	-200,000	0,020	-0,084
-383,204	800,000	-0,009	0,022
-382,190	93,123	-0,010	-0,008
-381,175	800,000	-0,020	-0,063
-380,160	173,546	0,059	-0,063
-379,146	800,000	-0,013	-0,028
-378,131	-200,000	-0,001	-0,030
-377,117	-8,506	0,023	0,011
-376,102	39,236	-0,059	-0,039
-375,088	800,000	-0,019	-0,048
-374,073	-90,509	0,099	0,021
-373,058	184,426	0,052	0,057
-372,044	-200,000	0,012	-0,120
-371,029	686,213	0,067	0,129
-370,015	-79,663	0,027	-0,007
-369,000	263,504	-0,060	0,077
-367,985	218,226	-0,017	0,021
-366,971	627,269	0,053	-0,099
-365,956	68,962	0,066	-0,049
-364,942	709,457	0,025	-0,048
-363,927	-74,745	0,159	-0,042
-362,912	800,000	0,030	-0,066
-361,898	272,472	-0,042	0,055
-360,883	-200,000	0,019	-0,100
-359,869	270,648	0,023	-0,029
-358,854	-61,338	0,166	0,051
-357,839	800,000	0,013	-0,029
-356,825	344,180	-0,065	-0,094
-355,810	-139,702	-0,069	0,005
-354,796	-200,000	0,008	-0,071
-353,781	-200,000	0,014	0,163
-352,766	-200,000	-0,012	-0,098
-351,752	-200,000	0,008	0,053
-350,737	-112,481	0,048	0,007
-349,723	246,636	0,054	-0,067
-348,708	-200,000	-0,032	-0,106
-347,693	-200,000	0,012	-0,068
-346,679	-200,000	0,012	-0,056
-345,664	-200,000	-0,012	-0,063
-344,650	800,000	0,057	0,178
-343,635	131,085	0,122	0,115
-342,620	-131,490	-0,058	0,006
-341,606	-174,787	-0,017	0,000
-340,591	-200,000	0,023	0,087
-339,577	-200,000	0,008	-0,113
-338,562	-81,593	-0,111	0,027
-337,548	273,975	0,043	0,056
-336,533	97,477	-0,054	-0,045
-335,518	-40,147	0,231	0,088
-334,504	-21,049	-0,160	-0,072
-333,489	-200,000	0,028	-0,098
-332,475	-198,821	0,062	0,000
-331,460	424,443	-0,042	0,067
-330,445	-200,000	-0,025	0,091
-329,431	168,714	0,049	0,051
-328,416	15,028	0,135	-0,077
-327,402	800,000	0,003	0,007
-326,387	54,039	0,045	0,032
-325,372	330,552	-0,041	-0,058
-324,358	94,904	-0,082	0,068
-323,343	-4,960	-0,069	-0,035
-322,329	64,352	-0,115	-0,085
-321,314	-171,355	0,060	0,001
-320,299	-18,121	0,162	0,074
-319,285	-19,357	0,052	0,024
-318,270	800,000	-0,044	0,109
-317,256	-54,483	-0,118	0,039
-316,241	171,670	-0,081	-0,085
-315,226	-95,969	0,074	-0,014
-314,212	383,119	0,074	0,111
-313,197	335,111	0,043	-0,061
-312,183	72,011	-0,076	0,058
-311,168	532,378	0,038	0,065
-310,153	353,699	-0,051	0,074
-309,139	-99,123	0,109	-0,020
-308,124	174,923	0,049	0,052
-307,110	-106,485	0,158	-0,026
-306,095	-107,525	-0,046	0,007
-305,080	176,046	-0,066	-0,070
-304,066	-200,000	0,022	0,072
-303,051	-200,000	0,018	-0,069
-302,037	800,000	0,046	-0,101
-301,022	647,943	0,036	0,067
-300,008	481,492	0,070	0,118
-298,993	-200,000	-0,013	0,158
-297,978	104,523	-0,038	0,033
-296,964	216,174	-0,030	-0,035
-295,949	36,629	0,159	-0,103
-294,935	9,127	-0,020	-0,011
-293,920	-6,789	0,131	0,065
-292,905	800,000	-0,046	-0,102
-291,891	-200,000	-0,017	-0,069
-290,876	800,000	-0,008	-0,024
-289,862	800,000	-0,069	0,154
-288,847	-200,000	0,001	-0,082
-287,832	800,000	-0,027	0,077
-286,818	800,000	0,050	-0,115
-285,803	-200,000	0,006	0,067
-284,789	194,137	0,072	-0,080
-283,774	-200,000	-0,025	0,118
-282,759	-200,000	0,001	-0,131
-281,745	37,993	-0,110	-0,071
-280,730	676,473	0,005	0,009
-279,716	155,369	-0,008	-0,008
-278,701	242,037	-0,082	0,100
-277,686	644,472	0,045	0,084
-276,672	-119,640	0,099	-0,012
-275,657	622,526	-0,023	-0,042
-274,643	82,319	0,048	0,038
-273,628	65,971	-0,024	-0,018
-272,613	4,989	0,085	0,046
-271,599	125,552	-0,033	-0,031
-270,584	-169,610	0,144	-0,004
-269,570	157,720	-0,060	0,061
-268,555	328,496	-0,026	0,037
-267,540	102,802	0,078	-0,067
-266,526	800,000	0,044	-0,100
-265,511	326,134	-0,075	-0,105
-264,497	-180,206	0,088	0,001
-263,482	800,000	0,058	0,119
-262,467	99,688	0,061	0,052
-261,453	-52,936	0,058	-0,019
-260,438	394,200	-0,034	-0,053
-259,424	-96,438	0,056	0,011
-258,409	-148,254	-0,030	0,002
-257,395	800,000	-0,023	-0,061
-256,380	-200,000	-0,006	0,067
-255,365	6,386	-0,056	0,030
-254,351	59,240	0,174	0,125
-253,336	179,578	-0,037	0,040
-252,322	-1,878	-0,061	-0,031
-251,307	30,651	0,012	0,007
-250,292	58,494	0,054	-0,039
-249,278	-62,150	-0,111	-0,034
-248,263	-200,000	0,004	-0,018
-247,249	226,092	0,084	-0,100
-246,234	-120,798	0,122	0,015
-245,219	-200,000	0,018	0,068
-244,205	172,510	0,073	0,077
-243,190	-200,000	-0,038	0,124
-242,176	606,629	0,044	0,080
-241,161	800,000	0,023	0,054
-240,146	173,090	0,050	0,052
-239,132	453,504	-0,026	0,042
-238,117	5,594	0,072	0,039
-237,103	12,230	-0,029	-0,016
-236,088	-200,000	-0,002	0,037
-235,073	31,882	0,115	-0,072
-234,059	145,076	0,041	-0,040
-233,044	-99,776	0,115	0,021
-232,030	577,127	-0,034	0,062
-231,015	-200,000	-0,003	0,029
-230,000	-94,308	-0,081	0,016
-228,986	689,803	-0,028	0,053
-227,971	-200,000	0,034	-0,122
-226,957	-200,000	0,008	0,051
-225,942	-200,000	0,004	-0,051
-224,927	43,373	-0,098	0,065
-223,913	51,285	-0,023	0,016
-222,898	800,000	0,048	-0,110
-221,884	-177,257	-0,102	-0,002
-220,869	532,309	0,015	0,027
-219,855	-74,432	0,165	0,043
-218,840	339,368	-0,071	0,101
-217,825	-60,631	-0,061	-0,019
-216,811	103,153	-0,186	-0,159
-215,796	-90,861	-0,104	0,022
-214,782	32,500	-0,079	-0,050
-213,767	-49,737	-0,016	-0,005
-212,752	351,853	0,017	0,024
-211,738	581,102	0,082	0,147
-210,723	349,305	-0,026	0,037
-209,709	-94,529	-0,182	-0,036
-208,694	71,073	-0,143	0,108
-207,679	-36,018	-0,083	0,033
-206,665	115,175	-0,075	0,066
-205,650	-200,000	-0,061	0,217
-204,636	688,153	-0,026	0,051
-203,621	800,000	-0,042	0,111
-202,606	-93,759	-0,114	0,023
-201,592	250,579	-0,102	0,127
-200,577	-73,666	0,103	0,027
-199,563	-200,000	-0,002	-0,058
-198,548	42,266	-0,115	0,076
-197,533	-86,386	0,021	-0,005
-196,519	664,435	-0,013	-0,024
-195,504	238,001	-0,085	0,103
-194,490	-200,000	0,025	-0,141
-193,475	465,013	0,068	-0,111
-192,460	-200,000	0,002	0,023
-191,446	-200,000	0,011	0,052
-190,431	-200,000	-0,012	0,056
-189,417	748,597	0,006	-0,012
-188,402	181,885	0,038	-0,041
-187,387	-200,000	-0,002	0,009
-186,373	-200,000	-0,023	-0,109
-185,358	-3,479	0,086	-0,043
-184,344	243,021	0,117	0,144
-183,329	-132,756	0,126	-0,012
-182,315	-200,000	0,012	-0,115
-181,300	-130,882	-0,104	-0,010
-180,285	-82,497	-0,157	-0,037
-179,271	-200,000	-0,001	-0,022
-178,256	-57,013	0,141	0,045
-177,242	-33,914	-0,040	0,016
-176,227	-200,000	0,014	0,086
-175,212	-30,976	-0,125	0,051
-174,198	-115,231	0,059	-0,008
-173,183	-131,768	-0,056	-0,005
-172,169	46,707	0,078	-0,053
-171,154	-59,123	-0,105	-0,033
-170,139	-200,000	0,000	0,113
-169,125	-189,179	-0,061	-0,001
-168,110	581,789	0,068	0,123
-167,096	-200,000	-0,007	0,109
-166,081	206,892	0,032	0,036
-165,066	195,820	-0,066	-0,074
-164,052	-200,000	0,007	-0,088
-163,037	12,162	0,077	0,043
-162,023	-200,000	0,076	0,000
-161,008	227,594	0,033	0,039
-159,993	75,883	0,074	0,057
-158,979	800,000	0,054	0,153
-157,964	48,891	-0,041	0,028
-156,950	13,504	0,092	0,052
-155,935	109,205	-0,032	0,028
-154,920	-200,000	-0,019	-0,085
-153,906	-72,234	0,193	0,052
-152,891	-200,000	-0,010	0,038
-151,877	-109,660	-0,172	-0,026
-150,862	-40,240	0,036	0,014
-149,847	-102,867	0,125	0,021
-148,833	-114,591	-0,120	0,017
-147,818	455,843	-0,025	0,040
-146,804	-94,442	-0,053	0,011
-145,789	-27,185	0,060	-0,025
-144,775	-84,324	-0,065	-0,015
-143,760	-200,000	-0,022	-0,124
-142,745	-200,000	-0,009	0,133
-141,731	315,549	0,020	0,027
-140,716	-37,277	0,066	0,026
-139,702	-90,347	0,152	0,032
-138,687	99,205	-0,053	0,045
-137,672	688,191	-0,022	-0,042
-136,658	92,259	0,117	-0,096
-135,643	-5,809	-0,045	-0,022
-134,629	779,052	0,045	0,089
-133,614	-200,000	0,001	0,067
-132,599	302,771	0,086	0,116
-131,585	-200,000	0,011	0,114
-130,570	-176,555	-0,173	0,003
-129,556	-89,417	-0,040	-0,008
-128,541	800,000	-0,027	-0,082
-127,526	-39,565	0,039	0,015
-126,512	-174,389	0,017	0,000
-125,497	-200,000	0,014	-0,052
-124,483	-156,921	0,147	-0,006
-123,468	800,000	-0,034	0,072
-122,453	475,640	-0,057	-0,094
-121,439	206,891	-0,103	-0,117
-120,424	-200,000	-0,020	-0,069
-119,410	23,559	-0,076	0,045
