DTS Sentinel unit serial number:	SN410029Multiplexer serial number:	ORYXHardware model number:	OX2-SRSoftware version number:	ORYX F/W v4,00 Oryx Data Collector v3.7.2.0data status	okinstallation	B6 Nyhavnadifferential loss correction	single-endedforward channel	channel 2reverse channel	N/Adate	2023/12/08time	18:05:08forward acquisition time	300,00reverse acquisition time	0,00gamma	499,1914k internal	0,3158k external	0,3158temperature offset calibration	1,0000default loss term (dB/km)	0,3820temperature slope calibration	1,0000multiplexer offset coefficient	1,0000multiplexer slope coefficient	1,0000fibre end	0,00T internal ref (°C)	15,22T ext. ref 1 (°C)	-1,28T ext. ref 2 (°C)	-1,27length (m)	temperature (°C)	Stokes	anti-Stokes-744,400	-35,662	0,095	0,038
-743,385	-48,864	-0,362	0,127
-742,371	347,102	0,123	0,179
-741,356	-107,511	-0,256	-0,041
-740,342	710,815	0,065	-0,127
-739,327	-94,060	-0,341	-0,068
-738,312	-102,866	0,175	0,030
-737,298	-45,092	-0,305	-0,111
-736,283	335,737	0,050	-0,071
-735,269	-82,181	-0,196	0,047
-734,254	-152,394	0,123	0,006
-733,239	34,880	-0,511	-0,329
-732,225	-14,011	0,219	-0,104
-731,210	253,124	-0,044	0,056
-730,196	-15,655	-0,038	0,018
-729,181	800,000	0,019	0,041
-728,167	-200,000	-0,004	-0,048
-727,152	-200,000	-0,006	-0,042
-726,137	-200,000	-0,036	-0,150
-725,123	587,938	-0,028	-0,050
-724,108	17,901	0,007	0,004
-723,094	-102,841	-0,142	-0,025
-722,079	-200,000	-0,056	-0,186
-721,064	800,000	-0,034	-0,074
-720,050	346,218	-0,079	0,115
-719,035	-141,093	0,095	-0,007
-718,021	391,484	0,003	0,005
-717,006	-112,432	-0,067	0,010
-715,991	-200,000	-0,012	-0,108
-714,977	-136,003	-0,126	-0,011
-713,962	125,346	-0,052	0,048
-712,948	438,089	0,056	-0,090
-711,933	259,002	0,077	-0,098
-710,918	-74,750	0,024	0,006
-709,904	515,517	0,028	-0,049
-708,889	229,563	-0,075	-0,091
-707,875	269,029	0,032	0,041
-706,860	407,569	0,033	-0,051
-705,845	-200,000	-0,016	0,060
-704,831	-8,431	0,094	-0,046
-703,816	-200,000	0,005	0,045
-702,802	-52,306	-0,062	0,021
-701,787	-99,471	-0,097	0,018
-700,772	370,534	0,069	0,103
-699,758	688,059	-0,074	-0,143
-698,743	-55,406	-0,032	-0,011
-697,729	46,929	-0,156	0,106
-696,714	-147,101	0,151	0,009
-695,699	-200,000	0,048	-0,182
-694,685	-136,517	-0,075	0,006
-693,670	-11,704	-0,237	-0,114
-692,656	800,000	-0,063	-0,130
-691,641	79,878	0,048	0,038
-690,627	59,509	-0,036	-0,026
-689,612	-157,644	0,139	0,006
-688,597	-200,000	-0,014	-0,119
-687,583	0,751	-0,170	-0,089
-686,568	-200,000	-0,019	-0,130
-685,554	800,000	-0,070	0,145
-684,539	-40,803	0,101	-0,038
-683,524	223,555	-0,062	0,073
-682,510	138,672	0,021	-0,020
-681,495	52,683	0,124	0,087
-680,481	109,461	-0,042	-0,037
-679,466	-162,259	-0,088	-0,003
-678,451	-64,576	-0,121	-0,036
-677,437	120,257	0,013	0,012
-676,422	-135,135	0,164	0,014
-675,408	800,000	-0,087	-0,218
-674,393	47,093	-0,114	-0,078
-673,378	159,299	-0,153	0,157
-672,364	-173,584	-0,077	-0,002
-671,349	-200,000	0,011	0,090
-670,335	-132,154	-0,021	-0,002
-669,320	-200,000	-0,008	0,092
-668,305	-9,985	-0,102	0,050
-667,291	-36,590	0,070	0,028
-666,276	800,000	-0,040	0,095
-665,262	-200,000	0,025	-0,134
-664,247	-117,346	0,111	0,015
-663,232	50,050	0,035	0,024
-662,218	-200,000	-0,016	-0,057
-661,203	-200,000	0,029	-0,099
-660,189	-91,532	-0,087	0,018
-659,174	800,000	-0,075	-0,180
-658,159	183,747	-0,063	-0,069
-657,145	-58,368	-0,089	-0,028
-656,130	-200,000	-0,002	0,043
-655,116	-125,867	-0,028	-0,003
-654,101	-50,841	-0,098	-0,034
-653,086	703,207	-0,050	0,098
-652,072	-200,000	0,001	-0,072
-651,057	-166,176	-0,133	0,004
-650,043	-200,000	-0,007	-0,127
-649,028	-200,000	-0,008	-0,088
-648,014	-200,000	-0,015	0,089
-646,999	-200,000	-0,036	0,158
-645,984	246,340	0,040	-0,049
-644,970	-159,858	-0,132	-0,005
-643,955	800,000	0,053	-0,148
-642,941	-200,000	-0,005	0,034
-641,926	-53,492	-0,068	-0,023
-640,911	66,129	0,161	0,120
-639,897	-33,933	-0,012	-0,005
-638,882	800,000	-0,021	-0,047
-637,868	-27,537	0,012	-0,005
-636,853	-61,262	-0,085	-0,026
-635,838	109,913	-0,031	-0,027
-634,824	393,687	0,078	-0,120
-633,809	-94,091	0,092	0,018
-632,795	-42,367	-0,135	0,050
-631,780	30,985	0,081	0,051
-630,765	469,514	-0,065	-0,107
-629,751	800,000	-0,088	-0,243
-628,736	382,800	0,058	-0,088
-627,722	473,122	-0,006	0,011
-626,707	-51,778	0,148	0,050
-625,692	11,075	0,040	0,022
-624,678	-48,091	-0,118	0,042
-623,663	314,900	0,044	0,061
-622,649	-200,000	-0,005	0,060
-621,634	800,000	-0,090	-0,289
-620,619	-200,000	-0,006	0,069
-619,605	-68,568	0,064	0,018
-618,590	-200,000	-0,014	-0,094
-617,576	-103,202	0,080	0,014
-616,561	-200,000	0,004	0,050
-615,546	68,586	0,111	0,083
-614,532	3,481	-0,152	0,081
-613,517	152,524	0,120	0,120
-612,503	-25,069	0,088	-0,038
-611,488	-166,076	0,146	-0,004
-610,474	800,000	0,035	0,090
-609,459	-200,000	-0,005	-0,093
-608,444	-200,000	0,000	0,039
-607,430	306,515	0,114	-0,157
-606,415	123,940	0,007	0,006
-605,401	157,930	-0,087	0,089
-604,386	157,773	0,053	-0,054
-603,371	-200,000	0,003	0,100
-602,357	800,000	0,041	0,092
-601,342	125,772	0,086	-0,079
-600,328	285,506	-0,027	0,036
-599,313	-114,979	-0,095	-0,013
-598,298	-120,384	-0,046	0,006
-597,284	-185,600	0,095	0,001
-596,269	800,000	-0,035	-0,113
-595,255	-58,369	0,087	0,028
-594,240	-86,639	-0,061	0,014
-593,225	-200,000	-0,005	0,041
-592,211	-200,000	0,002	0,075
-591,196	-173,227	-0,130	-0,003
-590,182	-200,000	-0,017	-0,097
-589,167	-100,336	0,056	-0,010
-588,152	742,441	-0,076	-0,149
-587,138	269,128	-0,108	0,140
-586,123	800,000	-0,004	0,013
-585,109	188,340	0,031	-0,034
-584,094	-200,000	0,020	0,121
-583,079	800,000	-0,035	0,083
-582,065	-13,354	0,064	-0,030
-581,050	800,000	0,046	-0,105
-580,036	147,089	-0,094	-0,092
-579,021	800,000	0,034	0,073
-578,006	-200,000	0,006	-0,071
-576,992	-164,124	-0,018	-0,001
-575,977	191,543	0,010	0,011
-574,963	-100,240	0,061	0,011
-573,948	122,006	0,094	0,086
-572,934	-200,000	0,011	-0,064
-571,919	800,000	-0,009	-0,024
-570,904	800,000	-0,037	-0,098
-569,890	-113,023	0,050	0,007
-568,875	-102,553	-0,118	0,020
-567,861	-0,097	-0,056	-0,029
-566,846	56,613	0,158	0,112
-565,831	-200,000	-0,007	0,068
-564,817	-84,438	0,113	-0,026
-563,802	285,614	-0,023	0,030
-562,788	721,279	0,016	0,031
-561,773	-127,581	-0,065	0,007
-560,758	-141,642	0,135	-0,010
-559,744	-177,194	-0,027	-0,000
-558,729	329,859	-0,072	0,101
-557,715	-200,000	-0,017	-0,198
-556,700	800,000	0,047	-0,116
-555,685	-200,000	0,034	-0,138
-554,671	70,264	-0,105	-0,079
-553,656	800,000	-0,023	-0,047
-552,642	509,875	-0,048	-0,082
-551,627	208,318	0,074	0,084
-550,612	778,062	0,065	-0,130
-549,598	307,587	-0,110	-0,150
-548,583	800,000	-0,093	-0,211
-547,569	376,342	0,064	0,096
-546,554	-200,000	0,027	-0,094
-545,539	559,615	-0,083	-0,148
-544,525	293,809	0,056	0,075
-543,510	-132,573	-0,083	0,008
-542,496	-124,830	0,085	-0,009
-541,481	-5,789	0,155	-0,077
-540,466	-200,000	0,010	-0,113
-539,452	-100,721	0,138	0,025
-538,437	791,695	-0,018	-0,037
-537,423	721,019	-0,077	0,150
-536,408	560,486	-0,036	-0,064
-535,393	-39,009	0,074	-0,028
-534,379	-200,000	-0,013	0,073
-533,364	-200,000	0,004	0,014
-532,350	-40,608	-0,117	0,044
-531,335	26,038	-0,071	-0,043
-530,321	800,000	0,037	-0,104
-529,306	82,062	0,107	-0,085
-528,291	-200,000	0,022	-0,144
-527,277	-200,000	0,030	-0,122
-526,262	-82,887	-0,278	-0,065
-525,248	-144,119	0,066	-0,004
-524,233	356,863	-0,025	0,036
-523,218	483,840	0,035	0,058
-522,204	378,514	-0,032	-0,048
-521,189	800,000	0,016	-0,040
-520,175	-43,658	-0,074	0,027
-519,160	108,632	0,074	0,064
-518,145	-60,001	-0,091	-0,028
-517,131	-24,463	0,102	0,044
-516,116	-59,990	-0,097	-0,030
-515,102	800,000	-0,071	-0,193
-514,087	208,052	-0,144	0,164
-513,072	192,305	0,057	0,062
-512,058	-122,280	0,035	-0,004
-511,043	190,475	0,038	-0,042
-510,029	118,638	0,124	0,112
-509,014	386,009	0,034	-0,051
-507,999	-200,000	0,003	0,049
-506,985	624,021	-0,043	0,080
-505,970	-200,000	0,031	-0,159
-504,956	-51,295	-0,042	-0,014
-503,941	269,417	0,128	-0,164
-502,926	-200,000	0,015	0,131
-501,912	669,019	0,047	0,089
-500,897	266,778	0,037	0,047
-499,883	800,000	0,027	-0,057
-498,868	329,205	-0,022	0,031
-497,853	154,457	0,086	-0,086
-496,839	93,096	0,024	0,020
-495,824	800,000	0,029	0,094
-494,810	-200,000	-0,034	0,120
-493,795	-60,403	-0,013	0,004
-492,781	800,000	-0,012	0,035
-491,766	800,000	-0,024	0,063
-490,751	81,440	-0,170	-0,134
-489,737	221,973	0,036	0,042
-488,722	-200,000	-0,025	0,089
-487,708	-53,372	0,096	0,032
-486,693	-96,800	-0,112	0,021
-485,678	259,120	0,070	0,088
-484,664	-200,000	-0,021	0,106
-483,649	296,000	-0,108	0,145
-482,635	170,709	0,089	-0,093
-481,620	255,324	0,073	0,092
-480,605	-78,727	0,064	-0,016
-479,591	-96,946	0,147	0,028
-478,576	-200,000	-0,007	-0,037
-477,562	100,065	-0,049	-0,041
-476,547	-200,000	-0,004	0,027
-475,532	-200,000	-0,030	-0,106
-474,518	-200,000	0,019	-0,063
-473,503	230,784	0,063	-0,075
-472,489	-200,000	-0,023	-0,109
-471,474	-200,000	0,012	-0,103
-470,459	-103,458	-0,099	0,017
-469,445	-200,000	0,005	0,016
-468,430	800,000	-0,061	-0,163
-467,416	-200,000	0,031	-0,113
-466,401	-200,000	-0,023	0,081
-465,386	-15,586	0,068	0,031
-464,372	-159,176	0,036	-0,001
-463,357	-16,978	-0,077	-0,035
-462,343	78,790	-0,095	-0,074
-461,328	-18,248	0,030	-0,013
-460,313	12,106	0,167	-0,093
-459,299	204,144	-0,062	0,070
-458,284	-200,000	-0,046	0,000
-457,270	26,931	0,028	0,017
-456,255	-54,433	0,106	0,035
-455,241	-102,798	-0,164	-0,028
-454,226	-200,000	0,012	-0,122
-453,211	-200,000	-0,002	0,094
-452,197	-136,551	0,067	-0,006
-451,182	-31,280	-0,098	0,040
-450,168	-200,000	-0,004	0,073
-449,153	521,423	-0,009	-0,015
-448,138	-51,939	-0,053	0,018
-447,124	580,842	-0,035	0,062
-446,109	800,000	-0,041	-0,122
-445,095	71,077	0,090	-0,068
-444,080	158,864	0,152	0,154
-443,065	-200,000	-0,045	0,150
-442,051	19,919	-0,069	0,040
-441,036	43,396	-0,104	0,069
-440,022	-127,417	0,022	0,002
-439,007	371,261	0,025	-0,037
-437,992	91,275	0,094	-0,077
-436,978	-168,074	0,126	0,004
-435,963	133,586	-0,059	-0,055
-434,949	-162,742	0,137	-0,005
-433,934	-57,263	-0,089	0,028
-432,919	-117,501	-0,057	-0,007
-431,905	18,112	-0,140	-0,081
-430,890	-200,000	0,012	-0,046
-429,876	524,218	-0,053	-0,091
-428,861	139,476	0,043	0,041
-427,846	38,512	-0,110	-0,071
-426,832	-77,669	-0,078	0,020
-425,817	800,000	0,018	-0,038
-424,803	214,843	-0,074	-0,085
-423,788	162,957	0,057	0,058
-422,773	396,599	-0,084	0,127
-421,759	28,583	0,059	0,036
-420,744	729,323	0,036	0,070
-419,730	800,000	0,016	-0,049
-418,715	105,197	-0,027	-0,023
-417,701	70,147	-0,069	-0,052
-416,686	656,823	0,020	-0,038
-415,671	-32,210	0,148	0,060
-414,657	218,165	0,067	0,077
-413,642	180,643	-0,085	0,091
-412,628	231,014	0,054	-0,064
-411,613	64,259	-0,070	-0,051
-410,598	-61,948	-0,090	0,027
-409,584	189,320	0,062	0,067
-408,569	376,459	0,026	0,038
-407,555	-70,043	0,146	-0,040
-406,540	132,248	-0,113	0,106
-405,525	-94,115	0,040	-0,008
-404,511	-200,000	0,015	-0,146
-403,496	32,437	-0,121	-0,076
-402,482	-43,392	-0,067	0,025
-401,467	145,287	-0,063	-0,062
-400,452	30,300	-0,060	-0,037
-399,438	274,364	-0,098	-0,127
-398,423	99,010	-0,035	0,030
-397,409	73,144	-0,019	-0,014
-396,394	-19,083	0,044	-0,020
-395,379	653,632	-0,066	-0,125
-394,365	-96,630	0,020	0,004
-393,350	-200,000	-0,013	-0,087
-392,336	258,088	-0,048	-0,060
-391,321	-101,602	0,112	0,020
-390,306	800,000	-0,020	-0,063
-389,292	106,802	0,096	0,083
-388,277	-200,000	-0,010	0,034
-387,263	-54,767	0,081	0,026
-386,248	-200,000	0,009	0,036
-385,233	-200,000	-0,006	-0,155
-384,219	-200,000	-0,011	-0,103
-383,204	-200,000	0,004	-0,058
-382,190	303,044	-0,028	-0,038
-381,175	-10,914	0,040	0,019
-380,160	524,019	0,064	0,110
-379,146	-200,000	0,042	0,136
-378,131	-200,000	-0,009	-0,091
-377,117	83,759	0,099	0,078
-376,102	158,277	-0,068	-0,069
-375,088	-200,000	-0,018	-0,061
-374,073	210,441	0,101	0,115
-373,058	-200,000	-0,012	0,052
-372,044	-107,520	0,064	0,010
-371,029	43,032	0,090	0,059
-370,015	-1,619	0,126	-0,065
-369,000	179,320	-0,012	0,012
-367,985	584,209	0,015	-0,027
-366,971	66,989	-0,009	0,006
-365,956	212,534	-0,109	0,125
-364,942	113,675	0,059	0,052
-363,927	178,283	0,071	0,076
-362,912	225,903	-0,057	-0,067
-361,898	800,000	0,042	-0,085
-360,883	-49,713	-0,073	0,025
-359,869	30,036	0,022	-0,014
-358,854	-200,000	-0,007	-0,028
-357,839	-145,192	0,102	-0,007
-356,825	76,891	-0,084	0,064
-355,810	38,497	-0,084	0,054
-354,796	-200,000	-0,002	0,138
-353,781	-103,818	-0,059	-0,010
-352,766	-200,000	0,004	0,046
-351,752	-68,788	-0,137	0,038
-350,737	-200,000	0,003	0,031
-349,723	-8,091	0,061	-0,030
-348,708	-200,000	0,014	0,045
-347,693	492,406	0,020	0,034
-346,679	-200,000	0,010	-0,080
-345,664	14,321	-0,107	-0,061
-344,650	67,474	0,105	0,078
-343,635	139,742	0,044	-0,042
-342,620	141,538	-0,112	0,108
-341,606	-44,027	0,078	0,028
-340,591	-200,000	-0,004	0,057
-339,577	28,794	-0,045	0,028
-338,562	144,402	0,034	0,033
-337,548	580,386	-0,053	0,094
-336,533	303,952	0,064	0,086
-335,518	800,000	0,039	0,101
-334,504	370,231	-0,046	-0,068
-333,489	147,520	0,061	-0,059
-332,475	-56,078	-0,236	-0,076
-331,460	-40,173	-0,059	0,022
-330,445	-200,000	0,001	0,016
-329,431	-95,372	0,077	0,015
-328,416	203,461	-0,026	0,029
-327,402	800,000	-0,087	0,200
-326,387	-200,000	0,008	0,090
-325,372	-200,000	-0,020	-0,099
-324,358	-200,000	-0,033	-0,115
-323,343	-90,607	0,115	0,024
-322,329	118,965	0,059	-0,053
-321,314	-200,000	0,017	0,193
-320,299	-200,000	-0,022	0,072
-319,285	5,280	0,082	0,044
-318,270	-200,000	-0,018	-0,124
-317,256	800,000	0,055	-0,127
-316,241	106,406	0,051	-0,044
-315,226	800,000	0,021	-0,041
-314,212	-146,413	-0,114	0,007
-313,197	-68,662	0,057	0,016
-312,183	274,626	-0,031	0,040
-311,168	-181,459	0,098	0,001
-310,153	-149,090	0,145	0,008
-309,139	90,701	-0,064	-0,052
-308,124	355,313	0,031	-0,045
-307,110	-200,000	-0,003	-0,246
-306,095	155,151	0,118	0,117
-305,080	-137,062	0,068	-0,006
-304,066	-200,000	0,018	-0,093
-303,051	-11,788	-0,088	0,042
-302,037	-112,871	-0,121	0,017
-301,022	-10,454	-0,040	-0,019
-300,008	19,376	0,090	-0,052
-298,993	-200,000	0,014	0,044
-297,978	562,202	-0,056	0,099
-296,964	-200,000	-0,008	-0,047
-295,949	800,000	-0,052	0,111
-294,935	800,000	-0,045	0,119
-293,920	25,537	-0,056	-0,033
-292,905	800,000	0,003	0,010
-291,891	-29,195	-0,070	0,029
-290,876	11,312	0,079	0,043
-289,862	312,082	0,045	0,061
-288,847	196,102	-0,107	-0,118
-287,832	-200,000	-0,008	0,037
-286,818	-85,745	-0,147	-0,033
-285,803	146,201	-0,093	0,091
-284,789	-162,827	0,095	0,003
-283,774	800,000	0,079	0,170
-282,759	800,000	-0,022	0,062
-281,745	672,631	0,052	-0,098
-280,730	-51,610	-0,069	0,023
-279,716	12,389	0,129	-0,072
-278,701	246,827	-0,141	0,173
-277,686	195,808	0,066	0,072
-276,672	7,305	-0,022	0,012
-275,657	-200,000	0,019	-0,158
-274,643	-106,433	-0,077	-0,012
-273,628	800,000	-0,037	-0,092
-272,613	464,733	-0,052	0,085
-271,599	-60,498	0,074	0,023
-270,584	-200,000	0,033	-0,129
-269,570	50,573	-0,048	0,033
-268,555	286,564	0,079	0,103
-267,540	-7,488	0,025	-0,012
-266,526	17,651	0,079	-0,046
-265,511	164,789	-0,034	-0,034
-264,497	-200,000	-0,017	-0,134
-263,482	800,000	-0,047	-0,111
-262,467	499,129	0,023	-0,038
-261,453	-151,637	-0,085	-0,004
-260,438	-71,828	0,179	0,048
-259,424	-200,000	-0,002	0,155
-258,409	263,307	-0,044	0,056
-257,395	396,055	0,063	0,096
-256,380	157,173	0,059	0,059
-255,365	-200,000	-0,027	0,093
-254,351	-106,614	0,013	-0,002
-253,336	170,249	-0,088	0,091
-252,322	119,289	0,018	-0,016
-251,307	800,000	0,073	-0,203
-250,292	145,223	0,039	-0,038
-249,278	223,024	0,091	0,106
-248,263	227,003	0,006	0,007
-247,249	222,816	-0,084	-0,098
-246,234	368,469	0,038	0,056
-245,219	520,255	0,030	-0,052
-244,205	-101,697	0,028	-0,005
-243,190	25,811	0,043	0,026
-242,176	81,962	0,043	-0,034
-241,161	-37,890	0,113	0,043
-240,146	50,025	-0,056	-0,038
-239,132	5,356	-0,071	-0,038
-238,117	-200,000	-0,005	-0,185
-237,103	139,758	-0,119	-0,113
-236,088	-200,000	0,026	-0,126
-235,073	800,000	-0,048	0,133
-234,059	-200,000	-0,040	0,159
-233,044	59,577	-0,087	0,062
-232,030	110,715	-0,132	0,115
-231,015	-3,598	0,071	0,036
-230,000	-152,862	-0,055	-0,003
-228,986	-200,000	-0,000	-0,012
-227,971	-59,277	-0,038	0,012
-226,957	800,000	0,031	-0,063
-225,942	42,647	0,075	0,049
-224,927	800,000	-0,034	0,078
-223,913	-200,000	0,006	-0,051
-222,898	-200,000	0,011	0,045
-221,884	-200,000	0,012	-0,050
-220,869	-200,000	0,006	0,167
-219,855	-128,137	0,067	-0,007
-218,840	478,232	-0,067	-0,109
-217,825	48,291	-0,109	-0,074
-216,811	176,512	0,071	-0,074
-215,796	-200,000	-0,035	0,133
-214,782	-200,000	-0,036	0,120
-213,767	-200,000	-0,014	0,087
-212,752	66,599	-0,060	0,044
-211,738	218,703	-0,037	0,043
-210,723	800,000	0,037	-0,076
-209,709	63,647	-0,116	-0,084
-208,694	800,000	0,040	0,084
-207,679	-200,000	0,002	-0,012
-206,665	800,000	0,018	-0,046
-205,650	6,723	0,075	0,040
-204,636	-200,000	-0,015	0,113
-203,621	86,882	0,026	0,021
-202,606	-102,393	0,082	-0,014
-201,592	43,845	-0,107	-0,071
-200,577	-30,473	-0,073	0,030
-199,563	259,759	-0,023	-0,028
-198,548	93,190	0,097	-0,079
-197,533	-79,823	-0,161	-0,039
-196,519	74,436	0,075	0,057
-195,504	-200,000	-0,003	0,080
-194,490	-115,251	-0,110	0,015
-193,475	389,841	-0,038	0,057
-192,460	-45,114	0,095	-0,034
-191,446	261,865	0,067	0,084
-190,431	111,630	-0,055	-0,048
-189,417	422,672	0,075	0,116
-188,402	-58,205	0,056	0,017
-187,387	-95,140	-0,102	-0,020
-186,373	-24,194	-0,106	0,046
-185,358	-200,000	0,014	-0,062
-184,344	-145,001	-0,122	-0,008
-183,329	800,000	0,062	0,155
-182,315	-63,664	0,145	-0,043
-181,300	357,738	-0,072	0,104
-180,285	-200,000	-0,021	0,121
-179,271	4,594	-0,092	-0,048
-178,256	-98,837	0,112	0,020
-177,242	118,106	-0,071	0,063
-176,227	-88,896	0,144	-0,030
-175,212	41,099	-0,109	0,071
-174,198	800,000	-0,018	0,040
-173,183	524,703	-0,047	0,080
-172,169	243,275	-0,029	-0,035
-171,154	211,253	-0,078	0,089
-170,139	-132,761	-0,082	-0,007
-169,125	173,487	0,078	0,081
-168,110	800,000	-0,024	0,071
-167,096	191,576	0,033	-0,036
-166,081	-45,270	-0,117	0,042
-165,066	401,545	0,042	0,063
-164,052	-200,000	-0,017	0,069
-163,037	-200,000	0,002	-0,065
-162,023	-10,102	0,117	0,056
-161,008	27,566	0,041	-0,025
-159,993	-200,000	-0,003	-0,014
-158,979	-18,842	0,020	-0,009
-157,964	151,543	0,107	-0,105
-156,950	-45,355	-0,089	0,032
-155,935	-153,319	-0,038	-0,002
-154,920	-200,000	-0,006	-0,197
-153,906	800,000	0,041	-0,107
-152,891	800,000	0,021	-0,062
-151,877	-35,211	-0,045	-0,017
-150,862	-144,153	-0,126	0,008
-149,847	-200,000	-0,013	0,049
-148,833	316,141	-0,030	-0,040
-147,818	-200,000	0,002	-0,008
-146,804	210,370	0,037	0,042
-145,789	-200,000	-0,031	-0,102
-144,775	-133,174	-0,103	-0,009
-143,760	98,820	-0,053	0,044
-142,745	-200,000	-0,008	-0,095
-141,731	-200,000	0,007	0,025
-140,716	800,000	-0,095	0,218
-139,702	800,000	-0,009	0,027
-138,687	58,161	-0,064	-0,045
-137,672	104,531	0,059	-0,050
-136,658	34,698	-0,102	-0,064
-135,643	-200,000	0,004	-0,120
-134,629	-27,628	0,100	-0,042
-133,614	800,000	0,006	0,013
-132,599	-183,907	-0,141	-0,002
-131,585	800,000	-0,016	-0,047
-130,570	800,000	-0,032	-0,076
-129,556	-200,000	-0,037	-0,136
-128,541	-0,602	-0,072	-0,037
-127,526	-200,000	0,096	-0,000
-126,512	288,698	0,079	0,103
-125,497	-51,463	-0,102	-0,034
-124,483	-200,000	-0,009	0,067
-123,468	-200,000	-0,014	-0,061
-122,453	310,141	0,068	-0,092
-121,439	800,000	0,019	-0,039
-120,424	-200,000	0,040	-0,210
