DTS Sentinel unit serial number:	SN410029Multiplexer serial number:	ORYXHardware model number:	OX2-SRSoftware version number:	ORYX F/W v4,00 Oryx Data Collector v3.7.2.0data status	okinstallation	B6 Nyhavnadifferential loss correction	single-endedforward channel	channel 2reverse channel	N/Adate	2023/12/08time	14:35:08forward acquisition time	300,00reverse acquisition time	0,00gamma	499,1914k internal	0,3159k external	0,3159temperature offset calibration	1,0000default loss term (dB/km)	0,3820temperature slope calibration	1,0000multiplexer offset coefficient	1,0000multiplexer slope coefficient	1,0000fibre end	0,00T internal ref (°C)	15,06T ext. ref 1 (°C)	-1,53T ext. ref 2 (°C)	-1,53length (m)	temperature (°C)	Stokes	anti-Stokes-744,400	-166,463	0,180	-0,005
-743,385	5,603	-0,148	-0,081
-742,371	800,000	-0,033	0,089
-741,356	53,230	-0,143	0,101
-740,342	-91,486	0,154	0,032
-739,327	-144,757	-0,260	0,017
-738,312	-59,561	-0,129	-0,041
-737,298	-85,288	-0,242	0,055
-736,283	84,964	0,100	0,080
-735,269	-22,857	-0,202	0,089
-734,254	-200,000	0,035	-0,122
-733,239	0,208	-0,454	-0,238
-732,225	2,374	0,184	0,098
-731,210	-200,000	-0,000	0,029
-730,196	800,000	-0,053	-0,128
-729,181	122,384	-0,091	0,084
-728,167	-200,000	-0,039	-0,138
-727,152	156,075	-0,127	-0,129
-726,137	-190,255	-0,114	-0,001
-725,123	455,336	-0,024	-0,039
-724,108	800,000	-0,044	-0,125
-723,094	-200,000	0,030	-0,193
-722,079	-200,000	-0,058	-0,228
-721,064	-200,000	0,016	-0,137
-720,050	800,000	0,021	-0,057
-719,035	192,939	-0,038	0,042
-718,021	155,679	-0,108	-0,110
-717,006	83,608	-0,140	-0,112
-715,991	-200,000	0,015	-0,135
-714,977	-101,242	-0,084	-0,015
-713,962	127,846	-0,090	-0,084
-712,948	-200,000	0,021	0,078
-711,933	-72,644	-0,123	-0,033
-710,918	-43,445	-0,098	-0,036
-709,904	-200,000	0,013	-0,264
-708,889	187,875	-0,017	-0,019
-707,875	-200,000	0,012	0,066
-706,860	-102,912	-0,170	0,029
-705,845	-200,000	0,002	0,010
-704,831	-200,000	-0,020	0,076
-703,816	800,000	-0,062	0,151
-702,802	-106,649	-0,130	0,021
-701,787	-200,000	0,004	-0,146
-700,772	-200,000	0,003	-0,104
-699,758	636,331	-0,032	0,059
-698,743	800,000	-0,033	0,099
-697,729	531,890	-0,055	-0,096
-696,714	188,416	0,046	0,050
-695,699	154,828	0,039	0,039
-694,685	800,000	-0,055	-0,124
-693,670	-166,818	-0,056	-0,002
-692,656	11,704	0,043	0,024
-691,641	-200,000	0,034	-0,163
-690,627	-200,000	-0,019	-0,185
-689,612	94,099	0,099	0,083
-688,597	800,000	-0,050	0,145
-687,583	-80,965	-0,066	-0,016
-686,568	52,270	-0,138	0,097
-685,554	-54,537	0,051	0,017
-684,539	507,155	-0,016	-0,028
-683,524	28,597	0,045	0,028
-682,510	158,826	-0,133	-0,136
-681,495	-200,000	0,011	-0,102
-680,481	800,000	0,017	-0,051
-679,466	-18,791	0,038	-0,017
-678,451	119,042	-0,021	-0,019
-677,437	0,532	-0,044	-0,023
-676,422	-35,782	0,061	-0,024
-675,408	-200,000	0,004	-0,075
-674,393	-75,561	-0,088	-0,023
-673,378	-109,366	-0,060	0,009
-672,364	429,273	0,028	-0,044
-671,349	-200,000	-0,028	-0,159
-670,335	623,827	-0,026	-0,049
-669,320	-28,736	0,069	-0,029
-668,305	-200,000	-0,004	0,051
-667,291	-40,707	-0,072	0,027
-666,276	-145,222	-0,164	-0,011
-665,262	-200,000	0,006	-0,106
-664,247	-200,000	-0,016	-0,056
-663,232	-50,727	-0,160	-0,055
-662,218	145,749	0,117	-0,115
-661,203	-200,000	-0,073	0,000
-660,189	177,789	-0,083	0,089
-659,174	-59,004	-0,157	0,050
-658,159	-51,332	0,095	-0,032
-657,145	99,686	-0,188	-0,160
-656,130	-200,000	-0,024	-0,113
-655,116	-200,000	-0,012	0,130
-654,101	-200,000	-0,005	0,126
-653,086	-200,000	-0,030	-0,127
-652,072	-200,000	-0,018	-0,063
-651,057	67,590	0,044	-0,033
-650,043	800,000	0,040	-0,102
-649,028	54,577	-0,101	-0,071
-648,014	245,561	0,044	-0,054
-646,999	-122,941	0,077	0,009
-645,984	45,941	-0,087	0,059
-644,970	-177,528	-0,066	0,001
-643,955	362,099	-0,074	-0,109
-642,941	16,592	-0,060	0,035
-641,926	-200,000	0,014	-0,124
-640,911	-44,086	0,124	0,045
-639,897	458,768	-0,046	0,076
-638,882	417,312	0,042	-0,065
-637,868	-65,101	-0,161	-0,047
-636,853	-200,000	-0,003	0,083
-635,838	-69,534	0,061	-0,017
-634,824	-74,612	-0,041	0,011
-633,809	192,498	0,038	0,042
-632,795	13,108	0,164	-0,093
-631,780	3,834	-0,076	-0,041
-630,765	-1,780	-0,074	-0,038
-629,751	-200,000	0,014	-0,127
-628,736	-103,968	-0,083	0,014
-627,722	524,518	-0,010	0,018
-626,707	-60,817	0,165	-0,051
-625,692	495,868	0,022	-0,037
-624,678	458,415	-0,045	0,074
-623,663	-28,373	-0,004	-0,002
-622,649	-32,690	-0,148	-0,060
-621,634	46,080	-0,108	-0,073
-620,619	171,894	0,014	0,015
-619,605	800,000	-0,036	0,105
-618,590	-200,000	-0,023	-0,079
-617,576	800,000	0,006	0,019
-616,561	-127,855	0,062	0,006
-615,546	-24,732	-0,044	0,019
-614,532	-188,323	0,112	-0,001
-613,517	-200,000	0,010	-0,073
-612,503	-200,000	-0,019	0,157
-611,488	800,000	0,021	0,045
-610,474	19,062	0,099	-0,058
-609,459	153,060	-0,069	0,069
-608,444	100,405	-0,030	-0,025
-607,430	-200,000	-0,013	-0,105
-606,415	761,889	-0,033	-0,066
-605,401	43,646	0,121	-0,081
-604,386	-200,000	-0,011	-0,135
-603,371	-30,029	0,118	0,049
-602,357	667,818	-0,037	-0,070
-601,342	-1,235	-0,106	-0,055
-600,328	800,000	0,021	-0,067
-599,313	299,266	-0,087	-0,118
-598,298	800,000	0,016	-0,036
-597,284	243,988	-0,030	-0,037
-596,269	7,919	-0,090	-0,049
-595,255	-144,635	0,061	-0,004
-594,240	-200,000	-0,001	0,064
-593,225	84,145	-0,040	-0,032
-592,211	312,461	-0,031	-0,042
-591,196	40,252	0,112	-0,073
-590,182	-200,000	0,047	0,191
-589,167	800,000	0,016	0,041
-588,152	800,000	-0,018	0,042
-587,138	-200,000	0,005	-0,040
-586,123	174,844	-0,106	-0,112
-585,109	800,000	-0,024	-0,078
-584,094	-16,389	0,026	-0,012
-583,079	-61,907	0,075	-0,023
-582,065	-200,000	-0,003	0,092
-581,050	43,291	-0,029	0,019
-580,036	7,658	0,101	0,055
-579,021	256,081	-0,068	0,086
-578,006	-200,000	0,006	0,073
-576,992	-38,396	-0,070	0,027
-575,977	63,483	-0,068	-0,050
-574,963	18,542	0,102	-0,060
-573,948	229,113	0,046	0,055
-572,934	800,000	-0,007	-0,015
-571,919	-58,788	-0,085	-0,027
-570,904	5,630	-0,083	0,045
-569,890	-90,727	0,094	-0,020
-568,875	142,377	-0,081	0,078
-567,861	483,023	0,048	0,081
-566,846	29,414	-0,021	0,013
-565,831	-200,000	-0,005	-0,038
-564,817	-136,686	-0,089	0,007
-563,802	9,345	0,058	0,032
-562,788	-42,717	-0,086	-0,032
-561,773	-200,000	-0,001	-0,036
-560,758	-200,000	0,013	0,054
-559,744	-200,000	-0,027	0,100
-558,729	112,750	0,115	0,102
-557,715	-116,230	-0,057	-0,008
-556,700	-200,000	-0,021	-0,089
-555,685	800,000	-0,026	-0,055
-554,671	330,576	-0,062	-0,088
-553,656	-100,676	0,147	0,026
-552,642	74,047	0,128	0,098
-551,627	-200,000	0,012	0,123
-550,612	-105,461	-0,021	-0,003
-549,598	59,404	0,035	-0,025
-548,583	-90,266	-0,166	-0,035
-547,569	-200,000	-0,019	0,092
-546,554	800,000	0,018	-0,039
-545,539	-54,689	-0,010	0,003
-544,525	800,000	-0,025	-0,071
-543,510	219,026	-0,034	0,040
-542,496	161,296	0,060	-0,061
-541,481	267,817	-0,033	-0,042
-540,466	-200,000	0,009	0,045
-539,452	7,318	-0,163	0,089
-538,437	-100,393	-0,081	-0,015
-537,423	331,284	0,040	-0,057
-536,408	-113,532	-0,109	0,015
-535,393	90,074	-0,107	-0,087
-534,379	-133,302	0,047	0,004
-533,364	-92,197	0,124	0,025
-532,350	8,127	-0,104	-0,057
-531,335	138,502	0,147	0,141
-530,321	-119,978	0,181	0,022
-529,306	330,055	-0,065	0,092
-528,291	-200,000	0,025	-0,146
-527,277	12,578	-0,070	-0,040
-526,262	-148,581	0,087	-0,005
-525,248	-81,498	-0,118	-0,028
-524,233	618,767	0,069	0,128
-523,218	-200,000	0,006	-0,059
-522,204	572,626	0,042	0,075
-521,189	120,758	-0,153	-0,139
-520,175	57,793	0,042	-0,030
-519,160	196,829	-0,037	-0,042
-518,145	52,933	-0,070	0,049
-517,131	-118,535	0,127	-0,016
-516,116	337,130	-0,134	-0,191
-515,102	800,000	0,017	-0,054
-514,087	800,000	-0,025	-0,054
-513,072	-152,608	0,094	0,005
-512,058	-33,726	0,110	-0,044
-511,043	174,963	0,069	0,073
-510,029	-200,000	0,007	0,117
-509,014	-140,580	-0,119	-0,009
-507,999	-75,251	-0,079	0,020
-506,985	-150,447	0,059	-0,003
-505,970	-200,000	-0,041	-0,150
-504,956	96,332	-0,048	0,040
-503,941	-200,000	0,039	0,132
-502,926	-114,429	0,098	0,014
-501,912	-200,000	0,021	0,146
-500,897	-200,000	-0,001	-0,033
-499,883	-200,000	-0,005	-0,024
-498,868	123,972	-0,073	-0,067
-497,853	-111,676	-0,087	0,013
-496,839	95,330	0,101	0,084
-495,824	-136,006	0,089	0,008
-494,810	594,330	0,074	0,135
-493,795	24,182	0,142	0,085
-492,781	-120,584	-0,082	-0,010
-491,766	204,879	-0,025	0,028
-490,751	800,000	0,060	-0,183
-489,737	305,904	0,076	-0,103
-488,722	-200,000	0,026	0,100
-487,708	-102,655	-0,106	0,018
-486,693	-52,389	0,084	0,028
-485,678	302,852	-0,052	0,071
-484,664	-200,000	0,008	-0,197
-483,649	800,000	-0,054	-0,122
-482,635	-67,908	0,106	0,030
-481,620	-74,989	0,082	-0,021
-480,605	800,000	-0,026	0,058
-479,591	800,000	-0,026	0,071
-478,576	-200,000	-0,007	0,084
-477,562	-57,759	-0,060	-0,019
-476,547	-81,293	-0,044	-0,010
-475,532	74,294	0,064	-0,049
-474,518	-200,000	0,005	0,031
-473,503	-185,599	-0,075	0,001
-472,489	-200,000	0,012	0,128
-471,474	800,000	-0,030	0,078
-470,459	-87,368	-0,012	-0,003
-469,445	-200,000	-0,001	-0,120
-468,430	102,590	0,061	-0,052
-467,416	-53,054	0,034	-0,011
-466,401	-104,491	0,070	0,012
-465,386	-156,581	-0,137	0,006
-464,372	-200,000	0,023	-0,106
-463,357	-200,000	0,003	0,061
-462,343	-35,479	-0,091	-0,036
-461,328	-200,000	0,034	-0,123
-460,313	-200,000	0,011	-0,057
-459,299	394,568	0,046	0,070
-458,284	800,000	-0,024	0,052
-457,270	800,000	0,040	0,120
-456,255	-200,000	-0,008	-0,025
-455,241	491,084	0,036	0,060
-454,226	143,760	-0,048	0,047
-453,211	-74,441	0,100	0,026
-452,197	581,013	0,036	-0,064
-451,182	-200,000	-0,001	0,056
-450,168	165,319	-0,114	-0,117
-449,153	443,380	0,056	0,090
-448,138	-142,181	-0,107	-0,008
-447,124	800,000	-0,026	0,066
-446,109	800,000	0,029	-0,086
-445,095	167,050	0,140	0,145
-444,080	-200,000	-0,002	-0,037
-443,065	800,000	0,034	0,107
-442,051	79,725	0,031	0,024
-441,036	-174,169	-0,023	0,000
-440,022	427,385	-0,014	0,022
-439,007	59,611	-0,033	-0,024
-437,992	-200,000	0,029	0,125
-436,978	-13,905	0,099	0,047
-435,963	558,486	-0,046	0,081
-434,949	-200,000	-0,002	0,100
-433,934	298,105	0,039	0,052
-432,919	-33,843	-0,114	-0,046
-431,905	126,652	-0,034	-0,031
-430,890	-200,000	-0,047	-0,153
-429,876	5,594	0,089	0,048
-428,861	-200,000	-0,003	-0,039
-427,846	68,978	-0,069	0,052
-426,832	-82,479	-0,110	-0,026
-425,817	-200,000	0,003	-0,057
-424,803	-106,002	-0,114	-0,018
-423,788	-141,106	-0,065	-0,005
-422,773	149,392	0,055	0,054
-421,759	-118,621	0,052	-0,007
-420,744	221,724	-0,023	0,027
-419,730	-11,628	0,039	-0,018
-418,715	-200,000	-0,022	0,211
-417,701	591,175	-0,094	-0,169
-416,686	-104,159	-0,057	-0,010
-415,671	-157,674	-0,035	0,001
-414,657	-62,458	-0,105	-0,032
-413,642	125,834	-0,054	0,050
-412,628	462,445	0,003	0,006
-411,613	421,316	-0,064	-0,100
-410,598	503,207	-0,077	-0,130
-409,584	24,720	0,062	-0,037
-408,569	146,527	0,058	0,057
-407,555	-26,273	0,053	0,022
-406,540	-50,829	-0,087	-0,029
-405,525	214,819	-0,092	-0,106
-404,511	-200,000	0,016	-0,158
-403,496	513,889	-0,049	-0,083
-402,482	-200,000	-0,031	0,106
-401,467	-146,025	0,119	0,008
-400,452	444,441	0,105	0,168
-399,438	-200,000	-0,006	0,048
-398,423	-200,000	-0,012	-0,076
-397,409	32,703	0,030	0,019
-396,394	-200,000	-0,002	0,068
-395,379	217,933	-0,086	0,100
-394,365	-200,000	0,007	0,105
-393,350	-175,815	0,072	0,001
-392,336	116,495	-0,097	0,087
-391,321	664,936	-0,021	-0,040
-390,306	-16,541	-0,061	0,028
-389,292	151,367	-0,063	0,062
-388,277	-142,806	-0,112	-0,008
-387,263	531,590	0,050	0,086
-386,248	800,000	0,025	0,055
-385,233	-200,000	-0,013	-0,070
-384,219	35,033	-0,046	0,029
-383,204	208,391	-0,086	-0,098
-382,190	-175,048	-0,019	-0,000
-381,175	-200,000	0,011	0,081
-380,160	-138,287	-0,040	-0,003
-379,146	800,000	-0,019	0,058
-378,131	-50,385	0,174	-0,059
-377,117	-200,000	-0,015	-0,122
-376,102	-200,000	-0,009	-0,131
-375,088	205,825	-0,087	-0,099
-374,073	-41,114	-0,044	-0,016
-373,058	-160,132	0,074	0,003
-372,044	-106,185	0,153	-0,025
-371,029	-29,297	0,062	0,026
-370,015	-200,000	-0,036	-0,126
-369,000	279,139	-0,061	-0,079
-367,985	65,976	-0,093	-0,069
-366,971	53,835	0,088	0,061
-365,956	-88,285	0,078	0,017
-364,942	-9,295	0,049	-0,023
-363,927	7,805	-0,091	0,050
-362,912	189,746	0,038	-0,041
-361,898	-43,753	-0,062	-0,022
-360,883	619,993	0,051	-0,093
-359,869	53,841	-0,119	-0,083
-358,854	2,868	0,199	-0,104
-357,839	800,000	0,016	0,044
-356,825	-40,946	0,018	-0,007
-355,810	67,885	0,107	0,079
-354,796	-31,306	-0,168	-0,068
-353,781	-15,206	0,041	-0,019
-352,766	194,361	-0,013	0,014
-351,752	-11,157	0,094	-0,045
-350,737	590,570	0,013	0,023
-349,723	800,000	0,044	0,091
-348,708	369,776	0,091	-0,134
-347,693	448,402	0,019	-0,031
-346,679	800,000	-0,030	0,084
-345,664	403,879	0,030	0,046
-344,650	133,055	-0,038	-0,036
-343,635	-57,913	-0,134	-0,042
-342,620	-200,000	0,016	0,084
-341,606	-200,000	0,003	-0,059
-340,591	-200,000	-0,030	-0,104
-339,577	230,091	-0,072	-0,085
-338,562	-200,000	0,014	-0,089
-337,548	-170,424	0,098	-0,002
-336,533	789,803	-0,038	0,076
-335,518	-200,000	0,009	0,065
-334,504	301,078	-0,037	0,049
-333,489	800,000	-0,010	0,032
-332,475	208,868	0,053	-0,060
-331,460	-174,199	-0,097	-0,002
-330,445	800,000	0,042	0,109
-329,431	151,315	0,036	0,035
-328,416	-200,000	-0,012	0,076
-327,402	-32,020	0,119	0,048
-326,387	800,000	0,039	-0,092
-325,372	286,160	-0,036	0,047
-324,358	426,274	-0,014	0,021
-323,343	-200,000	0,032	0,139
-322,329	-174,563	-0,071	-0,001
-321,314	-32,021	0,054	0,022
-320,299	5,260	-0,026	0,014
-319,285	-36,537	-0,111	-0,043
-318,270	-200,000	0,039	-0,136
-317,256	-200,000	-0,007	-0,104
-316,241	-200,000	0,015	-0,121
-315,226	79,592	0,051	0,040
-314,212	800,000	0,075	0,165
-313,197	39,213	0,110	0,071
-312,183	182,628	0,079	0,084
-311,168	351,635	-0,029	0,042
-310,153	-200,000	0,026	-0,118
-309,139	99,402	-0,054	-0,045
-308,124	67,927	0,055	0,041
-307,110	506,183	0,025	-0,043
-306,095	180,192	0,025	-0,027
-305,080	12,003	0,058	0,032
-304,066	-17,048	-0,047	-0,021
-303,051	-161,347	0,089	-0,003
-302,037	110,015	-0,146	-0,127
-301,022	216,686	0,104	-0,120
-300,008	338,972	0,107	0,151
-298,993	800,000	-0,005	0,013
-297,978	254,082	-0,096	0,119
-296,964	153,525	-0,041	-0,041
-295,949	-200,000	-0,001	-0,072
-294,935	16,238	0,094	0,054
-293,920	-200,000	-0,001	-0,025
-292,905	-37,100	-0,055	-0,021
-291,891	-144,890	0,120	-0,008
-290,876	-200,000	0,011	-0,052
-289,862	-200,000	0,018	-0,135
-288,847	22,090	-0,096	-0,057
-287,832	-124,678	-0,134	-0,015
-286,818	217,530	0,046	0,053
-285,803	389,008	0,056	-0,085
-284,789	800,000	0,035	0,077
-283,774	-150,261	0,088	0,005
-282,759	-14,422	-0,052	-0,024
-281,745	169,546	0,093	-0,096
-280,730	-200,000	-0,014	0,086
-279,716	-9,239	-0,063	0,030
-278,701	-162,726	0,172	0,006
-277,686	-200,000	0,032	0,141
-276,672	5,254	-0,120	-0,064
-275,657	-88,941	-0,125	0,027
-274,643	146,594	-0,070	-0,069
-273,628	-43,541	-0,037	-0,013
-272,613	-170,428	-0,116	0,003
-271,599	70,477	-0,064	0,048
-270,584	58,034	0,149	0,106
-269,570	-200,000	0,002	0,200
-268,555	291,872	-0,049	-0,065
-267,540	-200,000	-0,002	0,043
-266,526	-94,756	-0,091	-0,018
-265,511	800,000	0,026	-0,053
-264,497	536,046	0,044	-0,075
-263,482	-200,000	-0,041	0,163
-262,467	-200,000	0,015	-0,115
-261,453	-200,000	-0,003	-0,027
-260,438	49,645	-0,042	-0,029
-259,424	-40,260	0,083	0,031
-258,409	54,080	-0,135	0,093
-257,395	-200,000	0,000	0,044
-256,380	-9,496	0,225	-0,108
-255,365	226,646	-0,053	-0,062
-254,351	-87,611	-0,147	-0,032
-253,336	-157,970	-0,120	0,005
-252,322	-78,458	0,100	-0,024
-251,307	-200,000	0,010	-0,062
-250,292	-200,000	0,004	0,031
-249,278	76,233	0,041	0,031
-248,263	-65,509	0,097	0,028
-247,249	-200,000	-0,006	-0,090
-246,234	-79,175	0,051	0,012
-245,219	-193,487	0,101	0,001
-244,205	-53,483	-0,063	-0,021
-243,190	-28,028	-0,150	-0,063
-242,176	-15,757	0,069	0,032
-241,161	34,438	0,020	0,013
-240,146	-115,539	0,058	0,008
-239,132	-200,000	-0,005	0,151
-238,117	294,024	-0,080	-0,106
-237,103	800,000	-0,057	0,127
-236,088	-96,824	0,143	0,027
-235,073	290,181	0,108	-0,142
-234,059	84,049	-0,060	-0,047
-233,044	-200,000	-0,004	0,054
-232,030	-115,204	0,138	0,019
-231,015	1,270	-0,170	-0,088
-230,000	800,000	-0,035	-0,092
-228,986	9,126	-0,077	-0,042
-227,971	-200,000	0,024	0,093
-226,957	142,574	0,120	0,115
-225,942	421,669	-0,041	0,063
-224,927	43,290	-0,069	-0,046
-223,913	-200,000	0,009	-0,077
-222,898	110,606	-0,061	-0,053
-221,884	-200,000	-0,034	-0,121
-220,869	-200,000	0,023	0,142
-219,855	334,566	0,100	-0,140
-218,840	162,846	0,106	0,107
-217,825	-200,000	-0,003	0,061
-216,811	144,830	0,025	0,024
-215,796	-92,084	-0,121	0,025
-214,782	85,716	-0,060	0,047
-213,767	560,841	-0,023	0,040
-212,752	800,000	-0,030	-0,081
-211,738	-14,809	0,050	-0,023
-210,723	-5,045	-0,056	0,028
-209,709	30,149	0,052	-0,032
-208,694	-51,369	-0,088	-0,030
-207,679	278,535	0,085	0,110
-206,665	800,000	-0,019	-0,051
-205,650	49,141	0,008	0,005
-204,636	-200,000	-0,026	0,134
-203,621	720,620	0,041	0,080
-202,606	-200,000	-0,008	-0,111
-201,592	-67,565	-0,036	0,010
-200,577	-105,522	-0,173	-0,028
-199,563	200,223	0,035	0,039
-198,548	9,101	0,174	0,095
-197,533	85,541	0,051	-0,040
-196,519	673,615	0,032	-0,060
-195,504	-4,885	0,077	-0,038
-194,490	-136,195	0,077	0,006
-193,475	-125,750	0,113	0,012
-192,460	800,000	0,045	0,107
-191,446	-120,431	-0,037	-0,004
-190,431	21,072	-0,065	0,038
-189,417	800,000	-0,037	0,093
-188,402	-200,000	0,001	0,130
-187,387	-150,516	-0,096	-0,005
-186,373	204,729	0,059	0,066
-185,358	-200,000	0,036	0,186
-184,344	647,083	0,019	0,035
-183,329	-200,000	-0,006	0,106
-182,315	800,000	0,036	-0,103
-181,300	-200,000	-0,028	-0,098
-180,285	144,275	-0,018	-0,017
-179,271	800,000	0,032	-0,078
-178,256	-200,000	0,011	0,112
-177,242	800,000	0,025	-0,063
-176,227	-3,736	0,047	-0,024
-175,212	104,195	0,154	0,130
-174,198	-200,000	0,005	0,032
-173,183	100,228	-0,099	-0,082
-172,169	-88,661	-0,067	0,014
-171,154	-64,275	-0,108	0,031
-170,139	-92,792	-0,102	-0,020
-169,125	-41,630	0,135	0,050
-168,110	284,976	-0,034	-0,044
-167,096	533,723	-0,044	0,076
-166,081	800,000	0,032	-0,102
-165,066	64,413	0,011	-0,008
-164,052	-31,374	-0,096	-0,039
-163,037	153,704	0,133	0,131
-162,023	-84,827	0,120	0,027
-161,008	91,830	0,089	0,072
-159,993	800,000	0,059	0,135
-158,979	758,289	-0,060	-0,118
-157,964	179,406	0,095	-0,100
-156,950	296,060	-0,031	-0,042
-155,935	98,001	-0,030	0,025
-154,920	510,306	0,048	0,080
-153,906	-200,000	0,023	0,110
-152,891	-200,000	-0,005	-0,109
-151,877	800,000	-0,027	-0,071
-150,862	564,446	-0,065	-0,113
-149,847	-102,949	0,011	0,002
-148,833	800,000	-0,019	0,040
-147,818	313,772	0,023	0,032
-146,804	-200,000	-0,007	-0,043
-145,789	-200,000	-0,006	0,143
-144,775	-200,000	0,004	-0,024
-143,760	-200,000	-0,021	-0,136
-142,745	800,000	-0,034	0,069
-141,731	-200,000	0,016	0,142
-140,716	46,562	0,044	-0,029
-139,702	360,228	0,059	0,085
-138,687	382,684	-0,039	-0,057
-137,672	317,111	0,079	0,107
-136,658	270,003	-0,050	0,063
-135,643	7,738	-0,088	-0,048
-134,629	-47,614	0,174	0,061
-133,614	-200,000	0,007	0,058
-132,599	613,187	0,027	0,049
-131,585	-59,490	-0,113	0,035
-130,570	193,693	-0,019	0,021
-129,556	-200,000	0,004	-0,017
-128,541	371,676	-0,022	-0,032
-127,526	-145,243	0,118	-0,008
-126,512	-39,609	-0,075	0,028
-125,497	-200,000	0,022	0,202
-124,483	315,666	0,145	0,197
-123,468	-200,000	-0,004	0,034
-122,453	800,000	-0,026	0,071
-121,439	103,411	-0,069	0,058
-120,424	-200,000	0,002	0,022
