DTS Sentinel unit serial number:	SN410029Multiplexer serial number:	ORYXHardware model number:	OX2-SRSoftware version number:	ORYX F/W v4,00 Oryx Data Collector v3.7.2.0data status	okinstallation	B6 Nyhavnadifferential loss correction	single-endedforward channel	channel 2reverse channel	N/Adate	2023/12/11time	01:10:08forward acquisition time	300,00reverse acquisition time	0,00gamma	499,1914k internal	0,3122k external	0,3122temperature offset calibration	1,0000default loss term (dB/km)	0,3820temperature slope calibration	1,0000multiplexer offset coefficient	1,0000multiplexer slope coefficient	1,0000fibre end	0,00T internal ref (°C)	22,18T ext. ref 1 (°C)	5,50T ext. ref 2 (°C)	5,53length (m)	temperature (°C)	Stokes	anti-Stokes-744,400	-200,000	-0,011	-0,141
-743,385	109,249	-0,200	0,178
-742,371	145,305	0,045	-0,045
-741,356	11,236	-0,220	0,125
-740,342	234,155	0,070	0,086
-739,327	-2,036	-0,227	0,118
-738,312	-72,849	-0,019	-0,005
-737,298	75,769	-0,190	0,150
-736,283	159,214	0,096	-0,100
-735,269	-200,000	-0,164	0,000
-734,254	14,250	-0,122	-0,071
-733,239	-49,483	-0,394	-0,139
-732,225	-12,672	0,158	0,077
-731,210	-200,000	-0,004	-0,029
-730,196	-200,000	-0,015	0,093
-729,181	-200,000	-0,013	0,145
-728,167	-200,000	-0,018	-0,121
-727,152	-200,000	0,036	-0,133
-726,137	-200,000	0,009	-0,091
-725,123	-21,800	-0,021	-0,010
-724,108	-200,000	0,005	-0,042
-723,094	209,113	-0,102	-0,119
-722,079	253,225	-0,075	-0,095
-721,064	142,538	0,066	0,065
-720,050	239,139	0,082	-0,101
-719,035	-121,474	-0,078	-0,010
-718,021	34,566	0,052	0,033
-717,006	82,841	-0,108	-0,087
-715,991	32,428	-0,078	-0,050
-714,977	800,000	-0,025	-0,059
-713,962	-102,862	-0,172	0,030
-712,948	-12,911	0,019	0,009
-711,933	-200,000	-0,013	0,091
-710,918	13,618	-0,082	-0,048
-709,904	447,531	-0,013	-0,022
-708,889	-200,000	0,026	-0,120
-707,875	136,549	-0,127	-0,124
-706,860	53,418	0,067	-0,048
-705,845	-47,783	-0,102	-0,036
-704,831	258,516	0,068	-0,088
-703,816	-200,000	-0,022	0,135
-702,802	-200,000	0,002	-0,046
-701,787	-28,534	0,054	-0,023
-700,772	182,874	-0,097	0,107
-699,758	95,844	-0,048	-0,041
-698,743	800,000	-0,035	-0,085
-697,729	-27,218	-0,042	-0,018
-696,714	800,000	0,013	0,037
-695,699	372,749	-0,047	-0,071
-694,685	49,824	-0,090	0,063
-693,670	440,681	-0,054	-0,088
-692,656	-73,468	0,080	0,022
-691,641	-71,482	-0,168	-0,047
-690,627	-200,000	0,030	0,153
-689,612	-82,856	-0,063	-0,015
-688,597	427,355	-0,020	0,032
-687,583	-33,377	-0,041	-0,017
-686,568	146,381	0,033	0,033
-685,554	-200,000	0,004	-0,109
-684,539	-84,574	0,194	-0,045
-683,524	303,587	0,088	0,121
-682,510	800,000	-0,041	-0,086
-681,495	110,443	-0,070	-0,063
-680,481	428,012	-0,091	-0,146
-679,466	-200,000	0,000	-0,110
-678,451	-139,947	-0,050	-0,004
-677,437	4,238	-0,068	-0,037
-676,422	800,000	0,067	0,145
-675,408	189,933	0,068	-0,075
-674,393	451,950	0,033	0,055
-673,378	800,000	-0,019	0,049
-672,364	23,567	-0,073	0,044
-671,349	-83,627	-0,117	-0,028
-670,335	83,875	-0,137	-0,111
-669,320	158,286	-0,039	0,040
-668,305	-25,575	0,066	0,029
-667,291	222,914	-0,026	-0,031
-666,276	-9,455	-0,009	-0,004
-665,262	79,187	-0,096	-0,076
-664,247	-87,377	0,056	0,013
-663,232	105,448	0,044	-0,039
-662,218	333,579	0,067	-0,097
-661,203	54,036	-0,089	0,063
-660,189	44,849	-0,027	0,019
-659,174	182,158	-0,072	0,079
-658,159	105,689	-0,043	-0,038
-657,145	243,426	0,048	-0,059
-656,130	-109,695	0,085	-0,013
-655,116	249,561	-0,091	0,114
-654,101	305,987	0,055	-0,076
-653,086	-49,675	0,113	0,040
-652,072	-57,713	-0,079	0,025
-651,057	652,225	-0,041	-0,079
-650,043	-119,436	-0,194	0,025
-649,028	80,401	0,042	-0,034
-648,014	-151,868	-0,119	0,006
-646,999	-32,870	-0,069	0,028
-645,984	446,863	0,016	-0,026
-644,970	552,063	0,046	-0,082
-643,955	-74,861	0,098	-0,026
-642,941	800,000	-0,045	-0,125
-641,926	312,505	-0,028	0,039
-640,911	39,993	-0,078	-0,052
-639,897	722,951	0,059	-0,118
-638,882	800,000	-0,036	-0,104
-637,868	336,122	-0,062	0,089
-636,853	-142,972	-0,096	0,007
-635,838	115,537	-0,127	-0,116
-634,824	252,374	-0,058	-0,073
-633,809	-200,000	-0,037	-0,154
-632,795	-63,179	0,058	0,018
-631,780	-117,285	0,016	0,002
-630,765	160,295	-0,061	0,063
-629,751	-42,820	-0,016	-0,006
-628,736	-184,764	-0,020	0,000
-627,722	-200,000	0,032	-0,150
-626,707	-55,847	-0,074	-0,024
-625,692	800,000	-0,026	0,086
-624,678	800,000	0,061	0,130
-623,663	-43,993	-0,081	-0,030
-622,649	308,402	0,115	-0,160
-621,634	257,360	-0,119	0,152
-620,619	-188,737	-0,087	0,001
-619,605	79,445	0,045	-0,036
-618,590	800,000	-0,041	0,095
-617,576	312,196	-0,043	0,060
-616,561	229,429	0,019	0,023
-615,546	-200,000	-0,001	-0,080
-614,532	-200,000	0,001	-0,129
-613,517	38,960	0,076	0,050
-612,503	122,122	0,095	0,088
-611,488	72,769	0,033	-0,025
-610,474	318,343	0,133	0,187
-609,459	33,209	0,150	-0,096
-608,444	-200,000	0,020	-0,126
-607,430	800,000	-0,011	-0,033
-606,415	-200,000	-0,027	-0,182
-605,401	41,016	-0,043	-0,029
-604,386	-200,000	-0,044	-0,146
-603,371	227,393	-0,037	-0,045
-602,357	636,794	0,046	0,086
-601,342	-132,033	-0,066	-0,006
-600,328	800,000	0,089	-0,269
-599,313	800,000	-0,054	-0,143
-598,298	-87,130	0,148	0,033
-597,284	1,714	0,078	0,041
-596,269	-51,421	0,094	-0,032
-595,255	-200,000	0,026	0,124
-594,240	21,318	-0,119	-0,072
-593,225	-170,125	-0,075	-0,002
-592,211	467,362	0,039	-0,066
-591,196	-128,666	-0,023	0,002
-590,182	130,526	-0,064	0,061
-589,167	-200,000	-0,010	0,044
-588,152	800,000	0,028	-0,080
-587,138	800,000	-0,049	0,110
-586,123	-48,130	-0,100	-0,036
-585,109	-36,458	-0,148	-0,059
-584,094	-49,265	0,052	0,018
-583,079	-132,510	-0,054	0,005
-582,065	693,683	0,027	0,052
-581,050	199,317	0,077	0,087
-580,036	-82,066	0,161	-0,039
-579,021	-200,000	0,025	-0,118
-578,006	170,011	-0,087	0,092
-576,992	-21,360	0,007	-0,003
-575,977	-182,667	0,090	-0,001
-574,963	-200,000	0,002	0,016
-573,948	175,274	-0,060	0,065
-572,934	800,000	-0,026	-0,062
-571,919	-200,000	-0,009	-0,049
-570,904	-95,598	0,090	-0,018
-569,890	8,570	0,078	0,043
-568,875	93,158	-0,135	0,113
-567,861	-200,000	0,006	0,083
-566,846	5,274	0,098	-0,054
-565,831	-200,000	0,013	-0,152
-564,817	86,468	-0,064	0,053
-563,802	-41,757	-0,081	-0,031
-562,788	-200,000	0,015	-0,139
-561,773	-120,383	0,036	-0,005
-560,758	213,281	0,141	0,165
-559,744	-59,254	-0,077	0,024
-558,729	42,746	-0,057	-0,038
-557,715	800,000	-0,027	-0,059
-556,700	37,684	0,159	0,105
-555,685	-114,423	-0,113	-0,016
-554,671	-183,592	0,192	0,002
-553,656	1,431	0,132	0,070
-552,642	159,199	0,046	0,048
-551,627	245,720	0,101	0,126
-550,612	-200,000	-0,030	-0,103
-549,598	-200,000	0,041	-0,194
-548,583	123,532	-0,151	-0,140
-547,569	-200,000	0,008	0,111
-546,554	-134,574	-0,198	-0,018
-545,539	-6,543	0,109	0,055
-544,525	-81,257	-0,115	0,028
-543,510	291,620	-0,108	-0,146
-542,496	-131,320	0,096	0,009
-541,481	-20,966	-0,101	0,046
-540,466	-200,000	-0,041	-0,171
-539,452	-200,000	-0,018	-0,093
-538,437	396,755	0,037	-0,057
-537,423	-200,000	0,013	-0,095
-536,408	-200,000	0,001	-0,040
-535,393	800,000	0,059	-0,170
-534,379	-50,643	-0,107	-0,037
-533,364	123,664	0,061	-0,057
-532,350	44,300	0,097	0,066
-531,335	217,187	-0,012	-0,014
-530,321	329,670	0,064	-0,092
-529,306	-200,000	-0,007	0,043
-528,291	-200,000	0,003	-0,024
-527,277	416,081	-0,079	-0,124
-526,262	-200,000	0,005	-0,030
-525,248	-130,222	0,086	0,009
-524,233	225,280	0,045	-0,055
-523,218	-200,000	-0,005	0,205
-522,204	800,000	0,047	0,106
-521,189	-141,896	-0,148	-0,011
-520,175	800,000	0,070	-0,201
-519,160	112,283	-0,028	-0,025
-518,145	-44,712	0,045	-0,016
-517,131	-200,000	-0,029	0,118
-516,116	-124,413	-0,144	0,016
-515,102	800,000	-0,018	0,042
-514,087	64,472	0,055	0,041
-513,072	-200,000	-0,003	0,015
-512,058	139,792	0,088	0,086
-511,043	317,525	0,038	-0,053
-510,029	800,000	0,027	0,070
-509,014	800,000	0,022	0,069
-507,999	-111,949	0,164	0,024
-506,985	-82,033	-0,156	-0,037
-505,970	151,340	-0,069	0,070
-504,956	-124,395	-0,047	-0,005
-503,941	653,941	-0,032	-0,061
-502,926	326,854	0,069	0,098
-501,912	-16,231	-0,031	-0,015
-500,897	208,130	0,075	0,087
-499,883	-200,000	-0,009	0,096
-498,868	112,935	-0,086	0,077
-497,853	-115,067	0,026	-0,004
-496,839	112,884	0,065	0,058
-495,824	-200,000	-0,023	0,178
-494,810	-61,300	0,098	0,030
-493,795	800,000	0,036	0,089
-492,781	-200,000	0,011	-0,112
-491,766	34,125	-0,132	-0,085
-490,751	544,596	-0,071	0,126
-489,737	-145,565	0,134	0,009
-488,722	427,202	-0,064	-0,103
-487,708	17,401	0,066	0,039
-486,693	-133,234	-0,087	0,008
-485,678	800,000	-0,101	0,278
-484,664	32,842	-0,101	0,064
-483,649	483,827	0,020	-0,033
-482,635	26,918	-0,080	-0,049
-481,620	800,000	0,055	0,145
-480,605	42,343	0,110	0,074
-479,591	-200,000	0,002	0,109
-478,576	304,934	0,046	0,063
-477,562	21,273	0,090	-0,054
-476,547	800,000	0,029	0,061
-475,532	137,177	0,022	0,021
-474,518	-69,205	0,065	-0,018
-473,503	319,570	0,063	0,089
-472,489	566,221	-0,022	0,039
-471,474	-185,083	-0,067	0,001
-470,459	-101,232	0,103	0,018
-469,445	109,209	0,014	0,012
-468,430	-137,972	0,119	0,010
-467,416	-26,200	-0,108	-0,047
-466,401	2,095	0,059	0,031
-465,386	12,546	0,037	0,021
-464,372	81,521	0,093	-0,074
-463,357	-22,902	-0,005	-0,002
-462,343	162,843	-0,105	0,109
-461,328	800,000	-0,048	0,112
-460,313	-76,277	0,075	0,019
-459,299	338,614	0,058	-0,083
-458,284	90,761	0,077	0,064
-457,270	-200,000	0,020	0,108
-456,255	68,607	0,059	-0,045
-455,241	71,261	-0,050	-0,038
-454,226	-50,997	-0,074	-0,025
-453,211	-156,732	0,092	0,004
-452,197	-184,964	-0,106	0,001
-451,182	-171,900	-0,110	0,003
-450,168	15,437	0,087	-0,050
-449,153	-79,832	-0,089	0,022
-448,138	257,918	-0,045	0,057
-447,124	-14,973	-0,037	-0,017
-446,109	-135,506	-0,106	-0,009
-445,095	-200,000	0,021	0,078
-444,080	107,488	0,073	0,064
-443,065	-200,000	-0,018	-0,112
-442,051	109,204	0,045	-0,040
-441,036	-70,669	0,056	-0,015
-440,022	407,190	-0,035	-0,054
-439,007	-23,244	-0,117	0,052
-437,992	-130,645	-0,098	0,010
-436,978	800,000	-0,006	0,020
-435,963	-11,835	-0,102	-0,049
-434,949	-92,322	-0,053	0,011
-433,934	173,456	0,069	0,073
-432,919	276,963	0,090	-0,118
-431,905	-200,000	0,009	-0,040
-430,890	800,000	-0,047	-0,113
-429,876	142,304	0,081	0,079
-428,861	-200,000	-0,033	0,180
-427,846	106,562	-0,024	-0,021
-426,832	89,620	-0,080	0,066
-425,817	-17,472	-0,202	-0,093
-424,803	351,458	-0,040	0,058
-423,788	46,570	-0,023	0,016
-422,773	800,000	-0,046	0,143
-421,759	-31,373	0,136	-0,056
-420,744	351,760	0,063	-0,092
-419,730	800,000	-0,033	-0,081
-418,715	-173,391	-0,104	0,002
-417,701	-200,000	-0,015	-0,061
-416,686	95,448	-0,089	0,075
-415,671	800,000	-0,006	0,015
-414,657	133,791	-0,046	0,044
-413,642	693,955	0,023	0,044
-412,628	-31,948	-0,026	0,011
-411,613	-64,123	-0,064	-0,019
-410,598	-91,887	-0,078	0,016
-409,584	800,000	-0,021	-0,047
-408,569	-122,157	0,028	-0,003
-407,555	-200,000	0,021	-0,094
-406,540	50,886	-0,093	-0,065
-405,525	-154,964	-0,068	0,003
-404,511	-200,000	0,005	-0,101
-403,496	-46,329	-0,101	-0,036
-402,482	41,121	0,062	-0,041
-401,467	-29,048	0,037	0,015
-400,452	800,000	-0,047	-0,121
-399,438	-43,593	-0,165	-0,061
-398,423	-51,574	0,093	0,032
-397,409	82,005	-0,036	-0,029
-396,394	216,190	0,084	-0,099
-395,379	96,171	-0,063	0,053
-394,365	250,454	-0,052	-0,065
-393,350	208,853	0,106	0,122
-392,336	-82,557	0,152	-0,036
-391,321	-200,000	-0,004	-0,013
-390,306	-200,000	0,000	-0,146
-389,292	161,087	0,070	-0,072
-388,277	-5,580	0,099	0,050
-387,263	-200,000	-0,012	-0,045
-386,248	195,261	0,077	0,086
-385,233	-200,000	0,024	0,097
-384,219	158,504	-0,076	-0,078
-383,204	-89,642	0,031	0,007
-382,190	566,291	0,087	-0,155
-381,175	800,000	-0,038	0,079
-380,160	213,546	0,039	0,045
-379,146	169,822	0,020	0,021
-378,131	-200,000	-0,014	0,085
-377,117	-118,213	-0,101	0,013
-376,102	800,000	0,033	0,091
-375,088	-74,527	0,029	0,008
-374,073	161,867	-0,051	0,052
-373,058	62,867	0,066	-0,049
-372,044	800,000	-0,057	0,153
-371,029	652,612	0,058	0,110
-370,015	67,340	0,145	0,109
-369,000	-200,000	-0,007	0,041
-367,985	-102,233	-0,143	-0,025
-366,971	42,211	-0,091	0,061
-365,956	39,434	0,053	-0,035
-364,942	149,834	-0,022	-0,022
-363,927	397,370	-0,034	0,052
-362,912	-200,000	0,033	0,131
-361,898	-200,000	-0,009	-0,068
-360,883	-16,125	-0,104	0,048
-359,869	-112,970	0,084	-0,012
-358,854	80,584	0,148	-0,117
-357,839	789,792	0,042	-0,084
-356,825	627,779	0,039	0,072
-355,810	800,000	-0,021	0,050
-354,796	335,288	-0,073	-0,104
-353,781	-200,000	-0,001	-0,067
-352,766	-109,797	0,159	0,024
-351,752	-200,000	0,024	0,106
-350,737	-108,676	0,143	-0,022
-349,723	46,083	-0,048	0,033
-348,708	15,494	-0,076	-0,044
-347,693	-0,217	-0,116	0,060
-346,679	451,823	-0,103	-0,167
-345,664	800,000	-0,014	-0,037
-344,650	509,682	0,086	0,147
-343,635	197,319	-0,081	0,091
-342,620	54,119	0,044	-0,031
-341,606	-28,158	-0,065	0,027
-340,591	-143,773	-0,058	-0,004
-339,577	-37,161	-0,155	-0,061
-338,562	-84,511	0,111	-0,025
-337,548	4,551	0,057	-0,030
-336,533	397,447	0,088	0,135
-335,518	209,270	-0,040	0,046
-334,504	-200,000	-0,028	0,131
-333,489	237,412	0,116	0,141
-332,475	-60,632	0,106	-0,033
-331,460	-200,000	0,013	-0,074
-330,445	175,805	-0,116	-0,123
-329,431	-200,000	0,012	0,105
-328,416	-200,000	0,094	0,000
-327,402	156,210	-0,043	-0,044
-326,387	239,250	0,042	0,052
-325,372	800,000	0,059	0,168
-324,358	112,470	-0,072	0,063
-323,343	146,108	0,064	0,063
-322,329	209,556	0,057	0,066
-321,314	7,206	-0,070	0,038
-320,299	-200,000	-0,015	0,079
-319,285	237,529	0,053	-0,064
-318,270	-156,371	-0,060	-0,003
-317,256	800,000	-0,016	0,045
-316,241	694,603	0,046	0,090
-315,226	52,775	0,106	-0,074
-314,212	800,000	-0,023	-0,063
-313,197	419,775	-0,062	0,098
-312,183	44,764	-0,056	-0,038
-311,168	201,374	-0,051	-0,057
-310,153	130,204	0,068	-0,064
-309,139	-200,000	-0,024	0,081
-308,124	-200,000	0,003	-0,062
-307,110	0,790	-0,084	-0,044
-306,095	20,967	0,079	0,047
-305,080	125,117	0,073	0,067
-304,066	92,494	-0,037	-0,031
-303,051	-92,673	-0,097	0,020
-302,037	229,633	-0,045	0,054
-301,022	780,405	0,027	0,055
-300,008	139,618	-0,027	-0,026
-298,993	-32,885	0,182	0,074
-297,978	373,712	-0,068	0,102
-296,964	-26,318	-0,150	-0,064
-295,949	-70,499	-0,110	-0,030
-294,935	-200,000	0,045	-0,186
-293,920	-21,880	-0,006	0,003
-292,905	-200,000	-0,011	0,040
-291,891	436,187	0,049	0,078
-290,876	715,948	0,014	-0,028
-289,862	32,782	-0,117	0,074
-288,847	800,000	-0,036	-0,078
-287,832	135,447	0,082	-0,078
-286,818	-200,000	-0,013	-0,049
-285,803	800,000	-0,020	0,056
-284,789	-95,647	-0,169	-0,033
-283,774	-74,069	0,152	0,040
-282,759	71,213	0,044	-0,034
-281,745	-79,523	-0,067	0,016
-280,730	800,000	-0,076	-0,187
-279,716	-51,469	0,068	0,023
-278,701	-200,000	0,023	0,078
-277,686	-200,000	-0,000	-0,142
-276,672	800,000	0,033	0,095
-275,657	-73,308	-0,162	0,043
-274,643	117,456	-0,055	0,050
-273,628	345,867	0,025	-0,036
-272,613	-200,000	0,032	-0,109
-271,599	-200,000	-0,003	0,059
-270,584	-200,000	-0,002	0,022
-269,570	-200,000	0,019	0,089
-268,555	89,726	-0,101	0,082
-267,540	106,503	-0,166	-0,144
-266,526	-120,363	0,045	0,006
-265,511	800,000	-0,031	0,097
-264,497	441,352	-0,032	-0,051
-263,482	-200,000	-0,016	0,058
-262,467	26,335	0,088	0,054
-261,453	130,933	0,061	0,057
-260,438	35,512	-0,131	-0,084
-259,424	800,000	-0,032	-0,082
-258,409	-200,000	-0,038	-0,131
-257,395	-200,000	0,000	0,055
-256,380	16,897	0,095	0,055
-255,365	201,170	0,075	0,085
-254,351	25,090	-0,035	0,021
-253,336	301,866	0,051	0,069
-252,322	-200,000	-0,006	0,024
-251,307	-58,259	-0,066	-0,021
-250,292	-200,000	0,003	-0,089
-249,278	-39,080	0,187	-0,072
-248,263	217,289	0,049	-0,057
-247,249	800,000	-0,015	-0,048
-246,234	163,364	-0,064	0,066
-245,219	-0,940	-0,082	-0,042
-244,205	-200,000	0,010	-0,113
-243,190	-53,879	-0,060	0,020
-242,176	-93,258	0,163	0,033
-241,161	2,963	-0,069	0,037
-240,146	81,614	0,096	0,076
-239,132	14,604	-0,058	-0,033
-238,117	-200,000	-0,018	-0,072
-237,103	112,743	0,125	-0,111
-236,088	151,963	0,051	-0,051
-235,073	-5,608	0,076	-0,038
-234,059	-200,000	0,012	-0,075
-233,044	800,000	0,043	-0,109
-232,030	800,000	-0,034	0,107
-231,015	-69,620	0,097	0,027
-230,000	-200,000	-0,001	0,036
-228,986	800,000	0,013	-0,039
-227,971	-106,064	0,144	0,023
-226,957	-150,666	0,140	0,008
-225,942	800,000	-0,028	-0,073
-224,927	-200,000	0,004	0,052
-223,913	174,446	0,114	0,120
-222,898	-200,000	-0,015	-0,062
-221,884	-41,267	-0,036	-0,013
-220,869	-11,581	0,049	-0,024
-219,855	8,003	0,013	0,007
-218,840	68,936	0,080	0,060
-217,825	-50,494	-0,066	0,023
-216,811	-200,000	-0,016	-0,071
-215,796	-15,949	-0,101	0,047
-214,782	-200,000	-0,019	0,145
-213,767	86,229	0,013	0,011
-212,752	-200,000	-0,003	0,036
-211,738	-101,887	0,123	-0,021
-210,723	88,415	-0,123	-0,100
-209,709	157,253	-0,060	-0,061
-208,694	287,606	0,152	-0,201
-207,679	180,420	0,076	0,081
-206,665	-200,000	0,011	-0,046
-205,650	-28,001	0,062	0,026
-204,636	137,301	0,044	0,042
-203,621	576,096	-0,009	-0,016
-202,606	-118,511	-0,023	-0,003
-201,592	-200,000	-0,007	-0,089
-200,577	185,641	-0,041	-0,044
-199,563	32,754	0,091	0,058
-198,548	-60,214	0,118	0,036
-197,533	-56,964	-0,077	-0,025
-196,519	211,921	0,046	0,053
-195,504	152,093	0,063	0,063
-194,490	-111,014	-0,100	0,015
-193,475	-134,273	-0,028	0,002
-192,460	-200,000	-0,031	0,113
-191,446	-200,000	0,017	0,061
-190,431	255,345	-0,106	0,133
-189,417	-200,000	-0,005	0,067
-188,402	-200,000	-0,041	0,145
-187,387	108,225	-0,060	-0,052
-186,373	8,612	-0,048	-0,026
-185,358	-200,000	0,001	-0,061
-184,344	800,000	0,064	-0,143
-183,329	54,913	0,096	-0,067
-182,315	-19,528	-0,043	-0,019
-181,300	101,669	0,106	-0,090
-180,285	111,048	-0,043	0,038
-179,271	800,000	-0,079	-0,177
-178,256	-200,000	0,026	-0,096
-177,242	-200,000	0,011	-0,114
-176,227	30,332	0,070	0,044
-175,212	387,778	0,110	0,166
-174,198	-200,000	-0,014	0,108
-173,183	-200,000	-0,028	-0,096
-172,169	-200,000	-0,035	-0,128
-171,154	171,191	-0,164	-0,171
-170,139	65,771	0,022	-0,016
-169,125	-159,744	-0,077	0,003
-168,110	-132,306	0,073	0,007
-167,096	-14,848	0,048	-0,022
-166,081	-200,000	-0,002	-0,065
-165,066	336,187	-0,031	0,044
-164,052	-38,583	-0,105	0,040
-163,037	-178,546	0,046	0,001
-162,023	-200,000	-0,023	0,119
-161,008	152,617	0,126	0,125
-159,993	-115,496	-0,146	0,020
-158,979	419,100	0,047	-0,074
-157,964	-131,129	-0,143	0,014
-156,950	-107,021	0,102	0,016
-155,935	800,000	-0,026	-0,067
-154,920	31,047	0,099	-0,062
-153,906	-200,000	0,024	0,145
-152,891	-69,479	-0,092	0,025
-151,877	130,024	0,057	-0,053
-150,862	134,739	0,107	-0,101
-149,847	-200,000	0,022	-0,086
-148,833	-69,741	0,039	0,011
-147,818	365,440	0,033	0,049
-146,804	-163,836	-0,087	0,003
-145,789	140,578	-0,047	0,046
-144,775	575,189	-0,100	-0,178
-143,760	800,000	0,028	-0,072
-142,745	-10,380	0,038	-0,018
-141,731	77,179	0,093	-0,072
-140,716	138,270	-0,070	-0,067
-139,702	-200,000	0,005	0,077
-138,687	-9,656	0,129	0,062
-137,672	369,867	-0,049	0,072
-136,658	-200,000	-0,014	-0,101
-135,643	-84,708	0,168	-0,038
-134,629	-35,306	0,027	-0,011
-133,614	800,000	0,065	0,164
-132,599	106,215	0,030	-0,026
-131,585	-94,174	0,118	0,023
-130,570	-86,414	-0,030	-0,007
-129,556	-0,814	0,041	0,021
-128,541	800,000	-0,024	-0,067
-127,526	65,087	0,051	-0,037
-126,512	-118,866	-0,114	0,014
-125,497	800,000	0,065	0,138
-124,483	800,000	-0,013	0,037
-123,468	75,231	-0,096	0,073
-122,453	-128,661	0,056	0,006
-121,439	466,334	0,031	-0,051
-120,424	-200,000	-0,015	-0,095
-119,410	60,851	0,048	0,035
-118,395	-200,000	0,009	0,113
