DTS Sentinel unit serial number:	SN410029Multiplexer serial number:	ORYXHardware model number:	OX2-SRSoftware version number:	ORYX F/W v4,00 Oryx Data Collector v3.7.2.0data status	okinstallation	B6 Nyhavnadifferential loss correction	single-endedforward channel	channel 2reverse channel	N/Adate	2023/12/08time	08:40:08forward acquisition time	300,00reverse acquisition time	0,00gamma	499,1914k internal	0,3170k external	0,3170temperature offset calibration	1,0000default loss term (dB/km)	0,3820temperature slope calibration	1,0000multiplexer offset coefficient	1,0000multiplexer slope coefficient	1,0000fibre end	0,00T internal ref (°C)	12,12T ext. ref 1 (°C)	-2,33T ext. ref 2 (°C)	-2,28length (m)	temperature (°C)	Stokes	anti-Stokes-744,400	-12,435	0,165	0,079
-743,385	-44,237	-0,341	0,125
-742,371	-115,238	0,113	-0,015
-741,356	-121,381	-0,254	0,031
-740,342	800,000	0,061	0,131
-739,327	-51,006	-0,414	0,142
-738,312	-133,665	0,081	0,007
-737,298	-126,733	-0,452	-0,048
-736,283	291,732	0,088	-0,118
-735,269	-186,128	-0,165	-0,002
-734,254	539,063	0,047	-0,082
-733,239	-47,220	-0,540	-0,192
-732,225	-32,737	0,125	0,051
-731,210	-25,530	0,020	0,009
-730,196	42,889	-0,165	-0,110
-729,181	35,557	-0,029	-0,019
-728,167	-33,236	-0,122	0,049
-727,152	-150,732	0,061	-0,003
-726,137	-200,000	-0,031	0,115
-725,123	332,630	-0,074	0,105
-724,108	30,456	-0,125	-0,078
-723,094	-121,817	-0,088	-0,011
-722,079	-200,000	-0,004	-0,066
-721,064	-148,165	0,076	-0,005
-720,050	-84,847	0,023	0,005
-719,035	-64,564	0,059	-0,018
-718,021	-200,000	-0,015	-0,094
-717,006	-200,000	-0,014	-0,129
-715,991	-65,238	-0,123	0,036
-714,977	-140,166	-0,108	0,008
-713,962	154,381	0,046	-0,047
-712,948	-83,419	-0,024	-0,006
-711,933	-39,473	-0,200	-0,077
-710,918	800,000	-0,069	0,145
-709,904	-200,000	0,008	-0,115
-708,889	-22,856	0,100	0,044
-707,875	-0,374	0,066	0,034
-706,860	-8,115	-0,072	0,035
-705,845	205,151	0,170	0,193
-704,831	-200,000	0,038	0,124
-703,816	-46,029	0,022	-0,008
-702,802	33,818	-0,158	-0,101
-701,787	-67,732	-0,092	-0,026
-700,772	419,049	-0,092	-0,144
-699,758	800,000	0,013	-0,037
-698,743	-5,721	0,010	-0,005
-697,729	245,033	0,053	0,065
-696,714	800,000	-0,087	0,206
-695,699	27,091	-0,069	0,042
-694,685	95,293	-0,059	0,049
-693,670	28,902	0,045	0,028
-692,656	-24,163	-0,025	-0,011
-691,641	275,118	-0,060	0,078
-690,627	-67,458	-0,133	0,038
-689,612	21,591	0,086	-0,051
-688,597	-200,000	0,006	-0,123
-687,583	174,493	-0,150	-0,159
-686,568	-200,000	-0,039	0,133
-685,554	-126,182	-0,163	-0,018
-684,539	72,544	0,113	-0,086
-683,524	-122,221	0,060	0,007
-682,510	254,336	0,007	-0,009
-681,495	-46,136	-0,105	0,038
-680,481	-114,088	-0,171	-0,024
-679,466	-113,383	0,060	0,008
-678,451	800,000	-0,014	0,038
-677,437	-70,307	-0,112	0,031
-676,422	800,000	0,031	0,082
-675,408	-100,314	0,084	-0,015
-674,393	-107,297	-0,038	0,006
-673,378	-200,000	-0,020	-0,117
-672,364	464,988	-0,067	-0,110
-671,349	497,729	0,022	0,037
-670,335	-154,427	0,004	0,000
-669,320	-32,827	0,043	0,018
-668,305	15,171	0,093	0,053
-667,291	22,778	-0,210	0,126
-666,276	-57,735	-0,076	-0,024
-665,262	631,966	0,088	-0,164
-664,247	-14,598	0,061	-0,028
-663,232	183,079	-0,043	0,046
-662,218	436,289	0,097	0,156
-661,203	-200,000	0,005	-0,024
-660,189	296,843	0,037	-0,050
-659,174	800,000	0,033	-0,100
-658,159	24,650	0,033	0,020
-657,145	19,066	-0,170	-0,100
-656,130	-60,586	-0,028	0,009
-655,116	246,109	0,062	0,077
-654,101	211,910	0,085	0,098
-653,086	687,355	-0,082	-0,157
-652,072	17,608	-0,109	-0,063
-651,057	272,961	-0,042	-0,054
-650,043	-152,965	-0,053	0,003
-649,028	266,542	-0,051	0,065
-648,014	300,327	-0,005	0,007
-646,999	756,272	-0,022	-0,044
-645,984	-6,578	-0,129	0,064
-644,970	-200,000	-0,001	-0,007
-643,955	800,000	0,012	0,033
-642,941	511,027	-0,070	-0,119
-641,926	173,186	-0,103	-0,109
-640,911	-97,739	0,012	-0,002
-639,897	800,000	0,042	0,097
-638,882	-200,000	0,028	-0,114
-637,868	800,000	-0,036	-0,097
-636,853	-82,438	0,119	-0,028
-635,838	560,672	-0,143	-0,254
-634,824	58,885	-0,080	0,057
-633,809	800,000	-0,020	-0,058
-632,795	800,000	0,039	0,112
-631,780	-200,000	0,029	-0,105
-630,765	-129,009	0,156	-0,016
-629,751	-200,000	0,001	-0,225
-628,736	115,876	-0,018	-0,016
-627,722	-54,639	0,069	-0,023
-626,707	-52,444	0,065	-0,022
-625,692	-200,000	0,001	-0,050
-624,678	-16,579	-0,036	0,017
-623,663	-130,291	-0,015	-0,002
-622,649	-200,000	-0,020	-0,069
-621,634	-200,000	-0,021	0,073
-620,619	-88,860	-0,093	0,020
-619,605	800,000	-0,014	0,042
-618,590	406,692	-0,056	0,087
-617,576	-200,000	0,012	0,139
-616,561	-88,325	-0,066	-0,014
-615,546	-78,330	-0,023	-0,006
-614,532	-77,467	-0,149	0,037
-613,517	800,000	-0,042	-0,102
-612,503	-156,322	0,049	0,002
-611,488	-36,256	-0,045	0,018
-610,474	507,928	-0,040	-0,069
-609,459	530,635	0,047	0,081
-608,444	780,350	0,040	-0,081
-607,430	-200,000	0,008	-0,072
-606,415	25,159	-0,122	0,074
-605,401	262,909	-0,048	0,061
-604,386	800,000	0,014	-0,039
-603,371	24,247	0,067	0,040
-602,357	-3,957	-0,035	-0,018
-601,342	-200,000	0,001	-0,146
-600,328	88,082	-0,122	-0,099
-599,313	729,820	0,013	-0,026
-598,298	-200,000	0,032	-0,162
-597,284	68,748	0,082	-0,061
-596,269	800,000	-0,060	0,160
-595,255	-120,347	0,167	-0,021
-594,240	-120,131	-0,139	0,017
-593,225	66,597	-0,008	0,006
-592,211	-200,000	-0,006	-0,039
-591,196	-153,155	-0,043	0,002
-590,182	467,520	0,063	-0,103
-589,167	103,784	0,095	0,082
-588,152	-200,000	-0,016	-0,056
-587,138	-51,688	-0,143	0,048
-586,123	255,026	-0,052	0,065
-585,109	-200,000	0,041	-0,184
-584,094	394,034	-0,068	0,104
-583,079	800,000	0,040	-0,097
-582,065	719,014	0,035	0,069
-581,050	-200,000	-0,028	0,111
-580,036	-200,000	0,005	-0,143
-579,021	-81,472	0,131	0,031
-578,006	-200,000	-0,010	0,081
-576,992	451,073	0,066	0,107
-575,977	-200,000	-0,000	-0,083
-574,963	29,804	-0,067	-0,041
-573,948	225,148	0,043	-0,050
-572,934	-119,067	-0,020	0,002
-571,919	377,159	-0,048	0,072
-570,904	221,652	-0,028	0,033
-569,890	-36,170	0,045	-0,018
-568,875	800,000	0,004	0,010
-567,861	-200,000	-0,019	0,110
-566,846	-101,421	0,083	0,015
-565,831	-15,890	-0,053	0,025
-564,817	112,013	-0,075	-0,066
-563,802	267,109	-0,066	-0,084
-562,788	-200,000	-0,024	-0,097
-561,773	533,562	0,043	0,075
-560,758	102,005	0,025	0,021
-559,744	-157,562	0,064	0,003
-558,729	-200,000	-0,002	-0,067
-557,715	24,422	-0,074	0,045
-556,700	-65,726	-0,049	-0,014
-555,685	421,887	-0,058	0,092
-554,671	-126,551	0,080	0,009
-553,656	21,632	-0,037	0,022
-552,642	-200,000	-0,024	0,086
-551,627	800,000	0,027	0,066
-550,612	-200,000	0,001	-0,046
-549,598	86,190	-0,126	0,101
-548,583	-200,000	-0,012	-0,081
-547,569	9,491	0,119	-0,065
-546,554	-200,000	0,007	0,087
-545,539	800,000	0,014	0,031
-544,525	-105,807	0,042	-0,007
-543,510	528,241	-0,052	-0,091
-542,496	34,266	0,063	-0,040
-541,481	-35,195	-0,051	-0,020
-540,466	120,625	-0,039	0,035
-539,452	120,724	0,027	0,025
-538,437	216,441	0,051	-0,059
-537,423	-146,900	-0,043	-0,003
-536,408	201,817	-0,069	-0,078
-535,393	-200,000	0,016	-0,067
-534,379	-73,027	-0,078	0,021
-533,364	272,092	-0,068	-0,088
-532,350	362,719	0,058	-0,086
-531,335	24,047	0,049	0,030
-530,321	69,791	-0,132	0,099
-529,306	-71,223	0,067	0,018
-528,291	392,638	-0,097	-0,148
-527,277	-50,377	-0,122	-0,042
-526,262	-23,370	0,147	0,064
-525,248	396,040	-0,016	-0,025
-524,233	-116,393	0,175	-0,023
-523,218	-34,613	-0,052	-0,021
-522,204	800,000	0,046	0,113
-521,189	-46,997	-0,102	0,036
-520,175	-54,553	-0,151	-0,050
-519,160	-113,742	0,046	0,006
-518,145	-106,290	0,147	0,024
-517,131	800,000	0,030	0,066
-516,116	26,052	-0,017	0,010
-515,102	-200,000	0,005	0,116
-514,087	-136,247	-0,075	-0,006
-513,072	800,000	-0,031	-0,062
-512,058	214,304	0,022	0,026
-511,043	-78,220	0,197	0,049
-510,029	-47,290	0,090	0,032
-509,014	-35,971	0,077	-0,030
-507,999	-200,000	-0,011	-0,085
-506,985	158,918	-0,051	-0,052
-505,970	-178,501	-0,151	0,002
-504,956	309,122	-0,058	0,079
-503,941	98,015	0,087	0,073
-502,926	800,000	-0,018	0,038
-501,912	-200,000	-0,003	-0,030
-500,897	-200,000	0,009	-0,080
-499,883	530,941	-0,062	0,106
-498,868	-200,000	-0,012	0,084
-497,853	-85,296	-0,024	-0,005
-496,839	36,396	0,079	0,050
-495,824	-200,000	0,004	0,117
-494,810	173,721	0,058	0,061
-493,795	236,062	-0,024	0,029
-492,781	-200,000	-0,014	0,088
-491,766	-51,985	0,081	-0,027
-490,751	-200,000	-0,048	-0,193
-489,737	230,580	0,073	-0,087
-488,722	59,417	0,064	0,046
-487,708	-200,000	0,012	0,108
-486,693	-200,000	0,017	0,129
-485,678	55,119	0,203	0,142
-484,664	63,838	0,054	-0,040
-483,649	-153,531	0,111	0,006
-482,635	800,000	-0,016	0,040
-481,620	259,295	0,060	-0,076
-480,605	191,018	-0,037	-0,041
-479,591	800,000	0,021	0,053
-478,576	-100,164	-0,078	-0,014
-477,562	422,622	-0,068	-0,107
-476,547	-200,000	0,028	0,224
-475,532	-146,507	0,114	0,007
-474,518	108,261	-0,069	0,060
-473,503	-98,086	0,044	0,008
-472,489	-56,743	0,041	-0,013
-471,474	248,110	-0,132	-0,163
-470,459	-25,999	-0,065	-0,028
-469,445	-200,000	-0,010	0,074
-468,430	-195,467	-0,052	-0,000
-467,416	-115,380	-0,053	-0,007
-466,401	127,735	0,146	-0,135
-465,386	136,749	0,019	-0,018
-464,372	276,115	0,073	-0,094
-463,357	22,223	0,071	0,042
-462,343	700,389	0,046	-0,089
-461,328	-200,000	-0,036	-0,229
-460,313	-200,000	-0,036	0,169
-459,299	363,798	0,053	0,078
-458,284	20,180	0,086	0,051
-457,270	134,361	-0,032	-0,030
-456,255	-200,000	-0,024	-0,094
-455,241	23,666	0,097	-0,058
-454,226	800,000	0,021	0,051
-453,211	-133,534	-0,051	-0,005
-452,197	91,758	0,084	0,069
-451,182	727,611	0,032	0,063
-450,168	0,079	0,129	-0,067
-449,153	183,155	-0,035	0,038
-448,138	539,182	0,081	-0,141
-447,124	-19,681	-0,036	0,016
-446,109	-75,762	-0,078	0,020
-445,095	800,000	-0,009	-0,019
-444,080	209,746	-0,027	0,031
-443,065	-200,000	0,002	0,029
-442,051	-200,000	-0,019	-0,107
-441,036	14,369	-0,059	-0,033
-440,022	65,627	0,110	0,081
-439,007	-135,172	0,085	-0,007
-437,992	-129,869	0,080	-0,008
-436,978	160,735	0,093	0,094
-435,963	241,880	-0,097	-0,117
-434,949	-200,000	0,040	0,136
-433,934	-200,000	0,002	0,044
-432,919	800,000	0,046	-0,101
-431,905	-200,000	-0,023	0,185
-430,890	145,685	0,099	0,096
-429,876	-200,000	0,029	0,000
-428,861	295,440	0,033	0,044
-427,846	800,000	-0,034	-0,089
-426,832	15,316	-0,061	0,035
-425,817	174,293	0,003	0,003
-424,803	-200,000	0,008	0,091
-423,788	99,086	0,050	-0,042
-422,773	288,243	-0,042	-0,056
-421,759	-49,656	0,034	-0,012
-420,744	-144,278	0,019	0,001
-419,730	-127,240	-0,034	0,004
-418,715	121,630	0,046	-0,042
-417,701	800,000	0,036	-0,083
-416,686	374,323	-0,063	-0,093
-415,671	157,974	-0,032	0,032
-414,657	216,814	0,107	0,123
-413,642	-200,000	0,013	0,050
-412,628	142,870	-0,021	-0,021
-411,613	-119,656	0,117	0,015
-410,598	426,988	0,026	-0,041
-409,584	145,318	-0,087	0,084
-408,569	119,401	-0,122	0,110
-407,555	104,988	0,064	0,054
-406,540	-170,950	-0,058	-0,001
-405,525	329,895	0,040	0,055
-404,511	444,488	0,030	-0,048
-403,496	800,000	-0,071	-0,198
-402,482	77,207	-0,105	-0,081
-401,467	-16,366	0,197	0,090
-400,452	-41,114	-0,152	0,056
-399,438	62,794	0,084	0,061
-398,423	166,219	-0,131	0,134
-397,409	-200,000	0,028	-0,159
-396,394	-42,579	0,017	0,006
-395,379	203,925	0,053	-0,059
-394,365	-21,202	0,060	0,027
-393,350	24,654	-0,110	-0,066
-392,336	-101,261	0,145	-0,025
-391,321	31,994	0,118	0,074
-390,306	2,986	-0,090	-0,047
-389,292	-48,083	0,030	0,011
-388,277	110,532	0,046	0,040
-387,263	-200,000	0,000	0,004
-386,248	379,567	-0,062	0,092
-385,233	-200,000	0,004	0,066
-384,219	800,000	-0,071	-0,148
-383,204	-66,071	0,096	-0,028
-382,190	800,000	-0,041	-0,126
-381,175	208,186	0,067	-0,076
-380,160	345,369	0,023	-0,032
-379,146	-200,000	0,003	-0,080
-378,131	-160,619	-0,026	0,001
-377,117	598,888	0,031	-0,055
-376,102	-200,000	0,012	0,130
-375,088	-200,000	0,014	-0,116
-374,073	800,000	-0,029	0,088
-373,058	-38,683	0,098	0,037
-372,044	190,168	-0,076	0,082
-371,029	510,719	0,048	0,081
-370,015	-119,524	-0,253	-0,031
-369,000	-200,000	-0,009	-0,138
-367,985	800,000	-0,035	-0,078
-366,971	800,000	-0,014	-0,032
-365,956	-92,617	-0,104	0,021
-364,942	28,976	0,060	0,037
-363,927	74,139	0,106	-0,081
-362,912	49,093	-0,095	0,065
-361,898	800,000	-0,045	-0,108
-360,883	800,000	0,008	-0,025
-359,869	55,656	0,064	-0,045
-358,854	-200,000	-0,006	0,025
-357,839	-200,000	0,016	0,125
-356,825	-124,396	0,059	0,007
-355,810	346,287	0,021	0,030
-354,796	800,000	0,032	-0,092
-353,781	209,895	-0,020	-0,022
-352,766	-200,000	-0,013	0,123
-351,752	-185,805	0,184	0,002
-350,737	391,594	0,034	-0,051
-349,723	681,221	0,069	0,131
-348,708	-124,549	-0,017	0,002
-347,693	-176,250	0,105	-0,002
-346,679	-25,505	-0,057	0,024
-345,664	-157,976	-0,191	0,008
-344,650	800,000	-0,038	-0,103
-343,635	800,000	0,034	0,097
-342,620	-146,318	0,082	0,005
-341,606	-156,055	-0,082	-0,004
-340,591	231,016	0,124	0,147
-339,577	-200,000	0,011	-0,042
-338,562	-144,251	0,025	-0,002
-337,548	14,485	0,109	-0,062
-336,533	-117,409	0,086	0,011
-335,518	800,000	-0,093	0,202
-334,504	-200,000	-0,028	0,185
-333,489	44,033	-0,111	0,073
-332,475	275,994	-0,065	0,083
-331,460	-5,474	-0,143	-0,071
-330,445	229,721	0,030	-0,036
-329,431	800,000	0,043	-0,135
-328,416	-80,100	0,140	0,034
-327,402	-200,000	0,018	0,057
-326,387	370,104	-0,049	-0,071
-325,372	-164,509	-0,044	-0,001
-324,358	16,367	0,085	-0,049
-323,343	800,000	0,060	0,127
-322,329	-189,959	-0,130	-0,001
-321,314	-200,000	0,020	-0,079
-320,299	352,620	-0,041	-0,059
-319,285	-72,230	-0,108	0,029
-318,270	400,929	0,038	0,057
-317,256	-200,000	0,002	0,063
-316,241	-180,592	0,108	0,002
-315,226	-86,612	0,181	0,040
-314,212	-74,097	0,086	0,022
-313,197	-200,000	-0,005	-0,024
-312,183	-78,220	-0,094	-0,023
-311,168	-200,000	0,010	0,082
-310,153	-39,333	-0,138	0,052
-309,139	381,990	0,054	0,080
-308,124	92,163	0,063	-0,051
-307,110	82,316	-0,039	0,031
-306,095	646,489	0,052	0,096
-305,080	50,783	-0,065	0,044
-304,066	262,379	0,012	0,015
-303,051	30,298	-0,010	-0,006
-302,037	-63,933	-0,043	-0,012
-301,022	-41,629	0,020	0,007
-300,008	-171,149	-0,093	-0,002
-298,993	144,973	-0,089	0,086
-297,978	800,000	-0,045	0,110
-296,964	800,000	-0,022	-0,045
-295,949	20,048	0,020	0,012
-294,935	-200,000	-0,021	-0,155
-293,920	406,707	-0,036	-0,055
-292,905	186,014	0,050	-0,053
-291,891	-200,000	0,003	0,105
-290,876	-120,987	-0,107	0,013
-289,862	-200,000	-0,008	-0,123
-288,847	328,062	0,089	-0,123
-287,832	-200,000	-0,051	-0,190
-286,818	115,671	0,038	-0,034
-285,803	-200,000	0,006	-0,100
-284,789	-200,000	0,016	-0,128
-283,774	33,176	-0,101	-0,063
-282,759	435,899	0,140	0,221
-281,745	182,749	-0,116	-0,124
-280,730	-147,011	0,101	-0,006
-279,716	125,430	-0,103	0,093
-278,701	203,040	0,051	-0,057
-277,686	800,000	0,018	0,047
-276,672	346,480	0,036	0,051
-275,657	-177,930	-0,067	0,001
-274,643	373,494	-0,070	0,103
-273,628	156,912	0,069	-0,068
-272,613	203,845	-0,107	0,120
-271,599	26,433	0,098	-0,059
-270,584	800,000	-0,029	0,086
-269,570	800,000	0,031	0,090
-268,555	-95,615	0,067	0,013
-267,540	-122,085	-0,122	0,014
-266,526	-200,000	-0,026	-0,087
-265,511	62,141	0,094	-0,067
-264,497	26,167	0,143	0,086
-263,482	0,714	-0,057	-0,030
-262,467	136,618	-0,055	-0,052
-261,453	237,052	0,117	0,140
-260,438	147,664	-0,061	0,060
-259,424	-200,000	0,017	-0,080
-258,409	-170,115	-0,069	0,002
-257,395	-200,000	0,014	0,076
-256,380	-137,135	0,168	-0,014
-255,365	-200,000	0,024	0,140
-254,351	172,999	0,036	0,037
-253,336	-200,000	-0,015	0,079
-252,322	-14,919	-0,048	-0,022
-251,307	-200,000	-0,013	-0,046
-250,292	-200,000	-0,019	-0,100
-249,278	10,781	0,048	0,026
-248,263	90,598	0,082	0,067
-247,249	-200,000	0,008	0,086
-246,234	-148,022	-0,185	-0,011
-245,219	316,252	-0,061	-0,083
-244,205	800,000	-0,053	-0,157
-243,190	155,320	0,022	0,022
-242,176	-149,553	-0,058	0,003
-241,161	-67,691	-0,028	-0,008
-240,146	330,454	0,119	0,165
-239,132	-159,688	0,101	0,004
-238,117	201,674	-0,095	0,106
-237,103	-200,000	0,004	-0,063
-236,088	478,631	-0,051	-0,083
-235,073	-200,000	-0,009	0,083
-234,059	11,415	-0,051	-0,028
-233,044	-21,063	-0,018	0,008
-232,030	-57,754	-0,045	0,014
-231,015	800,000	-0,042	-0,125
-230,000	283,388	-0,055	-0,072
-228,986	-200,000	0,018	-0,117
-227,971	-117,340	0,096	0,012
-226,957	800,000	-0,061	0,125
-225,942	-15,493	0,175	0,080
-224,927	-71,771	0,042	-0,011
-223,913	-51,460	-0,181	-0,060
-222,898	-107,518	-0,111	0,017
-221,884	-163,157	-0,063	0,002
-220,869	223,506	0,043	0,050
-219,855	-200,000	0,023	0,108
-218,840	2,148	0,074	0,038
-217,825	-76,515	-0,124	-0,031
-216,811	741,948	0,034	0,065
-215,796	-28,989	0,012	-0,005
-214,782	7,595	-0,059	-0,032
-213,767	55,387	-0,056	-0,039
-212,752	-200,000	-0,011	-0,064
-211,738	50,444	0,107	0,073
-210,723	800,000	0,034	0,105
-209,709	-46,877	-0,145	-0,051
-208,694	-15,286	-0,085	-0,039
-207,679	69,207	-0,071	-0,052
-206,665	-14,835	-0,057	0,026
-205,650	-200,000	0,010	0,064
-204,636	-122,799	0,109	-0,012
-203,621	800,000	0,071	0,159
-202,606	-200,000	-0,026	0,109
-201,592	-161,539	0,215	-0,008
-200,577	-29,575	-0,092	0,038
-199,563	205,214	0,079	-0,088
-198,548	-77,331	0,057	0,014
-197,533	-61,774	-0,098	-0,029
-196,519	102,600	-0,107	0,090
-195,504	-45,885	0,065	-0,023
-194,490	800,000	0,030	-0,075
-193,475	-7,114	-0,047	0,023
-192,460	-200,000	-0,008	0,151
-191,446	493,130	0,011	0,018
-190,431	-135,879	-0,134	-0,011
-189,417	-29,147	0,066	0,027
-188,402	54,819	-0,115	-0,080
-187,387	800,000	-0,048	-0,146
-186,373	800,000	0,050	-0,123
-185,358	-142,304	0,037	0,003
-184,344	11,340	0,059	0,032
-183,329	189,447	0,068	0,073
-182,315	800,000	-0,005	-0,016
-181,300	780,854	-0,080	-0,158
-180,285	344,771	-0,045	-0,064
-179,271	57,673	0,027	-0,019
-178,256	23,145	-0,139	0,082
-177,242	-200,000	-0,000	0,019
-176,227	-60,383	-0,058	0,018
-175,212	-174,126	0,137	-0,003
-174,198	-104,537	0,067	0,011
-173,183	-16,557	-0,144	-0,065
-172,169	395,699	-0,070	-0,105
-171,154	788,258	-0,058	-0,116
-170,139	86,448	0,101	0,080
-169,125	53,858	-0,109	0,075
-168,110	156,522	-0,101	-0,101
-167,096	-133,213	-0,034	-0,003
-166,081	800,000	0,037	-0,089
-165,066	800,000	-0,031	-0,078
-164,052	800,000	-0,019	0,050
-163,037	71,360	0,108	-0,081
-162,023	-200,000	-0,006	-0,019
-161,008	-63,755	0,150	0,044
-159,993	-200,000	0,025	-0,131
-158,979	800,000	-0,030	-0,080
-157,964	-2,593	0,057	0,028
-156,950	-109,620	0,079	0,012
-155,935	61,435	0,066	0,047
-154,920	155,745	-0,084	0,083
-153,906	649,528	-0,040	-0,075
-152,891	609,696	0,046	0,083
-151,877	30,548	0,136	-0,083
-150,862	154,118	-0,073	-0,071
-149,847	48,728	-0,129	-0,087
-148,833	-61,698	0,030	0,009
-147,818	-200,000	0,011	-0,034
-146,804	-1,695	-0,145	0,073
-145,789	800,000	0,044	0,117
-144,775	193,975	-0,076	0,083
-143,760	800,000	0,039	0,080
-142,745	172,700	0,026	-0,027
-141,731	-67,571	-0,085	0,024
-140,716	-136,206	0,097	-0,008
-139,702	-200,000	-0,019	-0,108
-138,687	338,171	-0,143	-0,200
-137,672	-27,361	0,037	0,015
-136,658	-2,744	-0,060	0,030
-135,643	-200,000	0,013	0,119
-134,629	-62,949	0,040	0,012
-133,614	32,210	0,062	0,038
-132,599	343,814	0,129	0,181
-131,585	-19,455	-0,032	-0,014
-130,570	15,153	-0,231	0,130
-129,556	-200,000	-0,001	-0,118
-128,541	127,041	0,180	0,164
-127,526	-23,943	-0,134	0,057
-126,512	41,187	-0,004	0,003
-125,497	-66,376	0,105	0,030
-124,483	640,464	-0,123	-0,226
-123,468	-127,356	-0,100	-0,010
-122,453	470,945	-0,052	0,083
-121,439	-30,969	0,098	-0,039
-120,424	-168,012	-0,079	0,002
-119,410	-74,398	-0,109	0,028
-118,395	107,917	0,157	-0,134
