DTS Sentinel unit serial number:	SN410029Multiplexer serial number:	ORYXHardware model number:	OX2-SRSoftware version number:	ORYX F/W v4,00 Oryx Data Collector v3.7.2.0data status	okinstallation	B6 Nyhavnadifferential loss correction	single-endedforward channel	channel 2reverse channel	N/Adate	2023/12/08time	17:25:08forward acquisition time	300,00reverse acquisition time	0,00gamma	499,1914k internal	0,3158k external	0,3158temperature offset calibration	1,0000default loss term (dB/km)	0,3820temperature slope calibration	1,0000multiplexer offset coefficient	1,0000multiplexer slope coefficient	1,0000fibre end	0,00T internal ref (°C)	15,17T ext. ref 1 (°C)	-1,36T ext. ref 2 (°C)	-1,36length (m)	temperature (°C)	Stokes	anti-Stokes-744,400	-200,000	0,008	0,041
-743,385	-138,152	-0,311	0,025
-742,371	69,821	0,049	0,037
-741,356	-111,397	-0,290	-0,043
-740,342	65,500	0,159	0,118
-739,327	-155,715	-0,314	0,015
-738,312	-200,000	-0,009	0,134
-737,298	-156,116	-0,442	-0,020
-736,283	357,214	0,086	0,127
-735,269	-67,076	-0,259	-0,075
-734,254	220,680	0,076	0,090
-733,239	-37,645	-0,560	-0,219
-732,225	55,437	0,248	0,176
-731,210	-50,232	-0,120	0,042
-730,196	800,000	-0,018	-0,055
-729,181	-200,000	0,002	0,016
-728,167	726,784	-0,098	-0,194
-727,152	-200,000	0,002	0,035
-726,137	-200,000	0,028	-0,111
-725,123	339,201	-0,057	-0,082
-724,108	-94,783	-0,228	-0,045
-723,094	104,068	-0,069	0,060
-722,079	-200,000	-0,003	0,021
-721,064	236,568	0,069	-0,085
-720,050	66,607	0,044	-0,033
-719,035	-200,000	0,026	0,087
-718,021	338,676	-0,018	-0,027
-717,006	132,207	-0,055	0,052
-715,991	-108,557	-0,208	0,033
-714,977	423,626	-0,042	-0,067
-713,962	-84,932	0,126	-0,029
-712,948	726,018	-0,008	0,016
-711,933	-52,500	0,065	-0,022
-710,918	-95,355	-0,180	-0,035
-709,904	-200,000	-0,036	-0,141
-708,889	-107,940	0,154	-0,024
-707,875	-129,006	-0,104	-0,011
-706,860	148,066	0,067	-0,066
-705,845	800,000	0,050	0,112
-704,831	-141,240	0,061	0,005
-703,816	10,468	-0,024	0,013
-702,802	-75,293	-0,220	-0,057
-701,787	-126,371	0,091	-0,010
-700,772	224,884	-0,070	-0,084
-699,758	31,327	-0,112	0,071
-698,743	-45,689	0,058	-0,021
-697,729	105,791	-0,026	0,023
-696,714	66,058	0,037	0,028
-695,699	-200,000	-0,013	-0,096
-694,685	49,262	-0,110	0,076
-693,670	-46,155	-0,089	-0,032
-692,656	-26,537	0,006	0,003
-691,641	-200,000	0,055	-0,197
-690,627	-128,639	-0,007	-0,001
-689,612	-87,871	-0,108	0,024
-688,597	-18,229	-0,118	-0,054
-687,583	15,095	-0,175	-0,101
-686,568	-200,000	-0,046	-0,174
-685,554	-200,000	-0,021	-0,088
-684,539	40,940	0,027	-0,018
-683,524	70,387	0,066	0,050
-682,510	-6,562	0,124	0,062
-681,495	90,448	-0,097	-0,080
-680,481	625,482	0,020	-0,037
-679,466	-112,913	-0,089	-0,013
-678,451	384,077	-0,143	-0,216
-677,437	-38,124	0,051	-0,020
-676,422	-200,000	-0,001	-0,056
-675,408	-11,332	0,089	-0,043
-674,393	556,938	-0,122	-0,217
-673,378	-19,995	-0,228	-0,103
-672,364	-29,971	0,053	-0,022
-671,349	105,502	-0,110	-0,095
-670,335	800,000	0,027	0,064
-669,320	707,251	-0,030	0,059
-668,305	630,289	0,046	0,085
-667,291	-19,276	-0,048	0,022
-666,276	-21,964	-0,115	-0,051
-665,262	-70,928	-0,062	-0,017
-664,247	59,887	0,019	-0,014
-663,232	-200,000	0,015	0,130
-662,218	74,203	0,087	-0,067
-661,203	85,485	-0,071	0,057
-660,189	63,964	-0,027	0,020
-659,174	136,460	-0,054	0,052
-658,159	-140,056	-0,058	0,004
-657,145	139,725	-0,098	-0,095
-656,130	518,018	0,044	-0,077
-655,116	-200,000	0,009	0,031
-654,101	800,000	-0,020	-0,061
-653,086	120,516	0,099	0,090
-652,072	-29,362	-0,125	0,052
-651,057	800,000	-0,018	-0,051
-650,043	800,000	-0,019	0,060
-649,028	14,829	-0,103	0,059
-648,014	427,306	0,021	-0,033
-646,999	-36,009	-0,044	-0,017
-645,984	-81,825	0,145	-0,035
-644,970	800,000	0,043	-0,092
-643,955	45,255	-0,120	0,081
-642,941	-165,470	-0,056	-0,002
-641,926	-129,479	-0,073	-0,007
-640,911	-97,572	-0,096	0,018
-639,897	-141,524	-0,089	-0,006
-638,882	-200,000	-0,001	0,023
-637,868	-200,000	-0,165	-0,000
-636,853	236,635	-0,041	-0,050
-635,838	458,180	-0,020	0,033
-634,824	-11,980	0,052	-0,025
-633,809	800,000	-0,018	-0,044
-632,795	-200,000	0,014	0,047
-631,780	-77,582	-0,068	0,017
-630,765	-16,247	-0,164	0,076
-629,751	-75,636	0,061	-0,016
-628,736	800,000	-0,066	-0,169
-627,722	54,470	-0,140	-0,099
-626,707	-126,354	0,114	-0,012
-625,692	-200,000	-0,012	0,082
-624,678	-200,000	0,005	0,123
-623,663	-21,917	0,113	0,050
-622,649	-82,283	-0,171	-0,041
-621,634	-200,000	-0,022	-0,082
-620,619	-169,612	0,096	-0,003
-619,605	-200,000	-0,007	-0,083
-618,590	28,316	0,077	0,048
-617,576	-25,176	0,070	0,030
-616,561	17,914	-0,073	0,043
-615,546	800,000	-0,051	0,109
-614,532	-168,771	-0,081	-0,002
-613,517	-200,000	-0,015	0,102
-612,503	282,824	-0,095	-0,126
-611,488	-200,000	0,009	0,084
-610,474	-115,217	-0,080	-0,011
-609,459	-200,000	-0,001	-0,034
-608,444	132,279	0,030	-0,029
-607,430	103,423	-0,053	-0,046
-606,415	146,463	-0,044	-0,043
-605,401	290,430	0,025	0,034
-604,386	-22,656	0,153	-0,068
-603,371	-112,619	-0,040	0,006
-602,357	-93,644	0,029	0,006
-601,342	-186,019	-0,062	0,001
-600,328	-140,866	-0,161	0,012
-599,313	-200,000	-0,005	-0,043
-598,298	574,729	0,072	-0,129
-597,284	800,000	-0,030	0,083
-596,269	-200,000	-0,005	0,068
-595,255	-96,596	-0,081	0,015
-594,240	800,000	-0,035	-0,083
-593,225	-200,000	-0,025	-0,089
-592,211	-11,373	-0,047	0,023
-591,196	-104,771	-0,098	0,016
-590,182	27,736	0,067	0,041
-589,167	-200,000	0,006	0,062
-588,152	136,906	0,053	0,051
-587,138	800,000	-0,048	-0,150
-586,123	487,478	-0,046	-0,077
-585,109	-103,751	-0,074	0,013
-584,094	-83,510	-0,146	-0,034
-583,079	800,000	0,036	0,078
-582,065	10,147	0,048	0,026
-581,050	-166,214	-0,075	-0,002
-580,036	474,447	-0,046	0,076
-579,021	217,659	-0,096	0,112
-578,006	-200,000	-0,001	-0,061
-576,992	247,884	0,022	0,027
-575,977	-75,331	-0,041	-0,011
-574,963	-163,374	0,057	-0,002
-573,948	191,519	-0,064	0,070
-572,934	800,000	-0,011	0,029
-571,919	-200,000	-0,025	0,084
-570,904	127,434	0,037	0,034
-569,890	589,704	-0,034	-0,062
-568,875	-65,216	0,036	-0,010
-567,861	-71,491	0,090	0,024
-566,846	-53,664	0,038	0,013
-565,831	-78,068	-0,109	0,027
-564,817	629,294	0,033	0,061
-563,802	87,933	-0,161	-0,131
-562,788	72,422	0,071	-0,054
-561,773	-162,097	0,203	0,007
-560,758	800,000	0,085	0,201
-559,744	-37,673	-0,116	0,045
-558,729	-200,000	0,012	0,071
-557,715	-15,311	0,184	0,086
-556,700	-87,003	-0,124	-0,028
-555,685	292,982	-0,022	-0,030
-554,671	-200,000	0,020	-0,117
-553,656	800,000	-0,020	0,042
-552,642	111,838	-0,095	0,084
-551,627	-188,292	-0,164	0,001
-550,612	-200,000	-0,022	-0,100
-549,598	211,560	-0,037	-0,042
-548,583	52,092	0,040	-0,028
-547,569	800,000	-0,062	0,142
-546,554	-200,000	-0,013	0,139
-545,539	94,406	0,054	-0,045
-544,525	-64,476	0,047	0,014
-543,510	-200,000	-0,014	-0,093
-542,496	345,641	-0,016	0,023
-541,481	17,777	-0,094	0,054
-540,466	800,000	-0,044	0,102
-539,452	800,000	0,029	0,091
-538,437	-125,951	0,148	0,016
-537,423	800,000	-0,001	0,005
-536,408	-200,000	-0,003	0,063
-535,393	56,997	-0,092	0,066
-534,379	38,413	-0,018	0,011
-533,364	86,207	-0,025	0,020
-532,350	800,000	-0,023	0,062
-531,335	800,000	0,022	0,069
-530,321	157,609	0,050	0,051
-529,306	-152,135	0,113	0,006
-528,291	223,083	-0,070	-0,083
-527,277	-93,184	-0,063	0,013
-526,262	8,943	-0,083	-0,046
-525,248	110,456	0,060	0,053
-524,233	-145,395	0,050	0,003
-523,218	-60,698	0,145	0,045
-522,204	380,931	-0,039	0,058
-521,189	623,723	-0,054	0,100
-520,175	-24,201	0,139	0,060
-519,160	213,019	0,098	-0,114
-518,145	-200,000	0,007	-0,085
-517,131	-200,000	0,005	-0,037
-516,116	800,000	-0,042	0,091
-515,102	-68,256	0,059	0,017
-514,087	-125,814	0,049	0,005
-513,072	800,000	0,034	-0,085
-512,058	-200,000	0,013	-0,053
-511,043	286,128	0,043	0,057
-510,029	-180,440	-0,110	0,002
-509,014	212,795	-0,093	0,107
-507,999	-154,686	-0,045	-0,002
-506,985	-3,301	-0,138	0,070
-505,970	-113,150	0,061	0,009
-504,956	48,610	0,188	-0,129
-503,941	321,939	-0,031	-0,043
-502,926	-4,668	0,113	0,057
-501,912	-200,000	-0,011	0,069
-500,897	36,737	0,116	-0,075
-499,883	-103,667	-0,064	0,011
-498,868	-19,493	0,111	-0,050
-497,853	3,858	-0,128	-0,068
-496,839	-17,286	0,040	-0,018
-495,824	-147,934	0,141	0,008
-494,810	453,872	-0,024	0,038
-493,795	103,503	0,095	0,082
-492,781	-93,716	-0,174	0,035
-491,766	-1,536	-0,025	-0,013
-490,751	-104,906	0,147	-0,024
-489,737	496,125	0,019	-0,032
-488,722	796,414	0,031	-0,062
-487,708	193,951	0,054	-0,059
-486,693	388,597	0,012	0,017
-485,678	-200,000	0,006	-0,028
-484,664	383,060	-0,016	-0,025
-483,649	38,038	0,106	0,069
-482,635	-200,000	-0,026	-0,104
-481,620	800,000	-0,030	0,075
-480,605	-16,447	0,033	0,015
-479,591	147,348	0,062	0,061
-478,576	-200,000	0,033	0,158
-477,562	289,373	-0,066	-0,087
-476,547	7,125	-0,117	-0,064
-475,532	273,632	-0,044	-0,057
-474,518	800,000	0,040	-0,129
-473,503	-99,182	-0,136	0,025
-472,489	74,486	-0,156	0,120
-471,474	-30,376	0,132	0,054
-470,459	800,000	-0,045	-0,127
-469,445	-200,000	0,017	0,082
-468,430	800,000	0,029	-0,076
-467,416	570,687	-0,065	-0,116
-466,401	-121,711	0,168	-0,020
-465,386	14,403	-0,076	-0,043
-464,372	756,952	0,023	0,046
-463,357	-200,000	-0,009	0,111
-462,343	-85,235	-0,048	-0,011
-461,328	800,000	-0,070	-0,172
-460,313	105,460	0,045	0,039
-459,299	612,589	-0,043	-0,079
-458,284	310,642	0,075	0,102
-457,270	-200,000	-0,001	0,015
-456,255	587,880	0,048	-0,086
-455,241	-200,000	0,014	-0,082
-454,226	-200,000	0,007	-0,069
-453,211	-200,000	0,012	0,047
-452,197	800,000	0,036	0,108
-451,182	395,507	0,056	0,086
-450,168	-13,390	-0,037	-0,017
-449,153	34,025	-0,055	-0,035
-448,138	-200,000	-0,005	0,052
-447,124	-200,000	0,012	-0,042
-446,109	-86,403	0,071	-0,016
-445,095	-175,816	0,074	0,001
-444,080	-200,000	-0,034	-0,114
-443,065	146,073	0,082	0,081
-442,051	-11,439	-0,047	-0,023
-441,036	-88,184	0,101	-0,022
-440,022	28,886	-0,093	-0,057
-439,007	-200,000	0,032	-0,136
-437,992	-40,829	0,083	0,031
-436,978	-200,000	0,000	0,174
-435,963	42,271	0,127	0,084
-434,949	-178,393	-0,020	0,000
-433,934	800,000	-0,003	-0,006
-432,919	-43,045	-0,088	0,032
-431,905	293,789	0,063	0,083
-430,890	-200,000	-0,027	0,138
-429,876	800,000	-0,025	-0,077
-428,861	423,695	0,143	0,224
-427,846	291,902	-0,024	0,032
-426,832	-107,421	-0,057	0,009
-425,817	436,823	-0,034	0,054
-424,803	12,574	0,075	-0,042
-423,788	-200,000	-0,000	0,030
-422,773	-89,159	0,036	-0,008
-421,759	5,244	-0,064	-0,034
-420,744	529,234	-0,008	-0,014
-419,730	-200,000	0,000	-0,011
-418,715	14,777	0,083	0,047
-417,701	698,650	-0,037	-0,070
-416,686	-200,000	0,016	-0,158
-415,671	-148,332	0,028	-0,002
-414,657	-4,812	-0,011	0,006
-413,642	-200,000	0,028	-0,090
-412,628	-200,000	-0,012	-0,074
-411,613	-5,710	-0,049	0,024
-410,598	225,122	0,075	-0,089
-409,584	-173,044	0,033	0,001
-408,569	-56,108	0,035	0,011
-407,555	783,495	-0,045	0,091
-406,540	388,155	0,033	0,051
-405,525	-200,000	0,023	-0,209
-404,511	800,000	0,013	0,036
-403,496	67,604	-0,052	0,038
-402,482	-73,406	0,099	-0,026
-401,467	463,101	0,069	0,113
-400,452	-44,252	0,032	-0,012
-399,438	-200,000	0,002	0,083
-398,423	-200,000	-0,018	0,097
-397,409	-24,106	-0,020	-0,009
-396,394	-137,630	0,071	0,006
-395,379	-54,901	-0,027	-0,009
-394,365	-200,000	-0,004	-0,096
-393,350	-146,717	-0,065	-0,004
-392,336	154,801	-0,033	-0,033
-391,321	57,034	0,061	-0,043
-390,306	-34,425	-0,089	0,035
-389,292	800,000	-0,026	0,061
-388,277	8,630	0,033	0,018
-387,263	-75,087	-0,025	0,006
-386,248	660,937	0,005	-0,010
-385,233	800,000	-0,039	-0,099
-384,219	16,589	-0,050	0,028
-383,204	30,828	0,067	-0,041
-382,190	-200,000	-0,000	0,007
-381,175	-200,000	0,010	-0,086
-380,160	-200,000	0,001	-0,008
-379,146	-137,106	0,130	-0,011
-378,131	84,288	0,119	0,095
-377,117	-5,868	-0,097	0,048
-376,102	-99,894	-0,120	0,022
-375,088	-86,048	0,092	0,021
-374,073	-133,319	-0,037	-0,003
-373,058	-50,909	0,072	-0,025
-372,044	-100,536	0,025	-0,005
-371,029	-200,000	-0,011	0,040
-370,015	-40,987	-0,048	-0,018
-369,000	800,000	-0,002	-0,005
-367,985	800,000	0,042	-0,113
-366,971	-32,425	-0,121	-0,049
-365,956	165,540	0,078	-0,080
-364,942	-117,423	0,062	0,008
-363,927	-156,353	0,077	0,003
-362,912	-75,767	0,077	0,020
-361,898	-0,134	-0,032	-0,016
-360,883	-145,628	0,046	-0,003
-359,869	-200,000	-0,014	-0,080
-358,854	0,221	0,053	-0,027
-357,839	800,000	0,023	0,048
-356,825	101,064	0,058	0,049
-355,810	800,000	-0,033	-0,072
-354,796	-56,086	-0,080	-0,026
-353,781	-200,000	0,013	-0,176
-352,766	-158,907	-0,099	-0,004
-351,752	-116,209	0,105	-0,014
-350,737	-200,000	0,029	0,094
-349,723	-200,000	0,008	0,103
-348,708	-138,825	0,101	0,008
-347,693	-200,000	0,008	0,042
-346,679	-15,233	-0,064	-0,030
-345,664	796,873	0,045	0,091
-344,650	-102,159	-0,089	0,015
-343,635	-89,539	0,038	0,008
-342,620	-44,990	-0,090	0,032
-341,606	404,212	0,007	0,010
-340,591	-200,000	-0,010	-0,079
-339,577	144,376	0,045	0,044
-338,562	140,354	0,024	-0,023
-337,548	88,321	0,035	0,028
-336,533	-200,000	0,007	-0,021
-335,518	-111,969	0,207	-0,030
-334,504	121,050	0,006	-0,005
-333,489	51,485	0,059	-0,040
-332,475	-148,834	-0,079	-0,005
-331,460	-25,975	0,042	0,018
-330,445	42,030	0,066	-0,043
-329,431	-200,000	-0,025	-0,086
-328,416	-9,811	0,103	-0,049
-327,402	52,748	-0,024	-0,017
-326,387	800,000	0,043	-0,106
-325,372	454,903	-0,011	0,018
-324,358	47,950	-0,079	-0,053
-323,343	-200,000	-0,028	-0,150
-322,329	-100,309	-0,111	-0,020
-321,314	800,000	-0,025	0,077
-320,299	147,697	-0,027	0,026
-319,285	800,000	0,023	-0,058
-318,270	80,301	0,056	-0,043
-317,256	-200,000	-0,032	-0,124
-316,241	202,247	0,062	-0,069
-315,226	236,603	-0,040	-0,048
-314,212	800,000	0,017	0,046
-313,197	-200,000	0,013	0,152
-312,183	-200,000	-0,017	-0,158
-311,168	92,131	-0,080	-0,065
-310,153	-8,081	-0,162	0,079
-309,139	-41,292	0,106	0,040
-308,124	208,327	0,114	-0,130
-307,110	800,000	0,060	-0,121
-306,095	-30,332	0,166	-0,068
-305,080	375,159	-0,081	0,120
-304,066	-76,331	0,037	-0,009
-303,051	800,000	0,039	-0,100
-302,037	-29,469	0,150	0,062
-301,022	-86,675	0,043	-0,009
-300,008	-26,771	0,160	-0,068
-298,993	222,117	-0,049	0,057
-297,978	-200,000	-0,007	-0,119
-296,964	-200,000	0,011	-0,086
-295,949	754,420	-0,021	-0,041
-294,935	666,943	-0,051	-0,095
-293,920	53,611	-0,051	0,035
-292,905	-85,262	0,096	0,021
-291,891	-164,504	0,088	-0,003
-290,876	314,069	0,053	0,073
-289,862	-38,989	-0,058	-0,022
-288,847	-89,257	0,030	0,006
-287,832	0,448	-0,063	-0,033
-286,818	0,306	0,061	-0,031
-285,803	-71,881	0,077	-0,021
-284,789	-106,771	-0,017	-0,003
-283,774	162,613	-0,007	-0,007
-282,759	-90,434	0,038	0,008
-281,745	267,384	-0,051	-0,065
-280,730	800,000	0,057	0,167
-279,716	-5,476	0,122	-0,061
-278,701	166,401	0,045	-0,046
-277,686	800,000	-0,038	0,093
-276,672	-200,000	0,004	-0,108
-275,657	-200,000	0,021	-0,068
-274,643	-110,012	-0,058	0,009
-273,628	381,521	0,043	-0,064
-272,613	-75,559	-0,045	0,011
-271,599	-128,945	0,101	0,010
-270,584	19,601	-0,107	0,062
-269,570	-200,000	-0,002	-0,133
-268,555	-5,171	0,039	0,019
-267,540	-200,000	-0,002	-0,053
-266,526	-80,682	-0,140	-0,033
-265,511	-200,000	0,009	0,227
-264,497	86,570	0,115	0,091
-263,482	486,130	0,076	0,125
-262,467	-200,000	-0,001	-0,006
-261,453	588,297	0,107	0,191
-260,438	127,930	-0,067	-0,062
-259,424	232,208	-0,065	0,077
-258,409	-200,000	-0,021	-0,073
-257,395	800,000	-0,012	-0,030
-256,380	1,225	0,073	0,038
-255,365	-200,000	0,026	0,200
-254,351	-200,000	-0,011	0,079
-253,336	-66,098	-0,049	-0,014
-252,322	-74,293	-0,075	0,019
-251,307	-41,082	-0,029	-0,011
-250,292	45,118	0,169	-0,113
-249,278	-200,000	0,051	0,260
-248,263	250,111	0,024	0,029
-247,249	300,287	-0,088	0,118
-246,234	-30,553	-0,131	-0,053
-245,219	-150,235	0,067	-0,004
-244,205	-59,766	0,080	0,025
-243,190	800,000	0,026	0,076
-242,176	-200,000	-0,007	0,126
-241,161	800,000	0,037	0,077
-240,146	-103,917	0,096	0,016
-239,132	563,984	0,057	-0,100
-238,117	-200,000	-0,032	-0,109
-237,103	800,000	0,048	0,104
-236,088	-200,000	-0,029	0,095
-235,073	226,653	-0,095	-0,112
-234,059	548,209	0,051	-0,089
-233,044	207,126	0,009	0,010
-232,030	-80,018	0,072	-0,017
-231,015	-75,891	-0,088	-0,022
-230,000	88,003	-0,059	0,047
-228,986	-11,387	0,003	0,001
-227,971	-200,000	0,008	0,039
-226,957	60,520	0,116	0,083
-225,942	-169,877	-0,059	-0,002
-224,927	-117,361	0,044	-0,006
-223,913	32,768	-0,066	-0,041
-222,898	-135,155	-0,232	-0,020
-221,884	52,295	-0,092	-0,063
-220,869	800,000	-0,016	0,050
-219,855	73,228	-0,029	-0,022
-218,840	407,631	-0,028	0,043
-217,825	-82,077	0,054	-0,013
-216,811	24,767	-0,070	-0,042
-215,796	800,000	0,045	-0,141
-214,782	800,000	-0,058	-0,149
-213,767	705,760	0,049	-0,094
-212,752	279,041	-0,037	0,048
-211,738	-13,173	0,079	0,037
-210,723	-103,533	0,075	0,013
-209,709	800,000	-0,041	-0,097
-208,694	-170,261	-0,059	0,001
-207,679	-127,570	-0,078	0,008
-206,665	-200,000	-0,000	0,042
-205,650	11,601	0,021	-0,011
-204,636	-200,000	-0,013	0,109
-203,621	-200,000	-0,037	-0,177
-202,606	555,994	0,110	-0,192
-201,592	-148,124	-0,053	-0,003
-200,577	-200,000	-0,037	0,158
-199,563	-33,532	-0,139	0,055
-198,548	-96,695	0,117	0,022
-197,533	136,450	0,093	-0,087
-196,519	268,088	-0,122	0,155
-195,504	-200,000	-0,018	0,072
-194,490	800,000	0,038	-0,081
-193,475	-111,385	-0,074	-0,011
-192,460	-189,828	0,037	0,000
-191,446	-160,735	0,152	0,006
-190,431	-159,350	0,074	-0,003
-189,417	573,606	-0,066	-0,117
-188,402	-22,366	-0,102	-0,044
-187,387	-65,624	-0,182	0,052
-186,373	195,932	-0,129	-0,142
-185,358	451,708	0,050	0,080
-184,344	-19,723	0,091	-0,040
-183,329	-194,282	-0,019	0,000
-182,315	-25,974	-0,089	-0,038
-181,300	800,000	0,044	-0,124
-180,285	389,573	-0,129	0,194
-179,271	-66,685	-0,070	-0,020
-178,256	-200,000	-0,019	-0,080
-177,242	-200,000	-0,037	0,120
-176,227	-200,000	0,050	0,175
-175,212	-108,135	-0,045	-0,007
-174,198	-200,000	-0,008	0,032
-173,183	-26,113	-0,014	0,006
-172,169	338,647	0,016	0,023
-171,154	-122,891	-0,140	0,016
-170,139	800,000	0,012	0,034
-169,125	264,396	-0,033	0,042
-168,110	403,872	-0,014	-0,021
-167,096	257,892	0,011	0,013
-166,081	-8,161	-0,039	-0,019
-165,066	800,000	0,035	-0,087
-164,052	-200,000	-0,039	-0,178
-163,037	-72,196	-0,107	0,029
-162,023	83,127	-0,042	0,033
-161,008	-200,000	-0,012	-0,043
-159,993	-86,964	0,077	0,017
-158,979	-200,000	-0,004	0,042
-157,964	-200,000	-0,002	0,105
-156,950	71,570	0,087	-0,065
-155,935	53,741	-0,044	0,031
-154,920	-168,662	0,129	0,003
-153,906	340,228	0,075	-0,105
-152,891	401,576	-0,037	0,056
-151,877	-200,000	0,010	0,060
-150,862	800,000	-0,050	0,130
-149,847	53,684	0,074	0,051
-148,833	-73,739	0,112	0,029
-147,818	-179,730	0,137	-0,002
-146,804	-200,000	-0,027	-0,096
-145,789	-64,592	-0,062	-0,018
-144,775	17,226	-0,012	-0,007
-143,760	800,000	0,035	-0,087
-142,745	-200,000	0,016	-0,107
-141,731	-130,935	0,014	0,001
-140,716	-124,797	0,098	-0,011
-139,702	800,000	0,022	-0,052
-138,687	-48,713	-0,038	-0,013
-137,672	38,866	-0,046	-0,029
-136,658	4,801	-0,088	0,047
-135,643	210,363	-0,061	-0,069
-134,629	440,495	-0,036	-0,057
-133,614	-64,682	-0,139	0,040
-132,599	800,000	-0,005	-0,014
-131,585	-58,923	0,138	0,043
-130,570	-38,529	-0,108	-0,041
-129,556	-65,186	-0,111	0,032
-128,541	-152,101	-0,113	-0,006
-127,526	82,181	0,002	0,002
-126,512	-200,000	0,006	0,153
-125,497	484,180	0,056	0,092
-124,483	92,355	-0,059	0,048
-123,468	-116,958	0,069	-0,009
-122,453	-141,762	0,076	-0,005
-121,439	-38,539	-0,108	-0,041
-120,424	-78,159	-0,163	-0,040
