DTS Sentinel unit serial number:	SN410029Multiplexer serial number:	ORYXHardware model number:	OX2-SRSoftware version number:	ORYX F/W v4,00 Oryx Data Collector v3.7.2.0data status	okinstallation	B6 Nyhavnadifferential loss correction	single-endedforward channel	channel 2reverse channel	N/Adate	2023/12/11time	01:20:08forward acquisition time	300,00reverse acquisition time	0,00gamma	499,1914k internal	0,3122k external	0,3122temperature offset calibration	1,0000default loss term (dB/km)	0,3820temperature slope calibration	1,0000multiplexer offset coefficient	1,0000multiplexer slope coefficient	1,0000fibre end	0,00T internal ref (°C)	22,14T ext. ref 1 (°C)	5,42T ext. ref 2 (°C)	5,45length (m)	temperature (°C)	Stokes	anti-Stokes-744,400	24,782	0,082	-0,050
-743,385	-6,705	-0,323	0,164
-742,371	259,561	0,116	0,149
-741,356	545,237	-0,135	0,242
-740,342	-134,322	0,209	-0,019
-739,327	-71,179	-0,267	0,074
-738,312	255,861	0,101	-0,130
-737,298	-123,844	-0,055	0,006
-736,283	79,766	0,067	-0,054
-735,269	388,668	-0,128	0,198
-734,254	17,228	-0,036	0,021
-733,239	-25,230	-0,369	0,162
-732,225	-31,150	0,083	-0,035
-731,210	487,982	-0,055	-0,094
-730,196	126,557	-0,060	-0,056
-729,181	26,837	0,079	0,049
-728,167	-125,246	-0,087	-0,010
-727,152	-200,000	-0,002	-0,045
-726,137	-38,583	-0,154	0,060
-725,123	-200,000	-0,012	0,070
-724,108	-200,000	-0,044	-0,186
-723,094	61,837	-0,102	-0,076
-722,079	800,000	-0,038	-0,079
-721,064	-18,209	-0,058	0,027
-720,050	-200,000	0,013	-0,133
-719,035	315,212	-0,046	0,065
-718,021	57,084	-0,145	-0,105
-717,006	2,910	-0,128	-0,069
-715,991	54,442	-0,140	-0,100
-714,977	-200,000	-0,001	-0,036
-713,962	800,000	-0,055	-0,128
-712,948	63,638	-0,065	0,049
-711,933	-111,053	0,099	0,015
-710,918	-200,000	-0,002	-0,078
-709,904	-99,610	-0,126	-0,023
-708,889	-77,839	-0,058	-0,015
-707,875	-118,004	-0,138	0,018
-706,860	271,120	0,110	-0,145
-705,845	548,872	0,012	-0,021
-704,831	287,457	0,041	0,055
-703,816	124,344	-0,017	0,016
-702,802	-72,352	-0,090	0,025
-701,787	169,035	-0,134	-0,142
-700,772	-200,000	-0,020	-0,178
-699,758	-200,000	0,001	-0,057
-698,743	-64,736	0,060	0,018
-697,729	-200,000	-0,025	0,111
-696,714	-200,000	0,003	0,050
-695,699	72,027	0,087	-0,068
-694,685	-5,766	-0,046	0,023
-693,670	94,445	-0,067	-0,057
-692,656	800,000	0,036	-0,093
-691,641	67,291	-0,068	-0,051
-690,627	-200,000	-0,004	0,062
-689,612	166,786	0,040	0,043
-688,597	557,826	-0,076	0,138
-687,583	81,487	-0,017	0,013
-686,568	-112,449	-0,131	0,019
-685,554	-64,826	-0,059	0,018
-684,539	-52,208	0,146	-0,050
-683,524	800,000	0,072	0,162
-682,510	-200,000	-0,024	-0,107
-681,495	24,619	-0,105	-0,065
-680,481	800,000	-0,023	-0,070
-679,466	-58,721	-0,167	0,053
-678,451	-38,125	-0,070	-0,027
-677,437	132,106	-0,054	-0,052
-676,422	-80,291	0,084	0,021
-675,408	-11,434	0,078	-0,038
-674,393	285,182	-0,013	0,018
-673,378	-200,000	-0,022	-0,095
-672,364	300,841	0,036	0,050
-671,349	-96,338	0,075	-0,015
-670,335	800,000	0,016	-0,051
-669,320	800,000	-0,038	-0,092
-668,305	-135,726	0,184	0,016
-667,291	62,438	-0,149	-0,111
-666,276	613,708	0,060	-0,113
-665,262	648,011	-0,062	-0,118
-664,247	800,000	0,009	-0,020
-663,232	-19,446	-0,047	-0,022
-662,218	-47,345	-0,101	-0,036
-661,203	800,000	0,045	0,121
-660,189	241,073	0,032	-0,040
-659,174	252,964	-0,040	-0,051
-658,159	316,787	0,065	-0,092
-657,145	18,720	-0,061	0,036
-656,130	93,101	-0,106	0,089
-655,116	126,961	-0,030	0,028
-654,101	800,000	-0,002	-0,007
-653,086	800,000	0,042	-0,097
-652,072	-64,876	-0,111	0,033
-651,057	211,813	-0,053	-0,063
-650,043	-200,000	0,015	0,074
-649,028	-200,000	-0,011	-0,126
-648,014	-143,841	0,091	0,006
-646,999	-200,000	0,021	-0,113
-645,984	-200,000	-0,012	-0,094
-644,970	-118,042	-0,144	-0,019
-643,955	-200,000	0,011	-0,153
-642,941	-200,000	-0,020	-0,194
-641,926	-99,603	0,173	0,032
-640,911	-98,984	0,089	-0,017
-639,897	-88,874	-0,068	-0,015
-638,882	63,910	0,085	0,064
-637,868	-56,093	0,077	-0,025
-636,853	-200,000	0,017	-0,114
-635,838	356,520	0,033	0,049
-634,824	38,895	-0,087	-0,058
-633,809	-112,872	-0,049	0,007
-632,795	-200,000	0,018	0,101
-631,780	-57,862	0,063	-0,020
-630,765	-55,364	-0,191	-0,063
-629,751	-200,000	0,019	-0,071
-628,736	-200,000	-0,018	0,207
-627,722	732,862	-0,053	0,105
-626,707	208,515	0,057	-0,066
-625,692	-32,157	-0,033	-0,014
-624,678	-200,000	0,047	0,180
-623,663	-200,000	0,019	-0,156
-622,649	121,452	-0,020	-0,019
-621,634	185,180	-0,085	-0,094
-620,619	94,701	0,034	0,029
-619,605	800,000	0,008	-0,023
-618,590	-200,000	-0,006	0,100
-617,576	27,600	0,111	-0,069
-616,561	800,000	-0,010	0,022
-615,546	113,076	-0,028	-0,025
-614,532	-25,299	-0,178	-0,078
-613,517	464,525	-0,034	0,056
-612,503	-200,000	-0,001	0,057
-611,488	-200,000	-0,024	-0,122
-610,474	-127,118	0,070	-0,008
-609,459	19,456	0,045	0,027
-608,444	-47,946	0,136	-0,048
-607,430	66,519	-0,038	0,028
-606,415	141,477	-0,068	-0,067
-605,401	-154,215	0,070	-0,003
-604,386	-200,000	-0,009	0,051
-603,371	65,019	0,091	0,068
-602,357	-200,000	-0,030	0,131
-601,342	596,761	-0,101	-0,186
-600,328	800,000	0,029	-0,086
-599,313	-49,065	-0,103	-0,036
-598,298	-200,000	0,023	0,083
-597,284	323,885	0,031	-0,044
-596,269	-200,000	-0,003	0,122
-595,255	800,000	0,022	0,056
-594,240	-200,000	-0,009	0,062
-593,225	-74,240	0,036	-0,010
-592,211	275,920	-0,080	0,106
-591,196	-97,997	0,064	-0,012
-590,182	800,000	0,033	0,088
-589,167	800,000	-0,044	-0,123
-588,152	123,455	0,093	0,087
-587,138	65,390	-0,053	-0,040
-586,123	-200,000	-0,006	-0,149
-585,109	116,955	0,023	0,021
-584,094	-127,761	-0,022	-0,002
-583,079	83,562	0,083	0,067
-582,065	67,368	0,011	0,009
-581,050	-200,000	-0,024	0,093
-580,036	-150,627	-0,031	-0,002
-579,021	8,787	-0,046	0,026
-578,006	-66,885	-0,032	-0,009
-576,992	445,098	-0,042	-0,069
-575,977	381,966	-0,065	-0,099
-574,963	-200,000	-0,027	0,121
-573,948	-200,000	0,005	0,034
-572,934	10,196	0,027	-0,015
-571,919	-200,000	0,007	-0,148
-570,904	380,864	0,062	0,095
-569,890	800,000	-0,015	0,037
-568,875	594,784	-0,036	0,066
-567,861	-200,000	-0,001	-0,080
-566,846	800,000	-0,039	0,098
-565,831	-200,000	0,001	-0,021
-564,817	155,449	-0,091	-0,093
-563,802	800,000	-0,045	-0,101
-562,788	-200,000	-0,055	-0,225
-561,773	286,665	0,037	-0,050
-560,758	-200,000	-0,012	-0,078
-559,744	800,000	0,017	0,039
-558,729	-200,000	0,008	-0,082
-557,715	-105,858	-0,155	-0,026
-556,700	-200,000	-0,002	0,017
-555,685	-109,935	0,119	-0,018
-554,671	800,000	0,075	-0,157
-553,656	-200,000	0,002	-0,023
-552,642	800,000	0,027	0,078
-551,627	-177,530	-0,018	-0,000
-550,612	-81,088	-0,068	-0,017
-549,598	267,436	-0,032	-0,041
-548,583	505,158	0,032	0,054
-547,569	-54,971	-0,162	-0,054
-546,554	-87,159	-0,031	-0,007
-545,539	-200,000	-0,021	-0,112
-544,525	-200,000	0,035	-0,119
-543,510	-120,120	0,120	0,015
-542,496	-163,068	-0,108	-0,004
-541,481	75,725	-0,069	-0,054
-540,466	338,714	0,070	0,101
-539,452	149,993	0,113	0,113
-538,437	135,632	0,079	0,076
-537,423	174,899	-0,090	0,097
-536,408	118,960	-0,024	-0,022
-535,393	293,065	0,091	-0,123
-534,379	-7,134	-0,114	-0,057
-533,364	-200,000	0,017	-0,061
-532,350	550,427	0,062	-0,110
-531,335	-57,877	-0,164	-0,053
-530,321	113,811	0,023	0,021
-529,306	-200,000	-0,017	0,065
-528,291	-31,843	-0,048	0,020
-527,277	75,980	-0,075	-0,058
-526,262	-8,868	-0,010	0,005
-525,248	800,000	-0,044	0,121
-524,233	228,700	0,053	-0,064
-523,218	168,547	-0,032	0,034
-522,204	-200,000	-0,028	0,128
-521,189	85,803	-0,163	-0,133
-520,175	-103,954	0,085	-0,015
-519,160	157,597	-0,040	-0,041
-518,145	-164,152	-0,039	-0,001
-517,131	-117,659	0,112	0,015
-516,116	-50,333	0,034	-0,012
-515,102	466,701	-0,017	-0,028
-514,087	-200,000	0,010	0,132
-513,072	51,988	-0,071	0,050
-512,058	-200,000	0,014	0,208
-511,043	-200,000	-0,021	0,144
-510,029	-86,052	0,126	-0,029
-509,014	-200,000	-0,012	0,064
-507,999	-200,000	-0,015	-0,143
-506,985	800,000	-0,009	0,027
-505,970	239,379	-0,029	0,036
-504,956	290,828	-0,082	-0,110
-503,941	2,534	0,070	-0,037
-502,926	800,000	0,021	0,060
-501,912	-92,488	-0,023	-0,005
-500,897	-113,052	0,019	-0,003
-499,883	108,959	-0,093	-0,082
-498,868	-21,240	-0,116	0,052
-497,853	36,563	-0,109	0,071
-496,839	-200,000	-0,019	0,137
-495,824	-155,526	0,067	-0,003
-494,810	800,000	-0,026	-0,055
-493,795	203,048	0,086	-0,098
-492,781	-200,000	-0,012	0,058
-491,766	-200,000	0,020	-0,067
-490,751	51,354	-0,025	0,017
-489,737	800,000	0,060	0,124
-488,722	-200,000	-0,011	0,099
-487,708	800,000	0,033	0,078
-486,693	319,808	0,034	-0,048
-485,678	-200,000	0,015	-0,111
-484,664	-49,476	-0,122	-0,043
-483,649	129,829	-0,055	0,051
-482,635	-78,759	-0,059	-0,015
-481,620	-200,000	-0,003	0,053
-480,605	-200,000	0,005	0,055
-479,591	800,000	0,030	0,094
-478,576	-25,771	-0,065	0,028
-477,562	-200,000	-0,006	-0,097
-476,547	36,827	-0,076	-0,050
-475,532	98,769	-0,047	-0,040
-474,518	254,219	0,102	-0,129
-473,503	198,774	-0,025	-0,029
-472,489	800,000	-0,048	-0,103
-471,474	-14,211	0,099	0,047
-470,459	145,241	-0,036	-0,036
-469,445	771,235	-0,021	-0,043
-468,430	193,892	0,052	-0,058
-467,416	11,283	-0,068	0,038
-466,401	-200,000	0,005	0,079
-465,386	800,000	0,085	0,183
-464,372	273,836	0,061	0,079
-463,357	116,007	0,034	-0,031
-462,343	403,531	-0,031	-0,048
-461,328	-39,294	0,031	-0,012
-460,313	-6,213	0,123	0,062
-459,299	-166,166	0,091	0,003
-458,284	-73,064	-0,082	-0,022
-457,270	77,883	-0,149	0,117
-456,255	-81,636	-0,110	0,026
-455,241	-102,973	-0,067	0,012
-454,226	740,027	-0,020	0,039
-453,211	-177,351	0,061	-0,001
-452,197	-51,911	0,105	0,036
-451,182	66,602	-0,137	0,102
-450,168	165,957	0,034	0,036
-449,153	755,796	0,037	-0,074
-448,138	-200,000	0,001	-0,153
-447,124	-92,903	-0,226	-0,046
-446,109	-159,098	-0,140	0,006
-445,095	-80,044	0,053	0,013
-444,080	469,039	-0,063	-0,104
-443,065	800,000	0,031	0,085
-442,051	342,267	0,028	-0,040
-441,036	-60,254	-0,143	0,045
-440,022	246,766	-0,105	-0,131
-439,007	-126,270	0,087	0,009
-437,992	305,114	-0,057	0,079
-436,978	-43,836	-0,055	-0,020
-435,963	-200,000	-0,007	0,060
-434,949	40,031	-0,129	0,085
-433,934	-200,000	0,021	0,145
-432,919	-27,160	0,019	-0,008
-431,905	34,105	0,098	-0,063
-430,890	-104,871	0,148	-0,025
-429,876	-146,866	-0,054	0,003
-428,861	80,900	0,043	0,034
-427,846	-200,000	-0,021	0,069
-426,832	800,000	-0,001	-0,004
-425,817	800,000	0,051	-0,142
-424,803	800,000	-0,017	0,054
-423,788	800,000	0,040	0,122
-422,773	-200,000	0,013	0,046
-421,759	800,000	0,055	0,147
-420,744	-200,000	-0,002	0,053
-419,730	-103,813	-0,080	0,014
-418,715	-80,244	-0,057	-0,014
-417,701	778,897	-0,019	0,038
-416,686	-200,000	0,006	-0,059
-415,671	-200,000	0,054	-0,220
-414,657	288,396	0,041	0,055
-413,642	78,225	-0,045	-0,036
-412,628	24,848	0,002	0,002
-411,613	-23,608	0,056	0,025
-410,598	56,337	-0,098	-0,070
-409,584	392,976	-0,027	0,041
-408,569	800,000	0,036	0,112
-407,555	498,521	-0,021	-0,036
-406,540	525,556	0,021	0,037
-405,525	14,927	-0,087	-0,050
-404,511	-143,066	0,031	0,002
-403,496	172,334	-0,073	0,077
-402,482	-200,000	0,004	0,094
-401,467	14,856	0,138	0,079
-400,452	-1,377	-0,049	-0,025
-399,438	-103,880	0,068	0,012
-398,423	-200,000	-0,001	0,025
-397,409	768,075	0,049	-0,099
-396,394	34,702	-0,014	-0,009
-395,379	472,155	-0,019	-0,031
-394,365	-200,000	0,009	0,093
-393,350	-200,000	0,004	-0,092
-392,336	85,273	-0,049	-0,039
-391,321	630,976	-0,024	-0,045
-390,306	-77,108	0,072	0,018
-389,292	-200,000	-0,026	-0,114
-388,277	124,378	0,026	-0,024
-387,263	458,804	-0,026	0,043
-386,248	-200,000	0,022	0,089
-385,233	800,000	-0,009	0,022
-384,219	-200,000	-0,006	-0,057
-383,204	214,318	0,065	-0,076
-382,190	122,098	-0,062	0,057
-381,175	-28,336	0,208	-0,088
-380,160	-200,000	-0,001	-0,011
-379,146	800,000	0,035	0,080
-378,131	-16,580	-0,097	-0,045
-377,117	800,000	-0,022	-0,070
-376,102	72,005	-0,044	-0,034
-375,088	-50,227	-0,078	-0,027
-374,073	9,674	0,021	-0,011
-373,058	-200,000	-0,008	-0,053
-372,044	122,732	-0,039	0,036
-371,029	-80,190	-0,015	-0,004
-370,015	-77,654	-0,062	0,016
-369,000	-129,646	-0,073	-0,007
-367,985	252,006	-0,025	-0,032
-366,971	324,133	-0,066	0,093
-365,956	-200,000	-0,005	0,063
-364,942	158,865	0,116	0,118
-363,927	-200,000	0,002	0,176
-362,912	6,648	-0,036	-0,020
-361,898	-103,628	-0,075	0,013
-360,883	-6,152	0,082	0,041
-359,869	169,427	-0,030	-0,032
-358,854	-69,063	-0,083	-0,023
-357,839	618,534	-0,045	-0,083
-356,825	210,697	0,087	0,100
-355,810	-155,282	-0,032	0,002
-354,796	565,223	-0,021	0,038
-353,781	-196,171	0,132	-0,001
-352,766	-140,838	0,096	0,007
-351,752	104,621	0,065	-0,057
-350,737	-84,071	0,154	0,036
-349,723	-100,377	0,022	0,004
-348,708	207,507	-0,056	0,065
-347,693	800,000	-0,019	-0,061
-346,679	-200,000	-0,025	-0,125
-345,664	-43,220	-0,063	-0,023
-344,650	767,776	0,050	-0,100
-343,635	-120,518	0,089	0,011
-342,620	-56,864	0,072	0,023
-341,606	800,000	0,035	0,108
-340,591	88,085	-0,064	-0,052
-339,577	486,799	-0,037	-0,061
-338,562	267,658	-0,039	-0,050
-337,548	800,000	0,032	-0,070
-336,533	564,795	-0,023	0,041
-335,518	398,835	0,080	-0,123
-334,504	-82,696	0,122	-0,029
-333,489	541,460	0,026	0,046
-332,475	-158,766	-0,105	0,004
-331,460	-200,000	-0,002	-0,053
-330,445	59,912	0,064	0,047
-329,431	-200,000	-0,007	0,162
-328,416	800,000	0,029	0,089
-327,402	-76,237	0,052	0,013
-326,387	-47,024	-0,053	-0,019
-325,372	-136,867	0,061	0,005
-324,358	-100,005	0,057	-0,010
-323,343	-132,516	-0,107	-0,010
-322,329	67,780	0,020	0,015
-321,314	56,274	0,182	0,129
-320,299	-13,483	0,071	0,034
-319,285	-200,000	-0,011	0,046
-318,270	18,841	0,105	0,062
-317,256	-200,000	-0,006	-0,173
-316,241	-97,075	0,061	-0,012
-315,226	192,080	0,137	0,152
-314,212	-200,000	-0,020	-0,095
-313,197	349,997	0,041	0,060
-312,183	57,678	0,066	-0,047
-311,168	-200,000	-0,003	-0,038
-310,153	-200,000	-0,027	-0,162
-309,139	348,498	0,070	0,102
-308,124	800,000	-0,038	0,103
-307,110	-200,000	0,012	0,051
-306,095	-200,000	-0,010	0,054
-305,080	166,454	0,114	0,119
-304,066	-200,000	0,009	-0,048
-303,051	-9,600	-0,116	0,056
-302,037	800,000	0,054	-0,160
-301,022	-99,755	-0,129	0,023
-300,008	-200,000	0,045	0,148
-298,993	251,600	-0,059	0,073
-297,978	597,063	-0,034	0,061
-296,964	4,830	0,045	-0,024
-295,949	-45,307	-0,169	0,061
-294,935	800,000	-0,080	-0,216
-293,920	156,304	-0,073	-0,074
-292,905	-58,392	0,143	-0,045
-291,891	130,633	0,043	-0,040
-290,876	401,393	0,034	-0,053
-289,862	-79,211	-0,046	0,011
-288,847	-84,726	-0,105	-0,024
-287,832	16,569	0,094	0,054
-286,818	-56,662	-0,033	-0,010
-285,803	396,238	0,049	0,076
-284,789	153,501	-0,059	-0,059
-283,774	27,628	0,105	0,065
-282,759	-62,518	0,032	-0,010
-281,745	-77,793	-0,144	0,036
-280,730	-200,000	0,034	0,000
-279,716	303,828	0,095	-0,129
-278,701	-200,000	0,026	-0,151
-277,686	127,386	0,127	0,118
-276,672	11,057	-0,074	0,041
-275,657	423,868	-0,017	0,027
-274,643	493,880	0,044	-0,074
-273,628	800,000	-0,072	-0,165
-272,613	-200,000	0,012	0,077
-271,599	52,948	0,115	0,080
-270,584	62,132	0,061	0,044
-269,570	-94,122	0,095	-0,019
-268,555	800,000	-0,012	-0,030
-267,540	-200,000	-0,012	0,102
-266,526	-107,853	0,082	-0,013
-265,511	-200,000	-0,013	-0,079
-264,497	-80,535	-0,077	-0,019
-263,482	-200,000	-0,002	0,170
-262,467	74,541	-0,028	0,022
-261,453	77,365	-0,123	0,096
-260,438	-200,000	0,004	-0,018
-259,424	445,026	-0,101	-0,162
-258,409	800,000	-0,038	-0,121
-257,395	334,488	0,065	-0,093
-256,380	-200,000	-0,006	0,093
-255,365	-64,508	-0,020	0,006
-254,351	338,204	0,068	-0,097
-253,336	-110,438	0,169	-0,025
-252,322	34,057	-0,161	-0,102
-251,307	-102,325	0,063	-0,011
-250,292	202,769	-0,066	0,074
-249,278	13,149	-0,048	0,027
-248,263	-78,498	0,103	-0,025
-247,249	-200,000	-0,016	0,086
-246,234	-46,307	0,050	0,018
-245,219	715,576	-0,061	0,119
-244,205	-118,355	0,138	-0,018
-243,190	74,596	0,031	0,024
-242,176	-200,000	0,012	-0,041
-241,161	-144,737	0,153	0,010
-240,146	-57,250	0,061	0,020
-239,132	5,548	0,200	0,108
-238,117	-166,981	-0,085	0,002
-237,103	38,624	-0,059	0,039
-236,088	585,806	0,026	-0,047
-235,073	11,824	0,135	-0,076
-234,059	417,784	0,048	-0,075
-233,044	175,222	0,022	-0,023
-232,030	166,435	-0,050	-0,052
-231,015	649,147	0,020	0,038
-230,000	32,417	-0,137	0,087
-228,986	800,000	0,051	0,158
-227,971	-200,000	0,013	0,075
-226,957	-200,000	-0,039	0,128
-225,942	102,566	0,079	0,068
-224,927	368,291	-0,061	0,091
-223,913	-200,000	-0,021	-0,190
-222,898	180,605	0,092	0,099
-221,884	-51,976	0,162	-0,055
-220,869	76,522	0,096	-0,075
-219,855	800,000	0,032	-0,085
-218,840	180,881	0,108	-0,116
-217,825	-200,000	-0,006	-0,075
-216,811	-54,414	-0,088	-0,029
-215,796	-200,000	-0,002	0,023
-214,782	21,304	-0,014	-0,008
-213,767	171,716	0,032	0,034
-212,752	-200,000	0,002	0,093
-211,738	-50,636	0,094	0,032
-210,723	-41,326	-0,100	0,037
-209,709	23,544	-0,073	-0,044
-208,694	481,871	-0,021	-0,034
-207,679	-84,195	0,025	0,006
-206,665	-59,161	-0,145	0,045
-205,650	689,125	0,072	0,138
-204,636	228,108	-0,045	0,053
-203,621	-109,084	0,077	0,012
-202,606	-87,499	0,048	0,010
-201,592	800,000	-0,033	-0,071
-200,577	-70,602	0,097	-0,027
-199,563	447,114	0,052	-0,084
-198,548	-24,130	0,063	-0,027
-197,533	-79,874	-0,087	-0,021
-196,519	31,540	0,064	0,040
-195,504	800,000	-0,059	0,124
-194,490	194,004	-0,057	0,063
-193,475	-67,078	-0,026	-0,007
-192,460	-26,363	0,071	0,030
-191,446	-105,461	-0,154	0,025
-190,431	-157,081	0,158	0,007
-189,417	800,000	0,034	0,092
-188,402	27,955	0,104	-0,064
-187,387	95,009	0,065	-0,054
-186,373	-7,139	-0,024	0,012
-185,358	62,009	-0,046	-0,033
-184,344	30,344	-0,074	-0,046
-183,329	255,390	-0,025	0,031
-182,315	-200,000	-0,030	-0,113
-181,300	280,998	-0,061	0,080
-180,285	266,567	0,018	-0,023
-179,271	-15,517	-0,226	-0,105
-178,256	186,907	0,038	-0,041
-177,242	345,536	0,056	0,080
-176,227	165,915	0,062	0,064
-175,212	289,275	-0,034	0,046
-174,198	-91,805	-0,095	0,019
-173,183	-53,575	-0,102	0,034
-172,169	741,333	0,068	-0,134
-171,154	-54,977	-0,075	-0,025
-170,139	336,538	-0,046	-0,065
-169,125	-71,481	0,065	0,017
-168,110	800,000	-0,066	0,178
-167,096	-44,289	-0,142	0,052
-166,081	3,159	-0,115	-0,061
-165,066	800,000	0,029	-0,091
-164,052	307,034	0,096	-0,131
-163,037	800,000	0,020	0,061
-162,023	-84,244	0,105	-0,024
-161,008	776,595	0,055	0,109
-159,993	107,798	0,028	0,024
-158,979	-60,690	0,029	0,009
-157,964	577,925	-0,048	-0,086
-156,950	489,728	-0,042	-0,070
-155,935	135,560	-0,032	-0,030
-154,920	800,000	-0,031	0,084
-153,906	-110,710	-0,130	-0,019
-152,891	52,425	0,030	-0,021
-151,877	367,315	0,013	-0,019
-150,862	800,000	-0,073	-0,205
-149,847	101,722	-0,042	0,035
-148,833	35,547	-0,018	0,012
-147,818	-174,301	0,220	0,005
-146,804	-70,348	0,075	0,021
-145,789	-200,000	0,029	0,134
-144,775	689,086	-0,048	-0,092
-143,760	-138,532	-0,126	0,010
-142,745	351,293	0,050	0,072
-141,731	-200,000	0,045	0,167
-140,716	67,482	0,066	0,049
-139,702	-67,827	0,120	-0,034
-138,687	-46,622	-0,011	0,004
-137,672	270,685	-0,059	-0,075
-136,658	33,946	-0,044	-0,028
-135,643	800,000	-0,068	-0,156
-134,629	11,029	-0,141	0,078
-133,614	273,011	0,022	0,029
-132,599	-200,000	-0,026	0,138
-131,585	776,453	-0,051	0,101
-130,570	-45,298	0,087	0,031
-129,556	800,000	-0,063	-0,147
-128,541	-44,796	-0,149	0,054
-127,526	800,000	-0,025	0,051
-126,512	-64,725	-0,041	0,012
-125,497	168,451	-0,069	-0,071
-124,483	-188,719	0,012	0,000
-123,468	-200,000	0,020	0,124
-122,453	80,198	-0,060	-0,047
-121,439	-43,980	-0,101	0,037
-120,424	-200,000	0,004	0,038
-119,410	-200,000	0,013	0,171
