DTS Sentinel unit serial number:	SN410029Multiplexer serial number:	ORYXHardware model number:	OX2-SRSoftware version number:	ORYX F/W v4,00 Oryx Data Collector v3.7.2.0data status	okinstallation	B6 Nyhavnadifferential loss correction	single-endedforward channel	channel 2reverse channel	N/Adate	2023/12/09time	19:10:08forward acquisition time	300,00reverse acquisition time	0,00gamma	499,1914k internal	0,3130k external	0,3130temperature offset calibration	1,0000default loss term (dB/km)	0,3820temperature slope calibration	1,0000multiplexer offset coefficient	1,0000multiplexer slope coefficient	1,0000fibre end	0,00T internal ref (°C)	21,06T ext. ref 1 (°C)	4,84T ext. ref 2 (°C)	4,81length (m)	temperature (°C)	Stokes	anti-Stokes-744,400	800,000	-0,062	-0,175
-743,385	4,358	-0,245	0,133
-742,371	10,097	0,053	-0,030
-741,356	60,022	-0,092	0,068
-740,342	-117,864	0,070	-0,009
-739,327	-0,786	-0,139	0,073
-738,312	416,147	-0,035	-0,055
-737,298	-71,664	-0,233	0,064
-736,283	167,875	0,019	0,020
-735,269	-76,145	-0,188	-0,049
-734,254	800,000	0,061	-0,156
-733,239	-110,711	-0,469	-0,071
-732,225	525,879	0,030	-0,052
-731,210	-78,456	-0,134	0,034
-730,196	-200,000	0,028	-0,120
-729,181	800,000	0,014	-0,033
-728,167	800,000	0,078	0,174
-727,152	6,186	-0,131	-0,072
-726,137	42,577	-0,161	-0,109
-725,123	189,395	-0,046	-0,052
-724,108	-200,000	-0,025	-0,229
-723,094	260,925	-0,039	-0,051
-722,079	-71,282	-0,119	-0,033
-721,064	-90,484	0,091	-0,019
-720,050	219,735	-0,027	-0,033
-719,035	57,116	-0,108	-0,078
-718,021	397,219	-0,032	-0,050
-717,006	-200,000	-0,026	-0,116
-715,991	30,689	-0,101	0,064
-714,977	-200,000	0,002	-0,130
-713,962	-8,566	-0,121	-0,060
-712,948	-134,462	-0,094	0,008
-711,933	800,000	-0,046	-0,100
-710,918	800,000	0,058	0,131
-709,904	-103,005	-0,133	-0,023
-708,889	290,086	0,024	-0,032
-707,875	184,101	0,022	0,024
-706,860	-50,548	0,073	-0,025
-705,845	-82,651	-0,050	-0,012
-704,831	486,864	0,090	0,152
-703,816	37,223	-0,041	-0,027
-702,802	228,722	-0,070	0,085
-701,787	109,130	-0,106	0,094
-700,772	106,669	-0,099	-0,087
-699,758	87,004	0,038	0,031
-698,743	-200,000	-0,018	0,151
-697,729	-98,473	0,066	0,012
-696,714	-200,000	0,012	0,042
-695,699	-200,000	-0,010	0,062
-694,685	108,703	-0,102	-0,090
-693,670	-200,000	0,022	-0,121
-692,656	246,076	0,042	-0,052
-691,641	14,660	0,079	0,046
-690,627	-200,000	-0,020	0,098
-689,612	26,558	0,052	0,032
-688,597	800,000	0,019	0,046
-687,583	-118,447	-0,143	0,019
-686,568	27,665	-0,148	-0,092
-685,554	106,679	-0,081	0,071
-684,539	-18,567	0,124	-0,057
-683,524	-168,358	-0,024	-0,001
-682,510	-28,934	-0,020	-0,009
-681,495	62,300	-0,090	0,067
-680,481	-66,639	-0,102	0,030
-679,466	800,000	-0,030	-0,064
-678,451	800,000	0,009	-0,024
-677,437	-200,000	-0,008	0,102
-676,422	-200,000	-0,008	0,035
-675,408	108,300	0,073	0,064
-674,393	204,750	-0,103	0,119
-673,378	-200,000	0,014	-0,120
-672,364	800,000	0,025	-0,053
-671,349	-200,000	-0,013	-0,153
-670,335	211,207	-0,018	-0,021
-669,320	135,393	0,033	0,032
-668,305	-200,000	0,001	0,016
-667,291	613,979	0,078	-0,145
-666,276	520,933	-0,023	0,040
-665,262	57,807	-0,126	-0,091
-664,247	-87,886	-0,147	0,032
-663,232	35,280	-0,136	0,089
-662,218	26,770	0,080	0,050
-661,203	-200,000	-0,002	0,058
-660,189	800,000	0,013	-0,042
-659,174	168,681	-0,138	-0,146
-658,159	-71,833	-0,066	0,018
-657,145	800,000	0,047	-0,138
-656,130	800,000	0,023	0,053
-655,116	800,000	0,049	-0,143
-654,101	750,480	0,061	-0,124
-653,086	104,847	-0,029	0,025
-652,072	228,684	-0,039	0,047
-651,057	-200,000	-0,001	-0,015
-650,043	-80,077	0,044	-0,011
-649,028	-95,519	0,097	-0,019
-648,014	800,000	0,035	0,087
-646,999	-200,000	-0,009	-0,067
-645,984	415,451	-0,046	0,074
-644,970	-12,098	-0,071	0,034
-643,955	28,212	-0,081	-0,051
-642,941	-52,494	-0,064	-0,022
-641,926	-200,000	-0,004	-0,098
-640,911	800,000	0,036	-0,088
-639,897	517,651	0,045	-0,078
-638,882	-15,781	-0,011	0,005
-637,868	52,513	-0,089	0,063
-636,853	66,443	-0,122	-0,092
-635,838	-30,420	-0,052	-0,022
-634,824	400,148	-0,023	-0,036
-633,809	762,754	0,014	-0,027
-632,795	-200,000	0,004	-0,133
-631,780	39,506	0,070	0,046
-630,765	-59,000	-0,072	-0,023
-629,751	438,953	0,037	0,059
-628,736	542,017	0,021	0,037
-627,722	-200,000	-0,005	-0,036
-626,707	-17,269	-0,109	-0,051
-625,692	525,957	0,059	0,103
-624,678	15,979	0,100	0,058
-623,663	191,361	0,031	0,035
-622,649	-88,514	-0,051	0,011
-621,634	116,456	0,024	-0,021
-620,619	135,918	0,042	0,040
-619,605	16,512	0,040	-0,023
-618,590	42,778	0,104	-0,070
-617,576	-36,282	0,053	-0,021
-616,561	362,963	-0,032	-0,047
-615,546	-200,000	-0,030	-0,155
-614,532	800,000	0,046	-0,118
-613,517	-14,110	-0,193	0,092
-612,503	361,981	0,122	-0,181
-611,488	-53,173	-0,047	0,016
-610,474	-200,000	-0,026	0,191
-609,459	800,000	-0,005	-0,017
-608,444	-200,000	-0,018	-0,106
-607,430	-6,129	-0,083	-0,042
-606,415	800,000	0,028	0,059
-605,401	-200,000	-0,001	0,085
-604,386	506,016	-0,044	0,076
-603,371	-76,295	0,071	0,018
-602,357	-123,434	0,094	0,011
-601,342	-89,496	-0,070	0,015
-600,328	-200,000	-0,021	-0,072
-599,313	-200,000	0,018	-0,130
-598,298	-7,517	-0,050	-0,025
-597,284	16,801	0,025	0,015
-596,269	76,474	-0,050	-0,040
-595,255	800,000	-0,065	-0,143
-594,240	6,531	0,050	-0,028
-593,225	-150,974	-0,038	-0,002
-592,211	-200,000	0,004	0,056
-591,196	800,000	-0,014	0,037
-590,182	88,039	-0,055	-0,045
-589,167	-200,000	0,016	0,059
-588,152	800,000	0,030	0,091
-587,138	58,298	-0,029	-0,021
-586,123	-200,000	-0,007	-0,054
-585,109	-200,000	-0,016	0,078
-584,094	-148,113	-0,040	-0,002
-583,079	-6,419	-0,169	0,085
-582,065	-175,406	0,066	-0,001
-581,050	-97,847	0,051	0,010
-580,036	15,321	-0,020	0,012
-579,021	397,253	-0,033	-0,051
-578,006	68,013	-0,101	-0,076
-576,992	-200,000	-0,004	-0,043
-575,977	-78,953	0,065	0,016
-574,963	-76,057	0,204	-0,053
-573,948	800,000	-0,038	-0,092
-572,934	-40,537	-0,063	0,024
-571,919	171,350	-0,041	0,044
-570,904	344,483	0,113	-0,164
-569,890	-200,000	-0,002	-0,051
-568,875	168,287	0,012	-0,013
-567,861	623,932	0,036	0,067
-566,846	-200,000	0,010	0,039
-565,831	323,261	0,021	0,030
-564,817	157,066	0,037	0,037
-563,802	-200,000	0,007	-0,061
-562,788	-130,281	0,029	-0,003
-561,773	258,936	-0,081	0,104
-560,758	438,040	0,020	-0,033
-559,744	142,835	0,056	-0,055
-558,729	745,453	-0,003	-0,007
-557,715	15,545	-0,146	-0,084
-556,700	-45,295	-0,089	0,032
-555,685	-116,413	-0,050	0,007
-554,671	-20,015	-0,049	0,022
-553,656	-75,634	0,185	0,048
-552,642	-200,000	0,015	-0,123
-551,627	-68,686	0,129	-0,037
-550,612	-200,000	-0,025	0,163
-549,598	-200,000	-0,019	-0,065
-548,583	672,291	-0,071	-0,136
-547,569	-83,466	0,002	0,000
-546,554	-200,000	-0,010	0,087
-545,539	241,056	-0,011	0,013
-544,525	-100,952	0,071	0,013
-543,510	77,634	0,110	-0,086
-542,496	-169,049	-0,160	0,004
-541,481	100,491	0,048	-0,041
-540,466	800,000	-0,048	-0,154
-539,452	-200,000	-0,026	-0,103
-538,437	300,116	0,081	0,111
-537,423	-88,756	0,026	-0,006
-536,408	800,000	-0,056	-0,152
-535,393	-158,526	-0,139	0,006
-534,379	-200,000	0,006	0,035
-533,364	-155,901	-0,025	0,001
-532,350	10,418	-0,054	-0,030
-531,335	-200,000	0,012	0,124
-530,321	-60,563	0,060	0,019
-529,306	481,279	0,042	-0,071
-528,291	-200,000	0,026	-0,156
-527,277	-200,000	-0,011	0,082
-526,262	-35,562	-0,056	-0,022
-525,248	-200,000	-0,023	0,099
-524,233	-200,000	0,002	-0,095
-523,218	57,219	-0,059	0,043
-522,204	270,180	-0,038	0,049
-521,189	-129,621	-0,088	0,009
-520,175	-200,000	-0,000	-0,104
-519,160	32,996	-0,140	-0,089
-518,145	800,000	0,087	-0,224
-517,131	-200,000	-0,019	0,114
-516,116	185,120	0,089	0,097
-515,102	265,741	-0,030	0,038
-514,087	-94,676	-0,169	0,033
-513,072	-17,041	-0,116	-0,054
-512,058	-78,401	0,153	-0,038
-511,043	535,359	0,069	-0,121
-510,029	-200,000	-0,016	0,129
-509,014	800,000	0,057	0,149
-507,999	-67,095	0,091	0,026
-506,985	-30,283	-0,070	0,029
-505,970	72,376	-0,054	-0,042
-504,956	-78,832	-0,112	-0,028
-503,941	426,483	0,024	0,039
-502,926	-200,000	0,021	0,101
-501,912	-10,946	-0,050	-0,024
-500,897	-19,595	-0,036	0,017
-499,883	-200,000	-0,011	0,058
-498,868	-66,902	-0,170	-0,049
-497,853	22,067	-0,056	-0,034
-496,839	14,930	-0,129	0,074
-495,824	316,881	-0,057	-0,080
-494,810	-82,303	0,128	0,031
-493,795	324,594	0,104	0,147
-492,781	-200,000	-0,030	-0,189
-491,766	-72,039	-0,109	0,030
-490,751	800,000	-0,050	0,138
-489,737	12,398	-0,046	0,026
-488,722	128,537	-0,029	0,027
-487,708	-200,000	-0,002	-0,030
-486,693	-200,000	0,013	0,101
-485,678	-200,000	-0,010	-0,104
-484,664	-48,547	0,122	-0,043
-483,649	-200,000	-0,012	0,045
-482,635	265,764	-0,030	-0,038
-481,620	-200,000	-0,014	0,073
-480,605	78,051	0,105	0,082
-479,591	-200,000	-0,031	0,145
-478,576	147,594	-0,020	-0,019
-477,562	767,017	-0,066	-0,133
-476,547	-129,840	0,097	0,010
-475,532	800,000	0,031	0,075
-474,518	-116,196	0,070	0,009
-473,503	-200,000	0,022	-0,091
-472,489	42,634	0,028	0,019
-471,474	139,493	-0,040	-0,039
-470,459	-200,000	-0,022	-0,082
-469,445	389,385	0,049	0,074
-468,430	358,246	0,031	-0,046
-467,416	-200,000	0,017	0,057
-466,401	800,000	0,014	0,039
-465,386	-200,000	0,028	0,160
-464,372	-105,011	-0,032	-0,005
-463,357	800,000	-0,032	-0,082
-462,343	489,368	-0,061	-0,103
-461,328	800,000	0,006	-0,014
-460,313	-200,000	0,001	-0,017
-459,299	33,673	-0,075	0,048
-458,284	500,977	0,019	-0,033
-457,270	-153,847	0,124	0,006
-456,255	-124,040	-0,091	0,010
-455,241	-84,823	0,065	-0,015
-454,226	-200,000	-0,001	-0,037
-453,211	-48,820	0,042	-0,015
-452,197	77,575	-0,143	0,112
-451,182	800,000	0,048	0,101
-450,168	69,323	-0,037	0,028
-449,153	405,551	-0,046	0,072
-448,138	-11,916	0,146	-0,070
-447,124	-39,624	-0,022	0,008
-446,109	117,936	0,042	0,038
-445,095	289,845	0,070	0,094
-444,080	388,853	0,050	-0,076
-443,065	-16,582	0,023	0,011
-442,051	246,487	-0,041	0,051
-441,036	800,000	-0,065	-0,150
-440,022	800,000	-0,066	-0,183
-439,007	135,104	0,050	0,048
-437,992	-177,342	0,092	-0,002
-436,978	-36,987	0,152	0,059
-435,963	14,983	0,085	0,049
-434,949	603,296	-0,097	-0,179
-433,934	387,351	-0,072	-0,110
-432,919	226,321	-0,044	0,053
-431,905	693,507	0,091	0,176
-430,890	22,806	0,073	0,044
-429,876	450,202	0,068	0,110
-428,861	605,161	-0,013	-0,025
-427,846	311,431	-0,054	0,074
-426,832	586,324	-0,055	0,100
-425,817	-6,213	-0,106	-0,053
-424,803	800,000	0,048	-0,104
-423,788	175,094	-0,065	0,070
-422,773	104,454	0,020	0,017
-421,759	-98,205	0,081	0,015
-420,744	-200,000	-0,026	0,096
-419,730	623,143	-0,040	0,074
-418,715	-44,918	0,021	-0,008
-417,701	-200,000	0,025	0,139
-416,686	297,525	0,069	0,094
-415,671	456,525	0,015	-0,025
-414,657	208,461	0,134	0,154
-413,642	68,085	-0,072	-0,054
-412,628	-200,000	-0,020	0,081
-411,613	-118,802	-0,077	0,010
-410,598	-108,821	-0,150	-0,023
-409,584	-57,915	-0,059	0,019
-408,569	499,783	-0,049	0,083
-407,555	-200,000	0,016	0,109
-406,540	225,486	0,029	0,035
-405,525	-21,538	-0,020	-0,009
-404,511	-200,000	0,044	-0,142
-403,496	800,000	0,062	-0,128
-402,482	-147,473	0,140	-0,009
-401,467	800,000	0,090	0,184
-400,452	206,008	-0,024	0,028
-399,438	-200,000	0,001	0,198
-398,423	-200,000	-0,011	0,196
-397,409	114,501	0,017	0,015
-396,394	-200,000	-0,008	-0,055
-395,379	-90,357	0,028	-0,006
-394,365	-200,000	0,020	-0,095
-393,350	58,100	-0,086	0,061
-392,336	-69,730	-0,106	-0,029
-391,321	457,660	0,022	-0,036
-390,306	-200,000	-0,017	-0,087
-389,292	92,842	-0,061	-0,050
-388,277	175,532	0,104	0,111
-387,263	520,562	0,076	-0,132
-386,248	437,602	-0,033	-0,053
-385,233	-200,000	-0,011	0,124
-384,219	-79,838	-0,070	0,017
-383,204	45,385	-0,126	-0,085
-382,190	800,000	0,053	-0,132
-381,175	-200,000	0,015	0,049
-380,160	-72,084	0,118	-0,032
-379,146	800,000	0,044	0,126
-378,131	690,710	0,057	0,111
-377,117	-74,581	-0,016	-0,004
-376,102	50,671	-0,066	0,046
-375,088	-152,427	0,040	-0,002
-374,073	171,777	0,075	0,079
-373,058	-162,445	0,106	0,004
-372,044	-200,000	-0,010	0,220
-371,029	77,461	-0,038	0,029
-370,015	387,163	-0,070	-0,106
-369,000	137,831	-0,083	-0,080
-367,985	-200,000	-0,002	-0,034
-366,971	162,417	-0,093	-0,095
-365,956	-62,487	0,132	0,040
-364,942	311,257	0,054	-0,074
-363,927	-80,685	0,078	-0,019
-362,912	-27,974	-0,156	-0,066
-361,898	-200,000	0,043	0,147
-360,883	233,250	-0,033	0,040
-359,869	390,952	-0,089	-0,137
-358,854	-188,744	0,101	-0,001
-357,839	-166,336	0,203	0,006
-356,825	106,533	0,154	0,134
-355,810	-29,331	-0,151	-0,063
-354,796	800,000	0,071	-0,216
-353,781	105,699	-0,146	-0,127
-352,766	800,000	0,033	-0,073
-351,752	178,191	-0,059	0,063
-350,737	187,463	-0,024	0,027
-349,723	-81,416	-0,049	0,012
-348,708	-200,000	-0,009	-0,031
-347,693	800,000	-0,047	0,126
-346,679	204,765	0,026	-0,030
-345,664	800,000	0,055	-0,119
-344,650	-43,756	-0,064	-0,024
-343,635	-22,647	0,051	-0,022
-342,620	80,659	0,048	-0,038
-341,606	184,062	-0,077	-0,083
-340,591	-56,000	-0,114	0,037
-339,577	18,198	-0,101	-0,059
-338,562	-200,000	-0,005	0,095
-337,548	36,352	0,013	-0,008
-336,533	-112,592	-0,027	0,004
-335,518	-200,000	-0,000	0,077
-334,504	135,123	-0,084	0,080
-333,489	-200,000	0,026	0,098
-332,475	-200,000	-0,004	0,055
-331,460	40,532	-0,154	-0,101
-330,445	-45,336	0,058	-0,021
-329,431	18,445	0,097	-0,057
-328,416	258,638	0,111	0,141
-327,402	800,000	0,031	0,072
-326,387	557,295	0,023	0,041
-325,372	337,627	-0,092	0,132
-324,358	-200,000	-0,021	-0,083
-323,343	480,153	-0,067	-0,112
-322,329	-200,000	0,003	-0,170
-321,314	800,000	0,031	-0,095
-320,299	-73,412	-0,012	0,003
-319,285	800,000	0,027	0,068
-318,270	85,481	-0,009	0,007
-317,256	-200,000	0,006	0,031
-316,241	-157,996	0,110	-0,005
-315,226	-154,253	0,126	0,006
-314,212	378,957	-0,073	-0,109
-313,197	-9,353	-0,070	-0,034
-312,183	-200,000	-0,009	-0,087
-311,168	-78,517	0,011	-0,003
-310,153	-37,985	-0,132	-0,051
-309,139	-200,000	0,008	-0,078
-308,124	4,499	0,194	-0,104
-307,110	45,976	0,097	-0,065
-306,095	367,556	0,026	-0,039
-305,080	165,581	0,057	0,059
-304,066	95,427	-0,070	0,059
-303,051	265,719	0,052	-0,066
-302,037	-161,228	0,040	0,001
-301,022	-200,000	0,035	-0,127
-300,008	195,856	-0,152	0,169
-298,993	800,000	0,026	0,082
-297,978	-2,935	0,081	0,041
-296,964	-73,347	0,052	-0,014
-295,949	-200,000	-0,009	0,050
-294,935	-21,615	-0,101	-0,045
-293,920	-200,000	-0,014	0,141
-292,905	-200,000	-0,006	0,074
-291,891	-100,568	0,048	0,009
-290,876	64,077	0,127	0,093
-289,862	358,975	-0,068	-0,099
-288,847	661,708	0,021	-0,041
-287,832	-200,000	0,001	0,013
-286,818	-152,367	-0,077	0,004
-285,803	-200,000	-0,015	0,081
-284,789	800,000	0,029	0,090
-283,774	800,000	0,019	0,047
-282,759	230,588	-0,152	-0,183
-281,745	140,138	0,058	-0,056
-280,730	800,000	-0,045	-0,114
-279,716	-53,976	0,055	-0,018
-278,701	245,393	0,055	0,067
-277,686	-111,505	0,054	0,008
-276,672	-57,325	-0,104	0,033
-275,657	191,753	0,127	-0,140
-274,643	-112,726	0,064	-0,009
-273,628	800,000	-0,031	-0,084
-272,613	-21,117	0,065	-0,029
-271,599	-134,849	0,188	-0,016
-270,584	214,885	-0,006	0,007
-269,570	-200,000	-0,038	0,197
-268,555	73,580	-0,128	0,098
-267,540	144,527	-0,096	0,094
-266,526	-200,000	0,049	-0,158
-265,511	-200,000	-0,007	-0,023
-264,497	-13,489	-0,214	-0,101
-263,482	-200,000	-0,001	0,119
-262,467	38,057	0,097	-0,063
-261,453	800,000	-0,012	-0,030
-260,438	-135,596	-0,193	0,017
-259,424	532,430	0,074	0,129
-258,409	36,639	-0,101	0,065
-257,395	800,000	0,040	-0,091
-256,380	138,194	-0,025	0,024
-255,365	30,625	0,047	-0,029
-254,351	-200,000	-0,002	0,026
-253,336	-145,032	0,050	-0,003
-252,322	280,658	0,122	0,160
-251,307	-41,903	-0,097	-0,036
-250,292	-74,431	-0,103	-0,027
-249,278	69,016	0,096	0,072
-248,263	422,306	0,049	0,077
-247,249	413,470	0,012	0,018
-246,234	800,000	-0,047	0,104
-245,219	234,960	-0,132	-0,159
-244,205	800,000	-0,025	-0,053
-243,190	356,703	0,083	-0,122
-242,176	477,562	0,067	0,110
-241,161	10,709	0,025	0,014
-240,146	-140,641	0,103	-0,008
-239,132	81,607	-0,076	0,060
-238,117	-8,710	-0,010	-0,005
-237,103	-26,441	0,060	-0,026
-236,088	-99,304	-0,057	0,010
-235,073	-200,000	-0,022	-0,096
-234,059	219,622	0,065	0,076
-233,044	521,171	-0,036	0,061
-232,030	361,682	-0,102	-0,149
-231,015	59,339	-0,064	0,046
-230,000	-200,000	-0,002	0,071
-228,986	-200,000	0,006	0,087
-227,971	132,765	0,081	0,077
-226,957	149,296	0,141	0,139
-225,942	-115,689	0,077	0,010
-224,927	-37,704	0,183	0,071
-223,913	-67,920	-0,093	0,026
-222,898	601,792	-0,028	0,051
-221,884	-173,467	-0,031	-0,001
-220,869	-130,863	-0,083	0,008
-219,855	800,000	-0,015	0,043
-218,840	484,379	0,065	0,109
-217,825	561,521	-0,010	-0,018
-216,811	-200,000	-0,052	-0,184
-215,796	-200,000	0,013	-0,154
-214,782	-200,000	0,018	0,107
-213,767	394,435	0,053	0,081
-212,752	-200,000	0,015	-0,135
-211,738	66,005	0,199	-0,147
-210,723	-58,395	0,118	-0,037
-209,709	387,835	0,022	0,033
-208,694	-97,893	0,173	0,032
-207,679	-155,315	-0,058	-0,003
-206,665	78,365	0,086	-0,067
-205,650	800,000	0,009	-0,025
-204,636	-200,000	-0,015	0,052
-203,621	41,880	0,123	0,081
-202,606	126,232	0,036	-0,033
-201,592	-64,429	0,040	0,012
-200,577	193,036	-0,121	-0,134
-199,563	-61,819	0,174	-0,053
-198,548	31,597	-0,044	-0,027
-197,533	-165,697	0,057	-0,002
-196,519	-200,000	0,012	0,164
-195,504	-200,000	0,013	0,066
-194,490	64,581	0,006	0,005
-193,475	156,597	-0,046	-0,046
-192,460	800,000	-0,043	-0,116
-191,446	-105,504	0,139	0,023
-190,431	406,677	-0,078	0,121
-189,417	-70,096	0,195	-0,054
-188,402	-30,193	0,062	-0,026
-187,387	-200,000	-0,020	0,129
-186,373	-128,072	0,055	-0,006
-185,358	455,391	-0,048	-0,077
-184,344	-96,360	0,061	-0,012
-183,329	800,000	0,031	0,075
-182,315	219,701	-0,057	0,066
-181,300	-47,880	-0,087	-0,030
-180,285	-84,089	-0,108	-0,025
-179,271	-200,000	-0,032	-0,114
-178,256	-200,000	-0,009	-0,094
-177,242	83,694	-0,033	-0,026
-176,227	90,855	-0,032	-0,026
-175,212	65,179	0,052	0,038
-174,198	51,960	0,079	0,054
-173,183	-200,000	-0,008	-0,039
-172,169	795,311	0,019	-0,037
-171,154	-7,371	-0,071	0,035
-170,139	187,815	0,102	0,111
-169,125	-121,763	-0,108	0,013
-168,110	-200,000	0,004	0,083
-167,096	-33,836	-0,111	-0,044
-166,081	71,358	-0,124	0,093
-165,066	-200,000	0,007	-0,159
-164,052	-200,000	-0,012	-0,078
-163,037	85,899	-0,021	-0,017
-162,023	800,000	-0,020	-0,043
-161,008	13,208	0,124	0,070
-159,993	800,000	0,029	-0,071
-158,979	79,440	-0,081	-0,063
-157,964	-49,710	-0,125	0,043
-156,950	-160,640	-0,073	0,003
-155,935	-200,000	-0,007	0,047
-154,920	77,086	0,024	0,018
-153,906	631,832	-0,034	-0,063
-152,891	-171,661	0,045	0,001
-151,877	209,108	-0,072	-0,082
-150,862	43,913	-0,050	0,033
-149,847	609,808	-0,028	-0,051
-148,833	-86,008	0,065	-0,014
-147,818	11,530	-0,035	0,020
-146,804	-200,000	-0,025	-0,091
-145,789	-200,000	0,003	0,059
-144,775	800,000	-0,023	-0,069
-143,760	800,000	-0,048	-0,100
-142,745	36,493	-0,155	-0,099
-141,731	-200,000	0,022	-0,102
-140,716	-64,079	0,058	-0,017
-139,702	-200,000	-0,030	0,103
-138,687	-200,000	0,003	0,036
-137,672	-89,845	-0,053	-0,011
-136,658	-39,913	-0,156	0,059
-135,643	-200,000	-0,000	-0,029
-134,629	-123,085	0,086	-0,010
-133,614	800,000	-0,072	0,149
-132,599	-200,000	0,003	0,030
-131,585	52,954	-0,134	0,093
-130,570	800,000	0,049	-0,109
-129,556	-90,818	0,021	-0,004
-128,541	41,132	-0,067	0,044
-127,526	123,141	0,015	-0,013
-126,512	-120,509	0,143	0,017
-125,497	800,000	-0,029	0,087
-124,483	-200,000	-0,025	0,161
-123,468	196,650	0,061	-0,067
-122,453	-7,759	-0,128	0,063
-121,439	96,008	-0,144	0,120
-120,424	74,585	-0,029	-0,022
-119,410	800,000	0,010	-0,026
