DTS Sentinel unit serial number:	SN410029Multiplexer serial number:	ORYXHardware model number:	OX2-SRSoftware version number:	ORYX F/W v4,00 Oryx Data Collector v3.7.2.0data status	okinstallation	B6 Nyhavnadifferential loss correction	single-endedforward channel	channel 2reverse channel	N/Adate	2023/12/10time	09:10:08forward acquisition time	300,00reverse acquisition time	0,00gamma	499,1914k internal	0,3123k external	0,3123temperature offset calibration	1,0000default loss term (dB/km)	0,3820temperature slope calibration	1,0000multiplexer offset coefficient	1,0000multiplexer slope coefficient	1,0000fibre end	0,00T internal ref (°C)	22,56T ext. ref 1 (°C)	6,31T ext. ref 2 (°C)	6,31length (m)	temperature (°C)	Stokes	anti-Stokes-744,400	62,464	0,100	0,074
-743,385	587,996	-0,106	0,196
-742,371	800,000	0,039	-0,113
-741,356	279,493	-0,143	0,190
-740,342	-200,000	0,026	0,123
-739,327	44,386	-0,257	0,176
-738,312	55,926	0,085	-0,062
-737,298	-46,540	-0,251	0,091
-736,283	-185,056	0,046	0,001
-735,269	-163,702	-0,176	0,006
-734,254	800,000	-0,010	0,031
-733,239	-73,162	-0,322	-0,087
-732,225	-117,049	0,163	-0,022
-731,210	449,205	0,025	0,040
-730,196	-134,631	-0,044	0,004
-729,181	113,921	0,039	-0,035
-728,167	-200,000	0,025	-0,151
-727,152	-40,685	0,044	0,017
-726,137	100,155	-0,129	0,111
-725,123	227,698	0,056	-0,068
-724,108	-42,051	-0,138	-0,052
-723,094	-200,000	-0,000	-0,061
-722,079	316,083	-0,104	-0,147
-721,064	-118,563	-0,015	-0,002
-720,050	-200,000	-0,014	-0,096
-719,035	-116,362	-0,102	0,014
-718,021	306,276	0,009	-0,013
-717,006	-146,871	-0,075	-0,005
-715,991	800,000	-0,053	-0,164
-714,977	66,672	-0,117	-0,089
-713,962	-86,011	-0,054	-0,012
-712,948	145,686	-0,035	-0,035
-711,933	-200,000	0,000	-0,079
-710,918	-200,000	-0,006	-0,089
-709,904	314,197	-0,039	-0,055
-708,889	2,375	-0,053	-0,028
-707,875	182,291	-0,073	-0,081
-706,860	-200,000	0,008	-0,065
-705,845	-169,739	-0,061	0,002
-704,831	-200,000	0,008	0,051
-703,816	689,026	-0,047	-0,093
-702,802	800,000	-0,031	-0,082
-701,787	173,450	-0,064	-0,068
-700,772	-200,000	0,005	0,084
-699,758	800,000	-0,029	-0,077
-698,743	487,363	0,048	0,082
-697,729	-111,652	-0,143	-0,021
-696,714	800,000	-0,040	0,116
-695,699	-193,007	-0,103	-0,001
-694,685	-117,819	-0,049	-0,006
-693,670	42,722	-0,096	-0,065
-692,656	293,375	0,050	-0,068
-691,641	95,190	-0,095	-0,081
-690,627	309,218	-0,048	-0,067
-689,612	-200,000	0,025	-0,183
-688,597	-200,000	-0,007	-0,047
-687,583	-200,000	-0,003	0,040
-686,568	800,000	0,043	0,103
-685,554	-200,000	0,020	-0,159
-684,539	304,397	0,020	-0,028
-683,524	-200,000	0,005	-0,079
-682,510	344,612	-0,050	-0,073
-681,495	-200,000	-0,021	0,131
-680,481	800,000	-0,034	0,074
-679,466	-112,920	-0,128	-0,019
-678,451	-200,000	-0,014	0,078
-677,437	-200,000	-0,018	-0,093
-676,422	412,082	0,089	0,140
-675,408	419,475	0,034	0,054
-674,393	800,000	0,026	-0,062
-673,378	800,000	-0,016	-0,044
-672,364	264,219	-0,093	-0,120
-671,349	-200,000	0,001	-0,095
-670,335	272,115	0,047	-0,062
-669,320	800,000	0,017	0,055
-668,305	374,867	0,016	0,024
-667,291	40,371	-0,137	-0,091
-666,276	32,863	0,038	0,024
-665,262	-200,000	-0,024	-0,096
-664,247	-200,000	-0,002	0,065
-663,232	-47,621	-0,056	-0,020
-662,218	800,000	0,027	-0,057
-661,203	241,323	0,039	0,049
-660,189	-49,604	0,090	0,032
-659,174	273,160	-0,064	-0,084
-658,159	590,877	-0,054	-0,099
-657,145	18,260	-0,089	-0,052
-656,130	92,176	0,082	-0,069
-655,116	-147,400	-0,122	-0,008
-654,101	-98,757	-0,036	0,007
-653,086	71,930	-0,083	0,064
-652,072	103,201	-0,076	-0,066
-651,057	800,000	-0,049	-0,142
-650,043	-200,000	-0,038	-0,233
-649,028	-200,000	0,006	-0,132
-648,014	-37,151	-0,054	0,021
-646,999	-82,719	-0,072	0,017
-645,984	-121,475	-0,143	0,017
-644,970	-200,000	0,005	-0,050
-643,955	158,109	0,111	-0,115
-642,941	-120,961	-0,081	-0,010
-641,926	-200,000	-0,009	0,138
-640,911	-200,000	-0,022	0,100
-639,897	-200,000	-0,025	-0,139
-638,882	-81,082	-0,085	0,021
-637,868	40,810	0,072	-0,048
-636,853	627,993	-0,014	0,027
-635,838	-28,958	-0,129	-0,055
-634,824	800,000	0,022	-0,049
-633,809	412,272	-0,063	-0,099
-632,795	61,125	-0,078	-0,057
-631,780	-200,000	-0,016	0,151
-630,765	-103,114	-0,177	-0,031
-629,751	204,918	0,032	-0,037
-628,736	-200,000	0,043	-0,159
-627,722	-12,282	-0,051	-0,025
-626,707	83,283	-0,035	0,028
-625,692	-97,136	0,111	-0,021
-624,678	-170,950	0,034	0,001
-623,663	213,212	0,037	0,043
-622,649	-101,747	-0,095	-0,017
-621,634	86,198	0,026	-0,021
-620,619	-200,000	-0,003	0,036
-619,605	-200,000	-0,012	0,075
-618,590	800,000	0,009	-0,019
-617,576	-200,000	0,006	0,047
-616,561	-102,597	0,142	0,025
-615,546	-20,593	-0,091	-0,041
-614,532	-72,656	0,113	0,031
-613,517	-200,000	-0,016	0,072
-612,503	52,767	-0,042	0,030
-611,488	-118,381	0,127	0,017
-610,474	255,864	0,052	-0,066
-609,459	20,086	0,088	-0,052
-608,444	-65,855	-0,201	0,059
-607,430	800,000	-0,048	-0,127
-606,415	-200,000	-0,005	-0,061
-605,401	101,370	0,071	0,061
-604,386	-200,000	0,005	-0,064
-603,371	-200,000	-0,004	-0,063
-602,357	-200,000	0,003	-0,042
-601,342	76,247	-0,057	-0,045
-600,328	-200,000	0,025	-0,122
-599,313	383,222	-0,055	-0,084
-598,298	-34,657	0,046	0,019
-597,284	568,899	-0,020	-0,037
-596,269	800,000	0,058	-0,175
-595,255	-200,000	-0,028	0,122
-594,240	-5,786	-0,066	-0,033
-593,225	-124,921	-0,040	-0,005
-592,211	-74,448	-0,193	-0,051
-591,196	163,931	-0,043	0,045
-590,182	800,000	-0,014	0,038
-589,167	212,966	0,071	0,084
-588,152	-51,974	0,038	0,013
-587,138	-129,608	0,121	-0,012
-586,123	800,000	0,018	0,041
-585,109	-62,317	-0,099	0,030
-584,094	800,000	-0,074	-0,223
-583,079	672,229	-0,026	0,049
-582,065	-200,000	0,004	-0,015
-581,050	63,843	0,021	-0,016
-580,036	194,971	0,128	-0,144
-579,021	-15,122	-0,086	-0,040
-578,006	-33,468	-0,106	0,043
-576,992	227,599	0,065	0,078
-575,977	-106,368	0,110	-0,018
-574,963	17,602	-0,018	0,011
-573,948	-200,000	0,002	0,065
-572,934	244,149	-0,103	-0,129
-571,919	800,000	0,009	-0,025
-570,904	666,236	-0,033	0,063
-569,890	122,535	-0,066	0,061
-568,875	-200,000	-0,015	-0,132
-567,861	-109,562	0,087	-0,014
-566,846	-62,427	-0,062	0,019
-565,831	12,195	-0,060	0,034
-564,817	19,891	0,044	0,026
-563,802	117,679	-0,100	0,091
-562,788	-200,000	-0,001	-0,077
-561,773	800,000	-0,007	-0,021
-560,758	800,000	0,058	0,175
-559,744	149,309	0,045	0,045
-558,729	-26,178	-0,033	0,014
-557,715	-63,469	-0,069	-0,021
-556,700	32,634	0,039	-0,025
-555,685	4,352	0,088	-0,048
-554,671	69,789	-0,045	-0,034
-553,656	494,793	-0,042	0,072
-552,642	53,881	-0,073	0,052
-551,627	7,485	-0,038	-0,021
-550,612	9,322	0,075	0,042
-549,598	126,295	0,045	-0,042
-548,583	458,092	0,029	-0,048
-547,569	-200,000	-0,002	0,006
-546,554	3,416	-0,072	0,039
-545,539	-164,164	0,084	-0,003
-544,525	127,514	-0,040	0,037
-543,510	787,884	-0,053	-0,108
-542,496	38,898	0,012	-0,008
-541,481	1,165	-0,136	0,072
-540,466	53,970	0,114	-0,081
-539,452	-140,292	-0,119	-0,009
-538,437	205,623	0,053	0,061
-537,423	800,000	-0,053	0,130
-536,408	4,508	-0,225	-0,122
-535,393	-103,267	-0,214	-0,037
-534,379	310,472	0,026	0,036
-533,364	38,624	0,139	-0,091
-532,350	379,585	-0,036	0,055
-531,335	-200,000	-0,017	0,066
-530,321	-50,087	0,082	0,028
-529,306	141,564	0,037	0,036
-528,291	-4,151	-0,078	0,040
-527,277	90,381	0,046	0,038
-526,262	-200,000	0,002	-0,037
-525,248	252,312	0,028	0,035
-524,233	-13,309	0,072	0,034
-523,218	-184,135	0,038	-0,000
-522,204	-200,000	0,045	-0,343
-521,189	-200,000	-0,014	0,074
-520,175	800,000	-0,039	0,095
-519,160	-200,000	-0,032	-0,136
-518,145	800,000	0,017	0,051
-517,131	182,713	0,037	0,040
-516,116	-200,000	-0,024	-0,107
-515,102	-39,492	-0,031	-0,012
-514,087	699,506	-0,052	-0,102
-513,072	-102,405	0,115	-0,020
-512,058	71,079	-0,099	-0,076
-511,043	800,000	0,049	0,134
-510,029	800,000	0,025	0,060
-509,014	-74,019	-0,032	0,009
-507,999	231,207	-0,046	0,056
-506,985	-183,037	-0,117	0,001
-505,970	-200,000	-0,002	0,013
-504,956	127,033	-0,029	-0,027
-503,941	-78,384	0,145	-0,036
-502,926	800,000	-0,035	-0,079
-501,912	-200,000	0,002	-0,095
-500,897	800,000	-0,019	-0,051
-499,883	21,603	0,080	0,048
-498,868	-69,679	0,079	-0,022
-497,853	89,529	-0,020	0,017
-496,839	107,278	-0,065	-0,057
-495,824	718,653	0,030	-0,059
-494,810	-135,628	0,050	-0,004
-493,795	800,000	0,044	0,113
-492,781	7,319	0,062	-0,034
-491,766	231,217	-0,040	-0,048
-490,751	58,577	-0,022	-0,016
-489,737	117,523	0,086	0,078
-488,722	0,758	0,143	0,075
-487,708	71,126	0,045	-0,034
-486,693	42,171	0,058	0,039
-485,678	401,934	-0,028	-0,043
-484,664	611,232	0,014	-0,026
-483,649	129,825	0,050	-0,047
-482,635	800,000	0,032	-0,090
-481,620	143,810	-0,049	0,049
-480,605	-158,609	0,169	-0,007
-479,591	153,554	0,082	0,083
-478,576	296,557	0,021	-0,029
-477,562	116,333	0,067	-0,061
-476,547	800,000	-0,043	-0,093
-475,532	800,000	0,020	-0,065
-474,518	134,283	-0,011	0,010
-473,503	-102,508	-0,121	0,021
-472,489	79,296	-0,136	0,108
-471,474	-0,889	-0,044	0,023
-470,459	786,229	-0,062	-0,125
-469,445	-200,000	-0,008	0,125
-468,430	132,322	-0,049	0,047
-467,416	163,351	-0,025	0,026
-466,401	95,317	0,094	0,079
-465,386	39,513	0,073	-0,048
-464,372	512,683	-0,097	-0,167
-463,357	-120,202	-0,070	0,009
-462,343	-200,000	0,002	-0,008
-461,328	-200,000	0,000	-0,124
-460,313	528,430	0,035	-0,060
-459,299	554,867	0,041	0,073
-458,284	-200,000	0,020	0,133
-457,270	-200,000	-0,019	-0,085
-456,255	632,048	-0,044	-0,083
-455,241	-200,000	0,011	-0,154
-454,226	441,467	-0,062	0,101
-453,211	-13,684	0,212	0,101
-452,197	800,000	0,012	-0,031
-451,182	-87,052	-0,040	-0,009
-450,168	284,452	-0,083	0,110
-449,153	800,000	-0,057	-0,130
-448,138	480,235	-0,056	-0,093
-447,124	-50,600	-0,021	0,007
-446,109	-95,559	-0,111	0,022
-445,095	-58,276	0,148	0,047
-444,080	212,983	-0,084	0,098
-443,065	345,304	0,065	0,094
-442,051	-72,357	-0,008	0,002
-441,036	-101,875	0,114	-0,020
-440,022	64,839	0,115	0,085
-439,007	-11,476	-0,090	-0,043
-437,992	-88,082	0,173	0,038
-436,978	-84,894	-0,071	-0,016
-435,963	-200,000	0,030	0,101
-434,949	22,783	-0,058	0,035
-433,934	-200,000	-0,015	-0,083
-432,919	34,500	0,027	-0,017
-431,905	773,038	-0,023	-0,046
-430,890	-74,552	0,050	0,013
-429,876	250,130	-0,040	-0,050
-428,861	-200,000	0,003	0,052
-427,846	-139,596	-0,148	0,011
-426,832	800,000	-0,022	0,048
-425,817	40,117	0,030	0,020
-424,803	-58,939	-0,067	0,021
-423,788	380,713	0,012	0,018
-422,773	-200,000	0,001	-0,060
-421,759	800,000	0,066	0,138
-420,744	-84,880	-0,112	0,026
-419,730	-136,544	-0,088	0,007
-418,715	-145,577	0,055	-0,004
-417,701	-200,000	-0,006	-0,092
-416,686	131,169	0,050	0,048
-415,671	800,000	0,014	0,044
-414,657	134,364	-0,020	0,019
-413,642	800,000	-0,036	0,109
-412,628	79,895	0,085	0,067
-411,613	-36,025	-0,060	-0,024
-410,598	121,831	-0,065	-0,060
-409,584	715,635	-0,059	-0,115
-408,569	800,000	-0,039	-0,123
-407,555	0,645	0,079	0,041
-406,540	184,322	0,087	0,095
-405,525	374,097	-0,044	-0,066
-404,511	-200,000	0,021	-0,111
-403,496	235,528	0,101	-0,123
-402,482	402,481	-0,061	0,094
-401,467	800,000	0,003	-0,007
-400,452	-43,831	0,111	-0,041
-399,438	304,750	0,135	0,184
-398,423	-200,000	0,006	0,056
-397,409	800,000	0,025	-0,077
-396,394	611,448	0,070	-0,129
-395,379	29,676	0,134	-0,084
-394,365	24,967	-0,034	-0,020
-393,350	800,000	-0,012	0,034
-392,336	800,000	-0,032	0,086
-391,321	-99,468	0,063	0,012
-390,306	-28,462	0,037	-0,015
-389,292	-78,841	-0,060	0,015
-388,277	-60,070	0,125	-0,039
-387,263	253,668	0,033	0,042
-386,248	-50,581	0,089	0,031
-385,233	153,621	-0,093	0,094
-384,219	337,499	-0,022	0,031
-383,204	-153,417	0,078	-0,004
-382,190	430,011	0,084	0,134
-381,175	800,000	0,062	-0,158
-380,160	-200,000	0,004	-0,024
-379,146	85,959	0,047	-0,038
-378,131	107,861	0,009	-0,008
-377,117	-124,656	-0,104	0,012
-376,102	-9,517	-0,052	0,026
-375,088	166,830	-0,069	0,072
-374,073	216,987	0,049	-0,057
-373,058	240,789	0,058	-0,072
-372,044	-200,000	0,035	0,147
-371,029	31,616	0,102	0,064
-370,015	-100,350	-0,064	0,012
-369,000	-48,431	0,009	0,003
-367,985	123,024	0,149	0,137
-366,971	512,609	-0,010	-0,017
-365,956	-200,000	0,017	-0,073
-364,942	-38,301	0,110	0,042
-363,927	43,582	0,020	0,014
-362,912	-88,724	-0,088	0,019
-361,898	183,890	-0,068	-0,074
-360,883	106,588	-0,037	-0,032
-359,869	170,632	0,089	0,094
-358,854	-60,944	0,038	0,012
-357,839	-4,535	-0,076	0,038
-356,825	800,000	0,049	-0,116
-355,810	-70,106	-0,124	0,034
-354,796	53,092	0,091	0,064
-353,781	234,002	-0,051	0,062
-352,766	41,709	-0,081	-0,054
-351,752	-40,483	-0,068	0,026
-350,737	389,090	0,034	-0,052
-349,723	-200,000	0,010	0,068
-348,708	656,712	0,032	0,060
-347,693	800,000	-0,069	0,162
-346,679	334,871	0,029	0,041
-345,664	289,041	0,015	0,020
-344,650	705,094	0,013	-0,025
-343,635	-13,593	0,035	0,017
-342,620	-63,801	0,056	-0,017
-341,606	-200,000	-0,005	0,088
-340,591	349,847	0,041	0,059
-339,577	800,000	-0,013	0,035
-338,562	-144,063	-0,113	-0,008
-337,548	793,230	0,042	0,084
-336,533	800,000	0,031	0,100
-335,518	48,486	0,067	0,046
-334,504	25,379	0,076	0,046
-333,489	-77,096	0,125	-0,032
-332,475	-63,169	-0,171	-0,051
-331,460	-127,813	-0,131	-0,014
-330,445	-200,000	0,019	0,183
-329,431	-163,318	0,150	-0,005
-328,416	85,200	-0,058	0,047
-327,402	-81,669	0,082	-0,020
-326,387	419,446	-0,064	-0,101
-325,372	-4,669	-0,046	0,023
-324,358	-103,174	0,154	-0,026
-323,343	-16,897	0,112	-0,052
-322,329	-200,000	0,000	-0,018
-321,314	41,547	0,134	0,089
-320,299	120,301	-0,047	0,043
-319,285	-82,983	-0,021	-0,005
-318,270	-9,197	0,138	-0,067
-317,256	-18,025	-0,055	-0,025
-316,241	800,000	0,018	0,046
-315,226	800,000	-0,079	0,174
-314,212	-60,444	0,155	0,048
-313,197	-200,000	0,005	-0,117
-312,183	7,193	-0,083	0,045
-311,168	-200,000	-0,008	-0,085
-310,153	-200,000	-0,010	-0,077
-309,139	36,647	-0,039	-0,025
-308,124	8,930	0,135	0,075
-307,110	321,256	0,102	-0,143
-306,095	17,292	0,037	-0,022
-305,080	800,000	0,009	0,021
-304,066	439,047	0,024	-0,038
-303,051	800,000	-0,049	0,137
-302,037	126,346	-0,056	-0,052
-301,022	-200,000	-0,011	0,061
-300,008	396,247	0,055	0,085
-298,993	34,156	-0,204	0,130
-297,978	-52,529	0,095	0,032
-296,964	-123,701	-0,119	0,014
-295,949	-59,855	0,068	0,021
-294,935	537,796	-0,061	-0,106
-293,920	537,320	0,053	0,092
-292,905	742,964	0,047	-0,092
-291,891	-106,093	0,115	0,019
-290,876	82,751	-0,043	-0,034
-289,862	-15,921	-0,091	-0,042
-288,847	11,492	-0,150	0,084
-287,832	-166,361	0,047	-0,001
-286,818	800,000	0,025	0,062
-285,803	-114,337	0,144	-0,020
-284,789	-119,414	0,099	0,012
-283,774	322,156	0,095	0,133
-282,759	71,414	0,011	0,008
-281,745	-12,839	-0,152	0,072
-280,730	13,322	0,117	-0,066
-279,716	-200,000	-0,015	-0,084
-278,701	-117,161	-0,073	0,010
-277,686	35,644	-0,055	-0,035
-276,672	412,332	-0,041	-0,064
-275,657	323,915	0,046	-0,064
-274,643	302,294	-0,005	0,007
-273,628	80,055	0,073	-0,057
-272,613	695,633	-0,022	-0,042
-271,599	800,000	0,020	0,056
-270,584	-200,000	-0,000	-0,051
-269,570	301,069	0,036	-0,049
-268,555	-200,000	0,002	0,119
-267,540	141,618	-0,101	0,098
-266,526	800,000	-0,010	0,028
-265,511	100,632	-0,144	0,122
-264,497	-115,450	0,113	0,015
-263,482	800,000	0,086	0,191
-262,467	-143,152	0,120	-0,008
-261,453	-200,000	0,004	-0,038
-260,438	299,719	-0,068	-0,092
-259,424	60,290	-0,049	-0,036
-258,409	-200,000	-0,030	-0,102
-257,395	335,342	-0,025	-0,036
-256,380	38,810	0,109	0,071
-255,365	71,858	0,055	0,042
-254,351	800,000	-0,021	0,048
-253,336	102,109	0,153	-0,130
-252,322	-78,405	-0,085	-0,021
-251,307	146,013	0,050	-0,049
-250,292	800,000	-0,057	-0,124
-249,278	800,000	0,015	-0,049
-248,263	-38,716	0,201	0,077
-247,249	35,082	-0,111	0,071
-246,234	-200,000	0,010	-0,063
-245,219	-200,000	-0,028	0,145
-244,205	800,000	-0,071	-0,157
-243,190	279,361	-0,058	0,076
-242,176	10,451	0,086	-0,048
-241,161	-200,000	0,014	-0,094
-240,146	-66,602	0,075	0,022
-239,132	800,000	0,027	0,068
-238,117	-133,617	-0,115	-0,010
-237,103	800,000	0,029	-0,063
-236,088	454,488	-0,066	-0,107
-235,073	237,238	-0,027	-0,033
-234,059	800,000	0,031	-0,087
-233,044	-86,983	-0,091	0,020
-232,030	438,439	-0,067	0,107
-231,015	247,700	0,038	-0,048
-230,000	800,000	-0,035	-0,072
-228,986	-110,292	-0,148	-0,022
-227,971	539,389	-0,080	-0,139
-226,957	18,260	0,184	0,107
-225,942	-123,336	0,142	0,016
-224,927	-200,000	-0,051	0,203
-223,913	-200,000	-0,012	0,073
-222,898	-135,311	-0,055	-0,005
-221,884	-200,000	-0,002	-0,097
-220,869	-88,757	-0,059	-0,013
-219,855	250,676	0,067	0,084
-218,840	800,000	0,041	0,115
-217,825	-103,886	-0,080	-0,013
-216,811	579,208	0,030	0,055
-215,796	-200,000	0,027	0,114
-214,782	800,000	-0,025	0,059
-213,767	72,454	-0,065	0,049
-212,752	-200,000	-0,015	0,232
-211,738	72,760	0,083	-0,063
-210,723	66,012	0,114	0,084
-209,709	96,229	0,046	0,038
-208,694	77,796	0,064	-0,050
-207,679	800,000	-0,044	-0,101
-206,665	226,484	0,104	0,123
-205,650	-200,000	0,028	0,151
-204,636	23,962	-0,125	-0,075
-203,621	-200,000	-0,020	0,068
-202,606	-200,000	-0,006	0,043
-201,592	-105,201	-0,241	-0,040
-200,577	-13,024	-0,143	-0,068
-199,563	-200,000	-0,014	-0,062
-198,548	292,746	0,048	0,063
-197,533	234,171	-0,087	0,105
-196,519	209,848	0,099	-0,113
-195,504	254,359	-0,069	-0,086
-194,490	-200,000	-0,001	-0,084
-193,475	-200,000	0,036	0,125
-192,460	314,038	0,073	-0,101
-191,446	541,175	-0,035	-0,061
-190,431	-18,123	-0,057	0,026
-189,417	767,752	-0,014	0,027
-188,402	560,342	-0,100	-0,177
-187,387	-10,669	-0,018	0,008
-186,373	800,000	-0,036	0,076
-185,358	8,172	0,038	-0,021
-184,344	-78,557	0,114	-0,028
-183,329	-38,843	0,060	0,023
-182,315	32,227	-0,098	-0,061
-181,300	-21,650	-0,070	0,031
-180,285	-95,491	0,031	0,006
-179,271	-200,000	-0,007	-0,107
-178,256	-200,000	0,002	-0,107
-177,242	-200,000	-0,023	0,112
-176,227	-133,239	-0,035	-0,003
-175,212	-200,000	-0,002	0,073
-174,198	-60,033	-0,037	-0,011
-173,183	-143,098	0,054	-0,004
-172,169	-78,664	-0,047	0,012
-171,154	-14,700	0,058	-0,027
-170,139	-70,295	0,222	-0,061
-169,125	800,000	-0,048	-0,147
-168,110	172,535	-0,022	-0,023
-167,096	-145,029	-0,124	-0,008
-166,081	182,996	-0,064	-0,069
-165,066	368,228	-0,076	-0,112
-164,052	-187,620	-0,170	0,002
-163,037	-200,000	0,015	0,091
-162,023	351,582	-0,049	-0,071
-161,008	-131,757	-0,126	0,012
-159,993	33,616	-0,024	0,015
-158,979	323,241	-0,060	0,084
-157,964	-200,000	-0,007	0,123
-156,950	-21,928	0,060	-0,027
-155,935	108,531	-0,039	-0,034
-154,920	725,592	0,047	-0,092
-153,906	489,563	0,026	0,044
-152,891	-21,348	0,197	-0,087
-151,877	-200,000	0,028	-0,093
-150,862	-117,962	-0,130	-0,017
-149,847	214,703	-0,034	0,040
-148,833	396,752	-0,021	-0,033
-147,818	800,000	-0,022	0,052
-146,804	99,331	0,057	0,048
-145,789	88,079	0,061	-0,049
-144,775	85,421	-0,103	-0,083
-143,760	-66,381	-0,125	-0,036
-142,745	530,434	0,041	0,071
-141,731	-79,287	0,133	0,033
-140,716	-200,000	0,016	0,076
-139,702	-1,495	-0,121	0,062
-138,687	19,622	0,118	0,069
-137,672	-156,119	-0,081	0,004
-136,658	516,378	-0,088	-0,151
-135,643	-200,000	0,026	-0,133
-134,629	-48,634	-0,092	-0,032
-133,614	-14,554	0,061	0,028
-132,599	-200,000	-0,006	0,055
-131,585	17,431	0,062	-0,036
-130,570	-200,000	-0,001	-0,016
-129,556	-200,000	-0,025	0,092
-128,541	800,000	0,029	-0,084
-127,526	-200,000	-0,015	-0,060
-126,512	109,957	-0,062	0,054
-125,497	245,524	-0,087	0,107
-124,483	-200,000	-0,012	0,087
-123,468	244,859	0,071	0,087
-122,453	-16,357	0,092	0,042
-121,439	-24,114	-0,189	-0,082
-120,424	-200,000	0,018	0,076
-119,410	-200,000	-0,016	0,117
