DTS Sentinel unit serial number:	SN410029Multiplexer serial number:	ORYXHardware model number:	OX2-SRSoftware version number:	ORYX F/W v4,00 Oryx Data Collector v3.7.2.0data status	okinstallation	B6 Nyhavnadifferential loss correction	single-endedforward channel	channel 2reverse channel	N/Adate	2023/12/11time	07:05:08forward acquisition time	300,00reverse acquisition time	0,00gamma	499,1914k internal	0,3126k external	0,3126temperature offset calibration	1,0000default loss term (dB/km)	0,3820temperature slope calibration	1,0000multiplexer offset coefficient	1,0000multiplexer slope coefficient	1,0000fibre end	0,00T internal ref (°C)	19,25T ext. ref 1 (°C)	2,13T ext. ref 2 (°C)	2,19length (m)	temperature (°C)	Stokes	anti-Stokes-744,400	-98,688	-0,137	-0,026
-743,385	-103,040	-0,241	0,042
-742,371	45,926	0,049	-0,034
-741,356	65,162	-0,202	0,152
-740,342	-200,000	0,016	0,069
-739,327	-84,515	-0,395	0,092
-738,312	-200,000	-0,007	-0,157
-737,298	-127,621	-0,391	-0,042
-736,283	800,000	-0,032	0,092
-735,269	-148,393	-0,183	0,011
-734,254	-200,000	0,005	0,044
-733,239	-97,135	-0,444	-0,086
-732,225	49,534	0,266	0,186
-731,210	546,175	0,015	0,026
-730,196	-77,646	-0,128	-0,033
-729,181	155,157	-0,058	0,060
-728,167	-13,225	0,103	-0,049
-727,152	-83,827	-0,116	0,027
-726,137	187,143	-0,079	0,088
-725,123	44,495	-0,046	0,032
-724,108	271,760	-0,059	-0,078
-723,094	-48,180	-0,100	-0,036
-722,079	-121,249	-0,033	0,004
-721,064	124,998	0,039	-0,036
-720,050	800,000	0,017	0,053
-719,035	183,471	0,057	0,063
-718,021	-26,470	0,031	0,013
-717,006	-16,574	-0,078	-0,037
-715,991	312,464	-0,056	-0,079
-714,977	171,051	-0,031	-0,033
-713,962	800,000	0,047	-0,111
-712,948	800,000	0,014	0,034
-711,933	18,551	-0,063	0,037
-710,918	52,381	-0,090	0,064
-709,904	800,000	-0,064	-0,167
-708,889	210,586	-0,075	-0,087
-707,875	-150,815	0,156	0,009
-706,860	-41,044	-0,133	0,051
-705,845	-123,379	-0,057	-0,007
-704,831	456,528	-0,030	0,050
-703,816	41,874	0,055	-0,037
-702,802	314,113	-0,075	-0,105
-701,787	-200,000	0,009	-0,070
-700,772	-190,467	-0,112	-0,001
-699,758	161,024	-0,007	-0,008
-698,743	800,000	-0,011	0,035
-697,729	-100,801	0,158	-0,029
-696,714	-70,915	-0,214	0,060
-695,699	-101,670	-0,112	-0,020
-694,685	-61,145	-0,083	-0,026
-693,670	-200,000	0,015	-0,150
-692,656	-200,000	-0,023	-0,184
-691,641	-200,000	-0,011	-0,087
-690,627	-200,000	-0,006	-0,062
-689,612	-52,875	0,190	-0,065
-688,597	376,988	-0,084	-0,129
-687,583	353,482	-0,072	-0,107
-686,568	-200,000	-0,001	0,077
-685,554	-131,889	-0,031	0,003
-684,539	13,561	0,077	0,044
-683,524	-43,712	0,061	0,023
-682,510	260,837	-0,026	-0,033
-681,495	407,451	-0,060	0,095
-680,481	-139,920	-0,102	-0,008
-679,466	21,035	-0,039	-0,024
-678,451	313,745	0,059	-0,083
-677,437	46,543	0,053	0,036
-676,422	168,740	-0,064	0,067
-675,408	-200,000	0,018	0,160
-674,393	528,568	-0,080	0,141
-673,378	800,000	-0,067	-0,174
-672,364	-98,575	0,057	0,011
-671,349	800,000	-0,054	-0,115
-670,335	105,414	-0,105	-0,092
-669,320	162,638	-0,035	0,037
-668,305	507,218	-0,018	-0,032
-667,291	-170,729	0,064	-0,002
-666,276	-200,000	-0,028	-0,171
-665,262	558,949	0,040	-0,072
-664,247	-200,000	-0,032	-0,159
-663,232	-200,000	-0,018	0,063
-662,218	-130,695	0,237	0,023
-661,203	383,968	0,057	-0,087
-660,189	49,198	-0,069	0,048
-659,174	-46,273	-0,065	-0,024
-658,159	-200,000	-0,008	-0,067
-657,145	800,000	-0,066	-0,135
-656,130	87,308	0,042	0,035
-655,116	152,948	0,091	-0,092
-654,101	-47,521	-0,044	-0,016
-653,086	800,000	0,014	0,038
-652,072	197,909	-0,022	-0,025
-651,057	-120,876	0,052	-0,006
-650,043	-33,483	-0,080	-0,033
-649,028	-161,860	-0,193	-0,007
-648,014	17,488	0,044	0,026
-646,999	523,910	-0,056	0,099
-645,984	-200,000	-0,006	-0,028
-644,970	77,866	-0,067	0,053
-643,955	-200,000	0,005	-0,070
-642,941	160,284	-0,063	-0,066
-641,926	-200,000	0,008	-0,125
-640,911	63,854	-0,039	-0,029
-639,897	-200,000	0,030	0,099
-638,882	-9,878	-0,045	0,022
-637,868	-200,000	0,003	-0,036
-636,853	1,846	-0,112	-0,060
-635,838	112,266	-0,087	-0,078
-634,824	-200,000	-0,003	-0,094
-633,809	137,383	-0,076	0,074
-632,795	105,424	-0,114	-0,100
-631,780	-172,937	0,106	-0,002
-630,765	0,590	-0,103	-0,055
-629,751	111,667	0,091	-0,082
-628,736	-75,815	-0,170	-0,044
-627,722	-200,000	0,107	0,000
-626,707	-200,000	-0,001	-0,106
-625,692	299,549	0,054	0,074
-624,678	-81,916	0,064	0,015
-623,663	-82,172	-0,024	0,006
-622,649	-200,000	-0,012	0,048
-621,634	176,024	0,078	-0,084
-620,619	-200,000	-0,004	-0,050
-619,605	-111,940	-0,052	-0,008
-618,590	16,865	0,064	0,038
-617,576	-7,190	0,121	-0,061
-616,561	78,823	-0,126	-0,100
-615,546	-49,585	-0,136	0,048
-614,532	18,985	0,032	-0,019
-613,517	86,331	-0,043	-0,035
-612,503	-97,345	0,068	-0,013
-611,488	800,000	0,009	0,027
-610,474	304,345	-0,023	0,032
-609,459	-144,335	-0,035	-0,002
-608,444	800,000	0,050	-0,156
-607,430	551,692	-0,050	-0,090
-606,415	-200,000	-0,007	-0,125
-605,401	-200,000	0,015	-0,063
-604,386	-200,000	0,035	0,161
-603,371	47,571	0,040	-0,028
-602,357	-200,000	-0,024	0,109
-601,342	-94,526	-0,036	-0,007
-600,328	277,563	-0,055	-0,072
-599,313	219,133	0,074	-0,088
-598,298	-73,024	-0,032	0,009
-597,284	-106,850	0,094	-0,015
-596,269	800,000	0,075	0,160
-595,255	56,348	-0,097	0,069
-594,240	314,812	-0,070	0,098
-593,225	-51,124	-0,045	-0,015
-592,211	800,000	-0,059	-0,140
-591,196	-19,404	-0,207	0,095
-590,182	-51,757	0,131	-0,045
-589,167	-200,000	-0,038	0,128
-588,152	149,556	-0,088	-0,089
-587,138	185,789	0,033	0,036
-586,123	-36,877	-0,070	-0,028
-585,109	-200,000	0,007	-0,077
-584,094	-39,614	0,074	0,029
-583,079	29,550	0,063	0,039
-582,065	-65,046	-0,069	-0,021
-581,050	138,072	0,064	0,062
-580,036	-200,000	0,009	-0,047
-579,021	12,853	0,083	-0,047
-578,006	-47,786	-0,047	-0,017
-576,992	800,000	-0,023	0,053
-575,977	-200,000	0,007	0,060
-574,963	63,427	-0,032	0,024
-573,948	-200,000	0,012	0,136
-572,934	290,804	-0,036	-0,049
-571,919	21,002	-0,070	-0,042
-570,904	-200,000	-0,027	0,103
-569,890	-123,350	-0,076	0,009
-568,875	-184,959	0,124	-0,001
-567,861	568,351	0,067	0,120
-566,846	274,821	-0,077	-0,102
-565,831	-62,577	0,054	-0,016
-564,817	800,000	-0,016	-0,044
-563,802	724,341	-0,066	-0,130
-562,788	-171,043	-0,088	-0,002
-561,773	-85,048	0,205	-0,047
-560,758	-200,000	-0,024	0,139
-559,744	-22,855	0,121	0,054
-558,729	-48,229	-0,175	0,062
-557,715	800,000	0,013	-0,041
-556,700	800,000	0,025	0,065
-555,685	-58,083	-0,029	-0,009
-554,671	-29,643	0,071	0,030
-553,656	800,000	-0,036	0,081
-552,642	800,000	-0,048	0,106
-551,627	86,348	-0,144	-0,117
-550,612	90,008	-0,085	0,070
-549,598	-43,388	0,155	0,057
-548,583	-192,661	-0,067	-0,000
-547,569	-200,000	0,014	-0,048
-546,554	800,000	0,030	0,087
-545,539	-200,000	-0,006	-0,120
-544,525	100,654	-0,062	0,053
-543,510	12,394	-0,069	-0,039
-542,496	-200,000	0,030	-0,103
-541,481	148,231	-0,050	0,050
-540,466	231,494	-0,065	-0,079
-539,452	549,499	0,038	-0,067
-538,437	92,388	-0,129	0,108
-537,423	-200,000	0,017	0,064
-536,408	359,134	-0,113	-0,168
-535,393	27,855	-0,188	0,117
-534,379	800,000	-0,016	-0,043
-533,364	18,985	-0,034	0,020
-532,350	-55,460	0,176	-0,058
-531,335	295,804	0,086	0,117
-530,321	129,596	-0,069	-0,065
-529,306	-200,000	-0,055	-0,217
-528,291	626,269	0,005	0,009
-527,277	-135,516	0,060	0,005
-526,262	483,611	0,093	-0,157
-525,248	234,841	0,086	0,105
-524,233	685,482	-0,026	0,051
-523,218	482,282	0,122	-0,205
-522,204	122,786	0,029	-0,027
-521,189	492,893	-0,106	0,179
-520,175	-200,000	0,006	-0,093
-519,160	33,142	0,066	0,042
-518,145	800,000	0,024	0,061
-517,131	324,873	0,075	0,107
-516,116	-200,000	-0,031	0,136
-515,102	426,640	0,039	-0,062
-514,087	800,000	0,034	0,108
-513,072	-200,000	-0,031	-0,179
-512,058	-200,000	-0,001	-0,008
-511,043	148,985	0,063	0,063
-510,029	89,985	0,100	0,083
-509,014	800,000	-0,037	0,114
-507,999	290,805	-0,110	0,148
-506,985	7,849	-0,159	0,088
-505,970	342,514	-0,044	-0,064
-504,956	800,000	-0,029	-0,085
-503,941	4,180	-0,068	0,036
-502,926	-200,000	0,016	0,061
-501,912	-200,000	0,022	-0,083
-500,897	-200,000	0,000	-0,003
-499,883	452,879	0,011	0,018
-498,868	-42,780	-0,105	-0,039
-497,853	6,586	-0,015	0,008
-496,839	174,433	0,066	-0,070
-495,824	42,061	-0,074	0,050
-494,810	524,543	-0,027	-0,048
-493,795	42,115	-0,082	-0,055
-492,781	-75,514	-0,065	-0,017
-491,766	-123,076	0,132	-0,015
-490,751	98,702	0,012	-0,010
-489,737	171,614	0,075	-0,080
-488,722	-9,848	-0,065	-0,032
-487,708	-200,000	0,031	0,116
-486,693	48,073	0,057	-0,039
-485,678	800,000	-0,027	0,076
-484,664	-33,174	-0,092	-0,037
-483,649	800,000	0,026	0,073
-482,635	-125,321	0,039	0,004
-481,620	-129,979	0,092	0,009
-480,605	-200,000	0,127	-0,000
-479,591	109,171	-0,043	-0,038
-478,576	395,322	-0,008	-0,013
-477,562	37,616	0,040	-0,026
-476,547	-200,000	-0,006	0,090
-475,532	545,578	-0,051	0,090
-474,518	800,000	-0,067	0,171
-473,503	-200,000	-0,017	0,101
-472,489	186,877	-0,048	0,053
-471,474	-200,000	-0,025	-0,178
-470,459	130,432	0,050	0,047
-469,445	199,718	-0,029	-0,033
-468,430	162,566	-0,081	-0,083
-467,416	-27,898	0,094	-0,040
-466,401	9,931	0,093	0,052
-465,386	-200,000	0,010	-0,045
-464,372	-91,794	0,017	0,003
-463,357	405,768	-0,088	0,136
-462,343	-200,000	0,020	0,134
-461,328	62,049	0,026	-0,019
-460,313	43,745	-0,076	-0,051
-459,299	-55,017	-0,075	-0,025
-458,284	800,000	0,053	0,110
-457,270	800,000	-0,035	-0,077
-456,255	-142,363	-0,016	-0,001
-455,241	-120,040	-0,109	-0,014
-454,226	-200,000	0,025	0,089
-453,211	131,868	-0,047	-0,044
-452,197	-52,102	0,180	0,061
-451,182	-39,271	-0,070	-0,027
-450,168	738,475	-0,073	-0,145
-449,153	252,904	0,069	-0,087
-448,138	93,734	-0,044	0,036
-447,124	40,843	0,043	-0,028
-446,109	800,000	-0,022	-0,067
-445,095	47,312	0,080	-0,055
-444,080	371,226	0,032	0,048
-443,065	103,532	0,135	-0,116
-442,051	-12,421	0,036	-0,017
-441,036	542,208	-0,048	-0,085
-440,022	-168,749	0,051	-0,001
-439,007	-57,646	0,033	0,010
-437,992	-127,618	0,128	-0,013
-436,978	39,977	0,058	0,038
-435,963	-200,000	0,002	-0,044
-434,949	-57,756	0,053	0,017
-433,934	800,000	-0,027	0,062
-432,919	164,200	-0,111	-0,115
-431,905	207,205	-0,032	-0,037
-430,890	21,815	0,112	0,067
-429,876	-55,835	0,142	0,046
-428,861	6,716	0,062	0,034
-427,846	-200,000	-0,013	0,062
-426,832	-87,548	-0,073	0,016
-425,817	-71,489	-0,184	-0,050
-424,803	188,279	0,054	-0,060
-423,788	-139,676	0,179	0,014
-422,773	-200,000	0,029	0,161
-421,759	-167,203	0,185	-0,005
-420,744	800,000	-0,030	-0,076
-419,730	-200,000	0,023	-0,136
-418,715	47,967	-0,114	-0,078
-417,701	-43,080	0,063	0,023
-416,686	63,099	-0,086	-0,063
-415,671	11,854	0,055	-0,031
-414,657	27,041	-0,079	0,049
-413,642	51,034	-0,097	0,067
-412,628	-200,000	0,004	-0,146
-411,613	-17,206	0,039	0,018
-410,598	430,831	-0,028	-0,045
-409,584	-200,000	-0,014	0,131
-408,569	800,000	-0,028	-0,078
-407,555	-126,475	-0,125	0,014
-406,540	101,240	0,124	0,106
-405,525	-92,784	0,071	-0,014
-404,511	-105,480	-0,130	-0,021
-403,496	-200,000	0,011	-0,086
-402,482	63,637	0,041	-0,030
-401,467	481,526	-0,003	0,005
-400,452	27,057	0,042	0,026
-399,438	-101,302	0,029	0,005
-398,423	83,215	0,031	-0,025
-397,409	-200,000	0,000	0,011
-396,394	452,211	0,087	-0,142
-395,379	24,182	-0,045	-0,028
-394,365	-58,340	0,032	-0,010
-393,350	-150,877	0,089	0,005
-392,336	-200,000	-0,010	0,063
-391,321	-96,605	-0,082	-0,016
-390,306	299,993	0,051	-0,069
-389,292	-200,000	0,009	-0,089
-388,277	800,000	0,025	-0,063
-387,263	800,000	0,080	0,183
-386,248	-200,000	0,049	0,232
-385,233	-24,823	0,071	-0,031
-384,219	-108,924	0,023	-0,004
-383,204	35,196	0,049	-0,031
-382,190	102,671	-0,127	-0,109
-381,175	-200,000	0,026	0,109
-380,160	261,981	0,029	-0,037
-379,146	395,350	0,075	0,116
-378,131	72,462	0,075	0,057
-377,117	472,986	0,056	0,093
-376,102	-200,000	0,003	0,088
-375,088	-40,253	0,031	-0,012
-374,073	668,718	-0,033	0,063
-373,058	-116,683	-0,071	0,009
-372,044	441,047	-0,061	-0,099
-371,029	-24,637	-0,059	-0,026
-370,015	17,921	-0,042	0,024
-369,000	-54,358	-0,172	-0,057
-367,985	800,000	0,035	-0,104
-366,971	144,928	0,107	-0,105
-365,956	-168,235	-0,174	0,005
-364,942	50,211	0,079	0,055
-363,927	17,219	0,082	0,048
-362,912	108,956	0,047	0,041
-361,898	-200,000	0,006	0,020
-360,883	-200,000	0,007	-0,035
-359,869	-69,583	0,122	-0,034
-358,854	12,486	0,100	0,056
-357,839	-200,000	-0,017	0,083
-356,825	133,393	-0,084	0,080
-355,810	485,815	-0,083	0,139
-354,796	-129,004	0,051	-0,005
-353,781	-7,439	-0,144	0,071
-352,766	149,031	0,088	-0,088
-351,752	53,088	-0,054	-0,038
-350,737	15,961	-0,072	0,041
-349,723	-200,000	-0,006	0,087
-348,708	-36,120	-0,117	-0,046
-347,693	-92,293	0,080	0,016
-346,679	800,000	0,017	0,043
-345,664	-72,143	0,078	0,021
-344,650	621,439	0,067	0,123
-343,635	-200,000	0,017	0,149
-342,620	-46,262	0,037	-0,013
-341,606	-200,000	-0,001	-0,022
-340,591	436,270	-0,108	0,174
-339,577	800,000	-0,037	-0,098
-338,562	268,406	0,045	-0,059
-337,548	276,384	-0,028	-0,037
-336,533	0,571	-0,011	-0,006
-335,518	71,237	0,087	0,066
-334,504	154,563	-0,130	-0,131
-333,489	800,000	-0,045	-0,096
-332,475	-200,000	-0,003	-0,036
-331,460	800,000	-0,018	0,050
-330,445	-51,206	0,070	0,024
-329,431	13,678	0,040	-0,023
-328,416	-200,000	-0,009	-0,070
-327,402	339,529	0,099	-0,142
-326,387	139,045	-0,099	-0,095
-325,372	-110,680	-0,049	-0,007
-324,358	-110,598	-0,063	-0,009
-323,343	-200,000	-0,004	-0,025
-322,329	800,000	0,034	-0,074
-321,314	30,908	0,083	-0,052
-320,299	3,515	-0,091	-0,049
-319,285	210,995	0,029	0,033
-318,270	800,000	0,035	-0,075
-317,256	-81,197	-0,052	0,012
-316,241	118,097	0,117	0,106
-315,226	197,629	0,020	-0,022
-314,212	800,000	-0,037	-0,103
-313,197	-20,996	0,021	0,009
-312,183	-120,342	0,077	-0,009
-311,168	-118,340	0,187	0,024
-310,153	-200,000	-0,016	-0,099
-309,139	-66,738	-0,156	-0,045
-308,124	800,000	0,038	0,101
-307,110	161,877	0,085	0,087
-306,095	-66,646	0,094	0,027
-305,080	800,000	-0,027	-0,062
-304,066	-161,489	-0,090	-0,003
-303,051	800,000	-0,059	-0,158
-302,037	45,740	0,077	-0,052
-301,022	316,755	0,087	0,120
-300,008	800,000	0,069	0,151
-298,993	-82,434	0,059	-0,014
-297,978	-200,000	0,009	-0,075
-296,964	291,353	-0,081	-0,109
-295,949	800,000	-0,049	-0,103
-294,935	-200,000	0,011	-0,063
-293,920	110,010	-0,084	0,074
-292,905	800,000	0,036	0,074
-291,891	-200,000	-0,036	0,119
-290,876	-44,397	-0,071	0,026
-289,862	281,705	-0,042	-0,055
-288,847	800,000	-0,026	-0,063
-287,832	281,679	0,076	-0,100
-286,818	-151,818	-0,133	-0,007
-285,803	154,929	0,102	-0,103
-284,789	-99,217	-0,059	-0,011
-283,774	-200,000	0,015	-0,077
-282,759	-146,643	0,102	0,006
-281,745	719,288	-0,051	-0,100
-280,730	514,900	-0,047	-0,081
-279,716	-76,692	0,059	0,015
-278,701	-137,404	0,137	0,011
-277,686	55,257	-0,053	0,037
-276,672	800,000	0,006	0,015
-275,657	800,000	-0,027	0,067
-274,643	55,805	-0,053	0,037
-273,628	-200,000	-0,019	-0,101
-272,613	-200,000	-0,006	0,038
-271,599	137,052	0,068	0,065
-270,584	-200,000	-0,022	0,085
-269,570	4,580	0,200	0,107
-268,555	148,787	-0,111	-0,110
-267,540	800,000	-0,054	0,112
-266,526	-84,173	0,066	0,015
-265,511	800,000	0,029	0,083
-264,497	-200,000	0,035	0,129
-263,482	-124,178	0,078	-0,009
-262,467	-200,000	-0,006	0,047
-261,453	-44,889	-0,055	-0,020
-260,438	800,000	0,045	-0,110
-259,424	-160,508	0,199	-0,008
-258,409	-17,745	-0,141	-0,064
-257,395	-75,164	-0,030	-0,008
-256,380	140,501	0,029	-0,028
-255,365	-55,512	0,195	0,064
-254,351	81,475	0,055	-0,043
-253,336	-200,000	-0,042	0,174
-252,322	800,000	-0,062	-0,141
-251,307	-167,426	0,067	-0,002
-250,292	-37,434	0,112	0,044
-249,278	514,604	0,030	0,051
-248,263	-64,650	0,059	0,017
-247,249	61,700	-0,047	0,034
-246,234	-44,826	-0,090	0,032
-245,219	-91,921	-0,034	-0,007
-244,205	175,337	-0,041	-0,043
-243,190	615,731	-0,022	-0,040
-242,176	-139,547	0,105	0,008
-241,161	-4,759	0,080	-0,040
-240,146	132,342	0,034	-0,032
-239,132	-200,000	0,001	-0,071
-238,117	84,233	-0,089	0,071
-237,103	-54,538	-0,059	0,019
-236,088	477,600	0,027	-0,044
-235,073	800,000	-0,058	-0,145
-234,059	95,722	-0,073	0,061
-233,044	-78,674	0,164	-0,040
-232,030	800,000	0,027	-0,065
-231,015	519,106	0,087	-0,150
-230,000	-200,000	0,004	0,036
-228,986	340,409	-0,126	0,180
-227,971	-21,764	0,108	-0,048
-226,957	374,264	0,050	-0,074
-225,942	800,000	0,050	-0,157
-224,927	119,374	0,096	0,087
-223,913	291,430	-0,019	-0,025
-222,898	-38,639	-0,139	-0,053
-221,884	-200,000	0,019	-0,084
-220,869	-200,000	0,014	0,079
-219,855	800,000	-0,024	0,056
-218,840	42,540	0,130	0,086
-217,825	-200,000	-0,000	0,135
-216,811	73,457	-0,052	-0,040
-215,796	23,701	-0,080	-0,048
-214,782	-200,000	0,025	-0,105
-213,767	18,860	0,119	0,069
-212,752	-200,000	-0,019	0,130
-211,738	-200,000	-0,025	0,122
-210,723	53,505	0,071	-0,050
-209,709	-114,584	0,077	0,011
-208,694	349,594	-0,086	-0,125
-207,679	800,000	0,011	-0,026
-206,665	152,883	0,125	0,125
-205,650	298,374	0,076	0,103
-204,636	-19,701	0,067	-0,030
-203,621	470,222	-0,017	0,029
-202,606	800,000	-0,072	-0,153
-201,592	390,646	-0,049	0,074
-200,577	-79,082	-0,075	-0,018
-199,563	-2,994	0,167	0,085
-198,548	-9,755	0,065	0,032
-197,533	-200,000	0,036	0,132
-196,519	-21,613	-0,032	0,014
-195,504	-10,151	-0,059	-0,029
-194,490	66,946	-0,138	0,103
-193,475	-74,276	-0,105	-0,027
-192,460	7,274	0,083	0,045
-191,446	-200,000	0,009	0,074
-190,431	800,000	-0,032	-0,076
-189,417	800,000	0,053	0,131
-188,402	-200,000	-0,011	-0,053
-187,387	751,997	0,008	-0,015
-186,373	-71,629	-0,098	0,026
-185,358	-123,289	0,136	-0,016
-184,344	282,475	0,014	-0,018
-183,329	800,000	0,052	-0,113
-182,315	-121,934	0,054	0,006
-181,300	581,524	-0,070	-0,125
-180,285	209,652	0,053	-0,060
-179,271	800,000	-0,018	-0,045
-178,256	216,667	0,016	0,019
-177,242	588,044	0,083	0,150
-176,227	-114,817	-0,098	0,013
-175,212	406,478	-0,038	0,058
-174,198	713,489	-0,055	0,107
-173,183	-122,562	0,114	0,013
-172,169	87,725	-0,021	0,017
-171,154	-25,278	0,032	0,014
-170,139	96,130	-0,028	0,023
-169,125	252,362	-0,053	0,066
-168,110	183,996	0,041	0,045
-167,096	-68,608	-0,126	0,035
-166,081	-200,000	-0,001	-0,048
-165,066	373,537	0,046	0,068
-164,052	-80,803	-0,186	-0,045
-163,037	-24,462	-0,072	0,031
-162,023	265,067	-0,137	0,175
-161,008	187,063	0,103	0,112
-159,993	-86,603	-0,104	-0,023
-158,979	-25,995	-0,048	0,021
-157,964	-147,491	-0,102	0,006
-156,950	137,447	-0,104	-0,099
-155,935	45,960	0,088	-0,059
-154,920	-111,223	0,042	0,006
-153,906	81,845	-0,030	-0,023
-152,891	-28,853	-0,098	-0,041
-151,877	-64,701	-0,112	-0,033
-150,862	-200,000	0,007	-0,081
-149,847	-118,066	0,119	0,015
-148,833	252,394	-0,050	0,062
-147,818	-200,000	-0,019	0,082
-146,804	-138,147	0,068	-0,005
-145,789	-200,000	-0,017	0,120
-144,775	6,488	-0,058	0,032
-143,760	-200,000	0,035	0,159
-142,745	-31,277	0,130	0,053
-141,731	79,858	0,072	-0,057
-140,716	800,000	-0,038	0,098
-139,702	800,000	0,035	0,091
-138,687	-200,000	-0,017	0,064
-137,672	40,772	0,015	-0,010
-136,658	-34,117	-0,146	-0,058
-135,643	19,802	-0,095	-0,055
-134,629	147,578	-0,041	-0,040
-133,614	59,710	0,149	0,107
-132,599	4,592	-0,124	-0,066
-131,585	-138,521	-0,056	0,004
-130,570	249,813	-0,076	0,094
-129,556	657,782	0,039	0,072
-128,541	-200,000	0,014	-0,090
-127,526	224,287	-0,109	0,128
-126,512	295,480	-0,030	-0,040
-125,497	-100,569	0,188	0,033
-124,483	-156,160	-0,077	0,003
-123,468	32,482	-0,095	0,059
-122,453	-200,000	-0,012	-0,063
-121,439	-34,385	-0,057	-0,023
-120,424	-200,000	-0,006	-0,018
-119,410	28,412	0,057	0,035
