DTS Sentinel unit serial number:	SN410029Multiplexer serial number:	ORYXHardware model number:	OX2-SRSoftware version number:	ORYX F/W v4,00 Oryx Data Collector v3.7.2.0data status	okinstallation	B6 Nyhavnadifferential loss correction	single-endedforward channel	channel 2reverse channel	N/Adate	2023/12/08time	17:00:08forward acquisition time	300,00reverse acquisition time	0,00gamma	499,1914k internal	0,3158k external	0,3158temperature offset calibration	1,0000default loss term (dB/km)	0,3820temperature slope calibration	1,0000multiplexer offset coefficient	1,0000multiplexer slope coefficient	1,0000fibre end	0,00T internal ref (°C)	15,14T ext. ref 1 (°C)	-1,37T ext. ref 2 (°C)	-1,37length (m)	temperature (°C)	Stokes	anti-Stokes-744,400	399,437	0,107	-0,167
-743,385	-75,749	-0,292	-0,076
-742,371	-2,398	0,195	0,100
-741,356	-82,568	-0,328	0,078
-740,342	38,680	0,166	0,109
-739,327	-131,154	-0,379	0,037
-738,312	-54,081	0,171	-0,057
-737,298	-113,284	-0,255	-0,037
-736,283	-200,000	0,007	0,031
-735,269	-117,610	-0,190	-0,025
-734,254	75,356	0,006	-0,005
-733,239	-77,425	-0,604	-0,153
-732,225	191,777	0,117	0,130
-731,210	-200,000	0,010	0,144
-730,196	-200,000	0,042	0,150
-729,181	-169,345	-0,080	0,002
-728,167	-200,000	0,006	0,101
-727,152	-200,000	-0,032	-0,107
-726,137	-200,000	-0,008	-0,026
-725,123	-200,000	0,053	-0,236
-724,108	-3,696	-0,135	-0,069
-723,094	-51,322	-0,209	-0,072
-722,079	-72,259	-0,161	-0,044
-721,064	-200,000	-0,012	0,088
-720,050	420,173	-0,093	-0,147
-719,035	26,145	0,064	-0,039
-718,021	252,303	-0,051	0,064
-717,006	-200,000	-0,001	0,008
-715,991	147,133	-0,073	-0,073
-714,977	-93,740	0,113	0,023
-713,962	8,389	0,133	0,073
-712,948	-47,861	0,035	-0,012
-711,933	-90,494	-0,062	-0,013
-710,918	388,946	-0,039	-0,060
-709,904	751,164	-0,021	0,041
-708,889	-200,000	0,007	-0,062
-707,875	800,000	0,016	-0,051
-706,860	32,842	-0,082	-0,052
-705,845	-40,612	-0,050	-0,019
-704,831	305,286	-0,021	0,029
-703,816	-81,230	-0,067	-0,016
-702,802	56,212	-0,103	-0,073
-701,787	-200,000	-0,025	-0,115
-700,772	-200,000	-0,014	-0,164
-699,758	-140,280	-0,101	-0,008
-698,743	-200,000	0,011	-0,058
-697,729	-150,582	0,184	0,010
-696,714	-200,000	-0,034	0,130
-695,699	-200,000	0,003	-0,042
-694,685	-32,185	-0,060	0,025
-693,670	146,406	-0,148	-0,146
-692,656	-56,152	0,127	-0,041
-691,641	-19,120	0,070	-0,032
-690,627	-200,000	-0,018	-0,131
-689,612	-31,193	-0,037	0,015
-688,597	-200,000	0,020	-0,081
-687,583	28,177	-0,084	0,052
-686,568	-19,996	-0,072	-0,033
-685,554	208,223	0,043	-0,050
-684,539	-41,413	-0,067	0,025
-683,524	-200,000	0,045	-0,204
-682,510	-59,979	-0,076	0,024
-681,495	-200,000	-0,016	0,066
-680,481	199,879	0,042	-0,047
-679,466	-65,924	-0,047	-0,014
-678,451	-200,000	-0,007	-0,066
-677,437	800,000	-0,041	0,104
-676,422	190,537	0,050	0,055
-675,408	92,970	0,024	-0,020
-674,393	-153,104	-0,135	-0,007
-673,378	336,098	-0,016	-0,023
-672,364	-200,000	-0,007	-0,036
-671,349	-102,709	-0,102	-0,018
-670,335	-200,000	-0,004	-0,022
-669,320	211,406	0,091	-0,106
-668,305	-114,523	0,025	0,004
-667,291	-103,583	-0,049	0,008
-666,276	217,886	-0,071	-0,083
-665,262	-41,023	-0,093	0,035
-664,247	800,000	0,069	0,151
-663,232	-29,501	-0,135	0,056
-662,218	-200,000	-0,005	0,052
-661,203	-200,000	-0,001	0,045
-660,189	-200,000	-0,017	0,104
-659,174	-102,959	-0,140	-0,024
-658,159	29,053	-0,094	0,058
-657,145	-200,000	0,019	-0,121
-656,130	800,000	-0,043	-0,138
-655,116	-200,000	-0,002	0,115
-654,101	-111,388	0,054	0,008
-653,086	800,000	-0,015	-0,037
-652,072	367,864	-0,119	0,177
-651,057	-97,562	-0,035	-0,007
-650,043	-122,319	-0,103	-0,012
-649,028	-200,000	0,013	-0,182
-648,014	171,257	0,081	0,085
-646,999	169,014	0,071	-0,074
-645,984	23,582	0,012	0,007
-644,970	-6,084	-0,152	0,076
-643,955	-144,191	-0,045	-0,003
-642,941	-200,000	-0,011	-0,063
-641,926	106,340	-0,051	-0,045
-640,911	2,321	-0,081	0,043
-639,897	-35,017	-0,006	-0,002
-638,882	274,980	-0,076	0,099
-637,868	511,384	-0,041	0,071
-636,853	50,928	-0,133	-0,092
-635,838	800,000	0,028	-0,074
-634,824	800,000	-0,027	-0,062
-633,809	-6,867	0,143	0,071
-632,795	-198,039	0,079	0,000
-631,780	-53,095	-0,055	-0,018
-630,765	-36,158	-0,107	0,042
-629,751	88,538	-0,107	-0,087
-628,736	-63,764	-0,074	-0,022
-627,722	138,663	-0,107	-0,104
-626,707	131,551	0,079	0,074
-625,692	25,145	0,147	0,089
-624,678	83,333	-0,109	0,087
-623,663	163,443	0,161	-0,167
-622,649	123,253	-0,076	-0,070
-621,634	-200,000	0,025	-0,092
-620,619	458,896	0,053	-0,088
-619,605	432,000	-0,078	-0,124
-618,590	-19,657	-0,062	-0,028
-617,576	12,448	-0,002	-0,001
-616,561	68,211	-0,097	-0,073
-615,546	-200,000	0,011	-0,069
-614,532	800,000	-0,060	-0,162
-613,517	-200,000	-0,010	-0,121
-612,503	21,156	0,093	-0,055
-611,488	-136,315	-0,130	0,011
-610,474	-200,000	-0,008	0,035
-609,459	141,080	0,103	-0,100
-608,444	225,526	-0,050	-0,059
-607,430	-200,000	0,002	-0,043
-606,415	-162,182	-0,102	0,004
-605,401	-200,000	0,014	-0,133
-604,386	-21,018	0,056	-0,025
-603,371	-200,000	-0,009	0,082
-602,357	-168,913	-0,044	0,001
-601,342	-200,000	0,020	-0,093
-600,328	66,820	-0,162	-0,121
-599,313	15,383	0,082	0,047
-598,298	309,630	-0,046	0,063
-597,284	20,778	-0,095	0,056
-596,269	365,812	-0,066	0,097
-595,255	690,805	-0,030	-0,058
-594,240	82,981	-0,111	-0,088
-593,225	800,000	0,032	-0,077
-592,211	800,000	-0,063	-0,175
-591,196	-102,209	0,147	-0,026
-590,182	51,662	-0,102	0,071
-589,167	-200,000	0,012	-0,057
-588,152	-88,068	0,065	-0,014
-587,138	-200,000	-0,005	-0,022
-586,123	800,000	-0,048	-0,101
-585,109	532,210	-0,096	-0,168
-584,094	-50,863	0,084	0,029
-583,079	-40,052	0,089	0,034
-582,065	-87,953	0,123	-0,027
-581,050	-108,879	0,043	0,007
-580,036	442,455	-0,068	-0,109
-579,021	-200,000	-0,002	-0,048
-578,006	54,561	-0,056	-0,039
-576,992	19,093	-0,127	-0,074
-575,977	55,233	-0,106	0,075
-574,963	-177,297	-0,185	-0,003
-573,948	-87,815	0,071	0,015
-572,934	-85,964	0,080	0,018
-571,919	-183,141	-0,102	-0,001
-570,904	-200,000	-0,003	-0,060
-569,890	-22,890	-0,064	0,028
-568,875	-34,181	-0,155	0,062
-567,861	-105,861	0,014	-0,002
-566,846	-200,000	-0,049	0,199
-565,831	195,700	0,086	0,096
-564,817	-200,000	-0,001	-0,030
-563,802	177,474	-0,077	-0,082
-562,788	88,096	0,063	-0,051
-561,773	800,000	-0,043	0,120
-560,758	275,379	0,027	0,035
-559,744	800,000	-0,026	0,076
-558,729	800,000	0,049	0,148
-557,715	-98,347	-0,112	-0,021
-556,700	187,334	0,078	-0,085
-555,685	800,000	-0,029	-0,079
-554,671	76,146	-0,066	0,051
-553,656	167,294	0,116	0,120
-552,642	95,782	-0,078	0,065
-551,627	21,079	0,076	-0,045
-550,612	-118,743	-0,157	-0,020
-549,598	-17,738	-0,064	0,029
-548,583	28,766	0,117	0,072
-547,569	-200,000	-0,014	-0,047
-546,554	523,658	0,065	0,112
-545,539	-200,000	0,007	0,115
-544,525	723,294	-0,024	0,048
-543,510	-180,117	-0,043	0,001
-542,496	-152,290	0,049	0,003
-541,481	29,538	-0,080	-0,049
-540,466	95,663	0,030	-0,025
-539,452	-156,096	0,050	0,002
-538,437	800,000	0,048	0,122
-537,423	-200,000	0,014	-0,089
-536,408	48,588	-0,105	-0,072
-535,393	-200,000	-0,003	-0,059
-534,379	-200,000	0,001	-0,027
-533,364	-87,745	0,082	-0,018
-532,350	444,397	0,039	0,062
-531,335	-200,000	0,055	0,200
-530,321	-200,000	0,008	0,053
-529,306	275,546	-0,016	-0,020
-528,291	46,164	-0,030	-0,020
-527,277	59,915	-0,010	0,007
-526,262	213,745	-0,065	-0,076
-525,248	121,269	-0,172	0,156
-524,233	73,634	0,060	0,046
-523,218	431,405	0,057	0,091
-522,204	252,798	-0,038	0,047
-521,189	351,299	0,138	-0,201
-520,175	34,200	-0,055	-0,035
-519,160	-200,000	-0,010	0,129
-518,145	-165,734	0,089	-0,003
-517,131	403,348	-0,038	0,058
-516,116	-200,000	0,000	0,075
-515,102	395,284	-0,062	0,094
-514,087	134,820	-0,100	0,095
-513,072	430,991	0,054	-0,086
-512,058	200,949	-0,054	-0,061
-511,043	-200,000	0,015	0,052
-510,029	-200,000	-0,003	-0,041
-509,014	-200,000	-0,056	-0,234
-507,999	222,556	0,101	-0,119
-506,985	800,000	-0,043	0,094
-505,970	-66,395	-0,017	0,005
-504,956	-55,464	-0,152	-0,049
-503,941	432,647	-0,046	0,073
-502,926	-6,319	-0,093	-0,046
-501,912	46,276	0,103	-0,070
-500,897	-200,000	0,006	-0,048
-499,883	119,249	-0,014	0,013
-498,868	329,671	0,069	-0,098
-497,853	194,255	0,058	0,064
-496,839	77,820	0,036	0,028
-495,824	-200,000	-0,006	0,036
-494,810	154,712	0,117	0,117
-493,795	-71,725	-0,024	0,007
-492,781	-200,000	-0,043	-0,164
-491,766	-200,000	0,013	-0,057
-490,751	527,672	0,022	0,037
-489,737	-17,042	0,046	-0,021
-488,722	-23,232	-0,098	-0,043
-487,708	800,000	0,040	0,096
-486,693	-110,635	-0,178	0,027
-485,678	601,416	0,010	0,019
-484,664	7,024	-0,089	-0,048
-483,649	259,402	0,118	-0,149
-482,635	800,000	-0,004	0,011
-481,620	-200,000	0,048	0,162
-480,605	167,351	0,127	0,132
-479,591	800,000	-0,011	-0,025
-478,576	-200,000	0,035	-0,180
-477,562	-180,517	-0,084	-0,001
-476,547	-200,000	-0,002	0,033
-475,532	800,000	-0,028	-0,066
-474,518	800,000	0,043	-0,125
-473,503	124,841	0,060	-0,055
-472,489	122,706	-0,073	0,066
-471,474	39,703	0,063	0,041
-470,459	74,868	-0,088	-0,068
-469,445	800,000	-0,021	0,052
-468,430	-176,493	-0,076	-0,001
-467,416	-200,000	-0,004	0,136
-466,401	-58,312	0,125	0,040
-465,386	-3,690	0,060	0,030
-464,372	-137,886	-0,061	0,005
-463,357	399,374	-0,067	-0,103
-462,343	-11,540	0,106	0,051
-461,328	-164,439	-0,134	-0,004
-460,313	-3,195	0,116	0,059
-459,299	800,000	0,033	0,089
-458,284	-200,000	0,083	-0,000
-457,270	-200,000	-0,010	-0,038
-456,255	567,466	-0,043	-0,076
-455,241	-118,931	-0,083	0,010
-454,226	-28,993	-0,033	0,014
-453,211	-154,354	0,174	0,008
-452,197	255,246	-0,080	0,100
-451,182	-200,000	-0,024	0,122
-450,168	728,455	-0,033	-0,064
-449,153	-200,000	-0,002	0,075
-448,138	20,011	-0,050	-0,029
-447,124	-200,000	-0,003	-0,038
-446,109	582,085	0,010	-0,018
-445,095	58,225	-0,087	-0,062
-444,080	800,000	0,059	0,145
-443,065	-199,756	0,109	0,000
-442,051	800,000	-0,002	-0,006
-441,036	173,978	0,089	-0,093
-440,022	-200,000	-0,006	0,067
-439,007	243,201	0,050	0,061
-437,992	-129,812	0,071	-0,007
-436,978	800,000	0,038	0,100
-435,963	-200,000	0,025	0,087
-434,949	459,332	-0,029	0,047
-433,934	-122,689	0,023	0,003
-432,919	-200,000	-0,000	-0,013
-431,905	54,416	0,060	-0,042
-430,890	40,283	-0,069	0,045
-429,876	-200,000	-0,006	-0,019
-428,861	-200,000	-0,005	0,044
-427,846	-84,666	-0,107	-0,024
-426,832	-90,728	0,045	0,009
-425,817	800,000	0,045	0,093
-424,803	-93,349	0,021	-0,004
-423,788	-200,000	-0,010	-0,058
-422,773	-191,054	0,020	-0,000
-421,759	-68,539	0,120	0,034
-420,744	747,663	-0,041	-0,080
-419,730	253,172	-0,029	-0,036
-418,715	800,000	-0,039	-0,107
-417,701	-200,000	0,022	0,111
-416,686	198,527	0,049	-0,055
-415,671	60,738	0,129	0,093
-414,657	-2,234	-0,079	0,040
-413,642	270,972	0,074	-0,095
-412,628	27,459	0,087	-0,053
-411,613	-70,448	0,126	-0,034
-410,598	-118,335	-0,120	0,015
-409,584	-192,202	-0,063	-0,000
-408,569	96,713	0,077	0,064
-407,555	43,356	0,023	0,016
-406,540	-200,000	-0,029	0,198
-405,525	301,227	0,059	-0,080
-404,511	-86,428	-0,103	0,023
-403,496	-200,000	-0,027	-0,168
-402,482	448,863	-0,039	-0,063
-401,467	-110,447	0,110	0,016
-400,452	-86,677	-0,085	0,019
-399,438	800,000	-0,022	0,048
-398,423	-200,000	-0,028	0,101
-397,409	537,969	-0,042	-0,073
-396,394	-154,618	-0,085	0,004
-395,379	-152,176	-0,071	-0,004
-394,365	-159,442	0,137	-0,005
-393,350	-200,000	-0,005	-0,047
-392,336	776,954	-0,025	-0,049
-391,321	-200,000	-0,023	-0,145
-390,306	-119,528	-0,151	0,019
-389,292	296,461	-0,055	-0,073
-388,277	558,132	0,083	0,147
-387,263	-97,176	0,059	-0,011
-386,248	-20,132	0,201	0,089
-385,233	-115,913	0,085	0,011
-384,219	-200,000	0,006	0,024
-383,204	800,000	0,025	0,061
-382,190	800,000	-0,040	-0,095
-381,175	706,900	-0,022	0,042
-380,160	800,000	-0,061	0,126
-379,146	-146,519	0,094	-0,006
-378,131	-200,000	0,015	0,065
-377,117	-68,992	0,086	-0,024
-376,102	-200,000	-0,004	-0,029
-375,088	-7,766	-0,138	-0,067
-374,073	-101,626	-0,139	-0,024
-373,058	-200,000	0,015	0,100
-372,044	-62,930	-0,083	-0,025
-371,029	-200,000	0,022	0,113
-370,015	-5,748	-0,124	-0,062
-369,000	-200,000	-0,066	-0,214
-367,985	341,482	-0,030	0,043
-366,971	-12,974	0,086	-0,040
-365,956	800,000	0,033	0,093
-364,942	-200,000	-0,018	0,061
-363,927	-63,936	0,113	-0,033
-362,912	800,000	-0,032	0,089
-361,898	-66,872	0,086	0,024
-360,883	800,000	-0,039	0,102
-359,869	191,552	0,015	-0,017
-358,854	313,987	-0,043	0,059
-357,839	273,315	-0,039	0,051
-356,825	-79,155	0,089	0,022
-355,810	-200,000	0,004	0,039
-354,796	-80,748	-0,032	0,008
-353,781	-22,769	-0,087	0,038
-352,766	-200,000	-0,054	0,176
-351,752	-26,748	0,028	-0,012
-350,737	-200,000	-0,012	-0,111
-349,723	163,191	-0,090	0,092
-348,708	226,164	0,021	-0,025
-347,693	109,616	-0,034	-0,029
-346,679	-200,000	-0,021	-0,068
-345,664	800,000	-0,044	0,089
-344,650	137,125	-0,059	0,056
-343,635	-130,106	0,177	-0,017
-342,620	800,000	0,054	0,129
-341,606	25,340	-0,031	-0,018
-340,591	-177,254	-0,086	-0,002
-339,577	800,000	-0,026	-0,065
-338,562	-26,307	-0,084	0,036
-337,548	95,748	0,077	-0,064
-336,533	356,061	0,040	-0,057
-335,518	-200,000	0,038	0,172
-334,504	-83,769	-0,009	-0,002
-333,489	-36,620	-0,057	-0,022
-332,475	21,103	0,054	0,032
-331,460	164,067	-0,039	-0,040
-330,445	800,000	-0,026	-0,054
-329,431	370,616	0,069	0,101
-328,416	-191,236	-0,104	-0,001
-327,402	-43,094	0,178	0,065
-326,387	-200,000	0,000	0,089
-325,372	800,000	0,003	0,007
-324,358	76,120	-0,117	0,090
-323,343	800,000	0,006	0,015
-322,329	28,214	0,165	0,101
-321,314	103,658	0,100	-0,085
-320,299	-115,599	0,063	-0,009
-319,285	58,163	-0,037	0,027
-318,270	152,019	0,053	-0,052
-317,256	800,000	-0,047	-0,149
-316,241	252,314	-0,032	-0,040
-315,226	262,706	-0,034	-0,043
-314,212	-62,211	0,062	0,019
-313,197	75,625	-0,034	0,026
-312,183	-200,000	-0,024	-0,147
-311,168	488,215	-0,018	-0,030
-310,153	-147,603	0,030	-0,002
-309,139	-81,663	-0,069	-0,016
-308,124	-200,000	0,011	0,114
-307,110	-200,000	-0,008	0,071
-306,095	254,722	0,090	0,112
-305,080	-107,831	0,101	-0,016
-304,066	112,342	-0,132	-0,115
-303,051	-200,000	-0,030	-0,112
-302,037	-200,000	0,015	-0,079
-301,022	704,041	-0,021	0,040
-300,008	-200,000	0,027	0,111
-298,993	446,525	-0,008	-0,013
-297,978	-21,648	0,103	0,045
-296,964	-93,503	-0,133	-0,026
-295,949	313,442	-0,033	-0,045
-294,935	-24,283	0,090	0,039
-293,920	-200,000	-0,002	0,043
-292,905	-134,142	0,087	-0,008
-291,891	800,000	0,035	0,088
-290,876	800,000	-0,017	-0,040
-289,862	-8,481	0,093	0,045
-288,847	-92,858	-0,180	0,036
-287,832	155,329	-0,036	-0,036
-286,818	13,378	-0,079	-0,044
-285,803	800,000	-0,027	0,071
-284,789	-200,000	0,029	0,132
-283,774	-116,369	0,179	-0,024
-282,759	145,554	-0,053	0,051
-281,745	-200,000	-0,031	0,118
-280,730	-150,228	-0,077	-0,004
-279,716	-200,000	-0,003	-0,016
-278,701	143,421	0,043	-0,042
-277,686	-200,000	-0,008	0,058
-276,672	-20,229	0,103	-0,046
-275,657	-200,000	-0,020	0,089
-274,643	-133,139	0,039	0,004
-273,628	-200,000	0,000	-0,062
-272,613	-179,598	-0,052	-0,001
-271,599	-200,000	-0,032	0,109
-270,584	406,469	0,099	0,151
-269,570	800,000	0,019	-0,038
-268,555	52,835	-0,105	-0,073
-267,540	800,000	0,036	0,110
-266,526	-67,282	-0,070	-0,020
-265,511	-161,530	0,169	0,006
-264,497	-200,000	-0,020	-0,091
-263,482	-165,357	0,142	-0,004
-262,467	-30,111	-0,051	0,021
-261,453	-139,060	0,162	-0,013
-260,438	-200,000	-0,017	-0,097
-259,424	-200,000	-0,007	-0,148
-258,409	23,845	-0,112	0,066
-257,395	-200,000	0,029	0,131
-256,380	-200,000	-0,005	-0,019
-255,365	800,000	0,055	0,159
-254,351	26,452	-0,080	0,049
-253,336	-6,672	0,081	-0,040
-252,322	800,000	0,006	0,020
-251,307	-44,782	0,097	-0,035
-250,292	-1,050	-0,078	0,040
-249,278	800,000	0,049	-0,129
-248,263	-99,671	0,105	-0,019
-247,249	-200,000	0,008	0,066
-246,234	20,106	-0,080	-0,047
-245,219	127,513	0,057	-0,052
-244,205	181,213	-0,082	-0,087
-243,190	228,158	-0,051	0,061
-242,176	-75,576	0,142	-0,036
-241,161	-200,000	0,018	0,081
-240,146	123,543	-0,053	0,048
-239,132	-133,164	-0,099	0,009
-238,117	800,000	-0,015	-0,032
-237,103	-38,562	-0,106	0,040
-236,088	-48,695	0,038	-0,013
-235,073	-200,000	-0,009	0,084
-234,059	-200,000	0,004	0,019
-233,044	-93,079	0,019	-0,004
-232,030	-90,885	0,140	0,029
-231,015	-200,000	-0,012	-0,048
-230,000	-78,797	-0,092	0,023
-228,986	141,137	0,066	0,064
-227,971	-144,863	0,120	0,008
-226,957	-131,297	-0,056	-0,005
-225,942	112,740	0,044	0,039
-224,927	-200,000	0,014	0,108
-223,913	115,830	-0,082	-0,072
-222,898	467,655	-0,056	-0,092
-221,884	-159,410	-0,062	0,002
-220,869	279,363	0,058	-0,075
-219,855	-200,000	0,002	0,060
-218,840	83,220	0,085	0,067
-217,825	33,834	0,147	-0,092
-216,811	-200,000	0,046	-0,174
-215,796	800,000	-0,021	0,061
-214,782	728,972	0,050	0,097
-213,767	189,062	0,095	0,103
-212,752	-70,967	0,141	0,038
-211,738	206,087	0,028	0,031
-210,723	-200,000	0,014	-0,083
-209,709	-200,000	-0,013	-0,063
-208,694	-200,000	-0,042	-0,137
-207,679	-35,050	-0,048	-0,019
-206,665	-185,782	-0,010	-0,000
-205,650	83,814	0,183	-0,144
-204,636	38,261	0,006	-0,004
-203,621	-162,896	-0,073	-0,003
-202,606	800,000	0,053	-0,143
-201,592	146,193	-0,047	0,046
-200,577	800,000	-0,034	-0,088
-199,563	56,286	0,043	0,030
-198,548	-200,000	-0,027	0,119
-197,533	568,990	-0,059	0,103
-196,519	-200,000	-0,014	0,048
-195,504	134,343	0,100	-0,093
-194,490	-37,699	-0,022	-0,008
-193,475	40,062	0,087	-0,057
-192,460	-200,000	0,015	-0,081
-191,446	198,763	0,006	0,007
-190,431	541,843	0,107	0,185
-189,417	-120,220	0,028	-0,003
-188,402	76,334	-0,077	-0,059
-187,387	-149,786	0,156	-0,009
-186,373	464,750	-0,079	0,128
-185,358	159,386	0,067	-0,068
-184,344	-43,479	0,093	0,034
-183,329	91,852	-0,042	-0,034
-182,315	267,665	0,041	-0,052
-181,300	-105,621	-0,075	0,012
-180,285	58,281	-0,098	0,069
-179,271	-126,493	-0,209	0,022
-178,256	-103,059	-0,076	0,013
-177,242	-26,536	0,065	-0,027
-176,227	-47,522	-0,061	0,021
-175,212	-122,413	0,143	0,017
-174,198	-200,000	0,014	-0,065
-173,183	-200,000	0,017	-0,070
-172,169	45,058	-0,125	-0,083
-171,154	564,086	0,067	-0,118
-170,139	-69,703	-0,041	-0,011
-169,125	-200,000	0,004	0,071
-168,110	-24,775	-0,022	-0,009
-167,096	182,899	0,036	0,039
-166,081	172,588	0,084	0,088
-165,066	-200,000	0,005	0,029
-164,052	-55,234	0,140	-0,045
-163,037	-92,005	0,002	0,000
-162,023	-154,796	0,113	-0,005
-161,008	-200,000	0,053	-0,175
-159,993	110,249	0,103	-0,089
-158,979	16,684	-0,133	-0,075
-157,964	686,683	-0,069	-0,131
-156,950	-31,415	-0,068	-0,027
-155,935	76,939	0,055	0,042
-154,920	-200,000	-0,049	0,210
-153,906	-82,648	0,067	0,015
-152,891	568,755	0,063	-0,110
-151,877	-200,000	-0,014	-0,068
-150,862	321,369	0,054	-0,074
-149,847	0,562	-0,106	-0,054
-148,833	-60,820	-0,061	0,018
-147,818	-150,778	-0,060	0,003
-146,804	600,480	0,050	0,089
-145,789	368,956	0,018	0,027
-144,775	-164,693	0,052	-0,002
-143,760	-200,000	-0,026	-0,147
-142,745	530,507	-0,037	-0,063
-141,731	800,000	-0,023	-0,058
-140,716	215,812	0,085	0,098
-139,702	-121,805	0,092	0,011
-138,687	-26,462	0,042	0,018
-137,672	800,000	0,055	-0,142
-136,658	-200,000	-0,010	-0,267
-135,643	40,035	-0,112	-0,073
-134,629	800,000	-0,010	-0,023
-133,614	-200,000	0,014	0,119
-132,599	-200,000	0,004	0,034
-131,585	171,917	-0,142	0,147
-130,570	800,000	-0,013	0,039
-129,556	282,374	0,079	-0,102
-128,541	-57,625	0,016	-0,005
-127,526	85,717	-0,050	0,040
-126,512	639,558	0,051	0,093
-125,497	175,485	0,044	0,046
-124,483	-200,000	-0,019	0,152
-123,468	-37,501	0,094	-0,036
-122,453	-5,326	-0,032	-0,016
-121,439	-200,000	0,014	-0,152
