DTS Sentinel unit serial number:	SN410029Multiplexer serial number:	ORYXHardware model number:	OX2-SRSoftware version number:	ORYX F/W v4,00 Oryx Data Collector v3.7.2.0data status	okinstallation	B6 Nyhavnadifferential loss correction	single-endedforward channel	channel 2reverse channel	N/Adate	2023/12/09time	06:05:08forward acquisition time	300,00reverse acquisition time	0,00gamma	499,1914k internal	0,3141k external	0,3141temperature offset calibration	1,0000default loss term (dB/km)	0,3820temperature slope calibration	1,0000multiplexer offset coefficient	1,0000multiplexer slope coefficient	1,0000fibre end	0,00T internal ref (°C)	18,28T ext. ref 1 (°C)	2,32T ext. ref 2 (°C)	2,34length (m)	temperature (°C)	Stokes	anti-Stokes-744,400	-58,208	0,049	-0,016
-743,385	-118,570	-0,268	0,035
-742,371	800,000	0,027	0,059
-741,356	-95,261	-0,211	0,042
-740,342	-74,554	0,116	0,031
-739,327	-177,314	-0,328	0,006
-738,312	313,743	-0,040	-0,056
-737,298	-125,071	-0,239	0,027
-736,283	-200,000	-0,014	-0,048
-735,269	-141,876	-0,162	-0,012
-734,254	41,253	0,065	0,043
-733,239	-28,035	-0,317	-0,135
-732,225	52,654	0,187	0,132
-731,210	-15,469	0,172	-0,081
-730,196	324,787	-0,092	-0,131
-729,181	-200,000	-0,048	-0,207
-728,167	-200,000	-0,006	-0,042
-727,152	-84,215	-0,083	-0,019
-726,137	129,122	0,028	0,026
-725,123	-115,580	-0,065	0,009
-724,108	521,581	-0,052	-0,091
-723,094	-78,283	-0,128	-0,032
-722,079	800,000	-0,002	0,004
-721,064	800,000	-0,032	-0,093
-720,050	-200,000	-0,003	-0,142
-719,035	33,799	0,034	-0,022
-718,021	45,634	-0,034	-0,023
-717,006	310,742	-0,040	0,055
-715,991	-7,186	0,073	-0,036
-714,977	-200,000	-0,005	-0,074
-713,962	293,328	0,032	-0,043
-712,948	565,200	0,025	-0,046
-711,933	-180,531	0,091	0,001
-710,918	-69,140	-0,031	0,009
-709,904	-91,140	-0,060	0,013
-708,889	-51,637	0,071	-0,024
-707,875	-117,336	0,097	0,013
-706,860	-124,279	0,172	-0,020
-705,845	-49,643	0,115	0,040
-704,831	800,000	-0,026	0,064
-703,816	-80,016	-0,027	-0,007
-702,802	487,192	-0,069	-0,117
-701,787	107,658	-0,035	-0,031
-700,772	-200,000	-0,010	0,054
-699,758	-200,000	0,017	-0,107
-698,743	-200,000	0,006	0,098
-697,729	343,007	-0,096	0,140
-696,714	584,699	-0,042	-0,076
-695,699	-40,913	-0,072	0,027
-694,685	-64,771	-0,067	-0,020
-693,670	800,000	0,024	-0,059
-692,656	9,324	0,037	0,021
-691,641	-200,000	-0,055	-0,184
-690,627	410,874	0,074	0,117
-689,612	519,001	0,028	-0,049
-688,597	-74,687	0,079	0,021
-687,583	215,148	-0,089	-0,104
-686,568	-100,284	-0,098	0,018
-685,554	567,920	0,037	-0,066
-684,539	-79,235	0,097	0,024
-683,524	-45,063	0,084	-0,031
-682,510	-90,320	-0,146	-0,031
-681,495	-20,139	-0,178	-0,081
-680,481	-200,000	-0,010	-0,091
-679,466	5,296	-0,116	-0,063
-678,451	100,168	0,038	0,033
-677,437	-200,000	0,005	-0,032
-676,422	19,234	-0,008	-0,005
-675,408	-18,341	-0,169	0,078
-674,393	57,186	0,073	-0,053
-673,378	229,328	0,055	0,066
-672,364	244,881	-0,077	0,095
-671,349	285,646	-0,051	-0,069
-670,335	-1,404	0,101	0,053
-669,320	-81,490	-0,076	-0,018
-668,305	96,100	-0,042	-0,036
-667,291	-200,000	0,006	0,068
-666,276	34,023	-0,065	-0,042
-665,262	-61,774	-0,043	-0,013
-664,247	-43,931	-0,152	0,056
-663,232	-6,799	0,114	-0,057
-662,218	-200,000	0,021	-0,112
-661,203	-157,853	-0,119	0,005
-660,189	312,755	-0,027	0,037
-659,174	-200,000	-0,021	0,091
-658,159	-13,593	0,062	0,030
-657,145	-200,000	0,025	0,137
-656,130	-34,085	0,132	0,053
-655,116	-200,000	-0,010	-0,074
-654,101	153,605	-0,051	0,052
-653,086	62,046	0,163	0,120
-652,072	34,368	-0,067	-0,043
-651,057	-100,982	-0,160	0,029
-650,043	800,000	-0,038	0,085
-649,028	-200,000	0,000	0,005
-648,014	-97,061	0,051	-0,010
-646,999	593,259	0,025	0,045
-645,984	800,000	0,045	0,127
-644,970	189,389	-0,098	-0,109
-643,955	-114,160	-0,079	-0,011
-642,941	-200,000	-0,058	-0,214
-641,926	178,574	-0,007	-0,008
-640,911	-54,608	0,053	0,018
-639,897	-200,000	0,002	0,024
-638,882	228,628	0,027	-0,033
-637,868	-186,175	0,003	0,000
-636,853	-23,085	0,072	0,032
-635,838	-181,248	-0,149	-0,002
-634,824	-103,800	-0,036	0,006
-633,809	-55,376	0,040	0,013
-632,795	160,668	0,101	-0,104
-631,780	-9,643	0,083	-0,041
-630,765	800,000	-0,055	-0,132
-629,751	218,428	0,032	0,038
-628,736	165,589	-0,029	0,030
-627,722	-110,577	-0,038	-0,006
-626,707	68,642	0,129	0,098
-625,692	210,272	0,120	0,139
-624,678	-200,000	0,002	0,163
-623,663	215,597	0,015	0,017
-622,649	67,921	-0,140	-0,106
-621,634	-73,958	-0,030	-0,008
-620,619	-134,847	-0,057	0,005
-619,605	18,142	0,036	0,021
-618,590	456,899	0,039	0,064
-617,576	256,758	-0,061	0,077
-616,561	800,000	-0,017	-0,043
-615,546	-200,000	0,069	0,000
-614,532	187,387	-0,120	-0,132
-613,517	-200,000	-0,006	0,072
-612,503	168,710	-0,021	-0,022
-611,488	-200,000	0,007	0,093
-610,474	121,109	0,108	0,099
-609,459	-86,373	0,068	0,015
-608,444	131,537	-0,056	0,053
-607,430	-28,524	-0,167	0,071
-606,415	800,000	-0,012	-0,038
-605,401	33,959	-0,051	0,033
-604,386	-79,074	0,048	-0,012
-603,371	-200,000	-0,031	-0,107
-602,357	-200,000	-0,023	-0,096
-601,342	708,851	-0,074	-0,146
-600,328	128,956	-0,083	-0,078
-599,313	16,979	0,026	-0,015
-598,298	34,878	0,121	-0,078
-597,284	4,435	-0,117	-0,063
-596,269	24,308	0,040	0,025
-595,255	-115,963	-0,062	0,008
-594,240	316,944	-0,030	0,042
-593,225	156,607	-0,107	-0,109
-592,211	468,617	-0,074	-0,124
-591,196	-20,266	0,016	-0,007
-590,182	-166,552	-0,045	0,001
-589,167	318,331	0,025	-0,035
-588,152	15,608	-0,081	0,047
-587,138	-200,000	0,012	-0,089
-586,123	-200,000	-0,015	-0,059
-585,109	202,624	0,096	-0,109
-584,094	35,379	0,229	0,148
-583,079	229,311	-0,091	0,110
-582,065	241,059	0,030	-0,037
-581,050	-200,000	0,001	0,114
-580,036	127,270	-0,051	0,048
-579,021	55,751	0,154	-0,110
-578,006	-63,618	-0,122	-0,037
-576,992	-136,183	-0,086	0,007
-575,977	-153,852	0,097	-0,005
-574,963	-24,767	0,110	-0,048
-573,948	-200,000	0,023	0,090
-572,934	157,235	0,034	-0,035
-571,919	-200,000	0,021	-0,131
-570,904	-14,785	-0,150	-0,071
-569,890	-133,846	-0,050	-0,004
-568,875	77,717	-0,002	0,001
-567,861	744,847	0,084	0,168
-566,846	-48,755	0,035	0,012
-565,831	-200,000	0,004	-0,048
-564,817	508,177	-0,065	-0,111
-563,802	61,117	-0,083	0,060
-562,788	800,000	0,030	-0,062
-561,773	-200,000	0,008	-0,069
-560,758	688,237	0,073	-0,142
-559,744	-32,622	-0,057	-0,023
-558,729	297,147	0,068	0,092
-557,715	215,663	-0,043	-0,050
-556,700	-137,758	-0,158	0,013
-555,685	-200,000	-0,007	-0,034
-554,671	-200,000	0,007	0,212
-553,656	-200,000	-0,004	0,090
-552,642	-121,128	-0,059	-0,007
-551,627	-200,000	0,009	0,055
-550,612	387,818	-0,009	0,013
-549,598	-138,655	-0,051	0,004
-548,583	-200,000	-0,007	-0,124
-547,569	14,855	-0,059	-0,034
-546,554	-200,000	0,030	0,153
-545,539	-200,000	-0,001	-0,060
-544,525	-200,000	0,011	0,078
-543,510	294,907	0,018	-0,024
-542,496	-200,000	0,029	-0,094
-541,481	-200,000	-0,035	-0,175
-540,466	-107,620	-0,092	0,015
-539,452	721,563	-0,055	0,108
-538,437	800,000	0,001	0,004
-537,423	141,181	0,016	0,015
-536,408	-44,999	-0,067	0,025
-535,393	-107,926	-0,110	0,017
-534,379	114,858	-0,078	-0,070
-533,364	-113,828	0,044	-0,006
-532,350	421,204	0,032	-0,050
-531,335	-15,559	0,074	0,034
-530,321	-200,000	-0,042	0,170
-529,306	83,411	-0,104	-0,083
-528,291	342,344	0,095	-0,136
-527,277	302,182	-0,036	0,049
-526,262	800,000	0,031	0,083
-525,248	47,536	-0,024	0,016
-524,233	-192,446	0,092	-0,001
-523,218	-18,255	0,016	0,007
-522,204	313,860	-0,101	0,140
-521,189	-200,000	-0,021	0,092
-520,175	-200,000	-0,020	-0,070
-519,160	44,201	-0,043	-0,029
-518,145	-34,307	0,058	-0,023
-517,131	324,943	0,058	-0,081
-516,116	436,593	0,056	-0,090
-515,102	-60,882	0,041	-0,013
-514,087	282,603	-0,017	0,023
-513,072	-47,302	-0,051	-0,018
-512,058	-153,119	-0,105	0,005
-511,043	-109,887	0,097	-0,015
-510,029	-200,000	0,015	-0,107
-509,014	-48,777	0,063	0,022
-507,999	-200,000	-0,016	0,083
-506,985	-67,838	-0,110	-0,031
-505,970	312,675	0,056	0,077
-504,956	800,000	0,026	-0,060
-503,941	740,531	-0,084	0,167
-502,926	-121,190	0,125	-0,015
-501,912	-93,524	-0,036	0,007
-500,897	800,000	0,005	0,011
-499,883	-200,000	-0,021	-0,116
-498,868	800,000	-0,081	-0,186
-497,853	-200,000	0,007	0,080
-496,839	171,589	-0,053	-0,056
-495,824	-33,818	0,130	0,052
-494,810	77,127	-0,066	-0,051
-493,795	-200,000	-0,023	-0,156
-492,781	800,000	-0,014	0,030
-491,766	-200,000	-0,047	-0,269
-490,751	-200,000	-0,030	0,101
-489,737	-64,381	0,080	0,024
-488,722	-200,000	-0,001	-0,089
-487,708	573,357	-0,035	0,063
-486,693	-200,000	0,021	-0,084
-485,678	241,419	0,070	0,087
-484,664	-38,311	-0,182	0,070
-483,649	121,692	-0,017	0,015
-482,635	-111,472	0,047	-0,007
-481,620	555,896	0,049	-0,088
-480,605	800,000	0,052	-0,110
-479,591	800,000	-0,053	0,125
-478,576	800,000	0,015	-0,031
-477,562	800,000	-0,022	-0,066
-476,547	23,440	0,076	0,046
-475,532	800,000	-0,055	-0,125
-474,518	-113,236	0,174	-0,025
-473,503	428,496	-0,046	0,074
-472,489	244,029	0,079	0,097
-471,474	-138,220	0,084	-0,007
-470,459	800,000	-0,031	-0,068
-469,445	800,000	-0,050	-0,133
-468,430	800,000	0,018	0,054
-467,416	4,426	0,085	-0,046
-466,401	-200,000	0,016	-0,132
-465,386	-160,974	-0,076	-0,003
-464,372	30,243	-0,022	-0,014
-463,357	49,646	-0,099	0,069
-462,343	-3,559	-0,050	0,025
-461,328	-200,000	-0,005	0,016
-460,313	-56,063	-0,021	0,007
-459,299	-200,000	-0,030	0,098
-458,284	800,000	0,119	0,242
-457,270	50,986	0,049	0,034
-456,255	-200,000	0,019	-0,161
-455,241	329,779	0,106	-0,150
-454,226	795,384	-0,032	0,066
-453,211	99,104	-0,085	-0,072
-452,197	682,494	-0,070	-0,135
-451,182	576,488	0,044	0,079
-450,168	800,000	-0,023	-0,059
-449,153	-84,565	-0,022	0,005
-448,138	800,000	-0,019	-0,060
-447,124	-81,942	-0,096	-0,023
-446,109	-200,000	-0,014	-0,063
-445,095	-200,000	0,001	-0,047
-444,080	72,435	-0,080	-0,061
-443,065	-33,614	0,055	-0,022
-442,051	-200,000	-0,004	0,128
-441,036	-26,181	-0,124	-0,053
-440,022	800,000	-0,066	-0,141
-439,007	-111,716	0,139	0,020
-437,992	91,155	0,013	0,010
-436,978	-87,739	0,108	-0,024
-435,963	-200,000	0,003	-0,011
-434,949	611,115	0,031	-0,057
-433,934	20,210	-0,084	0,050
-432,919	-200,000	0,003	0,020
-431,905	800,000	0,016	0,034
-430,890	772,746	0,041	0,083
-429,876	173,428	-0,070	-0,074
-428,861	741,539	0,100	0,197
-427,846	138,841	-0,032	0,030
-426,832	-148,442	-0,035	0,002
-425,817	-200,000	-0,004	-0,065
-424,803	-87,628	0,157	-0,034
-423,788	91,174	0,088	-0,072
-422,773	-90,510	0,079	0,017
-421,759	-164,302	-0,021	0,001
-420,744	-114,629	-0,026	0,004
-419,730	-143,091	-0,086	-0,006
-418,715	-200,000	0,022	-0,139
-417,701	800,000	0,043	-0,089
-416,686	-56,140	-0,123	0,040
-415,671	45,514	0,176	0,119
-414,657	-104,607	0,098	0,016
-413,642	334,156	-0,045	0,064
-412,628	-200,000	0,010	-0,059
-411,613	260,168	-0,114	-0,144
-410,598	-200,000	0,017	0,200
-409,584	800,000	0,103	0,285
-408,569	-156,227	-0,088	-0,004
-407,555	209,210	0,036	0,041
-406,540	511,756	-0,029	0,049
-405,525	79,740	-0,037	-0,029
-404,511	-15,142	-0,114	0,053
-403,496	-22,017	-0,051	0,023
-402,482	-200,000	0,009	0,114
-401,467	-200,000	-0,009	0,058
-400,452	122,328	0,161	0,147
-399,438	800,000	0,049	0,132
-398,423	36,139	0,044	0,028
-397,409	-200,000	-0,012	0,107
-396,394	27,174	0,084	0,052
-395,379	-200,000	0,013	-0,079
-394,365	-100,470	-0,016	0,003
-393,350	-200,000	0,025	0,153
-392,336	-200,000	-0,025	0,123
-391,321	-200,000	-0,013	0,075
-390,306	-200,000	-0,003	-0,091
-389,292	-200,000	0,017	0,104
-388,277	-83,744	0,030	-0,007
-387,263	-200,000	-0,006	0,038
-386,248	91,448	0,078	-0,064
-385,233	-200,000	0,012	-0,094
-384,219	-12,690	0,120	-0,057
-383,204	-47,866	-0,085	0,030
-382,190	-33,023	-0,045	-0,018
-381,175	64,806	0,061	-0,045
-380,160	-110,995	0,131	-0,020
-379,146	-67,794	0,099	0,028
-378,131	328,815	-0,004	0,006
-377,117	-45,633	0,078	0,028
-376,102	-200,000	-0,050	-0,274
-375,088	34,100	-0,143	-0,091
-374,073	-117,007	-0,039	-0,005
-373,058	-110,090	0,025	0,004
-372,044	212,554	0,130	-0,150
-371,029	424,635	-0,021	-0,032
-370,015	320,503	-0,061	-0,084
-369,000	57,129	-0,055	-0,039
-367,985	-200,000	0,008	0,120
-366,971	-200,000	-0,003	0,053
-365,956	800,000	-0,043	-0,094
-364,942	-200,000	0,005	0,160
-363,927	-76,444	0,056	-0,014
-362,912	9,548	0,050	0,027
-361,898	74,632	-0,200	-0,153
-360,883	521,006	-0,086	-0,147
-359,869	159,799	-0,117	-0,119
-358,854	-200,000	0,005	-0,151
-357,839	-42,949	0,142	-0,052
-356,825	11,836	0,121	0,068
-355,810	70,509	0,037	0,028
-354,796	-200,000	0,006	0,048
-353,781	-200,000	-0,029	-0,113
-352,766	-5,827	-0,125	0,062
-351,752	-84,694	-0,067	-0,015
-350,737	94,617	-0,030	0,025
-349,723	800,000	0,060	-0,160
-348,708	56,904	0,048	0,034
-347,693	252,220	0,070	0,087
-346,679	800,000	0,009	-0,028
-345,664	282,418	-0,097	-0,128
-344,650	-200,000	0,038	-0,185
-343,635	4,119	0,077	0,041
-342,620	-153,162	-0,093	0,005
-341,606	-18,238	-0,025	-0,011
-340,591	-100,186	-0,045	0,008
-339,577	9,320	0,085	-0,047
-338,562	-49,102	0,045	-0,015
-337,548	-120,710	0,087	-0,011
-336,533	-145,389	0,078	0,005
-335,518	358,446	0,051	0,075
-334,504	-200,000	0,020	0,103
-333,489	47,562	0,118	0,080
-332,475	412,709	-0,049	-0,076
-331,460	800,000	0,010	0,022
-330,445	-200,000	0,006	0,064
-329,431	413,695	0,044	0,068
-328,416	12,673	-0,058	0,033
-327,402	465,778	0,040	-0,066
-326,387	182,650	0,066	-0,071
-325,372	163,251	-0,102	-0,104
-324,358	294,260	0,040	-0,053
-323,343	-200,000	-0,007	0,079
-322,329	415,194	0,044	-0,068
-321,314	-200,000	-0,013	0,046
-320,299	111,491	0,125	0,110
-319,285	107,492	0,063	-0,055
-318,270	-200,000	-0,009	0,135
-317,256	83,495	0,113	-0,090
-316,241	-200,000	-0,020	-0,106
-315,226	135,207	-0,031	-0,029
-314,212	223,810	0,048	-0,056
-313,197	-200,000	-0,009	-0,031
-312,183	-200,000	0,032	0,104
-311,168	41,443	0,022	0,014
-310,153	501,362	0,060	-0,101
-309,139	-200,000	0,004	-0,118
-308,124	157,599	0,067	0,068
-307,110	-200,000	0,001	0,039
-306,095	-200,000	0,012	-0,063
-305,080	-98,224	-0,128	0,024
-304,066	120,568	0,063	0,057
-303,051	97,123	0,071	0,059
-302,037	-109,290	-0,057	-0,009
-301,022	255,022	-0,022	0,027
-300,008	243,929	0,078	-0,095
-298,993	29,110	0,160	0,099
-297,978	210,492	-0,099	0,114
-296,964	-69,077	0,054	0,015
-295,949	29,189	-0,131	0,081
-294,935	-76,980	-0,091	-0,023
-293,920	-59,078	0,068	0,021
-292,905	-19,514	-0,185	0,083
-291,891	475,880	0,109	0,180
-290,876	771,672	-0,058	-0,116
-289,862	-200,000	-0,009	-0,115
-288,847	-200,000	-0,030	0,098
-287,832	117,999	-0,042	-0,038
-286,818	-93,056	0,117	-0,024
-285,803	800,000	0,032	0,068
-284,789	351,405	0,050	0,073
-283,774	78,059	0,018	-0,014
-282,759	-127,123	-0,117	-0,012
-281,745	-158,474	0,048	0,002
-280,730	800,000	0,044	-0,100
-279,716	307,493	0,058	0,079
-278,701	234,436	0,034	-0,041
-277,686	63,829	0,171	-0,125
-276,672	192,184	0,062	0,068
-275,657	134,812	0,016	0,015
-274,643	-104,806	-0,042	-0,007
-273,628	387,935	-0,062	-0,093
-272,613	-122,593	-0,068	-0,008
-271,599	800,000	-0,040	0,113
-270,584	557,863	0,044	0,078
-269,570	-136,284	-0,175	0,015
-268,555	170,449	0,012	0,013
-267,540	53,385	0,161	0,112
-266,526	-200,000	-0,008	-0,118
-265,511	800,000	-0,026	0,055
-264,497	29,421	0,127	0,079
-263,482	-143,782	0,033	-0,002
-262,467	800,000	0,038	0,081
-261,453	-164,984	-0,090	0,003
-260,438	-200,000	-0,041	0,175
-259,424	-23,197	-0,108	0,047
-258,409	800,000	0,032	0,073
-257,395	-184,365	-0,144	-0,002
-256,380	333,757	0,118	0,166
-255,365	29,353	-0,009	-0,006
-254,351	-200,000	0,016	-0,139
-253,336	22,139	0,079	0,047
-252,322	-53,554	-0,190	-0,063
-251,307	-103,837	0,093	-0,016
-250,292	32,713	0,091	0,057
-249,278	-200,000	-0,010	0,036
-248,263	13,938	-0,076	-0,043
-247,249	5,150	0,072	0,039
-246,234	-200,000	-0,011	0,073
-245,219	-57,830	0,066	-0,021
-244,205	-45,680	0,069	-0,025
-243,190	-7,625	-0,029	-0,014
-242,176	800,000	0,026	-0,066
-241,161	110,509	-0,007	-0,006
-240,146	800,000	0,022	0,049
-239,132	-200,000	0,003	-0,046
-238,117	48,357	-0,052	0,035
-237,103	212,702	0,019	0,022
-236,088	800,000	-0,044	0,142
-235,073	122,268	-0,013	0,012
-234,059	-11,650	-0,061	0,029
-233,044	-134,556	-0,040	0,004
-232,030	385,886	0,050	-0,075
-231,015	266,062	-0,149	0,189
-230,000	319,449	-0,047	0,065
-228,986	-200,000	-0,006	0,065
-227,971	-200,000	0,028	0,106
-226,957	63,353	-0,049	0,035
-225,942	132,578	-0,019	-0,017
-224,927	-169,129	-0,129	0,003
-223,913	-111,861	0,045	0,007
-222,898	174,390	-0,144	-0,151
-221,884	-124,537	-0,143	0,016
-220,869	49,813	0,119	0,081
-219,855	-8,424	-0,187	0,091
-218,840	593,747	0,027	0,049
-217,825	-113,239	0,069	-0,010
-216,811	394,285	-0,035	0,053
-215,796	-22,942	-0,171	-0,075
-214,782	242,897	-0,071	0,086
-213,767	46,510	-0,019	-0,013
-212,752	283,545	-0,065	0,085
-211,738	-1,269	-0,128	0,065
-210,723	-200,000	0,015	-0,069
-209,709	48,286	0,065	0,044
-208,694	98,757	0,076	0,063
-207,679	-200,000	0,006	0,106
-206,665	800,000	-0,019	-0,056
-205,650	258,901	0,079	0,099
-204,636	-68,123	-0,107	0,030
-203,621	-200,000	-0,014	0,076
-202,606	-0,355	0,160	-0,082
-201,592	-138,048	0,144	0,011
-200,577	-106,553	-0,078	0,012
-199,563	-87,085	-0,041	0,009
-198,548	-59,159	0,034	0,010
-197,533	-61,241	-0,089	-0,027
-196,519	-200,000	0,020	-0,102
-195,504	513,003	-0,053	-0,090
-194,490	-91,252	-0,076	-0,016
-193,475	546,700	-0,117	-0,205
-192,460	76,405	0,028	-0,021
-191,446	76,281	-0,060	0,046
-190,431	186,937	0,032	0,034
-189,417	800,000	-0,032	0,087
-188,402	-161,326	0,078	-0,003
-187,387	337,802	-0,078	0,110
-186,373	293,564	0,054	-0,071
-185,358	800,000	-0,058	-0,162
-184,344	368,993	0,067	-0,099
-183,329	800,000	0,015	0,043
-182,315	177,634	0,119	0,126
-181,300	-97,510	-0,021	-0,004
-180,285	-200,000	0,011	0,113
-179,271	-200,000	0,006	0,110
-178,256	73,144	0,054	0,041
-177,242	-132,577	0,135	-0,012
-176,227	800,000	-0,058	0,177
-175,212	88,541	-0,015	-0,012
-174,198	74,553	0,083	-0,063
-173,183	505,646	-0,050	-0,084
-172,169	-137,091	-0,050	0,004
-171,154	326,597	0,087	-0,121
-170,139	-200,000	0,008	0,057
-169,125	272,613	0,082	0,105
-168,110	-101,093	0,088	0,015
-167,096	-200,000	-0,019	-0,084
-166,081	82,452	0,149	-0,117
-165,066	147,960	-0,091	-0,089
-164,052	340,561	0,026	0,037
-163,037	-200,000	0,015	-0,072
-162,023	-134,267	-0,033	0,003
-161,008	160,112	-0,042	-0,043
-159,993	-61,625	-0,023	-0,007
-158,979	-200,000	0,021	0,081
-157,964	634,187	0,046	-0,084
-156,950	474,245	-0,106	-0,174
-155,935	37,816	-0,153	-0,098
-154,920	46,328	0,116	0,078
-153,906	184,928	0,019	-0,020
-152,891	-200,000	0,035	0,140
-151,877	184,078	-0,069	0,074
-150,862	-53,523	-0,077	-0,025
-149,847	-124,674	-0,090	-0,010
-148,833	447,899	0,030	-0,048
-147,818	800,000	0,052	0,148
-146,804	405,337	0,053	0,080
-145,789	31,546	-0,162	-0,101
-144,775	800,000	-0,044	-0,107
-143,760	-57,738	0,080	-0,025
-142,745	142,433	0,031	-0,029
-141,731	-200,000	-0,008	0,071
-140,716	-200,000	0,019	-0,074
-139,702	-200,000	-0,014	0,055
-138,687	-74,163	0,184	0,048
-137,672	800,000	0,011	0,035
-136,658	-200,000	0,007	0,053
-135,643	800,000	-0,016	-0,040
-134,629	739,122	0,032	-0,063
-133,614	227,636	-0,029	-0,034
-132,599	228,948	0,065	-0,076
-131,585	320,692	0,102	0,140
-130,570	578,013	0,047	-0,084
-129,556	-200,000	-0,023	-0,088
-128,541	-129,255	-0,111	0,011
-127,526	299,415	-0,101	-0,135
-126,512	-200,000	0,011	0,132
-125,497	-200,000	-0,015	0,138
-124,483	162,233	-0,124	-0,126
-123,468	-200,000	0,053	0,186
-122,453	800,000	-0,058	0,175
-121,439	-200,000	-0,026	0,133
-120,424	-136,170	0,086	-0,007
-119,410	42,616	-0,052	0,034
