DTS Sentinel unit serial number:	SN410029Multiplexer serial number:	ORYXHardware model number:	OX2-SRSoftware version number:	ORYX F/W v4,00 Oryx Data Collector v3.7.2.0data status	okinstallation	B6 Nyhavnadifferential loss correction	single-endedforward channel	channel 2reverse channel	N/Adate	2023/12/09time	12:05:08forward acquisition time	300,00reverse acquisition time	0,00gamma	499,1914k internal	0,3140k external	0,3140temperature offset calibration	1,0000default loss term (dB/km)	0,3820temperature slope calibration	1,0000multiplexer offset coefficient	1,0000multiplexer slope coefficient	1,0000fibre end	0,00T internal ref (°C)	19,16T ext. ref 1 (°C)	3,53T ext. ref 2 (°C)	3,52length (m)	temperature (°C)	Stokes	anti-Stokes-744,400	-200,000	0,007	-0,040
-743,385	-111,362	-0,260	0,039
-742,371	35,617	0,123	0,080
-741,356	32,006	-0,222	0,141
-740,342	27,861	0,026	0,016
-739,327	38,118	-0,282	0,186
-738,312	-147,406	0,038	0,002
-737,298	-85,993	-0,377	0,086
-736,283	800,000	0,034	-0,093
-735,269	77,166	-0,295	0,232
-734,254	-5,094	0,099	0,050
-733,239	-130,520	-0,363	0,036
-732,225	-145,612	0,250	-0,016
-731,210	-36,622	-0,082	0,032
-730,196	125,570	-0,083	0,078
-729,181	800,000	0,012	-0,026
-728,167	-102,819	-0,039	0,007
-727,152	63,953	-0,068	-0,051
-726,137	144,844	-0,043	-0,043
-725,123	-200,000	0,006	-0,109
-724,108	800,000	0,047	-0,112
-723,094	-200,000	0,007	-0,096
-722,079	283,506	-0,049	-0,065
-721,064	471,586	-0,065	0,110
-720,050	-3,524	0,089	0,046
-719,035	324,004	-0,078	0,110
-718,021	88,532	0,056	0,046
-717,006	354,182	-0,066	-0,098
-715,991	650,572	-0,059	-0,112
-714,977	-200,000	0,002	-0,066
-713,962	3,553	0,125	-0,068
-712,948	-1,758	0,101	0,052
-711,933	-200,000	0,006	-0,026
-710,918	-200,000	-0,009	0,101
-709,904	-63,003	-0,074	-0,023
-708,889	-97,406	-0,099	-0,019
-707,875	78,481	0,088	0,069
-706,860	-200,000	-0,017	0,092
-705,845	-200,000	-0,007	0,101
-704,831	-200,000	-0,006	-0,110
-703,816	262,593	-0,063	-0,081
-702,802	230,465	-0,075	-0,091
-701,787	-200,000	0,007	-0,097
-700,772	-200,000	-0,013	-0,132
-699,758	754,635	0,038	0,076
-698,743	377,899	-0,033	0,050
-697,729	-200,000	-0,001	0,130
-696,714	116,625	0,074	0,067
-695,699	408,413	-0,017	-0,027
-694,685	127,166	-0,035	0,033
-693,670	-88,161	0,030	0,007
-692,656	-200,000	-0,006	-0,047
-691,641	-182,551	-0,094	0,001
-690,627	-28,138	0,069	0,029
-689,612	45,554	-0,112	-0,077
-688,597	612,240	-0,034	-0,063
-687,583	800,000	-0,007	0,024
-686,568	-47,285	-0,171	-0,061
-685,554	-22,230	-0,083	-0,037
-684,539	112,592	0,067	-0,060
-683,524	-200,000	0,024	0,089
-682,510	56,505	0,066	0,047
-681,495	800,000	0,044	0,091
-680,481	131,421	-0,061	0,058
-679,466	214,167	-0,029	-0,034
-678,451	-84,586	0,077	-0,018
-677,437	165,508	-0,068	-0,072
-676,422	-76,349	0,089	0,023
-675,408	-120,204	-0,137	-0,017
-674,393	-200,000	0,018	0,066
-673,378	800,000	-0,013	0,037
-672,364	58,127	-0,079	-0,057
-671,349	336,905	-0,034	-0,049
-670,335	587,164	-0,038	0,070
-669,320	453,922	0,035	0,057
-668,305	-200,000	0,033	0,115
-667,291	-192,004	-0,226	0,002
-666,276	216,688	0,084	-0,099
-665,262	551,393	-0,039	0,070
-664,247	-80,666	-0,151	-0,037
-663,232	-53,462	-0,062	-0,021
-662,218	-139,820	0,020	-0,002
-661,203	800,000	-0,029	0,079
-660,189	-103,789	0,070	-0,012
-659,174	329,894	-0,028	0,040
-658,159	452,311	0,021	-0,034
-657,145	131,004	-0,052	-0,049
-656,130	800,000	0,032	-0,075
-655,116	272,536	-0,034	-0,044
-654,101	800,000	-0,056	0,140
-653,086	800,000	-0,013	0,029
-652,072	-65,566	0,055	0,016
-651,057	-101,743	-0,074	-0,013
-650,043	-163,328	0,125	-0,004
-649,028	91,727	-0,048	0,040
-648,014	330,849	0,036	0,052
-646,999	59,773	-0,067	0,048
-645,984	800,000	0,031	-0,093
-644,970	-200,000	-0,013	0,045
-643,955	-200,000	-0,030	0,114
-642,941	39,252	0,073	0,048
-641,926	-94,529	-0,085	0,017
-640,911	800,000	0,014	-0,037
-639,897	300,997	0,029	0,039
-638,882	522,767	-0,021	-0,036
-637,868	800,000	-0,024	0,061
-636,853	-61,983	0,111	-0,034
-635,838	-119,960	-0,103	0,013
-634,824	137,809	-0,108	0,104
-633,809	204,456	-0,108	-0,124
-632,795	800,000	0,018	-0,052
-631,780	-55,333	0,152	0,050
-630,765	-200,000	-0,001	0,147
-629,751	-139,926	-0,108	0,008
-628,736	294,329	-0,107	-0,145
-627,722	-200,000	0,026	-0,108
-626,707	-200,000	0,025	-0,100
-625,692	-200,000	-0,005	-0,087
-624,678	-70,113	-0,040	0,011
-623,663	-200,000	0,012	-0,134
-622,649	-200,000	-0,005	-0,020
-621,634	-20,946	-0,176	0,079
-620,619	193,128	-0,022	-0,024
-619,605	-116,410	0,016	0,002
-618,590	-200,000	-0,016	0,063
-617,576	323,164	0,062	0,087
-616,561	233,571	-0,030	0,036
-615,546	800,000	-0,027	0,061
-614,532	800,000	-0,123	-0,254
-613,517	-163,128	0,056	0,002
-612,503	-107,593	0,106	-0,017
-611,488	-200,000	-0,003	-0,015
-610,474	-200,000	-0,013	0,044
-609,459	-118,208	-0,117	-0,015
-608,444	-200,000	0,001	-0,080
-607,430	-110,600	0,113	-0,017
-606,415	800,000	0,052	-0,125
-605,401	-9,211	-0,096	-0,047
-604,386	-200,000	-0,021	-0,201
-603,371	-200,000	0,008	0,035
-602,357	-91,490	-0,148	0,031
-601,342	133,580	0,092	-0,088
-600,328	455,518	-0,043	-0,071
-599,313	-40,508	0,142	0,054
-598,298	50,637	-0,048	0,033
-597,284	291,656	-0,035	-0,048
-596,269	800,000	0,035	0,099
-595,255	-200,000	0,012	0,143
-594,240	427,125	0,017	0,027
-593,225	14,995	-0,050	-0,029
-592,211	97,853	0,074	0,063
-591,196	13,101	-0,084	0,048
-590,182	800,000	-0,053	-0,129
-589,167	-200,000	-0,009	-0,094
-588,152	167,459	-0,048	0,051
-587,138	-53,362	-0,142	-0,048
-586,123	-127,779	-0,068	-0,007
-585,109	-49,792	-0,084	0,029
-584,094	228,550	-0,076	-0,092
-583,079	-11,626	0,184	0,089
-582,065	252,611	-0,054	-0,068
-581,050	-200,000	-0,016	0,079
-580,036	128,561	0,022	0,020
-579,021	-163,246	-0,031	-0,001
-578,006	-156,971	-0,199	0,009
-576,992	800,000	0,033	0,085
-575,977	-30,178	0,151	-0,063
-574,963	179,147	-0,083	0,090
-573,948	424,464	-0,056	-0,089
-572,934	549,411	-0,045	-0,080
-571,919	228,639	0,015	-0,018
-570,904	-136,026	-0,133	0,011
-569,890	174,216	0,016	-0,017
-568,875	-61,019	-0,093	0,029
-567,861	105,660	-0,103	0,090
-566,846	48,267	-0,015	0,010
-565,831	800,000	0,037	-0,079
-564,817	166,032	-0,036	0,037
-563,802	-45,976	-0,032	0,012
-562,788	-200,000	-0,029	0,108
-561,773	364,641	0,045	0,067
-560,758	-61,129	0,172	0,053
-559,744	-200,000	-0,037	0,138
-558,729	85,660	0,009	0,007
-557,715	-1,637	-0,071	0,036
-556,700	100,172	0,041	0,035
-555,685	-200,000	0,001	0,028
-554,671	-109,625	0,082	0,013
-553,656	21,807	-0,046	-0,027
-552,642	697,246	0,071	-0,137
-551,627	207,899	0,075	0,086
-550,612	-126,534	0,050	0,005
-549,598	-10,706	-0,143	0,069
-548,583	128,030	0,066	-0,062
-547,569	26,205	0,104	-0,064
-546,554	-200,000	-0,012	0,140
-545,539	450,820	-0,058	-0,095
-544,525	-200,000	0,041	0,143
-543,510	124,236	0,058	0,054
-542,496	147,381	0,016	0,016
-541,481	27,247	0,003	-0,002
-540,466	-118,928	-0,064	0,008
-539,452	800,000	-0,014	-0,040
-538,437	-115,724	-0,151	0,021
-537,423	597,900	0,067	0,123
-536,408	42,559	0,087	-0,058
-535,393	-200,000	-0,007	0,089
-534,379	135,463	0,091	-0,087
-533,364	-68,360	0,105	0,030
-532,350	-163,869	0,115	0,004
-531,335	115,191	0,013	0,012
-530,321	-200,000	0,010	0,093
-529,306	-200,000	0,011	0,093
-528,291	800,000	0,042	0,117
-527,277	800,000	-0,057	0,127
-526,262	-200,000	-0,029	-0,114
-525,248	-200,000	0,006	-0,107
-524,233	800,000	0,029	0,060
-523,218	18,331	0,107	0,063
-522,204	-200,000	-0,017	-0,107
-521,189	-200,000	-0,007	-0,031
-520,175	-85,671	-0,106	-0,024
-519,160	-57,332	-0,101	0,033
-518,145	-137,149	0,144	-0,012
-517,131	88,081	0,089	-0,072
-516,116	185,553	-0,033	0,036
-515,102	-200,000	0,009	-0,099
-514,087	-60,135	0,061	-0,019
-513,072	7,539	-0,046	0,025
-512,058	722,445	-0,022	-0,044
-511,043	800,000	0,023	-0,058
-510,029	310,228	-0,030	-0,041
-509,014	-41,670	-0,117	0,044
-507,999	54,532	-0,030	-0,021
-506,985	-105,616	0,169	0,028
-505,970	800,000	-0,004	0,009
-504,956	-200,000	-0,011	0,068
-503,941	-21,325	-0,181	0,081
-502,926	-74,842	0,093	0,024
-501,912	800,000	0,041	0,088
-500,897	-88,951	-0,061	0,013
-499,883	487,191	-0,038	0,063
-498,868	-200,000	0,008	-0,092
-497,853	230,189	-0,084	-0,101
-496,839	-200,000	-0,001	0,172
-495,824	231,965	-0,016	-0,020
-494,810	386,121	-0,037	0,056
-493,795	-61,844	-0,030	-0,009
-492,781	194,345	-0,038	0,043
-491,766	52,765	-0,082	-0,058
-490,751	175,036	0,051	-0,055
-489,737	62,685	0,110	-0,081
-488,722	-183,408	0,083	0,001
-487,708	800,000	-0,033	-0,078
-486,693	-121,608	0,114	-0,014
-485,678	81,690	0,080	0,064
-484,664	142,640	-0,095	-0,093
-483,649	-200,000	-0,013	-0,233
-482,635	296,583	-0,082	-0,111
-481,620	246,635	0,068	-0,084
-480,605	-200,000	-0,032	0,130
-479,591	128,822	-0,124	0,116
-478,576	-200,000	0,003	-0,045
-477,562	387,896	-0,029	0,044
-476,547	508,138	-0,025	0,043
-475,532	-91,360	0,138	0,029
-474,518	20,344	0,085	-0,050
-473,503	-123,600	0,057	0,007
-472,489	-22,197	-0,102	-0,045
-471,474	403,935	0,053	-0,083
-470,459	-200,000	0,020	-0,080
-469,445	800,000	-0,045	-0,110
-468,430	14,864	-0,033	-0,019
-467,416	145,921	0,124	0,122
-466,401	422,977	0,028	0,044
-465,386	-200,000	-0,011	0,195
-464,372	-114,442	0,026	-0,004
-463,357	-193,802	-0,144	0,001
-462,343	34,493	-0,042	0,027
-461,328	92,119	0,063	-0,052
-460,313	60,674	-0,036	-0,026
-459,299	-200,000	-0,009	-0,067
-458,284	-75,621	-0,027	-0,007
-457,270	-125,563	0,066	-0,007
-456,255	-116,082	-0,092	-0,012
-455,241	800,000	-0,020	0,059
-454,226	-142,480	-0,046	-0,003
-453,211	-200,000	0,019	-0,143
-452,197	800,000	0,056	0,166
-451,182	385,714	0,079	-0,120
-450,168	460,224	0,037	0,060
-449,153	-162,736	-0,080	-0,003
-448,138	-200,000	-0,003	-0,102
-447,124	-200,000	-0,009	0,047
-446,109	40,181	0,017	0,011
-445,095	-111,917	0,016	0,002
-444,080	455,680	0,095	0,155
-443,065	72,275	-0,073	0,056
-442,051	384,637	-0,040	0,061
-441,036	246,973	0,048	-0,060
-440,022	190,274	0,088	-0,097
-439,007	-185,444	-0,089	0,001
-437,992	-200,000	0,017	0,156
-436,978	-200,000	0,001	0,138
-435,963	800,000	-0,037	0,080
-434,949	800,000	-0,038	-0,100
-433,934	800,000	0,006	-0,015
-432,919	-200,000	0,003	-0,111
-431,905	293,985	-0,109	0,146
-430,890	-200,000	0,037	0,136
-429,876	199,949	0,114	0,128
-428,861	108,296	-0,015	-0,013
-427,846	-145,357	0,109	0,007
-426,832	19,140	-0,082	-0,048
-425,817	-200,000	0,002	-0,036
-424,803	462,397	-0,030	0,049
-423,788	-44,133	0,162	0,059
-422,773	80,347	0,086	-0,067
-421,759	-200,000	-0,018	0,066
-420,744	23,127	-0,041	-0,025
-419,730	-75,684	-0,075	0,019
-418,715	800,000	0,050	-0,109
-417,701	-200,000	-0,004	-0,074
-416,686	-136,150	-0,078	-0,007
-415,671	154,613	0,100	0,101
-414,657	103,978	0,072	0,062
-413,642	800,000	-0,019	-0,039
-412,628	15,999	0,073	0,042
-411,613	156,121	-0,079	-0,080
-410,598	750,349	0,025	-0,049
-409,584	-108,037	-0,052	-0,008
-408,569	-97,153	-0,093	-0,018
-407,555	800,000	0,012	0,029
-406,540	-200,000	-0,027	-0,095
-405,525	252,343	0,039	-0,048
-404,511	17,956	0,098	-0,057
-403,496	272,233	-0,043	-0,056
-402,482	25,806	0,082	-0,050
-401,467	34,936	0,116	-0,074
-400,452	216,908	0,061	-0,072
-399,438	-135,569	0,082	-0,007
-398,423	281,178	-0,075	0,098
-397,409	11,543	-0,076	-0,043
-396,394	-200,000	0,031	-0,192
-395,379	-0,614	0,070	0,036
-394,365	-200,000	0,036	-0,135
-393,350	-200,000	0,005	-0,025
-392,336	-32,668	-0,114	-0,046
-391,321	-200,000	0,013	-0,110
-390,306	-200,000	-0,001	0,024
-389,292	-113,049	0,059	0,008
-388,277	702,248	-0,040	0,078
-387,263	800,000	-0,035	0,093
-386,248	146,504	0,070	0,069
-385,233	800,000	-0,006	0,015
-384,219	800,000	-0,038	-0,120
-383,204	63,809	-0,062	-0,045
-382,190	-96,919	-0,128	-0,024
-381,175	68,553	-0,118	0,088
-380,160	800,000	-0,059	0,140
-379,146	-10,799	0,089	0,043
-378,131	-59,489	0,166	0,052
-377,117	79,987	-0,066	0,051
-376,102	-102,225	-0,075	-0,013
-375,088	-200,000	-0,011	0,038
-374,073	-200,000	-0,019	-0,093
-373,058	-135,005	0,117	-0,010
-372,044	-137,624	0,126	0,010
-371,029	-105,950	0,122	-0,020
-370,015	-200,000	-0,009	0,051
-369,000	86,844	-0,033	0,027
-367,985	67,349	0,095	-0,071
-366,971	-200,000	-0,002	0,041
-365,956	119,590	-0,029	0,026
-364,942	109,431	-0,067	-0,059
-363,927	253,388	-0,028	0,035
-362,912	183,374	-0,045	-0,048
-361,898	-200,000	-0,001	0,037
-360,883	85,959	0,035	0,028
-359,869	-10,991	-0,111	-0,054
-358,854	-57,610	0,050	0,016
-357,839	-200,000	-0,003	0,030
-356,825	-200,000	-0,019	0,082
-355,810	-80,584	0,088	0,021
-354,796	232,357	0,037	-0,045
-353,781	-14,234	0,122	0,057
-352,766	800,000	-0,002	-0,004
-351,752	-200,000	-0,006	-0,118
-350,737	36,644	0,132	0,085
-349,723	-71,587	0,042	-0,011
-348,708	34,890	-0,086	-0,055
-347,693	784,709	-0,037	-0,075
-346,679	-200,000	-0,013	-0,110
-345,664	237,168	-0,077	-0,093
-344,650	271,731	-0,044	0,057
-343,635	-70,001	0,105	-0,029
-342,620	-200,000	-0,027	-0,092
-341,606	437,049	0,028	-0,045
-340,591	136,956	-0,032	-0,030
-339,577	172,480	0,037	0,039
-338,562	-103,268	-0,103	-0,018
-337,548	-200,000	0,025	-0,102
-336,533	389,776	-0,055	-0,084
-335,518	-111,476	0,071	0,010
-334,504	180,706	0,081	0,087
-333,489	520,871	0,037	0,064
-332,475	494,475	-0,075	0,127
-331,460	-166,166	-0,175	-0,005
-330,445	800,000	-0,037	-0,094
-329,431	-23,246	0,031	-0,014
-328,416	800,000	0,038	0,083
-327,402	-200,000	-0,019	0,130
-326,387	147,978	0,051	-0,051
-325,372	193,969	0,094	-0,104
-324,358	-200,000	0,029	-0,104
-323,343	800,000	0,069	0,178
-322,329	20,474	0,183	0,107
-321,314	-200,000	0,004	0,108
-320,299	76,180	-0,053	-0,041
-319,285	492,041	-0,038	-0,064
-318,270	-200,000	0,007	0,049
-317,256	-61,656	-0,006	-0,002
-316,241	91,510	-0,074	0,060
-315,226	-200,000	-0,004	0,194
-314,212	800,000	0,023	-0,057
-313,197	-0,213	-0,049	-0,025
-312,183	-2,949	0,075	0,038
-311,168	241,564	-0,082	-0,100
-310,153	-68,462	0,114	-0,032
-309,139	-200,000	-0,004	-0,079
-308,124	-200,000	0,003	-0,030
-307,110	-200,000	0,011	0,078
-306,095	-4,499	0,028	-0,014
-305,080	359,547	-0,016	-0,023
-304,066	53,563	-0,018	-0,013
-303,051	-200,000	0,029	-0,224
-302,037	-15,004	-0,142	-0,066
-301,022	13,495	0,029	0,017
-300,008	-200,000	-0,010	0,090
-298,993	-200,000	-0,009	0,118
-297,978	375,225	-0,043	-0,065
-296,964	800,000	0,057	-0,124
-295,949	164,355	0,006	-0,006
-294,935	-128,770	0,133	0,013
-293,920	-10,368	0,202	-0,097
-292,905	-29,822	0,091	-0,037
-291,891	105,649	0,049	0,042
-290,876	-200,000	0,007	0,040
-289,862	24,910	0,017	0,011
-288,847	95,861	0,115	0,095
-287,832	39,122	-0,106	-0,069
-286,818	84,491	-0,009	-0,007
-285,803	416,735	0,116	-0,181
-284,789	777,172	-0,032	0,064
-283,774	724,066	0,115	0,224
-282,759	-200,000	-0,020	-0,093
-281,745	76,118	-0,060	-0,046
-280,730	-200,000	0,030	-0,108
-279,716	317,240	-0,041	0,057
-278,701	800,000	0,049	0,151
-277,686	0,533	0,110	0,057
-276,672	-200,000	0,007	-0,125
-275,657	800,000	0,013	-0,029
-274,643	307,193	-0,048	0,065
-273,628	336,849	-0,078	-0,111
-272,613	-35,789	-0,074	-0,029
-271,599	800,000	0,024	-0,065
-270,584	800,000	-0,019	0,046
-269,570	800,000	0,026	0,073
-268,555	-20,051	-0,038	0,017
-267,540	103,998	0,085	-0,072
-266,526	-17,099	-0,137	0,063
-265,511	-88,416	0,093	0,020
-264,497	283,346	-0,052	-0,068
-263,482	50,672	-0,051	0,035
-262,467	-200,000	0,028	-0,104
-261,453	73,066	-0,075	0,057
-260,438	20,520	-0,122	0,072
-259,424	-101,286	-0,137	-0,024
-258,409	243,485	-0,050	0,061
-257,395	-200,000	0,020	0,080
-256,380	-121,230	-0,093	0,011
-255,365	122,751	-0,040	0,037
-254,351	800,000	-0,024	-0,062
-253,336	228,317	0,050	0,059
-252,322	133,157	-0,062	-0,059
-251,307	114,626	-0,017	0,015
-250,292	-80,290	-0,021	0,005
-249,278	-129,306	0,117	0,012
-248,263	800,000	-0,035	-0,093
-247,249	-113,817	-0,159	0,022
-246,234	365,840	0,041	-0,061
-245,219	-200,000	-0,024	-0,096
-244,205	-108,314	-0,076	0,012
-243,190	-50,748	-0,124	0,042
-242,176	-200,000	0,019	-0,133
-241,161	193,115	-0,022	-0,024
-240,146	-200,000	0,026	0,138
-239,132	19,115	0,079	0,046
-238,117	186,789	-0,090	-0,098
-237,103	62,528	0,059	-0,043
-236,088	285,626	-0,039	0,051
-235,073	350,959	0,046	0,067
-234,059	-200,000	0,020	0,126
-233,044	-168,470	-0,085	-0,002
-232,030	482,961	-0,105	0,174
-231,015	-101,848	0,016	-0,003
-230,000	506,812	0,036	-0,061
-228,986	32,632	-0,062	-0,039
-227,971	48,186	0,074	-0,050
-226,957	800,000	0,047	0,103
-225,942	-66,111	0,032	-0,009
-224,927	81,250	0,069	-0,054
-223,913	-200,000	-0,019	-0,078
-222,898	800,000	-0,008	-0,023
-221,884	239,191	0,002	0,002
-220,869	535,732	0,009	0,015
-219,855	800,000	-0,043	0,086
-218,840	357,026	-0,085	0,124
-217,825	-200,000	-0,004	0,032
-216,811	800,000	-0,018	0,043
-215,796	26,174	0,043	-0,026
-214,782	-200,000	0,004	-0,128
-213,767	729,433	-0,043	-0,083
-212,752	-110,498	-0,095	0,014
-211,738	-170,609	0,079	-0,002
-210,723	-14,147	-0,063	-0,030
-209,709	-74,005	-0,072	0,019
-208,694	321,907	-0,044	-0,060
-207,679	504,521	0,050	0,084
-206,665	335,864	0,045	0,063
-205,650	-200,000	0,023	-0,100
-204,636	-113,881	-0,097	-0,014
-203,621	-86,171	0,095	0,021
-202,606	-200,000	-0,001	-0,098
-201,592	185,100	-0,038	-0,041
-200,577	-117,912	0,084	0,011
-199,563	145,807	-0,023	0,022
-198,548	138,706	0,008	-0,008
-197,533	-200,000	-0,006	0,154
-196,519	-7,929	0,061	0,030
-195,504	-145,355	0,040	0,003
-194,490	342,763	-0,107	-0,152
-193,475	-7,928	0,064	0,031
-192,460	800,000	-0,050	-0,110
-191,446	34,330	0,088	-0,056
-190,431	276,447	0,082	0,106
-189,417	-200,000	-0,008	0,090
-188,402	0,764	-0,076	0,039
-187,387	22,539	-0,049	0,029
-186,373	350,844	0,007	0,010
-185,358	-200,000	-0,008	0,035
-184,344	229,125	0,008	-0,009
-183,329	-196,472	-0,045	-0,000
-182,315	-57,605	0,142	-0,045
-181,300	501,290	-0,025	-0,042
-180,285	396,904	-0,026	0,040
-179,271	800,000	0,036	-0,085
-178,256	343,271	0,071	-0,101
-177,242	-200,000	0,002	0,016
-176,227	-106,895	-0,028	0,004
-175,212	-200,000	0,004	0,103
-174,198	-22,230	0,089	-0,039
-173,183	-200,000	-0,013	0,072
-172,169	131,973	0,020	-0,019
-171,154	54,211	0,099	0,069
-170,139	-200,000	0,003	-0,014
-169,125	-53,840	0,102	0,034
-168,110	-200,000	0,015	0,170
-167,096	-47,256	0,036	0,013
-166,081	12,897	-0,090	-0,050
-165,066	-200,000	-0,016	-0,089
-164,052	-200,000	-0,018	-0,192
-163,037	189,296	0,019	0,021
-162,023	-66,101	0,113	-0,033
-161,008	-200,000	-0,027	0,144
-159,993	679,962	-0,044	0,083
-158,979	301,421	0,052	0,070
-157,964	-106,036	0,011	-0,002
-156,950	-200,000	-0,006	0,021
-155,935	398,942	-0,065	-0,099
-154,920	800,000	0,015	0,045
-153,906	-146,472	0,145	0,009
-152,891	44,541	-0,023	-0,015
-151,877	165,902	0,023	-0,023
-150,862	-200,000	0,003	-0,027
-149,847	34,661	0,055	0,035
-148,833	485,382	0,037	0,061
-147,818	-21,883	-0,107	-0,047
-146,804	-104,452	0,143	0,024
-145,789	-200,000	0,017	0,081
-144,775	-111,834	0,206	-0,030
-143,760	-88,446	-0,113	0,024
-142,745	238,238	0,037	0,044
-141,731	800,000	-0,033	-0,083
-140,716	57,500	0,041	0,029
-139,702	800,000	0,059	0,170
-138,687	800,000	-0,018	0,055
-137,672	-82,018	-0,079	0,019
-136,658	2,098	-0,087	-0,045
-135,643	138,970	0,129	-0,123
-134,629	-92,479	0,110	0,022
-133,614	800,000	-0,022	0,049
-132,599	438,403	0,108	0,172
-131,585	-200,000	-0,047	0,249
-130,570	-200,000	0,009	0,142
-129,556	557,862	-0,048	0,084
-128,541	-6,944	-0,160	0,078
-127,526	111,527	-0,045	-0,039
-126,512	55,221	-0,089	0,063
-125,497	36,036	-0,151	-0,096
-124,483	-146,066	0,046	0,003
-123,468	-200,000	-0,019	-0,081
-122,453	479,548	-0,020	-0,032
-121,439	-13,681	0,071	0,033
-120,424	170,036	-0,028	-0,029
-119,410	-200,000	-0,006	0,066
