DTS Sentinel unit serial number:	SN410029Multiplexer serial number:	ORYXHardware model number:	OX2-SRSoftware version number:	ORYX F/W v4,00 Oryx Data Collector v3.7.2.0data status	okinstallation	B6 Nyhavnadifferential loss correction	single-endedforward channel	channel 2reverse channel	N/Adate	2023/12/10time	07:00:08forward acquisition time	300,00reverse acquisition time	0,00gamma	499,1914k internal	0,3124k external	0,3124temperature offset calibration	1,0000default loss term (dB/km)	0,3820temperature slope calibration	1,0000multiplexer offset coefficient	1,0000multiplexer slope coefficient	1,0000fibre end	0,00T internal ref (°C)	22,62T ext. ref 1 (°C)	6,38T ext. ref 2 (°C)	6,37length (m)	temperature (°C)	Stokes	anti-Stokes-744,400	800,000	0,049	-0,105
-743,385	22,656	-0,263	0,160
-742,371	389,791	0,123	0,190
-741,356	169,813	-0,142	0,151
-740,342	763,744	0,043	-0,088
-739,327	-146,208	-0,192	0,012
-738,312	800,000	-0,018	0,044
-737,298	-61,009	-0,248	0,078
-736,283	-4,970	0,051	-0,026
-735,269	-25,392	-0,131	0,057
-734,254	-200,000	-0,009	-0,139
-733,239	-107,124	-0,405	-0,066
-732,225	146,815	0,074	0,074
-731,210	184,362	-0,026	-0,029
-730,196	-40,337	0,129	-0,050
-729,181	578,942	-0,043	0,079
-728,167	196,921	-0,055	-0,062
-727,152	14,403	0,053	-0,031
-726,137	302,523	-0,041	-0,056
-725,123	156,738	-0,029	-0,030
-724,108	800,000	-0,041	-0,126
-723,094	108,398	-0,111	-0,098
-722,079	-200,000	-0,003	-0,147
-721,064	-200,000	0,030	0,129
-720,050	-200,000	0,007	0,023
-719,035	515,244	-0,014	-0,025
-718,021	-72,804	-0,092	-0,025
-717,006	20,068	0,095	-0,057
-715,991	30,515	-0,164	-0,104
-714,977	205,274	-0,080	0,092
-713,962	183,622	0,050	0,055
-712,948	194,675	0,042	0,048
-711,933	651,858	-0,056	-0,107
-710,918	-71,861	0,037	0,010
-709,904	-18,484	-0,193	-0,089
-708,889	184,968	-0,171	-0,189
-707,875	672,406	-0,012	-0,022
-706,860	-200,000	0,002	0,062
-705,845	783,574	-0,084	0,171
-704,831	320,228	-0,011	-0,015
-703,816	463,960	0,050	-0,083
-702,802	-124,389	-0,151	-0,017
-701,787	800,000	0,063	-0,146
-700,772	-200,000	0,014	-0,195
-699,758	395,450	-0,066	-0,103
-698,743	-200,000	0,021	-0,131
-697,729	-98,317	-0,099	0,019
-696,714	19,890	0,102	0,061
-695,699	-166,200	-0,064	0,002
-694,685	54,321	-0,077	-0,055
-693,670	-37,006	-0,124	-0,049
-692,656	136,457	-0,059	-0,057
-691,641	-1,562	-0,116	-0,060
-690,627	222,872	-0,042	-0,050
-689,612	-200,000	-0,016	0,123
-688,597	197,458	-0,067	0,076
-687,583	207,987	0,043	-0,050
-686,568	29,682	0,055	-0,035
-685,554	-200,000	0,002	-0,081
-684,539	106,593	0,069	-0,061
-683,524	28,368	0,112	0,070
-682,510	-14,331	-0,009	0,004
-681,495	-24,210	-0,078	0,034
-680,481	-38,031	-0,066	-0,026
-679,466	60,645	0,044	-0,032
-678,451	-27,687	-0,078	-0,034
-677,437	-200,000	0,001	-0,036
-676,422	519,186	-0,022	0,038
-675,408	39,167	-0,097	0,064
-674,393	302,869	-0,085	-0,117
-673,378	-200,000	0,010	0,040
-672,364	-200,000	-0,006	-0,079
-671,349	-23,031	-0,093	0,041
-670,335	-13,040	-0,135	-0,065
-669,320	-200,000	-0,019	0,062
-668,305	50,790	-0,042	-0,029
-667,291	-80,478	-0,083	0,020
-666,276	-10,294	-0,154	-0,076
-665,262	133,325	-0,121	0,116
-664,247	-17,456	-0,187	0,087
-663,232	-200,000	-0,020	-0,075
-662,218	-200,000	-0,004	-0,072
-661,203	24,817	0,097	-0,059
-660,189	-19,854	0,050	-0,023
-659,174	235,618	0,034	-0,042
-658,159	283,856	-0,080	-0,108
-657,145	718,034	-0,058	-0,115
-656,130	-20,018	-0,131	0,060
-655,116	-200,000	-0,021	0,103
-654,101	-200,000	-0,124	0,000
-653,086	-57,168	0,207	-0,067
-652,072	-73,413	-0,089	-0,024
-651,057	-131,391	-0,112	-0,011
-650,043	800,000	-0,059	-0,151
-649,028	534,700	-0,034	0,061
-648,014	-44,083	0,109	-0,040
-646,999	217,987	0,044	0,053
-645,984	305,120	-0,084	-0,116
-644,970	89,070	-0,063	0,052
-643,955	-200,000	-0,016	-0,178
-642,941	223,116	-0,024	0,029
-641,926	800,000	-0,040	-0,086
-640,911	-160,143	-0,082	0,003
-639,897	-200,000	-0,002	-0,059
-638,882	-200,000	0,003	0,113
-637,868	800,000	0,065	-0,151
-636,853	645,569	-0,052	-0,099
-635,838	800,000	0,035	-0,106
-634,824	420,789	-0,059	0,094
-633,809	-200,000	-0,005	0,049
-632,795	-42,284	0,015	-0,005
-631,780	800,000	0,022	-0,051
-630,765	-39,156	0,077	-0,030
-629,751	-63,685	0,058	-0,018
-628,736	-106,408	-0,114	0,019
-627,722	800,000	0,025	0,059
-626,707	248,601	0,038	0,048
-625,692	1,483	-0,042	-0,022
-624,678	97,123	-0,066	-0,056
-623,663	74,609	0,021	0,016
-622,649	406,567	0,104	-0,163
-621,634	800,000	0,026	-0,069
-620,619	-200,000	-0,031	-0,133
-619,605	662,079	0,099	-0,191
-618,590	243,989	0,046	-0,057
-617,576	-11,331	-0,085	-0,042
-616,561	16,350	-0,023	-0,014
-615,546	-118,817	-0,056	0,007
-614,532	800,000	0,004	0,007
-613,517	-56,791	-0,017	0,006
-612,503	-188,371	-0,093	-0,001
-611,488	95,363	-0,066	0,056
-610,474	800,000	0,056	0,134
-609,459	-32,282	-0,065	-0,027
-608,444	-24,940	-0,152	0,066
-607,430	-36,025	-0,068	-0,027
-606,415	80,267	-0,067	-0,053
-605,401	788,214	-0,016	-0,032
-604,386	264,430	-0,065	0,084
-603,371	522,102	0,013	-0,023
-602,357	35,303	-0,026	0,017
-601,342	-200,000	-0,004	0,044
-600,328	-200,000	-0,016	-0,079
-599,313	-151,448	0,041	-0,002
-598,298	233,388	0,045	-0,055
-597,284	267,984	-0,061	0,079
-596,269	18,768	-0,059	-0,035
-595,255	87,430	0,038	0,031
-594,240	29,456	-0,036	0,022
-593,225	667,589	0,018	0,034
-592,211	800,000	-0,010	0,027
-591,196	-200,000	-0,024	0,092
-590,182	-111,831	-0,135	-0,020
-589,167	-200,000	-0,013	-0,162
-588,152	153,456	-0,165	0,168
-587,138	-200,000	0,066	-0,243
-586,123	363,202	-0,046	0,068
-585,109	800,000	-0,066	-0,203
-584,094	41,900	0,100	-0,067
-583,079	-200,000	0,002	0,094
-582,065	306,023	0,030	0,042
-581,050	65,679	0,126	0,094
-580,036	551,647	-0,055	-0,098
-579,021	199,399	-0,081	-0,092
-578,006	359,621	-0,056	-0,083
-576,992	454,211	-0,057	0,094
-575,977	83,429	-0,145	0,117
-574,963	230,841	0,025	0,030
-573,948	-200,000	0,002	0,034
-572,934	429,828	0,032	0,051
-571,919	800,000	0,035	0,073
-570,904	31,399	-0,095	-0,060
-569,890	222,066	-0,079	-0,094
-568,875	216,509	0,048	0,056
-567,861	140,125	0,077	0,075
-566,846	-119,800	-0,169	0,021
-565,831	-95,881	-0,069	-0,013
-564,817	460,504	0,083	-0,137
-563,802	-110,658	-0,073	-0,011
-562,788	272,258	-0,022	0,029
-561,773	-84,258	0,081	-0,019
-560,758	-1,084	0,045	-0,023
-559,744	800,000	0,018	-0,052
-558,729	-85,089	0,198	-0,045
-557,715	-31,816	-0,150	-0,062
-556,700	800,000	-0,014	0,047
-555,685	-131,989	-0,118	0,011
-554,671	800,000	0,028	0,073
-553,656	32,130	-0,047	0,030
-552,642	42,188	0,107	-0,072
-551,627	-78,404	-0,057	0,014
-550,612	-200,000	-0,005	-0,087
-549,598	-107,098	0,109	-0,018
-548,583	-200,000	0,009	-0,087
-547,569	122,640	0,040	0,037
-546,554	-124,241	0,100	0,011
-545,539	800,000	0,032	-0,073
-544,525	-200,000	-0,005	-0,119
-543,510	-200,000	0,009	0,072
-542,496	373,948	0,028	-0,043
-541,481	549,733	0,048	-0,086
-540,466	356,537	-0,069	-0,101
-539,452	-3,597	-0,075	0,038
-538,437	42,810	0,063	0,043
-537,423	306,909	-0,056	0,078
-536,408	236,185	0,023	0,029
-535,393	-200,000	-0,039	-0,159
-534,379	-47,949	-0,126	-0,045
-533,364	-200,000	-0,033	-0,121
-532,350	-133,251	0,038	0,003
-531,335	190,342	-0,004	-0,005
-530,321	800,000	-0,016	0,047
-529,306	-121,790	0,044	-0,005
-528,291	195,033	-0,129	-0,144
-527,277	-200,000	0,023	-0,194
-526,262	84,642	-0,076	-0,062
-525,248	81,639	0,043	-0,035
-524,233	-99,582	-0,062	-0,011
-523,218	-53,079	0,022	-0,008
-522,204	1,457	0,061	-0,033
-521,189	-70,279	0,030	-0,008
-520,175	258,505	0,047	0,059
-519,160	800,000	-0,033	-0,072
-518,145	231,477	0,032	0,039
-517,131	-200,000	-0,045	0,148
-516,116	-200,000	0,017	0,061
-515,102	-116,165	0,154	-0,021
-514,087	-200,000	0,008	-0,046
-513,072	-200,000	-0,002	-0,015
-512,058	-200,000	-0,026	-0,155
-511,043	9,137	0,081	-0,045
-510,029	-200,000	-0,021	0,130
-509,014	282,375	-0,033	0,044
-507,999	-154,397	-0,032	0,002
-506,985	-200,000	0,011	-0,069
-505,970	800,000	0,023	-0,067
-504,956	141,023	-0,037	0,037
-503,941	393,023	-0,030	-0,046
-502,926	38,145	0,043	0,028
-501,912	233,547	-0,036	-0,044
-500,897	-53,283	0,140	0,047
-499,883	800,000	-0,026	-0,061
-498,868	-200,000	-0,020	0,072
-497,853	176,450	-0,047	-0,050
-496,839	90,613	-0,051	0,042
-495,824	138,586	-0,049	-0,048
-494,810	92,786	0,092	0,076
-493,795	-39,097	-0,083	-0,032
-492,781	-71,216	0,040	-0,011
-491,766	-200,000	0,009	0,113
-490,751	-200,000	0,004	0,021
-489,737	3,342	0,103	-0,055
-488,722	59,334	0,116	-0,084
-487,708	-70,374	0,044	-0,012
-486,693	256,138	0,029	0,036
-485,678	-100,897	0,030	-0,005
-484,664	194,030	-0,058	-0,065
-483,649	-200,000	0,038	-0,136
-482,635	733,246	0,077	-0,153
-481,620	145,852	0,060	-0,059
-480,605	-77,527	-0,080	0,020
-479,591	-88,695	-0,087	0,019
-478,576	-200,000	0,012	-0,057
-477,562	4,999	-0,087	0,047
-476,547	-200,000	-0,035	-0,158
-475,532	800,000	0,063	-0,170
-474,518	800,000	0,052	-0,140
-473,503	-200,000	-0,020	0,129
-472,489	-200,000	-0,006	0,259
-471,474	-200,000	0,018	-0,083
-470,459	-200,000	-0,058	-0,198
-469,445	280,586	-0,084	0,111
-468,430	46,846	0,041	-0,028
-467,416	-200,000	-0,014	0,080
-466,401	248,571	-0,043	0,054
-465,386	-97,457	0,204	-0,039
-464,372	48,541	0,070	-0,048
-463,357	9,644	-0,047	-0,026
-462,343	417,329	0,053	-0,084
-461,328	163,999	-0,042	-0,043
-460,313	-200,000	0,007	-0,026
-459,299	266,318	0,049	-0,063
-458,284	41,436	0,040	0,026
-457,270	800,000	0,027	0,072
-456,255	489,086	-0,042	0,070
-455,241	-17,871	0,081	0,038
-454,226	5,112	-0,177	-0,096
-453,211	253,105	0,070	0,088
-452,197	290,918	0,063	0,084
-451,182	131,969	0,042	0,040
-450,168	60,448	0,037	0,027
-449,153	-49,270	-0,051	0,018
-448,138	-200,000	-0,041	-0,185
-447,124	405,112	-0,107	-0,167
-446,109	23,208	-0,088	-0,053
-445,095	-21,858	0,121	0,054
-444,080	7,216	0,186	-0,102
-443,065	79,876	0,041	-0,033
-442,051	-164,663	-0,040	0,001
-441,036	800,000	0,027	-0,079
-440,022	-200,000	-0,010	-0,051
-439,007	158,498	0,192	0,197
-437,992	595,466	0,051	0,092
-436,978	-124,713	0,214	0,024
-435,963	599,685	0,021	-0,039
-434,949	800,000	0,048	-0,120
-433,934	-200,000	-0,026	-0,126
-432,919	28,806	-0,139	0,087
-431,905	464,107	-0,028	-0,046
-430,890	-26,170	0,031	-0,013
-429,876	429,820	0,036	0,057
-428,861	725,978	0,060	0,119
-427,846	-35,187	-0,067	-0,027
-426,832	423,209	0,014	-0,022
-425,817	508,104	0,113	-0,194
-424,803	800,000	-0,016	-0,041
-423,788	-200,000	0,008	0,038
-422,773	371,031	0,131	0,196
-421,759	-87,303	0,157	0,035
-420,744	97,157	-0,094	-0,079
-419,730	800,000	-0,060	-0,132
-418,715	170,919	0,064	-0,068
-417,701	-200,000	-0,017	0,066
-416,686	52,474	0,058	0,041
-415,671	512,569	0,081	0,140
-414,657	-200,000	0,007	0,062
-413,642	-167,523	0,082	-0,002
-412,628	-129,943	-0,087	0,009
-411,613	468,228	-0,013	-0,022
-410,598	-200,000	-0,156	0,000
-409,584	800,000	0,028	-0,059
-408,569	62,990	0,081	0,059
-407,555	-200,000	0,032	0,134
-406,540	208,054	0,059	0,068
-405,525	-147,506	-0,049	-0,003
-404,511	310,204	-0,029	-0,040
-403,496	160,267	-0,016	0,017
-402,482	-174,245	-0,034	-0,001
-401,467	-200,000	-0,003	-0,020
-400,452	-98,305	0,157	0,029
-399,438	800,000	0,028	-0,091
-398,423	3,914	0,087	-0,047
-397,409	67,503	0,024	-0,018
-396,394	-86,354	-0,087	0,020
-395,379	277,189	-0,081	-0,106
-394,365	-200,000	0,018	0,097
-393,350	1,235	0,121	-0,064
-392,336	444,381	-0,123	0,199
-391,321	31,732	0,078	-0,050
-390,306	80,551	-0,116	0,092
-389,292	38,068	-0,105	-0,069
-388,277	800,000	-0,019	-0,056
-387,263	-119,447	0,106	-0,013
-386,248	800,000	-0,035	0,084
-385,233	672,906	0,001	-0,002
-384,219	-101,423	0,050	0,009
-383,204	-88,754	0,080	-0,017
-382,190	-200,000	-0,025	-0,081
-381,175	-200,000	0,005	-0,020
-380,160	356,267	0,107	0,157
-379,146	198,927	0,112	0,126
-378,131	-200,000	0,000	0,005
-377,117	605,541	0,075	0,138
-376,102	-114,256	-0,110	0,015
-375,088	101,684	-0,060	0,052
-374,073	161,934	-0,035	0,037
-373,058	428,744	-0,029	-0,045
-372,044	1,198	-0,030	0,016
-371,029	132,207	0,122	0,116
-370,015	-53,012	-0,136	0,046
-369,000	-25,755	-0,124	0,053
-367,985	-151,601	-0,039	0,002
-366,971	-200,000	-0,006	-0,030
-365,956	69,274	0,030	0,022
-364,942	-128,362	0,092	0,010
-363,927	12,496	0,147	0,083
-362,912	-149,248	-0,079	0,005
-361,898	800,000	-0,031	-0,082
-360,883	-200,000	0,004	-0,048
-359,869	52,834	-0,090	-0,063
-358,854	-21,420	0,126	0,056
-357,839	329,885	-0,048	0,068
-356,825	800,000	-0,073	0,163
-355,810	197,639	-0,046	0,052
-354,796	792,368	-0,020	-0,041
-353,781	-88,149	-0,096	-0,021
-352,766	164,667	-0,039	0,040
-351,752	61,999	0,032	0,023
-350,737	-200,000	0,009	0,076
-349,723	800,000	-0,018	0,057
-348,708	800,000	0,041	-0,109
-347,693	-42,625	-0,018	-0,007
-346,679	127,711	0,008	-0,007
-345,664	321,586	-0,045	-0,063
-344,650	127,749	0,101	-0,094
-343,635	26,411	0,067	0,041
-342,620	-149,223	-0,101	0,006
-341,606	20,718	0,052	-0,031
-340,591	357,819	0,034	0,050
-339,577	-200,000	0,001	-0,070
-338,562	-98,838	-0,031	-0,006
-337,548	-200,000	-0,018	0,062
-336,533	-143,117	-0,017	-0,001
-335,518	-200,000	0,043	-0,165
-334,504	800,000	-0,066	0,153
-333,489	-23,725	0,024	0,011
-332,475	70,792	-0,005	-0,004
-331,460	-54,096	-0,054	-0,018
-330,445	-200,000	0,006	0,040
-329,431	-35,557	-0,052	0,021
-328,416	-200,000	-0,013	0,043
-327,402	-200,000	0,004	0,024
-326,387	-53,062	0,095	-0,032
-325,372	379,184	-0,085	-0,128
-324,358	-200,000	0,015	-0,047
-323,343	800,000	0,023	-0,049
-322,329	-19,294	0,104	-0,047
-321,314	-34,342	-0,108	-0,043
-320,299	-200,000	0,032	0,155
-319,285	800,000	-0,016	0,043
-318,270	2,684	-0,069	0,037
-317,256	-109,312	-0,051	0,008
-316,241	-200,000	-0,013	-0,055
-315,226	25,986	-0,107	0,065
-314,212	-72,757	0,057	0,015
-313,197	-132,366	-0,078	0,007
-312,183	800,000	-0,026	-0,083
-311,168	-51,242	-0,043	0,015
-310,153	-66,946	-0,082	-0,024
-309,139	240,528	-0,080	-0,098
-308,124	1,253	0,138	-0,072
-307,110	73,256	0,142	-0,109
-306,095	-200,000	-0,012	0,045
-305,080	225,292	-0,135	0,161
-304,066	-93,277	-0,102	0,021
-303,051	800,000	-0,058	-0,120
-302,037	-133,778	-0,067	0,006
-301,022	-200,000	0,005	0,201
-300,008	431,170	0,020	0,032
-298,993	-118,602	0,025	0,003
-297,978	800,000	-0,017	0,053
-296,964	-39,814	0,171	0,065
-295,949	-65,534	-0,022	0,006
-294,935	-200,000	0,020	0,111
-293,920	-68,878	0,112	-0,031
-292,905	-178,324	-0,106	0,002
-291,891	86,134	-0,045	0,036
-290,876	339,285	0,034	-0,049
-289,862	-200,000	-0,004	-0,029
-288,847	645,973	0,044	-0,082
-287,832	-150,481	0,058	-0,003
-286,818	-200,000	-0,027	0,109
-285,803	-40,379	0,027	0,010
-284,789	50,265	-0,081	0,056
-283,774	-177,104	0,049	0,001
-282,759	-110,906	-0,070	-0,010
-281,745	-200,000	-0,009	-0,119
-280,730	-200,000	0,043	0,282
-279,716	800,000	-0,029	0,085
-278,701	175,992	-0,077	-0,082
-277,686	86,076	0,142	-0,115
-276,672	800,000	0,060	-0,124
-275,657	-17,806	-0,044	0,020
-274,643	-48,908	-0,062	-0,021
-273,628	-97,997	-0,083	-0,015
-272,613	195,033	0,018	0,020
-271,599	324,380	0,052	-0,073
-270,584	-200,000	-0,004	-0,057
-269,570	-79,400	0,037	0,009
-268,555	274,495	0,062	-0,081
-267,540	69,614	-0,123	0,093
-266,526	-56,156	-0,017	-0,006
-265,511	679,161	0,030	-0,058
-264,497	800,000	0,041	0,114
-263,482	-81,684	0,211	-0,050
-262,467	120,228	-0,060	-0,054
-261,453	800,000	-0,027	0,061
-260,438	-114,787	0,064	0,009
-259,424	320,949	-0,070	0,098
-258,409	207,848	-0,032	0,037
-257,395	-45,492	-0,075	-0,027
-256,380	183,164	-0,117	0,126
-255,365	16,870	0,171	0,099
-254,351	-41,564	-0,131	0,049
-253,336	800,000	-0,033	0,080
-252,322	-61,361	-0,045	0,014
-251,307	-95,908	-0,035	0,007
-250,292	326,175	-0,033	-0,047
-249,278	-200,000	0,036	0,163
-248,263	162,725	0,036	0,037
-247,249	93,421	0,089	0,074
-246,234	394,047	-0,070	-0,108
-245,219	216,542	0,092	0,107
-244,205	-114,542	0,036	-0,005
-243,190	-51,541	0,059	-0,020
-242,176	-200,000	0,003	0,123
-241,161	800,000	0,065	0,185
-240,146	-200,000	0,026	0,094
-239,132	-200,000	-0,151	0,000
-238,117	115,864	-0,070	0,062
-237,103	-200,000	0,027	0,100
-236,088	-200,000	0,010	-0,097
-235,073	-127,135	0,157	-0,017
-234,059	-200,000	-0,007	0,106
-233,044	169,379	-0,070	-0,073
-232,030	-200,000	-0,009	0,067
-231,015	274,336	0,019	-0,025
-230,000	-150,323	-0,127	0,007
-228,986	506,976	0,011	-0,019
-227,971	-117,036	0,104	0,014
-226,957	-5,761	-0,146	0,073
-225,942	800,000	0,061	-0,166
-224,927	146,110	-0,035	-0,035
-223,913	20,983	-0,112	0,066
-222,898	82,009	-0,109	-0,086
-221,884	-200,000	-0,002	-0,041
-220,869	42,816	0,015	0,010
-219,855	-200,000	0,000	0,058
-218,840	-87,725	0,059	0,013
-217,825	-200,000	0,003	0,099
-216,811	-200,000	-0,024	0,085
-215,796	-162,249	-0,019	0,001
-214,782	195,875	-0,064	0,071
-213,767	112,213	0,103	-0,091
-212,752	38,228	0,084	0,055
-211,738	-65,251	0,108	0,032
-210,723	800,000	0,018	0,054
-209,709	800,000	-0,020	0,051
-208,694	-108,608	0,079	-0,012
-207,679	-200,000	-0,011	-0,060
-206,665	800,000	0,033	0,086
-205,650	168,493	0,117	0,122
-204,636	-62,225	-0,125	-0,038
-203,621	189,837	0,088	0,096
-202,606	-21,403	0,064	-0,028
-201,592	790,354	-0,067	0,135
-200,577	800,000	0,048	-0,110
-199,563	-65,340	-0,145	0,042
-198,548	-64,725	0,114	0,033
-197,533	-31,684	-0,059	0,024
-196,519	-43,746	0,157	0,057
-195,504	40,601	0,044	-0,029
-194,490	49,835	-0,115	-0,079
-193,475	171,699	-0,027	-0,028
-192,460	-83,701	-0,114	-0,026
-191,446	800,000	0,012	0,035
-190,431	-87,356	0,145	-0,032
-189,417	43,851	0,027	-0,018
-188,402	47,414	-0,024	-0,017
-187,387	-169,444	0,101	0,003
-186,373	-200,000	-0,048	-0,164
-185,358	576,269	-0,057	0,102
-184,344	119,868	0,056	0,050
-183,329	-69,727	0,054	-0,015
-182,315	-69,798	-0,095	0,026
-181,300	-12,992	0,104	0,049
-180,285	565,770	-0,088	-0,156
-179,271	-32,805	-0,052	-0,021
-178,256	-175,328	-0,089	0,002
-177,242	-31,391	0,150	-0,061
-176,227	-200,000	0,041	0,143
-175,212	-200,000	-0,016	-0,160
-174,198	15,866	-0,073	0,042
-173,183	800,000	0,002	-0,004
-172,169	-149,906	-0,117	-0,007
-171,154	800,000	0,050	-0,122
-170,139	800,000	0,028	0,075
-169,125	-142,202	0,037	0,003
-168,110	-200,000	-0,013	0,125
-167,096	-200,000	-0,026	0,175
-166,081	-200,000	0,022	-0,072
-165,066	730,547	0,030	-0,059
-164,052	70,879	-0,194	-0,146
-163,037	202,722	0,017	-0,019
-162,023	249,481	0,077	0,095
-161,008	-200,000	0,065	0,314
-159,993	800,000	-0,016	0,049
-158,979	157,640	0,048	-0,048
-157,964	-25,210	-0,068	-0,029
-156,950	-29,400	0,137	-0,057
-155,935	-133,886	-0,066	-0,006
-154,920	639,288	-0,089	0,166
-153,906	365,060	0,089	0,131
-152,891	-38,537	0,066	-0,025
-151,877	163,026	-0,054	0,056
-150,862	800,000	-0,048	0,111
-149,847	-29,415	-0,073	0,030
-148,833	-134,581	-0,146	0,013
-147,818	20,627	0,055	-0,032
-146,804	96,339	0,094	0,078
-145,789	138,935	-0,063	0,061
-144,775	800,000	-0,027	0,063
-143,760	-25,505	-0,062	0,026
-142,745	800,000	-0,026	0,069
-141,731	-200,000	0,001	0,029
-140,716	-123,889	0,107	-0,012
-139,702	-177,401	-0,100	0,002
-138,687	-200,000	0,001	-0,045
-137,672	-117,425	-0,067	0,009
-136,658	-153,630	-0,117	-0,006
-135,643	40,639	0,037	-0,024
-134,629	-0,414	-0,038	-0,020
-133,614	459,541	-0,070	-0,114
-132,599	154,476	0,063	0,063
-131,585	141,410	-0,045	0,043
-130,570	-200,000	-0,006	0,019
-129,556	568,409	0,048	-0,085
-128,541	-96,061	0,050	-0,010
-127,526	115,304	0,133	0,119
-126,512	-200,000	-0,008	-0,049
-125,497	-37,438	-0,131	0,051
-124,483	-63,361	-0,085	-0,025
-123,468	112,816	0,059	-0,052
-122,453	-200,000	0,010	0,168
-121,439	-85,073	0,019	-0,004
-120,424	-200,000	-0,001	-0,056
-119,410	-29,247	0,068	-0,028
