DTS Sentinel unit serial number:	SN410029Multiplexer serial number:	ORYXHardware model number:	OX2-SRSoftware version number:	ORYX F/W v4,00 Oryx Data Collector v3.7.2.0data status	okinstallation	B6 Nyhavnadifferential loss correction	single-endedforward channel	channel 2reverse channel	N/Adate	2023/12/07time	19:35:08forward acquisition time	300,00reverse acquisition time	0,00gamma	499,1914k internal	0,3164k external	0,3164temperature offset calibration	1,0000default loss term (dB/km)	0,3820temperature slope calibration	1,0000multiplexer offset coefficient	1,0000multiplexer slope coefficient	1,0000fibre end	0,00T internal ref (°C)	14,00T ext. ref 1 (°C)	-2,98T ext. ref 2 (°C)	-2,99length (m)	temperature (°C)	Stokes	anti-Stokes-744,400	370,209	0,124	0,185
-743,385	-188,222	-0,384	0,003
-742,371	-37,246	0,168	0,066
-741,356	-78,470	-0,203	0,051
-740,342	5,505	0,108	-0,058
-739,327	-89,515	-0,288	-0,062
-738,312	800,000	0,014	0,045
-737,298	-115,799	-0,347	-0,047
-736,283	90,548	0,101	0,083
-735,269	-154,371	-0,359	0,017
-734,254	-110,948	0,211	-0,032
-733,239	1,037	-0,566	-0,298
-732,225	125,262	0,117	0,109
-731,210	62,364	-0,111	0,081
-730,196	-200,000	-0,014	-0,045
-729,181	-200,000	0,029	-0,136
-728,167	724,519	0,041	-0,080
-727,152	-28,864	0,035	-0,015
-726,137	653,670	-0,037	0,070
-725,123	-48,452	-0,168	-0,059
-724,108	-0,440	-0,118	-0,061
-723,094	-138,703	-0,168	0,013
-722,079	800,000	-0,046	-0,113
-721,064	800,000	-0,032	0,083
-720,050	-200,000	0,000	0,122
-719,035	453,872	0,013	-0,020
-718,021	85,094	0,103	-0,083
-717,006	-64,906	-0,068	-0,020
-715,991	-116,408	-0,190	0,025
-714,977	-200,000	0,022	-0,093
-713,962	217,903	0,075	0,088
-712,948	-37,024	-0,014	-0,006
-711,933	800,000	0,026	0,085
-710,918	-134,856	0,056	-0,005
-709,904	406,918	-0,116	-0,181
-708,889	-200,000	0,005	-0,054
-707,875	655,283	0,117	-0,222
-706,860	-200,000	-0,004	-0,057
-705,845	59,605	-0,076	0,055
-704,831	-130,946	-0,043	-0,004
-703,816	-200,000	-0,022	0,078
-702,802	39,423	0,074	0,048
-701,787	63,414	-0,090	-0,066
-700,772	334,872	0,033	-0,047
-699,758	-14,077	0,110	0,052
-698,743	43,515	0,056	0,038
-697,729	-200,000	0,022	-0,079
-696,714	-121,243	-0,157	-0,019
-695,699	-200,000	0,005	0,099
-694,685	382,161	-0,048	0,072
-693,670	-37,250	-0,186	-0,073
-692,656	800,000	-0,025	-0,057
-691,641	645,949	0,019	-0,037
-690,627	134,857	-0,092	0,088
-689,612	-155,815	-0,061	0,003
-688,597	3,098	0,056	0,030
-687,583	411,764	-0,097	-0,152
-686,568	-200,000	0,012	-0,101
-685,554	-200,000	0,005	-0,016
-684,539	109,732	-0,066	-0,058
-683,524	218,107	0,061	-0,071
-682,510	-200,000	0,021	-0,090
-681,495	79,460	-0,098	-0,077
-680,481	744,356	-0,082	-0,162
-679,466	-43,128	-0,048	0,018
-678,451	-200,000	-0,001	0,063
-677,437	633,496	0,030	0,055
-676,422	-10,634	-0,069	-0,033
-675,408	247,623	0,032	0,040
-674,393	119,782	-0,073	-0,066
-673,378	419,460	0,082	-0,130
-672,364	-10,057	-0,226	-0,110
-671,349	-121,142	0,108	-0,013
-670,335	-25,163	0,046	-0,020
-669,320	-17,198	-0,112	-0,051
-668,305	-109,281	0,078	0,012
-667,291	-152,350	-0,073	0,004
-666,276	-200,000	-0,015	0,061
-665,262	313,288	-0,044	-0,061
-664,247	427,604	-0,073	0,116
-663,232	239,368	-0,072	0,088
-662,218	772,583	-0,071	-0,142
-661,203	169,037	0,111	-0,117
-660,189	120,682	-0,063	0,057
-659,174	-47,823	-0,038	-0,013
-658,159	-139,611	-0,031	0,002
-657,145	-35,932	-0,067	-0,027
-656,130	164,560	-0,029	0,030
-655,116	-200,000	-0,014	-0,055
-654,101	-66,707	-0,108	-0,031
-653,086	119,998	0,085	-0,077
-652,072	-69,340	0,050	0,014
-651,057	227,115	-0,040	0,048
-650,043	82,826	-0,071	-0,057
-649,028	326,291	-0,033	-0,046
-648,014	682,603	-0,047	-0,091
-646,999	306,889	-0,019	0,026
-645,984	-200,000	-0,015	0,061
-644,970	-200,000	-0,000	-0,008
-643,955	-152,461	-0,033	-0,002
-642,941	-200,000	-0,000	-0,038
-641,926	-42,618	-0,110	-0,041
-640,911	800,000	-0,050	0,122
-639,897	800,000	-0,051	0,137
-638,882	800,000	0,049	0,106
-637,868	195,401	0,058	-0,065
-636,853	-136,128	0,093	-0,008
-635,838	800,000	-0,010	-0,022
-634,824	-64,911	-0,076	0,022
-633,809	-49,027	-0,049	0,017
-632,795	-120,579	-0,113	0,014
-631,780	43,681	0,113	0,075
-630,765	-23,744	-0,218	0,095
-629,751	87,463	0,049	-0,039
-628,736	800,000	-0,050	-0,158
-627,722	-105,239	-0,070	0,012
-626,707	-37,673	-0,061	0,024
-625,692	264,106	0,033	0,042
-624,678	105,164	0,030	-0,026
-623,663	-19,127	0,070	-0,032
-622,649	-47,173	-0,171	-0,061
-621,634	-43,429	-0,054	0,020
-620,619	-200,000	0,006	-0,033
-619,605	-90,213	0,189	-0,040
-618,590	-107,732	-0,094	-0,015
-617,576	-200,000	0,001	0,049
-616,561	-34,315	0,054	0,021
-615,546	-102,242	0,038	0,007
-614,532	-66,189	-0,069	-0,020
-613,517	800,000	0,031	0,085
-612,503	-99,343	-0,106	-0,019
-611,488	-178,711	0,095	0,002
-610,474	691,260	-0,035	0,067
-609,459	800,000	-0,040	-0,082
-608,444	84,915	-0,106	0,085
-607,430	206,351	-0,144	-0,164
-606,415	-38,821	-0,064	0,024
-605,401	800,000	-0,061	0,159
-604,386	-158,075	0,066	0,003
-603,371	-200,000	-0,016	0,164
-602,357	-143,401	-0,102	0,007
-601,342	-200,000	0,005	-0,104
-600,328	-200,000	-0,019	-0,068
-599,313	-17,439	0,012	0,006
-598,298	-50,755	-0,105	0,036
-597,284	-182,554	0,072	-0,001
-596,269	123,576	-0,042	-0,039
-595,255	241,051	0,028	-0,035
-594,240	-98,528	-0,187	-0,035
-593,225	-75,501	-0,151	-0,039
-592,211	800,000	0,031	-0,079
-591,196	-100,039	0,094	0,017
-590,182	294,560	-0,014	0,019
-589,167	137,528	-0,059	-0,057
-588,152	-200,000	0,002	-0,019
-587,138	800,000	-0,044	-0,121
-586,123	-81,266	-0,140	0,034
-585,109	179,919	-0,061	-0,065
-584,094	-43,707	-0,034	0,012
-583,079	-32,204	0,098	-0,040
-582,065	48,799	0,051	0,035
-581,050	-12,366	0,082	0,039
-580,036	621,951	0,018	0,033
-579,021	-70,836	-0,165	-0,045
-578,006	39,904	0,061	0,040
-576,992	92,802	-0,050	0,042
-575,977	-66,093	-0,106	-0,031
-574,963	800,000	-0,067	0,148
-573,948	295,130	-0,083	0,111
-572,934	800,000	0,023	-0,055
-571,919	337,582	0,095	-0,136
-570,904	159,010	0,023	-0,024
-569,890	46,331	-0,084	-0,056
-568,875	228,834	0,101	0,120
-567,861	387,234	0,038	-0,058
-566,846	465,172	0,052	0,086
-565,831	-64,673	0,099	0,029
-564,817	-65,493	-0,165	-0,048
-563,802	-125,204	-0,064	0,007
-562,788	-200,000	0,021	-0,137
-561,773	87,061	0,085	-0,068
-560,758	54,752	0,062	0,044
-559,744	223,080	0,074	0,088
-558,729	10,658	-0,057	-0,032
-557,715	-200,000	-0,015	0,100
-556,700	-200,000	0,003	0,023
-555,685	-83,081	-0,205	-0,048
-554,671	321,885	0,052	-0,073
-553,656	-200,000	0,006	-0,059
-552,642	-124,529	-0,119	-0,013
-551,627	292,041	0,052	0,069
-550,612	-200,000	0,028	-0,098
-549,598	220,517	-0,045	-0,052
-548,583	800,000	0,036	0,112
-547,569	800,000	-0,025	-0,057
-546,554	-116,040	0,025	0,003
-545,539	-200,000	0,001	0,017
-544,525	-147,687	-0,051	0,003
-543,510	222,413	-0,038	0,045
-542,496	115,447	0,100	0,089
-541,481	-64,367	0,036	-0,011
-540,466	-200,000	-0,006	-0,111
-539,452	-91,458	0,106	-0,022
-538,437	80,649	0,101	-0,079
-537,423	-45,752	0,071	0,025
-536,408	-159,266	-0,072	-0,003
-535,393	-200,000	-0,002	-0,075
-534,379	800,000	0,021	0,062
-533,364	274,310	-0,028	0,036
-532,350	-64,467	0,009	-0,003
-531,335	-200,000	0,006	0,106
-530,321	85,325	-0,048	-0,039
-529,306	-156,016	-0,102	0,005
-528,291	-31,117	-0,081	0,033
-527,277	-139,315	0,064	-0,005
-526,262	-200,000	0,012	0,081
-525,248	-73,326	-0,138	-0,037
-524,233	337,872	-0,044	0,063
-523,218	-61,715	0,120	0,037
-522,204	-112,699	-0,045	-0,006
-521,189	322,119	-0,027	-0,038
-520,175	-200,000	-0,020	-0,078
-519,160	-5,803	0,101	-0,050
-518,145	0,222	0,094	-0,049
-517,131	-200,000	-0,027	-0,135
-516,116	800,000	0,034	-0,084
-515,102	-200,000	-0,012	0,137
-514,087	205,537	-0,058	-0,065
-513,072	-125,870	0,226	-0,025
-512,058	105,922	-0,040	-0,035
-511,043	-34,461	0,204	0,081
-510,029	37,426	-0,062	-0,040
-509,014	-13,893	0,086	0,040
-507,999	-38,626	0,107	-0,041
-506,985	6,483	-0,106	0,057
-505,970	-200,000	0,018	0,085
-504,956	-4,848	0,051	-0,026
-503,941	800,000	-0,025	-0,062
-502,926	44,372	0,016	0,011
-501,912	76,415	0,110	-0,085
-500,897	-99,531	-0,004	0,001
-499,883	-200,000	0,016	-0,097
-498,868	55,333	0,015	-0,010
-497,853	-22,035	0,053	0,023
-496,839	114,863	0,017	-0,015
-495,824	-77,641	0,039	-0,010
-494,810	-200,000	-0,001	-0,105
-493,795	-19,706	-0,189	-0,085
-492,781	-200,000	0,006	-0,042
-491,766	-200,000	-0,004	-0,112
-490,751	-83,045	0,024	-0,006
-489,737	800,000	0,001	-0,003
-488,722	84,866	0,125	0,099
-487,708	242,419	0,100	0,122
-486,693	608,608	-0,021	0,039
-485,678	800,000	-0,040	0,112
-484,664	298,713	-0,063	-0,084
-483,649	-8,500	-0,027	0,013
-482,635	-200,000	0,052	-0,206
-481,620	5,893	0,067	0,036
-480,605	-19,951	0,051	0,023
-479,591	398,239	-0,040	0,061
-478,576	-38,365	-0,151	0,058
-477,562	-200,000	-0,003	0,063
-476,547	-83,035	-0,184	-0,043
-475,532	158,315	0,035	-0,036
-474,518	-63,702	-0,060	-0,018
-473,503	-53,623	0,143	-0,047
-472,489	-200,000	-0,003	0,046
-471,474	-90,832	0,158	-0,033
-470,459	368,628	0,055	0,081
-469,445	628,296	-0,087	-0,161
-468,430	-40,126	0,043	-0,016
-467,416	800,000	0,072	-0,201
-466,401	-76,882	-0,042	-0,010
-465,386	800,000	0,011	-0,033
-464,372	-93,670	-0,118	0,023
-463,357	-127,155	0,142	0,015
-462,343	800,000	0,022	-0,063
-461,328	230,612	-0,115	-0,138
-460,313	-119,215	0,106	0,013
-459,299	-167,639	0,159	-0,004
-458,284	-200,000	-0,008	0,032
-457,270	-200,000	0,002	0,149
-456,255	168,651	-0,093	-0,097
-455,241	800,000	-0,024	-0,052
-454,226	800,000	0,049	-0,140
-453,211	164,437	-0,088	0,090
-452,197	800,000	0,019	0,040
-451,182	336,176	0,040	0,057
-450,168	201,887	-0,078	-0,087
-449,153	-200,000	0,006	0,093
-448,138	183,384	0,110	-0,119
-447,124	2,238	-0,098	0,051
-446,109	800,000	-0,055	-0,113
-445,095	800,000	0,036	-0,074
-444,080	368,336	0,052	0,077
-443,065	-135,298	0,116	0,010
-442,051	-79,501	0,148	-0,036
-441,036	-11,516	-0,040	-0,019
-440,022	-200,000	-0,046	-0,154
-439,007	183,279	0,048	0,051
-437,992	800,000	-0,031	0,092
-436,978	359,118	-0,053	0,078
-435,963	34,980	0,103	0,066
-434,949	767,946	0,016	0,032
-433,934	-10,361	-0,077	-0,037
-432,919	71,816	-0,065	-0,049
-431,905	-200,000	-0,012	0,063
-430,890	-106,546	0,046	0,007
-429,876	-57,357	0,124	0,040
-428,861	77,896	0,128	0,099
-427,846	83,503	0,073	0,058
-426,832	308,594	-0,011	-0,015
-425,817	226,496	-0,043	-0,051
-424,803	800,000	0,032	0,096
-423,788	-200,000	-0,002	-0,010
-422,773	115,535	0,046	-0,041
-421,759	-139,094	0,081	0,006
-420,744	800,000	0,034	-0,081
-419,730	-9,027	-0,037	0,018
-418,715	800,000	0,022	-0,071
-417,701	800,000	-0,018	0,035
-416,686	-99,361	-0,026	0,005
-415,671	-137,618	-0,114	-0,009
-414,657	548,289	0,066	0,115
-413,642	-109,746	-0,032	-0,005
-412,628	-5,463	0,109	0,054
-411,613	-59,231	-0,067	0,021
-410,598	800,000	0,061	0,136
-409,584	-115,053	0,055	0,008
-408,569	704,796	-0,045	0,086
-407,555	800,000	0,029	0,062
-406,540	11,024	-0,019	0,011
-405,525	-200,000	0,013	0,057
-404,511	315,642	-0,104	-0,143
-403,496	-200,000	0,002	0,060
-402,482	-171,574	-0,144	0,003
-401,467	94,587	0,030	0,025
-400,452	-125,392	-0,013	-0,001
-399,438	-78,975	-0,028	-0,007
-398,423	111,288	0,087	-0,076
-397,409	-76,034	-0,111	0,028
-396,394	-200,000	0,017	-0,095
-395,379	67,916	0,125	-0,092
-394,365	-200,000	-0,004	0,017
-393,350	-75,831	0,158	-0,040
-392,336	-200,000	0,010	0,052
-391,321	-19,866	-0,037	-0,016
-390,306	38,280	-0,038	-0,024
-389,292	800,000	0,021	0,061
-388,277	-135,264	0,147	-0,013
-387,263	-61,869	0,126	-0,038
-386,248	375,926	-0,073	0,109
-385,233	-200,000	-0,016	0,059
-384,219	-13,047	-0,128	0,060
-383,204	109,447	0,013	-0,011
-382,190	800,000	-0,059	-0,161
-381,175	-67,647	0,041	-0,012
-380,160	-200,000	0,007	0,177
-379,146	800,000	0,069	0,145
-378,131	137,279	0,069	-0,065
-377,117	-190,484	-0,115	-0,001
-376,102	41,395	0,074	0,049
-375,088	-176,588	-0,173	-0,003
-374,073	-53,942	0,067	-0,022
-373,058	800,000	0,026	-0,054
-372,044	201,010	-0,047	0,053
-371,029	-200,000	-0,014	-0,100
-370,015	-123,636	-0,107	-0,012
-369,000	81,455	0,111	0,087
-367,985	15,540	-0,077	0,044
-366,971	-121,205	0,088	-0,010
-365,956	-84,401	0,131	0,030
-364,942	800,000	-0,033	0,099
-363,927	800,000	-0,025	-0,057
-362,912	-200,000	0,007	-0,086
-361,898	179,617	-0,108	-0,115
-360,883	123,261	-0,042	0,038
-359,869	-43,980	-0,061	0,022
-358,854	60,414	0,043	-0,031
-357,839	-149,029	-0,061	0,003
-356,825	211,241	0,092	0,105
-355,810	-200,000	0,026	0,115
-354,796	-139,022	-0,120	-0,009
-353,781	-200,000	0,017	-0,055
-352,766	-200,000	-0,019	-0,110
-351,752	345,227	-0,055	0,078
-350,737	600,323	0,080	0,145
-349,723	389,541	-0,042	-0,063
-348,708	-120,721	0,105	0,013
-347,693	-44,602	-0,032	0,012
-346,679	800,000	0,037	-0,091
-345,664	-200,000	0,003	-0,036
-344,650	-5,347	0,056	-0,028
-343,635	695,322	0,066	0,126
-342,620	-92,719	0,061	-0,012
-341,606	454,957	0,036	-0,058
-340,591	253,593	0,052	-0,065
-339,577	-36,797	-0,155	0,060
-338,562	800,000	0,011	0,031
-337,548	-177,423	0,060	-0,001
-336,533	-9,926	-0,130	-0,062
-335,518	-46,741	0,054	-0,019
-334,504	-4,157	-0,166	0,083
-333,489	232,703	0,058	-0,069
-332,475	168,398	0,046	-0,047
-331,460	-172,810	-0,155	-0,003
-330,445	800,000	0,079	0,224
-329,431	409,367	-0,034	0,052
-328,416	-200,000	0,027	-0,105
-327,402	53,332	-0,071	-0,049
-326,387	-107,925	0,244	-0,038
-325,372	-35,257	0,099	-0,039
-324,358	241,553	-0,076	-0,092
-323,343	-200,000	-0,023	-0,078
-322,329	102,218	0,081	0,069
-321,314	13,336	0,106	0,059
-320,299	29,034	-0,077	0,047
-319,285	-200,000	0,006	0,022
-318,270	800,000	0,064	-0,140
-317,256	131,679	0,053	0,049
-316,241	672,524	0,010	0,020
-315,226	-200,000	-0,010	-0,088
-314,212	75,755	0,128	0,098
-313,197	76,339	0,050	-0,039
-312,183	83,414	0,003	0,002
-311,168	49,778	-0,136	-0,093
-310,153	-200,000	-0,006	-0,037
-309,139	312,563	0,032	-0,044
-308,124	800,000	-0,062	0,163
-307,110	-200,000	-0,025	0,099
-306,095	-90,724	0,149	0,031
-305,080	-117,922	-0,076	-0,010
-304,066	800,000	0,035	0,080
-303,051	489,798	0,029	0,048
-302,037	-50,684	-0,115	-0,039
-301,022	-200,000	-0,036	0,150
-300,008	256,022	-0,080	-0,100
-298,993	247,021	0,057	0,069
-297,978	800,000	-0,024	0,071
-296,964	-40,490	0,006	0,002
-295,949	-179,946	0,049	0,001
-294,935	-200,000	0,008	-0,029
-293,920	-156,775	0,229	0,010
-292,905	62,285	0,029	0,021
-291,891	-80,075	-0,179	0,043
-290,876	-16,699	0,117	0,053
-289,862	800,000	-0,023	-0,058
-288,847	1,125	0,083	-0,043
-287,832	-30,046	-0,125	-0,051
-286,818	-83,238	0,096	0,022
-285,803	-76,074	-0,135	0,034
-284,789	-39,429	0,050	0,019
-283,774	228,431	-0,061	0,072
-282,759	-32,978	0,078	-0,031
-281,745	-137,485	0,074	-0,006
-280,730	-43,972	-0,083	0,030
-279,716	-108,065	-0,023	-0,004
-278,701	226,297	0,138	-0,162
-277,686	-200,000	-0,001	0,018
-276,672	-35,442	0,170	-0,066
-275,657	332,031	0,045	0,063
-274,643	-108,108	-0,173	0,027
-273,628	-200,000	-0,001	-0,067
-272,613	-134,728	-0,122	-0,011
-271,599	7,107	0,142	-0,076
-270,584	-200,000	0,012	-0,074
-269,570	800,000	0,032	0,067
-268,555	-141,403	-0,120	0,009
-267,540	800,000	-0,038	-0,086
-266,526	-134,202	-0,116	0,010
-265,511	-118,607	0,105	0,013
-264,497	349,757	-0,059	0,084
-263,482	76,275	0,054	-0,041
-262,467	9,232	0,056	0,030
-261,453	37,754	-0,091	-0,058
-260,438	-118,001	0,056	-0,007
-259,424	315,263	0,032	-0,044
-258,409	-200,000	0,032	0,112
-257,395	594,249	0,033	0,059
-256,380	-200,000	-0,005	-0,101
-255,365	-20,911	-0,090	-0,040
-254,351	462,817	-0,077	0,124
-253,336	-200,000	0,045	-0,178
-252,322	-68,898	-0,065	0,018
-251,307	-54,220	-0,023	0,008
-250,292	-200,000	-0,005	-0,114
-249,278	159,177	0,092	-0,092
-248,263	239,618	0,042	0,051
-247,249	-110,998	-0,127	-0,019
-246,234	168,978	0,038	-0,039
-245,219	221,141	-0,051	-0,059
-244,205	-57,588	-0,076	-0,024
-243,190	-200,000	-0,012	0,042
-242,176	800,000	-0,058	-0,162
-241,161	-200,000	-0,004	0,128
-240,146	75,068	-0,039	0,030
-239,132	800,000	-0,030	-0,075
-238,117	800,000	-0,033	-0,083
-237,103	-200,000	-0,129	0,000
-236,088	1,648	-0,065	-0,034
-235,073	800,000	-0,065	0,140
-234,059	223,269	0,051	-0,059
-233,044	347,226	0,007	0,010
-232,030	-21,923	-0,106	0,046
-231,015	-56,378	0,072	0,023
-230,000	-75,543	-0,161	0,041
-228,986	800,000	0,019	-0,048
-227,971	-200,000	0,009	0,050
-226,957	-200,000	0,028	0,134
-225,942	197,583	-0,044	0,048
-224,927	800,000	-0,066	0,150
-223,913	301,430	-0,068	0,091
-222,898	-200,000	-0,002	-0,088
-221,884	359,112	-0,041	0,060
-220,869	800,000	0,016	-0,032
-219,855	-200,000	0,011	-0,067
-218,840	448,937	0,040	0,063
-217,825	-64,344	0,030	0,009
-216,811	-200,000	0,004	-0,083
-215,796	-68,387	-0,135	-0,038
-214,782	-99,072	0,123	0,022
-213,767	-72,665	0,085	-0,022
-212,752	-200,000	0,041	-0,148
-211,738	-2,872	0,067	-0,033
-210,723	-156,302	0,078	0,003
-209,709	-200,000	0,008	0,057
-208,694	-200,000	-0,002	-0,088
-207,679	47,301	-0,068	-0,046
-206,665	-76,228	0,165	0,042
-205,650	-75,329	0,226	0,058
-204,636	10,144	-0,173	0,094
-203,621	-200,000	0,007	0,094
-202,606	488,117	-0,080	-0,132
-201,592	77,457	-0,022	-0,017
-200,577	233,854	-0,064	-0,076
-199,563	-200,000	0,011	0,099
-198,548	-95,886	0,051	-0,010
-197,533	-200,000	0,018	-0,064
-196,519	-200,000	-0,021	-0,154
-195,504	-32,081	-0,131	-0,052
-194,490	-200,000	0,016	-0,099
-193,475	800,000	-0,019	-0,058
-192,460	273,237	-0,022	0,028
-191,446	189,178	0,072	0,078
-190,431	-56,775	0,123	0,039
-189,417	-12,463	-0,065	0,031
-188,402	-177,976	-0,096	0,002
-187,387	-200,000	0,004	0,039
-186,373	121,426	0,031	-0,028
-185,358	-200,000	0,031	0,144
-184,344	652,433	0,083	0,154
-183,329	164,588	0,051	-0,052
-182,315	76,906	-0,032	0,025
-181,300	66,312	0,055	0,040
-180,285	800,000	0,044	0,096
-179,271	-200,000	0,028	-0,185
-178,256	800,000	0,032	0,066
-177,242	-200,000	-0,020	0,140
-176,227	70,265	0,073	0,054
-175,212	103,249	0,070	0,059
-174,198	-137,710	-0,057	-0,005
-173,183	34,501	0,070	-0,044
-172,169	216,029	0,059	0,068
-171,154	-200,000	-0,003	-0,011
-170,139	-142,978	-0,044	0,003
-169,125	88,011	0,080	0,064
-168,110	412,769	0,084	0,129
-167,096	-118,112	-0,087	-0,011
-166,081	-83,715	-0,098	0,022
-165,066	411,384	0,070	-0,107
-164,052	800,000	0,061	-0,150
-163,037	-200,000	0,031	0,168
-162,023	-200,000	-0,015	0,089
-161,008	-86,853	0,058	0,013
-159,993	800,000	-0,035	0,089
-158,979	106,154	-0,024	0,021
-157,964	431,572	-0,013	-0,020
-156,950	-68,149	-0,148	-0,041
-155,935	2,386	0,071	-0,037
-154,920	800,000	-0,041	-0,117
-153,906	-200,000	0,004	-0,015
-152,891	4,964	-0,073	0,038
-151,877	-134,124	0,084	0,007
-150,862	23,509	-0,077	0,046
-149,847	92,649	0,025	-0,020
-148,833	-109,708	0,198	-0,030
-147,818	-200,000	-0,006	-0,107
-146,804	-143,168	0,061	-0,004
-145,789	-200,000	0,006	0,090
-144,775	-111,563	-0,092	-0,013
-143,760	439,119	-0,070	-0,111
-142,745	-200,000	-0,002	0,007
-141,731	800,000	-0,023	0,057
-140,716	153,944	-0,050	0,049
-139,702	-114,741	0,025	0,003
-138,687	-200,000	0,019	0,115
-137,672	-200,000	-0,032	0,150
-136,658	514,239	-0,006	-0,010
-135,643	-143,598	0,034	0,002
-134,629	164,528	-0,099	-0,101
-133,614	800,000	0,062	0,140
-132,599	800,000	0,027	0,060
-131,585	201,829	0,130	0,145
-130,570	-200,000	0,041	0,175
-129,556	-103,269	-0,176	-0,029
-128,541	-134,228	0,104	-0,009
-127,526	800,000	-0,009	0,018
-126,512	-200,000	0,003	0,011
-125,497	-200,000	-0,012	-0,059
-124,483	-31,851	0,075	-0,030
-123,468	-189,355	-0,091	0,001
-122,453	-200,000	-0,010	-0,103
-121,439	14,044	-0,122	-0,068
-120,424	-97,149	0,063	-0,012
-119,410	-200,000	-0,035	0,135
