DTS Sentinel unit serial number:	SN410029Multiplexer serial number:	ORYXHardware model number:	OX2-SRSoftware version number:	ORYX F/W v4,00 Oryx Data Collector v3.7.2.0data status	okinstallation	B6 Nyhavnadifferential loss correction	single-endedforward channel	channel 2reverse channel	N/Adate	2023/12/10time	02:00:08forward acquisition time	300,00reverse acquisition time	0,00gamma	499,1914k internal	0,3125k external	0,3125temperature offset calibration	1,0000default loss term (dB/km)	0,3820temperature slope calibration	1,0000multiplexer offset coefficient	1,0000multiplexer slope coefficient	1,0000fibre end	0,00T internal ref (°C)	21,94T ext. ref 1 (°C)	5,70T ext. ref 2 (°C)	5,68length (m)	temperature (°C)	Stokes	anti-Stokes-744,400	141,417	0,059	-0,059
-743,385	-30,160	-0,348	0,147
-742,371	33,912	0,184	0,119
-741,356	492,835	-0,084	0,143
-740,342	164,476	-0,043	0,045
-739,327	-95,080	-0,327	0,065
-738,312	-11,499	-0,120	-0,059
-737,298	-92,636	-0,146	0,030
-736,283	-57,164	-0,087	-0,028
-735,269	-143,297	-0,184	0,013
-734,254	800,000	0,017	-0,041
-733,239	-80,724	-0,411	-0,101
-732,225	-12,194	0,123	0,060
-731,210	-70,072	0,109	-0,031
-730,196	326,195	-0,086	0,123
-729,181	-200,000	0,001	0,075
-728,167	416,388	0,041	-0,065
-727,152	341,675	-0,051	-0,075
-726,137	272,442	-0,038	-0,050
-725,123	-200,000	-0,030	-0,144
-724,108	-25,071	-0,170	-0,075
-723,094	800,000	0,041	-0,113
-722,079	361,575	-0,016	-0,024
-721,064	624,566	-0,012	-0,023
-720,050	-68,733	-0,131	0,037
-719,035	199,143	0,071	0,081
-718,021	60,754	0,084	-0,062
-717,006	59,387	-0,122	-0,089
-715,991	497,430	-0,064	-0,110
-714,977	-200,000	-0,022	-0,166
-713,962	195,078	0,066	-0,075
-712,948	293,166	-0,047	-0,064
-711,933	453,966	0,002	-0,004
-710,918	-200,000	0,017	-0,086
-709,904	113,791	-0,119	-0,108
-708,889	374,776	-0,044	-0,067
-707,875	1,456	0,082	-0,044
-706,860	-200,000	0,009	0,051
-705,845	-114,614	-0,007	-0,001
-704,831	362,689	-0,063	-0,094
-703,816	-70,343	-0,074	-0,021
-702,802	561,494	-0,054	0,097
-701,787	-200,000	0,009	-0,096
-700,772	-30,332	-0,058	0,024
-699,758	800,000	-0,043	-0,095
-698,743	44,765	-0,128	-0,087
-697,729	-200,000	0,002	0,039
-696,714	800,000	-0,027	0,070
-695,699	58,013	0,126	-0,092
-694,685	360,339	0,031	-0,047
-693,670	-95,411	-0,181	0,036
-692,656	-119,341	-0,035	-0,004
-691,641	800,000	0,025	-0,054
-690,627	70,866	0,065	0,050
-689,612	-134,175	-0,044	0,004
-688,597	89,388	-0,124	-0,103
-687,583	-130,526	-0,155	-0,015
-686,568	-200,000	-0,013	-0,071
-685,554	-35,267	-0,014	-0,006
-684,539	508,007	-0,047	-0,081
-683,524	-200,000	-0,004	0,117
-682,510	230,416	-0,073	-0,088
-681,495	-39,932	-0,069	0,027
-680,481	-43,413	-0,133	0,050
-679,466	-200,000	-0,004	0,042
-678,451	-35,695	0,069	-0,028
-677,437	-135,808	0,100	0,009
-676,422	-39,346	-0,092	0,036
-675,408	109,707	-0,038	0,034
-674,393	46,228	-0,056	0,039
-673,378	-49,444	-0,094	-0,033
-672,364	-109,219	-0,118	-0,018
-671,349	-200,000	0,003	0,017
-670,335	233,081	0,053	0,064
-669,320	44,464	-0,079	-0,054
-668,305	-38,325	-0,054	0,021
-667,291	67,324	-0,036	0,027
-666,276	-200,000	-0,009	-0,045
-665,262	-120,861	-0,113	0,014
-664,247	28,275	-0,035	0,022
-663,232	800,000	0,014	-0,039
-662,218	-200,000	-0,009	0,098
-661,203	-72,994	0,066	-0,018
-660,189	101,638	0,096	0,083
-659,174	168,464	-0,091	-0,096
-658,159	793,028	0,015	-0,031
-657,145	-200,000	0,066	-0,278
-656,130	-200,000	-0,010	0,087
-655,116	-200,000	0,004	0,033
-654,101	-97,761	-0,088	-0,017
-653,086	-47,519	-0,089	-0,032
-652,072	800,000	-0,043	-0,094
-651,057	-200,000	0,013	-0,082
-650,043	165,599	0,093	-0,098
-649,028	513,893	0,021	-0,037
-648,014	3,188	0,121	-0,065
-646,999	502,694	0,083	-0,143
-645,984	357,645	0,011	-0,017
-644,970	-13,147	-0,104	-0,050
-643,955	800,000	-0,036	0,092
-642,941	518,803	0,059	-0,103
-641,926	-156,180	-0,046	0,002
-640,911	-17,841	0,109	0,050
-639,897	209,714	-0,018	-0,021
-638,882	-58,124	-0,122	0,039
-637,868	800,000	-0,047	0,119
-636,853	-200,000	-0,002	0,116
-635,838	-9,099	-0,086	0,042
-634,824	-123,690	-0,055	0,006
-633,809	800,000	-0,037	0,090
-632,795	-94,513	0,042	-0,008
-631,780	-200,000	-0,012	-0,080
-630,765	-38,533	0,026	-0,010
-629,751	71,259	-0,032	-0,025
-628,736	358,563	-0,083	-0,123
-627,722	77,442	0,034	0,027
-626,707	370,720	-0,022	0,033
-625,692	331,285	-0,032	0,046
-624,678	-1,243	0,058	-0,030
-623,663	21,370	-0,087	-0,053
-622,649	800,000	-0,019	-0,051
-621,634	-129,172	-0,100	0,010
-620,619	-53,678	0,030	0,010
-619,605	70,923	0,076	0,058
-618,590	800,000	-0,006	-0,019
-617,576	47,103	-0,013	-0,009
-616,561	-200,000	-0,017	0,103
-615,546	-99,653	-0,142	0,026
-614,532	-5,024	0,099	-0,050
-613,517	488,089	0,055	0,093
-612,503	-200,000	0,004	-0,046
-611,488	800,000	0,031	-0,072
-610,474	-47,436	0,190	0,068
-609,459	-166,168	0,178	0,005
-608,444	335,589	-0,066	-0,095
-607,430	285,675	0,039	-0,052
-606,415	-133,593	0,216	-0,020
-605,401	438,073	-0,069	0,111
-604,386	285,092	0,081	0,108
-603,371	800,000	-0,035	0,074
-602,357	-200,000	-0,017	0,056
-601,342	441,360	-0,044	-0,072
-600,328	77,046	-0,081	-0,064
-599,313	-106,101	-0,083	0,014
-598,298	-200,000	0,045	-0,195
-597,284	11,683	0,055	-0,031
-596,269	133,449	0,027	-0,026
-595,255	800,000	-0,026	-0,078
-594,240	67,769	-0,105	-0,080
-593,225	-200,000	0,001	-0,137
-592,211	-108,403	-0,122	-0,019
-591,196	-200,000	0,048	-0,266
-590,182	292,577	0,033	0,044
-589,167	-200,000	-0,006	0,026
-588,152	225,102	0,043	-0,052
-587,138	-8,580	-0,102	0,051
-586,123	-87,771	0,013	-0,003
-585,109	158,106	-0,009	-0,009
-584,094	-200,000	0,009	-0,094
-583,079	-130,796	0,220	-0,022
-582,065	-120,160	0,122	0,015
-581,050	126,189	-0,062	-0,058
-580,036	314,055	0,021	0,030
-579,021	-36,419	-0,083	0,033
-578,006	594,218	-0,055	-0,102
-576,992	214,557	-0,076	-0,089
-575,977	-47,469	-0,029	0,010
-574,963	748,347	-0,055	-0,109
-573,948	42,399	0,177	0,119
-572,934	-32,662	-0,134	-0,055
-571,919	-150,229	-0,138	0,008
-570,904	194,151	-0,034	-0,038
-569,890	800,000	-0,041	-0,094
-568,875	-200,000	-0,023	-0,115
-567,861	130,150	0,075	-0,071
-566,846	-86,067	0,093	-0,021
-565,831	256,189	-0,030	-0,039
-564,817	59,496	-0,047	-0,034
-563,802	-128,736	-0,024	0,002
-562,788	800,000	-0,040	0,118
-561,773	-36,576	-0,232	0,092
-560,758	-50,197	0,018	0,006
-559,744	-44,602	-0,067	0,025
-558,729	-200,000	-0,010	0,038
-557,715	-52,049	-0,098	-0,034
-556,700	-200,000	-0,004	0,037
-555,685	-139,212	0,077	-0,006
-554,671	-40,025	0,145	0,056
-553,656	-200,000	-0,001	-0,081
-552,642	626,880	0,026	-0,049
-551,627	5,123	0,095	0,052
-550,612	196,864	0,046	-0,052
-549,598	227,905	-0,033	-0,040
-548,583	-200,000	-0,007	0,037
-547,569	800,000	-0,030	-0,064
-546,554	800,000	0,028	0,081
-545,539	99,700	0,080	-0,069
-544,525	800,000	0,030	-0,064
-543,510	-79,019	-0,035	-0,009
-542,496	-200,000	-0,000	-0,068
-541,481	75,260	0,061	0,048
-540,466	37,126	0,013	0,008
-539,452	302,310	-0,033	-0,046
-538,437	-200,000	0,001	-0,100
-537,423	93,785	-0,128	0,107
-536,408	103,767	0,039	0,033
-535,393	-200,000	0,000	-0,005
-534,379	129,624	-0,050	-0,047
-533,364	97,638	-0,078	-0,066
-532,350	-200,000	0,018	0,098
-531,335	-200,000	0,021	-0,094
-530,321	244,656	-0,162	-0,201
-529,306	-200,000	0,016	0,176
-528,291	45,573	0,055	-0,038
-527,277	-19,670	-0,079	-0,036
-526,262	28,167	0,014	0,009
-525,248	388,598	-0,056	0,086
-524,233	-96,372	0,222	-0,043
-523,218	297,276	0,015	-0,020
-522,204	-200,000	0,024	0,112
-521,189	800,000	0,024	-0,064
-520,175	-147,374	0,076	-0,005
-519,160	361,593	-0,118	-0,175
-518,145	147,022	-0,099	-0,098
-517,131	-36,790	-0,070	0,028
-516,116	451,727	-0,057	-0,093
-515,102	800,000	-0,029	0,082
-514,087	-91,621	-0,032	0,007
-513,072	-149,959	-0,080	-0,005
-512,058	184,775	0,114	0,125
-511,043	520,014	-0,022	-0,038
-510,029	68,121	0,047	-0,036
-509,014	-200,000	-0,034	-0,121
-507,999	-166,868	0,063	-0,002
-506,985	-27,754	-0,107	0,046
-505,970	-200,000	-0,049	-0,209
-504,956	-80,289	-0,134	0,033
-503,941	-36,566	0,123	0,049
-502,926	341,999	-0,064	0,093
-501,912	19,419	-0,058	-0,034
-500,897	-47,923	0,115	0,041
-499,883	-200,000	-0,004	-0,075
-498,868	499,481	-0,036	0,062
-497,853	320,249	0,086	-0,120
-496,839	-200,000	0,007	-0,123
-495,824	180,698	-0,130	0,141
-494,810	-200,000	0,012	0,136
-493,795	-87,062	-0,120	0,027
-492,781	-200,000	0,001	0,007
-491,766	-117,840	-0,081	-0,011
-490,751	-135,330	-0,109	-0,009
-489,737	215,712	0,030	-0,035
-488,722	800,000	-0,012	0,034
-487,708	800,000	0,052	0,122
-486,693	108,632	-0,148	0,130
-485,678	122,554	-0,088	-0,082
-484,664	206,557	-0,073	0,084
-483,649	800,000	-0,038	0,083
-482,635	346,183	-0,114	0,165
-481,620	-40,582	0,128	0,049
-480,605	-150,908	-0,069	-0,004
-479,591	154,087	0,043	0,044
-478,576	-200,000	-0,033	-0,110
-477,562	-125,232	-0,050	0,006
-476,547	471,500	0,138	-0,231
-475,532	184,591	0,045	0,049
-474,518	728,326	-0,030	-0,059
-473,503	65,702	0,043	-0,032
-472,489	-200,000	-0,006	0,050
-471,474	630,608	0,051	0,096
-470,459	-130,665	-0,088	-0,009
-469,445	800,000	0,016	-0,041
-468,430	-147,482	0,076	0,005
-467,416	-88,176	-0,056	-0,012
-466,401	-186,266	0,094	0,001
-465,386	800,000	0,084	0,209
-464,372	-105,584	-0,054	-0,009
-463,357	103,836	0,094	-0,082
-462,343	-172,951	-0,150	-0,003
-461,328	-200,000	0,012	-0,163
-460,313	-121,065	0,042	0,005
-459,299	483,098	-0,057	0,096
-458,284	-4,617	-0,114	0,058
-457,270	-194,469	0,025	-0,000
-456,255	-200,000	-0,001	0,010
-455,241	-97,484	0,020	0,004
-454,226	-200,000	-0,001	-0,040
-453,211	-73,335	-0,152	-0,041
-452,197	91,124	-0,054	0,044
-451,182	-19,389	0,106	0,048
-450,168	-180,670	0,125	0,002
-449,153	102,884	-0,173	-0,149
-448,138	-200,000	0,000	-0,009
-447,124	-200,000	-0,044	-0,155
-446,109	64,050	-0,019	-0,014
-445,095	-48,841	-0,064	-0,023
-444,080	728,943	0,051	0,101
-443,065	59,969	-0,034	-0,025
-442,051	128,151	0,045	-0,042
-441,036	-200,000	-0,001	-0,081
-440,022	-200,000	-0,001	0,067
-439,007	-200,000	0,005	0,029
-437,992	0,708	0,070	-0,037
-436,978	800,000	-0,021	0,067
-435,963	-140,079	0,151	0,012
-434,949	137,803	0,095	0,091
-433,934	149,590	0,060	0,060
-432,919	256,109	-0,199	-0,252
-431,905	-200,000	-0,016	-0,067
-430,890	62,611	0,035	0,026
-429,876	800,000	0,037	0,101
-428,861	-119,438	-0,078	-0,010
-427,846	-120,316	-0,093	0,012
-426,832	201,255	-0,136	-0,154
-425,817	800,000	0,020	-0,062
-424,803	-200,000	0,004	0,044
-423,788	203,140	-0,047	-0,053
-422,773	-200,000	0,030	0,126
-421,759	49,124	0,054	0,038
-420,744	137,105	0,114	0,110
-419,730	800,000	-0,013	0,036
-418,715	-171,511	-0,112	0,003
-417,701	-200,000	0,001	0,048
-416,686	-3,682	-0,113	-0,058
-415,671	-72,576	0,078	-0,021
-414,657	143,579	0,052	-0,051
-413,642	503,456	0,024	0,041
-412,628	257,114	-0,059	-0,075
-411,613	-54,046	0,064	0,021
-410,598	800,000	0,019	0,041
-409,584	298,666	-0,069	-0,094
-408,569	158,132	0,071	-0,073
-407,555	315,328	0,084	-0,117
-406,540	140,498	0,031	0,030
-405,525	800,000	0,030	0,093
-404,511	488,789	-0,058	-0,098
-403,496	800,000	-0,065	0,187
-402,482	267,103	0,022	0,028
-401,467	38,137	0,126	0,083
-400,452	-200,000	0,003	0,138
-399,438	800,000	-0,025	0,053
-398,423	-200,000	0,042	-0,147
-397,409	454,947	-0,085	0,140
-396,394	-200,000	0,004	-0,091
-395,379	239,595	-0,055	0,068
-394,365	-200,000	-0,003	0,053
-393,350	-117,355	-0,052	0,007
-392,336	800,000	-0,068	0,150
-391,321	-179,046	0,053	-0,001
-390,306	22,281	-0,012	-0,007
-389,292	800,000	0,055	0,140
-388,277	-200,000	-0,031	0,191
-387,263	405,889	-0,081	0,125
-386,248	14,481	-0,024	0,014
-385,233	441,345	0,098	0,158
-384,219	461,573	-0,111	0,183
-383,204	800,000	0,027	-0,071
-382,190	169,732	0,099	-0,104
-381,175	800,000	0,044	-0,110
-380,160	-200,000	0,016	-0,091
-379,146	34,240	0,064	0,041
-378,131	282,096	0,090	0,119
-377,117	-200,000	0,024	0,106
-376,102	190,184	-0,043	-0,047
-375,088	-60,119	0,121	-0,038
-374,073	-200,000	-0,010	-0,044
-373,058	279,652	-0,051	0,067
-372,044	800,000	0,038	0,085
-371,029	-42,135	0,070	0,026
-370,015	24,828	-0,091	0,055
-369,000	661,305	-0,095	-0,181
-367,985	186,420	-0,132	0,144
-366,971	337,636	-0,063	0,090
-365,956	-187,639	-0,065	0,001
-364,942	-200,000	0,019	0,094
-363,927	150,246	0,119	-0,118
-362,912	86,417	-0,031	-0,025
-361,898	284,541	-0,054	-0,072
-360,883	800,000	-0,042	-0,093
-359,869	800,000	0,040	0,086
-358,854	-13,780	-0,091	-0,043
-357,839	-13,695	0,061	-0,029
-356,825	-133,402	0,087	0,008
-355,810	43,913	-0,115	-0,077
-354,796	-138,883	-0,037	0,003
-353,781	21,616	-0,106	0,063
-352,766	84,538	0,080	-0,065
-351,752	24,190	-0,086	-0,052
-350,737	-200,000	0,032	-0,168
-349,723	-200,000	0,020	0,172
-348,708	-200,000	-0,023	0,127
-347,693	-171,396	0,084	0,002
-346,679	125,685	-0,013	-0,012
-345,664	233,236	-0,026	0,032
-344,650	-117,101	0,127	0,017
-343,635	510,304	0,044	-0,075
-342,620	-100,634	0,055	-0,010
-341,606	-200,000	-0,002	-0,011
-340,591	-18,723	0,085	-0,039
-339,577	-141,977	-0,075	0,005
-338,562	-200,000	-0,000	0,050
-337,548	800,000	0,019	0,045
-336,533	-17,790	0,133	-0,061
-335,518	51,431	-0,047	-0,033
-334,504	-92,025	0,079	0,016
-333,489	0,070	0,092	0,048
-332,475	800,000	0,031	-0,085
-331,460	306,895	-0,034	0,047
-330,445	247,244	0,005	-0,006
-329,431	-163,285	0,090	0,003
-328,416	-151,211	0,030	-0,002
-327,402	36,655	-0,080	0,052
-326,387	-194,234	0,055	-0,000
-325,372	800,000	0,030	0,066
-324,358	65,803	-0,040	-0,030
-323,343	800,000	-0,013	0,038
-322,329	-70,328	0,137	-0,038
-321,314	228,149	0,111	0,133
-320,299	10,942	-0,047	0,026
-319,285	188,907	0,036	-0,039
-318,270	800,000	-0,029	0,068
-317,256	41,561	-0,073	-0,048
-316,241	350,840	-0,093	-0,134
-315,226	610,763	-0,059	0,108
-314,212	0,242	0,188	0,098
-313,197	-124,932	0,028	-0,003
-312,183	-151,091	-0,158	0,009
-311,168	495,679	0,058	0,098
-310,153	-26,015	-0,031	-0,013
-309,139	-160,403	0,076	-0,003
-308,124	-26,493	0,046	0,020
-307,110	289,954	-0,046	0,061
-306,095	358,819	0,032	-0,047
-305,080	221,001	0,096	0,113
-304,066	-135,365	-0,041	0,004
-303,051	-118,382	0,076	-0,010
-302,037	-116,656	-0,091	0,012
-301,022	-200,000	-0,005	-0,076
-300,008	800,000	-0,016	0,052
-298,993	-180,334	0,176	-0,003
-297,978	218,403	-0,064	-0,075
-296,964	-11,798	0,072	0,034
-295,949	800,000	-0,026	-0,082
-294,935	242,769	0,052	0,063
-293,920	-117,864	-0,159	0,021
-292,905	800,000	-0,051	0,136
-291,891	138,629	0,107	0,103
-290,876	117,552	0,036	0,032
-289,862	-96,766	0,087	-0,017
-288,847	-92,705	-0,112	-0,023
-287,832	2,785	0,188	-0,099
-286,818	-200,000	0,016	-0,207
-285,803	-39,706	0,096	-0,037
-284,789	-17,828	0,141	-0,064
-283,774	68,254	-0,057	-0,043
-282,759	-171,113	-0,043	0,001
-281,745	-61,445	-0,068	0,021
-280,730	162,842	-0,067	-0,069
-279,716	557,420	0,046	-0,082
-278,701	17,792	-0,095	0,055
-277,686	-163,782	-0,051	-0,002
-276,672	-200,000	-0,018	-0,068
-275,657	612,744	0,048	-0,088
-274,643	7,471	-0,139	-0,076
-273,628	203,003	0,096	0,108
-272,613	522,343	0,033	-0,058
-271,599	-200,000	0,021	0,113
-270,584	-200,000	0,021	0,171
-269,570	576,781	0,043	0,077
-268,555	-200,000	-0,014	0,120
-267,540	-165,783	0,059	-0,002
-266,526	547,583	0,071	-0,125
-265,511	-167,281	0,022	-0,001
-264,497	640,812	-0,069	0,129
-263,482	50,200	0,105	-0,072
-262,467	289,138	0,049	-0,066
-261,453	314,251	-0,041	0,056
-260,438	89,176	-0,087	0,070
-259,424	-31,283	-0,015	0,006
-258,409	800,000	-0,062	-0,146
-257,395	532,918	-0,022	-0,039
-256,380	-200,000	-0,009	0,067
-255,365	24,931	-0,141	-0,085
-254,351	-11,633	0,146	0,070
-253,336	-98,440	0,096	-0,018
-252,322	745,548	-0,008	-0,017
-251,307	491,875	-0,035	0,059
-250,292	199,680	-0,043	-0,049
-249,278	-144,172	0,026	0,002
-248,263	-61,825	0,081	0,024
-247,249	800,000	0,009	-0,020
-246,234	-133,908	0,049	0,004
-245,219	800,000	0,036	-0,078
-244,205	-161,599	-0,066	-0,002
-243,190	190,008	-0,013	0,014
-242,176	38,294	0,122	0,079
-241,161	-80,945	0,128	-0,031
-240,146	109,136	-0,021	0,018
-239,132	-47,211	-0,048	-0,017
-238,117	17,810	0,021	-0,012
-237,103	-200,000	-0,023	0,092
-236,088	49,618	0,151	-0,104
-235,073	33,479	0,038	0,024
-234,059	-48,446	0,049	-0,017
-233,044	-200,000	0,034	0,210
-232,030	419,169	-0,019	0,030
-231,015	-166,107	-0,195	0,006
-230,000	136,509	-0,045	-0,043
-228,986	-84,683	-0,168	-0,038
-227,971	-200,000	0,021	0,125
-226,957	17,548	0,108	-0,063
-225,942	114,228	0,127	0,113
-224,927	800,000	-0,034	0,104
-223,913	-134,126	0,037	-0,003
-222,898	-9,985	-0,025	-0,012
-221,884	82,512	-0,066	0,052
-220,869	252,948	-0,115	0,144
-219,855	800,000	0,052	0,151
-218,840	285,064	0,024	-0,032
-217,825	31,799	-0,044	0,028
-216,811	596,354	0,023	-0,042
-215,796	-200,000	0,019	-0,112
-214,782	-200,000	0,030	0,116
-213,767	-200,000	-0,062	-0,000
-212,752	-89,375	-0,032	0,007
-211,738	175,604	0,093	0,098
-210,723	8,311	0,033	0,018
-209,709	-181,186	0,066	0,001
-208,694	-200,000	0,004	-0,047
-207,679	113,013	0,059	0,052
-206,665	210,687	0,076	0,088
-205,650	477,272	-0,008	-0,013
-204,636	420,946	0,033	0,052
-203,621	123,302	0,075	-0,069
-202,606	800,000	0,044	-0,107
-201,592	-200,000	-0,010	-0,037
-200,577	-200,000	-0,009	-0,067
-199,563	800,000	0,016	0,043
-198,548	63,063	0,135	0,098
-197,533	-92,981	0,143	0,029
-196,519	8,759	0,117	-0,064
-195,504	800,000	-0,074	0,185
-194,490	-133,291	-0,108	0,010
-193,475	160,143	-0,020	-0,021
-192,460	800,000	-0,007	-0,014
-191,446	-174,554	0,055	-0,001
-190,431	30,285	-0,122	0,076
-189,417	390,278	-0,053	0,080
-188,402	678,924	-0,017	0,033
-187,387	10,234	0,109	-0,060
-186,373	-130,354	0,030	-0,003
-185,358	-200,000	0,006	-0,122
-184,344	800,000	0,015	0,033
-183,329	55,689	-0,033	0,023
-182,315	4,446	0,068	-0,036
-181,300	800,000	-0,010	0,030
-180,285	706,706	-0,065	-0,126
-179,271	23,482	-0,220	0,132
-178,256	-200,000	0,005	0,027
-177,242	800,000	0,043	-0,116
-176,227	69,869	-0,093	-0,069
-175,212	465,877	0,041	-0,067
-174,198	-200,000	-0,002	-0,097
-173,183	84,272	0,068	-0,054
-172,169	409,006	0,038	-0,058
-171,154	-200,000	-0,009	0,114
-170,139	-116,542	-0,033	-0,004
-169,125	604,599	0,050	0,090
-168,110	-200,000	-0,029	0,155
-167,096	-200,000	-0,011	-0,194
-166,081	-134,739	-0,123	0,011
-165,066	800,000	-0,037	-0,090
-164,052	121,537	0,049	0,045
-163,037	-200,000	0,015	-0,168
-162,023	219,884	-0,097	-0,113
-161,008	74,166	-0,093	0,071
-159,993	418,251	-0,043	-0,067
-158,979	-200,000	-0,018	-0,145
-157,964	616,938	-0,002	0,004
-156,950	-87,323	-0,016	-0,004
-155,935	800,000	0,024	-0,077
-154,920	-16,214	0,088	0,041
-153,906	-19,877	0,057	0,026
-152,891	-111,209	-0,035	-0,005
-151,877	53,830	0,077	-0,054
-150,862	200,816	0,016	-0,018
-149,847	800,000	-0,028	-0,062
-148,833	800,000	0,042	-0,104
-147,818	-200,000	0,006	0,063
-146,804	118,153	0,051	-0,046
-145,789	-155,180	0,099	-0,005
-144,775	361,150	0,064	-0,093
-143,760	119,779	-0,136	-0,123
-142,745	-8,026	-0,185	-0,091
-141,731	276,169	0,051	-0,066
-140,716	368,624	0,132	0,195
-139,702	-200,000	0,010	0,064
-138,687	-200,000	-0,017	0,054
-137,672	135,648	-0,028	0,026
-136,658	0,924	-0,070	-0,036
-135,643	211,404	0,071	-0,081
-134,629	-26,011	-0,161	-0,069
-133,614	-200,000	0,003	0,101
-132,599	198,104	0,059	0,066
-131,585	-200,000	0,047	0,159
-130,570	226,677	-0,046	-0,055
-129,556	-102,215	0,027	0,005
-128,541	-84,033	-0,125	-0,029
-127,526	385,699	0,031	-0,047
-126,512	-64,978	0,139	0,040
-125,497	-200,000	-0,006	0,041
-124,483	754,214	-0,006	0,012
-123,468	-59,179	-0,004	0,001
-122,453	21,811	0,084	-0,049
-121,439	-172,731	-0,053	-0,001
-120,424	20,305	0,090	0,053
-119,410	800,000	0,045	0,101
