DTS Sentinel unit serial number:	SN410029Multiplexer serial number:	ORYXHardware model number:	OX2-SRSoftware version number:	ORYX F/W v4,00 Oryx Data Collector v3.7.2.0data status	okinstallation	B6 Nyhavnadifferential loss correction	single-endedforward channel	channel 2reverse channel	N/Adate	2023/12/08time	04:00:08forward acquisition time	300,00reverse acquisition time	0,00gamma	499,1914k internal	0,3165k external	0,3165temperature offset calibration	1,0000default loss term (dB/km)	0,3820temperature slope calibration	1,0000multiplexer offset coefficient	1,0000multiplexer slope coefficient	1,0000fibre end	0,00T internal ref (°C)	13,07T ext. ref 1 (°C)	-3,82T ext. ref 2 (°C)	-3,81length (m)	temperature (°C)	Stokes	anti-Stokes-744,400	325,838	0,103	0,146
-743,385	-119,191	-0,357	0,045
-742,371	-97,195	0,275	-0,052
-741,356	-179,959	-0,275	-0,004
-740,342	328,763	0,127	0,180
-739,327	-88,768	-0,345	-0,075
-738,312	327,662	0,053	-0,075
-737,298	-25,734	-0,210	-0,091
-736,283	-89,888	0,121	0,026
-735,269	-141,640	-0,406	-0,030
-734,254	-49,853	0,034	0,012
-733,239	-66,173	-0,535	-0,156
-732,225	-87,205	0,264	-0,058
-731,210	800,000	-0,031	0,087
-730,196	98,790	0,080	0,068
-729,181	90,362	-0,087	0,071
-728,167	77,556	-0,091	-0,071
-727,152	-54,330	-0,044	-0,014
-726,137	91,473	-0,069	-0,057
-725,123	-200,000	-0,011	0,054
-724,108	117,013	-0,103	-0,093
-723,094	109,111	-0,125	-0,110
-722,079	-59,065	0,014	0,004
-721,064	-27,923	-0,064	0,027
-720,050	-200,000	0,020	0,076
-719,035	538,109	-0,064	-0,112
-718,021	61,565	-0,152	-0,111
-717,006	-106,008	0,087	-0,014
-715,991	-200,000	0,005	0,021
-714,977	800,000	-0,027	-0,073
-713,962	-42,027	0,008	-0,003
-712,948	-200,000	-0,034	0,120
-711,933	800,000	-0,087	0,179
-710,918	-124,613	-0,052	0,006
-709,904	800,000	-0,034	-0,104
-708,889	800,000	-0,035	-0,104
-707,875	-200,000	0,002	-0,061
-706,860	-200,000	0,005	0,083
-705,845	444,399	0,099	0,161
-704,831	800,000	0,038	0,089
-703,816	-6,585	-0,113	0,057
-702,802	364,314	0,036	0,053
-701,787	134,768	-0,095	0,091
-700,772	214,010	-0,101	-0,117
-699,758	-49,742	0,076	0,026
-698,743	88,438	0,095	0,078
-697,729	265,233	0,154	0,197
-696,714	235,140	0,052	0,063
-695,699	-44,670	-0,125	-0,046
-694,685	272,030	-0,103	0,134
-693,670	800,000	0,031	-0,090
-692,656	-71,666	-0,056	-0,015
-691,641	-200,000	0,012	0,066
-690,627	-159,725	-0,054	-0,002
-689,612	800,000	0,020	-0,047
-688,597	305,356	-0,029	-0,040
-687,583	800,000	-0,042	0,097
-686,568	146,430	0,078	-0,077
-685,554	104,058	0,126	0,109
-684,539	800,000	0,042	-0,104
-683,524	737,485	-0,015	-0,030
-682,510	-32,017	-0,033	0,013
-681,495	769,520	0,030	-0,061
-680,481	371,633	-0,071	-0,106
-679,466	-200,000	0,020	-0,114
-678,451	77,480	0,018	-0,014
-677,437	800,000	-0,017	-0,053
-676,422	-88,488	-0,047	0,010
-675,408	-138,042	0,090	-0,007
-674,393	800,000	-0,029	0,087
-673,378	128,761	-0,097	-0,091
-672,364	129,791	-0,179	0,168
-671,349	35,656	-0,053	-0,034
-670,335	18,974	-0,036	0,021
-669,320	27,308	0,096	-0,059
-668,305	-33,977	-0,061	-0,025
-667,291	-38,937	-0,091	0,035
-666,276	-87,001	-0,096	0,021
-665,262	-200,000	0,002	-0,134
-664,247	-200,000	-0,021	-0,072
-663,232	-25,303	0,102	-0,044
-662,218	800,000	0,057	0,162
-661,203	-98,078	-0,210	-0,039
-660,189	-1,749	-0,023	0,012
-659,174	7,477	-0,099	0,054
-658,159	-115,505	-0,064	0,009
-657,145	-85,517	-0,068	0,016
-656,130	800,000	-0,023	-0,054
-655,116	-200,000	0,003	-0,022
-654,101	303,304	0,071	0,096
-653,086	800,000	-0,028	-0,069
-652,072	-160,449	-0,106	0,004
-651,057	-200,000	0,008	0,027
-650,043	2,146	0,087	0,046
-649,028	31,002	-0,125	0,078
-648,014	-200,000	-0,002	-0,128
-646,999	-107,054	0,025	-0,004
-645,984	-200,000	-0,004	0,173
-644,970	-60,142	-0,166	-0,052
-643,955	49,300	-0,199	-0,137
-642,941	155,459	-0,081	-0,082
-641,926	380,239	0,132	-0,199
-640,911	-165,004	0,069	-0,002
-639,897	-200,000	0,016	-0,093
-638,882	239,166	0,057	-0,070
-637,868	-8,916	0,045	-0,022
-636,853	-25,263	-0,048	0,021
-635,838	-200,000	0,002	0,046
-634,824	362,202	-0,092	0,135
-633,809	-52,740	0,141	-0,047
-632,795	-200,000	0,009	0,052
-631,780	-200,000	0,058	0,237
-630,765	-100,231	-0,139	-0,025
-629,751	-176,593	0,082	0,002
-628,736	-74,570	0,078	-0,020
-627,722	14,166	0,121	-0,069
-626,707	452,952	0,012	0,020
-625,692	-106,258	0,020	0,003
-624,678	-200,000	-0,003	0,063
-623,663	-25,775	-0,071	0,031
-622,649	20,308	-0,129	0,076
-621,634	3,344	-0,048	-0,025
-620,619	-200,000	0,000	-0,010
-619,605	-200,000	0,008	-0,114
-618,590	77,795	0,063	0,049
-617,576	-78,446	-0,069	0,017
-616,561	121,916	0,043	-0,039
-615,546	56,642	-0,116	-0,082
-614,532	183,739	-0,120	-0,130
-613,517	-200,000	0,014	0,089
-612,503	-200,000	-0,034	0,113
-611,488	55,953	-0,080	0,057
-610,474	-99,156	0,043	0,008
-609,459	-139,199	0,083	0,006
-608,444	4,560	-0,109	-0,058
-607,430	-200,000	0,019	-0,169
-606,415	800,000	-0,015	0,042
-605,401	800,000	-0,034	0,071
-604,386	6,012	0,065	0,035
-603,371	-53,624	-0,160	-0,053
-602,357	206,663	0,034	0,038
-601,342	-200,000	-0,028	-0,096
-600,328	-11,984	0,053	-0,025
-599,313	-200,000	-0,034	-0,195
-598,298	-10,603	0,023	0,011
-597,284	-103,079	-0,145	0,025
-596,269	800,000	-0,019	-0,053
-595,255	-71,304	0,056	0,015
-594,240	-200,000	-0,009	-0,070
-593,225	402,069	0,040	-0,062
-592,211	-48,591	-0,089	0,031
-591,196	371,703	-0,058	-0,086
-590,182	308,234	0,037	-0,050
-589,167	-163,588	0,143	-0,005
-588,152	800,000	0,051	0,115
-587,138	678,250	0,047	-0,090
-586,123	-80,663	-0,064	-0,015
-585,109	64,683	-0,165	-0,121
-584,094	-22,372	0,034	-0,015
-583,079	106,423	0,079	-0,069
-582,065	458,878	0,054	0,088
-581,050	-200,000	-0,010	-0,098
-580,036	66,741	0,080	0,060
-579,021	83,641	0,079	0,063
-578,006	-90,083	-0,085	-0,018
-576,992	41,245	-0,096	-0,063
-575,977	69,457	0,037	0,028
-574,963	-200,000	-0,009	0,060
-573,948	-119,948	0,031	-0,004
-572,934	-62,790	-0,103	-0,031
-571,919	56,751	-0,087	-0,062
-570,904	-200,000	0,012	0,074
-569,890	328,186	0,033	0,047
-568,875	449,253	0,089	0,143
-567,861	270,991	-0,099	-0,127
-566,846	-200,000	-0,000	-0,136
-565,831	65,448	-0,107	0,079
-564,817	557,020	-0,106	-0,187
-563,802	800,000	0,014	-0,028
-562,788	-126,089	-0,040	0,004
-561,773	-14,160	-0,108	-0,051
-560,758	-102,459	0,042	0,007
-559,744	-11,462	0,065	-0,031
-558,729	800,000	-0,010	-0,032
-557,715	-200,000	0,021	-0,090
-556,700	-171,812	-0,111	-0,003
-555,685	800,000	-0,025	-0,057
-554,671	800,000	-0,018	-0,052
-553,656	397,217	-0,063	0,096
-552,642	26,925	0,212	0,130
-551,627	762,729	-0,049	0,097
-550,612	22,910	-0,062	-0,037
-549,598	-69,750	-0,133	-0,037
-548,583	-200,000	-0,034	-0,257
-547,569	65,913	0,095	-0,070
-546,554	92,404	0,111	-0,092
-545,539	-200,000	-0,003	0,060
-544,525	-184,671	0,152	0,002
-543,510	113,713	-0,214	-0,190
-542,496	-104,084	-0,026	0,004
-541,481	316,868	-0,115	-0,159
-540,466	-200,000	0,000	-0,069
-539,452	393,847	0,037	-0,057
-538,437	45,229	0,036	0,025
-537,423	-59,013	0,073	0,023
-536,408	-64,264	-0,081	0,024
-535,393	800,000	-0,082	0,169
-534,379	-200,000	0,021	-0,152
-533,364	-140,396	-0,112	0,008
-532,350	800,000	0,076	0,225
-531,335	152,861	0,006	0,006
-530,321	800,000	0,003	0,005
-529,306	-200,000	0,005	-0,068
-528,291	-82,709	0,108	-0,025
-527,277	334,000	-0,056	-0,080
-526,262	-77,125	0,095	0,024
-525,248	-55,083	0,067	0,022
-524,233	-200,000	-0,000	0,056
-523,218	542,087	-0,021	-0,037
-522,204	-140,011	-0,111	0,008
-521,189	11,451	0,101	-0,056
-520,175	-91,922	-0,102	0,021
-519,160	72,503	-0,068	0,052
-518,145	-111,545	0,149	-0,022
-517,131	-67,676	0,052	-0,015
-516,116	-200,000	0,001	0,028
-515,102	-200,000	0,017	-0,147
-514,087	-200,000	-0,020	-0,110
-513,072	110,074	0,050	-0,044
-512,058	-136,692	-0,113	-0,009
-511,043	509,044	0,062	0,105
-510,029	37,646	0,052	0,033
-509,014	-50,270	0,075	-0,026
-507,999	-92,060	-0,088	-0,018
-506,985	-200,000	0,002	0,103
-505,970	-200,000	-0,009	0,084
-504,956	-49,417	0,049	-0,017
-503,941	-83,966	-0,063	0,014
-502,926	-134,304	-0,069	0,006
-501,912	85,690	0,101	0,081
-500,897	800,000	0,013	-0,041
-499,883	-142,130	-0,027	-0,002
-498,868	158,188	0,036	-0,037
-497,853	90,399	-0,061	0,050
-496,839	800,000	-0,045	0,113
-495,824	70,878	-0,164	-0,124
-494,810	118,650	0,041	0,037
-493,795	-200,000	0,022	0,144
-492,781	-200,000	0,013	-0,056
-491,766	-108,731	0,119	0,018
-490,751	78,963	-0,112	-0,087
-489,737	298,311	-0,043	-0,057
-488,722	70,357	-0,075	0,057
-487,708	-92,208	0,096	-0,020
-486,693	-60,714	0,017	-0,005
-485,678	43,034	0,029	0,019
-484,664	-200,000	0,008	-0,030
-483,649	44,680	0,057	-0,038
-482,635	147,973	-0,043	-0,042
-481,620	-5,990	-0,030	-0,015
-480,605	-200,000	0,005	0,068
-479,591	800,000	0,070	0,204
-478,576	102,490	-0,048	0,041
-477,562	800,000	0,044	0,106
-476,547	148,710	-0,040	0,039
-475,532	242,049	-0,045	-0,055
-474,518	61,837	-0,054	-0,039
-473,503	-76,007	0,029	-0,007
-472,489	-200,000	-0,025	0,100
-471,474	-64,948	0,056	-0,016
-470,459	293,691	0,065	-0,087
-469,445	19,836	0,009	-0,005
-468,430	145,443	-0,077	-0,075
-467,416	-120,200	0,163	0,020
-466,401	800,000	-0,038	0,077
-465,386	800,000	0,030	-0,082
-464,372	47,783	0,066	-0,044
-463,357	364,949	0,035	0,051
-462,343	63,106	-0,052	0,038
-461,328	-200,000	0,013	-0,121
-460,313	-156,130	0,082	-0,004
-459,299	195,988	0,071	-0,078
-458,284	67,175	-0,048	-0,035
-457,270	28,571	0,085	0,052
-456,255	-116,514	-0,023	0,003
-455,241	800,000	-0,059	0,162
-454,226	800,000	0,032	0,093
-453,211	-106,388	0,208	-0,033
-452,197	357,715	-0,062	0,090
-451,182	-200,000	-0,001	-0,011
-450,168	-23,102	-0,065	0,028
-449,153	75,857	-0,108	0,083
-448,138	-200,000	-0,004	-0,025
-447,124	247,709	0,006	-0,007
-446,109	-26,192	0,037	-0,016
-445,095	66,466	0,021	-0,016
-444,080	800,000	-0,023	0,072
-443,065	800,000	-0,046	-0,126
-442,051	108,322	0,051	0,045
-441,036	58,805	-0,082	-0,059
-440,022	-200,000	-0,034	0,151
-439,007	88,926	0,045	-0,036
-437,992	-200,000	-0,007	-0,091
-436,978	731,994	-0,009	-0,018
-435,963	-200,000	0,039	0,144
-434,949	44,752	-0,054	0,036
-433,934	-200,000	0,031	0,121
-432,919	-200,000	0,000	0,038
-431,905	436,144	-0,043	-0,069
-430,890	-80,898	0,204	-0,049
-429,876	-200,000	-0,011	0,047
-428,861	427,352	-0,056	0,088
-427,846	-64,286	0,108	0,032
-426,832	249,546	-0,111	0,136
-425,817	-200,000	0,029	-0,111
-424,803	-200,000	-0,002	-0,042
-423,788	65,012	-0,018	-0,013
-422,773	-200,000	-0,008	0,100
-421,759	179,803	0,105	0,112
-420,744	-47,005	0,108	0,038
-419,730	-54,818	-0,232	0,076
-418,715	376,242	0,024	0,036
-417,701	-107,492	0,022	0,004
-416,686	515,409	-0,035	-0,059
-415,671	-83,044	-0,182	-0,042
-414,657	-200,000	-0,004	0,097
-413,642	-131,978	-0,134	0,012
-412,628	800,000	0,023	-0,066
-411,613	-200,000	0,006	-0,057
-410,598	389,987	-0,079	-0,120
-409,584	-187,011	0,138	-0,001
-408,569	-200,000	0,003	-0,012
-407,555	-130,255	0,038	0,004
-406,540	446,541	0,091	0,145
-405,525	131,327	0,102	-0,095
-404,511	400,898	-0,068	-0,105
-403,496	-200,000	0,001	-0,101
-402,482	800,000	-0,008	-0,027
-401,467	89,785	0,058	-0,047
-400,452	23,963	0,174	0,104
-399,438	-69,821	-0,045	-0,012
-398,423	800,000	-0,043	-0,133
-397,409	80,547	0,022	0,017
-396,394	-48,850	-0,110	-0,038
-395,379	12,481	-0,064	-0,036
-394,365	-97,043	0,179	0,034
-393,350	-200,000	-0,019	-0,069
-392,336	57,655	-0,067	0,048
-391,321	530,914	0,104	-0,178
-390,306	-200,000	-0,002	-0,028
-389,292	-174,259	-0,097	-0,002
-388,277	-40,219	0,031	-0,012
-387,263	149,250	0,168	-0,165
-386,248	-200,000	0,044	0,167
-385,233	195,663	0,033	0,036
-384,219	800,000	-0,032	0,080
-383,204	800,000	0,059	0,155
-382,190	180,370	-0,058	-0,062
-381,175	221,657	0,017	-0,019
-380,160	32,724	-0,056	-0,035
-379,146	517,384	0,049	-0,083
-378,131	321,696	0,032	-0,044
-377,117	-5,844	0,087	0,043
-376,102	-38,155	-0,151	-0,058
-375,088	-59,879	-0,090	-0,028
-374,073	-200,000	0,019	-0,089
-373,058	168,215	0,003	0,003
-372,044	75,869	-0,055	0,042
-371,029	800,000	0,019	0,058
-370,015	-200,000	-0,010	0,034
-369,000	80,554	-0,095	-0,074
-367,985	359,907	-0,038	0,055
-366,971	242,307	0,150	0,182
-365,956	800,000	0,032	-0,093
-364,942	88,450	0,120	0,097
-363,927	-64,789	-0,097	-0,028
-362,912	154,286	0,117	0,116
-361,898	219,228	-0,036	-0,041
-360,883	-74,637	-0,159	0,041
-359,869	-67,822	0,054	-0,015
-358,854	56,004	0,044	-0,031
-357,839	-47,045	0,049	0,017
-356,825	678,425	0,023	-0,044
-355,810	-200,000	0,025	0,094
-354,796	-59,088	0,002	0,000
-353,781	474,312	-0,060	0,098
-352,766	-104,176	-0,143	-0,024
-351,752	-146,385	-0,094	0,006
-350,737	245,059	0,100	0,122
-349,723	-116,213	0,076	-0,010
-348,708	408,695	0,021	0,033
-347,693	-200,000	-0,019	-0,165
-346,679	534,378	0,044	-0,075
-345,664	-27,049	-0,141	-0,059
-344,650	-39,165	0,075	0,028
-343,635	-1,805	0,081	-0,041
-342,620	-200,000	0,008	-0,032
-341,606	153,024	-0,023	0,023
-340,591	116,920	0,070	-0,063
-339,577	-68,997	-0,137	-0,038
-338,562	800,000	0,008	0,022
-337,548	-83,067	0,116	-0,027
-336,533	800,000	0,032	-0,099
-335,518	467,188	0,165	0,269
-334,504	-26,679	-0,082	0,034
-333,489	800,000	-0,025	0,070
-332,475	324,989	0,057	-0,079
-331,460	-200,000	-0,033	-0,235
-330,445	800,000	-0,020	0,052
-329,431	76,385	0,162	0,124
-328,416	-24,869	0,075	0,032
-327,402	800,000	0,058	-0,128
-326,387	-20,222	-0,035	-0,016
-325,372	121,923	-0,060	0,054
-324,358	-200,000	0,003	-0,070
-323,343	-67,939	0,196	0,055
-322,329	232,109	-0,053	-0,063
-321,314	226,294	-0,103	-0,121
-320,299	-49,337	0,032	0,011
-319,285	-200,000	-0,015	0,054
-318,270	-49,776	-0,120	0,041
-317,256	-200,000	0,017	-0,088
-316,241	-200,000	0,011	-0,167
-315,226	-36,913	0,149	-0,057
-314,212	278,028	0,141	0,182
-313,197	286,852	0,182	0,239
-312,183	164,533	0,051	-0,052
-311,168	687,619	0,029	0,055
-310,153	238,080	-0,069	0,083
-309,139	729,995	-0,057	0,111
-308,124	-190,666	0,179	-0,001
-307,110	-80,886	-0,065	0,015
-306,095	-29,289	-0,029	-0,012
-305,080	-200,000	0,002	-0,015
-304,066	72,471	-0,024	-0,018
-303,051	-104,694	-0,194	-0,032
-302,037	502,413	-0,095	-0,159
-301,022	138,303	0,028	-0,026
-300,008	-142,446	0,072	0,005
-298,993	31,058	0,090	0,056
-297,978	800,000	0,055	0,137
-296,964	74,283	0,148	0,112
-295,949	225,123	-0,090	-0,105
-294,935	800,000	0,006	0,020
-293,920	-154,613	0,136	0,006
-292,905	-18,873	-0,107	0,048
-291,891	-200,000	-0,006	-0,040
-290,876	205,621	-0,061	0,068
-289,862	47,097	-0,077	0,052
-288,847	-200,000	-0,016	-0,072
-287,832	-200,000	0,014	-0,054
-286,818	262,602	0,048	-0,061
-285,803	95,834	-0,061	0,050
-284,789	180,689	0,098	0,104
-283,774	-127,031	0,129	-0,014
-282,759	800,000	-0,026	0,055
-281,745	61,133	0,087	0,062
-280,730	-0,241	-0,085	0,044
-279,716	-200,000	-0,005	-0,052
-278,701	800,000	0,029	0,085
-277,686	591,772	0,064	0,114
-276,672	-200,000	-0,001	-0,015
-275,657	800,000	-0,021	0,051
-274,643	-192,374	-0,065	-0,000
-273,628	800,000	-0,020	0,048
-272,613	-25,652	-0,120	-0,051
-271,599	203,082	0,029	0,033
-270,584	114,624	0,173	0,152
-269,570	-200,000	0,004	-0,038
-268,555	800,000	-0,016	0,052
-267,540	-173,421	0,069	0,001
-266,526	401,362	-0,026	0,040
-265,511	-26,342	0,080	0,034
-264,497	800,000	0,048	-0,126
-263,482	-41,009	0,048	0,018
-262,467	396,859	-0,042	0,063
-261,453	-163,809	-0,054	0,002
-260,438	-22,800	0,039	-0,017
-259,424	800,000	-0,042	0,108
-258,409	-200,000	-0,003	0,061
-257,395	131,471	-0,168	0,156
-256,380	103,184	0,014	-0,012
-255,365	80,180	-0,062	-0,048
-254,351	-79,405	-0,125	0,030
-253,336	-77,260	-0,087	-0,022
-252,322	-25,599	-0,130	-0,055
-251,307	188,039	-0,031	-0,034
-250,292	-143,900	-0,087	0,006
-249,278	47,101	-0,057	-0,038
-248,263	86,886	0,131	0,104
-247,249	-170,340	0,072	0,002
-246,234	-6,892	-0,141	0,069
-245,219	800,000	0,008	-0,018
-244,205	-67,178	0,125	-0,035
-243,190	-46,971	0,052	-0,018
-242,176	33,125	0,094	-0,059
-241,161	112,948	-0,088	0,077
-240,146	-6,172	-0,059	0,029
-239,132	-86,772	-0,067	-0,015
-238,117	110,308	0,114	0,099
-237,103	800,000	0,091	-0,211
-236,088	128,924	-0,090	0,083
-235,073	-125,898	0,221	-0,024
-234,059	-120,502	0,093	0,011
-233,044	-200,000	0,015	0,131
-232,030	-4,670	-0,134	-0,066
-231,015	800,000	0,044	-0,096
-230,000	481,807	-0,059	-0,097
-228,986	-94,925	0,248	0,048
-227,971	-110,119	0,115	0,017
-226,957	-124,608	-0,064	0,007
-225,942	800,000	-0,022	0,048
-224,927	800,000	-0,057	-0,136
-223,913	-0,580	-0,154	-0,078
-222,898	208,923	-0,147	-0,166
-221,884	-15,269	-0,024	-0,011
-220,869	77,094	0,024	-0,019
-219,855	800,000	0,038	0,101
-218,840	-14,618	0,078	0,036
-217,825	538,771	-0,036	0,061
-216,811	-14,967	-0,189	-0,087
-215,796	11,231	-0,190	-0,105
-214,782	61,862	-0,089	-0,064
-213,767	-81,007	0,123	-0,029
-212,752	575,484	0,004	0,007
-211,738	102,129	-0,089	-0,075
-210,723	-200,000	0,012	0,088
-209,709	21,544	-0,073	-0,043
-208,694	89,553	-0,068	-0,055
-207,679	315,614	-0,048	-0,066
-206,665	800,000	0,007	0,021
-205,650	-167,264	0,125	0,004
-204,636	-200,000	-0,004	0,083
-203,621	84,451	0,043	-0,034
-202,606	-200,000	-0,005	-0,053
-201,592	-200,000	0,007	-0,061
-200,577	-200,000	0,011	-0,108
-199,563	-163,808	0,111	0,004
-198,548	-200,000	-0,014	-0,061
-197,533	800,000	0,040	-0,122
-196,519	-24,723	-0,119	0,051
-195,504	-200,000	0,019	0,127
-194,490	227,148	0,029	0,034
-193,475	74,080	-0,076	-0,057
-192,460	86,389	-0,097	0,077
-191,446	-112,046	-0,038	0,005
-190,431	681,177	0,082	0,154
-189,417	-200,000	0,009	0,072
-188,402	-98,461	0,138	0,025
-187,387	-96,440	-0,086	0,016
-186,373	-200,000	-0,012	-0,046
-185,358	-200,000	0,006	0,098
-184,344	800,000	-0,019	0,050
-183,329	565,460	0,027	0,047
-182,315	800,000	-0,036	-0,092
-181,300	140,506	-0,052	0,050
-180,285	422,252	0,055	0,086
-179,271	-34,365	-0,023	0,009
-178,256	92,100	0,015	0,012
-177,242	-200,000	0,007	0,137
-176,227	458,584	0,031	0,050
-175,212	800,000	0,039	0,112
-174,198	78,659	0,153	0,117
-173,183	-97,950	-0,166	0,030
-172,169	24,599	-0,014	-0,008
-171,154	-200,000	-0,025	-0,184
-170,139	-117,522	0,151	-0,019
-169,125	-18,670	0,046	0,021
-168,110	-119,104	0,004	0,000
-167,096	431,168	0,032	-0,051
-166,081	337,762	-0,042	-0,058
-165,066	67,584	-0,132	0,097
-164,052	772,555	0,043	-0,084
-163,037	205,799	-0,065	0,073
-162,023	538,717	0,043	0,074
-161,008	170,311	0,061	0,063
-159,993	-28,911	0,115	-0,047
-158,979	-120,421	-0,082	-0,010
-157,964	257,905	0,061	-0,076
-156,950	-83,034	-0,055	-0,013
-155,935	-200,000	0,019	0,064
-154,920	-200,000	0,003	-0,030
-153,906	189,241	-0,017	0,018
-152,891	800,000	0,023	0,073
-151,877	-200,000	0,048	0,187
-150,862	-165,965	-0,101	0,003
-149,847	88,485	0,143	0,114
-148,833	48,234	-0,071	0,047
-147,818	-200,000	0,073	0,250
-146,804	10,504	-0,105	0,057
-145,789	103,181	-0,088	-0,074
-144,775	-200,000	-0,032	-0,136
-143,760	84,906	0,093	-0,073
-142,745	800,000	0,024	-0,068
-141,731	27,086	-0,058	-0,035
-140,716	354,848	-0,067	-0,095
-139,702	-130,584	0,162	-0,015
-138,687	-200,000	0,004	0,072
-137,672	-59,543	0,084	0,026
-136,658	-200,000	-0,001	-0,059
-135,643	-148,869	-0,063	-0,004
-134,629	141,104	-0,102	-0,097
-133,614	3,595	0,139	0,073
-132,599	-200,000	0,003	0,061
-131,585	17,774	0,146	0,083
-130,570	10,870	-0,205	0,112
-129,556	94,785	-0,076	-0,062
-128,541	-69,800	-0,078	-0,021
-127,526	-119,301	0,088	-0,011
-126,512	-92,522	0,076	-0,015
-125,497	-103,087	0,167	-0,028
-124,483	58,515	-0,082	0,057
-123,468	-200,000	0,006	0,095
-122,453	349,595	-0,082	0,117
-121,439	228,564	-0,055	-0,065
-120,424	800,000	0,000	0,001
-119,410	300,898	-0,056	0,074
-118,395	77,682	0,105	0,080
