DTS Sentinel unit serial number:	SN410029Multiplexer serial number:	ORYXHardware model number:	OX2-SRSoftware version number:	ORYX F/W v4,00 Oryx Data Collector v3.7.2.0data status	okinstallation	B6 Nyhavnadifferential loss correction	single-endedforward channel	channel 2reverse channel	N/Adate	2023/12/09time	19:55:08forward acquisition time	300,00reverse acquisition time	0,00gamma	499,1914k internal	0,3130k external	0,3130temperature offset calibration	1,0000default loss term (dB/km)	0,3820temperature slope calibration	1,0000multiplexer offset coefficient	1,0000multiplexer slope coefficient	1,0000fibre end	0,00T internal ref (°C)	21,18T ext. ref 1 (°C)	5,19T ext. ref 2 (°C)	5,15length (m)	temperature (°C)	Stokes	anti-Stokes-744,400	576,100	0,081	-0,148
-743,385	-44,501	-0,307	-0,114
-742,371	257,478	0,098	0,125
-741,356	-35,246	-0,196	0,079
-740,342	-27,561	0,049	-0,021
-739,327	-4,072	-0,176	0,091
-738,312	-73,675	0,176	0,047
-737,298	-104,787	-0,278	0,047
-736,283	646,410	-0,033	0,063
-735,269	-51,772	-0,187	0,064
-734,254	-54,889	0,134	-0,045
-733,239	-77,295	-0,546	-0,140
-732,225	-184,068	0,130	0,002
-731,210	-105,051	-0,106	0,018
-730,196	-63,256	0,129	-0,039
-729,181	381,186	-0,045	-0,069
-728,167	-195,453	-0,131	-0,001
-727,152	-94,160	-0,096	-0,019
-726,137	359,694	-0,091	0,136
-725,123	-172,272	-0,146	0,003
-724,108	-3,820	-0,095	-0,049
-723,094	358,120	-0,102	-0,151
-722,079	800,000	-0,045	-0,095
-721,064	-200,000	0,002	-0,031
-720,050	-133,712	-0,076	-0,007
-719,035	800,000	-0,048	0,107
-718,021	800,000	-0,035	0,092
-717,006	250,479	-0,068	-0,086
-715,991	140,702	-0,105	-0,103
-714,977	800,000	-0,054	0,133
-713,962	-200,000	0,001	0,037
-712,948	176,119	-0,037	0,040
-711,933	136,442	-0,016	0,015
-710,918	-113,823	-0,028	0,004
-709,904	-200,000	-0,013	-0,181
-708,889	-200,000	0,009	-0,061
-707,875	184,666	-0,066	-0,073
-706,860	-107,424	-0,028	-0,005
-705,845	640,206	0,040	-0,076
-704,831	800,000	0,047	-0,105
-703,816	800,000	-0,036	-0,110
-702,802	22,221	0,128	0,078
-701,787	-36,075	-0,093	0,037
-700,772	225,150	-0,049	0,059
-699,758	800,000	0,047	0,102
-698,743	-200,000	0,057	-0,249
-697,729	32,565	0,125	-0,080
-696,714	-92,449	0,037	-0,008
-695,699	125,235	-0,082	0,077
-694,685	800,000	-0,030	-0,066
-693,670	-200,000	-0,021	-0,087
-692,656	-115,249	0,070	0,010
-691,641	-78,120	0,101	0,026
-690,627	-200,000	-0,001	0,042
-689,612	-12,708	-0,093	0,045
-688,597	116,513	-0,094	0,085
-687,583	-103,591	-0,080	0,014
-686,568	-200,000	0,007	0,058
-685,554	-111,908	-0,064	-0,010
-684,539	84,061	0,097	-0,078
-683,524	-46,139	-0,064	-0,023
-682,510	800,000	-0,073	0,195
-681,495	-200,000	-0,008	0,044
-680,481	-96,927	-0,105	-0,020
-679,466	138,834	-0,080	-0,078
-678,451	-93,136	-0,047	-0,010
-677,437	-79,422	-0,083	-0,021
-676,422	136,580	-0,100	0,096
-675,408	658,165	0,025	-0,049
-674,393	105,421	-0,081	-0,071
-673,378	107,479	-0,065	-0,057
-672,364	-65,111	-0,171	-0,051
-671,349	308,442	0,043	-0,059
-670,335	214,105	-0,033	0,038
-669,320	250,490	-0,049	-0,062
-668,305	-99,859	-0,029	-0,005
-667,291	800,000	0,037	-0,078
-666,276	0,501	-0,198	-0,104
-665,262	185,345	0,023	-0,025
-664,247	68,815	-0,012	-0,009
-663,232	43,593	-0,107	0,072
-662,218	29,226	0,132	0,083
-661,203	800,000	0,060	-0,149
-660,189	800,000	0,023	-0,063
-659,174	800,000	0,018	0,045
-658,159	-65,388	-0,079	-0,023
-657,145	262,519	0,035	-0,045
-656,130	-92,842	-0,049	0,010
-655,116	281,623	0,074	-0,099
-654,101	-71,579	-0,078	0,022
-653,086	51,410	-0,058	0,041
-652,072	-200,000	-0,023	-0,170
-651,057	800,000	-0,059	-0,153
-650,043	501,620	-0,031	-0,054
-649,028	800,000	-0,022	0,052
-648,014	-6,340	-0,108	0,054
-646,999	176,127	0,037	-0,040
-645,984	-117,642	-0,034	0,004
-644,970	-200,000	-0,014	-0,147
-643,955	-200,000	0,016	0,058
-642,941	277,322	-0,070	0,092
-641,926	-200,000	0,012	0,146
-640,911	424,028	-0,042	-0,068
-639,897	-200,000	-0,021	-0,133
-638,882	395,826	0,038	0,059
-637,868	316,260	0,032	-0,045
-636,853	4,151	-0,084	-0,045
-635,838	-200,000	0,016	-0,108
-634,824	25,357	-0,164	-0,100
-633,809	-200,000	-0,147	0,000
-632,795	-59,583	0,083	0,026
-631,780	-200,000	-0,016	-0,126
-630,765	-31,242	0,057	-0,024
-629,751	130,254	-0,029	0,028
-628,736	-138,716	-0,074	-0,006
-627,722	-200,000	-0,010	-0,068
-626,707	-17,825	-0,078	0,036
-625,692	137,188	-0,044	0,043
-624,678	-200,000	-0,009	0,074
-623,663	800,000	0,026	-0,066
-622,649	800,000	-0,048	-0,110
-621,634	142,349	-0,063	-0,062
-620,619	-104,195	-0,149	-0,025
-619,605	-200,000	-0,012	-0,045
-618,590	166,076	0,027	-0,029
-617,576	-69,976	0,045	0,013
-616,561	-32,962	0,017	-0,007
-615,546	-200,000	-0,006	-0,047
-614,532	-57,441	-0,113	-0,037
-613,517	-200,000	0,024	-0,098
-612,503	-23,623	-0,059	-0,026
-611,488	131,964	-0,011	-0,011
-610,474	-200,000	0,016	-0,099
-609,459	-46,243	-0,030	0,011
-608,444	298,172	0,104	0,142
-607,430	800,000	-0,016	0,036
-606,415	77,792	0,071	0,056
-605,401	106,365	-0,146	0,128
-604,386	-200,000	-0,009	0,086
-603,371	24,408	-0,100	0,061
-602,357	246,952	-0,084	0,105
-601,342	800,000	-0,016	-0,035
-600,328	179,510	-0,060	-0,065
-599,313	64,919	0,099	-0,074
-598,298	31,717	0,051	-0,032
-597,284	-98,896	0,067	0,012
-596,269	-200,000	-0,007	0,120
-595,255	-59,034	-0,114	0,036
-594,240	-5,144	-0,055	0,028
-593,225	800,000	0,030	-0,083
-592,211	-37,363	-0,159	-0,062
-591,196	-200,000	-0,003	-0,029
-590,182	511,706	-0,108	0,187
-589,167	111,745	0,033	-0,030
-588,152	9,992	0,027	-0,015
-587,138	279,838	-0,059	0,078
-586,123	-200,000	0,029	-0,097
-585,109	-200,000	0,031	-0,192
-584,094	156,633	-0,043	0,044
-583,079	82,350	0,031	-0,025
-582,065	-156,278	-0,105	-0,005
-581,050	-150,058	0,064	0,004
-580,036	800,000	-0,045	-0,103
-579,021	-55,492	-0,097	0,032
-578,006	-104,420	-0,083	0,014
-576,992	716,042	-0,041	0,080
-575,977	-129,593	0,104	-0,011
-574,963	-108,839	0,020	-0,003
-573,948	79,022	-0,048	0,038
-572,934	-111,775	-0,037	0,005
-571,919	-200,000	0,002	0,085
-570,904	24,302	-0,072	-0,044
-569,890	121,035	-0,025	0,023
-568,875	-200,000	-0,019	0,085
-567,861	-122,867	-0,096	0,011
-566,846	777,795	0,062	0,126
-565,831	800,000	0,049	0,129
-564,817	-152,852	0,072	-0,004
-563,802	109,639	-0,074	-0,065
-562,788	800,000	0,004	-0,010
-561,773	71,144	0,077	0,059
-560,758	387,702	0,056	0,086
-559,744	466,914	0,108	0,179
-558,729	-36,971	-0,079	0,031
-557,715	159,943	-0,068	-0,070
-556,700	259,180	-0,052	-0,066
-555,685	-198,085	0,116	0,000
-554,671	-124,290	0,054	-0,006
-553,656	-77,126	0,174	-0,044
-552,642	196,650	0,014	-0,016
-551,627	-176,408	-0,078	-0,001
-550,612	81,164	-0,105	-0,084
-549,598	280,384	-0,055	-0,073
-548,583	-136,100	-0,140	-0,012
-547,569	344,580	0,055	0,080
-546,554	800,000	0,055	-0,135
-545,539	-200,000	-0,003	-0,070
-544,525	151,691	-0,052	-0,053
-543,510	-135,833	0,109	-0,009
-542,496	352,289	-0,051	-0,075
-541,481	330,288	-0,063	-0,090
-540,466	578,835	0,013	0,024
-539,452	-200,000	0,009	-0,091
-538,437	166,696	0,093	0,098
-537,423	263,872	-0,073	-0,094
-536,408	12,703	-0,048	0,027
-535,393	-41,890	0,099	0,037
-534,379	800,000	0,020	-0,059
-533,364	-200,000	0,001	-0,053
-532,350	-90,444	0,083	-0,018
-531,335	78,577	0,076	0,060
-530,321	-48,218	-0,054	-0,019
-529,306	800,000	0,030	-0,068
-528,291	469,778	-0,048	0,080
-527,277	51,872	0,037	0,026
-526,262	-90,187	-0,065	0,014
-525,248	278,079	-0,043	0,056
-524,233	-200,000	-0,015	0,099
-523,218	-200,000	0,003	0,019
-522,204	13,430	0,147	0,084
-521,189	151,974	-0,027	-0,027
-520,175	137,559	-0,059	-0,057
-519,160	-200,000	0,017	-0,088
-518,145	-4,342	0,042	0,021
-517,131	379,335	-0,052	-0,079
-516,116	441,739	0,121	0,196
-515,102	102,049	-0,055	-0,048
-514,087	371,330	0,057	-0,086
-513,072	-49,529	-0,097	-0,034
-512,058	49,441	0,010	0,007
-511,043	-111,930	0,153	0,023
-510,029	230,252	-0,045	0,054
-509,014	-110,622	-0,139	0,021
-507,999	589,512	-0,029	0,053
-506,985	-104,017	-0,007	0,001
-505,970	-141,888	0,056	-0,004
-504,956	-200,000	-0,003	0,172
-503,941	38,841	-0,111	0,073
-502,926	800,000	-0,036	-0,107
-501,912	283,209	0,056	0,074
-500,897	-47,263	0,170	0,061
-499,883	-39,018	-0,040	0,015
-498,868	-103,503	-0,031	0,005
-497,853	-2,882	-0,077	0,040
-496,839	-127,094	0,061	-0,007
-495,824	522,683	-0,079	-0,137
-494,810	-133,193	0,109	0,010
-493,795	-200,000	0,000	0,001
-492,781	234,043	0,093	-0,114
-491,766	800,000	-0,035	-0,089
-490,751	451,016	-0,030	-0,050
-489,737	95,106	-0,025	0,021
-488,722	250,223	0,110	-0,138
-487,708	800,000	-0,028	0,074
-486,693	57,878	-0,029	0,021
-485,678	50,177	-0,066	-0,046
-484,664	147,327	-0,098	0,097
-483,649	-200,000	0,005	-0,062
-482,635	11,522	-0,089	0,050
-481,620	-146,995	0,107	0,007
-480,605	145,587	-0,011	0,011
-479,591	18,079	-0,059	0,035
-478,576	-119,520	-0,119	-0,015
-477,562	53,091	0,026	-0,018
-476,547	-36,491	-0,081	-0,032
-475,532	-200,000	0,021	-0,071
-474,518	615,990	-0,031	0,058
-473,503	800,000	-0,022	-0,056
-472,489	-5,309	-0,097	0,049
-471,474	800,000	-0,057	0,121
-470,459	742,449	0,041	0,081
-469,445	41,908	-0,033	-0,022
-468,430	-123,563	-0,081	-0,009
-467,416	-70,403	0,043	0,012
-466,401	781,664	0,096	0,195
-465,386	-200,000	-0,022	0,192
-464,372	800,000	-0,030	0,068
-463,357	482,910	-0,044	-0,073
-462,343	-77,025	-0,118	0,030
-461,328	338,506	0,078	-0,113
-460,313	62,537	-0,080	-0,059
-459,299	-160,954	0,090	-0,003
-458,284	800,000	0,051	0,126
-457,270	115,593	0,035	-0,032
-456,255	47,821	-0,075	0,052
-455,241	124,566	0,060	-0,055
-454,226	93,057	-0,033	-0,028
-453,211	-200,000	0,005	-0,041
-452,197	247,992	-0,035	0,044
-451,182	-49,458	0,075	0,026
-450,168	-93,145	0,087	-0,018
-449,153	-200,000	-0,013	0,080
-448,138	344,345	0,066	0,095
-447,124	-94,607	-0,109	-0,022
-446,109	12,427	-0,055	-0,031
-445,095	163,462	0,071	-0,074
-444,080	-200,000	-0,004	-0,110
-443,065	-53,729	0,106	0,035
-442,051	800,000	-0,050	-0,118
-441,036	28,707	-0,067	0,042
-440,022	-200,000	0,009	0,029
-439,007	-81,355	0,131	-0,031
-437,992	-200,000	0,005	-0,059
-436,978	-119,023	-0,046	0,006
-435,963	-33,601	-0,039	0,016
-434,949	151,834	-0,048	-0,048
-433,934	358,174	-0,096	0,141
-432,919	357,001	0,056	0,082
-431,905	183,305	-0,036	-0,039
-430,890	151,884	0,040	-0,040
-429,876	-200,000	0,022	0,083
-428,861	-200,000	0,001	-0,095
-427,846	-32,024	-0,081	-0,033
-426,832	-72,608	0,047	0,013
-425,817	234,270	-0,071	0,087
-424,803	155,158	-0,030	-0,030
-423,788	575,726	0,069	-0,124
-422,773	-200,000	0,034	-0,170
-421,759	245,890	0,043	0,053
-420,744	-200,000	0,002	0,023
-419,730	-200,000	0,011	-0,123
-418,715	-200,000	0,016	-0,055
-417,701	800,000	0,051	-0,107
-416,686	-78,409	0,082	0,021
-415,671	73,935	0,172	0,133
-414,657	88,799	0,031	0,025
-413,642	377,696	0,035	-0,052
-412,628	314,361	0,037	-0,051
-411,613	-70,759	0,072	-0,020
-410,598	-45,726	-0,052	0,019
-409,584	-146,185	0,079	-0,005
-408,569	18,254	0,078	0,046
-407,555	-81,416	0,150	-0,036
-406,540	-44,415	-0,225	0,082
-405,525	800,000	-0,004	0,012
-404,511	-101,447	-0,126	-0,022
-403,496	800,000	-0,047	0,136
-402,482	111,638	-0,100	0,088
-401,467	-192,527	0,188	0,001
-400,452	-89,908	-0,069	-0,015
-399,438	234,185	0,061	0,074
-398,423	238,843	0,027	-0,033
-397,409	-162,642	-0,099	-0,004
-396,394	20,051	0,059	0,035
-395,379	669,431	0,007	-0,013
-394,365	800,000	0,006	0,017
-393,350	74,423	0,104	-0,080
-392,336	-54,056	-0,047	-0,016
-391,321	301,929	0,067	-0,091
-390,306	126,403	-0,100	-0,093
-389,292	489,121	0,065	-0,109
-388,277	9,131	0,034	-0,019
-387,263	-200,000	-0,006	-0,035
-386,248	-60,091	0,082	0,026
-385,233	-200,000	0,005	0,092
-384,219	-77,874	-0,097	-0,024
-383,204	-159,562	0,034	-0,001
-382,190	353,443	-0,080	-0,116
-381,175	-116,247	-0,098	0,013
-380,160	-200,000	-0,018	0,109
-379,146	-118,284	0,069	0,009
-378,131	-114,212	-0,060	-0,008
-377,117	48,475	0,161	0,111
-376,102	-83,131	0,109	0,026
-375,088	-40,279	0,095	-0,036
-374,073	22,376	-0,027	-0,016
-373,058	-200,000	-0,008	0,113
-372,044	69,946	0,060	0,045
-371,029	-200,000	-0,003	0,096
-370,015	-156,794	0,128	-0,006
-369,000	-13,179	-0,086	-0,041
-367,985	-105,065	0,019	-0,003
-366,971	143,377	0,053	-0,052
-365,956	-115,416	0,018	-0,002
-364,942	-162,458	0,114	0,004
-363,927	-200,000	-0,009	0,058
-362,912	114,956	0,065	0,058
-361,898	-200,000	0,045	-0,147
-360,883	-54,619	-0,089	-0,029
-359,869	97,199	-0,015	-0,012
-358,854	800,000	-0,016	-0,038
-357,839	5,007	-0,101	0,054
-356,825	123,503	0,065	-0,060
-355,810	-66,473	0,194	-0,056
-354,796	69,385	0,106	-0,080
-353,781	92,169	-0,129	-0,107
-352,766	50,467	-0,040	0,028
-351,752	-38,748	0,107	-0,041
-350,737	-42,266	0,041	-0,015
-349,723	-200,000	-0,001	0,050
-348,708	132,378	-0,092	0,087
-347,693	128,753	-0,117	-0,110
-346,679	800,000	-0,068	-0,152
-345,664	-10,403	-0,054	-0,026
-344,650	-200,000	-0,003	0,060
-343,635	-200,000	-0,007	0,156
-342,620	-90,994	-0,069	0,014
-341,606	800,000	-0,036	0,098
-340,591	-200,000	0,013	-0,124
-339,577	-200,000	0,004	0,057
-338,562	102,822	0,078	-0,067
-337,548	800,000	-0,057	0,120
-336,533	-136,085	0,143	-0,012
-335,518	800,000	-0,040	0,091
-334,504	544,744	0,069	-0,121
-333,489	-100,943	-0,069	-0,012
-332,475	-5,668	0,078	0,039
-331,460	-135,289	-0,102	-0,009
-330,445	255,532	0,056	0,070
-329,431	-200,000	0,019	0,166
-328,416	445,213	-0,026	0,042
-327,402	-45,135	0,116	0,042
-326,387	146,831	-0,086	-0,084
-325,372	-200,000	-0,005	-0,143
-324,358	36,891	-0,028	-0,018
-323,343	82,058	-0,080	0,063
-322,329	-138,434	0,122	0,010
-321,314	-11,665	0,058	-0,028
-320,299	70,853	-0,127	0,096
-319,285	-94,158	-0,138	0,027
-318,270	575,865	-0,016	0,029
-317,256	52,281	-0,032	-0,022
-316,241	-87,474	-0,016	-0,004
-315,226	-111,565	0,172	-0,025
-314,212	577,749	-0,049	-0,089
-313,197	237,986	0,051	0,062
-312,183	-132,259	-0,047	0,004
-311,168	-200,000	0,010	0,094
-310,153	385,373	-0,030	-0,045
-309,139	-81,838	-0,055	0,013
-308,124	-36,897	0,098	-0,038
-307,110	-128,311	0,131	0,013
-306,095	-132,594	0,100	-0,009
-305,080	212,310	0,107	0,123
-304,066	800,000	-0,030	0,089
-303,051	791,688	-0,079	-0,160
-302,037	25,110	0,081	0,049
-301,022	-81,913	0,046	0,011
-300,008	-200,000	0,026	0,141
-298,993	800,000	-0,036	0,081
-297,978	-200,000	-0,003	0,167
-296,964	258,925	-0,014	-0,018
-295,949	-200,000	-0,014	-0,072
-294,935	196,880	0,050	-0,056
-293,920	-200,000	0,009	-0,113
-292,905	314,144	-0,060	0,082
-291,891	299,216	0,051	0,069
-290,876	-4,068	-0,144	-0,073
-289,862	-56,689	-0,068	-0,022
-288,847	390,089	-0,081	0,123
-287,832	-68,881	-0,051	-0,014
-286,818	-200,000	0,024	0,077
-285,803	268,021	0,093	-0,120
-284,789	259,417	0,040	-0,051
-283,774	800,000	0,028	0,087
-282,759	-200,000	0,004	0,023
-281,745	220,910	0,062	-0,072
-280,730	83,001	-0,033	0,026
-279,716	65,290	-0,075	0,055
-278,701	75,440	0,158	0,122
-277,686	142,162	0,080	0,077
-276,672	-73,731	0,104	0,027
-275,657	-11,036	0,027	0,013
-274,643	-200,000	-0,002	0,026
-273,628	-110,380	0,079	0,012
-272,613	800,000	0,038	0,104
-271,599	800,000	-0,012	0,031
-270,584	125,081	0,113	-0,104
-269,570	-121,875	0,134	-0,016
-268,555	648,128	0,016	0,030
-267,540	-48,100	-0,086	-0,030
-266,526	-72,470	0,019	0,005
-265,511	76,006	-0,073	0,056
-264,497	-12,138	-0,075	0,036
-263,482	115,361	-0,029	-0,026
-262,467	-35,173	0,107	-0,042
-261,453	475,271	-0,089	0,147
-260,438	0,584	-0,047	-0,024
-259,424	50,451	0,071	-0,049
-258,409	118,380	-0,010	0,009
-257,395	91,010	0,072	0,059
-256,380	-200,000	-0,004	-0,031
-255,365	800,000	-0,008	0,016
-254,351	-33,184	0,145	-0,058
-253,336	682,320	-0,023	0,045
-252,322	120,740	-0,080	-0,073
-251,307	-130,514	-0,157	-0,015
-250,292	369,275	0,079	-0,118
-249,278	-101,056	0,046	-0,008
-248,263	-200,000	-0,015	0,090
-247,249	-66,816	-0,050	0,014
-246,234	-0,617	-0,132	0,068
-245,219	-200,000	0,019	0,077
-244,205	-65,653	0,162	-0,047
-243,190	800,000	-0,053	-0,153
-242,176	-62,502	0,091	0,027
-241,161	800,000	0,031	-0,080
-240,146	800,000	-0,015	0,038
-239,132	671,922	0,027	-0,052
-238,117	800,000	-0,050	-0,155
-237,103	99,222	-0,030	-0,025
-236,088	-200,000	0,000	-0,012
-235,073	-118,949	-0,031	0,004
-234,059	800,000	0,015	-0,040
-233,044	88,544	0,106	0,086
-232,030	11,126	0,131	-0,073
-231,015	581,874	0,022	-0,039
-230,000	-34,992	-0,118	-0,047
-228,986	800,000	0,042	-0,093
-227,971	112,622	0,152	-0,134
-226,957	-200,000	0,001	-0,013
-225,942	-74,793	-0,070	0,018
-224,927	-200,000	-0,011	-0,112
-223,913	800,000	-0,043	-0,091
-222,898	800,000	0,010	-0,025
-221,884	-200,000	-0,008	0,081
-220,869	800,000	0,047	0,100
-219,855	-200,000	0,016	0,056
-218,840	800,000	0,069	0,167
-217,825	800,000	0,023	0,053
-216,811	-146,715	0,084	-0,005
-215,796	5,469	-0,038	0,020
-214,782	-51,183	-0,075	0,025
-213,767	179,966	-0,080	-0,085
-212,752	-51,485	-0,155	0,053
-211,738	41,471	-0,027	-0,018
-210,723	770,906	0,049	-0,098
-209,709	152,331	0,046	-0,045
-208,694	-200,000	-0,034	-0,123
-207,679	-200,000	0,010	-0,081
-206,665	-61,686	0,087	0,027
-205,650	-200,000	-0,039	0,164
-204,636	-157,841	-0,060	-0,003
-203,621	108,529	0,098	0,085
-202,606	-49,682	0,053	0,018
-201,592	22,270	-0,025	0,015
-200,577	-57,061	-0,064	-0,021
-199,563	381,784	0,049	0,073
-198,548	-66,122	0,135	0,039
-197,533	-200,000	0,000	0,128
-196,519	529,872	-0,053	0,092
-195,504	349,720	0,046	0,066
-194,490	800,000	-0,029	-0,067
-193,475	342,948	-0,068	-0,098
-192,460	-200,000	-0,080	0,000
-191,446	104,934	0,117	-0,101
-190,431	123,545	0,058	0,053
-189,417	-128,745	0,061	0,006
-188,402	192,762	0,053	-0,058
-187,387	-200,000	0,001	-0,012
-186,373	800,000	-0,017	0,053
-185,358	-155,820	0,162	0,007
-184,344	-112,660	0,023	0,003
-183,329	-109,506	0,075	-0,011
-182,315	-200,000	0,002	0,038
-181,300	238,800	-0,072	0,087
-180,285	54,881	-0,120	-0,084
-179,271	-101,083	0,112	-0,020
-178,256	-200,000	0,008	-0,079
-177,242	-148,459	-0,058	0,003
-176,227	-122,180	-0,032	-0,004
-175,212	520,439	0,028	0,048
-174,198	-37,039	-0,084	-0,032
-173,183	800,000	-0,074	-0,198
-172,169	390,434	-0,084	-0,127
-171,154	-88,548	0,013	-0,003
-170,139	-29,557	-0,113	0,047
-169,125	103,301	0,021	0,018
-168,110	-200,000	-0,021	0,086
-167,096	277,925	0,065	-0,084
-166,081	45,119	0,064	-0,043
-165,066	616,354	0,030	-0,055
-164,052	200,012	-0,052	-0,058
-163,037	738,557	-0,069	0,134
-162,023	-66,727	0,071	-0,020
-161,008	800,000	-0,070	0,180
-159,993	376,932	-0,049	0,073
-158,979	403,611	-0,009	0,014
-157,964	346,187	-0,080	-0,115
-156,950	279,488	0,051	-0,066
-155,935	-37,434	0,048	-0,019
-154,920	446,031	0,046	-0,073
-153,906	28,786	0,070	0,043
-152,891	86,893	-0,058	-0,047
-151,877	800,000	-0,031	-0,071
-150,862	-142,176	-0,043	-0,003
-149,847	-200,000	0,002	0,030
-148,833	399,882	-0,070	-0,107
-147,818	-143,154	-0,041	-0,003
-146,804	-127,359	0,058	0,006
-145,789	202,925	0,034	0,039
-144,775	-200,000	-0,017	-0,111
-143,760	-200,000	-0,022	-0,127
-142,745	462,220	0,053	-0,087
-141,731	-200,000	0,013	-0,078
-140,716	168,216	-0,043	0,045
-139,702	-119,396	-0,167	0,021
-138,687	-200,000	-0,009	-0,101
-137,672	-193,000	-0,059	-0,000
-136,658	-200,000	0,013	-0,058
-135,643	364,347	-0,075	-0,110
-134,629	-34,894	0,031	0,012
-133,614	800,000	0,106	-0,227
-132,599	-200,000	0,006	0,086
-131,585	-10,242	0,041	0,020
-130,570	-200,000	0,001	-0,039
-129,556	-90,143	-0,161	-0,034
-128,541	63,283	-0,046	-0,034
-127,526	-200,000	0,020	-0,118
-126,512	800,000	-0,036	-0,076
-125,497	-120,207	0,091	-0,011
-124,483	-163,208	-0,068	-0,002
-123,468	-200,000	0,013	0,073
-122,453	800,000	-0,006	0,012
-121,439	268,449	-0,047	-0,059
-120,424	503,695	0,048	-0,081
