DTS Sentinel unit serial number:	SN410029Multiplexer serial number:	ORYXHardware model number:	OX2-SRSoftware version number:	ORYX F/W v4,00 Oryx Data Collector v3.7.2.0data status	okinstallation	B6 Nyhavnadifferential loss correction	single-endedforward channel	channel 2reverse channel	N/Adate	2023/12/09time	16:25:08forward acquisition time	300,00reverse acquisition time	0,00gamma	499,1914k internal	0,3132k external	0,3132temperature offset calibration	1,0000default loss term (dB/km)	0,3820temperature slope calibration	1,0000multiplexer offset coefficient	1,0000multiplexer slope coefficient	1,0000fibre end	0,00T internal ref (°C)	20,87T ext. ref 1 (°C)	4,70T ext. ref 2 (°C)	4,70length (m)	temperature (°C)	Stokes	anti-Stokes-744,400	26,319	-0,058	0,036
-743,385	-64,459	-0,263	0,079
-742,371	64,785	-0,013	-0,010
-741,356	106,972	-0,198	0,175
-740,342	-8,317	0,111	0,055
-739,327	-26,831	-0,246	0,106
-738,312	-200,000	-0,010	0,050
-737,298	-79,221	-0,320	-0,080
-736,283	489,764	-0,112	-0,192
-735,269	-155,196	-0,265	-0,013
-734,254	142,221	0,016	0,016
-733,239	-111,322	-0,597	0,090
-732,225	-23,231	0,215	0,096
-731,210	-200,000	-0,012	0,046
-730,196	376,991	-0,048	0,074
-729,181	-200,000	0,002	0,039
-728,167	-200,000	-0,001	0,081
-727,152	24,618	0,082	0,050
-726,137	8,152	-0,065	-0,036
-725,123	-166,482	0,018	0,001
-724,108	-1,863	0,055	-0,029
-723,094	174,957	-0,070	-0,075
-722,079	204,473	0,026	-0,030
-721,064	-49,181	-0,104	0,037
-720,050	800,000	0,121	-0,268
-719,035	-175,676	-0,093	-0,002
-718,021	186,010	-0,051	-0,057
-717,006	-144,298	-0,162	0,011
-715,991	-75,432	-0,116	0,030
-714,977	800,000	-0,045	0,100
-713,962	-130,168	-0,069	-0,007
-712,948	301,069	-0,056	0,076
-711,933	800,000	-0,023	0,064
-710,918	335,250	-0,092	-0,132
-709,904	-114,585	-0,045	-0,006
-708,889	153,616	-0,091	0,093
-707,875	387,403	-0,063	-0,096
-706,860	170,364	0,055	0,059
-705,845	-200,000	-0,012	-0,086
-704,831	-149,804	0,057	0,003
-703,816	-183,641	0,066	0,001
-702,802	161,362	-0,094	0,098
-701,787	-159,707	-0,026	0,001
-700,772	-200,000	0,001	0,019
-699,758	-124,147	-0,059	-0,007
-698,743	-8,841	-0,075	0,037
-697,729	-39,774	0,059	-0,023
-696,714	-61,278	-0,089	-0,028
-695,699	800,000	-0,080	-0,173
-694,685	-10,619	-0,098	-0,048
-693,670	167,077	-0,048	-0,051
-692,656	-0,205	-0,066	0,035
-691,641	103,666	0,090	-0,078
-690,627	89,000	0,061	0,050
-689,612	264,795	-0,025	-0,032
-688,597	-200,000	0,015	-0,110
-687,583	-200,000	-0,021	0,102
-686,568	660,168	-0,061	0,117
-685,554	294,229	-0,067	0,091
-684,539	-55,185	-0,091	-0,030
-683,524	800,000	-0,041	0,123
-682,510	60,596	-0,017	0,013
-681,495	-200,000	-0,031	-0,115
-680,481	377,399	0,027	0,041
-679,466	800,000	-0,090	-0,231
-678,451	-140,526	-0,057	0,004
-677,437	784,377	0,047	-0,096
-676,422	-200,000	-0,002	-0,043
-675,408	81,744	0,032	-0,026
-674,393	-59,057	-0,112	0,036
-673,378	-129,175	0,111	0,011
-672,364	-125,782	-0,105	0,012
-671,349	-148,571	0,028	-0,002
-670,335	-200,000	0,023	-0,082
-669,320	-200,000	0,014	-0,128
-668,305	-177,787	-0,075	0,001
-667,291	-200,000	0,019	0,087
-666,276	55,211	-0,013	-0,010
-665,262	-51,543	-0,119	0,041
-664,247	121,928	0,040	-0,037
-663,232	103,198	-0,023	-0,020
-662,218	-200,000	0,031	0,160
-661,203	-200,000	-0,015	0,054
-660,189	-6,201	-0,012	0,006
-659,174	-17,178	-0,130	-0,061
-658,159	76,970	-0,033	-0,026
-657,145	58,873	0,029	0,021
-656,130	-49,589	-0,050	0,018
-655,116	289,058	0,057	-0,076
-654,101	800,000	0,024	0,066
-653,086	26,317	-0,033	-0,021
-652,072	800,000	0,047	0,109
-651,057	-200,000	-0,006	-0,061
-650,043	-143,778	-0,059	-0,004
-649,028	367,059	-0,008	0,013
-648,014	-160,417	-0,047	0,002
-646,999	37,635	-0,014	0,009
-645,984	697,034	0,065	0,127
-644,970	78,521	0,011	0,009
-643,955	-110,691	-0,097	0,015
-642,941	-200,000	-0,003	0,057
-641,926	229,622	-0,060	-0,072
-640,911	-37,196	-0,099	0,039
-639,897	417,559	0,019	-0,030
-638,882	91,155	0,094	-0,078
-637,868	-91,504	0,048	0,010
-636,853	-200,000	-0,027	-0,099
-635,838	181,007	0,058	-0,064
-634,824	-181,733	-0,081	-0,001
-633,809	800,000	0,023	-0,049
-632,795	-200,000	0,017	-0,101
-631,780	-200,000	0,023	-0,105
-630,765	11,253	-0,091	0,052
-629,751	800,000	-0,043	-0,121
-628,736	-161,573	-0,143	-0,005
-627,722	160,694	-0,034	-0,035
-626,707	-157,834	0,116	-0,005
-625,692	-74,659	0,083	0,022
-624,678	-76,071	-0,170	0,044
-623,663	747,525	-0,048	-0,097
-622,649	-200,000	0,006	-0,059
-621,634	800,000	-0,038	-0,087
-620,619	113,366	-0,020	0,018
-619,605	107,970	0,139	-0,123
-618,590	11,933	-0,100	0,057
-617,576	-200,000	0,027	0,171
-616,561	39,253	0,070	0,046
-615,546	121,674	0,083	-0,077
-614,532	800,000	-0,066	-0,150
-613,517	800,000	-0,096	-0,218
-612,503	-94,270	0,133	-0,027
-611,488	181,259	0,060	0,066
-610,474	52,414	0,102	-0,072
-609,459	78,873	-0,034	-0,027
-608,444	800,000	-0,021	-0,045
-607,430	800,000	0,013	-0,039
-606,415	-200,000	-0,017	-0,087
-605,401	800,000	0,060	0,152
-604,386	286,883	-0,140	-0,187
-603,371	30,323	0,038	-0,024
-602,357	-200,000	0,017	-0,130
-601,342	-200,000	-0,020	-0,140
-600,328	-200,000	0,003	-0,048
-599,313	9,725	0,081	-0,045
-598,298	65,583	-0,034	0,025
-597,284	-200,000	0,010	0,050
-596,269	-200,000	0,005	0,022
-595,255	118,502	0,092	-0,084
-594,240	-71,494	-0,082	-0,023
-593,225	-32,159	0,012	-0,005
-592,211	-82,032	-0,032	-0,008
-591,196	-200,000	-0,016	0,073
-590,182	-109,619	-0,073	0,011
-589,167	190,244	0,044	0,049
-588,152	325,539	-0,018	0,025
-587,138	-200,000	0,006	-0,021
-586,123	-200,000	-0,008	0,036
-585,109	-34,026	-0,073	-0,030
-584,094	-200,000	-0,032	-0,131
-583,079	153,193	0,077	-0,078
-582,065	406,637	-0,027	0,043
-581,050	432,216	0,105	0,168
-580,036	21,309	-0,045	-0,027
-579,021	620,152	0,050	-0,093
-578,006	-100,338	-0,139	-0,025
-576,992	-102,287	-0,071	0,013
-575,977	800,000	0,053	-0,138
-574,963	800,000	0,034	0,109
-573,948	289,817	0,058	0,079
-572,934	244,887	0,040	-0,050
-571,919	-22,436	0,008	0,004
-570,904	58,460	0,098	-0,071
-569,890	456,337	0,061	-0,100
-568,875	-19,049	-0,065	0,030
-567,861	-116,748	-0,079	-0,011
-566,846	-200,000	0,009	0,043
-565,831	55,702	-0,129	-0,092
-564,817	185,747	-0,047	-0,051
-563,802	-200,000	0,000	-0,002
-562,788	800,000	-0,040	-0,131
-561,773	800,000	-0,027	0,079
-560,758	-200,000	-0,012	-0,049
-559,744	800,000	0,021	-0,066
-558,729	789,586	-0,028	0,057
-557,715	-200,000	0,026	-0,116
-556,700	-200,000	0,013	-0,127
-555,685	34,727	-0,097	-0,062
-554,671	800,000	-0,046	0,117
-553,656	-25,714	-0,097	0,042
-552,642	-154,559	-0,129	-0,006
-551,627	199,578	0,043	0,049
-550,612	-161,479	-0,260	-0,010
-549,598	-80,962	0,003	-0,001
-548,583	198,220	0,078	-0,088
-547,569	-200,000	-0,012	0,142
-546,554	180,534	0,122	0,132
-545,539	-165,834	-0,040	0,001
-544,525	206,025	-0,021	-0,024
-543,510	32,253	0,051	-0,033
-542,496	-83,536	-0,112	0,026
-541,481	725,334	0,047	-0,092
-540,466	800,000	-0,068	-0,177
-539,452	116,488	-0,020	0,018
-538,437	351,191	0,071	0,104
-537,423	-79,743	0,044	-0,011
-536,408	680,842	0,047	-0,090
-535,393	411,578	0,036	-0,057
-534,379	-16,328	-0,086	0,040
-533,364	178,400	-0,042	0,045
-532,350	100,009	0,018	-0,015
-531,335	-200,000	-0,019	0,074
-530,321	-23,802	-0,107	-0,047
-529,306	800,000	-0,046	0,097
-528,291	184,615	-0,066	-0,073
-527,277	-200,000	-0,019	0,069
-526,262	33,097	0,062	0,040
-525,248	63,383	0,074	-0,055
-524,233	8,546	0,024	0,013
-523,218	116,302	0,122	-0,110
-522,204	-148,469	0,109	-0,006
-521,189	22,331	-0,092	-0,056
-520,175	8,576	0,073	-0,040
-519,160	800,000	-0,068	-0,154
-518,145	713,276	0,054	0,106
-517,131	43,967	-0,067	-0,045
-516,116	-200,000	0,015	0,055
-515,102	800,000	0,037	-0,093
-514,087	-139,611	-0,105	0,008
-513,072	-172,135	-0,086	0,002
-512,058	174,905	0,074	0,079
-511,043	-75,290	0,080	-0,021
-510,029	776,999	0,033	0,066
-509,014	-136,444	-0,111	-0,009
-507,999	181,796	-0,078	-0,085
-506,985	-200,000	-0,006	-0,074
-505,970	112,358	-0,104	-0,093
-504,956	800,000	-0,036	0,081
-503,941	-192,946	0,015	0,000
-502,926	297,629	-0,008	-0,010
-501,912	356,776	-0,041	0,061
-500,897	-200,000	0,018	-0,069
-499,883	-200,000	-0,017	-0,125
-498,868	800,000	0,015	-0,042
-497,853	-20,738	-0,093	-0,042
-496,839	-181,905	-0,090	-0,001
-495,824	800,000	-0,033	0,081
-494,810	151,367	0,036	0,036
-493,795	224,194	-0,015	0,017
-492,781	112,700	0,036	-0,032
-491,766	111,274	0,064	-0,057
-490,751	39,028	-0,103	-0,068
-489,737	4,972	0,074	0,040
-488,722	800,000	-0,044	-0,120
-487,708	-181,600	0,069	-0,001
-486,693	-72,977	-0,068	-0,018
-485,678	-21,430	-0,056	0,025
-484,664	-103,815	-0,122	-0,021
-483,649	800,000	-0,004	0,014
-482,635	-125,101	0,038	0,004
-481,620	48,596	-0,028	0,019
-480,605	-200,000	0,013	-0,105
-479,591	-141,377	0,010	-0,001
-478,576	800,000	-0,045	-0,097
-477,562	800,000	-0,074	-0,168
-476,547	-200,000	0,002	0,033
-475,532	286,450	-0,057	0,076
-474,518	-78,189	0,017	0,004
-473,503	-142,442	0,114	0,008
-472,489	-200,000	0,031	-0,154
-471,474	196,439	-0,085	-0,095
-470,459	-57,697	-0,052	-0,017
-469,445	-200,000	0,017	-0,102
-468,430	-3,135	0,084	-0,043
-467,416	-119,153	0,028	0,004
-466,401	800,000	-0,056	0,142
-465,386	-200,000	0,021	0,083
-464,372	84,443	-0,075	0,060
-463,357	-66,868	-0,082	-0,024
-462,343	-151,435	-0,126	-0,007
-461,328	-200,000	-0,019	0,063
-460,313	-0,836	0,047	0,024
-459,299	-50,379	-0,058	0,020
-458,284	10,290	0,082	0,046
-457,270	-31,968	0,085	0,035
-456,255	800,000	-0,026	-0,059
-455,241	755,520	-0,026	-0,052
-454,226	276,122	0,063	0,083
-453,211	13,361	0,106	-0,060
-452,197	-200,000	-0,022	-0,080
-451,182	503,905	-0,028	-0,048
-450,168	231,614	-0,083	0,100
-449,153	778,683	-0,027	0,054
-448,138	249,530	-0,071	-0,088
-447,124	112,448	0,137	0,122
-446,109	-133,409	0,061	0,006
-445,095	233,949	-0,064	-0,078
-444,080	-162,467	-0,068	-0,002
-443,065	-91,637	0,073	0,015
-442,051	-200,000	0,043	-0,161
-441,036	288,752	-0,033	-0,045
-440,022	-68,557	0,136	0,038
-439,007	683,457	-0,067	-0,128
-437,992	31,181	0,130	-0,081
-436,978	-171,084	0,191	0,005
-435,963	-200,000	0,011	0,132
-434,949	-200,000	0,012	-0,049
-433,934	-200,000	-0,002	0,057
-432,919	133,108	0,078	0,074
-431,905	-200,000	0,031	0,117
-430,890	324,327	-0,064	0,090
-429,876	-200,000	-0,024	-0,086
-428,861	-100,754	-0,057	0,010
-427,846	800,000	-0,043	0,096
-426,832	-99,097	-0,102	-0,019
-425,817	800,000	-0,045	0,105
-424,803	-95,829	0,075	0,014
-423,788	340,075	0,037	-0,053
-422,773	800,000	0,033	-0,094
-421,759	800,000	-0,032	0,088
-420,744	800,000	0,061	0,162
-419,730	-200,000	0,011	0,124
-418,715	-87,457	-0,165	0,036
-417,701	800,000	0,019	-0,039
-416,686	-65,313	0,100	0,029
-415,671	16,531	0,097	0,056
-414,657	-42,201	0,108	-0,040
-413,642	800,000	0,056	0,115
-412,628	-26,026	0,082	0,035
-411,613	496,812	0,040	0,068
-410,598	228,809	-0,026	-0,032
-409,584	402,526	0,057	0,088
-408,569	-45,772	-0,115	0,041
-407,555	119,711	0,115	0,105
-406,540	427,150	-0,103	0,164
-405,525	153,358	-0,023	-0,024
-404,511	56,538	-0,106	-0,076
-403,496	120,636	-0,027	-0,024
-402,482	-106,875	-0,042	0,007
-401,467	-159,361	0,119	-0,005
-400,452	35,613	0,050	0,032
-399,438	102,458	0,063	-0,054
-398,423	318,866	-0,017	-0,024
-397,409	-200,000	0,003	0,027
-396,394	800,000	0,026	-0,053
-395,379	197,593	-0,047	0,053
-394,365	-32,139	0,191	-0,078
-393,350	27,687	0,057	-0,035
-392,336	-200,000	0,019	-0,120
-391,321	-29,007	-0,092	-0,038
-390,306	-26,248	0,115	0,049
-389,292	-135,923	-0,143	0,012
-388,277	88,223	0,024	-0,019
-387,263	-49,150	-0,047	-0,016
-386,248	-110,086	-0,026	0,004
-385,233	800,000	0,033	0,085
-384,219	-200,000	-0,014	0,089
-383,204	-36,529	-0,047	-0,019
-382,190	-200,000	0,019	-0,075
-381,175	-200,000	-0,013	0,151
-380,160	-200,000	0,019	0,087
-379,146	-200,000	0,026	0,096
-378,131	-100,981	-0,063	-0,011
-377,117	235,524	0,082	0,100
-376,102	127,582	0,078	0,072
-375,088	800,000	-0,028	0,059
-374,073	-150,229	0,134	0,007
-373,058	-120,348	0,105	-0,013
-372,044	-200,000	0,034	0,174
-371,029	-43,556	-0,046	0,017
-370,015	-35,866	0,088	-0,035
-369,000	800,000	0,051	-0,107
-367,985	-200,000	-0,007	0,032
-366,971	-34,297	0,032	-0,013
-365,956	-200,000	-0,031	0,129
-364,942	603,590	0,045	0,082
-363,927	800,000	0,036	0,073
-362,912	109,587	-0,042	-0,037
-361,898	493,354	-0,018	-0,030
-360,883	763,369	-0,055	0,109
-359,869	-106,192	-0,084	-0,014
-358,854	-159,445	0,160	0,006
-357,839	-55,594	0,123	0,040
-356,825	-143,360	0,104	0,007
-355,810	-200,000	-0,010	-0,059
-354,796	119,333	-0,046	-0,042
-353,781	174,693	0,061	-0,065
-352,766	505,373	-0,064	-0,109
-351,752	32,762	0,050	-0,032
-350,737	64,263	-0,047	-0,035
-349,723	-200,000	0,019	0,069
-348,708	-200,000	-0,014	0,048
-347,693	-200,000	-0,005	0,125
-346,679	215,642	-0,082	-0,095
-345,664	800,000	-0,081	-0,202
-344,650	478,142	0,031	0,051
-343,635	38,635	-0,064	-0,042
-342,620	-41,211	0,100	-0,037
-341,606	-30,132	-0,099	0,041
-340,591	800,000	0,047	0,141
-339,577	3,514	0,140	0,075
-338,562	317,145	0,042	-0,059
-337,548	-200,000	-0,027	-0,104
-336,533	462,902	-0,044	0,072
-335,518	800,000	-0,028	0,072
-334,504	800,000	0,039	-0,080
-333,489	50,076	-0,081	-0,056
-332,475	-32,122	-0,120	-0,049
-331,460	800,000	-0,029	0,074
-330,445	56,719	0,121	0,086
-329,431	-200,000	-0,001	-0,011
-328,416	-66,262	-0,102	0,029
-327,402	-200,000	0,005	-0,022
-326,387	126,045	-0,054	0,050
-325,372	-112,036	-0,122	0,018
-324,358	734,544	-0,041	-0,080
-323,343	289,661	0,039	0,052
-322,329	-2,657	0,056	-0,029
-321,314	-200,000	-0,008	0,057
-320,299	-200,000	-0,053	0,176
-319,285	-104,465	0,090	-0,015
-318,270	42,069	-0,053	0,035
-317,256	-39,212	-0,062	-0,024
-316,241	-12,534	0,054	0,026
-315,226	90,313	0,206	0,168
-314,212	765,271	0,019	-0,037
-313,197	467,395	-0,066	-0,109
-312,183	300,340	-0,069	-0,093
-311,168	-94,231	0,015	0,003
-310,153	-118,836	0,112	0,014
-309,139	124,037	0,020	-0,018
-308,124	800,000	0,029	0,078
-307,110	-92,977	0,040	0,008
-306,095	347,067	0,088	0,127
-305,080	800,000	0,037	0,112
-304,066	-200,000	-0,004	0,095
-303,051	-200,000	-0,002	-0,017
-302,037	130,917	-0,092	-0,086
-301,022	-21,247	0,127	-0,056
-300,008	-128,398	0,012	0,001
-298,993	261,581	-0,053	-0,067
-297,978	-132,412	0,080	0,007
-296,964	-10,806	-0,155	-0,075
-295,949	631,590	-0,046	-0,085
-294,935	-200,000	-0,017	-0,058
-293,920	-149,964	0,051	0,003
-292,905	800,000	-0,002	0,007
-291,891	-200,000	0,011	0,066
-290,876	-11,894	-0,043	0,020
-289,862	255,326	-0,099	-0,124
-288,847	692,035	0,004	-0,007
-287,832	60,098	-0,072	0,052
-286,818	-134,303	-0,043	-0,004
-285,803	-122,584	0,017	-0,002
-284,789	649,840	-0,035	0,065
-283,774	-52,160	0,074	0,025
-282,759	-121,615	-0,083	0,010
-281,745	800,000	0,094	-0,273
-280,730	425,707	-0,038	0,061
-279,716	304,002	0,027	0,037
-278,701	326,562	-0,030	-0,042
-277,686	83,920	-0,043	-0,034
-276,672	-153,032	-0,126	0,006
-275,657	-145,326	-0,087	-0,006
-274,643	330,109	0,098	0,137
-273,628	-11,192	0,033	0,016
-272,613	-20,569	-0,145	0,065
-271,599	-47,643	0,024	-0,009
-270,584	800,000	0,047	-0,136
-269,570	-74,362	0,092	-0,024
-268,555	800,000	0,031	-0,095
-267,540	800,000	-0,073	-0,205
-266,526	800,000	-0,076	-0,165
-265,511	327,350	-0,103	-0,144
-264,497	800,000	0,042	0,121
-263,482	-41,932	0,044	-0,016
-262,467	252,874	-0,051	0,063
-261,453	-73,997	0,060	-0,016
-260,438	-40,078	-0,146	0,055
-259,424	81,384	-0,022	-0,017
-258,409	800,000	-0,028	-0,073
-257,395	26,841	0,160	0,098
-256,380	268,489	-0,097	0,124
-255,365	-160,825	0,018	-0,001
-254,351	210,415	-0,082	-0,094
-253,336	800,000	-0,027	0,085
-252,322	-85,669	0,117	0,026
-251,307	419,736	-0,029	0,046
-250,292	-66,692	0,082	0,024
-249,278	-107,331	0,108	0,017
-248,263	800,000	-0,031	0,094
-247,249	800,000	-0,034	-0,077
-246,234	-200,000	0,007	0,080
-245,219	793,747	-0,039	0,078
-244,205	-83,802	-0,145	0,033
-243,190	-200,000	0,015	0,071
-242,176	800,000	-0,040	-0,084
-241,161	-143,896	-0,025	-0,002
-240,146	363,256	0,062	0,091
-239,132	275,247	-0,053	-0,068
-238,117	800,000	-0,050	0,132
-237,103	-200,000	-0,011	0,149
-236,088	217,663	0,077	-0,090
-235,073	-96,904	0,112	0,021
-234,059	-130,764	0,047	-0,005
-233,044	360,207	0,037	0,055
-232,030	800,000	-0,014	-0,031
-231,015	124,729	-0,013	-0,012
-230,000	681,467	-0,037	-0,070
-228,986	144,560	-0,028	-0,028
-227,971	64,065	-0,032	0,023
-226,957	-200,000	0,040	0,205
-225,942	-160,590	-0,076	-0,003
-224,927	226,662	-0,069	-0,082
-223,913	-46,755	0,107	-0,038
-222,898	-186,171	-0,046	-0,000
-221,884	-158,852	-0,101	0,004
-220,869	-200,000	-0,002	-0,037
-219,855	59,467	0,094	0,067
-218,840	749,736	-0,046	0,091
-217,825	676,599	-0,080	0,152
-216,811	167,748	0,083	0,086
-215,796	294,872	0,046	0,062
-214,782	-49,068	0,029	-0,010
-213,767	-97,485	0,118	-0,022
-212,752	-200,000	0,034	0,138
-211,738	-200,000	0,000	0,186
-210,723	800,000	-0,038	0,113
-209,709	297,783	0,071	-0,095
-208,694	19,909	0,045	0,027
-207,679	-95,587	-0,076	-0,015
-206,665	-200,000	-0,000	0,013
-205,650	-81,182	0,105	0,025
-204,636	99,715	0,085	0,072
-203,621	-200,000	-0,005	0,048
-202,606	-44,889	-0,087	-0,031
-201,592	-200,000	-0,001	-0,089
-200,577	106,537	-0,105	-0,090
-199,563	212,474	-0,051	0,059
-198,548	-185,313	0,144	0,002
-197,533	729,319	0,015	-0,029
-196,519	-16,217	0,100	0,046
-195,504	-200,000	0,016	-0,172
-194,490	78,377	-0,068	-0,053
-193,475	-11,280	0,092	0,044
-192,460	-200,000	0,003	-0,027
-191,446	-200,000	0,013	0,128
-190,431	-76,735	0,033	0,008
-189,417	1,814	0,039	0,020
-188,402	-200,000	-0,019	0,094
-187,387	-78,198	-0,010	-0,002
-186,373	74,660	0,062	-0,047
-185,358	139,752	-0,021	0,020
-184,344	-200,000	-0,021	0,076
-183,329	-200,000	0,028	0,106
-182,315	-200,000	-0,010	0,051
-181,300	60,916	-0,071	0,051
-180,285	-34,482	0,162	0,064
-179,271	-101,998	-0,010	-0,002
-178,256	-200,000	0,011	-0,102
-177,242	800,000	0,031	0,076
-176,227	-200,000	-0,027	0,176
-175,212	-5,491	-0,066	-0,033
-174,198	-63,015	0,129	-0,038
-173,183	62,389	0,034	0,025
-172,169	-200,000	-0,023	-0,075
-171,154	-107,712	-0,031	0,005
-170,139	-14,649	-0,099	0,046
-169,125	-74,501	0,244	0,063
-168,110	800,000	0,084	0,184
-167,096	-63,091	-0,087	-0,026
-166,081	-106,602	0,089	-0,014
-165,066	239,600	0,066	-0,080
-164,052	800,000	-0,027	-0,059
-163,037	-159,596	-0,123	-0,005
-162,023	-200,000	0,020	0,136
-161,008	710,036	-0,030	0,058
-159,993	93,202	0,024	-0,020
-158,979	-67,122	-0,175	0,050
-157,964	545,656	0,023	-0,039
-156,950	412,324	-0,089	-0,138
-155,935	-173,817	0,121	0,003
-154,920	340,699	0,055	-0,078
-153,906	27,574	0,102	-0,062
-152,891	190,267	0,052	-0,056
-151,877	-132,479	-0,049	0,004
-150,862	-200,000	-0,018	-0,162
-149,847	181,944	0,122	-0,130
-148,833	-166,448	0,021	-0,001
-147,818	800,000	0,057	0,140
-146,804	241,111	0,080	0,097
-145,789	-200,000	0,032	0,194
-144,775	-82,068	-0,067	0,016
-143,760	-92,008	0,092	0,019
-142,745	-200,000	0,015	-0,068
-141,731	-200,000	0,028	-0,099
-140,716	-200,000	-0,012	0,081
-139,702	800,000	0,047	0,140
-138,687	231,897	-0,088	0,105
-137,672	-18,849	-0,056	0,025
-136,658	-19,817	-0,120	-0,054
-135,643	631,903	-0,074	0,136
-134,629	73,232	-0,108	-0,082
-133,614	800,000	0,023	0,050
-132,599	-98,354	0,066	0,012
-131,585	50,623	-0,068	0,046
-130,570	-200,000	-0,013	0,140
-129,556	-200,000	-0,006	0,118
-128,541	320,502	-0,025	0,035
-127,526	-200,000	-0,013	-0,057
-126,512	-2,632	-0,035	0,018
-125,497	31,715	0,039	0,024
-124,483	800,000	-0,046	0,135
-123,468	-200,000	0,005	-0,034
-122,453	-200,000	-0,020	-0,097
-121,439	-150,379	-0,219	-0,012
-120,424	-125,898	-0,100	-0,011
