DTS Sentinel unit serial number:	SN410029Multiplexer serial number:	ORYXHardware model number:	OX2-SRSoftware version number:	ORYX F/W v4,00 Oryx Data Collector v3.7.2.0data status	okinstallation	B6 Nyhavnadifferential loss correction	single-endedforward channel	channel 2reverse channel	N/Adate	2023/12/10time	17:30:08forward acquisition time	300,00reverse acquisition time	0,00gamma	499,1914k internal	0,3123k external	0,3123temperature offset calibration	1,0000default loss term (dB/km)	0,3820temperature slope calibration	1,0000multiplexer offset coefficient	1,0000multiplexer slope coefficient	1,0000fibre end	0,00T internal ref (°C)	22,42T ext. ref 1 (°C)	6,07T ext. ref 2 (°C)	6,09length (m)	temperature (°C)	Stokes	anti-Stokes-744,400	317,418	-0,104	-0,147
-743,385	800,000	-0,095	0,234
-742,371	135,753	0,075	0,073
-741,356	211,465	-0,199	0,233
-740,342	-69,701	0,067	0,019
-739,327	-56,293	-0,296	0,098
-738,312	37,570	0,063	0,042
-737,298	-148,281	-0,166	-0,010
-736,283	-93,769	0,074	-0,015
-735,269	-16,009	-0,133	0,063
-734,254	225,278	0,014	0,017
-733,239	-142,850	-0,410	-0,029
-732,225	-28,626	0,131	-0,056
-731,210	-200,000	0,004	-0,017
-730,196	284,405	0,019	-0,026
-729,181	-200,000	0,009	0,092
-728,167	113,201	0,068	0,061
-727,152	-117,484	-0,035	-0,005
-726,137	-200,000	-0,014	0,061
-725,123	-95,281	-0,142	-0,028
-724,108	268,652	-0,080	-0,105
-723,094	35,064	-0,020	-0,013
-722,079	183,230	-0,037	-0,041
-721,064	-36,516	-0,098	-0,039
-720,050	156,444	0,041	-0,042
-719,035	-85,618	0,014	0,003
-718,021	34,123	0,072	0,046
-717,006	20,659	0,111	0,067
-715,991	72,608	-0,124	-0,096
-714,977	800,000	-0,081	-0,220
-713,962	-200,000	0,000	-0,201
-712,948	-14,261	-0,094	0,045
-711,933	699,845	-0,073	-0,144
-710,918	-5,451	-0,219	0,111
-709,904	111,142	0,031	0,027
-708,889	-73,617	-0,210	-0,057
-707,875	211,532	-0,095	-0,112
-706,860	353,385	0,073	-0,108
-705,845	-19,137	0,100	0,046
-704,831	0,743	0,088	0,047
-703,816	800,000	0,045	-0,108
-702,802	-123,678	-0,149	-0,017
-701,787	-42,122	-0,054	0,020
-700,772	-200,000	-0,016	-0,195
-699,758	38,466	0,052	0,034
-698,743	115,092	0,107	0,098
-697,729	800,000	-0,048	0,104
-696,714	-200,000	-0,008	-0,121
-695,699	-21,985	0,056	-0,025
-694,685	800,000	-0,050	-0,156
-693,670	412,458	-0,085	-0,135
-692,656	-200,000	-0,006	-0,038
-691,641	297,789	-0,056	-0,077
-690,627	389,913	0,048	0,074
-689,612	88,727	-0,019	0,015
-688,597	-200,000	0,011	0,055
-687,583	52,017	-0,025	0,017
-686,568	327,997	-0,027	-0,038
-685,554	-47,011	-0,074	0,027
-684,539	800,000	0,049	0,104
-683,524	-104,401	-0,140	-0,024
-682,510	504,639	0,033	0,057
-681,495	-200,000	-0,007	-0,085
-680,481	112,144	-0,114	-0,102
-679,466	43,207	-0,100	-0,068
-678,451	20,299	0,078	-0,047
-677,437	-200,000	-0,021	0,116
-676,422	-71,022	0,093	0,026
-675,408	-200,000	0,010	0,046
-674,393	-200,000	-0,012	0,093
-673,378	-70,524	-0,091	-0,025
-672,364	638,438	-0,035	-0,067
-671,349	-200,000	0,014	-0,061
-670,335	-53,146	-0,035	-0,012
-669,320	-115,315	0,068	0,009
-668,305	-200,000	-0,004	-0,131
-667,291	-85,956	-0,144	0,033
-666,276	59,628	-0,055	-0,040
-665,262	48,661	-0,078	-0,054
-664,247	800,000	0,004	0,011
-663,232	800,000	-0,046	-0,131
-662,218	71,544	-0,169	0,131
-661,203	-200,000	0,022	0,110
-660,189	-200,000	-0,004	0,095
-659,174	800,000	0,012	0,038
-658,159	-200,000	0,032	-0,221
-657,145	-55,854	-0,067	-0,022
-656,130	67,047	0,126	-0,095
-655,116	-200,000	-0,009	-0,032
-654,101	800,000	-0,019	-0,057
-653,086	18,454	-0,088	-0,052
-652,072	157,640	-0,039	0,040
-651,057	8,660	0,093	-0,052
-650,043	592,881	-0,079	-0,146
-649,028	83,250	-0,016	0,013
-648,014	-57,561	0,067	-0,022
-646,999	189,363	0,022	0,024
-645,984	429,873	0,076	0,123
-644,970	-11,293	-0,118	-0,057
-643,955	-146,338	0,049	-0,003
-642,941	88,329	-0,067	-0,056
-641,926	339,499	0,029	-0,041
-640,911	3,323	0,151	-0,082
-639,897	141,219	-0,078	0,076
-638,882	-200,000	-0,010	-0,064
-637,868	259,781	0,034	-0,043
-636,853	218,117	-0,086	-0,102
-635,838	-86,856	-0,140	-0,031
-634,824	-137,397	0,128	0,011
-633,809	-113,722	0,019	-0,003
-632,795	11,672	0,118	-0,067
-631,780	800,000	0,002	-0,005
-630,765	156,447	-0,056	0,057
-629,751	-174,803	0,117	0,002
-628,736	-142,987	-0,047	0,003
-627,722	108,853	-0,113	-0,101
-626,707	-74,696	0,100	-0,027
-625,692	-200,000	-0,023	-0,144
-624,678	-79,549	0,056	-0,014
-623,663	238,992	0,085	-0,105
-622,649	26,410	-0,097	-0,060
-621,634	587,365	-0,079	0,145
-620,619	800,000	0,043	-0,102
-619,605	-200,000	-0,087	0,000
-618,590	-112,089	-0,021	0,003
-617,576	71,334	0,097	-0,074
-616,561	85,354	0,061	0,050
-615,546	-116,611	-0,107	0,014
-614,532	800,000	-0,060	-0,127
-613,517	44,226	0,033	-0,022
-612,503	-200,000	-0,006	-0,097
-611,488	-187,206	-0,013	0,000
-610,474	94,596	0,050	-0,042
-609,459	251,399	-0,015	0,019
-608,444	-37,336	-0,090	0,036
-607,430	-89,695	0,180	-0,039
-606,415	-200,000	-0,020	-0,100
-605,401	-200,000	0,005	-0,033
-604,386	191,487	0,068	0,075
-603,371	142,745	-0,021	-0,020
-602,357	-200,000	0,014	-0,068
-601,342	341,421	-0,111	-0,162
-600,328	4,210	0,052	0,028
-599,313	-200,000	-0,001	-0,159
-598,298	-200,000	-0,003	-0,113
-597,284	-122,790	0,142	0,017
-596,269	-200,000	0,075	-0,000
-595,255	800,000	-0,066	0,146
-594,240	40,374	0,047	-0,031
-593,225	800,000	-0,068	-0,140
-592,211	135,397	0,039	-0,038
-591,196	800,000	0,015	0,032
-590,182	-200,000	0,016	-0,070
-589,167	-73,192	-0,142	-0,038
-588,152	-200,000	0,028	0,162
-587,138	144,587	-0,042	-0,041
-586,123	-139,273	-0,100	0,008
-585,109	-200,000	-0,009	0,041
-584,094	800,000	-0,047	-0,139
-583,079	506,028	-0,023	-0,040
-582,065	800,000	0,003	0,007
-581,050	-200,000	0,026	-0,197
-580,036	26,447	0,028	0,017
-579,021	121,907	0,042	-0,039
-578,006	38,474	-0,101	-0,067
-576,992	784,648	-0,046	0,094
-575,977	-200,000	-0,016	0,099
-574,963	523,027	-0,069	0,121
-573,948	239,880	0,109	-0,135
-572,934	-24,585	0,031	-0,013
-571,919	25,829	-0,059	-0,036
-570,904	-40,341	0,047	0,018
-569,890	543,973	-0,033	0,059
-568,875	382,815	-0,066	0,102
-567,861	-45,662	-0,085	-0,031
-566,846	64,365	-0,107	-0,080
-565,831	258,713	-0,038	0,049
-564,817	18,078	0,020	-0,012
-563,802	-200,000	-0,022	-0,084
-562,788	-200,000	0,006	0,066
-561,773	-54,039	0,038	0,013
-560,758	50,244	-0,032	-0,023
-559,744	-200,000	-0,018	0,075
-558,729	154,657	0,021	-0,021
-557,715	-200,000	-0,006	0,023
-556,700	-58,243	-0,039	0,012
-555,685	403,724	-0,023	0,037
-554,671	314,549	-0,080	-0,112
-553,656	126,920	0,086	0,081
-552,642	-127,794	-0,032	-0,003
-551,627	-200,000	0,001	0,014
-550,612	-69,127	-0,050	-0,014
-549,598	495,163	-0,060	-0,102
-548,583	-117,835	-0,111	0,015
-547,569	89,495	0,085	0,070
-546,554	-138,498	-0,135	0,011
-545,539	-15,447	0,098	-0,046
-544,525	27,109	-0,054	-0,033
-543,510	102,457	0,018	0,015
-542,496	-56,676	-0,092	0,030
-541,481	-200,000	-0,011	-0,138
-540,466	176,513	-0,094	-0,101
-539,452	-96,159	-0,137	-0,027
-538,437	-140,369	-0,057	-0,004
-537,423	-179,942	-0,097	0,002
-536,408	615,535	-0,048	-0,089
-535,393	800,000	-0,030	-0,062
-534,379	-200,000	-0,034	0,121
-533,364	-74,579	0,045	0,012
-532,350	-145,468	-0,035	0,002
-531,335	-3,382	-0,008	0,004
-530,321	91,501	0,109	-0,091
-529,306	234,523	-0,067	-0,082
-528,291	800,000	0,042	-0,089
-527,277	-114,904	-0,121	0,017
-526,262	-200,000	0,015	0,059
-525,248	-183,799	0,142	-0,002
-524,233	-2,219	0,071	-0,036
-523,218	-105,058	-0,015	0,002
-522,204	-126,042	-0,048	0,005
-521,189	142,545	-0,029	-0,028
-520,175	514,771	0,033	0,057
-519,160	316,923	-0,048	-0,067
-518,145	212,736	-0,047	0,055
-517,131	-200,000	0,007	0,133
-516,116	800,000	0,019	0,058
-515,102	-200,000	-0,016	0,134
-514,087	71,978	-0,081	0,062
-513,072	686,268	0,043	-0,083
-512,058	-200,000	-0,008	-0,057
-511,043	94,374	0,050	-0,042
-510,029	48,230	0,118	0,082
-509,014	162,359	-0,059	0,061
-507,999	-200,000	-0,014	-0,079
-506,985	198,118	-0,030	0,034
-505,970	800,000	-0,033	-0,085
-504,956	-200,000	0,020	-0,146
-503,941	-200,000	-0,053	0,200
-502,926	-156,029	-0,023	0,001
-501,912	-200,000	-0,015	0,058
-500,897	614,779	0,047	0,087
-499,883	404,238	0,021	-0,033
-498,868	-138,697	0,106	-0,008
-497,853	-200,000	-0,003	-0,180
-496,839	-80,810	-0,086	-0,021
-495,824	580,030	0,042	0,076
-494,810	-162,659	-0,030	0,001
-493,795	-200,000	-0,023	0,189
-492,781	367,731	0,033	0,049
-491,766	129,151	-0,057	0,054
-490,751	28,670	-0,050	-0,031
-489,737	85,138	0,098	-0,079
-488,722	800,000	0,017	-0,037
-487,708	258,883	0,120	0,152
-486,693	753,466	-0,062	0,124
-485,678	40,846	-0,064	0,042
-484,664	127,432	0,071	-0,066
-483,649	148,626	-0,080	-0,080
-482,635	-47,477	0,097	-0,035
-481,620	613,330	0,055	-0,102
-480,605	189,723	0,056	0,062
-479,591	6,444	0,086	-0,047
-478,576	800,000	-0,056	0,150
-477,562	-200,000	0,002	-0,059
-476,547	45,209	0,060	0,040
-475,532	-200,000	0,006	0,074
-474,518	-36,181	0,222	0,088
-473,503	34,811	0,154	0,099
-472,489	800,000	0,033	0,100
-471,474	800,000	-0,010	-0,021
-470,459	293,710	-0,119	-0,160
-469,445	226,853	-0,078	-0,094
-468,430	496,972	0,092	0,157
-467,416	-200,000	-0,025	0,112
-466,401	444,322	0,083	0,135
-465,386	50,242	0,181	0,126
-464,372	-200,000	-0,066	0,228
-463,357	-138,799	-0,085	0,007
-462,343	259,203	-0,061	-0,078
-461,328	130,602	0,068	0,064
-460,313	-200,000	0,009	0,088
-459,299	-75,967	0,068	0,018
-458,284	646,697	-0,049	0,092
-457,270	94,687	0,027	0,023
-456,255	-200,000	0,023	-0,092
-455,241	-98,826	-0,178	0,033
-454,226	137,824	0,061	0,059
-453,211	659,837	0,059	0,113
-452,197	800,000	0,060	0,128
-451,182	54,477	-0,118	0,084
-450,168	134,663	0,050	-0,048
-449,153	-200,000	-0,005	-0,024
-448,138	-29,977	-0,121	0,050
-447,124	-147,693	0,064	0,004
-446,109	-200,000	-0,008	0,071
-445,095	326,613	-0,017	0,024
-444,080	-200,000	-0,005	0,077
-443,065	67,908	0,103	0,077
-442,051	-62,460	-0,082	0,025
-441,036	-200,000	0,038	-0,204
-440,022	-200,000	-0,012	-0,049
-439,007	-200,000	-0,003	0,033
-437,992	800,000	-0,026	0,073
-436,978	334,709	0,032	-0,046
-435,963	800,000	-0,076	-0,158
-434,949	-66,605	-0,052	-0,015
-433,934	400,798	-0,012	-0,019
-432,919	39,113	-0,042	-0,027
-431,905	350,437	-0,023	0,033
-430,890	98,825	0,035	-0,030
-429,876	99,357	-0,028	0,024
-428,861	69,419	0,056	-0,043
-427,846	-36,254	-0,061	-0,024
-426,832	-98,810	-0,052	0,010
-425,817	71,655	-0,023	0,017
-424,803	800,000	-0,026	-0,054
-423,788	-149,624	0,066	0,004
-422,773	11,868	0,083	0,047
-421,759	800,000	0,056	-0,117
-420,744	-200,000	-0,011	-0,171
-419,730	-200,000	0,026	-0,087
-418,715	168,094	-0,079	-0,082
-417,701	113,548	-0,054	-0,048
-416,686	800,000	-0,020	0,062
-415,671	177,239	0,065	0,070
-414,657	-59,709	-0,071	-0,022
-413,642	-200,000	0,001	-0,132
-412,628	-158,793	0,070	-0,003
-411,613	-65,895	-0,080	0,023
-410,598	288,382	0,012	-0,016
-409,584	800,000	0,027	0,076
-408,569	163,338	0,051	0,053
-407,555	-200,000	-0,039	0,186
-406,540	-200,000	-0,011	0,116
-405,525	-200,000	0,009	-0,125
-404,511	800,000	0,008	0,020
-403,496	190,331	0,102	0,113
-402,482	129,706	0,166	0,156
-401,467	-200,000	-0,023	-0,134
-400,452	683,933	-0,055	0,106
-399,438	150,178	-0,064	-0,064
-398,423	685,132	-0,032	0,061
-397,409	234,752	-0,067	-0,081
-396,394	800,000	0,067	0,141
-395,379	-73,490	-0,084	-0,022
-394,365	-168,792	0,127	-0,003
-393,350	2,141	0,049	0,026
-392,336	6,405	0,025	0,014
-391,321	-64,073	0,063	-0,019
-390,306	-90,372	-0,091	-0,019
-389,292	44,444	0,065	0,044
-388,277	19,202	0,085	-0,050
-387,263	81,423	-0,103	0,082
-386,248	-133,094	0,064	-0,006
-385,233	91,921	0,051	-0,042
-384,219	800,000	0,061	0,169
-383,204	-200,000	-0,030	0,147
-382,190	-200,000	-0,018	0,158
-381,175	-54,639	0,030	0,010
-380,160	-67,915	0,115	-0,033
-379,146	-64,961	0,164	-0,048
-378,131	-100,582	0,109	-0,020
-377,117	-112,663	-0,091	0,013
-376,102	50,429	-0,124	-0,086
-375,088	-151,752	-0,053	0,003
-374,073	800,000	0,054	-0,125
-373,058	-200,000	-0,024	0,084
-372,044	587,464	0,019	-0,034
-371,029	-3,537	0,062	0,032
-370,015	162,299	-0,072	0,074
-369,000	18,237	-0,054	-0,032
-367,985	-200,000	-0,013	0,127
-366,971	-137,103	-0,082	-0,007
-365,956	-28,742	0,044	-0,019
-364,942	-200,000	-0,030	0,102
-363,927	-43,204	0,109	0,040
-362,912	-121,323	-0,083	-0,010
-361,898	547,074	0,025	-0,044
-360,883	-200,000	-0,005	-0,042
-359,869	-93,314	0,026	0,005
-358,854	-70,418	0,163	-0,045
-357,839	-133,950	-0,023	-0,002
-356,825	-200,000	0,011	0,103
-355,810	-44,444	0,033	0,012
-354,796	505,572	0,005	0,009
-353,781	39,947	-0,050	-0,033
-352,766	-200,000	0,015	0,095
-351,752	726,047	0,036	-0,071
-350,737	-159,815	-0,087	-0,003
-349,723	214,344	0,043	-0,050
-348,708	8,796	0,094	0,052
-347,693	-200,000	0,001	-0,010
-346,679	-200,000	-0,012	-0,086
-345,664	-200,000	-0,008	-0,057
-344,650	-100,275	0,072	-0,013
-343,635	182,122	-0,067	-0,073
-342,620	-131,237	0,105	-0,010
-341,606	436,843	-0,040	-0,065
-340,591	-200,000	0,017	-0,083
-339,577	41,306	-0,064	-0,043
-338,562	-200,000	0,029	-0,123
-337,548	-200,000	0,007	0,038
-336,533	-42,933	-0,040	0,015
-335,518	611,015	-0,042	0,077
-334,504	349,488	-0,048	0,070
-333,489	-200,000	-0,002	0,009
-332,475	10,104	-0,104	-0,058
-331,460	300,445	0,063	-0,086
-330,445	35,399	0,117	-0,075
-329,431	-200,000	-0,001	0,043
-328,416	245,295	0,074	0,091
-327,402	297,148	0,144	0,194
-326,387	-200,000	-0,008	-0,038
-325,372	23,884	0,038	0,023
-324,358	-91,023	-0,087	0,018
-323,343	64,343	0,095	-0,070
-322,329	-200,000	-0,016	0,160
-321,314	-61,094	0,071	0,022
-320,299	432,889	0,052	0,083
-319,285	-200,000	-0,004	-0,145
-318,270	-0,981	-0,205	-0,106
-317,256	-21,951	-0,081	-0,036
-316,241	800,000	-0,040	0,082
-315,226	-56,599	0,041	0,013
-314,212	-200,000	-0,008	0,164
-313,197	-200,000	0,014	0,103
-312,183	337,970	0,046	-0,066
-311,168	10,423	-0,099	-0,055
-310,153	-71,266	-0,054	0,015
-309,139	27,330	0,101	-0,062
-308,124	-45,643	-0,163	-0,059
-307,110	-182,357	0,107	0,001
-306,095	-200,000	-0,032	0,119
-305,080	151,858	0,083	0,083
-304,066	19,811	-0,052	0,030
-303,051	99,478	0,038	-0,032
-302,037	-108,726	0,097	-0,015
-301,022	196,754	0,134	0,150
-300,008	-200,000	0,014	0,110
-298,993	-176,443	0,106	0,002
-297,978	-193,509	-0,051	0,000
-296,964	2,152	-0,061	-0,032
-295,949	28,517	0,044	-0,027
-294,935	225,188	-0,049	0,058
-293,920	-107,849	-0,121	-0,019
-292,905	223,866	0,131	0,155
-291,891	800,000	-0,045	0,128
-290,876	328,004	0,058	0,082
-289,862	-51,082	-0,090	-0,031
-288,847	19,394	-0,082	0,048
-287,832	-33,850	-0,041	0,017
-286,818	-4,899	0,092	0,046
-285,803	-71,127	-0,132	0,036
-284,789	800,000	0,010	-0,024
-283,774	-128,957	0,138	0,014
-282,759	-200,000	0,010	0,053
-281,745	293,506	0,033	-0,044
-280,730	33,817	-0,030	-0,019
-279,716	-23,088	-0,092	0,040
-278,701	133,231	0,045	0,042
-277,686	295,279	0,056	0,076
-276,672	-54,810	0,030	-0,010
-275,657	329,537	0,058	0,082
-274,643	-111,661	-0,101	-0,015
-273,628	83,088	-0,126	-0,100
-272,613	-200,000	-0,007	-0,030
-271,599	-142,332	0,062	0,004
-270,584	-123,780	-0,046	0,005
-269,570	-200,000	0,030	0,137
-268,555	-200,000	-0,035	0,118
-267,540	78,688	-0,027	0,021
-266,526	800,000	-0,085	-0,178
-265,511	800,000	0,007	-0,015
-264,497	-146,491	-0,061	0,004
-263,482	56,219	0,040	-0,029
-262,467	-200,000	0,008	0,085
-261,453	-147,099	-0,069	-0,004
-260,438	-18,037	-0,027	-0,012
-259,424	232,490	0,035	-0,042
-258,409	-200,000	0,016	-0,056
-257,395	-200,000	0,073	0,000
-256,380	124,940	-0,111	-0,102
-255,365	70,039	0,082	0,062
-254,351	88,149	0,081	-0,066
-253,336	114,085	0,066	0,059
-252,322	242,965	-0,086	-0,105
-251,307	44,512	0,052	-0,035
-250,292	-82,567	0,067	0,016
-249,278	156,368	0,032	-0,033
-248,263	64,755	-0,066	0,049
-247,249	-46,798	0,096	0,034
-246,234	311,118	-0,038	-0,052
-245,219	-74,575	-0,083	0,022
-244,205	410,485	-0,048	0,074
-243,190	316,937	-0,055	-0,076
-242,176	325,085	-0,022	-0,031
-241,161	-25,055	0,125	-0,054
-240,146	53,583	-0,085	0,059
-239,132	-170,838	-0,115	-0,003
-238,117	114,196	-0,107	-0,095
-237,103	222,299	0,057	-0,067
-236,088	728,541	0,044	-0,086
-235,073	-200,000	0,039	0,219
-234,059	-24,307	-0,092	0,040
-233,044	36,648	0,112	0,072
-232,030	-106,873	-0,171	0,027
-231,015	-49,781	-0,080	-0,028
-230,000	-200,000	0,012	0,046
-228,986	-200,000	0,003	-0,041
-227,971	47,417	0,123	0,083
-226,957	304,893	0,051	-0,069
-225,942	29,486	0,149	-0,093
-224,927	81,631	-0,064	-0,050
-223,913	-200,000	0,002	-0,021
-222,898	304,027	-0,125	-0,169
-221,884	-200,000	-0,003	-0,022
-220,869	26,135	0,076	0,046
-219,855	-200,000	-0,005	0,122
-218,840	337,373	-0,066	0,093
-217,825	571,856	0,032	-0,058
-216,811	-200,000	0,033	-0,125
-215,796	800,000	-0,047	-0,103
-214,782	800,000	0,044	-0,123
-213,767	800,000	-0,034	-0,076
-212,752	198,502	-0,082	-0,092
-211,738	800,000	-0,041	-0,110
-210,723	161,304	-0,025	0,026
-209,709	-51,508	0,134	-0,045
-208,694	554,361	-0,092	-0,162
-207,679	-45,031	0,123	-0,045
-206,665	-65,409	-0,134	0,039
-205,650	485,081	0,083	0,139
-204,636	800,000	0,031	0,081
-203,621	-200,000	-0,019	0,151
-202,606	-155,209	-0,093	-0,004
-201,592	368,322	0,027	0,040
-200,577	-200,000	0,025	-0,117
-199,563	410,214	-0,039	-0,061
-198,548	-200,000	0,003	-0,017
-197,533	-191,491	0,073	-0,001
-196,519	-200,000	-0,004	0,154
-195,504	607,128	-0,072	0,131
-194,490	300,269	-0,018	-0,024
-193,475	-200,000	-0,010	0,060
-192,460	687,636	-0,063	-0,120
-191,446	800,000	0,023	-0,075
-190,431	60,259	0,045	0,032
-189,417	63,109	0,050	0,037
-188,402	383,169	-0,093	0,140
-187,387	-59,347	-0,059	-0,018
-186,373	-47,515	0,085	-0,030
-185,358	-117,238	-0,181	0,024
-184,344	89,904	0,065	0,053
-183,329	89,659	-0,042	-0,034
-182,315	-100,077	0,291	-0,052
-181,300	-138,516	-0,041	-0,003
-180,285	-28,243	0,071	0,030
-179,271	264,600	-0,035	-0,045
-178,256	-200,000	-0,008	-0,068
-177,242	20,552	-0,023	-0,014
-176,227	189,687	-0,032	0,035
-175,212	-200,000	0,014	-0,125
-174,198	22,532	0,078	-0,046
-173,183	21,410	-0,131	-0,077
-172,169	51,340	0,103	-0,071
-171,154	-10,552	-0,082	-0,039
-170,139	-126,229	0,036	-0,004
-169,125	800,000	0,054	0,156
-168,110	121,702	0,037	0,034
-167,096	-200,000	0,001	0,007
-166,081	111,468	0,023	-0,020
-165,066	800,000	-0,053	-0,160
-164,052	-200,000	0,001	-0,011
-163,037	800,000	0,044	0,102
-162,023	207,188	-0,053	0,061
-161,008	-5,495	0,058	-0,029
-159,993	-200,000	0,020	0,070
-158,979	800,000	0,024	0,065
-157,964	800,000	0,057	-0,177
-156,950	202,865	0,009	0,010
-155,935	-34,624	-0,127	0,050
-154,920	154,715	0,092	-0,092
-153,906	800,000	0,059	-0,135
-152,891	-42,822	-0,126	-0,046
-151,877	-184,794	0,085	0,001
-150,862	-200,000	-0,004	-0,100
-149,847	800,000	-0,028	-0,059
-148,833	-134,434	0,055	0,005
-147,818	458,156	-0,067	-0,109
-146,804	251,975	0,055	0,068
-145,789	126,258	0,058	-0,053
-144,775	121,971	-0,051	0,047
-143,760	3,243	-0,115	0,061
-142,745	-68,589	0,041	0,011
-141,731	710,809	0,056	0,109
-140,716	613,545	-0,009	-0,017
-139,702	-21,711	0,103	0,045
-138,687	422,510	0,077	0,120
-137,672	14,616	0,132	0,075
-136,658	20,858	-0,162	0,095
-135,643	-200,000	-0,007	0,039
-134,629	-65,012	-0,116	-0,034
-133,614	415,669	0,051	0,079
-132,599	-168,390	0,114	-0,003
-131,585	-71,852	-0,067	0,018
-130,570	153,522	-0,058	0,058
-129,556	800,000	-0,018	-0,054
-128,541	-54,589	-0,073	-0,024
-127,526	800,000	-0,028	0,069
-126,512	73,617	0,071	0,054
-125,497	800,000	0,002	0,005
-124,483	36,983	0,047	0,030
-123,468	-72,115	0,085	0,023
-122,453	78,400	0,025	-0,020
-121,439	800,000	0,098	0,233
-120,424	-106,445	-0,165	0,026
-119,410	800,000	0,032	0,087
-118,395	-200,000	-0,040	0,203
