DTS Sentinel unit serial number:	SN410029Multiplexer serial number:	ORYXHardware model number:	OX2-SRSoftware version number:	ORYX F/W v4,00 Oryx Data Collector v3.7.2.0data status	okinstallation	B6 Nyhavnadifferential loss correction	single-endedforward channel	channel 2reverse channel	N/Adate	2023/12/10time	20:55:08forward acquisition time	300,00reverse acquisition time	0,00gamma	499,1914k internal	0,3122k external	0,3122temperature offset calibration	1,0000default loss term (dB/km)	0,3820temperature slope calibration	1,0000multiplexer offset coefficient	1,0000multiplexer slope coefficient	1,0000fibre end	0,00T internal ref (°C)	22,25T ext. ref 1 (°C)	5,88T ext. ref 2 (°C)	5,89length (m)	temperature (°C)	Stokes	anti-Stokes-744,400	101,171	0,110	-0,095
-743,385	14,519	-0,170	0,099
-742,371	-200,000	0,000	0,082
-741,356	18,661	-0,198	0,118
-740,342	-143,059	0,054	-0,004
-739,327	-159,806	-0,256	0,010
-738,312	128,398	-0,043	-0,041
-737,298	-172,807	-0,296	0,007
-736,283	-124,282	0,101	0,012
-735,269	-104,528	-0,220	-0,037
-734,254	268,835	0,042	-0,054
-733,239	-125,649	-0,458	-0,051
-732,225	-1,893	0,179	0,093
-731,210	-200,000	-0,008	0,072
-730,196	765,569	-0,036	0,074
-729,181	-6,908	-0,228	0,115
-728,167	-200,000	0,013	0,054
-727,152	-200,000	-0,003	-0,082
-726,137	-4,478	-0,126	0,065
-725,123	431,434	-0,061	0,099
-724,108	414,275	-0,047	-0,075
-723,094	-47,844	-0,056	-0,020
-722,079	-45,965	0,079	-0,029
-721,064	-15,292	-0,051	-0,024
-720,050	164,876	0,096	-0,101
-719,035	-71,586	0,102	0,028
-718,021	-89,664	-0,119	-0,026
-717,006	34,337	-0,033	0,021
-715,991	-12,727	-0,153	-0,074
-714,977	800,000	0,036	-0,082
-713,962	47,732	-0,030	-0,021
-712,948	333,716	0,069	0,099
-711,933	286,003	-0,076	-0,102
-710,918	614,851	-0,023	0,044
-709,904	1,662	-0,047	0,025
-708,889	221,985	-0,090	0,108
-707,875	800,000	-0,027	0,055
-706,860	-185,294	0,112	-0,001
-705,845	-101,920	0,074	-0,013
-704,831	308,448	0,073	0,102
-703,816	52,936	-0,093	0,066
-702,802	-200,000	0,002	-0,103
-701,787	37,017	-0,072	-0,047
-700,772	-200,000	-0,006	0,112
-699,758	129,352	-0,049	0,047
-698,743	107,007	-0,023	0,020
-697,729	-169,219	0,053	0,001
-696,714	-200,000	0,012	0,089
-695,699	-5,115	-0,093	0,048
-694,685	343,104	0,024	-0,035
-693,670	259,311	-0,013	-0,017
-692,656	800,000	-0,043	-0,097
-691,641	-200,000	-0,016	0,125
-690,627	800,000	0,018	-0,045
-689,612	-11,073	0,073	-0,036
-688,597	-200,000	0,037	-0,125
-687,583	-200,000	-0,016	-0,081
-686,568	7,664	0,052	-0,029
-685,554	-200,000	-0,022	0,083
-684,539	-115,718	0,037	0,005
-683,524	25,284	-0,099	-0,061
-682,510	-51,740	-0,064	0,022
-681,495	-61,439	-0,051	0,016
-680,481	-200,000	-0,013	0,049
-679,466	120,721	-0,055	0,051
-678,451	171,128	0,084	-0,090
-677,437	73,396	0,017	-0,013
-676,422	-200,000	-0,018	-0,139
-675,408	800,000	0,077	-0,165
-674,393	-11,850	-0,114	0,055
-673,378	-200,000	-0,011	-0,170
-672,364	69,987	-0,096	-0,074
-671,349	-6,073	-0,198	-0,100
-670,335	198,032	-0,089	0,102
-669,320	164,303	-0,051	-0,053
-668,305	-19,109	-0,059	0,027
-667,291	-95,734	-0,120	0,024
-666,276	800,000	0,043	-0,098
-665,262	-139,737	-0,074	0,006
-664,247	775,836	0,041	0,083
-663,232	369,419	-0,060	0,091
-662,218	800,000	0,027	0,057
-661,203	128,733	-0,048	-0,045
-660,189	-200,000	-0,006	0,021
-659,174	-117,953	-0,139	0,018
-658,159	800,000	0,018	-0,054
-657,145	85,629	0,049	-0,040
-656,130	46,224	0,163	0,112
-655,116	800,000	0,026	0,068
-654,101	-124,363	0,098	-0,011
-653,086	-38,633	-0,052	-0,020
-652,072	-200,000	0,041	-0,180
-651,057	-53,116	-0,158	-0,054
-650,043	800,000	-0,071	-0,186
-649,028	-112,607	-0,159	0,023
-648,014	-200,000	-0,017	0,067
-646,999	43,925	0,036	-0,024
-645,984	-200,000	-0,009	0,043
-644,970	269,070	-0,075	-0,099
-643,955	-64,801	-0,032	0,010
-642,941	-106,215	-0,075	-0,012
-641,926	-200,000	-0,023	0,143
-640,911	-109,684	0,062	0,010
-639,897	12,174	-0,041	-0,023
-638,882	-55,273	0,173	-0,057
-637,868	800,000	0,027	-0,086
-636,853	-64,768	0,066	0,020
-635,838	-200,000	0,012	0,118
-634,824	-200,000	0,003	-0,026
-633,809	419,456	0,086	-0,137
-632,795	-165,328	0,139	0,004
-631,780	-87,886	0,135	-0,030
-630,765	-200,000	0,017	0,140
-629,751	-177,243	-0,092	0,002
-628,736	800,000	0,030	-0,096
-627,722	-108,719	0,143	0,022
-626,707	82,089	-0,117	0,094
-625,692	-63,068	0,067	0,020
-624,678	106,867	-0,065	-0,058
-623,663	800,000	0,051	-0,156
-622,649	12,369	0,070	-0,040
-621,634	242,094	-0,037	-0,045
-620,619	-200,000	-0,000	-0,003
-619,605	-200,000	0,030	0,141
-618,590	800,000	0,062	0,147
-617,576	646,467	-0,082	0,156
-616,561	-41,304	-0,108	-0,041
-615,546	-0,132	-0,063	0,033
-614,532	-159,039	-0,061	0,003
-613,517	-148,348	0,101	0,006
-612,503	-200,000	0,027	0,131
-611,488	-122,553	-0,091	-0,011
-610,474	-153,798	0,068	0,003
-609,459	800,000	-0,017	0,047
-608,444	-73,350	-0,231	0,062
-607,430	-197,375	0,110	-0,000
-606,415	-22,950	-0,153	-0,068
-605,401	-159,473	-0,113	0,005
-604,386	8,299	0,050	0,028
-603,371	-37,402	-0,085	0,033
-602,357	-100,871	-0,103	-0,019
-601,342	27,990	-0,095	-0,059
-600,328	-18,710	-0,108	-0,050
-599,313	-200,000	-0,022	-0,124
-598,298	294,962	0,065	-0,088
-597,284	-200,000	-0,008	-0,194
-596,269	42,377	0,009	0,006
-595,255	-70,737	-0,077	0,021
-594,240	97,441	-0,050	-0,043
-593,225	230,952	-0,077	-0,094
-592,211	-200,000	0,009	-0,030
-591,196	148,401	-0,104	-0,104
-590,182	103,384	0,028	-0,024
-589,167	231,637	0,053	0,064
-588,152	800,000	-0,022	0,049
-587,138	-200,000	0,027	-0,186
-586,123	540,658	-0,103	-0,183
-585,109	800,000	0,069	-0,147
-584,094	405,125	0,050	-0,079
-583,079	-200,000	0,017	0,090
-582,065	-200,000	-0,013	0,060
-581,050	-200,000	-0,027	-0,091
-580,036	773,789	0,043	-0,088
-579,021	-154,989	-0,084	0,004
-578,006	-200,000	-0,022	-0,092
-576,992	800,000	0,044	-0,103
-575,977	-10,316	0,070	0,034
-574,963	-84,046	0,033	-0,008
-573,948	800,000	-0,025	0,080
-572,934	270,054	-0,065	-0,085
-571,919	-129,154	0,061	0,006
-570,904	9,842	-0,063	0,035
-569,890	-137,352	-0,092	-0,008
-568,875	-200,000	0,008	0,090
-567,861	-160,466	-0,126	0,005
-566,846	157,656	0,016	-0,016
-565,831	141,343	-0,078	-0,076
-564,817	-140,385	0,185	-0,014
-563,802	-3,073	-0,129	-0,066
-562,788	595,063	-0,034	0,062
-561,773	-69,102	0,056	-0,016
-560,758	-96,971	-0,076	-0,015
-559,744	-197,021	0,063	-0,000
-558,729	800,000	-0,029	-0,073
-557,715	-9,783	-0,027	-0,013
-556,700	-61,360	0,041	-0,013
-555,685	-11,561	-0,068	0,033
-554,671	39,196	-0,074	-0,049
-553,656	-17,144	0,110	0,051
-552,642	-200,000	-0,001	-0,026
-551,627	-71,340	-0,062	0,017
-550,612	53,728	-0,060	0,043
-549,598	-89,059	-0,077	-0,017
-548,583	-0,918	0,041	0,022
-547,569	-200,000	0,029	0,112
-546,554	355,445	0,022	0,032
-545,539	165,781	-0,008	0,008
-544,525	800,000	-0,016	-0,052
-543,510	262,620	-0,066	-0,085
-542,496	-13,998	-0,111	0,053
-541,481	188,931	-0,094	-0,104
-540,466	800,000	0,032	-0,079
-539,452	-200,000	0,001	-0,025
-538,437	-200,000	0,010	0,056
-537,423	-200,000	-0,045	0,163
-536,408	14,633	-0,075	0,043
-535,393	-200,000	-0,013	-0,046
-534,379	-122,557	-0,201	0,024
-533,364	11,623	-0,076	0,043
-532,350	580,376	0,063	0,114
-531,335	42,760	0,135	0,091
-530,321	-200,000	-0,006	0,049
-529,306	24,657	-0,056	0,034
-528,291	87,321	-0,100	-0,081
-527,277	147,750	0,019	-0,019
-526,262	-32,343	0,011	-0,005
-525,248	-117,318	0,049	-0,006
-524,233	-106,026	0,137	0,023
-523,218	-200,000	0,010	-0,062
-522,204	-142,016	0,075	0,005
-521,189	131,701	-0,025	0,024
-520,175	-200,000	-0,056	-0,213
-519,160	-16,725	-0,086	0,040
-518,145	252,785	-0,101	0,128
-517,131	302,294	-0,065	0,088
-516,116	-118,379	-0,054	-0,007
-515,102	196,565	-0,019	0,022
-514,087	-200,000	-0,017	0,119
-513,072	-121,917	-0,148	-0,018
-512,058	-200,000	0,012	-0,097
-511,043	541,240	0,013	-0,023
-510,029	-200,000	-0,008	0,041
-509,014	-100,605	0,138	0,025
-507,999	800,000	0,006	0,016
-506,985	-200,000	0,010	-0,034
-505,970	23,955	-0,153	-0,093
-504,956	569,253	0,023	-0,041
-503,941	-60,966	-0,013	-0,004
-502,926	11,898	0,106	-0,060
-501,912	286,581	0,053	0,071
-500,897	351,667	-0,046	-0,067
-499,883	-21,573	0,091	0,041
-498,868	16,338	-0,191	-0,111
-497,853	-200,000	-0,000	-0,015
-496,839	-71,017	0,059	-0,016
-495,824	-189,250	0,059	-0,000
-494,810	127,249	0,129	0,121
-493,795	-200,000	0,002	-0,107
-492,781	-200,000	0,018	0,087
-491,766	-200,000	0,012	-0,068
-490,751	-200,000	-0,001	-0,077
-489,737	10,177	0,105	0,059
-488,722	97,271	0,063	0,053
-487,708	310,181	0,070	0,097
-486,693	800,000	0,023	0,058
-485,678	31,698	0,094	-0,059
-484,664	-37,906	-0,011	0,004
-483,649	452,576	-0,047	-0,077
-482,635	-200,000	0,007	-0,085
-481,620	-200,000	0,002	0,018
-480,605	-22,886	0,072	-0,032
-479,591	-200,000	0,003	0,047
-478,576	632,955	-0,059	0,110
-477,562	-200,000	-0,015	0,091
-476,547	-196,754	0,030	0,000
-475,532	-200,000	-0,002	-0,043
-474,518	-2,676	0,054	0,028
-473,503	-200,000	0,005	0,076
-472,489	-76,433	-0,061	-0,016
-471,474	800,000	-0,026	0,074
-470,459	-200,000	-0,002	-0,007
-469,445	-51,881	-0,073	0,025
-468,430	-200,000	0,026	0,090
-467,416	-200,000	-0,002	-0,048
-466,401	231,596	-0,081	0,099
-465,386	-39,729	0,079	0,030
-464,372	-90,091	-0,231	-0,049
-463,357	-200,000	-0,003	0,129
-462,343	-200,000	0,008	0,028
-461,328	-55,944	0,066	0,022
-460,313	42,177	0,088	-0,059
-459,299	42,269	0,043	0,029
-458,284	-200,000	0,025	0,173
-457,270	-115,701	0,128	-0,018
-456,255	-55,088	-0,115	0,038
-455,241	623,053	0,040	-0,074
-454,226	560,516	-0,043	-0,077
-453,211	800,000	0,046	-0,102
-452,197	726,854	0,036	0,072
-451,182	85,117	0,146	-0,118
-450,168	110,787	0,035	0,031
-449,153	62,306	-0,040	-0,029
-448,138	-200,000	0,000	0,094
-447,124	-155,504	-0,158	0,007
-446,109	293,086	-0,009	0,013
-445,095	-24,955	0,097	-0,042
-444,080	-200,000	-0,022	0,101
-443,065	-14,191	0,063	0,030
-442,051	-61,554	-0,182	-0,056
-441,036	198,718	-0,044	-0,049
-440,022	405,290	-0,039	-0,060
-439,007	-36,666	0,140	-0,055
-437,992	-167,795	0,126	0,004
-436,978	32,719	0,097	0,062
-435,963	-200,000	0,013	0,052
-434,949	358,944	0,090	-0,133
-433,934	192,884	-0,031	-0,035
-432,919	-200,000	-0,003	0,026
-431,905	88,029	0,027	0,022
-430,890	-200,000	-0,006	0,046
-429,876	-77,692	0,033	-0,008
-428,861	46,079	0,047	0,032
-427,846	166,470	-0,029	-0,030
-426,832	97,993	-0,068	0,057
-425,817	611,987	-0,005	0,008
-424,803	-200,000	0,026	-0,139
-423,788	-32,580	-0,047	0,019
-422,773	-151,926	0,031	0,002
-421,759	366,759	0,011	0,017
-420,744	800,000	-0,024	0,062
-419,730	-169,860	0,072	0,002
-418,715	800,000	0,054	-0,155
-417,701	-78,119	0,031	-0,008
-416,686	513,417	0,118	0,204
-415,671	-133,756	0,166	0,015
-414,657	800,000	-0,042	0,126
-413,642	-61,731	0,097	-0,030
-412,628	-200,000	0,020	-0,140
-411,613	228,706	0,048	-0,058
-410,598	48,248	-0,035	-0,024
-409,584	52,506	-0,030	0,021
-408,569	509,827	0,012	0,021
-407,555	800,000	-0,067	0,159
-406,540	206,405	0,039	-0,044
-405,525	317,920	0,029	-0,040
-404,511	800,000	0,024	-0,061
-403,496	3,749	0,049	-0,026
-402,482	-200,000	0,001	0,159
-401,467	-111,753	-0,052	0,008
-400,452	-111,864	-0,031	0,005
-399,438	119,687	0,091	-0,083
-398,423	95,258	-0,068	0,057
-397,409	800,000	-0,045	-0,116
-396,394	490,566	-0,032	0,053
-395,379	99,193	-0,037	-0,032
-394,365	221,260	0,024	0,028
-393,350	283,050	0,059	0,078
-392,336	800,000	-0,052	0,111
-391,321	800,000	-0,016	0,042
-390,306	316,419	0,024	0,033
-389,292	61,326	-0,084	0,061
-388,277	-200,000	0,030	0,118
-387,263	15,892	0,006	0,003
-386,248	-21,130	0,071	-0,032
-385,233	-200,000	-0,002	-0,100
-384,219	-200,000	-0,007	-0,123
-383,204	-200,000	0,003	-0,084
-382,190	-200,000	-0,003	0,025
-381,175	-108,091	0,010	-0,002
-380,160	182,214	-0,057	-0,061
-379,146	-200,000	-0,002	-0,057
-378,131	-39,431	-0,050	0,019
-377,117	-47,081	0,049	0,017
-376,102	75,739	-0,082	0,064
-375,088	248,397	-0,049	-0,061
-374,073	-200,000	0,031	-0,108
-373,058	71,990	0,056	-0,043
-372,044	43,356	0,078	0,052
-371,029	617,347	0,021	0,039
-370,015	-72,428	0,019	-0,005
-369,000	-69,439	-0,101	0,028
-367,985	-69,903	-0,060	-0,017
-366,971	-57,517	0,170	-0,054
-365,956	-28,787	-0,107	-0,045
-364,942	539,209	0,051	0,089
-363,927	168,578	-0,075	-0,079
-362,912	-105,937	-0,158	-0,026
-361,898	800,000	0,026	-0,077
-360,883	-111,937	-0,079	0,012
-359,869	-190,906	0,164	0,001
-358,854	93,988	0,047	-0,039
-357,839	246,975	0,015	-0,018
-356,825	800,000	-0,003	0,006
-355,810	659,550	0,030	0,057
-354,796	800,000	0,042	-0,114
-353,781	177,449	0,067	-0,072
-352,766	-102,892	-0,097	0,017
-351,752	161,651	-0,024	-0,025
-350,737	800,000	-0,020	0,056
-349,723	24,475	0,091	0,055
-348,708	301,953	0,056	0,077
-347,693	-200,000	0,001	0,048
-346,679	800,000	-0,040	0,117
-345,664	-69,219	-0,078	-0,022
-344,650	-200,000	0,008	-0,054
-343,635	185,891	0,066	-0,073
-342,620	800,000	0,049	0,146
-341,606	68,490	-0,042	-0,031
-340,591	-200,000	0,003	-0,091
-339,577	570,514	-0,058	-0,105
-338,562	800,000	-0,011	-0,034
-337,548	-42,316	0,049	0,018
-336,533	-18,542	0,072	-0,033
-335,518	-49,959	-0,021	-0,007
-334,504	5,271	0,126	-0,068
-333,489	125,809	0,095	0,088
-332,475	207,330	-0,003	-0,003
-331,460	-0,412	0,032	-0,016
-330,445	44,558	-0,097	0,065
-329,431	589,470	-0,028	-0,051
-328,416	226,549	0,036	-0,042
-327,402	-200,000	0,006	0,087
-326,387	-11,819	-0,064	0,031
-325,372	464,108	-0,084	0,138
-324,358	-43,601	-0,045	0,016
-323,343	-200,000	0,015	0,052
-322,329	-200,000	0,023	0,108
-321,314	145,425	-0,049	0,048
-320,299	-200,000	-0,010	0,047
-319,285	-141,688	-0,072	-0,005
-318,270	246,449	0,054	-0,067
-317,256	-16,305	0,069	-0,032
-316,241	16,229	0,215	0,124
-315,226	-67,262	0,050	-0,014
-314,212	296,616	-0,014	0,019
-313,197	-91,807	0,190	0,039
-312,183	136,857	-0,032	0,031
-311,168	-124,387	-0,199	0,022
-310,153	90,259	0,032	0,026
-309,139	-71,612	-0,071	-0,019
-308,124	-200,000	0,018	-0,123
-307,110	800,000	0,059	0,124
-306,095	800,000	-0,038	0,088
-305,080	-53,253	0,077	-0,026
-304,066	-111,806	-0,098	-0,014
-303,051	-40,202	-0,223	-0,085
-302,037	458,221	0,038	0,062
-301,022	223,650	0,064	0,076
-300,008	-20,891	-0,063	0,028
-298,993	43,551	0,200	0,134
-297,978	363,200	0,044	0,065
-296,964	319,192	-0,065	-0,091
-295,949	-70,451	-0,130	-0,036
-294,935	-83,465	-0,138	-0,032
-293,920	721,142	-0,013	-0,024
-292,905	-46,526	-0,085	0,030
-291,891	800,000	-0,017	-0,043
-290,876	69,530	-0,043	-0,032
-289,862	362,290	0,089	0,131
-288,847	-200,000	-0,001	-0,057
-287,832	-200,000	0,001	-0,108
-286,818	800,000	0,016	-0,045
-285,803	800,000	-0,032	0,088
-284,789	-170,003	0,083	-0,002
-283,774	-200,000	-0,027	-0,105
-282,759	-19,636	-0,116	0,052
-281,745	91,404	-0,055	0,045
-280,730	800,000	-0,020	-0,061
-279,716	-140,815	-0,117	0,009
-278,701	228,252	-0,041	-0,049
-277,686	-70,174	0,139	0,038
-276,672	-200,000	-0,013	0,220
-275,657	519,605	-0,062	0,107
-274,643	-200,000	0,015	0,074
-273,628	-8,560	-0,076	0,037
-272,613	-114,955	-0,138	-0,019
-271,599	2,128	0,080	0,042
-270,584	-186,241	-0,059	-0,001
-269,570	519,887	-0,035	-0,059
-268,555	101,812	0,096	-0,082
-267,540	800,000	-0,022	-0,057
-266,526	800,000	-0,017	0,052
-265,511	800,000	-0,017	-0,050
-264,497	717,602	0,040	-0,079
-263,482	-200,000	0,009	-0,088
-262,467	800,000	-0,019	0,057
-261,453	54,959	-0,032	-0,023
-260,438	123,866	-0,079	-0,073
-259,424	-141,723	0,079	0,006
-258,409	-85,963	-0,087	0,020
-257,395	-13,852	0,063	0,030
-256,380	198,250	0,108	-0,121
-255,365	-200,000	0,018	-0,084
-254,351	-17,494	0,038	0,017
-253,336	204,273	-0,005	-0,005
-252,322	-200,000	0,002	-0,070
-251,307	-200,000	0,008	-0,039
-250,292	483,940	-0,114	0,190
-249,278	57,621	0,089	0,064
-248,263	321,139	0,030	0,042
-247,249	80,443	0,037	0,029
-246,234	247,276	0,047	0,058
-245,219	800,000	-0,045	-0,097
-244,205	85,961	-0,122	-0,098
-243,190	-98,953	0,101	0,019
-242,176	516,484	0,054	0,093
-241,161	-200,000	-0,005	-0,041
-240,146	-40,509	0,091	-0,034
-239,132	800,000	0,034	-0,079
-238,117	-200,000	0,015	0,079
-237,103	119,943	0,083	0,075
-236,088	-80,804	0,075	-0,018
-235,073	102,400	0,017	0,014
-234,059	88,990	-0,082	0,067
-233,044	-200,000	0,017	-0,105
-232,030	-44,605	0,045	0,016
-231,015	-41,062	-0,056	-0,021
-230,000	-9,733	-0,007	-0,004
-228,986	-191,695	-0,195	-0,001
-227,971	-200,000	0,021	0,070
-226,957	141,239	-0,027	-0,026
-225,942	-184,883	0,042	0,000
-224,927	148,557	0,060	0,060
-223,913	264,242	-0,046	0,059
-222,898	-200,000	0,006	0,030
-221,884	-157,859	-0,072	0,003
-220,869	102,168	0,077	-0,066
-219,855	55,851	0,062	0,044
-218,840	800,000	0,037	-0,095
-217,825	-83,819	-0,161	-0,037
-216,811	-200,000	0,007	0,039
-215,796	113,820	0,047	-0,042
-214,782	-23,320	0,074	0,032
-213,767	176,983	-0,058	0,061
-212,752	800,000	0,026	-0,074
-211,738	800,000	0,027	-0,070
-210,723	30,213	0,170	0,106
-209,709	-61,253	0,117	0,036
-208,694	438,703	0,048	-0,077
-207,679	-200,000	0,016	0,055
-206,665	-200,000	0,003	0,138
-205,650	259,861	0,079	0,100
-204,636	-200,000	0,010	-0,083
-203,621	-200,000	-0,002	0,014
-202,606	78,432	-0,117	0,091
-201,592	-13,553	-0,109	-0,051
-200,577	230,160	0,037	-0,044
-199,563	-200,000	-0,017	0,086
-198,548	-200,000	0,149	-0,000
-197,533	-99,561	0,158	0,029
-196,519	-77,410	0,034	0,009
-195,504	-15,524	-0,065	0,030
-194,490	41,130	-0,032	-0,021
-193,475	331,165	-0,050	-0,070
-192,460	-62,557	0,114	0,034
-191,446	454,053	-0,067	0,108
-190,431	60,547	0,103	0,074
-189,417	489,152	0,017	0,029
-188,402	-145,339	-0,029	0,002
-187,387	686,473	0,023	0,044
-186,373	-147,028	-0,087	-0,005
-185,358	-46,279	-0,079	-0,028
-184,344	-200,000	0,010	-0,050
-183,329	65,045	0,075	-0,055
-182,315	346,214	0,025	0,035
-181,300	-200,000	0,029	-0,123
-180,285	-200,000	-0,013	-0,046
-179,271	-200,000	-0,005	0,037
-178,256	219,667	0,034	0,040
-177,242	-124,109	-0,064	-0,007
-176,227	736,561	-0,006	-0,011
-175,212	598,433	-0,028	0,051
-174,198	-87,746	-0,037	0,008
-173,183	-200,000	0,018	-0,087
-172,169	-34,222	0,127	-0,051
-171,154	638,582	0,035	0,064
-170,139	94,164	0,078	0,064
-169,125	398,289	-0,002	0,003
-168,110	-150,403	0,052	-0,003
-167,096	-200,000	0,023	0,102
-166,081	344,639	-0,087	0,124
-165,066	800,000	-0,043	-0,100
-164,052	-200,000	-0,010	-0,118
-163,037	800,000	0,010	0,031
-162,023	7,513	0,116	-0,063
-161,008	359,983	0,086	-0,125
-159,993	-200,000	-0,003	0,030
-158,979	800,000	0,024	-0,053
-157,964	784,595	-0,108	-0,217
-156,950	46,718	-0,077	-0,052
-155,935	298,840	-0,026	0,034
-154,920	96,427	-0,072	-0,060
-153,906	378,861	0,017	-0,026
-152,891	478,549	0,060	-0,100
-151,877	800,000	0,045	0,100
-150,862	800,000	-0,044	-0,136
-149,847	800,000	-0,005	0,016
-148,833	-76,847	-0,104	-0,026
-147,818	189,850	0,149	-0,164
-146,804	-200,000	-0,022	0,164
-145,789	-200,000	0,007	-0,043
-144,775	32,798	-0,085	-0,053
-143,760	214,137	0,024	-0,028
-142,745	130,444	0,093	0,087
-141,731	543,123	0,057	-0,100
-140,716	-200,000	0,016	0,102
-139,702	-200,000	-0,033	0,114
-138,687	800,000	0,046	0,102
-137,672	171,658	-0,092	-0,097
-136,658	800,000	-0,040	0,111
-135,643	-1,497	-0,090	-0,046
-134,629	-152,852	0,077	0,004
-133,614	800,000	-0,053	-0,115
-132,599	-157,750	0,115	0,005
-131,585	795,679	-0,056	0,113
-130,570	81,019	-0,070	0,055
-129,556	-200,000	-0,019	0,110
-128,541	-0,159	0,020	0,010
-127,526	-60,207	0,091	-0,028
-126,512	-42,112	-0,031	0,011
-125,497	800,000	-0,030	-0,081
-124,483	84,341	0,056	0,044
-123,468	-200,000	0,002	-0,064
-122,453	-200,000	-0,019	0,062
-121,439	-200,000	0,009	-0,076
-120,424	-200,000	0,003	0,033
-119,410	-200,000	-0,006	0,179
