DTS Sentinel unit serial number:	SN410029Multiplexer serial number:	ORYXHardware model number:	OX2-SRSoftware version number:	ORYX F/W v4,00 Oryx Data Collector v3.7.2.0data status	okinstallation	B6 Nyhavnadifferential loss correction	single-endedforward channel	channel 2reverse channel	N/Adate	2023/12/08time	10:00:08forward acquisition time	300,00reverse acquisition time	0,00gamma	499,1914k internal	0,3165k external	0,3165temperature offset calibration	1,0000default loss term (dB/km)	0,3820temperature slope calibration	1,0000multiplexer offset coefficient	1,0000multiplexer slope coefficient	1,0000fibre end	0,00T internal ref (°C)	13,98T ext. ref 1 (°C)	-1,58T ext. ref 2 (°C)	-1,54length (m)	temperature (°C)	Stokes	anti-Stokes-744,400	-87,654	0,046	0,010
-743,385	-177,036	-0,337	-0,006
-742,371	-69,252	0,156	0,044
-741,356	-101,717	-0,300	0,053
-740,342	-38,103	0,105	-0,041
-739,327	-59,833	-0,315	-0,098
-738,312	-200,000	-0,016	0,101
-737,298	-119,695	-0,377	0,047
-736,283	15,052	0,218	0,125
-735,269	-65,557	-0,325	0,095
-734,254	319,544	-0,028	0,040
-733,239	-51,635	-0,434	-0,148
-732,225	21,815	0,099	0,059
-731,210	247,472	0,150	0,187
-730,196	800,000	-0,015	0,046
-729,181	25,817	0,067	-0,041
-728,167	0,770	0,167	-0,088
-727,152	550,600	0,011	0,020
-726,137	-200,000	-0,031	-0,182
-725,123	-47,117	-0,042	-0,015
-724,108	33,929	-0,129	-0,083
-723,094	164,005	-0,077	-0,080
-722,079	-154,868	-0,094	-0,005
-721,064	100,666	0,057	0,049
-720,050	-62,687	0,072	0,022
-719,035	800,000	-0,062	0,178
-718,021	800,000	0,006	-0,013
-717,006	98,855	-0,071	-0,060
-715,991	-200,000	0,002	-0,017
-714,977	580,103	-0,068	-0,124
-713,962	800,000	0,056	-0,135
-712,948	274,339	-0,046	0,059
-711,933	-15,032	-0,121	0,057
-710,918	-200,000	-0,030	-0,121
-709,904	715,094	0,025	0,049
-708,889	12,676	-0,105	-0,060
-707,875	-27,793	-0,081	-0,034
-706,860	472,764	-0,028	-0,047
-705,845	-105,582	0,089	-0,015
-704,831	133,120	-0,079	0,075
-703,816	32,234	-0,071	-0,045
-702,802	315,875	0,077	0,108
-701,787	800,000	0,018	-0,045
-700,772	673,863	-0,053	-0,101
-699,758	77,289	0,077	-0,060
-698,743	-200,000	-0,008	-0,097
-697,729	39,593	0,016	0,011
-696,714	-200,000	-0,002	0,117
-695,699	-200,000	-0,014	0,050
-694,685	-10,509	0,024	0,012
-693,670	800,000	0,057	-0,150
-692,656	-108,492	-0,078	0,012
-691,641	-200,000	-0,010	0,113
-690,627	-159,849	0,081	0,003
-689,612	45,927	-0,099	-0,067
-688,597	121,043	-0,010	0,009
-687,583	737,006	0,012	-0,023
-686,568	177,289	0,100	-0,107
-685,554	-63,950	-0,154	-0,046
-684,539	-28,332	0,054	-0,023
-683,524	-58,986	-0,043	0,014
-682,510	-200,000	0,002	0,036
-681,495	-108,948	-0,073	0,011
-680,481	-86,006	-0,090	-0,020
-679,466	41,442	-0,118	-0,078
-678,451	-98,190	-0,118	0,022
-677,437	212,668	0,106	0,123
-676,422	-200,000	0,014	0,088
-675,408	-55,471	-0,057	0,019
-674,393	-77,003	-0,107	-0,027
-673,378	175,901	-0,053	0,057
-672,364	-200,000	-0,026	-0,096
-671,349	83,268	0,012	0,009
-670,335	-154,362	0,132	-0,006
-669,320	-47,164	-0,060	0,021
-668,305	226,300	0,070	-0,084
-667,291	-200,000	0,009	0,208
-666,276	238,383	0,071	0,086
-665,262	-200,000	-0,023	-0,081
-664,247	-50,042	-0,142	0,049
-663,232	-164,668	0,032	-0,001
-662,218	-128,700	0,108	-0,011
-661,203	448,883	-0,034	0,055
-660,189	109,377	-0,022	-0,019
-659,174	-130,006	0,172	-0,017
-658,159	-138,407	-0,105	-0,008
-657,145	14,298	0,073	0,041
-656,130	-115,416	-0,046	-0,006
-655,116	91,548	-0,107	0,088
-654,101	-22,266	0,171	0,076
-653,086	559,191	0,064	0,114
-652,072	130,000	-0,072	-0,068
-651,057	-200,000	0,032	-0,128
-650,043	-46,587	-0,129	-0,046
-649,028	-63,870	0,111	0,033
-648,014	-200,000	0,013	-0,165
-646,999	413,250	0,063	-0,098
-645,984	-9,691	0,096	0,047
-644,970	800,000	-0,016	-0,037
-643,955	-200,000	0,007	-0,028
-642,941	-15,672	-0,055	0,026
-641,926	313,471	-0,035	0,049
-640,911	-15,357	0,112	-0,052
-639,897	168,097	0,080	0,084
-638,882	-200,000	0,002	0,034
-637,868	446,348	0,047	0,075
-636,853	-106,371	-0,136	0,022
-635,838	-200,000	0,016	-0,205
-634,824	305,737	-0,052	-0,071
-633,809	6,275	-0,086	-0,047
-632,795	280,673	-0,019	0,025
-631,780	-39,706	-0,041	-0,016
-630,765	221,956	-0,096	0,114
-629,751	535,670	-0,046	-0,080
-628,736	-200,000	0,011	0,045
-627,722	800,000	-0,040	0,099
-626,707	800,000	-0,021	0,056
-625,692	-9,681	0,127	-0,062
-624,678	12,285	0,112	-0,063
-623,663	42,390	-0,058	-0,038
-622,649	224,698	0,042	0,050
-621,634	792,496	-0,032	-0,064
-620,619	800,000	0,044	-0,092
-619,605	-200,000	-0,003	0,028
-618,590	-200,000	-0,007	-0,041
-617,576	321,635	-0,084	0,118
-616,561	800,000	0,036	0,098
-615,546	123,175	-0,134	0,123
-614,532	101,552	0,059	0,050
-613,517	800,000	0,039	0,111
-612,503	42,956	-0,063	0,042
-611,488	-89,551	-0,087	0,019
-610,474	219,735	0,062	-0,073
-609,459	190,307	0,025	-0,027
-608,444	-18,959	-0,013	-0,006
-607,430	17,951	-0,018	0,011
-606,415	66,348	-0,143	-0,107
-605,401	61,961	-0,046	-0,033
-604,386	-25,932	0,042	-0,018
-603,371	-108,626	-0,099	-0,015
-602,357	243,179	0,079	0,097
-601,342	57,729	-0,023	0,016
-600,328	-200,000	-0,012	-0,078
-599,313	82,848	-0,029	-0,023
-598,298	-186,472	-0,077	0,001
-597,284	-59,661	-0,073	-0,023
-596,269	64,519	0,062	-0,046
-595,255	-5,418	0,135	0,068
-594,240	-200,000	-0,013	0,078
-593,225	7,184	-0,191	-0,104
-592,211	-200,000	-0,007	0,029
-591,196	-47,425	-0,102	0,036
-590,182	-99,499	0,044	-0,008
-589,167	-186,209	0,035	-0,000
-588,152	800,000	-0,047	-0,122
-587,138	83,410	-0,045	-0,036
-586,123	-200,000	0,039	0,234
-585,109	45,688	-0,136	-0,092
-584,094	54,795	0,044	0,031
-583,079	387,423	0,023	-0,035
-582,065	106,462	-0,123	-0,107
-581,050	-200,000	0,031	-0,140
-580,036	79,609	-0,140	0,110
-579,021	-200,000	0,018	-0,066
-578,006	-91,108	0,067	-0,014
-576,992	-200,000	-0,017	0,072
-575,977	168,938	-0,072	-0,075
-574,963	-200,000	0,004	0,023
-573,948	283,329	0,080	0,106
-572,934	-136,640	-0,102	0,008
-571,919	29,287	0,023	-0,014
-570,904	166,714	0,050	-0,051
-569,890	-64,083	0,052	-0,016
-568,875	-200,000	0,008	-0,055
-567,861	-142,836	0,187	0,013
-566,846	800,000	0,018	0,048
-565,831	-22,776	-0,113	-0,050
-564,817	-138,730	0,047	-0,004
-563,802	245,181	0,103	0,127
-562,788	70,438	0,021	-0,016
-561,773	259,891	-0,037	0,047
-560,758	202,195	-0,058	0,066
-559,744	-200,000	0,027	0,112
-558,729	-58,263	-0,117	0,037
-557,715	-200,000	0,017	-0,069
-556,700	66,082	-0,041	-0,030
-555,685	-30,007	-0,022	-0,009
-554,671	75,982	0,109	-0,084
-553,656	-200,000	0,002	0,028
-552,642	193,187	-0,084	0,093
-551,627	-103,208	0,078	-0,013
-550,612	130,560	0,064	-0,060
-549,598	-200,000	-0,013	-0,054
-548,583	5,399	-0,064	0,034
-547,569	294,275	0,109	-0,145
-546,554	311,592	0,047	-0,064
-545,539	436,861	0,083	-0,132
-544,525	19,222	-0,016	-0,009
-543,510	-64,559	0,073	-0,021
-542,496	173,727	-0,172	-0,181
-541,481	-200,000	0,005	-0,115
-540,466	35,514	0,066	-0,042
-539,452	87,870	0,095	0,077
-538,437	535,135	0,031	0,054
-537,423	-200,000	0,012	0,074
-536,408	-200,000	-0,000	-0,107
-535,393	-121,321	0,122	0,015
-534,379	-200,000	-0,019	0,131
-533,364	3,508	-0,107	0,057
-532,350	-98,352	0,060	0,011
-531,335	334,373	0,069	-0,098
-530,321	266,223	0,062	0,079
-529,306	-200,000	0,032	0,143
-528,291	-200,000	-0,000	-0,077
-527,277	-200,000	-0,013	-0,143
-526,262	-15,170	-0,107	-0,050
-525,248	-26,575	0,081	-0,034
-524,233	-130,640	0,182	-0,018
-523,218	-200,000	-0,010	0,189
-522,204	0,112	-0,086	-0,045
-521,189	-138,112	-0,094	-0,008
-520,175	108,364	0,095	-0,082
-519,160	-79,502	-0,020	-0,005
-518,145	731,310	0,041	0,081
-517,131	800,000	0,039	-0,105
-516,116	1,371	0,070	0,037
-515,102	387,841	-0,089	0,135
-514,087	276,664	0,027	0,035
-513,072	800,000	-0,041	-0,093
-512,058	23,027	-0,131	-0,078
-511,043	800,000	0,011	-0,033
-510,029	68,480	0,149	0,111
-509,014	183,992	-0,056	0,060
-507,999	35,461	-0,083	-0,053
-506,985	-139,249	0,043	-0,003
-505,970	-31,227	0,077	-0,031
-504,956	506,701	0,032	-0,055
-503,941	145,545	-0,025	-0,024
-502,926	49,110	-0,045	-0,031
-501,912	32,625	-0,021	0,013
-500,897	-8,996	0,069	-0,033
-499,883	-123,197	-0,029	-0,003
-498,868	-200,000	-0,015	-0,065
-497,853	-200,000	-0,000	-0,083
-496,839	-200,000	0,023	0,083
-495,824	800,000	0,069	0,178
-494,810	213,306	0,058	-0,067
-493,795	-115,133	-0,066	0,009
-492,781	267,368	-0,071	-0,090
-491,766	544,608	-0,087	-0,152
-490,751	106,818	-0,069	-0,059
-489,737	-200,000	0,012	-0,049
-488,722	86,520	0,026	-0,021
-487,708	-73,237	0,059	0,016
-486,693	-200,000	-0,026	0,095
-485,678	-84,269	-0,163	-0,037
-484,664	130,401	-0,126	-0,118
-483,649	456,789	0,040	-0,064
-482,635	18,966	-0,080	-0,047
-481,620	2,703	0,058	0,030
-480,605	10,688	0,027	0,015
-479,591	27,291	-0,083	0,050
-478,576	-200,000	0,010	0,078
-477,562	652,007	0,013	0,024
-476,547	54,962	-0,062	0,044
-475,532	216,908	-0,068	-0,079
-474,518	-44,278	-0,021	0,007
-473,503	-200,000	0,035	0,205
-472,489	-48,946	0,179	0,062
-471,474	219,800	0,083	0,097
-470,459	46,225	-0,040	-0,027
-469,445	82,420	0,016	0,012
-468,430	-83,953	-0,106	-0,024
-467,416	538,078	0,060	-0,103
-466,401	800,000	-0,016	-0,049
-465,386	756,214	0,059	0,117
-464,372	-126,350	-0,028	0,003
-463,357	496,335	-0,030	-0,050
-462,343	-200,000	-0,013	-0,062
-461,328	-200,000	0,032	-0,118
-460,313	261,139	0,117	-0,147
-459,299	427,470	-0,061	0,096
-458,284	42,320	0,029	0,019
-457,270	117,333	-0,036	0,032
-456,255	207,106	0,076	-0,086
-455,241	-134,436	-0,113	-0,010
-454,226	-200,000	0,006	-0,049
-453,211	303,800	0,019	-0,026
-452,197	800,000	0,022	-0,068
-451,182	78,563	0,065	0,050
-450,168	800,000	0,021	-0,053
-449,153	587,287	0,059	-0,106
-448,138	-160,031	-0,189	0,007
-447,124	-200,000	-0,007	-0,052
-446,109	238,569	-0,053	-0,064
-445,095	67,348	0,148	0,110
-444,080	800,000	0,052	0,162
-443,065	254,701	-0,010	-0,013
-442,051	800,000	-0,034	-0,091
-441,036	119,903	0,155	-0,140
-440,022	-69,300	-0,080	0,022
-439,007	92,959	-0,041	0,034
-437,992	0,468	0,132	-0,068
-436,978	800,000	-0,024	0,051
-435,963	800,000	-0,029	-0,068
-434,949	-19,593	-0,070	-0,031
-433,934	41,220	-0,091	-0,060
-432,919	136,367	-0,134	-0,127
-431,905	800,000	0,012	-0,032
-430,890	222,457	0,104	-0,122
-429,876	-20,696	0,073	0,032
-428,861	-112,659	-0,047	-0,007
-427,846	800,000	0,031	-0,066
-426,832	-200,000	0,037	0,121
-425,817	-178,863	0,170	0,003
-424,803	34,073	0,058	-0,037
-423,788	107,807	0,016	-0,014
-422,773	-200,000	0,013	-0,050
-421,759	173,361	0,090	-0,095
-420,744	-124,897	-0,061	0,007
-419,730	124,593	-0,071	0,065
-418,715	800,000	-0,043	-0,092
-417,701	17,726	0,048	-0,028
-416,686	43,501	-0,014	-0,009
-415,671	392,376	0,046	0,069
-414,657	-77,704	-0,058	-0,014
-413,642	800,000	-0,039	0,122
-412,628	-200,000	-0,012	0,040
-411,613	-200,000	0,009	0,133
-410,598	-200,000	-0,019	-0,079
-409,584	69,553	0,058	-0,043
-408,569	800,000	-0,032	0,082
-407,555	195,449	0,048	0,053
-406,540	-99,435	0,108	0,020
-405,525	-200,000	0,002	-0,074
-404,511	800,000	-0,039	-0,111
-403,496	-200,000	0,027	-0,142
-402,482	-185,444	0,063	-0,001
-401,467	554,451	-0,032	0,056
-400,452	28,407	0,099	0,060
-399,438	24,516	0,041	0,025
-398,423	-172,949	-0,102	0,002
-397,409	169,817	-0,024	0,025
-396,394	-128,314	-0,107	-0,011
-395,379	-86,635	0,046	-0,010
-394,365	-68,665	-0,178	0,050
-393,350	634,270	0,055	0,102
-392,336	-200,000	-0,016	-0,107
-391,321	-141,063	-0,089	0,007
-390,306	800,000	0,051	-0,129
-389,292	-200,000	-0,012	0,049
-388,277	-25,630	0,092	-0,039
-387,263	523,707	0,080	0,137
-386,248	800,000	-0,025	0,059
-385,233	233,064	-0,052	-0,062
-384,219	-158,882	0,073	-0,003
-383,204	-200,000	0,004	-0,100
-382,190	211,500	0,095	0,108
-381,175	-113,904	-0,004	0,001
-380,160	-24,838	0,185	0,079
-379,146	800,000	-0,037	-0,096
-378,131	60,013	-0,038	0,027
-377,117	4,670	-0,066	0,035
-376,102	68,240	0,080	0,059
-375,088	-200,000	-0,020	0,099
-374,073	-45,520	0,111	-0,040
-373,058	49,660	0,049	0,033
-372,044	-70,398	0,136	0,037
-371,029	113,315	-0,059	-0,052
-370,015	800,000	0,042	0,117
-369,000	5,458	-0,056	0,030
-367,985	-200,000	0,004	0,032
-366,971	-118,400	0,086	-0,011
-365,956	405,630	0,074	-0,114
-364,942	-97,236	-0,015	0,003
-363,927	-200,000	0,018	0,086
-362,912	800,000	-0,053	-0,118
-361,898	324,374	0,069	-0,096
-360,883	800,000	0,027	-0,082
-359,869	-73,081	0,144	0,038
-358,854	-43,704	0,057	0,021
-357,839	800,000	0,022	0,046
-356,825	-200,000	0,004	0,020
-355,810	-126,498	-0,093	-0,010
-354,796	-146,334	-0,158	0,010
-353,781	800,000	-0,012	-0,029
-352,766	-82,193	-0,105	-0,024
-351,752	-200,000	0,017	0,057
-350,737	-200,000	-0,009	0,057
-349,723	197,049	0,034	0,038
-348,708	800,000	0,038	0,105
-347,693	85,328	0,070	0,056
-346,679	-51,806	-0,116	-0,039
-345,664	-200,000	0,007	-0,094
-344,650	161,064	-0,082	-0,084
-343,635	-133,521	0,196	0,018
-342,620	518,586	0,019	-0,032
-341,606	20,219	-0,057	-0,033
-340,591	-103,962	0,130	-0,022
-339,577	34,745	-0,073	0,046
-338,562	169,632	-0,074	0,077
-337,548	800,000	-0,008	-0,022
-336,533	-105,135	0,040	0,007
-335,518	800,000	-0,043	0,130
-334,504	-200,000	0,001	0,056
-333,489	282,961	0,029	0,038
-332,475	327,716	-0,058	0,081
-331,460	-200,000	0,026	-0,101
-330,445	-200,000	0,010	0,086
-329,431	105,983	0,052	0,044
-328,416	48,437	0,031	0,021
-327,402	800,000	-0,016	0,051
-326,387	-34,893	0,082	0,032
-325,372	-4,677	-0,073	-0,036
-324,358	105,912	-0,023	0,020
-323,343	319,811	0,064	-0,089
-322,329	151,821	0,028	-0,028
-321,314	-200,000	-0,019	0,078
-320,299	800,000	-0,008	0,019
-319,285	-123,515	0,103	0,012
-318,270	-200,000	0,002	-0,076
-317,256	136,937	-0,130	-0,123
-316,241	-156,162	0,091	-0,004
-315,226	-200,000	0,044	-0,171
-314,212	25,605	0,004	0,002
-313,197	40,110	-0,125	-0,081
-312,183	-98,253	0,078	0,014
-311,168	800,000	0,020	0,058
-310,153	79,758	0,008	0,006
-309,139	101,363	-0,032	-0,027
-308,124	93,652	0,054	0,044
-307,110	4,982	0,129	0,069
-306,095	-89,474	-0,037	0,008
-305,080	278,681	0,012	0,016
-304,066	-80,695	-0,127	0,030
-303,051	800,000	-0,082	-0,217
-302,037	-139,417	0,058	-0,004
-301,022	315,074	-0,053	0,072
-300,008	38,670	0,062	-0,040
-298,993	800,000	0,014	-0,030
-297,978	800,000	-0,073	0,160
-296,964	-23,632	-0,110	-0,047
-295,949	431,423	-0,042	-0,066
-294,935	800,000	-0,065	-0,140
-293,920	-200,000	0,005	-0,133
-292,905	-17,310	0,046	-0,021
-291,891	-94,298	0,091	0,018
-290,876	-200,000	-0,001	0,029
-289,862	800,000	-0,023	0,050
-288,847	3,097	-0,052	-0,027
-287,832	-14,583	-0,047	0,022
-286,818	800,000	0,064	-0,147
-285,803	654,143	0,042	-0,078
-284,789	239,807	0,085	0,102
-283,774	246,379	-0,049	0,059
-282,759	-33,340	0,134	0,053
-281,745	-56,726	-0,142	-0,045
-280,730	212,056	-0,068	-0,078
-279,716	-3,274	0,081	0,040
-278,701	582,272	-0,029	0,052
-277,686	-116,640	0,112	-0,015
-276,672	-200,000	0,004	0,077
-275,657	-200,000	0,028	0,181
-274,643	348,090	-0,064	0,092
-273,628	-200,000	0,019	0,062
-272,613	800,000	0,040	-0,088
-271,599	116,235	0,128	0,113
-270,584	-200,000	-0,003	0,098
-269,570	-200,000	-0,009	-0,101
-268,555	-200,000	-0,014	0,084
-267,540	-2,541	-0,064	0,032
-266,526	-10,114	0,041	0,020
-265,511	-87,935	-0,097	-0,021
-264,497	554,772	0,013	-0,023
-263,482	800,000	0,008	0,020
-262,467	-49,390	-0,053	0,018
-261,453	59,392	-0,081	0,057
-260,438	-101,576	0,127	0,022
-259,424	-19,516	-0,085	-0,038
-258,409	-200,000	0,017	-0,153
-257,395	800,000	0,032	0,064
-256,380	225,430	-0,052	0,061
-255,365	-200,000	0,006	0,140
-254,351	49,499	0,017	0,012
-253,336	800,000	-0,010	-0,025
-252,322	3,182	-0,037	-0,019
-251,307	334,210	-0,044	0,061
-250,292	-26,737	-0,029	-0,012
-249,278	-114,480	-0,079	-0,011
-248,263	105,573	0,061	0,052
-247,249	-200,000	-0,009	-0,034
-246,234	-200,000	0,012	0,079
-245,219	422,266	-0,062	-0,096
-244,205	320,816	-0,030	0,041
-243,190	-65,031	0,114	0,033
-242,176	194,413	-0,082	0,090
-241,161	-56,764	-0,202	0,064
-240,146	-60,799	-0,041	-0,012
-239,132	-140,802	-0,046	0,003
-238,117	-200,000	-0,004	0,044
-237,103	-200,000	-0,032	-0,157
-236,088	687,862	-0,019	0,036
-235,073	25,462	0,142	0,085
-234,059	273,432	0,077	0,099
-233,044	-200,000	-0,010	-0,060
-232,030	-200,000	-0,024	0,169
-231,015	9,807	-0,096	-0,052
-230,000	-200,000	0,003	-0,018
-228,986	-106,729	-0,121	-0,019
-227,971	-29,712	-0,075	-0,031
-226,957	-91,949	-0,076	-0,015
-225,942	171,301	0,058	-0,060
-224,927	-200,000	0,021	-0,140
-223,913	48,058	-0,188	-0,126
-222,898	574,868	0,027	-0,047
-221,884	-101,007	-0,073	0,013
-220,869	426,343	0,049	0,076
-219,855	773,706	0,074	0,146
-218,840	-200,000	0,001	0,121
-217,825	-200,000	-0,206	-0,001
-216,811	262,634	0,073	0,091
-215,796	30,630	-0,016	-0,010
-214,782	-200,000	-0,008	-0,141
-213,767	-62,687	0,091	-0,027
-212,752	-200,000	0,001	0,018
-211,738	34,419	0,108	-0,068
-210,723	800,000	0,034	0,088
-209,709	-200,000	-0,015	0,140
-208,694	800,000	-0,051	-0,129
-207,679	-200,000	-0,032	-0,122
-206,665	33,379	-0,068	-0,043
-205,650	-36,783	-0,093	0,036
-204,636	-1,294	-0,075	0,038
-203,621	334,189	0,068	0,095
-202,606	800,000	-0,027	0,083
-201,592	-66,370	-0,103	0,029
-200,577	-75,004	-0,076	-0,020
-199,563	-200,000	-0,003	-0,076
-198,548	61,539	0,111	0,080
-197,533	-71,330	0,133	-0,036
-196,519	800,000	0,014	0,031
-195,504	-106,030	0,049	0,008
-194,490	-58,705	-0,059	0,018
-193,475	88,612	-0,042	0,034
-192,460	-188,124	0,093	-0,001
-191,446	800,000	-0,050	0,147
-190,431	595,905	-0,041	0,073
-189,417	-130,999	-0,037	-0,003
-188,402	-85,316	0,066	0,015
-187,387	451,107	0,031	0,050
-186,373	800,000	-0,039	0,101
-185,358	135,921	-0,024	0,023
-184,344	-200,000	-0,017	0,088
-183,329	234,411	0,103	0,122
-182,315	-117,976	0,027	-0,003
-181,300	207,396	-0,018	0,020
-180,285	800,000	0,039	-0,094
-179,271	-16,111	0,075	-0,034
-178,256	57,890	-0,075	0,053
-177,242	608,441	-0,040	0,072
-176,227	-125,052	-0,052	0,006
-175,212	800,000	0,024	-0,072
-174,198	103,653	0,055	0,047
-173,183	33,321	-0,076	0,047
-172,169	-200,000	-0,015	-0,086
-171,154	-200,000	-0,002	0,086
-170,139	-127,745	0,139	0,014
-169,125	93,264	0,155	0,126
-168,110	-200,000	-0,001	-0,020
-167,096	-102,750	0,010	-0,002
-166,081	-200,000	-0,005	-0,093
-165,066	-200,000	0,043	-0,150
-164,052	-75,218	-0,180	-0,046
-163,037	800,000	-0,025	-0,055
-162,023	178,179	-0,053	-0,056
-161,008	-41,696	0,124	0,045
-159,993	54,871	0,009	0,006
-158,979	-150,814	-0,019	-0,001
-157,964	800,000	0,038	-0,089
-156,950	-106,551	-0,142	-0,023
-155,935	800,000	0,057	0,160
-154,920	-200,000	0,017	0,093
-153,906	800,000	-0,043	-0,095
-152,891	196,538	-0,064	0,070
-151,877	36,851	0,089	-0,056
-150,862	-167,582	-0,086	-0,002
-149,847	800,000	0,051	-0,143
-148,833	-200,000	0,003	-0,102
-147,818	-200,000	0,020	-0,198
-146,804	146,758	0,018	0,017
-145,789	800,000	-0,053	-0,113
-144,775	-30,205	-0,103	0,042
-143,760	2,327	-0,103	-0,053
-142,745	-188,073	-0,032	0,000
-141,731	-200,000	0,014	-0,132
-140,716	-200,000	-0,026	-0,102
-139,702	461,642	-0,065	-0,105
-138,687	-57,955	0,064	0,020
-137,672	-200,000	0,033	-0,149
-136,658	-56,113	-0,168	-0,053
-135,643	-200,000	0,037	-0,241
-134,629	-98,488	-0,127	0,023
-133,614	-200,000	0,003	-0,014
-132,599	800,000	0,020	-0,051
-131,585	240,264	-0,028	-0,033
-130,570	628,985	-0,052	-0,095
-129,556	-43,677	0,103	0,037
-128,541	-200,000	0,007	-0,218
-127,526	328,528	0,056	0,078
-126,512	248,866	-0,031	0,037
-125,497	-200,000	-0,024	0,084
-124,483	800,000	0,024	-0,055
-123,468	85,919	-0,069	-0,055
-122,453	46,492	-0,137	-0,091
-121,439	-200,000	-0,022	0,169
-120,424	36,596	0,066	0,042
-119,410	366,163	0,040	0,058
-118,395	-164,423	0,211	0,007
