DTS Sentinel unit serial number:	SN410029Multiplexer serial number:	ORYXHardware model number:	OX2-SRSoftware version number:	ORYX F/W v4,00 Oryx Data Collector v3.7.2.0data status	okinstallation	B6 Nyhavnadifferential loss correction	single-endedforward channel	channel 2reverse channel	N/Adate	2023/12/09time	16:35:08forward acquisition time	300,00reverse acquisition time	0,00gamma	499,1914k internal	0,3132k external	0,3132temperature offset calibration	1,0000default loss term (dB/km)	0,3820temperature slope calibration	1,0000multiplexer offset coefficient	1,0000multiplexer slope coefficient	1,0000fibre end	0,00T internal ref (°C)	20,89T ext. ref 1 (°C)	4,69T ext. ref 2 (°C)	4,68length (m)	temperature (°C)	Stokes	anti-Stokes-744,400	449,192	0,086	-0,142
-743,385	-15,683	-0,217	0,103
-742,371	-1,244	0,196	0,103
-741,356	-3,676	-0,187	0,096
-740,342	151,934	0,040	-0,040
-739,327	-156,241	-0,310	0,014
-738,312	340,396	0,116	-0,168
-737,298	-126,779	-0,425	-0,046
-736,283	375,120	0,077	-0,118
-735,269	-15,718	-0,229	0,108
-734,254	-100,873	0,022	-0,004
-733,239	-126,456	-0,432	-0,047
-732,225	221,090	0,062	0,074
-731,210	125,407	-0,013	-0,012
-730,196	800,000	-0,071	-0,216
-729,181	-147,609	-0,210	0,013
-728,167	-157,000	0,014	0,001
-727,152	800,000	-0,063	-0,155
-726,137	-200,000	0,000	0,079
-725,123	434,418	-0,042	-0,068
-724,108	-71,948	-0,074	-0,020
-723,094	9,485	0,011	-0,006
-722,079	-6,173	-0,088	-0,044
-721,064	-121,874	-0,124	-0,015
-720,050	-200,000	-0,018	-0,076
-719,035	95,788	-0,102	0,086
-718,021	255,291	-0,018	-0,023
-717,006	-200,000	-0,129	0,000
-715,991	88,463	-0,167	-0,137
-714,977	800,000	0,017	-0,050
-713,962	-200,000	-0,017	0,118
-712,948	-177,574	0,060	0,001
-711,933	-200,000	-0,017	-0,075
-710,918	-66,220	-0,045	-0,013
-709,904	-82,412	0,026	0,006
-708,889	378,440	-0,077	-0,117
-707,875	72,920	-0,147	-0,114
-706,860	-200,000	-0,038	-0,129
-705,845	-200,000	0,008	0,050
-704,831	323,062	0,035	0,050
-703,816	-109,005	-0,021	0,003
-702,802	50,772	-0,080	0,056
-701,787	137,597	-0,054	-0,053
-700,772	-145,113	0,032	0,002
-699,758	465,987	0,052	0,086
-698,743	412,178	-0,036	0,056
-697,729	235,037	0,065	0,079
-696,714	373,442	-0,045	-0,069
-695,699	-156,564	-0,093	-0,004
-694,685	550,458	-0,037	0,066
-693,670	258,722	-0,021	0,026
-692,656	10,485	0,027	0,015
-691,641	-49,526	0,021	-0,007
-690,627	103,032	0,078	0,068
-689,612	-128,028	0,060	-0,006
-688,597	-200,000	0,013	0,144
-687,583	262,893	-0,094	-0,121
-686,568	-11,017	-0,054	-0,026
-685,554	1,137	-0,114	0,061
-684,539	129,721	-0,055	-0,052
-683,524	25,765	0,033	-0,020
-682,510	-98,530	0,022	0,004
-681,495	-147,209	-0,149	-0,009
-680,481	-200,000	-0,038	0,000
-679,466	-29,923	-0,095	-0,040
-678,451	-200,000	-0,009	-0,042
-677,437	800,000	0,026	-0,077
-676,422	-33,352	-0,091	-0,037
-675,408	-73,154	-0,068	-0,018
-674,393	45,381	-0,107	-0,073
-673,378	-200,000	0,036	-0,149
-672,364	-200,000	0,033	-0,138
-671,349	153,713	-0,051	0,052
-670,335	11,011	-0,061	0,034
-669,320	-200,000	0,041	-0,192
-668,305	-131,230	0,066	-0,006
-667,291	112,926	0,060	0,054
-666,276	-90,511	0,033	-0,007
-665,262	-113,553	-0,102	0,015
-664,247	-17,329	-0,140	-0,065
-663,232	12,713	-0,085	0,049
-662,218	50,499	-0,052	-0,036
-661,203	670,250	-0,054	0,104
-660,189	-186,618	-0,114	0,001
-659,174	800,000	-0,062	-0,183
-658,159	-200,000	-0,014	-0,052
-657,145	56,229	-0,067	-0,048
-656,130	-200,000	0,011	0,065
-655,116	-50,233	0,057	0,020
-654,101	39,789	0,085	0,056
-653,086	800,000	0,034	-0,091
-652,072	165,510	-0,046	-0,048
-651,057	800,000	0,036	-0,110
-650,043	-106,385	-0,075	-0,012
-649,028	61,858	0,105	0,077
-648,014	-53,373	-0,062	-0,021
-646,999	37,973	0,114	0,075
-645,984	-200,000	-0,021	-0,073
-644,970	-7,883	0,100	-0,050
-643,955	0,248	-0,122	0,064
-642,941	-171,491	-0,098	0,002
-641,926	208,837	0,104	-0,121
-640,911	44,999	-0,181	-0,123
-639,897	61,060	0,074	-0,054
-638,882	-200,000	-0,022	-0,134
-637,868	431,584	-0,043	0,070
-636,853	48,601	-0,037	-0,026
-635,838	800,000	-0,032	-0,100
-634,824	800,000	-0,021	0,045
-633,809	-132,061	-0,071	-0,007
-632,795	800,000	-0,018	-0,041
-631,780	800,000	0,032	-0,082
-630,765	-61,274	0,074	-0,023
-629,751	800,000	-0,070	0,211
-628,736	-70,069	0,129	-0,036
-627,722	-17,234	0,117	-0,055
-626,707	-21,552	0,112	-0,051
-625,692	-200,000	-0,020	-0,115
-624,678	120,185	0,059	0,055
-623,663	800,000	0,079	0,174
-622,649	119,485	-0,009	-0,008
-621,634	-200,000	-0,011	0,146
-620,619	170,922	-0,079	-0,084
-619,605	-1,138	-0,089	0,046
-618,590	-45,417	0,023	0,008
-617,576	174,866	0,048	-0,051
-616,561	339,426	-0,082	-0,118
-615,546	-200,000	0,002	0,021
-614,532	-179,015	0,093	0,002
-613,517	285,290	-0,091	-0,122
-612,503	237,725	0,038	0,047
-611,488	-117,391	0,078	0,010
-610,474	53,046	-0,140	-0,099
-609,459	78,955	0,088	0,069
-608,444	800,000	0,064	-0,132
-607,430	-64,256	-0,113	-0,034
-606,415	-200,000	0,008	0,057
-605,401	63,709	0,049	0,036
-604,386	-200,000	0,039	0,138
-603,371	-200,000	-0,008	-0,153
-602,357	-200,000	-0,005	0,089
-601,342	-200,000	-0,009	-0,085
-600,328	73,987	-0,123	-0,095
-599,313	-166,887	-0,081	-0,002
-598,298	-200,000	0,000	0,068
-597,284	800,000	0,009	0,028
-596,269	-200,000	-0,014	0,077
-595,255	49,003	-0,126	0,088
-594,240	525,588	-0,069	-0,121
-593,225	393,621	-0,042	-0,065
-592,211	566,139	-0,113	-0,203
-591,196	-117,690	0,118	0,016
-590,182	-185,241	0,049	-0,001
-589,167	800,000	0,051	0,121
-588,152	-44,965	0,075	0,027
-587,138	-98,027	0,097	0,018
-586,123	220,033	-0,048	-0,057
-585,109	-200,000	-0,029	-0,193
-584,094	800,000	-0,049	-0,105
-583,079	800,000	-0,033	0,081
-582,065	244,418	0,058	0,072
-581,050	215,385	-0,057	0,066
-580,036	391,382	-0,054	-0,083
-579,021	152,637	0,097	-0,098
-578,006	52,856	0,022	-0,015
-576,992	-133,796	0,112	-0,010
-575,977	-8,388	0,039	-0,019
-574,963	85,594	0,147	-0,119
-573,948	800,000	-0,030	-0,078
-572,934	-200,000	-0,012	0,057
-571,919	374,326	0,017	-0,026
-570,904	-95,990	-0,060	0,012
-569,890	800,000	0,030	-0,095
-568,875	-200,000	-0,040	-0,206
-567,861	800,000	0,045	0,118
-566,846	101,884	0,081	0,070
-565,831	453,699	-0,031	0,051
-564,817	-200,000	0,011	-0,108
-563,802	-200,000	0,005	-0,035
-562,788	-77,183	-0,048	-0,012
-561,773	-200,000	-0,017	0,122
-560,758	-200,000	0,005	-0,079
-559,744	-92,403	0,138	-0,028
-558,729	800,000	0,052	0,115
-557,715	258,809	0,008	-0,010
-556,700	274,092	-0,074	0,097
-555,685	-26,897	-0,086	-0,037
-554,671	87,493	-0,107	-0,087
-553,656	-44,877	0,066	-0,024
-552,642	800,000	0,020	0,042
-551,627	-200,000	0,029	0,112
-550,612	-38,328	-0,090	0,035
-549,598	-200,000	0,010	-0,128
-548,583	103,158	0,044	-0,038
-547,569	-65,562	-0,082	-0,024
-546,554	-200,000	0,017	-0,117
-545,539	-74,792	-0,051	0,013
-544,525	356,684	0,020	0,030
-543,510	-159,018	0,084	0,003
-542,496	62,939	-0,088	-0,065
-541,481	379,797	-0,053	-0,081
-540,466	-183,278	-0,076	0,001
-539,452	-20,029	0,161	-0,073
-538,437	-200,000	-0,000	0,157
-537,423	0,869	-0,123	0,065
-536,408	56,766	-0,053	-0,038
-535,393	23,850	-0,072	-0,044
-534,379	-200,000	0,007	0,038
-533,364	-200,000	0,026	-0,133
-532,350	-102,894	0,052	0,009
-531,335	-107,011	-0,015	0,002
-530,321	-200,000	0,021	-0,090
-529,306	509,638	0,069	-0,118
-528,291	-200,000	-0,003	0,024
-527,277	12,286	-0,150	-0,085
-526,262	190,200	0,102	-0,113
-525,248	445,499	0,093	0,151
-524,233	800,000	0,010	-0,021
-523,218	-60,882	-0,057	0,018
-522,204	-35,266	-0,072	0,029
-521,189	800,000	0,023	0,050
-520,175	-87,364	-0,080	-0,018
-519,160	-130,273	0,062	0,006
-518,145	-27,738	0,074	0,031
-517,131	-120,947	-0,045	-0,006
-516,116	141,359	-0,011	-0,010
-515,102	-200,000	0,001	0,061
-514,087	778,403	-0,046	-0,093
-513,072	-5,066	-0,092	-0,046
-512,058	-141,751	-0,103	0,008
-511,043	-98,425	-0,016	0,003
-510,029	-200,000	-0,018	-0,115
-509,014	800,000	0,034	0,103
-507,999	157,804	-0,034	-0,034
-506,985	-14,389	-0,083	0,039
-505,970	1,211	-0,065	-0,034
-504,956	232,384	-0,118	0,143
-503,941	800,000	-0,018	-0,043
-502,926	-53,238	0,144	-0,048
-501,912	226,295	0,074	0,089
-500,897	-86,334	0,141	-0,032
-499,883	-20,069	-0,120	-0,054
-498,868	74,075	-0,138	-0,107
-497,853	-200,000	0,002	-0,089
-496,839	-153,655	0,089	-0,004
-495,824	26,530	0,084	-0,052
-494,810	668,353	-0,046	0,088
-493,795	-78,299	-0,143	-0,036
-492,781	-200,000	0,015	-0,056
-491,766	-120,579	-0,072	-0,009
-490,751	800,000	0,026	-0,058
-489,737	-200,000	-0,017	-0,155
-488,722	-138,142	0,067	0,005
-487,708	316,810	0,034	-0,047
-486,693	-131,315	0,025	0,002
-485,678	127,253	0,056	-0,052
-484,664	-106,314	-0,147	0,024
-483,649	-155,943	-0,129	0,006
-482,635	-108,410	-0,072	-0,011
-481,620	795,642	-0,042	-0,085
-480,605	-95,376	0,087	0,017
-479,591	-200,000	-0,008	0,120
-478,576	-199,985	-0,150	0,001
-477,562	-200,000	-0,043	-0,141
-476,547	-91,873	-0,109	0,022
-475,532	227,145	-0,091	-0,109
-474,518	800,000	-0,038	-0,099
-473,503	689,515	-0,031	0,061
-472,489	-200,000	-0,017	0,087
-471,474	800,000	0,009	-0,025
-470,459	-200,000	-0,002	-0,100
-469,445	-135,476	-0,169	-0,015
-468,430	-200,000	0,001	-0,049
-467,416	31,086	0,160	-0,101
-466,401	430,086	0,022	-0,035
-465,386	179,137	-0,065	0,070
-464,372	376,058	-0,031	-0,047
-463,357	800,000	-0,035	-0,078
-462,343	-200,000	-0,001	-0,122
-461,328	-200,000	0,000	-0,146
-460,313	215,561	0,070	-0,082
-459,299	300,472	0,031	-0,043
-458,284	208,829	-0,059	-0,068
-457,270	-200,000	-0,002	0,036
-456,255	71,326	-0,047	-0,036
-455,241	-138,804	-0,164	-0,013
-454,226	187,675	-0,041	-0,044
-453,211	463,255	0,050	-0,082
-452,197	280,925	-0,016	0,021
-451,182	2,112	0,100	0,053
-450,168	-200,000	0,016	0,078
-449,153	-164,390	0,055	0,002
-448,138	800,000	0,015	-0,036
-447,124	53,262	-0,079	-0,055
-446,109	280,895	0,096	0,126
-445,095	348,550	0,038	-0,055
-444,080	-3,874	0,055	-0,028
-443,065	-111,722	0,052	-0,008
-442,051	110,134	0,091	-0,080
-441,036	-200,000	0,009	0,071
-440,022	800,000	-0,044	0,107
-439,007	-200,000	0,018	0,113
-437,992	-6,954	0,053	-0,026
-436,978	800,000	0,039	0,099
-435,963	800,000	0,058	0,128
-434,949	15,149	-0,148	-0,085
-433,934	185,189	-0,045	-0,049
-432,919	-41,935	0,075	-0,028
-431,905	-200,000	0,030	0,099
-430,890	89,407	0,048	-0,039
-429,876	800,000	0,045	0,094
-428,861	800,000	0,033	0,102
-427,846	52,805	-0,027	0,019
-426,832	-200,000	-0,016	0,058
-425,817	-156,050	0,071	-0,003
-424,803	288,367	0,008	0,011
-423,788	203,319	0,146	-0,166
-422,773	-200,000	0,011	0,125
-421,759	38,816	-0,077	0,050
-420,744	751,679	0,045	-0,090
-419,730	-154,274	0,049	-0,002
-418,715	-25,234	0,137	0,059
-417,701	-200,000	0,000	0,085
-416,686	-129,346	0,012	0,001
-415,671	-119,842	0,155	0,019
-414,657	-42,889	0,056	0,021
-413,642	-200,000	-0,007	0,078
-412,628	-37,522	-0,080	0,031
-411,613	-33,628	0,053	-0,021
-410,598	-99,265	-0,119	-0,022
-409,584	49,639	0,072	-0,049
-408,569	772,579	0,066	0,133
-407,555	109,945	-0,033	-0,029
-406,540	-88,040	0,017	0,004
-405,525	-200,000	-0,004	0,057
-404,511	-66,513	-0,130	0,038
-403,496	-200,000	-0,003	-0,091
-402,482	-200,000	0,025	-0,108
-401,467	-134,377	0,195	-0,017
-400,452	7,580	0,039	-0,021
-399,438	-60,063	-0,067	0,021
-398,423	-200,000	-0,002	0,027
-397,409	280,504	-0,155	0,204
-396,394	-111,840	-0,025	0,004
-395,379	230,740	0,040	-0,048
-394,365	-142,116	-0,072	0,005
-393,350	15,942	0,151	0,087
-392,336	800,000	-0,021	-0,046
-391,321	800,000	-0,036	-0,085
-390,306	-43,240	-0,081	-0,030
-389,292	168,717	-0,065	0,068
-388,277	-200,000	0,015	-0,121
-387,263	224,718	0,067	-0,080
-386,248	101,705	0,076	0,065
-385,233	-120,115	-0,048	-0,006
-384,219	-200,000	0,001	0,082
-383,204	-13,622	0,008	0,004
-382,190	800,000	-0,019	0,039
-381,175	800,000	-0,032	0,078
-380,160	-149,829	-0,103	0,006
-379,146	800,000	-0,012	0,028
-378,131	-7,850	-0,068	0,034
-377,117	257,213	0,095	0,120
-376,102	243,812	0,069	-0,085
-375,088	800,000	-0,018	-0,050
-374,073	800,000	-0,035	0,096
-373,058	73,672	-0,096	0,074
-372,044	-61,715	-0,058	0,018
-371,029	182,146	0,113	0,122
-370,015	-107,936	-0,067	-0,010
-369,000	84,374	-0,040	0,032
-367,985	-42,812	0,077	0,028
-366,971	-88,855	-0,069	-0,015
-365,956	-67,860	0,163	-0,046
-364,942	272,559	0,018	-0,024
-363,927	800,000	0,057	0,131
-362,912	-200,000	0,002	0,068
-361,898	107,801	-0,064	0,056
-360,883	-200,000	0,006	0,030
-359,869	800,000	-0,019	0,058
-358,854	-13,821	0,040	0,019
-357,839	144,508	-0,029	0,028
-356,825	124,733	0,055	0,051
-355,810	231,017	-0,032	0,038
-354,796	178,893	0,062	-0,067
-353,781	5,294	0,015	-0,008
-352,766	-49,212	-0,148	0,051
-351,752	800,000	0,015	0,036
-350,737	-50,428	-0,051	0,018
-349,723	29,302	0,049	0,030
-348,708	-200,000	-0,001	0,112
-347,693	-171,734	0,095	0,002
-346,679	-69,931	-0,184	-0,051
-345,664	-12,298	0,055	0,026
-344,650	279,211	0,030	0,040
-343,635	-7,887	0,076	-0,037
-342,620	-4,645	0,020	-0,010
-341,606	-145,176	-0,235	-0,015
-340,591	194,815	0,049	-0,055
-339,577	455,264	-0,066	-0,107
-338,562	-200,000	-0,002	-0,118
-337,548	800,000	0,029	-0,076
-336,533	-200,000	0,070	0,234
-335,518	352,141	0,105	0,152
-334,504	-98,970	-0,088	-0,016
-333,489	204,215	-0,074	0,084
-332,475	337,528	-0,043	-0,062
-331,460	322,245	0,030	0,041
-330,445	800,000	0,039	-0,083
-329,431	-103,734	0,163	-0,028
-328,416	-17,158	-0,051	-0,023
-327,402	122,062	-0,078	0,071
-326,387	510,751	0,072	-0,123
-325,372	439,914	-0,014	-0,023
-324,358	-200,000	-0,007	0,046
-323,343	387,802	-0,031	0,047
-322,329	-130,998	0,058	0,006
-321,314	-200,000	0,013	0,111
-320,299	5,821	-0,069	-0,037
-319,285	-200,000	0,020	0,102
-318,270	-115,138	-0,105	0,014
-317,256	-200,000	-0,007	-0,027
-316,241	-200,000	0,013	0,099
-315,226	-26,834	-0,036	-0,015
-314,212	-82,192	-0,127	0,030
-313,197	-7,744	0,100	0,049
-312,183	-98,476	-0,167	0,031
-311,168	800,000	0,017	-0,054
-310,153	-68,698	-0,113	0,032
-309,139	-76,803	-0,039	0,010
-308,124	45,578	0,060	0,041
-307,110	-7,131	0,189	0,093
-306,095	43,655	0,070	-0,047
-305,080	-200,000	-0,006	-0,096
-304,066	800,000	0,052	0,122
-303,051	-65,130	0,066	0,019
-302,037	13,252	0,083	0,047
-301,022	-200,000	-0,013	-0,115
-300,008	87,997	-0,036	0,029
-298,993	-200,000	-0,016	0,167
-297,978	-200,000	0,004	0,032
-296,964	-200,000	0,025	-0,081
-295,949	17,139	0,015	-0,009
-294,935	102,146	-0,026	-0,022
-293,920	701,650	-0,042	0,081
-292,905	-200,000	0,004	0,056
-291,891	593,557	-0,032	-0,059
-290,876	-20,132	0,043	-0,019
-289,862	196,172	-0,064	-0,071
-288,847	-105,803	-0,036	0,006
-287,832	800,000	0,024	0,060
-286,818	800,000	-0,013	0,030
-285,803	-85,684	-0,064	0,014
-284,789	-66,411	-0,087	-0,025
-283,774	-200,000	0,008	0,040
-282,759	179,707	0,050	0,053
-281,745	-108,664	0,045	-0,007
-280,730	-200,000	-0,022	-0,108
-279,716	800,000	-0,014	0,031
-278,701	-8,305	0,118	-0,058
-277,686	800,000	0,024	-0,052
-276,672	-200,000	0,014	0,078
-275,657	-200,000	0,011	0,090
-274,643	436,320	0,037	-0,058
-273,628	-98,332	-0,112	-0,021
-272,613	-111,314	0,037	-0,005
-271,599	200,678	0,059	-0,066
-270,584	-18,240	-0,155	-0,070
-269,570	-200,000	-0,009	0,042
-268,555	-200,000	0,014	-0,135
-267,540	-200,000	0,017	0,150
-266,526	-115,280	0,119	0,016
-265,511	-80,012	0,058	0,014
-264,497	-110,644	0,203	0,030
-263,482	395,324	0,015	0,023
-262,467	-134,526	-0,130	0,011
-261,453	67,116	0,100	0,074
-260,438	-200,000	-0,018	0,091
-259,424	20,050	-0,064	-0,038
-258,409	-16,086	0,025	0,012
-257,395	800,000	0,026	0,063
-256,380	-25,550	-0,031	-0,013
-255,365	-85,715	0,172	0,039
-254,351	-188,240	0,014	-0,000
-253,336	416,067	0,010	0,016
-252,322	286,619	-0,045	-0,059
-251,307	94,670	-0,078	-0,065
-250,292	-34,689	0,075	-0,030
-249,278	444,077	0,067	0,107
-248,263	800,000	0,053	0,154
-247,249	-200,000	-0,021	0,080
-246,234	300,980	-0,012	0,016
-245,219	-200,000	0,001	-0,047
-244,205	-200,000	0,010	0,100
-243,190	-109,394	0,026	0,004
-242,176	-200,000	0,029	-0,100
-241,161	-200,000	0,004	-0,013
-240,146	800,000	0,042	0,119
-239,132	544,647	-0,052	0,090
-238,117	-143,323	-0,062	0,004
-237,103	120,299	-0,033	-0,030
-236,088	10,253	0,042	0,023
-235,073	175,015	0,098	-0,104
-234,059	800,000	0,031	0,082
-233,044	-51,657	-0,077	0,026
-232,030	8,108	0,036	-0,019
-231,015	-19,989	-0,068	-0,031
-230,000	-200,000	-0,019	0,073
-228,986	-9,444	-0,045	-0,022
-227,971	-200,000	0,000	-0,004
-226,957	171,193	-0,063	0,066
-225,942	7,246	-0,127	0,069
-224,927	57,392	-0,020	0,014
-223,913	135,515	-0,049	0,047
-222,898	261,421	0,061	-0,078
-221,884	364,191	0,144	-0,212
-220,869	51,691	-0,090	0,062
-219,855	-200,000	0,041	0,151
-218,840	-157,908	-0,038	0,002
-217,825	6,584	0,131	0,070
-216,811	500,996	-0,029	-0,049
-215,796	-200,000	0,008	0,044
-214,782	-200,000	0,005	0,046
-213,767	800,000	0,078	0,203
-212,752	258,023	0,024	0,030
-211,738	-200,000	-0,005	0,051
-210,723	-132,321	0,082	-0,008
-209,709	5,653	0,022	-0,012
-208,694	-110,548	-0,101	0,015
-207,679	16,373	-0,049	0,028
-206,665	-200,000	-0,005	0,048
-205,650	239,201	0,104	0,126
-204,636	-191,485	0,077	-0,001
-203,621	111,370	-0,059	-0,052
-202,606	800,000	0,040	-0,082
-201,592	635,728	-0,054	-0,100
-200,577	600,705	-0,064	-0,117
-199,563	-81,293	0,043	-0,010
-198,548	-186,869	-0,056	-0,001
-197,533	-200,000	0,010	0,065
-196,519	-158,745	0,105	0,004
-195,504	-200,000	0,020	-0,081
-194,490	220,070	0,048	-0,056
-193,475	177,752	-0,052	-0,055
-192,460	-173,739	0,081	0,002
-191,446	-200,000	0,024	-0,089
-190,431	98,210	0,053	0,044
-189,417	78,730	-0,054	0,042
-188,402	-126,731	-0,224	0,024
-187,387	35,804	-0,082	0,052
-186,373	155,472	-0,049	-0,050
-185,358	163,678	0,011	0,011
-184,344	90,916	0,074	0,060
-183,329	800,000	0,038	0,076
-182,315	800,000	0,033	-0,082
-181,300	73,725	0,068	-0,051
-180,285	540,430	0,055	-0,095
-179,271	135,867	0,024	0,023
-178,256	-35,222	-0,141	-0,056
-177,242	167,062	-0,063	0,065
-176,227	-200,000	0,005	0,053
-175,212	800,000	0,020	-0,047
-174,198	-200,000	0,007	-0,041
-173,183	-102,007	0,112	0,019
-172,169	800,000	0,038	-0,084
-171,154	189,839	0,081	-0,088
-170,139	-200,000	0,025	-0,088
-169,125	-106,458	0,055	-0,009
-168,110	65,908	-0,052	0,038
-167,096	-33,844	-0,191	-0,076
-166,081	800,000	-0,033	0,080
-165,066	-66,299	-0,041	-0,012
-164,052	336,347	-0,044	-0,062
-163,037	-200,000	0,000	-0,169
-162,023	-66,482	0,136	0,039
-161,008	800,000	0,059	0,140
-159,993	-57,980	0,053	-0,017
-158,979	168,551	-0,096	0,100
-157,964	-106,142	0,057	-0,009
-156,950	-200,000	0,002	0,042
-155,935	-96,275	0,039	-0,007
-154,920	632,206	0,008	0,014
-153,906	348,909	-0,095	0,136
-152,891	-200,000	-0,001	0,063
-151,877	256,140	0,048	-0,060
-150,862	-64,664	-0,082	0,024
-149,847	-200,000	0,017	0,066
-148,833	-30,066	-0,089	-0,037
-147,818	459,895	0,044	0,071
-146,804	-200,000	-0,037	-0,178
-145,789	112,585	0,103	0,091
-144,775	-200,000	-0,002	0,154
-143,760	-114,515	0,154	-0,021
-142,745	800,000	-0,053	-0,154
-141,731	-18,838	0,145	-0,065
-140,716	61,754	0,142	0,103
-139,702	-20,510	0,040	0,018
-138,687	-130,923	0,017	-0,002
-137,672	800,000	0,027	0,060
-136,658	-142,322	-0,147	-0,010
-135,643	-12,604	-0,089	0,042
-134,629	-44,635	0,117	-0,042
-133,614	-200,000	-0,006	0,118
-132,599	121,813	-0,048	-0,044
-131,585	-122,156	0,153	0,018
-130,570	720,725	0,059	0,114
-129,556	-10,687	0,060	0,029
-128,541	89,501	-0,118	-0,095
-127,526	152,590	-0,136	0,135
-126,512	185,378	-0,094	-0,102
-125,497	-80,602	0,145	0,035
-124,483	-56,662	-0,121	0,039
-123,468	93,331	0,040	0,033
-122,453	36,182	-0,006	-0,004
-121,439	-103,729	-0,141	0,024
-120,424	-200,000	-0,010	0,110
-119,410	800,000	0,021	-0,044
