DTS Sentinel unit serial number:	SN410029Multiplexer serial number:	ORYXHardware model number:	OX2-SRSoftware version number:	ORYX F/W v4,00 Oryx Data Collector v3.7.2.0data status	okinstallation	B6 Nyhavnadifferential loss correction	single-endedforward channel	channel 2reverse channel	N/Adate	2023/12/10time	12:50:08forward acquisition time	300,00reverse acquisition time	0,00gamma	499,1914k internal	0,3122k external	0,3122temperature offset calibration	1,0000default loss term (dB/km)	0,3820temperature slope calibration	1,0000multiplexer offset coefficient	1,0000multiplexer slope coefficient	1,0000fibre end	0,00T internal ref (°C)	22,81T ext. ref 1 (°C)	6,54T ext. ref 2 (°C)	6,55length (m)	temperature (°C)	Stokes	anti-Stokes-744,400	74,324	-0,004	-0,003
-743,385	-86,661	-0,214	0,049
-742,371	-107,790	0,067	0,011
-741,356	-64,808	-0,078	-0,023
-740,342	-200,000	0,024	-0,138
-739,327	-85,739	-0,218	0,050
-738,312	104,471	0,053	-0,046
-737,298	103,807	-0,101	0,088
-736,283	-14,668	-0,110	-0,053
-735,269	-77,020	-0,115	0,030
-734,254	-199,880	-0,115	-0,000
-733,239	-38,423	-0,375	-0,147
-732,225	13,254	0,114	-0,066
-731,210	309,514	0,109	0,153
-730,196	324,353	-0,090	0,129
-729,181	-96,087	-0,107	0,021
-728,167	23,051	0,075	-0,046
-727,152	28,876	-0,116	-0,073
-726,137	-200,000	0,001	-0,157
-725,123	-200,000	0,005	0,042
-724,108	-200,000	-0,020	-0,202
-723,094	-38,079	-0,106	0,042
-722,079	-33,000	-0,146	-0,060
-721,064	-200,000	0,020	0,101
-720,050	-200,000	0,043	0,150
-719,035	-200,000	0,003	-0,074
-718,021	800,000	-0,027	-0,066
-717,006	-197,551	-0,112	0,001
-715,991	-27,595	-0,028	-0,012
-714,977	516,162	-0,085	-0,148
-713,962	161,770	0,048	-0,050
-712,948	21,336	0,046	-0,028
-711,933	610,905	0,011	-0,020
-710,918	-196,459	-0,074	-0,000
-709,904	-200,000	-0,003	0,013
-708,889	41,652	-0,059	-0,039
-707,875	800,000	-0,053	-0,119
-706,860	414,759	0,109	-0,174
-705,845	243,873	0,104	0,130
-704,831	800,000	-0,027	-0,072
-703,816	-200,000	0,052	0,000
-702,802	-106,636	-0,046	0,008
-701,787	-65,913	-0,082	-0,024
-700,772	-200,000	-0,009	-0,088
-699,758	208,914	0,028	-0,033
-698,743	-49,200	0,098	-0,035
-697,729	-200,000	0,020	0,156
-696,714	-200,000	-0,019	0,065
-695,699	-200,000	-0,008	-0,116
-694,685	-37,747	-0,093	0,037
-693,670	381,024	-0,045	-0,069
-692,656	-112,826	-0,092	0,013
-691,641	-17,451	0,073	0,034
-690,627	48,913	-0,117	0,082
-689,612	85,439	0,123	-0,100
-688,597	-21,180	0,083	-0,038
-687,583	-85,103	-0,065	-0,015
-686,568	3,743	-0,175	0,095
-685,554	-172,443	-0,088	-0,002
-684,539	-200,000	0,010	-0,096
-683,524	92,554	-0,135	0,113
-682,510	-200,000	-0,031	0,116
-681,495	210,356	-0,050	-0,058
-680,481	617,890	-0,042	-0,079
-679,466	-200,000	0,034	-0,126
-678,451	79,616	-0,031	0,025
-677,437	-200,000	-0,011	0,186
-676,422	-63,556	0,081	0,025
-675,408	230,504	-0,037	-0,045
-674,393	-85,446	-0,098	0,022
-673,378	179,182	0,031	0,034
-672,364	480,290	0,039	-0,067
-671,349	800,000	-0,042	-0,088
-670,335	-112,835	0,109	0,016
-669,320	188,041	0,076	-0,085
-668,305	-74,382	-0,127	-0,034
-667,291	-132,312	-0,108	0,010
-666,276	11,172	-0,050	-0,028
-665,262	-200,000	0,002	0,028
-664,247	-56,074	-0,093	0,031
-663,232	-20,323	-0,084	-0,038
-662,218	-67,462	0,056	0,016
-661,203	-32,591	0,056	-0,023
-660,189	215,555	-0,045	0,053
-659,174	13,330	-0,087	-0,050
-658,159	424,991	0,010	0,016
-657,145	-200,000	-0,057	-0,194
-656,130	-16,807	0,096	-0,045
-655,116	-128,211	0,040	0,004
-654,101	8,399	0,076	0,043
-653,086	190,970	-0,038	0,042
-652,072	-61,179	-0,074	-0,023
-651,057	70,214	-0,046	-0,035
-650,043	5,050	-0,094	-0,051
-649,028	85,406	-0,111	0,091
-648,014	-116,322	-0,063	-0,009
-646,999	-200,000	-0,026	0,111
-645,984	-140,839	0,087	0,007
-644,970	-200,000	0,031	-0,191
-643,955	131,885	-0,126	-0,121
-642,941	-200,000	0,010	-0,099
-641,926	-11,350	0,040	-0,020
-640,911	-13,036	-0,012	0,006
-639,897	505,506	-0,041	-0,071
-638,882	800,000	0,031	0,083
-637,868	222,250	-0,098	-0,117
-636,853	-200,000	0,036	-0,141
-635,838	-200,000	0,038	-0,154
-634,824	-200,000	-0,009	-0,079
-633,809	-39,874	0,045	-0,017
-632,795	-200,000	0,040	-0,230
-631,780	-144,042	-0,092	-0,006
-630,765	60,618	-0,049	-0,036
-629,751	620,624	0,066	-0,124
-628,736	373,556	0,015	-0,023
-627,722	800,000	-0,049	0,116
-626,707	-55,393	0,126	-0,042
-625,692	-93,547	0,079	-0,016
-624,678	-177,087	-0,048	0,001
-623,663	800,000	0,041	-0,119
-622,649	-1,879	-0,062	-0,032
-621,634	198,800	-0,125	-0,142
-620,619	678,917	-0,050	-0,097
-619,605	-200,000	0,008	-0,056
-618,590	-33,552	0,036	-0,015
-617,576	-200,000	0,030	-0,108
-616,561	496,874	0,034	-0,058
-615,546	-68,596	0,110	0,031
-614,532	185,634	-0,088	-0,097
-613,517	-1,881	-0,145	-0,076
-612,503	176,867	-0,044	-0,047
-611,488	-197,428	0,063	0,000
-610,474	637,970	0,041	0,077
-609,459	-54,734	0,079	0,026
-608,444	-144,512	-0,145	-0,010
-607,430	-80,337	-0,047	0,012
-606,415	-28,079	-0,034	-0,014
-605,401	354,380	-0,062	-0,091
-604,386	-200,000	-0,011	-0,118
-603,371	-200,000	-0,015	0,142
-602,357	800,000	-0,106	0,219
-601,342	122,064	-0,125	0,116
-600,328	327,606	-0,073	0,104
-599,313	-121,902	-0,090	-0,011
-598,298	-73,192	-0,133	0,036
-597,284	-200,000	-0,001	0,006
-596,269	169,162	0,067	0,071
-595,255	546,734	0,029	-0,052
-594,240	-200,000	-0,018	-0,070
-593,225	800,000	-0,044	-0,094
-592,211	-200,000	0,003	-0,030
-591,196	-200,000	-0,011	-0,038
-590,182	83,661	-0,102	-0,082
-589,167	-134,507	0,072	0,006
-588,152	-143,544	-0,102	-0,007
-587,138	184,465	-0,035	0,038
-586,123	-15,282	-0,242	-0,114
-585,109	-200,000	0,016	-0,055
-584,094	-52,172	-0,043	0,015
-583,079	-200,000	0,045	-0,200
-582,065	800,000	-0,020	-0,052
-581,050	-71,092	0,036	0,010
-580,036	-133,134	0,060	0,006
-579,021	-78,511	-0,094	-0,024
-578,006	480,411	-0,037	-0,063
-576,992	-78,262	-0,075	0,019
-575,977	-122,612	-0,083	-0,010
-574,963	-135,298	0,053	0,005
-573,948	-171,902	0,193	0,005
-572,934	800,000	0,041	-0,127
-571,919	262,296	-0,051	-0,066
-570,904	-145,366	-0,136	0,009
-569,890	-102,804	0,014	0,002
-568,875	33,749	0,093	0,060
-567,861	-200,000	0,029	0,109
-566,846	67,017	-0,049	-0,037
-565,831	288,981	-0,021	-0,028
-564,817	-200,000	0,011	0,037
-563,802	763,347	-0,088	-0,178
-562,788	176,603	0,059	0,064
-561,773	-200,000	-0,000	0,099
-560,758	119,285	0,069	-0,064
-559,744	-200,000	-0,004	0,090
-558,729	-140,781	0,112	-0,008
-557,715	404,665	-0,023	-0,036
-556,700	-9,483	0,059	-0,029
-555,685	85,547	0,110	0,090
-554,671	-30,659	-0,132	-0,055
-553,656	-16,738	0,103	-0,048
-552,642	-200,000	-0,016	-0,112
-551,627	-112,279	0,033	0,005
-550,612	800,000	-0,022	-0,048
-549,598	22,222	-0,205	-0,124
-548,583	544,364	0,087	0,155
-547,569	193,249	0,062	0,070
-546,554	800,000	-0,046	-0,115
-545,539	-70,375	0,042	0,012
-544,525	116,185	0,047	-0,043
-543,510	32,824	-0,079	-0,050
-542,496	-119,679	-0,044	-0,006
-541,481	71,573	-0,042	-0,032
-540,466	454,034	-0,065	-0,107
-539,452	413,239	-0,042	-0,066
-538,437	-22,759	-0,024	-0,011
-537,423	-189,121	-0,061	-0,001
-536,408	94,991	-0,070	-0,059
-535,393	800,000	-0,006	0,018
-534,379	-54,150	0,066	0,022
-533,364	-118,126	0,075	-0,010
-532,350	800,000	-0,051	0,123
-531,335	48,641	0,064	-0,045
-530,321	-153,911	0,116	-0,006
-529,306	800,000	0,012	-0,026
-528,291	-70,134	-0,151	0,042
-527,277	25,669	0,036	-0,022
-526,262	147,227	-0,024	0,024
-525,248	-11,631	0,118	0,057
-524,233	-83,459	-0,068	-0,016
-523,218	-200,000	0,012	0,052
-522,204	172,589	0,022	0,023
-521,189	800,000	-0,036	-0,096
-520,175	-116,316	-0,182	0,025
-519,160	-95,000	-0,067	-0,013
-518,145	204,650	-0,093	0,106
-517,131	-71,838	-0,051	-0,014
-516,116	800,000	-0,064	0,155
-515,102	800,000	0,042	0,091
-514,087	123,844	0,049	-0,046
-513,072	-90,725	0,021	0,004
-512,058	60,533	-0,060	-0,044
-511,043	800,000	-0,032	-0,084
-510,029	-200,000	-0,036	0,144
-509,014	184,036	0,082	-0,090
-507,999	277,269	-0,045	-0,060
-506,985	800,000	-0,021	-0,068
-505,970	339,185	0,057	0,082
-504,956	-23,832	0,033	0,014
-503,941	25,567	0,135	0,083
-502,926	480,719	0,051	0,086
-501,912	-37,063	-0,107	-0,042
-500,897	-43,734	0,022	-0,008
-499,883	-57,855	-0,057	0,018
-498,868	20,070	-0,228	-0,136
-497,853	-128,267	0,052	-0,005
-496,839	-200,000	-0,006	-0,039
-495,824	-87,771	0,051	-0,011
-494,810	-59,059	-0,153	-0,048
-493,795	-87,476	0,100	0,022
-492,781	-200,000	0,001	-0,019
-491,766	800,000	-0,046	0,139
-490,751	-103,049	0,121	0,021
-489,737	-200,000	-0,003	0,045
-488,722	17,991	0,156	-0,092
-487,708	-200,000	-0,001	0,069
-486,693	1,576	-0,098	0,052
-485,678	-152,958	0,134	-0,007
-484,664	-200,000	-0,025	-0,103
-483,649	197,462	0,025	0,028
-482,635	800,000	0,075	0,181
-481,620	231,860	-0,065	0,079
-480,605	-42,568	0,060	-0,023
-479,591	-41,125	0,074	-0,028
-478,576	777,375	0,049	-0,099
-477,562	-71,363	-0,143	-0,039
-476,547	800,000	-0,021	-0,058
-475,532	280,538	-0,078	0,103
-474,518	-118,752	0,076	-0,010
-473,503	-200,000	0,003	0,139
-472,489	-200,000	-0,007	0,106
-471,474	211,127	-0,025	0,029
-470,459	-169,705	-0,053	-0,001
-469,445	-200,000	-0,006	0,028
-468,430	-167,873	0,083	-0,002
-467,416	-200,000	-0,005	0,099
-466,401	-200,000	0,024	0,133
-465,386	215,421	0,095	0,111
-464,372	35,122	-0,065	0,042
-463,357	306,262	-0,067	-0,093
-462,343	-119,516	-0,065	-0,008
-461,328	349,182	-0,082	-0,120
-460,313	-95,347	0,067	0,013
-459,299	-200,000	-0,012	0,084
-458,284	395,576	0,031	-0,048
-457,270	169,598	-0,022	0,023
-456,255	-200,000	-0,022	-0,073
-455,241	-44,217	0,075	0,027
-454,226	19,562	-0,040	-0,024
-453,211	-86,741	0,043	0,010
-452,197	-200,000	-0,002	-0,092
-451,182	773,330	0,016	0,032
-450,168	108,104	-0,050	-0,044
-449,153	800,000	-0,023	0,051
-448,138	204,560	-0,115	-0,132
-447,124	-26,579	-0,047	0,020
-446,109	236,830	0,042	-0,051
-445,095	-45,708	0,124	0,045
-444,080	-71,011	0,112	0,031
-443,065	-200,000	-0,007	0,058
-442,051	800,000	-0,018	0,057
-441,036	-200,000	0,000	-0,057
-440,022	-200,000	-0,004	0,025
-439,007	19,359	0,025	-0,015
-437,992	-200,000	-0,011	0,040
-436,978	60,923	-0,036	-0,026
-435,963	-15,995	0,075	-0,035
-434,949	-200,000	-0,025	-0,100
-433,934	-153,696	-0,175	-0,009
-432,919	724,735	0,017	-0,033
-431,905	-137,453	-0,038	-0,003
-430,890	23,117	0,077	0,046
-429,876	-132,836	0,104	0,010
-428,861	355,394	-0,079	-0,115
-427,846	648,204	0,033	-0,063
-426,832	-200,000	-0,024	-0,165
-425,817	185,097	-0,024	0,026
-424,803	-11,294	-0,136	0,066
-423,788	95,816	0,141	0,118
-422,773	-200,000	0,009	-0,062
-421,759	-127,246	0,106	0,011
-420,744	800,000	0,075	-0,206
-419,730	-200,000	0,030	-0,145
-418,715	800,000	-0,064	-0,145
-417,701	306,004	-0,085	-0,116
-416,686	-10,790	-0,037	0,018
-415,671	-200,000	-0,007	0,186
-414,657	-77,710	0,062	0,016
-413,642	-200,000	-0,003	-0,078
-412,628	800,000	0,007	-0,020
-411,613	-200,000	-0,096	-0,000
-410,598	-16,726	-0,203	-0,094
-409,584	-87,829	0,078	0,017
-408,569	-200,000	-0,014	-0,052
-407,555	-96,548	-0,071	-0,014
-406,540	-200,000	-0,002	0,117
-405,525	-119,448	-0,061	0,008
-404,511	-59,174	-0,171	-0,054
-403,496	359,242	-0,015	0,023
-402,482	554,860	-0,055	0,097
-401,467	-6,501	0,039	0,020
-400,452	6,993	-0,063	0,035
-399,438	7,698	0,069	-0,038
-398,423	-116,853	-0,159	0,021
-397,409	-34,701	0,107	0,043
-396,394	-200,000	0,027	0,103
-395,379	42,696	-0,014	-0,009
-394,365	-200,000	-0,012	0,094
-393,350	-92,797	-0,078	0,016
-392,336	800,000	0,036	0,112
-391,321	662,538	0,063	0,121
-390,306	7,298	-0,094	0,051
-389,292	-200,000	0,017	-0,056
-388,277	75,247	0,041	-0,032
-387,263	88,168	0,082	0,067
-386,248	-143,914	0,071	0,005
-385,233	-101,390	0,106	-0,019
-384,219	800,000	0,022	0,055
-383,204	-118,867	0,087	-0,011
-382,190	59,749	0,033	-0,024
-381,175	140,057	-0,070	-0,068
-380,160	800,000	0,029	-0,078
-379,146	719,761	0,018	-0,036
-378,131	65,856	0,150	0,111
-377,117	-165,336	0,048	0,002
-376,102	800,000	-0,047	-0,152
-375,088	55,466	-0,091	-0,065
-374,073	-152,449	0,078	0,004
-373,058	-200,000	-0,019	0,088
-372,044	20,316	0,126	0,075
-371,029	-56,400	-0,095	-0,031
-370,015	-101,628	0,066	-0,012
-369,000	-26,124	-0,049	0,021
-367,985	36,222	-0,048	-0,031
-366,971	-144,353	-0,090	0,006
-365,956	-200,000	-0,008	0,099
-364,942	800,000	-0,029	-0,078
-363,927	421,989	-0,044	0,069
-362,912	452,135	-0,036	-0,058
-361,898	169,146	0,026	-0,028
-360,883	-49,519	-0,157	0,055
-359,869	800,000	0,058	-0,132
-358,854	48,169	0,139	0,096
-357,839	40,112	0,102	0,067
-356,825	-53,291	0,068	0,023
-355,810	-200,000	-0,038	0,216
-354,796	-56,289	0,069	-0,022
-353,781	386,705	-0,035	-0,053
-352,766	179,666	0,057	0,062
-351,752	-56,673	0,071	-0,023
-350,737	439,002	-0,013	0,022
-349,723	800,000	0,084	0,219
-348,708	169,426	-0,080	-0,084
-347,693	-200,000	0,014	-0,130
-346,679	175,152	-0,049	-0,052
-345,664	800,000	-0,013	-0,039
-344,650	-50,174	0,088	0,031
-343,635	-41,950	0,196	-0,073
-342,620	800,000	0,079	0,161
-341,606	89,680	0,014	-0,012
-340,591	-200,000	-0,005	-0,021
-339,577	790,344	-0,082	-0,166
-338,562	-200,000	-0,021	-0,086
-337,548	275,841	0,049	0,064
-336,533	632,491	-0,076	0,142
-335,518	-187,607	0,098	0,001
-334,504	-200,000	-0,010	-0,070
-333,489	-34,069	0,077	0,031
-332,475	-200,000	-0,033	0,122
-331,460	464,571	0,028	-0,046
-330,445	196,115	0,056	0,063
-329,431	-200,000	0,024	0,107
-328,416	212,756	0,044	-0,051
-327,402	-144,758	-0,188	-0,012
-326,387	786,458	0,004	-0,007
-325,372	-37,868	-0,082	-0,032
-324,358	756,526	-0,038	-0,077
-323,343	52,693	-0,054	-0,038
-322,329	-110,533	0,103	0,016
-321,314	800,000	0,070	0,196
-320,299	-134,158	0,111	0,010
-319,285	14,694	-0,090	-0,051
-318,270	123,408	-0,066	0,061
-317,256	800,000	0,043	-0,099
-316,241	800,000	0,030	0,082
-315,226	161,211	-0,017	0,017
-314,212	66,358	0,142	0,106
-313,197	709,612	0,054	0,105
-312,183	444,504	0,051	0,082
-311,168	-160,404	-0,143	-0,006
-310,153	178,493	-0,038	-0,041
-309,139	-200,000	-0,008	-0,220
-308,124	-85,591	0,003	0,001
-307,110	-139,244	0,153	-0,012
-306,095	-12,588	-0,010	0,005
-305,080	614,308	0,030	0,056
-304,066	-127,215	-0,125	-0,013
-303,051	139,234	-0,039	0,038
-302,037	800,000	-0,023	-0,056
-301,022	-4,302	-0,077	0,039
-300,008	800,000	-0,012	-0,032
-298,993	-38,851	0,071	-0,027
-297,978	224,049	0,080	-0,095
-296,964	60,745	-0,128	-0,093
-295,949	113,456	-0,077	-0,068
-294,935	-200,000	-0,010	0,065
-293,920	82,802	0,104	0,083
-292,905	393,310	0,060	-0,092
-291,891	-100,366	0,179	-0,032
-290,876	-200,000	0,008	0,057
-289,862	304,912	0,009	-0,012
-288,847	800,000	-0,032	-0,082
-287,832	800,000	-0,055	-0,128
-286,818	-200,000	0,024	0,128
-285,803	45,569	0,118	0,080
-284,789	800,000	0,047	-0,100
-283,774	200,456	0,068	-0,077
-282,759	406,205	-0,055	0,085
-281,745	64,320	-0,132	0,097
-280,730	-148,238	-0,079	-0,005
-279,716	571,348	-0,016	0,028
-278,701	-172,973	-0,080	-0,002
-277,686	396,770	-0,027	0,041
-276,672	-200,000	-0,037	0,261
-275,657	-200,000	0,009	-0,032
-274,643	141,865	-0,068	-0,066
-273,628	8,385	-0,035	-0,019
-272,613	119,167	0,058	-0,053
-271,599	-106,184	-0,084	-0,014
-270,584	-200,000	-0,004	0,092
-269,570	800,000	-0,044	0,121
-268,555	-152,270	0,084	-0,004
-267,540	-137,396	0,050	0,004
-266,526	341,120	-0,144	-0,207
-265,511	63,560	-0,051	-0,037
-264,497	535,690	0,050	0,087
-263,482	800,000	0,032	0,088
-262,467	800,000	0,011	0,033
-261,453	-40,961	-0,099	0,037
-260,438	-153,209	-0,078	-0,004
-259,424	-72,824	-0,058	-0,015
-258,409	-40,263	-0,099	0,037
-257,395	96,163	-0,018	0,015
-256,380	-151,563	0,139	-0,007
-255,365	800,000	-0,020	0,045
-254,351	-145,932	0,114	-0,007
-253,336	103,204	-0,055	0,048
-252,322	800,000	-0,020	-0,046
-251,307	-74,898	-0,115	0,030
-250,292	-200,000	0,009	0,103
-249,278	214,458	0,017	0,019
-248,263	-200,000	0,008	0,112
-247,249	174,660	-0,159	0,168
-246,234	-119,120	-0,045	0,006
-245,219	-200,000	-0,006	-0,020
-244,205	-98,311	0,060	-0,011
-243,190	-49,559	0,083	0,029
-242,176	304,012	0,047	-0,063
-241,161	172,305	-0,106	0,112
-240,146	83,818	0,002	0,002
-239,132	65,972	0,084	-0,062
-238,117	-41,720	0,065	0,024
-237,103	-67,392	0,138	0,039
-236,088	153,426	0,096	0,096
-235,073	-9,259	0,091	0,044
-234,059	800,000	0,023	0,048
-233,044	-200,000	0,000	0,145
-232,030	93,357	0,093	0,077
-231,015	-102,327	0,104	0,018
-230,000	186,125	-0,100	-0,109
-228,986	-8,868	0,076	-0,037
-227,971	-102,228	0,069	-0,012
-226,957	129,077	0,009	-0,009
-225,942	-200,000	0,008	0,115
-224,927	800,000	0,024	0,070
-223,913	-200,000	-0,014	-0,059
-222,898	-4,052	-0,114	0,058
-221,884	-13,809	0,106	-0,050
-220,869	-200,000	0,010	0,120
-219,855	-5,999	0,040	-0,020
-218,840	307,397	0,118	0,162
-217,825	38,747	0,074	0,048
-216,811	-25,358	-0,224	-0,096
-215,796	659,710	0,050	-0,094
-214,782	-142,276	0,041	0,003
-213,767	-200,000	-0,020	-0,080
-212,752	2,637	0,139	-0,073
-211,738	-127,240	0,095	0,010
-210,723	800,000	0,052	0,167
-209,709	-200,000	0,000	-0,028
-208,694	-200,000	-0,008	-0,106
-207,679	-48,776	-0,084	-0,029
-206,665	34,924	0,033	-0,021
-205,650	-63,000	0,130	-0,039
-204,636	-107,060	0,127	0,020
-203,621	286,513	0,093	0,122
-202,606	95,953	-0,094	-0,078
-201,592	-71,470	0,124	0,034
-200,577	-182,445	0,059	0,001
-199,563	537,761	0,043	0,076
-198,548	-200,000	-0,025	0,144
-197,533	-96,865	0,170	0,032
-196,519	-39,971	-0,105	-0,040
-195,504	379,535	-0,109	0,164
-194,490	-200,000	-0,016	-0,116
-193,475	800,000	0,042	-0,107
-192,460	284,780	-0,024	-0,032
-191,446	600,319	0,101	0,184
-190,431	-110,271	0,114	0,017
-189,417	-200,000	-0,023	0,152
-188,402	800,000	-0,049	0,139
-187,387	-29,922	-0,091	-0,038
-186,373	-200,000	-0,014	0,052
-185,358	252,507	-0,012	-0,015
-184,344	-200,000	0,031	0,153
-183,329	-200,000	0,003	-0,103
-182,315	440,708	0,058	0,093
-181,300	291,846	-0,026	0,035
-180,285	261,139	-0,058	-0,073
-179,271	167,623	0,030	0,031
-178,256	156,990	0,031	0,031
-177,242	-185,519	0,056	0,001
-176,227	-17,272	0,058	-0,027
-175,212	187,395	-0,020	-0,022
-174,198	800,000	-0,014	0,029
-173,183	3,366	-0,076	-0,040
-172,169	-148,198	0,120	-0,007
-171,154	-200,000	0,003	0,019
-170,139	-120,351	0,109	0,013
-169,125	4,150	0,136	-0,072
-168,110	-88,435	-0,024	0,005
-167,096	-200,000	-0,024	-0,143
-166,081	-200,000	-0,001	-0,091
-165,066	-200,000	-0,013	-0,104
-164,052	-47,994	-0,119	-0,042
-163,037	-131,178	-0,151	-0,014
-162,023	-200,000	0,035	0,136
-161,008	-200,000	-0,023	0,153
-159,993	99,340	0,061	0,052
-158,979	78,710	-0,090	0,070
-157,964	127,900	0,072	-0,066
-156,950	-200,000	0,004	0,023
-155,935	348,259	-0,026	-0,038
-154,920	60,003	0,032	-0,023
-153,906	312,392	0,055	0,075
-152,891	321,625	0,081	-0,113
-151,877	454,777	0,013	-0,020
-150,862	-57,094	-0,100	-0,032
-149,847	-151,267	-0,101	0,005
-148,833	122,979	0,043	0,039
-147,818	65,009	-0,173	0,127
-146,804	207,111	0,117	0,133
-145,789	577,397	0,039	0,070
-144,775	-34,832	-0,114	-0,045
-143,760	321,364	-0,051	-0,071
-142,745	-200,000	0,036	-0,136
-141,731	42,175	-0,024	-0,016
-140,716	800,000	0,022	0,067
-139,702	-200,000	0,009	0,070
-138,687	-103,498	-0,151	0,026
-137,672	218,963	-0,040	-0,047
-136,658	176,340	0,048	0,051
-135,643	11,918	0,031	0,018
-134,629	800,000	0,022	-0,048
-133,614	-117,386	0,108	-0,014
-132,599	-200,000	-0,009	-0,032
-131,585	800,000	-0,049	0,142
-130,570	-143,395	-0,225	0,015
-129,556	800,000	0,031	-0,063
-128,541	-79,699	-0,115	-0,028
-127,526	-160,547	0,142	0,005
-126,512	14,542	-0,070	0,040
-125,497	43,643	0,050	0,033
-124,483	32,936	-0,106	-0,067
-123,468	192,295	-0,026	0,028
-122,453	-200,000	0,031	-0,132
-121,439	800,000	-0,008	-0,016
-120,424	-200,000	0,017	0,097
