DTS Sentinel unit serial number:	SN410029Multiplexer serial number:	ORYXHardware model number:	OX2-SRSoftware version number:	ORYX F/W v4,00 Oryx Data Collector v3.7.2.0data status	okinstallation	B6 Nyhavnadifferential loss correction	single-endedforward channel	channel 2reverse channel	N/Adate	2023/12/11time	02:55:08forward acquisition time	300,00reverse acquisition time	0,00gamma	499,1914k internal	0,3123k external	0,3123temperature offset calibration	1,0000default loss term (dB/km)	0,3820temperature slope calibration	1,0000multiplexer offset coefficient	1,0000multiplexer slope coefficient	1,0000fibre end	0,00T internal ref (°C)	21,49T ext. ref 1 (°C)	4,33T ext. ref 2 (°C)	4,35length (m)	temperature (°C)	Stokes	anti-Stokes-744,400	-109,678	0,057	-0,009
-743,385	-64,893	-0,257	0,077
-742,371	800,000	0,031	-0,090
-741,356	25,177	-0,208	0,128
-740,342	554,318	0,032	0,057
-739,327	4,685	-0,243	0,132
-738,312	-93,366	0,077	-0,016
-737,298	-98,795	-0,116	-0,022
-736,283	16,481	0,040	-0,024
-735,269	-75,249	-0,219	0,058
-734,254	-200,000	-0,020	-0,175
-733,239	-113,332	-0,505	-0,073
-732,225	-25,627	0,198	0,087
-731,210	-56,431	0,190	0,063
-730,196	390,495	-0,080	0,123
-729,181	800,000	-0,028	-0,089
-728,167	-194,723	-0,086	0,000
-727,152	118,717	-0,024	-0,022
-726,137	-200,000	0,019	-0,129
-725,123	-200,000	-0,022	-0,148
-724,108	92,899	-0,058	-0,049
-723,094	58,485	-0,047	0,034
-722,079	111,355	-0,068	-0,061
-721,064	-139,382	-0,092	0,007
-720,050	-144,181	-0,155	-0,011
-719,035	32,378	0,084	0,054
-718,021	621,625	-0,036	-0,068
-717,006	-200,000	-0,014	-0,115
-715,991	172,029	-0,078	-0,084
-714,977	115,462	0,063	-0,057
-713,962	-200,000	-0,023	0,129
-712,948	7,870	0,186	-0,103
-711,933	-200,000	-0,007	-0,137
-710,918	-98,870	-0,081	0,015
-709,904	239,951	0,013	0,016
-708,889	114,410	-0,111	0,100
-707,875	-54,789	-0,027	-0,009
-706,860	-200,000	0,016	0,133
-705,845	182,644	-0,076	0,083
-704,831	-91,569	0,085	0,018
-703,816	193,754	-0,060	-0,068
-702,802	-75,395	-0,113	0,030
-701,787	-23,831	-0,014	0,006
-700,772	-10,544	-0,092	0,045
-699,758	157,808	-0,046	0,048
-698,743	531,908	0,022	0,039
-697,729	-36,337	-0,107	-0,043
-696,714	180,345	-0,037	0,041
-695,699	223,135	-0,076	-0,091
-694,685	57,217	-0,089	0,065
-693,670	-89,435	-0,223	0,048
-692,656	49,785	-0,083	-0,058
-691,641	-200,000	-0,001	-0,062
-690,627	-131,448	0,065	0,006
-689,612	800,000	0,062	0,148
-688,597	800,000	0,012	-0,033
-687,583	-107,389	0,015	-0,002
-686,568	-145,673	0,088	0,006
-685,554	-200,000	-0,014	-0,150
-684,539	-188,885	-0,055	0,000
-683,524	-115,604	0,165	-0,023
-682,510	-158,584	-0,158	0,007
-681,495	474,645	0,034	0,058
-680,481	-95,099	-0,162	0,032
-679,466	-50,726	-0,112	-0,039
-678,451	-13,264	0,041	-0,020
-677,437	800,000	0,079	0,163
-676,422	28,533	-0,088	0,055
-675,408	447,202	-0,036	-0,058
-674,393	-153,274	-0,181	-0,009
-673,378	-200,000	-0,037	-0,186
-672,364	144,390	0,080	-0,080
-671,349	56,325	-0,099	-0,071
-670,335	336,686	0,016	-0,023
-669,320	97,625	0,034	0,029
-668,305	800,000	-0,017	0,047
-667,291	-143,463	0,075	0,005
-666,276	23,616	-0,056	0,034
-665,262	-2,515	-0,136	0,070
-664,247	327,247	0,042	0,060
-663,232	-83,311	0,137	0,032
-662,218	-147,574	-0,099	-0,006
-661,203	800,000	-0,032	0,091
-660,189	800,000	-0,020	0,053
-659,174	-54,702	-0,045	-0,015
-658,159	-200,000	0,021	0,107
-657,145	800,000	0,027	-0,064
-656,130	-52,827	-0,100	-0,034
-655,116	800,000	0,036	-0,088
-654,101	174,386	-0,031	-0,033
-653,086	164,627	0,047	-0,050
-652,072	800,000	0,044	0,104
-651,057	-115,304	-0,111	0,015
-650,043	198,815	-0,045	0,051
-649,028	20,496	-0,096	-0,057
-648,014	-184,978	-0,043	-0,000
-646,999	-55,207	-0,060	-0,020
-645,984	-130,452	0,134	-0,013
-644,970	-200,000	0,001	0,161
-643,955	23,325	-0,164	0,100
-642,941	-60,705	-0,071	-0,022
-641,926	-200,000	-0,003	0,028
-640,911	-121,502	-0,131	-0,016
-639,897	-200,000	0,018	-0,101
-638,882	19,256	0,043	-0,026
-637,868	-200,000	-0,003	-0,025
-636,853	559,608	-0,035	-0,062
-635,838	59,527	0,149	0,109
-634,824	231,591	0,068	-0,083
-633,809	708,296	0,041	0,081
-632,795	-200,000	-0,002	-0,108
-631,780	-200,000	0,015	-0,067
-630,765	-200,000	-0,054	-0,178
-629,751	70,088	0,072	-0,055
-628,736	179,622	-0,013	-0,014
-627,722	-200,000	-0,006	0,031
-626,707	-14,137	0,049	0,023
-625,692	-25,321	0,059	0,026
-624,678	-200,000	0,005	-0,117
-623,663	-200,000	0,002	0,018
-622,649	172,365	-0,089	-0,096
-621,634	800,000	0,041	0,087
-620,619	-200,000	-0,051	-0,199
-619,605	717,106	0,036	0,071
-618,590	-200,000	-0,005	0,192
-617,576	501,524	0,039	0,066
-616,561	800,000	-0,016	-0,040
-615,546	207,048	-0,046	0,053
-614,532	800,000	0,051	0,146
-613,517	800,000	0,036	-0,076
-612,503	629,191	-0,040	0,075
-611,488	10,952	-0,019	0,011
-610,474	-2,496	-0,083	0,043
-609,459	25,086	-0,105	-0,065
-608,444	800,000	0,043	0,097
-607,430	-200,000	0,035	-0,204
-606,415	-200,000	-0,046	-0,156
-605,401	800,000	-0,029	-0,063
-604,386	-163,218	-0,029	-0,001
-603,371	502,082	-0,063	0,108
-602,357	800,000	-0,007	-0,021
-601,342	322,736	0,071	-0,101
-600,328	800,000	0,029	-0,067
-599,313	-200,000	-0,017	-0,178
-598,298	800,000	0,023	-0,068
-597,284	328,257	0,073	0,104
-596,269	154,100	-0,048	-0,048
-595,255	-200,000	0,008	0,109
-594,240	-17,764	0,142	-0,066
-593,225	65,018	0,083	-0,062
-592,211	14,791	-0,123	0,071
-591,196	-142,135	-0,148	-0,011
-590,182	106,341	0,046	0,040
-589,167	-151,662	-0,069	-0,004
-588,152	-120,872	0,041	0,005
-587,138	-46,260	-0,121	0,044
-586,123	-200,000	-0,002	-0,077
-585,109	-200,000	0,008	-0,028
-584,094	-116,069	0,185	0,025
-583,079	266,891	-0,066	0,086
-582,065	-84,558	0,092	0,021
-581,050	-103,696	0,106	0,018
-580,036	-90,142	0,096	0,021
-579,021	156,211	-0,039	0,040
-578,006	28,373	-0,065	0,041
-576,992	248,434	-0,045	0,057
-575,977	-79,305	-0,075	-0,019
-574,963	-200,000	-0,008	-0,078
-573,948	-200,000	-0,007	0,106
-572,934	-200,000	-0,022	-0,093
-571,919	-170,044	-0,199	-0,005
-570,904	-125,867	-0,074	-0,008
-569,890	120,480	0,040	0,037
-568,875	-200,000	0,004	-0,101
-567,861	128,390	0,103	0,097
-566,846	763,519	-0,005	0,011
-565,831	-5,249	0,060	0,030
-564,817	537,383	0,051	0,090
-563,802	-200,000	-0,008	0,050
-562,788	-59,835	0,027	-0,009
-561,773	-200,000	0,008	-0,071
-560,758	75,250	0,149	-0,116
-559,744	14,075	-0,052	0,030
-558,729	800,000	-0,069	0,187
-557,715	800,000	-0,011	-0,027
-556,700	135,836	-0,177	0,170
-555,685	158,062	0,086	-0,089
-554,671	267,306	-0,013	-0,017
-553,656	4,257	-0,115	0,062
-552,642	-200,000	0,030	-0,109
-551,627	-95,472	0,085	-0,017
-550,612	732,760	-0,037	-0,074
-549,598	-71,116	-0,235	0,065
-548,583	-200,000	0,016	0,110
-547,569	149,701	0,083	0,083
-546,554	47,680	-0,027	0,019
-545,539	-200,000	0,031	0,124
-544,525	-139,010	-0,065	0,005
-543,510	228,829	0,082	0,099
-542,496	43,329	-0,087	0,059
-541,481	315,614	0,041	-0,058
-540,466	-128,989	-0,025	-0,003
-539,452	-106,597	0,001	-0,000
-538,437	123,089	0,047	0,044
-537,423	147,842	0,028	-0,028
-536,408	-54,454	0,064	0,021
-535,393	-200,000	-0,016	-0,113
-534,379	-104,212	0,110	-0,019
-533,364	800,000	0,016	0,034
-532,350	-99,585	-0,121	0,022
-531,335	-200,000	-0,012	0,144
-530,321	-10,311	-0,101	0,049
-529,306	-200,000	-0,030	0,191
-528,291	-101,002	-0,028	-0,005
-527,277	800,000	-0,077	-0,224
-526,262	-43,282	-0,082	0,030
-525,248	197,464	0,123	0,139
-524,233	501,843	-0,060	0,103
-523,218	800,000	-0,035	0,091
-522,204	-200,000	-0,006	0,130
-521,189	-200,000	0,002	0,052
-520,175	-200,000	0,004	0,053
-519,160	-141,305	-0,160	0,012
-518,145	389,845	-0,048	0,073
-517,131	191,566	-0,089	0,100
-516,116	-200,000	0,026	-0,091
-515,102	-126,609	-0,038	-0,004
-514,087	800,000	0,032	-0,075
-513,072	-200,000	0,013	-0,085
-512,058	95,464	-0,061	0,052
-511,043	187,102	0,053	-0,058
-510,029	-124,394	0,056	-0,006
-509,014	104,472	-0,054	0,047
-507,999	-200,000	0,001	-0,097
-506,985	64,734	-0,045	0,033
-505,970	53,630	-0,103	-0,073
-504,956	453,081	0,011	-0,018
-503,941	-52,160	-0,111	-0,038
-502,926	-127,104	-0,159	0,017
-501,912	800,000	0,012	0,030
-500,897	592,830	0,018	0,034
-499,883	-200,000	-0,015	-0,155
-498,868	-109,471	-0,158	0,024
-497,853	-200,000	-0,003	-0,099
-496,839	800,000	-0,029	-0,076
-495,824	-200,000	-0,003	-0,110
-494,810	-200,000	-0,000	0,093
-493,795	-107,452	-0,130	0,021
-492,781	74,351	-0,028	-0,021
-491,766	27,016	-0,179	0,111
-490,751	-91,873	-0,096	-0,020
-489,737	76,472	0,068	0,053
-488,722	255,841	0,054	0,068
-487,708	46,515	0,207	0,142
-486,693	-177,938	0,135	0,002
-485,678	-200,000	-0,005	0,042
-484,664	206,060	0,055	-0,063
-483,649	-55,847	0,069	-0,023
-482,635	186,043	0,018	0,020
-481,620	18,515	-0,089	-0,052
-480,605	214,762	0,115	-0,135
-479,591	-99,280	-0,076	-0,014
-478,576	800,000	-0,035	0,082
-477,562	291,961	-0,114	-0,153
-476,547	-200,000	-0,002	-0,078
-475,532	-200,000	0,012	-0,070
-474,518	73,533	0,163	-0,126
-473,503	800,000	0,034	-0,078
-472,489	-200,000	0,010	0,116
-471,474	800,000	-0,039	0,087
-470,459	139,814	-0,087	-0,084
-469,445	187,715	-0,097	0,107
-468,430	3,260	0,032	0,017
-467,416	-91,038	0,037	-0,008
-466,401	800,000	0,032	-0,086
-465,386	-200,000	-0,026	0,091
-464,372	-102,574	-0,051	-0,009
-463,357	4,844	0,102	0,055
-462,343	-200,000	-0,009	-0,138
-461,328	18,266	0,057	-0,034
-460,313	137,729	0,072	0,069
-459,299	109,953	0,040	-0,036
-458,284	-58,033	0,141	0,045
-457,270	-11,980	-0,081	-0,039
-456,255	44,024	-0,041	0,027
-455,241	-200,000	-0,007	-0,067
-454,226	-126,185	-0,036	-0,004
-453,211	-37,310	0,062	0,024
-452,197	296,266	0,107	0,145
-451,182	401,616	0,104	0,161
-450,168	9,986	-0,024	-0,014
-449,153	124,894	-0,069	0,064
-448,138	33,699	-0,168	0,108
-447,124	19,953	-0,017	-0,010
-446,109	128,158	-0,056	0,053
-445,095	-82,167	0,079	0,019
-444,080	-200,000	0,009	0,056
-443,065	-132,836	0,024	-0,002
-442,051	44,455	-0,105	0,071
-441,036	-64,983	0,015	0,004
-440,022	-200,000	-0,016	0,080
-439,007	-14,514	-0,056	-0,027
-437,992	390,741	0,127	0,195
-436,978	-200,000	-0,005	-0,036
-435,963	82,817	-0,056	0,045
-434,949	-63,906	0,068	-0,020
-433,934	86,776	0,075	-0,061
-432,919	-108,109	0,158	-0,025
-431,905	-119,183	0,045	0,006
-430,890	-200,000	0,014	0,154
-429,876	437,501	0,046	-0,074
-428,861	650,851	0,039	0,074
-427,846	-200,000	-0,005	0,039
-426,832	-200,000	-0,005	-0,054
-425,817	-200,000	0,025	0,085
-424,803	246,801	-0,078	-0,097
-423,788	-18,255	0,136	-0,062
-422,773	479,054	0,032	0,054
-421,759	-43,322	-0,135	0,050
-420,744	-200,000	0,007	0,054
-419,730	-31,944	0,169	-0,069
-418,715	637,259	-0,091	-0,171
-417,701	-104,296	-0,048	0,008
-416,686	-54,397	0,069	-0,023
-415,671	192,370	0,070	-0,078
-414,657	800,000	0,022	-0,061
-413,642	-70,852	-0,056	-0,015
-412,628	800,000	0,023	-0,055
-411,613	48,442	-0,161	-0,111
-410,598	91,660	-0,080	-0,066
-409,584	-200,000	-0,003	0,107
-408,569	-172,030	0,174	-0,004
-407,555	-69,084	0,280	0,079
-406,540	-200,000	-0,006	0,084
-405,525	800,000	-0,043	-0,130
-404,511	-15,456	0,194	-0,091
-403,496	800,000	-0,044	-0,136
-402,482	44,953	0,057	-0,039
-401,467	-200,000	0,008	-0,044
-400,452	-82,344	0,117	0,028
-399,438	-200,000	0,009	0,078
-398,423	-200,000	0,018	0,113
-397,409	-51,451	-0,128	-0,044
-396,394	331,156	-0,055	-0,078
-395,379	38,902	-0,040	-0,026
-394,365	-176,861	0,033	-0,001
-393,350	-200,000	0,058	0,275
-392,336	507,521	-0,027	0,047
-391,321	232,189	0,053	0,064
-390,306	436,146	-0,055	-0,088
-389,292	59,349	-0,065	0,047
-388,277	420,478	0,023	0,037
-387,263	-200,000	0,044	0,166
-386,248	-200,000	-0,002	0,015
-385,233	-24,918	0,116	0,050
-384,219	800,000	-0,055	0,128
-383,204	132,399	0,020	0,019
-382,190	-37,199	0,048	0,019
-381,175	-200,000	-0,010	-0,061
-380,160	-200,000	-0,038	-0,125
-379,146	68,457	-0,046	-0,035
-378,131	-200,000	0,002	0,051
-377,117	-200,000	-0,013	0,097
-376,102	800,000	0,026	0,057
-375,088	-139,457	0,084	-0,007
-374,073	-200,000	-0,042	0,181
-373,058	529,994	0,049	0,086
-372,044	72,962	0,056	-0,043
-371,029	-200,000	-0,015	0,071
-370,015	312,410	-0,038	-0,052
-369,000	-200,000	-0,024	-0,094
-367,985	223,690	0,117	-0,139
-366,971	800,000	0,010	0,028
-365,956	-200,000	0,017	0,122
-364,942	-200,000	-0,003	0,163
-363,927	800,000	-0,067	0,194
-362,912	-1,790	-0,032	-0,017
-361,898	-200,000	-0,004	0,090
-360,883	-93,908	0,045	-0,009
-359,869	-65,402	-0,027	-0,008
-358,854	-142,848	0,076	0,005
-357,839	-88,407	0,024	0,005
-356,825	-200,000	0,012	-0,090
-355,810	239,355	-0,078	0,096
-354,796	-91,377	-0,050	-0,010
-353,781	-200,000	-0,003	-0,228
-352,766	-120,348	-0,113	-0,014
-351,752	-134,594	0,074	-0,007
-350,737	-200,000	-0,021	0,103
-349,723	800,000	-0,014	0,043
-348,708	-17,107	-0,106	0,049
-347,693	-200,000	0,003	0,121
-346,679	800,000	0,047	-0,111
-345,664	-138,925	0,131	-0,010
-344,650	-200,000	-0,013	-0,060
-343,635	8,153	-0,043	0,024
-342,620	-19,146	-0,034	-0,015
-341,606	-200,000	-0,003	-0,030
-340,591	70,271	-0,065	-0,049
-339,577	-200,000	0,007	-0,027
-338,562	-104,694	-0,030	-0,005
-337,548	3,492	0,022	-0,012
-336,533	-53,090	0,065	-0,022
-335,518	223,300	-0,057	0,067
-334,504	61,614	0,129	0,094
-333,489	-70,876	0,154	0,042
-332,475	800,000	-0,082	-0,233
-331,460	281,118	-0,042	-0,055
-330,445	66,081	0,052	-0,038
-329,431	-40,644	0,089	0,034
-328,416	800,000	-0,002	0,004
-327,402	0,163	0,013	0,007
-326,387	-67,049	0,173	-0,050
-325,372	561,779	0,099	-0,176
-324,358	231,368	0,015	-0,018
-323,343	800,000	-0,059	0,121
-322,329	-200,000	0,014	-0,091
-321,314	-8,124	0,034	0,017
-320,299	203,916	0,014	0,016
-319,285	-101,969	-0,101	0,018
-318,270	8,005	-0,123	-0,067
-317,256	479,770	-0,032	0,054
-316,241	-93,059	0,074	0,015
-315,226	800,000	-0,025	0,054
-314,212	299,094	-0,043	0,058
-313,197	23,816	0,041	0,024
-312,183	-99,860	-0,120	-0,022
-311,168	-200,000	0,006	-0,021
-310,153	-114,953	-0,104	0,014
-309,139	-63,656	-0,119	-0,035
-308,124	207,559	0,037	-0,043
-307,110	800,000	-0,062	0,142
-306,095	533,093	0,027	0,046
-305,080	-77,961	0,091	-0,023
-304,066	800,000	-0,011	-0,023
-303,051	800,000	-0,066	-0,215
-302,037	566,084	-0,054	-0,096
-301,022	-105,531	-0,060	-0,010
-300,008	-200,000	0,009	0,053
-298,993	123,524	0,136	-0,125
-297,978	163,227	0,023	-0,023
-296,964	-200,000	0,008	-0,114
-295,949	-200,000	0,003	-0,073
-294,935	108,557	0,057	0,050
-293,920	800,000	-0,041	0,094
-292,905	-200,000	0,003	0,070
-291,891	800,000	0,024	0,054
-290,876	-82,792	-0,077	-0,018
-289,862	297,909	-0,014	-0,019
-288,847	-81,855	-0,076	-0,018
-287,832	76,519	0,024	0,019
-286,818	128,577	-0,069	-0,064
-285,803	5,677	0,054	-0,029
-284,789	-72,266	0,136	0,037
-283,774	-100,528	-0,091	0,016
-282,759	203,436	-0,100	-0,114
-281,745	12,841	-0,058	-0,033
-280,730	-142,199	0,061	-0,004
-279,716	-29,037	0,124	-0,052
-278,701	89,517	-0,044	-0,036
-277,686	262,429	0,066	0,084
-276,672	-62,763	-0,084	-0,025
-275,657	-200,000	0,008	-0,063
-274,643	800,000	0,011	-0,029
-273,628	-105,360	0,075	-0,012
-272,613	221,284	0,120	-0,141
-271,599	-200,000	-0,002	0,034
-270,584	-120,781	0,061	0,007
-269,570	-59,903	-0,057	0,018
-268,555	69,778	0,045	-0,034
-267,540	13,298	0,047	0,027
-266,526	-57,712	-0,070	0,022
-265,511	366,083	-0,059	-0,088
-264,497	10,091	0,072	0,040
-263,482	149,181	-0,118	0,117
-262,467	-60,895	0,090	0,028
-261,453	744,511	-0,045	-0,088
-260,438	-75,161	-0,064	0,017
-259,424	31,903	-0,143	-0,090
-258,409	223,787	-0,026	-0,030
-257,395	-200,000	0,005	0,031
-256,380	-120,020	0,043	0,005
-255,365	-189,250	-0,135	0,001
-254,351	1,742	0,058	0,030
-253,336	-200,000	-0,005	-0,172
-252,322	-16,272	-0,128	-0,059
-251,307	-200,000	-0,005	-0,095
-250,292	-68,264	0,100	-0,028
-249,278	259,749	-0,072	-0,091
-248,263	674,478	0,050	0,095
-247,249	-90,729	-0,053	0,011
-246,234	643,340	-0,064	-0,120
-245,219	-0,104	-0,093	-0,048
-244,205	800,000	0,016	-0,033
-243,190	-200,000	0,006	0,051
-242,176	800,000	-0,035	-0,108
-241,161	800,000	0,048	0,131
-240,146	170,936	-0,058	-0,061
-239,132	6,508	-0,070	0,038
-238,117	800,000	0,017	0,038
-237,103	-200,000	0,016	-0,080
-236,088	800,000	-0,039	-0,096
-235,073	-99,649	0,205	-0,037
-234,059	448,460	0,054	-0,088
-233,044	-153,623	0,138	0,007
-232,030	-97,020	-0,046	-0,009
-231,015	22,471	-0,061	0,036
-230,000	-89,045	0,103	-0,022
-228,986	-119,863	-0,105	0,013
-227,971	-103,979	0,165	-0,028
-226,957	-200,000	0,009	0,113
-225,942	-200,000	0,000	-0,006
-224,927	579,220	0,038	-0,069
-223,913	-61,997	-0,059	0,018
-222,898	255,155	0,107	-0,134
-221,884	209,710	-0,035	-0,040
-220,869	-71,392	-0,053	0,014
-219,855	-200,000	0,003	-0,097
-218,840	233,104	0,081	0,097
-217,825	101,805	0,155	0,132
-216,811	303,116	0,053	-0,071
-215,796	7,432	-0,143	0,078
-214,782	190,602	0,012	0,014
-213,767	367,480	0,032	0,047
-212,752	-8,555	0,215	0,105
-211,738	122,405	0,049	0,044
-210,723	118,842	0,010	0,009
-209,709	-167,905	0,059	0,002
-208,694	208,090	0,073	0,084
-207,679	146,181	-0,052	-0,051
-206,665	-200,000	0,004	0,019
-205,650	7,272	0,045	-0,025
-204,636	-88,893	0,061	-0,013
-203,621	-200,000	0,008	0,112
-202,606	-100,360	-0,074	-0,013
-201,592	-109,818	-0,061	-0,009
-200,577	29,041	-0,105	-0,065
-199,563	800,000	0,015	-0,042
-198,548	160,444	0,099	-0,101
-197,533	95,306	0,069	0,058
-196,519	-200,000	0,000	-0,140
-195,504	-200,000	-0,026	-0,143
-194,490	-118,142	-0,108	0,014
-193,475	800,000	0,038	0,114
-192,460	800,000	0,026	0,065
-191,446	-200,000	-0,020	0,084
-190,431	45,155	0,096	0,065
-189,417	249,163	-0,071	0,088
-188,402	173,832	0,060	-0,064
-187,387	-50,674	-0,090	-0,031
-186,373	266,350	-0,055	0,070
-185,358	-200,000	0,011	-0,130
-184,344	353,045	0,040	0,058
-183,329	-117,757	0,037	-0,005
-182,315	3,621	0,092	-0,049
-181,300	-71,548	-0,114	0,031
-180,285	201,863	0,014	-0,016
-179,271	176,079	-0,082	-0,087
-178,256	800,000	0,018	-0,045
-177,242	-119,538	-0,070	-0,009
-176,227	-90,041	-0,100	-0,021
-175,212	-97,390	-0,054	0,010
-174,198	-29,040	0,085	-0,036
-173,183	-181,285	-0,103	0,001
-172,169	363,295	0,036	0,052
-171,154	-200,000	-0,002	0,012
-170,139	800,000	0,014	-0,030
-169,125	587,938	0,039	0,070
-168,110	293,391	0,026	0,034
-167,096	189,762	0,012	0,013
-166,081	800,000	-0,022	0,047
-165,066	-200,000	0,017	0,097
-164,052	-6,126	-0,041	-0,020
-163,037	27,945	0,077	-0,047
-162,023	-200,000	0,023	-0,105
-161,008	-200,000	-0,012	0,119
-159,993	-29,080	0,157	-0,065
-158,979	-200,000	-0,009	-0,122
-157,964	225,946	-0,133	-0,157
-156,950	-200,000	-0,000	0,078
-155,935	-106,708	-0,045	-0,007
-154,920	-155,825	0,067	0,003
-153,906	-200,000	0,016	0,083
-152,891	373,085	-0,061	-0,091
-151,877	247,292	0,007	0,009
-150,862	77,721	0,058	0,045
-149,847	207,495	-0,054	0,062
-148,833	-65,052	-0,079	0,023
-147,818	131,869	0,079	0,074
-146,804	242,417	0,116	-0,142
-145,789	507,344	-0,035	0,059
-144,775	-68,968	0,094	-0,026
-143,760	724,073	-0,049	0,095
-142,745	97,703	0,020	0,017
-141,731	-200,000	0,007	0,024
-140,716	-97,307	0,047	-0,009
-139,702	7,960	-0,052	-0,029
-138,687	31,558	-0,091	0,057
-137,672	-99,418	0,154	-0,028
-136,658	-200,000	0,017	0,172
-135,643	-80,844	-0,036	0,009
-134,629	85,806	-0,041	-0,033
-133,614	-200,000	0,001	0,017
-132,599	-200,000	-0,013	0,105
-131,585	-200,000	-0,009	-0,037
-130,570	-200,000	-0,007	-0,069
-129,556	-200,000	-0,037	0,228
-128,541	-123,182	0,087	-0,010
-127,526	115,485	-0,122	-0,109
-126,512	182,936	-0,029	0,031
-125,497	501,919	-0,062	0,104
-124,483	246,817	-0,044	0,054
-123,468	-200,000	-0,003	0,018
-122,453	248,354	0,073	-0,089
-121,439	-200,000	0,018	-0,065
-120,424	362,551	0,071	0,104
-119,410	-66,881	0,099	-0,028
