DTS Sentinel unit serial number:	SN410029Multiplexer serial number:	ORYXHardware model number:	OX2-SRSoftware version number:	ORYX F/W v4,00 Oryx Data Collector v3.7.2.0data status	okinstallation	B6 Nyhavnadifferential loss correction	single-endedforward channel	channel 2reverse channel	N/Adate	2023/12/11time	04:15:08forward acquisition time	300,00reverse acquisition time	0,00gamma	499,1914k internal	0,3125k external	0,3125temperature offset calibration	1,0000default loss term (dB/km)	0,3820temperature slope calibration	1,0000multiplexer offset coefficient	1,0000multiplexer slope coefficient	1,0000fibre end	0,00T internal ref (°C)	20,68T ext. ref 1 (°C)	3,41T ext. ref 2 (°C)	3,41length (m)	temperature (°C)	Stokes	anti-Stokes-744,400	800,000	0,029	-0,093
-743,385	-40,681	-0,188	0,072
-742,371	-9,028	0,076	-0,038
-741,356	21,570	-0,224	0,135
-740,342	-200,000	0,018	-0,099
-739,327	-153,732	-0,116	0,006
-738,312	-200,000	-0,018	-0,063
-737,298	-53,553	-0,272	0,092
-736,283	-63,187	0,083	0,025
-735,269	-76,849	-0,367	0,095
-734,254	77,106	0,064	0,051
-733,239	-177,944	-0,379	0,007
-732,225	-133,362	0,197	0,018
-731,210	-200,000	0,038	0,000
-730,196	540,308	0,044	-0,078
-729,181	-104,579	-0,049	-0,008
-728,167	293,812	0,025	-0,034
-727,152	295,171	-0,074	0,101
-726,137	10,444	-0,096	0,054
-725,123	-13,859	0,084	0,040
-724,108	-58,852	-0,079	-0,025
-723,094	91,584	0,065	-0,054
-722,079	-200,000	-0,015	0,073
-721,064	-16,679	-0,122	-0,057
-720,050	-66,918	0,089	0,026
-719,035	-149,664	-0,112	-0,006
-718,021	800,000	-0,075	-0,155
-717,006	-141,725	-0,213	0,016
-715,991	524,697	-0,059	-0,104
-714,977	-200,000	-0,028	-0,128
-713,962	47,242	0,079	-0,054
-712,948	259,520	-0,078	0,100
-711,933	-53,798	0,096	-0,033
-710,918	-200,000	-0,005	-0,022
-709,904	339,329	-0,102	-0,149
-708,889	-168,300	-0,081	0,002
-707,875	780,741	-0,038	-0,077
-706,860	143,453	-0,094	0,093
-705,845	128,960	-0,024	-0,023
-704,831	-69,406	0,102	0,029
-703,816	-7,311	0,039	-0,019
-702,802	-200,000	-0,021	-0,132
-701,787	-200,000	-0,028	-0,116
-700,772	-200,000	0,018	-0,085
-699,758	394,561	-0,041	-0,064
-698,743	541,012	0,016	-0,029
-697,729	800,000	0,050	0,119
-696,714	-200,000	-0,004	0,047
-695,699	18,296	-0,099	0,059
-694,685	709,069	0,023	0,045
-693,670	-123,109	-0,081	0,010
-692,656	-132,852	-0,021	-0,002
-691,641	-84,413	-0,090	-0,021
-690,627	-56,215	0,088	0,029
-689,612	-99,608	-0,093	0,017
-688,597	-75,232	-0,199	-0,052
-687,583	800,000	0,030	-0,064
-686,568	-78,201	-0,140	-0,035
-685,554	-200,000	0,014	-0,078
-684,539	290,665	0,045	-0,061
-683,524	118,983	-0,077	0,071
-682,510	240,400	-0,094	0,117
-681,495	800,000	-0,056	-0,166
-680,481	27,208	-0,045	-0,028
-679,466	-200,000	0,000	-0,078
-678,451	31,793	0,037	-0,024
-677,437	129,468	0,066	-0,063
-676,422	-173,217	0,136	0,003
-675,408	-200,000	0,003	-0,036
-674,393	128,762	-0,041	-0,038
-673,378	-200,000	0,016	-0,063
-672,364	-21,978	-0,052	-0,023
-671,349	68,352	-0,065	0,050
-670,335	193,376	0,020	-0,022
-669,320	-193,685	0,166	-0,001
-668,305	-200,000	0,038	0,128
-667,291	-200,000	-0,011	0,054
-666,276	193,585	-0,124	-0,140
-665,262	-200,000	0,012	-0,055
-664,247	-200,000	0,016	0,107
-663,232	-39,083	-0,120	-0,047
-662,218	-200,000	0,002	0,029
-661,203	-108,479	-0,121	0,019
-660,189	281,836	0,037	0,050
-659,174	314,447	0,064	-0,090
-658,159	-77,479	-0,110	0,028
-657,145	82,088	0,095	-0,076
-656,130	-200,000	-0,013	-0,069
-655,116	520,017	0,045	0,078
-654,101	-32,477	-0,206	0,085
-653,086	-200,000	0,011	0,090
-652,072	162,964	-0,038	-0,040
-651,057	-6,501	0,066	0,033
-650,043	-200,000	-0,038	-0,128
-649,028	-137,452	-0,014	-0,001
-648,014	-200,000	-0,003	-0,102
-646,999	-27,692	0,037	0,016
-645,984	-30,069	-0,112	-0,047
-644,970	68,083	-0,057	-0,043
-643,955	-52,303	0,012	0,004
-642,941	100,743	-0,161	-0,139
-641,926	-73,916	-0,039	0,010
-640,911	653,648	-0,014	-0,026
-639,897	-38,102	-0,014	-0,006
-638,882	32,370	0,113	-0,072
-637,868	-200,000	-0,035	-0,188
-636,853	800,000	0,063	-0,146
-635,838	-200,000	0,031	-0,152
-634,824	161,400	-0,053	-0,055
-633,809	656,682	-0,032	0,062
-632,795	800,000	-0,003	0,008
-631,780	127,016	0,077	-0,072
-630,765	-54,455	-0,169	-0,057
-629,751	-84,056	-0,091	0,021
-628,736	800,000	-0,041	-0,126
-627,722	-200,000	-0,024	0,085
-626,707	800,000	0,010	0,021
-625,692	-19,071	0,008	-0,004
-624,678	-200,000	0,001	-0,065
-623,663	800,000	-0,015	-0,047
-622,649	800,000	-0,069	0,163
-621,634	800,000	-0,053	-0,161
-620,619	207,174	-0,081	0,093
-619,605	800,000	0,043	0,131
-618,590	-200,000	0,007	-0,024
-617,576	800,000	0,080	0,190
-616,561	-200,000	0,004	0,087
-615,546	-138,858	-0,053	-0,004
-614,532	-166,857	-0,085	0,003
-613,517	-181,715	-0,062	0,001
-612,503	721,903	0,018	-0,035
-611,488	233,244	0,098	0,119
-610,474	800,000	0,077	0,208
-609,459	583,023	0,051	0,093
-608,444	229,093	0,045	-0,054
-607,430	-200,000	-0,001	0,011
-606,415	-5,800	-0,096	-0,049
-605,401	66,033	-0,074	0,055
-604,386	3,488	-0,085	0,046
-603,371	-200,000	0,000	0,082
-602,357	69,863	0,097	0,074
-601,342	-52,405	0,032	0,011
-600,328	-200,000	-0,010	0,053
-599,313	321,296	0,021	0,029
-598,298	136,032	-0,058	-0,056
-597,284	-173,361	0,137	0,003
-596,269	-200,000	-0,020	0,136
-595,255	191,608	0,026	-0,029
-594,240	278,301	-0,116	-0,153
-593,225	341,021	0,012	-0,018
-592,211	-136,156	0,065	-0,006
-591,196	743,673	-0,026	0,052
-590,182	43,412	0,034	0,023
-589,167	-200,000	-0,028	0,213
-588,152	-69,890	-0,078	-0,022
-587,138	-102,897	-0,095	0,017
-586,123	800,000	0,027	-0,083
-585,109	76,479	-0,101	-0,079
-584,094	60,940	0,043	-0,031
-583,079	-200,000	0,006	-0,132
-582,065	-200,000	-0,011	-0,042
-581,050	-15,373	-0,051	0,024
-580,036	92,053	-0,081	-0,068
-579,021	-200,000	-0,006	-0,103
-578,006	643,921	-0,029	0,055
-576,992	-63,300	0,024	0,007
-575,977	-200,000	0,014	0,053
-574,963	800,000	0,031	0,093
-573,948	800,000	0,011	-0,027
-572,934	800,000	-0,033	0,102
-571,919	-184,503	0,105	-0,001
-570,904	93,832	-0,102	-0,086
-569,890	-86,715	-0,152	-0,034
-568,875	-200,000	0,007	0,105
-567,861	800,000	-0,068	0,187
-566,846	-200,000	-0,006	-0,039
-565,831	575,622	-0,043	0,079
-564,817	52,612	0,024	-0,017
-563,802	-144,267	-0,117	0,008
-562,788	47,126	-0,066	-0,045
-561,773	-105,246	-0,039	0,007
-560,758	800,000	0,037	0,084
-559,744	32,590	0,039	-0,025
-558,729	250,246	-0,076	-0,096
-557,715	184,866	0,160	-0,176
-556,700	-200,000	0,027	-0,181
-555,685	-102,325	-0,059	0,010
-554,671	800,000	0,036	-0,074
-553,656	-200,000	0,005	0,064
-552,642	-200,000	-0,003	0,087
-551,627	-200,000	-0,165	0,000
-550,612	-93,358	-0,056	-0,011
-549,598	222,448	-0,087	0,104
-548,583	-200,000	0,013	0,109
-547,569	80,424	-0,024	0,019
-546,554	800,000	0,035	-0,086
-545,539	282,371	-0,062	-0,082
-544,525	-146,516	0,034	0,002
-543,510	-200,000	-0,005	0,039
-542,496	-102,365	0,135	-0,024
-541,481	78,723	-0,136	0,107
-540,466	800,000	-0,070	-0,163
-539,452	354,882	0,029	-0,042
-538,437	-200,000	0,018	0,121
-537,423	349,415	-0,051	-0,074
-536,408	93,195	0,108	0,090
-535,393	-200,000	0,036	-0,136
-534,379	800,000	0,029	0,061
-533,364	291,312	-0,036	0,048
-532,350	714,219	-0,052	0,103
-531,335	-188,295	0,126	0,001
-530,321	-200,000	0,005	-0,050
-529,306	-70,813	-0,122	-0,034
-528,291	120,062	-0,141	0,129
-527,277	800,000	-0,034	-0,100
-526,262	-97,848	-0,071	0,013
-525,248	-34,588	0,079	-0,032
-524,233	76,742	-0,036	-0,028
-523,218	-200,000	-0,014	-0,061
-522,204	109,812	-0,034	-0,030
-521,189	207,399	0,084	0,097
-520,175	-147,236	-0,091	0,006
-519,160	-59,124	0,122	-0,038
-518,145	11,526	0,097	-0,055
-517,131	-73,695	-0,068	0,018
-516,116	172,458	-0,062	0,065
-515,102	-200,000	0,010	0,196
-514,087	-200,000	-0,005	-0,070
-513,072	131,227	-0,087	-0,082
-512,058	-200,000	0,016	-0,082
-511,043	-200,000	-0,020	0,079
-510,029	259,613	-0,013	-0,017
-509,014	11,040	0,112	0,063
-507,999	-13,076	0,057	0,027
-506,985	-118,777	0,167	0,021
-505,970	70,521	0,041	-0,031
-504,956	579,609	-0,049	0,089
-503,941	-200,000	-0,015	0,062
-502,926	45,531	0,101	0,069
-501,912	-200,000	0,031	0,110
-500,897	711,530	-0,008	0,016
-499,883	-24,372	-0,101	-0,044
-498,868	73,173	-0,112	-0,087
-497,853	-200,000	0,008	-0,068
-496,839	-200,000	-0,012	-0,051
-495,824	342,768	0,070	0,101
-494,810	-200,000	-0,012	0,084
-493,795	302,359	-0,043	-0,059
-492,781	55,853	0,061	0,044
-491,766	-200,000	-0,024	0,120
-490,751	-59,440	-0,139	-0,044
-489,737	-200,000	0,023	-0,099
-488,722	800,000	-0,036	-0,077
-487,708	99,390	-0,027	-0,023
-486,693	188,248	0,024	0,027
-485,678	800,000	-0,006	-0,015
-484,664	78,098	0,059	0,046
-483,649	800,000	-0,051	0,130
-482,635	194,544	-0,061	0,069
-481,620	-35,670	0,115	0,046
-480,605	84,098	0,110	-0,089
-479,591	-7,771	-0,013	0,006
-478,576	370,984	-0,016	0,024
-477,562	54,765	0,040	-0,029
-476,547	-200,000	-0,005	-0,240
-475,532	-44,414	0,167	-0,061
-474,518	-141,083	0,046	0,003
-473,503	-102,660	0,033	0,006
-472,489	209,651	0,168	0,195
-471,474	25,122	-0,139	-0,085
-470,459	-23,237	-0,079	-0,035
-469,445	137,163	-0,041	-0,040
-468,430	144,360	0,135	0,133
-467,416	800,000	0,045	0,126
-466,401	-200,000	-0,005	-0,121
-465,386	800,000	-0,055	-0,154
-464,372	27,971	0,047	0,029
-463,357	-44,926	-0,082	-0,030
-462,343	-200,000	-0,007	0,092
-461,328	-86,476	0,008	0,002
-460,313	231,690	0,038	-0,045
-459,299	-200,000	-0,007	-0,114
-458,284	-200,000	0,005	-0,030
-457,270	590,409	0,017	-0,032
-456,255	-137,072	-0,101	-0,008
-455,241	-200,000	0,041	-0,189
-454,226	800,000	0,032	-0,085
-453,211	-200,000	-0,017	-0,114
-452,197	800,000	0,018	-0,038
-451,182	125,362	0,137	0,128
-450,168	-200,000	0,017	0,126
-449,153	-87,345	-0,037	-0,008
-448,138	-52,476	-0,014	0,005
-447,124	519,464	0,042	-0,072
-446,109	800,000	0,045	-0,133
-445,095	-200,000	0,005	-0,085
-444,080	319,163	0,027	-0,038
-443,065	-200,000	0,026	0,109
-442,051	66,034	0,044	0,033
-441,036	-100,932	0,067	0,012
-440,022	-200,000	0,002	-0,067
-439,007	443,588	-0,039	0,062
-437,992	800,000	0,035	-0,092
-436,978	-154,229	0,128	-0,006
-435,963	383,623	-0,055	0,083
-434,949	531,953	-0,024	-0,042
-433,934	800,000	-0,012	-0,025
-432,919	-116,663	-0,030	-0,004
-431,905	-118,709	0,054	-0,007
-430,890	315,738	0,017	0,023
-429,876	-200,000	-0,018	0,073
-428,861	529,286	0,064	0,112
-427,846	-51,213	0,083	0,028
-426,832	-200,000	-0,037	-0,129
-425,817	8,372	-0,093	-0,051
-424,803	163,877	0,059	-0,061
-423,788	38,298	-0,103	-0,067
-422,773	-200,000	-0,009	-0,043
-421,759	292,023	0,054	-0,073
-420,744	-3,652	-0,103	0,052
-419,730	800,000	0,053	-0,160
-418,715	350,969	-0,062	-0,090
-417,701	-200,000	-0,018	-0,092
-416,686	-135,933	0,239	0,020
-415,671	-200,000	0,007	-0,043
-414,657	-57,824	0,037	0,012
-413,642	29,323	0,125	0,078
-412,628	800,000	0,049	-0,139
-411,613	155,647	-0,141	-0,143
-410,598	-2,206	0,041	0,021
-409,584	800,000	0,080	0,170
-408,569	318,431	0,077	-0,107
-407,555	800,000	-0,007	0,017
-406,540	83,607	0,045	0,036
-405,525	-160,098	-0,079	0,003
-404,511	-146,033	-0,101	-0,006
-403,496	579,640	-0,021	-0,038
-402,482	-200,000	0,002	-0,036
-401,467	646,957	0,047	0,089
-400,452	-65,500	0,072	-0,021
-399,438	0,625	-0,174	0,091
-398,423	-200,000	0,016	-0,071
-397,409	336,801	-0,051	-0,073
-396,394	-135,832	-0,098	-0,008
-395,379	118,920	-0,047	0,043
-394,365	-24,022	0,165	-0,072
-393,350	800,000	0,079	0,186
-392,336	800,000	-0,054	0,114
-391,321	729,868	0,020	-0,039
-390,306	129,806	0,029	0,027
-389,292	800,000	0,009	0,023
-388,277	-47,289	-0,088	0,031
-387,263	-200,000	0,000	0,079
-386,248	-200,000	0,016	-0,083
-385,233	-200,000	-0,016	0,104
-384,219	-200,000	-0,007	-0,098
-383,204	800,000	-0,042	-0,118
-382,190	-200,000	0,006	-0,074
-381,175	-200,000	0,007	-0,128
-380,160	249,695	-0,005	0,007
-379,146	-128,445	0,076	-0,008
-378,131	-34,505	0,033	0,013
-377,117	-200,000	0,012	-0,102
-376,102	-200,000	-0,017	0,074
-375,088	73,304	0,097	0,074
-374,073	-152,277	-0,060	-0,003
-373,058	69,783	-0,019	-0,015
-372,044	-200,000	0,020	-0,073
-371,029	-200,000	0,010	0,094
-370,015	-184,991	0,124	0,001
-369,000	800,000	0,049	-0,109
-367,985	131,192	-0,113	0,107
-366,971	448,972	-0,055	0,089
-365,956	61,899	0,026	0,019
-364,942	800,000	0,050	0,112
-363,927	-183,903	0,081	-0,001
-362,912	800,000	-0,040	-0,094
-361,898	-200,000	0,010	-0,117
-360,883	800,000	0,038	-0,082
-359,869	-200,000	-0,044	-0,154
-358,854	-39,579	-0,088	0,034
-357,839	-31,822	0,146	0,060
-356,825	5,369	0,140	0,076
-355,810	-16,493	-0,076	-0,035
-354,796	800,000	0,032	0,065
-353,781	-121,116	-0,207	0,025
-352,766	219,576	-0,069	-0,081
-351,752	66,083	-0,053	0,040
-350,737	-200,000	0,014	-0,095
-349,723	-200,000	0,096	0,000
-348,708	37,093	0,118	-0,076
-347,693	-200,000	0,009	-0,041
-346,679	-11,722	-0,068	0,033
-345,664	-47,608	-0,082	-0,029
-344,650	144,051	-0,063	-0,061
-343,635	-98,703	0,174	-0,032
-342,620	-83,549	0,067	-0,015
-341,606	368,918	0,074	0,110
-340,591	-163,114	-0,138	-0,005
-339,577	-122,401	-0,061	-0,007
-338,562	-200,000	-0,031	-0,113
-337,548	-165,702	-0,080	0,002
-336,533	-200,000	0,001	0,153
-335,518	-200,000	0,005	0,176
-334,504	-200,000	-0,010	-0,060
-333,489	-32,456	-0,096	0,039
-332,475	800,000	-0,017	-0,046
-331,460	-200,000	0,021	0,074
-330,445	404,242	0,045	0,069
-329,431	-48,853	0,099	0,035
-328,416	-134,746	0,152	0,013
-327,402	411,886	-0,036	0,057
-326,387	69,662	0,103	0,078
-325,372	-200,000	-0,009	0,098
-324,358	-200,000	-0,010	-0,104
-323,343	68,218	0,098	-0,073
-322,329	-171,286	0,025	0,001
-321,314	331,778	-0,013	0,019
-320,299	663,885	-0,067	0,128
-319,285	800,000	0,037	0,092
-318,270	800,000	-0,014	-0,044
-317,256	759,628	0,006	-0,011
-316,241	223,500	-0,066	-0,078
-315,226	554,490	0,063	0,112
-314,212	119,935	0,064	0,058
-313,197	800,000	0,052	0,153
-312,183	-3,319	-0,026	-0,013
-311,168	-89,844	-0,059	0,013
-310,153	800,000	0,035	0,085
-309,139	48,347	-0,093	0,064
-308,124	282,735	0,069	-0,091
-307,110	-149,535	0,127	-0,007
-306,095	45,120	0,058	0,039
-305,080	800,000	-0,041	0,127
-304,066	800,000	0,043	-0,093
-303,051	46,866	0,042	-0,028
-302,037	751,271	0,016	-0,031
-301,022	-117,162	0,049	0,006
-300,008	-200,000	0,001	0,160
-298,993	73,991	0,080	0,061
-297,978	373,544	-0,069	0,103
-296,964	-24,353	0,039	0,017
-295,949	-92,053	0,093	-0,019
-294,935	720,520	0,044	-0,087
-293,920	800,000	0,027	-0,069
-292,905	-200,000	-0,020	-0,113
-291,891	-200,000	-0,046	0,213
-290,876	-200,000	-0,005	0,099
-289,862	166,567	0,130	-0,135
-288,847	-103,468	-0,165	0,028
-287,832	-200,000	0,024	0,091
-286,818	521,891	0,021	0,037
-285,803	-200,000	0,010	0,068
-284,789	23,815	0,048	0,029
-283,774	204,639	0,010	-0,011
-282,759	-200,000	0,008	0,091
-281,745	-200,000	0,012	0,062
-280,730	0,859	-0,097	-0,051
-279,716	-134,316	0,042	0,004
-278,701	40,001	0,078	-0,051
-277,686	116,259	0,040	-0,036
-276,672	-116,688	0,128	-0,017
-275,657	768,479	0,041	-0,082
-274,643	692,266	0,037	0,071
-273,628	223,296	-0,031	-0,036
-272,613	43,655	-0,040	-0,026
-271,599	-200,000	0,008	0,153
-270,584	-200,000	-0,013	0,122
-269,570	-29,946	0,057	-0,024
-268,555	15,753	-0,100	-0,057
-267,540	240,572	-0,072	0,088
-266,526	123,956	-0,022	0,021
-265,511	-25,078	-0,076	-0,033
-264,497	133,024	0,045	-0,042
-263,482	-20,095	0,094	0,042
-262,467	228,334	-0,037	0,044
-261,453	-200,000	-0,009	0,105
-260,438	-200,000	-0,020	0,162
-259,424	-200,000	0,013	-0,066
-258,409	-200,000	0,011	-0,107
-257,395	800,000	-0,035	0,072
-256,380	-200,000	0,029	-0,100
-255,365	800,000	-0,041	0,083
-254,351	800,000	0,040	-0,120
-253,336	-200,000	0,015	-0,065
-252,322	645,938	-0,038	0,072
-251,307	-200,000	0,013	0,078
-250,292	270,923	0,135	-0,174
-249,278	53,382	-0,063	0,044
-248,263	188,898	0,077	0,084
-247,249	183,338	-0,061	0,066
-246,234	278,770	-0,047	0,062
-245,219	-3,403	0,078	0,040
-244,205	800,000	0,022	-0,061
-243,190	800,000	0,044	-0,118
-242,176	617,611	-0,030	0,055
-241,161	52,057	0,119	0,083
-240,146	670,325	0,035	0,066
-239,132	-200,000	0,017	-0,069
-238,117	-194,365	-0,056	0,000
-237,103	800,000	-0,038	0,109
-236,088	800,000	-0,018	0,050
-235,073	92,863	0,028	-0,023
-234,059	16,730	0,045	-0,026
-233,044	800,000	0,025	0,065
-232,030	344,635	-0,064	-0,092
-231,015	403,133	-0,097	-0,149
-230,000	80,834	-0,022	-0,017
-228,986	77,546	-0,034	-0,026
-227,971	-90,500	-0,125	-0,026
-226,957	-36,849	0,232	0,090
-225,942	800,000	0,040	0,105
-224,927	-93,244	-0,071	-0,014
-223,913	-103,445	-0,036	0,006
-222,898	-145,531	-0,094	-0,006
-221,884	90,326	-0,038	0,031
-220,869	368,600	0,070	0,104
-219,855	-200,000	-0,013	0,092
-218,840	-200,000	0,017	0,104
-217,825	28,830	0,127	0,078
-216,811	800,000	0,028	0,086
-215,796	-200,000	0,017	0,091
-214,782	-200,000	-0,008	0,083
-213,767	-63,207	-0,048	-0,014
-212,752	800,000	0,030	0,090
-211,738	558,415	-0,084	0,148
-210,723	232,230	0,027	0,032
-209,709	-124,933	-0,121	0,013
-208,694	645,664	-0,052	-0,097
-207,679	201,465	-0,128	-0,144
-206,665	-140,885	0,071	0,005
-205,650	-200,000	-0,039	-0,144
-204,636	-23,401	-0,101	0,044
-203,621	-200,000	0,037	0,141
-202,606	-31,204	-0,160	-0,066
-201,592	168,676	-0,086	-0,090
-200,577	550,451	-0,061	-0,107
-199,563	800,000	0,019	-0,040
-198,548	-200,000	0,023	-0,078
-197,533	467,377	0,040	-0,065
-196,519	-56,943	-0,016	0,005
-195,504	800,000	0,025	-0,077
-194,490	800,000	0,026	-0,055
-193,475	800,000	0,023	-0,052
-192,460	-84,420	0,049	0,011
-191,446	-30,590	0,103	-0,042
-190,431	-175,696	0,104	-0,002
-189,417	47,928	-0,093	0,063
-188,402	98,720	0,062	-0,052
-187,387	-8,043	-0,077	-0,038
-186,373	3,572	0,027	0,014
-185,358	-200,000	0,008	-0,034
-184,344	178,841	0,080	0,086
-183,329	-120,484	0,135	-0,017
-182,315	-200,000	-0,016	0,081
-181,300	493,695	-0,027	0,046
-180,285	-200,000	-0,021	-0,084
-179,271	-87,204	-0,228	-0,050
-178,256	381,570	0,070	-0,105
-177,242	800,000	0,037	0,082
-176,227	584,853	0,062	0,112
-175,212	-200,000	0,018	-0,059
-174,198	56,400	-0,072	-0,051
-173,183	-200,000	-0,005	-0,048
-172,169	193,131	-0,032	-0,036
-171,154	800,000	-0,038	0,080
-170,139	35,738	-0,111	-0,071
-169,125	140,141	0,034	-0,032
-168,110	159,456	0,039	-0,040
-167,096	-75,805	-0,142	0,036
-166,081	-135,636	0,097	-0,008
-165,066	-131,023	0,083	0,008
-164,052	-45,332	-0,176	-0,063
-163,037	48,275	0,121	-0,082
-162,023	117,333	-0,046	-0,041
-161,008	800,000	-0,030	-0,075
-159,993	-200,000	0,009	-0,129
-158,979	-130,146	-0,184	-0,018
-157,964	-6,713	-0,076	-0,038
-156,950	-14,842	-0,120	-0,056
-155,935	-123,818	-0,038	-0,004
-154,920	-0,636	0,121	0,062
-153,906	19,272	0,102	-0,060
-152,891	-70,899	0,099	0,027
-151,877	-200,000	0,035	-0,239
-150,862	30,229	0,020	-0,013
-149,847	725,474	0,075	-0,146
-148,833	56,011	0,063	0,044
-147,818	89,655	-0,053	0,043
-146,804	148,877	0,029	-0,028
-145,789	-77,435	0,116	0,029
-144,775	-102,230	-0,048	-0,008
-143,760	-160,735	0,013	0,000
-142,745	-43,793	-0,088	0,032
-141,731	-200,000	-0,005	0,056
-140,716	-200,000	-0,020	0,066
-139,702	-5,990	0,182	0,090
-138,687	64,364	-0,080	-0,058
-137,672	150,309	0,071	-0,070
-136,658	-117,597	0,057	-0,007
-135,643	268,975	-0,128	0,164
-134,629	800,000	-0,012	-0,025
-133,614	-200,000	0,001	-0,071
-132,599	123,576	-0,058	-0,053
-131,585	109,515	-0,109	0,095
-130,570	90,759	-0,181	-0,147
-129,556	393,936	-0,085	-0,130
-128,541	669,260	-0,032	0,061
-127,526	-200,000	0,000	-0,091
-126,512	173,760	-0,030	-0,032
-125,497	800,000	-0,044	0,091
-124,483	800,000	-0,031	0,068
-123,468	-200,000	0,032	-0,133
-122,453	-143,460	-0,155	0,011
-121,439	154,561	-0,044	-0,044
-120,424	504,753	-0,043	0,073
