DTS Sentinel unit serial number:	SN410029Multiplexer serial number:	ORYXHardware model number:	OX2-SRSoftware version number:	ORYX F/W v4,00 Oryx Data Collector v3.7.2.0data status	okinstallation	B6 Nyhavnadifferential loss correction	single-endedforward channel	channel 2reverse channel	N/Adate	2023/12/11time	07:25:08forward acquisition time	300,00reverse acquisition time	0,00gamma	499,1914k internal	0,3128k external	0,3128temperature offset calibration	1,0000default loss term (dB/km)	0,3820temperature slope calibration	1,0000multiplexer offset coefficient	1,0000multiplexer slope coefficient	1,0000fibre end	0,00T internal ref (°C)	19,11T ext. ref 1 (°C)	1,61T ext. ref 2 (°C)	1,64length (m)	temperature (°C)	Stokes	anti-Stokes-744,400	116,308	0,034	-0,031
-743,385	-144,388	-0,316	0,022
-742,371	-200,000	0,001	-0,046
-741,356	107,651	-0,231	0,205
-740,342	-72,545	0,159	-0,043
-739,327	58,252	-0,125	0,091
-738,312	-200,000	-0,009	-0,048
-737,298	-89,929	-0,404	0,087
-736,283	59,768	0,106	-0,078
-735,269	-174,657	-0,103	-0,002
-734,254	28,359	0,056	-0,035
-733,239	-82,966	-0,452	-0,108
-732,225	83,849	0,097	0,079
-731,210	-160,287	-0,240	-0,009
-730,196	-73,001	0,078	0,021
-729,181	-200,000	-0,014	0,050
-728,167	-85,766	0,172	0,039
-727,152	219,956	-0,058	0,069
-726,137	-73,258	0,039	-0,010
-725,123	549,091	0,049	0,088
-724,108	-130,430	-0,138	0,014
-723,094	737,687	-0,008	0,017
-722,079	-200,000	0,022	-0,089
-721,064	-24,777	-0,082	-0,036
-720,050	-73,281	0,011	0,003
-719,035	-123,847	-0,044	0,005
-718,021	800,000	-0,062	-0,143
-717,006	-200,000	-0,012	0,061
-715,991	-200,000	-0,016	0,116
-714,977	-200,000	0,012	-0,192
-713,962	156,938	-0,110	-0,113
-712,948	-78,753	-0,054	-0,014
-711,933	-66,271	-0,089	0,026
-710,918	-42,823	-0,063	-0,024
-709,904	-200,000	-0,006	-0,130
-708,889	-200,000	0,058	0,239
-707,875	200,131	-0,026	-0,030
-706,860	31,666	0,051	0,032
-705,845	133,657	-0,077	0,074
-704,831	431,052	0,047	0,076
-703,816	-90,892	-0,076	-0,016
-702,802	-45,501	-0,091	0,033
-701,787	10,790	-0,138	-0,078
-700,772	-200,000	0,036	-0,125
-699,758	41,981	0,045	-0,031
-698,743	-141,482	-0,032	0,002
-697,729	-200,000	0,005	0,129
-696,714	-165,577	-0,159	-0,005
-695,699	-120,802	-0,029	0,004
-694,685	-29,042	-0,101	-0,043
-693,670	-30,053	-0,079	-0,033
-692,656	-139,359	0,100	-0,008
-691,641	800,000	-0,039	-0,090
-690,627	135,503	-0,009	-0,009
-689,612	-48,899	0,151	0,053
-688,597	-200,000	-0,031	0,105
-687,583	800,000	-0,025	-0,061
-686,568	800,000	-0,011	0,031
-685,554	637,659	0,027	-0,051
-684,539	-67,582	0,084	0,024
-683,524	-200,000	0,001	0,128
-682,510	-90,306	-0,144	0,031
-681,495	200,185	-0,076	0,087
-680,481	620,503	-0,049	-0,091
-679,466	89,756	-0,156	-0,129
-678,451	-109,565	-0,181	0,028
-677,437	-162,561	-0,086	-0,003
-676,422	800,000	0,023	-0,057
-675,408	-67,116	-0,074	0,021
-674,393	-115,134	-0,122	-0,017
-673,378	46,237	0,054	-0,037
-672,364	485,904	-0,090	0,153
-671,349	-151,914	-0,114	0,006
-670,335	426,949	-0,046	0,074
-669,320	601,626	-0,035	-0,066
-668,305	-172,776	-0,082	0,002
-667,291	800,000	-0,036	0,091
-666,276	800,000	-0,048	-0,124
-665,262	-200,000	-0,007	-0,070
-664,247	-145,690	-0,105	0,007
-663,232	176,622	-0,052	0,057
-662,218	-200,000	0,006	0,146
-661,203	120,604	-0,027	0,025
-660,189	-60,656	0,092	0,029
-659,174	-29,928	-0,100	0,042
-658,159	-18,598	-0,170	-0,078
-657,145	46,919	-0,123	-0,084
-656,130	329,760	-0,065	-0,093
-655,116	-200,000	-0,021	-0,098
-654,101	655,117	-0,053	0,101
-653,086	800,000	-0,045	0,102
-652,072	97,093	-0,064	0,055
-651,057	93,021	0,040	-0,033
-650,043	-53,560	-0,091	-0,031
-649,028	-200,000	0,005	0,050
-648,014	-200,000	0,014	0,085
-646,999	11,954	-0,068	-0,039
-645,984	-200,000	-0,003	-0,120
-644,970	485,333	-0,097	-0,164
-643,955	425,786	-0,075	0,120
-642,941	165,480	0,093	0,097
-641,926	-200,000	0,012	0,222
-640,911	800,000	-0,015	0,044
-639,897	343,838	0,093	-0,135
-638,882	43,834	0,027	0,019
-637,868	-200,000	-0,010	-0,036
-636,853	-38,736	-0,042	-0,016
-635,838	21,016	-0,111	-0,067
-634,824	-182,181	-0,019	0,000
-633,809	308,656	0,094	-0,130
-632,795	389,715	0,017	-0,027
-631,780	741,726	0,020	0,041
-630,765	800,000	0,024	-0,058
-629,751	800,000	-0,025	0,058
-628,736	119,803	0,032	0,029
-627,722	800,000	-0,019	0,053
-626,707	800,000	0,010	0,033
-625,692	508,405	-0,012	0,021
-624,678	20,229	-0,051	-0,031
-623,663	141,934	-0,045	0,044
-622,649	-55,340	-0,086	0,028
-621,634	-14,591	-0,135	-0,064
-620,619	188,550	0,038	-0,042
-619,605	120,533	0,160	-0,147
-618,590	618,654	-0,017	0,032
-617,576	453,980	0,031	0,052
-616,561	119,980	0,075	-0,069
-615,546	-69,913	-0,142	-0,040
-614,532	-200,000	-0,009	0,047
-613,517	-200,000	-0,010	-0,103
-612,503	-34,275	-0,075	0,030
-611,488	-200,000	-0,022	-0,103
-610,474	-85,757	-0,041	0,009
-609,459	481,754	0,019	0,032
-608,444	-45,808	-0,160	-0,058
-607,430	-112,232	0,072	0,011
-606,415	37,416	-0,014	-0,009
-605,401	110,934	-0,104	0,093
-604,386	87,194	0,053	0,044
-603,371	-3,847	0,049	0,025
-602,357	-9,036	-0,081	-0,040
-601,342	-60,225	-0,200	0,063
-600,328	-88,735	-0,108	0,023
-599,313	-80,869	-0,096	-0,023
-598,298	800,000	0,027	0,057
-597,284	-200,000	0,001	-0,037
-596,269	-200,000	-0,017	0,067
-595,255	61,802	-0,026	-0,019
-594,240	53,165	0,060	-0,042
-593,225	-105,270	-0,147	0,025
-592,211	-200,000	0,018	-0,085
-591,196	38,120	0,048	-0,032
-590,182	-200,000	0,001	-0,039
-589,167	8,919	0,095	-0,053
-588,152	-200,000	0,004	-0,022
-587,138	-98,496	0,052	0,010
-586,123	800,000	-0,024	0,059
-585,109	-200,000	-0,028	-0,145
-584,094	800,000	0,048	0,099
-583,079	800,000	0,012	-0,029
-582,065	800,000	-0,020	0,048
-581,050	297,989	0,045	0,061
-580,036	-29,600	-0,216	-0,091
-579,021	800,000	0,082	-0,183
-578,006	-200,000	0,007	-0,205
-576,992	9,924	-0,131	-0,073
-575,977	-200,000	-0,002	-0,019
-574,963	78,116	0,062	-0,049
-573,948	370,958	-0,039	0,058
-572,934	-15,657	-0,093	-0,044
-571,919	-122,894	0,053	0,006
-570,904	61,863	0,033	0,024
-569,890	-79,694	-0,090	-0,022
-568,875	-9,344	0,068	0,033
-567,861	40,955	0,039	0,026
-566,846	-200,000	0,001	0,011
-565,831	36,196	0,038	0,025
-564,817	-200,000	-0,036	-0,143
-563,802	-200,000	-0,010	-0,066
-562,788	317,103	0,027	-0,038
-561,773	176,467	-0,073	0,078
-560,758	800,000	0,047	0,097
-559,744	800,000	0,039	0,100
-558,729	774,139	-0,022	0,045
-557,715	-27,237	-0,045	0,019
-556,700	-19,099	-0,057	-0,026
-555,685	-200,000	0,007	-0,090
-554,671	-200,000	-0,005	0,045
-553,656	-200,000	-0,009	0,062
-552,642	114,632	0,045	0,040
-551,627	-200,000	-0,004	-0,045
-550,612	112,486	-0,095	0,085
-549,598	800,000	-0,045	0,137
-548,583	-200,000	0,020	0,142
-547,569	800,000	0,012	0,036
-546,554	91,880	0,015	-0,013
-545,539	800,000	0,024	0,049
-544,525	-200,000	-0,000	-0,154
-543,510	149,734	-0,068	-0,069
-542,496	-200,000	0,010	-0,069
-541,481	-200,000	0,001	-0,140
-540,466	350,378	0,036	-0,053
-539,452	101,400	0,097	0,083
-538,437	119,903	0,039	-0,036
-537,423	-116,166	-0,060	-0,008
-536,408	29,943	-0,076	-0,048
-535,393	-183,516	0,099	0,001
-534,379	-200,000	-0,030	-0,143
-533,364	-59,005	-0,050	-0,016
-532,350	-136,766	-0,060	0,005
-531,335	-200,000	-0,008	0,130
-530,321	-200,000	-0,027	0,109
-529,306	666,913	-0,076	0,146
-528,291	-55,825	-0,065	-0,021
-527,277	28,210	0,037	0,023
-526,262	6,562	0,052	-0,028
-525,248	800,000	-0,022	0,049
-524,233	2,543	0,110	0,059
-523,218	800,000	0,048	-0,123
-522,204	-125,064	-0,120	-0,013
-521,189	27,790	-0,029	-0,018
-520,175	-11,913	-0,072	0,035
-519,160	-120,250	-0,044	-0,005
-518,145	85,037	-0,103	0,083
-517,131	-16,632	0,275	0,128
-516,116	93,795	-0,115	-0,096
-515,102	384,713	-0,075	0,114
-514,087	58,056	0,078	0,057
-513,072	302,876	-0,065	-0,088
-512,058	-39,821	0,031	0,012
-511,043	-122,715	-0,096	0,011
-510,029	800,000	0,063	-0,206
-509,014	-61,747	0,073	0,022
-507,999	70,986	0,029	0,022
-506,985	800,000	-0,065	-0,167
-505,970	-200,000	-0,046	-0,159
-504,956	127,291	-0,127	-0,119
-503,941	-200,000	0,005	-0,039
-502,926	-138,772	0,069	0,005
-501,912	90,847	0,108	0,089
-500,897	-114,990	0,095	-0,013
-499,883	-109,439	-0,129	-0,020
-498,868	21,670	-0,117	0,070
-497,853	-200,000	0,013	-0,050
-496,839	136,287	0,037	0,035
-495,824	-109,696	0,085	-0,013
-494,810	-200,000	0,013	0,065
-493,795	800,000	0,037	0,097
-492,781	465,600	0,007	-0,012
-491,766	-200,000	0,024	-0,096
-490,751	800,000	-0,050	-0,142
-489,737	-31,015	-0,102	0,042
-488,722	301,263	0,071	0,097
-487,708	133,110	0,026	0,024
-486,693	-200,000	0,003	-0,069
-485,678	-135,456	-0,104	0,009
-484,664	-146,755	-0,042	-0,003
-483,649	-200,000	-0,010	0,078
-482,635	-200,000	-0,039	0,141
-481,620	800,000	-0,024	0,064
-480,605	-87,756	0,104	0,023
-479,591	-119,196	0,042	-0,005
-478,576	106,391	-0,044	-0,039
-477,562	109,633	-0,019	0,016
-476,547	-200,000	-0,044	-0,213
-475,532	-169,666	0,051	0,001
-474,518	-200,000	0,001	0,082
-473,503	-200,000	-0,028	0,142
-472,489	266,641	-0,081	0,105
-471,474	-177,723	-0,030	-0,001
-470,459	-200,000	-0,004	-0,050
-469,445	125,659	0,031	-0,028
-468,430	328,658	-0,029	-0,041
-467,416	-6,519	0,145	0,072
-466,401	184,420	0,027	-0,030
-465,386	-200,000	0,012	0,067
-464,372	-59,792	-0,065	0,020
-463,357	-25,169	-0,017	0,007
-462,343	17,815	0,018	-0,011
-461,328	259,353	0,006	0,008
-460,313	-200,000	-0,000	0,083
-459,299	-10,297	0,056	-0,027
-458,284	-50,506	-0,044	0,015
-457,270	-200,000	0,018	0,065
-456,255	260,285	-0,051	0,064
-455,241	800,000	-0,042	-0,088
-454,226	-131,730	0,007	-0,001
-453,211	-200,000	0,017	-0,077
-452,197	-69,330	0,177	-0,050
-451,182	-88,839	-0,114	-0,025
-450,168	503,157	-0,065	0,112
-449,153	108,257	-0,024	-0,021
-448,138	-96,342	-0,119	-0,023
-447,124	-113,885	-0,130	-0,018
-446,109	-54,181	-0,066	-0,022
-445,095	-200,000	-0,017	-0,115
-444,080	22,237	-0,032	0,019
-443,065	60,019	0,020	0,014
-442,051	-40,217	-0,077	0,030
-441,036	-200,000	0,005	-0,140
-440,022	-200,000	0,014	-0,061
-439,007	-72,711	0,085	-0,023
-437,992	19,362	0,027	0,016
-436,978	181,303	-0,052	0,056
-435,963	32,665	-0,049	0,031
-434,949	42,048	0,036	0,024
-433,934	800,000	0,044	-0,095
-432,919	357,347	-0,052	-0,076
-431,905	36,324	-0,150	0,097
-430,890	562,080	0,075	0,133
-429,876	-97,041	0,059	0,011
-428,861	207,264	-0,102	0,117
-427,846	76,287	0,051	-0,040
-426,832	316,125	0,053	-0,073
-425,817	-200,000	-0,000	-0,215
-424,803	800,000	-0,045	-0,110
-423,788	-200,000	0,005	-0,061
-422,773	105,937	0,144	0,125
-421,759	-146,484	0,023	0,001
-420,744	-20,430	0,062	-0,028
-419,730	48,436	-0,094	-0,065
-418,715	-200,000	-0,023	-0,113
-417,701	-200,000	0,004	-0,026
-416,686	-154,317	0,049	0,002
-415,671	168,997	0,128	-0,134
-414,657	-58,849	0,101	0,032
-413,642	559,170	0,043	0,076
-412,628	-200,000	-0,005	0,024
-411,613	31,095	0,010	-0,007
-410,598	800,000	0,007	-0,019
-409,584	194,159	0,090	0,101
-408,569	-145,993	0,143	-0,009
-407,555	266,267	0,044	-0,056
-406,540	-1,179	-0,114	-0,059
-405,525	-200,000	-0,016	-0,077
-404,511	530,409	-0,044	0,077
-403,496	11,122	-0,063	-0,035
-402,482	69,677	0,086	-0,065
-401,467	-74,928	-0,061	-0,016
-400,452	93,931	0,115	0,096
-399,438	800,000	-0,023	0,063
-398,423	162,581	-0,134	0,139
-397,409	-200,000	0,019	0,076
-396,394	-116,138	-0,017	0,002
-395,379	800,000	0,019	-0,059
-394,365	14,039	0,016	0,009
-393,350	800,000	-0,036	0,084
-392,336	624,624	-0,043	-0,080
-391,321	-14,453	0,092	-0,043
-390,306	-11,668	-0,146	0,070
-389,292	322,440	-0,087	0,122
-388,277	19,786	0,139	0,082
-387,263	800,000	0,048	-0,126
-386,248	12,435	0,115	-0,065
-385,233	-134,816	0,063	0,006
-384,219	-101,837	0,229	0,040
-383,204	-200,000	-0,003	-0,044
-382,190	-139,321	-0,075	-0,006
-381,175	-23,381	0,099	-0,044
-380,160	155,919	-0,077	0,078
-379,146	120,960	0,191	0,174
-378,131	-200,000	0,024	0,153
-377,117	800,000	0,056	0,133
-376,102	136,393	-0,100	0,095
-375,088	-200,000	0,012	-0,113
-374,073	800,000	-0,028	-0,088
-373,058	-80,057	0,111	-0,027
-372,044	356,654	0,104	-0,153
-371,029	-29,292	0,079	-0,033
-370,015	-53,693	0,104	0,035
-369,000	359,111	-0,018	-0,026
-367,985	260,191	-0,028	-0,035
-366,971	-200,000	0,026	-0,128
-365,956	-200,000	-0,024	-0,174
-364,942	800,000	0,044	-0,113
-363,927	800,000	-0,033	0,067
-362,912	-200,000	-0,015	0,116
-361,898	24,158	0,071	-0,043
-360,883	-200,000	-0,016	0,058
-359,869	149,565	-0,093	0,092
-358,854	8,200	0,097	0,053
-357,839	800,000	-0,027	0,073
-356,825	800,000	0,025	0,075
-355,810	222,098	-0,133	-0,158
-354,796	321,214	-0,011	-0,016
-353,781	20,803	-0,109	-0,065
-352,766	432,019	-0,012	0,019
-351,752	-200,000	0,015	0,107
-350,737	-200,000	0,014	0,096
-349,723	236,625	0,113	0,137
-348,708	-117,988	0,031	0,004
-347,693	198,358	0,072	-0,080
-346,679	800,000	0,049	-0,121
-345,664	-200,000	-0,025	-0,088
-344,650	800,000	-0,039	-0,096
-343,635	577,463	-0,010	-0,018
-342,620	61,300	0,136	0,099
-341,606	199,732	-0,032	0,036
-340,591	-200,000	0,007	-0,058
-339,577	800,000	0,001	-0,002
-338,562	-26,600	0,030	-0,013
-337,548	800,000	0,038	-0,094
-336,533	800,000	0,025	0,066
-335,518	-81,004	-0,025	-0,006
-334,504	800,000	-0,006	-0,018
-333,489	146,582	-0,058	0,057
-332,475	-55,640	-0,065	0,021
-331,460	-200,000	-0,021	-0,071
-330,445	502,229	-0,078	-0,133
-329,431	-87,384	0,122	-0,027
-328,416	97,230	0,149	0,125
-327,402	69,370	0,013	0,010
-326,387	800,000	-0,012	-0,031
-325,372	-200,000	0,006	-0,025
-324,358	240,304	-0,122	-0,149
-323,343	-156,081	0,023	-0,001
-322,329	-200,000	-0,019	-0,066
-321,314	-144,375	0,017	-0,001
-320,299	6,819	0,110	0,060
-319,285	249,476	-0,018	-0,023
-318,270	59,950	0,049	-0,036
-317,256	474,111	-0,042	-0,070
-316,241	-200,000	0,011	-0,073
-315,226	-200,000	0,003	-0,186
-314,212	-200,000	-0,011	0,072
-313,197	-101,275	0,118	0,021
-312,183	800,000	0,011	-0,031
-311,168	-40,674	-0,075	0,028
-310,153	-56,738	-0,056	-0,018
-309,139	-106,135	0,085	-0,014
-308,124	1,970	-0,123	0,065
-307,110	-200,000	-0,016	0,102
-306,095	-37,539	-0,154	0,060
-305,080	-161,589	-0,108	-0,004
-304,066	-200,000	-0,010	-0,091
-303,051	800,000	0,043	0,132
-302,037	326,438	0,054	-0,076
-301,022	226,115	0,048	-0,057
-300,008	59,694	0,031	-0,023
-298,993	246,576	0,127	0,158
-297,978	26,552	0,081	0,049
-296,964	48,907	0,030	0,021
-295,949	137,513	-0,186	-0,178
-294,935	774,464	0,055	-0,110
-293,920	-200,000	0,020	-0,102
-292,905	-200,000	-0,009	0,057
-291,891	-200,000	0,012	0,053
-290,876	154,561	-0,017	0,017
-289,862	-200,000	0,010	0,075
-288,847	364,195	-0,124	-0,183
-287,832	695,641	-0,092	0,177
-286,818	531,375	-0,033	-0,057
-285,803	62,338	-0,063	0,046
-284,789	-150,561	0,046	0,003
-283,774	-200,000	0,017	0,057
-282,759	-121,490	0,100	0,012
-281,745	-70,473	0,078	-0,021
-280,730	-200,000	-0,001	-0,134
-279,716	-20,265	0,075	0,034
-278,701	-134,505	-0,035	0,003
-277,686	-75,506	0,126	0,033
-276,672	-200,000	0,011	0,139
-275,657	800,000	0,006	0,013
-274,643	-34,825	-0,097	-0,038
-273,628	312,950	-0,070	-0,096
-272,613	800,000	0,040	0,096
-271,599	50,499	-0,060	0,041
-270,584	-62,433	0,177	-0,053
-269,570	-200,000	0,000	0,040
-268,555	-72,419	0,198	-0,053
-267,540	-43,275	-0,048	-0,018
-266,526	517,749	0,079	-0,136
-265,511	-200,000	-0,027	0,089
-264,497	83,164	-0,083	0,066
-263,482	-200,000	0,038	0,158
-262,467	-200,000	0,005	0,118
-261,453	69,946	-0,046	0,035
-260,438	-67,760	-0,114	0,032
-259,424	800,000	-0,043	-0,137
-258,409	612,154	0,053	-0,098
-257,395	644,771	-0,023	0,042
-256,380	-200,000	0,005	0,077
-255,365	800,000	0,049	0,139
-254,351	-41,166	-0,048	0,018
-253,336	-200,000	-0,002	-0,031
-252,322	-200,000	0,003	0,075
-251,307	-200,000	-0,012	-0,077
-250,292	702,168	0,023	-0,044
-249,278	-111,440	0,036	-0,005
-248,263	-13,911	0,207	0,097
-247,249	-173,375	0,062	0,001
-246,234	1,209	-0,084	-0,044
-245,219	-175,781	-0,145	-0,003
-244,205	-176,871	0,061	0,001
-243,190	-72,707	0,062	-0,016
-242,176	-26,050	0,031	-0,013
-241,161	-70,625	0,066	-0,018
-240,146	-200,000	0,001	0,084
-239,132	-55,299	0,027	-0,009
-238,117	45,605	-0,155	-0,105
-237,103	-178,430	-0,095	-0,002
-236,088	-38,056	0,123	-0,048
-235,073	131,982	0,061	0,057
-234,059	704,309	0,068	0,131
-233,044	85,924	-0,054	-0,043
-232,030	-200,000	0,002	0,037
-231,015	-200,000	0,002	0,043
-230,000	100,766	-0,105	-0,089
-228,986	-151,742	-0,085	-0,004
-227,971	417,927	-0,094	0,146
-226,957	132,448	0,033	0,031
-225,942	-200,000	-0,021	0,091
-224,927	-127,071	0,087	-0,009
-223,913	-11,139	-0,075	-0,036
-222,898	686,985	-0,061	0,116
-221,884	-115,271	0,145	-0,020
-220,869	226,268	0,087	0,104
-219,855	-91,045	0,118	0,024
-218,840	-200,000	0,001	0,029
-217,825	-72,166	0,082	-0,022
-216,811	192,982	0,039	-0,043
-215,796	-141,563	-0,074	-0,005
-214,782	220,136	0,071	-0,083
-213,767	136,975	-0,014	0,014
-212,752	-29,473	0,087	0,036
-211,738	626,546	0,026	0,048
-210,723	-142,806	0,075	0,005
-209,709	-94,038	0,054	0,011
-208,694	-200,000	-0,011	-0,073
-207,679	-96,327	-0,124	0,024
-206,665	74,689	0,107	-0,082
-205,650	-200,000	-0,035	0,134
-204,636	-71,580	-0,045	0,012
-203,621	484,349	-0,059	-0,098
-202,606	157,918	-0,061	-0,061
-201,592	53,570	-0,076	-0,053
-200,577	529,351	-0,058	-0,100
-199,563	-142,040	-0,062	-0,004
-198,548	-200,000	-0,007	0,077
-197,533	-146,674	0,030	0,002
-196,519	79,502	0,072	-0,057
-195,504	758,932	0,066	-0,132
-194,490	800,000	-0,065	-0,146
-193,475	91,879	0,095	-0,078
-192,460	62,511	0,051	0,037
-191,446	-118,152	-0,116	0,015
-190,431	514,295	0,034	0,058
-189,417	-200,000	-0,006	0,032
-188,402	124,751	0,026	0,024
-187,387	-141,567	-0,160	0,012
-186,373	109,344	-0,041	-0,036
-185,358	-142,694	0,079	0,006
-184,344	800,000	0,040	0,114
-183,329	-122,009	-0,041	-0,005
-182,315	-200,000	0,029	0,135
-181,300	-200,000	0,005	0,081
-180,285	-90,242	-0,082	-0,017
-179,271	800,000	-0,056	0,141
-178,256	19,126	0,067	-0,039
-177,242	-200,000	0,016	-0,088
-176,227	113,483	0,146	0,129
-175,212	510,272	-0,039	0,066
-174,198	-200,000	-0,012	-0,088
-173,183	-42,701	-0,072	0,027
-172,169	-118,121	-0,048	-0,006
-171,154	-147,316	-0,087	-0,005
-170,139	98,275	0,017	0,014
-169,125	381,694	0,097	0,146
-168,110	-120,837	0,109	-0,013
-167,096	67,572	0,077	-0,057
-166,081	-200,000	-0,002	-0,137
-165,066	161,785	-0,026	0,027
-164,052	45,108	-0,034	-0,023
-163,037	109,907	0,084	0,074
-162,023	95,432	-0,042	0,035
-161,008	678,990	-0,036	0,068
-159,993	201,937	-0,129	0,145
-158,979	241,659	-0,110	0,134
-157,964	-200,000	-0,012	-0,083
-156,950	-200,000	-0,012	0,098
-155,935	-106,506	0,051	0,008
-154,920	800,000	-0,044	-0,117
-153,906	371,323	0,041	-0,060
-152,891	123,549	0,166	0,151
-151,877	80,964	-0,071	0,055
-150,862	800,000	0,016	-0,034
-149,847	-76,021	0,042	0,011
-148,833	601,041	-0,035	-0,063
-147,818	154,796	0,023	0,023
-146,804	-200,000	0,156	0,000
-145,789	0,901	0,077	-0,040
-144,775	-57,907	-0,066	-0,021
-143,760	-200,000	-0,009	-0,036
-142,745	-200,000	-0,006	-0,151
-141,731	602,189	-0,053	0,096
-140,716	-200,000	-0,012	0,082
-139,702	-200,000	0,006	0,156
-138,687	768,184	-0,065	0,130
-137,672	63,993	-0,042	0,031
-136,658	-200,000	0,008	0,060
-135,643	177,604	-0,115	-0,121
-134,629	-200,000	-0,004	-0,030
-133,614	115,071	0,036	-0,032
-132,599	284,292	-0,073	-0,096
-131,585	434,299	0,081	0,128
-130,570	-56,209	-0,122	0,039
-129,556	5,816	0,141	-0,075
-128,541	80,648	-0,065	0,051
-127,526	800,000	-0,064	0,142
-126,512	-20,576	-0,126	-0,056
-125,497	-42,531	0,123	-0,045
-124,483	33,767	0,055	-0,035
-123,468	-120,742	-0,039	-0,005
-122,453	-26,520	-0,060	0,026
-121,439	70,115	-0,143	0,107
-120,424	129,255	-0,082	0,076
-119,410	445,865	0,047	-0,076
