DTS Sentinel unit serial number:	SN410029Multiplexer serial number:	ORYXHardware model number:	OX2-SRSoftware version number:	ORYX F/W v4,00 Oryx Data Collector v3.7.2.0data status	okinstallation	B6 Nyhavnadifferential loss correction	single-endedforward channel	channel 2reverse channel	N/Adate	2023/12/10time	06:10:08forward acquisition time	300,00reverse acquisition time	0,00gamma	499,1914k internal	0,3124k external	0,3124temperature offset calibration	1,0000default loss term (dB/km)	0,3820temperature slope calibration	1,0000multiplexer offset coefficient	1,0000multiplexer slope coefficient	1,0000fibre end	0,00T internal ref (°C)	22,56T ext. ref 1 (°C)	6,45T ext. ref 2 (°C)	6,43length (m)	temperature (°C)	Stokes	anti-Stokes-744,400	-200,000	0,006	-0,191
-743,385	180,442	-0,130	0,143
-742,371	210,393	0,099	0,116
-741,356	-11,861	-0,214	0,104
-740,342	247,351	0,075	-0,094
-739,327	-13,463	-0,212	0,102
-738,312	564,746	0,083	-0,150
-737,298	-147,367	-0,271	0,017
-736,283	800,000	0,037	-0,103
-735,269	217,264	-0,104	0,123
-734,254	-32,619	0,117	-0,048
-733,239	-101,405	-0,411	0,074
-732,225	118,024	0,074	0,068
-731,210	270,378	0,019	-0,025
-730,196	151,766	-0,089	-0,090
-729,181	-78,931	-0,094	0,024
-728,167	-28,711	0,066	-0,028
-727,152	-114,666	0,054	0,008
-726,137	14,696	-0,086	0,050
-725,123	-200,000	0,007	-0,048
-724,108	-63,237	-0,040	-0,012
-723,094	800,000	0,040	-0,130
-722,079	-200,000	-0,023	-0,078
-721,064	225,051	0,094	-0,114
-720,050	800,000	-0,030	0,089
-719,035	-158,411	-0,043	-0,002
-718,021	63,570	-0,058	-0,043
-717,006	236,234	-0,029	0,036
-715,991	-67,027	-0,124	-0,036
-714,977	-34,415	-0,166	-0,067
-713,962	254,957	-0,057	0,073
-712,948	-200,000	-0,003	0,018
-711,933	-108,395	-0,163	-0,026
-710,918	46,256	0,018	-0,012
-709,904	-200,000	0,017	-0,102
-708,889	800,000	0,034	-0,105
-707,875	800,000	0,025	-0,065
-706,860	109,365	-0,050	0,045
-705,845	-200,000	0,005	0,041
-704,831	160,313	-0,093	0,097
-703,816	-75,254	-0,066	-0,017
-702,802	75,876	-0,088	-0,069
-701,787	-25,664	0,051	0,022
-700,772	376,390	-0,037	-0,056
-699,758	691,281	0,046	-0,089
-698,743	102,592	0,081	-0,070
-697,729	-27,477	-0,029	-0,013
-696,714	244,107	0,032	-0,041
-695,699	800,000	0,022	-0,051
-694,685	-200,000	0,013	-0,108
-693,670	800,000	-0,053	-0,131
-692,656	-200,000	-0,003	-0,045
-691,641	800,000	0,040	0,108
-690,627	22,125	-0,068	0,041
-689,612	-200,000	-0,009	0,073
-688,597	19,978	-0,105	-0,063
-687,583	-121,593	-0,056	-0,007
-686,568	-200,000	0,045	0,152
-685,554	401,010	0,049	-0,076
-684,539	-108,774	0,134	0,021
-683,524	-106,856	0,027	-0,004
-682,510	463,148	0,093	-0,155
-681,495	-200,000	-0,097	0,000
-680,481	-142,042	-0,073	0,005
-679,466	-79,801	-0,056	0,014
-678,451	-200,000	0,013	-0,047
-677,437	-128,927	-0,065	-0,007
-676,422	280,719	-0,064	0,085
-675,408	301,988	-0,075	-0,104
-674,393	800,000	0,022	-0,052
-673,378	-63,287	-0,092	-0,028
-672,364	800,000	-0,049	-0,120
-671,349	47,415	-0,069	0,048
-670,335	800,000	0,025	0,067
-669,320	466,244	-0,052	0,088
-668,305	-200,000	-0,003	-0,028
-667,291	67,911	-0,139	-0,106
-666,276	-200,000	-0,022	-0,078
-665,262	-176,952	-0,160	-0,003
-664,247	-200,000	0,004	0,062
-663,232	-97,706	-0,049	-0,009
-662,218	-200,000	0,009	0,090
-661,203	-84,797	0,104	0,024
-660,189	156,385	0,052	-0,053
-659,174	-164,283	-0,119	0,004
-658,159	-78,356	0,056	0,014
-657,145	702,120	0,003	-0,005
-656,130	-93,724	0,087	-0,018
-655,116	-9,759	-0,062	0,031
-654,101	-200,000	0,032	0,185
-653,086	213,998	-0,028	-0,032
-652,072	65,840	-0,079	-0,059
-651,057	-130,695	-0,221	-0,022
-650,043	800,000	-0,066	-0,189
-649,028	-200,000	0,000	-0,043
-648,014	-146,764	0,200	-0,013
-646,999	54,205	0,019	-0,013
-645,984	-41,330	-0,176	0,067
-644,970	800,000	-0,081	-0,169
-643,955	186,715	-0,039	0,043
-642,941	58,882	0,121	-0,088
-641,926	203,038	-0,110	-0,127
-640,911	-200,000	0,001	0,011
-639,897	281,257	0,024	-0,031
-638,882	-200,000	-0,005	-0,034
-637,868	800,000	0,028	-0,069
-636,853	-136,710	-0,127	-0,011
-635,838	525,744	-0,123	-0,215
-634,824	24,921	-0,026	-0,016
-633,809	-121,971	0,051	0,006
-632,795	800,000	0,078	0,167
-631,780	-200,000	-0,019	0,096
-630,765	-7,781	-0,110	0,055
-629,751	208,957	0,038	0,044
-628,736	-116,575	0,012	-0,002
-627,722	-200,000	-0,002	-0,106
-626,707	-200,000	-0,023	-0,099
-625,692	-109,927	0,102	-0,016
-624,678	800,000	0,032	0,071
-623,663	-72,388	0,106	-0,029
-622,649	-24,699	-0,112	-0,049
-621,634	-200,000	0,007	-0,031
-620,619	-67,496	0,152	0,044
-619,605	592,368	-0,066	-0,122
-618,590	-117,411	-0,052	0,007
-617,576	450,663	-0,142	0,234
-616,561	-57,193	-0,055	0,018
-615,546	-138,905	0,003	0,000
-614,532	446,098	-0,025	0,041
-613,517	753,870	0,064	-0,129
-612,503	565,278	-0,074	-0,134
-611,488	-67,556	0,191	0,055
-610,474	111,707	-0,123	0,110
-609,459	-200,000	0,038	-0,168
-608,444	-200,000	-0,004	0,067
-607,430	-89,175	0,118	-0,026
-606,415	800,000	-0,056	-0,141
-605,401	51,766	0,082	-0,058
-604,386	43,149	0,053	0,036
-603,371	493,994	-0,009	-0,015
-602,357	97,710	0,043	-0,037
-601,342	-200,000	0,015	0,083
-600,328	249,951	0,092	0,116
-599,313	481,416	-0,038	0,064
-598,298	97,987	-0,044	-0,037
-597,284	267,046	0,025	0,033
-596,269	147,926	0,073	0,073
-595,255	118,921	-0,148	0,136
-594,240	-169,095	0,196	-0,005
-593,225	103,342	-0,043	-0,038
-592,211	-200,000	-0,038	-0,186
-591,196	-200,000	0,001	0,027
-590,182	-47,143	-0,024	-0,009
-589,167	-21,214	0,069	-0,031
-588,152	304,792	-0,030	-0,042
-587,138	160,747	0,064	0,066
-586,123	289,706	-0,056	0,075
-585,109	-68,096	0,058	-0,017
-584,094	413,928	-0,038	0,060
-583,079	800,000	0,028	0,079
-582,065	-83,916	0,074	0,017
-581,050	76,827	-0,028	0,022
-580,036	-59,365	-0,048	0,015
-579,021	2,357	-0,056	-0,030
-578,006	-200,000	0,017	-0,060
-576,992	-96,004	0,031	-0,006
-575,977	-79,847	0,089	-0,022
-574,963	105,519	-0,067	-0,059
-573,948	-57,516	-0,095	-0,031
-572,934	127,113	-0,069	-0,065
-571,919	421,368	-0,067	-0,106
-570,904	-200,000	-0,004	-0,067
-569,890	-120,195	0,061	-0,008
-568,875	-111,523	0,173	0,026
-567,861	-11,284	-0,079	-0,038
-566,846	34,167	0,043	-0,028
-565,831	-37,514	0,052	-0,021
-564,817	-200,000	-0,006	-0,155
-563,802	800,000	-0,039	-0,108
-562,788	-165,914	0,052	-0,002
-561,773	-200,000	-0,011	0,062
-560,758	798,847	-0,048	-0,099
-559,744	196,568	-0,084	0,094
-558,729	-166,877	0,066	0,002
-557,715	800,000	-0,022	-0,048
-556,700	4,974	-0,116	-0,063
-555,685	800,000	0,010	0,023
-554,671	800,000	-0,032	0,087
-553,656	-15,380	0,030	0,014
-552,642	-68,357	0,053	0,015
-551,627	-28,113	0,062	0,026
-550,612	800,000	-0,028	-0,059
-549,598	-99,007	-0,105	0,019
-548,583	410,896	0,078	-0,123
-547,569	106,721	-0,031	0,027
-546,554	261,743	0,113	0,145
-545,539	392,752	0,040	0,062
-544,525	800,000	0,005	0,014
-543,510	357,951	-0,031	0,046
-542,496	-200,000	-0,019	-0,071
-541,481	-200,000	-0,027	-0,094
-540,466	-200,000	0,012	-0,071
-539,452	-200,000	-0,017	0,101
-538,437	-53,203	0,256	0,086
-537,423	-79,598	-0,162	0,040
-536,408	129,713	0,068	-0,065
-535,393	-7,171	0,113	-0,056
-534,379	-143,839	0,060	-0,004
-533,364	240,493	-0,042	-0,052
-532,350	800,000	0,013	-0,033
-531,335	549,009	-0,035	0,062
-530,321	562,736	0,055	0,099
-529,306	-194,003	-0,021	-0,000
-528,291	-200,000	-0,011	0,109
-527,277	-200,000	-0,004	-0,114
-526,262	-200,000	-0,003	0,194
-525,248	-200,000	-0,009	0,036
-524,233	-5,989	0,087	0,044
-523,218	143,053	0,076	-0,075
-522,204	-118,359	-0,039	-0,005
-521,189	-15,469	0,097	-0,046
-520,175	800,000	-0,034	0,070
-519,160	313,439	-0,032	-0,044
-518,145	178,573	0,028	-0,030
-517,131	800,000	-0,009	0,021
-516,116	800,000	0,032	0,093
-515,102	541,861	0,050	0,088
-514,087	109,735	-0,080	-0,071
-513,072	-139,139	-0,166	0,013
-512,058	16,714	-0,075	-0,044
-511,043	-200,000	-0,009	-0,043
-510,029	4,657	0,073	0,039
-509,014	-162,539	0,036	0,001
-507,999	-200,000	-0,038	0,144
-506,985	164,312	-0,109	0,113
-505,970	-200,000	-0,007	-0,125
-504,956	-200,000	-0,002	-0,027
-503,941	-200,000	-0,012	-0,047
-502,926	-200,000	-0,004	0,096
-501,912	-118,956	0,029	0,004
-500,897	241,641	-0,044	0,054
-499,883	179,973	-0,041	0,044
-498,868	-34,414	0,097	0,039
-497,853	-96,021	0,084	0,016
-496,839	-105,706	0,084	-0,014
-495,824	-144,547	0,138	0,009
-494,810	-200,000	0,015	0,155
-493,795	-106,607	0,063	-0,010
-492,781	16,815	0,052	-0,031
-491,766	-200,000	-0,005	-0,051
-490,751	34,293	-0,115	0,074
-489,737	-4,419	0,156	-0,079
-488,722	544,785	0,020	-0,036
-487,708	96,702	0,068	-0,057
-486,693	51,333	0,094	0,066
-485,678	-200,000	-0,003	-0,083
-484,664	22,744	-0,055	0,033
-483,649	-62,977	-0,206	-0,062
-482,635	-45,018	0,022	-0,008
-481,620	197,900	0,065	0,074
-480,605	-80,594	0,110	-0,027
-479,591	15,390	0,069	-0,040
-478,576	-200,000	-0,018	-0,118
-477,562	-200,000	-0,026	0,115
-476,547	26,269	-0,078	0,048
-475,532	-51,012	-0,057	-0,020
-474,518	-200,000	-0,010	-0,056
-473,503	40,033	-0,175	-0,116
-472,489	-200,000	-0,002	0,183
-471,474	-36,930	-0,148	0,058
-470,459	273,494	0,086	-0,112
-469,445	-200,000	-0,027	-0,096
-468,430	457,584	-0,062	-0,102
-467,416	271,541	0,083	0,108
-466,401	-200,000	-0,029	0,124
-465,386	133,731	0,053	0,050
-464,372	-164,665	0,135	0,004
-463,357	-63,495	-0,049	-0,015
-462,343	-139,537	-0,051	0,004
-461,328	-90,996	0,041	-0,009
-460,313	340,133	-0,066	-0,095
-459,299	-152,290	-0,064	-0,003
-458,284	-182,219	0,144	0,002
-457,270	800,000	0,008	-0,019
-456,255	800,000	0,041	-0,084
-455,241	800,000	-0,056	-0,156
-454,226	-40,042	0,037	0,014
-453,211	502,016	0,043	-0,074
-452,197	-103,826	0,125	0,021
-451,182	48,970	0,049	0,034
-450,168	-200,000	-0,026	0,088
-449,153	-127,359	-0,015	-0,002
-448,138	40,850	-0,119	0,079
-447,124	-75,527	-0,069	0,018
-446,109	-200,000	0,005	0,166
-445,095	-117,752	0,131	-0,017
-444,080	-71,448	0,063	0,017
-443,065	1,070	-0,095	-0,050
-442,051	329,471	0,053	-0,075
-441,036	84,250	0,061	-0,049
-440,022	-80,281	0,122	-0,030
-439,007	329,827	-0,056	-0,080
-437,992	-20,107	0,094	0,043
-436,978	127,015	0,188	0,176
-435,963	67,787	0,077	0,058
-434,949	406,411	-0,037	0,057
-433,934	-200,000	0,026	-0,105
-432,919	-200,000	-0,020	0,085
-431,905	-98,799	-0,092	0,017
-430,890	-200,000	-0,012	0,054
-429,876	-88,142	0,136	0,030
-428,861	-200,000	0,008	0,117
-427,846	-200,000	0,013	0,190
-426,832	-43,463	-0,034	0,013
-425,817	-200,000	0,010	-0,078
-424,803	-200,000	0,020	0,149
-423,788	-200,000	0,000	-0,077
-422,773	51,507	-0,034	0,024
-421,759	-85,123	0,095	-0,022
-420,744	800,000	-0,036	-0,079
-419,730	95,667	-0,032	-0,026
-418,715	-156,300	-0,060	0,003
-417,701	-200,000	-0,002	-0,118
-416,686	800,000	0,030	0,066
-415,671	164,564	0,137	0,142
-414,657	-110,078	-0,053	0,008
-413,642	-61,849	-0,115	0,035
-412,628	-48,524	0,060	-0,021
-411,613	800,000	0,012	-0,026
-410,598	99,262	-0,132	0,112
-409,584	-9,477	-0,105	0,052
-408,569	190,757	-0,086	0,095
-407,555	-200,000	-0,020	0,154
-406,540	-48,124	-0,108	0,038
-405,525	-200,000	0,010	-0,097
-404,511	-200,000	0,008	-0,095
-403,496	-73,633	-0,013	-0,003
-402,482	118,996	-0,008	0,007
-401,467	725,961	-0,029	-0,056
-400,452	108,628	-0,141	0,123
-399,438	-22,236	-0,087	-0,038
-398,423	90,479	0,047	-0,038
-397,409	-200,000	-0,010	-0,127
-396,394	-200,000	0,004	-0,016
-395,379	-100,544	0,157	-0,028
-394,365	-9,161	0,173	0,085
-393,350	386,328	-0,016	0,024
-392,336	800,000	0,028	0,070
-391,321	95,390	0,043	0,036
-390,306	67,290	0,070	-0,052
-389,292	800,000	0,060	0,133
-388,277	-200,000	-0,014	-0,120
-387,263	-200,000	-0,016	-0,072
-386,248	-151,835	0,055	0,003
-385,233	-200,000	0,005	0,016
-384,219	723,077	-0,052	-0,102
-383,204	-200,000	0,030	-0,121
-382,190	-200,000	-0,004	-0,110
-381,175	800,000	-0,028	-0,084
-380,160	-60,048	0,153	0,048
-379,146	728,351	-0,038	0,074
-378,131	-200,000	0,009	0,066
-377,117	637,221	-0,014	-0,026
-376,102	-7,936	0,067	-0,033
-375,088	-200,000	-0,026	-0,184
-374,073	579,325	-0,059	-0,106
-373,058	100,883	-0,094	0,080
-372,044	800,000	0,049	0,153
-371,029	462,006	-0,014	-0,023
-370,015	-83,925	0,068	0,016
-369,000	-200,000	0,018	0,081
-367,985	-124,565	-0,155	0,018
-366,971	800,000	-0,032	-0,074
-365,956	-200,000	0,008	0,040
-364,942	-34,103	-0,053	0,021
-363,927	19,350	0,072	0,042
-362,912	324,546	-0,049	-0,069
-361,898	-87,568	-0,170	-0,037
-360,883	800,000	0,053	-0,160
-359,869	800,000	-0,047	-0,099
-358,854	242,931	-0,072	-0,089
-357,839	800,000	-0,089	-0,211
-356,825	-200,000	0,059	-0,195
-355,810	180,315	-0,049	-0,053
-354,796	800,000	-0,043	-0,131
-353,781	-200,000	0,009	0,116
-352,766	78,395	0,110	0,086
-351,752	-33,619	0,078	0,032
-350,737	365,907	0,042	-0,063
-349,723	-14,602	0,101	0,048
-348,708	372,325	0,110	-0,164
-347,693	-2,483	0,063	-0,032
-346,679	-200,000	-0,041	-0,155
-345,664	266,756	-0,036	-0,047
-344,650	800,000	0,034	0,086
-343,635	-22,691	-0,046	0,021
-342,620	132,102	-0,073	-0,069
-341,606	-200,000	-0,006	-0,023
-340,591	158,776	-0,120	-0,123
-339,577	30,839	-0,069	-0,043
-338,562	-200,000	0,010	-0,090
-337,548	-200,000	-0,007	-0,054
-336,533	257,757	0,017	0,022
-335,518	471,676	-0,087	0,144
-334,504	-125,469	0,167	0,018
-333,489	-1,713	0,050	0,026
-332,475	165,504	-0,028	0,029
-331,460	82,541	-0,132	-0,105
-330,445	-2,820	-0,033	0,017
-329,431	-165,324	-0,093	0,003
-328,416	13,740	0,108	-0,061
-327,402	182,722	0,036	0,039
-326,387	-87,735	-0,093	-0,020
-325,372	74,281	-0,115	0,088
-324,358	-200,000	0,004	-0,051
-323,343	-184,711	-0,086	0,001
-322,329	-200,000	-0,006	0,124
-321,314	-200,000	0,021	-0,069
-320,299	376,614	-0,008	-0,012
-319,285	-200,000	0,028	0,105
-318,270	2,003	-0,073	-0,039
-317,256	389,075	-0,041	0,062
-316,241	-200,000	0,008	0,087
-315,226	17,595	0,121	-0,070
-314,212	-200,000	0,021	0,125
-313,197	-2,865	0,025	0,013
-312,183	45,531	0,092	0,062
-311,168	-200,000	-0,002	-0,032
-310,153	-101,564	-0,059	-0,010
-309,139	-200,000	-0,004	-0,113
-308,124	-200,000	-0,049	0,222
-307,110	-200,000	0,006	0,132
-306,095	37,708	-0,132	0,085
-305,080	222,673	0,066	0,078
-304,066	-200,000	0,043	0,142
-303,051	800,000	0,033	-0,080
-302,037	800,000	-0,034	-0,108
-301,022	296,371	-0,121	-0,163
-300,008	202,580	0,085	-0,096
-298,993	800,000	-0,049	0,102
-297,978	200,589	0,073	0,082
-296,964	-147,468	-0,115	0,007
-295,949	-200,000	-0,011	0,112
-294,935	800,000	-0,045	0,126
-293,920	160,216	0,059	0,060
-292,905	-175,869	-0,141	-0,003
-291,891	-200,000	-0,021	0,085
-290,876	-53,257	0,076	-0,025
-289,862	800,000	-0,018	0,041
-288,847	800,000	-0,014	-0,031
-287,832	800,000	0,021	0,047
-286,818	329,451	0,034	0,048
-285,803	-200,000	-0,005	-0,030
-284,789	762,169	0,068	0,136
-283,774	-200,000	-0,018	0,131
-282,759	52,516	-0,096	-0,067
-281,745	-200,000	-0,021	-0,215
-280,730	-96,885	-0,080	-0,015
-279,716	-200,000	-0,019	0,106
-278,701	38,979	-0,138	0,090
-277,686	-123,078	-0,032	-0,004
-276,672	-22,221	-0,118	0,052
-275,657	-95,978	0,092	0,018
-274,643	264,535	-0,074	0,094
-273,628	800,000	-0,031	-0,063
-272,613	800,000	-0,028	-0,077
-271,599	-128,796	-0,089	-0,009
-270,584	409,268	-0,003	-0,005
-269,570	274,521	-0,033	-0,042
-268,555	-129,802	0,021	-0,002
-267,540	224,307	-0,069	-0,081
-266,526	158,992	0,034	-0,035
-265,511	155,058	-0,078	0,079
-264,497	92,387	0,096	0,079
-263,482	-200,000	-0,006	0,170
-262,467	-200,000	-0,038	0,141
-261,453	800,000	-0,069	0,168
-260,438	-65,541	0,020	-0,006
-259,424	578,813	0,081	0,146
-258,409	-200,000	0,002	0,013
-257,395	-200,000	-0,041	-0,223
-256,380	-20,872	-0,073	0,033
-255,365	28,630	0,168	-0,104
-254,351	63,960	0,089	0,065
-253,336	268,675	-0,126	-0,162
-252,322	167,830	-0,062	-0,064
-251,307	-75,731	0,085	-0,022
-250,292	622,404	0,089	0,164
-249,278	473,763	-0,057	0,095
-248,263	76,124	0,152	-0,117
-247,249	800,000	0,018	-0,051
-246,234	64,954	0,029	0,022
-245,219	-145,412	-0,046	0,003
-244,205	-200,000	-0,030	-0,099
-243,190	-49,823	0,081	0,028
-242,176	-122,317	0,095	-0,011
-241,161	800,000	-0,043	0,104
-240,146	191,033	0,051	0,056
-239,132	9,696	-0,098	-0,054
-238,117	137,763	-0,111	-0,106
-237,103	800,000	-0,046	-0,108
-236,088	-76,301	-0,094	-0,024
-235,073	-200,000	-0,006	0,079
-234,059	119,275	-0,122	0,110
-233,044	800,000	0,033	0,068
-232,030	312,655	-0,082	0,113
-231,015	-105,587	-0,086	0,014
-230,000	214,411	-0,006	0,007
-228,986	123,186	0,130	-0,119
-227,971	341,843	-0,032	0,046
-226,957	-200,000	0,008	-0,060
-225,942	800,000	-0,047	-0,102
-224,927	132,103	-0,050	0,047
-223,913	609,389	0,020	-0,036
-222,898	-129,506	-0,099	-0,010
-221,884	-200,000	-0,038	0,134
-220,869	-200,000	-0,018	-0,071
-219,855	-116,882	0,123	0,016
-218,840	394,695	0,032	0,049
-217,825	-37,196	-0,036	0,014
-216,811	-200,000	-0,011	-0,091
-215,796	-39,128	-0,112	0,043
-214,782	101,549	-0,064	0,054
-213,767	800,000	0,051	-0,123
-212,752	181,952	-0,061	0,065
-211,738	-104,149	0,236	0,040
-210,723	-200,000	0,003	0,034
-209,709	-200,000	-0,022	-0,086
-208,694	-147,511	-0,043	-0,003
-207,679	-200,000	0,017	-0,114
-206,665	-124,500	0,108	-0,012
-205,650	-200,000	0,013	-0,095
-204,636	597,711	0,047	0,085
-203,621	128,656	-0,052	-0,048
-202,606	262,743	0,029	-0,037
-201,592	-103,546	-0,063	-0,011
-200,577	-139,894	0,118	-0,009
-199,563	-200,000	0,029	-0,125
-198,548	490,956	-0,017	0,029
-197,533	-200,000	-0,001	-0,046
-196,519	-83,141	0,104	-0,024
-195,504	85,185	-0,088	-0,071
-194,490	800,000	0,017	0,035
-193,475	-200,000	-0,011	-0,111
-192,460	256,086	0,032	-0,040
-191,446	52,495	0,178	-0,124
-190,431	136,015	0,070	-0,066
-189,417	449,290	0,042	0,067
-188,402	363,589	0,028	0,040
-187,387	337,877	0,061	0,087
-186,373	-106,212	-0,059	0,010
-185,358	39,083	0,038	0,024
-184,344	36,216	0,090	-0,058
-183,329	-64,006	0,106	-0,032
-182,315	-200,000	-0,010	-0,039
-181,300	-27,489	-0,080	-0,034
-180,285	-200,000	-0,162	0,001
-179,271	-26,336	0,110	-0,047
-178,256	128,837	0,112	0,104
-177,242	-200,000	0,024	0,152
-176,227	-74,036	-0,032	0,008
-175,212	-111,815	-0,040	-0,006
-174,198	-13,211	-0,040	0,019
-173,183	800,000	-0,044	-0,109
-172,169	-157,266	-0,095	-0,004
-171,154	173,088	-0,038	-0,040
-170,139	-50,814	-0,103	-0,035
-169,125	583,549	-0,038	-0,069
-168,110	43,843	0,103	0,068
-167,096	405,906	-0,078	0,120
-166,081	-200,000	-0,007	-0,074
-165,066	694,848	0,041	0,078
-164,052	291,982	0,037	-0,049
-163,037	-200,000	-0,006	0,044
-162,023	-200,000	-0,003	0,086
-161,008	-136,932	-0,093	-0,008
-159,993	-119,951	0,050	-0,006
-158,979	52,891	0,077	0,054
-157,964	6,718	0,051	-0,028
-156,950	144,048	-0,084	-0,081
-155,935	235,785	-0,077	0,093
-154,920	-200,000	-0,049	0,233
-153,906	800,000	0,053	0,135
-152,891	240,637	0,070	-0,085
-151,877	-92,096	-0,035	-0,007
-150,862	5,668	0,014	-0,007
-149,847	-200,000	0,002	-0,061
-148,833	-200,000	-0,015	-0,056
-147,818	-70,955	0,050	-0,014
-146,804	-200,000	-0,005	-0,061
-145,789	46,360	-0,071	-0,048
-144,775	-200,000	-0,022	-0,151
-143,760	-200,000	0,025	-0,082
-142,745	168,623	0,049	-0,051
-141,731	-126,013	-0,066	-0,007
-140,716	80,069	-0,069	-0,054
-139,702	-200,000	-0,005	0,053
-138,687	-200,000	-0,012	-0,108
-137,672	-200,000	-0,005	0,176
-136,658	-18,510	-0,091	-0,041
-135,643	295,240	0,033	0,044
-134,629	-200,000	0,012	0,076
-133,614	-200,000	0,005	-0,067
-132,599	-200,000	0,015	0,078
-131,585	-138,728	0,154	-0,012
-130,570	130,351	0,068	-0,063
-129,556	243,552	-0,050	0,061
-128,541	800,000	-0,047	0,128
-127,526	524,322	0,040	-0,070
-126,512	361,094	0,064	0,094
-125,497	-200,000	-0,010	0,042
-124,483	155,925	0,115	0,115
-123,468	109,902	0,070	-0,061
-122,453	37,023	-0,224	0,144
-121,439	-73,731	0,050	0,013
