DTS Sentinel unit serial number:	SN410029Multiplexer serial number:	ORYXHardware model number:	OX2-SRSoftware version number:	ORYX F/W v4,00 Oryx Data Collector v3.7.2.0data status	okinstallation	B6 Nyhavnadifferential loss correction	single-endedforward channel	channel 2reverse channel	N/Adate	2023/12/10time	08:40:08forward acquisition time	300,00reverse acquisition time	0,00gamma	499,1914k internal	0,3123k external	0,3123temperature offset calibration	1,0000default loss term (dB/km)	0,3820temperature slope calibration	1,0000multiplexer offset coefficient	1,0000multiplexer slope coefficient	1,0000fibre end	0,00T internal ref (°C)	22,57T ext. ref 1 (°C)	6,32T ext. ref 2 (°C)	6,34length (m)	temperature (°C)	Stokes	anti-Stokes-744,400	-200,000	-0,021	0,115
-743,385	-26,121	-0,170	0,074
-742,371	339,759	0,048	-0,070
-741,356	11,934	-0,198	0,113
-740,342	-49,930	0,116	0,041
-739,327	132,822	-0,187	0,180
-738,312	79,570	-0,077	-0,061
-737,298	-4,691	-0,342	0,175
-736,283	46,662	-0,083	-0,058
-735,269	368,178	-0,130	0,196
-734,254	573,110	0,055	-0,100
-733,239	-36,773	-0,383	-0,152
-732,225	-112,185	0,035	-0,005
-731,210	-200,000	0,001	0,039
-730,196	-200,000	-0,024	0,086
-729,181	69,922	0,131	-0,101
-728,167	232,528	0,047	-0,058
-727,152	501,363	-0,038	-0,065
-726,137	105,885	-0,153	0,134
-725,123	800,000	-0,022	0,051
-724,108	465,354	-0,033	-0,056
-723,094	12,452	-0,100	-0,057
-722,079	258,073	0,056	-0,072
-721,064	-200,000	0,009	-0,042
-720,050	800,000	-0,006	-0,012
-719,035	222,909	0,032	0,038
-718,021	-80,197	-0,243	-0,060
-717,006	607,467	-0,062	-0,115
-715,991	115,353	-0,144	-0,131
-714,977	305,026	0,035	-0,049
-713,962	128,067	-0,103	-0,098
-712,948	-127,332	0,035	0,004
-711,933	800,000	0,053	0,138
-710,918	102,880	0,045	0,039
-709,904	-118,191	-0,129	0,017
-708,889	172,758	-0,075	-0,081
-707,875	244,035	-0,101	-0,127
-706,860	102,878	-0,045	-0,039
-705,845	-39,268	-0,040	0,015
-704,831	71,690	0,075	-0,058
-703,816	27,709	0,085	-0,053
-702,802	-200,000	-0,023	-0,077
-701,787	-47,706	-0,081	-0,029
-700,772	32,955	-0,017	-0,011
-699,758	-165,115	-0,022	-0,001
-698,743	-180,402	0,034	0,001
-697,729	28,200	0,122	-0,077
-696,714	-200,000	-0,050	-0,182
-695,699	42,195	-0,031	-0,021
-694,685	5,515	-0,076	0,042
-693,670	-3,385	0,068	0,035
-692,656	44,110	0,117	0,080
-691,641	-97,356	-0,115	-0,022
-690,627	677,969	0,028	-0,054
-689,612	-200,000	-0,026	0,103
-688,597	-175,628	-0,164	0,003
-687,583	-23,050	-0,006	0,003
-686,568	-47,898	0,002	0,001
-685,554	-182,401	-0,054	-0,001
-684,539	-12,349	0,076	0,037
-683,524	-30,547	0,051	0,021
-682,510	-138,229	-0,094	0,008
-681,495	177,353	-0,029	-0,031
-680,481	-200,000	0,027	-0,118
-679,466	-200,000	0,011	-0,139
-678,451	-130,057	-0,076	0,008
-677,437	-194,361	0,105	-0,001
-676,422	-200,000	0,036	-0,188
-675,408	-22,287	-0,030	-0,014
-674,393	595,063	-0,049	0,091
-673,378	800,000	0,040	0,090
-672,364	-200,000	-0,018	-0,069
-671,349	-33,757	-0,023	-0,009
-670,335	-143,245	-0,083	-0,006
-669,320	-131,749	-0,249	0,024
-668,305	-200,000	-0,000	0,058
-667,291	64,595	-0,099	-0,074
-666,276	-200,000	-0,016	-0,061
-665,262	103,963	-0,069	0,060
-664,247	-93,938	-0,042	-0,008
-663,232	104,792	-0,070	-0,061
-662,218	288,883	0,077	0,103
-661,203	-200,000	0,008	0,084
-660,189	800,000	0,062	-0,134
-659,174	678,395	-0,041	-0,080
-658,159	41,631	-0,043	0,029
-657,145	800,000	0,024	-0,074
-656,130	84,963	-0,161	0,131
-655,116	167,639	-0,067	0,071
-654,101	-200,000	0,004	-0,093
-653,086	-66,602	-0,102	-0,030
-652,072	-63,914	-0,034	0,010
-651,057	56,086	-0,033	0,024
-650,043	-45,363	-0,091	-0,033
-649,028	-20,149	-0,030	-0,014
-648,014	66,499	0,082	0,062
-646,999	-200,000	0,014	0,083
-645,984	-200,000	-0,020	0,166
-644,970	-74,417	-0,094	-0,025
-643,955	239,110	0,033	-0,041
-642,941	-200,000	-0,032	-0,161
-641,926	-168,354	0,022	0,001
-640,911	255,986	-0,076	0,097
-639,897	-142,666	0,093	0,007
-638,882	-200,000	-0,023	0,080
-637,868	88,060	0,060	0,049
-636,853	82,208	0,108	-0,087
-635,838	-109,765	0,088	0,014
-634,824	-200,000	-0,003	-0,060
-633,809	-180,167	0,133	0,002
-632,795	-197,406	-0,040	-0,000
-631,780	-85,059	-0,160	0,037
-630,765	-200,000	0,028	0,117
-629,751	-200,000	0,068	-0,234
-628,736	-200,000	-0,009	0,033
-627,722	233,924	0,072	-0,088
-626,707	-38,220	0,043	0,017
-625,692	3,525	0,078	0,042
-624,678	-79,204	0,168	-0,042
-623,663	74,576	-0,104	0,081
-622,649	-200,000	0,042	-0,142
-621,634	800,000	-0,031	-0,066
-620,619	225,932	-0,050	-0,061
-619,605	199,045	0,081	0,092
-618,590	426,749	0,074	0,118
-617,576	800,000	-0,048	0,138
-616,561	324,672	0,035	-0,050
-615,546	234,434	0,108	-0,133
-614,532	-86,730	0,106	-0,024
-613,517	534,829	0,071	-0,126
-612,503	464,231	0,082	-0,137
-611,488	-72,172	0,119	-0,032
-610,474	-200,000	-0,026	-0,094
-609,459	-62,289	-0,044	-0,014
-608,444	-53,160	0,035	0,012
-607,430	264,877	0,036	-0,047
-606,415	-200,000	-0,019	-0,092
-605,401	-135,528	0,058	0,005
-604,386	-19,659	0,065	-0,030
-603,371	-200,000	0,011	0,040
-602,357	73,280	0,049	-0,038
-601,342	-200,000	-0,020	0,081
-600,328	505,207	-0,072	-0,124
-599,313	800,000	0,016	0,038
-598,298	43,330	-0,058	-0,039
-597,284	800,000	0,050	-0,145
-596,269	-200,000	-0,031	-0,116
-595,255	-200,000	0,024	0,133
-594,240	323,719	-0,043	0,061
-593,225	551,643	0,068	-0,122
-592,211	11,824	-0,213	-0,121
-591,196	-200,000	-0,018	-0,095
-590,182	-200,000	0,018	0,087
-589,167	4,158	0,108	0,059
-588,152	-57,213	-0,055	0,018
-587,138	501,057	-0,016	0,028
-586,123	315,271	-0,025	0,035
-585,109	174,258	-0,083	-0,089
-584,094	-129,771	0,059	0,006
-583,079	164,193	0,121	0,126
-582,065	-200,000	-0,035	0,138
-581,050	-126,589	0,175	-0,019
-580,036	-54,177	-0,055	-0,018
-579,021	30,460	0,051	-0,032
-578,006	-200,000	-0,011	-0,038
-576,992	800,000	0,004	-0,010
-575,977	-200,000	-0,011	-0,073
-574,963	-77,694	0,072	0,018
-573,948	-1,917	0,066	-0,034
-572,934	582,208	-0,042	-0,077
-571,919	800,000	-0,009	-0,020
-570,904	800,000	0,027	-0,076
-569,890	298,092	-0,068	-0,093
-568,875	548,122	0,032	-0,057
-567,861	-120,847	-0,061	-0,008
-566,846	35,140	0,068	0,044
-565,831	571,051	-0,064	0,117
-564,817	232,617	-0,040	0,049
-563,802	57,306	0,096	0,069
-562,788	-44,349	0,054	0,020
-561,773	800,000	-0,058	-0,120
-560,758	-200,000	0,028	0,167
-559,744	135,759	0,023	0,022
-558,729	800,000	-0,079	-0,170
-557,715	311,166	-0,033	0,046
-556,700	-42,950	-0,070	-0,026
-555,685	55,570	-0,060	0,043
-554,671	-27,650	-0,142	-0,061
-553,656	-200,000	-0,009	-0,139
-552,642	67,868	0,124	0,094
-551,627	-174,678	0,075	0,002
-550,612	800,000	0,018	-0,055
-549,598	-88,057	-0,107	-0,024
-548,583	-200,000	-0,037	0,135
-547,569	-128,135	0,056	0,006
-546,554	-200,000	-0,006	0,151
-545,539	-200,000	0,003	-0,031
-544,525	-200,000	0,009	-0,041
-543,510	-200,000	0,004	-0,087
-542,496	308,790	-0,051	-0,070
-541,481	260,584	0,066	-0,085
-540,466	-51,906	-0,043	0,015
-539,452	-117,898	0,013	0,002
-538,437	254,973	-0,044	-0,056
-537,423	800,000	0,013	0,032
-536,408	-19,484	-0,080	-0,037
-535,393	81,313	0,018	0,014
-534,379	114,912	-0,119	0,108
-533,364	-24,419	0,051	0,022
-532,350	-200,000	-0,010	-0,044
-531,335	398,563	-0,028	0,044
-530,321	52,879	0,216	0,152
-529,306	181,135	0,049	-0,053
-528,291	135,155	0,030	-0,028
-527,277	-200,000	-0,018	-0,092
-526,262	-200,000	0,022	-0,088
-525,248	260,356	0,070	-0,090
-524,233	-200,000	-0,004	-0,023
-523,218	-84,604	0,130	0,030
-522,204	383,764	-0,033	-0,050
-521,189	-78,560	0,100	0,025
-520,175	-52,848	0,117	-0,040
-519,160	-68,137	0,086	-0,025
-518,145	99,382	0,042	-0,036
-517,131	-200,000	-0,033	-0,131
-516,116	-15,760	0,044	-0,021
-515,102	52,690	-0,090	-0,064
-514,087	58,017	-0,096	-0,069
-513,072	-200,000	0,021	-0,070
-512,058	-178,031	-0,152	-0,003
-511,043	-13,055	-0,059	0,028
-510,029	242,989	0,082	-0,101
-509,014	800,000	-0,009	0,019
-507,999	-155,655	-0,095	0,004
-506,985	-84,594	0,060	-0,014
-505,970	-50,998	-0,077	0,026
-504,956	800,000	-0,040	-0,122
-503,941	83,146	0,070	-0,056
-502,926	24,182	0,099	-0,060
-501,912	66,939	-0,045	-0,034
-500,897	532,729	0,037	-0,064
-499,883	468,409	-0,034	0,057
-498,868	448,538	0,023	0,038
-497,853	-135,511	-0,111	0,010
-496,839	800,000	-0,037	-0,100
-495,824	800,000	0,015	0,042
-494,810	-200,000	0,002	-0,007
-493,795	800,000	-0,029	-0,069
-492,781	-31,241	-0,106	0,044
-491,766	414,720	-0,014	-0,022
-490,751	177,166	-0,130	0,140
-489,737	-200,000	-0,005	0,059
-488,722	800,000	-0,061	0,126
-487,708	-200,000	0,010	0,120
-486,693	-94,088	0,098	0,020
-485,678	174,633	-0,120	0,129
-484,664	720,732	-0,086	-0,169
-483,649	-146,930	-0,116	-0,007
-482,635	-101,596	-0,141	-0,025
-481,620	-200,000	0,010	0,054
-480,605	-200,000	-0,002	0,102
-479,591	327,037	-0,119	0,169
-478,576	546,895	-0,040	-0,070
-477,562	-200,000	0,011	0,091
-476,547	423,922	-0,032	0,051
-475,532	-180,981	-0,151	-0,002
-474,518	-63,632	-0,069	0,021
-473,503	24,542	-0,072	0,044
-472,489	187,476	0,065	0,072
-471,474	119,265	0,046	0,042
-470,459	-56,517	0,048	-0,016
-469,445	-200,000	-0,005	-0,028
-468,430	359,732	0,019	0,029
-467,416	-200,000	0,013	-0,084
-466,401	78,371	0,021	-0,016
-465,386	-21,712	0,027	0,012
-464,372	93,156	-0,072	0,060
-463,357	148,582	0,067	0,066
-462,343	-1,586	-0,088	-0,046
-461,328	-64,505	0,050	0,015
-460,313	-13,541	0,152	-0,072
-459,299	-200,000	0,004	0,034
-458,284	-200,000	-0,003	0,152
-457,270	-86,929	-0,140	-0,031
-456,255	-200,000	-0,023	0,084
-455,241	643,996	-0,075	-0,141
-454,226	99,509	0,139	-0,119
-453,211	246,355	0,048	0,059
-452,197	-112,143	0,144	0,021
-451,182	-80,389	0,038	-0,009
-450,168	-138,281	-0,045	-0,004
-449,153	-61,094	-0,131	-0,041
-448,138	632,730	-0,028	0,053
-447,124	-200,000	-0,029	-0,141
-446,109	372,885	0,016	0,024
-445,095	-200,000	0,019	0,066
-444,080	660,760	-0,048	-0,091
-443,065	-78,952	-0,021	0,005
-442,051	5,626	-0,061	-0,033
-441,036	126,049	-0,032	0,030
-440,022	-72,294	-0,118	0,032
-439,007	-21,917	-0,150	-0,067
-437,992	800,000	0,013	-0,030
-436,978	-75,968	0,012	-0,003
-435,963	-200,000	-0,029	0,116
-434,949	-200,000	-0,015	-0,076
-433,934	-200,000	-0,018	-0,159
-432,919	195,629	0,063	-0,070
-431,905	11,355	0,056	-0,031
-430,890	-70,266	-0,029	-0,008
-429,876	65,383	0,029	-0,022
-428,861	-115,279	0,161	0,022
-427,846	-200,000	0,018	-0,112
-426,832	72,464	-0,083	-0,064
-425,817	-83,425	-0,034	-0,008
-424,803	799,736	-0,012	0,024
-423,788	-63,331	0,092	0,028
-422,773	-72,851	-0,037	0,010
-421,759	-200,000	0,002	-0,052
-420,744	-114,237	-0,117	-0,016
-419,730	-126,066	-0,079	-0,009
-418,715	-110,609	-0,103	-0,015
-417,701	800,000	-0,031	-0,088
-416,686	800,000	-0,026	-0,062
-415,671	-200,000	0,018	-0,071
-414,657	-129,108	0,120	0,012
-413,642	-40,719	-0,101	0,038
-412,628	-199,755	0,005	0,000
-411,613	105,610	-0,096	-0,084
-410,598	-20,195	0,085	-0,038
-409,584	-25,951	0,106	0,046
-408,569	-108,312	0,076	-0,012
-407,555	-85,066	-0,089	-0,020
-406,540	-171,588	0,072	0,002
-405,525	485,607	-0,027	-0,046
-404,511	132,680	0,070	-0,066
-403,496	-66,076	0,063	-0,018
-402,482	-200,000	-0,012	0,123
-401,467	225,743	0,064	-0,077
-400,452	-174,060	-0,189	0,004
-399,438	149,638	0,064	0,064
-398,423	-200,000	0,022	0,082
-397,409	146,293	-0,038	-0,038
-396,394	574,985	0,029	-0,053
-395,379	800,000	0,013	-0,035
-394,365	84,569	-0,133	0,107
-393,350	470,963	0,081	0,134
-392,336	84,248	0,139	0,112
-391,321	-191,319	-0,114	-0,001
-390,306	236,348	-0,041	-0,051
-389,292	-57,378	0,076	0,025
-388,277	800,000	-0,033	0,093
-387,263	-113,964	-0,058	0,008
-386,248	-55,287	0,229	-0,075
-385,233	-200,000	0,002	-0,011
-384,219	221,581	-0,039	0,046
-383,204	-31,881	-0,062	-0,025
-382,190	-200,000	-0,005	-0,030
-381,175	-78,969	-0,219	0,054
-380,160	-200,000	-0,033	0,141
-379,146	-200,000	-0,009	0,088
-378,131	389,710	0,081	0,124
-377,117	800,000	-0,027	0,074
-376,102	559,644	-0,032	0,058
-375,088	800,000	-0,070	-0,150
-374,073	-100,217	0,072	-0,013
-373,058	-8,101	-0,052	0,025
-372,044	-61,449	0,096	-0,029
-371,029	800,000	-0,005	0,011
-370,015	165,245	0,083	0,087
-369,000	139,395	-0,011	-0,011
-367,985	-200,000	0,015	-0,095
-366,971	139,103	0,018	0,018
-365,956	-120,544	0,045	0,006
-364,942	-50,447	0,095	0,033
-363,927	-200,000	0,006	-0,092
-362,912	800,000	-0,018	0,037
-361,898	800,000	-0,062	0,128
-360,883	-5,249	-0,110	-0,055
-359,869	411,310	0,065	-0,102
-358,854	244,270	-0,056	0,069
-357,839	-49,540	0,124	0,043
-356,825	324,337	0,093	0,130
-355,810	-200,000	-0,014	-0,059
-354,796	800,000	-0,060	-0,183
-353,781	-86,943	-0,141	-0,031
-352,766	94,915	-0,050	-0,042
-351,752	106,306	-0,072	0,062
-350,737	-200,000	-0,073	-0,000
-349,723	800,000	0,036	0,080
-348,708	43,257	0,073	0,049
-347,693	-32,975	0,142	0,058
-346,679	-200,000	-0,025	-0,101
-345,664	0,002	0,188	-0,098
-344,650	136,661	0,093	0,089
-343,635	774,524	-0,031	0,062
-342,620	149,346	0,031	0,030
-341,606	-31,046	0,089	0,037
-340,591	-125,675	-0,027	0,003
-339,577	686,317	0,034	-0,066
-338,562	800,000	-0,023	0,065
-337,548	149,939	0,090	-0,089
-336,533	-9,637	0,124	0,061
-335,518	-192,806	0,070	-0,000
-334,504	-200,000	0,016	-0,077
-333,489	27,985	0,020	-0,013
-332,475	-140,785	-0,098	0,007
-331,460	800,000	-0,003	-0,008
-330,445	415,691	-0,032	0,050
-329,431	85,582	0,102	-0,082
-328,416	332,533	0,012	0,018
-327,402	340,263	0,029	0,042
-326,387	-53,837	-0,044	-0,015
-325,372	-85,306	-0,072	0,016
-324,358	-200,000	0,002	0,062
-323,343	-200,000	-0,018	-0,113
-322,329	63,658	0,051	-0,037
-321,314	-200,000	0,001	0,063
-320,299	385,434	0,034	0,051
-319,285	130,930	-0,081	0,077
-318,270	381,001	0,039	0,059
-317,256	-67,114	-0,144	0,041
-316,241	-200,000	0,005	0,060
-315,226	-107,731	0,053	-0,008
-314,212	-58,727	0,079	0,025
-313,197	251,305	-0,054	-0,068
-312,183	15,925	0,092	-0,053
-311,168	25,062	-0,112	0,068
-310,153	-43,343	-0,143	-0,053
-309,139	-200,000	-0,006	0,073
-308,124	253,621	0,065	-0,082
-307,110	-200,000	-0,015	0,170
-306,095	-3,266	0,089	0,045
-305,080	117,565	0,046	-0,041
-304,066	48,125	0,035	0,024
-303,051	1,043	-0,015	0,008
-302,037	800,000	0,027	-0,082
-301,022	484,112	0,045	-0,076
-300,008	-126,118	-0,050	-0,005
-298,993	800,000	-0,060	0,168
-297,978	-200,000	0,016	0,070
-296,964	-3,651	0,020	0,010
-295,949	31,066	-0,185	-0,116
-294,935	-200,000	-0,002	-0,104
-293,920	800,000	0,071	0,196
-292,905	263,706	-0,069	0,089
-291,891	-64,133	-0,105	0,031
-290,876	-200,000	0,042	0,145
-289,862	48,577	-0,029	0,020
-288,847	-200,000	-0,000	0,079
-287,832	-20,871	-0,019	0,008
-286,818	-153,577	-0,146	-0,007
-285,803	169,527	0,072	0,076
-284,789	-200,000	0,001	0,006
-283,774	-90,380	0,070	-0,015
-282,759	14,210	0,135	-0,077
-281,745	106,054	-0,043	-0,037
-280,730	-161,170	-0,055	-0,002
-279,716	135,141	0,075	0,072
-278,701	-179,115	0,147	0,002
-277,686	800,000	-0,017	0,036
-276,672	-200,000	-0,021	-0,085
-275,657	-200,000	-0,023	-0,131
-274,643	37,851	-0,010	-0,006
-273,628	-40,375	-0,057	0,021
-272,613	-200,000	-0,018	-0,082
-271,599	-39,846	0,103	0,039
-270,584	291,554	0,071	0,095
-269,570	-200,000	0,003	0,110
-268,555	22,813	0,040	0,024
-267,540	64,368	-0,033	0,024
-266,526	-103,884	-0,061	0,010
-265,511	222,028	0,061	0,071
-264,497	-200,000	-0,013	0,053
-263,482	-155,276	-0,110	-0,005
-262,467	-47,292	0,053	-0,019
-261,453	-200,000	-0,005	-0,052
-260,438	40,476	-0,079	0,052
-259,424	800,000	-0,054	0,113
-258,409	-16,870	-0,132	-0,061
-257,395	-200,000	-0,004	0,046
-256,380	92,896	0,089	0,073
-255,365	800,000	0,048	0,135
-254,351	136,517	-0,083	-0,080
-253,336	125,072	-0,080	0,073
-252,322	800,000	-0,022	0,059
-251,307	-200,000	0,019	-0,066
-250,292	800,000	-0,068	-0,200
-249,278	169,969	0,122	-0,128
-248,263	-200,000	-0,009	-0,041
-247,249	138,501	0,023	0,022
-246,234	-30,306	-0,149	-0,062
-245,219	-200,000	-0,012	-0,063
-244,205	-140,743	-0,032	-0,002
-243,190	-95,103	0,060	0,012
-242,176	-198,306	-0,127	0,001
-241,161	-34,106	0,058	0,023
-240,146	657,247	-0,026	0,050
-239,132	109,645	0,095	0,084
-238,117	-76,417	0,020	-0,005
-237,103	-12,916	-0,105	-0,050
-236,088	-200,000	-0,004	-0,127
-235,073	-200,000	0,038	0,150
-234,059	253,852	-0,049	0,062
-233,044	-200,000	0,001	0,052
-232,030	54,042	-0,123	-0,086
-231,015	-200,000	-0,023	0,129
-230,000	25,939	-0,119	0,073
-228,986	-70,431	0,086	-0,024
-227,971	-93,620	0,115	-0,023
-226,957	-200,000	0,042	0,142
-225,942	-61,621	-0,051	0,016
-224,927	31,693	-0,065	0,041
-223,913	628,110	0,053	0,098
-222,898	-200,000	-0,023	0,129
-221,884	98,433	0,019	0,016
-220,869	-63,306	0,084	-0,025
-219,855	800,000	-0,042	-0,132
-218,840	-65,708	0,058	-0,017
-217,825	493,055	-0,060	-0,101
-216,811	101,406	0,104	-0,089
-215,796	394,981	0,023	-0,036
-214,782	-200,000	-0,005	0,067
-213,767	800,000	0,063	0,140
-212,752	-200,000	-0,024	0,095
-211,738	42,938	0,101	-0,067
-210,723	800,000	0,050	0,139
-209,709	117,005	0,064	0,057
-208,694	-200,000	-0,006	-0,067
-207,679	-169,242	0,146	0,004
-206,665	-111,704	-0,025	-0,004
-205,650	32,144	-0,081	0,051
-204,636	189,966	-0,083	0,091
-203,621	-200,000	-0,002	-0,074
-202,606	215,489	0,039	-0,045
-201,592	564,918	-0,056	-0,100
-200,577	14,376	-0,121	0,069
-199,563	101,851	-0,087	0,074
-198,548	21,328	-0,115	0,068
-197,533	28,781	-0,051	0,032
-196,519	-134,787	0,081	0,007
-195,504	-13,100	0,097	-0,046
-194,490	800,000	-0,042	-0,112
-193,475	-200,000	-0,011	-0,110
-192,460	-86,383	0,100	-0,022
-191,446	800,000	0,037	-0,097
-190,431	-141,215	-0,126	0,009
-189,417	36,758	0,081	0,052
-188,402	50,447	0,097	-0,066
-187,387	-71,445	-0,063	-0,017
-186,373	272,898	-0,119	0,153
-185,358	392,484	-0,079	0,120
-184,344	-102,352	0,083	0,014
-183,329	70,059	-0,153	-0,115
-182,315	34,929	0,025	0,016
-181,300	-29,575	0,077	0,032
-180,285	563,878	-0,009	-0,016
-179,271	-200,000	0,020	-0,199
-178,256	97,580	0,043	-0,036
-177,242	-200,000	0,003	-0,083
-176,227	-0,322	0,074	0,038
-175,212	351,494	0,040	-0,058
-174,198	-19,874	0,092	-0,041
-173,183	-41,895	-0,054	0,020
-172,169	284,283	0,033	-0,043
-171,154	-92,271	-0,086	0,017
-170,139	174,393	0,009	0,009
-169,125	-88,347	0,070	0,015
-168,110	-200,000	0,046	0,154
-167,096	-200,000	-0,008	0,038
-166,081	-172,632	0,104	-0,002
-165,066	-35,434	-0,045	-0,018
-164,052	-6,384	-0,073	0,036
-163,037	-200,000	-0,004	0,184
-162,023	-83,237	-0,054	-0,012
-161,008	279,578	0,001	0,001
-159,993	-66,447	0,097	0,028
-158,979	232,648	-0,069	0,082
-157,964	-200,000	-0,041	-0,226
-156,950	259,851	-0,024	-0,031
-155,935	42,448	0,048	-0,032
-154,920	-200,000	0,029	-0,198
-153,906	63,812	-0,131	0,096
-152,891	129,610	-0,071	0,066
-151,877	343,348	0,044	0,063
-150,862	-70,491	-0,123	-0,034
-149,847	289,059	-0,058	0,077
-148,833	-200,000	-0,037	0,131
-147,818	474,196	0,073	0,120
-146,804	193,642	0,045	0,049
-145,789	571,277	-0,037	0,065
-144,775	358,052	0,062	0,090
-143,760	384,689	-0,056	0,085
-142,745	-171,956	-0,089	-0,002
-141,731	-200,000	0,007	-0,022
-140,716	776,503	0,027	-0,054
-139,702	-67,637	0,036	0,010
-138,687	690,563	0,049	0,094
-137,672	181,816	-0,052	0,056
-136,658	1,243	-0,092	-0,048
-135,643	800,000	-0,055	0,121
-134,629	91,680	-0,078	-0,064
-133,614	-200,000	0,034	0,145
-132,599	800,000	0,046	-0,147
-131,585	-200,000	-0,011	0,087
-130,570	-200,000	-0,014	-0,112
-129,556	-200,000	0,012	-0,080
-128,541	15,893	0,006	-0,003
-127,526	65,333	-0,071	0,052
-126,512	-43,752	0,116	-0,042
-125,497	-200,000	0,021	0,069
-124,483	186,601	-0,061	0,066
-123,468	-200,000	-0,025	0,126
-122,453	-200,000	0,019	-0,090
-121,439	800,000	0,002	-0,004
-120,424	219,505	-0,073	-0,086
-119,410	-35,587	0,100	0,039
