DTS Sentinel unit serial number:	SN410029Multiplexer serial number:	ORYXHardware model number:	OX2-SRSoftware version number:	ORYX F/W v4,00 Oryx Data Collector v3.7.2.0data status	okinstallation	B6 Nyhavnadifferential loss correction	single-endedforward channel	channel 2reverse channel	N/Adate	2023/12/10time	08:30:08forward acquisition time	300,00reverse acquisition time	0,00gamma	499,1914k internal	0,3123k external	0,3123temperature offset calibration	1,0000default loss term (dB/km)	0,3820temperature slope calibration	1,0000multiplexer offset coefficient	1,0000multiplexer slope coefficient	1,0000fibre end	0,00T internal ref (°C)	22,57T ext. ref 1 (°C)	6,32T ext. ref 2 (°C)	6,33length (m)	temperature (°C)	Stokes	anti-Stokes-744,400	35,053	0,087	0,056
-743,385	-82,253	-0,326	0,079
-742,371	42,117	0,067	-0,045
-741,356	209,034	-0,159	0,186
-740,342	146,773	0,072	0,072
-739,327	-178,484	-0,336	-0,006
-738,312	224,633	0,093	-0,112
-737,298	-116,022	-0,324	-0,044
-736,283	64,431	-0,145	0,109
-735,269	164,498	-0,123	0,129
-734,254	453,515	0,022	0,037
-733,239	-12,610	-0,263	-0,127
-732,225	-3,210	-0,009	0,005
-731,210	338,084	0,034	0,050
-730,196	800,000	-0,024	-0,077
-729,181	21,155	-0,087	-0,053
-728,167	-200,000	-0,017	-0,059
-727,152	-200,000	-0,026	0,090
-726,137	556,375	-0,045	0,081
-725,123	-200,000	0,024	-0,218
-724,108	93,042	-0,101	-0,085
-723,094	113,973	-0,093	-0,084
-722,079	800,000	0,028	-0,068
-721,064	278,286	-0,065	0,086
-720,050	18,981	-0,071	-0,042
-719,035	244,568	0,041	0,051
-718,021	115,447	0,043	-0,039
-717,006	517,598	0,111	-0,194
-715,991	-78,604	-0,151	-0,038
-714,977	-200,000	-0,018	-0,062
-713,962	241,358	-0,043	-0,054
-712,948	205,715	-0,030	0,034
-711,933	-57,085	0,028	-0,009
-710,918	280,058	-0,057	0,076
-709,904	-156,072	-0,139	-0,006
-708,889	-19,670	-0,026	0,012
-707,875	-200,000	0,016	-0,111
-706,860	800,000	0,042	0,095
-705,845	138,654	-0,008	0,007
-704,831	-69,622	0,069	0,019
-703,816	764,455	-0,015	0,031
-702,802	-200,000	-0,012	-0,160
-701,787	-200,000	0,021	-0,192
-700,772	798,930	0,056	-0,116
-699,758	408,860	-0,044	-0,070
-698,743	-200,000	-0,024	0,099
-697,729	-98,380	0,028	0,005
-696,714	550,730	0,087	0,156
-695,699	8,749	0,103	-0,058
-694,685	123,848	-0,091	0,085
-693,670	-39,593	-0,074	-0,029
-692,656	142,211	0,061	0,060
-691,641	13,606	-0,070	-0,040
-690,627	-200,000	-0,022	0,145
-689,612	120,389	-0,046	0,043
-688,597	398,507	-0,030	-0,047
-687,583	800,000	-0,048	-0,157
-686,568	-200,000	-0,008	-0,155
-685,554	18,570	0,145	-0,086
-684,539	23,049	0,090	-0,055
-683,524	-200,000	-0,005	-0,034
-682,510	800,000	0,021	0,055
-681,495	546,168	-0,068	0,121
-680,481	-200,000	0,006	0,077
-679,466	-200,000	0,014	0,053
-678,451	-123,201	-0,176	0,021
-677,437	256,362	0,006	0,008
-676,422	800,000	0,024	0,053
-675,408	159,065	0,046	-0,047
-674,393	800,000	-0,019	0,051
-673,378	340,722	-0,026	0,037
-672,364	-32,331	-0,098	-0,040
-671,349	800,000	0,045	-0,144
-670,335	800,000	0,046	0,128
-669,320	231,500	0,057	0,070
-668,305	800,000	-0,040	-0,085
-667,291	-70,428	-0,086	0,024
-666,276	-200,000	0,021	-0,158
-665,262	800,000	0,041	-0,109
-664,247	-108,835	0,072	0,011
-663,232	-28,012	0,056	-0,024
-662,218	651,487	0,018	-0,034
-661,203	-43,979	0,062	-0,023
-660,189	-120,638	0,151	-0,019
-659,174	176,529	-0,086	-0,093
-658,159	32,945	0,078	-0,050
-657,145	79,828	-0,127	-0,101
-656,130	-75,939	-0,074	0,019
-655,116	562,172	0,039	-0,071
-654,101	281,650	0,080	-0,107
-653,086	-112,914	-0,124	-0,018
-652,072	800,000	0,059	-0,190
-651,057	-200,000	0,007	-0,063
-650,043	-200,000	-0,001	0,029
-649,028	800,000	-0,072	-0,165
-648,014	393,437	0,071	0,110
-646,999	43,217	0,144	0,098
-645,984	16,526	-0,061	-0,036
-644,970	-147,411	-0,048	-0,003
-643,955	-200,000	-0,013	-0,055
-642,941	5,211	-0,084	-0,046
-641,926	-200,000	0,014	0,230
-640,911	-78,063	-0,029	0,007
-639,897	113,572	0,013	-0,012
-638,882	-48,740	0,071	-0,025
-637,868	-111,002	0,053	0,008
-636,853	-108,039	0,049	0,008
-635,838	-106,415	-0,101	0,017
-634,824	250,904	0,061	-0,077
-633,809	-71,943	0,088	-0,024
-632,795	578,469	0,060	-0,109
-631,780	1,670	-0,078	0,041
-630,765	58,646	0,079	-0,058
-629,751	-97,677	-0,066	-0,012
-628,736	-44,308	0,142	-0,053
-627,722	363,182	-0,067	0,100
-626,707	212,233	0,035	-0,041
-625,692	800,000	-0,034	-0,090
-624,678	-11,260	0,020	0,010
-623,663	-160,182	-0,174	-0,007
-622,649	19,889	-0,010	0,006
-621,634	800,000	-0,007	0,016
-620,619	-28,779	0,123	-0,052
-619,605	800,000	-0,050	0,138
-618,590	188,624	0,020	-0,022
-617,576	-33,379	0,083	0,034
-616,561	-14,694	0,066	0,031
-615,546	46,224	-0,088	-0,060
-614,532	800,000	-0,037	0,077
-613,517	-121,255	-0,079	-0,010
-612,503	-109,756	-0,096	-0,015
-611,488	-200,000	0,002	-0,091
-610,474	-125,618	0,083	0,009
-609,459	-84,482	-0,031	-0,007
-608,444	800,000	-0,021	-0,067
-607,430	-97,178	0,084	-0,016
-606,415	124,543	-0,075	-0,070
-605,401	-180,147	0,174	-0,003
-604,386	20,242	0,124	-0,074
-603,371	-200,000	0,003	0,099
-602,357	800,000	0,042	0,130
-601,342	-114,733	-0,048	-0,007
-600,328	398,727	0,047	-0,073
-599,313	511,547	-0,050	-0,087
-598,298	8,484	-0,055	0,031
-597,284	728,497	0,067	0,134
-596,269	800,000	-0,053	0,139
-595,255	-9,463	-0,086	-0,042
-594,240	800,000	-0,029	-0,063
-593,225	800,000	0,029	-0,069
-592,211	800,000	0,002	-0,005
-591,196	731,501	-0,042	-0,083
-590,182	-200,000	0,055	-0,222
-589,167	-200,000	-0,015	0,048
-588,152	652,819	-0,043	-0,082
-587,138	-69,807	0,038	0,011
-586,123	54,004	-0,102	-0,073
-585,109	-136,369	-0,116	-0,010
-584,094	349,947	-0,017	0,025
-583,079	800,000	-0,025	0,073
-582,065	299,521	-0,034	0,046
-581,050	171,784	-0,078	-0,083
-580,036	-200,000	0,025	0,185
-579,021	180,651	0,040	-0,044
-578,006	-42,722	0,098	-0,037
-576,992	61,101	-0,054	0,039
-575,977	-200,000	-0,005	0,022
-574,963	800,000	0,026	-0,073
-573,948	-200,000	0,050	0,166
-572,934	93,797	-0,111	0,093
-571,919	103,024	-0,112	0,097
-570,904	474,424	-0,093	-0,156
-569,890	297,919	0,096	0,131
-568,875	236,075	0,068	0,084
-567,861	56,833	-0,030	0,022
-566,846	1,666	-0,032	-0,017
-565,831	-200,000	-0,028	0,145
-564,817	-74,951	-0,157	-0,041
-563,802	-200,000	-0,003	-0,127
-562,788	-200,000	0,007	-0,072
-561,773	-48,335	-0,110	-0,039
-560,758	162,952	0,080	0,084
-559,744	-96,091	-0,197	0,038
-558,729	800,000	-0,061	-0,150
-557,715	-6,812	-0,107	-0,054
-556,700	407,624	0,028	-0,044
-555,685	678,729	-0,078	0,150
-554,671	71,474	-0,122	0,093
-553,656	60,631	-0,108	0,079
-552,642	194,104	-0,098	0,110
-551,627	-200,000	0,034	0,114
-550,612	-110,954	0,175	0,026
-549,598	-200,000	-0,003	-0,049
-548,583	-200,000	-0,017	-0,057
-547,569	78,687	-0,065	0,051
-546,554	386,943	0,099	0,151
-545,539	399,155	0,022	0,034
-544,525	-200,000	-0,017	0,159
-543,510	-200,000	0,022	-0,077
-542,496	800,000	0,026	-0,066
-541,481	800,000	-0,046	-0,112
-540,466	12,802	0,076	-0,043
-539,452	56,728	0,102	0,074
-538,437	-200,000	0,021	0,077
-537,423	598,150	0,028	0,052
-536,408	0,092	0,046	0,024
-535,393	670,841	-0,035	-0,067
-534,379	-108,623	-0,158	0,025
-533,364	185,482	-0,067	0,073
-532,350	800,000	0,025	0,061
-531,335	99,589	-0,075	0,064
-530,321	-47,535	0,060	0,022
-529,306	687,776	-0,093	-0,181
-528,291	729,710	-0,032	0,063
-527,277	169,999	0,027	-0,029
-526,262	230,016	-0,086	-0,104
-525,248	267,455	0,027	0,035
-524,233	-200,000	-0,007	0,047
-523,218	-169,268	-0,034	0,001
-522,204	-200,000	0,046	-0,205
-521,189	-50,959	-0,041	0,014
-520,175	-27,432	-0,143	-0,061
-519,160	141,410	-0,074	-0,072
-518,145	76,390	0,084	0,066
-517,131	-89,402	0,044	0,009
-516,116	-106,980	0,131	0,021
-515,102	-200,000	-0,022	0,090
-514,087	182,434	-0,017	-0,018
-513,072	-200,000	-0,023	-0,092
-512,058	24,526	-0,053	-0,033
-511,043	370,033	0,070	-0,105
-510,029	365,849	0,019	0,028
-509,014	65,322	-0,073	0,054
-507,999	-200,000	-0,000	0,143
-506,985	800,000	0,010	0,022
-505,970	-200,000	-0,020	-0,072
-504,956	-39,264	-0,092	0,036
-503,941	-102,607	-0,091	0,016
-502,926	-29,708	-0,098	0,041
-501,912	221,038	0,035	-0,042
-500,897	95,334	-0,051	-0,043
-499,883	-200,000	0,020	0,112
-498,868	800,000	-0,055	-0,126
-497,853	-157,508	-0,108	-0,005
-496,839	-123,736	-0,097	0,011
-495,824	53,932	0,059	0,042
-494,810	415,489	0,074	0,117
-493,795	-200,000	0,003	0,066
-492,781	-59,548	0,028	-0,009
-491,766	73,975	-0,151	-0,117
-490,751	-200,000	0,030	-0,151
-489,737	-200,000	0,025	-0,155
-488,722	-83,355	-0,048	0,011
-487,708	-76,066	0,024	-0,006
-486,693	-95,130	0,075	0,015
-485,678	-200,000	0,007	0,170
-484,664	-69,037	0,052	0,015
-483,649	-200,000	0,008	0,120
-482,635	-116,514	-0,107	-0,014
-481,620	202,872	0,062	0,071
-480,605	357,062	0,061	0,090
-479,591	219,827	0,088	-0,104
-478,576	-200,000	-0,007	-0,036
-477,562	800,000	-0,040	0,089
-476,547	201,948	-0,069	-0,078
-475,532	-125,353	0,105	0,012
-474,518	-40,017	0,107	-0,041
-473,503	302,068	0,080	0,109
-472,489	61,115	-0,073	0,053
-471,474	-47,147	-0,087	-0,031
-470,459	436,339	0,069	-0,111
-469,445	176,946	0,066	0,070
-468,430	166,638	0,071	-0,074
-467,416	187,301	0,129	0,142
-466,401	-160,269	-0,043	0,002
-465,386	-25,796	0,037	0,016
-464,372	253,223	0,127	0,160
-463,357	-72,228	-0,114	-0,031
-462,343	-200,000	0,026	-0,083
-461,328	85,063	0,039	-0,031
-460,313	800,000	0,036	0,111
-459,299	-142,514	-0,082	0,006
-458,284	-21,801	0,123	0,055
-457,270	283,353	0,049	0,065
-456,255	166,511	-0,088	-0,092
-455,241	800,000	0,015	-0,046
-454,226	1,091	-0,071	-0,038
-453,211	27,666	0,113	0,070
-452,197	-154,143	0,168	-0,008
-451,182	-40,495	0,024	0,009
-450,168	-200,000	0,012	0,128
-449,153	800,000	-0,029	0,062
-448,138	-44,733	-0,137	-0,050
-447,124	-200,000	0,011	-0,047
-446,109	-200,000	-0,001	0,072
-445,095	30,550	0,104	-0,065
-444,080	420,495	0,084	0,134
-443,065	-69,267	-0,078	0,022
-442,051	6,601	-0,159	-0,087
-441,036	110,141	-0,083	-0,073
-440,022	800,000	-0,021	0,043
-439,007	-40,936	0,076	-0,029
-437,992	240,081	-0,024	0,030
-436,978	-200,000	0,026	0,096
-435,963	-93,677	-0,123	-0,025
-434,949	800,000	-0,033	-0,103
-433,934	800,000	0,055	-0,125
-432,919	-26,262	0,062	-0,027
-431,905	27,985	0,111	-0,069
-430,890	-172,290	-0,026	-0,001
-429,876	59,125	0,034	-0,024
-428,861	-10,241	-0,101	-0,049
-427,846	495,433	-0,072	-0,123
-426,832	-104,148	0,139	-0,024
-425,817	800,000	0,060	-0,159
-424,803	-64,098	-0,036	-0,011
-423,788	566,351	-0,013	0,024
-422,773	-74,204	0,157	0,041
-421,759	684,624	-0,015	-0,029
-420,744	-73,307	-0,077	-0,021
-419,730	-200,000	-0,035	-0,124
-418,715	800,000	-0,068	-0,180
-417,701	-200,000	-0,013	0,043
-416,686	-140,379	0,132	0,010
-415,671	-67,583	0,028	-0,008
-414,657	-200,000	-0,015	0,076
-413,642	146,386	-0,081	-0,080
-412,628	111,468	0,025	-0,022
-411,613	241,072	0,068	0,083
-410,598	-200,000	-0,007	-0,201
-409,584	88,595	0,052	0,043
-408,569	-200,000	0,034	0,122
-407,555	-200,000	-0,029	0,261
-406,540	11,020	0,033	-0,018
-405,525	42,751	-0,070	-0,047
-404,511	-200,000	-0,016	-0,107
-403,496	-129,892	-0,089	-0,009
-402,482	-200,000	-0,009	0,114
-401,467	800,000	-0,012	0,033
-400,452	800,000	0,064	-0,163
-399,438	800,000	0,035	-0,094
-398,423	288,564	0,096	-0,128
-397,409	-200,000	-0,013	-0,127
-396,394	-200,000	-0,017	-0,103
-395,379	129,986	0,015	0,015
-394,365	23,262	0,090	0,054
-393,350	-83,397	0,129	-0,030
-392,336	98,797	0,145	0,123
-391,321	-200,000	0,004	-0,032
-390,306	-113,767	-0,020	-0,003
-389,292	166,797	0,122	-0,128
-388,277	-84,762	0,106	-0,024
-387,263	800,000	-0,063	0,151
-386,248	-200,000	-0,013	0,110
-385,233	-200,000	0,024	0,184
-384,219	-70,168	-0,060	0,017
-383,204	-200,000	0,010	-0,136
-382,190	505,580	-0,060	-0,102
-381,175	-200,000	0,005	-0,028
-380,160	-200,000	-0,015	-0,103
-379,146	800,000	0,052	0,117
-378,131	108,049	0,178	0,156
-377,117	-200,000	-0,010	0,075
-376,102	800,000	-0,073	-0,158
-375,088	-200,000	0,011	-0,054
-374,073	-26,543	0,077	0,033
-373,058	177,786	-0,020	0,022
-372,044	-41,429	0,079	-0,030
-371,029	-55,743	-0,072	-0,023
-370,015	-101,950	-0,128	-0,022
-369,000	800,000	0,036	-0,091
-367,985	91,941	-0,131	-0,108
-366,971	800,000	-0,035	-0,086
-365,956	-112,918	0,040	0,006
-364,942	-137,645	0,100	0,008
-363,927	-45,587	-0,126	-0,046
-362,912	71,546	0,117	-0,089
-361,898	235,673	0,078	-0,094
-360,883	-69,685	-0,047	-0,013
-359,869	697,238	-0,015	-0,029
-358,854	-92,332	0,037	0,008
-357,839	389,177	0,046	-0,070
-356,825	-200,000	0,022	0,152
-355,810	423,851	-0,045	0,071
-354,796	-46,145	-0,061	0,022
-353,781	-200,000	-0,012	0,105
-352,766	62,975	-0,058	0,042
-351,752	800,000	0,048	-0,120
-350,737	207,442	-0,050	-0,058
-349,723	206,683	0,092	-0,105
-348,708	-200,000	-0,011	0,067
-347,693	-68,087	-0,115	-0,033
-346,679	77,434	-0,057	-0,044
-345,664	557,191	-0,108	-0,192
-344,650	347,215	0,056	-0,081
-343,635	-200,000	0,018	-0,067
-342,620	216,558	0,113	-0,133
-341,606	99,648	0,049	0,042
-340,591	-98,266	-0,065	0,012
-339,577	330,344	0,068	0,096
-338,562	115,526	0,041	0,037
-337,548	458,854	0,072	-0,118
-336,533	800,000	-0,060	0,147
-335,518	31,745	0,033	0,021
-334,504	108,871	0,083	-0,073
-333,489	800,000	-0,022	0,057
-332,475	382,036	0,019	-0,029
-331,460	17,043	0,021	-0,012
-330,445	-23,320	0,137	0,060
-329,431	446,732	-0,082	0,133
-328,416	-200,000	-0,048	0,162
-327,402	34,196	0,032	0,021
-326,387	800,000	0,023	0,066
-325,372	-71,186	-0,078	-0,021
-324,358	58,214	-0,075	-0,054
-323,343	303,862	-0,050	0,068
-322,329	-49,077	0,073	0,026
-321,314	-200,000	0,013	-0,063
-320,299	-200,000	0,014	-0,099
-319,285	-119,467	-0,090	-0,011
-318,270	174,746	-0,046	-0,049
-317,256	623,502	0,053	0,099
-316,241	146,399	-0,111	-0,110
-315,226	-200,000	-0,009	-0,061
-314,212	-193,092	-0,094	0,001
-313,197	148,253	0,030	-0,030
-312,183	271,286	0,067	-0,087
-311,168	78,958	-0,110	-0,086
-310,153	800,000	-0,018	0,054
-309,139	-200,000	0,033	-0,115
-308,124	-164,568	0,078	-0,003
-307,110	-64,541	-0,058	0,017
-306,095	-167,657	0,097	-0,003
-305,080	-200,000	0,003	0,039
-304,066	-149,986	-0,109	-0,006
-303,051	-56,030	0,108	0,035
-302,037	-139,059	0,154	-0,012
-301,022	-101,302	0,033	-0,006
-300,008	485,765	0,040	0,067
-298,993	35,906	0,097	-0,062
-297,978	-92,149	0,116	-0,024
-296,964	-200,000	-0,029	-0,158
-295,949	-200,000	0,001	-0,005
-294,935	800,000	-0,014	-0,032
-293,920	-94,238	-0,011	-0,002
-292,905	-40,263	0,046	0,018
-291,891	-58,689	0,115	0,036
-290,876	254,422	0,029	0,036
-289,862	-200,000	0,033	-0,110
-288,847	-139,957	-0,083	-0,006
-287,832	258,665	0,078	0,099
-286,818	-76,006	0,013	0,003
-285,803	800,000	0,018	-0,050
-284,789	800,000	-0,046	-0,095
-283,774	800,000	0,051	-0,104
-282,759	434,822	0,018	-0,029
-281,745	35,581	-0,181	-0,116
-280,730	-47,599	0,153	-0,054
-279,716	35,788	0,057	0,036
-278,701	390,960	0,024	-0,037
-277,686	284,192	0,064	0,084
-276,672	800,000	-0,022	-0,064
-275,657	-79,599	-0,055	0,013
-274,643	107,201	-0,069	0,060
-273,628	-134,105	-0,148	0,013
-272,613	143,126	-0,058	-0,057
-271,599	-200,000	-0,037	0,160
-270,584	-200,000	-0,003	0,035
-269,570	-114,174	0,100	-0,014
-268,555	136,956	-0,065	0,062
-267,540	176,384	-0,058	-0,062
-266,526	-200,000	0,009	-0,050
-265,511	27,832	0,127	-0,078
-264,497	-200,000	0,000	-0,035
-263,482	-200,000	-0,024	0,079
-262,467	-200,000	-0,019	0,103
-261,453	-65,926	-0,106	-0,031
-260,438	-200,000	0,012	-0,069
-259,424	676,853	-0,044	0,084
-258,409	77,061	-0,097	0,075
-257,395	800,000	-0,028	0,065
-256,380	177,087	0,086	0,091
-255,365	-138,650	0,076	-0,006
-254,351	-171,848	0,080	0,002
-253,336	-127,481	-0,159	0,017
-252,322	30,667	-0,097	0,061
-251,307	15,869	-0,115	-0,066
-250,292	-162,438	0,099	0,004
-249,278	32,358	0,098	0,062
-248,263	750,383	-0,071	0,141
-247,249	800,000	0,042	-0,117
-246,234	-130,255	-0,191	0,019
-245,219	800,000	0,042	-0,110
-244,205	-19,955	0,095	-0,043
-243,190	117,293	0,017	0,016
-242,176	576,305	0,057	-0,102
-241,161	-35,527	0,107	0,042
-240,146	-185,031	0,112	-0,001
-239,132	800,000	0,024	-0,057
-238,117	-6,466	-0,143	-0,071
-237,103	-137,353	-0,113	-0,009
-236,088	617,968	-0,025	0,046
-235,073	-68,004	-0,015	0,004
-234,059	-200,000	0,014	0,131
-233,044	-16,156	-0,072	0,033
-232,030	-161,168	0,091	-0,003
-231,015	800,000	0,028	0,069
-230,000	-171,657	-0,099	-0,002
-228,986	800,000	0,062	0,165
-227,971	370,056	-0,055	0,082
-226,957	-73,856	-0,046	-0,012
-225,942	1,765	0,082	0,043
-224,927	800,000	0,039	-0,088
-223,913	-42,751	-0,076	0,028
-222,898	-27,517	-0,072	-0,030
-221,884	290,613	-0,036	0,048
-220,869	4,461	0,026	0,014
-219,855	90,025	0,071	0,058
-218,840	800,000	0,054	0,144
-217,825	800,000	-0,031	-0,073
-216,811	186,842	0,008	0,009
-215,796	800,000	0,036	0,085
-214,782	-103,302	-0,077	-0,013
-213,767	-200,000	0,009	0,054
-212,752	-75,863	0,056	-0,014
-211,738	16,687	-0,078	0,045
-210,723	182,990	0,066	0,072
-209,709	-30,178	0,013	-0,005
-208,694	-16,655	-0,070	-0,032
-207,679	-2,124	0,142	-0,073
-206,665	89,630	-0,025	-0,020
-205,650	592,108	-0,021	0,039
-204,636	462,542	0,074	0,121
-203,621	800,000	0,010	0,031
-202,606	144,487	-0,050	0,049
-201,592	203,689	0,077	-0,087
-200,577	334,778	-0,079	-0,112
-199,563	272,958	0,060	-0,078
-198,548	178,729	0,022	-0,023
-197,533	44,425	0,106	-0,071
-196,519	-200,000	0,040	0,165
-195,504	318,325	0,092	-0,128
-194,490	47,519	-0,073	-0,050
-193,475	-79,599	-0,082	-0,020
-192,460	33,445	0,023	0,015
-191,446	-200,000	-0,011	0,142
-190,431	-137,971	0,131	0,011
-189,417	105,665	-0,064	-0,055
-188,402	264,822	-0,019	-0,024
-187,387	800,000	0,033	0,092
-186,373	-68,474	-0,051	0,014
-185,358	39,270	0,080	0,052
-184,344	146,280	0,097	0,095
-183,329	-200,000	-0,032	0,130
-182,315	486,630	-0,074	-0,123
-181,300	-10,784	-0,101	0,048
-180,285	-200,000	0,003	-0,051
-179,271	800,000	-0,046	-0,103
-178,256	-38,579	-0,058	-0,022
-177,242	-200,000	0,079	0,000
-176,227	-98,825	-0,074	-0,014
-175,212	110,351	0,077	0,067
-174,198	294,218	-0,041	0,055
-173,183	800,000	0,053	-0,132
-172,169	-58,588	-0,086	0,027
-171,154	34,235	-0,079	-0,050
-170,139	10,423	0,072	-0,040
-169,125	285,724	-0,054	0,071
-168,110	86,724	-0,036	0,029
-167,096	-200,000	0,001	0,008
-166,081	-98,204	-0,032	-0,006
-165,066	86,045	-0,103	0,083
-164,052	216,355	0,048	0,055
-163,037	-136,590	0,067	0,006
-162,023	-200,000	-0,001	0,093
-161,008	-75,575	0,052	-0,013
-159,993	596,224	-0,012	-0,023
-158,979	-53,764	-0,024	-0,008
-157,964	800,000	0,095	0,245
-156,950	-200,000	-0,019	0,065
-155,935	-200,000	0,014	-0,200
-154,920	-200,000	0,029	0,130
-153,906	-200,000	0,021	0,194
-152,891	26,526	-0,154	-0,094
-151,877	55,940	-0,061	0,043
-150,862	732,489	0,059	-0,116
-149,847	410,431	-0,022	0,034
-148,833	35,769	0,035	-0,023
-147,818	34,662	0,076	0,048
-146,804	-15,073	0,204	0,095
-145,789	800,000	-0,002	-0,006
-144,775	-200,000	0,049	-0,170
-143,760	305,489	-0,016	-0,021
-142,745	-200,000	-0,013	-0,097
-141,731	190,468	-0,151	-0,166
-140,716	-200,000	0,027	-0,086
-139,702	-59,533	0,119	0,037
-138,687	-200,000	-0,008	0,071
-137,672	800,000	0,079	-0,197
-136,658	-51,031	-0,058	-0,020
-135,643	800,000	-0,016	-0,038
-134,629	-33,548	0,053	0,021
-133,614	-49,954	0,056	0,019
-132,599	-1,135	0,153	0,079
-131,585	123,069	-0,113	0,103
-130,570	648,381	0,047	-0,089
-129,556	-36,892	-0,145	0,056
-128,541	14,074	0,167	-0,095
-127,526	-200,000	-0,009	-0,107
-126,512	-149,390	0,086	0,005
-125,497	-200,000	-0,008	0,088
-124,483	-69,461	0,065	0,018
-123,468	800,000	-0,054	0,171
-122,453	18,011	-0,130	-0,075
-121,439	6,204	0,027	0,015
-120,424	-79,695	0,132	0,032
-119,410	-37,378	0,198	0,077
-118,395	800,000	0,060	0,183
