DTS Sentinel unit serial number:	SN410029Multiplexer serial number:	ORYXHardware model number:	OX2-SRSoftware version number:	ORYX F/W v4,00 Oryx Data Collector v3.7.2.0data status	okinstallation	B6 Nyhavnadifferential loss correction	single-endedforward channel	channel 2reverse channel	N/Adate	2023/12/11time	03:25:08forward acquisition time	300,00reverse acquisition time	0,00gamma	499,1914k internal	0,3124k external	0,3124temperature offset calibration	1,0000default loss term (dB/km)	0,3820temperature slope calibration	1,0000multiplexer offset coefficient	1,0000multiplexer slope coefficient	1,0000fibre end	0,00T internal ref (°C)	21,20T ext. ref 1 (°C)	3,97T ext. ref 2 (°C)	3,98length (m)	temperature (°C)	Stokes	anti-Stokes-744,400	566,825	-0,046	-0,084
-743,385	23,190	-0,216	0,132
-742,371	-89,234	0,089	-0,019
-741,356	-4,031	-0,237	0,122
-740,342	800,000	-0,009	0,026
-739,327	-59,607	-0,331	0,105
-738,312	128,141	-0,012	-0,011
-737,298	-62,689	-0,219	0,067
-736,283	-200,000	0,016	-0,100
-735,269	15,410	-0,212	0,124
-734,254	70,353	-0,060	-0,046
-733,239	-83,451	-0,391	-0,093
-732,225	334,330	0,118	0,171
-731,210	800,000	0,053	0,128
-730,196	800,000	0,031	0,067
-729,181	194,223	0,105	-0,119
-728,167	200,468	0,079	-0,091
-727,152	280,560	-0,071	-0,095
-726,137	207,161	-0,110	0,128
-725,123	-200,000	-0,007	0,067
-724,108	800,000	-0,011	-0,032
-723,094	-200,000	0,011	-0,074
-722,079	-200,000	0,004	0,017
-721,064	-200,000	-0,021	0,084
-720,050	-84,153	-0,093	0,022
-719,035	-26,860	0,010	0,004
-718,021	-200,000	-0,019	-0,152
-717,006	723,273	-0,024	-0,048
-715,991	85,409	0,017	-0,014
-714,977	-142,013	-0,194	0,014
-713,962	-200,000	0,000	-0,028
-712,948	-32,330	-0,122	0,050
-711,933	-200,000	-0,029	-0,135
-710,918	117,646	0,099	-0,091
-709,904	476,639	-0,006	-0,010
-708,889	318,632	0,021	0,029
-707,875	177,465	0,083	-0,090
-706,860	-200,000	0,010	-0,055
-705,845	-94,202	0,090	-0,018
-704,831	-167,695	0,071	-0,002
-703,816	-83,659	-0,061	0,014
-702,802	126,462	-0,026	0,024
-701,787	519,076	0,031	-0,054
-700,772	-200,000	-0,030	-0,139
-699,758	-87,884	0,096	0,021
-698,743	-115,393	0,135	0,019
-697,729	-113,691	0,084	-0,012
-696,714	-68,405	0,095	0,027
-695,699	506,108	-0,009	-0,016
-694,685	-91,872	-0,139	0,029
-693,670	-132,096	0,121	-0,012
-692,656	-72,707	0,087	-0,024
-691,641	113,428	0,034	-0,031
-690,627	44,360	0,110	0,075
-689,612	800,000	-0,015	-0,047
-688,597	568,654	-0,044	-0,079
-687,583	-200,000	-0,002	-0,044
-686,568	-200,000	-0,001	0,089
-685,554	10,828	0,109	-0,062
-684,539	-200,000	-0,025	-0,180
-683,524	-200,000	-0,027	-0,105
-682,510	337,821	0,074	0,107
-681,495	82,156	-0,075	0,061
-680,481	127,690	-0,053	0,050
-679,466	-200,000	0,002	-0,070
-678,451	114,110	-0,055	-0,050
-677,437	800,000	-0,037	-0,113
-676,422	-81,057	-0,101	-0,025
-675,408	707,767	-0,040	0,079
-674,393	-200,000	0,012	-0,084
-673,378	-22,575	-0,116	0,052
-672,364	279,793	-0,033	-0,044
-671,349	-200,000	-0,018	-0,061
-670,335	-200,000	-0,023	-0,099
-669,320	800,000	-0,065	-0,137
-668,305	-64,095	-0,025	-0,007
-667,291	-200,000	-0,001	-0,075
-666,276	566,923	0,034	-0,062
-665,262	151,758	0,062	0,063
-664,247	-135,838	-0,030	0,003
-663,232	319,015	-0,030	0,042
-662,218	-200,000	-0,009	0,043
-661,203	800,000	0,052	-0,115
-660,189	137,932	0,021	-0,021
-659,174	-200,000	-0,025	-0,228
-658,159	28,163	-0,039	0,025
-657,145	-59,967	-0,014	-0,004
-656,130	225,252	0,061	-0,074
-655,116	233,586	0,027	-0,033
-654,101	-68,586	0,167	-0,048
-653,086	-16,391	-0,100	-0,047
-652,072	-25,914	-0,143	-0,062
-651,057	-142,477	-0,137	0,010
-650,043	-161,610	0,041	0,002
-649,028	120,481	0,088	-0,082
-648,014	324,105	0,033	-0,047
-646,999	800,000	-0,006	-0,015
-645,984	-44,434	-0,048	-0,018
-644,970	-27,775	-0,070	-0,030
-643,955	199,728	0,087	-0,099
-642,941	-122,288	-0,122	-0,015
-641,926	-200,000	0,018	-0,067
-640,911	95,828	-0,116	0,098
-639,897	689,243	0,087	0,169
-638,882	-200,000	-0,011	0,189
-637,868	-32,337	0,117	-0,048
-636,853	133,964	0,055	-0,053
-635,838	154,254	0,022	0,022
-634,824	31,866	0,011	-0,007
-633,809	309,476	0,079	0,110
-632,795	800,000	0,029	0,063
-631,780	-200,000	-0,015	-0,087
-630,765	-78,434	-0,068	-0,017
-629,751	-84,716	-0,091	-0,021
-628,736	138,217	-0,146	-0,142
-627,722	800,000	0,015	-0,041
-626,707	-200,000	-0,001	-0,038
-625,692	-86,996	-0,065	-0,015
-624,678	-200,000	-0,025	-0,128
-623,663	-200,000	0,002	0,032
-622,649	-200,000	-0,004	-0,036
-621,634	442,852	-0,017	-0,027
-620,619	-0,862	-0,058	-0,030
-619,605	800,000	0,014	-0,045
-618,590	5,168	0,091	0,050
-617,576	-200,000	-0,005	0,027
-616,561	277,693	-0,045	-0,059
-615,546	-120,041	-0,051	0,006
-614,532	372,433	-0,068	-0,103
-613,517	-200,000	-0,006	-0,084
-612,503	-40,877	-0,115	-0,044
-611,488	800,000	0,054	0,121
-610,474	-39,793	0,128	0,049
-609,459	-200,000	-0,007	-0,085
-608,444	438,499	-0,027	0,044
-607,430	-101,237	0,139	-0,025
-606,415	-83,209	-0,111	0,026
-605,401	-200,000	0,024	0,135
-604,386	324,705	0,035	0,050
-603,371	145,747	-0,033	0,033
-602,357	-132,043	0,014	0,001
-601,342	168,753	0,045	-0,047
-600,328	-91,319	-0,044	-0,009
-599,313	63,787	0,031	0,023
-598,298	167,754	0,143	-0,151
-597,284	-200,000	0,015	0,120
-596,269	-200,000	-0,026	0,147
-595,255	-200,000	0,020	-0,128
-594,240	-19,032	0,116	0,053
-593,225	114,810	-0,106	-0,096
-592,211	-65,652	-0,148	0,044
-591,196	-39,251	0,116	0,045
-590,182	690,290	-0,065	-0,128
-589,167	-48,575	-0,053	-0,019
-588,152	-200,000	-0,002	0,089
-587,138	240,839	0,076	0,094
-586,123	-59,492	-0,101	-0,032
-585,109	-200,000	-0,013	-0,104
-584,094	800,000	-0,062	-0,133
-583,079	14,974	0,040	0,023
-582,065	163,400	-0,037	-0,038
-581,050	-200,000	0,016	-0,068
-580,036	231,111	-0,140	-0,170
-579,021	12,183	-0,145	-0,082
-578,006	-129,496	-0,268	0,027
-576,992	-200,000	0,023	-0,089
-575,977	-200,000	0,003	0,068
-574,963	56,664	0,088	0,063
-573,948	-200,000	0,018	-0,179
-572,934	-29,473	0,102	0,043
-571,919	112,371	0,012	-0,011
-570,904	642,578	-0,015	-0,029
-569,890	193,211	-0,054	0,061
-568,875	-200,000	0,007	-0,034
-567,861	800,000	-0,034	-0,085
-566,846	86,601	-0,131	0,107
-565,831	481,253	-0,068	-0,114
-564,817	111,702	0,085	-0,076
-563,802	50,935	-0,117	-0,082
-562,788	-17,783	-0,104	-0,048
-561,773	800,000	0,021	-0,053
-560,758	-200,000	0,009	0,093
-559,744	292,744	0,035	0,048
-558,729	99,927	-0,046	0,039
-557,715	92,255	-0,107	-0,089
-556,700	800,000	0,041	0,102
-555,685	123,867	-0,063	0,059
-554,671	139,689	-0,038	0,037
-553,656	-200,000	-0,009	0,061
-552,642	800,000	-0,021	0,047
-551,627	284,355	0,084	0,112
-550,612	155,550	-0,051	0,052
-549,598	256,031	-0,040	0,050
-548,583	-71,329	0,073	-0,020
-547,569	0,283	0,062	0,032
-546,554	-200,000	0,006	0,108
-545,539	-200,000	0,032	0,177
-544,525	-41,566	-0,086	0,033
-543,510	-103,687	-0,184	-0,032
-542,496	218,016	0,085	-0,100
-541,481	-97,348	-0,137	-0,026
-540,466	223,379	-0,050	-0,060
-539,452	19,457	0,033	-0,019
-538,437	66,358	0,059	0,044
-537,423	-200,000	-0,003	0,093
-536,408	-200,000	0,009	0,041
-535,393	269,054	-0,085	0,111
-534,379	-200,000	-0,020	0,148
-533,364	-57,904	-0,120	0,039
-532,350	-110,765	0,204	0,031
-531,335	51,914	0,113	0,080
-530,321	152,031	0,159	0,160
-529,306	-37,029	-0,070	0,028
-528,291	-200,000	0,008	-0,041
-527,277	-200,000	0,024	-0,091
-526,262	-119,440	-0,078	0,010
-525,248	239,284	0,075	0,092
-524,233	-200,000	0,000	0,037
-523,218	640,351	-0,018	0,033
-522,204	121,347	0,107	0,099
-521,189	800,000	0,032	0,073
-520,175	-200,000	0,006	-0,121
-519,160	-114,028	-0,167	0,024
-518,145	-79,478	0,085	0,021
-517,131	-14,386	0,054	0,026
-516,116	-46,266	-0,098	-0,035
-515,102	-117,600	0,144	0,019
-514,087	-161,112	0,023	-0,001
-513,072	-161,921	-0,109	-0,004
-512,058	199,023	0,126	-0,142
-511,043	-200,000	-0,001	0,070
-510,029	-124,402	-0,182	-0,021
-509,014	-166,208	0,105	-0,003
-507,999	53,215	0,067	0,047
-506,985	122,203	-0,135	-0,124
-505,970	-15,873	-0,080	-0,038
-504,956	800,000	0,057	-0,127
-503,941	-101,939	0,163	0,029
-502,926	-107,902	0,045	-0,007
-501,912	552,099	0,030	0,053
-500,897	70,718	0,017	-0,013
-499,883	123,096	0,092	0,085
-498,868	31,348	-0,028	0,018
-497,853	19,900	-0,120	-0,071
-496,839	415,647	0,058	-0,092
-495,824	800,000	-0,028	-0,077
-494,810	800,000	-0,004	0,011
-493,795	-200,000	-0,010	0,115
-492,781	353,303	0,046	-0,067
-491,766	-200,000	-0,011	-0,076
-490,751	36,671	-0,070	-0,046
-489,737	206,447	0,006	0,007
-488,722	-93,689	0,086	0,017
-487,708	116,184	0,070	0,063
-486,693	-93,205	0,034	0,007
-485,678	-49,091	0,038	-0,013
-484,664	137,729	-0,027	0,026
-483,649	152,734	-0,110	-0,111
-482,635	-145,203	-0,118	0,008
-481,620	-200,000	-0,005	-0,033
-480,605	252,512	0,052	0,065
-479,591	163,482	-0,048	0,050
-478,576	800,000	0,034	-0,072
-477,562	729,332	0,028	-0,055
-476,547	-58,484	0,034	0,011
-475,532	653,242	-0,013	0,024
-474,518	-200,000	0,023	0,131
-473,503	800,000	0,030	-0,087
-472,489	800,000	0,056	0,117
-471,474	-197,897	-0,075	-0,000
-470,459	-200,000	-0,014	-0,093
-469,445	120,139	-0,203	-0,186
-468,430	41,385	-0,112	-0,075
-467,416	-200,000	0,017	-0,320
-466,401	-160,066	0,124	0,005
-465,386	-70,685	-0,174	-0,048
-464,372	-200,000	0,005	0,036
-463,357	-200,000	0,002	0,006
-462,343	42,734	-0,147	-0,098
-461,328	-0,418	0,088	-0,046
-460,313	-200,000	0,013	-0,123
-459,299	800,000	0,039	0,122
-458,284	-14,491	-0,078	-0,037
-457,270	52,893	0,129	-0,091
-456,255	-13,739	0,008	-0,004
-455,241	7,536	-0,082	-0,045
-454,226	-200,000	0,047	0,000
-453,211	800,000	0,044	0,090
-452,197	800,000	0,026	-0,066
-451,182	323,761	0,080	0,113
-450,168	-200,000	0,023	-0,099
-449,153	-31,513	-0,090	-0,037
-448,138	364,123	0,016	0,023
-447,124	72,296	-0,069	-0,053
-446,109	-64,693	-0,076	0,022
-445,095	-200,000	-0,008	-0,098
-444,080	-113,109	0,147	0,021
-443,065	-45,011	-0,102	0,037
-442,051	110,174	0,019	0,017
-441,036	800,000	0,067	-0,160
-440,022	60,761	-0,123	-0,089
-439,007	54,420	0,117	0,083
-437,992	280,403	0,022	0,029
-436,978	558,429	0,012	0,022
-435,963	-4,929	0,104	0,053
-434,949	46,243	0,066	0,045
-433,934	128,871	-0,090	0,084
-432,919	27,099	-0,046	0,029
-431,905	156,282	0,134	0,137
-430,890	246,918	0,045	0,056
-429,876	-34,835	0,059	-0,024
-428,861	137,611	0,018	0,018
-427,846	-200,000	0,012	-0,141
-426,832	305,521	-0,071	-0,097
-425,817	3,863	0,081	-0,044
-424,803	-200,000	0,003	0,064
-423,788	217,742	0,017	-0,020
-422,773	-98,589	-0,027	-0,005
-421,759	-200,000	-0,005	0,030
-420,744	29,488	-0,038	-0,024
-419,730	-200,000	0,022	0,091
-418,715	-200,000	-0,007	-0,108
-417,701	800,000	-0,039	-0,113
-416,686	-60,077	-0,078	0,024
-415,671	-80,457	0,016	0,004
-414,657	208,590	0,093	-0,107
-413,642	6,841	0,074	-0,040
-412,628	-43,928	0,085	-0,031
-411,613	227,133	-0,147	-0,176
-410,598	108,790	0,042	-0,037
-409,584	-200,000	0,019	-0,069
-408,569	-131,609	0,123	-0,012
-407,555	-200,000	-0,022	0,104
-406,540	-107,859	0,095	-0,015
-405,525	-200,000	0,013	0,127
-404,511	-200,000	0,007	-0,117
-403,496	16,520	-0,056	-0,033
-402,482	-48,556	0,064	0,023
-401,467	-61,879	-0,051	-0,016
-400,452	-64,652	0,116	0,034
-399,438	-141,573	0,097	-0,007
-398,423	66,623	-0,063	-0,047
-397,409	-200,000	-0,011	-0,101
-396,394	-112,025	-0,151	-0,022
-395,379	516,851	0,058	-0,101
-394,365	-28,724	0,056	0,024
-393,350	-95,101	0,130	-0,026
-392,336	800,000	0,042	0,097
-391,321	-16,019	-0,041	-0,019
-390,306	336,184	0,087	-0,125
-389,292	-200,000	0,015	-0,095
-388,277	-200,000	0,013	0,067
-387,263	-52,963	-0,047	0,016
-386,248	-58,078	0,037	0,012
-385,233	-143,191	0,020	0,001
-384,219	-192,179	-0,094	-0,001
-383,204	114,777	-0,054	0,049
-382,190	130,406	-0,119	-0,112
-381,175	-200,000	0,004	-0,152
-380,160	-200,000	0,007	-0,045
-379,146	-5,367	-0,104	0,052
-378,131	-200,000	0,000	-0,026
-377,117	-200,000	-0,004	0,037
-376,102	31,540	-0,082	0,052
-375,088	229,190	-0,077	-0,092
-374,073	-200,000	-0,034	-0,135
-373,058	19,947	0,083	-0,049
-372,044	-102,271	0,224	0,039
-371,029	1,503	-0,104	0,055
-370,015	141,477	0,024	0,024
-369,000	178,367	0,030	-0,032
-367,985	-200,000	0,006	-0,104
-366,971	-200,000	0,025	-0,163
-365,956	800,000	-0,014	0,042
-364,942	64,619	0,044	0,032
-363,927	-54,801	-0,067	-0,022
-362,912	315,575	-0,047	-0,065
-361,898	347,817	-0,029	-0,043
-360,883	-200,000	0,035	-0,181
-359,869	-50,085	-0,107	0,037
-358,854	-101,685	-0,091	0,016
-357,839	223,887	-0,038	0,045
-356,825	437,175	0,026	0,042
-355,810	-30,036	0,059	-0,025
-354,796	159,641	0,045	-0,046
-353,781	-200,000	0,019	-0,090
-352,766	294,795	-0,088	-0,119
-351,752	-146,645	-0,172	0,011
-350,737	199,983	0,022	0,024
-349,723	-139,491	0,099	0,008
-348,708	14,052	-0,072	0,041
-347,693	735,356	-0,038	0,075
-346,679	184,699	0,099	0,108
-345,664	-85,124	-0,081	0,018
-344,650	128,532	0,044	0,041
-343,635	-200,000	-0,000	-0,098
-342,620	-81,978	0,078	0,019
-341,606	-80,974	-0,158	0,038
-340,591	-17,629	0,115	-0,053
-339,577	20,285	-0,028	-0,017
-338,562	-54,920	-0,032	-0,010
-337,548	-7,761	0,052	0,026
-336,533	27,957	-0,051	0,032
-335,518	327,647	0,095	0,134
-334,504	-7,671	-0,138	0,068
-333,489	358,365	-0,040	-0,058
-332,475	302,467	0,027	0,037
-331,460	7,104	0,114	0,062
-330,445	63,532	-0,006	0,004
-329,431	529,142	-0,020	0,035
-328,416	68,440	0,067	0,051
-327,402	-78,801	0,058	0,014
-326,387	-200,000	-0,019	-0,099
-325,372	-200,000	0,015	-0,140
-324,358	800,000	0,015	-0,043
-323,343	-200,000	-0,018	-0,100
-322,329	-200,000	-0,019	0,150
-321,314	-125,076	0,087	-0,010
-320,299	152,874	-0,049	-0,049
-319,285	132,550	0,066	-0,062
-318,270	-145,149	-0,086	0,006
-317,256	533,950	-0,042	0,073
-316,241	-200,000	-0,006	0,132
-315,226	105,960	-0,080	-0,069
-314,212	800,000	0,027	0,087
-313,197	-200,000	0,015	0,158
-312,183	45,305	0,092	-0,062
-311,168	88,720	0,073	0,059
-310,153	126,148	0,019	-0,017
-309,139	-56,102	0,142	-0,046
-308,124	-178,727	0,225	0,004
-307,110	-200,000	-0,003	0,108
-306,095	154,403	-0,059	0,059
-305,080	156,000	-0,071	0,072
-304,066	71,834	0,054	0,041
-303,051	-200,000	-0,030	0,143
-302,037	-70,135	-0,022	-0,006
-301,022	694,759	-0,031	0,060
-300,008	37,924	0,147	0,095
-298,993	86,367	-0,097	-0,078
-297,978	716,469	0,052	0,102
-296,964	-3,801	-0,056	-0,028
-295,949	60,266	0,026	0,019
-294,935	-200,000	0,008	0,041
-293,920	9,985	-0,038	-0,021
-292,905	-90,354	0,043	0,009
-291,891	278,906	0,087	-0,114
-290,876	-200,000	-0,013	0,062
-289,862	220,708	0,060	0,070
-288,847	-3,947	0,042	-0,021
-287,832	308,535	0,070	-0,096
-286,818	37,328	0,029	0,018
-285,803	85,166	-0,053	0,042
-284,789	-7,145	0,074	0,037
-283,774	-200,000	-0,006	0,099
-282,759	269,713	0,049	0,063
-281,745	15,204	0,075	0,043
-280,730	510,089	-0,051	-0,087
-279,716	-112,200	-0,034	-0,005
-278,701	16,819	0,158	0,091
-277,686	-200,000	0,005	0,146
-276,672	257,463	-0,049	-0,062
-275,657	-107,655	-0,091	-0,014
-274,643	5,203	-0,166	-0,090
-273,628	262,671	0,039	-0,049
-272,613	-200,000	-0,004	-0,039
-271,599	-101,901	0,075	0,013
-270,584	96,013	-0,054	0,045
-269,570	800,000	-0,016	-0,034
-268,555	-200,000	0,011	0,140
-267,540	-22,724	-0,058	0,025
-266,526	360,069	-0,027	-0,039
-265,511	-200,000	-0,016	-0,180
-264,497	12,630	0,139	0,078
-263,482	800,000	-0,033	0,070
-262,467	337,017	0,068	-0,097
-261,453	-200,000	-0,020	0,092
-260,438	-130,744	-0,051	-0,005
-259,424	-60,932	-0,109	0,034
-258,409	-200,000	0,004	-0,054
-257,395	-138,419	-0,062	-0,005
-256,380	-134,221	0,027	0,002
-255,365	-25,699	0,105	-0,045
-254,351	-87,267	-0,070	-0,015
-253,336	-147,462	-0,083	-0,005
-252,322	-176,826	-0,090	0,002
-251,307	-24,599	0,096	-0,042
-250,292	-34,050	-0,074	0,030
-249,278	166,009	0,113	-0,117
-248,263	800,000	-0,011	0,027
-247,249	-156,399	0,106	0,005
-246,234	800,000	0,057	0,149
-245,219	-36,463	-0,154	0,060
-244,205	34,017	0,023	-0,015
-243,190	195,178	0,035	0,038
-242,176	-23,740	-0,063	0,028
-241,161	800,000	0,021	0,053
-240,146	-59,484	0,113	0,035
-239,132	250,748	0,041	0,050
-238,117	322,480	-0,069	-0,096
-237,103	-200,000	-0,004	-0,100
-236,088	-200,000	-0,010	-0,059
-235,073	-11,458	0,239	-0,115
-234,059	-75,663	-0,176	0,045
-233,044	766,516	0,069	0,137
-232,030	800,000	-0,043	-0,094
-231,015	208,986	0,102	0,117
-230,000	-93,784	-0,069	0,014
-228,986	-200,000	-0,015	-0,066
-227,971	800,000	0,037	0,092
-226,957	-200,000	-0,011	0,050
-225,942	800,000	0,007	0,023
-224,927	800,000	-0,057	0,145
-223,913	33,322	-0,091	0,058
-222,898	-200,000	0,002	-0,060
-221,884	-103,005	-0,143	0,025
-220,869	-36,003	-0,080	0,032
-219,855	-32,642	0,040	-0,016
-218,840	-200,000	-0,026	0,105
-217,825	-52,621	-0,140	0,047
-216,811	-200,000	-0,006	-0,105
-215,796	-200,000	-0,040	-0,000
-214,782	97,845	0,011	0,009
-213,767	-200,000	-0,009	-0,101
-212,752	86,766	0,097	-0,078
-211,738	88,753	0,121	0,098
-210,723	-200,000	0,003	0,055
-209,709	800,000	-0,035	0,103
-208,694	-111,530	0,034	-0,005
-207,679	-63,379	-0,137	-0,041
-206,665	-2,701	0,079	0,040
-205,650	150,404	0,052	0,052
-204,636	-200,000	0,038	0,131
-203,621	224,501	-0,053	0,063
-202,606	150,399	0,032	-0,032
-201,592	49,369	-0,028	0,019
-200,577	-200,000	-0,004	0,114
-199,563	35,385	0,038	-0,024
-198,548	482,910	-0,039	-0,066
-197,533	800,000	0,053	-0,156
-196,519	-121,896	0,176	-0,021
-195,504	-2,042	0,089	0,045
-194,490	51,528	0,011	0,007
-193,475	156,250	-0,108	-0,108
-192,460	-77,026	0,112	0,028
-191,446	107,456	-0,094	-0,081
-190,431	-29,449	-0,073	-0,030
-189,417	-41,994	0,153	0,057
-188,402	-200,000	-0,013	0,100
-187,387	-69,259	-0,080	0,022
-186,373	-60,316	-0,064	-0,020
-185,358	-200,000	-0,005	-0,024
-184,344	-200,000	-0,039	0,129
-183,329	228,722	-0,126	0,150
-182,315	152,266	0,058	0,058
-181,300	602,730	-0,044	-0,080
-180,285	135,126	0,036	0,034
-179,271	33,899	-0,077	0,049
-178,256	-200,000	0,015	0,078
-177,242	-58,335	0,038	-0,012
-176,227	-38,527	0,057	0,022
-175,212	-12,000	0,072	0,034
-174,198	-200,000	0,006	0,154
-173,183	212,532	0,026	0,029
-172,169	800,000	-0,051	-0,106
-171,154	-173,285	-0,085	0,002
-170,139	-86,003	0,113	0,025
-169,125	-61,880	0,081	-0,025
-168,110	-200,000	0,000	-0,044
-167,096	73,218	-0,017	-0,013
-166,081	372,498	-0,100	-0,149
-165,066	-110,417	0,098	-0,015
-164,052	800,000	0,025	-0,077
-163,037	334,624	-0,090	0,127
-162,023	800,000	0,048	0,140
-161,008	-6,509	0,102	0,051
-159,993	-73,934	0,022	-0,006
-158,979	-125,531	-0,098	0,011
-157,964	800,000	-0,004	-0,011
-156,950	-18,138	0,126	-0,057
-155,935	59,012	0,034	0,025
-154,920	360,726	-0,083	0,121
-153,906	800,000	0,029	0,077
-152,891	49,101	-0,088	0,060
-151,877	-200,000	0,027	-0,097
-150,862	-200,000	-0,018	-0,121
-149,847	63,897	-0,076	-0,056
-148,833	-88,795	0,068	-0,015
-147,818	-171,874	0,126	0,003
-146,804	-166,197	-0,043	-0,001
-145,789	-200,000	0,017	0,084
-144,775	-200,000	0,003	0,039
-143,760	32,771	0,102	-0,064
-142,745	-10,373	-0,082	-0,039
-141,731	276,686	-0,032	0,042
-140,716	-68,784	0,219	-0,061
-139,702	-113,870	0,167	0,023
-138,687	-200,000	-0,006	0,076
-137,672	-37,335	-0,023	-0,009
-136,658	800,000	-0,022	-0,049
-135,643	-23,201	-0,084	0,037
-134,629	-109,803	-0,026	0,004
-133,614	696,346	0,036	-0,070
-132,599	800,000	-0,046	0,116
-131,585	-2,921	0,064	0,033
-130,570	15,060	0,020	-0,011
-129,556	260,552	0,028	0,036
-128,541	-78,166	0,132	-0,033
-127,526	-200,000	0,013	-0,178
-126,512	-14,037	-0,079	-0,037
-125,497	-200,000	0,016	-0,114
-124,483	116,845	-0,041	0,037
-123,468	466,216	-0,110	-0,180
-122,453	-50,903	-0,051	0,017
-121,439	471,238	0,026	-0,043
-120,424	26,718	-0,067	-0,041
-119,410	-200,000	-0,011	-0,048
