DTS Sentinel unit serial number:	SN410029Multiplexer serial number:	ORYXHardware model number:	OX2-SRSoftware version number:	ORYX F/W v4,00 Oryx Data Collector v3.7.2.0data status	okinstallation	B6 Nyhavnadifferential loss correction	single-endedforward channel	channel 2reverse channel	N/Adate	2023/12/09time	01:30:08forward acquisition time	300,00reverse acquisition time	0,00gamma	499,1914k internal	0,3156k external	0,3156temperature offset calibration	1,0000default loss term (dB/km)	0,3820temperature slope calibration	1,0000multiplexer offset coefficient	1,0000multiplexer slope coefficient	1,0000fibre end	0,00T internal ref (°C)	15,78T ext. ref 1 (°C)	-0,56T ext. ref 2 (°C)	-0,57length (m)	temperature (°C)	Stokes	anti-Stokes-744,400	-10,696	0,240	0,116
-743,385	-154,522	-0,245	-0,012
-742,371	-161,589	0,139	0,005
-741,356	-107,881	-0,324	0,052
-740,342	259,447	0,108	0,137
-739,327	-95,753	-0,360	0,070
-738,312	39,836	0,125	0,082
-737,298	-136,160	-0,231	0,020
-736,283	285,451	0,096	0,128
-735,269	-83,842	-0,202	-0,047
-734,254	101,901	0,132	0,114
-733,239	-58,388	-0,659	-0,210
-732,225	-50,203	0,285	0,099
-731,210	46,795	0,052	0,036
-730,196	-66,628	-0,116	0,034
-729,181	-82,916	-0,095	-0,022
-728,167	-200,000	-0,001	-0,013
-727,152	213,802	0,103	-0,120
-726,137	800,000	0,024	-0,077
-725,123	-200,000	-0,017	-0,110
-724,108	-109,567	-0,086	0,013
-723,094	105,899	-0,103	-0,090
-722,079	478,715	-0,057	-0,096
-721,064	-86,339	-0,110	0,025
-720,050	-200,000	-0,012	-0,064
-719,035	-122,991	-0,124	-0,014
-718,021	113,869	-0,043	-0,039
-717,006	-200,000	0,001	-0,122
-715,991	-144,191	-0,112	-0,008
-714,977	102,966	-0,117	-0,101
-713,962	94,088	-0,040	0,033
-712,948	261,197	0,056	-0,071
-711,933	800,000	0,057	-0,143
-710,918	227,328	0,074	0,089
-709,904	92,270	-0,032	-0,026
-708,889	-200,000	0,012	0,048
-707,875	800,000	-0,017	-0,035
-706,860	413,322	-0,008	-0,013
-705,845	-182,363	0,184	0,002
-704,831	24,341	-0,021	-0,013
-703,816	65,530	0,062	-0,046
-702,802	-93,931	-0,104	0,021
-701,787	-17,753	-0,131	-0,060
-700,772	752,095	-0,052	0,105
-699,758	37,741	-0,061	0,039
-698,743	-89,492	0,108	0,023
-697,729	24,798	0,085	-0,052
-696,714	-200,000	0,025	0,086
-695,699	-200,000	0,038	-0,170
-694,685	800,000	-0,087	-0,233
-693,670	531,378	-0,024	0,043
-692,656	336,616	0,064	-0,092
-691,641	204,513	-0,076	0,087
-690,627	275,126	-0,035	0,045
-689,612	718,067	0,037	-0,072
-688,597	42,968	-0,034	0,023
-687,583	-66,247	-0,103	-0,030
-686,568	-110,420	-0,087	0,013
-685,554	-200,000	-0,012	0,100
-684,539	-74,451	-0,068	-0,018
-683,524	-200,000	0,003	-0,028
-682,510	34,855	0,210	0,135
-681,495	142,336	-0,111	0,109
-680,481	-91,571	-0,187	-0,039
-679,466	199,504	0,079	-0,090
-678,451	-24,988	-0,059	-0,025
-677,437	-62,357	-0,005	0,002
-676,422	-200,000	0,021	-0,104
-675,408	-19,416	0,088	0,040
-674,393	-48,912	0,021	-0,007
-673,378	-49,125	-0,041	0,014
-672,364	800,000	0,029	0,093
-671,349	65,444	0,019	0,014
-670,335	-57,758	0,100	-0,032
-669,320	133,855	-0,029	-0,028
-668,305	-137,221	0,071	-0,006
-667,291	68,378	-0,005	-0,004
-666,276	251,824	-0,059	0,075
-665,262	27,969	-0,081	0,050
-664,247	189,835	-0,007	-0,008
-663,232	529,429	0,062	-0,109
-662,218	-200,000	-0,000	0,095
-661,203	-200,000	-0,015	-0,138
-660,189	389,358	0,050	0,076
-659,174	800,000	0,033	-0,080
-658,159	435,823	0,015	-0,024
-657,145	-96,536	-0,149	-0,029
-656,130	194,704	0,041	0,045
-655,116	-200,000	-0,001	0,101
-654,101	-45,684	-0,062	-0,023
-653,086	-6,295	0,045	-0,022
-652,072	651,497	0,061	0,115
-651,057	800,000	-0,071	-0,153
-650,043	-200,000	-0,011	0,046
-649,028	800,000	0,043	-0,092
-648,014	7,394	0,050	-0,027
-646,999	-85,411	-0,134	0,031
-645,984	73,331	-0,018	0,014
-644,970	295,874	-0,061	0,082
-643,955	-110,008	-0,105	0,016
-642,941	407,862	0,037	0,058
-641,926	11,283	0,133	0,075
-640,911	783,730	-0,047	-0,095
-639,897	800,000	0,037	0,114
-638,882	9,805	-0,057	-0,031
-637,868	-200,000	0,019	-0,064
-636,853	66,447	0,070	-0,052
-635,838	100,364	-0,044	-0,037
-634,824	-60,195	-0,073	-0,023
-633,809	-94,045	-0,096	-0,019
-632,795	-166,792	0,234	-0,007
-631,780	800,000	0,041	-0,109
-630,765	647,037	0,021	-0,039
-629,751	-74,580	-0,119	-0,031
-628,736	117,554	-0,041	0,037
-627,722	-157,069	0,071	0,003
-626,707	55,200	-0,061	0,043
-625,692	-89,628	0,119	-0,025
-624,678	-121,669	-0,118	0,014
-623,663	-36,954	0,016	-0,006
-622,649	761,277	-0,032	0,064
-621,634	-200,000	0,013	-0,056
-620,619	-200,000	-0,001	-0,011
-619,605	-105,950	0,084	0,014
-618,590	-156,213	0,102	0,005
-617,576	-200,000	0,002	0,109
-616,561	-27,177	-0,065	-0,028
-615,546	-62,778	0,022	0,007
-614,532	-200,000	0,009	0,141
-613,517	800,000	-0,018	0,038
-612,503	-31,665	-0,089	-0,036
-611,488	-64,871	0,028	-0,008
-610,474	549,305	0,056	-0,100
-609,459	409,331	-0,035	-0,054
-608,444	-91,562	-0,092	0,019
-607,430	800,000	0,052	-0,106
-606,415	55,440	-0,166	-0,118
-605,401	800,000	0,044	-0,136
-604,386	800,000	0,033	0,093
-603,371	-200,000	-0,003	0,051
-602,357	704,461	0,046	0,089
-601,342	65,613	0,021	-0,016
-600,328	406,965	-0,100	0,155
-599,313	-66,609	0,030	0,009
-598,298	800,000	0,047	0,117
-597,284	45,284	0,092	0,062
-596,269	284,641	-0,011	-0,014
-595,255	800,000	-0,035	-0,098
-594,240	800,000	-0,029	0,071
-593,225	-200,000	0,011	-0,142
-592,211	-200,000	-0,003	-0,140
-591,196	-12,051	-0,070	-0,034
-590,182	202,714	0,068	0,078
-589,167	33,237	-0,075	0,048
-588,152	565,387	-0,046	0,081
-587,138	632,809	0,031	-0,059
-586,123	-200,000	0,000	-0,123
-585,109	-53,881	-0,028	0,009
-584,094	10,684	0,080	0,045
-583,079	-200,000	-0,020	-0,098
-582,065	-17,061	0,085	0,039
-581,050	268,060	0,026	-0,033
-580,036	800,000	-0,023	0,059
-579,021	-119,474	0,035	-0,004
-578,006	-200,000	-0,037	-0,166
-576,992	-89,215	0,109	0,023
-575,977	299,874	-0,059	-0,080
-574,963	800,000	0,065	0,177
-573,948	265,214	0,071	0,091
-572,934	193,543	0,102	-0,113
-571,919	800,000	-0,013	0,027
-570,904	800,000	-0,075	-0,180
-569,890	68,752	-0,057	-0,043
-568,875	308,130	0,049	-0,067
-567,861	798,276	0,026	0,053
-566,846	800,000	-0,023	-0,052
-565,831	66,518	0,133	-0,099
-564,817	-22,645	-0,037	-0,017
-563,802	-112,965	-0,049	0,007
-562,788	-96,925	-0,049	-0,009
-561,773	-35,847	0,168	0,066
-560,758	328,790	0,052	-0,074
-559,744	-129,545	0,086	0,009
-558,729	15,309	-0,041	-0,023
-557,715	800,000	-0,015	-0,047
-556,700	347,897	-0,035	-0,050
-555,685	-200,000	-0,009	-0,038
-554,671	141,240	-0,119	0,115
-553,656	171,207	0,057	0,060
-552,642	800,000	0,006	0,017
-551,627	-99,295	-0,056	0,010
-550,612	145,245	-0,109	0,107
-549,598	16,363	0,090	0,052
-548,583	10,843	0,075	0,042
-547,569	211,848	-0,112	-0,130
-546,554	-127,992	0,054	-0,006
-545,539	278,769	0,064	0,084
-544,525	57,608	-0,128	0,092
-543,510	800,000	0,038	-0,077
-542,496	27,782	-0,070	-0,043
-541,481	-138,664	-0,117	0,009
-540,466	800,000	-0,032	0,069
-539,452	66,263	0,139	0,103
-538,437	-200,000	0,044	0,156
-537,423	-41,378	-0,021	-0,008
-536,408	-200,000	0,016	-0,101
-535,393	18,887	0,114	0,067
-534,379	-200,000	0,007	-0,117
-533,364	800,000	0,036	-0,080
-532,350	-200,000	-0,022	0,071
-531,335	-200,000	-0,007	-0,046
-530,321	534,701	-0,096	0,167
-529,306	-200,000	-0,007	0,095
-528,291	237,729	-0,072	-0,088
-527,277	800,000	-0,048	-0,122
-526,262	-11,508	-0,039	-0,019
-525,248	95,065	0,053	-0,044
-524,233	-104,032	0,051	-0,009
-523,218	-200,000	-0,002	0,024
-522,204	54,027	0,084	-0,059
-521,189	800,000	-0,037	-0,107
-520,175	-77,172	0,047	-0,012
-519,160	-200,000	-0,010	0,089
-518,145	-29,760	0,132	0,055
-517,131	-70,273	0,058	0,016
-516,116	-12,255	0,055	-0,026
-515,102	297,006	-0,072	-0,096
-514,087	800,000	0,037	-0,106
-513,072	-200,000	0,003	-0,117
-512,058	183,963	-0,042	-0,045
-511,043	138,363	-0,079	0,076
-510,029	413,832	-0,080	0,124
-509,014	-200,000	0,005	0,056
-507,999	-106,568	0,128	0,021
-506,985	-200,000	-0,017	0,126
-505,970	798,329	0,064	-0,130
-504,956	328,538	-0,034	-0,049
-503,941	-200,000	0,000	0,024
-502,926	800,000	0,032	-0,065
-501,912	-200,000	-0,002	0,014
-500,897	-25,020	-0,061	-0,026
-499,883	111,251	-0,088	-0,077
-498,868	800,000	-0,023	-0,058
-497,853	-56,689	-0,057	0,018
-496,839	257,882	-0,075	0,094
-495,824	354,810	0,095	-0,138
-494,810	800,000	0,007	0,016
-493,795	-22,255	0,098	0,043
-492,781	-200,000	-0,020	-0,073
-491,766	36,433	-0,038	-0,025
-490,751	162,766	-0,031	0,032
-489,737	342,666	0,064	0,091
-488,722	-7,082	-0,115	0,057
-487,708	-200,000	0,001	0,010
-486,693	800,000	0,045	0,127
-485,678	2,877	-0,021	-0,011
-484,664	-34,803	-0,035	-0,014
-483,649	-197,887	-0,076	-0,000
-482,635	308,171	0,061	-0,083
-481,620	-1,073	-0,125	-0,064
-480,605	614,680	-0,025	-0,045
-479,591	-200,000	-0,012	0,071
-478,576	70,620	-0,054	0,041
-477,562	-56,743	-0,178	-0,057
-476,547	6,964	-0,019	0,010
-475,532	-200,000	0,006	0,034
-474,518	800,000	0,046	0,149
-473,503	-124,338	-0,198	-0,022
-472,489	36,482	0,016	-0,010
-471,474	247,912	-0,137	0,170
-470,459	-84,458	-0,129	-0,030
-469,445	-104,237	0,097	-0,016
-468,430	-200,000	-0,004	-0,065
-467,416	756,291	0,034	0,067
-466,401	-200,000	-0,020	-0,104
-465,386	800,000	-0,027	-0,056
-464,372	-200,000	0,000	-0,043
-463,357	-151,285	-0,212	-0,011
-462,343	483,560	0,081	-0,136
-461,328	531,345	0,026	-0,045
-460,313	347,982	-0,040	-0,058
-459,299	800,000	-0,037	0,108
-458,284	306,935	0,091	0,124
-457,270	800,000	-0,031	0,085
-456,255	91,188	-0,045	0,037
-455,241	107,215	-0,032	0,028
-454,226	313,148	-0,006	0,008
-453,211	800,000	0,054	0,125
-452,197	800,000	0,043	0,129
-451,182	800,000	0,051	0,129
-450,168	-101,368	-0,108	0,019
-449,153	800,000	-0,033	-0,089
-448,138	99,239	0,022	0,019
-447,124	40,120	0,032	-0,021
-446,109	-200,000	-0,005	0,106
-445,095	-65,989	0,146	0,042
-444,080	-165,896	0,075	-0,002
-443,065	5,161	-0,073	0,039
-442,051	-59,773	0,067	-0,021
-441,036	694,354	-0,075	-0,145
-440,022	179,911	-0,034	-0,037
-439,007	-200,000	0,006	0,049
-437,992	800,000	0,029	-0,087
-436,978	167,073	0,076	-0,079
-435,963	46,658	-0,038	-0,026
-434,949	-150,365	-0,057	-0,003
-433,934	275,398	-0,031	-0,040
-432,919	-200,000	-0,035	-0,126
-431,905	-84,072	0,063	-0,014
-430,890	218,759	0,002	0,002
-429,876	514,789	0,067	-0,114
-428,861	262,328	-0,071	0,090
-427,846	-22,411	0,075	0,033
-426,832	-72,330	-0,079	-0,021
-425,817	-200,000	0,007	-0,077
-424,803	-200,000	-0,004	0,041
-423,788	-40,155	0,115	0,043
-422,773	-96,697	0,069	-0,013
-421,759	184,672	0,021	0,023
-420,744	-180,500	-0,125	0,002
-419,730	50,801	-0,022	0,015
-418,715	800,000	0,052	-0,115
-417,701	-35,031	-0,053	-0,021
-416,686	552,749	0,039	0,068
-415,671	-200,000	-0,011	0,077
-414,657	623,651	-0,048	-0,089
-413,642	800,000	0,043	-0,104
-412,628	90,543	-0,092	-0,075
-411,613	-99,783	-0,079	-0,014
-410,598	-117,473	0,104	-0,013
-409,584	-99,068	0,132	0,024
-408,569	-200,000	0,008	0,057
-407,555	-200,000	0,029	0,167
-406,540	344,706	-0,049	0,070
-405,525	-76,919	-0,081	0,020
-404,511	94,517	-0,035	0,029
-403,496	-106,184	-0,133	0,022
-402,482	34,652	-0,078	-0,050
-401,467	800,000	0,010	0,032
-400,452	165,605	0,065	0,067
-399,438	424,559	-0,061	0,096
-398,423	-84,934	-0,022	-0,005
-397,409	245,259	0,067	-0,082
-396,394	-200,000	0,001	-0,100
-395,379	-200,000	-0,014	-0,117
-394,365	-200,000	-0,017	0,083
-393,350	-174,920	0,143	-0,003
-392,336	-200,000	0,023	-0,098
-391,321	12,684	-0,097	-0,054
-390,306	800,000	0,027	-0,073
-389,292	138,143	0,032	-0,030
-388,277	-104,196	-0,104	-0,017
-387,263	271,737	0,059	0,075
-386,248	531,538	0,066	0,114
-385,233	329,783	-0,059	-0,082
-384,219	291,127	-0,053	-0,070
-383,204	75,248	-0,084	-0,064
-382,190	20,138	-0,077	-0,045
-381,175	136,894	-0,022	-0,021
-380,160	-200,000	0,010	0,049
-379,146	266,739	-0,011	0,014
-378,131	800,000	0,023	-0,073
-377,117	97,463	-0,092	-0,076
-376,102	-74,051	0,084	0,022
-375,088	58,576	-0,118	-0,084
-374,073	521,240	0,060	0,102
-373,058	800,000	0,042	0,100
-372,044	-143,643	0,132	0,009
-371,029	555,355	0,015	-0,027
-370,015	-200,000	-0,023	-0,106
-369,000	57,224	0,017	-0,012
-367,985	147,729	-0,109	-0,107
-366,971	66,181	0,113	-0,083
-365,956	56,046	0,137	0,097
-364,942	800,000	-0,060	0,147
-363,927	-200,000	-0,009	0,054
-362,912	-200,000	0,023	0,150
-361,898	-200,000	0,001	0,096
-360,883	97,422	0,066	-0,055
-359,869	-196,372	-0,067	-0,000
-358,854	-200,000	-0,012	-0,184
-357,839	-111,037	0,059	-0,009
-356,825	-200,000	0,004	0,024
-355,810	768,138	-0,070	0,138
-354,796	-200,000	0,011	0,036
-353,781	-133,111	-0,108	-0,010
-352,766	241,404	-0,018	-0,022
-351,752	-200,000	0,010	0,128
-350,737	-141,111	0,066	0,005
-349,723	-70,341	0,172	-0,047
-348,708	-35,740	-0,093	-0,036
-347,693	-56,761	0,085	-0,027
-346,679	800,000	-0,054	-0,143
-345,664	-69,402	-0,107	0,030
-344,650	279,362	0,060	0,078
-343,635	-200,000	0,015	0,069
-342,620	-3,662	0,053	-0,027
-341,606	-84,929	0,105	0,024
-340,591	-90,018	-0,198	-0,042
-339,577	160,629	0,023	0,023
-338,562	-63,118	-0,027	0,008
-337,548	-200,000	0,006	-0,037
-336,533	-200,000	-0,003	0,014
-335,518	-5,217	0,104	0,052
-334,504	-200,000	-0,000	-0,142
-333,489	-200,000	0,012	-0,087
-332,475	-200,000	-0,001	0,121
-331,460	-17,014	-0,038	0,017
-330,445	-200,000	0,014	-0,088
-329,431	-200,000	-0,010	0,074
-328,416	-200,000	-0,025	-0,085
-327,402	-200,000	0,031	0,110
-326,387	66,427	-0,057	0,042
-325,372	-148,954	0,043	0,002
-324,358	-64,910	-0,100	0,029
-323,343	227,603	-0,035	0,041
-322,329	135,390	0,023	0,022
-321,314	219,999	0,158	0,184
-320,299	236,464	-0,130	0,157
-319,285	-200,000	0,058	-0,210
-318,270	-6,802	-0,113	-0,056
-317,256	699,694	0,013	-0,025
-316,241	-200,000	-0,006	-0,100
-315,226	52,335	0,129	0,089
-314,212	-149,099	0,046	-0,003
-313,197	-200,000	0,004	0,169
-312,183	14,109	0,065	0,037
-311,168	300,200	0,068	-0,091
-310,153	-140,520	-0,044	-0,003
-309,139	-14,657	0,067	-0,031
-308,124	298,595	-0,055	-0,073
-307,110	-55,363	0,110	0,036
-306,095	-94,071	0,123	0,024
-305,080	56,470	-0,089	-0,063
-304,066	800,000	0,011	0,031
-303,051	-200,000	-0,002	-0,080
-302,037	121,684	-0,100	-0,091
-301,022	-200,000	-0,033	-0,144
-300,008	271,067	-0,060	-0,077
-298,993	3,671	-0,049	-0,026
-297,978	8,990	0,103	0,056
-296,964	-69,413	-0,118	-0,033
-295,949	800,000	0,025	-0,076
-294,935	490,166	-0,040	-0,066
-293,920	-43,182	0,056	0,020
-292,905	-18,971	0,077	0,035
-291,891	75,117	-0,090	0,069
-290,876	-27,955	-0,064	-0,027
-289,862	110,600	0,090	0,078
-288,847	-200,000	-0,005	0,075
-287,832	245,503	0,065	-0,079
-286,818	385,964	-0,021	-0,031
-285,803	177,729	0,029	-0,031
-284,789	375,354	0,091	0,134
-283,774	-54,398	0,120	0,039
-282,759	-115,360	-0,078	0,011
-281,745	-113,931	-0,062	-0,009
-280,730	-88,620	-0,061	0,013
-279,716	-46,582	0,022	0,008
-278,701	-13,086	0,110	-0,052
-277,686	-108,602	0,200	0,031
-276,672	800,000	0,012	0,034
-275,657	-200,000	-0,013	-0,134
-274,643	-49,158	0,029	-0,010
-273,628	-126,724	0,028	0,003
-272,613	800,000	-0,011	-0,025
-271,599	800,000	0,023	-0,047
-270,584	712,577	0,049	0,094
-269,570	-200,000	-0,048	0,226
-268,555	-106,856	-0,109	-0,017
-267,540	-118,044	0,044	0,006
-266,526	800,000	-0,052	-0,150
-265,511	-200,000	-0,021	-0,093
-264,497	-82,462	-0,074	-0,017
-263,482	399,615	0,123	0,188
-262,467	800,000	0,043	0,113
-261,453	270,994	-0,057	0,073
-260,438	5,704	0,048	0,026
-259,424	446,516	-0,054	-0,087
-258,409	800,000	0,019	0,053
-257,395	800,000	-0,040	0,087
-256,380	153,238	-0,095	0,095
-255,365	1,552	0,005	0,002
-254,351	800,000	0,035	0,096
-253,336	82,199	-0,107	0,084
-252,322	214,557	-0,064	-0,073
-251,307	378,040	0,037	0,056
-250,292	99,550	0,049	0,041
-249,278	-200,000	0,001	0,076
-248,263	800,000	0,042	-0,131
-247,249	-200,000	-0,021	0,147
-246,234	42,920	-0,112	-0,074
-245,219	52,542	-0,065	-0,045
-244,205	77,351	0,096	-0,074
-243,190	66,599	0,124	0,091
-242,176	-200,000	-0,008	-0,147
-241,161	590,449	0,059	-0,106
-240,146	620,634	0,029	-0,052
-239,132	2,722	0,117	0,061
-238,117	272,196	-0,048	0,061
-237,103	141,090	0,119	-0,114
-236,088	-200,000	-0,010	-0,061
-235,073	800,000	-0,008	-0,019
-234,059	-200,000	0,022	0,130
-233,044	-122,939	0,071	-0,008
-232,030	800,000	-0,024	-0,074
-231,015	-64,866	-0,163	0,047
-230,000	-92,102	-0,101	0,021
-228,986	-28,487	0,152	0,063
-227,971	800,000	0,043	0,103
-226,957	184,202	0,107	0,115
-225,942	-200,000	-0,017	0,089
-224,927	800,000	-0,032	-0,074
-223,913	-172,806	-0,029	-0,001
-222,898	146,891	0,052	-0,051
-221,884	504,100	0,014	-0,024
-220,869	22,754	0,082	0,048
-219,855	-139,886	-0,070	-0,005
-218,840	215,905	0,015	0,017
-217,825	-36,062	-0,115	0,045
-216,811	171,979	-0,099	-0,103
-215,796	-200,000	-0,016	-0,113
-214,782	-16,517	-0,059	0,027
-213,767	619,465	-0,064	0,116
-212,752	290,204	0,045	-0,060
-211,738	-96,537	0,146	0,028
-210,723	-117,617	0,056	0,007
-209,709	-200,000	0,017	-0,121
-208,694	-200,000	0,006	-0,124
-207,679	-200,000	0,011	-0,037
-206,665	-66,222	0,099	0,028
-205,650	-23,063	0,053	0,023
-204,636	15,424	-0,031	0,018
-203,621	133,698	0,038	-0,036
-202,606	-114,954	-0,038	-0,005
-201,592	800,000	-0,067	-0,166
-200,577	-97,774	0,048	-0,009
-199,563	-200,000	0,003	0,070
-198,548	75,690	0,094	0,072
-197,533	-20,889	-0,123	0,054
-196,519	-1,568	-0,070	-0,035
-195,504	-108,936	-0,057	-0,009
-194,490	-70,320	0,052	-0,014
-193,475	417,576	0,072	0,111
-192,460	-200,000	-0,002	-0,012
-191,446	800,000	-0,026	0,076
-190,431	133,779	0,126	0,117
-189,417	-129,878	-0,103	-0,010
-188,402	800,000	-0,019	0,045
-187,387	-200,000	0,016	-0,118
-186,373	-113,367	0,130	0,018
-185,358	492,251	0,096	-0,160
-184,344	-74,709	-0,076	-0,019
-183,329	591,931	0,063	-0,113
-182,315	125,946	-0,023	0,021
-181,300	-158,710	-0,120	-0,005
-180,285	-113,083	-0,097	0,014
-179,271	800,000	-0,051	0,104
-178,256	-36,368	-0,017	0,006
-177,242	-200,000	0,006	0,040
-176,227	800,000	-0,050	-0,122
-175,212	-12,554	-0,059	0,028
-174,198	-68,387	-0,156	0,043
-173,183	133,561	0,136	0,127
-172,169	800,000	-0,046	-0,142
-171,154	-200,000	0,016	0,066
-170,139	166,333	0,080	0,082
-169,125	36,648	0,050	-0,032
-168,110	-200,000	-0,012	-0,122
-167,096	267,314	-0,006	-0,007
-166,081	-122,162	0,082	0,010
-165,066	-200,000	0,043	0,198
-164,052	383,304	-0,090	0,133
-163,037	-2,540	-0,099	-0,050
-162,023	-200,000	0,024	-0,131
-161,008	800,000	-0,015	-0,041
-159,993	529,708	0,087	0,149
-158,979	800,000	0,014	-0,038
-157,964	24,844	-0,201	-0,120
-156,950	796,266	0,052	0,103
-155,935	-35,308	-0,011	0,004
-154,920	8,332	0,172	0,093
-153,906	-100,521	-0,107	0,019
-152,891	1,725	0,085	-0,044
-151,877	-200,000	-0,018	-0,080
-150,862	152,333	-0,160	-0,157
-149,847	322,280	0,043	0,059
-148,833	-200,000	0,010	-0,085
-147,818	33,550	0,048	0,030
-146,804	529,319	-0,004	0,006
-145,789	800,000	-0,012	0,031
-144,775	-27,169	-0,125	-0,052
-143,760	800,000	0,012	0,025
-142,745	-62,592	-0,052	0,015
-141,731	317,583	0,058	-0,079
-140,716	-133,329	0,092	0,008
-139,702	800,000	-0,046	0,142
-138,687	78,287	0,063	-0,048
-137,672	-28,533	-0,104	-0,043
-136,658	127,195	-0,085	-0,078
-135,643	-200,000	0,001	-0,041
-134,629	-115,974	-0,059	0,008
-133,614	-118,203	0,204	-0,026
-132,599	-200,000	0,001	0,082
-131,585	31,316	0,045	-0,028
-130,570	721,438	-0,073	0,141
-129,556	264,111	0,032	-0,040
-128,541	204,271	-0,040	-0,044
-127,526	132,056	-0,040	-0,037
-126,512	-200,000	0,009	-0,082
-125,497	399,649	0,040	0,060
-124,483	-200,000	0,006	-0,154
-123,468	800,000	0,068	-0,146
-122,453	512,436	-0,045	0,075
-121,439	-200,000	-0,013	-0,047
-120,424	800,000	0,029	0,064
-119,410	800,000	0,017	0,038
