DTS Sentinel unit serial number:	SN410029Multiplexer serial number:	ORYXHardware model number:	OX2-SRSoftware version number:	ORYX F/W v4,00 Oryx Data Collector v3.7.2.0data status	okinstallation	B6 Nyhavnadifferential loss correction	single-endedforward channel	channel 2reverse channel	N/Adate	2023/12/09time	01:25:08forward acquisition time	300,00reverse acquisition time	0,00gamma	499,1914k internal	0,3156k external	0,3156temperature offset calibration	1,0000default loss term (dB/km)	0,3820temperature slope calibration	1,0000multiplexer offset coefficient	1,0000multiplexer slope coefficient	1,0000fibre end	0,00T internal ref (°C)	15,76T ext. ref 1 (°C)	-0,56T ext. ref 2 (°C)	-0,56length (m)	temperature (°C)	Stokes	anti-Stokes-744,400	-73,948	0,098	0,026
-743,385	-73,283	-0,103	-0,027
-742,371	-142,409	0,167	0,012
-741,356	-53,316	-0,228	0,077
-740,342	-105,907	0,073	-0,012
-739,327	-155,651	-0,305	-0,014
-738,312	538,471	0,094	0,166
-737,298	-165,297	-0,287	-0,009
-736,283	-200,000	0,014	0,076
-735,269	-175,578	-0,273	-0,005
-734,254	-200,000	-0,002	-0,056
-733,239	-38,244	-0,505	-0,197
-732,225	111,149	0,080	0,071
-731,210	51,487	0,028	0,020
-730,196	800,000	-0,051	0,110
-729,181	-31,802	0,047	0,019
-728,167	-109,981	-0,152	-0,023
-727,152	24,723	-0,102	0,062
-726,137	-200,000	-0,008	0,028
-725,123	94,284	-0,067	0,056
-724,108	285,492	-0,026	-0,035
-723,094	35,822	-0,086	0,056
-722,079	37,886	-0,112	-0,073
-721,064	-16,675	-0,043	0,020
-720,050	800,000	-0,015	-0,040
-719,035	-53,789	-0,034	-0,011
-718,021	-200,000	0,008	-0,089
-717,006	-200,000	-0,006	-0,028
-715,991	-98,228	-0,177	0,033
-714,977	277,703	-0,083	0,109
-713,962	167,258	-0,070	-0,074
-712,948	-200,000	0,019	0,096
-711,933	29,302	0,058	-0,036
-710,918	-6,142	-0,084	-0,042
-709,904	487,179	0,060	-0,101
-708,889	-108,207	-0,058	-0,009
-707,875	-75,663	-0,120	-0,031
-706,860	-200,000	0,020	-0,164
-705,845	800,000	-0,024	0,067
-704,831	-200,000	0,021	0,117
-703,816	-99,430	0,170	0,031
-702,802	222,121	0,053	-0,062
-701,787	175,401	0,079	0,085
-700,772	100,918	-0,176	-0,150
-699,758	-200,000	0,032	-0,204
-698,743	-200,000	0,005	-0,061
-697,729	1,266	0,038	-0,020
-696,714	111,205	-0,093	0,082
-695,699	79,320	0,061	-0,048
-694,685	-161,708	-0,060	0,002
-693,670	-101,435	-0,087	-0,015
-692,656	-35,633	-0,055	-0,022
-691,641	-200,000	0,004	0,101
-690,627	-154,293	0,118	-0,006
-689,612	800,000	0,021	0,060
-688,597	44,279	-0,087	0,059
-687,583	142,923	-0,087	0,085
-686,568	-21,480	-0,104	0,046
-685,554	-41,648	-0,088	0,033
-684,539	-200,000	-0,006	-0,120
-683,524	264,106	-0,045	-0,058
-682,510	57,888	0,087	0,063
-681,495	516,440	-0,041	-0,071
-680,481	800,000	-0,016	0,038
-679,466	-142,549	-0,168	-0,012
-678,451	-200,000	-0,010	0,154
-677,437	-68,821	-0,057	-0,016
-676,422	366,533	0,054	0,081
-675,408	229,362	0,026	0,031
-674,393	3,507	-0,080	-0,043
-673,378	-91,373	-0,157	-0,033
-672,364	-161,390	-0,051	0,002
-671,349	-117,748	0,034	0,004
-670,335	514,951	0,069	0,118
-669,320	800,000	0,069	0,157
-668,305	293,283	-0,008	-0,010
-667,291	84,395	-0,106	0,085
-666,276	-114,832	-0,062	0,009
-665,262	-200,000	0,028	-0,158
-664,247	516,767	0,023	-0,041
-663,232	-200,000	0,002	-0,172
-662,218	345,394	-0,075	-0,109
-661,203	28,120	0,103	-0,064
-660,189	383,564	-0,067	-0,102
-659,174	-200,000	0,001	0,088
-658,159	-84,582	-0,152	-0,035
-657,145	-49,603	-0,144	-0,050
-656,130	214,151	-0,080	0,093
-655,116	-200,000	-0,004	-0,038
-654,101	291,272	0,122	0,163
-653,086	20,881	-0,191	-0,113
-652,072	-200,000	-0,033	-0,114
-651,057	-200,000	-0,059	-0,220
-650,043	-91,106	-0,077	0,016
-649,028	-200,000	-0,057	-0,220
-648,014	161,621	-0,022	0,023
-646,999	800,000	0,016	0,043
-645,984	295,496	0,043	0,058
-644,970	-76,367	-0,060	0,016
-643,955	240,621	0,074	-0,091
-642,941	84,977	-0,077	-0,062
-641,926	800,000	-0,058	-0,126
-640,911	430,323	0,076	-0,121
-639,897	-200,000	-0,001	0,074
-638,882	98,932	-0,015	0,013
-637,868	-160,089	-0,065	0,003
-636,853	-200,000	0,001	0,060
-635,838	-151,750	-0,119	-0,006
-634,824	162,549	-0,062	0,064
-633,809	-200,000	-0,010	0,033
-632,795	198,463	-0,045	-0,050
-631,780	-61,369	-0,077	0,023
-630,765	116,506	0,083	-0,074
-629,751	272,113	-0,075	-0,097
-628,736	151,684	-0,149	-0,149
-627,722	-200,000	-0,006	0,100
-626,707	148,012	0,130	0,129
-625,692	-95,190	0,111	0,022
-624,678	3,662	-0,141	-0,075
-623,663	0,999	0,097	-0,051
-622,649	620,081	-0,049	-0,091
-621,634	-200,000	0,000	-0,066
-620,619	2,140	-0,109	0,057
-619,605	62,889	-0,026	-0,019
-618,590	800,000	0,008	-0,018
-617,576	-72,172	-0,073	0,020
-616,561	-200,000	-0,029	0,163
-615,546	800,000	0,038	-0,090
-614,532	-200,000	-0,014	-0,088
-613,517	-200,000	-0,011	0,096
-612,503	-200,000	-0,023	0,098
-611,488	7,201	0,116	-0,064
-610,474	800,000	-0,040	-0,082
-609,459	-200,000	-0,011	0,083
-608,444	17,234	-0,157	0,091
-607,430	-154,479	0,126	-0,006
-606,415	116,890	-0,131	-0,118
-605,401	126,861	0,099	0,092
-604,386	-200,000	0,023	0,096
-603,371	640,797	-0,035	-0,066
-602,357	216,256	0,040	-0,047
-601,342	800,000	-0,053	-0,133
-600,328	176,433	-0,090	-0,096
-599,313	-140,894	0,079	-0,006
-598,298	23,368	-0,134	-0,080
-597,284	101,699	0,061	0,052
-596,269	-200,000	0,020	0,119
-595,255	408,010	-0,081	0,125
-594,240	-200,000	-0,010	-0,105
-593,225	800,000	-0,049	-0,144
-592,211	155,496	0,033	0,034
-591,196	-200,000	-0,010	0,097
-590,182	305,253	0,073	0,100
-589,167	800,000	0,053	0,147
-588,152	800,000	0,027	-0,080
-587,138	136,599	0,071	-0,068
-586,123	-95,252	-0,133	-0,026
-585,109	362,522	-0,046	0,067
-584,094	-57,258	0,027	0,009
-583,079	124,508	0,051	0,047
-582,065	-27,873	0,070	-0,030
-581,050	371,038	0,095	0,141
-580,036	-26,245	-0,085	-0,037
-579,021	215,450	0,107	-0,125
-578,006	-134,271	-0,077	-0,007
-576,992	105,813	-0,125	0,108
-575,977	113,346	0,065	0,058
-574,963	-200,000	-0,001	0,083
-573,948	340,809	0,049	-0,070
-572,934	-78,154	0,065	-0,016
-571,919	800,000	-0,040	-0,102
-570,904	150,590	0,054	0,054
-569,890	151,397	-0,072	-0,072
-568,875	340,843	0,020	-0,028
-567,861	-29,401	-0,127	-0,053
-566,846	365,664	0,054	0,081
-565,831	113,086	-0,088	-0,078
-564,817	-93,167	0,085	-0,017
-563,802	-110,255	-0,074	0,011
-562,788	196,237	0,015	-0,016
-561,773	-200,000	-0,005	0,022
-560,758	-200,000	0,015	0,131
-559,744	-62,135	-0,107	0,033
-558,729	196,000	0,040	0,045
-557,715	112,582	-0,056	0,050
-556,700	-14,307	-0,129	-0,061
-555,685	-200,000	0,032	-0,168
-554,671	3,071	0,118	0,062
-553,656	4,253	0,196	0,105
-552,642	508,349	-0,051	0,086
-551,627	-105,370	-0,029	0,005
-550,612	800,000	-0,052	-0,111
-549,598	-200,000	-0,060	-0,211
-548,583	610,008	-0,068	-0,124
-547,569	-200,000	0,011	-0,092
-546,554	-73,374	0,048	0,013
-545,539	106,197	0,063	0,055
-544,525	-37,043	-0,136	0,053
-543,510	-200,000	0,006	-0,118
-542,496	800,000	-0,058	-0,163
-541,481	15,243	-0,073	-0,042
-540,466	-56,190	-0,023	-0,007
-539,452	198,770	0,084	-0,094
-538,437	-121,935	-0,058	-0,007
-537,423	409,086	-0,029	0,046
-536,408	163,399	0,087	-0,090
-535,393	800,000	-0,015	-0,033
-534,379	-54,761	0,022	0,007
-533,364	-34,626	0,009	0,004
-532,350	133,950	-0,045	0,043
-531,335	800,000	0,044	0,107
-530,321	-87,413	-0,034	0,008
-529,306	-200,000	-0,028	0,123
-528,291	-200,000	-0,028	0,123
-527,277	-149,463	-0,027	-0,002
-526,262	140,698	-0,104	-0,100
-525,248	175,912	0,034	-0,037
-524,233	338,184	-0,060	-0,085
-523,218	149,194	0,076	0,075
-522,204	-33,207	0,149	-0,060
-521,189	-129,190	-0,090	-0,009
-520,175	156,224	-0,057	-0,057
-519,160	47,101	-0,040	-0,027
-518,145	413,205	-0,036	-0,057
-517,131	-200,000	0,011	-0,064
-516,116	50,510	-0,031	0,022
-515,102	-62,734	0,075	-0,023
-514,087	283,413	-0,043	0,057
-513,072	83,295	-0,108	0,086
-512,058	2,815	-0,048	-0,025
-511,043	-33,071	0,067	-0,027
-510,029	-32,469	0,116	-0,047
-509,014	-21,843	0,071	0,031
-507,999	148,960	0,021	-0,020
-506,985	-116,583	-0,126	0,017
-505,970	-30,367	0,051	-0,021
-504,956	-98,579	-0,070	0,013
-503,941	-200,000	0,012	0,046
-502,926	-64,401	-0,069	0,020
-501,912	-200,000	0,007	-0,036
-500,897	-62,767	0,074	-0,022
-499,883	-163,819	-0,050	0,002
-498,868	-48,035	0,108	-0,038
-497,853	800,000	-0,024	0,063
-496,839	223,990	-0,068	0,080
-495,824	-69,207	0,120	0,033
-494,810	-82,793	-0,106	0,025
-493,795	182,258	-0,122	0,132
-492,781	-31,125	-0,047	-0,019
-491,766	45,286	-0,064	-0,043
-490,751	195,638	0,057	-0,063
-489,737	-200,000	-0,014	-0,104
-488,722	-200,000	-0,003	-0,034
-487,708	800,000	-0,056	0,116
-486,693	-200,000	0,007	-0,059
-485,678	-24,658	-0,046	-0,020
-484,664	680,037	-0,021	0,040
-483,649	-200,000	0,031	-0,199
-482,635	158,127	0,105	-0,107
-481,620	-55,683	0,042	-0,014
-480,605	283,736	0,019	-0,026
-479,591	111,894	0,048	-0,043
-478,576	32,062	0,051	-0,032
-477,562	440,730	0,041	0,066
-476,547	-200,000	-0,009	0,042
-475,532	410,535	0,082	0,127
-474,518	-121,039	0,088	-0,011
-473,503	71,857	0,034	0,026
-472,489	46,177	-0,090	0,061
-471,474	-20,913	-0,174	-0,077
-470,459	800,000	-0,049	0,107
-469,445	-200,000	0,031	-0,114
-468,430	800,000	-0,034	0,095
-467,416	-134,926	0,097	0,008
-466,401	149,359	0,026	0,026
-465,386	-23,027	-0,186	-0,081
-464,372	35,811	0,039	-0,025
-463,357	-200,000	0,007	-0,031
-462,343	405,597	0,090	-0,139
-461,328	-19,955	-0,059	-0,027
-460,313	-15,537	0,148	0,069
-459,299	800,000	-0,019	-0,040
-458,284	148,010	-0,050	-0,049
-457,270	-200,000	-0,007	0,035
-456,255	-10,558	-0,040	-0,019
-455,241	-200,000	0,008	-0,049
-454,226	4,675	0,052	0,028
-453,211	800,000	0,027	-0,086
-452,197	313,184	0,065	0,089
-451,182	800,000	0,028	-0,072
-450,168	-133,674	0,079	-0,007
-449,153	-84,008	-0,065	-0,015
-448,138	90,717	-0,122	-0,100
-447,124	800,000	-0,030	0,084
-446,109	534,180	-0,022	0,038
-445,095	49,736	0,050	0,034
-444,080	544,591	0,040	0,071
-443,065	800,000	0,055	0,111
-442,051	-130,008	-0,097	0,010
-441,036	-200,000	-0,000	-0,022
-440,022	326,009	0,053	-0,074
-439,007	800,000	0,025	0,077
-437,992	-27,290	0,160	-0,068
-436,978	107,452	-0,041	-0,036
-435,963	232,970	-0,053	-0,064
-434,949	59,458	-0,112	-0,081
-433,934	-1,348	0,081	-0,042
-432,919	-10,765	-0,129	-0,062
-431,905	-200,000	-0,029	-0,104
-430,890	-105,867	0,091	-0,015
-429,876	-18,036	-0,027	0,012
-428,861	33,607	0,077	-0,048
-427,846	-16,102	0,014	0,007
-426,832	-38,859	-0,013	0,005
-425,817	800,000	-0,028	-0,059
-424,803	80,207	-0,106	0,083
-423,788	82,494	-0,080	0,063
-422,773	45,596	0,181	0,121
-421,759	156,730	-0,078	0,079
-420,744	-200,000	0,012	0,068
-419,730	325,718	-0,063	0,088
-418,715	800,000	-0,032	-0,072
-417,701	-200,000	0,008	-0,073
-416,686	800,000	-0,027	-0,062
-415,671	151,860	0,129	0,128
-414,657	55,205	-0,004	-0,003
-413,642	-60,847	-0,060	-0,019
-412,628	282,507	-0,031	-0,040
-411,613	359,750	-0,031	0,045
-410,598	129,919	0,044	-0,041
-409,584	-200,000	-0,028	-0,139
-408,569	800,000	0,016	-0,035
-407,555	-200,000	-0,014	0,064
-406,540	-126,587	-0,173	-0,018
-405,525	800,000	0,025	0,075
-404,511	201,833	0,032	-0,036
-403,496	674,813	-0,049	-0,092
-402,482	800,000	-0,039	0,098
-401,467	152,420	0,035	0,035
-400,452	800,000	-0,043	0,110
-399,438	336,438	0,051	0,073
-398,423	483,225	-0,116	0,192
-397,409	154,058	-0,018	-0,018
-396,394	-200,000	0,002	-0,154
-395,379	98,511	-0,034	0,029
-394,365	172,511	0,036	0,038
-393,350	57,677	-0,034	0,024
-392,336	-88,071	0,128	0,028
-391,321	150,169	-0,035	0,034
-390,306	-200,000	0,001	-0,060
-389,292	-200,000	-0,025	-0,129
-388,277	11,415	-0,078	-0,043
-387,263	-81,004	0,034	0,008
-386,248	-105,812	0,139	0,023
-385,233	-200,000	-0,006	-0,071
-384,219	-200,000	0,018	0,072
-383,204	800,000	-0,050	-0,106
-382,190	800,000	0,072	-0,160
-381,175	-61,903	0,048	0,015
-380,160	-200,000	0,020	0,065
-379,146	105,993	0,087	0,075
-378,131	12,880	-0,030	0,017
-377,117	510,249	-0,042	0,071
-376,102	-200,000	-0,002	-0,105
-375,088	3,810	-0,069	0,037
-374,073	33,768	-0,081	0,051
-373,058	800,000	0,037	-0,112
-372,044	-86,623	0,055	-0,012
-371,029	-36,582	0,089	-0,035
-370,015	800,000	0,048	-0,137
-369,000	-200,000	-0,043	0,163
-367,985	129,808	-0,160	-0,149
-366,971	79,356	0,093	0,073
-365,956	-55,076	-0,075	0,024
-364,942	-114,932	-0,102	0,014
-363,927	-200,000	-0,011	0,090
-362,912	-200,000	-0,032	0,129
-361,898	-93,769	-0,089	-0,018
-360,883	-200,000	-0,023	-0,230
-359,869	115,966	0,072	-0,064
-358,854	238,507	0,053	-0,064
-357,839	181,481	-0,046	0,050
-356,825	-200,000	0,005	-0,043
-355,810	-32,420	-0,148	0,060
-354,796	11,218	-0,143	-0,079
-353,781	259,361	0,048	-0,060
-352,766	-200,000	0,018	-0,101
-351,752	-200,000	-0,000	-0,106
-350,737	-38,475	0,020	-0,007
-349,723	511,762	0,024	0,041
-348,708	165,887	0,090	-0,092
-347,693	-21,682	-0,079	0,035
-346,679	-149,389	-0,105	-0,006
-345,664	800,000	-0,022	-0,047
-344,650	-200,000	0,025	-0,154
-343,635	-77,215	0,210	-0,053
-342,620	443,808	0,040	0,063
-341,606	-151,786	0,178	-0,009
-340,591	94,489	-0,068	0,056
-339,577	96,229	0,155	0,129
-338,562	114,285	0,040	0,035
-337,548	-200,000	-0,012	-0,091
-336,533	-200,000	-0,020	-0,159
-335,518	-24,684	0,027	0,011
-334,504	-200,000	0,009	0,092
-333,489	9,510	0,066	-0,036
-332,475	19,738	-0,051	0,030
-331,460	-62,269	-0,050	-0,015
-330,445	800,000	-0,022	0,065
-329,431	-98,511	0,064	0,012
-328,416	800,000	0,033	0,071
-327,402	259,930	-0,047	0,059
-326,387	-200,000	0,040	0,136
-325,372	70,932	-0,022	0,016
-324,358	176,372	-0,113	0,120
-323,343	800,000	0,046	0,113
-322,329	126,172	0,132	0,122
-321,314	-200,000	0,011	0,043
-320,299	-200,000	-0,009	0,080
-319,285	-91,693	0,110	0,022
-318,270	-20,100	-0,078	-0,035
-317,256	-200,000	-0,033	-0,123
-316,241	-200,000	0,032	-0,189
-315,226	675,029	-0,012	-0,024
-314,212	18,949	0,058	0,034
-313,197	-200,000	0,014	0,088
-312,183	484,971	-0,036	0,059
-311,168	800,000	0,020	-0,059
-310,153	-200,000	0,008	0,059
-309,139	-200,000	0,015	0,085
-308,124	14,119	0,073	-0,041
-307,110	800,000	0,023	0,071
-306,095	-97,880	0,100	0,019
-305,080	82,398	-0,019	0,015
-304,066	-140,813	0,124	-0,009
-303,051	-200,000	0,013	-0,106
-302,037	-200,000	0,039	0,137
-301,022	-75,040	-0,061	-0,016
-300,008	-81,190	0,074	0,018
-298,993	-200,000	-0,008	0,041
-297,978	-193,768	0,103	0,001
-296,964	800,000	-0,007	-0,021
-295,949	124,212	-0,067	0,061
-294,935	553,771	-0,028	0,049
-293,920	-200,000	0,001	-0,088
-292,905	72,452	0,079	-0,060
-291,891	486,539	0,092	0,152
-290,876	100,282	0,052	-0,044
-289,862	415,454	0,053	0,082
-288,847	-200,000	-0,008	-0,062
-287,832	246,695	-0,029	-0,036
-286,818	99,304	0,095	-0,080
-285,803	800,000	0,019	0,054
-284,789	-107,051	0,075	0,012
-283,774	-88,145	0,091	0,020
-282,759	-200,000	0,011	-0,131
-281,745	800,000	-0,032	-0,081
-280,730	7,919	-0,045	-0,024
-279,716	800,000	0,007	-0,020
-278,701	271,196	0,017	0,021
-277,686	-200,000	-0,001	-0,025
-276,672	114,214	-0,100	0,088
-275,657	-5,737	-0,038	-0,019
-274,643	89,225	-0,048	-0,039
-273,628	26,490	0,083	0,050
-272,613	714,115	-0,051	-0,098
-271,599	55,518	0,107	0,075
-270,584	-98,225	0,153	-0,028
-269,570	-200,000	0,019	0,075
-268,555	49,953	-0,162	0,110
-267,540	-200,000	-0,036	0,144
-266,526	285,680	0,043	0,056
-265,511	87,261	0,062	0,050
-264,497	800,000	0,095	0,245
-263,482	800,000	-0,032	-0,094
-262,467	36,139	-0,137	0,087
-261,453	-72,747	-0,077	0,020
-260,438	-3,605	-0,127	0,064
-259,424	-200,000	-0,022	-0,088
-258,409	95,709	-0,082	-0,068
-257,395	-180,635	0,050	0,001
-256,380	64,944	0,129	-0,094
-255,365	800,000	0,034	0,080
-254,351	189,094	-0,071	0,077
-253,336	490,040	-0,072	0,119
-252,322	278,076	-0,048	0,062
-251,307	-170,987	-0,020	-0,000
-250,292	413,543	0,068	0,104
-249,278	-200,000	-0,001	0,085
-248,263	-100,626	0,193	0,034
-247,249	292,768	0,087	0,115
-246,234	-36,666	0,069	-0,027
-245,219	416,941	-0,035	-0,054
-244,205	-200,000	-0,012	-0,040
-243,190	51,402	0,030	0,020
-242,176	-53,630	0,055	-0,018
-241,161	353,345	0,001	-0,002
-240,146	71,907	0,106	-0,079
-239,132	-200,000	0,019	-0,144
-238,117	800,000	0,039	0,078
-237,103	-14,476	-0,156	0,072
-236,088	123,220	-0,058	-0,052
-235,073	-41,206	-0,017	-0,006
-234,059	624,103	0,046	0,085
-233,044	-57,438	0,110	-0,035
-232,030	784,366	-0,043	-0,085
-231,015	800,000	-0,012	0,025
-230,000	121,677	-0,064	-0,057
-228,986	-144,505	0,010	-0,001
-227,971	-191,514	0,116	0,001
-226,957	-200,000	0,049	0,159
-225,942	800,000	0,005	-0,012
-224,927	122,872	0,068	0,061
-223,913	694,624	-0,052	0,099
-222,898	-187,444	-0,164	-0,002
-221,884	-200,000	0,008	0,045
-220,869	161,223	0,060	0,060
-219,855	-115,002	-0,131	-0,018
-218,840	347,282	0,099	0,141
-217,825	-200,000	-0,001	-0,038
-216,811	-26,208	0,137	0,058
-215,796	761,300	-0,044	-0,086
-214,782	-200,000	0,013	0,117
-213,767	-93,957	0,039	0,008
-212,752	-76,244	0,069	0,017
-211,738	-200,000	0,051	0,173
-210,723	197,095	0,059	0,065
-209,709	800,000	-0,087	-0,187
-208,694	256,772	-0,055	-0,068
-207,679	510,266	0,071	0,119
-206,665	-194,077	-0,031	0,000
-205,650	-112,042	-0,040	-0,006
-204,636	661,419	0,083	-0,155
-203,621	92,692	-0,090	0,074
-202,606	-89,700	0,097	-0,020
-201,592	800,000	-0,021	0,058
-200,577	-44,077	-0,187	-0,068
-199,563	800,000	-0,007	-0,019
-198,548	-200,000	0,041	0,147
-197,533	800,000	0,067	-0,162
-196,519	368,285	-0,024	-0,035
-195,504	-66,204	-0,080	0,023
-194,490	-105,669	-0,047	0,008
-193,475	-25,425	-0,086	-0,037
-192,460	-4,986	-0,093	-0,046
-191,446	-200,000	0,018	0,086
-190,431	-173,088	0,083	0,002
-189,417	-182,126	-0,160	0,002
-188,402	107,890	0,130	-0,111
-187,387	800,000	0,035	-0,071
-186,373	-200,000	0,025	-0,123
-185,358	-35,491	-0,123	-0,048
-184,344	-165,711	0,186	0,006
-183,329	800,000	0,074	0,158
-182,315	664,451	-0,024	0,045
-181,300	162,368	-0,052	0,052
-180,285	215,384	0,039	0,045
-179,271	-100,070	0,090	-0,016
-178,256	169,940	0,089	-0,092
-177,242	216,482	0,069	-0,080
-176,227	800,000	0,038	0,086
-175,212	-200,000	0,008	0,058
-174,198	-94,658	0,064	-0,012
-173,183	800,000	-0,021	-0,061
-172,169	70,316	-0,061	-0,045
-171,154	-200,000	-0,005	0,020
-170,139	-200,000	0,028	-0,128
-169,125	250,653	0,103	0,127
-168,110	314,258	0,118	0,161
-167,096	-20,314	-0,057	-0,025
-166,081	-142,744	-0,105	0,007
-165,066	171,112	-0,080	-0,083
-164,052	337,526	-0,056	0,079
-163,037	800,000	0,012	-0,030
-162,023	335,800	-0,066	-0,093
-161,008	-200,000	0,007	0,027
-159,993	800,000	0,026	0,074
-158,979	-78,628	-0,036	0,009
-157,964	800,000	-0,024	-0,076
-156,950	-10,220	-0,052	0,025
-155,935	-121,372	-0,102	0,012
-154,920	800,000	0,028	0,082
-153,906	-130,982	0,061	-0,006
-152,891	-139,971	0,076	-0,006
-151,877	-71,841	0,095	0,025
-150,862	-200,000	0,018	-0,064
-149,847	517,195	0,007	-0,012
-148,833	-200,000	-0,018	-0,095
-147,818	-41,139	-0,051	-0,019
-146,804	-134,912	-0,069	0,006
-145,789	8,044	0,067	0,036
-144,775	800,000	-0,098	-0,295
-143,760	76,051	-0,066	-0,050
-142,745	-200,000	-0,040	-0,129
-141,731	-200,000	0,012	0,065
-140,716	143,033	0,092	-0,088
-139,702	320,602	-0,068	0,094
-138,687	49,633	0,041	-0,028
-137,672	-43,731	0,075	-0,027
-136,658	318,086	-0,067	0,091
-135,643	25,079	-0,108	-0,064
-134,629	800,000	-0,029	0,091
-133,614	800,000	-0,031	0,088
-132,599	-50,248	-0,026	-0,009
-131,585	102,768	-0,144	-0,121
-130,570	800,000	0,035	-0,101
-129,556	4,341	-0,064	-0,034
-128,541	-200,000	-0,014	-0,054
-127,526	208,464	0,034	-0,038
-126,512	800,000	-0,039	0,080
-125,497	800,000	-0,015	-0,031
-124,483	303,628	-0,077	0,103
-123,468	12,776	0,113	-0,063
-122,453	-106,557	-0,105	-0,017
-121,439	800,000	-0,058	0,159
-120,424	-200,000	-0,005	-0,041
-119,410	335,411	-0,071	0,099
