DTS Sentinel unit serial number:	SN410029Multiplexer serial number:	ORYXHardware model number:	OX2-SRSoftware version number:	ORYX F/W v4,00 Oryx Data Collector v3.7.2.0data status	okinstallation	B6 Nyhavnadifferential loss correction	single-endedforward channel	channel 2reverse channel	N/Adate	2023/12/08time	17:05:09forward acquisition time	300,00reverse acquisition time	0,00gamma	499,1914k internal	0,3159k external	0,3159temperature offset calibration	1,0000default loss term (dB/km)	0,3820temperature slope calibration	1,0000multiplexer offset coefficient	1,0000multiplexer slope coefficient	1,0000fibre end	0,00T internal ref (°C)	15,15T ext. ref 1 (°C)	-1,38T ext. ref 2 (°C)	-1,39length (m)	temperature (°C)	Stokes	anti-Stokes-744,400	255,259	0,065	-0,082
-743,385	-80,780	-0,334	0,081
-742,371	97,609	0,129	0,109
-741,356	-10,082	-0,135	0,066
-740,342	-93,105	0,040	-0,008
-739,327	-153,109	-0,393	-0,020
-738,312	506,130	0,050	0,086
-737,298	-131,488	-0,389	0,037
-736,283	-200,000	-0,006	0,149
-735,269	-97,943	-0,287	-0,054
-734,254	-20,107	0,092	0,042
-733,239	-81,743	-0,461	-0,110
-732,225	-140,389	0,213	-0,016
-731,210	-72,561	-0,103	0,028
-730,196	-200,000	0,005	-0,022
-729,181	308,970	-0,135	0,186
-728,167	-49,578	-0,179	0,063
-727,152	145,678	0,085	0,084
-726,137	-200,000	-0,023	-0,088
-725,123	285,264	-0,077	-0,103
-724,108	333,926	-0,084	-0,120
-723,094	319,249	-0,178	-0,249
-722,079	128,970	-0,040	0,037
-721,064	-200,000	-0,009	0,067
-720,050	-200,000	-0,013	-0,052
-719,035	-99,527	-0,081	-0,015
-718,021	65,733	0,037	-0,027
-717,006	56,529	-0,080	0,058
-715,991	186,059	-0,059	-0,065
-714,977	-30,375	-0,041	0,017
-713,962	-200,000	0,010	-0,036
-712,948	54,848	0,085	0,060
-711,933	12,012	0,028	0,016
-710,918	-51,842	0,056	-0,019
-709,904	800,000	-0,009	-0,022
-708,889	800,000	-0,021	-0,067
-707,875	-0,374	-0,132	-0,069
-706,860	800,000	0,022	-0,063
-705,845	72,188	0,052	0,040
-704,831	-45,290	0,097	0,035
-703,816	-91,085	-0,130	0,027
-702,802	-17,487	0,136	0,063
-701,787	30,151	-0,067	-0,042
-700,772	145,139	0,092	-0,090
-699,758	74,354	0,067	-0,052
-698,743	402,054	0,071	-0,110
-697,729	-155,351	-0,090	-0,004
-696,714	-200,000	0,007	0,047
-695,699	6,440	-0,081	-0,044
-694,685	-140,845	0,038	-0,003
-693,670	399,014	0,046	-0,070
-692,656	571,678	0,058	0,105
-691,641	-0,113	0,045	-0,023
-690,627	-87,754	0,102	0,022
-689,612	624,417	-0,035	0,065
-688,597	107,979	-0,098	0,086
-687,583	-200,000	0,016	0,087
-686,568	800,000	0,040	0,115
-685,554	2,050	-0,081	-0,043
-684,539	-200,000	0,004	-0,013
-683,524	800,000	0,015	-0,033
-682,510	-91,562	0,185	-0,038
-681,495	800,000	0,021	0,058
-680,481	95,639	-0,040	0,034
-679,466	584,656	0,026	0,047
-678,451	-200,000	0,014	0,063
-677,437	800,000	-0,030	-0,075
-676,422	-200,000	-0,008	-0,053
-675,408	233,268	-0,130	-0,158
-674,393	-64,455	0,132	-0,039
-673,378	372,066	-0,100	-0,150
-672,364	-200,000	-0,021	-0,171
-671,349	800,000	0,056	0,155
-670,335	27,596	-0,206	-0,127
-669,320	-68,519	-0,087	0,025
-668,305	-200,000	-0,048	0,169
-667,291	-27,315	0,060	-0,025
-666,276	-200,000	0,000	0,027
-665,262	800,000	0,034	0,072
-664,247	275,308	-0,066	0,087
-663,232	303,456	0,025	0,035
-662,218	-200,000	0,027	0,124
-661,203	135,573	0,062	-0,059
-660,189	-77,429	-0,229	0,058
-659,174	184,752	-0,033	0,036
-658,159	-87,574	-0,112	-0,025
-657,145	-200,000	0,004	0,016
-656,130	-21,038	0,127	-0,057
-655,116	193,761	-0,050	0,056
-654,101	328,843	-0,019	0,027
-653,086	-69,814	0,048	-0,013
-652,072	-200,000	0,037	0,124
-651,057	7,951	-0,150	0,083
-650,043	-200,000	0,012	-0,104
-649,028	-200,000	0,058	0,203
-648,014	411,295	0,055	-0,086
-646,999	-200,000	0,031	-0,141
-645,984	64,077	0,047	-0,035
-644,970	-191,313	-0,207	0,002
-643,955	800,000	0,011	-0,034
-642,941	-60,367	-0,102	-0,032
-641,926	800,000	0,024	-0,048
-640,911	-200,000	0,017	0,056
-639,897	-126,217	0,073	0,008
-638,882	-200,000	0,001	0,021
-637,868	73,342	-0,182	-0,139
-636,853	-107,254	-0,097	0,015
-635,838	30,550	-0,116	-0,073
-634,824	538,929	-0,102	-0,178
-633,809	-200,000	0,022	0,079
-632,795	-200,000	-0,059	0,000
-631,780	-200,000	0,010	-0,039
-630,765	-146,400	0,096	-0,006
-629,751	-51,192	-0,118	0,040
-628,736	24,598	0,046	-0,028
-627,722	-200,000	0,008	-0,139
-626,707	-125,931	0,069	-0,008
-625,692	-200,000	-0,006	-0,112
-624,678	383,082	-0,034	-0,052
-623,663	102,028	0,007	-0,006
-622,649	-200,000	-0,022	-0,106
-621,634	574,092	-0,094	-0,168
-620,619	190,968	-0,182	-0,202
-619,605	-50,485	-0,143	-0,049
-618,590	45,068	0,023	0,016
-617,576	-145,551	0,092	0,006
-616,561	-200,000	0,025	-0,161
-615,546	-113,822	-0,035	-0,005
-614,532	-200,000	-0,015	0,112
-613,517	-52,023	-0,031	0,011
-612,503	-200,000	0,002	0,027
-611,488	-132,864	0,064	-0,006
-610,474	-178,276	-0,038	0,001
-609,459	-200,000	-0,039	-0,146
-608,444	257,406	0,069	0,088
-607,430	333,337	-0,033	0,047
-606,415	23,496	0,061	-0,037
-605,401	-143,990	-0,146	0,010
-604,386	60,443	-0,025	0,018
-603,371	-8,708	0,124	0,061
-602,357	76,273	0,057	0,044
-601,342	-200,000	0,013	0,059
-600,328	800,000	-0,023	-0,054
-599,313	-200,000	0,023	-0,110
-598,298	800,000	0,014	-0,042
-597,284	511,085	0,040	0,069
-596,269	462,547	0,081	0,133
-595,255	540,887	0,077	-0,134
-594,240	-27,701	0,057	-0,024
-593,225	800,000	0,042	-0,095
-592,211	800,000	-0,019	-0,040
-591,196	-200,000	0,016	-0,068
-590,182	175,757	-0,120	0,127
-589,167	-28,416	0,068	0,029
-588,152	-139,847	0,134	0,010
-587,138	-65,150	-0,014	-0,004
-586,123	800,000	-0,049	-0,111
-585,109	-200,000	0,000	-0,051
-584,094	800,000	0,054	-0,167
-583,079	-109,341	0,117	-0,018
-582,065	245,899	0,032	0,040
-581,050	-116,858	0,200	-0,026
-580,036	-116,517	-0,084	-0,011
-579,021	274,421	-0,080	-0,104
-578,006	800,000	-0,005	-0,011
-576,992	-200,000	-0,019	-0,147
-575,977	-85,474	0,100	0,023
-574,963	493,322	0,034	0,058
-573,948	33,208	0,010	0,006
-572,934	49,028	-0,054	-0,037
-571,919	-134,719	-0,094	-0,008
-570,904	-124,393	0,021	0,002
-569,890	-200,000	0,027	-0,125
-568,875	-200,000	0,011	-0,133
-567,861	-200,000	0,002	-0,014
-566,846	-200,000	-0,002	0,023
-565,831	356,176	-0,022	0,032
-564,817	-37,112	0,136	0,053
-563,802	190,019	-0,149	-0,164
-562,788	87,229	0,054	0,043
-561,773	-155,547	-0,009	-0,000
-560,758	224,603	-0,077	0,091
-559,744	-142,024	0,146	-0,010
-558,729	22,328	0,065	0,039
-557,715	-200,000	0,010	0,074
-556,700	175,159	-0,102	0,109
-555,685	-161,663	-0,109	-0,004
-554,671	800,000	-0,017	0,038
-553,656	-200,000	-0,025	0,082
-552,642	-197,652	0,026	-0,000
-551,627	800,000	-0,035	0,077
-550,612	655,455	0,045	-0,086
-549,598	-200,000	-0,017	-0,068
-548,583	-60,323	-0,042	-0,013
-547,569	162,943	0,047	-0,048
-546,554	-100,672	0,137	-0,024
-545,539	-94,504	-0,094	-0,019
-544,525	-200,000	-0,032	-0,151
-543,510	-15,788	0,089	-0,041
-542,496	-85,824	-0,223	0,050
-541,481	-200,000	-0,002	-0,010
-540,466	-200,000	-0,005	0,116
-539,452	-200,000	-0,007	0,106
-538,437	696,017	0,048	0,092
-537,423	-140,654	0,048	-0,004
-536,408	74,778	-0,099	0,076
-535,393	51,584	-0,125	-0,087
-534,379	800,000	-0,018	0,053
-533,364	122,967	-0,033	-0,030
-532,350	268,773	0,135	0,174
-531,335	800,000	-0,034	0,072
-530,321	-200,000	-0,007	0,060
-529,306	28,506	-0,051	0,031
-528,291	-200,000	0,002	-0,030
-527,277	455,562	-0,082	-0,134
-526,262	244,449	0,023	0,028
-525,248	-200,000	0,015	0,078
-524,233	-200,000	-0,010	0,142
-523,218	800,000	-0,042	0,111
-522,204	-200,000	-0,028	-0,164
-521,189	10,424	-0,150	0,083
-520,175	-200,000	0,001	0,077
-519,160	-200,000	-0,004	-0,108
-518,145	-200,000	-0,004	0,020
-517,131	800,000	0,021	0,052
-516,116	-200,000	0,012	0,120
-515,102	800,000	0,037	0,096
-514,087	-135,782	-0,104	0,009
-513,072	-113,542	0,118	-0,017
-512,058	800,000	-0,048	0,119
-511,043	131,517	-0,057	0,054
-510,029	269,461	0,117	0,150
-509,014	-200,000	-0,015	0,051
-507,999	166,723	-0,035	-0,036
-506,985	160,794	-0,063	-0,064
-505,970	270,598	-0,098	0,126
-504,956	800,000	-0,041	-0,096
-503,941	63,837	0,072	0,053
-502,926	25,537	0,140	-0,085
-501,912	160,643	-0,064	0,065
-500,897	-1,501	0,070	0,036
-499,883	-84,320	-0,112	0,026
-498,868	-200,000	-0,038	-0,125
-497,853	33,668	-0,040	-0,026
-496,839	-200,000	0,008	-0,145
-495,824	-83,737	0,128	-0,029
-494,810	-12,853	0,063	0,030
-493,795	-200,000	-0,032	0,111
-492,781	45,287	0,041	0,028
-491,766	-8,406	0,111	-0,054
-490,751	-200,000	0,042	-0,168
-489,737	117,952	-0,083	-0,074
-488,722	-37,910	0,088	0,034
-487,708	301,605	0,116	0,157
-486,693	800,000	-0,089	0,234
-485,678	125,212	-0,054	-0,050
-484,664	48,437	-0,088	-0,060
-483,649	800,000	-0,025	-0,051
-482,635	-200,000	0,007	-0,048
-481,620	-200,000	-0,039	0,144
-480,605	21,467	0,109	0,065
-479,591	-200,000	0,010	-0,060
-478,576	800,000	-0,018	-0,037
-477,562	-200,000	0,001	0,009
-476,547	-56,287	-0,163	-0,052
-475,532	-0,119	0,075	-0,039
-474,518	309,978	-0,062	0,084
-473,503	-200,000	0,033	0,121
-472,489	580,500	-0,056	-0,101
-471,474	-200,000	0,007	0,064
-470,459	-200,000	-0,007	0,098
-469,445	-89,170	-0,092	0,020
-468,430	-200,000	-0,030	0,150
-467,416	800,000	0,050	0,113
-466,401	800,000	0,033	0,072
-465,386	85,336	0,034	0,027
-464,372	100,598	0,037	0,032
-463,357	730,893	0,027	-0,053
-462,343	-56,785	0,011	0,004
-461,328	-200,000	-0,013	-0,149
-460,313	81,882	0,043	-0,034
-459,299	-50,188	0,075	0,026
-458,284	-145,382	0,089	-0,006
-457,270	800,000	0,043	0,125
-456,255	44,785	-0,143	-0,096
-455,241	-105,028	-0,105	0,017
-454,226	201,310	-0,065	-0,074
-453,211	800,000	-0,026	-0,054
-452,197	-134,868	0,077	0,007
-451,182	396,461	0,163	0,250
-450,168	334,568	0,054	0,077
-449,153	-79,941	-0,091	-0,022
-448,138	-200,000	0,031	0,106
-447,124	74,731	0,065	-0,050
-446,109	-192,040	-0,032	-0,000
-445,095	-115,315	0,164	0,022
-444,080	-143,785	-0,064	-0,004
-443,065	800,000	-0,036	-0,074
-442,051	421,258	-0,085	-0,133
-441,036	-39,699	0,020	-0,008
-440,022	-200,000	0,024	0,104
-439,007	-55,692	-0,096	0,031
-437,992	-200,000	0,021	0,067
-436,978	-107,036	0,055	-0,009
-435,963	182,770	-0,102	-0,110
-434,949	-200,000	0,001	-0,049
-433,934	-94,552	-0,098	-0,019
-432,919	-163,029	0,122	-0,004
-431,905	-46,230	-0,036	-0,013
-430,890	-77,405	0,030	0,008
-429,876	202,511	0,035	-0,040
-428,861	-136,407	0,089	-0,007
-427,846	203,695	0,046	-0,051
-426,832	800,000	0,023	-0,055
-425,817	-200,000	-0,011	-0,075
-424,803	-200,000	0,003	-0,015
-423,788	34,531	0,077	-0,049
-422,773	-95,789	0,044	0,008
-421,759	-200,000	-0,011	0,042
-420,744	-8,427	0,138	0,067
-419,730	36,368	0,143	0,092
-418,715	800,000	0,026	-0,076
-417,701	-55,447	0,027	-0,009
-416,686	-6,793	-0,080	-0,039
-415,671	103,416	0,040	0,034
-414,657	-200,000	-0,005	0,030
-413,642	-200,000	-0,015	-0,145
-412,628	-200,000	0,004	0,125
-411,613	-138,040	-0,141	0,011
-410,598	-122,152	0,053	-0,006
-409,584	-200,000	0,003	0,059
-408,569	111,218	0,066	0,058
-407,555	-200,000	-0,010	0,077
-406,540	800,000	-0,006	0,015
-405,525	-200,000	-0,011	-0,111
-404,511	280,100	0,053	-0,069
-403,496	-200,000	-0,016	0,095
-402,482	637,430	0,060	0,112
-401,467	-106,289	-0,031	0,005
-400,452	246,380	0,035	0,043
-399,438	255,371	-0,072	0,089
-398,423	-111,960	0,156	-0,023
-397,409	800,000	0,041	-0,115
-396,394	-78,690	-0,048	0,012
-395,379	800,000	0,048	0,114
-394,365	800,000	-0,016	-0,047
-393,350	471,160	0,084	0,137
-392,336	-35,330	0,061	-0,024
-391,321	482,546	-0,040	-0,066
-390,306	-128,938	-0,110	0,011
-389,292	-139,175	-0,177	-0,014
-388,277	-100,883	0,112	0,020
-387,263	-157,304	-0,033	-0,001
-386,248	-200,000	-0,012	0,117
-385,233	255,106	-0,055	-0,068
-384,219	-46,781	-0,100	0,035
-383,204	-200,000	-0,028	0,106
-382,190	-89,304	-0,166	-0,035
-381,175	62,335	-0,173	0,125
-380,160	-200,000	-0,028	0,157
-379,146	95,259	0,046	0,038
-378,131	800,000	0,037	-0,106
-377,117	-23,811	-0,072	-0,031
-376,102	213,460	-0,133	-0,153
-375,088	-2,542	-0,144	0,073
-374,073	521,838	-0,015	-0,026
-373,058	200,719	0,108	0,120
-372,044	-200,000	0,025	-0,085
-371,029	-64,485	0,076	0,022
-370,015	-87,638	-0,124	0,027
-369,000	-167,302	-0,098	-0,003
-367,985	-200,000	0,022	-0,200
-366,971	162,066	-0,052	-0,053
-365,956	17,920	-0,083	-0,048
-364,942	-134,317	0,078	0,007
-363,927	-11,613	-0,143	-0,068
-362,912	62,722	0,097	0,070
-361,898	121,451	0,061	-0,055
-360,883	800,000	0,015	0,042
-359,869	-200,000	0,004	0,055
-358,854	800,000	-0,028	-0,067
-357,839	-200,000	-0,035	0,157
-356,825	-200,000	0,022	0,078
-355,810	343,001	0,048	0,069
-354,796	557,391	0,045	-0,079
-353,781	309,779	-0,073	-0,099
-352,766	512,894	0,085	0,144
-351,752	-124,643	-0,026	-0,003
-350,737	-200,000	-0,032	0,222
-349,723	15,214	0,029	0,016
-348,708	464,130	0,052	0,085
-347,693	203,464	-0,085	-0,096
-346,679	-200,000	-0,022	-0,128
-345,664	474,929	0,038	-0,062
-344,650	800,000	0,036	0,099
-343,635	-200,000	-0,013	0,050
-342,620	-193,167	0,122	-0,001
-341,606	213,018	-0,075	0,086
-340,591	118,905	0,056	0,051
-339,577	-157,950	-0,116	-0,005
-338,562	-41,407	0,147	0,055
-337,548	372,108	-0,082	0,121
-336,533	38,409	0,087	0,056
-335,518	-200,000	0,001	-0,050
-334,504	56,150	0,082	-0,058
-333,489	-63,862	-0,105	0,031
-332,475	41,586	-0,088	-0,058
-331,460	-74,579	-0,057	0,015
-330,445	-200,000	-0,097	-0,000
-329,431	-26,355	0,080	0,034
-328,416	378,459	0,054	0,081
-327,402	246,472	-0,079	-0,097
-326,387	153,150	0,086	-0,086
-325,372	-200,000	0,007	-0,086
-324,358	103,453	-0,067	0,057
-323,343	-200,000	-0,014	0,080
-322,329	-200,000	-0,006	0,085
-321,314	-1,705	0,081	-0,041
-320,299	-200,000	0,029	-0,154
-319,285	-94,780	0,058	-0,011
-318,270	-93,483	-0,018	-0,004
-317,256	7,614	0,060	-0,032
-316,241	800,000	-0,049	-0,136
-315,226	800,000	-0,042	-0,089
-314,212	800,000	0,025	-0,056
-313,197	-200,000	0,017	0,076
-312,183	-200,000	-0,014	0,127
-311,168	-54,152	-0,123	-0,040
-310,153	800,000	-0,017	0,051
-309,139	800,000	0,025	-0,061
-308,124	341,740	0,076	0,108
-307,110	577,443	0,062	0,110
-306,095	-200,000	0,024	0,098
-305,080	92,522	0,084	0,069
-304,066	-102,922	0,096	0,016
-303,051	-25,221	-0,084	0,036
-302,037	109,617	0,030	0,026
-301,022	102,268	-0,034	-0,029
-300,008	36,510	0,135	0,086
-298,993	-200,000	0,010	0,072
-297,978	-102,583	-0,068	0,012
-296,964	-200,000	-0,024	-0,125
-295,949	-200,000	-0,004	-0,084
-294,935	800,000	-0,058	-0,134
-293,920	800,000	-0,016	-0,033
-292,905	175,085	0,093	0,098
-291,891	466,396	0,056	0,092
-290,876	800,000	-0,024	-0,075
-289,862	295,677	0,039	-0,052
-288,847	741,466	-0,037	-0,072
-287,832	-200,000	0,004	0,064
-286,818	159,023	-0,027	0,027
-285,803	800,000	0,048	-0,119
-284,789	41,278	0,048	0,031
-283,774	196,358	0,019	-0,021
-282,759	800,000	0,048	-0,104
-281,745	785,514	-0,063	-0,125
-280,730	-173,355	-0,126	-0,003
-279,716	28,272	-0,069	-0,042
-278,701	-200,000	-0,016	0,081
-277,686	1,818	0,017	-0,009
-276,672	-127,696	-0,037	-0,004
-275,657	-200,000	-0,006	0,112
-274,643	-189,993	0,136	0,001
-273,628	687,177	0,009	0,018
-272,613	800,000	0,043	0,094
-271,599	-133,158	0,075	-0,007
-270,584	800,000	0,025	-0,070
-269,570	38,231	0,056	0,036
-268,555	100,615	0,072	-0,061
-267,540	49,666	-0,088	0,060
-266,526	144,041	-0,057	0,055
-265,511	216,938	0,013	0,015
-264,497	77,321	-0,098	-0,075
-263,482	210,566	0,018	-0,021
-262,467	-133,934	0,095	0,008
-261,453	-133,439	0,111	0,010
-260,438	-32,636	-0,138	-0,055
-259,424	-88,588	0,102	0,022
-258,409	-200,000	-0,007	-0,080
-257,395	-200,000	0,025	-0,090
-256,380	73,277	0,051	-0,038
-255,365	-126,195	-0,035	0,004
-254,351	-103,185	-0,038	0,006
-253,336	-200,000	0,009	0,044
-252,322	-200,000	0,021	0,089
-251,307	153,360	-0,057	-0,056
-250,292	-200,000	-0,010	0,092
-249,278	-100,651	-0,053	0,009
-248,263	359,531	0,065	0,095
-247,249	18,393	0,094	-0,054
-246,234	66,700	0,091	0,067
-245,219	-128,308	-0,137	-0,014
-244,205	214,545	-0,103	-0,118
-243,190	-200,000	0,006	0,043
-242,176	-82,435	-0,046	-0,011
-241,161	800,000	-0,022	0,053
-240,146	-67,704	-0,158	0,044
-239,132	-130,965	-0,108	-0,010
-238,117	800,000	0,021	-0,054
-237,103	180,479	-0,045	-0,048
-236,088	800,000	0,027	-0,075
-235,073	-200,000	-0,014	-0,074
-234,059	-200,000	-0,000	0,081
-233,044	-32,139	0,139	0,056
-232,030	-131,011	0,066	-0,006
-231,015	-118,028	-0,141	-0,018
-230,000	134,487	0,050	-0,046
-228,986	-46,023	0,090	-0,032
-227,971	118,572	0,031	0,027
-226,957	515,259	0,039	-0,066
-225,942	-27,084	-0,034	-0,014
-224,927	-18,635	-0,064	0,029
-223,913	-105,127	-0,069	0,011
-222,898	-29,136	-0,073	0,030
-221,884	-82,004	-0,114	0,027
-220,869	-20,906	0,118	-0,052
-219,855	-200,000	0,010	0,070
-218,840	80,798	-0,069	0,053
-217,825	-47,837	-0,101	0,035
-216,811	-58,908	-0,020	-0,006
-215,796	-57,019	-0,031	0,010
-214,782	746,972	0,025	-0,049
-213,767	-31,285	-0,066	0,027
-212,752	-100,844	-0,033	0,006
-211,738	116,620	0,063	0,056
-210,723	-200,000	0,001	-0,138
-209,709	800,000	0,039	0,096
-208,694	-96,741	-0,044	0,008
-207,679	-19,763	-0,041	0,018
-206,665	-200,000	0,005	0,104
-205,650	295,682	-0,042	-0,055
-204,636	-98,534	0,043	0,008
-203,621	800,000	-0,056	0,160
-202,606	-67,505	0,077	-0,022
-201,592	-126,816	-0,032	-0,003
-200,577	-200,000	0,044	-0,144
-199,563	80,893	0,074	0,058
-198,548	-53,720	-0,088	0,029
-197,533	178,665	0,047	0,050
-196,519	7,877	0,193	0,104
-195,504	-142,404	0,119	-0,008
-194,490	-200,000	-0,042	-0,225
-193,475	-200,000	-0,019	-0,108
-192,460	19,667	0,146	0,085
-191,446	-157,118	-0,040	0,002
-190,431	18,185	0,037	0,021
-189,417	70,263	0,054	0,040
-188,402	-148,127	-0,041	-0,002
-187,387	56,642	-0,064	0,045
-186,373	718,419	0,018	0,035
-185,358	87,817	-0,067	0,053
-184,344	174,081	0,063	0,066
-183,329	232,298	0,130	-0,155
-182,315	130,623	-0,113	-0,105
-181,300	-135,527	0,182	-0,015
-180,285	-200,000	0,016	0,109
-179,271	-200,000	-0,006	-0,109
-178,256	246,362	0,060	-0,073
-177,242	98,383	-0,056	-0,046
-176,227	678,927	-0,024	0,044
-175,212	-50,071	-0,080	-0,027
-174,198	-200,000	0,006	0,043
-173,183	800,000	-0,025	0,059
-172,169	384,898	-0,047	0,071
-171,154	-200,000	0,027	-0,134
-170,139	-200,000	-0,007	-0,063
-169,125	40,789	0,046	0,030
-168,110	-200,000	0,006	0,076
-167,096	445,283	0,071	-0,113
-166,081	-200,000	0,009	-0,143
-165,066	800,000	0,018	-0,057
-164,052	800,000	-0,018	-0,040
-163,037	62,321	0,056	0,040
-162,023	800,000	0,050	-0,121
-161,008	-200,000	-0,012	-0,064
-159,993	-200,000	0,044	0,148
-158,979	-200,000	-0,020	0,066
-157,964	140,845	0,088	-0,084
-156,950	-28,100	-0,106	-0,044
-155,935	-200,000	-0,004	-0,136
-154,920	-142,164	0,060	-0,004
-153,906	-200,000	0,000	0,035
-152,891	-53,450	0,110	0,036
-151,877	-200,000	-0,002	-0,030
-150,862	800,000	0,068	-0,149
-149,847	-138,714	0,135	0,010
-148,833	103,273	-0,111	0,094
-147,818	-32,028	0,001	0,000
-146,804	74,077	0,046	0,035
-145,789	-55,979	-0,089	-0,028
-144,775	-200,000	-0,014	0,082
-143,760	-38,946	0,083	-0,031
-142,745	202,846	-0,078	-0,087
-141,731	800,000	-0,057	-0,149
-140,716	46,378	-0,042	-0,028
-139,702	800,000	0,034	0,092
-138,687	800,000	-0,041	0,084
-137,672	78,818	0,081	-0,062
-136,658	45,191	-0,115	0,076
-135,643	305,627	0,033	0,044
-134,629	-131,394	-0,131	-0,012
-133,614	-109,835	0,233	-0,035
-132,599	129,240	0,081	-0,074
-131,585	68,528	-0,123	0,091
-130,570	122,419	0,014	-0,012
-129,556	-135,050	-0,173	0,015
-128,541	138,354	-0,008	-0,008
-127,526	-200,000	-0,013	-0,053
-126,512	800,000	0,018	0,044
-125,497	160,978	-0,015	0,015
-124,483	128,146	-0,132	0,121
-123,468	-18,579	-0,104	0,047
-122,453	132,262	0,080	0,074
-121,439	-117,830	-0,140	0,018
-120,424	290,563	0,071	0,094
