DTS Sentinel unit serial number:	SN410029Multiplexer serial number:	ORYXHardware model number:	OX2-SRSoftware version number:	ORYX F/W v4,00 Oryx Data Collector v3.7.2.0data status	okinstallation	B6 Nyhavnadifferential loss correction	single-endedforward channel	channel 2reverse channel	N/Adate	2023/12/09time	02:30:08forward acquisition time	300,00reverse acquisition time	0,00gamma	499,1914k internal	0,3155k external	0,3155temperature offset calibration	1,0000default loss term (dB/km)	0,3820temperature slope calibration	1,0000multiplexer offset coefficient	1,0000multiplexer slope coefficient	1,0000fibre end	0,00T internal ref (°C)	16,02T ext. ref 1 (°C)	-0,19T ext. ref 2 (°C)	-0,19length (m)	temperature (°C)	Stokes	anti-Stokes-744,400	481,251	0,068	0,115
-743,385	-76,461	-0,389	0,100
-742,371	800,000	0,044	-0,093
-741,356	-161,178	-0,190	0,007
-740,342	461,471	0,110	0,182
-739,327	-129,308	-0,349	0,035
-738,312	-200,000	0,038	-0,145
-737,298	-123,986	-0,203	-0,023
-736,283	96,782	0,095	-0,080
-735,269	33,360	-0,168	0,107
-734,254	9,999	0,098	0,055
-733,239	-77,029	-0,526	-0,134
-732,225	-134,381	0,156	-0,014
-731,210	49,431	0,089	0,062
-730,196	114,875	0,114	0,103
-729,181	-101,133	-0,072	0,013
-728,167	-146,538	0,075	-0,005
-727,152	-92,452	-0,133	0,027
-726,137	800,000	0,006	-0,017
-725,123	-61,370	-0,059	-0,018
-724,108	469,593	-0,080	-0,132
-723,094	-54,013	-0,251	-0,084
-722,079	246,954	-0,068	-0,085
-721,064	-24,302	-0,115	-0,050
-720,050	288,193	-0,112	-0,150
-719,035	335,555	-0,080	-0,115
-718,021	400,789	-0,065	-0,101
-717,006	-30,653	-0,192	-0,080
-715,991	668,209	-0,098	-0,187
-714,977	109,921	-0,031	-0,027
-713,962	-200,000	0,012	-0,195
-712,948	126,381	-0,072	0,067
-711,933	14,947	-0,080	0,046
-710,918	-19,830	-0,029	-0,013
-709,904	-200,000	0,020	-0,087
-708,889	30,793	-0,051	-0,032
-707,875	-46,416	-0,061	-0,022
-706,860	-200,000	0,010	-0,042
-705,845	800,000	-0,019	0,056
-704,831	186,209	0,127	0,140
-703,816	214,152	-0,100	0,117
-702,802	485,737	0,038	-0,063
-701,787	126,661	-0,102	-0,095
-700,772	183,854	0,027	-0,030
-699,758	261,312	-0,012	-0,015
-698,743	-147,972	-0,096	0,006
-697,729	122,925	0,045	-0,041
-696,714	132,751	-0,076	0,073
-695,699	800,000	-0,059	-0,158
-694,685	747,104	-0,053	-0,105
-693,670	-200,000	-0,025	-0,207
-692,656	-200,000	0,042	-0,171
-691,641	-100,537	-0,067	0,012
-690,627	-200,000	0,016	-0,126
-689,612	-101,617	0,064	-0,011
-688,597	68,381	-0,143	-0,108
-687,583	-200,000	-0,001	-0,149
-686,568	-157,698	-0,137	-0,006
-685,554	-200,000	0,000	-0,026
-684,539	-113,538	0,083	0,012
-683,524	258,092	0,098	-0,124
-682,510	800,000	-0,034	-0,085
-681,495	800,000	-0,048	-0,120
-680,481	800,000	-0,026	-0,056
-679,466	-200,000	-0,034	-0,119
-678,451	457,632	0,101	-0,165
-677,437	570,086	0,055	-0,099
-676,422	-54,128	-0,042	0,014
-675,408	-135,046	-0,136	0,012
-674,393	-200,000	-0,007	0,071
-673,378	-200,000	0,000	-0,004
-672,364	-93,958	-0,118	-0,024
-671,349	45,996	-0,055	-0,038
-670,335	-200,000	-0,012	-0,119
-669,320	-90,855	-0,028	0,006
-668,305	109,058	0,102	-0,090
-667,291	-163,168	0,059	-0,002
-666,276	-60,485	-0,120	-0,037
-665,262	-112,898	-0,112	-0,016
-664,247	800,000	-0,016	-0,043
-663,232	599,440	-0,071	-0,130
-662,218	-103,111	0,101	0,017
-661,203	-3,620	-0,029	-0,015
-660,189	-67,326	-0,151	-0,043
-659,174	-200,000	0,007	-0,075
-658,159	800,000	-0,008	-0,022
-657,145	-20,533	-0,101	-0,046
-656,130	-102,901	-0,144	-0,025
-655,116	-47,036	0,110	-0,039
-654,101	581,654	-0,046	-0,084
-653,086	30,148	-0,047	-0,029
-652,072	800,000	-0,023	-0,052
-651,057	119,533	-0,125	-0,114
-650,043	-40,699	0,060	-0,023
-649,028	-24,420	-0,085	0,037
-648,014	-37,958	0,137	0,053
-646,999	247,163	0,052	0,065
-645,984	248,728	-0,024	0,030
-644,970	-153,206	0,062	0,003
-643,955	-5,172	0,047	-0,024
-642,941	-123,648	-0,189	0,022
-641,926	489,341	-0,024	-0,040
-640,911	-103,218	0,129	-0,022
-639,897	-72,160	0,086	0,023
-638,882	-200,000	-0,000	-0,016
-637,868	-200,000	0,009	-0,107
-636,853	-200,000	0,007	0,046
-635,838	201,996	0,062	-0,070
-634,824	-86,445	0,004	0,001
-633,809	-200,000	-0,026	-0,100
-632,795	730,632	-0,019	-0,037
-631,780	307,596	-0,142	0,195
-630,765	297,858	-0,095	0,128
-629,751	-83,042	-0,022	-0,005
-628,736	152,918	-0,045	0,045
-627,722	139,219	-0,084	-0,081
-626,707	-71,713	0,062	-0,017
-625,692	800,000	-0,025	0,062
-624,678	134,949	-0,078	0,074
-623,663	-200,000	0,016	0,059
-622,649	-126,012	-0,027	-0,003
-621,634	-100,828	-0,090	0,016
-620,619	221,726	-0,056	-0,066
-619,605	328,345	0,102	-0,145
-618,590	-200,000	-0,048	0,198
-617,576	-200,000	0,004	-0,077
-616,561	108,615	-0,066	-0,058
-615,546	69,213	0,113	0,085
-614,532	377,483	0,007	0,011
-613,517	-12,637	-0,142	0,068
-612,503	115,217	0,020	-0,018
-611,488	800,000	-0,051	0,125
-610,474	-22,415	0,114	-0,050
-609,459	453,363	-0,038	-0,061
-608,444	-111,080	-0,077	-0,011
-607,430	366,406	-0,049	0,073
-606,415	-65,455	-0,148	-0,043
-605,401	-200,000	0,007	-0,073
-604,386	-145,872	0,039	0,002
-603,371	800,000	-0,052	0,150
-602,357	-33,857	0,034	0,014
-601,342	-126,399	-0,072	-0,008
-600,328	112,258	-0,045	0,040
-599,313	-200,000	0,012	-0,118
-598,298	-36,054	-0,070	-0,028
-597,284	107,801	-0,045	-0,039
-596,269	-200,000	0,041	-0,172
-595,255	-14,029	-0,041	-0,019
-594,240	679,417	-0,071	-0,136
-593,225	-131,410	-0,159	0,015
-592,211	800,000	-0,041	-0,089
-591,196	27,165	-0,148	-0,091
-590,182	-29,750	0,013	-0,005
-589,167	-146,586	0,073	0,005
-588,152	-200,000	0,007	0,044
-587,138	-68,685	0,023	0,007
-586,123	800,000	0,032	-0,069
-585,109	-166,948	0,156	-0,005
-584,094	-168,040	-0,096	0,003
-583,079	-200,000	0,003	-0,038
-582,065	-25,094	0,109	0,047
-581,050	472,311	-0,095	0,158
-580,036	-25,185	0,222	-0,096
-579,021	-200,000	-0,020	-0,083
-578,006	21,176	-0,115	-0,068
-576,992	69,547	0,006	0,005
-575,977	-76,863	0,108	0,027
-574,963	-45,651	0,091	0,033
-573,948	-28,584	0,132	0,056
-572,934	187,931	-0,110	-0,121
-571,919	-61,537	-0,056	-0,017
-570,904	-200,000	-0,007	0,032
-569,890	44,285	-0,023	0,016
-568,875	-36,299	0,025	-0,010
-567,861	-94,296	-0,041	-0,008
-566,846	-200,000	-0,012	-0,045
-565,831	-45,487	-0,062	0,022
-564,817	-200,000	-0,010	-0,032
-563,802	-43,282	-0,018	-0,007
-562,788	121,743	-0,079	-0,072
-561,773	-69,847	-0,090	0,025
-560,758	-200,000	-0,115	0,000
-559,744	6,727	0,080	0,044
-558,729	342,217	-0,069	-0,099
-557,715	-200,000	0,026	-0,136
-556,700	-200,000	0,024	0,085
-555,685	-83,475	-0,059	-0,014
-554,671	501,316	0,071	0,121
-553,656	800,000	-0,005	0,010
-552,642	27,280	0,077	0,047
-551,627	-55,270	-0,114	-0,037
-550,612	-31,014	-0,036	0,015
-549,598	-89,381	-0,193	0,041
-548,583	-200,000	-0,009	-0,031
-547,569	-200,000	-0,004	0,029
-546,554	-179,625	0,094	0,001
-545,539	-92,514	-0,068	-0,014
-544,525	-43,782	0,059	-0,022
-543,510	-200,000	-0,007	-0,068
-542,496	548,976	0,056	-0,098
-541,481	134,447	0,112	0,106
-540,466	800,000	-0,021	0,062
-539,452	-200,000	0,000	0,013
-538,437	193,625	-0,036	0,040
-537,423	800,000	0,039	0,093
-536,408	-200,000	-0,008	0,055
-535,393	-200,000	-0,013	-0,096
-534,379	-200,000	0,008	0,037
-533,364	-43,642	-0,067	-0,025
-532,350	800,000	0,030	-0,072
-531,335	-200,000	-0,021	0,098
-530,321	-29,712	0,095	0,040
-529,306	-87,844	-0,018	-0,004
-528,291	-83,187	0,037	0,009
-527,277	-94,885	-0,089	-0,017
-526,262	381,261	-0,083	0,125
-525,248	280,582	0,020	0,027
-524,233	-42,029	0,089	0,033
-523,218	-200,000	-0,020	-0,148
-522,204	164,374	-0,095	-0,098
-521,189	-77,723	-0,074	0,019
-520,175	-103,868	0,065	-0,011
-519,160	-92,470	-0,075	-0,015
-518,145	-90,259	0,050	0,011
-517,131	139,147	-0,037	-0,035
-516,116	-99,144	0,100	-0,018
-515,102	-200,000	0,013	0,064
-514,087	-167,571	0,017	0,000
-513,072	91,344	0,063	0,052
-512,058	800,000	0,007	-0,022
-511,043	-200,000	-0,001	0,019
-510,029	180,994	0,087	0,094
-509,014	185,703	0,048	-0,052
-507,999	194,415	-0,037	-0,041
-506,985	-200,000	-0,016	0,061
-505,970	-200,000	0,001	-0,095
-504,956	-71,411	-0,021	0,006
-503,941	-81,094	0,189	-0,045
-502,926	-200,000	0,021	-0,081
-501,912	-200,000	-0,020	-0,154
-500,897	-200,000	-0,028	-0,113
-499,883	59,994	0,081	-0,058
-498,868	-52,841	-0,026	0,009
-497,853	34,959	0,134	-0,085
-496,839	-61,071	-0,039	-0,012
-495,824	-98,120	0,082	-0,015
-494,810	93,406	0,092	0,076
-493,795	-53,405	0,197	0,066
-492,781	-200,000	-0,010	-0,080
-491,766	331,669	0,031	-0,043
-490,751	-200,000	-0,016	0,064
-489,737	-200,000	-0,020	-0,110
-488,722	661,377	0,023	-0,043
-487,708	-8,228	-0,078	0,038
-486,693	-200,000	-0,025	0,105
-485,678	-200,000	0,024	0,144
-484,664	-200,000	-0,002	-0,060
-483,649	309,991	-0,104	0,142
-482,635	-200,000	-0,001	0,056
-481,620	-200,000	0,009	-0,121
-480,605	-125,382	-0,039	-0,004
-479,591	-91,957	0,092	0,019
-478,576	-39,157	-0,073	0,028
-477,562	37,524	-0,025	0,016
-476,547	-200,000	-0,031	-0,122
-475,532	97,387	-0,047	0,039
-474,518	217,927	-0,029	-0,033
-473,503	-200,000	-0,007	0,067
-472,489	-200,000	-0,010	0,093
-471,474	60,727	0,168	-0,121
-470,459	-51,431	-0,214	-0,073
-469,445	-200,000	0,006	-0,021
-468,430	-120,362	0,108	0,013
-467,416	36,661	-0,002	0,001
-466,401	185,604	0,086	0,093
-465,386	-61,846	0,036	0,011
-464,372	270,363	-0,020	0,026
-463,357	40,136	0,049	-0,032
-462,343	-81,009	-0,105	-0,025
-461,328	-179,906	-0,032	0,000
-460,313	462,455	0,085	0,139
-459,299	-176,769	0,057	0,001
-458,284	-134,464	0,105	0,009
-457,270	-158,205	-0,141	-0,006
-456,255	118,478	-0,055	0,050
-455,241	-200,000	0,014	0,127
-454,226	24,744	-0,106	-0,064
-453,211	-200,000	0,004	0,062
-452,197	454,195	0,047	-0,077
-451,182	-184,102	0,050	0,001
-450,168	-200,000	-0,020	0,069
-449,153	800,000	0,005	0,011
-448,138	-44,899	-0,087	0,031
-447,124	101,656	0,136	0,115
-446,109	800,000	0,028	-0,084
-445,095	217,411	0,072	0,083
-444,080	-200,000	0,027	0,098
-443,065	608,385	-0,034	-0,062
-442,051	57,495	0,156	0,111
-441,036	-41,847	0,081	-0,030
-440,022	344,459	-0,088	-0,127
-439,007	-200,000	0,015	-0,068
-437,992	-82,413	-0,025	0,006
-436,978	-200,000	-0,030	0,099
-435,963	359,765	0,051	0,075
-434,949	572,599	0,072	-0,128
-433,934	-132,298	0,064	0,006
-432,919	-200,000	-0,015	-0,139
-431,905	-9,047	-0,109	-0,053
-430,890	-200,000	0,026	0,098
-429,876	800,000	0,068	0,145
-428,861	579,640	-0,045	0,081
-427,846	639,178	0,021	0,040
-426,832	-200,000	-0,006	-0,179
-425,817	-200,000	0,014	-0,117
-424,803	-200,000	-0,007	-0,109
-423,788	365,293	0,041	-0,061
-422,773	94,819	0,069	0,058
-421,759	-200,000	0,011	0,103
-420,744	-200,000	-0,022	-0,127
-419,730	35,838	0,087	-0,056
-418,715	266,885	-0,097	-0,123
-417,701	-200,000	-0,031	0,136
-416,686	100,678	0,030	0,026
-415,671	282,957	0,073	0,095
-414,657	60,327	0,086	0,062
-413,642	67,092	-0,060	-0,044
-412,628	105,407	-0,032	-0,028
-411,613	-200,000	-0,025	0,146
-410,598	-132,973	0,107	-0,010
-409,584	-117,451	0,056	0,007
-408,569	800,000	0,039	-0,081
-407,555	-37,268	-0,063	0,025
-406,540	168,366	-0,015	0,015
-405,525	97,700	0,009	-0,007
-404,511	58,489	-0,050	-0,036
-403,496	139,143	0,077	-0,074
-402,482	288,098	0,146	0,192
-401,467	-200,000	-0,053	0,203
-400,452	70,295	0,037	-0,028
-399,438	650,884	0,074	-0,139
-398,423	-200,000	-0,006	0,071
-397,409	-200,000	-0,002	-0,099
-396,394	399,817	0,014	0,021
-395,379	111,076	0,039	-0,034
-394,365	-106,955	-0,065	0,010
-393,350	-200,000	0,003	0,117
-392,336	800,000	0,059	0,188
-391,321	463,579	-0,010	0,016
-390,306	-57,003	-0,078	0,025
-389,292	173,203	-0,037	0,039
-388,277	-118,180	0,035	0,004
-387,263	-90,155	-0,158	-0,033
-386,248	-200,000	0,024	-0,103
-385,233	87,939	0,036	0,029
-384,219	203,764	-0,047	0,054
-383,204	-200,000	0,020	-0,065
-382,190	-200,000	0,002	-0,023
-381,175	30,277	-0,061	-0,038
-380,160	800,000	0,010	-0,031
-379,146	800,000	0,027	-0,056
-378,131	-200,000	-0,004	0,114
-377,117	159,450	0,074	0,075
-376,102	94,378	-0,108	0,089
-375,088	11,968	0,084	0,047
-374,073	-111,002	0,059	-0,009
-373,058	-200,000	-0,041	0,164
-372,044	33,460	0,052	0,033
-371,029	-16,415	0,069	0,032
-370,015	-200,000	0,005	-0,084
-369,000	-98,238	0,075	-0,014
-367,985	606,282	0,085	-0,155
-366,971	800,000	-0,015	-0,049
-365,956	-39,137	-0,084	0,032
-364,942	800,000	-0,086	0,176
-363,927	-200,000	0,026	0,136
-362,912	-39,813	0,153	-0,058
-361,898	-136,727	0,023	-0,002
-360,883	-115,109	-0,099	-0,014
-359,869	-124,066	0,056	-0,006
-358,854	800,000	-0,014	0,034
-357,839	-200,000	-0,046	0,187
-356,825	213,163	-0,022	0,025
-355,810	-200,000	-0,004	-0,031
-354,796	52,195	-0,013	-0,009
-353,781	-46,024	-0,096	0,034
-352,766	-68,204	-0,051	0,014
-351,752	-39,712	-0,136	0,051
-350,737	-138,742	0,145	0,011
-349,723	-58,861	0,142	-0,044
-348,708	327,925	-0,026	-0,036
-347,693	800,000	0,028	-0,059
-346,679	430,615	-0,055	0,086
-345,664	316,109	-0,080	0,110
-344,650	319,683	-0,046	-0,063
-343,635	491,789	-0,041	-0,068
-342,620	-200,000	-0,006	0,107
-341,606	544,375	0,044	0,076
-340,591	225,608	0,060	0,070
-339,577	454,778	-0,037	-0,059
-338,562	144,688	0,052	-0,051
-337,548	800,000	0,040	0,107
-336,533	-200,000	0,004	-0,027
-335,518	-200,000	0,002	0,075
-334,504	800,000	-0,052	0,117
-333,489	49,390	0,115	0,078
-332,475	-110,963	0,099	0,015
-331,460	366,700	-0,039	-0,057
-330,445	-135,269	-0,121	-0,010
-329,431	511,450	0,060	-0,102
-328,416	-200,000	0,001	-0,050
-327,402	800,000	0,013	0,032
-326,387	-200,000	0,003	0,068
-325,372	-38,058	-0,084	0,032
-324,358	-144,950	-0,131	0,009
-323,343	653,230	0,036	0,068
-322,329	800,000	0,034	0,094
-321,314	-200,000	0,012	0,100
-320,299	-173,972	0,119	0,002
-319,285	111,015	0,131	0,115
-318,270	-20,402	0,030	0,013
-317,256	800,000	-0,016	0,048
-316,241	-200,000	0,007	-0,109
-315,226	-200,000	0,001	-0,041
-314,212	-200,000	0,011	0,090
-313,197	25,733	0,069	0,042
-312,183	234,275	0,072	-0,086
-311,168	598,591	0,068	0,123
-310,153	246,742	-0,081	-0,100
-309,139	-6,100	-0,039	0,019
-308,124	-132,170	0,148	-0,014
-307,110	61,668	0,061	-0,044
-306,095	-200,000	-0,006	0,115
-305,080	442,804	0,012	0,019
-304,066	-200,000	-0,042	-0,238
-303,051	-68,078	-0,137	-0,038
-302,037	-13,194	0,037	-0,017
-301,022	-129,349	0,058	-0,006
-300,008	44,486	0,071	-0,047
-298,993	-200,000	-0,004	0,127
-297,978	561,147	-0,080	0,140
-296,964	-200,000	-0,019	-0,063
-295,949	-64,202	0,039	-0,011
-294,935	55,017	-0,172	-0,120
-293,920	-78,208	-0,068	-0,017
-292,905	38,457	0,083	0,053
-291,891	-200,000	0,001	0,047
-290,876	-200,000	0,010	0,051
-289,862	-41,642	0,084	-0,031
-288,847	800,000	-0,037	-0,083
-287,832	-200,000	-0,032	0,103
-286,818	-100,537	-0,126	0,022
-285,803	635,844	-0,015	0,027
-284,789	800,000	0,041	0,086
-283,774	-200,000	-0,011	-0,128
-282,759	-123,224	0,041	0,005
-281,745	115,465	-0,076	-0,068
-280,730	800,000	-0,103	-0,221
-279,716	-200,000	-0,004	-0,079
-278,701	-64,140	0,063	0,018
-277,686	-75,346	0,062	0,016
-276,672	65,510	-0,048	0,035
-275,657	261,908	-0,028	-0,035
-274,643	63,734	-0,096	-0,069
-273,628	-9,384	-0,063	-0,030
-272,613	-132,100	0,148	-0,014
-271,599	98,051	-0,046	0,038
-270,584	-46,704	0,114	-0,040
-269,570	-200,000	0,068	-0,000
-268,555	171,974	0,149	-0,155
-267,540	-0,917	-0,088	0,045
-266,526	25,901	-0,067	-0,041
-265,511	800,000	0,020	-0,062
-264,497	-137,711	-0,044	0,004
-263,482	-200,000	-0,007	-0,026
-262,467	269,960	-0,070	0,089
-261,453	-200,000	0,021	-0,085
-260,438	187,991	-0,123	-0,133
-259,424	-200,000	0,000	0,021
-258,409	41,906	-0,155	0,102
-257,395	-146,684	0,065	0,004
-256,380	-200,000	0,006	0,041
-255,365	-200,000	-0,004	0,027
-254,351	175,805	-0,106	0,111
-253,336	19,549	-0,097	0,056
-252,322	110,914	-0,054	-0,047
-251,307	22,165	-0,069	0,041
-250,292	800,000	-0,048	-0,116
-249,278	131,391	0,026	-0,025
-248,263	-200,000	-0,051	0,173
-247,249	-87,394	-0,113	-0,025
-246,234	130,149	-0,017	-0,016
-245,219	800,000	0,038	0,106
-244,205	-200,000	-0,032	-0,104
-243,190	-139,758	0,044	0,003
-242,176	-77,043	-0,127	0,032
-241,161	-194,756	0,079	-0,000
-240,146	-43,704	-0,028	0,010
-239,132	-200,000	0,020	-0,080
-238,117	-200,000	-0,018	-0,063
-237,103	60,563	-0,099	-0,071
-236,088	800,000	0,047	-0,108
-235,073	182,235	0,058	0,062
-234,059	800,000	0,090	0,205
-233,044	-69,964	0,080	-0,022
-232,030	568,745	-0,061	0,107
-231,015	772,606	0,013	0,025
-230,000	-43,259	0,131	-0,048
-228,986	83,897	-0,038	0,030
-227,971	-125,850	-0,110	0,012
-226,957	-119,837	0,013	-0,002
-225,942	2,227	-0,194	0,101
-224,927	-200,000	0,017	-0,077
-223,913	800,000	-0,039	0,096
-222,898	800,000	0,054	-0,111
-221,884	-200,000	-0,023	-0,085
-220,869	736,171	0,051	0,099
-219,855	-41,890	0,127	-0,047
-218,840	-200,000	-0,004	0,054
-217,825	385,222	0,080	0,120
-216,811	-200,000	0,015	0,085
-215,796	438,234	0,020	0,032
-214,782	-200,000	-0,015	0,114
-213,767	-87,905	0,083	0,018
-212,752	800,000	0,030	-0,061
-211,738	120,380	-0,029	-0,026
-210,723	-175,470	-0,039	-0,001
-209,709	-130,920	-0,114	0,011
-208,694	-200,000	0,011	-0,083
-207,679	595,068	-0,043	-0,078
-206,665	109,164	0,073	-0,063
-205,650	793,214	-0,051	0,102
-204,636	800,000	-0,013	-0,033
-203,621	103,970	-0,088	-0,075
-202,606	-200,000	-0,025	0,113
-201,592	800,000	-0,050	-0,129
-200,577	800,000	0,035	-0,073
-199,563	-200,000	-0,019	-0,187
-198,548	-46,378	0,050	-0,017
-197,533	55,308	0,044	0,031
-196,519	519,441	0,093	0,157
-195,504	800,000	-0,031	-0,078
-194,490	133,905	0,062	0,058
-193,475	-31,386	0,107	-0,043
-192,460	800,000	-0,055	-0,158
-191,446	-161,076	0,165	0,006
-190,431	800,000	0,041	0,097
-189,417	-61,699	0,096	0,029
-188,402	800,000	-0,081	-0,166
-187,387	18,326	-0,124	-0,071
-186,373	-200,000	-0,035	-0,215
-185,358	-200,000	-0,000	-0,067
-184,344	-160,331	0,025	0,001
-183,329	88,538	-0,053	0,042
-182,315	144,050	0,071	-0,068
-181,300	186,619	-0,031	-0,034
-180,285	378,428	-0,115	-0,170
-179,271	-200,000	0,006	-0,072
-178,256	164,651	0,057	-0,058
-177,242	588,670	0,041	-0,074
-176,227	-103,110	0,142	0,024
-175,212	-79,638	-0,106	-0,026
-174,198	213,023	0,073	0,083
-173,183	-87,686	0,070	0,015
-172,169	-124,638	0,088	0,010
-171,154	397,455	-0,061	-0,092
-170,139	-200,000	-0,018	-0,124
-169,125	-115,479	-0,157	0,021
-168,110	-200,000	-0,002	-0,083
-167,096	-200,000	-0,012	0,094
-166,081	-35,177	0,072	0,028
-165,066	763,074	-0,024	0,047
-164,052	12,047	-0,098	0,054
-163,037	1,415	-0,034	0,018
-162,023	-133,496	0,106	-0,010
-161,008	-200,000	0,015	-0,084
-159,993	-200,000	-0,011	0,101
-158,979	-154,351	-0,019	-0,001
-157,964	-51,958	0,125	-0,042
-156,950	18,969	-0,010	-0,006
-155,935	800,000	-0,070	-0,141
-154,920	91,199	-0,090	-0,073
-153,906	-117,455	0,121	0,016
-152,891	784,440	-0,039	0,077
-151,877	-79,350	-0,035	0,008
-150,862	-126,822	0,044	0,005
-149,847	529,342	0,029	0,050
-148,833	101,542	-0,080	-0,067
-147,818	800,000	0,016	0,044
-146,804	-200,000	-0,010	0,096
-145,789	-200,000	0,018	0,091
-144,775	362,968	-0,037	-0,054
-143,760	80,145	0,114	-0,088
-142,745	800,000	-0,049	-0,148
-141,731	800,000	0,035	0,106
-140,716	62,795	0,024	0,018
-139,702	-45,705	0,048	0,017
-138,687	130,202	-0,028	-0,026
-137,672	46,560	-0,046	-0,031
-136,658	763,261	0,081	-0,159
-135,643	800,000	-0,029	0,066
-134,629	96,757	0,080	-0,066
-133,614	-130,972	0,016	0,002
-132,599	69,827	-0,024	0,018
-131,585	762,319	-0,042	0,082
-130,570	-180,118	-0,134	-0,002
-129,556	-200,000	0,019	0,111
-128,541	-200,000	0,011	-0,040
-127,526	-17,902	-0,098	-0,044
-126,512	800,000	-0,025	-0,057
-125,497	-200,000	-0,028	-0,107
-124,483	-200,000	-0,019	0,062
-123,468	49,263	0,003	-0,002
-122,453	-153,025	-0,118	-0,006
