DTS Sentinel unit serial number:	SN410029Multiplexer serial number:	ORYXHardware model number:	OX2-SRSoftware version number:	ORYX F/W v4,00 Oryx Data Collector v3.7.2.0data status	okinstallation	B6 Nyhavnadifferential loss correction	single-endedforward channel	channel 2reverse channel	N/Adate	2023/12/08time	13:40:08forward acquisition time	300,00reverse acquisition time	0,00gamma	499,1914k internal	0,3158k external	0,3158temperature offset calibration	1,0000default loss term (dB/km)	0,3820temperature slope calibration	1,0000multiplexer offset coefficient	1,0000multiplexer slope coefficient	1,0000fibre end	0,00T internal ref (°C)	15,05T ext. ref 1 (°C)	-1,52T ext. ref 2 (°C)	-1,51length (m)	temperature (°C)	Stokes	anti-Stokes-744,400	208,065	0,020	0,023
-743,385	-97,691	-0,300	0,057
-742,371	274,282	0,131	-0,172
-741,356	-59,754	-0,310	0,097
-740,342	110,996	0,162	0,144
-739,327	-153,687	-0,361	-0,018
-738,312	94,692	0,137	0,115
-737,298	-151,751	-0,331	0,018
-736,283	-134,731	0,139	-0,012
-735,269	-10,933	-0,176	-0,085
-734,254	-200,000	-0,005	0,105
-733,239	-128,641	-0,473	0,049
-732,225	297,973	0,118	0,160
-731,210	418,880	0,053	0,084
-730,196	233,944	0,067	0,081
-729,181	-200,000	0,007	-0,065
-728,167	-48,878	0,033	0,012
-727,152	-186,949	0,148	-0,001
-726,137	-155,668	-0,069	-0,003
-725,123	800,000	-0,054	-0,116
-724,108	-90,123	0,154	0,033
-723,094	-129,078	-0,225	-0,023
-722,079	-14,906	-0,144	-0,068
-721,064	15,254	0,073	-0,042
-720,050	50,804	0,094	-0,066
-719,035	111,796	-0,056	-0,049
-718,021	371,869	-0,026	-0,039
-717,006	800,000	-0,037	-0,116
-715,991	46,709	-0,186	-0,127
-714,977	79,983	-0,064	-0,050
-713,962	800,000	-0,076	-0,165
-712,948	-8,306	-0,060	0,030
-711,933	-92,504	0,147	0,030
-710,918	-109,598	-0,143	-0,022
-709,904	59,298	-0,116	0,084
-708,889	-10,495	-0,212	-0,103
-707,875	-200,000	0,022	-0,226
-706,860	-0,449	0,075	-0,039
-705,845	72,280	-0,064	0,049
-704,831	-200,000	0,022	0,096
-703,816	324,584	-0,090	-0,128
-702,802	233,790	0,028	-0,034
-701,787	800,000	-0,072	-0,164
-700,772	133,916	-0,047	0,045
-699,758	-74,968	-0,039	0,010
-698,743	-200,000	0,012	0,061
-697,729	-139,331	-0,066	-0,005
-696,714	-200,000	0,003	0,058
-695,699	-200,000	0,015	0,062
-694,685	44,285	-0,060	-0,040
-693,670	213,772	0,071	-0,083
-692,656	800,000	-0,012	-0,033
-691,641	-200,000	-0,008	-0,032
-690,627	102,921	-0,010	0,009
-689,612	170,765	-0,046	-0,048
-688,597	37,375	-0,064	0,042
-687,583	-200,000	-0,015	-0,068
-686,568	-123,953	0,065	0,007
-685,554	27,244	-0,074	-0,045
-684,539	532,373	-0,029	-0,051
-683,524	800,000	-0,053	0,123
-682,510	-200,000	0,008	0,057
-681,495	-143,669	-0,059	0,004
-680,481	1,755	-0,043	-0,023
-679,466	-0,348	-0,032	0,016
-678,451	-200,000	0,000	-0,024
-677,437	-23,112	-0,084	0,037
-676,422	-27,426	-0,128	-0,054
-675,408	-89,948	0,033	-0,007
-674,393	15,693	-0,084	0,048
-673,378	50,104	-0,091	0,063
-672,364	270,088	-0,104	0,134
-671,349	-200,000	-0,019	-0,068
-670,335	508,706	0,040	-0,069
-669,320	-82,330	-0,133	0,032
-668,305	-200,000	0,009	0,109
-667,291	53,350	0,041	0,029
-666,276	800,000	-0,071	-0,168
-665,262	800,000	-0,016	-0,044
-664,247	-78,987	-0,186	-0,046
-663,232	-168,021	0,117	0,003
-662,218	800,000	-0,036	0,091
-661,203	800,000	-0,026	0,078
-660,189	800,000	0,011	-0,033
-659,174	-200,000	0,043	-0,148
-658,159	800,000	0,031	-0,094
-657,145	3,293	-0,039	-0,021
-656,130	-200,000	0,007	0,116
-655,116	-49,173	-0,144	-0,050
-654,101	-200,000	0,007	-0,033
-653,086	372,558	-0,058	-0,086
-652,072	-10,987	-0,059	-0,028
-651,057	-61,835	-0,146	-0,044
-650,043	242,245	-0,025	-0,030
-649,028	10,219	-0,073	0,041
-648,014	-92,551	-0,120	-0,025
-646,999	-56,117	-0,119	0,039
-645,984	-200,000	-0,014	0,063
-644,970	-200,000	-0,036	-0,116
-643,955	283,746	-0,138	-0,183
-642,941	211,361	-0,107	0,124
-641,926	-200,000	-0,016	-0,149
-640,911	433,766	-0,042	0,067
-639,897	800,000	-0,041	0,096
-638,882	-200,000	-0,005	-0,065
-637,868	-200,000	0,002	0,112
-636,853	153,804	-0,050	-0,051
-635,838	-76,531	-0,100	-0,026
-634,824	612,523	-0,073	-0,135
-633,809	-81,141	0,098	-0,024
-632,795	48,971	0,068	0,046
-631,780	-200,000	-0,025	0,099
-630,765	-200,000	0,012	-0,083
-629,751	213,287	-0,058	-0,067
-628,736	-200,000	0,022	-0,103
-627,722	17,954	-0,043	-0,025
-626,707	-200,000	0,008	0,180
-625,692	233,931	-0,072	0,087
-624,678	-24,570	0,066	0,029
-623,663	25,225	-0,031	0,019
-622,649	578,009	0,053	-0,095
-621,634	125,177	-0,180	-0,167
-620,619	292,990	-0,028	0,037
-619,605	-103,004	0,102	0,018
-618,590	800,000	0,050	-0,104
-617,576	-200,000	-0,010	0,035
-616,561	-159,486	0,085	-0,003
-615,546	47,988	0,063	0,043
-614,532	-179,138	-0,018	-0,000
-613,517	-200,000	0,003	-0,056
-612,503	-36,594	0,107	0,042
-611,488	-156,573	0,115	-0,005
-610,474	-17,307	0,172	0,079
-609,459	-54,541	-0,117	-0,039
-608,444	-200,000	0,019	-0,093
-607,430	351,520	-0,061	-0,089
-606,415	225,077	0,060	-0,072
-605,401	473,061	-0,063	0,104
-604,386	521,913	-0,039	-0,067
-603,371	-66,236	0,131	-0,038
-602,357	-106,466	0,113	0,018
-601,342	344,871	0,045	-0,065
-600,328	292,498	-0,125	-0,168
-599,313	-100,412	0,032	-0,006
-598,298	112,857	-0,120	-0,107
-597,284	56,727	0,058	-0,042
-596,269	-200,000	-0,016	0,072
-595,255	-128,135	0,038	0,004
-594,240	-200,000	0,017	0,092
-593,225	-84,639	-0,133	0,030
-592,211	-200,000	0,019	-0,162
-591,196	-200,000	-0,007	-0,084
-590,182	3,522	0,092	0,049
-589,167	239,132	-0,072	-0,088
-588,152	-99,386	0,035	0,006
-587,138	800,000	0,045	-0,121
-586,123	270,525	0,054	-0,070
-585,109	63,964	-0,075	-0,055
-584,094	252,477	0,067	-0,084
-583,079	-117,397	-0,066	-0,009
-582,065	24,531	0,123	0,074
-581,050	800,000	-0,014	-0,044
-580,036	47,735	-0,091	-0,062
-579,021	-168,298	-0,045	-0,001
-578,006	-27,681	0,122	-0,052
-576,992	-75,708	0,135	0,035
-575,977	-111,600	-0,069	0,010
-574,963	533,372	-0,046	0,080
-573,948	-53,967	-0,128	0,042
-572,934	800,000	0,030	-0,075
-571,919	91,958	-0,108	-0,089
-570,904	-200,000	-0,010	-0,038
-569,890	-200,000	0,017	0,059
-568,875	67,551	0,060	-0,045
-567,861	19,746	-0,068	0,040
-566,846	201,184	0,076	0,086
-565,831	-109,746	-0,078	0,012
-564,817	-100,462	-0,142	0,026
-563,802	680,209	0,089	-0,170
-562,788	183,335	0,058	-0,063
-561,773	730,546	0,046	0,089
-560,758	295,282	0,031	0,042
-559,744	313,669	0,012	-0,017
-558,729	-200,000	-0,012	-0,072
-557,715	800,000	0,033	0,067
-556,700	566,638	-0,016	-0,029
-555,685	242,362	-0,043	-0,053
-554,671	-98,646	-0,033	0,006
-553,656	-200,000	0,007	0,139
-552,642	-200,000	-0,013	0,059
-551,627	337,287	0,125	0,179
-550,612	408,849	-0,073	0,113
-549,598	-200,000	-0,035	-0,118
-548,583	-200,000	0,040	-0,154
-547,569	473,503	-0,089	-0,147
-546,554	800,000	0,017	-0,041
-545,539	709,752	0,049	0,095
-544,525	501,907	-0,044	0,075
-543,510	-190,157	-0,064	-0,001
-542,496	800,000	0,008	0,019
-541,481	-200,000	-0,004	0,128
-540,466	-111,881	0,237	-0,035
-539,452	141,552	0,010	-0,010
-538,437	122,002	0,068	0,062
-537,423	800,000	0,035	0,096
-536,408	700,331	0,066	0,128
-535,393	800,000	0,033	0,069
-534,379	-101,700	0,111	0,019
-533,364	800,000	0,040	-0,128
-532,350	131,865	0,126	0,119
-531,335	312,619	0,038	0,052
-530,321	43,625	-0,060	0,040
-529,306	264,885	-0,101	0,129
-528,291	471,488	0,071	0,116
-527,277	411,598	-0,021	0,033
-526,262	-200,000	0,013	-0,063
-525,248	-57,720	0,114	0,036
-524,233	-129,599	0,121	-0,012
-523,218	-91,698	0,065	0,013
-522,204	-85,910	0,084	0,019
-521,189	4,320	-0,143	-0,077
-520,175	40,352	-0,104	-0,068
-519,160	144,735	-0,057	0,056
-518,145	252,814	0,059	0,074
-517,131	12,472	-0,033	-0,019
-516,116	-157,664	-0,087	0,004
-515,102	-50,899	-0,088	0,030
-514,087	796,194	-0,009	0,017
-513,072	338,315	-0,057	-0,081
-512,058	285,369	0,052	-0,068
-511,043	26,494	-0,130	-0,079
-510,029	-200,000	-0,012	-0,096
-509,014	322,404	-0,013	-0,019
-507,999	800,000	0,069	-0,143
-506,985	115,711	0,064	0,057
-505,970	-200,000	0,010	-0,137
-504,956	-200,000	-0,002	-0,020
-503,941	800,000	-0,061	0,172
-502,926	60,510	0,107	0,077
-501,912	146,715	-0,048	-0,048
-500,897	235,312	0,061	-0,074
-499,883	-200,000	0,009	-0,037
-498,868	42,383	-0,099	-0,065
-497,853	184,364	0,038	-0,042
-496,839	-67,259	0,058	-0,017
-495,824	19,355	0,018	-0,010
-494,810	-82,285	0,117	-0,028
-493,795	347,304	-0,042	0,061
-492,781	42,888	-0,085	0,056
-491,766	80,682	-0,040	-0,032
-490,751	800,000	-0,069	-0,147
-489,737	-3,803	0,092	0,046
-488,722	-19,660	0,137	0,062
-487,708	-25,172	0,098	0,042
-486,693	-200,000	-0,006	0,109
-485,678	-200,000	-0,009	-0,078
-484,664	-68,940	-0,071	-0,020
-483,649	-12,777	0,028	0,013
-482,635	-168,199	0,112	-0,003
-481,620	403,868	-0,068	-0,105
-480,605	105,653	0,104	0,089
-479,591	-84,628	0,007	-0,002
-478,576	800,000	-0,027	0,064
-477,562	-200,000	-0,009	0,040
-476,547	800,000	0,035	-0,075
-475,532	416,986	0,036	-0,056
-474,518	-200,000	0,022	0,099
-473,503	-19,123	-0,058	0,026
-472,489	-86,479	0,013	-0,003
-471,474	-74,027	-0,114	0,030
-470,459	32,518	0,023	-0,014
-469,445	-200,000	-0,035	0,115
-468,430	800,000	-0,052	-0,138
-467,416	49,750	0,053	0,036
-466,401	-165,645	0,029	0,001
-465,386	119,389	-0,102	0,092
-464,372	-200,000	-0,025	-0,171
-463,357	-27,315	-0,122	-0,052
-462,343	179,535	-0,058	-0,062
-461,328	-97,554	0,132	-0,025
-460,313	116,804	-0,113	-0,101
-459,299	-43,195	-0,068	0,025
-458,284	130,200	-0,145	-0,135
-457,270	363,887	-0,028	0,041
-456,255	-56,208	-0,070	0,023
-455,241	411,304	-0,053	-0,082
-454,226	-130,951	0,082	-0,008
-453,211	27,990	-0,039	-0,024
-452,197	-34,536	-0,056	0,022
-451,182	243,622	0,043	0,053
-450,168	45,714	0,070	0,047
-449,153	-147,522	0,169	-0,010
-448,138	158,248	-0,067	-0,068
-447,124	0,212	0,067	0,035
-446,109	-115,542	0,012	-0,002
-445,095	-31,442	0,145	-0,059
-444,080	13,836	-0,058	-0,033
-443,065	-200,000	0,001	0,045
-442,051	81,711	-0,084	0,066
-441,036	-200,000	-0,006	-0,082
-440,022	-42,703	0,033	0,012
-439,007	739,015	-0,066	-0,129
-437,992	165,032	-0,022	0,022
-436,978	800,000	0,041	0,100
-435,963	163,921	0,057	0,058
-434,949	124,136	0,044	-0,040
-433,934	367,377	-0,034	0,050
-432,919	800,000	0,012	-0,027
-431,905	-80,864	-0,163	-0,039
-430,890	800,000	0,042	0,130
-429,876	16,575	0,148	0,085
-428,861	-200,000	-0,030	0,105
-427,846	65,138	-0,036	-0,026
-426,832	-89,724	0,086	0,018
-425,817	-117,241	-0,127	0,017
-424,803	-163,879	0,031	-0,001
-423,788	-17,240	0,091	-0,041
-422,773	-40,953	0,092	0,034
-421,759	328,623	0,060	-0,084
-420,744	800,000	0,009	0,023
-419,730	286,839	-0,025	0,034
-418,715	113,445	0,021	0,019
-417,701	-5,477	-0,078	-0,039
-416,686	35,191	0,163	0,104
-415,671	510,974	0,058	0,098
-414,657	800,000	0,036	0,091
-413,642	800,000	-0,032	0,092
-412,628	-200,000	0,024	0,000
-411,613	311,030	-0,063	0,086
-410,598	-37,085	0,074	-0,029
-409,584	-200,000	-0,005	0,159
-408,569	-140,238	-0,061	-0,005
-407,555	510,664	0,090	0,152
-406,540	337,998	0,077	0,109
-405,525	-200,000	-0,009	-0,035
-404,511	-72,355	-0,110	0,029
-403,496	-89,968	-0,094	-0,020
-402,482	136,534	-0,087	0,082
-401,467	-200,000	-0,005	-0,102
-400,452	151,775	-0,019	0,019
-399,438	9,955	-0,062	0,034
-398,423	658,447	0,077	-0,146
-397,409	-136,073	-0,129	0,011
-396,394	-51,666	0,035	-0,012
-395,379	-200,000	-0,014	0,142
-394,365	-31,180	0,008	-0,003
-393,350	-144,566	0,066	-0,004
-392,336	120,969	0,083	-0,075
-391,321	291,337	-0,038	0,050
-390,306	244,854	0,084	-0,103
-389,292	100,942	-0,166	-0,140
-388,277	376,023	0,035	0,052
-387,263	-89,591	0,083	0,018
-386,248	109,084	-0,024	0,020
-385,233	-200,000	-0,033	0,117
-384,219	-136,396	-0,161	-0,013
-383,204	365,489	-0,086	-0,127
-382,190	777,118	0,060	-0,120
-381,175	800,000	0,043	-0,102
-380,160	800,000	0,039	0,084
-379,146	64,272	-0,061	0,044
-378,131	-32,491	0,047	-0,019
-377,117	-42,397	-0,142	-0,052
-376,102	772,626	-0,036	0,072
-375,088	-148,509	0,150	0,009
-374,073	800,000	-0,023	-0,072
-373,058	-200,000	-0,013	0,088
-372,044	169,052	0,070	0,072
-371,029	55,409	0,087	-0,061
-370,015	-28,690	0,076	0,032
-369,000	-30,292	0,042	0,017
-367,985	-200,000	-0,011	0,036
-366,971	-79,234	-0,086	-0,021
-365,956	154,585	0,035	-0,035
-364,942	157,331	0,092	0,093
-363,927	-200,000	-0,018	0,080
-362,912	-159,518	0,069	0,003
-361,898	558,636	-0,037	0,065
-360,883	-58,461	0,055	-0,017
-359,869	-200,000	0,001	0,009
-358,854	-151,397	0,047	0,003
-357,839	92,616	0,095	0,078
-356,825	800,000	0,048	0,154
-355,810	11,291	0,169	0,093
-354,796	-91,688	-0,054	-0,011
-353,781	757,234	0,026	0,051
-352,766	800,000	0,045	0,096
-351,752	135,432	0,117	0,110
-350,737	-200,000	-0,003	-0,012
-349,723	-13,945	-0,030	0,014
-348,708	-200,000	-0,003	0,092
-347,693	336,850	-0,042	-0,059
-346,679	-200,000	0,026	0,000
-345,664	-200,000	-0,002	0,017
-344,650	800,000	0,047	-0,150
-343,635	98,723	-0,029	-0,024
-342,620	-49,366	0,150	0,052
-341,606	1,516	0,132	-0,069
-340,591	61,461	-0,082	-0,059
-339,577	791,339	0,048	0,095
-338,562	-200,000	-0,002	-0,058
-337,548	-85,433	-0,087	0,020
-336,533	422,563	0,086	-0,135
-335,518	800,000	-0,021	0,065
-334,504	165,798	-0,084	-0,086
-333,489	141,326	-0,060	-0,058
-332,475	-165,380	-0,109	0,003
-331,460	800,000	-0,041	-0,090
-330,445	-200,000	0,011	-0,158
-329,431	-21,840	0,054	-0,024
-328,416	800,000	-0,021	0,048
-327,402	-55,642	0,058	0,019
-326,387	-81,891	0,002	-0,000
-325,372	800,000	0,029	0,076
-324,358	-200,000	0,036	-0,117
-323,343	127,384	0,008	-0,007
-322,329	-153,692	0,048	-0,002
-321,314	78,426	0,015	-0,011
-320,299	317,989	0,037	0,051
-319,285	-200,000	0,021	0,072
-318,270	-36,592	-0,035	0,013
-317,256	-55,323	-0,121	-0,039
-316,241	-148,589	-0,202	-0,012
-315,226	-2,771	-0,041	0,021
-314,212	-43,101	0,141	0,051
-313,197	-37,200	-0,096	0,037
-312,183	-109,433	0,168	0,025
-311,168	-52,871	-0,045	-0,015
-310,153	-200,000	0,002	-0,079
-309,139	-181,091	-0,066	-0,001
-308,124	203,015	0,096	0,107
-307,110	-114,513	0,110	-0,015
-306,095	49,334	0,102	-0,069
-305,080	70,176	-0,040	-0,030
-304,066	-93,076	0,150	0,030
-303,051	44,819	-0,054	-0,036
-302,037	-117,658	0,036	-0,005
-301,022	273,955	-0,069	-0,088
-300,008	-200,000	0,005	0,096
-298,993	96,387	-0,037	-0,031
-297,978	-77,030	-0,087	0,022
-296,964	800,000	0,038	0,088
-295,949	800,000	-0,013	-0,027
-294,935	582,694	0,049	-0,088
-293,920	800,000	0,053	-0,116
-292,905	-17,153	0,067	0,030
-291,891	-200,000	-0,029	0,111
-290,876	509,898	0,070	-0,118
-289,862	-200,000	-0,014	-0,046
-288,847	-14,224	-0,189	-0,088
-287,832	65,435	0,031	0,023
-286,818	800,000	-0,066	-0,152
-285,803	-200,000	-0,019	0,094
-284,789	-141,986	0,052	0,004
-283,774	-101,251	0,136	-0,024
-282,759	-68,440	-0,104	0,029
-281,745	-200,000	0,006	0,108
-280,730	-200,000	0,019	-0,062
-279,716	-200,000	0,007	0,039
-278,701	-200,000	-0,003	-0,070
-277,686	-62,977	-0,093	0,028
-276,672	-118,995	0,130	0,016
-275,657	800,000	-0,013	-0,028
-274,643	90,505	-0,059	0,048
-273,628	19,135	-0,191	-0,111
-272,613	645,876	0,019	-0,036
-271,599	-200,000	-0,028	-0,089
-270,584	189,561	-0,083	0,091
-269,570	572,112	0,069	0,122
-268,555	275,612	-0,081	-0,104
-267,540	589,359	-0,040	0,071
-266,526	13,659	-0,096	-0,054
-265,511	-70,521	0,107	0,029
-264,497	363,132	0,056	0,082
-263,482	300,148	0,047	0,063
-262,467	-200,000	-0,032	0,122
-261,453	89,710	-0,030	0,024
-260,438	-115,718	-0,114	-0,015
-259,424	382,234	0,049	-0,074
-258,409	178,579	-0,022	0,023
-257,395	800,000	0,018	-0,038
-256,380	800,000	-0,031	-0,080
-255,365	-200,000	-0,020	0,131
-254,351	-200,000	0,011	0,053
-253,336	-113,760	-0,118	-0,016
-252,322	800,000	0,037	0,075
-251,307	800,000	0,066	-0,192
-250,292	41,527	0,077	0,050
-249,278	-139,447	0,097	-0,007
-248,263	-200,000	-0,013	0,046
-247,249	225,912	-0,033	0,039
-246,234	190,842	-0,013	-0,014
-245,219	130,126	-0,060	0,055
-244,205	-49,669	-0,106	0,036
-243,190	800,000	-0,022	0,068
-242,176	-177,497	0,060	-0,001
-241,161	-200,000	-0,005	0,023
-240,146	-57,617	-0,128	-0,040
-239,132	25,533	0,065	-0,039
-238,117	515,401	-0,047	-0,080
-237,103	437,639	-0,061	-0,096
-236,088	682,101	-0,063	-0,119
-235,073	-152,325	-0,134	0,007
-234,059	-200,000	0,001	-0,073
-233,044	369,431	-0,069	-0,101
-232,030	75,180	-0,062	-0,047
-231,015	800,000	-0,045	-0,095
-230,000	116,919	0,054	-0,048
-228,986	800,000	-0,027	-0,077
-227,971	-200,000	-0,002	0,142
-226,957	-24,494	0,095	0,041
-225,942	-200,000	-0,017	-0,084
-224,927	327,971	-0,110	0,153
-223,913	-106,819	-0,147	-0,023
-222,898	-155,020	-0,025	-0,001
-221,884	800,000	0,009	0,021
-220,869	383,857	0,031	0,046
-219,855	167,111	0,117	0,120
-218,840	74,218	0,042	0,032
-217,825	353,775	-0,031	-0,044
-216,811	-142,198	0,045	0,003
-215,796	398,783	-0,021	0,031
-214,782	637,403	-0,046	-0,084
-213,767	632,110	-0,019	0,035
-212,752	-200,000	-0,020	0,083
-211,738	-200,000	-0,004	0,089
-210,723	-100,924	0,105	0,019
-209,709	-190,861	-0,049	0,000
-208,694	56,555	-0,052	0,037
-207,679	-200,000	0,000	-0,078
-206,665	69,508	0,136	-0,101
-205,650	-200,000	-0,005	-0,105
-204,636	185,117	0,089	-0,095
-203,621	719,647	-0,039	-0,074
-202,606	-142,171	-0,128	0,009
-201,592	-61,208	-0,062	-0,019
-200,577	-110,525	-0,079	-0,012
-199,563	-200,000	0,007	0,047
-198,548	-59,775	0,072	-0,022
-197,533	6,991	-0,070	0,038
-196,519	-56,313	-0,058	0,018
-195,504	87,304	0,040	-0,032
-194,490	-112,131	-0,026	-0,004
-193,475	-165,935	-0,123	0,004
-192,460	223,174	-0,062	-0,072
-191,446	-66,705	0,103	0,029
-190,431	-200,000	0,000	0,001
-189,417	581,315	0,059	0,104
-188,402	141,016	0,040	-0,038
-187,387	225,600	-0,096	-0,112
-186,373	-200,000	-0,016	0,057
-185,358	228,836	0,040	-0,047
-184,344	800,000	0,050	0,128
-183,329	-103,040	0,055	0,009
-182,315	-85,199	-0,036	0,008
-181,300	760,203	0,044	-0,087
-180,285	222,828	-0,020	0,024
-179,271	-17,931	-0,080	-0,036
-178,256	-200,000	-0,016	0,217
-177,242	145,093	0,027	0,026
-176,227	-200,000	-0,004	0,017
-175,212	737,614	0,043	-0,083
-174,198	-200,000	-0,004	-0,013
-173,183	82,535	-0,051	0,040
-172,169	24,195	-0,096	-0,057
-171,154	-170,162	-0,123	0,003
-170,139	-27,216	0,028	-0,012
-169,125	704,346	0,059	0,112
-168,110	-159,624	0,054	-0,002
-167,096	101,675	-0,043	-0,036
-166,081	800,000	-0,070	-0,147
-165,066	-113,559	0,052	0,007
-164,052	-11,666	-0,051	0,024
-163,037	585,468	0,041	0,073
-162,023	689,594	0,037	0,071
-161,008	147,211	-0,074	0,072
-159,993	-200,000	0,019	0,097
-158,979	-73,546	-0,064	-0,017
-157,964	86,956	0,054	-0,043
-156,950	449,740	0,041	-0,066
-155,935	210,569	0,076	-0,086
-154,920	-200,000	0,002	0,144
-153,906	26,748	0,188	0,113
-152,891	376,652	0,089	0,131
-151,877	800,000	-0,013	-0,030
-150,862	-200,000	-0,015	-0,088
-149,847	81,158	-0,116	-0,090
-148,833	148,024	-0,044	0,043
-147,818	800,000	-0,034	-0,081
-146,804	230,339	0,074	0,087
-145,789	800,000	-0,022	0,061
-144,775	-141,816	-0,120	-0,008
-143,760	206,641	0,040	-0,044
-142,745	249,558	-0,072	0,088
-141,731	348,783	-0,045	-0,063
-140,716	70,138	-0,101	-0,075
-139,702	800,000	0,024	0,071
-138,687	-60,293	-0,071	0,022
-137,672	329,379	-0,055	-0,076
-136,658	-115,757	-0,124	-0,017
-135,643	60,346	-0,090	-0,064
-134,629	-99,948	0,133	0,024
-133,614	733,208	-0,083	0,160
-132,599	106,120	-0,108	0,092
-131,585	-200,000	-0,009	0,125
-130,570	-54,715	-0,060	0,019
-129,556	-17,188	0,104	0,047
-128,541	-147,016	-0,115	-0,007
-127,526	754,957	-0,061	-0,119
-126,512	95,434	-0,042	0,034
-125,497	164,657	0,056	-0,057
-124,483	-71,302	0,106	-0,028
-123,468	800,000	-0,008	0,020
-122,453	217,919	-0,100	-0,115
-121,439	415,316	0,067	-0,104
-120,424	329,642	-0,009	-0,013
-119,410	29,234	-0,130	-0,079
