DTS Sentinel unit serial number:	SN410029Multiplexer serial number:	ORYXHardware model number:	OX2-SRSoftware version number:	ORYX F/W v4,00 Oryx Data Collector v3.7.2.0data status	okinstallation	B6 Nyhavnadifferential loss correction	single-endedforward channel	channel 2reverse channel	N/Adate	2023/12/07time	18:15:08forward acquisition time	300,00reverse acquisition time	0,00gamma	499,1914k internal	0,3164k external	0,3164temperature offset calibration	1,0000default loss term (dB/km)	0,3820temperature slope calibration	1,0000multiplexer offset coefficient	1,0000multiplexer slope coefficient	1,0000fibre end	0,00T internal ref (°C)	14,31T ext. ref 1 (°C)	-2,69T ext. ref 2 (°C)	-2,70length (m)	temperature (°C)	Stokes	anti-Stokes-744,400	-64,525	0,099	0,029
-743,385	-35,474	-0,361	-0,143
-742,371	-57,165	0,303	-0,098
-741,356	-100,978	-0,275	0,049
-740,342	423,391	0,028	-0,044
-739,327	-81,638	-0,332	0,079
-738,312	-200,000	-0,003	0,065
-737,298	-98,662	-0,245	-0,046
-736,283	270,300	0,091	0,118
-735,269	-84,470	-0,238	0,055
-734,254	155,876	-0,057	0,058
-733,239	-31,321	-0,468	-0,193
-732,225	95,767	0,068	0,057
-731,210	326,060	-0,019	0,027
-730,196	-110,106	-0,037	-0,006
-729,181	156,887	-0,107	-0,109
-728,167	160,030	-0,100	0,102
-727,152	-20,083	-0,136	0,061
-726,137	627,773	-0,044	0,082
-725,123	686,490	-0,028	-0,054
-724,108	14,182	0,005	0,003
-723,094	51,614	-0,232	-0,162
-722,079	-92,605	-0,116	-0,024
-721,064	400,069	-0,036	0,056
-720,050	-139,646	-0,078	0,006
-719,035	481,196	0,061	0,102
-718,021	800,000	0,028	0,077
-717,006	438,505	-0,046	-0,074
-715,991	267,364	0,044	-0,057
-714,977	-200,000	0,017	0,126
-713,962	-160,903	0,054	-0,002
-712,948	-71,387	-0,083	0,023
-711,933	-45,601	-0,088	0,032
-710,918	-200,000	-0,005	0,083
-709,904	534,554	-0,029	0,050
-708,889	-161,079	-0,097	0,004
-707,875	-95,174	-0,225	-0,044
-706,860	4,943	0,030	-0,016
-705,845	198,885	0,045	-0,051
-704,831	320,723	-0,052	-0,073
-703,816	58,685	-0,091	-0,066
-702,802	461,267	-0,010	-0,017
-701,787	368,596	0,109	-0,163
-700,772	-200,000	-0,003	-0,032
-699,758	800,000	0,049	-0,099
-698,743	218,670	0,071	0,084
-697,729	107,944	-0,059	0,052
-696,714	800,000	0,029	0,084
-695,699	-185,027	-0,048	0,001
-694,685	-27,180	-0,096	0,041
-693,670	-164,590	-0,043	0,001
-692,656	-193,669	-0,105	0,001
-691,641	-200,000	0,011	0,107
-690,627	93,895	-0,039	0,032
-689,612	140,899	-0,061	0,059
-688,597	800,000	0,035	0,083
-687,583	-200,000	0,014	-0,065
-686,568	394,237	-0,037	-0,057
-685,554	-58,746	0,012	-0,004
-684,539	-200,000	-0,028	0,143
-683,524	-15,451	-0,066	-0,031
-682,510	-157,017	-0,068	0,003
-681,495	-127,046	-0,046	-0,005
-680,481	-11,014	-0,050	-0,024
-679,466	-200,000	-0,008	-0,077
-678,451	424,187	-0,054	-0,085
-677,437	65,968	-0,142	-0,106
-676,422	25,775	0,078	-0,047
-675,408	448,771	0,025	-0,041
-674,393	26,014	0,038	-0,023
-673,378	-32,898	-0,123	0,050
-672,364	-200,000	-0,003	-0,057
-671,349	310,260	0,139	0,191
-670,335	-200,000	-0,009	-0,052
-669,320	158,363	-0,068	-0,069
-668,305	-200,000	0,023	0,096
-667,291	145,219	-0,118	0,116
-666,276	-200,000	-0,013	-0,063
-665,262	-20,158	-0,034	0,015
-664,247	149,180	-0,101	0,100
-663,232	800,000	0,049	0,107
-662,218	-200,000	0,036	0,182
-661,203	-200,000	-0,013	0,072
-660,189	800,000	-0,025	0,057
-659,174	256,361	0,039	-0,049
-658,159	310,750	-0,049	0,068
-657,145	-144,412	-0,082	-0,006
-656,130	-47,978	0,089	0,031
-655,116	27,499	-0,033	-0,020
-654,101	800,000	-0,018	-0,044
-653,086	-105,943	0,063	0,010
-652,072	-25,027	0,089	-0,039
-651,057	-129,176	-0,079	0,008
-650,043	-145,034	-0,076	-0,005
-649,028	-66,231	-0,096	-0,028
-648,014	-161,886	0,154	-0,006
-646,999	-153,368	-0,088	-0,004
-645,984	800,000	0,012	0,028
-644,970	800,000	-0,057	0,139
-643,955	44,284	-0,103	-0,069
-642,941	-38,840	-0,042	-0,016
-641,926	285,780	0,032	0,042
-640,911	800,000	0,031	-0,063
-639,897	800,000	0,018	-0,050
-638,882	-200,000	0,023	0,086
-637,868	-32,312	-0,085	-0,035
-636,853	38,845	-0,082	-0,053
-635,838	800,000	0,053	-0,135
-634,824	800,000	0,022	-0,052
-633,809	34,167	-0,023	0,015
-632,795	-200,000	0,012	0,100
-631,780	-24,292	0,083	0,036
-630,765	54,613	-0,080	-0,056
-629,751	-200,000	-0,013	-0,051
-628,736	-200,000	-0,008	-0,048
-627,722	23,666	-0,127	0,076
-626,707	587,904	-0,022	-0,040
-625,692	-200,000	-0,010	-0,062
-624,678	-124,959	-0,159	0,018
-623,663	163,613	-0,083	-0,085
-622,649	-69,746	-0,064	-0,018
-621,634	-197,440	0,046	0,000
-620,619	-5,865	-0,151	0,076
-619,605	-200,000	0,024	0,155
-618,590	2,874	0,105	0,056
-617,576	-200,000	-0,016	0,100
-616,561	144,961	-0,113	-0,111
-615,546	94,887	-0,099	-0,082
-614,532	-34,485	-0,065	-0,026
-613,517	-200,000	0,004	-0,109
-612,503	-200,000	0,026	0,097
-611,488	800,000	0,005	0,015
-610,474	94,391	-0,108	0,089
-609,459	-200,000	-0,001	-0,087
-608,444	-78,212	0,138	0,035
-607,430	800,000	-0,050	0,154
-606,415	120,140	-0,061	-0,056
-605,401	-61,588	0,186	0,057
-604,386	-200,000	-0,005	0,030
-603,371	1,055	0,060	0,032
-602,357	279,052	-0,065	0,086
-601,342	-200,000	0,001	-0,049
-600,328	68,827	-0,116	-0,087
-599,313	800,000	-0,035	-0,081
-598,298	-200,000	-0,006	0,055
-597,284	-200,000	-0,020	-0,130
-596,269	-56,219	0,061	0,020
-595,255	-118,374	0,117	0,015
-594,240	-200,000	-0,018	0,098
-593,225	-146,166	0,123	-0,008
-592,211	-119,925	-0,153	0,019
-591,196	-143,941	0,037	-0,002
-590,182	204,914	0,080	0,091
-589,167	-37,921	-0,032	-0,013
-588,152	-79,017	-0,086	-0,021
-587,138	-200,000	-0,033	0,118
-586,123	33,542	0,065	-0,041
-585,109	-85,309	-0,105	0,024
-584,094	-10,658	-0,139	-0,067
-583,079	450,884	0,041	0,067
-582,065	76,149	-0,100	0,077
-581,050	-200,000	0,008	0,029
-580,036	181,458	-0,056	-0,060
-579,021	546,491	-0,043	-0,076
-578,006	7,130	0,094	-0,051
-576,992	-25,456	-0,035	0,015
-575,977	198,518	0,060	0,067
-574,963	66,030	0,108	0,080
-573,948	800,000	-0,034	0,104
-572,934	132,703	-0,099	-0,094
-571,919	384,970	-0,062	-0,093
-570,904	-163,523	-0,159	0,005
-569,890	-59,791	0,052	-0,016
-568,875	571,423	0,056	0,099
-567,861	148,864	0,102	0,101
-566,846	800,000	0,006	0,016
-565,831	299,359	0,058	-0,078
-564,817	-200,000	-0,007	0,117
-563,802	220,985	-0,042	-0,050
-562,788	628,296	0,053	-0,098
-561,773	433,629	-0,046	-0,073
-560,758	0,021	-0,046	-0,024
-559,744	143,768	0,049	-0,048
-558,729	789,910	0,009	-0,019
-557,715	180,463	-0,163	0,175
-556,700	-200,000	0,000	0,013
-555,685	374,951	-0,106	-0,158
-554,671	800,000	-0,024	-0,075
-553,656	387,278	0,052	0,078
-552,642	-125,425	0,047	0,005
-551,627	-200,000	0,027	-0,143
-550,612	800,000	-0,011	0,032
-549,598	-6,127	-0,160	-0,080
-548,583	50,933	0,063	-0,044
-547,569	-121,157	0,047	-0,006
-546,554	57,090	0,011	-0,008
-545,539	12,576	0,156	-0,087
-544,525	-77,836	-0,041	0,010
-543,510	800,000	-0,041	-0,127
-542,496	236,601	-0,068	-0,082
-541,481	-69,706	0,009	-0,003
-540,466	344,204	-0,031	-0,045
-539,452	-14,186	0,043	-0,020
-538,437	169,152	0,026	-0,027
-537,423	-126,765	-0,056	0,006
-536,408	-200,000	0,010	-0,061
-535,393	77,045	-0,103	0,080
-534,379	-200,000	-0,006	0,033
-533,364	86,289	0,087	-0,070
-532,350	800,000	0,016	0,035
-531,335	-76,226	-0,049	-0,013
-530,321	630,913	-0,063	0,117
-529,306	-200,000	-0,005	-0,023
-528,291	800,000	-0,075	-0,184
-527,277	526,750	-0,048	-0,083
-526,262	-200,000	0,006	-0,079
-525,248	-69,536	0,070	-0,019
-524,233	-127,660	0,085	0,009
-523,218	-164,545	-0,159	0,005
-522,204	27,123	-0,065	-0,040
-521,189	-63,599	-0,103	-0,031
-520,175	800,000	0,027	-0,085
-519,160	6,670	-0,064	-0,035
-518,145	-200,000	-0,021	0,119
-517,131	-133,707	0,113	0,010
-516,116	-35,872	-0,117	-0,046
-515,102	-200,000	-0,024	-0,128
-514,087	-149,557	0,042	-0,002
-513,072	-168,857	0,100	0,003
-512,058	-200,000	0,011	0,070
-511,043	800,000	0,051	0,135
-510,029	-82,395	0,080	-0,019
-509,014	194,507	-0,057	0,063
-507,999	-95,626	0,014	-0,003
-506,985	29,210	-0,087	0,054
-505,970	-200,000	-0,001	0,036
-504,956	68,807	-0,127	0,095
-503,941	-200,000	-0,009	-0,074
-502,926	362,391	0,095	0,139
-501,912	-200,000	-0,027	-0,183
-500,897	87,979	0,070	0,056
-499,883	-200,000	0,023	-0,122
-498,868	-200,000	-0,018	-0,148
-497,853	97,988	-0,052	0,043
-496,839	-200,000	-0,012	0,093
-495,824	295,584	0,125	-0,168
-494,810	-57,382	0,126	0,040
-493,795	102,922	0,062	-0,053
-492,781	-188,645	-0,111	0,001
-491,766	415,354	-0,088	-0,137
-490,751	-200,000	0,008	-0,123
-489,737	22,315	-0,091	-0,054
-488,722	-40,143	0,146	0,055
-487,708	15,780	0,121	0,069
-486,693	800,000	-0,017	-0,046
-485,678	-88,965	0,229	0,049
-484,664	141,996	-0,062	-0,060
-483,649	161,270	-0,060	0,061
-482,635	-66,903	-0,062	-0,018
-481,620	-34,245	0,011	-0,005
-480,605	-65,726	0,134	0,039
-479,591	800,000	-0,053	-0,157
-478,576	-200,000	-0,003	-0,013
-477,562	-107,472	0,032	-0,005
-476,547	-86,298	-0,097	-0,021
-475,532	799,202	-0,073	0,148
-474,518	-150,170	0,136	-0,008
-473,503	173,818	0,095	0,100
-472,489	157,438	0,094	-0,094
-471,474	800,000	0,047	-0,100
-470,459	800,000	0,025	-0,074
-469,445	211,701	0,098	0,112
-468,430	-200,000	-0,034	-0,157
-467,416	311,393	-0,032	0,044
-466,401	-170,305	-0,108	0,003
-465,386	170,479	0,078	0,081
-464,372	-200,000	-0,038	0,163
-463,357	30,830	-0,067	0,041
-462,343	-33,917	-0,098	-0,039
-461,328	-200,000	-0,077	0,278
-460,313	-200,000	-0,006	0,096
-459,299	259,430	-0,037	0,047
-458,284	-32,473	0,079	-0,032
-457,270	-117,417	0,178	0,023
-456,255	-80,049	-0,157	0,038
-455,241	-200,000	-0,006	0,154
-454,226	549,312	-0,036	-0,063
-453,211	800,000	-0,015	-0,032
-452,197	800,000	0,025	-0,078
-451,182	-200,000	0,006	0,024
-450,168	78,705	0,032	0,025
-449,153	263,958	-0,072	0,091
-448,138	-200,000	0,010	-0,113
-447,124	-200,000	0,022	0,000
-446,109	-200,000	0,028	0,112
-445,095	800,000	-0,012	0,035
-444,080	-128,502	0,116	-0,012
-443,065	-164,155	-0,017	-0,001
-442,051	342,200	-0,017	0,024
-441,036	800,000	-0,027	-0,087
-440,022	467,709	0,053	-0,087
-439,007	-11,155	0,033	-0,016
-437,992	110,598	0,096	-0,084
-436,978	207,491	0,040	0,046
-435,963	-200,000	-0,000	-0,033
-434,949	323,574	-0,034	-0,047
-433,934	-200,000	-0,011	0,087
-432,919	-200,000	0,001	0,098
-431,905	329,198	0,037	-0,051
-430,890	796,880	0,052	0,105
-429,876	-161,611	0,183	-0,007
-428,861	699,937	0,061	0,118
-427,846	68,790	-0,103	-0,077
-426,832	614,620	0,041	-0,074
-425,817	30,849	-0,104	0,065
-424,803	80,249	-0,046	0,036
-423,788	-200,000	-0,021	0,072
-422,773	-200,000	-0,013	-0,080
-421,759	-27,456	0,120	-0,051
-420,744	-23,612	-0,107	0,047
-419,730	-1,166	0,084	-0,043
-418,715	487,764	0,030	-0,051
-417,701	152,070	0,048	0,048
-416,686	138,479	0,028	0,027
-415,671	800,000	-0,012	-0,034
-414,657	-200,000	0,040	0,171
-413,642	7,689	0,090	0,049
-412,628	214,854	-0,071	-0,082
-411,613	122,083	-0,042	0,038
-410,598	-143,122	0,089	-0,006
-409,584	137,276	0,060	0,057
-408,569	-200,000	0,000	0,006
-407,555	-200,000	0,023	-0,083
-406,540	342,712	-0,031	-0,045
-405,525	278,421	0,074	0,096
-404,511	475,750	0,047	-0,078
-403,496	641,130	-0,034	0,063
-402,482	291,162	-0,056	0,074
-401,467	26,252	0,117	0,071
-400,452	338,986	-0,020	0,029
-399,438	21,421	0,056	-0,033
-398,423	364,717	0,047	-0,069
-397,409	-200,000	-0,025	-0,106
-396,394	239,081	0,010	0,013
-395,379	800,000	0,011	-0,034
-394,365	-82,301	-0,039	-0,009
-393,350	-95,249	0,082	0,016
-392,336	-200,000	-0,009	0,086
-391,321	553,039	0,004	-0,006
-390,306	-37,276	0,037	-0,014
-389,292	-195,257	0,103	-0,001
-388,277	-168,962	0,129	0,003
-387,263	-66,009	0,102	-0,029
-386,248	-200,000	0,015	-0,051
-385,233	-64,209	-0,019	0,006
-384,219	-200,000	0,013	0,069
-383,204	-200,000	-0,003	-0,040
-382,190	416,219	-0,016	0,024
-381,175	293,046	-0,012	0,016
-380,160	390,346	0,082	0,124
-379,146	-58,316	0,131	-0,041
-378,131	-200,000	0,000	-0,060
-377,117	121,174	-0,074	0,067
-376,102	800,000	0,013	-0,034
-375,088	-200,000	-0,016	-0,083
-374,073	-24,080	-0,060	0,026
-373,058	689,752	0,039	0,074
-372,044	761,629	-0,025	0,050
-371,029	800,000	-0,038	-0,088
-370,015	9,626	0,170	0,093
-369,000	-59,318	0,136	-0,042
-367,985	124,096	-0,014	0,013
-366,971	-143,857	0,067	-0,005
-365,956	488,823	-0,041	-0,069
-364,942	-200,000	0,005	0,072
-363,927	-200,000	0,005	0,039
-362,912	-81,127	-0,151	-0,036
-361,898	40,461	-0,033	-0,022
-360,883	-200,000	0,010	-0,085
-359,869	18,272	-0,089	-0,051
-358,854	-35,655	0,102	0,040
-357,839	800,000	0,029	0,078
-356,825	-134,074	0,064	-0,006
-355,810	-200,000	-0,007	-0,139
-354,796	-61,998	-0,041	-0,012
-353,781	800,000	-0,049	-0,144
-352,766	-200,000	0,005	0,087
-351,752	341,245	0,036	-0,051
-350,737	-140,649	0,156	0,012
-349,723	-200,000	0,017	-0,071
-348,708	-189,140	0,154	0,001
-347,693	260,734	-0,017	0,021
-346,679	5,481	0,095	-0,051
-345,664	62,250	-0,073	-0,052
-344,650	409,751	0,025	0,039
-343,635	800,000	-0,053	0,161
-342,620	-200,000	-0,001	0,008
-341,606	-200,000	0,025	-0,167
-340,591	-32,835	0,091	-0,037
-339,577	-26,727	0,134	-0,056
-338,562	574,794	0,019	0,034
-337,548	-200,000	0,004	0,037
-336,533	800,000	-0,049	0,128
-335,518	237,988	0,034	0,041
-334,504	608,613	-0,045	-0,081
-333,489	208,116	0,080	0,091
-332,475	800,000	0,023	-0,062
-331,460	390,118	-0,046	0,069
-330,445	-157,245	0,145	0,006
-329,431	440,262	0,021	-0,034
-328,416	-19,794	-0,145	0,065
-327,402	673,575	-0,021	0,040
-326,387	389,766	-0,011	0,016
-325,372	-200,000	-0,004	-0,041
-324,358	79,820	-0,020	0,016
-323,343	-121,406	0,080	-0,010
-322,329	-96,753	-0,156	0,029
-321,314	378,542	0,016	-0,024
-320,299	90,794	0,180	0,146
-319,285	623,097	0,097	0,177
-318,270	-107,266	-0,172	0,027
-317,256	58,389	-0,098	-0,069
-316,241	-154,765	-0,071	0,003
-315,226	-49,600	0,078	0,027
-314,212	178,696	0,121	0,128
-313,197	-124,621	-0,158	0,017
-312,183	-200,000	0,002	0,022
-311,168	-18,834	-0,148	-0,067
-310,153	-153,156	-0,139	0,007
-309,139	301,245	-0,074	-0,099
-308,124	800,000	-0,024	-0,050
-307,110	58,660	-0,052	-0,037
-306,095	150,568	0,017	-0,017
-305,080	-200,000	-0,020	0,088
-304,066	-13,560	0,091	0,042
-303,051	-127,504	-0,117	-0,012
-302,037	-200,000	-0,004	-0,058
-301,022	-25,856	0,094	-0,040
-300,008	457,564	0,062	0,100
-298,993	-108,598	0,065	0,010
-297,978	424,191	-0,006	0,010
-296,964	-16,811	-0,014	-0,007
-295,949	-35,764	-0,060	-0,024
-294,935	46,690	-0,127	-0,085
-293,920	-140,453	-0,127	0,009
-292,905	800,000	0,011	0,027
-291,891	-200,000	0,010	0,059
-290,876	51,803	-0,059	-0,040
-289,862	800,000	0,071	-0,157
-288,847	-200,000	0,012	0,109
-287,832	-200,000	-0,021	-0,106
-286,818	695,321	0,049	0,094
-285,803	-6,727	-0,067	0,033
-284,789	27,346	0,079	0,048
-283,774	-200,000	0,021	0,071
-282,759	-200,000	0,003	-0,061
-281,745	-125,274	-0,135	0,015
-280,730	-200,000	-0,005	-0,111
-279,716	588,068	-0,043	0,077
-278,701	-139,468	0,028	-0,002
-277,686	-16,157	0,136	-0,062
-276,672	629,346	-0,032	-0,059
-275,657	106,242	0,118	0,101
-274,643	68,908	-0,056	0,041
-273,628	-108,109	-0,112	-0,017
-272,613	-1,245	0,021	-0,011
-271,599	-200,000	0,038	0,182
-270,584	659,854	-0,056	0,105
-269,570	-200,000	-0,023	0,122
-268,555	-115,062	0,079	-0,011
-267,540	162,149	-0,072	-0,073
-266,526	-67,778	-0,015	0,004
-265,511	-180,017	0,130	-0,002
-264,497	-95,696	-0,102	0,020
-263,482	24,919	0,140	-0,084
-262,467	36,667	-0,119	-0,076
-261,453	800,000	-0,037	-0,104
-260,438	-200,000	0,014	0,092
-259,424	-200,000	-0,002	0,145
-258,409	-14,694	-0,121	0,056
-257,395	-35,398	0,121	-0,047
-256,380	-124,915	0,126	0,014
-255,365	-40,056	-0,109	-0,041
-254,351	496,309	-0,014	0,023
-253,336	-200,000	0,026	0,133
-252,322	-200,000	0,020	-0,093
-251,307	-200,000	0,007	-0,086
-250,292	666,594	0,031	-0,058
-249,278	-43,508	-0,084	-0,030
-248,263	-200,000	-0,012	0,179
-247,249	-200,000	0,029	0,104
-246,234	800,000	-0,013	-0,028
-245,219	-152,972	-0,153	0,008
-244,205	-200,000	0,040	-0,177
-243,190	329,358	0,075	0,104
-242,176	-200,000	0,004	0,017
-241,161	-86,600	-0,100	-0,022
-240,146	-113,203	-0,115	-0,016
-239,132	-87,482	0,077	0,017
-238,117	-82,090	-0,141	-0,033
-237,103	800,000	-0,044	-0,128
-236,088	800,000	0,008	-0,020
-235,073	-42,047	0,012	-0,004
-234,059	-96,698	0,122	-0,023
-233,044	-200,000	-0,008	0,033
-232,030	87,247	0,101	-0,081
-231,015	282,614	-0,044	0,057
-230,000	800,000	0,094	-0,190
-228,986	-200,000	-0,008	-0,072
-227,971	-130,362	0,215	0,021
-226,957	540,137	0,072	-0,124
-225,942	692,995	0,045	0,085
-224,927	43,913	-0,027	-0,018
-223,913	120,411	-0,052	0,047
-222,898	-128,866	-0,140	-0,014
-221,884	-61,979	-0,061	-0,018
-220,869	-81,878	-0,111	-0,026
-219,855	800,000	0,052	0,119
-218,840	85,213	-0,054	-0,043
-217,825	147,609	0,094	-0,092
-216,811	332,368	0,082	-0,115
-215,796	-5,564	-0,025	0,012
-214,782	-130,280	-0,064	0,006
-213,767	-50,806	0,141	-0,047
-212,752	-200,000	0,012	0,105
-211,738	-62,706	-0,211	0,063
-210,723	-200,000	0,007	-0,025
-209,709	141,122	-0,037	-0,036
-208,694	800,000	-0,035	-0,088
-207,679	-36,674	0,174	0,067
-206,665	-24,849	0,064	0,027
-205,650	-103,601	-0,123	-0,021
-204,636	526,688	-0,024	-0,040
-203,621	-171,291	-0,137	-0,003
-202,606	511,208	-0,023	-0,039
-201,592	228,167	0,052	0,062
-200,577	800,000	0,040	-0,114
-199,563	233,645	0,078	0,093
-198,548	-5,130	0,068	0,034
-197,533	80,516	0,037	-0,029
-196,519	432,885	0,061	0,095
-195,504	93,782	-0,043	-0,035
-194,490	306,596	0,133	-0,179
-193,475	-200,000	0,009	-0,044
-192,460	512,302	0,050	0,085
-191,446	136,872	0,065	-0,062
-190,431	185,286	0,084	0,089
-189,417	-123,778	-0,097	-0,011
-188,402	-200,000	-0,010	0,068
-187,387	466,081	-0,026	0,042
-186,373	-200,000	0,009	0,058
-185,358	442,561	0,057	-0,090
-184,344	-10,201	-0,073	-0,035
-183,329	-50,971	0,050	0,017
-182,315	8,559	0,084	-0,045
-181,300	208,824	-0,044	0,050
-180,285	17,884	0,095	-0,054
-179,271	-183,005	-0,105	-0,001
-178,256	-200,000	0,027	0,111
-177,242	-129,760	0,119	-0,012
-176,227	-45,383	0,055	-0,020
-175,212	800,000	-0,094	0,233
-174,198	116,090	-0,079	0,070
-173,183	800,000	-0,033	-0,083
-172,169	-60,394	-0,069	-0,021
-171,154	800,000	-0,020	-0,058
-170,139	202,463	0,075	0,084
-169,125	31,486	-0,054	-0,034
-168,110	42,249	0,065	0,042
-167,096	617,593	0,035	-0,064
-166,081	-16,764	-0,169	-0,077
-165,066	733,241	-0,046	-0,090
-164,052	-200,000	0,032	0,112
-163,037	16,044	-0,056	0,032
-162,023	247,111	0,067	-0,082
-161,008	-200,000	0,012	0,061
-159,993	227,738	0,032	0,038
-158,979	92,544	-0,069	0,056
-157,964	800,000	-0,011	0,029
-156,950	86,966	-0,146	0,116
-155,935	-200,000	-0,013	-0,066
-154,920	-38,694	0,126	-0,047
-153,906	-163,335	-0,109	0,004
-152,891	-54,953	-0,121	0,039
-151,877	-200,000	-0,001	0,009
-150,862	228,958	0,043	-0,050
-149,847	-58,933	0,043	-0,013
-148,833	800,000	-0,009	0,021
-147,818	-160,844	-0,081	-0,003
-146,804	-100,079	0,125	-0,022
-145,789	46,192	-0,068	-0,045
-144,775	94,117	0,030	-0,025
-143,760	97,934	-0,056	0,046
-142,745	-200,000	-0,001	-0,128
-141,731	-188,294	-0,085	0,001
-140,716	62,724	0,068	-0,049
-139,702	-200,000	-0,012	-0,056
-138,687	130,609	-0,145	0,134
-137,672	-200,000	0,031	0,137
-136,658	800,000	0,028	-0,075
-135,643	-200,000	0,003	-0,176
-134,629	121,200	0,097	0,087
-133,614	-200,000	-0,007	0,091
-132,599	-200,000	-0,015	0,120
-131,585	570,449	0,127	0,223
-130,570	-200,000	0,032	0,103
-129,556	800,000	-0,019	-0,041
-128,541	-101,839	-0,037	0,006
-127,526	88,366	0,013	-0,010
-126,512	206,879	-0,029	0,033
-125,497	123,379	0,087	0,078
-124,483	800,000	0,039	0,082
-123,468	-200,000	0,006	0,150
-122,453	110,575	-0,060	0,051
-121,439	59,331	-0,051	0,036
-120,424	800,000	-0,033	-0,085
