DTS Sentinel unit serial number:	SN410029Multiplexer serial number:	ORYXHardware model number:	OX2-SRSoftware version number:	ORYX F/W v4,00 Oryx Data Collector v3.7.2.0data status	okinstallation	B6 Nyhavnadifferential loss correction	single-endedforward channel	channel 2reverse channel	N/Adate	2023/12/10time	06:30:08forward acquisition time	300,00reverse acquisition time	0,00gamma	499,1914k internal	0,3123k external	0,3123temperature offset calibration	1,0000default loss term (dB/km)	0,3820temperature slope calibration	1,0000multiplexer offset coefficient	1,0000multiplexer slope coefficient	1,0000fibre end	0,00T internal ref (°C)	22,58T ext. ref 1 (°C)	6,45T ext. ref 2 (°C)	6,45length (m)	temperature (°C)	Stokes	anti-Stokes-744,400	-200,000	0,011	-0,074
-743,385	-81,038	-0,303	0,074
-742,371	58,904	0,077	0,056
-741,356	800,000	-0,054	0,141
-740,342	-200,000	0,000	-0,042
-739,327	401,274	-0,067	0,105
-738,312	292,725	0,062	-0,084
-737,298	-49,295	-0,189	-0,067
-736,283	136,793	0,036	-0,035
-735,269	-65,604	-0,172	0,051
-734,254	-103,979	0,143	0,025
-733,239	-14,509	-0,344	-0,164
-732,225	-15,981	0,166	0,079
-731,210	295,023	-0,110	0,151
-730,196	-194,701	-0,018	-0,000
-729,181	-72,601	-0,113	0,031
-728,167	-200,000	-0,003	0,012
-727,152	-15,054	-0,037	-0,018
-726,137	800,000	-0,018	0,056
-725,123	-138,366	-0,032	-0,003
-724,108	187,653	-0,138	-0,154
-723,094	-13,773	-0,134	-0,064
-722,079	213,507	-0,066	-0,077
-721,064	-200,000	0,007	-0,094
-720,050	144,604	0,041	-0,041
-719,035	57,671	-0,099	0,072
-718,021	800,000	-0,032	-0,081
-717,006	13,538	-0,131	-0,076
-715,991	781,063	-0,046	-0,095
-714,977	800,000	-0,030	-0,085
-713,962	307,795	-0,040	0,056
-712,948	-73,231	0,037	0,010
-711,933	241,367	0,085	0,106
-710,918	-4,973	-0,060	0,031
-709,904	-200,000	0,016	-0,084
-708,889	70,396	-0,050	0,038
-707,875	-200,000	0,018	-0,105
-706,860	-200,000	-0,029	-0,159
-705,845	800,000	0,040	0,095
-704,831	800,000	-0,044	0,092
-703,816	409,359	-0,065	0,102
-702,802	49,450	-0,020	-0,014
-701,787	-80,599	-0,043	-0,010
-700,772	168,387	-0,044	-0,047
-699,758	-200,000	-0,011	0,063
-698,743	351,778	0,073	-0,107
-697,729	169,216	0,114	0,121
-696,714	-55,516	0,056	-0,019
-695,699	17,838	-0,092	-0,055
-694,685	134,332	-0,098	-0,095
-693,670	13,338	-0,136	-0,078
-692,656	616,608	-0,033	0,062
-691,641	-160,164	0,098	-0,004
-690,627	-200,000	-0,008	-0,074
-689,612	43,105	-0,039	0,026
-688,597	51,329	-0,128	0,090
-687,583	-200,000	-0,008	-0,098
-686,568	-169,640	0,099	-0,003
-685,554	71,208	-0,009	-0,007
-684,539	34,871	0,039	-0,025
-683,524	-42,475	0,079	-0,030
-682,510	-200,000	0,003	-0,161
-681,495	-200,000	0,003	0,065
-680,481	800,000	0,034	-0,074
-679,466	8,394	0,069	-0,038
-678,451	-200,000	0,022	0,098
-677,437	-60,716	-0,042	-0,013
-676,422	800,000	-0,024	0,066
-675,408	13,954	0,011	-0,006
-674,393	-10,117	0,055	-0,027
-673,378	-200,000	0,057	-0,219
-672,364	800,000	-0,036	-0,095
-671,349	136,745	-0,050	-0,048
-670,335	-123,993	-0,061	0,007
-669,320	-83,630	0,134	0,032
-668,305	130,981	0,067	-0,064
-667,291	-39,100	-0,087	0,034
-666,276	48,614	0,025	0,017
-665,262	57,021	-0,123	0,089
-664,247	165,049	0,074	-0,078
-663,232	-178,308	0,032	0,001
-662,218	64,862	0,068	0,051
-661,203	282,218	0,062	0,083
-660,189	-78,230	-0,128	0,032
-659,174	800,000	-0,034	-0,077
-658,159	-106,188	0,034	0,006
-657,145	800,000	0,028	0,058
-656,130	1,101	-0,012	-0,007
-655,116	-200,000	0,012	0,074
-654,101	309,733	-0,018	0,025
-653,086	-151,266	-0,095	-0,005
-652,072	166,933	0,061	0,065
-651,057	-46,083	-0,154	-0,056
-650,043	23,353	-0,078	-0,048
-649,028	800,000	0,014	0,034
-648,014	133,113	-0,065	0,063
-646,999	800,000	-0,058	0,166
-645,984	-107,355	0,101	0,016
-644,970	-200,000	0,001	-0,055
-643,955	619,984	-0,067	-0,125
-642,941	800,000	0,018	-0,047
-641,926	800,000	-0,019	0,040
-640,911	155,114	-0,048	0,049
-639,897	-200,000	-0,015	0,168
-638,882	-29,095	0,200	0,085
-637,868	5,761	-0,056	0,031
-636,853	800,000	-0,026	-0,081
-635,838	216,519	-0,065	0,077
-634,824	-12,236	-0,041	-0,020
-633,809	-83,944	-0,067	0,016
-632,795	69,801	-0,087	0,067
-631,780	230,235	0,084	0,102
-630,765	-60,940	-0,137	-0,043
-629,751	3,923	0,112	-0,061
-628,736	418,309	0,039	-0,062
-627,722	-200,000	-0,015	-0,206
-626,707	-200,000	0,006	-0,132
-625,692	-28,232	0,079	-0,034
-624,678	63,818	-0,066	-0,049
-623,663	-36,184	-0,118	-0,047
-622,649	512,774	-0,061	0,106
-621,634	-0,257	-0,111	-0,059
-620,619	-43,934	-0,070	0,026
-619,605	-200,000	0,003	0,089
-618,590	-151,957	0,111	-0,006
-617,576	-200,000	-0,010	0,075
-616,561	-144,989	0,081	-0,005
-615,546	379,835	-0,028	0,043
-614,532	-152,949	-0,138	-0,007
-613,517	226,971	-0,088	-0,106
-612,503	-200,000	0,027	-0,111
-611,488	309,349	-0,029	-0,040
-610,474	517,628	-0,045	-0,078
-609,459	350,539	0,129	-0,190
-608,444	347,208	0,035	-0,051
-607,430	800,000	-0,066	-0,191
-606,415	800,000	0,018	-0,040
-605,401	-29,716	0,154	-0,065
-604,386	-200,000	0,006	0,096
-603,371	-144,287	0,100	0,007
-602,357	81,248	-0,168	-0,134
-601,342	-200,000	-0,022	-0,090
-600,328	227,279	-0,100	-0,121
-599,313	-199,050	-0,216	0,001
-598,298	457,679	-0,019	0,031
-597,284	-200,000	0,004	-0,021
-596,269	-200,000	0,007	-0,039
-595,255	412,627	0,055	-0,087
-594,240	2,513	0,079	0,042
-593,225	0,440	-0,141	0,074
-592,211	9,315	-0,104	-0,058
-591,196	244,643	-0,036	0,045
-590,182	130,490	-0,031	0,029
-589,167	-58,571	0,096	-0,031
-588,152	182,230	0,062	0,068
-587,138	123,438	-0,089	0,083
-586,123	-40,328	-0,068	-0,026
-585,109	-111,680	-0,076	-0,011
-584,094	122,061	-0,068	0,063
-583,079	-82,003	-0,009	0,002
-582,065	-64,926	-0,018	0,005
-581,050	-200,000	0,011	-0,079
-580,036	-59,939	-0,050	0,016
-579,021	143,193	-0,054	-0,053
-578,006	134,496	-0,045	-0,043
-576,992	-20,967	0,015	0,007
-575,977	148,483	0,054	0,054
-574,963	-0,212	0,172	0,090
-573,948	102,236	-0,050	0,043
-572,934	-200,000	0,009	-0,102
-571,919	800,000	-0,010	-0,030
-570,904	800,000	-0,024	0,060
-569,890	190,421	0,046	0,051
-568,875	800,000	-0,032	-0,091
-567,861	-200,000	-0,009	0,120
-566,846	453,826	0,043	0,071
-565,831	464,011	0,010	-0,017
-564,817	330,957	-0,063	-0,090
-563,802	102,489	-0,068	-0,059
-562,788	-13,092	0,105	0,050
-561,773	-200,000	0,001	-0,094
-560,758	-146,296	-0,153	-0,010
-559,744	-72,736	0,061	-0,017
-558,729	271,621	0,025	0,033
-557,715	730,559	-0,078	0,156
-556,700	-191,301	-0,136	-0,001
-555,685	-59,719	-0,150	-0,047
-554,671	-193,182	-0,038	-0,000
-553,656	-200,000	0,000	-0,062
-552,642	-107,650	0,139	-0,022
-551,627	-200,000	0,006	0,127
-550,612	616,094	-0,038	0,070
-549,598	444,809	-0,068	-0,110
-548,583	24,952	-0,116	-0,071
-547,569	-144,195	0,086	-0,006
-546,554	-200,000	0,029	0,130
-545,539	-200,000	0,021	0,131
-544,525	200,452	0,043	-0,049
-543,510	429,025	-0,011	0,018
-542,496	-117,774	0,015	0,002
-541,481	-126,799	0,087	0,009
-540,466	-22,635	-0,048	0,021
-539,452	64,011	0,166	-0,123
-538,437	420,883	-0,071	-0,113
-537,423	-54,930	0,091	-0,030
-536,408	-112,056	0,122	0,018
-535,393	-71,553	0,019	-0,005
-534,379	-200,000	0,045	-0,189
-533,364	800,000	-0,009	-0,028
-532,350	-200,000	-0,016	0,070
-531,335	-200,000	-0,024	-0,079
-530,321	-30,213	0,114	0,047
-529,306	38,081	-0,043	0,028
-528,291	-64,815	0,033	0,010
-527,277	-200,000	-0,001	-0,076
-526,262	666,518	-0,031	0,060
-525,248	188,044	0,031	0,034
-524,233	-91,819	0,099	-0,021
-523,218	344,175	-0,080	0,116
-522,204	339,556	-0,027	0,038
-521,189	-107,269	0,013	-0,002
-520,175	-32,918	0,151	-0,062
-519,160	329,468	-0,067	-0,095
-518,145	-70,397	0,048	-0,013
-517,131	123,163	0,078	0,072
-516,116	-112,128	0,030	-0,004
-515,102	39,441	0,109	-0,072
-514,087	-52,692	-0,068	-0,023
-513,072	-0,308	-0,110	0,058
-512,058	257,262	0,040	0,051
-511,043	324,045	0,069	-0,098
-510,029	800,000	0,023	0,062
-509,014	239,536	-0,069	0,085
-507,999	-10,012	0,066	0,032
-506,985	-200,000	0,012	-0,100
-505,970	-108,287	-0,032	-0,005
-504,956	-13,201	0,024	-0,011
-503,941	-56,138	-0,104	0,034
-502,926	122,201	0,139	0,128
-501,912	-200,000	-0,006	0,076
-500,897	-171,718	-0,046	0,001
-499,883	-200,000	0,009	0,057
-498,868	-200,000	-0,013	0,058
-497,853	-200,000	-0,009	0,041
-496,839	443,633	0,100	0,162
-495,824	-70,908	0,052	0,014
-494,810	-106,358	0,050	-0,008
-493,795	-200,000	-0,053	0,185
-492,781	-200,000	0,001	-0,073
-491,766	-64,384	-0,083	-0,025
-490,751	146,215	0,129	-0,128
-489,737	115,199	-0,010	-0,009
-488,722	76,569	0,040	-0,032
-487,708	-200,000	-0,012	-0,131
-486,693	-200,000	0,011	0,106
-485,678	49,555	-0,108	0,075
-484,664	301,312	0,033	0,045
-483,649	30,929	-0,095	-0,060
-482,635	53,408	0,062	-0,044
-481,620	489,731	0,031	-0,053
-480,605	-200,000	-0,038	0,128
-479,591	800,000	0,052	-0,110
-478,576	-73,502	0,024	0,006
-477,562	195,882	0,061	-0,068
-476,547	-200,000	0,005	-0,136
-475,532	30,872	-0,176	-0,111
-474,518	56,547	0,064	-0,046
-473,503	340,520	0,064	-0,092
-472,489	-200,000	0,014	0,178
-471,474	-146,996	-0,094	-0,006
-470,459	800,000	-0,061	-0,155
-469,445	-123,161	0,122	-0,014
-468,430	-75,964	0,058	-0,015
-467,416	-31,126	0,060	-0,025
-466,401	-200,000	-0,022	0,093
-465,386	30,179	-0,101	0,064
-464,372	123,667	-0,038	-0,035
-463,357	800,000	-0,066	-0,157
-462,343	-200,000	0,008	-0,058
-461,328	-200,000	0,014	-0,068
-460,313	-93,312	-0,073	-0,015
-459,299	-200,000	-0,009	0,084
-458,284	-168,708	0,134	-0,004
-457,270	-109,035	-0,062	-0,010
-456,255	183,702	-0,007	0,007
-455,241	325,938	-0,034	-0,048
-454,226	-142,546	-0,170	-0,012
-453,211	67,888	0,055	-0,042
-452,197	-200,000	0,013	0,109
-451,182	-18,123	-0,050	-0,023
-450,168	51,215	-0,122	0,085
-449,153	-128,536	-0,060	0,006
-448,138	-38,540	-0,157	-0,061
-447,124	-200,000	-0,014	-0,067
-446,109	19,075	0,088	-0,052
-445,095	-157,002	-0,051	0,002
-444,080	96,552	-0,053	-0,044
-443,065	-56,666	-0,199	-0,064
-442,051	800,000	0,017	-0,054
-441,036	27,313	-0,026	0,016
-440,022	-62,267	-0,165	-0,050
-439,007	800,000	-0,029	0,082
-437,992	-67,311	0,039	0,011
-436,978	-200,000	0,007	0,129
-435,963	800,000	-0,036	0,097
-434,949	-200,000	0,008	0,068
-433,934	180,508	-0,096	-0,104
-432,919	130,191	0,034	0,032
-431,905	-84,956	0,087	0,020
-430,890	-200,000	0,008	0,035
-429,876	-53,592	0,086	-0,029
-428,861	191,783	0,030	0,034
-427,846	-200,000	0,032	-0,165
-426,832	-90,987	-0,030	0,006
-425,817	-119,302	0,109	0,014
-424,803	-177,618	-0,069	-0,001
-423,788	-200,000	-0,026	-0,128
-422,773	43,771	-0,025	-0,017
-421,759	-200,000	-0,030	0,103
-420,744	638,203	0,075	-0,141
-419,730	-53,064	-0,118	0,040
-418,715	-54,832	0,046	-0,015
-417,701	581,046	0,044	0,079
-416,686	-200,000	-0,003	0,040
-415,671	-17,674	-0,052	0,024
-414,657	161,218	-0,055	-0,056
-413,642	-200,000	-0,004	0,029
-412,628	-200,000	-0,001	0,041
-411,613	335,131	-0,096	-0,137
-410,598	-200,000	0,021	-0,072
-409,584	-108,612	0,135	0,021
-408,569	216,126	0,073	-0,085
-407,555	94,044	0,075	-0,062
-406,540	-200,000	0,016	0,087
-405,525	286,590	-0,034	0,046
-404,511	800,000	-0,024	0,060
-403,496	-200,000	0,008	0,080
-402,482	262,364	-0,062	0,080
-401,467	5,447	0,071	-0,038
-400,452	129,143	0,076	0,071
-399,438	126,530	-0,076	0,071
-398,423	315,610	-0,025	-0,035
-397,409	-25,543	-0,055	-0,024
-396,394	800,000	-0,011	-0,024
-395,379	-19,156	-0,096	-0,044
-394,365	-21,776	0,179	-0,080
-393,350	19,051	0,007	0,004
-392,336	-69,026	-0,104	0,029
-391,321	-46,735	0,025	-0,009
-390,306	418,881	0,066	0,104
-389,292	-32,974	-0,073	0,030
-388,277	-200,000	0,012	0,100
-387,263	-3,539	0,126	-0,064
-386,248	-71,771	-0,078	-0,021
-385,233	90,773	-0,105	0,087
-384,219	-37,593	0,029	0,011
-383,204	365,279	0,033	-0,048
-382,190	143,637	-0,058	-0,057
-381,175	-141,453	0,075	0,006
-380,160	622,314	0,015	0,028
-379,146	-200,000	-0,035	0,125
-378,131	-38,730	-0,025	0,010
-377,117	-154,567	0,014	0,001
-376,102	-200,000	-0,003	0,028
-375,088	280,641	-0,078	-0,103
-374,073	-200,000	0,012	-0,080
-373,058	81,711	-0,108	-0,086
-372,044	70,872	0,040	-0,030
-371,029	-19,878	-0,051	0,023
-370,015	655,894	0,071	0,134
-369,000	-28,135	0,096	0,040
-367,985	-200,000	0,005	-0,059
-366,971	652,998	0,014	-0,027
-365,956	-200,000	0,025	-0,118
-364,942	800,000	-0,034	-0,108
-363,927	56,598	0,081	-0,058
-362,912	7,476	-0,099	-0,054
-361,898	-200,000	-0,002	-0,013
-360,883	356,760	-0,045	-0,066
-359,869	41,463	-0,073	-0,049
-358,854	-158,874	-0,113	-0,005
-357,839	717,473	-0,027	-0,053
-356,825	-200,000	-0,003	0,169
-355,810	800,000	-0,020	0,046
-354,796	-150,240	0,071	-0,004
-353,781	-79,745	-0,129	-0,032
-352,766	-200,000	-0,023	-0,084
-351,752	-200,000	0,027	-0,096
-350,737	-54,390	0,080	0,027
-349,723	-73,606	0,155	0,041
-348,708	9,254	0,079	-0,044
-347,693	18,804	0,066	0,039
-346,679	-200,000	0,003	-0,041
-345,664	30,288	-0,025	-0,016
-344,650	-160,711	-0,104	-0,004
-343,635	109,708	0,144	0,127
-342,620	-36,001	-0,057	-0,023
-341,606	800,000	0,027	-0,065
-340,591	188,386	0,055	0,061
-339,577	543,528	-0,065	0,114
-338,562	-200,000	-0,038	-0,123
-337,548	281,496	-0,013	0,017
-336,533	558,089	0,052	0,092
-335,518	-55,365	0,044	0,015
-334,504	98,466	0,075	0,063
-333,489	1,795	-0,074	0,039
-332,475	800,000	-0,062	0,156
-331,460	-200,000	0,010	-0,109
-330,445	299,549	-0,044	0,060
-329,431	24,194	-0,053	-0,032
-328,416	-200,000	-0,013	-0,067
-327,402	373,476	0,038	-0,057
-326,387	-92,673	0,111	-0,023
-325,372	-34,243	0,058	-0,023
-324,358	-160,703	0,071	0,003
-323,343	-190,707	0,124	0,001
-322,329	759,054	0,039	-0,078
-321,314	-44,191	-0,097	-0,035
-320,299	-27,585	0,081	-0,035
-319,285	190,619	0,093	0,103
-318,270	-132,892	-0,145	-0,013
-317,256	-52,866	-0,069	-0,023
-316,241	257,017	0,101	0,127
-315,226	-123,805	0,128	0,015
-314,212	27,192	0,127	-0,078
-313,197	-200,000	-0,020	0,134
-312,183	54,392	0,079	-0,055
-311,168	800,000	0,023	-0,047
-310,153	23,253	-0,075	-0,045
-309,139	553,491	0,099	0,175
-308,124	-200,000	0,022	0,144
-307,110	185,033	0,099	0,108
-306,095	752,094	0,013	-0,027
-305,080	-200,000	-0,008	0,037
-304,066	-200,000	0,005	-0,023
-303,051	578,742	-0,049	-0,088
-302,037	-96,423	-0,010	-0,002
-301,022	41,363	-0,075	-0,049
-300,008	-150,836	0,241	0,013
-298,993	-8,140	0,106	0,052
-297,978	-200,000	-0,003	0,046
-296,964	49,618	-0,075	-0,052
-295,949	-200,000	-0,008	-0,056
-294,935	34,774	-0,051	-0,033
-293,920	-200,000	0,023	0,097
-292,905	-200,000	-0,010	0,049
-291,891	800,000	-0,031	0,076
-290,876	20,495	-0,064	-0,038
-289,862	249,309	0,066	-0,082
-288,847	-200,000	0,041	0,235
-287,832	1,575	-0,081	0,042
-286,818	-200,000	0,005	0,131
-285,803	141,991	0,085	0,083
-284,789	-0,014	-0,151	-0,078
-283,774	321,160	0,080	0,112
-282,759	800,000	-0,038	0,120
-281,745	80,881	0,067	-0,053
-280,730	-200,000	-0,024	0,117
-279,716	-98,740	-0,134	0,025
-278,701	800,000	0,062	-0,150
-277,686	454,396	0,045	0,073
-276,672	-200,000	0,009	0,077
-275,657	-26,509	-0,090	0,039
-274,643	-79,860	0,059	-0,014
-273,628	228,474	-0,112	-0,134
-272,613	73,270	-0,098	0,075
-271,599	-35,349	-0,116	-0,046
-270,584	407,489	-0,005	-0,008
-269,570	-29,104	0,091	0,038
-268,555	25,689	-0,030	0,018
-267,540	164,374	-0,049	-0,051
-266,526	-54,772	-0,103	0,034
-265,511	800,000	-0,014	0,039
-264,497	106,757	0,076	-0,066
-263,482	183,443	-0,048	-0,052
-262,467	-200,000	0,029	0,099
-261,453	34,028	-0,072	-0,046
-260,438	406,551	-0,023	-0,035
-259,424	-162,619	-0,015	0,001
-258,409	-111,715	0,056	0,008
-257,395	68,437	-0,119	-0,089
-256,380	-119,435	0,141	0,018
-255,365	195,432	0,134	0,149
-254,351	-132,811	0,063	0,006
-253,336	-161,979	-0,072	0,003
-252,322	-200,000	-0,005	-0,110
-251,307	-200,000	-0,007	0,044
-250,292	230,889	0,069	-0,083
-249,278	-100,940	0,069	-0,012
-248,263	-150,244	-0,058	0,003
-247,249	271,741	-0,050	-0,064
-246,234	340,291	-0,021	0,030
-245,219	800,000	0,057	-0,116
-244,205	76,759	0,105	-0,081
-243,190	-97,078	-0,096	0,018
-242,176	-200,000	-0,025	0,081
-241,161	524,942	0,048	-0,083
-240,146	103,560	-0,038	-0,033
-239,132	-193,102	-0,016	-0,000
-238,117	-144,758	-0,134	-0,009
-237,103	157,991	-0,108	-0,110
-236,088	105,362	0,009	-0,008
-235,073	15,348	-0,057	0,033
-234,059	-89,657	0,044	0,009
-233,044	-200,000	0,014	0,068
-232,030	800,000	0,013	0,032
-231,015	202,725	0,053	-0,059
-230,000	800,000	-0,029	-0,078
-228,986	800,000	0,044	0,139
-227,971	-9,006	-0,025	0,012
-226,957	-200,000	-0,001	0,086
-225,942	3,705	0,097	0,052
-224,927	45,369	0,049	-0,033
-223,913	-29,661	-0,098	-0,041
-222,898	-48,982	-0,062	0,021
-221,884	800,000	0,020	0,049
-220,869	-200,000	0,013	0,131
-219,855	-200,000	0,025	0,103
-218,840	344,865	-0,087	0,125
-217,825	548,572	-0,018	-0,031
-216,811	141,735	0,083	-0,081
-215,796	-74,798	-0,047	0,012
-214,782	-35,725	0,092	-0,036
-213,767	4,904	0,146	-0,078
-212,752	-200,000	0,009	-0,099
-211,738	-29,584	0,169	0,070
-210,723	-10,349	0,045	0,021
-209,709	-200,000	-0,004	-0,031
-208,694	-36,923	-0,070	0,027
-207,679	-109,042	-0,080	0,012
-206,665	-20,713	0,094	-0,042
-205,650	122,871	0,079	0,072
-204,636	-200,000	0,014	0,141
-203,621	-200,000	0,000	0,063
-202,606	137,199	-0,036	0,035
-201,592	-55,682	-0,098	0,032
-200,577	80,613	-0,040	-0,031
-199,563	-200,000	-0,009	0,109
-198,548	800,000	0,059	0,149
-197,533	800,000	-0,024	0,069
-196,519	32,894	0,139	-0,087
-195,504	212,834	-0,039	-0,045
-194,490	92,675	-0,131	-0,108
-193,475	352,714	-0,039	0,056
-192,460	-200,000	0,020	0,083
-191,446	-42,010	0,028	0,010
-190,431	800,000	0,019	0,061
-189,417	294,353	-0,051	0,068
-188,402	192,081	0,057	0,063
-187,387	43,851	-0,064	-0,043
-186,373	-10,286	0,029	0,014
-185,358	237,122	-0,037	0,045
-184,344	22,590	0,099	-0,059
-183,329	-200,000	0,015	-0,090
-182,315	401,241	-0,014	-0,021
-181,300	-19,565	0,124	-0,056
-180,285	-45,364	-0,054	0,020
-179,271	-29,706	0,032	-0,013
-178,256	-200,000	-0,005	0,055
-177,242	182,067	0,060	-0,064
-176,227	-40,105	0,131	-0,049
-175,212	92,230	0,057	-0,047
-174,198	-114,736	-0,139	0,019
-173,183	-200,000	-0,010	-0,160
-172,169	800,000	0,027	-0,068
-171,154	-200,000	0,004	-0,084
-170,139	800,000	-0,049	0,130
-169,125	-200,000	0,035	0,128
-168,110	-31,159	0,090	-0,037
-167,096	-25,756	0,075	0,032
-166,081	-194,014	0,073	-0,000
-165,066	641,403	-0,016	-0,030
-164,052	800,000	-0,028	-0,081
-163,037	-200,000	0,019	0,163
-162,023	-86,968	0,087	0,019
-161,008	800,000	0,044	-0,118
-159,993	13,760	0,117	0,066
-158,979	800,000	-0,005	-0,012
-157,964	800,000	-0,034	-0,080
-156,950	-23,491	-0,043	0,019
-155,935	0,970	-0,086	-0,045
-154,920	77,986	0,059	0,046
-153,906	123,541	0,142	0,130
-152,891	-200,000	0,013	-0,052
-151,877	-134,894	0,025	0,002
-150,862	91,594	-0,169	0,138
-149,847	-43,354	-0,032	0,012
-148,833	-200,000	-0,007	-0,113
-147,818	-41,381	-0,010	0,004
-146,804	-91,080	-0,058	0,012
-145,789	661,239	-0,098	0,184
-144,775	-200,000	-0,010	-0,035
-143,760	-121,521	-0,173	-0,021
-142,745	277,692	-0,091	0,118
-141,731	349,306	-0,053	-0,077
-140,716	-191,718	0,104	0,001
-139,702	353,631	-0,046	-0,066
-138,687	19,532	0,230	0,134
-137,672	-26,118	-0,116	-0,050
-136,658	146,825	-0,108	-0,106
-135,643	-200,000	0,004	0,075
-134,629	-89,329	0,178	0,038
-133,614	454,961	0,041	-0,067
-132,599	-99,318	0,201	-0,037
-131,585	-38,373	0,098	0,038
-130,570	-200,000	-0,004	-0,035
-129,556	246,705	0,039	-0,048
-128,541	261,097	-0,066	-0,084
-127,526	800,000	0,051	-0,111
-126,512	-200,000	0,004	-0,174
-125,497	-135,705	0,089	-0,008
-124,483	100,334	0,003	-0,003
-123,468	505,418	-0,096	0,162
-122,453	-200,000	-0,017	-0,170
-121,439	131,730	0,069	0,064
-120,424	-57,246	0,163	-0,052
-119,410	485,857	0,034	-0,056
