DTS Sentinel unit serial number:	SN410029Multiplexer serial number:	ORYXHardware model number:	OX2-SRSoftware version number:	ORYX F/W v4,00 Oryx Data Collector v3.7.2.0data status	okinstallation	B6 Nyhavnadifferential loss correction	single-endedforward channel	channel 2reverse channel	N/Adate	2023/12/09time	18:30:08forward acquisition time	300,00reverse acquisition time	0,00gamma	499,1914k internal	0,3130k external	0,3130temperature offset calibration	1,0000default loss term (dB/km)	0,3820temperature slope calibration	1,0000multiplexer offset coefficient	1,0000multiplexer slope coefficient	1,0000fibre end	0,00T internal ref (°C)	21,05T ext. ref 1 (°C)	4,69T ext. ref 2 (°C)	4,70length (m)	temperature (°C)	Stokes	anti-Stokes-744,400	-28,932	-0,037	0,016
-743,385	-66,261	-0,316	0,093
-742,371	-200,000	0,027	0,108
-741,356	39,397	-0,186	0,124
-740,342	-200,000	-0,023	0,076
-739,327	-44,196	-0,234	0,087
-738,312	760,384	0,040	-0,080
-737,298	515,014	-0,193	0,336
-736,283	558,408	0,023	0,041
-735,269	9,424	-0,235	0,132
-734,254	-74,349	0,063	0,017
-733,239	-16,298	-0,419	-0,197
-732,225	-167,071	0,166	-0,005
-731,210	-200,000	-0,001	0,145
-730,196	-58,574	-0,052	0,017
-729,181	800,000	-0,039	-0,087
-728,167	125,779	-0,089	0,084
-727,152	37,144	-0,041	-0,027
-726,137	-200,000	-0,035	-0,129
-725,123	707,617	-0,074	-0,147
-724,108	348,754	-0,020	-0,030
-723,094	-200,000	-0,023	-0,103
-722,079	-110,681	-0,195	-0,030
-721,064	204,316	-0,126	-0,145
-720,050	-161,012	0,049	0,002
-719,035	-200,000	0,004	0,075
-718,021	70,382	-0,172	0,132
-717,006	98,664	-0,120	-0,103
-715,991	-200,000	-0,011	-0,135
-714,977	-200,000	0,011	-0,124
-713,962	193,466	-0,082	0,092
-712,948	800,000	-0,042	0,092
-711,933	-172,147	0,081	-0,002
-710,918	800,000	0,042	-0,099
-709,904	-119,135	-0,080	-0,010
-708,889	800,000	-0,083	-0,180
-707,875	110,503	-0,108	-0,096
-706,860	800,000	0,002	-0,005
-705,845	800,000	-0,051	0,153
-704,831	615,823	-0,031	-0,057
-703,816	-31,237	0,143	0,060
-702,802	-16,879	-0,104	0,049
-701,787	458,703	-0,069	-0,115
-700,772	-200,000	-0,006	0,136
-699,758	93,544	-0,041	0,034
-698,743	150,967	0,085	-0,086
-697,729	179,266	0,045	0,049
-696,714	-200,000	-0,000	0,103
-695,699	-131,126	-0,145	-0,014
-694,685	769,072	-0,079	-0,160
-693,670	71,033	-0,094	0,072
-692,656	115,023	0,036	-0,033
-691,641	-200,000	-0,014	-0,061
-690,627	-135,392	0,055	0,005
-689,612	562,626	-0,035	0,064
-688,597	-164,340	-0,040	-0,001
-687,583	-130,756	-0,175	0,017
-686,568	-115,727	-0,072	-0,010
-685,554	-200,000	-0,015	-0,061
-684,539	-27,867	0,080	0,034
-683,524	83,769	-0,037	-0,030
-682,510	-32,002	-0,102	0,042
-681,495	-79,164	0,065	0,016
-680,481	-200,000	0,020	0,097
-679,466	122,719	-0,062	0,057
-678,451	626,171	0,040	-0,074
-677,437	-200,000	-0,008	0,133
-676,422	-200,000	0,044	0,158
-675,408	-200,000	0,002	0,034
-674,393	9,195	-0,137	-0,076
-673,378	5,925	-0,123	0,067
-672,364	-147,236	-0,100	-0,006
-671,349	707,156	-0,048	-0,095
-670,335	135,806	-0,060	-0,058
-669,320	-103,463	-0,058	0,010
-668,305	-100,335	-0,104	0,019
-667,291	-200,000	-0,014	-0,153
-666,276	800,000	0,019	-0,061
-665,262	-37,989	-0,066	-0,026
-664,247	105,086	0,058	-0,051
-663,232	283,323	0,033	-0,044
-662,218	-200,000	0,000	0,049
-661,203	-200,000	-0,002	0,016
-660,189	-80,452	0,222	0,054
-659,174	800,000	0,072	-0,150
-658,159	35,331	-0,130	-0,085
-657,145	-102,886	-0,064	0,011
-656,130	71,508	-0,046	-0,035
-655,116	4,250	-0,060	-0,032
-654,101	-200,000	0,006	0,167
-653,086	8,117	-0,069	-0,038
-652,072	800,000	0,076	-0,163
-651,057	-28,923	-0,071	-0,030
-650,043	103,299	-0,121	-0,105
-649,028	171,248	-0,061	-0,065
-648,014	-151,620	-0,071	-0,004
-646,999	-200,000	-0,020	0,081
-645,984	147,237	-0,088	-0,088
-644,970	77,366	-0,098	-0,077
-643,955	-86,447	-0,110	0,025
-642,941	506,835	-0,079	-0,137
-641,926	-200,000	-0,011	0,095
-640,911	800,000	0,054	0,146
-639,897	-200,000	0,020	0,151
-638,882	-66,016	-0,234	0,069
-637,868	-135,498	0,116	-0,010
-636,853	266,552	-0,069	0,090
-635,838	-200,000	-0,005	0,029
-634,824	-200,000	-0,002	0,042
-633,809	-200,000	0,002	0,040
-632,795	800,000	0,070	0,148
-631,780	329,845	-0,034	0,048
-630,765	-13,916	0,147	-0,070
-629,751	-200,000	0,004	0,023
-628,736	98,108	0,063	-0,054
-627,722	-173,004	-0,045	-0,001
-626,707	57,595	0,045	-0,032
-625,692	-11,303	-0,094	0,046
-624,678	121,580	0,063	0,059
-623,663	-16,949	-0,108	0,051
-622,649	-150,510	-0,125	-0,007
-621,634	-11,763	-0,057	0,027
-620,619	-92,242	0,059	0,012
-619,605	513,863	0,046	0,080
-618,590	-33,635	0,035	0,014
-617,576	113,702	-0,014	-0,012
-616,561	-200,000	0,004	0,147
-615,546	800,000	-0,036	0,088
-614,532	-97,288	-0,069	-0,013
-613,517	75,558	0,060	0,047
-612,503	800,000	-0,018	-0,054
-611,488	-200,000	-0,012	0,124
-610,474	800,000	-0,017	-0,052
-609,459	-68,769	0,124	0,035
-608,444	320,560	-0,045	-0,063
-607,430	800,000	0,021	0,046
-606,415	800,000	-0,052	-0,149
-605,401	123,755	0,051	-0,047
-604,386	-111,708	0,200	-0,030
-603,371	353,650	-0,063	0,093
-602,357	-200,000	0,007	-0,092
-601,342	800,000	-0,080	-0,202
-600,328	-138,414	-0,065	-0,005
-599,313	-200,000	0,011	-0,132
-598,298	254,055	-0,058	-0,073
-597,284	-116,756	0,162	-0,022
-596,269	56,192	-0,110	-0,079
-595,255	-200,000	0,011	0,050
-594,240	67,144	0,137	0,103
-593,225	-19,538	-0,096	-0,044
-592,211	145,909	-0,069	0,069
-591,196	-200,000	-0,034	-0,113
-590,182	235,776	-0,078	-0,096
-589,167	-92,650	0,120	0,025
-588,152	316,553	-0,032	-0,045
-587,138	635,051	-0,050	-0,094
-586,123	-48,602	0,070	-0,025
-585,109	-167,067	-0,105	0,003
-584,094	-16,462	-0,073	-0,034
-583,079	318,303	0,066	0,092
-582,065	-146,632	-0,097	-0,006
-581,050	25,821	-0,079	-0,049
-580,036	800,000	0,020	-0,041
-579,021	164,958	-0,013	-0,014
-578,006	286,363	0,073	0,098
-576,992	-79,496	0,040	0,010
-575,977	-130,582	-0,113	0,011
-574,963	-19,997	0,069	-0,031
-573,948	758,234	-0,048	-0,096
-572,934	85,870	0,101	-0,082
-571,919	416,679	-0,051	-0,081
-570,904	-3,839	-0,070	0,036
-569,890	12,496	0,038	0,022
-568,875	209,393	-0,083	0,096
-567,861	-200,000	0,005	0,065
-566,846	7,326	0,032	-0,018
-565,831	-164,311	-0,027	0,001
-564,817	345,507	0,060	0,088
-563,802	-92,172	-0,097	0,020
-562,788	137,146	-0,056	-0,054
-561,773	-194,010	0,061	0,000
-560,758	-34,831	0,123	0,049
-559,744	252,875	0,028	-0,035
-558,729	-200,000	0,013	0,083
-557,715	800,000	0,019	-0,041
-556,700	-9,249	-0,016	-0,008
-555,685	-200,000	0,001	0,186
-554,671	-44,381	0,055	-0,020
-553,656	-161,310	0,143	-0,005
-552,642	-200,000	0,002	0,059
-551,627	-19,439	-0,048	0,022
-550,612	234,773	-0,033	-0,040
-549,598	800,000	0,016	-0,044
-548,583	-200,000	-0,013	-0,102
-547,569	-200,000	0,004	0,176
-546,554	756,942	0,067	0,135
-545,539	-107,477	0,140	-0,022
-544,525	-100,920	0,162	0,029
-543,510	-200,000	-0,025	-0,111
-542,496	-200,000	-0,021	-0,080
-541,481	350,826	0,049	-0,072
-540,466	53,056	-0,143	-0,101
-539,452	800,000	0,034	-0,081
-538,437	225,645	0,042	0,051
-537,423	512,820	-0,033	0,056
-536,408	227,640	-0,088	-0,105
-535,393	-39,009	-0,072	-0,028
-534,379	79,499	-0,032	0,025
-533,364	-154,536	0,120	-0,006
-532,350	775,519	0,015	-0,030
-531,335	-200,000	-0,016	0,212
-530,321	-81,518	0,075	-0,018
-529,306	8,507	-0,069	0,038
-528,291	-200,000	0,005	-0,018
-527,277	-58,711	0,017	0,005
-526,262	-25,500	0,149	-0,065
-525,248	47,269	-0,087	0,060
-524,233	614,863	-0,011	-0,020
-523,218	157,491	-0,030	0,030
-522,204	20,775	-0,054	-0,032
-521,189	-16,630	0,098	-0,046
-520,175	-200,000	-0,015	-0,092
-519,160	291,816	-0,045	-0,060
-518,145	-36,869	0,086	-0,034
-517,131	197,077	0,099	-0,112
-516,116	800,000	0,058	0,132
-515,102	39,145	-0,059	-0,039
-514,087	644,128	0,031	0,059
-513,072	-109,800	0,092	-0,014
-512,058	-83,156	-0,060	-0,014
-511,043	59,025	-0,058	-0,042
-510,029	-135,749	0,051	0,004
-509,014	232,520	-0,087	0,106
-507,999	-200,000	0,001	0,103
-506,985	0,954	0,060	-0,032
-505,970	97,413	-0,057	-0,048
-504,956	24,887	0,034	0,021
-503,941	281,831	-0,041	-0,054
-502,926	-200,000	-0,019	0,141
-501,912	-21,199	-0,055	0,025
-500,897	179,923	-0,054	-0,058
-499,883	-87,348	-0,069	0,015
-498,868	83,295	-0,030	-0,024
-497,853	-200,000	-0,023	-0,115
-496,839	373,189	0,053	-0,079
-495,824	643,454	0,025	-0,048
-494,810	368,092	0,057	0,085
-493,795	800,000	-0,039	-0,097
-492,781	-200,000	-0,086	0,000
-491,766	-200,000	0,012	0,115
-490,751	-57,535	-0,090	0,029
-489,737	756,931	0,046	-0,093
-488,722	358,362	-0,037	-0,054
-487,708	21,913	0,171	0,102
-486,693	-63,328	0,016	0,005
-485,678	-200,000	-0,024	-0,140
-484,664	17,349	-0,104	-0,061
-483,649	-115,256	-0,121	0,017
-482,635	-42,474	-0,098	0,036
-481,620	800,000	-0,029	-0,085
-480,605	-83,409	-0,121	0,028
-479,591	-119,816	0,061	0,008
-478,576	-200,000	0,004	0,054
-477,562	77,611	0,064	-0,050
-476,547	-200,000	0,009	-0,147
-475,532	-200,000	-0,044	0,148
-474,518	-200,000	-0,010	-0,057
-473,503	-96,176	-0,062	-0,012
-472,489	221,598	0,060	-0,071
-471,474	800,000	0,043	0,116
-470,459	197,117	0,063	-0,070
-469,445	800,000	-0,042	-0,128
-468,430	800,000	-0,031	-0,079
-467,416	321,624	-0,068	-0,095
-466,401	680,358	0,038	-0,073
-465,386	181,946	-0,033	0,035
-464,372	-200,000	-0,005	0,112
-463,357	800,000	-0,002	-0,006
-462,343	-22,979	0,061	0,027
-461,328	524,037	-0,079	0,138
-460,313	151,499	-0,039	0,039
-459,299	157,262	0,080	0,082
-458,284	-40,610	0,118	0,045
-457,270	-11,887	-0,118	-0,057
-456,255	-117,522	0,020	-0,003
-455,241	327,356	-0,063	0,089
-454,226	-200,000	-0,023	-0,138
-453,211	177,990	0,014	0,015
-452,197	-79,241	-0,106	0,026
-451,182	-73,175	-0,095	0,025
-450,168	197,244	0,047	-0,053
-449,153	-87,762	-0,058	0,013
-448,138	-142,374	-0,109	0,008
-447,124	-136,241	-0,044	-0,004
-446,109	23,844	-0,090	-0,054
-445,095	800,000	-0,057	-0,141
-444,080	-99,104	0,038	-0,007
-443,065	649,635	-0,070	0,132
-442,051	300,588	0,038	0,051
-441,036	-200,000	0,011	-0,140
-440,022	800,000	-0,033	-0,095
-439,007	82,819	0,035	-0,028
-437,992	-138,992	0,055	0,004
-436,978	-200,000	0,016	0,086
-435,963	31,049	-0,065	0,041
-434,949	-110,862	0,087	0,013
-433,934	103,865	-0,088	-0,076
-432,919	627,728	0,109	-0,203
-431,905	-200,000	0,034	-0,123
-430,890	800,000	0,048	0,109
-429,876	-39,201	-0,044	-0,017
-428,861	-162,656	0,069	0,002
-427,846	-200,000	0,006	0,085
-426,832	199,451	0,037	0,042
-425,817	48,473	0,102	0,070
-424,803	-65,193	-0,105	-0,031
-423,788	-43,001	0,156	-0,058
-422,773	231,734	0,056	-0,068
-421,759	-65,683	0,090	-0,026
-420,744	54,850	-0,129	-0,091
-419,730	800,000	-0,054	-0,122
-418,715	-200,000	-0,005	-0,074
-417,701	369,550	-0,019	-0,028
-416,686	124,061	-0,060	-0,055
-415,671	21,882	0,135	0,081
-414,657	800,000	0,036	0,097
-413,642	-200,000	0,012	0,076
-412,628	529,972	0,064	0,111
-411,613	480,170	-0,022	-0,037
-410,598	-147,606	-0,047	0,003
-409,584	-91,881	0,096	-0,020
-408,569	800,000	0,052	0,115
-407,555	-200,000	-0,040	0,165
-406,540	230,838	0,053	0,064
-405,525	-200,000	-0,006	0,065
-404,511	-200,000	0,013	0,064
-403,496	100,000	-0,068	-0,058
-402,482	-200,000	0,017	0,093
-401,467	-22,861	0,141	0,062
-400,452	800,000	-0,023	-0,064
-399,438	-200,000	-0,008	0,106
-398,423	36,522	-0,027	-0,017
-397,409	800,000	-0,060	0,124
-396,394	102,037	0,046	-0,039
-395,379	800,000	-0,036	-0,105
-394,365	68,428	0,176	0,132
-393,350	252,886	-0,035	-0,044
-392,336	-124,381	0,051	0,006
-391,321	55,381	-0,059	-0,042
-390,306	6,352	-0,150	0,081
-389,292	800,000	0,027	0,063
-388,277	733,730	0,015	-0,029
-387,263	-187,625	0,061	0,001
-386,248	-200,000	0,003	0,104
-385,233	124,445	0,017	-0,015
-384,219	-200,000	-0,009	-0,066
-383,204	-163,957	0,041	-0,001
-382,190	800,000	0,045	0,123
-381,175	-61,641	0,087	0,026
-380,160	-200,000	-0,032	-0,111
-379,146	-58,680	-0,071	0,022
-378,131	63,225	0,120	-0,088
-377,117	97,538	0,068	0,057
-376,102	-92,314	-0,114	0,023
-375,088	-26,798	0,087	0,037
-374,073	-18,524	-0,075	-0,034
-373,058	-73,689	0,104	0,028
-372,044	-15,004	0,084	-0,039
-371,029	358,668	0,078	0,115
-370,015	42,443	-0,123	0,082
-369,000	-200,000	0,003	0,069
-367,985	175,499	-0,016	-0,017
-366,971	-200,000	-0,022	0,090
-365,956	358,798	0,011	-0,016
-364,942	157,548	-0,023	-0,023
-363,927	800,000	-0,015	-0,032
-362,912	-24,504	0,066	0,029
-361,898	-200,000	-0,068	0,000
-360,883	601,220	0,026	-0,048
-359,869	-200,000	0,012	0,066
-358,854	-19,484	0,065	0,030
-357,839	-200,000	0,008	0,063
-356,825	-200,000	-0,003	0,028
-355,810	-17,880	0,085	-0,039
-354,796	-0,947	-0,115	-0,059
-353,781	53,610	-0,122	-0,086
-352,766	202,493	-0,078	-0,089
-351,752	78,222	-0,123	-0,096
-350,737	-51,901	-0,031	0,010
-349,723	731,166	-0,012	-0,024
-348,708	-11,522	-0,064	0,030
-347,693	800,000	0,034	0,099
-346,679	-59,476	-0,168	0,053
-345,664	106,964	0,040	-0,034
-344,650	104,412	-0,131	0,113
-343,635	-70,602	0,150	0,041
-342,620	-200,000	-0,011	0,037
-341,606	-200,000	-0,003	0,125
-340,591	-53,950	-0,110	0,036
-339,577	-31,972	0,052	-0,021
-338,562	800,000	-0,086	-0,256
-337,548	198,438	-0,033	0,038
-336,533	89,802	0,119	-0,097
-335,518	-47,578	0,098	-0,035
-334,504	800,000	-0,019	0,058
-333,489	-200,000	0,019	0,144
-332,475	-200,000	0,005	-0,027
-331,460	216,783	0,071	0,083
-330,445	283,096	0,044	-0,057
-329,431	-200,000	0,016	-0,116
-328,416	213,960	0,095	0,110
-327,402	800,000	-0,071	0,154
-326,387	-106,981	0,152	0,024
-325,372	479,921	-0,051	-0,085
-324,358	-16,405	0,063	-0,029
-323,343	-55,733	-0,054	-0,017
-322,329	-46,218	0,084	0,030
-321,314	89,738	-0,099	-0,080
-320,299	182,446	-0,056	-0,060
-319,285	-200,000	-0,004	-0,021
-318,270	443,128	-0,117	-0,188
-317,256	-66,433	0,025	0,007
-316,241	-118,550	0,156	-0,020
-315,226	495,152	-0,056	0,095
-314,212	10,100	0,040	-0,022
-313,197	-200,000	-0,032	0,173
-312,183	-200,000	-0,003	-0,027
-311,168	184,336	0,048	0,052
-310,153	315,273	-0,008	0,011
-309,139	-96,059	0,063	-0,012
-308,124	-200,000	-0,002	0,131
-307,110	-93,529	0,157	-0,032
-306,095	-150,678	0,169	-0,009
-305,080	-21,403	-0,125	0,056
-304,066	-68,150	0,025	0,007
-303,051	56,720	0,004	-0,003
-302,037	89,828	-0,061	-0,050
-301,022	-26,251	0,039	-0,017
-300,008	-10,838	0,056	-0,027
-298,993	-31,840	0,043	0,017
-297,978	30,551	0,019	-0,012
-296,964	192,785	0,072	-0,080
-295,949	-200,000	0,004	-0,031
-294,935	27,234	0,032	-0,020
-293,920	-86,439	0,079	0,018
-292,905	800,000	-0,058	0,118
-291,891	-67,293	0,138	0,039
-290,876	-200,000	0,018	-0,075
-289,862	80,840	-0,103	0,081
-288,847	-0,240	-0,110	-0,057
-287,832	31,354	-0,033	-0,021
-286,818	-200,000	-0,013	0,043
-285,803	800,000	-0,027	0,084
-284,789	377,553	0,037	-0,055
-283,774	244,104	-0,058	0,072
-282,759	-200,000	-0,008	-0,110
-281,745	-45,641	-0,094	0,034
-280,730	16,147	0,077	0,044
-279,716	800,000	0,027	-0,070
-278,701	36,491	0,057	-0,037
-277,686	-200,000	-0,005	-0,042
-276,672	-200,000	-0,031	-0,100
-275,657	-170,483	-0,159	-0,004
-274,643	800,000	-0,033	0,086
-273,628	800,000	0,033	-0,101
-272,613	-200,000	-0,029	-0,179
-271,599	61,667	0,081	-0,059
-270,584	563,457	0,054	0,096
-269,570	54,985	0,080	0,057
-268,555	749,118	-0,013	-0,026
-267,540	-200,000	-0,003	0,039
-266,526	109,512	-0,117	-0,102
-265,511	-45,290	0,132	-0,047
-264,497	274,650	-0,023	-0,030
-263,482	-200,000	0,017	0,080
-262,467	800,000	0,080	0,168
-261,453	800,000	0,092	0,206
-260,438	-18,923	-0,133	-0,060
-259,424	-200,000	0,002	-0,138
-258,409	-43,609	0,039	-0,014
-257,395	-74,432	-0,045	0,012
-256,380	16,634	0,080	-0,046
-255,365	-200,000	0,003	0,065
-254,351	-33,607	0,033	0,013
-253,336	701,550	-0,069	-0,133
-252,322	479,292	0,021	-0,035
-251,307	-25,633	0,061	0,026
-250,292	-175,508	-0,137	0,003
-249,278	-200,000	0,008	0,096
-248,263	53,439	-0,038	0,027
-247,249	800,000	0,070	0,143
-246,234	-72,047	0,048	-0,013
-245,219	-127,238	0,119	0,013
-244,205	601,709	-0,064	-0,117
-243,190	242,152	0,114	-0,139
-242,176	245,129	-0,021	0,026
-241,161	119,080	-0,069	-0,062
-240,146	800,000	0,044	-0,089
-239,132	-200,000	-0,029	0,112
-238,117	-138,771	-0,126	-0,010
-237,103	-90,694	-0,026	0,005
-236,088	-100,831	-0,147	0,026
-235,073	-200,000	0,016	0,069
-234,059	-200,000	0,013	-0,055
-233,044	528,767	0,067	-0,115
-232,030	-200,000	-0,002	-0,021
-231,015	-8,963	0,098	-0,047
-230,000	-163,873	-0,041	0,001
-228,986	-200,000	-0,027	-0,094
-227,971	95,265	0,023	0,019
-226,957	-200,000	0,009	0,066
-225,942	-110,300	0,144	0,022
-224,927	800,000	0,028	-0,060
-223,913	-200,000	-0,028	0,116
-222,898	366,393	0,045	-0,067
-221,884	-57,366	-0,038	0,012
-220,869	-133,011	0,060	-0,005
-219,855	-11,313	0,056	0,027
-218,840	565,318	-0,005	0,009
-217,825	26,429	0,118	0,072
-216,811	-4,685	-0,060	0,030
-215,796	-200,000	0,015	-0,211
-214,782	-43,241	-0,101	-0,037
-213,767	64,930	0,078	-0,057
-212,752	-200,000	0,023	0,128
-211,738	2,762	-0,031	-0,017
-210,723	642,610	-0,040	0,074
-209,709	-82,962	0,126	0,029
-208,694	156,322	0,032	0,032
-207,679	800,000	-0,047	-0,109
-206,665	-53,836	-0,040	-0,013
-205,650	800,000	0,030	-0,064
-204,636	800,000	-0,023	-0,067
-203,621	-79,011	0,066	0,016
-202,606	131,663	0,055	-0,051
-201,592	38,122	-0,065	-0,042
-200,577	800,000	0,052	-0,116
-199,563	-33,515	0,127	-0,051
-198,548	800,000	-0,030	0,094
-197,533	456,675	-0,062	0,100
-196,519	800,000	0,023	0,054
-195,504	238,540	0,044	-0,054
-194,490	-200,000	0,000	-0,033
-193,475	-76,049	-0,064	0,016
-192,460	318,460	0,027	-0,037
-191,446	-36,520	-0,103	0,040
-190,431	-13,804	0,049	-0,023
-189,417	-137,813	0,053	-0,004
-188,402	-172,056	0,022	-0,001
-187,387	-181,047	0,066	0,001
-186,373	800,000	-0,071	-0,166
-185,358	306,469	-0,038	0,051
-184,344	-21,441	0,057	-0,025
-183,329	-42,482	-0,017	-0,006
-182,315	5,054	-0,197	0,105
-181,300	800,000	0,048	-0,151
-180,285	-50,464	-0,140	0,048
-179,271	-72,626	-0,075	0,020
-178,256	81,141	-0,035	0,027
-177,242	-123,300	0,113	0,013
-176,227	800,000	0,037	0,085
-175,212	69,221	0,061	-0,046
-174,198	800,000	0,040	0,082
-173,183	2,343	-0,102	0,053
-172,169	-51,777	-0,118	-0,040
-171,154	-200,000	0,001	-0,080
-170,139	-155,977	-0,070	0,003
-169,125	-200,000	0,006	0,100
-168,110	654,062	-0,034	0,064
-167,096	-103,899	-0,094	-0,016
-166,081	0,770	-0,099	-0,051
-165,066	149,505	0,035	-0,035
-164,052	367,617	0,090	-0,132
-163,037	800,000	0,024	-0,053
-162,023	-200,000	-0,007	0,063
-161,008	63,209	0,028	0,021
-159,993	-200,000	0,039	0,130
-158,979	800,000	0,034	0,075
-157,964	-139,665	-0,065	-0,005
-156,950	800,000	0,015	-0,046
-155,935	-25,332	-0,032	-0,014
-154,920	-200,000	-0,016	0,069
-153,906	737,066	-0,024	0,048
-152,891	-35,890	0,097	-0,038
-151,877	91,886	-0,025	-0,021
-150,862	109,061	0,020	-0,018
-149,847	-118,666	0,096	-0,012
-148,833	135,670	0,092	-0,087
-147,818	67,059	0,074	-0,055
-146,804	784,209	0,027	-0,054
-145,789	170,764	-0,019	-0,019
-144,775	245,078	-0,098	0,121
-143,760	52,018	0,034	-0,023
-142,745	307,370	0,022	0,030
-141,731	660,838	0,031	0,059
-140,716	-200,000	0,005	0,132
-139,702	-200,000	-0,037	0,158
-138,687	124,663	-0,022	-0,020
-137,672	-44,893	0,122	0,044
-136,658	-70,450	0,082	0,022
-135,643	800,000	0,026	-0,075
-134,629	62,136	0,075	-0,054
-133,614	-188,064	0,052	0,000
-132,599	800,000	0,048	0,110
-131,585	146,004	0,064	-0,062
-130,570	-109,128	-0,075	0,012
-129,556	699,283	-0,055	0,106
-128,541	-98,023	-0,076	0,014
-127,526	-200,000	0,004	-0,049
-126,512	-80,260	0,062	-0,015
-125,497	-200,000	0,038	0,176
-124,483	-142,790	0,165	0,012
-123,468	453,794	-0,077	0,125
-122,453	800,000	-0,015	0,032
-121,439	315,352	0,088	0,121
-120,424	-55,176	-0,036	0,012
-119,410	322,465	0,054	0,075
