DTS Sentinel unit serial number:	SN410029Multiplexer serial number:	ORYXHardware model number:	OX2-SRSoftware version number:	ORYX F/W v4,00 Oryx Data Collector v3.7.2.0data status	okinstallation	B6 Nyhavnadifferential loss correction	single-endedforward channel	channel 2reverse channel	N/Adate	2023/12/08time	17:40:08forward acquisition time	300,00reverse acquisition time	0,00gamma	499,1914k internal	0,3158k external	0,3158temperature offset calibration	1,0000default loss term (dB/km)	0,3820temperature slope calibration	1,0000multiplexer offset coefficient	1,0000multiplexer slope coefficient	1,0000fibre end	0,00T internal ref (°C)	15,18T ext. ref 1 (°C)	-1,29T ext. ref 2 (°C)	-1,30length (m)	temperature (°C)	Stokes	anti-Stokes-744,400	-8,231	0,114	-0,056
-743,385	105,610	-0,206	-0,179
-742,371	323,128	0,083	0,117
-741,356	-106,028	-0,260	0,043
-740,342	-158,818	0,088	0,004
-739,327	-65,939	-0,295	-0,086
-738,312	20,337	-0,046	0,028
-737,298	-96,623	-0,260	0,050
-736,283	-8,558	-0,059	0,029
-735,269	-53,418	-0,167	-0,056
-734,254	78,239	0,015	0,012
-733,239	-23,806	-0,502	-0,221
-732,225	-30,390	0,211	0,088
-731,210	-200,000	0,003	0,029
-730,196	-200,000	0,005	-0,076
-729,181	800,000	0,079	-0,218
-728,167	-57,767	-0,153	0,049
-727,152	665,122	-0,091	-0,174
-726,137	140,223	-0,083	-0,081
-725,123	323,655	-0,089	-0,125
-724,108	-189,904	-0,045	-0,000
-723,094	-195,064	-0,127	-0,001
-722,079	682,750	0,061	-0,118
-721,064	76,715	-0,086	-0,067
-720,050	349,531	-0,040	-0,058
-719,035	800,000	-0,017	-0,036
-718,021	231,807	-0,116	-0,140
-717,006	48,101	0,042	-0,029
-715,991	410,395	-0,045	-0,071
-714,977	-79,606	-0,042	-0,010
-713,962	-200,000	-0,007	-0,074
-712,948	-4,786	0,051	-0,026
-711,933	-200,000	0,002	0,049
-710,918	2,732	-0,131	0,070
-709,904	800,000	-0,021	-0,056
-708,889	800,000	0,085	-0,221
-707,875	-61,902	0,021	0,007
-706,860	61,482	0,067	-0,049
-705,845	-95,955	-0,079	-0,015
-704,831	-200,000	-0,006	0,058
-703,816	359,686	-0,053	0,078
-702,802	-23,717	-0,120	0,053
-701,787	-116,585	-0,062	-0,008
-700,772	0,354	-0,039	0,021
-699,758	-54,801	-0,079	-0,026
-698,743	800,000	0,021	-0,066
-697,729	-12,383	0,216	0,104
-696,714	-44,621	0,054	-0,020
-695,699	-160,863	-0,067	0,003
-694,685	-200,000	0,010	-0,032
-693,670	-37,508	-0,113	-0,044
-692,656	-200,000	0,016	0,097
-691,641	800,000	-0,010	-0,023
-690,627	800,000	-0,025	0,078
-689,612	212,473	-0,042	-0,049
-688,597	362,660	0,041	-0,061
-687,583	61,363	-0,172	0,125
-686,568	-10,490	0,109	-0,053
-685,554	-200,000	0,045	0,148
-684,539	-200,000	0,007	0,050
-683,524	-168,534	-0,065	0,002
-682,510	800,000	0,057	0,164
-681,495	-67,204	0,016	-0,005
-680,481	-149,369	0,087	-0,005
-679,466	114,055	-0,087	-0,078
-678,451	-21,808	0,048	0,022
-677,437	800,000	-0,026	-0,062
-676,422	792,844	-0,029	0,059
-675,408	-9,190	0,095	0,047
-674,393	-1,553	-0,050	0,026
-673,378	442,575	-0,071	0,114
-672,364	84,972	-0,066	-0,053
-671,349	212,945	-0,123	-0,143
-670,335	-200,000	-0,026	-0,220
-669,320	13,463	-0,030	0,017
-668,305	-200,000	-0,001	-0,057
-667,291	-200,000	-0,002	-0,062
-666,276	-200,000	0,001	-0,115
-665,262	434,425	-0,006	-0,010
-664,247	160,264	-0,103	-0,106
-663,232	211,330	0,014	0,016
-662,218	396,595	-0,088	-0,136
-661,203	-200,000	-0,011	-0,099
-660,189	-200,000	0,019	-0,100
-659,174	-200,000	0,006	-0,157
-658,159	67,215	-0,054	-0,041
-657,145	-200,000	-0,009	-0,054
-656,130	174,629	-0,041	-0,044
-655,116	-162,385	-0,101	-0,004
-654,101	-4,193	-0,049	0,025
-653,086	-151,943	0,058	-0,003
-652,072	800,000	0,026	0,062
-651,057	718,868	-0,036	-0,071
-650,043	388,026	-0,042	-0,065
-649,028	-129,139	0,113	0,011
-648,014	469,864	0,046	0,077
-646,999	10,055	0,101	-0,056
-645,984	428,125	-0,011	-0,018
-644,970	-1,067	-0,032	0,017
-643,955	-2,811	-0,065	-0,033
-642,941	783,136	-0,020	-0,040
-641,926	-26,199	0,109	0,047
-640,911	477,925	0,092	0,154
-639,897	800,000	0,017	0,035
-638,882	-9,573	-0,208	-0,101
-637,868	-200,000	-0,019	0,084
-636,853	404,982	-0,086	-0,133
-635,838	-200,000	-0,006	-0,029
-634,824	800,000	-0,055	-0,119
-633,809	25,379	-0,059	-0,036
-632,795	-14,403	-0,049	0,023
-631,780	134,881	-0,059	-0,057
-630,765	113,879	-0,136	-0,121
-629,751	8,445	-0,043	-0,023
-628,736	-89,511	-0,150	-0,032
-627,722	-200,000	0,004	-0,060
-626,707	498,499	-0,062	-0,105
-625,692	161,818	0,055	-0,056
-624,678	-116,239	-0,034	-0,005
-623,663	-3,572	-0,120	-0,061
-622,649	-170,332	-0,204	0,005
-621,634	265,309	-0,125	-0,161
-620,619	-102,772	-0,100	0,017
-619,605	-20,450	-0,044	0,020
-618,590	-158,475	0,053	-0,002
-617,576	-129,897	-0,028	0,003
-616,561	-72,121	-0,047	-0,013
-615,546	-43,481	-0,101	-0,037
-614,532	-69,256	-0,038	-0,011
-613,517	113,271	-0,096	-0,085
-612,503	-95,303	-0,153	0,030
-611,488	-96,469	0,089	0,017
-610,474	800,000	0,048	0,132
-609,459	-200,000	0,004	0,055
-608,444	111,584	-0,025	-0,022
-607,430	-200,000	-0,017	-0,165
-606,415	800,000	-0,027	-0,062
-605,401	7,519	0,070	-0,038
-604,386	-200,000	0,009	-0,035
-603,371	78,014	0,084	0,066
-602,357	-77,169	0,050	0,013
-601,342	-53,063	0,045	-0,015
-600,328	-200,000	0,036	-0,165
-599,313	-200,000	0,004	-0,136
-598,298	-200,000	-0,004	-0,049
-597,284	-200,000	0,010	-0,062
-596,269	-200,000	0,015	-0,082
-595,255	-67,470	0,197	0,056
-594,240	138,178	-0,071	-0,068
-593,225	-22,039	0,047	-0,021
-592,211	394,841	-0,044	-0,067
-591,196	-152,348	0,074	0,004
-590,182	800,000	0,031	0,065
-589,167	142,191	-0,037	0,036
-588,152	270,107	0,010	-0,013
-587,138	27,830	-0,036	0,022
-586,123	-179,561	-0,058	-0,001
-585,109	-200,000	-0,012	-0,078
-584,094	-60,439	-0,172	0,053
-583,079	-115,785	0,059	0,008
-582,065	174,518	0,048	-0,051
-581,050	-200,000	-0,006	-0,093
-580,036	309,496	-0,010	-0,014
-579,021	800,000	-0,019	-0,054
-578,006	178,874	0,125	-0,134
-576,992	-14,166	0,101	-0,048
-575,977	-200,000	-0,015	-0,079
-574,963	-81,361	-0,068	0,016
-573,948	-169,686	0,064	-0,002
-572,934	109,986	0,021	0,018
-571,919	-50,532	0,075	-0,026
-570,904	-161,625	-0,104	-0,004
-569,890	800,000	0,046	-0,120
-568,875	288,183	-0,051	0,067
-567,861	189,684	0,034	0,038
-566,846	-133,539	0,068	-0,006
-565,831	-200,000	0,004	-0,016
-564,817	429,978	-0,031	-0,049
-563,802	-200,000	-0,009	-0,194
-562,788	800,000	0,043	0,133
-561,773	-125,041	0,062	-0,007
-560,758	150,813	-0,056	0,056
-559,744	192,581	0,130	0,144
-558,729	-200,000	-0,002	0,083
-557,715	-113,723	0,086	-0,012
-556,700	56,661	0,109	-0,078
-555,685	-27,283	-0,077	-0,033
-554,671	53,906	0,072	-0,051
-553,656	-94,250	-0,099	0,020
-552,642	446,357	0,023	-0,038
-551,627	-200,000	0,001	-0,161
-550,612	17,988	-0,081	-0,047
-549,598	-200,000	-0,023	-0,115
-548,583	435,509	0,074	-0,118
-547,569	800,000	0,017	-0,047
-546,554	-34,284	0,152	-0,061
-545,539	-92,084	0,071	-0,015
-544,525	47,551	0,019	0,013
-543,510	800,000	-0,014	-0,031
-542,496	87,748	0,068	0,055
-541,481	-200,000	0,010	-0,040
-540,466	133,032	0,112	0,106
-539,452	-200,000	0,001	-0,036
-538,437	260,397	-0,025	0,032
-537,423	249,363	-0,037	0,047
-536,408	69,206	0,097	0,073
-535,393	187,809	0,040	-0,043
-534,379	-200,000	0,024	-0,116
-533,364	-200,000	-0,003	-0,106
-532,350	-200,000	0,005	-0,042
-531,335	-200,000	0,018	-0,180
-530,321	25,899	0,066	-0,040
-529,306	-49,976	-0,051	0,018
-528,291	-200,000	-0,016	-0,060
-527,277	-16,495	-0,125	0,058
-526,262	153,072	0,084	-0,084
-525,248	-169,422	-0,051	-0,001
-524,233	800,000	0,022	0,054
-523,218	37,788	-0,113	0,073
-522,204	95,284	-0,027	-0,022
-521,189	245,847	-0,088	0,109
-520,175	-104,367	-0,065	-0,011
-519,160	800,000	-0,067	0,151
-518,145	-65,256	-0,107	-0,031
-517,131	800,000	0,060	0,132
-516,116	379,610	0,108	0,163
-515,102	555,984	0,046	-0,082
-514,087	62,467	-0,112	0,081
-513,072	-200,000	0,012	0,047
-512,058	-45,775	-0,056	-0,020
-511,043	800,000	0,073	0,211
-510,029	-39,400	-0,068	0,026
-509,014	-107,294	0,081	0,013
-507,999	67,484	0,040	-0,030
-506,985	106,301	-0,117	-0,102
-505,970	-200,000	0,007	0,063
-504,956	-200,000	0,021	-0,146
-503,941	381,638	-0,030	0,045
-502,926	53,916	0,165	0,116
-501,912	-117,293	0,085	0,011
-500,897	800,000	-0,047	0,114
-499,883	-71,294	0,188	0,051
-498,868	107,709	-0,097	-0,084
-497,853	568,977	-0,070	0,125
-496,839	298,990	0,023	0,032
-495,824	1,148	0,113	-0,059
-494,810	-117,711	-0,173	0,022
-493,795	-56,312	0,020	-0,006
-492,781	-132,342	-0,095	0,009
-491,766	18,792	0,141	-0,082
-490,751	-200,000	0,003	0,065
-489,737	-92,799	0,054	-0,011
-488,722	-112,460	-0,043	0,006
-487,708	67,526	-0,031	0,023
-486,693	800,000	-0,038	0,079
-485,678	548,621	-0,046	0,081
-484,664	215,273	-0,051	0,059
-483,649	531,055	-0,028	-0,049
-482,635	-200,000	0,021	0,113
-481,620	800,000	0,094	0,208
-480,605	-200,000	0,022	0,125
-479,591	-49,128	0,089	0,031
-478,576	-200,000	0,008	-0,059
-477,562	-101,080	-0,053	-0,009
-476,547	-55,933	0,071	-0,023
-475,532	98,627	0,042	-0,035
-474,518	-175,705	0,071	0,001
-473,503	234,930	-0,040	0,048
-472,489	-76,340	0,139	-0,035
-471,474	800,000	0,044	0,094
-470,459	390,032	0,009	-0,014
-469,445	-200,000	0,002	-0,162
-468,430	-125,504	0,099	-0,011
-467,416	-200,000	-0,006	-0,091
-466,401	-95,107	0,063	-0,012
-465,386	800,000	-0,035	0,091
-464,372	800,000	-0,029	-0,061
-463,357	37,748	-0,040	-0,026
-462,343	5,672	-0,159	-0,086
-461,328	-200,000	0,011	-0,043
-460,313	346,576	-0,039	-0,056
-459,299	12,077	-0,106	-0,060
-458,284	-200,000	0,003	-0,059
-457,270	-84,656	-0,105	-0,024
-456,255	-116,341	-0,111	-0,015
-455,241	-200,000	-0,002	-0,030
-454,226	-75,081	-0,125	0,032
-453,211	244,733	-0,092	0,113
-452,197	-121,068	0,145	0,017
-451,182	-54,920	-0,042	-0,014
-450,168	549,407	-0,080	-0,140
-449,153	-76,210	-0,072	-0,018
-448,138	128,068	0,060	0,056
-447,124	-200,000	0,011	0,053
-446,109	-72,592	0,049	-0,013
-445,095	-20,717	-0,098	-0,044
-444,080	-120,291	0,134	0,016
-443,065	34,739	0,119	0,076
-442,051	179,235	-0,037	0,039
-441,036	589,125	-0,019	-0,034
-440,022	-150,225	0,092	-0,005
-439,007	800,000	-0,040	0,090
-437,992	395,662	-0,064	0,097
-436,978	-81,754	0,001	-0,000
-435,963	184,122	0,024	0,026
-434,949	129,254	-0,084	0,078
-433,934	-45,622	-0,042	-0,015
-432,919	-200,000	0,012	-0,051
-431,905	59,020	0,044	-0,031
-430,890	800,000	-0,036	-0,083
-429,876	-37,380	0,005	-0,002
-428,861	-200,000	-0,004	0,022
-427,846	-200,000	-0,002	0,017
-426,832	-5,113	-0,083	-0,041
-425,817	-200,000	0,006	-0,124
-424,803	-138,783	0,122	0,010
-423,788	-87,977	0,042	0,009
-422,773	-96,775	-0,004	-0,001
-421,759	102,516	-0,099	-0,084
-420,744	-200,000	0,007	0,053
-419,730	-7,949	0,085	0,042
-418,715	-121,788	-0,060	-0,007
-417,701	2,085	0,084	-0,044
-416,686	-146,883	0,176	-0,011
-415,671	-60,112	-0,034	-0,011
-414,657	-200,000	0,032	0,160
-413,642	208,418	0,016	-0,019
-412,628	-101,332	0,067	-0,012
-411,613	148,260	-0,065	-0,064
-410,598	-158,535	-0,114	-0,005
-409,584	144,940	-0,030	-0,029
-408,569	-62,371	0,094	0,028
-407,555	-48,783	-0,123	0,043
-406,540	125,511	0,111	-0,102
-405,525	716,664	-0,048	0,093
-404,511	-131,096	-0,066	0,006
-403,496	39,075	-0,079	0,052
-402,482	567,436	0,037	0,066
-401,467	351,231	0,072	0,105
-400,452	76,600	-0,022	-0,017
-399,438	-59,800	0,012	-0,004
-398,423	800,000	0,028	0,068
-397,409	400,435	0,025	-0,038
-396,394	-200,000	-0,025	-0,219
-395,379	-14,091	0,010	0,005
-394,365	-200,000	-0,001	0,033
-393,350	-200,000	0,004	-0,058
-392,336	-200,000	-0,011	-0,082
-391,321	-200,000	-0,015	0,120
-390,306	203,919	-0,116	-0,130
-389,292	-28,424	-0,034	0,014
-388,277	20,684	-0,105	-0,061
-387,263	-200,000	-0,027	0,115
-386,248	800,000	-0,030	-0,072
-385,233	82,967	0,077	0,061
-384,219	694,779	0,032	-0,061
-383,204	755,630	-0,014	-0,027
-382,190	-200,000	-0,043	0,138
-381,175	-180,220	0,104	-0,002
-380,160	800,000	0,016	-0,050
-379,146	-123,001	0,065	0,008
-378,131	-141,245	-0,049	-0,004
-377,117	-200,000	0,013	0,083
-376,102	61,168	-0,059	0,042
-375,088	44,634	-0,092	-0,061
-374,073	52,844	0,077	-0,053
-373,058	625,865	0,056	0,104
-372,044	-128,584	0,043	0,004
-371,029	512,780	0,041	0,070
-370,015	800,000	0,043	0,091
-369,000	64,994	0,112	-0,082
-367,985	800,000	-0,058	-0,121
-366,971	773,765	-0,022	0,044
-365,956	-83,366	0,101	0,023
-364,942	103,977	0,038	0,032
-363,927	-7,059	0,061	0,030
-362,912	-174,443	0,102	-0,002
-361,898	800,000	-0,063	-0,128
-360,883	800,000	-0,022	-0,044
-359,869	-55,805	-0,102	-0,033
-358,854	800,000	-0,064	0,166
-357,839	210,241	-0,013	0,015
-356,825	-118,414	0,105	0,013
-355,810	-14,936	0,079	-0,037
-354,796	32,420	-0,093	0,058
-353,781	-67,629	-0,155	-0,044
-352,766	-58,425	-0,099	0,031
-351,752	124,265	0,017	0,015
-350,737	-68,399	0,048	-0,013
-349,723	800,000	-0,022	0,060
-348,708	-200,000	-0,014	-0,074
-347,693	110,245	0,142	0,124
-346,679	-91,415	0,025	-0,005
-345,664	800,000	0,029	-0,067
-344,650	-155,870	-0,015	-0,001
-343,635	628,779	0,042	-0,077
-342,620	-140,138	0,008	0,001
-341,606	-41,985	-0,048	-0,018
-340,591	-161,340	-0,052	0,002
-339,577	800,000	0,009	-0,029
-338,562	-99,266	-0,129	0,023
-337,548	-200,000	0,024	0,078
-336,533	51,699	0,080	-0,055
-335,518	-5,317	0,121	-0,060
-334,504	800,000	-0,001	0,004
-333,489	-200,000	-0,014	0,107
-332,475	218,546	-0,090	-0,104
-331,460	800,000	0,018	0,049
-330,445	323,238	-0,071	0,099
-329,431	-200,000	-0,024	-0,082
-328,416	84,785	0,070	0,056
-327,402	-200,000	0,004	0,064
-326,387	307,496	0,030	-0,040
-325,372	132,978	-0,108	-0,102
-324,358	-171,995	0,058	-0,001
-323,343	800,000	-0,043	0,134
-322,329	800,000	0,026	0,061
-321,314	561,890	-0,042	0,074
-320,299	-200,000	0,011	-0,042
-319,285	97,309	-0,078	0,065
-318,270	-49,598	-0,060	-0,020
-317,256	-117,887	0,104	-0,013
-316,241	800,000	0,018	0,041
-315,226	-200,000	-0,007	0,107
-314,212	-200,000	-0,011	0,087
-313,197	118,045	0,103	0,092
-312,183	217,972	-0,049	-0,057
-311,168	169,817	-0,074	-0,077
-310,153	-200,000	0,022	0,074
-309,139	-112,962	0,160	0,023
-308,124	-200,000	0,000	0,005
-307,110	518,811	0,012	-0,020
-306,095	328,370	0,089	0,125
-305,080	-58,948	0,072	0,022
-304,066	-200,000	0,018	-0,059
-303,051	-200,000	-0,007	0,105
-302,037	-82,935	-0,046	0,011
-301,022	800,000	0,076	0,182
-300,008	-44,556	0,129	0,047
-298,993	34,519	-0,057	0,036
-297,978	224,549	-0,032	0,038
-296,964	-200,000	0,037	-0,130
-295,949	-200,000	0,014	-0,091
-294,935	273,321	0,021	-0,027
-293,920	79,763	0,020	0,015
-292,905	518,008	-0,063	-0,108
-291,891	-112,683	0,078	-0,011
-290,876	524,610	-0,088	0,151
-289,862	431,462	0,030	0,047
-288,847	380,715	-0,071	-0,107
-287,832	646,697	-0,087	0,161
-286,818	260,267	-0,045	-0,057
-285,803	139,705	0,122	-0,117
-284,789	-200,000	-0,001	0,018
-283,774	-200,000	0,024	0,139
-282,759	127,658	0,061	0,056
-281,745	800,000	-0,055	-0,119
-280,730	312,396	0,023	0,031
-279,716	320,135	0,063	0,087
-278,701	-79,197	-0,083	-0,020
-277,686	-66,039	0,149	0,043
-276,672	-25,502	0,008	-0,003
-275,657	337,437	-0,045	0,064
-274,643	800,000	0,014	-0,042
-273,628	239,414	-0,058	0,070
-272,613	-33,661	0,076	0,030
-271,599	800,000	-0,051	-0,119
-270,584	111,155	0,047	0,041
-269,570	800,000	0,028	-0,080
-268,555	-200,000	0,004	0,094
-267,540	-52,130	-0,086	0,029
-266,526	-200,000	0,027	0,156
-265,511	50,789	-0,018	-0,012
-264,497	-142,189	0,071	0,005
-263,482	-87,142	0,034	-0,007
-262,467	800,000	-0,026	0,056
-261,453	-200,000	0,018	0,136
-260,438	-200,000	0,002	-0,064
-259,424	-200,000	-0,030	0,102
-258,409	-103,536	0,194	0,033
-257,395	-40,099	-0,024	0,009
-256,380	-200,000	0,001	0,015
-255,365	-129,751	0,185	-0,018
-254,351	-200,000	0,012	0,104
-253,336	4,414	-0,030	-0,016
-252,322	-200,000	-0,016	-0,096
-251,307	800,000	0,020	0,057
-250,292	-200,000	0,028	0,095
-249,278	443,909	0,059	0,095
-248,263	-99,955	-0,062	0,011
-247,249	238,187	0,100	0,120
-246,234	-200,000	0,004	0,086
-245,219	-62,133	0,041	0,012
-244,205	-30,051	-0,078	0,032
-243,190	546,435	-0,024	0,042
-242,176	293,548	-0,053	0,071
-241,161	-200,000	0,002	-0,039
-240,146	-200,000	0,010	0,041
-239,132	159,827	0,030	-0,031
-238,117	-200,000	-0,006	-0,147
-237,103	800,000	-0,016	-0,049
-236,088	439,683	0,056	0,089
-235,073	53,989	0,103	0,072
-234,059	-109,184	0,157	0,024
-233,044	-73,158	0,160	0,042
-232,030	-200,000	0,011	0,058
-231,015	-140,151	0,022	-0,002
-230,000	487,099	-0,022	-0,036
-228,986	45,644	-0,058	-0,039
-227,971	-200,000	0,049	0,171
-226,957	-167,620	-0,129	0,004
-225,942	523,516	0,051	0,087
-224,927	-200,000	0,024	0,124
-223,913	-115,126	-0,114	0,015
-222,898	800,000	0,032	-0,100
-221,884	471,645	0,024	-0,039
-220,869	800,000	0,023	0,051
-219,855	-91,716	-0,127	-0,026
-218,840	87,845	0,068	-0,055
-217,825	143,812	0,063	0,060
-216,811	-200,000	-0,022	0,109
-215,796	-200,000	-0,034	-0,171
-214,782	800,000	0,033	-0,075
-213,767	161,306	-0,056	-0,057
-212,752	683,413	-0,060	0,113
-211,738	693,873	-0,014	-0,026
-210,723	-200,000	-0,015	0,136
-209,709	-119,504	-0,074	0,009
-208,694	-200,000	-0,006	0,035
-207,679	-83,313	-0,130	-0,030
-206,665	99,852	-0,049	0,041
-205,650	214,321	0,125	0,143
-204,636	385,905	0,134	0,201
-203,621	181,637	0,045	-0,048
-202,606	-200,000	0,020	-0,080
-201,592	28,883	-0,051	0,031
-200,577	800,000	0,047	-0,106
-199,563	527,808	0,094	0,160
-198,548	-113,975	0,191	-0,026
-197,533	-200,000	0,023	-0,100
-196,519	800,000	0,016	-0,044
-195,504	-88,368	-0,123	0,026
-194,490	-200,000	0,012	-0,137
-193,475	111,359	-0,082	0,072
-192,460	-16,978	0,105	0,048
-191,446	-200,000	0,040	0,225
-190,431	-200,000	-0,016	-0,063
-189,417	-200,000	0,012	0,060
-188,402	315,422	-0,038	-0,052
-187,387	502,394	-0,086	-0,145
-186,373	-200,000	-0,008	-0,126
-185,358	-10,334	-0,169	-0,080
-184,344	267,569	0,056	-0,071
-183,329	-86,272	0,040	-0,009
-182,315	129,552	-0,023	-0,021
-181,300	-42,404	-0,104	-0,038
-180,285	-200,000	-0,014	-0,084
-179,271	53,115	-0,097	-0,067
-178,256	-178,359	0,024	0,000
-177,242	160,273	-0,060	-0,060
-176,227	784,025	-0,057	0,114
-175,212	146,789	-0,072	0,070
-174,198	345,729	0,024	-0,034
-173,183	-7,672	-0,023	-0,011
-172,169	32,274	-0,081	-0,050
-171,154	-51,706	-0,047	0,016
-170,139	-32,232	0,022	0,009
-169,125	-200,000	0,014	-0,088
-168,110	-79,374	-0,198	0,048
-167,096	-149,129	-0,056	-0,003
-166,081	800,000	-0,027	-0,063
-165,066	571,717	-0,081	-0,143
-164,052	-200,000	-0,008	-0,140
-163,037	-73,649	0,060	-0,016
-162,023	204,439	0,077	-0,087
-161,008	19,961	0,045	-0,026
-159,993	-29,410	-0,117	0,048
-158,979	-8,021	-0,084	0,040
-157,964	-200,000	0,004	0,066
-156,950	-200,000	-0,017	-0,199
-155,935	800,000	0,035	0,077
-154,920	-200,000	0,034	-0,125
-153,906	-200,000	0,001	0,022
-152,891	-40,910	-0,027	-0,010
-151,877	203,070	-0,015	-0,016
-150,862	-200,000	-0,033	-0,164
-149,847	800,000	-0,033	-0,090
-148,833	-10,497	0,058	-0,027
-147,818	-200,000	-0,011	-0,113
-146,804	-36,056	0,056	0,022
-145,789	-200,000	0,016	0,084
-144,775	363,406	0,055	0,080
-143,760	-110,904	-0,061	-0,009
-142,745	287,664	0,011	0,014
-141,731	-42,242	-0,112	0,041
-140,716	-107,302	0,040	0,006
-139,702	-200,000	-0,014	0,063
-138,687	-200,000	-0,009	0,046
-137,672	800,000	-0,049	-0,119
-136,658	-42,752	-0,051	-0,018
-135,643	-16,883	-0,018	0,008
-134,629	136,990	0,045	-0,042
-133,614	800,000	0,023	0,061
-132,599	354,469	0,057	-0,082
-131,585	-38,357	-0,082	0,031
-130,570	-200,000	-0,020	0,156
-129,556	-99,257	-0,153	-0,027
-128,541	-200,000	-0,005	-0,124
-127,526	-20,587	0,094	0,041
-126,512	-200,000	0,002	0,135
-125,497	16,945	0,106	-0,060
-124,483	220,075	-0,041	-0,047
-123,468	-85,398	-0,065	0,014
-122,453	-0,806	-0,093	-0,047
-121,439	359,621	-0,067	0,097
-120,424	-200,000	-0,012	0,073
