DTS Sentinel unit serial number:	SN410029Multiplexer serial number:	ORYXHardware model number:	OX2-SRSoftware version number:	ORYX F/W v4,00 Oryx Data Collector v3.7.2.0data status	okinstallation	B6 Nyhavnadifferential loss correction	single-endedforward channel	channel 2reverse channel	N/Adate	2023/12/09time	15:20:08forward acquisition time	300,00reverse acquisition time	0,00gamma	499,1914k internal	0,3133k external	0,3133temperature offset calibration	1,0000default loss term (dB/km)	0,3820temperature slope calibration	1,0000multiplexer offset coefficient	1,0000multiplexer slope coefficient	1,0000fibre end	0,00T internal ref (°C)	20,62T ext. ref 1 (°C)	4,49T ext. ref 2 (°C)	4,48length (m)	temperature (°C)	Stokes	anti-Stokes-744,400	-200,000	0,019	-0,075
-743,385	-24,947	-0,235	0,103
-742,371	-56,738	0,044	-0,015
-741,356	-26,496	-0,245	0,106
-740,342	800,000	0,044	0,114
-739,327	-20,939	-0,270	0,123
-738,312	185,418	0,138	-0,153
-737,298	227,048	-0,111	0,134
-736,283	7,920	0,175	0,097
-735,269	136,888	-0,102	0,099
-734,254	57,190	0,042	0,030
-733,239	-125,579	-0,372	0,041
-732,225	4,840	0,172	0,093
-731,210	-200,000	0,007	-0,037
-730,196	24,363	-0,179	-0,110
-729,181	800,000	-0,030	0,064
-728,167	187,537	-0,086	-0,095
-727,152	800,000	0,021	-0,055
-726,137	-200,000	0,006	-0,086
-725,123	109,520	0,077	0,069
-724,108	-200,000	0,014	-0,120
-723,094	-4,630	-0,138	-0,071
-722,079	-164,009	-0,161	-0,005
-721,064	-145,147	-0,026	-0,002
-720,050	778,896	-0,048	0,097
-719,035	-153,108	0,019	0,001
-718,021	-200,000	0,002	-0,064
-717,006	403,089	-0,018	0,028
-715,991	378,842	-0,039	-0,060
-714,977	-63,508	-0,098	-0,030
-713,962	210,059	-0,011	0,013
-712,948	16,750	0,111	-0,065
-711,933	-66,196	-0,066	-0,019
-710,918	-200,000	0,011	-0,096
-709,904	-49,192	-0,078	-0,027
-708,889	41,273	-0,168	0,112
-707,875	300,297	0,038	-0,053
-706,860	-15,414	-0,059	-0,028
-705,845	607,401	-0,016	-0,029
-704,831	800,000	0,003	-0,007
-703,816	62,060	-0,111	-0,082
-702,802	-0,243	0,119	0,062
-701,787	164,811	-0,038	-0,040
-700,772	351,103	0,032	-0,048
-699,758	-200,000	-0,024	-0,108
-698,743	800,000	0,042	0,098
-697,729	-200,000	0,003	-0,099
-696,714	9,582	0,028	-0,016
-695,699	-200,000	0,008	0,043
-694,685	-164,468	-0,150	-0,005
-693,670	-200,000	0,005	0,048
-692,656	-200,000	0,021	-0,072
-691,641	-200,000	-0,017	0,085
-690,627	800,000	0,052	0,113
-689,612	7,915	-0,131	-0,072
-688,597	33,189	0,047	-0,030
-687,583	-140,751	0,024	-0,002
-686,568	4,584	-0,080	0,044
-685,554	-140,452	0,079	0,006
-684,539	-181,281	0,039	-0,001
-683,524	-200,000	-0,010	-0,055
-682,510	800,000	-0,037	0,088
-681,495	-200,000	-0,020	-0,095
-680,481	361,051	-0,051	0,075
-679,466	263,472	0,053	-0,068
-678,451	-67,542	-0,153	0,044
-677,437	723,649	0,057	-0,112
-676,422	-11,611	0,062	0,030
-675,408	613,846	-0,096	-0,178
-674,393	28,022	0,020	-0,012
-673,378	201,279	-0,078	-0,089
-672,364	-66,755	-0,177	0,052
-671,349	-4,394	-0,154	0,079
-670,335	-6,087	0,031	-0,016
-669,320	-41,235	0,204	0,078
-668,305	576,358	-0,025	0,045
-667,291	-129,646	-0,028	-0,003
-666,276	65,670	-0,052	-0,039
-665,262	507,218	-0,073	-0,126
-664,247	224,190	0,058	-0,070
-663,232	800,000	-0,016	0,044
-662,218	-89,439	0,119	-0,026
-661,203	174,613	0,065	0,070
-660,189	-200,000	-0,010	-0,079
-659,174	-200,000	0,015	-0,051
-658,159	-200,000	0,003	-0,047
-657,145	800,000	0,077	-0,165
-656,130	-108,893	0,042	0,007
-655,116	41,672	-0,042	0,028
-654,101	-200,000	-0,005	0,031
-653,086	402,940	0,003	-0,004
-652,072	35,955	-0,144	-0,094
-651,057	120,016	-0,049	-0,045
-650,043	800,000	-0,023	0,074
-649,028	-95,754	0,087	0,017
-648,014	-66,235	0,116	0,034
-646,999	286,061	0,113	0,151
-645,984	52,188	-0,125	0,088
-644,970	-63,516	-0,053	-0,016
-643,955	107,394	0,030	-0,027
-642,941	-200,000	0,011	0,048
-641,926	-200,000	-0,009	0,112
-640,911	47,118	0,109	0,075
-639,897	38,595	0,036	-0,024
-638,882	-52,091	-0,161	0,055
-637,868	800,000	-0,025	0,078
-636,853	-200,000	0,025	0,085
-635,838	800,000	0,046	0,114
-634,824	216,714	0,054	0,064
-633,809	-200,000	-0,006	-0,036
-632,795	308,164	0,071	-0,098
-631,780	-52,755	0,103	0,035
-630,765	110,688	0,097	-0,086
-629,751	-200,000	-0,005	-0,109
-628,736	-200,000	-0,012	-0,055
-627,722	-187,317	0,143	0,001
-626,707	-200,000	0,019	0,116
-625,692	334,245	0,040	-0,057
-624,678	334,717	0,070	0,100
-623,663	-78,135	0,115	0,029
-622,649	-60,730	-0,183	0,057
-621,634	554,963	0,030	-0,054
-620,619	-79,155	-0,109	-0,027
-619,605	310,858	-0,085	-0,118
-618,590	227,637	0,115	0,139
-617,576	-50,931	-0,173	-0,060
-616,561	156,149	-0,026	-0,027
-615,546	485,443	0,035	-0,059
-614,532	501,587	-0,077	-0,132
-613,517	-200,000	-0,018	0,075
-612,503	-65,239	0,043	0,013
-611,488	71,458	-0,073	-0,056
-610,474	-67,833	0,089	0,026
-609,459	433,129	-0,061	0,098
-608,444	-200,000	-0,008	-0,137
-607,430	-40,092	-0,131	0,050
-606,415	233,414	-0,016	0,020
-605,401	-200,000	0,012	0,096
-604,386	-64,568	0,015	-0,005
-603,371	235,212	-0,081	0,099
-602,357	-89,928	-0,033	0,007
-601,342	-90,387	-0,072	0,015
-600,328	-15,554	0,057	-0,027
-599,313	104,106	-0,093	-0,081
-598,298	-157,567	-0,096	0,004
-597,284	15,327	-0,090	-0,052
-596,269	359,930	-0,070	0,104
-595,255	-190,098	-0,106	0,001
-594,240	-95,727	0,065	0,013
-593,225	-200,000	-0,026	-0,133
-592,211	-119,960	0,087	0,011
-591,196	-174,277	0,159	0,003
-590,182	477,883	0,050	0,084
-589,167	92,562	0,147	0,122
-588,152	-200,000	0,015	0,102
-587,138	-200,000	-0,009	0,192
-586,123	-200,000	-0,016	-0,076
-585,109	-200,000	0,025	-0,154
-584,094	-85,709	-0,125	-0,028
-583,079	-200,000	0,002	-0,063
-582,065	-88,710	-0,123	0,027
-581,050	-119,005	0,036	-0,005
-580,036	-91,237	-0,159	0,033
-579,021	-97,656	-0,030	0,006
-578,006	406,138	-0,073	-0,114
-576,992	63,067	-0,120	-0,089
-575,977	0,679	0,054	-0,028
-574,963	495,966	-0,110	0,188
-573,948	16,500	0,010	0,006
-572,934	2,365	0,083	0,044
-571,919	-200,000	-0,002	0,068
-570,904	223,466	-0,038	-0,045
-569,890	13,334	-0,043	0,025
-568,875	-200,000	-0,008	0,137
-567,861	391,868	-0,099	-0,153
-566,846	-6,261	0,029	0,014
-565,831	-200,000	0,001	0,063
-564,817	-69,824	-0,033	-0,009
-563,802	0,843	-0,075	0,040
-562,788	-89,442	0,102	-0,022
-561,773	-200,000	-0,004	-0,166
-560,758	-53,479	-0,016	-0,005
-559,744	-24,681	-0,011	0,005
-558,729	-200,000	0,004	0,052
-557,715	-51,329	-0,084	0,029
-556,700	15,613	-0,123	-0,071
-555,685	556,004	-0,056	-0,100
-554,671	-51,266	-0,040	0,014
-553,656	72,679	0,036	0,028
-552,642	-184,582	-0,104	-0,001
-551,627	52,263	-0,054	0,038
-550,612	-20,630	-0,067	0,030
-549,598	-151,075	-0,124	-0,007
-548,583	253,166	-0,121	-0,152
-547,569	-126,156	-0,024	-0,003
-546,554	632,336	-0,020	0,038
-545,539	800,000	-0,052	-0,108
-544,525	-58,973	-0,019	-0,006
-543,510	800,000	-0,045	-0,126
-542,496	19,900	0,067	0,040
-541,481	-64,813	0,066	0,020
-540,466	138,121	0,032	0,031
-539,452	-200,000	0,012	-0,088
-538,437	463,410	-0,072	-0,119
-537,423	800,000	-0,031	-0,072
-536,408	300,570	-0,052	0,071
-535,393	-200,000	-0,000	0,081
-534,379	33,511	0,045	-0,029
-533,364	155,262	0,036	-0,036
-532,350	120,269	0,045	0,042
-531,335	-200,000	-0,005	0,109
-530,321	569,695	-0,031	0,055
-529,306	-22,208	0,195	-0,087
-528,291	-4,369	-0,163	-0,083
-527,277	302,483	0,094	-0,129
-526,262	406,381	-0,040	0,062
-525,248	-138,067	-0,045	-0,004
-524,233	316,757	-0,005	-0,007
-523,218	800,000	0,018	0,038
-522,204	90,192	-0,073	0,060
-521,189	800,000	0,027	-0,056
-520,175	-38,650	0,027	-0,011
-519,160	132,954	0,056	-0,053
-518,145	-23,007	-0,099	-0,044
-517,131	-25,957	0,019	-0,008
-516,116	-5,432	-0,086	0,043
-515,102	377,220	-0,004	0,006
-514,087	-79,669	-0,141	-0,035
-513,072	527,074	-0,082	-0,143
-512,058	5,353	-0,038	-0,020
-511,043	800,000	0,060	0,156
-510,029	-200,000	-0,010	0,087
-509,014	69,732	-0,025	-0,019
-507,999	800,000	0,058	-0,141
-506,985	-21,457	0,156	-0,070
-505,970	800,000	-0,023	-0,049
-504,956	587,165	0,029	0,053
-503,941	-110,154	0,129	-0,020
-502,926	-200,000	0,019	0,075
-501,912	-200,000	-0,002	0,035
-500,897	-200,000	-0,037	0,132
-499,883	140,951	-0,092	0,090
-498,868	105,397	0,081	-0,070
-497,853	-200,000	-0,002	-0,035
-496,839	484,422	0,009	-0,015
-495,824	105,108	-0,009	-0,008
-494,810	-34,577	-0,035	-0,014
-493,795	-53,594	0,058	-0,019
-492,781	152,743	-0,052	-0,052
-491,766	363,405	-0,070	-0,104
-490,751	800,000	-0,033	-0,101
-489,737	28,657	-0,064	-0,040
-488,722	-200,000	-0,030	0,152
-487,708	-146,193	-0,074	0,005
-486,693	-65,398	0,089	-0,026
-485,678	-13,174	-0,070	0,033
-484,664	800,000	-0,035	-0,093
-483,649	173,039	-0,127	-0,135
-482,635	800,000	-0,009	0,021
-481,620	662,801	0,045	-0,085
-480,605	-200,000	-0,007	0,055
-479,591	157,815	0,025	-0,025
-478,576	-124,410	0,045	0,005
-477,562	-200,000	-0,004	-0,037
-476,547	586,764	-0,055	0,099
-475,532	47,725	0,006	0,004
-474,518	116,720	-0,124	-0,112
-473,503	-200,000	0,025	-0,134
-472,489	-19,661	0,035	0,016
-471,474	323,014	-0,040	-0,057
-470,459	800,000	0,020	-0,044
-469,445	-56,487	-0,102	-0,033
-468,430	-8,825	-0,106	-0,052
-467,416	-200,000	-0,005	0,072
-466,401	-200,000	0,051	0,170
-465,386	1,364	0,054	-0,028
-464,372	-54,722	-0,149	0,049
-463,357	800,000	-0,009	-0,022
-462,343	726,462	-0,023	-0,045
-461,328	-200,000	-0,007	-0,119
-460,313	33,909	0,056	-0,036
-459,299	100,979	0,089	0,076
-458,284	-200,000	0,023	-0,087
-457,270	46,207	0,039	-0,027
-456,255	-200,000	-0,007	0,138
-455,241	-190,019	-0,052	0,000
-454,226	800,000	-0,059	-0,162
-453,211	110,596	0,038	-0,034
-452,197	800,000	0,018	0,045
-451,182	-200,000	-0,007	0,065
-450,168	-43,118	-0,054	-0,020
-449,153	-185,487	-0,180	-0,002
-448,138	-200,000	-0,013	0,048
-447,124	800,000	0,016	0,034
-446,109	226,275	-0,021	0,025
-445,095	-150,179	0,174	-0,010
-444,080	33,288	0,104	0,066
-443,065	-90,746	-0,112	-0,024
-442,051	-200,000	-0,005	-0,074
-441,036	3,444	-0,113	-0,060
-440,022	424,193	-0,019	-0,030
-439,007	-200,000	0,010	-0,050
-437,992	800,000	0,023	-0,053
-436,978	800,000	0,014	-0,037
-435,963	262,784	0,012	-0,015
-434,949	800,000	0,025	0,068
-433,934	-80,563	-0,154	-0,037
-432,919	171,634	-0,076	-0,080
-431,905	-83,932	-0,085	-0,020
-430,890	104,481	0,079	0,068
-429,876	-135,096	0,081	0,007
-428,861	-200,000	0,031	0,118
-427,846	-54,346	0,095	-0,031
-426,832	800,000	-0,044	-0,097
-425,817	150,504	0,046	0,046
-424,803	1,331	0,085	-0,045
-423,788	-200,000	0,004	-0,023
-422,773	-2,980	0,127	0,065
-421,759	-200,000	-0,003	-0,045
-420,744	307,327	-0,066	0,090
-419,730	-200,000	0,005	-0,034
-418,715	-200,000	-0,008	0,029
-417,701	252,247	-0,075	0,094
-416,686	-200,000	0,016	-0,148
-415,671	-200,000	-0,032	0,109
-414,657	-200,000	0,008	0,071
-413,642	224,656	0,068	0,081
-412,628	551,451	0,030	-0,054
-411,613	643,448	-0,047	0,088
-410,598	242,147	-0,026	0,032
-409,584	-76,897	0,093	0,024
-408,569	33,879	0,055	-0,035
-407,555	264,987	-0,112	-0,143
-406,540	-81,232	0,167	0,040
-405,525	-46,455	-0,057	0,020
-404,511	-200,000	0,023	-0,095
-403,496	98,063	0,134	0,113
-402,482	-137,528	0,169	0,014
-401,467	226,169	0,052	-0,062
-400,452	-85,059	0,093	0,021
-399,438	368,302	-0,038	0,056
-398,423	88,377	-0,064	0,052
-397,409	-67,642	0,087	0,025
-396,394	-154,662	0,072	0,003
-395,379	800,000	0,016	0,037
-394,365	-200,000	0,009	0,053
-393,350	-3,362	-0,040	0,021
-392,336	800,000	0,013	-0,026
-391,321	33,837	0,147	-0,093
-390,306	-200,000	0,017	0,062
-389,292	-101,342	-0,127	0,023
-388,277	82,759	-0,079	-0,063
-387,263	-200,000	0,001	-0,170
-386,248	800,000	0,046	0,097
-385,233	800,000	-0,015	-0,042
-384,219	206,469	-0,025	0,029
-383,204	47,255	-0,051	-0,035
-382,190	-30,316	-0,128	-0,053
-381,175	-49,691	-0,101	-0,035
-380,160	800,000	0,048	-0,131
-379,146	238,534	0,046	0,056
-378,131	178,928	0,074	0,079
-377,117	-42,710	0,043	-0,016
-376,102	-0,893	0,100	-0,052
-375,088	800,000	-0,004	0,011
-374,073	-100,670	0,069	0,012
-373,058	-25,810	-0,052	-0,022
-372,044	261,048	0,027	-0,035
-371,029	26,238	0,146	0,089
-370,015	344,710	-0,073	0,105
-369,000	799,406	-0,063	-0,127
-367,985	-135,222	0,144	0,013
-366,971	800,000	0,020	0,048
-365,956	695,485	0,041	-0,079
-364,942	-200,000	-0,021	0,070
-363,927	32,685	0,071	-0,045
-362,912	72,268	-0,029	0,022
-361,898	-116,932	0,086	0,011
-360,883	-200,000	0,013	0,054
-359,869	-77,056	-0,162	0,041
-358,854	-185,662	-0,096	0,001
-357,839	-116,009	-0,149	-0,020
-356,825	-200,000	-0,018	0,062
-355,810	-79,724	-0,107	0,026
-354,796	-200,000	0,017	-0,155
-353,781	553,209	-0,032	0,057
-352,766	800,000	0,057	-0,141
-351,752	800,000	0,015	0,046
-350,737	131,623	0,101	0,096
-349,723	43,516	0,035	-0,024
-348,708	800,000	-0,029	0,092
-347,693	800,000	0,027	0,055
-346,679	169,642	-0,030	0,032
-345,664	8,555	0,082	-0,045
-344,650	-18,546	0,077	-0,035
-343,635	-200,000	0,039	-0,126
-342,620	193,968	0,016	-0,017
-341,606	577,485	0,038	-0,069
-340,591	187,691	0,098	-0,107
-339,577	800,000	0,039	-0,117
-338,562	66,618	0,126	-0,093
-337,548	47,720	0,032	-0,022
-336,533	800,000	-0,019	0,055
-335,518	800,000	0,025	0,080
-334,504	-200,000	0,009	0,107
-333,489	-102,554	-0,080	-0,014
-332,475	-53,047	0,038	0,013
-331,460	54,743	0,039	-0,028
-330,445	90,271	0,082	-0,067
-329,431	-71,675	0,180	0,049
-328,416	800,000	-0,032	0,097
-327,402	139,821	0,157	-0,151
-326,387	-107,916	0,036	-0,006
-325,372	94,524	-0,087	-0,073
-324,358	309,937	0,033	0,045
-323,343	-200,000	-0,013	0,049
-322,329	209,833	0,081	0,093
-321,314	661,374	0,037	0,071
-320,299	-96,030	-0,109	0,021
-319,285	8,315	-0,023	-0,012
-318,270	-106,152	0,032	-0,005
-317,256	800,000	-0,041	-0,085
-316,241	-200,000	-0,002	-0,008
-315,226	291,432	0,067	0,089
-314,212	-54,634	0,091	0,030
-313,197	222,122	-0,051	0,060
-312,183	800,000	-0,045	-0,102
-311,168	369,600	-0,033	-0,049
-310,153	-9,597	-0,124	-0,060
-309,139	172,587	-0,122	0,128
-308,124	101,531	0,073	-0,062
-307,110	9,773	0,126	-0,070
-306,095	800,000	-0,043	0,119
-305,080	15,900	0,121	-0,069
-304,066	46,045	-0,143	0,096
-303,051	-43,003	-0,118	-0,044
-302,037	-200,000	-0,013	-0,050
-301,022	-7,304	-0,064	-0,032
-300,008	6,894	-0,076	0,041
-298,993	-113,892	0,052	-0,007
-297,978	-200,000	0,055	-0,190
-296,964	800,000	0,068	-0,196
-295,949	526,179	-0,040	-0,069
-294,935	-167,871	-0,070	-0,002
-293,920	-102,491	0,163	0,028
-292,905	-124,719	0,132	-0,015
-291,891	212,730	0,028	0,032
-290,876	-200,000	0,016	0,129
-289,862	-15,597	-0,133	-0,062
-288,847	-200,000	0,016	0,143
-287,832	800,000	-0,029	-0,067
-286,818	800,000	-0,045	-0,097
-285,803	-200,000	0,017	-0,119
-284,789	77,665	0,115	-0,089
-283,774	591,859	0,019	0,035
-282,759	60,098	-0,054	0,039
-281,745	129,331	0,080	-0,074
-280,730	559,486	0,066	0,116
-279,716	800,000	-0,047	0,126
-278,701	18,862	0,161	-0,094
-277,686	800,000	0,023	-0,052
-276,672	-200,000	0,001	0,032
-275,657	-93,108	-0,191	-0,038
-274,643	156,367	-0,053	-0,053
-273,628	-200,000	0,005	-0,157
-272,613	-116,236	0,039	0,005
-271,599	198,675	0,032	0,036
-270,584	111,641	0,066	0,058
-269,570	-200,000	0,003	0,041
-268,555	800,000	0,005	0,014
-267,540	-106,803	-0,040	0,006
-266,526	151,245	0,045	0,045
-265,511	-200,000	0,004	-0,083
-264,497	-113,477	-0,033	-0,005
-263,482	-200,000	-0,018	-0,119
-262,467	-6,018	0,094	-0,047
-261,453	101,102	0,103	0,088
-260,438	-90,768	-0,126	0,026
-259,424	30,019	-0,088	-0,054
-258,409	800,000	0,018	0,048
-257,395	680,027	-0,038	-0,072
-256,380	-11,286	0,035	0,017
-255,365	49,865	0,106	0,073
-254,351	323,135	0,103	0,143
-253,336	285,452	0,013	0,017
-252,322	23,562	-0,077	-0,046
-251,307	199,757	-0,069	-0,078
-250,292	157,877	-0,067	-0,068
-249,278	-40,189	0,048	-0,018
-248,263	229,363	0,076	-0,091
-247,249	-200,000	-0,006	-0,067
-246,234	-27,045	-0,086	0,037
-245,219	194,063	-0,041	-0,045
-244,205	-200,000	-0,022	0,121
-243,190	159,505	-0,051	0,052
-242,176	-200,000	0,017	0,069
-241,161	800,000	-0,029	0,094
-240,146	-200,000	-0,005	-0,038
-239,132	-200,000	0,004	-0,028
-238,117	49,423	-0,034	-0,023
-237,103	131,536	0,019	-0,018
-236,088	-109,197	0,122	-0,019
-235,073	-200,000	0,038	0,187
-234,059	-7,112	0,068	-0,033
-233,044	-200,000	-0,113	0,000
-232,030	146,870	-0,057	0,056
-231,015	626,882	-0,025	-0,046
-230,000	-99,869	-0,062	-0,011
-228,986	3,323	0,063	-0,033
-227,971	-164,951	0,098	0,003
-226,957	-200,000	-0,047	0,181
-225,942	173,657	-0,031	-0,032
-224,927	800,000	0,012	0,028
-223,913	-200,000	-0,026	-0,100
-222,898	-200,000	-0,007	-0,028
-221,884	-200,000	0,001	-0,049
-220,869	-155,893	0,151	-0,007
-219,855	-92,864	0,098	0,020
-218,840	800,000	0,063	0,151
-217,825	209,248	0,040	0,045
-216,811	18,203	0,089	0,052
-215,796	800,000	-0,025	0,059
-214,782	-200,000	-0,001	0,034
-213,767	142,868	0,074	0,071
-212,752	-61,773	-0,035	0,011
-211,738	800,000	0,013	0,038
-210,723	537,835	-0,070	0,122
-209,709	-66,551	-0,098	0,028
-208,694	800,000	-0,058	-0,174
-207,679	-105,138	-0,094	-0,015
-206,665	800,000	-0,021	-0,051
-205,650	-200,000	-0,016	0,072
-204,636	-152,243	0,120	0,006
-203,621	-200,000	0,005	-0,140
-202,606	-200,000	0,006	-0,142
-201,592	-96,574	0,063	-0,012
-200,577	800,000	0,016	-0,051
-199,563	720,902	0,068	0,133
-198,548	197,700	0,046	-0,051
-197,533	-200,000	-0,008	0,075
-196,519	800,000	-0,026	0,066
-195,504	175,712	-0,021	-0,022
-194,490	-103,452	0,079	0,013
-193,475	150,717	0,037	0,037
-192,460	-174,420	0,066	-0,001
-191,446	254,578	-0,059	0,074
-190,431	406,189	0,081	-0,125
-189,417	220,342	0,047	-0,055
-188,402	38,894	-0,064	0,041
-187,387	-50,489	-0,074	0,025
-186,373	12,892	0,087	-0,049
-185,358	-200,000	-0,032	-0,125
-184,344	394,146	-0,058	0,088
-183,329	-171,437	0,087	-0,002
-182,315	-0,949	0,094	0,048
-181,300	-200,000	0,009	0,036
-180,285	-38,385	-0,121	-0,046
-179,271	-112,264	-0,112	-0,016
-178,256	-200,000	-0,009	0,078
-177,242	-200,000	-0,021	0,207
-176,227	-200,000	0,016	0,059
-175,212	716,975	-0,017	-0,033
-174,198	19,521	0,140	-0,081
-173,183	98,328	-0,115	-0,097
-172,169	-200,000	0,023	-0,103
-171,154	-130,978	0,031	0,003
-170,139	-16,247	0,100	0,046
-169,125	122,109	0,080	0,073
-168,110	-200,000	0,023	0,232
-167,096	-4,059	-0,026	-0,013
-166,081	-200,000	0,013	0,073
-165,066	-25,762	-0,017	0,007
-164,052	58,386	-0,052	0,037
-163,037	72,943	0,094	0,071
-162,023	139,946	-0,028	0,027
-161,008	156,593	-0,124	0,125
-159,993	-200,000	0,016	0,112
-158,979	-200,000	-0,005	0,086
-157,964	-26,679	-0,194	-0,082
-156,950	64,773	0,074	-0,054
-155,935	-161,494	-0,119	0,004
-154,920	-100,554	0,078	0,014
-153,906	515,007	0,052	0,088
-152,891	-200,000	0,005	0,000
-151,877	252,353	-0,118	-0,146
-150,862	800,000	0,031	-0,065
-149,847	800,000	-0,043	-0,113
-148,833	109,888	0,098	-0,086
-147,818	-78,158	0,044	-0,011
-146,804	155,062	-0,031	-0,031
-145,789	-28,537	0,103	-0,043
-144,775	800,000	0,033	-0,095
-143,760	106,505	-0,126	-0,109
-142,745	-152,627	-0,079	-0,004
-141,731	800,000	0,052	0,110
-140,716	-105,757	-0,052	0,009
-139,702	-0,650	0,039	-0,020
-138,687	-110,581	0,150	0,022
-137,672	464,158	-0,034	-0,055
-136,658	800,000	-0,021	-0,052
-135,643	-98,383	-0,135	-0,025
-134,629	57,349	-0,100	-0,071
-133,614	-199,511	0,103	-0,000
-132,599	-94,291	0,174	0,034
-131,585	-83,350	0,046	-0,011
-130,570	-94,294	-0,096	0,019
-129,556	206,944	-0,054	0,061
-128,541	-9,100	-0,108	0,052
-127,526	424,361	0,150	0,235
-126,512	141,154	-0,036	-0,034
-125,497	435,633	0,054	-0,086
-124,483	-50,077	-0,039	-0,013
-123,468	-200,000	0,011	0,064
-122,453	800,000	-0,066	-0,143
-121,439	800,000	-0,057	-0,157
-120,424	-72,175	0,150	-0,040
-119,410	800,000	-0,002	0,006
-118,395	319,803	-0,060	0,083
