DTS Sentinel unit serial number:	SN410029Multiplexer serial number:	ORYXHardware model number:	OX2-SRSoftware version number:	ORYX F/W v4,00 Oryx Data Collector v3.7.2.0data status	okinstallation	B6 Nyhavnadifferential loss correction	single-endedforward channel	channel 2reverse channel	N/Adate	2023/12/10time	15:50:08forward acquisition time	300,00reverse acquisition time	0,00gamma	499,1914k internal	0,3123k external	0,3123temperature offset calibration	1,0000default loss term (dB/km)	0,3820temperature slope calibration	1,0000multiplexer offset coefficient	1,0000multiplexer slope coefficient	1,0000fibre end	0,00T internal ref (°C)	22,38T ext. ref 1 (°C)	5,97T ext. ref 2 (°C)	5,97length (m)	temperature (°C)	Stokes	anti-Stokes-744,400	70,596	0,036	0,027
-743,385	-26,253	-0,130	0,057
-742,371	55,833	0,087	-0,063
-741,356	-87,957	-0,183	0,041
-740,342	-47,989	-0,060	0,022
-739,327	-12,126	-0,177	0,086
-738,312	85,155	0,108	-0,088
-737,298	-165,897	-0,225	0,007
-736,283	26,678	-0,054	0,033
-735,269	111,454	-0,254	0,228
-734,254	800,000	0,014	0,037
-733,239	-78,156	-0,428	0,109
-732,225	-20,472	0,041	0,019
-731,210	434,611	0,052	-0,085
-730,196	-200,000	-0,029	-0,102
-729,181	-148,862	0,061	-0,004
-728,167	-38,651	0,107	0,042
-727,152	-112,954	-0,114	0,017
-726,137	387,527	0,017	0,026
-725,123	-32,075	-0,067	0,028
-724,108	-13,391	-0,124	-0,060
-723,094	-200,000	-0,003	-0,189
-722,079	-200,000	-0,005	-0,112
-721,064	-85,466	0,064	-0,015
-720,050	-137,352	0,128	0,011
-719,035	-31,794	-0,140	-0,058
-718,021	417,027	-0,018	-0,029
-717,006	-80,792	-0,105	-0,026
-715,991	-200,000	-0,019	0,067
-714,977	-72,995	-0,111	0,030
-713,962	-153,507	0,018	-0,001
-712,948	349,055	0,085	0,126
-711,933	142,648	-0,097	-0,096
-710,918	-200,000	0,014	0,130
-709,904	585,027	-0,027	-0,049
-708,889	-200,000	-0,061	0,209
-707,875	-200,000	-0,007	-0,069
-706,860	209,332	-0,063	0,074
-705,845	800,000	0,046	0,121
-704,831	-15,751	0,092	-0,044
-703,816	-15,483	-0,084	0,040
-702,802	129,940	-0,046	-0,043
-701,787	-115,531	-0,039	0,005
-700,772	-65,893	0,050	-0,015
-699,758	3,963	0,035	0,019
-698,743	65,876	-0,084	-0,063
-697,729	-200,000	0,023	0,121
-696,714	-200,000	-0,006	0,061
-695,699	-200,000	0,010	-0,047
-694,685	-119,142	-0,139	-0,018
-693,670	-94,135	-0,085	-0,017
-692,656	-200,000	-0,040	0,148
-691,641	354,132	0,037	-0,055
-690,627	256,140	0,089	0,113
-689,612	-6,318	0,029	-0,014
-688,597	-102,541	-0,173	-0,030
-687,583	6,741	-0,079	-0,044
-686,568	-158,057	-0,170	-0,007
-685,554	13,892	-0,066	-0,038
-684,539	23,678	0,008	-0,005
-683,524	800,000	0,054	0,131
-682,510	-80,894	0,109	0,027
-681,495	800,000	0,024	0,072
-680,481	-200,000	-0,015	-0,056
-679,466	-187,992	-0,030	-0,000
-678,451	65,179	0,104	-0,078
-677,437	-52,411	-0,086	-0,029
-676,422	-68,686	-0,099	0,028
-675,408	-54,728	0,163	0,055
-674,393	391,079	0,047	0,072
-673,378	-200,000	-0,041	-0,157
-672,364	-200,000	-0,010	-0,120
-671,349	800,000	-0,030	0,089
-670,335	-104,994	0,112	-0,019
-669,320	160,777	-0,030	-0,031
-668,305	-58,531	-0,122	0,039
-667,291	-107,578	0,180	0,029
-666,276	219,741	0,069	-0,083
-665,262	-200,000	-0,020	-0,080
-664,247	800,000	0,057	-0,128
-663,232	800,000	0,045	0,108
-662,218	-74,141	0,180	0,048
-661,203	-200,000	0,002	0,024
-660,189	-101,230	0,169	-0,030
-659,174	507,923	-0,040	0,070
-658,159	-200,000	-0,027	-0,156
-657,145	409,403	-0,087	-0,137
-656,130	-61,998	-0,153	-0,047
-655,116	45,941	-0,054	0,037
-654,101	-200,000	0,001	-0,008
-653,086	289,263	-0,058	-0,079
-652,072	-200,000	-0,005	-0,088
-651,057	-200,000	0,008	-0,096
-650,043	-10,478	-0,130	-0,064
-649,028	6,767	-0,005	-0,003
-648,014	1,131	0,025	-0,013
-646,999	-153,292	0,077	0,004
-645,984	762,296	-0,005	-0,010
-644,970	-151,235	-0,125	0,007
-643,955	-200,000	-0,002	-0,009
-642,941	-90,754	-0,105	-0,022
-641,926	800,000	0,003	-0,009
-640,911	-19,748	0,186	0,085
-639,897	474,352	-0,032	0,053
-638,882	-63,115	-0,087	-0,027
-637,868	-47,750	0,041	-0,015
-636,853	421,078	-0,066	-0,106
-635,838	-200,000	0,025	-0,083
-634,824	546,404	0,045	-0,080
-633,809	-200,000	-0,000	-0,016
-632,795	150,311	0,042	0,042
-631,780	462,086	-0,033	0,055
-630,765	-200,000	-0,013	-0,065
-629,751	800,000	0,036	-0,093
-628,736	800,000	0,014	-0,029
-627,722	132,973	0,057	0,055
-626,707	399,268	0,031	-0,048
-625,692	-200,000	-0,003	0,033
-624,678	-60,876	0,061	-0,019
-623,663	402,057	-0,021	0,033
-622,649	-200,000	-0,008	-0,171
-621,634	-72,023	-0,061	-0,017
-620,619	-200,000	-0,004	0,031
-619,605	-77,828	0,048	-0,012
-618,590	6,969	0,096	-0,053
-617,576	-200,000	0,006	-0,077
-616,561	800,000	-0,054	-0,118
-615,546	-84,994	-0,088	-0,020
-614,532	276,945	0,039	-0,052
-613,517	27,427	0,020	0,012
-612,503	-200,000	-0,006	-0,131
-611,488	800,000	0,060	-0,159
-610,474	-200,000	0,002	0,061
-609,459	283,217	0,060	0,080
-608,444	800,000	0,031	0,080
-607,430	255,471	0,048	-0,061
-606,415	-200,000	0,005	-0,197
-605,401	-42,227	-0,025	-0,009
-604,386	800,000	-0,014	0,029
-603,371	536,871	0,048	-0,084
-602,357	164,273	-0,051	-0,054
-601,342	151,438	0,016	-0,016
-600,328	51,316	-0,066	-0,046
-599,313	52,973	-0,095	-0,067
-598,298	-200,000	-0,025	-0,120
-597,284	-20,079	0,061	0,028
-596,269	342,048	0,050	0,073
-595,255	-200,000	0,025	0,122
-594,240	203,061	-0,065	-0,075
-593,225	122,209	-0,067	-0,062
-592,211	800,000	-0,055	-0,139
-591,196	121,983	0,052	0,048
-590,182	-200,000	-0,002	-0,016
-589,167	94,866	0,069	-0,058
-588,152	452,782	-0,026	-0,042
-587,138	193,388	-0,040	-0,045
-586,123	-176,467	0,146	0,003
-585,109	-10,207	-0,089	-0,043
-584,094	320,730	0,052	0,074
-583,079	102,446	0,019	-0,016
-582,065	321,351	0,065	0,091
-581,050	87,261	0,019	-0,016
-580,036	179,182	-0,054	-0,059
-579,021	-41,242	-0,037	-0,014
-578,006	800,000	0,039	-0,081
-576,992	115,810	0,074	0,067
-575,977	-36,709	0,076	-0,030
-574,963	-149,496	0,120	0,007
-573,948	647,780	0,040	-0,077
-572,934	800,000	-0,047	0,137
-571,919	155,498	-0,020	-0,020
-570,904	-200,000	0,011	-0,096
-569,890	30,492	0,055	-0,035
-568,875	-200,000	-0,012	0,090
-567,861	-43,548	0,093	0,034
-566,846	182,343	0,059	-0,064
-565,831	238,340	0,108	0,133
-564,817	619,346	-0,020	0,037
-563,802	-200,000	-0,025	-0,119
-562,788	588,296	0,024	-0,044
-561,773	240,956	-0,066	0,082
-560,758	-200,000	-0,006	0,184
-559,744	43,717	-0,027	-0,018
-558,729	-200,000	-0,011	-0,089
-557,715	-200,000	-0,009	-0,077
-556,700	-200,000	-0,007	-0,054
-555,685	-200,000	0,027	-0,110
-554,671	-200,000	-0,005	-0,098
-553,656	-200,000	-0,014	0,164
-552,642	-63,055	-0,084	-0,026
-551,627	195,737	-0,049	0,055
-550,612	-116,098	0,067	0,009
-549,598	28,902	-0,119	-0,075
-548,583	121,462	-0,100	-0,092
-547,569	-18,582	-0,015	0,007
-546,554	-122,506	0,086	-0,010
-545,539	-74,503	-0,108	0,029
-544,525	-200,000	0,002	0,065
-543,510	800,000	0,057	0,149
-542,496	-18,081	-0,179	-0,083
-541,481	-200,000	0,004	0,127
-540,466	96,685	0,035	0,030
-539,452	29,067	-0,059	-0,037
-538,437	800,000	0,035	-0,092
-537,423	255,876	-0,056	0,071
-536,408	210,912	0,060	0,070
-535,393	403,954	0,052	0,080
-534,379	-200,000	0,002	-0,139
-533,364	283,026	-0,103	-0,137
-532,350	-57,628	0,110	0,035
-531,335	-200,000	-0,031	0,133
-530,321	800,000	0,045	0,100
-529,306	-200,000	0,022	-0,079
-528,291	662,552	-0,081	-0,155
-527,277	-80,802	-0,001	0,000
-526,262	-200,000	0,009	-0,089
-525,248	170,303	0,091	-0,096
-524,233	-200,000	0,005	0,068
-523,218	374,805	0,071	-0,107
-522,204	-200,000	0,039	-0,131
-521,189	173,295	-0,082	0,087
-520,175	-7,246	0,054	-0,027
-519,160	125,103	-0,011	-0,011
-518,145	502,729	-0,052	0,090
-517,131	1,650	0,108	-0,057
-516,116	-200,000	-0,019	-0,160
-515,102	-200,000	0,004	0,105
-514,087	-61,988	-0,035	0,011
-513,072	125,295	0,107	-0,100
-512,058	115,054	-0,074	-0,066
-511,043	-77,293	0,056	0,014
-510,029	141,132	-0,070	0,068
-509,014	128,361	0,089	0,084
-507,999	-166,895	-0,137	-0,004
-506,985	70,097	0,080	-0,061
-505,970	-200,000	0,019	-0,092
-504,956	800,000	-0,048	0,103
-503,941	-28,647	0,159	0,067
-502,926	690,430	0,079	0,153
-501,912	152,767	-0,027	0,027
-500,897	-123,836	0,125	-0,014
-499,883	67,469	-0,050	-0,038
-498,868	-200,000	-0,003	-0,077
-497,853	118,878	-0,098	-0,089
-496,839	23,615	-0,131	-0,080
-495,824	341,459	0,053	-0,077
-494,810	214,636	0,043	-0,050
-493,795	-8,167	-0,075	0,037
-492,781	-69,029	0,130	0,037
-491,766	437,268	0,035	0,057
-490,751	-107,813	0,037	-0,006
-489,737	-103,607	0,038	0,007
-488,722	376,960	0,043	-0,065
-487,708	-36,845	0,073	-0,029
-486,693	271,540	0,093	0,121
-485,678	-200,000	-0,001	-0,033
-484,664	-200,000	-0,006	-0,121
-483,649	-174,917	-0,105	-0,002
-482,635	167,889	-0,038	-0,040
-481,620	-7,835	0,148	-0,073
-480,605	272,987	0,035	-0,046
-479,591	-65,795	0,075	0,022
-478,576	11,950	-0,109	-0,062
-477,562	-58,038	-0,071	-0,023
-476,547	253,854	0,115	-0,145
-475,532	97,957	-0,050	0,043
-474,518	-56,761	0,056	0,018
-473,503	230,469	-0,020	-0,024
-472,489	68,638	-0,085	0,064
-471,474	800,000	-0,029	-0,071
-470,459	-11,998	-0,037	-0,018
-469,445	784,716	0,047	0,096
-468,430	-200,000	0,017	0,121
-467,416	410,603	0,040	0,062
-466,401	-200,000	-0,003	-0,066
-465,386	-15,694	0,112	-0,053
-464,372	800,000	0,024	-0,064
-463,357	-200,000	-0,014	-0,107
-462,343	-31,350	-0,078	-0,032
-461,328	-200,000	0,000	0,045
-460,313	800,000	-0,020	0,046
-459,299	-129,808	0,055	-0,005
-458,284	245,550	0,067	0,083
-457,270	-200,000	-0,046	0,206
-456,255	-200,000	-0,021	-0,099
-455,241	-200,000	0,010	0,045
-454,226	800,000	0,043	0,108
-453,211	-200,000	0,016	-0,054
-452,197	-14,222	0,083	-0,039
-451,182	9,453	0,080	0,044
-450,168	-200,000	0,009	0,077
-449,153	57,788	-0,111	-0,080
-448,138	-165,263	-0,178	-0,006
-447,124	800,000	0,043	-0,102
-446,109	23,387	-0,082	-0,050
-445,095	-39,127	-0,092	0,036
-444,080	-200,000	0,016	0,052
-443,065	-51,506	-0,084	-0,029
-442,051	-200,000	0,003	-0,069
-441,036	-100,704	0,101	-0,018
-440,022	-86,771	-0,091	-0,020
-439,007	-200,000	-0,013	-0,053
-437,992	-46,620	-0,098	0,035
-436,978	-105,590	0,038	-0,006
-435,963	197,784	-0,031	-0,035
-434,949	-200,000	-0,004	-0,102
-433,934	164,976	-0,063	-0,065
-432,919	-51,706	-0,025	-0,008
-431,905	681,422	0,031	0,060
-430,890	27,413	0,111	-0,068
-429,876	179,721	-0,055	0,059
-428,861	800,000	-0,031	0,072
-427,846	-117,337	-0,106	0,014
-426,832	10,925	-0,188	-0,105
-425,817	-12,675	0,112	-0,054
-424,803	280,792	0,087	-0,115
-423,788	50,433	-0,025	0,017
-422,773	800,000	0,018	0,043
-421,759	-111,740	0,080	-0,012
-420,744	800,000	0,037	0,110
-419,730	125,433	0,101	-0,094
-418,715	255,721	-0,077	-0,097
-417,701	97,769	-0,050	-0,042
-416,686	85,667	0,095	0,077
-415,671	127,697	-0,043	0,040
-414,657	141,550	0,091	0,089
-413,642	63,457	0,091	-0,067
-412,628	-200,000	0,008	-0,029
-411,613	38,405	-0,056	-0,037
-410,598	-27,777	-0,077	0,033
-409,584	800,000	0,009	-0,021
-408,569	-200,000	-0,019	0,134
-407,555	-200,000	0,006	-0,046
-406,540	-200,000	0,009	0,088
-405,525	-7,628	-0,095	-0,047
-404,511	300,850	0,027	-0,037
-403,496	-200,000	-0,014	0,095
-402,482	-200,000	0,044	0,162
-401,467	16,761	-0,088	0,051
-400,452	19,925	-0,082	-0,048
-399,438	67,818	0,111	0,084
-398,423	-62,669	-0,039	-0,012
-397,409	468,706	-0,046	-0,077
-396,394	-69,927	-0,075	-0,021
-395,379	136,807	0,091	0,087
-394,365	-200,000	0,006	-0,108
-393,350	-87,910	0,129	0,028
-392,336	602,491	0,033	-0,060
-391,321	-111,124	-0,042	0,006
-390,306	800,000	-0,027	0,078
-389,292	-121,087	-0,178	-0,022
-388,277	-104,351	0,074	0,013
-387,263	150,009	-0,012	-0,012
-386,248	156,216	0,080	0,081
-385,233	157,118	0,039	0,039
-384,219	-200,000	-0,004	-0,070
-383,204	452,867	0,051	-0,083
-382,190	-200,000	0,009	-0,065
-381,175	-200,000	0,015	-0,056
-380,160	107,106	-0,034	0,029
-379,146	37,850	0,068	0,045
-378,131	-6,890	0,113	0,056
-377,117	-86,874	0,044	0,010
-376,102	222,725	-0,070	-0,083
-375,088	-200,000	-0,049	0,195
-374,073	56,202	0,042	0,030
-373,058	66,899	0,042	0,032
-372,044	421,843	0,072	0,114
-371,029	693,649	-0,056	-0,108
-370,015	16,021	-0,060	0,035
-369,000	-113,930	-0,071	0,010
-367,985	800,000	0,050	-0,136
-366,971	585,992	-0,054	-0,097
-365,956	-31,094	-0,036	0,015
-364,942	-6,325	0,091	-0,045
-363,927	-200,000	-0,020	0,128
-362,912	-200,000	0,002	0,008
-361,898	800,000	-0,047	-0,110
-360,883	89,531	-0,112	-0,092
-359,869	800,000	-0,073	0,163
-358,854	-200,000	0,000	-0,077
-357,839	72,238	0,081	0,062
-356,825	37,521	-0,038	0,025
-355,810	337,957	0,067	-0,095
-354,796	800,000	0,051	-0,119
-353,781	373,729	0,082	0,123
-352,766	288,918	0,042	0,057
-351,752	-200,000	0,017	0,058
-350,737	401,255	-0,050	0,078
-349,723	-93,190	0,056	0,011
-348,708	-115,367	0,115	0,016
-347,693	-52,295	-0,056	-0,019
-346,679	-200,000	0,004	-0,126
-345,664	-130,558	-0,051	-0,005
-344,650	800,000	0,016	0,033
-343,635	-73,824	0,027	-0,007
-342,620	94,750	0,115	0,096
-341,606	-81,581	0,054	-0,013
-340,591	310,396	-0,047	-0,065
-339,577	271,611	-0,105	-0,136
-338,562	247,780	-0,033	-0,041
-337,548	800,000	0,060	0,163
-336,533	-73,812	0,070	0,019
-335,518	-124,718	-0,088	-0,010
-334,504	-200,000	0,030	0,108
-333,489	800,000	0,003	-0,010
-332,475	-200,000	0,003	-0,081
-331,460	-73,746	-0,065	0,017
-330,445	449,921	0,040	0,065
-329,431	-200,000	-0,015	-0,057
-328,416	-99,450	0,094	-0,017
-327,402	666,677	0,053	0,101
-326,387	-23,181	-0,218	-0,096
-325,372	-200,000	-0,000	-0,058
-324,358	279,806	-0,043	-0,057
-323,343	800,000	0,065	-0,192
-322,329	-129,087	-0,064	-0,006
-321,314	113,576	-0,067	-0,060
-320,299	-94,548	-0,183	0,036
-319,285	-18,850	-0,089	-0,040
-318,270	3,408	0,081	0,043
-317,256	-200,000	0,005	-0,020
-316,241	138,796	-0,021	-0,021
-315,226	800,000	0,043	-0,109
-314,212	800,000	-0,019	0,038
-313,197	-200,000	0,009	0,164
-312,183	800,000	-0,010	0,030
-311,168	142,500	0,033	0,032
-310,153	-87,451	-0,160	0,035
-309,139	800,000	-0,019	-0,042
-308,124	241,611	-0,091	0,111
-307,110	-200,000	-0,005	0,034
-306,095	-200,000	-0,010	0,082
-305,080	308,382	-0,098	0,134
-304,066	-159,432	0,103	0,004
-303,051	210,851	0,019	-0,022
-302,037	1,932	0,076	-0,040
-301,022	-200,000	0,014	-0,084
-300,008	59,564	0,021	0,015
-298,993	-200,000	-0,011	0,050
-297,978	-3,335	0,038	-0,020
-296,964	800,000	-0,060	0,135
-295,949	-83,600	-0,083	-0,019
-294,935	471,816	-0,071	0,118
-293,920	52,378	0,111	0,078
-292,905	-200,000	-0,006	0,088
-291,891	83,770	0,104	-0,083
-290,876	154,036	-0,031	0,031
-289,862	475,662	0,101	0,168
-288,847	800,000	0,066	-0,134
-287,832	-58,394	-0,085	-0,027
-286,818	739,947	-0,017	-0,033
-285,803	-45,747	0,088	0,032
-284,789	800,000	0,032	0,102
-283,774	-200,000	0,007	0,113
-282,759	-200,000	-0,003	0,095
-281,745	-111,908	-0,089	-0,013
-280,730	639,499	0,024	-0,045
-279,716	-200,000	0,001	-0,098
-278,701	800,000	0,010	-0,027
-277,686	-27,271	0,007	0,003
-276,672	437,388	-0,096	-0,154
-275,657	70,050	0,080	0,060
-274,643	540,434	-0,081	0,141
-273,628	-127,313	0,022	-0,002
-272,613	176,710	-0,082	-0,088
-271,599	151,831	0,051	0,051
-270,584	171,985	0,015	-0,016
-269,570	81,006	0,096	0,076
-268,555	-138,227	-0,094	0,007
-267,540	-125,691	-0,061	0,007
-266,526	23,942	0,049	0,030
-265,511	195,691	0,020	0,022
-264,497	286,676	-0,083	0,109
-263,482	-200,000	-0,018	0,093
-262,467	499,041	-0,037	-0,062
-261,453	800,000	0,035	0,103
-260,438	-200,000	0,026	-0,133
-259,424	99,850	-0,051	0,043
-258,409	-97,283	-0,093	0,018
-257,395	627,626	0,045	0,083
-256,380	-200,000	-0,014	0,090
-255,365	80,131	0,091	0,072
-254,351	800,000	-0,045	0,105
-253,336	17,677	-0,097	-0,056
-252,322	-66,287	-0,066	-0,019
-251,307	-200,000	0,044	-0,160
-250,292	-113,440	0,078	0,011
-249,278	800,000	-0,046	0,094
-248,263	-200,000	-0,005	0,067
-247,249	402,206	-0,038	-0,059
-246,234	743,709	0,021	-0,042
-245,219	-200,000	0,014	-0,090
-244,205	559,401	0,078	-0,138
-243,190	-200,000	-0,035	0,122
-242,176	800,000	0,044	-0,120
-241,161	350,820	0,077	0,111
-240,146	800,000	0,057	0,133
-239,132	327,264	-0,080	0,112
-238,117	15,798	-0,096	-0,055
-237,103	-105,170	-0,093	-0,015
-236,088	1,155	-0,060	-0,032
-235,073	800,000	0,040	0,089
-234,059	554,282	-0,047	0,084
-233,044	397,971	-0,014	-0,021
-232,030	-187,529	0,117	0,001
-231,015	118,950	0,104	0,094
-230,000	445,585	0,041	-0,066
-228,986	351,098	0,014	-0,021
-227,971	800,000	0,055	0,151
-226,957	320,799	0,063	0,087
-225,942	-99,067	-0,093	-0,017
-224,927	800,000	-0,011	0,033
-223,913	24,768	0,051	-0,031
-222,898	-200,000	0,003	-0,056
-221,884	304,379	-0,052	0,070
-220,869	-200,000	-0,001	0,162
-219,855	638,202	0,055	0,103
-218,840	-200,000	-0,014	0,049
-217,825	73,996	-0,025	-0,019
-216,811	12,405	-0,036	-0,020
-215,796	19,933	0,041	0,024
-214,782	800,000	-0,077	-0,161
-213,767	-200,000	0,006	-0,081
-212,752	-200,000	-0,016	-0,071
-211,738	800,000	-0,056	0,176
-210,723	-115,709	-0,132	-0,018
-209,709	-82,195	0,012	0,003
-208,694	492,318	-0,017	0,028
-207,679	800,000	0,003	0,009
-206,665	800,000	0,048	0,129
-205,650	-84,326	0,083	-0,019
-204,636	413,014	-0,042	-0,066
-203,621	144,553	-0,020	0,019
-202,606	-29,834	-0,092	-0,038
-201,592	-179,722	-0,065	0,001
-200,577	-83,971	0,142	0,033
-199,563	132,827	0,068	-0,064
-198,548	-11,259	0,127	0,061
-197,533	800,000	0,039	0,109
-196,519	-145,804	0,131	-0,008
-195,504	122,841	-0,078	0,071
-194,490	-200,000	-0,022	0,124
-193,475	322,294	0,037	-0,052
-192,460	637,317	-0,037	0,069
-191,446	50,643	-0,078	0,054
-190,431	28,044	-0,077	-0,047
-189,417	800,000	0,064	0,189
-188,402	154,768	-0,094	-0,094
-187,387	-128,394	-0,089	0,009
-186,373	23,326	-0,192	-0,115
-185,358	800,000	0,052	0,147
-184,344	-200,000	-0,027	0,142
-183,329	527,263	0,018	-0,030
-182,315	61,897	-0,032	0,024
-181,300	282,037	0,107	0,140
-180,285	79,088	-0,072	-0,057
-179,271	24,362	-0,053	-0,032
-178,256	27,237	-0,116	-0,071
-177,242	37,188	0,090	-0,058
-176,227	800,000	-0,013	0,034
-175,212	233,072	0,022	0,026
-174,198	800,000	-0,016	-0,045
-173,183	148,770	-0,148	-0,146
-172,169	-5,366	-0,091	-0,045
-171,154	-200,000	0,017	0,089
-170,139	800,000	0,034	0,107
-169,125	800,000	-0,027	0,067
-168,110	70,795	-0,075	-0,056
-167,096	636,620	0,028	0,052
-166,081	590,661	-0,099	0,178
-165,066	48,975	0,047	-0,032
-164,052	800,000	0,026	0,069
-163,037	-81,079	-0,105	0,025
-162,023	-2,516	0,090	0,046
-161,008	-56,003	0,052	-0,017
-159,993	186,120	0,038	0,042
-158,979	-68,418	-0,080	0,022
-157,964	141,481	-0,014	0,013
-156,950	-200,000	0,029	-0,164
-155,935	390,007	0,038	-0,057
-154,920	-40,409	0,027	-0,010
-153,906	128,666	0,048	-0,044
-152,891	-133,104	0,058	-0,005
-151,877	-137,431	0,064	0,005
-150,862	390,557	-0,051	0,077
-149,847	-200,000	0,040	0,147
-148,833	-96,086	0,040	0,008
-147,818	-74,352	0,076	-0,020
-146,804	237,618	0,021	0,026
-145,789	-200,000	-0,008	-0,029
-144,775	800,000	0,031	-0,091
-143,760	403,586	-0,098	-0,151
-142,745	-126,777	0,138	-0,015
-141,731	-200,000	0,013	-0,052
-140,716	10,359	-0,045	0,025
-139,702	317,407	0,032	-0,044
-138,687	127,679	0,091	0,084
-137,672	263,249	-0,063	-0,080
-136,658	213,262	-0,056	-0,065
-135,643	-163,208	-0,058	0,002
-134,629	476,966	0,021	0,034
-133,614	-26,567	0,110	-0,047
-132,599	27,736	0,102	-0,062
-131,585	-146,566	0,067	-0,004
-130,570	52,754	-0,149	0,104
-129,556	-65,289	-0,054	0,016
-128,541	-51,469	-0,132	-0,045
-127,526	-127,479	0,041	0,004
-126,512	-110,622	0,065	0,010
-125,497	95,361	0,058	0,048
-124,483	800,000	-0,018	-0,044
-123,468	800,000	-0,039	0,106
-122,453	363,858	-0,046	0,068
-121,439	56,749	0,008	-0,005
-120,424	104,218	-0,050	-0,043
-119,410	-200,000	0,018	-0,097
