DTS Sentinel unit serial number:	SN410029Multiplexer serial number:	ORYXHardware model number:	OX2-SRSoftware version number:	ORYX F/W v4,00 Oryx Data Collector v3.7.2.0data status	okinstallation	B6 Nyhavnadifferential loss correction	single-endedforward channel	channel 2reverse channel	N/Adate	2023/12/09time	11:20:08forward acquisition time	300,00reverse acquisition time	0,00gamma	499,1914k internal	0,3139k external	0,3139temperature offset calibration	1,0000default loss term (dB/km)	0,3820temperature slope calibration	1,0000multiplexer offset coefficient	1,0000multiplexer slope coefficient	1,0000fibre end	0,00T internal ref (°C)	18,78T ext. ref 1 (°C)	2,72T ext. ref 2 (°C)	2,70length (m)	temperature (°C)	Stokes	anti-Stokes-744,400	-200,000	0,018	0,081
-743,385	-49,056	-0,282	-0,100
-742,371	439,409	0,030	0,049
-741,356	3,347	-0,149	0,080
-740,342	-167,568	0,073	0,002
-739,327	-101,697	-0,215	0,038
-738,312	83,602	0,048	0,039
-737,298	-15,823	-0,251	0,118
-736,283	2,507	0,132	0,071
-735,269	-3,704	-0,201	0,103
-734,254	-200,000	0,003	-0,099
-733,239	-30,631	-0,396	-0,165
-732,225	800,000	0,035	0,078
-731,210	555,829	-0,091	0,162
-730,196	157,238	0,065	-0,067
-729,181	800,000	0,032	-0,075
-728,167	-74,791	-0,042	-0,011
-727,152	100,474	-0,045	-0,039
-726,137	-93,693	-0,027	0,005
-725,123	92,509	-0,058	-0,048
-724,108	82,787	-0,149	-0,120
-723,094	-200,000	0,004	-0,112
-722,079	-42,813	-0,108	-0,040
-721,064	-141,033	-0,091	-0,007
-720,050	-200,000	-0,031	-0,160
-719,035	-98,516	-0,095	0,018
-718,021	58,346	-0,069	-0,050
-717,006	-59,077	-0,113	-0,036
-715,991	385,507	-0,100	-0,154
-714,977	435,990	-0,095	-0,153
-713,962	-3,913	-0,113	0,058
-712,948	6,524	-0,135	0,074
-711,933	-151,109	-0,070	-0,004
-710,918	51,603	0,053	-0,038
-709,904	-15,087	-0,111	0,053
-708,889	-144,678	0,100	-0,007
-707,875	-200,000	0,022	-0,164
-706,860	-200,000	-0,001	-0,041
-705,845	-43,647	0,031	-0,011
-704,831	-48,144	-0,053	-0,019
-703,816	-200,000	-0,043	0,143
-702,802	-200,000	-0,012	-0,120
-701,787	474,863	-0,028	0,047
-700,772	780,383	-0,021	0,043
-699,758	96,088	0,034	-0,029
-698,743	23,995	0,105	-0,064
-697,729	2,638	-0,097	0,052
-696,714	-200,000	-0,037	0,177
-695,699	99,494	-0,066	0,057
-694,685	211,311	0,039	-0,045
-693,670	-71,256	0,059	-0,016
-692,656	22,789	-0,092	-0,055
-691,641	800,000	-0,036	-0,113
-690,627	0,514	-0,126	0,067
-689,612	121,095	0,139	-0,128
-688,597	13,368	-0,097	-0,056
-687,583	92,537	0,114	-0,095
-686,568	-109,922	-0,129	0,020
-685,554	560,195	-0,014	0,026
-684,539	774,174	0,019	0,038
-683,524	-131,216	-0,050	0,005
-682,510	-49,181	0,102	0,036
-681,495	127,462	-0,097	-0,091
-680,481	8,426	-0,027	0,015
-679,466	2,807	-0,173	-0,092
-678,451	20,470	0,088	-0,053
-677,437	-40,639	-0,161	-0,061
-676,422	-200,000	0,005	0,065
-675,408	800,000	0,024	-0,065
-674,393	800,000	-0,063	-0,162
-673,378	-102,682	-0,081	0,014
-672,364	800,000	0,073	-0,157
-671,349	600,087	-0,053	-0,097
-670,335	-28,788	0,124	-0,052
-669,320	-200,000	-0,002	-0,031
-668,305	209,440	-0,052	0,060
-667,291	652,007	0,011	0,020
-666,276	-200,000	0,013	-0,044
-665,262	-105,759	-0,043	-0,007
-664,247	-200,000	-0,003	-0,129
-663,232	245,315	-0,134	-0,167
-662,218	24,276	0,031	-0,019
-661,203	-39,534	-0,029	-0,011
-660,189	102,033	-0,101	-0,087
-659,174	6,794	-0,132	0,072
-658,159	-200,000	0,005	-0,212
-657,145	-62,227	-0,085	-0,026
-656,130	-200,000	-0,010	-0,082
-655,116	162,271	-0,052	-0,054
-654,101	-132,827	-0,071	0,007
-653,086	-149,791	0,043	0,002
-652,072	-200,000	0,187	0,000
-651,057	40,878	-0,093	-0,062
-650,043	455,807	0,070	-0,115
-649,028	-52,177	-0,045	0,015
-648,014	800,000	-0,022	-0,058
-646,999	85,988	0,162	0,132
-645,984	-30,933	-0,099	0,041
-644,970	-31,039	-0,148	-0,062
-643,955	191,132	-0,061	0,068
-642,941	224,390	-0,145	-0,173
-641,926	-3,946	-0,071	-0,036
-640,911	-8,771	0,114	0,056
-639,897	147,735	-0,030	0,030
-638,882	18,623	0,075	0,044
-637,868	274,165	-0,067	0,088
-636,853	548,626	0,034	-0,060
-635,838	-27,188	-0,081	0,035
-634,824	188,572	-0,033	0,036
-633,809	-62,638	0,026	-0,008
-632,795	-200,000	-0,019	0,122
-631,780	48,564	0,018	-0,013
-630,765	-200,000	-0,003	-0,068
-629,751	431,501	-0,044	-0,071
-628,736	800,000	0,033	0,080
-627,722	352,947	0,131	-0,193
-626,707	554,955	0,089	-0,158
-625,692	-200,000	-0,025	0,172
-624,678	57,834	0,127	0,091
-623,663	286,618	-0,090	-0,121
-622,649	12,893	0,081	-0,046
-621,634	-86,835	0,082	-0,018
-620,619	-0,916	0,117	-0,061
-619,605	-125,968	-0,046	-0,005
-618,590	-118,572	-0,034	0,004
-617,576	258,004	0,064	-0,082
-616,561	800,000	-0,022	0,066
-615,546	604,244	-0,036	0,066
-614,532	800,000	0,022	-0,048
-613,517	430,602	0,033	-0,052
-612,503	116,860	0,025	0,023
-611,488	-91,910	-0,042	-0,009
-610,474	-200,000	-0,013	0,114
-609,459	23,083	-0,041	0,025
-608,444	264,197	0,038	0,049
-607,430	-122,917	-0,060	0,007
-606,415	168,766	-0,025	-0,026
-605,401	-46,728	-0,066	-0,024
-604,386	88,268	0,016	0,013
-603,371	800,000	0,049	0,122
-602,357	-161,606	-0,112	-0,004
-601,342	-200,000	0,016	-0,083
-600,328	62,854	-0,202	-0,149
-599,313	800,000	0,047	0,125
-598,298	318,041	0,032	-0,044
-597,284	46,530	0,026	0,018
-596,269	-200,000	-0,032	0,116
-595,255	76,336	-0,091	-0,071
-594,240	167,869	-0,085	0,089
-593,225	800,000	0,017	0,054
-592,211	800,000	0,055	-0,168
-591,196	731,716	-0,006	-0,011
-590,182	229,635	-0,014	0,017
-589,167	-200,000	-0,008	0,106
-588,152	-200,000	-0,038	-0,184
-587,138	-200,000	0,019	-0,080
-586,123	-193,793	-0,135	0,001
-585,109	-80,538	-0,086	-0,021
-584,094	-13,476	0,031	-0,015
-583,079	751,403	-0,014	0,028
-582,065	270,974	0,074	-0,096
-581,050	-11,017	0,056	0,027
-580,036	-33,639	-0,082	-0,033
-579,021	223,242	0,086	-0,102
-578,006	-82,117	0,088	0,021
-576,992	-118,798	-0,109	0,014
-575,977	-101,939	-0,079	-0,014
-574,963	302,328	0,062	-0,085
-573,948	103,073	0,007	0,006
-572,934	800,000	-0,015	-0,039
-571,919	41,335	-0,029	0,019
-570,904	-200,000	-0,059	0,000
-569,890	89,389	-0,084	-0,069
-568,875	800,000	-0,029	0,071
-567,861	194,866	-0,105	0,118
-566,846	-136,189	0,024	0,002
-565,831	513,680	0,042	-0,073
-564,817	310,877	0,046	-0,064
-563,802	-200,000	-0,080	-0,270
-562,788	-200,000	0,007	-0,089
-561,773	689,209	0,056	-0,109
-560,758	800,000	0,002	-0,006
-559,744	800,000	0,026	0,083
-558,729	-200,000	0,001	-0,010
-557,715	-145,759	-0,069	-0,004
-556,700	97,951	-0,202	-0,171
-555,685	172,668	-0,106	-0,113
-554,671	-68,326	-0,122	0,035
-553,656	202,587	0,140	0,159
-552,642	45,826	-0,130	0,088
-551,627	140,108	-0,097	0,094
-550,612	-162,237	0,027	0,001
-549,598	-110,650	-0,083	0,012
-548,583	425,347	-0,016	-0,025
-547,569	372,697	-0,084	-0,126
-546,554	-200,000	0,114	0,000
-545,539	120,714	-0,142	0,130
-544,525	-200,000	-0,000	0,122
-543,510	-73,510	-0,042	0,011
-542,496	49,930	-0,060	0,041
-541,481	9,047	-0,180	0,099
-540,466	-87,010	-0,134	0,030
-539,452	109,120	0,085	0,075
-538,437	-29,024	0,084	-0,035
-537,423	214,716	0,086	0,100
-536,408	-98,078	0,102	0,019
-535,393	-82,270	-0,070	0,017
-534,379	-107,187	-0,111	0,018
-533,364	506,718	0,088	-0,152
-532,350	136,689	-0,094	-0,090
-531,335	10,912	0,059	-0,033
-530,321	67,581	0,019	-0,014
-529,306	-6,040	0,079	0,040
-528,291	-86,702	-0,064	-0,014
-527,277	102,209	-0,080	0,069
-526,262	167,028	0,039	-0,041
-525,248	121,930	0,051	-0,047
-524,233	583,181	-0,016	-0,028
-523,218	-84,029	-0,064	0,015
-522,204	789,685	0,025	0,051
-521,189	-88,142	-0,043	-0,009
-520,175	157,779	0,062	-0,063
-519,160	-53,200	0,052	0,017
-518,145	-10,636	0,167	0,081
-517,131	-200,000	-0,008	0,109
-516,116	410,040	0,084	0,131
-515,102	-143,671	0,075	-0,005
-514,087	-67,093	-0,062	0,018
-513,072	-132,336	-0,022	-0,002
-512,058	-193,007	0,016	0,000
-511,043	-129,507	0,097	0,010
-510,029	175,071	-0,021	-0,023
-509,014	220,429	-0,043	0,050
-507,999	-34,440	-0,043	0,017
-506,985	-84,520	0,058	-0,013
-505,970	800,000	0,064	-0,136
-504,956	39,912	-0,114	-0,075
-503,941	-200,000	0,051	-0,171
-502,926	222,886	0,038	-0,045
-501,912	-43,042	0,011	-0,004
-500,897	-143,773	-0,040	0,003
-499,883	167,150	-0,071	-0,075
-498,868	79,214	-0,116	0,092
-497,853	83,658	0,049	-0,039
-496,839	-29,064	0,076	-0,032
-495,824	-41,982	0,112	0,042
-494,810	135,248	0,106	0,101
-493,795	-33,416	-0,159	-0,064
-492,781	-127,368	-0,058	0,006
-491,766	236,318	-0,105	-0,128
-490,751	-113,821	-0,116	0,016
-489,737	-36,766	-0,015	0,006
-488,722	800,000	0,026	-0,068
-487,708	800,000	0,018	-0,052
-486,693	-62,578	0,079	0,024
-485,678	-5,290	0,055	0,028
-484,664	800,000	-0,002	-0,005
-483,649	-130,644	-0,048	0,005
-482,635	10,547	-0,084	-0,047
-481,620	-4,522	0,059	0,030
-480,605	800,000	0,025	0,060
-479,591	-75,725	0,101	-0,026
-478,576	-122,507	0,133	0,016
-477,562	509,369	0,026	0,044
-476,547	122,553	-0,084	-0,077
-475,532	644,634	0,026	0,050
-474,518	-106,141	-0,050	-0,008
-473,503	210,061	0,035	0,041
-472,489	23,486	0,170	0,102
-471,474	-200,000	0,001	-0,026
-470,459	-27,343	-0,025	0,011
-469,445	-200,000	0,000	-0,040
-468,430	41,847	-0,123	-0,082
-467,416	565,318	0,006	-0,010
-466,401	291,860	0,029	0,039
-465,386	-200,000	0,010	-0,113
-464,372	800,000	0,025	0,062
-463,357	129,895	0,074	-0,069
-462,343	-51,051	0,048	-0,016
-461,328	-200,000	-0,016	-0,095
-460,313	-101,816	0,049	-0,009
-459,299	586,027	0,085	0,154
-458,284	42,391	0,051	0,034
-457,270	800,000	-0,081	0,178
-456,255	800,000	0,023	-0,049
-455,241	-200,000	-0,021	0,164
-454,226	40,123	0,053	-0,035
-453,211	800,000	0,062	0,131
-452,197	-7,443	0,027	-0,013
-451,182	-151,814	-0,104	-0,006
-450,168	462,251	0,025	0,041
-449,153	-200,000	-0,006	-0,076
-448,138	82,908	-0,044	-0,035
-447,124	351,717	-0,013	-0,020
-446,109	800,000	-0,067	-0,162
-445,095	177,638	0,042	0,045
-444,080	-200,000	-0,001	-0,075
-443,065	239,977	0,067	-0,082
-442,051	-200,000	-0,005	0,086
-441,036	-105,902	0,166	0,027
-440,022	-200,000	-0,015	0,062
-439,007	-178,144	-0,095	0,002
-437,992	167,002	-0,074	0,077
-436,978	-5,169	0,115	0,058
-435,963	-135,711	-0,196	-0,017
-434,949	-200,000	0,028	0,000
-433,934	107,544	-0,046	-0,040
-432,919	-37,784	-0,041	-0,016
-431,905	255,777	-0,068	-0,085
-430,890	8,631	0,074	-0,041
-429,876	80,448	0,138	0,109
-428,861	800,000	-0,042	0,105
-427,846	111,212	0,054	-0,048
-426,832	800,000	-0,008	0,018
-425,817	-200,000	-0,014	0,052
-424,803	-103,448	0,132	0,023
-423,788	25,942	0,069	0,042
-422,773	-79,132	-0,091	-0,022
-421,759	-39,738	0,095	0,036
-420,744	800,000	0,024	0,068
-419,730	359,593	-0,048	0,070
-418,715	-84,895	-0,093	-0,021
-417,701	-120,444	0,204	0,025
-416,686	-46,113	-0,116	-0,042
-415,671	800,000	0,054	0,155
-414,657	-200,000	-0,006	0,095
-413,642	-144,686	-0,095	-0,006
-412,628	123,081	0,081	-0,074
-411,613	-200,000	-0,010	-0,074
-410,598	800,000	0,015	-0,034
-409,584	-30,969	0,150	0,062
-408,569	-200,000	0,025	-0,114
-407,555	250,010	-0,029	-0,036
-406,540	-67,495	-0,025	-0,007
-405,525	800,000	-0,019	-0,052
-404,511	-200,000	0,004	0,024
-403,496	-200,000	0,014	-0,079
-402,482	281,879	0,021	-0,027
-401,467	800,000	-0,020	-0,046
-400,452	-98,031	0,027	0,005
-399,438	-56,552	0,083	-0,027
-398,423	130,994	-0,054	0,050
-397,409	652,282	-0,038	0,071
-396,394	25,788	0,145	-0,088
-395,379	-4,974	-0,134	-0,067
-394,365	116,687	0,072	-0,064
-393,350	-132,107	0,124	-0,012
-392,336	800,000	0,051	0,127
-391,321	671,760	0,040	0,076
-390,306	800,000	-0,031	-0,084
-389,292	200,839	-0,061	-0,068
-388,277	-68,228	-0,023	-0,007
-387,263	346,756	0,074	-0,107
-386,248	33,930	0,005	0,003
-385,233	-140,443	-0,160	-0,012
-384,219	52,978	0,098	-0,068
-383,204	-200,000	0,018	-0,091
-382,190	66,295	-0,073	-0,054
-381,175	-35,145	0,086	0,034
-380,160	800,000	0,046	0,111
-379,146	-200,000	-0,006	0,056
-378,131	67,047	0,003	-0,002
-377,117	-200,000	-0,035	-0,117
-376,102	-200,000	-0,005	0,038
-375,088	-94,650	0,133	0,026
-374,073	-67,202	0,052	0,015
-373,058	-200,000	-0,016	0,113
-372,044	800,000	-0,023	0,048
-371,029	282,502	0,063	0,083
-370,015	-71,308	0,102	-0,028
-369,000	194,532	-0,063	0,070
-367,985	-200,000	-0,025	-0,155
-366,971	800,000	-0,020	-0,057
-365,956	446,949	0,044	0,071
-364,942	800,000	-0,019	0,060
-363,927	25,527	-0,040	-0,024
-362,912	-55,902	0,165	0,053
-361,898	-200,000	-0,002	0,084
-360,883	54,707	-0,021	0,015
-359,869	800,000	-0,039	0,105
-358,854	-10,628	0,085	-0,041
-357,839	388,210	0,030	-0,046
-356,825	-200,000	0,015	0,051
-355,810	120,874	-0,014	-0,013
-354,796	-200,000	0,010	0,037
-353,781	-49,297	-0,085	0,029
-352,766	-124,302	-0,086	0,010
-351,752	676,198	-0,010	0,020
-350,737	-44,991	0,111	-0,040
-349,723	242,669	-0,025	0,031
-348,708	-200,000	0,026	-0,122
-347,693	800,000	-0,057	0,165
-346,679	-103,916	-0,228	-0,038
-345,664	321,001	-0,025	0,034
-344,650	-102,640	0,073	-0,013
-343,635	-200,000	0,039	-0,142
-342,620	159,304	-0,039	-0,040
-341,606	-200,000	-0,017	0,074
-340,591	172,024	-0,049	0,052
-339,577	-69,465	-0,108	0,030
-338,562	323,773	-0,069	0,097
-337,548	-200,000	-0,013	0,056
-336,533	-200,000	0,017	0,099
-335,518	-9,017	-0,049	-0,024
-334,504	-44,102	0,129	-0,047
-333,489	-90,176	0,016	0,003
-332,475	447,526	0,030	0,048
-331,460	-200,000	-0,007	0,075
-330,445	300,850	0,060	0,081
-329,431	-102,513	-0,039	-0,007
-328,416	337,907	0,061	-0,087
-327,402	-96,508	0,024	0,005
-326,387	3,401	-0,019	0,010
-325,372	-195,372	-0,165	-0,001
-324,358	475,773	0,104	0,172
-323,343	20,189	0,080	0,047
-322,329	-122,195	0,137	0,016
-321,314	-196,192	0,155	-0,001
-320,299	-200,000	-0,044	0,322
-319,285	161,121	0,069	-0,071
-318,270	49,920	0,093	-0,064
-317,256	-200,000	-0,023	-0,078
-316,241	11,580	0,096	-0,053
-315,226	800,000	0,018	-0,052
-314,212	-70,991	-0,168	-0,046
-313,197	-100,990	-0,049	0,009
-312,183	-40,382	0,108	0,041
-311,168	-98,411	0,048	0,009
-310,153	-97,698	0,106	-0,020
-309,139	302,068	-0,058	0,078
-308,124	62,173	0,054	0,040
-307,110	-108,556	0,018	-0,003
-306,095	86,047	0,155	0,125
-305,080	-113,212	-0,095	0,013
-304,066	406,596	-0,037	0,058
-303,051	-151,455	-0,140	-0,007
-302,037	382,706	-0,052	-0,079
-301,022	112,224	0,092	-0,081
-300,008	-200,000	0,004	0,046
-298,993	-165,335	0,151	0,005
-297,978	141,054	-0,072	0,070
-296,964	-200,000	0,001	-0,130
-295,949	-101,737	-0,146	0,026
-294,935	-52,643	-0,118	0,040
-293,920	-48,843	-0,048	-0,017
-292,905	-69,459	0,147	-0,041
-291,891	-113,304	0,123	0,017
-290,876	700,869	-0,024	0,046
-289,862	800,000	-0,044	-0,089
-288,847	-200,000	0,022	0,119
-287,832	58,012	-0,089	-0,063
-286,818	800,000	-0,042	0,114
-285,803	-200,000	-0,014	0,177
-284,789	-200,000	0,016	-0,052
-283,774	338,488	-0,082	-0,117
-282,759	-99,519	0,014	0,003
-281,745	19,602	-0,053	-0,031
-280,730	221,862	-0,062	0,073
-279,716	-57,502	0,023	0,007
-278,701	99,100	0,029	-0,024
-277,686	800,000	0,047	-0,123
-276,672	-90,167	-0,057	0,012
-275,657	-112,968	0,106	-0,015
-274,643	-112,056	-0,102	-0,015
-273,628	800,000	-0,021	-0,058
-272,613	227,041	0,032	0,038
-271,599	800,000	0,016	-0,036
-270,584	-200,000	-0,015	0,133
-269,570	-65,789	-0,061	0,018
-268,555	-200,000	-0,005	-0,098
-267,540	-38,663	-0,037	-0,014
-266,526	-128,154	0,091	0,009
-265,511	-126,373	-0,110	0,012
-264,497	-133,068	0,153	-0,014
-263,482	13,626	0,096	0,054
-262,467	112,556	0,061	-0,053
-261,453	29,148	0,131	-0,081
-260,438	-134,491	-0,023	-0,002
-259,424	309,634	-0,051	0,069
-258,409	208,180	0,066	-0,075
-257,395	-89,937	-0,106	0,022
-256,380	76,067	0,057	0,044
-255,365	-200,000	-0,012	0,072
-254,351	-200,000	0,005	-0,025
-253,336	-58,879	-0,113	0,035
-252,322	10,981	0,139	0,077
-251,307	-60,078	-0,122	-0,038
-250,292	-200,000	-0,037	0,131
-249,278	-200,000	-0,013	0,060
-248,263	229,672	0,060	0,071
-247,249	-23,360	0,046	0,020
-246,234	162,502	0,051	-0,052
-245,219	800,000	-0,030	-0,089
-244,205	151,972	0,028	-0,028
-243,190	800,000	0,011	-0,036
-242,176	34,258	0,060	-0,038
-241,161	-200,000	-0,008	-0,085
-240,146	-135,323	-0,096	-0,008
-239,132	-200,000	-0,016	-0,183
-238,117	-200,000	-0,001	-0,079
-237,103	-73,760	-0,131	-0,034
-236,088	-200,000	0,011	-0,056
-235,073	-34,425	-0,155	0,062
-234,059	189,100	-0,013	0,014
-233,044	-1,639	-0,065	0,033
-232,030	-157,914	0,072	-0,003
-231,015	800,000	0,024	-0,076
-230,000	301,230	0,064	-0,086
-228,986	614,336	0,038	0,069
-227,971	800,000	0,033	-0,075
-226,957	-200,000	0,002	0,009
-225,942	27,640	-0,063	0,039
-224,927	-200,000	-0,006	-0,039
-223,913	800,000	-0,047	0,133
-222,898	800,000	-0,034	-0,097
-221,884	-200,000	0,015	-0,114
-220,869	-86,887	-0,128	-0,028
-219,855	800,000	-0,039	0,090
-218,840	-80,505	-0,092	-0,022
-217,825	-200,000	0,006	0,140
-216,811	44,831	-0,017	-0,011
-215,796	-200,000	0,005	-0,099
-214,782	-49,165	0,056	-0,019
-213,767	-87,424	0,064	-0,014
-212,752	800,000	-0,045	0,106
-211,738	158,594	0,070	0,070
-210,723	-59,958	0,090	-0,028
-209,709	459,455	-0,037	-0,061
-208,694	-200,000	-0,015	-0,078
-207,679	13,780	-0,089	-0,050
-206,665	-89,968	0,139	-0,029
-205,650	402,167	-0,049	-0,074
-204,636	-23,150	0,128	0,056
-203,621	800,000	0,058	0,163
-202,606	-55,087	-0,068	0,022
-201,592	-200,000	-0,002	-0,043
-200,577	65,201	0,021	0,016
-199,563	800,000	-0,062	0,138
-198,548	180,919	0,112	0,119
-197,533	176,263	-0,052	0,055
-196,519	31,062	-0,049	0,031
-195,504	279,606	-0,062	0,081
-194,490	-145,828	0,099	0,006
-193,475	-200,000	0,025	0,174
-192,460	-141,877	-0,043	0,003
-191,446	-200,000	-0,007	0,050
-190,431	-48,781	0,068	-0,024
-189,417	-107,421	0,105	-0,017
-188,402	142,763	0,117	-0,113
-187,387	60,305	-0,127	-0,091
-186,373	-200,000	0,006	-0,089
-185,358	800,000	0,011	-0,034
-184,344	800,000	0,065	-0,135
-183,329	545,427	0,041	-0,072
-182,315	200,737	-0,075	0,083
-181,300	-200,000	0,007	-0,033
-180,285	-200,000	0,025	-0,148
-179,271	-76,246	-0,170	-0,043
-178,256	-21,321	-0,034	-0,015
-177,242	-118,949	-0,076	-0,010
-176,227	46,461	-0,118	0,079
-175,212	-131,102	0,150	-0,014
-174,198	-78,798	0,079	0,019
-173,183	-200,000	-0,004	0,031
-172,169	-126,732	-0,040	-0,004
-171,154	43,679	0,119	-0,079
-170,139	246,382	0,085	-0,105
-169,125	-44,556	0,082	-0,030
-168,110	-200,000	0,020	0,169
-167,096	-54,288	-0,078	0,025
-166,081	-200,000	-0,026	-0,088
-165,066	95,855	-0,069	-0,057
-164,052	-60,031	-0,063	-0,019
-163,037	-200,000	-0,019	-0,071
-162,023	-115,585	0,081	0,011
-161,008	-41,442	0,106	-0,039
-159,993	800,000	-0,042	0,129
-158,979	-200,000	-0,014	-0,117
-157,964	800,000	-0,024	-0,061
-156,950	499,676	-0,019	0,032
-155,935	192,238	0,070	-0,077
-154,920	800,000	-0,059	0,149
-153,906	-200,000	-0,021	0,069
-152,891	-91,530	-0,085	-0,017
-151,877	42,529	-0,095	0,062
-150,862	614,505	0,096	0,175
-149,847	423,298	-0,098	0,154
-148,833	62,397	0,051	0,037
-147,818	-150,372	0,082	0,004
-146,804	179,666	0,118	0,125
-145,789	-200,000	0,012	0,157
-144,775	-26,474	0,078	0,033
-143,760	-200,000	-0,006	0,070
-142,745	-200,000	-0,024	0,118
-141,731	588,283	-0,085	0,153
-140,716	660,302	-0,050	-0,093
-139,702	23,717	0,111	0,066
-138,687	122,822	0,052	0,047
-137,672	-200,000	-0,023	0,205
-136,658	-200,000	0,006	0,046
-135,643	-200,000	0,008	-0,086
-134,629	-177,178	0,079	0,001
-133,614	99,666	0,063	0,053
-132,599	-200,000	0,007	-0,055
-131,585	-200,000	0,008	0,127
-130,570	-200,000	-0,025	0,147
-129,556	-154,949	-0,022	-0,001
-128,541	-102,621	-0,109	-0,019
-127,526	-82,484	0,014	-0,003
-126,512	3,629	0,116	-0,061
-125,497	-50,960	0,047	0,016
-124,483	-200,000	0,062	0,000
-123,468	-18,432	-0,108	-0,049
-122,453	-200,000	0,001	-0,045
-121,439	371,317	0,096	-0,141
-120,424	33,609	0,116	-0,073
-119,410	-46,741	0,019	0,007
