DTS Sentinel unit serial number:	SN410029Multiplexer serial number:	ORYXHardware model number:	OX2-SRSoftware version number:	ORYX F/W v4,00 Oryx Data Collector v3.7.2.0data status	okinstallation	B6 Nyhavnadifferential loss correction	single-endedforward channel	channel 2reverse channel	N/Adate	2023/12/10time	00:35:08forward acquisition time	300,00reverse acquisition time	0,00gamma	499,1914k internal	0,3126k external	0,3126temperature offset calibration	1,0000default loss term (dB/km)	0,3820temperature slope calibration	1,0000multiplexer offset coefficient	1,0000multiplexer slope coefficient	1,0000fibre end	0,00T internal ref (°C)	21,83T ext. ref 1 (°C)	5,70T ext. ref 2 (°C)	5,70length (m)	temperature (°C)	Stokes	anti-Stokes-744,400	769,782	0,018	-0,036
-743,385	-40,922	-0,231	0,089
-742,371	800,000	0,002	-0,004
-741,356	30,663	-0,176	0,112
-740,342	-84,372	0,116	-0,027
-739,327	-66,771	-0,224	0,066
-738,312	306,421	-0,038	-0,053
-737,298	-64,697	-0,238	0,071
-736,283	-49,450	0,176	0,062
-735,269	-71,936	-0,154	0,042
-734,254	-150,972	0,053	-0,003
-733,239	-76,032	-0,337	-0,088
-732,225	-112,898	0,167	-0,024
-731,210	-200,000	0,029	0,162
-730,196	800,000	-0,037	0,080
-729,181	93,286	0,105	-0,088
-728,167	-200,000	-0,016	-0,149
-727,152	800,000	-0,042	0,123
-726,137	14,228	0,139	0,081
-725,123	-103,466	-0,033	0,006
-724,108	134,631	0,020	-0,020
-723,094	-151,383	-0,098	-0,005
-722,079	-111,420	-0,094	-0,014
-721,064	800,000	-0,014	0,041
-720,050	435,230	0,059	-0,095
-719,035	229,741	-0,087	-0,106
-718,021	-75,837	-0,077	-0,020
-717,006	178,010	-0,079	0,085
-715,991	-145,284	-0,060	-0,004
-714,977	22,430	-0,068	0,041
-713,962	-95,516	-0,042	0,008
-712,948	-72,344	0,051	0,014
-711,933	-50,659	-0,071	0,025
-710,918	-39,594	0,076	0,029
-709,904	-200,000	0,056	-0,208
-708,889	43,950	0,052	-0,035
-707,875	-200,000	-0,031	-0,108
-706,860	11,579	0,055	-0,031
-705,845	-106,240	-0,028	-0,005
-704,831	-200,000	-0,006	0,112
-703,816	800,000	0,024	0,061
-702,802	800,000	0,021	0,051
-701,787	-110,932	-0,175	0,026
-700,772	93,164	0,065	0,054
-699,758	53,979	-0,142	-0,101
-698,743	-63,196	-0,030	0,009
-697,729	-200,000	-0,006	-0,106
-696,714	427,190	0,050	0,081
-695,699	-181,862	0,086	0,001
-694,685	-31,206	-0,118	-0,049
-693,670	45,896	0,049	-0,034
-692,656	-200,000	0,008	0,144
-691,641	778,444	-0,018	0,037
-690,627	-200,000	0,007	-0,036
-689,612	800,000	-0,012	0,038
-688,597	800,000	-0,023	-0,074
-687,583	317,414	-0,099	-0,139
-686,568	81,138	-0,089	0,071
-685,554	500,851	-0,023	0,039
-684,539	167,892	-0,043	0,045
-683,524	-200,000	-0,012	0,058
-682,510	800,000	-0,037	0,084
-681,495	-65,640	-0,112	0,033
-680,481	-200,000	0,013	-0,052
-679,466	-200,000	0,002	-0,048
-678,451	63,214	-0,025	-0,018
-677,437	-200,000	0,019	0,069
-676,422	252,280	-0,032	-0,041
-675,408	800,000	-0,008	0,016
-674,393	-135,723	-0,125	-0,011
-673,378	81,529	-0,146	-0,117
-672,364	135,998	-0,078	0,075
-671,349	800,000	-0,010	0,020
-670,335	342,156	-0,025	0,036
-669,320	-200,000	-0,002	-0,049
-668,305	-99,992	-0,109	0,020
-667,291	-29,366	-0,105	-0,044
-666,276	-200,000	0,028	-0,156
-665,262	-57,045	-0,075	0,024
-664,247	800,000	0,018	0,038
-663,232	-70,982	-0,021	-0,006
-662,218	-200,000	0,006	0,087
-661,203	209,199	0,062	0,072
-660,189	-103,235	-0,052	-0,009
-659,174	271,677	-0,018	-0,024
-658,159	800,000	-0,014	0,033
-657,145	-89,440	-0,096	-0,021
-656,130	93,718	0,065	-0,055
-655,116	228,818	0,022	0,027
-654,101	110,084	-0,140	0,125
-653,086	-200,000	0,011	0,039
-652,072	-76,046	-0,235	0,061
-651,057	130,396	-0,105	-0,100
-650,043	120,610	0,106	0,098
-649,028	267,660	0,022	-0,029
-648,014	-28,372	0,119	0,051
-646,999	-187,458	-0,100	-0,001
-645,984	239,508	0,035	0,043
-644,970	10,041	-0,082	-0,046
-643,955	392,493	-0,004	0,005
-642,941	-121,882	0,065	0,008
-641,926	263,974	0,064	0,083
-640,911	800,000	0,036	-0,111
-639,897	-200,000	0,011	0,060
-638,882	-200,000	-0,000	0,037
-637,868	-114,916	-0,108	-0,015
-636,853	301,556	0,030	-0,042
-635,838	800,000	-0,039	-0,105
-634,824	-200,000	-0,029	-0,179
-633,809	800,000	0,056	-0,134
-632,795	56,993	-0,067	0,048
-631,780	-200,000	0,026	-0,087
-630,765	-116,549	-0,029	0,004
-629,751	-91,515	0,072	0,015
-628,736	55,635	-0,157	-0,112
-627,722	125,348	-0,143	-0,133
-626,707	-200,000	-0,020	-0,100
-625,692	-8,413	-0,023	0,011
-624,678	-200,000	0,004	0,074
-623,663	-200,000	0,005	-0,050
-622,649	-200,000	0,015	0,127
-621,634	-200,000	0,028	-0,112
-620,619	-200,000	0,020	-0,172
-619,605	-200,000	-0,010	-0,120
-618,590	800,000	0,032	0,067
-617,576	-200,000	0,003	0,041
-616,561	155,600	0,115	-0,117
-615,546	-200,000	0,001	-0,038
-614,532	76,655	-0,053	-0,042
-613,517	243,444	0,090	0,112
-612,503	118,115	0,075	-0,069
-611,488	-79,367	0,210	-0,052
-610,474	-142,865	0,126	-0,009
-609,459	175,958	0,044	-0,047
-608,444	-61,002	-0,067	-0,021
-607,430	800,000	-0,009	-0,026
-606,415	350,053	0,019	0,028
-605,401	56,024	-0,132	0,095
-604,386	-87,275	-0,029	-0,006
-603,371	-114,401	-0,072	0,010
-602,357	13,374	0,027	-0,016
-601,342	640,288	-0,052	-0,098
-600,328	180,269	0,056	-0,061
-599,313	29,835	0,071	-0,045
-598,298	103,000	-0,073	-0,063
-597,284	775,676	0,059	0,120
-596,269	-156,971	-0,100	0,004
-595,255	-200,000	-0,004	0,070
-594,240	-152,755	-0,058	0,003
-593,225	102,719	0,077	-0,066
-592,211	18,248	0,070	-0,041
-591,196	58,285	-0,088	0,063
-590,182	383,976	-0,017	-0,026
-589,167	-29,109	-0,103	0,043
-588,152	71,146	0,046	0,036
-587,138	800,000	0,077	0,192
-586,123	92,029	-0,082	-0,068
-585,109	-26,450	-0,145	-0,063
-584,094	493,579	-0,030	-0,051
-583,079	186,760	0,073	0,081
-582,065	-200,000	0,009	0,168
-581,050	82,214	0,008	-0,006
-580,036	13,408	0,093	-0,053
-579,021	2,311	0,042	0,022
-578,006	800,000	0,027	0,062
-576,992	193,707	-0,079	0,089
-575,977	800,000	-0,023	0,052
-574,963	-3,375	-0,016	-0,008
-573,948	-9,788	0,061	-0,030
-572,934	107,167	-0,049	-0,043
-571,919	-106,290	-0,084	-0,014
-570,904	111,918	-0,109	-0,097
-569,890	379,405	0,035	0,053
-568,875	-42,892	0,030	-0,011
-567,861	-115,701	0,073	0,010
-566,846	17,360	-0,078	0,046
-565,831	254,982	-0,095	0,120
-564,817	555,164	0,074	-0,132
-563,802	-200,000	0,012	-0,097
-562,788	-200,000	0,030	-0,102
-561,773	800,000	0,047	0,126
-560,758	48,108	0,092	-0,064
-559,744	-20,223	-0,020	-0,009
-558,729	-200,000	-0,023	0,127
-557,715	-56,321	-0,056	-0,018
-556,700	-179,730	-0,095	0,001
-555,685	-126,073	0,043	-0,005
-554,671	784,671	-0,080	-0,164
-553,656	54,061	0,088	-0,062
-552,642	418,372	-0,039	-0,062
-551,627	193,241	-0,084	0,094
-550,612	800,000	0,005	0,015
-549,598	800,000	-0,058	-0,154
-548,583	101,020	-0,068	0,058
-547,569	-200,000	-0,012	0,151
-546,554	-47,881	-0,023	-0,008
-545,539	104,927	0,094	0,082
-544,525	-170,843	0,025	0,001
-543,510	355,506	-0,046	-0,068
-542,496	512,330	0,058	-0,100
-541,481	193,511	0,023	0,026
-540,466	-200,000	-0,011	0,086
-539,452	752,694	0,045	0,091
-538,437	800,000	-0,038	0,098
-537,423	134,473	-0,121	0,116
-536,408	-200,000	-0,015	-0,080
-535,393	695,155	-0,033	-0,065
-534,379	273,718	-0,108	-0,142
-533,364	-200,000	0,002	-0,010
-532,350	503,206	0,045	-0,077
-531,335	-35,233	0,083	0,033
-530,321	517,259	-0,043	-0,075
-529,306	-82,913	0,023	-0,005
-528,291	82,797	0,111	-0,089
-527,277	142,138	-0,090	-0,088
-526,262	-14,222	-0,084	-0,040
-525,248	-12,679	0,046	0,022
-524,233	-46,449	0,062	0,022
-523,218	52,498	-0,051	0,036
-522,204	157,454	-0,127	-0,130
-521,189	157,054	0,088	-0,090
-520,175	-35,087	0,044	0,018
-519,160	341,301	0,026	-0,037
-518,145	-53,868	0,112	-0,037
-517,131	800,000	-0,055	-0,118
-516,116	-200,000	-0,018	0,111
-515,102	409,034	0,028	0,043
-514,087	-109,662	-0,200	0,031
-513,072	-200,000	-0,021	0,088
-512,058	800,000	-0,015	-0,042
-511,043	0,140	0,103	-0,054
-510,029	78,464	0,048	-0,038
-509,014	446,118	0,039	0,063
-507,999	800,000	0,016	0,037
-506,985	-55,671	-0,122	-0,040
-505,970	-49,724	0,181	-0,063
-504,956	239,031	-0,063	-0,078
-503,941	-200,000	0,017	-0,062
-502,926	260,082	0,069	0,088
-501,912	-200,000	-0,027	-0,105
-500,897	117,202	0,078	-0,071
-499,883	-1,732	-0,097	0,050
-498,868	403,724	0,022	0,035
-497,853	-40,955	-0,029	-0,011
-496,839	800,000	0,026	-0,064
-495,824	175,517	0,045	-0,048
-494,810	-147,226	-0,082	0,005
-493,795	221,709	-0,045	0,053
-492,781	-167,834	0,049	-0,001
-491,766	-130,186	-0,067	-0,007
-490,751	-200,000	-0,015	-0,176
-489,737	-124,311	-0,073	-0,008
-488,722	-82,198	-0,134	0,032
-487,708	-5,944	-0,142	-0,071
-486,693	19,594	-0,050	0,030
-485,678	-200,000	0,008	0,104
-484,664	-200,000	0,040	-0,154
-483,649	23,755	-0,143	-0,087
-482,635	-85,956	0,077	0,017
-481,620	-200,000	0,005	-0,071
-480,605	-115,562	-0,178	0,024
-479,591	243,239	-0,060	-0,075
-478,576	224,005	-0,096	0,114
-477,562	-62,885	-0,048	-0,015
-476,547	389,046	-0,040	-0,062
-475,532	101,158	-0,063	0,054
-474,518	16,276	0,031	-0,018
-473,503	35,192	-0,053	0,034
-472,489	800,000	0,043	0,102
-471,474	-200,000	-0,001	-0,018
-470,459	-119,730	0,131	-0,017
-469,445	-128,938	0,208	-0,021
-468,430	676,218	-0,023	0,043
-467,416	800,000	0,034	0,086
-466,401	-54,971	0,114	0,038
-465,386	418,496	0,031	0,048
-464,372	-143,872	-0,128	-0,009
-463,357	-179,192	-0,063	-0,001
-462,343	-200,000	0,005	0,053
-461,328	-200,000	0,018	-0,194
-460,313	175,788	0,083	-0,089
-459,299	-200,000	-0,014	0,157
-458,284	-200,000	0,002	0,068
-457,270	-200,000	-0,008	0,100
-456,255	112,902	-0,038	0,034
-455,241	-200,000	0,001	0,072
-454,226	85,661	-0,081	-0,065
-453,211	29,702	0,081	-0,050
-452,197	-50,678	0,033	-0,011
-451,182	189,027	0,019	0,021
-450,168	-200,000	0,022	0,146
-449,153	212,469	-0,052	-0,061
-448,138	-200,000	0,005	-0,044
-447,124	85,406	-0,108	-0,087
-446,109	324,841	-0,087	0,123
-445,095	753,726	0,072	0,143
-444,080	-118,164	-0,127	-0,016
-443,065	-54,574	0,086	0,028
-442,051	210,107	-0,054	-0,063
-441,036	54,358	0,065	-0,046
-440,022	12,162	0,130	0,074
-439,007	-84,360	-0,139	-0,032
-437,992	-92,171	0,016	-0,003
-436,978	-200,000	-0,016	0,099
-435,963	381,614	0,030	-0,045
-434,949	-21,746	0,083	0,037
-433,934	8,210	-0,086	0,048
-432,919	14,272	-0,066	-0,038
-431,905	184,958	-0,064	-0,069
-430,890	73,264	-0,019	-0,015
-429,876	46,407	-0,025	-0,017
-428,861	-182,516	0,112	0,001
-427,846	-87,451	0,095	0,021
-426,832	-166,454	-0,024	0,001
-425,817	155,187	-0,038	-0,039
-424,803	800,000	-0,038	-0,114
-423,788	-200,000	-0,016	-0,074
-422,773	-107,423	0,068	0,011
-421,759	182,845	-0,075	0,082
-420,744	-200,000	0,008	-0,061
-419,730	-200,000	0,002	0,012
-418,715	-64,758	0,027	-0,008
-417,701	424,453	-0,009	-0,015
-416,686	-200,000	0,049	0,169
-415,671	-200,000	0,033	0,107
-414,657	201,339	0,076	0,086
-413,642	-86,582	-0,109	-0,024
-412,628	-200,000	-0,006	-0,031
-411,613	800,000	-0,077	-0,215
-410,598	-200,000	0,001	-0,018
-409,584	367,670	-0,018	0,027
-408,569	800,000	0,080	0,198
-407,555	577,463	0,072	0,130
-406,540	-200,000	0,008	0,070
-405,525	-200,000	0,001	-0,025
-404,511	800,000	0,027	-0,064
-403,496	-6,886	-0,107	-0,053
-402,482	6,954	0,138	-0,075
-401,467	-137,711	-0,039	0,003
-400,452	800,000	0,029	0,091
-399,438	-200,000	-0,018	-0,087
-398,423	346,965	-0,050	-0,072
-397,409	65,215	-0,042	-0,032
-396,394	-28,350	-0,083	0,035
-395,379	800,000	0,057	-0,125
-394,365	-63,941	-0,091	-0,027
-393,350	46,136	0,144	0,098
-392,336	-200,000	0,023	0,119
-391,321	-200,000	-0,019	0,070
-390,306	-200,000	0,002	-0,075
-389,292	800,000	-0,044	0,119
-388,277	-162,045	0,111	-0,004
-387,263	-200,000	0,006	0,150
-386,248	800,000	-0,012	0,025
-385,233	-0,000	-0,102	0,053
-384,219	-78,254	-0,080	0,020
-383,204	58,258	-0,094	-0,068
-382,190	24,456	-0,087	-0,053
-381,175	800,000	0,028	-0,057
-380,160	800,000	0,104	0,226
-379,146	156,914	0,046	0,047
-378,131	-164,287	0,045	0,001
-377,117	800,000	0,030	-0,067
-376,102	77,456	0,041	-0,032
-375,088	-200,000	0,009	0,065
-374,073	83,185	0,076	-0,060
-373,058	-24,602	-0,059	0,026
-372,044	-109,931	0,115	0,017
-371,029	800,000	-0,025	-0,070
-370,015	-103,533	0,056	-0,010
-369,000	-200,000	0,004	-0,157
-367,985	-40,107	-0,070	0,027
-366,971	-200,000	-0,019	-0,086
-365,956	86,976	0,088	0,072
-364,942	800,000	-0,030	0,067
-363,927	-200,000	-0,003	0,068
-362,912	55,194	-0,030	0,021
-361,898	800,000	0,010	0,029
-360,883	350,507	-0,025	-0,036
-359,869	-79,015	-0,015	-0,004
-358,854	-128,606	-0,098	-0,010
-357,839	142,382	0,162	0,158
-356,825	-200,000	0,007	0,084
-355,810	23,562	0,066	0,040
-354,796	490,715	-0,030	-0,051
-353,781	-153,385	-0,180	0,009
-352,766	-34,371	-0,062	-0,025
-351,752	-59,974	0,109	-0,034
-350,737	72,668	0,065	0,050
-349,723	-200,000	0,003	0,050
-348,708	-200,000	0,026	0,106
-347,693	-151,832	-0,064	-0,003
-346,679	1,390	-0,088	0,046
-345,664	-200,000	-0,035	0,117
-344,650	-200,000	0,006	-0,043
-343,635	484,252	-0,042	-0,071
-342,620	92,773	0,063	-0,052
-341,606	-147,500	0,109	0,007
-340,591	-200,000	0,017	0,068
-339,577	-200,000	0,004	0,067
-338,562	800,000	0,034	-0,076
-337,548	-200,000	-0,009	-0,032
-336,533	-41,463	0,153	-0,057
-335,518	555,796	0,040	0,071
-334,504	156,491	0,065	0,066
-333,489	-159,538	-0,034	0,001
-332,475	269,993	-0,074	-0,096
-331,460	254,049	-0,062	0,077
-330,445	257,902	-0,186	0,235
-329,431	220,098	0,028	-0,033
-328,416	-13,994	0,106	0,050
-327,402	800,000	0,022	-0,048
-326,387	-200,000	0,030	0,127
-325,372	104,646	-0,077	0,067
-324,358	-200,000	0,012	-0,097
-323,343	371,277	-0,040	0,060
-322,329	-143,084	0,133	-0,009
-321,314	50,979	0,113	0,078
-320,299	800,000	0,064	0,146
-319,285	-200,000	-0,012	0,079
-318,270	32,578	-0,044	-0,028
-317,256	-200,000	0,012	-0,086
-316,241	-200,000	0,019	0,074
-315,226	214,131	0,054	-0,063
-314,212	63,541	0,163	-0,120
-313,197	-126,071	0,090	-0,010
-312,183	-200,000	-0,025	-0,116
-311,168	800,000	0,057	-0,142
-310,153	-6,037	0,065	0,032
-309,139	800,000	-0,011	-0,036
-308,124	14,343	0,098	0,056
-307,110	-200,000	0,042	0,150
-306,095	800,000	-0,051	0,112
-305,080	23,654	0,113	0,068
-304,066	-54,162	-0,188	0,062
-303,051	-200,000	0,009	-0,037
-302,037	-200,000	0,020	-0,132
-301,022	-200,000	0,004	-0,024
-300,008	-99,498	0,271	0,049
-298,993	-200,000	0,005	-0,060
-297,978	-200,000	0,039	0,178
-296,964	30,876	0,072	0,045
-295,949	-200,000	-0,015	0,164
-294,935	800,000	-0,036	-0,105
-293,920	513,768	-0,054	-0,093
-292,905	-200,000	-0,015	-0,086
-291,891	362,009	0,014	0,021
-290,876	-97,390	-0,058	0,011
-289,862	78,122	-0,051	0,040
-288,847	760,757	-0,060	0,119
-287,832	-200,000	0,003	-0,082
-286,818	499,936	0,070	0,118
-285,803	-70,907	0,143	-0,039
-284,789	-52,479	-0,089	-0,030
-283,774	-94,814	-0,103	0,020
-282,759	45,297	-0,045	-0,030
-281,745	637,552	-0,073	-0,136
-280,730	800,000	-0,023	-0,058
-279,716	-150,517	0,043	0,002
-278,701	-107,178	0,104	0,017
-277,686	-80,273	0,241	0,058
-276,672	-79,380	0,083	0,020
-275,657	0,226	-0,088	0,046
-274,643	-102,563	-0,143	-0,025
-273,628	800,000	-0,016	0,042
-272,613	107,745	0,091	0,080
-271,599	501,894	-0,034	0,058
-270,584	-200,000	-0,027	0,122
-269,570	-200,000	0,005	-0,064
-268,555	427,080	-0,034	0,053
-267,540	36,102	-0,094	-0,060
-266,526	152,058	-0,004	0,004
-265,511	-200,000	-0,005	0,042
-264,497	438,801	-0,046	0,074
-263,482	-64,133	0,080	0,024
-262,467	-200,000	-0,006	-0,049
-261,453	-122,756	0,040	0,005
-260,438	79,926	-0,019	-0,015
-259,424	272,478	0,093	-0,120
-258,409	26,985	-0,033	-0,020
-257,395	-68,735	-0,040	-0,011
-256,380	-7,576	0,071	0,035
-255,365	-200,000	0,022	0,145
-254,351	-67,879	-0,060	0,017
-253,336	-190,070	0,177	0,001
-252,322	800,000	-0,064	-0,139
-251,307	-200,000	-0,018	0,079
-250,292	42,897	0,063	0,042
-249,278	207,105	0,030	0,034
-248,263	800,000	0,098	0,255
-247,249	174,984	-0,087	0,093
-246,234	202,167	0,027	-0,030
-245,219	343,205	-0,085	-0,122
-244,205	222,172	0,131	-0,154
-243,190	418,676	0,024	-0,037
-242,176	263,186	0,053	0,067
-241,161	363,328	-0,051	0,075
-240,146	-122,732	0,083	0,010
-239,132	-36,387	0,023	-0,009
-238,117	659,502	-0,033	0,063
-237,103	75,111	0,071	-0,055
-236,088	-142,332	0,101	0,007
-235,073	-38,736	-0,048	-0,018
-234,059	-57,838	0,027	0,009
-233,044	-200,000	0,023	-0,142
-232,030	-200,000	-0,003	0,044
-231,015	-80,436	0,031	-0,007
-230,000	-95,089	-0,046	-0,009
-228,986	800,000	-0,048	-0,121
-227,971	-61,841	-0,035	0,011
-226,957	128,829	0,071	-0,066
-225,942	-18,595	-0,029	0,013
-224,927	800,000	0,015	-0,045
-223,913	-2,457	-0,105	0,053
-222,898	163,280	-0,136	-0,140
-221,884	3,994	0,065	-0,035
-220,869	-52,390	-0,022	0,007
-219,855	43,611	-0,123	-0,082
-218,840	130,289	0,141	0,132
-217,825	-105,022	-0,081	-0,013
-216,811	-110,344	0,108	0,016
-215,796	148,010	-0,079	-0,078
-214,782	64,414	0,041	-0,030
-213,767	-200,000	0,033	-0,107
-212,752	439,029	0,042	0,068
-211,738	384,592	0,006	-0,010
-210,723	-26,613	0,065	-0,027
-209,709	-200,000	-0,007	-0,072
-208,694	-16,921	-0,112	0,052
-207,679	-29,364	-0,104	0,043
-206,665	-16,465	0,077	-0,036
-205,650	-76,804	-0,095	-0,024
-204,636	800,000	0,082	0,169
-203,621	-39,462	0,066	0,025
-202,606	-11,268	-0,087	0,042
-201,592	-188,222	-0,112	-0,001
-200,577	-200,000	0,009	-0,038
-199,563	800,000	0,037	-0,105
-198,548	206,979	0,103	0,117
-197,533	201,749	-0,052	-0,059
-196,519	281,024	0,022	-0,029
-195,504	-200,000	0,002	-0,019
-194,490	119,792	-0,082	0,074
-193,475	-200,000	0,015	0,069
-192,460	139,822	-0,029	-0,028
-191,446	-2,637	0,078	0,040
-190,431	90,037	-0,054	0,044
-189,417	266,802	0,032	-0,040
-188,402	-200,000	0,000	0,068
-187,387	24,582	-0,146	0,088
-186,373	-200,000	0,007	0,040
-185,358	425,307	-0,101	-0,159
-184,344	800,000	0,026	-0,068
-183,329	-200,000	0,001	0,094
-182,315	617,068	-0,038	-0,070
-181,300	-23,228	-0,088	-0,039
-180,285	-200,000	-0,043	-0,149
-179,271	800,000	0,034	-0,095
-178,256	-59,928	0,064	0,020
-177,242	95,726	0,133	0,111
-176,227	-17,917	-0,059	-0,027
-175,212	-1,630	-0,066	-0,034
-174,198	-41,771	-0,079	-0,029
-173,183	-63,876	-0,113	0,033
-172,169	-200,000	0,001	-0,060
-171,154	51,648	0,027	-0,019
-170,139	682,729	0,114	0,217
-169,125	800,000	0,034	-0,079
-168,110	-24,669	0,039	-0,017
-167,096	800,000	-0,012	-0,026
-166,081	419,072	-0,031	0,049
-165,066	220,268	0,036	-0,042
-164,052	219,161	-0,090	0,105
-163,037	141,949	-0,121	-0,116
-162,023	264,309	0,052	-0,066
-161,008	-200,000	0,020	0,098
-159,993	213,873	0,043	-0,049
-158,979	-86,675	0,114	0,025
-157,964	342,503	-0,055	0,078
-156,950	-32,150	-0,069	0,028
-155,935	-200,000	-0,019	-0,151
-154,920	72,939	0,071	0,054
-153,906	-200,000	0,004	0,022
-152,891	-200,000	0,002	0,008
-151,877	-123,686	0,046	-0,005
-150,862	-200,000	0,002	-0,029
-149,847	419,238	-0,032	-0,051
-148,833	-179,195	0,059	0,001
-147,818	-19,374	-0,095	-0,043
-146,804	-145,427	0,179	0,012
-145,789	119,426	-0,069	0,062
-144,775	50,298	0,107	-0,074
-143,760	16,466	-0,027	0,015
-142,745	-200,000	-0,025	-0,189
-141,731	-173,620	0,076	-0,002
-140,716	800,000	0,042	0,121
-139,702	800,000	-0,053	0,143
-138,687	800,000	-0,012	0,038
-137,672	-165,203	-0,120	0,004
-136,658	-200,000	0,011	0,106
-135,643	140,124	-0,177	-0,170
-134,629	-200,000	-0,007	-0,054
-133,614	-50,494	0,049	0,017
-132,599	764,173	-0,042	-0,083
-131,585	453,725	-0,058	0,094
-130,570	-125,075	-0,110	0,012
-129,556	-200,000	-0,017	0,144
-128,541	-200,000	-0,007	0,039
-127,526	800,000	-0,054	0,145
-126,512	-51,303	0,064	-0,022
-125,497	0,233	0,155	0,080
-124,483	-200,000	0,014	-0,044
-123,468	-200,000	0,002	-0,043
-122,453	158,707	-0,106	0,107
-121,439	57,695	-0,010	-0,007
-120,424	178,487	0,071	-0,075
-119,410	-129,681	-0,133	0,013
