DTS Sentinel unit serial number:	SN410029Multiplexer serial number:	ORYXHardware model number:	OX2-SRSoftware version number:	ORYX F/W v4,00 Oryx Data Collector v3.7.2.0data status	okinstallation	B6 Nyhavnadifferential loss correction	single-endedforward channel	channel 2reverse channel	N/Adate	2023/12/07time	21:25:08forward acquisition time	300,00reverse acquisition time	0,00gamma	499,1914k internal	0,3164k external	0,3164temperature offset calibration	1,0000default loss term (dB/km)	0,3820temperature slope calibration	1,0000multiplexer offset coefficient	1,0000multiplexer slope coefficient	1,0000fibre end	0,00T internal ref (°C)	13,69T ext. ref 1 (°C)	-3,19T ext. ref 2 (°C)	-3,19length (m)	temperature (°C)	Stokes	anti-Stokes-744,400	113,210	0,042	-0,037
-743,385	42,433	-0,203	0,136
-742,371	298,422	0,095	0,129
-741,356	-175,110	-0,163	0,003
-740,342	-133,506	0,132	-0,012
-739,327	-86,513	-0,469	-0,105
-738,312	115,983	0,155	-0,139
-737,298	25,329	-0,192	-0,117
-736,283	-120,743	0,201	0,025
-735,269	-133,034	-0,225	-0,021
-734,254	-200,000	0,032	0,121
-733,239	-10,714	-0,422	-0,205
-732,225	10,566	0,141	0,079
-731,210	-2,720	0,109	-0,056
-730,196	-2,301	-0,069	-0,036
-729,181	-138,674	-0,089	0,007
-728,167	-69,983	-0,146	-0,041
-727,152	-200,000	0,000	-0,041
-726,137	-59,559	-0,111	0,035
-725,123	-100,527	-0,038	0,007
-724,108	-200,000	-0,024	0,078
-723,094	-200,000	0,013	-0,061
-722,079	-14,459	-0,073	-0,034
-721,064	-200,000	0,001	0,014
-720,050	709,016	0,040	0,078
-719,035	-200,000	0,034	-0,115
-718,021	-200,000	-0,005	-0,065
-717,006	174,689	-0,035	-0,038
-715,991	-200,000	0,012	-0,204
-714,977	-46,328	-0,039	0,014
-713,962	200,651	-0,050	0,056
-712,948	-101,795	0,081	-0,014
-711,933	541,495	0,062	0,109
-710,918	-89,231	-0,117	-0,025
-709,904	-50,150	-0,032	0,011
-708,889	-200,000	-0,019	-0,108
-707,875	-157,485	-0,083	-0,004
-706,860	-14,541	0,067	-0,032
-705,845	26,428	0,119	-0,073
-704,831	-200,000	-0,017	-0,061
-703,816	800,000	-0,048	0,101
-702,802	249,327	-0,122	0,153
-701,787	373,140	-0,015	-0,023
-700,772	-85,630	0,098	-0,022
-699,758	-174,637	0,052	0,001
-698,743	-18,367	0,065	-0,030
-697,729	-136,234	-0,070	-0,006
-696,714	800,000	0,021	0,049
-695,699	-200,000	-0,044	-0,232
-694,685	50,925	-0,105	-0,073
-693,670	800,000	-0,014	0,029
-692,656	-127,867	-0,132	-0,014
-691,641	800,000	0,044	0,104
-690,627	-83,984	-0,127	-0,029
-689,612	800,000	0,016	0,037
-688,597	-200,000	0,003	-0,111
-687,583	439,736	-0,031	0,051
-686,568	-200,000	0,019	-0,175
-685,554	800,000	0,018	-0,042
-684,539	-123,469	0,098	-0,011
-683,524	800,000	0,008	0,024
-682,510	-200,000	-0,022	-0,096
-681,495	-145,310	-0,215	0,014
-680,481	69,989	-0,133	-0,101
-679,466	-175,763	-0,128	0,002
-678,451	800,000	0,004	-0,011
-677,437	-200,000	0,001	-0,080
-676,422	-200,000	0,005	-0,037
-675,408	-76,917	-0,051	-0,013
-674,393	800,000	-0,037	-0,087
-673,378	-200,000	0,026	-0,163
-672,364	84,174	-0,090	-0,072
-671,349	-200,000	-0,033	-0,148
-670,335	125,671	0,126	0,117
-669,320	194,181	-0,062	0,069
-668,305	-123,841	0,089	-0,010
-667,291	193,205	-0,046	-0,051
-666,276	-200,000	0,011	-0,073
-665,262	800,000	0,018	-0,053
-664,247	-200,000	-0,035	0,140
-663,232	104,922	0,068	0,059
-662,218	-200,000	-0,006	-0,030
-661,203	-104,362	-0,115	-0,019
-660,189	-10,735	0,024	-0,012
-659,174	-200,000	-0,008	-0,052
-658,159	-200,000	0,024	0,144
-657,145	-82,790	-0,081	-0,019
-656,130	424,025	-0,047	0,075
-655,116	228,979	0,095	0,114
-654,101	-119,492	0,167	-0,021
-653,086	60,404	-0,100	0,073
-652,072	-200,000	0,015	-0,103
-651,057	40,683	0,010	0,007
-650,043	800,000	0,041	-0,109
-649,028	183,089	-0,061	-0,066
-648,014	727,553	0,041	0,081
-646,999	352,977	-0,040	0,059
-645,984	-200,000	0,014	-0,105
-644,970	153,592	-0,021	-0,021
-643,955	-200,000	-0,040	-0,180
-642,941	-42,742	-0,084	0,031
-641,926	33,072	0,058	0,037
-640,911	233,640	0,042	0,050
-639,897	302,550	0,050	0,069
-638,882	191,475	-0,052	-0,058
-637,868	800,000	-0,036	-0,092
-636,853	67,648	-0,096	-0,072
-635,838	-200,000	0,041	-0,193
-634,824	-200,000	-0,026	-0,120
-633,809	185,084	0,022	0,024
-632,795	203,197	0,062	-0,071
-631,780	-200,000	0,004	-0,014
-630,765	-130,295	0,089	0,009
-629,751	800,000	0,012	-0,036
-628,736	-71,012	-0,124	0,034
-627,722	272,594	0,045	0,059
-626,707	800,000	0,028	-0,083
-625,692	800,000	0,008	0,018
-624,678	-2,026	-0,026	0,013
-623,663	121,492	-0,068	-0,062
-622,649	800,000	0,059	-0,157
-621,634	-200,000	-0,014	0,050
-620,619	47,230	-0,079	0,054
-619,605	378,282	-0,099	-0,149
-618,590	160,578	-0,061	-0,063
-617,576	-200,000	-0,002	0,039
-616,561	-111,312	0,033	0,005
-615,546	800,000	-0,017	-0,043
-614,532	227,906	-0,076	-0,091
-613,517	-62,764	-0,012	0,003
-612,503	-200,000	-0,030	0,175
-611,488	-13,060	-0,068	0,032
-610,474	-200,000	0,022	0,095
-609,459	-43,780	-0,036	-0,013
-608,444	-200,000	0,005	-0,075
-607,430	-128,863	-0,058	-0,006
-606,415	-75,787	-0,103	0,027
-605,401	239,463	-0,028	0,034
-604,386	-88,260	0,207	-0,045
-603,371	-3,190	0,054	-0,027
-602,357	131,971	0,108	0,102
-601,342	532,820	-0,076	-0,131
-600,328	173,622	-0,064	-0,068
-599,313	32,734	0,021	0,013
-598,298	332,398	-0,031	0,044
-597,284	-108,327	0,026	0,004
-596,269	-102,917	0,079	-0,014
-595,255	100,254	0,029	0,024
-594,240	-200,000	-0,014	-0,104
-593,225	800,000	0,047	0,098
-592,211	44,090	0,029	-0,019
-591,196	57,934	0,081	-0,058
-590,182	52,650	0,050	-0,035
-589,167	-65,631	0,085	0,025
-588,152	251,840	-0,027	0,034
-587,138	407,828	-0,066	0,103
-586,123	-104,988	0,149	-0,025
-585,109	-1,066	0,089	-0,046
-584,094	-55,633	-0,053	-0,017
-583,079	43,753	0,075	-0,050
-582,065	-84,435	0,045	0,010
-581,050	-200,000	-0,024	0,151
-580,036	800,000	-0,050	0,119
-579,021	296,331	0,034	-0,046
-578,006	-200,000	0,001	-0,088
-576,992	-68,949	0,053	-0,015
-575,977	141,308	0,125	-0,121
-574,963	-200,000	-0,005	0,057
-573,948	-200,000	-0,007	0,102
-572,934	24,105	0,061	0,037
-571,919	337,499	-0,092	-0,131
-570,904	-200,000	-0,015	-0,052
-569,890	800,000	-0,044	-0,103
-568,875	211,635	0,096	0,111
-567,861	-200,000	0,012	0,140
-566,846	-200,000	0,010	0,045
-565,831	-129,687	-0,100	-0,010
-564,817	308,250	-0,067	-0,091
-563,802	583,292	0,019	0,035
-562,788	-200,000	0,007	-0,051
-561,773	-152,825	0,031	0,002
-560,758	-160,440	0,068	0,003
-559,744	427,693	0,110	0,174
-558,729	12,968	-0,021	0,012
-557,715	-38,018	-0,075	0,029
-556,700	-41,486	-0,046	0,017
-555,685	-44,506	0,018	-0,007
-554,671	-37,954	-0,089	-0,034
-553,656	19,783	0,121	-0,071
-552,642	-200,000	0,001	0,049
-551,627	800,000	-0,007	-0,017
-550,612	-14,786	0,065	-0,030
-549,598	179,369	-0,069	0,074
-548,583	-60,551	0,111	-0,034
-547,569	58,246	-0,058	-0,042
-546,554	-39,699	0,150	0,057
-545,539	-200,000	0,003	0,080
-544,525	132,641	-0,036	0,034
-543,510	52,875	-0,061	0,043
-542,496	-154,160	-0,140	0,007
-541,481	133,826	0,027	0,026
-540,466	57,925	-0,074	0,053
-539,452	-111,237	0,196	0,029
-538,437	-200,000	0,008	0,101
-537,423	537,772	-0,037	0,064
-536,408	106,265	-0,142	0,122
-535,393	800,000	-0,005	0,013
-534,379	190,322	0,050	0,055
-533,364	125,945	-0,104	-0,096
-532,350	-34,967	0,088	0,035
-531,335	800,000	-0,008	0,027
-530,321	309,698	0,078	0,107
-529,306	4,377	-0,119	-0,063
-528,291	-105,112	-0,139	-0,023
-527,277	-200,000	0,003	-0,056
-526,262	515,372	-0,054	-0,093
-525,248	18,386	0,112	0,065
-524,233	-200,000	-0,018	0,101
-523,218	-78,389	-0,092	0,023
-522,204	216,570	0,065	0,076
-521,189	-134,027	-0,043	-0,004
-520,175	-200,000	-0,044	-0,160
-519,160	135,785	-0,091	-0,086
-518,145	-200,000	0,010	0,211
-517,131	-93,804	-0,125	0,025
-516,116	83,213	-0,082	0,065
-515,102	90,922	-0,110	0,090
-514,087	-200,000	-0,028	-0,182
-513,072	-200,000	-0,017	-0,057
-512,058	-200,000	0,009	0,068
-511,043	-200,000	0,048	0,170
-510,029	19,008	0,126	0,073
-509,014	49,829	-0,082	0,057
-507,999	-200,000	-0,011	0,107
-506,985	-123,816	0,032	-0,004
-505,970	112,746	-0,117	-0,103
-504,956	-19,579	-0,177	-0,080
-503,941	-83,437	0,144	0,033
-502,926	393,676	-0,130	-0,198
-501,912	-200,000	-0,009	0,113
-500,897	-133,512	-0,124	0,011
-499,883	-200,000	0,005	-0,138
-498,868	96,399	-0,101	-0,084
-497,853	-200,000	0,009	0,105
-496,839	0,131	0,105	-0,054
-495,824	-91,046	0,080	0,017
-494,810	186,576	0,044	0,048
-493,795	-200,000	0,013	0,052
-492,781	800,000	0,027	0,059
-491,766	-92,423	0,061	-0,012
-490,751	5,913	-0,114	0,061
-489,737	800,000	-0,011	-0,023
-488,722	416,358	0,080	-0,125
-487,708	800,000	0,062	0,159
-486,693	-200,000	0,018	0,098
-485,678	59,218	0,073	0,052
-484,664	339,066	-0,061	0,087
-483,649	800,000	0,035	-0,094
-482,635	-68,205	-0,153	0,043
-481,620	159,385	0,069	0,070
-480,605	-92,446	-0,070	-0,014
-479,591	-25,060	0,065	0,028
-478,576	-126,722	-0,073	0,008
-477,562	114,964	-0,056	0,049
-476,547	-200,000	0,025	-0,107
-475,532	10,943	-0,083	-0,046
-474,518	-200,000	-0,010	0,093
-473,503	-54,997	-0,016	-0,005
-472,489	-200,000	0,003	0,022
-471,474	-200,000	-0,001	-0,045
-470,459	248,165	0,083	-0,103
-469,445	343,231	-0,018	0,026
-468,430	171,290	0,008	-0,009
-467,416	55,657	0,112	0,079
-466,401	-200,000	-0,026	0,092
-465,386	-19,711	-0,027	0,012
-464,372	527,931	-0,045	0,078
-463,357	-200,000	0,019	-0,146
-462,343	37,622	-0,067	0,043
-461,328	351,504	-0,048	-0,069
-460,313	136,981	-0,054	0,052
-459,299	10,006	0,104	0,057
-458,284	-0,939	0,100	-0,051
-457,270	407,256	-0,006	-0,009
-456,255	-77,295	0,147	-0,037
-455,241	-109,275	-0,068	0,010
-454,226	-120,536	-0,066	0,008
-453,211	800,000	0,015	0,034
-452,197	800,000	0,046	-0,128
-451,182	-110,383	-0,059	0,009
-450,168	-200,000	-0,002	-0,034
-449,153	268,624	-0,076	-0,097
-448,138	93,281	-0,051	-0,042
-447,124	-110,169	-0,003	0,000
-446,109	-200,000	0,002	-0,021
-445,095	405,856	0,032	0,050
-444,080	-200,000	-0,004	-0,102
-443,065	307,270	0,049	0,067
-442,051	-2,349	0,158	0,081
-441,036	-190,816	-0,147	0,001
-440,022	72,520	0,044	0,033
-439,007	291,168	-0,088	-0,117
-437,992	387,532	-0,038	-0,057
-436,978	-200,000	-0,001	0,183
-435,963	-200,000	0,016	-0,052
-434,949	800,000	-0,012	0,036
-433,934	-36,187	-0,033	-0,013
-432,919	-156,589	-0,070	-0,003
-431,905	-66,183	-0,006	-0,002
-430,890	800,000	0,026	0,070
-429,876	-185,282	-0,038	0,000
-428,861	6,818	0,142	0,077
-427,846	4,096	0,039	-0,021
-426,832	-200,000	0,074	-0,249
-425,817	-200,000	-0,013	0,051
-424,803	-12,675	0,045	-0,021
-423,788	-200,000	0,012	-0,044
-422,773	233,101	-0,075	-0,090
-421,759	-62,792	0,052	-0,016
-420,744	800,000	-0,026	0,080
-419,730	-104,965	-0,186	0,031
-418,715	-99,381	0,057	0,010
-417,701	-99,578	0,039	-0,007
-416,686	800,000	-0,042	0,121
-415,671	692,337	0,017	-0,033
-414,657	285,669	0,032	0,042
-413,642	47,902	0,058	-0,039
-412,628	-74,874	-0,049	-0,013
-411,613	800,000	-0,074	-0,168
-410,598	798,847	-0,028	-0,056
-409,584	800,000	0,010	-0,027
-408,569	12,075	0,082	-0,046
-407,555	231,472	0,047	-0,057
-406,540	538,727	-0,031	0,053
-405,525	-119,489	-0,095	-0,012
-404,511	800,000	0,052	-0,140
-403,496	800,000	-0,029	-0,072
-402,482	-87,180	-0,085	-0,019
-401,467	38,053	0,105	-0,068
-400,452	267,993	0,057	0,073
-399,438	-200,000	-0,011	0,097
-398,423	600,450	-0,049	-0,088
-397,409	207,909	0,093	-0,106
-396,394	800,000	-0,018	0,047
-395,379	-119,647	0,042	-0,005
-394,365	-200,000	-0,001	-0,004
-393,350	-27,320	0,063	0,026
-392,336	-200,000	0,028	0,113
-391,321	800,000	0,018	-0,042
-390,306	-11,867	-0,080	-0,038
-389,292	285,837	-0,053	-0,069
-388,277	800,000	-0,030	-0,086
-387,263	-200,000	-0,020	-0,087
-386,248	-141,909	0,184	-0,013
-385,233	-0,303	-0,273	0,141
-384,219	-20,268	0,116	0,051
-383,204	-200,000	0,016	-0,096
-382,190	-93,555	-0,082	-0,016
-381,175	-19,687	0,158	-0,071
-380,160	213,469	-0,026	-0,029
-379,146	97,743	0,086	0,072
-378,131	-98,269	-0,074	-0,014
-377,117	-200,000	-0,030	-0,139
-376,102	56,632	0,086	0,061
-375,088	175,215	-0,121	-0,127
-374,073	-200,000	-0,010	-0,093
-373,058	46,017	0,179	0,120
-372,044	83,682	0,080	-0,063
-371,029	24,273	-0,082	-0,049
-370,015	44,186	0,121	0,080
-369,000	561,445	-0,074	0,131
-367,985	-200,000	-0,020	-0,230
-366,971	-64,628	0,084	-0,025
-365,956	-15,859	-0,100	-0,046
-364,942	435,800	0,112	0,177
-363,927	-200,000	-0,032	0,106
-362,912	-135,732	0,081	-0,007
-361,898	-44,028	-0,008	0,003
-360,883	800,000	0,007	-0,021
-359,869	-200,000	0,025	0,085
-358,854	-200,000	0,005	0,031
-357,839	487,608	0,054	-0,090
-356,825	-200,000	-0,012	0,130
-355,810	20,409	0,123	0,072
-354,796	86,840	-0,111	-0,088
-353,781	-200,000	-0,008	0,028
-352,766	197,018	-0,104	-0,115
-351,752	68,411	-0,056	-0,042
-350,737	-200,000	-0,005	-0,073
-349,723	73,526	-0,076	0,058
-348,708	171,701	0,082	-0,086
-347,693	21,422	0,035	-0,021
-346,679	800,000	0,077	-0,155
-345,664	-200,000	-0,004	0,013
-344,650	-155,875	0,150	0,007
-343,635	94,430	0,018	-0,015
-342,620	424,749	0,023	-0,036
-341,606	-87,045	0,069	-0,015
-340,591	-200,000	0,003	0,161
-339,577	-76,523	-0,082	-0,021
-338,562	-200,000	0,004	-0,108
-337,548	800,000	-0,061	0,141
-336,533	21,892	0,120	0,070
-335,518	289,083	-0,101	0,133
-334,504	-91,658	0,027	0,005
-333,489	-13,967	-0,115	0,053
-332,475	475,839	-0,031	-0,052
-331,460	56,490	-0,019	0,013
-330,445	35,567	0,016	0,010
-329,431	-146,251	0,141	-0,009
-328,416	-109,935	0,057	0,009
-327,402	-179,762	-0,055	-0,001
-326,387	161,170	0,022	-0,022
-325,372	322,343	-0,098	0,135
-324,358	-88,472	-0,079	0,017
-323,343	-200,000	-0,005	0,085
-322,329	-53,481	0,028	-0,009
-321,314	-94,771	0,122	0,024
-320,299	-200,000	-0,030	0,146
-319,285	74,868	-0,029	-0,022
-318,270	114,820	0,049	0,043
-317,256	666,469	-0,067	-0,126
-316,241	-51,503	0,067	-0,022
-315,226	2,673	-0,033	-0,017
-314,212	462,852	0,069	0,112
-313,197	-200,000	0,012	-0,040
-312,183	319,084	-0,018	0,025
-311,168	-29,593	-0,115	0,047
-310,153	74,243	-0,119	-0,091
-309,139	173,445	0,074	-0,078
-308,124	196,154	0,088	-0,097
-307,110	-142,608	0,068	0,005
-306,095	86,530	-0,098	0,078
-305,080	137,574	0,045	0,043
-304,066	273,590	-0,030	-0,039
-303,051	-23,986	0,093	0,040
-302,037	-4,670	-0,101	-0,050
-301,022	-96,826	-0,119	0,022
-300,008	-200,000	-0,015	0,087
-298,993	-200,000	0,020	-0,079
-297,978	-49,704	-0,081	-0,028
-296,964	-89,485	0,113	-0,024
-295,949	-94,146	-0,090	-0,018
-294,935	671,378	0,092	-0,173
-293,920	-200,000	-0,013	0,060
-292,905	-200,000	-0,002	0,014
-291,891	247,815	0,073	-0,089
-290,876	-200,000	-0,016	-0,086
-289,862	-94,425	0,093	0,018
-288,847	-54,313	0,058	0,019
-287,832	800,000	-0,021	0,066
-286,818	67,584	-0,049	-0,036
-285,803	465,820	0,050	0,082
-284,789	12,388	-0,029	0,016
-283,774	270,540	0,045	0,057
-282,759	-168,520	-0,063	-0,002
-281,745	-54,548	0,102	-0,033
-280,730	-176,260	-0,098	-0,002
-279,716	-86,949	-0,100	-0,022
-278,701	-96,255	0,184	0,035
-277,686	-200,000	-0,015	0,086
-276,672	800,000	-0,023	-0,064
-275,657	-200,000	-0,001	0,117
-274,643	-59,580	-0,066	-0,020
-273,628	-200,000	0,015	-0,064
-272,613	586,904	0,025	0,044
-271,599	91,980	0,052	-0,042
-270,584	-19,212	0,148	-0,066
-269,570	-200,000	0,025	0,124
-268,555	-200,000	0,027	0,140
-267,540	29,163	-0,075	-0,046
-266,526	800,000	-0,020	-0,057
-265,511	-200,000	0,009	0,051
-264,497	-200,000	-0,002	-0,066
-263,482	85,303	0,145	0,115
-262,467	0,217	-0,040	-0,020
-261,453	26,412	0,057	-0,034
-260,438	271,889	0,056	0,072
-259,424	800,000	-0,032	0,098
-258,409	800,000	0,086	-0,200
-257,395	304,917	-0,017	0,023
-256,380	-200,000	0,020	0,073
-255,365	33,481	0,116	0,073
-254,351	28,622	0,021	0,013
-253,336	2,958	-0,058	0,030
-252,322	800,000	0,048	-0,109
-251,307	766,964	0,005	-0,009
-250,292	-200,000	-0,015	-0,076
-249,278	-200,000	-0,012	0,054
-248,263	-200,000	0,025	0,099
-247,249	164,427	-0,023	-0,024
-246,234	-109,140	-0,077	-0,012
-245,219	-100,244	0,088	-0,016
-244,205	-200,000	0,033	-0,177
-243,190	-200,000	-0,014	-0,045
-242,176	-200,000	0,028	0,096
-241,161	-52,461	0,051	0,017
-240,146	800,000	-0,039	0,111
-239,132	-73,962	-0,057	0,015
-238,117	-72,348	0,039	-0,010
-237,103	43,521	-0,083	-0,054
-236,088	114,885	0,094	-0,082
-235,073	405,122	0,092	-0,140
-234,059	25,038	-0,039	0,023
-233,044	800,000	-0,053	0,155
-232,030	-136,515	0,086	-0,007
-231,015	288,115	-0,054	0,071
-230,000	-42,241	-0,052	-0,019
-228,986	800,000	-0,037	-0,096
-227,971	145,838	0,059	0,057
-226,957	-169,925	0,082	-0,002
-225,942	539,489	-0,039	0,067
-224,927	-150,271	0,094	0,005
-223,913	-158,720	0,067	0,003
-222,898	334,479	-0,016	-0,023
-221,884	-103,349	-0,069	-0,012
-220,869	-200,000	-0,026	0,091
-219,855	800,000	0,031	0,087
-218,840	47,335	0,176	0,118
-217,825	208,057	-0,111	-0,125
-216,811	-200,000	0,017	-0,092
-215,796	-200,000	0,022	0,074
-214,782	-9,135	0,061	0,029
-213,767	800,000	-0,070	-0,166
-212,752	343,741	0,079	0,111
-211,738	65,824	-0,092	0,067
-210,723	-200,000	-0,002	-0,029
-209,709	-200,000	-0,011	0,096
-208,694	96,980	-0,068	-0,056
-207,679	-200,000	0,019	-0,120
-206,665	-200,000	0,000	-0,014
-205,650	20,855	0,006	0,003
-204,636	-200,000	-0,029	0,124
-203,621	-200,000	0,041	-0,132
-202,606	193,297	-0,048	0,053
-201,592	25,595	-0,105	-0,063
-200,577	800,000	-0,043	-0,110
-199,563	-143,925	0,068	-0,005
-198,548	95,681	-0,108	0,089
-197,533	800,000	-0,064	0,152
-196,519	-184,920	0,148	-0,002
-195,504	85,998	-0,086	-0,068
-194,490	258,357	-0,021	0,026
-193,475	165,177	-0,051	0,051
-192,460	-162,663	0,083	0,003
-191,446	506,697	-0,014	0,024
-190,431	38,927	0,070	0,045
-189,417	341,177	-0,046	0,065
-188,402	-200,000	0,025	-0,208
-187,387	-106,374	-0,051	0,008
-186,373	-64,435	-0,045	-0,013
-185,358	-200,000	-0,013	-0,148
-184,344	731,743	0,086	0,166
-183,329	417,821	-0,030	0,046
-182,315	-200,000	-0,000	-0,025
-181,300	-42,532	-0,127	-0,046
-180,285	-98,069	0,052	0,010
-179,271	160,160	-0,064	0,064
-178,256	39,641	-0,063	0,040
-177,242	104,241	0,071	0,060
-176,227	17,021	-0,079	-0,045
-175,212	143,180	-0,004	0,004
-174,198	-109,003	-0,093	-0,014
-173,183	-114,581	-0,073	0,010
-172,169	-50,290	-0,111	0,038
-171,154	-8,592	0,150	-0,072
-170,139	-10,278	0,042	0,020
-169,125	-200,000	0,010	0,042
-168,110	197,152	0,089	0,097
-167,096	-200,000	0,001	-0,012
-166,081	-118,907	-0,072	0,009
-165,066	-200,000	-0,011	-0,109
-164,052	-13,259	0,123	-0,057
-163,037	79,791	-0,069	-0,053
-162,023	-200,000	0,017	0,089
-161,008	62,584	-0,062	0,044
-159,993	58,042	-0,064	-0,045
-158,979	800,000	-0,031	-0,076
-157,964	-200,000	0,003	-0,014
-156,950	684,212	-0,057	-0,107
-155,935	6,794	0,119	0,063
-154,920	-82,663	-0,116	0,027
-153,906	87,244	0,090	0,071
-152,891	-47,333	-0,078	-0,027
-151,877	800,000	0,024	-0,065
-150,862	351,060	0,043	-0,062
-149,847	-96,035	-0,216	-0,041
-148,833	3,514	-0,021	0,011
-147,818	-200,000	0,020	0,124
-146,804	-200,000	0,008	-0,069
-145,789	24,651	0,126	0,075
-144,775	11,868	-0,194	0,107
-143,760	230,769	0,088	0,104
-142,745	-58,155	0,078	0,024
-141,731	-200,000	-0,005	0,066
-140,716	-200,000	-0,030	0,107
-139,702	461,558	0,049	0,078
-138,687	-74,982	0,064	-0,016
-137,672	-200,000	-0,010	0,060
-136,658	311,980	-0,023	0,030
-135,643	122,298	-0,069	0,062
-134,629	-35,698	0,115	-0,045
-133,614	491,700	0,031	0,051
-132,599	246,046	0,108	0,131
-131,585	272,840	0,041	-0,052
-130,570	81,399	-0,100	-0,078
-129,556	-200,000	0,015	0,153
-128,541	-200,000	-0,002	-0,099
-127,526	285,171	-0,004	0,005
-126,512	-200,000	-0,003	-0,025
-125,497	-98,493	0,120	0,022
-124,483	410,979	-0,042	0,064
-123,468	-142,823	-0,069	-0,005
-122,453	498,077	-0,043	-0,071
-121,439	-145,700	-0,110	-0,007
-120,424	800,000	-0,021	0,059
-119,410	-17,385	-0,072	0,033
