DTS Sentinel unit serial number:	SN410029Multiplexer serial number:	ORYXHardware model number:	OX2-SRSoftware version number:	ORYX F/W v4,00 Oryx Data Collector v3.7.2.0data status	okinstallation	B6 Nyhavnadifferential loss correction	single-endedforward channel	channel 2reverse channel	N/Adate	2023/12/08time	11:55:08forward acquisition time	300,00reverse acquisition time	0,00gamma	499,1914k internal	0,3159k external	0,3159temperature offset calibration	1,0000default loss term (dB/km)	0,3820temperature slope calibration	1,0000multiplexer offset coefficient	1,0000multiplexer slope coefficient	1,0000fibre end	0,00T internal ref (°C)	15,00T ext. ref 1 (°C)	-1,48T ext. ref 2 (°C)	-1,48length (m)	temperature (°C)	Stokes	anti-Stokes-744,400	-103,673	0,183	-0,031
-743,385	-121,528	-0,402	-0,049
-742,371	-200,000	0,036	0,150
-741,356	-81,699	-0,327	0,078
-740,342	-26,712	0,104	-0,045
-739,327	-36,425	-0,296	-0,117
-738,312	336,922	-0,012	0,018
-737,298	-89,835	-0,381	-0,081
-736,283	-126,317	0,108	-0,012
-735,269	-144,822	-0,370	-0,025
-734,254	490,711	0,052	0,089
-733,239	-69,135	-0,523	-0,147
-732,225	-200,000	0,107	-0,000
-731,210	204,066	0,021	0,024
-730,196	-200,000	-0,015	-0,175
-729,181	-200,000	0,003	-0,036
-728,167	-54,180	-0,051	-0,017
-727,152	186,757	-0,020	-0,022
-726,137	800,000	-0,034	-0,106
-725,123	-5,438	-0,129	-0,065
-724,108	-122,221	-0,168	0,020
-723,094	360,292	0,022	-0,032
-722,079	33,248	-0,147	-0,094
-721,064	-18,450	-0,038	0,017
-720,050	-200,000	0,002	-0,034
-719,035	-200,000	-0,001	-0,054
-718,021	33,657	-0,101	-0,065
-717,006	-200,000	-0,021	-0,106
-715,991	-200,000	0,013	-0,169
-714,977	2,143	-0,045	0,024
-713,962	-96,027	-0,129	-0,025
-712,948	-1,662	0,035	0,018
-711,933	101,643	0,033	-0,028
-710,918	29,667	0,087	0,054
-709,904	-6,428	-0,097	0,049
-708,889	682,437	-0,065	0,125
-707,875	-83,885	0,090	-0,021
-706,860	-146,885	0,028	-0,002
-705,845	-6,454	-0,038	-0,019
-704,831	224,248	0,045	0,054
-703,816	-5,272	0,028	0,014
-702,802	398,330	-0,050	-0,078
-701,787	-200,000	-0,022	-0,083
-700,772	-200,000	-0,008	-0,084
-699,758	357,605	0,038	0,057
-698,743	-39,703	-0,157	0,060
-697,729	800,000	-0,014	0,040
-696,714	-11,540	0,048	0,023
-695,699	-142,164	-0,136	0,010
-694,685	176,637	-0,051	-0,054
-693,670	187,516	-0,051	-0,056
-692,656	-200,000	0,003	-0,035
-691,641	-48,349	0,126	-0,045
-690,627	-160,158	-0,074	-0,003
-689,612	26,586	0,050	-0,031
-688,597	243,633	-0,109	-0,134
-687,583	148,253	-0,114	-0,113
-686,568	675,505	-0,069	0,133
-685,554	-99,340	0,046	0,008
-684,539	-200,000	-0,032	-0,114
-683,524	-200,000	-0,010	0,053
-682,510	-200,000	-0,033	-0,222
-681,495	-38,457	-0,097	0,038
-680,481	742,458	-0,049	-0,098
-679,466	-94,564	-0,109	0,022
-678,451	-32,483	-0,153	0,063
-677,437	800,000	0,030	-0,085
-676,422	800,000	-0,032	0,079
-675,408	45,180	0,013	0,009
-674,393	-200,000	0,017	-0,136
-673,378	3,099	-0,103	0,055
-672,364	154,697	-0,065	0,066
-671,349	-200,000	0,010	-0,097
-670,335	-200,000	-0,053	-0,206
-669,320	125,437	-0,040	0,037
-668,305	131,184	0,077	0,073
-667,291	151,166	-0,079	0,079
-666,276	-20,718	-0,080	-0,036
-665,262	-48,253	-0,209	-0,074
-664,247	-19,362	-0,016	-0,007
-663,232	800,000	-0,059	-0,158
-662,218	-92,347	-0,102	-0,021
-661,203	-200,000	-0,002	0,027
-660,189	-142,094	0,020	0,001
-659,174	-200,000	0,038	0,144
-658,159	158,005	0,039	-0,040
-657,145	-59,044	-0,023	-0,007
-656,130	558,715	0,033	-0,058
-655,116	213,365	0,103	0,120
-654,101	-22,033	-0,041	0,018
-653,086	-200,000	0,044	-0,159
-652,072	-165,427	-0,110	0,003
-651,057	800,000	0,017	-0,034
-650,043	300,774	-0,104	-0,141
-649,028	-200,000	-0,004	0,138
-648,014	-200,000	-0,009	-0,045
-646,999	-149,935	0,084	0,005
-645,984	-128,505	-0,188	0,019
-644,970	-136,088	0,085	-0,007
-643,955	800,000	-0,002	-0,006
-642,941	-200,000	-0,012	-0,093
-641,926	665,712	-0,063	-0,120
-640,911	-107,566	0,086	0,014
-639,897	-15,599	0,047	0,022
-638,882	800,000	-0,007	0,017
-637,868	521,491	0,024	-0,041
-636,853	29,508	-0,169	-0,105
-635,838	-19,123	-0,140	0,063
-634,824	-76,316	0,048	0,012
-633,809	81,232	0,108	0,086
-632,795	-200,000	0,026	-0,092
-631,780	-11,720	0,014	-0,007
-630,765	331,945	-0,053	-0,075
-629,751	-80,205	-0,161	0,039
-628,736	-200,000	-0,016	-0,060
-627,722	-200,000	0,007	-0,054
-626,707	110,881	0,081	0,071
-625,692	-11,097	-0,048	-0,023
-624,678	-164,045	0,132	0,004
-623,663	334,821	-0,028	0,040
-622,649	-200,000	0,006	-0,164
-621,634	800,000	0,037	-0,085
-620,619	-200,000	0,012	-0,058
-619,605	277,533	0,117	0,154
-618,590	200,995	0,050	-0,057
-617,576	-121,525	-0,023	-0,003
-616,561	-200,000	0,000	-0,099
-615,546	-56,255	-0,035	-0,011
-614,532	-111,393	-0,132	-0,019
-613,517	281,242	-0,055	-0,073
-612,503	-200,000	0,003	0,082
-611,488	20,895	0,102	0,061
-610,474	-0,233	0,069	0,036
-609,459	30,455	0,046	-0,029
-608,444	-51,674	-0,123	-0,042
-607,430	-200,000	-0,006	-0,060
-606,415	-69,304	-0,004	-0,001
-605,401	-71,693	0,042	-0,011
-604,386	800,000	-0,057	0,118
-603,371	51,206	0,101	0,070
-602,357	-62,399	0,020	0,006
-601,342	-200,000	0,008	0,028
-600,328	-200,000	0,019	-0,096
-599,313	-200,000	0,024	-0,090
-598,298	303,572	-0,052	-0,071
-597,284	-22,367	0,035	-0,015
-596,269	-48,558	-0,108	-0,038
-595,255	36,465	-0,051	0,033
-594,240	130,484	0,048	-0,045
-593,225	213,923	-0,063	-0,073
-592,211	800,000	0,033	-0,082
-591,196	208,874	0,041	-0,047
-590,182	-30,618	0,048	0,020
-589,167	-58,406	-0,121	-0,038
-588,152	11,229	0,090	0,050
-587,138	-69,286	-0,031	0,009
-586,123	-56,025	0,037	0,012
-585,109	235,108	-0,069	0,084
-584,094	-30,329	0,054	0,023
-583,079	800,000	-0,020	0,045
-582,065	157,019	0,063	-0,064
-581,050	-200,000	0,012	-0,051
-580,036	-200,000	0,049	-0,242
-579,021	-200,000	-0,008	0,078
-578,006	-4,115	0,107	-0,054
-576,992	-10,260	-0,057	-0,028
-575,977	134,092	0,086	0,081
-574,963	-70,467	-0,071	0,019
-573,948	-98,014	-0,102	0,019
-572,934	-200,000	-0,003	0,035
-571,919	389,120	-0,043	-0,066
-570,904	-200,000	-0,001	0,109
-569,890	-200,000	-0,009	-0,063
-568,875	190,922	0,066	-0,073
-567,861	800,000	0,014	0,034
-566,846	272,958	-0,029	0,037
-565,831	-200,000	0,010	0,132
-564,817	-200,000	-0,004	0,128
-563,802	-200,000	0,009	-0,137
-562,788	800,000	-0,056	-0,137
-561,773	177,013	0,055	0,058
-560,758	800,000	0,016	-0,042
-559,744	-200,000	-0,002	-0,014
-558,729	-86,180	-0,045	0,010
-557,715	-111,780	-0,107	0,016
-556,700	-9,328	-0,123	0,060
-555,685	23,577	0,131	-0,079
-554,671	148,676	-0,126	0,125
-553,656	-61,681	-0,085	0,026
-552,642	146,464	0,083	0,082
-551,627	64,182	0,036	-0,026
-550,612	-126,958	0,030	-0,003
-549,598	-54,945	-0,220	0,072
-548,583	-97,731	0,068	0,013
-547,569	123,840	0,080	0,074
-546,554	361,045	0,067	-0,098
-545,539	-200,000	0,008	0,038
-544,525	151,765	-0,069	0,069
-543,510	800,000	0,041	-0,106
-542,496	-80,435	0,100	-0,024
-541,481	-16,931	0,043	0,020
-540,466	94,621	0,015	-0,012
-539,452	800,000	-0,034	0,090
-538,437	-200,000	0,028	-0,214
-537,423	-200,000	-0,011	0,063
-536,408	763,563	0,045	-0,089
-535,393	151,392	-0,086	-0,086
-534,379	-200,000	-0,001	-0,087
-533,364	-200,000	-0,000	-0,083
-532,350	166,376	-0,092	-0,096
-531,335	-200,000	-0,031	-0,118
-530,321	-28,254	-0,056	0,024
-529,306	800,000	-0,032	-0,080
-528,291	-55,849	-0,112	-0,036
-527,277	238,765	-0,090	-0,109
-526,262	570,158	0,013	-0,023
-525,248	101,816	0,134	-0,114
-524,233	-200,000	0,025	0,149
-523,218	47,335	-0,047	-0,032
-522,204	800,000	-0,035	0,082
-521,189	157,751	-0,079	0,080
-520,175	53,644	-0,047	0,033
-519,160	-200,000	0,003	-0,038
-518,145	800,000	-0,041	0,085
-517,131	-30,532	0,164	0,068
-516,116	434,825	-0,131	0,208
-515,102	179,665	-0,079	-0,084
-514,087	177,228	-0,082	-0,088
-513,072	-200,000	0,014	-0,058
-512,058	-137,856	-0,040	0,003
-511,043	-200,000	-0,025	0,092
-510,029	-185,300	-0,059	-0,001
-509,014	129,944	-0,068	-0,064
-507,999	800,000	0,061	-0,185
-506,985	408,482	0,036	0,055
-505,970	-200,000	0,006	0,059
-504,956	-104,605	-0,054	0,009
-503,941	-118,067	0,136	-0,017
-502,926	23,684	-0,111	-0,067
-501,912	-200,000	0,003	-0,055
-500,897	260,479	-0,013	-0,017
-499,883	-195,729	-0,127	0,001
-498,868	273,995	-0,098	-0,127
-497,853	-147,081	-0,067	0,004
-496,839	-50,429	0,070	-0,024
-495,824	-200,000	0,007	-0,052
-494,810	-167,835	-0,189	-0,005
-493,795	-200,000	-0,032	-0,205
-492,781	-57,361	0,060	0,019
-491,766	212,498	0,047	0,054
-490,751	-70,478	-0,106	0,029
-489,737	800,000	0,030	0,076
-488,722	-36,306	-0,114	-0,045
-487,708	111,353	0,101	-0,089
-486,693	64,003	0,018	-0,013
-485,678	-22,463	0,126	0,056
-484,664	-200,000	-0,020	-0,123
-483,649	800,000	0,025	0,069
-482,635	-150,631	-0,055	0,003
-481,620	-118,603	0,147	0,019
-480,605	53,971	-0,027	0,019
-479,591	-200,000	0,011	-0,067
-478,576	800,000	0,045	0,095
-477,562	800,000	-0,036	-0,075
-476,547	615,035	0,060	0,110
-475,532	190,114	0,057	-0,063
-474,518	-200,000	0,027	0,124
-473,503	-200,000	-0,014	0,093
-472,489	-200,000	0,020	0,100
-471,474	-200,000	0,005	0,060
-470,459	-56,938	-0,107	-0,034
-469,445	-200,000	0,018	-0,196
-468,430	-200,000	0,000	-0,146
-467,416	541,780	0,021	0,036
-466,401	-37,227	-0,065	0,025
-465,386	-200,000	-0,001	0,039
-464,372	60,495	-0,049	-0,035
-463,357	-19,977	-0,082	-0,037
-462,343	-42,189	0,053	0,020
-461,328	-19,718	-0,182	-0,082
-460,313	-31,675	0,081	-0,033
-459,299	-200,000	0,027	0,101
-458,284	-84,764	0,153	-0,035
-457,270	275,476	0,056	0,072
-456,255	345,428	-0,051	-0,074
-455,241	-18,539	-0,104	-0,047
-454,226	241,044	-0,062	-0,075
-453,211	425,157	-0,057	0,089
-452,197	77,239	0,073	0,056
-451,182	-200,000	0,006	0,125
-450,168	483,491	0,066	-0,110
-449,153	-51,134	-0,082	-0,028
-448,138	4,107	-0,079	-0,042
-447,124	-200,000	0,018	-0,061
-446,109	800,000	-0,014	0,035
-445,095	256,555	-0,050	0,063
-444,080	212,792	0,042	0,048
-443,065	-200,000	0,002	0,110
-442,051	-104,447	0,035	0,006
-441,036	800,000	-0,041	-0,092
-440,022	-58,156	-0,144	-0,045
-439,007	179,323	-0,041	-0,043
-437,992	-64,679	-0,128	0,037
-436,978	-200,000	0,043	-0,172
-435,963	800,000	0,049	-0,144
-434,949	-200,000	0,025	-0,103
-433,934	800,000	-0,039	-0,101
-432,919	-115,276	0,057	0,008
-431,905	800,000	0,052	-0,116
-430,890	529,419	-0,024	0,041
-429,876	408,128	-0,043	-0,067
-428,861	-132,328	0,179	-0,017
-427,846	800,000	0,039	-0,099
-426,832	-200,000	0,014	-0,175
-425,817	48,966	-0,163	-0,111
-424,803	74,568	0,045	-0,034
-423,788	-200,000	0,013	0,073
-422,773	351,392	0,023	0,033
-421,759	15,517	-0,105	0,060
-420,744	156,268	0,042	0,042
-419,730	-76,945	-0,089	0,023
-418,715	800,000	-0,023	-0,072
-417,701	-86,497	0,080	0,018
-416,686	313,268	0,073	0,100
-415,671	359,926	0,067	0,098
-414,657	-200,000	-0,010	0,034
-413,642	118,039	0,048	-0,043
-412,628	-31,095	0,055	-0,022
-411,613	-200,000	-0,029	-0,101
-410,598	134,555	0,070	-0,066
-409,584	274,975	-0,078	-0,101
-408,569	-131,331	0,029	-0,003
-407,555	-200,000	0,034	0,175
-406,540	554,805	0,029	0,051
-405,525	-46,745	0,054	-0,019
-404,511	-70,368	-0,112	0,031
-403,496	520,280	0,068	-0,117
-402,482	-90,008	0,180	0,038
-401,467	292,826	-0,014	0,018
-400,452	314,211	0,070	0,097
-399,438	-124,676	-0,198	0,022
-398,423	361,303	-0,084	-0,122
-397,409	377,800	0,108	-0,161
-396,394	800,000	0,016	-0,048
-395,379	-111,838	-0,018	-0,003
-394,365	-200,000	0,029	0,155
-393,350	-8,314	0,115	-0,056
-392,336	800,000	0,054	0,146
-391,321	142,460	0,037	0,035
-390,306	-200,000	0,018	0,120
-389,292	-200,000	-0,035	0,163
-388,277	87,007	0,137	0,110
-387,263	-86,134	0,087	0,019
-386,248	-200,000	0,003	0,071
-385,233	-200,000	-0,010	-0,097
-384,219	-200,000	0,017	0,078
-383,204	-200,000	-0,012	-0,045
-382,190	-54,816	-0,103	-0,034
-381,175	45,957	-0,108	-0,073
-380,160	-29,535	0,069	0,029
-379,146	97,703	0,092	-0,077
-378,131	-200,000	-0,017	-0,132
-377,117	-131,324	-0,031	-0,003
-376,102	-167,747	-0,084	-0,002
-375,088	-7,216	-0,024	-0,012
-374,073	-57,696	0,086	0,027
-373,058	254,583	0,129	0,161
-372,044	-42,577	-0,028	-0,010
-371,029	355,951	0,074	0,107
-370,015	184,590	-0,073	0,078
-369,000	183,475	0,018	-0,020
-367,985	-200,000	0,013	-0,053
-366,971	-200,000	-0,040	-0,195
-365,956	-164,868	0,118	-0,004
-364,942	-28,101	0,192	0,080
-363,927	-200,000	-0,003	0,228
-362,912	-119,006	-0,033	0,004
-361,898	-103,886	0,110	-0,018
-360,883	-200,000	0,010	-0,080
-359,869	274,607	-0,109	-0,140
-358,854	218,382	-0,060	-0,070
-357,839	-200,000	-0,011	0,080
-356,825	582,128	-0,033	0,059
-355,810	-200,000	0,048	0,155
-354,796	418,577	-0,048	0,075
-353,781	-200,000	-0,019	-0,065
-352,766	-94,283	-0,113	-0,022
-351,752	58,289	0,097	-0,069
-350,737	-25,499	-0,027	0,012
-349,723	96,708	0,065	0,054
-348,708	-124,984	-0,092	0,010
-347,693	330,815	-0,060	-0,084
-346,679	-200,000	0,033	0,287
-345,664	85,635	-0,097	0,077
-344,650	-124,759	0,067	-0,007
-343,635	-142,917	-0,013	0,001
-342,620	189,010	-0,058	0,063
-341,606	-39,697	-0,067	-0,025
-340,591	-200,000	-0,006	-0,076
-339,577	-39,358	-0,088	0,033
-338,562	175,440	-0,057	-0,060
-337,548	463,591	0,026	0,042
-336,533	-200,000	-0,009	0,077
-335,518	27,744	0,192	-0,117
-334,504	-200,000	0,009	0,047
-333,489	-193,443	-0,070	-0,000
-332,475	-200,000	-0,008	-0,133
-331,460	-21,554	-0,041	-0,018
-330,445	4,703	0,040	-0,021
-329,431	641,126	0,026	0,047
-328,416	115,817	0,092	0,082
-327,402	15,426	-0,058	-0,033
-326,387	-117,071	0,118	0,015
-325,372	236,356	-0,104	-0,126
-324,358	-200,000	0,031	-0,143
-323,343	6,415	-0,055	0,029
-322,329	684,739	-0,036	0,069
-321,314	68,201	0,090	0,067
-320,299	-113,337	0,075	0,011
-319,285	-200,000	0,027	0,000
-318,270	-63,780	-0,135	0,040
-317,256	215,507	-0,059	-0,068
-316,241	-200,000	-0,014	0,078
-315,226	-134,183	-0,065	0,006
-314,212	7,012	0,050	0,027
-313,197	-78,895	0,080	0,020
-312,183	-200,000	0,003	-0,094
-311,168	23,922	-0,121	0,072
-310,153	-200,000	0,010	0,065
-309,139	96,474	0,047	0,039
-308,124	472,588	0,071	0,117
-307,110	-8,323	0,024	-0,011
-306,095	583,142	-0,035	0,063
-305,080	-73,092	0,013	-0,003
-304,066	-112,742	0,061	0,009
-303,051	-75,934	0,101	-0,026
-302,037	-12,074	-0,118	-0,056
-301,022	86,374	-0,048	0,039
-300,008	-20,589	0,094	0,042
-298,993	-16,638	0,024	0,011
-297,978	76,197	0,053	0,041
-296,964	-11,586	-0,025	-0,012
-295,949	-23,730	-0,048	-0,021
-294,935	-200,000	0,011	-0,154
-293,920	471,998	-0,017	0,027
-292,905	768,460	0,055	0,109
-291,891	-197,326	0,054	-0,000
-290,876	-170,123	0,069	-0,002
-289,862	-200,000	-0,008	0,028
-288,847	-200,000	-0,013	0,086
-287,832	-132,781	-0,113	-0,010
-286,818	-81,633	-0,095	0,022
-285,803	-142,710	0,065	-0,005
-284,789	108,670	0,031	0,027
-283,774	-59,546	0,126	0,039
-282,759	152,388	0,031	-0,031
-281,745	-200,000	0,011	-0,041
-280,730	800,000	-0,079	-0,222
-279,716	436,030	-0,020	-0,032
-278,701	-104,657	0,129	0,021
-277,686	-200,000	-0,048	0,184
-276,672	-200,000	0,005	0,022
-275,657	249,780	-0,041	-0,051
-274,643	369,009	0,085	-0,124
-273,628	-200,000	0,027	-0,159
-272,613	322,758	-0,045	-0,062
-271,599	800,000	0,078	0,186
-270,584	-200,000	-0,001	0,013
-269,570	-200,000	-0,001	0,160
-268,555	-124,450	0,042	-0,005
-267,540	800,000	0,027	0,065
-266,526	671,200	0,033	-0,061
-265,511	456,343	0,016	-0,026
-264,497	-112,475	0,003	0,000
-263,482	-200,000	-0,012	0,087
-262,467	800,000	-0,049	0,138
-261,453	595,837	-0,025	0,044
-260,438	99,182	-0,092	-0,077
-259,424	-200,000	-0,004	-0,029
-258,409	71,210	-0,075	0,056
-257,395	-50,230	-0,090	0,031
-256,380	402,855	0,111	0,170
-255,365	383,651	0,120	0,179
-254,351	-200,000	-0,002	0,050
-253,336	500,276	-0,092	0,155
-252,322	-75,314	0,031	0,008
-251,307	-95,237	-0,152	0,029
-250,292	-200,000	-0,033	0,147
-249,278	168,463	0,199	0,205
-248,263	-104,831	-0,085	0,014
-247,249	102,082	-0,110	0,093
-246,234	60,674	-0,070	-0,050
-245,219	272,950	-0,043	-0,055
-244,205	408,916	-0,040	-0,061
-243,190	-32,195	-0,056	-0,023
-242,176	-200,000	0,024	0,136
-241,161	-75,904	0,119	-0,030
-240,146	641,201	0,037	0,067
-239,132	188,285	-0,066	-0,071
-238,117	-200,000	-0,133	0,000
-237,103	-62,550	0,110	-0,033
-236,088	-200,000	-0,007	-0,120
-235,073	-119,120	0,011	0,001
-234,059	254,910	0,111	-0,138
-233,044	134,684	-0,051	-0,048
-232,030	-200,000	0,022	0,084
-231,015	232,123	-0,043	-0,051
-230,000	-74,466	0,050	-0,013
-228,986	-200,000	0,015	0,114
-227,971	-90,920	-0,151	0,031
-226,957	210,275	0,076	-0,086
-225,942	-200,000	0,029	0,121
-224,927	261,591	-0,032	-0,040
-223,913	398,749	0,098	-0,149
-222,898	-44,334	0,050	-0,018
-221,884	109,871	0,127	0,110
-220,869	90,585	-0,103	0,084
-219,855	-200,000	0,019	0,062
-218,840	-200,000	0,045	0,143
-217,825	-79,360	-0,130	-0,031
-216,811	12,732	0,062	-0,034
-215,796	800,000	-0,010	-0,022
-214,782	349,980	0,013	0,019
-213,767	271,708	-0,044	0,057
-212,752	400,577	0,037	0,056
-211,738	-40,764	0,073	-0,027
-210,723	99,988	-0,088	0,074
-209,709	-80,252	0,055	0,013
-208,694	70,080	-0,117	0,087
-207,679	76,196	0,110	-0,084
-206,665	97,955	0,079	0,066
-205,650	21,852	-0,041	-0,024
-204,636	56,072	0,027	0,019
-203,621	263,006	-0,044	0,055
-202,606	247,889	-0,084	-0,103
-201,592	-200,000	-0,003	-0,069
-200,577	21,834	0,044	-0,026
-199,563	-126,018	0,179	-0,019
-198,548	-200,000	-0,055	0,177
-197,533	-200,000	-0,011	-0,056
-196,519	106,782	0,127	0,109
-195,504	-33,136	-0,026	0,010
-194,490	-200,000	0,004	-0,014
-193,475	111,719	0,083	0,073
-192,460	-200,000	-0,009	0,053
-191,446	-200,000	-0,001	-0,023
-190,431	-200,000	-0,055	0,182
-189,417	146,745	0,093	0,091
-188,402	325,207	-0,006	-0,008
-187,387	-4,747	0,027	0,013
-186,373	-104,784	-0,059	-0,010
-185,358	-149,307	0,063	0,004
-184,344	-75,379	0,129	-0,033
-183,329	-200,000	0,014	-0,116
-182,315	103,356	-0,035	0,029
-181,300	5,452	-0,078	-0,041
-180,285	-12,725	0,137	0,064
-179,271	118,417	-0,037	0,033
-178,256	618,822	-0,027	-0,050
-177,242	244,327	0,070	-0,085
-176,227	-9,166	0,110	-0,053
-175,212	-92,532	0,123	-0,025
-174,198	-146,368	-0,161	0,010
-173,183	12,636	-0,056	0,031
-172,169	161,163	-0,089	-0,090
-171,154	-200,000	0,009	0,055
-170,139	278,072	0,056	0,071
-169,125	-145,959	-0,117	0,007
-168,110	-200,000	0,039	0,128
-167,096	149,375	-0,085	0,083
-166,081	78,450	-0,108	0,083
-165,066	503,183	-0,089	-0,150
-164,052	356,250	-0,075	0,108
-163,037	800,000	0,047	-0,124
-162,023	-70,785	0,087	-0,024
-161,008	-200,000	-0,004	0,104
-159,993	-5,870	0,075	-0,037
-158,979	-200,000	-0,001	-0,028
-157,964	-122,137	-0,004	0,000
-156,950	466,202	0,071	-0,116
-155,935	62,640	0,126	0,091
-154,920	252,877	-0,031	-0,039
-153,906	-200,000	0,044	-0,184
-152,891	95,270	-0,096	-0,079
-151,877	-200,000	0,021	-0,083
-150,862	-41,561	-0,096	-0,035
-149,847	-22,508	-0,102	-0,044
-148,833	62,230	-0,041	-0,030
-147,818	800,000	0,057	0,140
-146,804	101,776	-0,055	-0,046
-145,789	-164,506	0,051	-0,002
-144,775	800,000	-0,027	-0,057
-143,760	334,176	-0,049	0,069
-142,745	-188,403	-0,123	0,001
-141,731	-200,000	0,001	-0,024
-140,716	-200,000	0,004	0,068
-139,702	-20,186	0,087	-0,038
-138,687	800,000	-0,028	0,068
-137,672	52,999	-0,083	0,057
-136,658	-200,000	0,027	-0,142
-135,643	-28,813	-0,100	0,041
-134,629	572,174	-0,022	0,039
-133,614	722,205	-0,047	0,091
-132,599	352,181	0,071	0,101
-131,585	-98,584	0,039	0,007
-130,570	27,917	-0,045	0,027
-129,556	16,871	0,090	0,051
-128,541	-23,110	-0,091	0,039
-127,526	800,000	0,064	-0,179
-126,512	117,816	-0,017	0,015
-125,497	231,054	0,074	-0,087
-124,483	203,629	-0,086	-0,096
-123,468	38,731	0,039	-0,025
-122,453	356,160	-0,090	-0,129
-121,439	37,315	-0,265	-0,169
-120,424	351,890	0,085	-0,121
