DTS Sentinel unit serial number:	SN410029Multiplexer serial number:	ORYXHardware model number:	OX2-SRSoftware version number:	ORYX F/W v4,00 Oryx Data Collector v3.7.2.0data status	okinstallation	B6 Nyhavnadifferential loss correction	single-endedforward channel	channel 2reverse channel	N/Adate	2023/12/08time	13:55:08forward acquisition time	300,00reverse acquisition time	0,00gamma	499,1914k internal	0,3159k external	0,3159temperature offset calibration	1,0000default loss term (dB/km)	0,3820temperature slope calibration	1,0000multiplexer offset coefficient	1,0000multiplexer slope coefficient	1,0000fibre end	0,00T internal ref (°C)	15,06T ext. ref 1 (°C)	-1,56T ext. ref 2 (°C)	-1,57length (m)	temperature (°C)	Stokes	anti-Stokes-744,400	6,028	0,116	0,063
-743,385	-90,977	-0,357	-0,075
-742,371	800,000	-0,014	-0,040
-741,356	-111,765	-0,339	0,050
-740,342	800,000	0,040	-0,123
-739,327	-157,913	-0,337	-0,014
-738,312	-126,084	0,164	0,018
-737,298	-86,274	-0,287	-0,065
-736,283	-126,231	0,256	-0,028
-735,269	-193,281	-0,390	0,002
-734,254	-93,181	0,224	0,045
-733,239	-39,387	-0,480	-0,185
-732,225	-82,988	0,223	0,053
-731,210	800,000	-0,031	0,100
-730,196	-200,000	0,015	-0,064
-729,181	-85,751	-0,121	-0,027
-728,167	-200,000	0,032	0,155
-727,152	-200,000	-0,018	0,113
-726,137	-51,513	-0,160	-0,055
-725,123	-109,854	-0,120	-0,018
-724,108	-77,681	0,033	-0,008
-723,094	629,743	-0,063	-0,117
-722,079	-95,548	-0,131	0,026
-721,064	619,990	0,070	-0,131
-720,050	-106,180	-0,070	-0,011
-719,035	466,479	0,048	-0,079
-718,021	-143,342	-0,090	0,006
-717,006	-103,474	0,095	-0,016
-715,991	-200,000	-0,014	-0,127
-714,977	60,737	-0,065	-0,047
-713,962	-104,136	-0,153	0,026
-712,948	-33,209	-0,099	0,040
-711,933	-46,071	0,103	0,037
-710,918	-200,000	-0,007	0,047
-709,904	-150,048	0,044	0,002
-708,889	534,437	-0,071	0,125
-707,875	-200,000	-0,009	-0,061
-706,860	5,161	-0,102	-0,055
-705,845	-61,586	-0,112	-0,034
-704,831	388,977	-0,023	0,035
-703,816	772,151	-0,043	-0,086
-702,802	-75,160	-0,038	0,010
-701,787	-6,481	-0,195	-0,098
-700,772	35,718	-0,020	0,013
-699,758	595,505	0,041	0,075
-698,743	91,106	0,078	-0,064
-697,729	756,201	-0,019	-0,038
-696,714	162,933	-0,083	-0,086
-695,699	608,335	0,026	0,048
-694,685	441,200	0,057	0,092
-693,670	95,431	-0,120	-0,100
-692,656	85,501	-0,053	0,043
-691,641	633,507	-0,011	0,021
-690,627	-200,000	-0,032	0,108
-689,612	234,671	0,133	0,161
-688,597	-29,486	-0,142	-0,060
-687,583	89,835	-0,019	0,016
-686,568	-200,000	-0,008	0,037
-685,554	-111,912	-0,151	0,022
-684,539	154,285	0,086	-0,087
-683,524	800,000	-0,014	0,035
-682,510	304,417	0,076	-0,104
-681,495	-74,809	0,148	-0,039
-680,481	-75,861	-0,084	0,022
-679,466	-200,000	-0,003	-0,038
-678,451	-200,000	0,006	0,053
-677,437	-200,000	0,001	-0,141
-676,422	234,425	0,097	0,118
-675,408	54,447	0,013	-0,009
-674,393	-200,000	-0,006	-0,072
-673,378	-200,000	0,007	-0,041
-672,364	-200,000	-0,000	-0,078
-671,349	-91,833	-0,091	-0,019
-670,335	129,363	-0,044	-0,041
-669,320	-200,000	0,015	-0,085
-668,305	-2,944	0,043	-0,022
-667,291	37,992	0,119	-0,077
-666,276	529,757	0,033	0,057
-665,262	76,911	-0,058	-0,045
-664,247	215,853	-0,014	0,016
-663,232	-26,134	0,076	-0,033
-662,218	800,000	-0,065	-0,175
-661,203	332,654	0,061	-0,086
-660,189	213,878	-0,086	-0,101
-659,174	272,572	-0,080	-0,104
-658,159	209,923	-0,053	-0,061
-657,145	-200,000	-0,028	-0,141
-656,130	268,085	-0,004	-0,006
-655,116	-128,433	0,054	-0,006
-654,101	229,905	0,031	-0,037
-653,086	31,893	-0,083	-0,052
-652,072	296,879	-0,051	-0,069
-651,057	64,610	0,059	0,044
-650,043	645,930	-0,022	-0,041
-649,028	-172,831	0,105	0,002
-648,014	-121,777	0,068	-0,008
-646,999	-200,000	0,014	-0,087
-645,984	-67,747	0,068	-0,019
-644,970	-102,641	-0,079	-0,014
-643,955	800,000	0,085	-0,249
-642,941	-200,000	0,016	-0,071
-641,926	191,056	0,093	0,103
-640,911	-200,000	-0,032	0,122
-639,897	-200,000	-0,002	-0,139
-638,882	107,576	-0,089	0,078
-637,868	-22,713	0,091	-0,040
-636,853	23,709	-0,127	-0,077
-635,838	-9,883	-0,095	-0,046
-634,824	800,000	0,009	0,025
-633,809	123,890	0,064	-0,059
-632,795	-81,542	-0,121	-0,029
-631,780	800,000	-0,011	-0,023
-630,765	-19,790	-0,053	-0,024
-629,751	-57,375	0,071	0,023
-628,736	-200,000	-0,020	-0,108
-627,722	211,404	0,042	0,048
-626,707	-200,000	-0,009	-0,065
-625,692	-69,717	0,181	0,050
-624,678	-200,000	0,014	0,092
-623,663	484,061	0,025	-0,042
-622,649	-200,000	-0,036	-0,141
-621,634	250,271	-0,088	-0,110
-620,619	90,624	-0,031	0,026
-619,605	197,818	0,104	-0,117
-618,590	396,742	0,067	0,102
-617,576	181,743	0,052	0,057
-616,561	-200,000	0,005	-0,064
-615,546	-63,826	-0,130	-0,039
-614,532	24,707	-0,101	-0,061
-613,517	-178,508	0,119	-0,002
-612,503	-48,708	0,089	-0,031
-611,488	-3,054	0,033	-0,017
-610,474	15,036	-0,014	-0,008
-609,459	-148,870	-0,180	-0,011
-608,444	-120,041	-0,065	-0,008
-607,430	-200,000	0,004	-0,123
-606,415	62,152	-0,057	-0,042
-605,401	48,677	-0,097	0,066
-604,386	800,000	0,031	-0,097
-603,371	800,000	0,027	-0,084
-602,357	-51,538	-0,135	0,046
-601,342	426,622	-0,034	-0,055
-600,328	346,592	-0,058	-0,084
-599,313	-116,524	-0,206	-0,028
-598,298	800,000	0,016	0,048
-597,284	254,765	0,075	0,094
-596,269	-200,000	0,023	0,112
-595,255	80,603	-0,072	0,057
-594,240	147,491	-0,080	-0,079
-593,225	556,700	0,027	-0,049
-592,211	153,757	-0,133	-0,133
-591,196	245,459	-0,008	-0,010
-590,182	800,000	-0,040	-0,122
-589,167	-200,000	-0,009	0,082
-588,152	80,841	0,096	-0,076
-587,138	-120,024	0,051	0,006
-586,123	-113,445	-0,021	0,003
-585,109	-73,967	-0,094	-0,025
-584,094	-65,147	0,141	-0,041
-583,079	166,059	-0,041	0,043
-582,065	-9,534	-0,142	-0,069
-581,050	763,841	0,078	0,155
-580,036	-200,000	-0,022	-0,099
-579,021	-200,000	-0,019	-0,139
-578,006	73,797	-0,053	-0,041
-576,992	-181,780	-0,168	-0,002
-575,977	67,050	0,090	0,067
-574,963	-135,976	0,081	-0,007
-573,948	-200,000	0,002	-0,089
-572,934	71,169	-0,118	-0,089
-571,919	-200,000	-0,013	-0,085
-570,904	129,736	-0,069	-0,065
-569,890	-200,000	-0,023	-0,169
-568,875	-141,122	0,143	0,011
-567,861	337,860	0,060	0,086
-566,846	778,680	-0,038	-0,076
-565,831	-72,180	-0,020	-0,005
-564,817	-200,000	-0,005	0,099
-563,802	651,553	-0,049	-0,092
-562,788	39,058	0,040	-0,026
-561,773	-109,660	-0,062	0,009
-560,758	174,633	-0,082	-0,086
-559,744	-141,600	0,123	0,009
-558,729	-40,298	0,013	0,005
-557,715	-52,010	-0,086	-0,029
-556,700	800,000	-0,069	0,144
-555,685	-200,000	-0,000	0,099
-554,671	-95,421	0,046	0,009
-553,656	16,692	0,023	-0,013
-552,642	309,350	0,043	0,059
-551,627	-69,201	-0,084	0,024
-550,612	85,243	-0,021	0,016
-549,598	71,464	-0,063	-0,048
-548,583	747,445	-0,061	-0,121
-547,569	-124,324	0,047	-0,005
-546,554	492,323	-0,036	-0,060
-545,539	800,000	0,059	0,190
-544,525	649,543	-0,048	0,091
-543,510	800,000	-0,027	0,059
-542,496	-78,299	-0,078	0,019
-541,481	-200,000	0,019	-0,113
-540,466	-200,000	0,009	0,061
-539,452	152,974	0,136	0,136
-538,437	33,281	0,073	0,046
-537,423	95,786	0,107	0,089
-536,408	800,000	-0,008	-0,018
-535,393	-1,699	-0,029	0,015
-534,379	-200,000	-0,030	-0,120
-533,364	800,000	-0,027	0,075
-532,350	95,524	0,017	0,014
-531,335	63,875	0,028	-0,021
-530,321	-200,000	0,005	0,108
-529,306	-116,436	-0,064	-0,009
-528,291	21,124	0,060	-0,035
-527,277	-200,000	-0,000	-0,035
-526,262	201,624	-0,059	0,066
-525,248	-200,000	-0,028	-0,092
-524,233	-32,658	0,129	-0,052
-523,218	-35,055	0,051	-0,020
-522,204	-55,605	0,077	0,025
-521,189	219,189	-0,027	0,031
-520,175	-140,941	-0,130	-0,010
-519,160	800,000	0,016	0,043
-518,145	-45,002	0,129	-0,047
-517,131	800,000	0,018	-0,038
-516,116	119,955	0,047	0,043
-515,102	-200,000	0,005	0,173
-514,087	-106,956	-0,057	0,009
-513,072	800,000	0,007	-0,016
-512,058	107,764	-0,156	0,136
-511,043	-112,773	-0,076	0,011
-510,029	-200,000	-0,033	0,144
-509,014	3,855	0,146	0,078
-507,999	-89,615	-0,027	-0,006
-506,985	375,634	0,046	0,068
-505,970	800,000	0,030	-0,093
-504,956	-200,000	0,006	-0,033
-503,941	-200,000	0,024	-0,084
-502,926	-7,497	0,117	0,058
-501,912	-41,578	-0,046	0,017
-500,897	-200,000	0,010	-0,088
-499,883	276,385	0,098	-0,127
-498,868	-10,153	0,072	-0,035
-497,853	800,000	0,054	-0,120
-496,839	800,000	0,030	-0,063
-495,824	93,823	-0,145	0,120
-494,810	74,795	0,074	0,057
-493,795	16,575	0,049	0,028
-492,781	31,821	-0,046	-0,029
-491,766	613,051	-0,040	0,074
-490,751	-145,665	-0,079	0,005
-489,737	94,129	-0,139	0,115
-488,722	-141,992	0,095	0,007
-487,708	800,000	-0,024	-0,056
-486,693	-34,413	0,094	-0,037
-485,678	-71,819	-0,216	0,058
-484,664	-200,000	-0,010	-0,129
-483,649	800,000	-0,026	-0,053
-482,635	530,629	-0,059	0,102
-481,620	-200,000	-0,023	0,095
-480,605	79,149	0,086	-0,067
-479,591	46,877	0,074	-0,050
-478,576	75,624	-0,034	-0,026
-477,562	20,975	0,043	-0,026
-476,547	26,640	-0,159	0,097
-475,532	-200,000	0,006	-0,028
-474,518	318,355	0,040	-0,055
-473,503	22,546	-0,077	-0,046
-472,489	-200,000	-0,017	0,136
-471,474	800,000	-0,028	-0,066
-470,459	-200,000	-0,021	-0,096
-469,445	-200,000	-0,017	-0,088
-468,430	-81,285	-0,104	0,025
-467,416	-200,000	0,001	0,060
-466,401	800,000	0,044	0,118
-465,386	53,719	0,040	-0,028
-464,372	7,818	0,039	0,021
-463,357	-200,000	-0,014	-0,050
-462,343	-134,323	-0,072	0,006
-461,328	-118,549	0,116	-0,015
-460,313	800,000	-0,028	-0,069
-459,299	-200,000	0,013	0,107
-458,284	-200,000	0,007	-0,031
-457,270	800,000	0,050	0,108
-456,255	73,086	0,040	0,030
-455,241	127,130	-0,087	-0,081
-454,226	800,000	0,064	-0,178
-453,211	-64,573	0,052	0,015
-452,197	-148,316	-0,022	0,001
-451,182	-34,907	0,106	0,042
-450,168	90,775	0,101	0,082
-449,153	64,701	-0,067	-0,049
-448,138	306,814	-0,060	-0,081
-447,124	-200,000	-0,023	0,083
-446,109	800,000	-0,034	-0,070
-445,095	48,752	0,100	-0,068
-444,080	-200,000	0,040	0,199
-443,065	60,154	0,057	-0,041
-442,051	800,000	-0,013	-0,043
-441,036	206,466	-0,087	0,099
-440,022	-127,721	-0,085	-0,009
-439,007	-22,234	0,075	-0,033
-437,992	-200,000	-0,014	-0,055
-436,978	52,059	-0,022	-0,016
-435,963	800,000	0,041	0,092
-434,949	218,923	-0,027	-0,031
-433,934	-200,000	0,006	-0,055
-432,919	457,253	-0,032	-0,052
-431,905	100,994	0,044	-0,038
-430,890	800,000	-0,027	-0,082
-429,876	800,000	0,051	0,120
-428,861	-39,652	0,091	0,035
-427,846	425,436	-0,052	-0,082
-426,832	-173,199	0,088	0,002
-425,817	391,185	0,063	-0,095
-424,803	224,533	0,095	-0,112
-423,788	74,338	0,045	0,034
-422,773	195,939	0,039	-0,044
-421,759	17,497	0,110	0,063
-420,744	161,783	-0,079	0,080
-419,730	40,616	0,059	-0,039
-418,715	151,663	0,058	-0,058
-417,701	-200,000	-0,007	-0,102
-416,686	-125,492	0,129	0,014
-415,671	44,781	-0,025	0,017
-414,657	262,998	0,052	0,065
-413,642	26,862	-0,039	0,024
-412,628	800,000	-0,038	0,096
-411,613	-113,181	0,108	-0,015
-410,598	800,000	-0,018	-0,051
-409,584	-200,000	0,001	0,042
-408,569	571,052	0,070	0,125
-407,555	647,973	0,074	0,139
-406,540	-200,000	-0,025	0,170
-405,525	362,073	-0,052	0,076
-404,511	800,000	0,052	-0,111
-403,496	800,000	0,046	0,100
-402,482	-99,397	0,110	-0,020
-401,467	18,242	-0,035	-0,021
-400,452	5,076	-0,091	0,049
-399,438	462,607	-0,057	0,093
-398,423	-104,997	-0,076	-0,012
-397,409	-138,028	-0,154	0,012
-396,394	163,211	-0,072	-0,074
-395,379	201,002	0,077	-0,087
-394,365	-200,000	-0,043	0,155
-393,350	365,915	0,008	-0,012
-392,336	800,000	0,043	0,097
-391,321	-200,000	0,004	-0,056
-390,306	-163,233	0,106	0,004
-389,292	112,046	-0,050	-0,044
-388,277	271,620	0,010	-0,013
-387,263	-200,000	0,027	-0,096
-386,248	800,000	0,020	-0,049
-385,233	-200,000	-0,031	-0,127
-384,219	-104,806	0,147	0,024
-383,204	113,769	-0,047	-0,041
-382,190	-19,036	0,050	-0,022
-381,175	261,016	-0,089	0,113
-380,160	92,157	0,059	0,048
-379,146	-39,146	0,080	0,030
-378,131	272,954	-0,078	0,101
-377,117	247,474	0,038	0,047
-376,102	-95,104	-0,082	-0,016
-375,088	-65,381	-0,111	0,032
-374,073	-127,836	0,069	0,007
-373,058	64,722	0,051	0,037
-372,044	353,256	0,037	-0,053
-371,029	337,091	0,048	-0,068
-370,015	-200,000	-0,010	-0,039
-369,000	211,634	-0,104	0,119
-367,985	-16,988	0,073	0,033
-366,971	800,000	0,060	0,128
-365,956	-200,000	-0,036	0,124
-364,942	-131,188	0,034	-0,003
-363,927	800,000	0,029	-0,087
-362,912	365,246	0,062	-0,092
-361,898	7,209	0,059	-0,032
-360,883	-64,963	0,021	-0,006
-359,869	-132,387	-0,120	-0,011
-358,854	-20,856	0,123	0,055
-357,839	316,496	-0,037	-0,051
-356,825	4,573	0,056	0,030
-355,810	-133,392	-0,116	0,010
-354,796	173,191	0,065	0,068
-353,781	11,154	-0,196	-0,108
-352,766	-200,000	0,014	0,113
-351,752	800,000	0,019	-0,043
-350,737	683,598	0,099	0,188
-349,723	-22,563	-0,093	-0,041
-348,708	-22,277	0,141	0,062
-347,693	13,888	0,122	-0,069
-346,679	77,145	-0,081	-0,062
-345,664	356,632	0,010	0,015
-344,650	-162,108	0,115	-0,004
-343,635	800,000	-0,035	-0,074
-342,620	177,290	0,013	-0,014
-341,606	-16,921	0,032	-0,015
-340,591	-64,183	0,021	-0,006
-339,577	-48,641	-0,099	-0,034
-338,562	-151,272	-0,052	0,003
-337,548	800,000	-0,019	0,048
-336,533	800,000	0,026	0,054
-335,518	322,348	0,070	0,096
-334,504	428,611	0,078	-0,123
-333,489	-200,000	0,000	-0,005
-332,475	-200,000	0,006	-0,032
-331,460	-121,255	-0,157	-0,019
-330,445	-53,582	-0,125	-0,041
-329,431	800,000	0,069	0,151
-328,416	60,510	-0,068	0,049
-327,402	38,872	0,118	0,076
-326,387	800,000	-0,053	-0,119
-325,372	-135,596	0,014	0,001
-324,358	-124,987	-0,059	0,006
-323,343	-145,771	-0,024	-0,002
-322,329	730,729	-0,070	0,135
-321,314	-128,181	0,086	0,009
-320,299	800,000	0,031	-0,086
-319,285	460,661	0,073	0,118
-318,270	-28,612	-0,093	0,039
-317,256	316,045	-0,047	-0,064
-316,241	211,590	-0,116	-0,133
-315,226	-200,000	0,003	0,015
-314,212	-80,673	0,108	-0,026
-313,197	-12,604	0,061	-0,029
-312,183	-40,557	0,144	0,054
-311,168	78,572	0,041	0,031
-310,153	-13,062	0,093	0,044
-309,139	800,000	-0,018	-0,041
-308,124	-200,000	0,015	0,059
-307,110	-200,000	0,008	-0,026
-306,095	143,363	-0,104	0,100
-305,080	-145,585	0,069	0,004
-304,066	58,592	-0,071	-0,050
-303,051	191,626	0,115	-0,126
-302,037	-41,317	-0,076	0,028
-301,022	-11,789	0,078	0,037
-300,008	-200,000	0,002	-0,040
-298,993	800,000	-0,060	0,159
-297,978	-38,424	0,015	-0,006
-296,964	474,476	-0,074	-0,121
-295,949	800,000	0,054	-0,109
-294,935	-200,000	-0,001	-0,015
-293,920	-26,911	-0,050	0,021
-292,905	800,000	0,035	0,082
-291,891	42,960	0,011	0,007
-290,876	-6,494	0,026	-0,013
-289,862	-30,473	0,023	0,009
-288,847	226,106	-0,024	0,028
-287,832	88,545	0,024	0,019
-286,818	203,045	-0,068	-0,076
-285,803	-87,856	0,042	0,009
-284,789	800,000	-0,044	0,095
-283,774	-56,391	0,064	-0,020
-282,759	22,675	0,121	0,071
-281,745	209,541	0,100	-0,114
-280,730	148,046	-0,102	-0,100
-279,716	232,505	0,041	-0,049
-278,701	170,576	-0,029	-0,030
-277,686	-200,000	0,020	0,077
-276,672	364,716	-0,050	0,074
-275,657	800,000	-0,062	0,147
-274,643	-200,000	0,003	-0,113
-273,628	-200,000	-0,007	-0,034
-272,613	-143,745	0,093	-0,006
-271,599	800,000	0,046	0,140
-270,584	36,718	-0,006	0,004
-269,570	75,377	-0,048	0,036
-268,555	-8,899	-0,075	-0,036
-267,540	-200,000	-0,013	0,058
-266,526	24,703	-0,176	0,105
-265,511	-65,573	0,035	-0,010
-264,497	-34,901	-0,125	-0,049
-263,482	-200,000	-0,000	0,048
-262,467	800,000	-0,026	0,064
-261,453	800,000	0,028	0,086
-260,438	-17,031	0,098	0,045
-259,424	-106,561	-0,166	0,026
-258,409	-5,735	-0,102	0,050
-257,395	-80,644	-0,052	-0,012
-256,380	-118,791	0,139	-0,017
-255,365	-79,580	-0,102	0,025
-254,351	800,000	-0,019	-0,058
-253,336	-147,577	-0,171	0,010
-252,322	-29,741	0,015	-0,006
-251,307	-149,066	-0,070	-0,004
-250,292	-200,000	-0,007	0,036
-249,278	70,313	0,089	0,066
-248,263	-43,213	-0,079	0,029
-247,249	-32,523	-0,067	0,027
-246,234	800,000	-0,021	0,047
-245,219	642,632	0,033	-0,061
-244,205	-200,000	-0,025	0,087
-243,190	548,519	-0,065	0,113
-242,176	777,771	0,038	0,075
-241,161	153,326	-0,098	-0,097
-240,146	157,571	-0,030	0,030
-239,132	41,651	-0,059	0,039
-238,117	236,977	0,085	-0,102
-237,103	-90,097	-0,101	-0,021
-236,088	264,171	-0,004	-0,005
-235,073	-113,790	0,134	-0,019
-234,059	89,361	0,058	0,047
-233,044	-200,000	-0,015	0,098
-232,030	-35,345	-0,050	0,020
-231,015	142,193	0,049	0,047
-230,000	-200,000	0,011	-0,075
-228,986	-60,087	0,037	0,011
-227,971	-200,000	0,021	-0,177
-226,957	800,000	0,058	0,156
-225,942	800,000	-0,036	-0,115
-224,927	800,000	-0,029	-0,070
-223,913	40,399	-0,118	0,077
-222,898	9,578	-0,069	-0,037
-221,884	-59,585	0,055	0,017
-220,869	-23,780	0,175	-0,075
-219,855	154,673	0,115	0,114
-218,840	-200,000	0,009	0,192
-217,825	-200,000	-0,005	0,093
-216,811	-200,000	0,015	0,090
-215,796	800,000	-0,038	-0,078
-214,782	125,640	-0,071	0,064
-213,767	84,703	0,025	-0,020
-212,752	800,000	0,025	-0,052
-211,738	222,480	0,061	0,071
-210,723	800,000	0,070	-0,191
-209,709	-200,000	-0,022	-0,122
-208,694	-84,987	-0,139	0,031
-207,679	-200,000	-0,012	0,054
-206,665	277,911	-0,098	-0,126
-205,650	-177,632	0,086	0,001
-204,636	-200,000	0,007	0,125
-203,621	67,546	0,024	-0,018
-202,606	41,024	0,115	-0,075
-201,592	-32,623	-0,108	-0,043
-200,577	-103,195	-0,066	0,011
-199,563	-17,315	0,060	0,027
-198,548	-7,317	-0,038	0,018
-197,533	120,322	0,047	0,042
-196,519	181,146	0,134	0,143
-195,504	649,423	0,021	0,039
-194,490	-147,636	0,029	0,002
-193,475	-200,000	-0,124	0,000
-192,460	-200,000	-0,029	0,177
-191,446	-200,000	0,002	0,053
-190,431	260,994	0,064	0,081
-189,417	266,456	0,072	-0,091
-188,402	-116,282	-0,122	-0,016
-187,387	52,554	-0,045	-0,031
-186,373	-200,000	-0,019	-0,140
-185,358	187,665	0,033	-0,036
-184,344	254,627	0,031	0,038
-183,329	477,117	0,032	-0,053
-182,315	-200,000	0,024	0,000
-181,300	86,614	-0,077	-0,061
-180,285	-94,322	-0,038	-0,007
-179,271	-200,000	0,028	-0,101
-178,256	800,000	0,018	-0,051
-177,242	-76,261	-0,075	-0,019
-176,227	-106,306	0,121	0,019
-175,212	-81,858	-0,122	0,028
-174,198	-29,599	0,142	0,058
-173,183	-200,000	-0,007	0,034
-172,169	800,000	0,067	-0,140
-171,154	31,760	0,052	-0,032
-170,139	6,278	-0,094	-0,050
-169,125	-200,000	0,008	0,077
-168,110	291,044	0,037	-0,049
-167,096	578,829	-0,021	0,038
-166,081	488,658	-0,013	-0,022
-165,066	-200,000	0,016	0,170
-164,052	474,864	-0,083	-0,136
-163,037	-114,310	-0,052	0,007
-162,023	244,951	0,061	-0,074
-161,008	306,120	0,080	0,108
-159,993	-200,000	0,001	-0,088
-158,979	-74,387	0,061	0,016
-157,964	-71,396	-0,067	-0,018
-156,950	-59,073	-0,072	-0,022
-155,935	-200,000	0,004	-0,086
-154,920	15,928	-0,052	-0,030
-153,906	-26,187	0,064	0,027
-152,891	-200,000	-0,014	0,090
-151,877	-200,000	0,002	-0,194
-150,862	-104,528	-0,139	-0,023
-149,847	-111,100	-0,111	0,016
-148,833	55,063	0,038	-0,027
-147,818	221,589	0,129	0,150
-146,804	-55,760	0,028	-0,009
-145,789	-146,753	0,165	0,010
-144,775	59,103	-0,082	-0,058
-143,760	64,917	0,076	-0,056
-142,745	800,000	-0,022	-0,054
-141,731	614,982	0,007	-0,013
-140,716	167,210	0,036	-0,037
-139,702	771,044	-0,045	0,089
-138,687	150,607	0,045	0,044
-137,672	14,102	-0,121	-0,068
-136,658	299,254	-0,018	0,023
-135,643	-43,668	0,109	-0,039
-134,629	-90,737	0,100	-0,021
-133,614	140,851	0,106	0,101
-132,599	-91,834	0,053	-0,011
-131,585	-200,000	0,020	-0,101
-130,570	-78,904	0,049	-0,012
-129,556	-11,992	0,019	0,009
-128,541	98,813	-0,069	-0,057
-127,526	107,571	0,063	0,054
-126,512	800,000	0,025	-0,073
-125,497	730,306	-0,065	0,126
-124,483	800,000	0,021	0,051
-123,468	-1,230	0,085	0,043
-122,453	793,134	-0,004	-0,007
-121,439	-200,000	0,011	0,105
-120,424	358,987	-0,019	0,028
-119,410	-156,513	-0,022	0,001
