DTS Sentinel unit serial number:	SN410029Multiplexer serial number:	ORYXHardware model number:	OX2-SRSoftware version number:	ORYX F/W v4,00 Oryx Data Collector v3.7.2.0data status	okinstallation	B6 Nyhavnadifferential loss correction	single-endedforward channel	channel 2reverse channel	N/Adate	2023/12/10time	03:05:08forward acquisition time	300,00reverse acquisition time	0,00gamma	499,1914k internal	0,3126k external	0,3126temperature offset calibration	1,0000default loss term (dB/km)	0,3820temperature slope calibration	1,0000multiplexer offset coefficient	1,0000multiplexer slope coefficient	1,0000fibre end	0,00T internal ref (°C)	22,00T ext. ref 1 (°C)	5,82T ext. ref 2 (°C)	5,80length (m)	temperature (°C)	Stokes	anti-Stokes-744,400	-168,413	-0,051	-0,001
-743,385	100,247	-0,163	0,140
-742,371	-200,000	-0,029	-0,140
-741,356	-127,189	-0,212	0,023
-740,342	-200,000	0,023	-0,126
-739,327	163,796	-0,152	0,159
-738,312	-200,000	0,008	-0,102
-737,298	-42,742	-0,144	0,054
-736,283	800,000	-0,022	0,055
-735,269	55,653	-0,212	0,152
-734,254	92,025	0,070	0,058
-733,239	-34,492	-0,456	-0,185
-732,225	569,170	0,047	0,086
-731,210	800,000	0,029	-0,062
-730,196	-200,000	-0,027	-0,098
-729,181	74,602	-0,053	0,042
-728,167	-89,416	0,164	-0,036
-727,152	28,478	-0,067	-0,042
-726,137	114,832	-0,084	-0,077
-725,123	-100,947	-0,077	0,014
-724,108	548,755	-0,094	-0,168
-723,094	800,000	0,062	-0,129
-722,079	-141,795	-0,111	0,008
-721,064	42,685	0,061	0,041
-720,050	-89,303	0,106	0,023
-719,035	295,267	-0,052	0,071
-718,021	-61,878	-0,041	-0,013
-717,006	312,928	-0,119	-0,167
-715,991	241,178	-0,098	-0,122
-714,977	342,952	0,075	0,110
-713,962	-127,375	-0,173	-0,018
-712,948	-4,044	-0,128	-0,066
-711,933	154,576	0,059	0,060
-710,918	25,472	0,142	0,088
-709,904	-110,624	-0,029	-0,004
-708,889	-87,627	-0,163	-0,036
-707,875	-200,000	0,015	-0,073
-706,860	572,489	0,028	0,051
-705,845	283,157	-0,039	0,052
-704,831	676,871	-0,039	-0,076
-703,816	175,488	-0,049	0,053
-702,802	-200,000	0,006	-0,120
-701,787	800,000	-0,082	-0,217
-700,772	134,795	0,024	0,023
-699,758	-134,061	0,057	0,005
-698,743	-31,280	0,107	-0,045
-697,729	-200,000	-0,015	-0,072
-696,714	433,889	-0,046	-0,074
-695,699	574,739	-0,091	-0,167
-694,685	-200,000	-0,010	-0,060
-693,670	-112,447	0,023	0,003
-692,656	-200,000	0,015	-0,077
-691,641	-91,098	-0,043	0,009
-690,627	326,527	0,050	0,071
-689,612	-83,483	-0,079	0,019
-688,597	59,675	-0,079	-0,058
-687,583	584,639	-0,037	0,067
-686,568	54,157	-0,121	-0,087
-685,554	8,285	0,093	-0,052
-684,539	800,000	-0,022	-0,052
-683,524	-200,000	0,004	0,020
-682,510	800,000	0,031	0,094
-681,495	63,998	0,072	0,054
-680,481	5,265	-0,081	-0,044
-679,466	329,822	-0,081	-0,116
-678,451	-200,000	0,012	-0,116
-677,437	43,737	0,089	0,060
-676,422	304,165	-0,044	0,061
-675,408	-200,000	-0,020	0,105
-674,393	285,236	-0,044	-0,060
-673,378	-200,000	0,001	0,015
-672,364	39,230	-0,094	0,063
-671,349	131,897	0,047	-0,045
-670,335	674,612	-0,060	-0,116
-669,320	5,876	0,179	0,098
-668,305	7,088	0,049	0,027
-667,291	-74,306	-0,092	-0,025
-666,276	-200,000	-0,006	0,032
-665,262	-54,434	0,045	0,015
-664,247	481,646	-0,048	-0,082
-663,232	191,706	0,026	-0,029
-662,218	-200,000	0,009	-0,106
-661,203	-200,000	-0,005	0,059
-660,189	-15,162	-0,143	0,068
-659,174	-33,575	-0,057	0,023
-658,159	-200,000	-0,007	-0,172
-657,145	-24,107	0,012	0,005
-656,130	-200,000	0,003	-0,010
-655,116	337,306	-0,047	-0,067
-654,101	-98,912	0,163	0,030
-653,086	-200,000	0,003	0,176
-652,072	62,579	-0,023	-0,017
-651,057	-177,640	0,100	-0,002
-650,043	-39,462	0,038	-0,015
-649,028	121,488	-0,065	-0,060
-648,014	-200,000	-0,073	0,252
-646,999	-200,000	0,006	0,092
-645,984	79,750	0,068	0,054
-644,970	217,885	-0,038	-0,045
-643,955	166,312	-0,099	-0,104
-642,941	-39,392	-0,114	0,044
-641,926	570,022	0,045	-0,081
-640,911	-52,031	-0,149	-0,051
-639,897	122,673	-0,052	-0,048
-638,882	92,587	0,088	0,074
-637,868	-200,000	0,000	-0,058
-636,853	-200,000	-0,014	-0,111
-635,838	239,380	-0,085	-0,105
-634,824	-200,000	-0,040	-0,145
-633,809	53,649	0,130	-0,092
-632,795	800,000	-0,064	-0,155
-631,780	-3,828	-0,128	-0,066
-630,765	-200,000	-0,010	-0,041
-629,751	334,397	0,017	0,024
-628,736	800,000	-0,061	-0,140
-627,722	-200,000	-0,014	-0,102
-626,707	-200,000	0,020	0,069
-625,692	-200,000	-0,007	-0,025
-624,678	189,258	0,051	0,057
-623,663	-113,071	0,057	-0,008
-622,649	21,926	-0,037	-0,022
-621,634	800,000	-0,030	-0,074
-620,619	-168,477	-0,069	0,002
-619,605	-127,178	0,031	-0,003
-618,590	-65,236	0,028	0,008
-617,576	32,183	0,033	-0,021
-616,561	-200,000	0,022	-0,079
-615,546	321,544	-0,066	-0,094
-614,532	800,000	0,025	-0,080
-613,517	304,418	-0,047	-0,065
-612,503	-99,791	-0,112	0,021
-611,488	-119,595	0,088	-0,011
-610,474	-200,000	-0,029	0,123
-609,459	116,819	-0,069	0,063
-608,444	800,000	-0,037	0,098
-607,430	-20,998	-0,072	0,033
-606,415	-200,000	0,042	-0,142
-605,401	-200,000	0,019	0,108
-604,386	226,359	-0,037	0,045
-603,371	6,209	0,113	0,062
-602,357	-157,334	0,122	0,005
-601,342	-200,000	0,006	0,051
-600,328	-73,675	0,055	-0,015
-599,313	-200,000	-0,052	-0,178
-598,298	-200,000	-0,005	0,022
-597,284	-164,519	0,097	0,003
-596,269	800,000	-0,005	0,017
-595,255	134,584	0,014	-0,013
-594,240	-200,000	-0,024	-0,142
-593,225	-195,334	0,047	-0,000
-592,211	72,037	0,054	-0,042
-591,196	104,732	-0,033	-0,029
-590,182	18,493	0,072	-0,043
-589,167	-200,000	0,014	0,101
-588,152	-158,197	-0,095	-0,004
-587,138	19,952	0,107	0,064
-586,123	-200,000	0,017	-0,212
-585,109	-184,023	-0,146	-0,002
-584,094	-5,424	-0,048	0,024
-583,079	-9,785	0,072	0,035
-582,065	-200,000	-0,007	0,030
-581,050	-119,132	0,033	0,004
-580,036	-28,343	0,027	0,011
-579,021	-200,000	-0,037	-0,165
-578,006	-200,000	0,007	0,078
-576,992	-137,768	-0,093	0,008
-575,977	161,548	0,057	0,059
-574,963	213,164	0,033	0,039
-573,948	-200,000	0,001	-0,042
-572,934	59,280	-0,012	0,008
-571,919	-200,000	-0,034	-0,194
-570,904	31,008	-0,022	0,014
-569,890	117,957	-0,070	-0,064
-568,875	-172,293	-0,143	0,003
-567,861	800,000	-0,073	0,153
-566,846	53,159	0,053	-0,038
-565,831	-200,000	-0,004	-0,031
-564,817	-200,000	-0,005	0,051
-563,802	-14,581	-0,066	0,031
-562,788	-200,000	-0,033	-0,130
-561,773	393,463	0,060	0,092
-560,758	-200,000	-0,035	-0,139
-559,744	800,000	0,058	-0,128
-558,729	775,624	0,016	0,032
-557,715	80,520	-0,130	-0,104
-556,700	165,193	-0,075	-0,079
-555,685	292,102	-0,039	0,052
-554,671	-200,000	-0,006	-0,053
-553,656	137,134	0,115	-0,111
-552,642	6,920	-0,041	-0,022
-551,627	186,767	0,084	0,093
-550,612	87,417	0,040	-0,033
-549,598	108,364	-0,086	-0,076
-548,583	473,179	0,045	-0,075
-547,569	377,742	0,046	-0,069
-546,554	236,228	-0,084	0,102
-545,539	-95,828	0,051	-0,010
-544,525	-200,000	0,025	0,084
-543,510	259,687	-0,098	-0,125
-542,496	109,589	-0,105	0,093
-541,481	-170,369	-0,101	0,003
-540,466	10,965	-0,015	0,008
-539,452	800,000	0,011	0,034
-538,437	-100,159	0,107	-0,019
-537,423	800,000	0,031	0,098
-536,408	-16,829	0,077	-0,036
-535,393	800,000	-0,025	-0,069
-534,379	283,750	0,033	0,044
-533,364	78,187	-0,049	0,039
-532,350	378,407	0,042	0,064
-531,335	96,495	0,044	-0,037
-530,321	-200,000	0,000	-0,017
-529,306	243,824	-0,031	-0,038
-528,291	-52,264	-0,135	0,046
-527,277	426,606	-0,052	0,083
-526,262	800,000	0,019	0,042
-525,248	362,392	0,137	0,204
-524,233	-200,000	0,003	0,056
-523,218	-127,528	-0,171	-0,018
-522,204	800,000	-0,015	-0,048
-521,189	-200,000	-0,033	-0,132
-520,175	-165,476	-0,166	0,005
-519,160	800,000	0,015	-0,045
-518,145	233,458	0,034	0,041
-517,131	-177,837	0,102	-0,002
-516,116	352,147	0,051	-0,075
-515,102	800,000	0,014	-0,041
-514,087	-119,181	-0,085	-0,011
-513,072	84,542	-0,055	-0,044
-512,058	-186,025	-0,160	0,002
-511,043	768,777	0,014	-0,029
-510,029	-82,539	0,118	0,028
-509,014	-200,000	0,037	0,221
-507,999	21,624	-0,013	-0,008
-506,985	331,744	0,045	0,064
-505,970	-35,296	-0,136	0,054
-504,956	188,401	-0,067	-0,074
-503,941	-200,000	0,001	-0,068
-502,926	85,310	0,084	0,068
-501,912	-38,895	-0,043	0,016
-500,897	194,378	-0,075	-0,084
-499,883	-59,191	-0,138	-0,044
-498,868	-134,793	-0,088	0,008
-497,853	800,000	-0,025	-0,054
-496,839	800,000	0,094	-0,202
-495,824	-200,000	0,038	0,146
-494,810	-116,413	0,086	-0,012
-493,795	-200,000	0,046	-0,151
-492,781	-59,818	-0,043	0,014
-491,766	167,121	-0,035	-0,037
-490,751	85,800	-0,080	0,065
-489,737	-47,026	0,094	-0,034
-488,722	795,317	0,028	-0,057
-487,708	-200,000	-0,001	-0,133
-486,693	-200,000	0,000	-0,094
-485,678	93,525	-0,055	0,046
-484,664	120,271	-0,075	0,069
-483,649	800,000	-0,038	0,103
-482,635	124,965	-0,075	-0,070
-481,620	-200,000	0,017	-0,085
-480,605	-200,000	0,006	-0,044
-479,591	150,194	0,149	0,149
-478,576	800,000	-0,005	0,015
-477,562	167,361	0,039	0,041
-476,547	-200,000	0,025	-0,209
-475,532	-200,000	-0,019	-0,073
-474,518	34,010	0,077	0,050
-473,503	-113,270	-0,028	0,004
-472,489	-5,942	0,041	0,021
-471,474	-74,981	0,014	0,004
-470,459	612,949	-0,044	-0,082
-469,445	-126,984	-0,221	0,024
-468,430	-200,000	-0,007	-0,096
-467,416	-200,000	0,012	-0,143
-466,401	-200,000	0,014	-0,089
-465,386	224,913	0,037	0,045
-464,372	760,267	0,092	0,185
-463,357	800,000	0,006	-0,014
-462,343	112,575	-0,046	-0,041
-461,328	-200,000	0,022	-0,186
-460,313	-55,376	0,103	0,034
-459,299	-200,000	-0,010	-0,048
-458,284	800,000	-0,103	0,234
-457,270	123,853	-0,023	0,021
-456,255	-62,628	0,021	-0,006
-455,241	-110,152	-0,112	0,017
-454,226	50,590	-0,064	0,045
-453,211	-26,829	0,040	0,017
-452,197	164,309	0,101	0,105
-451,182	-34,917	-0,143	0,057
-450,168	800,000	-0,055	-0,135
-449,153	243,395	-0,062	0,076
-448,138	15,301	0,155	0,089
-447,124	-200,000	0,003	-0,024
-446,109	42,241	-0,032	-0,021
-445,095	-3,906	-0,141	0,072
-444,080	-200,000	-0,016	0,165
-443,065	25,378	0,123	-0,075
-442,051	-200,000	0,011	-0,095
-441,036	-38,267	0,107	0,042
-440,022	800,000	-0,025	0,056
-439,007	-200,000	-0,009	0,053
-437,992	800,000	0,022	0,070
-436,978	800,000	0,019	-0,043
-435,963	-200,000	0,002	0,033
-434,949	585,380	-0,086	-0,156
-433,934	800,000	0,034	-0,072
-432,919	-94,210	-0,115	-0,023
-431,905	-132,451	-0,038	-0,004
-430,890	-82,292	-0,157	0,037
-429,876	608,236	0,026	-0,048
-428,861	800,000	-0,026	-0,054
-427,846	-200,000	0,000	0,016
-426,832	-95,814	-0,100	-0,019
-425,817	400,879	-0,044	0,068
-424,803	-157,848	-0,041	-0,002
-423,788	-42,683	0,063	-0,024
-422,773	-51,637	0,129	-0,044
-421,759	800,000	-0,048	-0,098
-420,744	24,762	0,114	0,069
-419,730	7,088	0,031	0,017
-418,715	66,605	0,090	-0,067
-417,701	-200,000	-0,001	-0,062
-416,686	-39,031	-0,087	0,033
-415,671	-108,913	-0,066	-0,010
-414,657	-200,000	0,007	-0,053
-413,642	-121,371	-0,092	-0,011
-412,628	-162,507	0,049	-0,002
-411,613	114,300	-0,116	0,104
-410,598	-123,917	-0,044	0,005
-409,584	1,770	0,040	0,021
-408,569	-122,845	-0,040	-0,005
-407,555	133,403	-0,092	0,087
-406,540	311,405	0,085	0,117
-405,525	-200,000	-0,022	-0,072
-404,511	684,173	0,025	0,048
-403,496	-91,461	0,114	-0,024
-402,482	-49,029	-0,059	-0,021
-401,467	800,000	0,048	0,116
-400,452	384,338	0,071	0,108
-399,438	55,914	-0,038	0,027
-398,423	-200,000	-0,015	-0,080
-397,409	800,000	-0,040	-0,088
-396,394	-200,000	0,016	-0,213
-395,379	414,429	0,030	-0,048
-394,365	800,000	0,063	0,161
-393,350	-200,000	0,005	0,061
-392,336	-200,000	-0,025	-0,083
-391,321	800,000	-0,015	0,041
-390,306	496,611	-0,056	0,095
-389,292	-149,416	-0,083	-0,005
-388,277	-96,653	-0,058	0,011
-387,263	32,204	-0,068	0,043
-386,248	-69,651	0,115	-0,032
-385,233	800,000	0,018	0,043
-384,219	-200,000	0,031	0,142
-383,204	250,685	-0,062	0,078
-382,190	-200,000	0,003	-0,144
-381,175	-133,183	0,046	-0,004
-380,160	55,713	0,092	-0,065
-379,146	69,307	0,069	-0,052
-378,131	13,014	-0,058	-0,033
-377,117	533,719	0,083	0,145
-376,102	375,465	-0,053	-0,079
-375,088	152,329	-0,118	0,118
-374,073	-200,000	-0,019	0,089
-373,058	-200,000	-0,001	0,076
-372,044	-58,306	-0,126	-0,040
-371,029	-200,000	-0,014	-0,079
-370,015	382,904	0,088	0,134
-369,000	-200,000	0,036	-0,144
-367,985	-200,000	-0,004	-0,033
-366,971	55,922	-0,162	-0,115
-365,956	-80,479	0,055	0,013
-364,942	560,826	0,069	0,122
-363,927	-170,674	0,062	-0,002
-362,912	-36,741	-0,094	0,037
-361,898	-138,286	0,063	-0,005
-360,883	-200,000	0,025	-0,100
-359,869	-200,000	0,017	0,089
-358,854	320,113	0,037	0,051
-357,839	-200,000	-0,011	0,094
-356,825	6,823	0,131	-0,071
-355,810	110,767	-0,058	-0,051
-354,796	800,000	0,016	-0,044
-353,781	-200,000	0,008	-0,099
-352,766	53,713	-0,141	-0,099
-351,752	-75,381	0,159	-0,041
-350,737	-73,022	0,057	-0,015
-349,723	-200,000	0,020	0,101
-348,708	-192,089	0,147	-0,001
-347,693	181,388	0,106	-0,114
-346,679	-200,000	0,040	-0,144
-345,664	800,000	-0,037	-0,115
-344,650	800,000	0,031	0,083
-343,635	-200,000	0,050	0,171
-342,620	68,469	0,096	0,072
-341,606	-29,954	-0,060	-0,025
-340,591	285,229	0,019	0,025
-339,577	-200,000	0,001	0,058
-338,562	-200,000	-0,014	-0,075
-337,548	104,866	-0,077	0,067
-336,533	774,625	-0,017	0,034
-335,518	48,291	0,056	0,038
-334,504	-200,000	0,030	0,166
-333,489	-91,972	-0,062	0,013
-332,475	-42,655	-0,127	-0,047
-331,460	-18,337	-0,078	0,036
-330,445	-13,210	-0,069	-0,033
-329,431	172,388	-0,021	0,023
-328,416	76,603	0,129	0,100
-327,402	-200,000	0,014	0,053
-326,387	29,477	0,073	0,045
-325,372	340,497	-0,019	-0,028
-324,358	-151,341	0,100	0,005
-323,343	800,000	0,041	0,086
-322,329	311,622	0,064	0,088
-321,314	-117,701	0,045	0,006
-320,299	163,331	-0,053	0,055
-319,285	-41,616	-0,152	-0,057
-318,270	47,291	0,045	-0,031
-317,256	57,790	-0,031	-0,022
-316,241	-48,923	-0,115	-0,040
-315,226	330,815	-0,008	0,011
-314,212	-19,706	0,122	0,055
-313,197	133,639	0,090	0,086
-312,183	-64,370	0,080	0,024
-311,168	-88,185	0,146	-0,032
-310,153	73,274	0,011	-0,008
-309,139	800,000	0,046	-0,104
-308,124	373,661	-0,095	-0,142
-307,110	-23,857	0,063	-0,028
-306,095	-200,000	0,029	0,199
-305,080	-101,993	0,078	0,014
-304,066	473,216	0,014	-0,024
-303,051	77,549	0,014	0,011
-302,037	800,000	0,007	0,016
-301,022	-200,000	0,014	-0,089
-300,008	-200,000	-0,003	-0,063
-298,993	-128,232	0,089	-0,009
-297,978	-129,455	-0,056	-0,006
-296,964	-200,000	-0,013	0,085
-295,949	158,382	-0,038	-0,039
-294,935	-200,000	-0,011	-0,153
-293,920	-178,285	-0,082	0,001
-292,905	-200,000	0,029	-0,115
-291,891	-200,000	-0,000	-0,013
-290,876	555,818	0,023	0,041
-289,862	84,707	-0,014	-0,011
-288,847	-47,159	-0,145	-0,051
-287,832	-1,248	-0,168	-0,086
-286,818	361,291	-0,019	-0,029
-285,803	-126,888	0,047	0,005
-284,789	169,892	0,015	0,015
-283,774	595,954	0,080	0,145
-282,759	172,750	-0,029	-0,031
-281,745	171,062	-0,059	0,062
-280,730	193,436	0,048	0,054
-279,716	84,648	-0,092	0,074
-278,701	615,708	0,030	0,055
-277,686	-26,185	0,098	0,042
-276,672	95,217	0,086	0,072
-275,657	-155,606	-0,130	0,006
-274,643	-128,697	0,103	0,011
-273,628	506,279	-0,031	-0,053
-272,613	-34,201	-0,127	-0,051
-271,599	-84,019	0,065	-0,015
-270,584	-200,000	-0,013	0,072
-269,570	-200,000	-0,008	-0,029
-268,555	-120,783	-0,092	-0,011
-267,540	393,124	0,042	0,063
-266,526	-86,034	-0,063	0,014
-265,511	215,209	0,024	-0,028
-264,497	-200,000	0,011	0,075
-263,482	162,222	0,086	0,088
-262,467	32,823	0,084	0,053
-261,453	16,145	0,150	0,086
-260,438	-148,863	-0,056	-0,003
-259,424	-0,659	0,221	-0,114
-258,409	293,916	-0,016	-0,022
-257,395	481,454	0,031	0,051
-256,380	131,709	-0,138	0,129
-255,365	179,318	0,066	-0,070
-254,351	-66,318	0,121	-0,035
-253,336	383,047	-0,098	-0,148
-252,322	-64,183	-0,111	-0,033
-251,307	-23,375	0,061	0,027
-250,292	15,555	0,035	-0,020
-249,278	-17,643	0,106	0,049
-248,263	-73,832	-0,147	0,039
-247,249	131,305	0,035	-0,033
-246,234	130,121	-0,095	0,089
-245,219	800,000	0,042	-0,088
-244,205	133,995	-0,083	-0,079
-243,190	800,000	0,015	0,034
-242,176	-136,073	0,089	0,008
-241,161	20,111	0,120	0,071
-240,146	-49,777	-0,022	-0,008
-239,132	-200,000	0,008	0,080
-238,117	-29,486	-0,022	-0,009
-237,103	128,822	0,085	-0,079
-236,088	26,435	0,081	0,049
-235,073	737,302	-0,047	0,093
-234,059	-200,000	0,002	-0,132
-233,044	775,946	-0,043	-0,086
-232,030	-200,000	-0,003	0,083
-231,015	-150,206	-0,139	-0,008
-230,000	-59,637	0,117	-0,036
-228,986	339,085	-0,045	0,064
-227,971	-144,488	0,091	-0,006
-226,957	-90,468	0,041	-0,009
-225,942	28,359	0,055	0,034
-224,927	-139,361	-0,079	-0,006
-223,913	-113,275	0,062	0,009
-222,898	-121,454	-0,025	0,003
-221,884	-78,353	-0,157	0,039
-220,869	117,907	0,049	-0,044
-219,855	-148,824	0,100	0,006
-218,840	61,593	-0,029	0,021
-217,825	-200,000	-0,002	0,161
-216,811	28,522	0,061	-0,037
-215,796	-200,000	-0,003	0,033
-214,782	-87,999	0,026	-0,006
-213,767	207,523	0,117	-0,133
-212,752	77,817	0,074	0,057
-211,738	571,338	-0,068	0,122
-210,723	162,779	-0,070	0,072
-209,709	-200,000	0,008	-0,074
-208,694	800,000	-0,045	0,115
-207,679	142,843	0,036	-0,035
-206,665	284,757	0,065	0,085
-205,650	-30,478	0,212	-0,087
-204,636	215,704	0,011	0,013
-203,621	-200,000	0,014	0,161
-202,606	-61,135	-0,094	-0,029
-201,592	-96,967	0,144	0,027
-200,577	800,000	-0,021	0,054
-199,563	-109,259	0,199	0,031
-198,548	-100,066	0,099	0,018
-197,533	-90,474	-0,057	0,012
-196,519	484,381	-0,055	0,092
-195,504	184,554	-0,053	0,057
-194,490	-21,034	-0,122	0,054
-193,475	-200,000	0,002	0,018
-192,460	-200,000	0,000	0,040
-191,446	-200,000	-0,018	0,189
-190,431	-171,440	0,062	0,001
-189,417	-95,411	0,093	-0,018
-188,402	718,816	0,031	-0,060
-187,387	-200,000	0,008	-0,041
-186,373	137,088	0,069	-0,066
-185,358	185,780	-0,072	0,078
-184,344	208,631	-0,011	0,012
-183,329	14,320	0,028	0,016
-182,315	800,000	-0,070	0,150
-181,300	108,924	0,032	-0,028
-180,285	-65,220	-0,098	0,029
-179,271	530,885	0,017	0,030
-178,256	29,323	0,023	-0,014
-177,242	-200,000	-0,007	0,055
-176,227	105,622	-0,068	-0,058
-175,212	-15,397	0,042	0,019
-174,198	-24,804	0,061	0,026
-173,183	-200,000	-0,037	0,149
-172,169	258,283	0,039	-0,049
-171,154	63,616	-0,041	-0,030
-170,139	-200,000	0,001	0,032
-169,125	580,569	0,070	0,125
-168,110	-200,000	-0,002	0,026
-167,096	-18,058	0,087	0,040
-166,081	-200,000	-0,011	0,061
-165,066	160,363	-0,030	-0,031
-164,052	29,225	-0,111	-0,069
-163,037	187,616	0,045	0,049
-162,023	31,267	0,062	0,039
-161,008	11,631	-0,112	-0,062
-159,993	-200,000	0,001	-0,029
-158,979	-193,253	0,081	0,001
-157,964	-17,109	0,078	0,035
-156,950	-200,000	0,014	-0,083
-155,935	86,404	0,094	-0,075
-154,920	-200,000	-0,008	-0,069
-153,906	152,915	0,020	0,020
-152,891	800,000	0,044	-0,110
-151,877	-141,136	-0,052	-0,004
-150,862	220,326	-0,058	0,068
-149,847	627,454	-0,066	-0,121
-148,833	-200,000	-0,015	0,101
-147,818	800,000	0,040	-0,099
-146,804	262,965	0,080	0,102
-145,789	-200,000	-0,023	0,078
-144,775	-200,000	0,016	-0,054
-143,760	-100,879	-0,093	-0,017
-142,745	421,562	-0,065	-0,102
-141,731	31,459	0,081	0,051
-140,716	-121,442	-0,039	0,005
-139,702	46,249	0,029	0,020
-138,687	-200,000	0,019	0,128
-137,672	62,440	-0,061	0,044
-136,658	221,578	-0,073	-0,086
-135,643	84,133	0,059	-0,047
-134,629	-58,816	0,118	0,037
-133,614	393,979	-0,030	0,045
-132,599	72,603	0,098	0,075
-131,585	-200,000	-0,012	-0,058
-130,570	-200,000	-0,021	0,093
-129,556	-5,727	0,094	0,047
-128,541	-87,899	-0,033	0,007
-127,526	140,469	0,082	-0,079
-126,512	-3,601	-0,066	0,033
-125,497	-37,900	0,106	0,041
-124,483	83,968	-0,081	-0,064
-123,468	-114,132	0,101	-0,014
-122,453	285,751	-0,100	-0,131
-121,439	-125,639	-0,077	0,008
-120,424	244,950	-0,071	0,087
-119,410	-200,000	-0,018	0,117
