DTS Sentinel unit serial number:	SN410029Multiplexer serial number:	ORYXHardware model number:	OX2-SRSoftware version number:	ORYX F/W v4,00 Oryx Data Collector v3.7.2.0data status	okinstallation	B6 Nyhavnadifferential loss correction	single-endedforward channel	channel 2reverse channel	N/Adate	2023/12/07time	16:05:08forward acquisition time	300,00reverse acquisition time	0,00gamma	499,1914k internal	0,3164k external	0,3164temperature offset calibration	1,0000default loss term (dB/km)	0,3820temperature slope calibration	1,0000multiplexer offset coefficient	1,0000multiplexer slope coefficient	1,0000fibre end	0,00T internal ref (°C)	14,50T ext. ref 1 (°C)	-2,08T ext. ref 2 (°C)	-2,07length (m)	temperature (°C)	Stokes	anti-Stokes-744,400	-200,000	0,000	0,096
-743,385	-84,789	-0,220	0,050
-742,371	-200,000	0,006	0,066
-741,356	-89,917	-0,281	0,060
-740,342	-200,000	0,008	-0,076
-739,327	-93,709	-0,350	0,070
-738,312	-200,000	0,139	0,000
-737,298	-120,963	-0,254	-0,031
-736,283	-50,441	0,064	0,022
-735,269	-125,232	-0,299	-0,033
-734,254	-176,020	0,123	-0,002
-733,239	-76,109	-0,493	-0,127
-732,225	-42,854	0,156	-0,058
-731,210	264,802	0,035	0,045
-730,196	-200,000	-0,008	0,193
-729,181	35,262	-0,142	-0,092
-728,167	-200,000	0,024	-0,095
-727,152	259,685	-0,020	-0,025
-726,137	97,217	-0,147	-0,124
-725,123	-8,651	-0,069	-0,034
-724,108	800,000	-0,078	-0,184
-723,094	130,608	-0,091	-0,086
-722,079	-69,052	-0,097	-0,027
-721,064	-200,000	-0,006	-0,067
-720,050	-49,890	-0,057	0,020
-719,035	-4,915	0,054	0,027
-718,021	-200,000	-0,006	-0,163
-717,006	-200,000	-0,056	0,000
-715,991	-139,233	-0,146	-0,011
-714,977	353,969	-0,100	-0,146
-713,962	353,602	0,052	-0,076
-712,948	-200,000	-0,024	0,132
-711,933	-158,502	0,112	0,005
-710,918	59,283	-0,114	-0,083
-709,904	-89,891	0,072	-0,015
-708,889	-84,031	-0,053	0,012
-707,875	-200,000	-0,026	-0,177
-706,860	-200,000	-0,010	0,134
-705,845	800,000	-0,015	-0,038
-704,831	31,943	-0,117	0,074
-703,816	116,611	-0,086	0,078
-702,802	-37,400	-0,076	0,030
-701,787	-200,000	-0,014	-0,083
-700,772	54,824	-0,054	0,038
-699,758	800,000	-0,107	-0,221
-698,743	-200,000	0,001	-0,101
-697,729	166,869	-0,025	0,026
-696,714	-46,517	0,038	-0,014
-695,699	24,212	-0,128	-0,077
-694,685	-200,000	-0,026	0,107
-693,670	211,814	0,037	-0,043
-692,656	354,681	-0,066	-0,096
-691,641	199,301	0,115	-0,129
-690,627	87,118	0,102	-0,082
-689,612	29,237	-0,056	-0,035
-688,597	-10,519	-0,089	-0,043
-687,583	40,481	0,094	0,062
-686,568	-118,285	-0,019	0,002
-685,554	800,000	0,022	0,060
-684,539	800,000	-0,035	0,113
-683,524	-110,036	-0,045	0,007
-682,510	6,563	-0,077	-0,042
-681,495	800,000	0,031	-0,079
-680,481	519,038	-0,025	0,043
-679,466	-200,000	0,004	-0,057
-678,451	797,095	-0,018	-0,036
-677,437	24,674	-0,059	-0,036
-676,422	86,299	0,105	0,085
-675,408	36,699	0,030	0,020
-674,393	-14,210	-0,050	0,024
-673,378	-200,000	-0,025	-0,090
-672,364	162,860	-0,080	0,083
-671,349	129,328	-0,149	0,140
-670,335	507,588	0,070	0,120
-669,320	488,011	-0,018	0,030
-668,305	-200,000	0,001	0,125
-667,291	263,471	-0,048	-0,061
-666,276	-200,000	-0,024	-0,117
-665,262	-200,000	-0,000	-0,124
-664,247	-51,208	0,082	0,028
-663,232	-80,076	-0,073	-0,018
-662,218	-200,000	0,009	0,073
-661,203	-115,669	0,072	0,010
-660,189	-200,000	0,011	-0,052
-659,174	250,072	-0,040	-0,050
-658,159	-109,815	-0,082	0,012
-657,145	-138,934	0,028	0,002
-656,130	-0,009	-0,137	-0,072
-655,116	17,068	0,129	0,075
-654,101	52,878	0,012	-0,008
-653,086	800,000	-0,031	-0,097
-652,072	13,025	-0,121	-0,069
-651,057	27,845	-0,168	-0,103
-650,043	96,776	0,057	-0,048
-649,028	-148,191	0,044	0,003
-648,014	73,517	0,088	-0,067
-646,999	326,468	-0,036	-0,051
-645,984	-22,251	0,058	-0,025
-644,970	229,732	-0,078	-0,093
-643,955	-200,000	0,022	-0,090
-642,941	-119,822	-0,061	-0,008
-641,926	-128,862	0,062	-0,006
-640,911	210,536	-0,010	0,011
-639,897	114,868	-0,044	0,039
-638,882	111,467	-0,083	0,074
-637,868	9,953	0,132	0,073
-636,853	-200,000	-0,006	-0,022
-635,838	-200,000	0,006	-0,169
-634,824	55,102	0,059	-0,042
-633,809	-55,579	0,125	0,041
-632,795	800,000	0,051	0,110
-631,780	-137,327	-0,170	-0,014
-630,765	138,876	-0,090	0,087
-629,751	-147,477	-0,177	-0,011
-628,736	148,429	-0,094	0,093
-627,722	800,000	-0,022	0,049
-626,707	9,089	0,114	0,063
-625,692	-124,750	-0,044	0,005
-624,678	790,295	-0,040	-0,081
-623,663	168,344	-0,067	0,070
-622,649	-200,000	0,014	-0,090
-621,634	-41,861	-0,034	0,013
-620,619	261,843	0,091	-0,115
-619,605	360,464	0,018	-0,026
-618,590	70,914	0,081	-0,062
-617,576	67,232	-0,056	0,041
-616,561	425,129	0,024	-0,038
-615,546	-12,740	-0,054	0,026
-614,532	-74,536	-0,091	0,024
-613,517	-122,313	-0,041	-0,005
-612,503	53,405	0,040	-0,028
-611,488	-200,000	0,014	0,050
-610,474	800,000	0,029	0,087
-609,459	-200,000	0,012	0,058
-608,444	438,939	-0,064	0,103
-607,430	800,000	0,030	-0,089
-606,415	42,610	-0,087	-0,058
-605,401	697,467	-0,021	0,040
-604,386	103,899	0,075	-0,064
-603,371	-200,000	-0,015	-0,119
-602,357	111,794	0,010	0,009
-601,342	-81,365	-0,113	-0,027
-600,328	-147,222	-0,141	0,009
-599,313	-200,000	-0,008	0,077
-598,298	89,072	-0,090	-0,073
-597,284	-71,034	0,153	0,042
-596,269	-200,000	-0,003	-0,020
-595,255	230,482	0,058	0,069
-594,240	-200,000	0,012	0,076
-593,225	800,000	-0,057	-0,124
-592,211	329,097	-0,067	0,095
-591,196	-200,000	0,056	0,000
-590,182	-87,640	0,079	0,017
-589,167	37,040	-0,070	0,045
-588,152	-31,505	0,067	-0,028
-587,138	800,000	-0,036	0,116
-586,123	-105,163	-0,023	-0,004
-585,109	-200,000	0,007	0,075
-584,094	10,971	-0,121	-0,068
-583,079	-66,717	-0,085	0,024
-582,065	-176,084	0,059	0,001
-581,050	-90,726	0,144	-0,030
-580,036	329,326	-0,028	0,039
-579,021	-171,241	-0,207	0,005
-578,006	35,204	-0,165	-0,106
-576,992	144,854	-0,039	0,038
-575,977	121,784	-0,094	0,086
-574,963	-200,000	-0,004	0,049
-573,948	358,075	0,021	-0,031
-572,934	-126,738	-0,133	0,014
-571,919	-20,938	-0,137	0,061
-570,904	-200,000	0,003	-0,040
-569,890	-200,000	0,016	0,070
-568,875	-93,341	-0,093	0,019
-567,861	108,103	0,048	0,042
-566,846	-200,000	-0,030	0,123
-565,831	-200,000	0,021	0,077
-564,817	74,554	-0,091	0,070
-563,802	-200,000	-0,004	-0,054
-562,788	249,759	-0,071	-0,088
-561,773	-200,000	-0,062	0,208
-560,758	800,000	0,023	0,074
-559,744	50,068	0,128	0,088
-558,729	-200,000	0,002	0,065
-557,715	165,347	-0,034	-0,035
-556,700	-144,113	-0,046	-0,003
-555,685	800,000	-0,012	-0,036
-554,671	800,000	0,020	-0,053
-553,656	138,209	0,097	0,093
-552,642	-7,125	0,046	0,023
-551,627	-69,249	-0,111	-0,031
-550,612	34,788	0,039	0,025
-549,598	800,000	-0,017	0,046
-548,583	0,979	-0,063	0,033
-547,569	295,708	-0,038	0,051
-546,554	-24,169	0,067	0,029
-545,539	-200,000	-0,001	0,066
-544,525	130,642	0,077	0,072
-543,510	2,819	-0,074	-0,039
-542,496	-200,000	-0,016	-0,129
-541,481	-33,935	0,126	-0,051
-540,466	158,574	-0,016	0,016
-539,452	-200,000	-0,013	0,048
-538,437	59,704	0,136	0,098
-537,423	800,000	0,047	0,118
-536,408	800,000	-0,023	-0,073
-535,393	-200,000	0,003	0,019
-534,379	-200,000	0,026	-0,257
-533,364	-10,593	0,035	0,017
-532,350	551,130	0,038	-0,067
-531,335	-53,107	0,007	0,002
-530,321	15,032	0,084	0,048
-529,306	29,565	-0,083	0,052
-528,291	246,017	0,060	0,074
-527,277	-3,927	0,121	0,061
-526,262	278,386	-0,123	0,160
-525,248	-200,000	-0,002	-0,032
-524,233	-200,000	-0,016	-0,077
-523,218	-33,490	-0,085	0,034
-522,204	-200,000	-0,015	-0,132
-521,189	-200,000	0,007	-0,044
-520,175	-37,868	-0,092	0,036
-519,160	-200,000	-0,003	-0,072
-518,145	73,376	-0,033	0,025
-517,131	223,865	-0,052	0,061
-516,116	800,000	-0,066	0,157
-515,102	-200,000	-0,026	0,114
-514,087	-89,857	0,143	-0,030
-513,072	-200,000	-0,011	-0,177
-512,058	176,194	-0,049	0,052
-511,043	-49,041	0,153	0,053
-510,029	-105,314	0,178	-0,029
-509,014	91,874	-0,102	-0,083
-507,999	-157,764	0,025	-0,001
-506,985	158,129	0,014	0,014
-505,970	704,976	-0,082	-0,158
-504,956	-200,000	0,050	-0,180
-503,941	349,120	0,054	-0,077
-502,926	-200,000	-0,006	-0,124
-501,912	-44,668	0,154	-0,056
-500,897	-200,000	-0,027	-0,170
-499,883	800,000	0,023	0,054
-498,868	492,204	-0,044	0,073
-497,853	800,000	0,019	-0,040
-496,839	205,089	0,061	0,070
-495,824	55,501	-0,019	0,014
-494,810	641,128	0,050	0,093
-493,795	-101,979	-0,029	0,005
-492,781	53,992	-0,030	0,021
-491,766	-200,000	-0,018	-0,057
-490,751	602,127	0,016	-0,029
-489,737	65,091	-0,152	-0,112
-488,722	367,442	0,039	0,057
-487,708	-200,000	-0,020	0,085
-486,693	56,442	-0,100	0,070
-485,678	-200,000	0,038	-0,158
-484,664	-200,000	0,041	-0,170
-483,649	-200,000	-0,003	0,087
-482,635	-61,912	0,136	0,041
-481,620	641,005	0,069	0,128
-480,605	-200,000	0,005	-0,079
-479,591	113,236	-0,098	-0,086
-478,576	221,731	-0,049	-0,057
-477,562	-55,991	0,180	0,058
-476,547	179,955	-0,161	-0,172
-475,532	-83,926	-0,075	-0,017
-474,518	435,574	-0,068	-0,107
-473,503	-74,437	0,112	-0,029
-472,489	420,873	-0,047	-0,074
-471,474	444,074	-0,023	0,036
-470,459	-15,872	0,037	0,017
-469,445	-200,000	-0,014	0,058
-468,430	157,014	-0,077	0,077
-467,416	658,902	-0,055	-0,103
-466,401	32,693	0,112	-0,070
-465,386	-16,790	0,123	0,056
-464,372	800,000	-0,024	0,060
-463,357	30,778	-0,021	0,013
-462,343	-132,054	-0,130	-0,012
-461,328	-71,322	-0,063	0,017
-460,313	-149,092	0,054	-0,003
-459,299	-131,840	0,134	0,013
-458,284	800,000	-0,049	0,120
-457,270	-87,743	-0,172	-0,037
-456,255	800,000	-0,036	-0,114
-455,241	62,436	0,098	-0,071
-454,226	440,550	-0,048	0,076
-453,211	608,426	0,047	0,085
-452,197	-200,000	0,025	0,109
-451,182	286,830	0,050	-0,066
-450,168	-85,354	0,135	0,030
-449,153	311,623	0,019	-0,026
-448,138	800,000	-0,048	-0,125
-447,124	48,180	0,095	-0,064
-446,109	59,637	-0,067	0,048
-445,095	-47,580	0,074	0,026
-444,080	-8,069	0,089	0,044
-443,065	26,714	-0,056	0,034
-442,051	122,120	0,039	0,036
-441,036	175,023	0,044	-0,046
-440,022	666,478	-0,079	-0,149
-439,007	-93,553	0,139	-0,028
-437,992	799,793	-0,008	-0,016
-436,978	-38,356	0,035	0,013
-435,963	-141,910	-0,139	0,010
-434,949	800,000	0,020	-0,063
-433,934	-200,000	-0,007	0,067
-432,919	182,488	-0,025	-0,026
-431,905	-74,639	-0,067	0,017
-430,890	-26,900	0,075	0,032
-429,876	7,457	0,106	-0,057
-428,861	-55,801	0,123	0,040
-427,846	-200,000	-0,023	-0,077
-426,832	-6,875	-0,156	-0,077
-425,817	-200,000	-0,004	0,139
-424,803	-41,697	0,055	0,020
-423,788	-47,295	0,152	0,053
-422,773	646,888	-0,025	0,046
-421,759	800,000	-0,038	0,104
-420,744	800,000	-0,030	0,079
-419,730	88,462	0,080	0,065
-418,715	-200,000	-0,007	-0,029
-417,701	39,012	-0,023	0,015
-416,686	21,670	0,059	-0,035
-415,671	-200,000	-0,033	0,126
-414,657	-29,861	0,033	-0,013
-413,642	-80,193	-0,085	0,020
-412,628	-200,000	0,055	0,000
-411,613	800,000	-0,058	-0,139
-410,598	264,801	0,025	-0,031
-409,584	0,169	0,039	-0,020
-408,569	48,092	0,038	-0,026
-407,555	-200,000	0,006	0,031
-406,540	800,000	0,046	-0,129
-405,525	116,609	0,064	-0,057
-404,511	-200,000	0,018	-0,065
-403,496	-18,035	-0,108	-0,049
-402,482	50,146	-0,060	0,041
-401,467	60,268	0,064	0,046
-400,452	135,699	0,106	0,100
-399,438	-200,000	0,011	-0,045
-398,423	-42,840	0,019	0,007
-397,409	-43,935	-0,113	-0,041
-396,394	272,968	-0,050	-0,064
-395,379	-200,000	0,019	0,094
-394,365	-135,356	0,102	-0,009
-393,350	43,737	-0,059	0,039
-392,336	26,436	-0,137	-0,083
-391,321	-200,000	-0,013	-0,090
-390,306	-200,000	-0,013	-0,072
-389,292	-92,474	0,034	0,007
-388,277	79,429	0,035	0,027
-387,263	-93,185	-0,080	0,016
-386,248	-200,000	0,003	0,033
-385,233	13,625	-0,099	0,056
-384,219	-61,430	0,111	0,034
-383,204	-172,721	-0,127	0,003
-382,190	146,552	-0,086	0,084
-381,175	-117,550	0,157	0,020
-380,160	5,964	0,133	-0,071
-379,146	-200,000	-0,005	-0,095
-378,131	494,816	-0,069	0,116
-377,117	-200,000	-0,009	0,112
-376,102	-26,757	-0,064	-0,027
-375,088	354,751	0,047	-0,069
-374,073	-135,208	-0,125	-0,011
-373,058	98,580	0,034	0,028
-372,044	167,671	-0,072	0,074
-371,029	211,992	-0,090	0,103
-370,015	260,169	0,068	0,086
-369,000	800,000	0,024	-0,058
-367,985	-62,546	-0,106	0,032
-366,971	-66,482	-0,073	0,021
-365,956	800,000	0,022	-0,058
-364,942	-200,000	0,025	-0,119
-363,927	-131,051	-0,060	-0,006
-362,912	58,841	0,090	-0,064
-361,898	-200,000	0,013	0,047
-360,883	800,000	-0,024	-0,067
-359,869	198,944	0,028	0,032
-358,854	-0,297	0,198	0,102
-357,839	-46,805	-0,027	0,010
-356,825	634,833	0,064	-0,119
-355,810	800,000	-0,032	-0,065
-354,796	-19,744	-0,020	0,009
-353,781	-31,074	0,121	0,049
-352,766	-127,931	-0,131	-0,013
-351,752	48,136	0,135	-0,091
-350,737	15,416	0,102	0,058
-349,723	800,000	0,038	0,108
-348,708	603,372	0,066	0,119
-347,693	800,000	-0,024	0,060
-346,679	-44,814	-0,092	0,033
-345,664	-25,169	-0,048	-0,020
-344,650	-179,726	0,044	0,001
-343,635	27,619	-0,156	0,095
-342,620	41,841	0,035	0,023
-341,606	-189,203	-0,055	0,000
-340,591	294,651	0,040	-0,053
-339,577	243,085	-0,065	-0,079
-338,562	586,699	0,030	0,054
-337,548	-3,805	-0,070	-0,035
-336,533	800,000	0,045	-0,094
-335,518	416,514	-0,037	0,058
-334,504	295,617	0,080	-0,107
-333,489	27,101	-0,098	-0,059
-332,475	478,726	0,054	-0,088
-331,460	-60,472	-0,058	0,018
-330,445	-193,556	0,032	-0,000
-329,431	-19,700	0,129	-0,058
-328,416	800,000	0,036	0,078
-327,402	-1,950	0,035	0,018
-326,387	91,683	-0,086	-0,070
-325,372	278,752	-0,117	0,152
-324,358	259,778	0,005	0,006
-323,343	-144,117	-0,118	0,008
-322,329	-134,022	0,197	0,017
-321,314	-200,000	-0,012	-0,044
-320,299	564,617	0,093	-0,164
-319,285	111,836	-0,056	0,049
-318,270	-200,000	-0,000	-0,110
-317,256	63,740	0,014	-0,010
-316,241	800,000	0,053	-0,164
-315,226	45,870	-0,075	-0,050
-314,212	-124,066	-0,135	0,015
-313,197	123,809	0,041	-0,037
-312,183	789,294	0,052	-0,103
-311,168	217,852	-0,029	0,034
-310,153	800,000	-0,023	0,053
-309,139	-200,000	-0,005	-0,071
-308,124	339,396	-0,047	-0,067
-307,110	441,297	0,038	-0,061
-306,095	-71,118	0,098	0,026
-305,080	105,061	-0,094	0,080
-304,066	263,872	0,046	-0,058
-303,051	115,352	-0,097	0,086
-302,037	38,554	0,087	0,056
-301,022	163,980	0,076	0,078
-300,008	-118,436	0,121	-0,015
-298,993	-200,000	0,011	-0,074
-297,978	-45,369	-0,049	-0,018
-296,964	-200,000	0,024	0,105
-295,949	61,676	-0,083	-0,059
-294,935	84,361	0,059	-0,047
-293,920	-162,069	-0,075	-0,003
-292,905	-200,000	-0,004	0,223
-291,891	148,551	0,063	0,062
-290,876	-117,254	0,070	0,009
-289,862	800,000	0,005	-0,014
-288,847	346,442	-0,090	-0,129
-287,832	-65,257	0,013	-0,004
-286,818	-77,775	-0,106	0,026
-285,803	-200,000	-0,011	0,037
-284,789	122,132	0,085	0,076
-283,774	-0,738	0,060	0,031
-282,759	-200,000	-0,004	-0,063
-281,745	-200,000	0,020	-0,075
-280,730	76,884	0,014	-0,011
-279,716	-200,000	0,002	0,009
-278,701	-123,513	0,102	0,012
-277,686	800,000	0,073	0,151
-276,672	579,123	-0,024	0,042
-275,657	-19,323	-0,057	-0,025
-274,643	800,000	-0,058	-0,170
-273,628	-200,000	-0,056	-0,179
-272,613	-163,269	0,104	-0,004
-271,599	-200,000	0,023	0,086
-270,584	-166,963	0,131	0,004
-269,570	-90,654	-0,088	0,018
-268,555	-200,000	0,028	-0,104
-267,540	148,736	-0,035	-0,034
-266,526	800,000	0,050	-0,103
-265,511	800,000	0,030	-0,081
-264,497	-56,113	0,080	-0,026
-263,482	-133,674	0,216	0,019
-262,467	-200,000	-0,002	-0,084
-261,453	-104,494	-0,135	0,022
-260,438	-145,122	0,126	0,008
-259,424	376,706	-0,011	-0,016
-258,409	-59,013	-0,139	-0,043
-257,395	3,330	0,047	0,025
-256,380	-200,000	-0,010	0,103
-255,365	-72,603	-0,096	0,026
-254,351	-22,589	0,141	0,061
-253,336	-59,479	0,063	0,019
-252,322	30,901	-0,110	-0,068
-251,307	-61,198	-0,105	0,032
-250,292	-200,000	0,002	0,043
-249,278	-200,000	0,026	0,132
-248,263	800,000	-0,020	0,043
-247,249	-120,265	-0,086	-0,010
-246,234	81,263	-0,088	0,068
-245,219	224,289	-0,037	0,043
-244,205	588,502	0,023	0,041
-243,190	61,365	0,069	-0,049
-242,176	33,766	0,044	-0,028
-241,161	-200,000	0,029	0,180
-240,146	-93,999	0,063	0,012
-239,132	10,127	-0,089	-0,049
-238,117	221,399	-0,062	-0,072
-237,103	-100,698	-0,164	-0,029
-236,088	800,000	0,080	0,166
-235,073	19,807	0,079	0,046
-234,059	-200,000	0,001	0,116
-233,044	800,000	0,014	0,044
-232,030	162,998	-0,028	-0,029
-231,015	-188,267	0,143	-0,001
-230,000	-200,000	-0,010	-0,054
-228,986	-200,000	0,016	0,171
-227,971	-23,098	0,020	-0,009
-226,957	-200,000	-0,032	0,225
-225,942	-32,857	-0,055	0,022
-224,927	345,501	0,043	0,060
-223,913	0,544	-0,112	-0,057
-222,898	-200,000	-0,012	0,100
-221,884	-109,844	-0,077	0,012
-220,869	376,132	0,104	-0,154
-219,855	800,000	0,017	-0,038
-218,840	-122,040	0,097	-0,011
-217,825	-20,674	0,041	0,018
-216,811	-148,777	0,042	0,002
-215,796	-118,465	0,099	0,012
-214,782	-94,450	-0,101	-0,020
-213,767	-49,761	-0,155	-0,053
-212,752	-200,000	0,017	0,104
-211,738	-107,023	0,142	-0,022
-210,723	800,000	0,035	-0,095
-209,709	-200,000	0,012	-0,076
-208,694	-146,377	-0,069	-0,004
-207,679	-105,167	0,073	-0,012
-206,665	-62,164	0,110	0,033
-205,650	-80,956	0,104	-0,025
-204,636	-84,710	-0,033	-0,007
-203,621	-117,893	0,078	-0,010
-202,606	-200,000	-0,035	-0,119
-201,592	62,091	-0,111	-0,079
-200,577	94,827	-0,059	0,048
-199,563	-200,000	0,036	0,197
-198,548	-200,000	0,002	-0,188
-197,533	-66,148	0,114	-0,032
-196,519	112,602	0,025	0,022
-195,504	57,449	-0,141	-0,099
-194,490	466,190	0,035	-0,057
-193,475	-167,445	-0,096	0,003
-192,460	401,670	0,048	-0,074
-191,446	171,928	0,029	0,030
-190,431	128,509	0,042	0,039
-189,417	-186,607	-0,046	0,000
-188,402	800,000	-0,015	0,035
-187,387	161,958	-0,078	-0,078
-186,373	-162,103	-0,045	-0,002
-185,358	-200,000	-0,037	0,155
-184,344	-37,825	0,047	0,018
-183,329	440,065	0,047	0,074
-182,315	800,000	-0,011	-0,029
-181,300	-88,015	-0,083	0,018
-180,285	-200,000	-0,008	-0,030
-179,271	398,275	-0,125	-0,190
-178,256	-200,000	0,021	0,075
-177,242	116,065	0,076	-0,067
-176,227	-59,578	0,117	0,036
-175,212	279,578	0,036	0,046
-174,198	147,798	0,051	-0,049
-173,183	605,663	-0,041	-0,074
-172,169	-200,000	-0,020	-0,066
-171,154	-19,409	0,092	0,041
-170,139	-163,903	0,058	-0,002
-169,125	6,390	0,111	0,059
-168,110	-138,754	0,074	-0,006
-167,096	-200,000	0,012	-0,048
-166,081	50,889	-0,118	0,080
-165,066	-200,000	-0,013	0,103
-164,052	-114,335	-0,094	0,013
-163,037	-181,556	-0,093	-0,001
-162,023	199,005	-0,052	0,058
-161,008	-200,000	0,017	0,139
-159,993	147,384	0,079	-0,077
-158,979	162,692	-0,039	-0,039
-157,964	120,372	-0,103	-0,092
-156,950	-6,096	-0,076	-0,037
-155,935	207,864	0,044	0,049
-154,920	60,113	0,095	-0,067
-153,906	104,346	0,033	-0,028
-152,891	-200,000	-0,035	-0,143
-151,877	-64,511	-0,141	-0,041
-150,862	-200,000	0,007	0,134
-149,847	-155,351	0,031	0,001
-148,833	800,000	0,017	-0,048
-147,818	56,857	0,076	0,053
-146,804	63,717	0,088	0,064
-145,789	-26,285	-0,017	0,007
-144,775	-200,000	0,010	-0,062
-143,760	-200,000	0,003	-0,122
-142,745	-61,412	-0,075	-0,023
-141,731	800,000	-0,035	-0,095
-140,716	434,701	-0,014	0,021
-139,702	-42,124	0,123	-0,045
-138,687	-104,335	0,042	-0,007
-137,672	-200,000	-0,009	-0,037
-136,658	800,000	0,047	-0,101
-135,643	-67,706	-0,217	-0,061
-134,629	-188,708	-0,091	0,001
-133,614	-14,145	0,096	-0,044
-132,599	118,048	0,062	0,055
-131,585	800,000	-0,037	0,078
-130,570	-12,967	0,134	-0,062
-129,556	372,277	-0,081	-0,119
-128,541	-200,000	0,002	-0,070
-127,526	-59,088	-0,032	0,010
-126,512	9,354	-0,070	0,038
-125,497	250,537	0,042	0,051
-124,483	-55,960	0,011	-0,003
-123,468	130,026	-0,068	-0,062
-122,453	235,618	-0,087	-0,103
-121,439	-200,000	-0,017	-0,223
-120,424	800,000	-0,040	-0,090
-119,410	97,440	0,081	-0,067
