DTS Sentinel unit serial number:	SN410029Multiplexer serial number:	ORYXHardware model number:	OX2-SRSoftware version number:	ORYX F/W v4,00 Oryx Data Collector v3.7.2.0data status	okinstallation	B6 Nyhavnadifferential loss correction	single-endedforward channel	channel 2reverse channel	N/Adate	2023/12/09time	04:40:08forward acquisition time	300,00reverse acquisition time	0,00gamma	499,1914k internal	0,3146k external	0,3146temperature offset calibration	1,0000default loss term (dB/km)	0,3820temperature slope calibration	1,0000multiplexer offset coefficient	1,0000multiplexer slope coefficient	1,0000fibre end	0,00T internal ref (°C)	17,22T ext. ref 1 (°C)	1,80T ext. ref 2 (°C)	1,82length (m)	temperature (°C)	Stokes	anti-Stokes-744,400	250,557	0,083	-0,105
-743,385	30,770	-0,178	0,112
-742,371	-45,749	0,127	0,046
-741,356	-118,783	-0,361	0,046
-740,342	-122,596	0,191	-0,023
-739,327	7,095	-0,310	-0,171
-738,312	-200,000	-0,038	-0,147
-737,298	-58,802	-0,325	-0,103
-736,283	283,607	0,020	-0,027
-735,269	-144,685	-0,284	0,019
-734,254	-61,524	0,031	0,010
-733,239	-104,369	-0,464	-0,079
-732,225	-78,435	0,258	0,065
-731,210	184,792	-0,043	0,047
-730,196	800,000	0,013	-0,027
-729,181	111,785	-0,037	0,033
-728,167	-200,000	-0,003	0,074
-727,152	-7,987	-0,113	0,056
-726,137	-137,741	-0,098	0,008
-725,123	-134,695	0,076	-0,007
-724,108	800,000	-0,053	-0,120
-723,094	-129,677	-0,135	-0,014
-722,079	18,718	-0,049	-0,029
-721,064	800,000	0,045	-0,108
-720,050	-161,313	-0,126	-0,005
-719,035	72,913	-0,042	-0,032
-718,021	127,127	-0,022	0,020
-717,006	-65,050	-0,194	-0,058
-715,991	-200,000	-0,140	0,000
-714,977	-81,941	-0,075	0,018
-713,962	27,326	0,142	-0,088
-712,948	691,779	-0,093	-0,181
-711,933	-200,000	0,015	-0,151
-710,918	-200,000	0,006	-0,105
-709,904	50,247	-0,071	-0,049
-708,889	800,000	0,064	-0,163
-707,875	-119,063	-0,125	0,016
-706,860	153,528	0,006	0,006
-705,845	-108,966	-0,020	0,003
-704,831	-200,000	-0,006	0,051
-703,816	5,869	-0,069	-0,037
-702,802	161,730	-0,072	-0,074
-701,787	-58,826	-0,146	-0,047
-700,772	145,002	-0,035	-0,035
-699,758	800,000	-0,012	0,030
-698,743	-85,101	0,129	-0,030
-697,729	-68,598	0,125	0,035
-696,714	-156,665	0,134	-0,006
-695,699	-123,269	-0,074	0,009
-694,685	-200,000	-0,013	-0,059
-693,670	-128,749	-0,086	0,009
-692,656	-200,000	0,013	-0,113
-691,641	800,000	0,027	-0,062
-690,627	54,367	0,078	0,055
-689,612	-88,974	-0,029	0,006
-688,597	-111,313	-0,053	-0,008
-687,583	800,000	0,025	0,066
-686,568	38,678	-0,088	-0,058
-685,554	335,211	-0,023	-0,033
-684,539	-31,318	-0,046	-0,019
-683,524	2,506	-0,002	-0,001
-682,510	53,184	0,063	0,044
-681,495	433,939	-0,064	-0,103
-680,481	-200,000	0,004	0,035
-679,466	-200,000	0,012	-0,083
-678,451	800,000	-0,045	0,095
-677,437	130,619	-0,046	-0,043
-676,422	287,528	0,036	-0,049
-675,408	800,000	-0,043	0,103
-674,393	-200,000	-0,015	0,106
-673,378	22,776	0,061	-0,037
-672,364	92,356	-0,090	-0,074
-671,349	-82,509	0,037	0,009
-670,335	-200,000	-0,025	0,108
-669,320	-61,402	0,195	-0,060
-668,305	800,000	-0,050	0,127
-667,291	7,257	-0,039	0,021
-666,276	800,000	-0,045	-0,114
-665,262	-200,000	-0,010	-0,220
-664,247	176,248	-0,055	-0,059
-663,232	187,642	-0,056	-0,062
-662,218	-200,000	-0,012	-0,058
-661,203	-197,489	0,095	-0,000
-660,189	92,934	-0,088	-0,073
-659,174	800,000	-0,025	0,055
-658,159	800,000	-0,028	-0,071
-657,145	-0,310	-0,052	0,027
-656,130	49,130	0,036	0,025
-655,116	-102,381	-0,049	-0,009
-654,101	-129,595	-0,039	-0,004
-653,086	165,143	-0,091	0,095
-652,072	800,000	-0,024	-0,076
-651,057	-200,000	-0,009	-0,066
-650,043	800,000	0,027	0,073
-649,028	-127,343	0,049	-0,005
-648,014	800,000	0,027	-0,076
-646,999	342,510	0,043	0,062
-645,984	287,597	0,030	-0,040
-644,970	39,618	-0,066	0,044
-643,955	-10,777	-0,136	0,066
-642,941	-91,080	0,057	0,012
-641,926	-200,000	0,024	-0,097
-640,911	-102,062	-0,045	0,008
-639,897	-114,211	0,069	0,010
-638,882	737,280	-0,038	-0,075
-637,868	232,476	-0,040	-0,049
-636,853	-200,000	0,004	0,105
-635,838	-118,475	0,095	-0,012
-634,824	-121,523	0,063	0,008
-633,809	521,716	0,045	-0,079
-632,795	57,379	-0,066	-0,047
-631,780	340,682	0,064	-0,092
-630,765	-127,058	-0,057	0,006
-629,751	71,688	-0,066	-0,050
-628,736	-200,000	0,007	-0,060
-627,722	800,000	-0,014	0,035
-626,707	157,115	-0,086	-0,087
-625,692	-200,000	-0,028	0,178
-624,678	-19,858	-0,105	-0,047
-623,663	513,005	0,014	0,024
-622,649	14,368	-0,047	0,027
-621,634	340,196	0,025	-0,036
-620,619	91,239	-0,036	0,029
-619,605	800,000	-0,023	-0,067
-618,590	-29,410	-0,042	0,018
-617,576	-40,170	0,097	-0,037
-616,561	30,985	0,102	-0,064
-615,546	-114,029	-0,147	-0,021
-614,532	-68,673	0,019	0,006
-613,517	49,932	0,032	0,022
-612,503	-200,000	-0,006	-0,070
-611,488	-97,331	0,048	-0,009
-610,474	755,011	-0,049	0,098
-609,459	-126,389	-0,043	0,005
-608,444	199,770	-0,095	-0,108
-607,430	188,771	0,022	-0,024
-606,415	519,660	-0,055	-0,095
-605,401	-10,664	-0,103	-0,050
-604,386	61,452	0,041	-0,030
-603,371	800,000	-0,036	0,084
-602,357	-132,980	-0,167	-0,015
-601,342	764,830	-0,036	0,073
-600,328	295,951	-0,090	-0,122
-599,313	-200,000	-0,027	-0,174
-598,298	177,436	0,038	-0,040
-597,284	-38,421	0,130	-0,050
-596,269	-70,020	0,047	-0,013
-595,255	-200,000	0,074	0,000
-594,240	338,861	0,023	0,033
-593,225	-200,000	0,031	-0,107
-592,211	-27,385	0,064	-0,027
-591,196	112,563	0,123	0,110
-590,182	-0,282	-0,085	0,045
-589,167	800,000	0,027	0,089
-588,152	800,000	-0,035	0,077
-587,138	-200,000	0,023	0,100
-586,123	800,000	-0,023	0,071
-585,109	165,612	-0,014	-0,015
-584,094	-128,228	0,052	-0,005
-583,079	-69,028	0,052	0,015
-582,065	739,152	-0,081	0,162
-581,050	716,740	-0,135	-0,265
-580,036	126,270	-0,054	-0,050
-579,021	-200,000	0,015	-0,140
-578,006	26,457	-0,043	-0,027
-576,992	-200,000	0,002	0,027
-575,977	-42,709	-0,076	0,028
-574,963	-200,000	0,004	-0,091
-573,948	270,170	-0,094	0,122
-572,934	50,643	0,082	0,057
-571,919	-200,000	-0,045	-0,216
-570,904	-175,165	-0,052	-0,001
-569,890	-72,828	-0,086	0,023
-568,875	-200,000	0,023	0,137
-567,861	132,496	-0,018	-0,017
-566,846	-200,000	-0,034	-0,120
-565,831	112,692	0,105	0,094
-564,817	-3,818	-0,119	0,061
-563,802	763,951	0,061	-0,122
-562,788	-177,573	-0,139	-0,002
-561,773	220,119	-0,016	0,019
-560,758	800,000	0,055	0,168
-559,744	36,858	0,111	0,072
-558,729	-172,983	-0,153	-0,003
-557,715	800,000	-0,031	-0,091
-556,700	-200,000	0,028	-0,102
-555,685	56,027	0,015	-0,011
-554,671	655,508	-0,038	-0,072
-553,656	-160,112	0,041	-0,002
-552,642	-170,853	0,033	-0,001
-551,627	-151,056	-0,070	0,004
-550,612	-85,305	-0,103	0,023
-549,598	26,457	0,084	0,052
-548,583	-200,000	0,043	-0,147
-547,569	-64,827	-0,067	-0,020
-546,554	-125,164	0,019	-0,002
-545,539	61,677	0,125	0,091
-544,525	285,407	0,097	-0,128
-543,510	230,016	0,034	-0,041
-542,496	-200,000	-0,014	-0,105
-541,481	800,000	-0,014	-0,030
-540,466	-200,000	-0,014	0,051
-539,452	201,483	0,027	0,031
-538,437	-70,703	0,074	-0,020
-537,423	-22,908	-0,130	0,057
-536,408	-101,973	-0,126	0,022
-535,393	60,937	0,068	-0,049
-534,379	98,666	0,049	-0,041
-533,364	409,175	0,043	0,068
-532,350	212,958	0,029	-0,034
-531,335	-118,063	0,068	0,009
-530,321	-200,000	-0,005	0,043
-529,306	800,000	-0,056	-0,115
-528,291	221,232	0,035	-0,042
-527,277	-168,284	0,117	0,003
-526,262	404,354	0,024	-0,038
-525,248	-200,000	0,002	-0,116
-524,233	41,647	-0,133	-0,088
-523,218	-200,000	0,020	0,095
-522,204	222,114	0,070	0,082
-521,189	-200,000	-0,011	-0,095
-520,175	652,957	-0,059	-0,111
-519,160	-200,000	0,008	-0,152
-518,145	160,187	0,036	-0,037
-517,131	-200,000	-0,008	0,054
-516,116	-200,000	-0,007	-0,036
-515,102	399,525	0,091	-0,140
-514,087	161,081	-0,039	-0,040
-513,072	797,516	-0,062	-0,125
-512,058	-30,170	0,137	-0,057
-511,043	125,519	-0,059	0,054
-510,029	800,000	0,052	0,126
-509,014	800,000	0,054	0,120
-507,999	-14,156	0,024	-0,011
-506,985	44,355	-0,049	0,033
-505,970	-51,520	-0,083	-0,028
-504,956	72,419	0,102	-0,078
-503,941	116,370	-0,020	0,018
-502,926	-137,119	0,145	-0,012
-501,912	-146,325	-0,050	0,003
-500,897	-200,000	-0,027	0,094
-499,883	110,984	0,080	0,071
-498,868	63,812	-0,175	-0,128
-497,853	206,563	0,173	-0,198
-496,839	-200,000	-0,005	0,118
-495,824	106,161	0,048	0,042
-494,810	-129,531	-0,042	0,004
-493,795	220,619	-0,071	0,083
-492,781	30,364	-0,048	-0,030
-491,766	-200,000	0,026	-0,128
-490,751	800,000	-0,065	-0,139
-489,737	-164,615	0,094	0,003
-488,722	-86,856	0,122	0,027
-487,708	-21,613	0,012	0,005
-486,693	-200,000	-0,000	-0,163
-485,678	62,000	-0,055	-0,040
-484,664	800,000	0,037	-0,098
-483,649	13,401	-0,094	0,053
-482,635	-200,000	0,004	-0,018
-481,620	-200,000	0,018	0,172
-480,605	-121,548	-0,141	0,017
-479,591	-145,799	0,083	0,005
-478,576	371,960	-0,107	-0,159
-477,562	-101,995	-0,129	0,023
-476,547	364,180	-0,041	0,061
-475,532	698,946	-0,028	-0,054
-474,518	-200,000	0,003	-0,125
-473,503	-200,000	-0,003	-0,036
-472,489	-169,651	0,162	0,004
-471,474	-200,000	-0,018	-0,071
-470,459	-200,000	-0,008	0,086
-469,445	30,279	-0,046	-0,029
-468,430	-95,562	-0,120	-0,023
-467,416	-200,000	-0,010	0,078
-466,401	800,000	0,026	0,056
-465,386	424,748	0,031	-0,048
-464,372	-164,599	0,149	-0,005
-463,357	-200,000	-0,001	-0,147
-462,343	194,160	0,022	-0,024
-461,328	-200,000	0,018	-0,059
-460,313	-200,000	0,030	0,103
-459,299	-146,891	-0,064	0,004
-458,284	-30,764	-0,028	0,011
-457,270	800,000	0,012	-0,026
-456,255	28,428	0,042	-0,026
-455,241	171,830	-0,089	0,094
-454,226	-200,000	0,009	0,044
-453,211	800,000	-0,010	-0,024
-452,197	191,906	0,045	0,050
-451,182	-100,604	-0,064	-0,012
-450,168	-200,000	0,040	0,133
-449,153	318,596	0,079	-0,110
-448,138	58,808	-0,092	-0,066
-447,124	-200,000	0,007	-0,036
-446,109	-94,171	0,031	0,006
-445,095	-200,000	0,011	-0,043
-444,080	144,319	0,100	0,098
-443,065	74,314	0,099	0,076
-442,051	-86,232	-0,131	0,029
-441,036	467,114	-0,009	-0,016
-440,022	-165,764	-0,077	0,002
-439,007	-200,000	0,005	0,026
-437,992	-200,000	-0,042	0,167
-436,978	800,000	0,060	0,155
-435,963	-96,073	0,149	-0,029
-434,949	-56,970	-0,202	0,065
-433,934	-91,392	-0,101	-0,021
-432,919	609,709	0,076	0,140
-431,905	20,055	-0,029	0,017
-430,890	-200,000	-0,001	0,135
-429,876	164,044	-0,034	-0,035
-428,861	81,298	-0,110	0,087
-427,846	-200,000	-0,002	0,117
-426,832	542,617	-0,023	0,040
-425,817	-114,877	0,034	-0,005
-424,803	10,065	-0,116	-0,064
-423,788	-69,311	0,041	-0,012
-422,773	221,037	0,029	0,034
-421,759	-109,720	-0,115	0,018
-420,744	-119,186	-0,056	0,007
-419,730	-200,000	-0,011	0,035
-418,715	800,000	-0,076	-0,193
-417,701	-60,318	-0,084	-0,026
-416,686	182,742	0,087	-0,094
-415,671	-90,398	-0,082	-0,017
-414,657	-98,087	0,084	0,016
-413,642	-200,000	-0,013	0,042
-412,628	-200,000	-0,005	0,067
-411,613	800,000	0,010	0,027
-410,598	-200,000	-0,036	0,149
-409,584	-70,080	-0,153	0,042
-408,569	156,728	-0,091	0,092
-407,555	-103,059	-0,131	0,022
-406,540	-200,000	0,001	0,034
-405,525	-200,000	-0,005	-0,016
-404,511	-200,000	-0,031	0,117
-403,496	160,954	-0,059	-0,060
-402,482	-72,268	0,112	-0,030
-401,467	85,234	0,073	-0,058
-400,452	800,000	0,048	0,099
-399,438	565,610	0,040	0,072
-398,423	800,000	0,044	0,136
-397,409	98,625	-0,049	0,042
-396,394	-115,666	0,136	0,018
-395,379	536,135	-0,059	0,102
-394,365	15,451	0,113	0,065
-393,350	-103,617	0,103	-0,017
-392,336	-48,432	0,091	-0,032
-391,321	324,363	-0,017	0,024
-390,306	231,474	0,065	-0,078
-389,292	-78,353	-0,067	-0,017
-388,277	-68,378	0,100	0,028
-387,263	-42,541	0,163	0,060
-386,248	157,757	-0,030	-0,031
-385,233	49,747	0,042	0,029
-384,219	-200,000	-0,017	0,107
-383,204	-72,727	0,121	-0,032
-382,190	800,000	-0,048	-0,118
-381,175	8,781	0,080	-0,044
-380,160	123,683	0,114	-0,105
-379,146	265,181	-0,043	-0,055
-378,131	-88,204	0,098	0,021
-377,117	16,661	0,041	0,024
-376,102	-131,986	0,058	-0,005
-375,088	-3,735	-0,062	0,031
-374,073	800,000	0,037	0,092
-373,058	-200,000	-0,001	0,069
-372,044	429,787	0,054	0,086
-371,029	354,003	0,048	-0,069
-370,015	-1,529	-0,038	-0,019
-369,000	800,000	0,028	-0,085
-367,985	55,168	-0,115	-0,081
-366,971	-200,000	0,003	0,011
-365,956	-200,000	-0,013	0,092
-364,942	-200,000	0,056	0,198
-363,927	-200,000	-0,006	-0,033
-362,912	520,522	0,046	-0,078
-361,898	223,931	-0,047	-0,055
-360,883	155,999	-0,063	-0,064
-359,869	-136,739	-0,055	-0,005
-358,854	800,000	0,060	0,179
-357,839	155,181	-0,037	0,038
-356,825	0,649	-0,075	-0,039
-355,810	255,663	0,088	0,110
-354,796	-200,000	-0,011	-0,045
-353,781	196,183	-0,035	-0,039
-352,766	-28,020	0,045	-0,019
-351,752	800,000	0,051	-0,132
-350,737	-200,000	-0,011	0,057
-349,723	-124,369	0,081	-0,009
-348,708	133,096	0,114	0,107
-347,693	-200,000	-0,020	0,113
-346,679	-200,000	-0,003	0,037
-345,664	88,721	-0,044	-0,035
-344,650	800,000	-0,011	0,029
-343,635	-62,241	-0,102	-0,031
-342,620	-200,000	-0,015	0,081
-341,606	-200,000	0,009	-0,085
-340,591	-92,106	0,115	-0,024
-339,577	-109,678	0,158	-0,024
-338,562	-32,943	0,114	0,046
-337,548	-24,156	-0,042	0,018
-336,533	800,000	0,035	0,074
-335,518	11,720	0,224	0,125
-334,504	138,505	-0,068	0,065
-333,489	800,000	-0,054	-0,130
-332,475	-86,825	0,139	0,031
-331,460	124,353	-0,078	0,071
-330,445	800,000	0,058	0,150
-329,431	-200,000	-0,015	0,122
-328,416	-38,722	-0,086	0,033
-327,402	800,000	0,009	0,018
-326,387	53,866	-0,060	-0,042
-325,372	-200,000	-0,013	-0,051
-324,358	-200,000	0,006	-0,109
-323,343	-55,766	-0,017	-0,005
-322,329	800,000	0,032	0,085
-321,314	-92,742	0,053	-0,011
-320,299	-138,969	-0,065	-0,005
-319,285	174,474	-0,059	-0,062
-318,270	-17,548	0,063	-0,029
-317,256	575,105	0,051	-0,092
-316,241	-200,000	-0,017	-0,091
-315,226	800,000	0,051	0,104
-314,212	-68,946	0,048	0,013
-313,197	141,349	-0,056	0,054
-312,183	-3,522	-0,161	-0,081
-311,168	233,490	0,066	-0,080
-310,153	132,556	0,052	-0,049
-309,139	800,000	-0,063	-0,165
-308,124	-106,760	0,117	-0,019
-307,110	-200,000	0,017	0,057
-306,095	-109,688	0,057	0,009
-305,080	800,000	0,014	0,030
-304,066	307,957	0,052	0,071
-303,051	-29,831	-0,050	0,021
-302,037	-120,764	0,141	-0,017
-301,022	41,292	0,056	-0,037
-300,008	28,888	-0,071	-0,043
-298,993	-200,000	-0,006	-0,050
-297,978	178,418	-0,020	-0,021
-296,964	560,157	0,036	0,064
-295,949	-200,000	0,016	-0,084
-294,935	-29,739	-0,183	0,075
-293,920	-60,893	-0,043	0,013
-292,905	-117,929	0,107	0,014
-291,891	-10,381	0,051	-0,025
-290,876	242,976	0,026	0,032
-289,862	-2,096	0,088	0,045
-288,847	73,623	-0,167	-0,127
-287,832	-78,747	0,086	0,021
-286,818	68,385	-0,031	-0,023
-285,803	194,226	0,022	-0,025
-284,789	-6,753	0,051	0,025
-283,774	-200,000	0,021	0,092
-282,759	-200,000	0,030	0,158
-281,745	160,653	0,053	0,054
-280,730	211,376	-0,034	0,038
-279,716	-200,000	0,000	0,070
-278,701	27,660	0,075	0,046
-277,686	-200,000	-0,009	0,038
-276,672	426,206	0,073	0,115
-275,657	-124,316	-0,105	-0,012
-274,643	366,965	-0,023	-0,035
-273,628	-141,189	-0,107	0,008
-272,613	-200,000	0,020	0,089
-271,599	-147,071	0,073	0,004
-270,584	315,697	-0,073	0,100
-269,570	156,166	-0,104	0,104
-268,555	800,000	0,019	-0,043
-267,540	355,363	-0,051	-0,074
-266,526	-179,272	-0,031	-0,000
-265,511	800,000	0,053	-0,151
-264,497	-111,550	0,024	-0,004
-263,482	-148,686	0,035	0,002
-262,467	381,434	-0,023	0,034
-261,453	223,301	-0,062	-0,073
-260,438	69,980	-0,047	-0,035
-259,424	-92,413	-0,129	-0,026
-258,409	30,839	-0,107	-0,066
-257,395	138,049	0,078	0,074
-256,380	-200,000	0,013	-0,088
-255,365	-16,337	0,108	0,050
-254,351	13,879	-0,135	0,076
-253,336	-150,744	0,076	0,004
-252,322	-174,063	-0,091	-0,002
-251,307	-82,049	-0,130	0,030
-250,292	135,510	0,085	-0,080
-249,278	-200,000	0,001	0,035
-248,263	-200,000	-0,031	0,145
-247,249	297,465	0,079	0,105
-246,234	314,237	-0,046	-0,063
-245,219	-54,184	-0,113	0,037
-244,205	-1,583	0,079	-0,040
-243,190	800,000	-0,056	0,127
-242,176	800,000	-0,063	0,164
-241,161	-153,340	0,198	0,010
-240,146	383,670	-0,088	0,133
-239,132	-40,708	0,034	-0,013
-238,117	-47,032	-0,160	-0,057
-237,103	-200,000	-0,007	0,025
-236,088	800,000	0,034	-0,071
-235,073	-37,917	0,066	0,025
-234,059	-200,000	0,002	0,087
-233,044	47,999	-0,098	-0,067
-232,030	800,000	0,026	-0,054
-231,015	116,828	0,086	-0,077
-230,000	81,307	-0,113	-0,089
-228,986	-200,000	-0,034	-0,119
-227,971	-200,000	-0,001	-0,006
-226,957	-200,000	-0,023	-0,117
-225,942	129,867	0,059	0,055
-224,927	-200,000	0,036	-0,141
-223,913	104,484	0,048	-0,041
-222,898	-200,000	-0,032	-0,160
-221,884	272,500	-0,056	0,072
-220,869	-200,000	0,023	0,125
-219,855	-49,319	-0,121	-0,042
-218,840	53,496	0,098	0,068
-217,825	346,565	-0,015	0,022
-216,811	79,021	0,037	-0,029
-215,796	-25,678	-0,061	-0,026
-214,782	28,870	0,015	-0,009
-213,767	84,816	-0,039	0,031
-212,752	-29,546	0,053	-0,022
-211,738	120,168	-0,072	0,065
-210,723	18,395	0,146	0,084
-209,709	-200,000	0,030	-0,146
-208,694	551,973	0,062	-0,109
-207,679	2,200	0,128	-0,067
-206,665	-200,000	-0,006	-0,023
-205,650	189,003	0,073	0,080
-204,636	320,467	-0,043	0,059
-203,621	800,000	-0,021	0,063
-202,606	-38,000	0,036	0,014
-201,592	8,100	0,081	-0,044
-200,577	46,584	-0,134	0,090
-199,563	-200,000	0,056	-0,208
-198,548	-17,019	-0,036	-0,016
-197,533	800,000	0,050	0,119
-196,519	-200,000	-0,006	0,068
-195,504	562,141	-0,010	-0,017
-194,490	36,458	0,016	0,010
-193,475	754,145	0,049	-0,097
-192,460	-200,000	-0,005	0,022
-191,446	-90,252	-0,050	0,010
-190,431	-26,676	0,174	0,073
-189,417	-69,110	0,116	0,032
-188,402	8,214	-0,106	-0,058
-187,387	14,070	-0,085	-0,048
-186,373	-200,000	-0,011	-0,077
-185,358	437,402	-0,093	0,147
-184,344	-200,000	-0,000	0,102
-183,329	391,413	0,057	0,085
-182,315	-200,000	0,022	0,131
-181,300	102,256	-0,026	-0,022
-180,285	13,169	-0,092	-0,051
-179,271	75,197	0,041	-0,031
-178,256	226,560	0,061	-0,071
-177,242	686,586	0,035	0,066
-176,227	-104,565	-0,042	0,007
-175,212	591,954	-0,091	0,163
-174,198	6,508	-0,075	-0,040
-173,183	-133,349	0,116	-0,010
-172,169	800,000	-0,069	-0,220
-171,154	800,000	0,047	-0,109
-170,139	800,000	-0,036	0,094
-169,125	-200,000	-0,019	0,000
-168,110	443,659	0,063	0,100
-167,096	-200,000	-0,013	0,184
-166,081	5,060	-0,039	0,021
-165,066	-200,000	-0,028	-0,189
-164,052	-0,294	0,121	-0,062
-163,037	50,859	0,124	0,085
-162,023	800,000	0,039	-0,103
-161,008	800,000	-0,031	0,082
-159,993	300,701	-0,066	-0,088
-158,979	-127,245	-0,083	0,009
-157,964	60,674	-0,049	-0,035
-156,950	-133,154	-0,082	0,007
-155,935	-200,000	-0,006	-0,035
-154,920	610,641	0,017	-0,031
-153,906	-61,116	-0,117	-0,035
-152,891	-34,246	0,041	0,016
-151,877	78,345	-0,085	-0,066
-150,862	496,807	0,062	-0,104
-149,847	190,640	0,090	-0,098
-148,833	800,000	-0,030	-0,062
-147,818	240,465	-0,132	0,159
-146,804	449,265	-0,053	-0,085
-145,789	-160,364	-0,077	0,003
-144,775	-65,077	-0,080	-0,023
-143,760	34,592	0,079	0,050
-142,745	46,194	-0,113	0,076
-141,731	-29,704	-0,072	-0,030
-140,716	800,000	0,040	-0,103
-139,702	-59,706	0,060	-0,019
-138,687	-0,500	0,128	0,066
-137,672	52,074	0,070	-0,048
-136,658	800,000	0,045	-0,099
-135,643	223,162	-0,062	-0,072
-134,629	-16,547	-0,162	-0,074
-133,614	-200,000	0,013	0,079
-132,599	164,914	0,045	0,046
-131,585	800,000	0,012	0,027
-130,570	-55,794	-0,156	0,050
-129,556	-200,000	0,005	-0,106
-128,541	228,522	-0,048	-0,056
-127,526	-200,000	-0,007	0,134
-126,512	23,504	0,074	-0,044
-125,497	800,000	-0,031	0,075
-124,483	-120,343	-0,137	0,017
-123,468	-35,487	0,084	0,033
-122,453	188,107	0,017	0,018
-121,439	-200,000	0,000	0,038
-120,424	800,000	0,036	0,076
