DTS Sentinel unit serial number:	SN410029Multiplexer serial number:	ORYXHardware model number:	OX2-SRSoftware version number:	ORYX F/W v4,00 Oryx Data Collector v3.7.2.0data status	okinstallation	B6 Nyhavnadifferential loss correction	single-endedforward channel	channel 2reverse channel	N/Adate	2023/12/10time	23:40:08forward acquisition time	300,00reverse acquisition time	0,00gamma	499,1914k internal	0,3122k external	0,3122temperature offset calibration	1,0000default loss term (dB/km)	0,3820temperature slope calibration	1,0000multiplexer offset coefficient	1,0000multiplexer slope coefficient	1,0000fibre end	0,00T internal ref (°C)	22,39T ext. ref 1 (°C)	6,10T ext. ref 2 (°C)	6,12length (m)	temperature (°C)	Stokes	anti-Stokes-744,400	-158,709	0,027	-0,001
-743,385	-71,649	-0,261	0,072
-742,371	669,041	0,032	-0,063
-741,356	-3,754	-0,304	0,157
-740,342	435,438	0,118	0,192
-739,327	-137,390	-0,335	-0,028
-738,312	-200,000	0,006	-0,030
-737,298	-140,183	-0,173	0,013
-736,283	351,997	0,079	-0,117
-735,269	22,882	-0,225	0,137
-734,254	124,820	0,063	0,059
-733,239	-32,630	-0,494	-0,204
-732,225	-92,344	0,092	-0,019
-731,210	-25,990	0,042	0,018
-730,196	399,135	0,081	-0,127
-729,181	104,494	-0,019	-0,017
-728,167	-200,000	0,045	0,000
-727,152	278,464	-0,065	-0,086
-726,137	-186,933	-0,047	-0,000
-725,123	44,730	-0,079	-0,054
-724,108	800,000	-0,042	-0,129
-723,094	-40,298	-0,079	0,030
-722,079	76,135	-0,076	-0,060
-721,064	425,438	0,083	-0,133
-720,050	51,082	0,099	-0,070
-719,035	-200,000	-0,035	0,124
-718,021	124,512	-0,024	0,022
-717,006	-33,165	-0,090	-0,037
-715,991	-200,000	-0,022	-0,105
-714,977	517,035	0,045	-0,080
-713,962	631,286	-0,031	0,058
-712,948	72,186	0,003	-0,003
-711,933	-200,000	0,018	0,067
-710,918	-200,000	-0,009	-0,087
-709,904	68,630	-0,033	0,025
-708,889	53,474	-0,071	-0,051
-707,875	-32,665	-0,147	-0,061
-706,860	800,000	0,035	-0,084
-705,845	527,416	0,036	-0,063
-704,831	-123,961	-0,120	0,014
-703,816	441,513	0,027	0,044
-702,802	-200,000	-0,010	-0,104
-701,787	118,818	0,070	-0,065
-700,772	33,446	0,041	0,026
-699,758	-3,038	-0,144	-0,074
-698,743	800,000	0,036	-0,104
-697,729	122,126	-0,026	0,024
-696,714	-200,000	0,008	0,029
-695,699	-41,328	-0,145	-0,055
-694,685	201,436	-0,101	-0,116
-693,670	455,660	-0,022	-0,037
-692,656	-200,000	-0,010	0,086
-691,641	123,260	0,042	-0,039
-690,627	-119,391	-0,115	0,015
-689,612	53,921	-0,114	-0,081
-688,597	8,802	0,073	0,041
-687,583	139,804	0,096	-0,094
-686,568	800,000	0,056	-0,136
-685,554	176,866	0,056	0,061
-684,539	35,772	0,024	0,016
-683,524	-107,090	-0,052	0,008
-682,510	800,000	-0,068	0,142
-681,495	-115,663	-0,112	0,015
-680,481	-23,672	-0,084	-0,037
-679,466	-82,849	0,016	-0,004
-678,451	48,488	-0,053	0,037
-677,437	511,481	-0,038	-0,066
-676,422	-200,000	-0,017	0,102
-675,408	76,836	0,055	0,043
-674,393	-0,112	-0,069	0,037
-673,378	1,391	-0,187	0,100
-672,364	193,140	-0,015	0,017
-671,349	-200,000	-0,031	-0,178
-670,335	-200,000	0,014	-0,183
-669,320	14,521	0,117	-0,068
-668,305	79,358	-0,027	-0,022
-667,291	57,317	-0,074	0,053
-666,276	800,000	-0,054	-0,160
-665,262	800,000	0,004	-0,011
-664,247	-200,000	-0,046	-0,154
-663,232	-200,000	-0,012	-0,118
-662,218	800,000	-0,015	-0,044
-661,203	-13,738	0,113	-0,054
-660,189	-85,274	0,069	-0,016
-659,174	-200,000	0,012	0,044
-658,159	747,538	0,036	-0,073
-657,145	-16,426	0,098	-0,046
-656,130	-81,934	-0,095	-0,023
-655,116	75,488	0,065	0,051
-654,101	687,323	-0,053	-0,104
-653,086	800,000	0,045	-0,117
-652,072	-117,476	-0,114	-0,015
-651,057	-200,000	-0,020	-0,101
-650,043	-200,000	0,006	-0,030
-649,028	-32,612	0,087	-0,036
-648,014	-70,748	0,035	-0,010
-646,999	-200,000	-0,016	0,054
-645,984	-101,770	0,078	-0,014
-644,970	276,423	-0,056	0,074
-643,955	645,876	-0,044	0,085
-642,941	-122,407	-0,105	-0,013
-641,926	-169,098	-0,122	0,003
-640,911	179,916	0,115	0,125
-639,897	64,411	0,089	-0,067
-638,882	-160,613	-0,118	-0,005
-637,868	153,400	-0,099	0,100
-636,853	800,000	-0,033	-0,099
-635,838	-200,000	0,001	-0,073
-634,824	45,689	-0,073	-0,050
-633,809	-200,000	-0,004	-0,022
-632,795	-200,000	-0,005	-0,052
-631,780	800,000	-0,056	0,144
-630,765	-200,000	-0,027	0,101
-629,751	-19,357	-0,117	-0,054
-628,736	69,105	-0,093	-0,071
-627,722	356,393	0,050	-0,074
-626,707	-195,583	-0,070	-0,000
-625,692	290,490	-0,021	0,028
-624,678	499,852	-0,082	0,140
-623,663	-71,613	0,052	0,014
-622,649	800,000	0,028	-0,069
-621,634	-163,124	-0,045	0,002
-620,619	327,429	-0,070	-0,100
-619,605	-200,000	-0,004	-0,057
-618,590	-148,636	0,171	-0,010
-617,576	-32,464	-0,032	0,013
-616,561	709,364	-0,073	-0,144
-615,546	-200,000	0,020	0,083
-614,532	-32,837	-0,223	-0,092
-613,517	71,043	-0,067	-0,052
-612,503	800,000	0,073	-0,158
-611,488	800,000	-0,033	-0,068
-610,474	800,000	-0,034	0,101
-609,459	-70,538	-0,162	0,045
-608,444	64,680	-0,077	-0,058
-607,430	-91,203	0,161	-0,034
-606,415	-26,450	0,042	0,018
-605,401	-38,291	0,065	-0,025
-604,386	-106,399	0,139	-0,023
-603,371	282,779	0,070	0,094
-602,357	800,000	-0,049	0,135
-601,342	523,523	0,049	-0,086
-600,328	-142,642	-0,154	0,011
-599,313	-200,000	-0,037	0,148
-598,298	-200,000	-0,002	-0,119
-597,284	184,507	0,072	0,079
-596,269	290,785	0,062	0,084
-595,255	800,000	-0,015	0,033
-594,240	793,285	-0,038	0,079
-593,225	-200,000	0,033	0,132
-592,211	589,136	0,048	-0,088
-591,196	70,215	0,064	0,049
-590,182	265,372	0,054	0,070
-589,167	800,000	0,019	-0,050
-588,152	324,888	0,076	-0,107
-587,138	-200,000	-0,009	0,079
-586,123	-22,833	-0,098	-0,043
-585,109	-155,631	-0,115	0,005
-584,094	68,807	0,071	-0,054
-583,079	-54,612	0,097	0,032
-582,065	-28,117	0,086	0,037
-581,050	216,083	0,077	0,091
-580,036	-200,000	-0,007	0,029
-579,021	128,518	0,111	-0,105
-578,006	800,000	0,009	0,025
-576,992	-200,000	0,004	-0,142
-575,977	-93,765	0,180	-0,036
-574,963	-95,305	-0,085	0,017
-573,948	664,103	-0,012	-0,022
-572,934	90,346	0,038	-0,031
-571,919	-200,000	0,010	-0,107
-570,904	-122,852	-0,089	-0,011
-569,890	31,627	0,092	0,058
-568,875	-200,000	-0,018	0,079
-567,861	800,000	0,022	-0,060
-566,846	-200,000	0,010	0,102
-565,831	-31,466	-0,093	0,039
-564,817	-200,000	-0,013	-0,089
-563,802	-112,037	0,022	0,003
-562,788	394,060	-0,018	0,028
-561,773	-177,463	0,022	0,000
-560,758	242,854	-0,072	-0,090
-559,744	378,784	-0,034	0,052
-558,729	-200,000	-0,003	0,163
-557,715	616,518	0,032	-0,061
-556,700	68,908	0,088	-0,067
-555,685	118,332	0,062	-0,057
-554,671	7,803	0,078	-0,043
-553,656	-83,075	0,109	0,026
-552,642	117,756	0,097	-0,088
-551,627	-200,000	0,000	0,041
-550,612	-200,000	-0,027	0,124
-549,598	-76,971	-0,137	0,035
-548,583	-112,322	-0,014	0,002
-547,569	800,000	-0,050	-0,108
-546,554	-3,631	-0,086	-0,044
-545,539	-200,000	0,001	-0,027
-544,525	-12,758	-0,050	-0,024
-543,510	-200,000	0,008	-0,045
-542,496	34,249	-0,149	-0,096
-541,481	-200,000	0,036	-0,124
-540,466	-200,000	0,009	-0,042
-539,452	1,872	0,115	0,061
-538,437	-93,110	-0,128	0,026
-537,423	800,000	0,051	0,133
-536,408	203,284	-0,057	-0,065
-535,393	800,000	-0,024	-0,058
-534,379	-200,000	0,038	-0,138
-533,364	-200,000	0,008	0,072
-532,350	97,106	-0,069	-0,059
-531,335	800,000	-0,055	0,128
-530,321	65,802	0,078	0,059
-529,306	125,650	-0,034	-0,032
-528,291	-146,058	-0,112	-0,007
-527,277	416,138	-0,071	0,112
-526,262	-21,683	0,051	0,023
-525,248	-200,000	-0,032	0,117
-524,233	-200,000	-0,023	-0,150
-523,218	800,000	0,018	0,041
-522,204	-200,000	-0,002	-0,035
-521,189	249,822	-0,100	-0,126
-520,175	-200,000	0,043	-0,174
-519,160	220,967	-0,033	-0,039
-518,145	166,145	0,105	-0,110
-517,131	800,000	0,024	-0,063
-516,116	-117,626	0,156	0,021
-515,102	-200,000	0,001	-0,057
-514,087	-200,000	-0,023	0,106
-513,072	138,772	-0,086	-0,084
-512,058	-69,691	0,074	-0,021
-511,043	-200,000	-0,037	0,201
-510,029	134,600	0,065	0,062
-509,014	-200,000	-0,006	-0,026
-507,999	-66,928	-0,067	-0,019
-506,985	-75,798	-0,089	-0,023
-505,970	-141,007	-0,093	-0,007
-504,956	336,151	-0,054	0,077
-503,941	31,363	-0,065	-0,041
-502,926	215,005	0,086	0,101
-501,912	-73,483	-0,116	0,031
-500,897	126,497	0,027	-0,025
-499,883	304,235	0,039	0,053
-498,868	-200,000	-0,033	-0,131
-497,853	412,695	-0,053	0,083
-496,839	8,841	0,038	-0,021
-495,824	104,413	-0,116	0,101
-494,810	66,854	-0,030	-0,022
-493,795	-200,000	0,004	-0,062
-492,781	-172,581	-0,012	0,000
-491,766	-0,156	-0,078	0,041
-490,751	800,000	-0,018	-0,046
-489,737	182,101	-0,057	0,062
-488,722	397,318	0,067	0,104
-487,708	800,000	-0,023	-0,058
-486,693	97,097	-0,048	0,041
-485,678	-103,966	-0,087	-0,015
-484,664	231,842	-0,020	-0,025
-483,649	-101,127	-0,081	-0,015
-482,635	-200,000	-0,001	-0,008
-481,620	553,260	0,088	-0,156
-480,605	-200,000	-0,045	0,152
-479,591	7,502	-0,067	-0,037
-478,576	-90,660	-0,094	0,020
-477,562	-200,000	-0,032	-0,123
-476,547	764,150	-0,045	0,091
-475,532	800,000	0,046	-0,103
-474,518	-102,551	0,079	-0,014
-473,503	-84,145	-0,073	0,017
-472,489	-200,000	0,012	0,082
-471,474	-200,000	0,002	0,097
-470,459	-110,625	0,070	0,011
-469,445	-200,000	-0,009	0,031
-468,430	-121,910	0,064	0,008
-467,416	18,908	0,049	-0,029
-466,401	-200,000	0,004	0,129
-465,386	84,851	-0,042	0,034
-464,372	800,000	-0,040	-0,115
-463,357	-29,366	0,143	-0,060
-462,343	17,299	-0,058	-0,034
-461,328	800,000	0,042	-0,106
-460,313	-200,000	-0,009	0,067
-459,299	-2,602	0,043	-0,022
-458,284	422,500	0,086	0,137
-457,270	8,411	0,087	0,048
-456,255	788,221	0,021	0,043
-455,241	257,598	0,036	0,045
-454,226	101,149	-0,070	-0,060
-453,211	686,083	0,018	-0,035
-452,197	-79,115	-0,001	0,000
-451,182	800,000	0,046	0,115
-450,168	46,833	0,100	0,068
-449,153	800,000	-0,016	-0,051
-448,138	-93,023	0,015	-0,003
-447,124	-98,426	-0,039	-0,007
-446,109	-200,000	-0,035	0,206
-445,095	-200,000	0,026	0,144
-444,080	-200,000	-0,003	-0,050
-443,065	-200,000	0,034	-0,112
-442,051	-64,576	-0,219	0,065
-441,036	175,208	-0,054	-0,058
-440,022	92,219	0,051	-0,043
-439,007	800,000	0,066	-0,147
-437,992	-100,153	0,031	-0,006
-436,978	232,127	0,093	0,112
-435,963	-200,000	0,035	0,123
-434,949	-200,000	-0,002	-0,016
-433,934	-121,817	0,090	0,011
-432,919	-69,682	-0,092	-0,026
-431,905	-200,000	0,005	0,049
-430,890	171,603	0,040	0,042
-429,876	-66,854	-0,041	0,012
-428,861	100,557	0,071	-0,060
-427,846	65,584	-0,064	0,048
-426,832	-200,000	-0,050	0,176
-425,817	-200,000	-0,002	-0,078
-424,803	-200,000	-0,002	-0,044
-423,788	28,121	0,174	-0,108
-422,773	386,950	-0,067	-0,102
-421,759	-52,623	-0,072	0,024
-420,744	-200,000	0,011	-0,077
-419,730	329,418	-0,075	-0,107
-418,715	-200,000	-0,013	-0,064
-417,701	26,111	-0,057	-0,035
-416,686	800,000	-0,031	0,087
-415,671	-44,509	0,133	0,049
-414,657	-113,226	0,142	0,020
-413,642	71,767	0,041	-0,032
-412,628	-5,337	-0,033	0,017
-411,613	32,732	-0,067	-0,042
-410,598	-200,000	0,006	-0,032
-409,584	-15,447	-0,016	0,007
-408,569	800,000	0,013	-0,032
-407,555	-111,699	-0,037	-0,005
-406,540	800,000	0,022	0,050
-405,525	425,637	-0,025	-0,039
-404,511	-200,000	-0,001	-0,045
-403,496	-109,323	-0,092	-0,014
-402,482	-200,000	-0,008	0,054
-401,467	217,252	0,101	0,119
-400,452	-43,544	-0,061	0,023
-399,438	202,863	-0,022	0,025
-398,423	-200,000	-0,014	0,145
-397,409	224,166	-0,024	0,029
-396,394	-200,000	-0,058	-0,191
-395,379	201,454	0,055	-0,063
-394,365	576,589	0,052	0,095
-393,350	759,062	0,069	-0,138
-392,336	299,209	0,008	0,010
-391,321	-146,529	0,105	-0,007
-390,306	-175,199	0,069	0,001
-389,292	-33,236	0,049	0,020
-388,277	-200,000	-0,002	0,052
-387,263	479,526	-0,089	-0,149
-386,248	83,972	0,076	-0,061
-385,233	138,262	-0,064	0,062
-384,219	17,658	-0,060	0,035
-383,204	-200,000	0,001	0,082
-382,190	800,000	0,054	0,113
-381,175	-121,956	0,038	0,005
-380,160	-200,000	-0,040	-0,142
-379,146	-200,000	0,024	0,081
-378,131	221,543	0,074	-0,088
-377,117	-9,719	-0,065	-0,032
-376,102	-0,093	0,077	-0,040
-375,088	-200,000	-0,017	0,060
-374,073	9,858	-0,071	-0,040
-373,058	800,000	0,024	0,069
-372,044	154,738	-0,070	0,071
-371,029	93,510	0,062	-0,051
-370,015	-200,000	-0,031	0,126
-369,000	-66,798	0,111	-0,032
-367,985	800,000	0,024	-0,061
-366,971	800,000	-0,037	0,083
-365,956	800,000	0,006	0,016
-364,942	309,551	-0,052	0,071
-363,927	43,780	-0,017	0,011
-362,912	-200,000	0,014	0,071
-361,898	313,642	-0,076	-0,105
-360,883	-92,826	-0,142	-0,029
-359,869	-119,102	-0,077	0,010
-358,854	133,411	0,043	0,041
-357,839	-54,399	0,067	0,022
-356,825	-200,000	0,004	0,082
-355,810	280,549	0,061	0,080
-354,796	800,000	0,015	-0,043
-353,781	-81,862	0,100	-0,024
-352,766	235,047	0,074	-0,089
-351,752	-200,000	0,016	0,127
-350,737	-190,191	0,115	-0,001
-349,723	390,855	-0,132	0,201
-348,708	800,000	-0,025	-0,079
-347,693	9,795	-0,036	-0,020
-346,679	-143,204	-0,091	0,006
-345,664	-200,000	-0,028	0,173
-344,650	154,843	0,035	0,035
-343,635	443,367	0,065	0,105
-342,620	328,842	-0,092	0,129
-341,606	573,971	0,024	0,043
-340,591	251,094	-0,048	0,060
-339,577	49,512	-0,067	0,046
-338,562	-59,107	-0,064	-0,020
-337,548	-115,934	0,045	0,006
-336,533	56,500	-0,119	0,085
-335,518	-200,000	0,009	-0,076
-334,504	-116,802	0,048	-0,006
-333,489	-87,333	0,037	0,008
-332,475	-77,755	-0,063	-0,016
-331,460	-12,954	-0,132	0,063
-330,445	186,073	0,049	-0,053
-329,431	-200,000	0,029	0,128
-328,416	48,620	0,122	-0,084
-327,402	55,991	-0,070	0,049
-326,387	112,226	-0,026	-0,023
-325,372	800,000	0,050	0,111
-324,358	535,909	-0,042	0,074
-323,343	-62,529	0,145	-0,044
-322,329	282,895	0,157	0,208
-321,314	24,082	-0,043	0,026
-320,299	-145,359	-0,040	-0,003
-319,285	-165,267	-0,042	-0,001
-318,270	-200,000	-0,011	0,227
-317,256	49,138	-0,087	0,060
-316,241	27,262	-0,071	0,043
-315,226	52,563	0,046	-0,032
-314,212	147,534	0,017	0,017
-313,197	-200,000	-0,013	0,061
-312,183	-27,178	0,064	0,027
-311,168	52,500	-0,121	0,085
-310,153	-22,039	0,051	0,023
-309,139	-139,456	-0,059	-0,005
-308,124	-200,000	0,007	0,047
-307,110	-200,000	0,005	-0,037
-306,095	800,000	0,019	-0,052
-305,080	-93,477	0,014	-0,003
-304,066	-200,000	-0,010	-0,146
-303,051	67,692	-0,083	-0,062
-302,037	780,848	0,060	-0,121
-301,022	126,388	0,028	0,026
-300,008	41,160	-0,033	0,022
-298,993	-200,000	-0,032	0,107
-297,978	-200,000	-0,016	0,095
-296,964	-200,000	0,009	-0,049
-295,949	-1,824	0,123	0,063
-294,935	-76,582	-0,179	-0,046
-293,920	-200,000	-0,016	-0,103
-292,905	-200,000	-0,030	-0,181
-291,891	-82,316	0,080	-0,019
-290,876	-94,565	-0,124	0,025
-289,862	-25,002	-0,068	0,029
-288,847	-84,649	0,083	-0,019
-287,832	800,000	-0,043	-0,104
-286,818	-54,547	0,164	-0,054
-285,803	-58,510	0,073	-0,023
-284,789	800,000	0,053	-0,162
-283,774	-200,000	-0,003	-0,017
-282,759	24,608	-0,066	-0,040
-281,745	-200,000	-0,024	-0,142
-280,730	462,989	0,014	0,023
-279,716	422,512	-0,021	-0,033
-278,701	-200,000	0,022	-0,114
-277,686	47,446	0,141	-0,096
-276,672	300,703	0,062	0,084
-275,657	-200,000	0,030	0,133
-274,643	3,726	0,032	-0,017
-273,628	-93,517	-0,046	0,009
-272,613	-182,496	0,120	0,002
-271,599	276,584	-0,005	0,007
-270,584	341,835	0,099	0,142
-269,570	-50,398	-0,057	0,020
-268,555	-200,000	0,007	-0,053
-267,540	257,412	0,022	-0,028
-266,526	18,945	-0,069	-0,040
-265,511	91,566	-0,042	-0,034
-264,497	81,772	0,040	0,032
-263,482	589,959	-0,026	-0,047
-262,467	800,000	0,011	0,032
-261,453	-200,000	0,002	0,120
-260,438	556,335	0,047	-0,083
-259,424	80,263	-0,062	0,049
-258,409	167,364	-0,032	0,033
-257,395	-17,081	0,048	-0,022
-256,380	768,785	0,061	0,123
-255,365	363,910	-0,030	-0,044
-254,351	148,653	-0,053	-0,053
-253,336	-137,702	-0,178	-0,014
-252,322	82,718	0,044	-0,035
-251,307	26,639	-0,142	0,087
-250,292	-200,000	-0,003	-0,130
-249,278	-113,203	0,085	0,012
-248,263	759,392	0,073	-0,145
-247,249	800,000	-0,056	0,175
-246,234	-59,079	0,097	0,030
-245,219	-200,000	0,005	-0,062
-244,205	14,548	0,101	-0,057
-243,190	800,000	-0,071	-0,155
-242,176	32,973	-0,068	0,043
-241,161	144,119	0,084	0,082
-240,146	-103,681	-0,056	-0,010
-239,132	120,000	-0,064	0,058
-238,117	323,058	0,032	0,045
-237,103	222,759	0,087	-0,102
-236,088	73,170	-0,030	-0,023
-235,073	-127,411	-0,081	0,008
-234,059	8,058	-0,020	0,011
-233,044	167,929	-0,064	0,067
-232,030	-98,234	0,114	-0,021
-231,015	59,264	-0,025	-0,018
-230,000	202,365	-0,061	-0,068
-228,986	-200,000	0,003	-0,122
-227,971	113,218	0,038	-0,034
-226,957	800,000	0,043	0,088
-225,942	-86,209	-0,021	0,005
-224,927	-61,221	0,136	-0,042
-223,913	148,930	0,090	0,089
-222,898	41,085	-0,069	0,045
-221,884	14,302	0,085	0,048
-220,869	239,328	0,024	-0,030
-219,855	-44,536	0,056	0,020
-218,840	172,804	0,069	-0,073
-217,825	-200,000	-0,017	0,071
-216,811	-200,000	-0,027	0,129
-215,796	-10,349	-0,137	-0,066
-214,782	-114,609	0,113	-0,016
-213,767	-200,000	-0,010	-0,060
-212,752	187,818	0,067	-0,073
-211,738	-200,000	-0,002	0,053
-210,723	800,000	-0,036	-0,080
-209,709	-200,000	0,010	0,035
-208,694	-146,510	-0,059	-0,004
-207,679	348,678	0,034	0,050
-206,665	800,000	0,020	-0,048
-205,650	-1,669	0,077	0,040
-204,636	-73,464	0,131	-0,035
-203,621	-200,000	0,004	0,059
-202,606	800,000	-0,085	-0,177
-201,592	30,923	0,094	-0,059
-200,577	800,000	0,066	0,153
-199,563	91,961	-0,047	0,038
-198,548	142,880	0,122	-0,119
-197,533	19,484	0,048	-0,028
-196,519	-91,336	0,098	-0,020
-195,504	53,070	0,056	-0,039
-194,490	-200,000	-0,029	-0,161
-193,475	-200,000	-0,019	-0,121
-192,460	-134,034	0,058	0,005
-191,446	-200,000	0,014	0,054
-190,431	148,026	0,013	0,013
-189,417	371,155	-0,029	0,043
-188,402	-200,000	-0,001	-0,038
-187,387	-110,119	-0,088	-0,013
-186,373	-200,000	0,008	-0,101
-185,358	-200,000	-0,001	-0,133
-184,344	-124,430	0,125	-0,014
-183,329	110,549	-0,016	-0,014
-182,315	-200,000	-0,002	0,135
-181,300	-110,233	-0,071	-0,011
-180,285	116,290	-0,023	-0,021
-179,271	224,960	-0,085	-0,100
-178,256	47,915	-0,051	-0,035
-177,242	-120,733	0,071	0,009
-176,227	-29,311	0,047	0,020
-175,212	-181,046	-0,073	0,001
-174,198	-122,407	-0,057	-0,007
-173,183	-160,810	0,149	-0,006
-172,169	-42,333	0,102	0,038
-171,154	-78,046	-0,148	-0,037
-170,139	-200,000	-0,008	-0,035
-169,125	-200,000	0,021	0,073
-168,110	800,000	-0,004	-0,010
-167,096	-73,870	0,068	0,018
-166,081	800,000	-0,048	-0,116
-165,066	-44,296	-0,089	0,032
-164,052	693,493	-0,051	-0,098
-163,037	-131,696	0,064	0,006
-162,023	196,109	0,047	0,052
-161,008	-200,000	-0,035	0,144
-159,993	12,633	0,044	0,025
-158,979	91,820	0,088	-0,072
-157,964	-200,000	0,017	-0,159
-156,950	-163,427	-0,046	0,002
-155,935	-100,657	-0,101	0,018
-154,920	289,168	0,011	0,015
-153,906	12,033	0,044	-0,025
-152,891	-126,913	-0,054	0,006
-151,877	-44,561	0,116	0,042
-150,862	215,508	-0,102	-0,118
-149,847	-200,000	0,004	0,096
-148,833	86,230	0,149	-0,120
-147,818	800,000	0,054	0,109
-146,804	233,161	-0,014	-0,017
-145,789	-200,000	0,001	0,030
-144,775	-19,833	0,070	0,031
-143,760	14,244	0,062	-0,035
-142,745	-118,598	-0,062	-0,008
-141,731	-27,944	-0,065	-0,027
-140,716	-132,450	-0,032	-0,003
-139,702	15,835	0,049	0,028
-138,687	-200,000	-0,021	-0,086
-137,672	800,000	0,041	-0,111
-136,658	184,521	-0,214	-0,231
-135,643	800,000	-0,036	-0,077
-134,629	800,000	-0,034	-0,075
-133,614	-200,000	0,020	0,068
-132,599	-139,000	0,140	0,011
-131,585	-47,159	0,195	-0,069
-130,570	-131,479	-0,112	-0,011
-129,556	-192,943	-0,095	0,001
-128,541	-200,000	-0,012	-0,118
-127,526	705,807	0,048	0,093
-126,512	-56,859	-0,049	-0,016
-125,497	-83,739	-0,048	-0,011
-124,483	-200,000	0,018	-0,066
-123,468	800,000	-0,054	0,158
-122,453	521,900	-0,091	-0,156
-121,439	67,646	0,048	0,035
-120,424	97,206	-0,069	-0,057
