DTS Sentinel unit serial number:	SN410029Multiplexer serial number:	ORYXHardware model number:	OX2-SRSoftware version number:	ORYX F/W v4,00 Oryx Data Collector v3.7.2.0data status	okinstallation	B6 Nyhavnadifferential loss correction	single-endedforward channel	channel 2reverse channel	N/Adate	2023/12/08time	21:55:08forward acquisition time	300,00reverse acquisition time	0,00gamma	499,1914k internal	0,3157k external	0,3157temperature offset calibration	1,0000default loss term (dB/km)	0,3820temperature slope calibration	1,0000multiplexer offset coefficient	1,0000multiplexer slope coefficient	1,0000fibre end	0,00T internal ref (°C)	15,25T ext. ref 1 (°C)	-1,25T ext. ref 2 (°C)	-1,26length (m)	temperature (°C)	Stokes	anti-Stokes-744,400	800,000	0,020	-0,042
-743,385	-186,772	-0,334	-0,003
-742,371	-74,520	0,147	-0,039
-741,356	-124,025	-0,207	-0,024
-740,342	-58,064	0,135	0,043
-739,327	-89,715	-0,275	0,059
-738,312	170,821	0,043	-0,046
-737,298	-118,107	-0,314	-0,041
-736,283	8,344	0,006	0,004
-735,269	-169,420	-0,352	-0,009
-734,254	-157,099	0,144	-0,006
-733,239	22,850	-0,470	-0,283
-732,225	-127,705	0,294	0,031
-731,210	800,000	0,022	0,059
-730,196	134,924	-0,058	0,056
-729,181	800,000	0,016	-0,050
-728,167	-70,791	-0,069	-0,019
-727,152	170,731	0,049	0,052
-726,137	-39,787	-0,076	-0,029
-725,123	-92,771	-0,068	-0,014
-724,108	251,881	-0,115	-0,145
-723,094	93,175	-0,144	-0,120
-722,079	-12,570	-0,080	-0,038
-721,064	105,242	-0,145	-0,126
-720,050	-200,000	-0,005	-0,021
-719,035	-16,192	-0,120	0,056
-718,021	30,589	-0,109	-0,069
-717,006	225,416	-0,084	-0,100
-715,991	-31,944	-0,051	0,021
-714,977	756,518	-0,041	-0,082
-713,962	42,435	-0,067	-0,045
-712,948	356,838	0,047	-0,070
-711,933	-26,981	0,098	-0,042
-710,918	-100,264	-0,135	0,024
-709,904	-200,000	0,021	-0,083
-708,889	-200,000	-0,020	-0,082
-707,875	111,800	-0,179	-0,159
-706,860	211,662	-0,059	0,068
-705,845	-168,373	-0,112	-0,003
-704,831	550,114	-0,021	-0,038
-703,816	10,539	-0,021	-0,012
-702,802	19,405	0,097	-0,057
-701,787	-136,247	-0,156	-0,013
-700,772	17,426	-0,046	-0,027
-699,758	-100,450	0,087	-0,016
-698,743	519,194	0,056	0,097
-697,729	193,108	-0,044	-0,049
-696,714	-200,000	0,036	-0,143
-695,699	-2,943	-0,052	-0,026
-694,685	-109,992	-0,140	-0,021
-693,670	-200,000	0,000	0,161
-692,656	14,321	-0,086	-0,049
-691,641	-58,781	-0,010	-0,003
-690,627	604,858	0,030	0,056
-689,612	-200,000	0,000	-0,122
-688,597	490,903	-0,012	-0,021
-687,583	-184,638	-0,074	-0,001
-686,568	-3,745	-0,188	-0,096
-685,554	800,000	0,031	-0,098
-684,539	-130,511	0,191	-0,019
-683,524	392,954	-0,073	0,112
-682,510	573,180	-0,046	0,083
-681,495	-200,000	-0,023	-0,100
-680,481	-200,000	0,013	-0,108
-679,466	93,733	-0,090	-0,075
-678,451	-25,002	-0,052	0,023
-677,437	-136,153	-0,007	-0,001
-676,422	-200,000	-0,020	0,114
-675,408	800,000	0,052	0,124
-674,393	800,000	0,030	-0,095
-673,378	1,194	-0,071	-0,038
-672,364	79,936	0,162	-0,128
-671,349	8,281	0,166	0,091
-670,335	599,595	0,031	-0,056
-669,320	207,589	0,112	0,129
-668,305	75,100	-0,063	0,049
-667,291	115,880	0,006	-0,005
-666,276	148,648	0,031	-0,030
-665,262	79,790	-0,091	-0,072
-664,247	40,836	-0,119	0,079
-663,232	143,721	0,037	0,036
-662,218	-98,402	-0,077	-0,014
-661,203	46,638	-0,132	-0,090
-660,189	89,410	0,068	0,056
-659,174	-31,810	-0,136	0,056
-658,159	278,037	-0,056	-0,074
-657,145	538,368	-0,065	-0,113
-656,130	-200,000	0,028	-0,109
-655,116	800,000	-0,024	0,052
-654,101	-96,456	0,087	0,017
-653,086	-103,582	0,066	-0,011
-652,072	504,122	-0,065	-0,111
-651,057	-29,396	-0,134	0,056
-650,043	-200,000	0,040	-0,135
-649,028	-200,000	0,020	-0,078
-648,014	475,643	-0,048	0,081
-646,999	800,000	0,044	0,135
-645,984	-129,469	-0,033	-0,003
-644,970	-200,000	-0,000	-0,022
-643,955	449,328	-0,131	-0,213
-642,941	-178,426	-0,090	-0,001
-641,926	19,832	0,154	0,091
-640,911	800,000	-0,017	0,047
-639,897	375,635	-0,061	0,092
-638,882	554,138	-0,070	0,124
-637,868	800,000	0,018	-0,043
-636,853	-84,964	-0,025	-0,006
-635,838	320,142	-0,017	-0,024
-634,824	-150,146	0,139	0,008
-633,809	-200,000	0,012	-0,078
-632,795	339,786	0,031	-0,045
-631,780	800,000	-0,010	0,025
-630,765	281,496	0,015	0,020
-629,751	800,000	-0,034	-0,109
-628,736	322,622	-0,064	-0,089
-627,722	800,000	-0,021	0,055
-626,707	-37,399	0,004	-0,001
-625,692	173,149	0,099	0,105
-624,678	800,000	0,112	0,251
-623,663	-200,000	0,020	-0,077
-622,649	-200,000	-0,002	-0,070
-621,634	-200,000	-0,021	-0,132
-620,619	219,107	0,030	-0,035
-619,605	38,555	-0,143	0,093
-618,590	-200,000	0,004	-0,066
-617,576	84,886	0,060	0,048
-616,561	324,051	0,023	-0,032
-615,546	744,367	0,071	0,140
-614,532	-131,160	-0,092	0,009
-613,517	61,902	-0,180	-0,131
-612,503	-148,711	0,221	-0,013
-611,488	6,744	-0,060	0,033
-610,474	800,000	0,007	0,018
-609,459	311,364	-0,040	0,055
-608,444	50,601	0,040	0,028
-607,430	800,000	-0,008	0,023
-606,415	45,974	-0,051	0,034
-605,401	-200,000	0,002	0,047
-604,386	210,663	0,048	0,055
-603,371	17,376	-0,077	-0,045
-602,357	221,390	-0,024	0,028
-601,342	-81,047	-0,099	0,024
-600,328	25,876	-0,017	0,010
-599,313	-110,257	-0,155	0,023
-598,298	481,170	-0,057	-0,096
-597,284	648,989	0,042	0,079
-596,269	-110,096	0,075	-0,011
-595,255	242,781	0,077	-0,094
-594,240	-200,000	0,013	-0,108
-593,225	-200,000	-0,025	0,198
-592,211	-70,060	-0,087	-0,024
-591,196	-200,000	-0,014	0,087
-590,182	-40,775	0,202	0,076
-589,167	-200,000	-0,003	0,025
-588,152	-103,258	0,112	-0,019
-587,138	-200,000	-0,002	0,109
-586,123	-39,402	-0,080	-0,031
-585,109	540,750	-0,064	-0,111
-584,094	-200,000	-0,037	-0,151
-583,079	-36,669	0,044	0,017
-582,065	-200,000	0,014	0,083
-581,050	124,496	0,080	0,074
-580,036	-39,572	-0,077	0,029
-579,021	-168,251	0,050	0,001
-578,006	800,000	-0,036	-0,096
-576,992	800,000	0,055	-0,115
-575,977	800,000	-0,013	-0,038
-574,963	-132,143	0,062	0,006
-573,948	-200,000	0,037	0,166
-572,934	-78,648	0,059	0,015
-571,919	370,575	-0,130	-0,194
-570,904	-38,389	-0,108	-0,041
-569,890	-200,000	0,018	0,100
-568,875	-200,000	-0,015	-0,117
-567,861	30,483	-0,073	0,046
-566,846	24,094	0,104	-0,063
-565,831	-14,005	-0,101	-0,048
-564,817	-52,739	-0,157	0,053
-563,802	412,392	-0,131	-0,205
-562,788	-43,463	-0,026	-0,010
-561,773	-58,954	-0,107	0,034
-560,758	-120,914	-0,151	0,018
-559,744	-74,110	0,060	-0,016
-558,729	800,000	0,018	0,037
-557,715	-98,525	0,088	-0,016
-556,700	114,606	-0,089	-0,079
-555,685	397,095	-0,101	-0,155
-554,671	751,044	0,019	-0,037
-553,656	800,000	-0,047	0,131
-552,642	433,074	-0,039	0,063
-551,627	-50,985	0,068	-0,023
-550,612	-200,000	0,018	0,064
-549,598	67,486	-0,126	-0,094
-548,583	279,313	0,041	-0,054
-547,569	-88,168	0,047	0,010
-546,554	725,500	0,028	-0,056
-545,539	-200,000	0,015	0,200
-544,525	-200,000	-0,010	0,080
-543,510	-133,736	-0,133	-0,012
-542,496	-118,568	-0,147	-0,019
-541,481	-45,770	0,094	-0,034
-540,466	-172,442	-0,044	-0,001
-539,452	800,000	0,020	-0,043
-538,437	174,675	0,053	0,056
-537,423	126,486	0,076	0,070
-536,408	170,681	0,112	-0,117
-535,393	-106,962	-0,066	-0,011
-534,379	800,000	0,045	-0,145
-533,364	800,000	0,009	0,019
-532,350	209,146	0,029	0,034
-531,335	800,000	0,032	0,071
-530,321	-200,000	0,030	0,110
-529,306	-200,000	-0,007	0,125
-528,291	-106,090	-0,184	0,030
-527,277	-200,000	0,011	-0,066
-526,262	1,789	-0,122	-0,064
-525,248	45,536	0,131	0,088
-524,233	631,875	-0,084	0,156
-523,218	800,000	0,038	0,091
-522,204	-200,000	-0,013	0,167
-521,189	-145,930	0,022	0,001
-520,175	133,341	-0,037	-0,035
-519,160	-200,000	0,002	-0,026
-518,145	144,966	0,161	0,158
-517,131	800,000	-0,025	-0,062
-516,116	160,703	0,053	-0,054
-515,102	136,921	0,021	0,020
-514,087	-200,000	-0,048	0,169
-513,072	377,017	0,060	-0,090
-512,058	537,055	-0,022	0,038
-511,043	-74,906	0,138	0,036
-510,029	-116,664	0,141	0,019
-509,014	-80,583	0,068	-0,016
-507,999	49,905	0,027	-0,018
-506,985	-5,284	-0,117	-0,059
-505,970	117,986	0,182	0,164
-504,956	188,765	-0,017	-0,019
-503,941	110,656	-0,054	-0,048
-502,926	68,247	-0,065	0,049
-501,912	-95,242	0,026	-0,005
-500,897	157,956	-0,057	-0,058
-499,883	800,000	0,017	-0,040
-498,868	-67,491	-0,116	-0,033
-497,853	-200,000	0,021	-0,103
-496,839	-200,000	-0,005	-0,024
-495,824	-200,000	-0,024	0,089
-494,810	-200,000	-0,024	0,096
-493,795	44,221	0,080	-0,054
-492,781	567,011	-0,020	0,035
-491,766	800,000	-0,032	-0,098
-490,751	578,198	0,028	-0,050
-489,737	-200,000	0,015	0,087
-488,722	-75,525	0,067	-0,017
-487,708	61,291	0,067	0,049
-486,693	5,648	-0,017	0,009
-485,678	664,654	-0,042	0,079
-484,664	0,374	-0,137	-0,071
-483,649	21,003	0,045	-0,027
-482,635	23,578	-0,063	0,038
-481,620	-115,155	0,058	-0,008
-480,605	-55,807	-0,017	-0,006
-479,591	-131,376	0,081	-0,008
-478,576	385,088	0,028	-0,042
-477,562	-68,593	-0,056	0,016
-476,547	-200,000	0,008	-0,065
-475,532	800,000	-0,051	0,113
-474,518	261,824	-0,027	-0,035
-473,503	47,939	0,064	0,044
-472,489	800,000	0,061	-0,164
-471,474	-46,559	0,100	-0,036
-470,459	-200,000	0,011	-0,063
-469,445	-200,000	0,010	-0,075
-468,430	43,096	0,100	-0,067
-467,416	-130,844	0,020	0,002
-466,401	-99,800	0,114	0,021
-465,386	-66,011	-0,100	-0,029
-464,372	17,632	-0,102	-0,059
-463,357	457,276	0,055	0,090
-462,343	17,229	-0,027	-0,016
-461,328	-140,550	0,043	0,003
-460,313	-132,246	0,059	0,006
-459,299	5,474	0,148	0,080
-458,284	-65,957	0,047	-0,014
-457,270	1,584	0,018	0,009
-456,255	-175,377	-0,071	-0,001
-455,241	629,992	-0,034	-0,064
-454,226	-200,000	0,036	0,172
-453,211	82,503	0,071	-0,056
-452,197	-200,000	-0,014	0,047
-451,182	-100,585	-0,097	0,017
-450,168	321,886	0,024	0,033
-449,153	-64,804	0,117	0,034
-448,138	377,392	-0,048	-0,071
-447,124	-200,000	-0,002	-0,006
-446,109	800,000	0,048	-0,146
-445,095	-200,000	0,009	0,056
-444,080	-200,000	-0,001	-0,144
-443,065	-200,000	0,003	-0,038
-442,051	68,710	-0,069	-0,051
-441,036	-200,000	0,004	-0,015
-440,022	-15,931	-0,032	0,015
-439,007	-3,673	0,092	0,046
-437,992	-200,000	0,011	0,055
-436,978	-73,679	0,070	-0,018
-435,963	76,060	0,013	-0,010
-434,949	-200,000	-0,006	0,089
-433,934	-200,000	-0,012	-0,103
-432,919	30,942	0,139	0,087
-431,905	207,269	-0,016	0,018
-430,890	120,507	0,027	0,025
-429,876	276,501	0,051	-0,066
-428,861	-32,041	0,077	-0,031
-427,846	-200,000	-0,008	0,046
-426,832	-164,039	-0,107	0,004
-425,817	558,194	0,041	0,072
-424,803	36,604	-0,059	0,038
-423,788	-200,000	-0,010	-0,055
-422,773	-47,806	-0,036	-0,013
-421,759	123,314	0,024	-0,022
-420,744	-200,000	0,020	-0,075
-419,730	606,600	0,027	0,049
-418,715	-200,000	-0,007	-0,036
-417,701	-10,501	-0,049	0,024
-416,686	-200,000	0,031	0,117
-415,671	89,781	0,085	-0,069
-414,657	-200,000	0,012	-0,068
-413,642	-120,306	0,040	-0,005
-412,628	112,294	-0,034	0,030
-411,613	-135,872	-0,150	-0,013
-410,598	800,000	0,023	0,074
-409,584	219,222	-0,106	-0,124
-408,569	76,389	0,066	0,051
-407,555	57,046	0,154	0,109
-406,540	800,000	0,074	0,163
-405,525	-111,374	-0,148	0,022
-404,511	161,450	-0,041	-0,042
-403,496	269,265	-0,132	0,168
-402,482	-200,000	-0,017	0,070
-401,467	-200,000	-0,003	0,033
-400,452	-60,337	-0,081	-0,025
-399,438	800,000	-0,040	-0,088
-398,423	45,630	0,023	0,015
-397,409	-153,115	-0,134	0,007
-396,394	365,412	0,086	-0,126
-395,379	76,495	0,110	0,085
-394,365	337,119	0,045	0,064
-393,350	591,359	-0,029	0,053
-392,336	364,753	0,021	-0,031
-391,321	-200,000	0,006	0,052
-390,306	800,000	-0,012	0,032
-389,292	-21,084	-0,139	-0,062
-388,277	190,314	0,042	-0,046
-387,263	-200,000	0,005	0,051
-386,248	483,096	0,067	0,110
-385,233	-125,072	0,168	0,018
-384,219	787,362	-0,037	0,073
-383,204	800,000	0,041	-0,086
-382,190	209,544	-0,069	-0,079
-381,175	-25,473	-0,090	0,039
-380,160	265,868	-0,024	-0,031
-379,146	-56,723	-0,022	-0,007
-378,131	800,000	-0,025	0,073
-377,117	800,000	0,023	-0,065
-376,102	68,999	-0,038	-0,029
-375,088	-162,990	-0,125	-0,004
-374,073	-119,637	0,087	0,011
-373,058	800,000	-0,010	0,024
-372,044	-200,000	0,022	0,080
-371,029	-124,428	-0,029	-0,003
-370,015	-200,000	0,011	-0,053
-369,000	8,705	-0,059	0,032
-367,985	800,000	-0,031	-0,070
-366,971	758,800	-0,049	-0,097
-365,956	47,947	0,068	0,046
-364,942	273,770	-0,087	0,112
-363,927	-18,868	-0,069	0,031
-362,912	-200,000	0,025	0,092
-361,898	-200,000	-0,001	0,038
-360,883	-200,000	-0,000	-0,040
-359,869	-63,129	-0,085	-0,025
-358,854	261,195	-0,117	-0,148
-357,839	-137,261	0,037	-0,003
-356,825	800,000	0,023	0,053
-355,810	317,966	-0,067	-0,092
-354,796	-19,751	0,026	-0,012
-353,781	315,490	0,061	-0,083
-352,766	-26,778	-0,082	0,034
-351,752	-15,659	0,018	0,009
-350,737	-200,000	0,002	0,026
-349,723	-31,696	0,047	-0,019
-348,708	-89,147	-0,123	-0,026
-347,693	49,274	0,055	0,037
-346,679	-60,582	-0,128	0,039
-345,664	-30,916	0,053	-0,022
-344,650	-109,364	-0,067	-0,010
-343,635	-120,103	0,184	-0,023
-342,620	127,707	0,088	0,081
-341,606	43,495	-0,039	0,026
-340,591	800,000	-0,039	0,110
-339,577	217,286	-0,113	-0,131
-338,562	339,825	0,104	-0,147
-337,548	-127,215	-0,113	-0,012
-336,533	296,896	-0,061	0,081
-335,518	77,547	0,130	0,100
-334,504	-200,000	-0,007	-0,029
-333,489	-200,000	-0,027	0,105
-332,475	-200,000	0,027	0,114
-331,460	800,000	-0,027	-0,081
-330,445	187,591	-0,066	0,071
-329,431	-200,000	0,016	0,058
-328,416	162,809	0,068	0,070
-327,402	152,705	-0,030	0,030
-326,387	-200,000	0,026	0,090
-325,372	-25,087	0,053	-0,023
-324,358	-200,000	-0,003	-0,121
-323,343	552,910	-0,041	-0,073
-322,329	178,190	0,009	-0,009
-321,314	73,841	-0,059	-0,045
-320,299	509,587	-0,051	0,087
-319,285	-62,301	0,175	-0,052
-318,270	28,698	-0,136	-0,083
-317,256	-125,303	0,059	-0,006
-316,241	252,696	0,048	0,059
-315,226	-51,556	-0,084	-0,028
-314,212	-200,000	-0,005	-0,043
-313,197	25,286	-0,086	0,052
-312,183	-200,000	0,003	0,029
-311,168	-60,219	-0,017	0,005
-310,153	-60,725	-0,167	-0,051
-309,139	800,000	0,070	0,142
-308,124	-57,622	-0,061	0,019
-307,110	-81,326	0,055	-0,013
-306,095	459,910	0,043	0,069
-305,080	-65,535	-0,032	-0,009
-304,066	-156,609	0,034	-0,001
-303,051	-72,629	-0,141	-0,037
-302,037	800,000	0,030	-0,085
-301,022	142,224	0,062	-0,059
-300,008	-200,000	-0,000	-0,024
-298,993	800,000	0,008	-0,019
-297,978	-170,645	0,087	-0,002
-296,964	-200,000	-0,021	-0,077
-295,949	-169,692	0,050	-0,001
-294,935	-159,630	0,096	-0,004
-293,920	414,519	-0,051	0,079
-292,905	754,332	-0,102	0,200
-291,891	-22,348	0,115	0,050
-290,876	348,207	0,041	0,059
-289,862	171,697	-0,086	-0,090
-288,847	-74,627	-0,022	0,006
-287,832	800,000	-0,035	0,078
-286,818	-77,817	0,052	-0,013
-285,803	-30,231	0,096	0,039
-284,789	800,000	-0,018	0,055
-283,774	-200,000	-0,011	0,113
-282,759	-118,188	-0,056	0,007
-281,745	-115,361	0,052	0,007
-280,730	-200,000	0,031	-0,144
-279,716	-200,000	0,005	-0,028
-278,701	375,479	-0,066	0,098
-277,686	-63,693	0,130	-0,038
-276,672	-19,582	0,247	-0,110
-275,657	800,000	0,010	0,021
-274,643	144,752	-0,094	-0,091
-273,628	32,909	-0,042	-0,026
-272,613	751,652	0,044	-0,085
-271,599	-193,804	0,112	0,001
-270,584	329,367	0,076	-0,106
-269,570	-167,728	0,096	-0,003
-268,555	-200,000	0,003	0,073
-267,540	-68,178	0,049	-0,014
-266,526	-36,871	-0,157	-0,061
-265,511	568,250	0,049	0,086
-264,497	233,363	-0,082	0,097
-263,482	-148,716	0,004	0,000
-262,467	-8,472	0,053	0,026
-261,453	123,340	0,054	0,049
-260,438	800,000	-0,036	-0,101
-259,424	-70,587	0,093	-0,025
-258,409	159,608	-0,051	0,052
-257,395	-142,277	0,086	0,006
-256,380	-200,000	0,007	-0,049
-255,365	-166,501	0,036	-0,001
-254,351	-200,000	0,012	-0,044
-253,336	10,699	0,126	-0,069
-252,322	800,000	-0,037	-0,097
-251,307	-36,379	-0,076	-0,029
-250,292	45,175	-0,120	-0,080
-249,278	800,000	0,029	0,092
-248,263	-124,584	0,077	0,009
-247,249	2,162	-0,081	0,042
-246,234	55,088	-0,068	0,047
-245,219	119,574	0,037	-0,033
-244,205	-24,085	-0,034	0,014
-243,190	-12,134	0,043	0,020
-242,176	-200,000	-0,039	-0,172
-241,161	-200,000	0,003	0,051
-240,146	6,541	0,062	0,033
-239,132	684,802	-0,012	-0,022
-238,117	85,228	0,054	0,043
-237,103	-125,943	-0,045	0,005
-236,088	128,156	-0,022	0,020
-235,073	800,000	-0,007	0,020
-234,059	-200,000	-0,015	0,063
-233,044	743,149	0,018	-0,036
-232,030	800,000	-0,056	0,113
-231,015	-200,000	0,013	-0,074
-230,000	39,250	0,018	-0,011
-228,986	-69,796	-0,103	0,028
-227,971	153,379	0,019	-0,018
-226,957	800,000	-0,017	0,043
-225,942	-113,308	0,115	0,016
-224,927	800,000	-0,033	-0,073
-223,913	-34,944	-0,056	0,022
-222,898	-200,000	-0,015	-0,190
-221,884	75,142	-0,205	-0,156
-220,869	-200,000	-0,009	0,139
-219,855	-137,083	-0,050	0,004
-218,840	-62,910	0,107	-0,032
-217,825	74,657	-0,016	-0,012
-216,811	-200,000	-0,000	-0,002
-215,796	133,678	0,139	-0,130
-214,782	-52,534	-0,156	-0,052
-213,767	-200,000	0,048	0,193
-212,752	412,699	0,013	0,019
-211,738	-200,000	0,007	0,079
-210,723	55,614	-0,040	0,028
-209,709	361,005	-0,033	-0,048
-208,694	302,889	-0,039	-0,053
-207,679	166,171	-0,130	-0,133
-206,665	-200,000	0,044	-0,163
-205,650	114,834	0,080	0,071
-204,636	497,519	0,047	0,079
-203,621	-62,377	-0,229	0,068
-202,606	-200,000	0,002	0,050
-201,592	-200,000	-0,023	-0,174
-200,577	79,307	-0,069	-0,053
-199,563	53,722	0,062	-0,043
-198,548	-33,704	0,050	-0,020
-197,533	-200,000	0,011	0,038
-196,519	800,000	-0,035	0,080
-195,504	-61,430	0,148	-0,045
-194,490	624,140	-0,039	0,072
-193,475	371,437	-0,055	0,080
-192,460	800,000	0,033	0,080
-191,446	800,000	-0,031	-0,077
-190,431	10,515	0,106	0,058
-189,417	800,000	0,045	-0,128
-188,402	15,792	-0,058	-0,033
-187,387	-200,000	-0,003	-0,144
-186,373	800,000	0,061	-0,140
-185,358	-83,656	0,045	0,010
-184,344	196,295	0,007	-0,008
-183,329	-200,000	0,033	-0,119
-182,315	-200,000	0,003	0,062
-181,300	800,000	-0,041	-0,087
-180,285	566,585	-0,034	-0,060
-179,271	800,000	-0,042	-0,110
-178,256	568,246	0,069	0,121
-177,242	-126,882	0,013	-0,001
-176,227	-117,898	0,086	-0,011
-175,212	426,137	-0,087	0,135
-174,198	-57,384	0,071	0,022
-173,183	456,712	-0,043	-0,069
-172,169	-200,000	0,026	0,093
-171,154	-200,000	-0,007	-0,047
-170,139	-200,000	0,008	0,142
-169,125	435,048	0,068	0,107
-168,110	-200,000	-0,010	0,061
-167,096	-200,000	0,022	-0,072
-166,081	800,000	0,011	-0,033
-165,066	62,659	0,097	-0,070
-164,052	-200,000	0,013	-0,115
-163,037	-200,000	0,017	-0,142
-162,023	-200,000	0,024	-0,085
-161,008	97,503	-0,080	0,066
-159,993	-94,320	0,097	-0,019
-158,979	156,933	-0,032	-0,031
-157,964	800,000	-0,017	-0,052
-156,950	-1,463	-0,152	0,077
-155,935	23,634	0,065	-0,038
-154,920	449,415	0,089	-0,142
-153,906	-34,712	0,082	0,032
-152,891	20,451	-0,052	0,030
-151,877	800,000	0,046	-0,113
-150,862	-163,823	-0,153	0,005
-149,847	277,066	0,023	-0,029
-148,833	-87,024	0,074	0,016
-147,818	-64,162	0,232	0,068
-146,804	800,000	-0,037	0,078
-145,789	-61,520	-0,009	-0,003
-144,775	-109,621	-0,073	-0,011
-143,760	47,028	-0,059	-0,040
-142,745	190,850	-0,085	-0,092
-141,731	-134,692	-0,237	-0,021
-140,716	244,945	0,046	0,055
-139,702	237,118	0,047	0,056
-138,687	9,334	-0,047	0,026
-137,672	-200,000	-0,017	0,209
-136,658	21,697	0,078	0,045
-135,643	39,800	0,110	0,071
-134,629	-44,879	-0,039	-0,014
-133,614	-200,000	0,001	-0,020
-132,599	62,895	0,144	-0,104
-131,585	79,865	-0,031	0,024
-130,570	72,792	-0,115	-0,086
-129,556	174,613	0,046	0,048
-128,541	-60,297	0,083	-0,025
-127,526	-72,735	0,036	0,009
-126,512	-200,000	-0,023	-0,081
-125,497	800,000	0,027	0,076
-124,483	-134,025	-0,008	-0,001
-123,468	-200,000	-0,009	0,105
-122,453	-200,000	-0,016	-0,182
-121,439	-200,000	0,006	-0,130
-120,424	-82,517	0,129	0,030
-119,410	800,000	0,037	0,081
