DTS Sentinel unit serial number:	SN410029Multiplexer serial number:	ORYXHardware model number:	OX2-SRSoftware version number:	ORYX F/W v4,00 Oryx Data Collector v3.7.2.0data status	okinstallation	B6 Nyhavnadifferential loss correction	single-endedforward channel	channel 2reverse channel	N/Adate	2023/12/09time	21:55:08forward acquisition time	300,00reverse acquisition time	0,00gamma	499,1914k internal	0,3127k external	0,3127temperature offset calibration	1,0000default loss term (dB/km)	0,3820temperature slope calibration	1,0000multiplexer offset coefficient	1,0000multiplexer slope coefficient	1,0000fibre end	0,00T internal ref (°C)	21,62T ext. ref 1 (°C)	5,44T ext. ref 2 (°C)	5,43length (m)	temperature (°C)	Stokes	anti-Stokes-744,400	-200,000	-0,001	0,050
-743,385	75,527	-0,204	0,160
-742,371	24,781	0,046	-0,028
-741,356	-120,554	-0,178	-0,022
-740,342	22,655	0,033	0,020
-739,327	-35,641	-0,159	0,064
-738,312	384,464	-0,022	0,034
-737,298	-173,876	-0,276	0,006
-736,283	-70,306	-0,031	-0,009
-735,269	34,172	-0,293	0,190
-734,254	-200,000	-0,005	0,024
-733,239	-35,855	-0,454	-0,182
-732,225	25,964	0,209	-0,129
-731,210	325,562	0,079	0,113
-730,196	446,473	-0,081	-0,133
-729,181	-183,637	-0,104	0,001
-728,167	-52,957	0,046	0,016
-727,152	-16,690	-0,092	-0,043
-726,137	404,366	-0,121	0,190
-725,123	57,832	-0,032	-0,023
-724,108	800,000	-0,057	-0,139
-723,094	-193,103	-0,085	-0,001
-722,079	-128,991	-0,066	0,007
-721,064	0,676	0,035	-0,019
-720,050	-85,457	-0,097	-0,022
-719,035	286,495	0,107	0,144
-718,021	5,217	-0,059	0,032
-717,006	112,218	-0,140	-0,126
-715,991	99,647	-0,145	-0,125
-714,977	-86,619	-0,124	-0,028
-713,962	-200,000	0,019	-0,095
-712,948	800,000	0,042	-0,109
-711,933	-200,000	0,010	-0,108
-710,918	-130,625	-0,084	0,008
-709,904	17,551	0,039	0,023
-708,889	-200,000	-0,035	-0,151
-707,875	800,000	0,041	0,124
-706,860	16,607	0,062	0,036
-705,845	800,000	-0,007	0,023
-704,831	-200,000	-0,004	0,036
-703,816	-89,497	0,083	-0,018
-702,802	-21,042	-0,062	0,028
-701,787	366,637	-0,102	-0,154
-700,772	80,568	0,014	0,011
-699,758	337,332	-0,060	0,087
-698,743	-200,000	0,013	0,045
-697,729	-200,000	-0,020	0,081
-696,714	-200,000	-0,001	-0,016
-695,699	-200,000	0,044	-0,162
-694,685	800,000	-0,006	-0,016
-693,670	-87,321	-0,100	0,022
-692,656	800,000	0,008	-0,022
-691,641	-200,000	-0,010	-0,114
-690,627	12,501	-0,131	0,075
-689,612	-44,334	-0,096	0,035
-688,597	391,826	0,071	-0,110
-687,583	497,808	-0,053	-0,091
-686,568	67,953	-0,143	0,109
-685,554	43,803	0,010	-0,007
-684,539	-44,359	0,037	-0,014
-683,524	688,297	-0,021	0,041
-682,510	229,834	-0,058	0,070
-681,495	-200,000	-0,015	-0,095
-680,481	44,189	-0,092	-0,063
-679,466	-126,351	-0,108	0,012
-678,451	-200,000	0,006	-0,081
-677,437	-112,911	-0,100	-0,015
-676,422	-200,000	0,013	0,051
-675,408	-200,000	-0,002	0,100
-674,393	-43,558	0,034	-0,013
-673,378	371,584	-0,112	-0,169
-672,364	-200,000	0,008	-0,141
-671,349	-200,000	-0,004	0,113
-670,335	54,352	-0,031	0,022
-669,320	614,971	-0,041	-0,076
-668,305	97,076	-0,106	0,090
-667,291	800,000	0,022	-0,065
-666,276	-144,580	-0,147	0,010
-665,262	337,282	-0,053	-0,077
-664,247	-200,000	-0,014	-0,086
-663,232	800,000	0,063	-0,131
-662,218	800,000	-0,028	-0,065
-661,203	-84,179	0,110	0,026
-660,189	800,000	0,035	0,114
-659,174	-200,000	0,021	-0,136
-658,159	800,000	0,074	-0,213
-657,145	-46,595	0,033	0,012
-656,130	800,000	0,025	-0,071
-655,116	-30,038	-0,080	0,033
-654,101	-62,238	-0,089	-0,027
-653,086	404,286	0,083	0,129
-652,072	79,703	-0,104	0,083
-651,057	800,000	0,012	-0,025
-650,043	-98,770	0,071	0,013
-649,028	-107,680	-0,025	-0,004
-648,014	-200,000	0,004	0,041
-646,999	-31,332	0,044	0,018
-645,984	-200,000	0,006	-0,035
-644,970	347,952	-0,053	-0,077
-643,955	64,440	-0,039	-0,029
-642,941	98,989	-0,113	-0,096
-641,926	-18,937	-0,033	0,015
-640,911	3,869	-0,076	-0,041
-639,897	800,000	0,017	0,050
-638,882	676,708	0,038	0,073
-637,868	30,534	0,083	-0,053
-636,853	223,018	0,081	0,096
-635,838	-200,000	0,025	-0,254
-634,824	14,715	-0,081	0,047
-633,809	-22,063	-0,130	-0,058
-632,795	329,989	0,027	0,038
-631,780	-200,000	0,002	0,151
-630,765	-16,209	-0,049	0,023
-629,751	800,000	0,021	0,057
-628,736	-200,000	0,006	0,112
-627,722	-20,219	0,037	0,017
-626,707	-114,401	0,076	-0,011
-625,692	287,160	0,078	-0,105
-624,678	-200,000	0,005	-0,073
-623,663	-64,349	0,126	0,038
-622,649	243,190	-0,034	-0,043
-621,634	-22,328	-0,049	0,022
-620,619	-125,499	-0,054	-0,006
-619,605	-0,814	0,151	-0,079
-618,590	-45,762	-0,026	-0,009
-617,576	60,679	0,045	0,033
-616,561	-102,528	0,057	0,010
-615,546	-147,852	-0,120	0,007
-614,532	-74,451	-0,052	-0,014
-613,517	7,980	0,036	-0,020
-612,503	-45,664	-0,043	-0,016
-611,488	49,949	0,065	0,045
-610,474	255,680	0,057	-0,073
-609,459	266,416	-0,023	-0,029
-608,444	-53,079	-0,050	-0,017
-607,430	-200,000	-0,019	0,079
-606,415	-200,000	0,025	-0,104
-605,401	800,000	0,032	0,088
-604,386	-200,000	0,015	0,149
-603,371	471,904	-0,008	0,014
-602,357	-51,433	-0,058	0,020
-601,342	-185,424	0,020	-0,000
-600,328	800,000	-0,023	-0,060
-599,313	68,865	0,063	-0,048
-598,298	-49,430	-0,139	0,049
-597,284	-61,614	0,161	0,050
-596,269	110,318	-0,005	0,004
-595,255	-200,000	0,002	-0,043
-594,240	800,000	0,012	-0,026
-593,225	800,000	-0,059	-0,172
-592,211	-132,591	0,085	0,008
-591,196	8,929	-0,060	0,033
-590,182	139,688	0,061	0,059
-589,167	127,067	-0,049	-0,046
-588,152	190,491	-0,093	0,103
-587,138	-200,000	0,049	-0,170
-586,123	800,000	0,028	0,062
-585,109	-200,000	-0,031	0,102
-584,094	638,736	-0,036	0,067
-583,079	-94,699	0,090	0,018
-582,065	-73,031	0,078	0,021
-581,050	-26,933	-0,163	0,070
-580,036	638,255	0,024	0,045
-579,021	800,000	-0,040	0,102
-578,006	-200,000	-0,012	-0,215
-576,992	-97,588	-0,115	0,022
-575,977	64,874	0,043	-0,032
-574,963	55,503	-0,070	-0,050
-573,948	169,604	0,022	-0,024
-572,934	111,080	0,097	-0,086
-571,919	-94,305	-0,084	0,017
-570,904	-90,400	0,038	-0,008
-569,890	-39,112	-0,028	0,011
-568,875	497,701	0,082	0,140
-567,861	142,853	-0,052	-0,051
-566,846	-13,366	0,147	0,070
-565,831	48,106	0,065	-0,045
-564,817	-38,548	0,151	-0,059
-563,802	-23,495	-0,094	-0,042
-562,788	-200,000	-0,020	0,065
-561,773	-90,065	0,101	-0,022
-560,758	313,498	-0,030	-0,041
-559,744	121,533	0,040	0,037
-558,729	800,000	0,047	0,096
-557,715	90,941	0,067	0,055
-556,700	331,553	-0,061	-0,087
-555,685	-119,636	-0,055	-0,007
-554,671	76,941	0,122	-0,096
-553,656	-9,283	-0,118	-0,058
-552,642	-150,974	0,088	0,005
-551,627	-39,714	-0,068	0,026
-550,612	-200,000	-0,041	0,162
-549,598	111,436	-0,013	0,011
-548,583	-6,577	0,076	-0,038
-547,569	-59,108	-0,021	0,007
-546,554	268,269	0,046	0,059
-545,539	-123,447	0,036	0,004
-544,525	409,747	-0,078	-0,123
-543,510	337,552	-0,040	0,058
-542,496	151,090	-0,024	-0,024
-541,481	-200,000	-0,010	-0,035
-540,466	-58,555	-0,143	0,046
-539,452	-200,000	-0,004	-0,099
-538,437	800,000	0,038	0,098
-537,423	800,000	-0,070	0,144
-536,408	-64,202	-0,066	-0,020
-535,393	-77,190	-0,045	0,011
-534,379	142,089	-0,122	-0,120
-533,364	370,357	0,083	-0,124
-532,350	-200,000	-0,005	0,032
-531,335	800,000	0,037	-0,111
-530,321	-132,745	0,071	0,007
-529,306	82,304	0,035	0,028
-528,291	-144,558	0,071	-0,005
-527,277	800,000	-0,050	-0,125
-526,262	-200,000	0,020	-0,120
-525,248	-200,000	0,004	-0,115
-524,233	232,510	0,087	0,106
-523,218	-188,096	0,159	0,001
-522,204	-200,000	0,013	-0,094
-521,189	124,464	-0,077	0,071
-520,175	-58,321	-0,041	0,013
-519,160	176,035	0,076	-0,081
-518,145	-34,876	0,025	-0,010
-517,131	286,730	0,021	0,028
-516,116	36,641	-0,036	-0,024
-515,102	-74,978	0,086	0,023
-514,087	143,754	-0,093	0,091
-513,072	235,442	-0,056	-0,068
-512,058	3,172	-0,064	-0,034
-511,043	235,990	-0,079	-0,097
-510,029	-200,000	0,024	0,112
-509,014	-0,214	0,128	0,067
-507,999	-21,681	-0,138	0,062
-506,985	-52,368	-0,088	0,030
-505,970	-200,000	0,006	-0,043
-504,956	629,007	0,039	0,072
-503,941	104,223	0,149	-0,129
-502,926	-200,000	0,007	0,025
-501,912	800,000	-0,029	-0,093
-500,897	145,607	-0,046	0,046
-499,883	346,973	-0,042	-0,061
-498,868	-7,618	-0,142	0,071
-497,853	-40,213	-0,107	0,041
-496,839	68,342	-0,043	-0,033
-495,824	-137,137	0,088	0,007
-494,810	-200,000	0,022	0,090
-493,795	530,000	-0,080	-0,139
-492,781	-76,503	0,085	-0,022
-491,766	576,729	-0,016	-0,028
-490,751	47,813	-0,071	-0,049
-489,737	444,759	0,056	0,091
-488,722	-200,000	0,010	-0,129
-487,708	394,306	-0,027	0,042
-486,693	-26,004	0,087	0,038
-485,678	-146,830	-0,136	0,009
-484,664	-200,000	-0,001	-0,033
-483,649	-200,000	-0,008	-0,132
-482,635	-200,000	0,006	-0,039
-481,620	-167,527	0,135	0,004
-480,605	402,987	0,079	-0,123
-479,591	-200,000	-0,021	0,141
-478,576	111,303	-0,182	0,162
-477,562	179,851	-0,087	0,094
-476,547	150,740	0,053	-0,053
-475,532	-200,000	-0,008	-0,099
-474,518	-55,551	0,027	0,009
-473,503	-20,050	-0,099	0,045
-472,489	-33,559	-0,112	-0,045
-471,474	800,000	0,041	0,097
-470,459	-75,310	-0,064	0,017
-469,445	-200,000	0,013	-0,050
-468,430	238,061	-0,043	-0,053
-467,416	-200,000	0,015	-0,062
-466,401	395,330	-0,052	0,081
-465,386	86,480	0,119	0,097
-464,372	800,000	-0,046	0,099
-463,357	800,000	-0,019	-0,039
-462,343	37,372	-0,107	-0,070
-461,328	162,430	-0,016	0,017
-460,313	-180,145	-0,046	-0,001
-459,299	-200,000	-0,031	-0,108
-458,284	-61,710	-0,047	0,014
-457,270	-200,000	0,012	0,060
-456,255	800,000	-0,058	-0,133
-455,241	92,205	0,124	-0,103
-454,226	-47,292	-0,110	-0,039
-453,211	-200,000	-0,041	-0,155
-452,197	87,185	0,051	0,042
-451,182	188,306	0,045	0,050
-450,168	-200,000	-0,002	0,027
-449,153	43,968	-0,101	-0,068
-448,138	800,000	0,009	-0,019
-447,124	397,402	-0,060	-0,093
-446,109	-96,599	0,173	-0,033
-445,095	-200,000	0,015	-0,092
-444,080	-200,000	-0,018	0,091
-443,065	158,563	0,019	-0,020
-442,051	-200,000	0,014	0,091
-441,036	800,000	-0,039	-0,093
-440,022	-200,000	0,020	-0,069
-439,007	506,829	-0,087	-0,150
-437,992	159,143	-0,137	-0,141
-436,978	-120,435	0,113	0,014
-435,963	9,966	0,064	-0,036
-434,949	65,245	-0,035	-0,026
-433,934	354,885	-0,096	-0,141
-432,919	800,000	0,060	-0,126
-431,905	800,000	0,021	-0,045
-430,890	-125,360	0,057	-0,006
-429,876	800,000	0,042	0,109
-428,861	-51,282	0,075	0,026
-427,846	459,502	0,066	0,108
-426,832	-91,058	-0,110	-0,023
-425,817	-159,891	0,160	0,006
-424,803	-165,009	0,041	-0,001
-423,788	67,610	0,079	0,059
-422,773	-28,533	-0,066	0,028
-421,759	348,322	0,023	0,033
-420,744	47,950	0,033	0,023
-419,730	-200,000	-0,007	-0,107
-418,715	-100,806	-0,051	0,009
-417,701	-200,000	0,015	-0,066
-416,686	643,652	-0,059	-0,110
-415,671	-63,797	0,130	-0,039
-414,657	-130,551	-0,081	0,008
-413,642	-32,639	-0,014	0,006
-412,628	-200,000	-0,009	0,065
-411,613	800,000	0,012	0,033
-410,598	785,346	-0,071	0,144
-409,584	36,956	-0,121	-0,079
-408,569	18,110	0,172	0,101
-407,555	-150,568	0,087	-0,005
-406,540	-200,000	-0,006	-0,039
-405,525	460,425	-0,035	0,058
-404,511	698,320	-0,036	-0,069
-403,496	-200,000	-0,014	0,070
-402,482	-200,000	-0,001	0,005
-401,467	-79,123	0,062	-0,015
-400,452	-200,000	0,023	0,130
-399,438	-48,434	-0,098	0,034
-398,423	151,805	-0,063	0,063
-397,409	-200,000	-0,021	0,077
-396,394	-200,000	-0,016	-0,086
-395,379	-146,114	-0,077	0,005
-394,365	-83,090	0,098	0,023
-393,350	21,892	-0,015	-0,009
-392,336	303,626	-0,020	-0,028
-391,321	-200,000	0,044	0,198
-390,306	800,000	0,026	-0,055
-389,292	-98,300	-0,118	-0,022
-388,277	231,333	-0,110	-0,133
-387,263	-200,000	0,072	-0,000
-386,248	-98,057	-0,084	-0,016
-385,233	-64,272	-0,065	-0,019
-384,219	-160,378	-0,117	0,005
-383,204	-200,000	-0,010	-0,059
-382,190	800,000	-0,045	0,099
-381,175	800,000	0,028	-0,072
-380,160	-33,865	0,065	-0,026
-379,146	-200,000	0,009	-0,104
-378,131	-200,000	-0,015	-0,092
-377,117	-161,457	-0,060	-0,002
-376,102	-200,000	-0,052	-0,181
-375,088	151,734	0,145	-0,145
-374,073	-200,000	0,015	-0,143
-373,058	255,287	-0,016	0,020
-372,044	-200,000	0,005	-0,131
-371,029	-200,000	0,001	-0,009
-370,015	284,237	-0,059	-0,078
-369,000	-200,000	0,055	-0,187
-367,985	-145,557	0,045	-0,003
-366,971	-106,170	0,167	0,027
-365,956	265,593	0,070	-0,090
-364,942	-200,000	0,004	0,060
-363,927	-57,719	0,156	0,050
-362,912	-200,000	-0,008	0,030
-361,898	109,118	0,078	-0,068
-360,883	425,144	0,050	-0,078
-359,869	-40,993	-0,058	-0,022
-358,854	298,899	0,114	0,155
-357,839	765,677	-0,052	0,104
-356,825	-200,000	0,016	0,066
-355,810	608,488	-0,043	0,079
-354,796	800,000	0,036	0,110
-353,781	189,635	0,049	0,054
-352,766	627,523	-0,025	-0,046
-351,752	-5,096	0,078	-0,039
-350,737	77,491	0,027	0,021
-349,723	258,561	0,020	-0,025
-348,708	800,000	0,028	0,061
-347,693	-200,000	0,005	0,022
-346,679	260,734	0,042	-0,054
-345,664	800,000	-0,019	-0,051
-344,650	327,565	0,062	0,087
-343,635	218,020	0,062	0,073
-342,620	409,316	0,028	-0,043
-341,606	-123,628	-0,132	-0,015
-340,591	-200,000	0,011	-0,152
-339,577	406,282	-0,067	-0,104
-338,562	78,320	-0,003	-0,002
-337,548	-66,086	0,244	0,071
-336,533	169,273	0,069	0,072
-335,518	-200,000	0,010	-0,099
-334,504	202,549	0,116	0,132
-333,489	403,512	-0,044	0,068
-332,475	444,323	-0,009	-0,015
-331,460	800,000	0,037	-0,101
-330,445	276,568	0,053	-0,069
-329,431	197,821	0,017	-0,019
-328,416	-96,437	0,241	-0,046
-327,402	-200,000	0,002	0,012
-326,387	341,173	-0,026	-0,037
-325,372	-192,899	0,068	-0,000
-324,358	45,127	-0,039	0,026
-323,343	704,266	0,083	-0,162
-322,329	33,318	-0,053	0,033
-321,314	-200,000	0,000	0,089
-320,299	93,614	0,061	-0,050
-319,285	86,384	-0,036	-0,029
-318,270	373,742	-0,014	-0,021
-317,256	-70,640	-0,171	-0,047
-316,241	800,000	-0,087	-0,194
-315,226	2,939	0,065	-0,034
-314,212	-81,778	-0,046	-0,011
-313,197	-76,711	0,083	-0,021
-312,183	17,334	-0,040	-0,023
-311,168	-32,220	-0,061	0,025
-310,153	-131,560	0,087	0,008
-309,139	104,674	-0,043	0,037
-308,124	-115,889	0,095	-0,013
-307,110	36,804	0,093	0,060
-306,095	-200,000	-0,022	0,121
-305,080	-26,604	-0,174	0,074
-304,066	246,843	0,033	-0,041
-303,051	241,506	-0,078	-0,096
-302,037	215,909	-0,053	-0,062
-301,022	800,000	0,076	-0,194
-300,008	-138,151	-0,071	-0,006
-298,993	496,058	-0,048	-0,082
-297,978	-26,316	-0,116	-0,049
-296,964	794,400	-0,010	0,020
-295,949	53,845	0,114	-0,080
-294,935	-30,725	-0,093	0,038
-293,920	800,000	-0,044	-0,125
-292,905	58,128	0,097	0,069
-291,891	-97,015	-0,136	-0,026
-290,876	109,255	0,129	0,113
-289,862	-53,111	-0,095	-0,032
-288,847	-6,323	-0,034	-0,017
-287,832	-200,000	-0,016	0,071
-286,818	50,252	-0,055	0,038
-285,803	265,490	-0,069	0,088
-284,789	-123,484	0,135	0,016
-283,774	233,971	0,049	0,059
-282,759	-93,275	-0,135	0,027
-281,745	800,000	0,016	0,036
-280,730	68,357	0,151	-0,113
-279,716	1,082	-0,022	-0,012
-278,701	-200,000	0,016	0,112
-277,686	800,000	0,049	0,114
-276,672	800,000	-0,031	0,089
-275,657	-200,000	-0,022	0,085
-274,643	-117,550	-0,060	0,008
-273,628	64,273	0,071	0,052
-272,613	800,000	-0,038	-0,087
-271,599	45,828	0,118	-0,079
-270,584	3,111	-0,042	0,022
-269,570	-200,000	0,008	-0,031
-268,555	23,460	-0,106	-0,064
-267,540	800,000	-0,090	0,184
-266,526	-200,000	-0,004	0,019
-265,511	-7,425	-0,027	-0,013
-264,497	466,725	-0,033	0,054
-263,482	71,014	0,070	0,053
-262,467	800,000	0,068	0,186
-261,453	-148,407	-0,063	-0,004
-260,438	-200,000	0,018	0,133
-259,424	-200,000	0,014	0,133
-258,409	-200,000	0,007	-0,103
-257,395	-15,730	-0,092	-0,043
-256,380	-53,285	0,163	0,054
-255,365	312,096	-0,053	0,073
-254,351	116,531	-0,100	-0,090
-253,336	186,917	0,024	-0,026
-252,322	-200,000	0,019	-0,120
-251,307	361,527	-0,052	-0,076
-250,292	-200,000	-0,012	-0,258
-249,278	-200,000	0,015	-0,056
-248,263	416,385	0,018	0,029
-247,249	147,465	-0,060	0,059
-246,234	701,045	0,019	0,037
-245,219	557,268	0,018	0,032
-244,205	-24,838	-0,043	0,018
-243,190	305,519	-0,081	-0,110
-242,176	115,355	-0,076	0,068
-241,161	466,935	-0,016	-0,026
-240,146	-30,879	0,100	-0,041
-239,132	-29,804	-0,111	0,046
-238,117	-28,666	-0,110	0,046
-237,103	800,000	-0,010	-0,023
-236,088	-104,570	-0,096	0,016
-235,073	76,644	0,086	-0,066
-234,059	88,598	-0,113	0,092
-233,044	690,031	0,061	0,116
-232,030	22,653	-0,021	0,013
-231,015	-200,000	0,007	-0,063
-230,000	674,461	0,058	0,110
-228,986	-139,101	0,172	0,013
-227,971	-125,531	0,029	0,003
-226,957	-82,544	0,109	-0,026
-225,942	-200,000	-0,040	0,130
-224,927	61,715	-0,026	0,019
-223,913	-66,818	-0,084	-0,024
-222,898	-24,881	-0,054	0,023
-221,884	438,240	-0,059	0,095
-220,869	-200,000	0,045	0,241
-219,855	-82,099	0,092	0,022
-218,840	-141,735	0,108	-0,008
-217,825	783,276	-0,060	0,120
-216,811	357,313	0,055	-0,080
-215,796	215,486	0,042	0,049
-214,782	481,205	-0,072	-0,120
-213,767	197,356	0,077	0,086
-212,752	1,195	0,105	0,055
-211,738	380,775	0,049	0,073
-210,723	186,729	0,042	0,046
-209,709	-71,922	0,030	0,008
-208,694	-200,000	0,020	-0,133
-207,679	-80,773	-0,026	0,006
-206,665	-200,000	0,006	-0,161
-205,650	82,136	0,040	0,031
-204,636	84,437	0,031	0,025
-203,621	109,346	-0,056	0,049
-202,606	-200,000	0,027	0,113
-201,592	-200,000	-0,023	0,128
-200,577	-41,885	-0,112	-0,042
-199,563	99,510	0,043	0,036
-198,548	-200,000	-0,001	0,110
-197,533	-23,710	-0,092	0,040
-196,519	-200,000	0,018	0,119
-195,504	205,810	-0,051	-0,058
-194,490	-82,065	-0,082	0,019
-193,475	-18,023	0,112	0,051
-192,460	-168,048	-0,029	0,001
-191,446	50,666	-0,017	-0,012
-190,431	-22,482	0,192	-0,084
-189,417	39,933	-0,148	0,097
-188,402	-15,953	-0,067	0,031
-187,387	-200,000	0,018	0,096
-186,373	195,713	-0,072	-0,080
-185,358	-200,000	-0,004	0,036
-184,344	119,335	-0,054	0,048
-183,329	-51,616	0,110	0,037
-182,315	-8,044	0,118	0,057
-181,300	-29,428	-0,161	0,067
-180,285	775,462	-0,063	-0,126
-179,271	415,075	0,071	-0,111
-178,256	109,191	0,059	-0,051
-177,242	29,286	0,117	0,072
-176,227	240,721	-0,019	0,023
-175,212	61,246	0,109	-0,079
-174,198	3,502	0,032	-0,017
-173,183	-200,000	-0,020	0,085
-172,169	-104,810	0,043	0,007
-171,154	800,000	-0,051	-0,147
-170,139	0,429	-0,096	0,050
-169,125	-107,662	0,126	-0,020
-168,110	-160,969	-0,042	-0,002
-167,096	800,000	-0,028	0,074
-166,081	120,747	0,065	0,059
-165,066	-118,552	0,051	-0,006
-164,052	-135,184	-0,087	0,008
-163,037	-200,000	-0,077	0,255
-162,023	-200,000	-0,011	0,182
-161,008	-200,000	0,011	0,057
-159,993	128,647	-0,129	0,120
-158,979	800,000	-0,037	0,081
-157,964	-200,000	-0,026	0,103
-156,950	417,533	-0,036	-0,056
-155,935	182,611	0,030	-0,033
-154,920	800,000	-0,073	0,202
-153,906	72,535	0,036	0,027
-152,891	188,260	0,066	-0,071
-151,877	-200,000	-0,016	0,088
-150,862	509,773	0,024	-0,041
-149,847	800,000	0,048	-0,118
-148,833	219,808	0,089	-0,104
-147,818	-200,000	-0,008	0,055
-146,804	-200,000	-0,009	0,101
-145,789	1,036	0,061	0,032
-144,775	212,250	-0,019	-0,022
-143,760	621,178	0,061	-0,113
-142,745	-8,474	-0,123	-0,060
-141,731	-200,000	0,001	0,010
-140,716	800,000	0,075	0,191
-139,702	22,331	0,072	-0,043
-138,687	185,643	-0,123	0,133
-137,672	-70,587	-0,014	0,004
-136,658	232,652	-0,077	-0,092
-135,643	142,720	-0,080	-0,078
-134,629	-200,000	0,022	0,073
-133,614	-200,000	0,013	0,114
-132,599	-200,000	-0,002	-0,044
-131,585	-200,000	-0,028	0,123
-130,570	-200,000	-0,011	-0,088
-129,556	45,688	-0,051	-0,034
-128,541	-200,000	-0,020	-0,072
-127,526	12,513	0,047	-0,026
-126,512	-167,088	0,104	0,003
-125,497	-200,000	0,018	0,205
-124,483	-200,000	-0,016	0,184
-123,468	-19,483	-0,018	0,008
-122,453	-127,762	-0,090	0,009
-121,439	170,957	0,053	-0,055
-120,424	-41,342	0,102	-0,038
-119,410	-179,486	-0,094	-0,001
-118,395	-70,150	-0,022	0,006
