DTS Sentinel unit serial number:	SN410029Multiplexer serial number:	ORYXHardware model number:	OX2-SRSoftware version number:	ORYX F/W v4,00 Oryx Data Collector v3.7.2.0data status	okinstallation	B6 Nyhavnadifferential loss correction	single-endedforward channel	channel 2reverse channel	N/Adate	2023/12/09time	10:45:08forward acquisition time	300,00reverse acquisition time	0,00gamma	499,1914k internal	0,3139k external	0,3139temperature offset calibration	1,0000default loss term (dB/km)	0,3820temperature slope calibration	1,0000multiplexer offset coefficient	1,0000multiplexer slope coefficient	1,0000fibre end	0,00T internal ref (°C)	18,62T ext. ref 1 (°C)	2,41T ext. ref 2 (°C)	2,41length (m)	temperature (°C)	Stokes	anti-Stokes-744,400	-62,739	0,046	0,014
-743,385	1,375	-0,208	0,111
-742,371	-90,018	0,036	0,008
-741,356	-81,267	-0,276	0,067
-740,342	800,000	0,031	0,100
-739,327	-153,478	-0,249	0,013
-738,312	800,000	0,016	-0,046
-737,298	-133,145	-0,335	-0,031
-736,283	26,208	-0,124	-0,076
-735,269	-82,277	-0,347	0,083
-734,254	44,358	0,039	-0,026
-733,239	-93,323	-0,451	-0,092
-732,225	55,845	0,160	0,115
-731,210	44,245	-0,107	-0,073
-730,196	800,000	-0,028	0,073
-729,181	711,568	-0,056	-0,110
-728,167	385,371	0,063	-0,097
-727,152	-200,000	-0,005	-0,043
-726,137	331,628	-0,051	0,074
-725,123	-200,000	-0,006	-0,057
-724,108	-200,000	-0,026	-0,178
-723,094	140,405	-0,120	-0,117
-722,079	-138,022	-0,092	-0,007
-721,064	800,000	0,031	-0,085
-720,050	800,000	-0,059	-0,179
-719,035	-9,884	-0,121	0,060
-718,021	704,331	-0,041	0,080
-717,006	168,207	-0,101	-0,107
-715,991	-15,897	-0,087	-0,041
-714,977	-200,000	0,002	0,175
-713,962	800,000	0,032	-0,074
-712,948	-200,000	-0,008	0,047
-711,933	-77,988	-0,067	0,017
-710,918	470,912	-0,064	-0,108
-709,904	-200,000	0,003	-0,039
-708,889	-95,361	-0,216	0,043
-707,875	568,567	-0,021	0,038
-706,860	-2,997	0,126	-0,065
-705,845	-124,876	0,162	0,018
-704,831	44,196	-0,096	-0,065
-703,816	-114,846	-0,164	-0,023
-702,802	36,090	-0,089	0,058
-701,787	-6,027	-0,199	-0,100
-700,772	-48,830	-0,114	-0,040
-699,758	286,027	0,083	-0,112
-698,743	-168,521	0,244	0,007
-697,729	390,801	0,032	-0,049
-696,714	-200,000	-0,029	0,107
-695,699	-10,333	-0,027	-0,013
-694,685	-200,000	-0,020	0,066
-693,670	-48,959	-0,083	0,029
-692,656	103,256	-0,009	-0,008
-691,641	-200,000	-0,012	-0,079
-690,627	-136,284	-0,083	0,007
-689,612	-200,000	-0,009	-0,056
-688,597	800,000	-0,046	-0,095
-687,583	800,000	0,043	-0,090
-686,568	800,000	-0,063	0,152
-685,554	-200,000	-0,034	0,140
-684,539	-57,851	0,085	0,027
-683,524	-200,000	0,007	-0,068
-682,510	175,833	0,108	-0,116
-681,495	231,264	-0,134	-0,163
-680,481	783,485	-0,040	0,081
-679,466	-200,000	0,009	-0,054
-678,451	108,072	-0,052	-0,046
-677,437	-69,485	0,030	-0,008
-676,422	-200,000	0,016	0,089
-675,408	445,561	-0,036	0,059
-674,393	-14,419	0,090	0,043
-673,378	345,645	-0,102	-0,149
-672,364	-200,000	0,001	-0,066
-671,349	159,606	0,073	-0,075
-670,335	-32,377	0,019	0,008
-669,320	-200,000	-0,001	0,188
-668,305	-200,000	0,032	0,149
-667,291	800,000	0,015	-0,033
-666,276	156,119	0,049	-0,050
-665,262	-124,175	-0,028	-0,003
-664,247	-200,000	0,011	-0,124
-663,232	-200,000	-0,034	-0,139
-662,218	-118,037	0,059	-0,008
-661,203	322,992	0,064	-0,090
-660,189	-200,000	-0,019	0,072
-659,174	-67,643	-0,149	-0,043
-658,159	-200,000	-0,029	-0,100
-657,145	129,594	0,144	0,136
-656,130	-81,277	-0,050	-0,012
-655,116	143,856	-0,094	-0,093
-654,101	-200,000	0,023	-0,077
-653,086	-27,815	0,088	-0,037
-652,072	-122,523	-0,233	-0,028
-651,057	-200,000	-0,038	-0,185
-650,043	-200,000	-0,015	0,088
-649,028	22,286	-0,122	0,074
-648,014	-200,000	-0,012	-0,073
-646,999	800,000	-0,037	-0,101
-645,984	-192,196	-0,105	0,001
-644,970	-200,000	-0,005	0,041
-643,955	520,875	-0,088	0,153
-642,941	220,403	-0,091	-0,108
-641,926	90,801	0,070	0,058
-640,911	146,907	-0,096	0,095
-639,897	800,000	0,045	0,130
-638,882	91,820	0,113	0,094
-637,868	235,603	-0,056	-0,068
-636,853	286,064	-0,069	-0,093
-635,838	691,388	-0,095	-0,185
-634,824	-77,805	-0,064	-0,016
-633,809	-200,000	0,015	0,089
-632,795	-200,000	0,033	0,121
-631,780	800,000	-0,047	-0,099
-630,765	383,083	-0,077	-0,117
-629,751	178,828	-0,104	-0,112
-628,736	690,570	-0,074	-0,144
-627,722	800,000	0,031	-0,070
-626,707	-200,000	0,015	-0,106
-625,692	-40,860	0,146	-0,055
-624,678	82,659	-0,064	0,051
-623,663	-37,008	-0,047	0,018
-622,649	51,066	-0,161	-0,112
-621,634	800,000	0,038	-0,108
-620,619	-141,144	0,062	0,005
-619,605	3,739	-0,052	-0,028
-618,590	800,000	0,065	0,134
-617,576	239,529	-0,109	0,134
-616,561	443,322	-0,062	-0,100
-615,546	-200,000	0,004	-0,015
-614,532	-106,982	-0,080	0,013
-613,517	76,733	-0,071	-0,056
-612,503	-200,000	0,007	-0,042
-611,488	75,813	0,134	0,104
-610,474	513,536	-0,028	0,049
-609,459	-200,000	-0,005	-0,086
-608,444	-200,000	-0,009	0,083
-607,430	-200,000	0,017	-0,134
-606,415	86,701	-0,096	-0,078
-605,401	-16,038	0,153	-0,071
-604,386	800,000	-0,038	0,117
-603,371	-200,000	0,004	-0,050
-602,357	-200,000	-0,009	0,138
-601,342	-65,578	0,053	-0,016
-600,328	-45,703	-0,003	-0,001
-599,313	-200,000	0,024	-0,140
-598,298	800,000	0,061	-0,141
-597,284	-58,998	0,137	-0,043
-596,269	-3,779	-0,071	-0,036
-595,255	680,851	0,031	-0,061
-594,240	-200,000	-0,009	-0,174
-593,225	800,000	-0,022	-0,045
-592,211	46,021	0,123	-0,083
-591,196	195,666	0,006	0,007
-590,182	585,382	-0,047	0,085
-589,167	45,060	0,162	0,110
-588,152	800,000	0,006	-0,013
-587,138	-48,905	0,084	-0,030
-586,123	103,681	-0,081	0,070
-585,109	-10,688	-0,017	-0,008
-584,094	88,633	0,098	-0,080
-583,079	65,986	0,038	-0,028
-582,065	175,664	0,056	0,060
-581,050	-6,662	0,163	-0,081
-580,036	-75,459	-0,056	-0,015
-579,021	102,413	-0,135	-0,116
-578,006	-138,788	-0,145	-0,011
-576,992	-200,000	0,006	0,039
-575,977	-4,224	0,041	0,021
-574,963	-31,599	-0,044	0,018
-573,948	283,952	0,108	0,143
-572,934	680,888	0,054	0,104
-571,919	13,740	-0,121	0,069
-570,904	674,081	0,082	-0,158
-569,890	280,399	-0,080	0,106
-568,875	-106,555	-0,130	0,021
-567,861	-200,000	-0,001	0,022
-566,846	71,854	-0,106	0,081
-565,831	-176,999	-0,131	0,002
-564,817	-200,000	0,014	-0,169
-563,802	113,568	-0,055	-0,049
-562,788	13,532	0,027	-0,015
-561,773	-99,973	0,088	-0,016
-560,758	-41,129	-0,043	0,016
-559,744	-200,000	-0,002	0,111
-558,729	-200,000	0,018	0,111
-557,715	800,000	0,047	0,130
-556,700	132,692	-0,121	-0,115
-555,685	412,346	0,027	0,043
-554,671	-175,272	0,040	-0,001
-553,656	-145,091	0,116	0,008
-552,642	45,199	-0,102	0,069
-551,627	37,354	0,005	-0,003
-550,612	-2,060	-0,166	-0,086
-549,598	800,000	0,018	-0,055
-548,583	124,911	0,035	-0,033
-547,569	800,000	0,028	0,070
-546,554	-200,000	0,022	0,180
-545,539	-52,446	0,046	-0,015
-544,525	-18,534	0,097	0,044
-543,510	114,997	0,067	-0,060
-542,496	214,065	0,027	-0,031
-541,481	-43,193	-0,054	0,020
-540,466	-79,731	0,118	-0,029
-539,452	-34,984	-0,139	-0,055
-538,437	187,745	-0,072	-0,079
-537,423	278,118	-0,063	0,083
-536,408	-182,561	0,071	0,001
-535,393	347,875	-0,087	-0,126
-534,379	196,852	-0,085	-0,095
-533,364	-102,311	0,082	0,014
-532,350	800,000	0,002	0,007
-531,335	-200,000	-0,028	-0,116
-530,321	159,110	0,045	0,046
-529,306	765,412	-0,028	0,057
-528,291	-43,467	-0,078	-0,029
-527,277	82,778	0,043	0,034
-526,262	-200,000	-0,016	-0,137
-525,248	-34,542	0,057	-0,023
-524,233	-9,800	0,056	0,027
-523,218	-65,426	-0,081	-0,024
-522,204	-200,000	-0,032	-0,191
-521,189	-200,000	-0,050	-0,163
-520,175	39,934	-0,124	-0,082
-519,160	103,884	0,092	0,080
-518,145	-200,000	0,045	0,174
-517,131	240,203	-0,011	-0,013
-516,116	13,250	0,068	0,039
-515,102	223,158	0,058	0,069
-514,087	-200,000	-0,013	-0,092
-513,072	30,480	-0,093	0,059
-512,058	-78,263	0,073	-0,018
-511,043	133,674	0,088	-0,083
-510,029	-43,793	0,116	-0,043
-509,014	-128,206	0,090	0,009
-507,999	-200,000	-0,036	0,144
-506,985	-3,167	-0,185	-0,094
-505,970	-95,859	-0,074	0,014
-504,956	-200,000	-0,026	0,121
-503,941	-97,175	-0,103	0,020
-502,926	-200,000	-0,003	0,181
-501,912	-200,000	-0,028	0,114
-500,897	13,293	-0,104	-0,059
-499,883	800,000	-0,018	0,056
-498,868	-200,000	-0,018	-0,130
-497,853	143,618	0,039	-0,038
-496,839	800,000	0,030	-0,085
-495,824	-200,000	0,036	-0,130
-494,810	208,857	0,030	0,034
-493,795	-200,000	-0,009	0,036
-492,781	-141,259	0,170	0,013
-491,766	-200,000	0,031	-0,109
-490,751	-200,000	-0,034	-0,161
-489,737	210,798	-0,052	-0,060
-488,722	-200,000	-0,005	0,100
-487,708	-200,000	0,013	0,094
-486,693	83,409	0,007	-0,005
-485,678	800,000	-0,031	-0,097
-484,664	-148,056	0,050	0,003
-483,649	389,624	-0,069	-0,105
-482,635	-200,000	0,007	-0,083
-481,620	158,598	-0,050	-0,051
-480,605	345,073	0,008	-0,011
-479,591	-62,394	-0,030	0,009
-478,576	516,281	-0,056	-0,096
-477,562	258,356	0,047	-0,060
-476,547	-86,319	-0,118	-0,026
-475,532	26,409	0,100	-0,061
-474,518	-200,000	-0,004	0,077
-473,503	800,000	0,048	-0,152
-472,489	-200,000	0,013	-0,110
-471,474	144,011	-0,035	-0,034
-470,459	330,729	-0,066	-0,093
-469,445	-58,759	0,112	-0,035
-468,430	167,554	-0,093	0,097
-467,416	-33,557	0,062	0,025
-466,401	-200,000	-0,005	-0,024
-465,386	225,702	0,086	0,102
-464,372	-200,000	0,006	-0,107
-463,357	91,095	-0,090	-0,074
-462,343	367,407	0,044	-0,066
-461,328	800,000	0,037	0,114
-460,313	-200,000	-0,001	-0,109
-459,299	-138,962	0,098	-0,008
-458,284	800,000	-0,025	-0,073
-457,270	-200,000	0,003	0,010
-456,255	155,597	0,055	-0,055
-455,241	-179,007	0,132	0,002
-454,226	800,000	0,015	0,045
-453,211	800,000	-0,028	-0,087
-452,197	-118,350	0,199	0,026
-451,182	-200,000	0,018	0,127
-450,168	167,519	-0,077	-0,080
-449,153	-200,000	0,004	0,154
-448,138	-200,000	0,013	-0,131
-447,124	151,397	-0,067	-0,067
-446,109	455,810	-0,033	0,055
-445,095	-119,494	0,050	0,006
-444,080	-200,000	0,044	-0,000
-443,065	-200,000	-0,001	-0,055
-442,051	5,350	-0,082	0,044
-441,036	-173,468	-0,042	-0,001
-440,022	-200,000	-0,023	-0,153
-439,007	14,270	0,090	-0,051
-437,992	800,000	0,008	0,018
-436,978	120,279	0,058	0,053
-435,963	47,795	0,046	0,031
-434,949	-200,000	-0,012	0,050
-433,934	194,409	-0,040	-0,044
-432,919	-114,082	-0,086	0,012
-431,905	-200,000	0,016	-0,078
-430,890	800,000	-0,078	-0,162
-429,876	150,116	-0,069	0,069
-428,861	668,496	0,048	-0,091
-427,846	-200,000	0,025	-0,160
-426,832	-157,235	-0,051	0,002
-425,817	-178,958	-0,140	0,002
-424,803	107,626	0,046	-0,040
-423,788	-53,853	0,100	0,033
-422,773	55,406	0,031	0,022
-421,759	184,754	0,067	0,073
-420,744	-200,000	0,027	-0,105
-419,730	-200,000	-0,003	-0,020
-418,715	-32,857	0,136	0,055
-417,701	32,785	-0,099	-0,062
-416,686	-125,546	0,192	-0,021
-415,671	99,592	0,097	0,082
-414,657	-41,338	-0,102	0,038
-413,642	-53,498	0,075	-0,025
-412,628	-177,684	-0,071	-0,001
-411,613	-200,000	-0,004	-0,015
-410,598	-200,000	-0,011	0,105
-409,584	-91,166	0,132	0,027
-408,569	184,863	-0,058	0,063
-407,555	-200,000	0,037	0,206
-406,540	36,468	0,101	0,065
-405,525	-200,000	-0,013	0,113
-404,511	-200,000	0,029	0,114
-403,496	350,235	-0,041	-0,059
-402,482	277,100	-0,029	-0,038
-401,467	-0,820	0,098	0,051
-400,452	102,319	0,021	0,018
-399,438	-98,798	0,054	0,010
-398,423	-200,000	0,016	-0,053
-397,409	-16,757	-0,100	-0,046
-396,394	-54,463	-0,077	-0,025
-395,379	27,235	0,153	0,094
-394,365	800,000	-0,040	0,102
-393,350	120,490	-0,019	0,018
-392,336	-200,000	-0,018	0,128
-391,321	228,103	0,029	-0,035
-390,306	-10,126	-0,169	0,082
-389,292	186,386	0,043	0,046
-388,277	-40,659	0,052	-0,020
-387,263	13,657	0,081	0,046
-386,248	800,000	0,016	-0,043
-385,233	-138,645	0,144	-0,011
-384,219	-14,243	-0,095	-0,045
-383,204	-200,000	0,040	-0,182
-382,190	-178,960	-0,103	-0,002
-381,175	-200,000	0,008	0,027
-380,160	-200,000	0,055	0,217
-379,146	-200,000	0,043	0,237
-378,131	800,000	-0,052	0,147
-377,117	143,483	0,081	-0,079
-376,102	800,000	-0,020	-0,043
-375,088	-200,000	-0,015	0,120
-374,073	640,651	-0,061	-0,114
-373,058	134,683	-0,056	0,053
-372,044	265,744	0,115	0,147
-371,029	-78,613	0,060	-0,015
-370,015	-151,883	0,059	0,003
-369,000	637,103	-0,076	-0,141
-367,985	28,620	-0,118	-0,073
-366,971	-200,000	-0,001	0,048
-365,956	118,249	0,158	-0,143
-364,942	-51,775	0,046	-0,016
-363,927	-70,381	-0,128	-0,035
-362,912	-70,397	-0,101	-0,028
-361,898	-17,059	-0,078	0,036
-360,883	154,933	0,072	-0,072
-359,869	615,948	-0,041	0,076
-358,854	-104,779	0,045	0,007
-357,839	800,000	-0,029	-0,084
-356,825	116,354	-0,118	-0,106
-355,810	329,041	-0,046	0,065
-354,796	-47,129	0,056	-0,020
-353,781	-200,000	-0,017	0,103
-352,766	660,976	-0,029	0,055
-351,752	-127,415	0,080	-0,008
-350,737	80,210	0,162	-0,127
-349,723	-6,824	-0,077	-0,038
-348,708	800,000	0,035	0,073
-347,693	427,079	-0,092	0,145
-346,679	-84,301	-0,027	0,006
-345,664	-200,000	0,010	0,064
-344,650	511,872	0,072	-0,122
-343,635	270,339	0,104	-0,134
-342,620	-200,000	0,056	0,000
-341,606	-200,000	0,001	-0,035
-340,591	73,619	0,104	0,079
-339,577	800,000	0,063	-0,132
-338,562	-112,617	0,074	-0,011
-337,548	-34,964	0,027	0,011
-336,533	183,537	0,062	0,067
-335,518	528,680	0,047	-0,082
-334,504	-200,000	-0,024	0,130
-333,489	-34,661	-0,055	0,022
-332,475	-200,000	-0,022	-0,092
-331,460	-106,888	0,100	0,016
-330,445	-18,614	-0,039	-0,017
-329,431	506,373	-0,054	0,092
-328,416	-200,000	-0,020	0,140
-327,402	-200,000	0,010	0,068
-326,387	800,000	-0,048	0,118
-325,372	124,055	-0,030	0,028
-324,358	459,999	-0,044	0,072
-323,343	800,000	-0,045	0,101
-322,329	800,000	-0,013	-0,026
-321,314	-200,000	0,017	0,104
-320,299	47,986	0,095	0,065
-319,285	-51,542	-0,089	0,030
-318,270	-200,000	0,010	-0,038
-317,256	-186,364	-0,141	-0,001
-316,241	800,000	0,043	-0,089
-315,226	-109,616	0,119	-0,018
-314,212	430,559	0,035	-0,055
-313,197	-200,000	0,005	0,027
-312,183	-200,000	-0,026	0,185
-311,168	-200,000	-0,058	0,190
-310,153	800,000	-0,039	0,085
-309,139	559,032	0,057	0,100
-308,124	-200,000	0,010	0,082
-307,110	800,000	-0,058	0,141
-306,095	800,000	0,045	0,131
-305,080	-84,513	-0,152	-0,035
-304,066	81,925	-0,043	-0,034
-303,051	-27,424	-0,047	-0,020
-302,037	-44,411	-0,080	-0,029
-301,022	800,000	0,034	-0,088
-300,008	102,127	0,060	0,051
-298,993	37,621	-0,028	-0,018
-297,978	319,954	-0,034	-0,048
-296,964	800,000	-0,029	-0,090
-295,949	-200,000	0,015	-0,196
-294,935	-200,000	-0,013	0,060
-293,920	301,453	-0,030	-0,040
-292,905	663,284	-0,028	-0,052
-291,891	-117,046	0,211	-0,028
-290,876	73,203	0,124	0,094
-289,862	800,000	-0,030	0,070
-288,847	-19,630	-0,051	-0,023
-287,832	-42,424	-0,125	0,046
-286,818	756,631	0,030	0,059
-285,803	46,454	0,053	0,036
-284,789	800,000	0,032	-0,078
-283,774	-200,000	-0,002	0,070
-282,759	-53,810	0,059	-0,020
-281,745	147,618	-0,104	-0,102
-280,730	-125,876	0,054	-0,006
-279,716	-86,646	0,122	-0,027
-278,701	-127,574	0,101	0,011
-277,686	-18,243	0,100	-0,045
-276,672	800,000	0,022	0,065
-275,657	800,000	0,027	0,064
-274,643	-26,227	-0,150	-0,064
-273,628	-200,000	0,006	0,063
-272,613	-22,010	-0,213	-0,094
-271,599	-83,530	-0,055	0,013
-270,584	-200,000	0,015	0,146
-269,570	261,950	-0,052	-0,065
-268,555	168,687	-0,076	-0,079
-267,540	12,935	-0,076	-0,043
-266,526	-131,778	-0,073	-0,007
-265,511	406,553	-0,021	0,033
-264,497	-200,000	-0,000	0,035
-263,482	48,243	0,051	0,035
-262,467	78,099	0,092	0,071
-261,453	-67,452	-0,041	0,012
-260,438	-200,000	-0,020	0,148
-259,424	411,606	-0,042	0,065
-258,409	-200,000	-0,003	0,012
-257,395	183,074	0,048	0,051
-256,380	37,488	0,053	0,034
-255,365	-18,123	0,087	0,040
-254,351	-200,000	0,006	-0,024
-253,336	800,000	0,061	-0,174
-252,322	-200,000	-0,006	-0,071
-251,307	-80,284	-0,024	0,006
-250,292	-125,419	-0,044	0,005
-249,278	159,257	-0,074	0,075
-248,263	287,844	-0,082	0,108
-247,249	-200,000	0,002	0,105
-246,234	-200,000	-0,026	-0,178
-245,219	474,451	0,031	-0,051
-244,205	90,517	-0,052	-0,042
-243,190	42,957	0,048	0,032
-242,176	-200,000	0,004	0,100
-241,161	800,000	-0,038	0,081
-240,146	-200,000	0,039	0,150
-239,132	157,679	-0,063	-0,064
-238,117	107,611	0,103	0,089
-237,103	394,473	-0,032	-0,048
-236,088	331,205	0,023	0,032
-235,073	-8,091	-0,075	-0,037
-234,059	-100,313	0,064	-0,011
-233,044	714,813	0,040	0,077
-232,030	-72,870	-0,098	-0,026
-231,015	608,259	-0,027	-0,049
-230,000	129,222	-0,025	-0,023
-228,986	-4,223	0,048	0,024
-227,971	-168,134	-0,060	-0,002
-226,957	-131,534	-0,030	-0,003
-225,942	-119,175	0,086	-0,011
-224,927	-200,000	-0,011	-0,110
-223,913	800,000	-0,043	-0,132
-222,898	525,828	0,027	-0,046
-221,884	-89,822	0,077	0,016
-220,869	8,464	0,154	0,084
-219,855	146,339	-0,056	0,055
-218,840	-200,000	-0,029	0,132
-217,825	337,274	0,031	0,043
-216,811	43,932	0,018	-0,012
-215,796	125,003	-0,056	0,051
-214,782	800,000	0,066	-0,135
-213,767	800,000	0,040	0,109
-212,752	800,000	-0,034	0,103
-211,738	-200,000	0,004	0,140
-210,723	-200,000	0,016	0,133
-209,709	348,179	-0,027	0,039
-208,694	85,317	-0,045	0,036
-207,679	18,874	-0,076	-0,044
-206,665	172,195	-0,011	0,011
-205,650	800,000	0,033	0,096
-204,636	-182,657	-0,159	-0,002
-203,621	-200,000	-0,122	-0,000
-202,606	-200,000	0,011	-0,097
-201,592	777,119	-0,012	-0,025
-200,577	317,698	0,043	0,059
-199,563	253,414	0,036	-0,045
-198,548	116,897	0,075	0,067
-197,533	130,853	-0,039	-0,036
-196,519	-200,000	-0,031	0,143
-195,504	-200,000	-0,006	-0,022
-194,490	1,535	0,142	-0,074
-193,475	-200,000	-0,044	-0,148
-192,460	19,630	-0,154	0,090
-191,446	-45,657	0,136	0,049
-190,431	-200,000	0,005	-0,029
-189,417	-7,486	0,100	0,049
-188,402	-200,000	0,005	-0,061
-187,387	175,671	0,081	-0,086
-186,373	6,594	-0,133	-0,072
-185,358	426,328	-0,047	0,073
-184,344	800,000	0,026	0,055
-183,329	384,956	0,056	0,084
-182,315	135,160	-0,037	0,035
-181,300	64,124	0,025	0,018
-180,285	-45,362	-0,077	-0,028
-179,271	800,000	-0,053	-0,126
-178,256	-12,334	-0,083	-0,039
-177,242	-143,102	0,086	0,006
-176,227	-120,182	0,070	0,009
-175,212	-30,569	0,140	-0,057
-174,198	-200,000	-0,023	0,098
-173,183	-51,120	0,015	-0,005
-172,169	-138,182	0,042	0,003
-171,154	-200,000	-0,018	0,130
-170,139	-200,000	-0,001	0,068
-169,125	-45,235	0,075	-0,027
-168,110	147,614	0,003	-0,003
-167,096	-141,564	-0,086	0,006
-166,081	800,000	-0,073	-0,183
-165,066	90,397	0,067	-0,054
-164,052	800,000	0,042	-0,131
-163,037	202,994	0,053	-0,060
-162,023	-200,000	0,020	0,120
-161,008	-200,000	0,048	0,239
-159,993	-200,000	0,032	-0,126
-158,979	329,748	0,013	-0,019
-157,964	800,000	-0,031	-0,086
-156,950	132,274	-0,078	-0,073
-155,935	258,342	-0,069	0,086
-154,920	-59,647	-0,018	0,005
-153,906	-140,707	0,205	-0,015
-152,891	2,597	-0,029	-0,015
-151,877	30,202	-0,046	0,028
-150,862	-200,000	0,016	0,069
-149,847	800,000	0,014	0,036
-148,833	800,000	-0,041	0,085
-147,818	177,702	0,067	0,071
-146,804	181,946	0,013	-0,014
-145,789	-200,000	0,011	0,072
-144,775	254,987	0,092	-0,114
-143,760	48,592	-0,075	-0,051
-142,745	242,911	0,053	-0,065
-141,731	-188,866	0,063	-0,001
-140,716	417,410	-0,040	0,063
-139,702	157,010	-0,031	-0,031
-138,687	-112,222	-0,076	0,011
-137,672	-200,000	0,026	0,104
-136,658	351,988	0,065	-0,093
-135,643	-66,318	-0,093	0,027
-134,629	253,266	-0,064	0,079
-133,614	532,750	-0,013	0,023
-132,599	171,046	0,040	0,042
-131,585	-141,634	0,132	0,009
-130,570	-200,000	-0,007	0,115
-129,556	62,682	-0,034	0,025
-128,541	56,429	-0,054	-0,038
-127,526	57,427	0,108	-0,076
-126,512	-19,305	0,055	-0,024
-125,497	-96,499	-0,107	-0,020
-124,483	556,208	0,095	0,166
-123,468	-39,889	-0,085	0,032
-122,453	585,308	0,054	0,097
-121,439	-48,499	-0,071	-0,025
-120,424	-200,000	0,017	0,121
