DTS Sentinel unit serial number:	SN410029Multiplexer serial number:	ORYXHardware model number:	OX2-SRSoftware version number:	ORYX F/W v4,00 Oryx Data Collector v3.7.2.0data status	okinstallation	B6 Nyhavnadifferential loss correction	single-endedforward channel	channel 2reverse channel	N/Adate	2023/12/11time	03:35:08forward acquisition time	300,00reverse acquisition time	0,00gamma	499,1914k internal	0,3124k external	0,3124temperature offset calibration	1,0000default loss term (dB/km)	0,3820temperature slope calibration	1,0000multiplexer offset coefficient	1,0000multiplexer slope coefficient	1,0000fibre end	0,00T internal ref (°C)	21,11T ext. ref 1 (°C)	3,88T ext. ref 2 (°C)	3,89length (m)	temperature (°C)	Stokes	anti-Stokes-744,400	-72,138	-0,065	0,018
-743,385	54,722	-0,140	0,101
-742,371	-3,507	0,217	0,112
-741,356	-44,302	-0,226	0,084
-740,342	-71,262	0,112	0,031
-739,327	-27,974	-0,193	0,083
-738,312	562,153	0,064	-0,116
-737,298	34,945	-0,257	0,167
-736,283	361,284	0,060	-0,090
-735,269	127,879	-0,185	0,175
-734,254	-55,382	0,141	0,047
-733,239	-33,548	-0,428	-0,175
-732,225	275,814	0,102	-0,135
-731,210	-200,000	-0,003	0,019
-730,196	-200,000	-0,027	-0,125
-729,181	360,514	-0,092	-0,137
-728,167	90,042	-0,043	-0,035
-727,152	278,339	0,046	-0,062
-726,137	-73,986	-0,119	-0,032
-725,123	199,850	0,034	-0,038
-724,108	266,793	-0,107	-0,140
-723,094	118,019	-0,148	-0,136
-722,079	-37,332	0,114	0,045
-721,064	-49,127	-0,045	-0,016
-720,050	-180,426	0,065	-0,001
-719,035	-37,807	-0,170	-0,067
-718,021	-30,953	-0,052	0,022
-717,006	100,569	-0,022	0,019
-715,991	15,469	-0,086	-0,050
-714,977	800,000	0,066	-0,203
-713,962	-105,717	-0,137	-0,023
-712,948	800,000	-0,003	-0,011
-711,933	-87,826	-0,043	0,009
-710,918	-1,427	-0,090	0,047
-709,904	-25,216	0,041	0,018
-708,889	-190,718	-0,029	0,000
-707,875	293,583	0,015	-0,021
-706,860	-21,775	0,057	0,026
-705,845	73,289	0,069	0,054
-704,831	515,414	0,079	0,137
-703,816	20,721	-0,093	0,056
-702,802	-200,000	0,008	0,031
-701,787	-200,000	-0,034	-0,190
-700,772	375,227	0,107	-0,163
-699,758	176,255	-0,116	-0,125
-698,743	-187,421	0,088	-0,001
-697,729	-95,391	0,081	0,016
-696,714	800,000	-0,028	0,058
-695,699	680,327	-0,034	0,065
-694,685	-14,795	-0,075	0,036
-693,670	-75,260	-0,098	0,026
-692,656	507,553	-0,023	-0,041
-691,641	353,110	-0,045	-0,067
-690,627	6,758	-0,047	-0,026
-689,612	-159,673	0,113	-0,005
-688,597	-91,430	-0,040	0,008
-687,583	63,024	-0,089	-0,067
-686,568	-179,998	-0,105	0,002
-685,554	-200,000	-0,006	-0,162
-684,539	129,561	0,098	-0,093
-683,524	148,768	0,029	-0,029
-682,510	188,865	-0,063	0,071
-681,495	30,335	-0,080	0,051
-680,481	58,977	-0,029	-0,021
-679,466	-85,917	0,068	0,016
-678,451	-200,000	-0,012	-0,093
-677,437	166,919	-0,058	-0,061
-676,422	-72,423	0,112	-0,030
-675,408	-144,657	0,141	-0,010
-674,393	-110,270	-0,264	-0,040
-673,378	800,000	-0,037	0,113
-672,364	-200,000	0,002	0,032
-671,349	-200,000	0,041	-0,146
-670,335	693,895	0,075	-0,147
-669,320	800,000	-0,058	-0,128
-668,305	663,700	0,007	0,014
-667,291	-85,390	-0,107	0,024
-666,276	-78,073	-0,208	-0,053
-665,262	-13,652	-0,213	-0,102
-664,247	-22,686	0,020	0,009
-663,232	86,723	-0,027	0,022
-662,218	-62,797	0,043	0,013
-661,203	62,034	0,074	0,055
-660,189	-191,492	-0,074	-0,001
-659,174	119,967	-0,046	-0,042
-658,159	-141,018	0,029	-0,002
-657,145	-200,000	0,007	-0,071
-656,130	800,000	-0,037	-0,081
-655,116	-66,165	-0,123	-0,036
-654,101	232,284	-0,054	-0,066
-653,086	135,526	-0,040	0,039
-652,072	-200,000	0,013	0,092
-651,057	800,000	-0,014	0,039
-650,043	571,143	-0,048	0,087
-649,028	800,000	-0,017	-0,051
-648,014	-200,000	0,005	-0,077
-646,999	166,835	0,027	0,028
-645,984	-200,000	0,002	0,154
-644,970	-200,000	-0,003	-0,050
-643,955	345,156	-0,070	-0,102
-642,941	613,911	-0,009	-0,016
-641,926	-109,475	0,092	-0,014
-640,911	800,000	0,031	0,085
-639,897	104,764	0,106	0,093
-638,882	30,415	-0,010	-0,006
-637,868	504,270	0,025	-0,044
-636,853	-22,764	-0,101	0,045
-635,838	-108,648	-0,092	-0,014
-634,824	-67,870	-0,072	0,021
-633,809	-200,000	-0,006	0,102
-632,795	-46,917	0,071	0,026
-631,780	357,305	0,041	0,061
-630,765	-27,376	-0,160	-0,069
-629,751	-16,535	-0,038	-0,018
-628,736	-200,000	-0,021	-0,084
-627,722	140,909	0,063	-0,062
-626,707	67,670	0,040	-0,030
-625,692	-138,028	-0,060	-0,005
-624,678	-40,741	-0,038	-0,015
-623,663	-200,000	-0,001	-0,044
-622,649	14,953	-0,041	-0,024
-621,634	54,922	0,030	-0,021
-620,619	800,000	0,020	-0,063
-619,605	-200,000	-0,029	0,107
-618,590	-200,000	-0,026	0,112
-617,576	-67,736	0,039	0,011
-616,561	-200,000	0,003	-0,060
-615,546	566,178	-0,082	-0,148
-614,532	-179,338	-0,102	-0,002
-613,517	11,499	-0,107	-0,061
-612,503	356,098	0,042	0,063
-611,488	-13,988	-0,061	0,029
-610,474	800,000	-0,038	-0,108
-609,459	56,825	-0,103	0,075
-608,444	-200,000	0,021	0,092
-607,430	-200,000	0,028	0,152
-606,415	-3,130	-0,143	0,074
-605,401	-66,061	0,083	0,024
-604,386	-27,756	0,175	0,075
-603,371	-54,569	-0,045	0,015
-602,357	26,703	-0,031	-0,019
-601,342	98,430	-0,121	0,103
-600,328	-200,000	-0,018	-0,152
-599,313	12,504	-0,163	-0,093
-598,298	-200,000	-0,013	-0,104
-597,284	153,231	0,125	0,127
-596,269	-29,528	-0,010	-0,004
-595,255	-124,975	0,106	0,012
-594,240	-200,000	0,031	-0,116
-593,225	-200,000	-0,027	-0,122
-592,211	-41,079	-0,047	-0,018
-591,196	-200,000	0,003	-0,055
-590,182	-200,000	-0,010	-0,046
-589,167	4,584	0,045	0,024
-588,152	14,236	0,069	-0,040
-587,138	25,634	0,118	-0,072
-586,123	25,898	-0,041	0,025
-585,109	-106,301	-0,062	0,010
-584,094	23,852	-0,080	0,049
-583,079	-200,000	0,001	-0,072
-582,065	61,394	-0,066	-0,048
-581,050	579,012	-0,046	0,083
-580,036	736,710	-0,017	0,035
-579,021	-96,444	-0,045	0,009
-578,006	800,000	0,024	0,052
-576,992	-200,000	0,026	0,129
-575,977	560,477	-0,085	-0,153
-574,963	-0,107	0,062	0,033
-573,948	-200,000	-0,017	0,116
-572,934	18,325	-0,083	0,049
-571,919	-200,000	-0,005	-0,070
-570,904	-31,382	-0,040	0,017
-569,890	428,575	-0,072	-0,116
-568,875	-46,603	0,111	0,040
-567,861	162,009	0,067	0,069
-566,846	-200,000	-0,004	0,079
-565,831	-60,936	0,054	0,017
-564,817	-200,000	-0,007	-0,087
-563,802	-174,578	-0,020	0,000
-562,788	800,000	-0,085	-0,191
-561,773	-100,430	-0,036	0,007
-560,758	86,759	0,082	-0,067
-559,744	-35,251	-0,049	0,020
-558,729	150,786	0,050	-0,051
-557,715	-152,140	0,047	0,002
-556,700	259,267	0,082	-0,105
-555,685	127,395	-0,049	0,046
-554,671	45,533	-0,076	0,052
-553,656	-200,000	-0,005	0,089
-552,642	-200,000	0,030	-0,103
-551,627	50,991	0,068	0,048
-550,612	-89,951	0,014	0,003
-549,598	-102,990	-0,029	-0,005
-548,583	78,633	-0,059	-0,047
-547,569	-200,000	0,012	0,079
-546,554	-176,669	-0,041	-0,001
-545,539	-200,000	-0,021	0,120
-544,525	-200,000	-0,010	0,058
-543,510	797,792	-0,025	-0,052
-542,496	-167,444	-0,149	-0,004
-541,481	800,000	-0,047	-0,142
-540,466	-15,692	-0,057	-0,027
-539,452	-20,586	0,110	0,050
-538,437	-200,000	0,005	-0,074
-537,423	800,000	-0,023	0,055
-536,408	-200,000	-0,005	0,080
-535,393	-200,000	-0,019	-0,206
-534,379	778,307	-0,040	0,081
-533,364	800,000	0,040	-0,091
-532,350	398,303	0,018	0,028
-531,335	111,174	0,109	-0,097
-530,321	-137,975	-0,084	0,007
-529,306	590,615	-0,112	0,205
-528,291	-75,186	-0,182	-0,048
-527,277	-200,000	0,032	-0,115
-526,262	492,830	0,038	-0,065
-525,248	-69,017	-0,086	-0,024
-524,233	-200,000	-0,001	-0,056
-523,218	-200,000	0,012	-0,067
-522,204	-198,462	0,081	0,000
-521,189	-22,287	-0,147	-0,066
-520,175	-200,000	-0,003	-0,049
-519,160	149,582	0,040	-0,040
-518,145	196,491	-0,085	-0,096
-517,131	187,946	0,093	-0,103
-516,116	20,869	0,062	-0,037
-515,102	40,287	0,048	0,032
-514,087	300,011	-0,073	-0,099
-513,072	-200,000	-0,019	-0,111
-512,058	-149,004	0,072	-0,004
-511,043	-200,000	-0,005	0,137
-510,029	236,545	-0,073	0,089
-509,014	-200,000	-0,003	-0,063
-507,999	-105,085	-0,203	0,034
-506,985	-200,000	-0,012	0,052
-505,970	800,000	0,037	-0,098
-504,956	-118,246	-0,078	-0,010
-503,941	-49,477	0,007	0,002
-502,926	67,872	-0,100	0,076
-501,912	661,154	0,032	0,062
-500,897	-200,000	0,003	-0,143
-499,883	-200,000	-0,018	-0,120
-498,868	-101,319	0,046	-0,008
-497,853	767,593	-0,044	-0,088
-496,839	84,357	0,033	-0,027
-495,824	-11,692	0,101	0,049
-494,810	-49,510	0,115	0,040
-493,795	-2,445	-0,094	-0,049
-492,781	-200,000	-0,031	0,151
-491,766	-124,783	-0,206	-0,023
-490,751	800,000	0,006	0,014
-489,737	-33,030	0,090	0,037
-488,722	33,443	0,063	-0,040
-487,708	-71,124	0,071	0,019
-486,693	89,079	0,053	-0,044
-485,678	-200,000	-0,037	0,177
-484,664	-35,915	-0,180	-0,071
-483,649	-200,000	0,033	-0,113
-482,635	-63,573	0,125	0,038
-481,620	377,183	0,010	0,014
-480,605	287,355	0,058	0,077
-479,591	431,789	0,043	0,068
-478,576	532,178	-0,036	0,062
-477,562	-48,261	0,074	0,026
-476,547	-200,000	-0,020	-0,099
-475,532	-184,269	-0,045	-0,001
-474,518	-46,778	0,080	0,029
-473,503	482,099	-0,020	-0,033
-472,489	-200,000	0,011	0,111
-471,474	800,000	0,048	0,140
-470,459	59,528	-0,110	-0,080
-469,445	760,089	0,054	0,108
-468,430	-80,331	0,034	0,008
-467,416	-30,907	-0,040	0,017
-466,401	60,639	-0,074	-0,054
-465,386	18,250	-0,042	0,025
-464,372	364,447	0,048	0,072
-463,357	-33,198	-0,080	-0,032
-462,343	800,000	-0,025	-0,053
-461,328	430,868	-0,056	-0,090
-460,313	-78,786	0,008	-0,002
-459,299	-200,000	0,008	0,056
-458,284	-112,735	0,009	-0,001
-457,270	-200,000	-0,004	0,064
-456,255	800,000	-0,007	-0,022
-455,241	573,642	-0,017	0,030
-454,226	67,705	-0,042	0,032
-453,211	-200,000	-0,012	-0,087
-452,197	-200,000	0,013	-0,106
-451,182	58,032	-0,102	0,073
-450,168	-200,000	-0,006	-0,037
-449,153	-155,825	-0,061	-0,003
-448,138	800,000	0,031	0,073
-447,124	-71,920	0,011	-0,003
-446,109	117,220	-0,093	-0,084
-445,095	106,848	-0,105	-0,092
-444,080	-111,601	-0,129	0,019
-443,065	165,173	0,045	0,046
-442,051	287,458	-0,066	-0,089
-441,036	800,000	-0,056	-0,126
-440,022	278,043	-0,139	-0,182
-439,007	-200,000	0,002	-0,268
-437,992	-200,000	0,135	0,000
-436,978	712,976	0,029	0,058
-435,963	-200,000	-0,005	-0,057
-434,949	126,323	-0,070	0,065
-433,934	77,570	0,082	-0,064
-432,919	800,000	-0,035	-0,085
-431,905	174,297	-0,036	0,038
-430,890	-200,000	0,020	0,148
-429,876	-110,796	0,074	-0,011
-428,861	-200,000	0,011	0,054
-427,846	-8,053	0,056	0,028
-426,832	29,387	-0,056	0,035
-425,817	578,439	-0,070	-0,126
-424,803	95,179	-0,095	-0,080
-423,788	378,908	-0,079	0,120
-422,773	-124,550	0,147	-0,017
-421,759	101,277	-0,018	-0,016
-420,744	-59,164	0,052	-0,016
-419,730	150,985	-0,055	-0,055
-418,715	-148,654	-0,128	-0,008
-417,701	60,243	0,038	-0,027
-416,686	334,100	-0,034	0,048
-415,671	30,114	0,051	0,032
-414,657	599,294	-0,008	-0,014
-413,642	108,542	0,043	-0,038
-412,628	-76,648	0,017	-0,004
-411,613	-200,000	0,011	-0,085
-410,598	-7,799	-0,108	-0,054
-409,584	297,173	-0,019	-0,026
-408,569	-127,863	0,041	0,004
-407,555	149,201	0,046	0,046
-406,540	-106,233	0,110	-0,018
-405,525	-200,000	0,017	-0,147
-404,511	800,000	-0,059	-0,153
-403,496	218,978	-0,018	-0,021
-402,482	-78,507	0,133	0,033
-401,467	482,085	0,060	-0,101
-400,452	435,219	0,061	0,098
-399,438	123,110	-0,069	-0,063
-398,423	800,000	0,015	-0,044
-397,409	36,312	0,025	-0,016
-396,394	-87,111	0,109	-0,024
-395,379	-200,000	0,000	0,099
-394,365	-122,036	0,058	-0,007
-393,350	116,636	-0,043	0,039
-392,336	93,496	0,066	0,055
-391,321	2,182	-0,080	-0,042
-390,306	93,900	-0,028	0,024
-389,292	31,805	-0,116	0,073
-388,277	-65,867	-0,065	0,019
-387,263	12,372	0,110	0,062
-386,248	125,127	0,022	-0,021
-385,233	-37,692	-0,113	0,044
-384,219	-12,032	0,090	0,043
-383,204	-46,676	-0,059	0,021
-382,190	-59,508	0,042	0,013
-381,175	800,000	0,018	-0,057
-380,160	38,857	0,102	-0,067
-379,146	292,730	0,058	-0,078
-378,131	-200,000	-0,017	0,121
-377,117	-89,620	0,068	-0,014
-376,102	800,000	-0,063	-0,158
-375,088	-200,000	0,013	-0,113
-374,073	334,093	0,044	0,063
-373,058	-5,670	0,100	0,050
-372,044	-79,665	0,119	0,029
-371,029	5,656	-0,091	0,049
-370,015	154,360	0,050	0,050
-369,000	-118,188	-0,030	0,004
-367,985	-140,701	-0,092	0,007
-366,971	227,784	-0,034	-0,041
-365,956	0,903	-0,044	0,023
-364,942	-83,416	0,108	0,025
-363,927	800,000	-0,046	0,113
-362,912	-200,000	0,015	0,113
-361,898	-120,596	-0,081	-0,010
-360,883	-77,797	0,059	-0,015
-359,869	800,000	0,044	0,101
-358,854	565,053	-0,046	-0,082
-357,839	-57,007	-0,065	0,021
-356,825	194,754	0,035	-0,039
-355,810	-200,000	0,001	-0,072
-354,796	-64,324	0,040	-0,012
-353,781	63,092	0,086	0,063
-352,766	-200,000	0,000	0,048
-351,752	28,041	-0,034	0,021
-350,737	140,184	0,081	0,079
-349,723	120,095	0,081	0,074
-348,708	148,171	0,079	0,078
-347,693	47,585	0,117	-0,080
-346,679	-39,957	-0,075	0,029
-345,664	-11,216	0,095	-0,046
-344,650	-126,092	0,168	0,018
-343,635	800,000	0,039	0,095
-342,620	-51,572	0,081	0,028
-341,606	-116,838	0,061	-0,008
-340,591	-174,370	-0,048	-0,001
-339,577	179,714	0,117	-0,126
-338,562	-172,142	-0,145	-0,003
-337,548	114,303	0,161	-0,144
-336,533	-112,207	-0,079	-0,012
-335,518	-24,703	0,077	0,033
-334,504	-200,000	0,002	0,021
-333,489	681,721	-0,038	0,072
-332,475	580,778	-0,036	0,066
-331,460	-61,341	-0,030	-0,009
-330,445	308,796	-0,075	-0,103
-329,431	-97,355	0,124	0,023
-328,416	109,588	0,025	-0,022
-327,402	-200,000	-0,016	0,054
-326,387	367,407	-0,025	-0,037
-325,372	745,425	-0,056	0,112
-324,358	-79,280	0,031	0,008
-323,343	48,609	0,034	0,023
-322,329	66,763	0,093	-0,069
-321,314	16,475	0,055	-0,032
-320,299	-42,640	0,076	0,028
-319,285	-78,855	-0,125	0,031
-318,270	-200,000	0,014	-0,051
-317,256	339,741	0,022	-0,031
-316,241	800,000	-0,003	0,007
-315,226	-200,000	0,012	0,057
-314,212	-200,000	-0,013	0,068
-313,197	142,521	0,217	0,211
-312,183	800,000	0,033	0,091
-311,168	-49,125	0,079	0,027
-310,153	-4,781	-0,027	-0,014
-309,139	800,000	-0,024	0,068
-308,124	193,981	0,025	0,027
-307,110	412,714	0,060	-0,093
-306,095	-173,973	0,052	-0,001
-305,080	-47,063	0,046	0,016
-304,066	287,228	0,027	0,036
-303,051	-200,000	-0,013	-0,090
-302,037	-200,000	-0,002	-0,037
-301,022	-200,000	-0,026	-0,136
-300,008	292,783	-0,014	0,019
-298,993	101,965	-0,086	-0,074
-297,978	-200,000	-0,002	0,139
-296,964	141,804	-0,082	0,079
-295,949	267,432	-0,067	-0,086
-294,935	-200,000	0,021	-0,134
-293,920	2,444	-0,193	0,102
-292,905	523,090	-0,017	-0,029
-291,891	16,020	0,058	-0,033
-290,876	-62,035	-0,007	0,002
-289,862	501,944	-0,040	-0,068
-288,847	131,586	-0,033	-0,031
-287,832	800,000	0,009	-0,021
-286,818	-7,505	-0,077	-0,038
-285,803	-8,978	0,088	0,043
-284,789	-20,015	0,084	-0,038
-283,774	5,892	0,061	0,033
-282,759	20,336	-0,096	-0,057
-281,745	-47,088	0,079	-0,028
-280,730	-176,708	0,095	0,002
-279,716	-100,406	0,143	-0,026
-278,701	8,713	0,033	0,018
-277,686	-200,000	0,019	0,071
-276,672	-200,000	0,022	0,162
-275,657	-200,000	0,027	0,093
-274,643	3,469	0,014	0,007
-273,628	253,827	-0,092	0,116
-272,613	-200,000	0,027	-0,113
-271,599	-200,000	0,033	0,112
-270,584	-200,000	-0,003	0,101
-269,570	800,000	-0,057	0,171
-268,555	-200,000	-0,009	0,066
-267,540	114,165	-0,018	0,016
-266,526	-200,000	0,020	-0,161
-265,511	33,144	-0,126	-0,080
-264,497	-200,000	-0,004	-0,161
-263,482	-90,220	0,135	-0,029
-262,467	8,649	-0,090	-0,049
-261,453	800,000	-0,064	0,176
-260,438	-141,536	-0,031	-0,002
-259,424	-200,000	0,005	0,020
-258,409	-110,242	-0,044	-0,007
-257,395	800,000	0,024	0,049
-256,380	-18,282	0,065	0,030
-255,365	-200,000	-0,001	0,088
-254,351	-154,169	-0,067	-0,003
-253,336	-200,000	-0,007	0,058
-252,322	-112,854	0,081	-0,012
-251,307	-200,000	-0,017	0,087
-250,292	-8,548	0,201	0,098
-249,278	148,302	0,032	0,031
-248,263	-159,163	0,075	-0,003
-247,249	397,412	-0,050	0,077
-246,234	84,727	-0,032	-0,025
-245,219	-130,403	0,122	0,012
-244,205	-110,210	-0,087	-0,013
-243,190	800,000	-0,008	-0,017
-242,176	-12,329	0,061	-0,029
-241,161	-200,000	0,047	-0,165
-240,146	-200,000	-0,009	-0,029
-239,132	-200,000	-0,020	0,072
-238,117	-159,351	-0,024	-0,001
-237,103	-200,000	0,018	-0,073
-236,088	800,000	0,021	-0,060
-235,073	-200,000	0,017	0,072
-234,059	-25,902	0,104	0,044
-233,044	800,000	0,023	-0,073
-232,030	76,405	-0,092	-0,071
-231,015	135,836	-0,025	-0,024
-230,000	263,722	-0,064	-0,082
-228,986	295,668	-0,019	0,026
-227,971	800,000	-0,032	-0,067
-226,957	-200,000	-0,023	0,112
-225,942	-95,202	0,082	0,016
-224,927	800,000	0,025	0,069
-223,913	551,363	-0,099	0,174
-222,898	-118,197	0,109	-0,014
-221,884	-87,298	-0,157	0,034
-220,869	-63,160	0,064	-0,019
-219,855	-135,789	0,143	0,012
-218,840	-64,948	0,078	-0,023
-217,825	131,969	-0,130	-0,122
-216,811	572,142	-0,040	0,071
-215,796	-200,000	-0,000	-0,126
-214,782	3,089	0,087	-0,046
-213,767	11,684	-0,115	0,064
-212,752	-152,630	0,103	0,005
-211,738	169,231	0,091	0,095
-210,723	800,000	-0,016	0,037
-209,709	-52,705	-0,097	-0,033
-208,694	-84,678	0,171	-0,039
-207,679	363,629	0,086	0,127
-206,665	-200,000	0,021	0,085
-205,650	13,006	0,036	0,020
-204,636	216,905	0,037	0,043
-203,621	800,000	-0,054	0,162
-202,606	-163,293	0,070	-0,002
-201,592	-200,000	0,019	-0,103
-200,577	74,692	-0,112	-0,086
-199,563	-5,079	-0,135	-0,067
-198,548	-200,000	-0,004	0,067
-197,533	-200,000	0,011	0,095
-196,519	800,000	-0,004	0,010
-195,504	-85,197	-0,068	0,015
-194,490	-200,000	0,001	-0,123
-193,475	-92,535	0,069	-0,014
-192,460	-168,007	0,089	-0,002
-191,446	82,301	0,044	-0,035
-190,431	-42,744	0,102	-0,038
-189,417	-200,000	0,005	0,022
-188,402	-200,000	0,003	-0,025
-187,387	4,662	-0,099	-0,053
-186,373	800,000	-0,042	-0,093
-185,358	-102,068	0,141	-0,025
-184,344	-200,000	0,015	-0,058
-183,329	800,000	-0,007	-0,018
-182,315	174,142	0,080	0,084
-181,300	-200,000	0,022	0,075
-180,285	429,416	0,015	0,023
-179,271	-102,921	0,048	-0,008
-178,256	-143,141	-0,086	-0,006
-177,242	191,393	0,055	0,060
-176,227	800,000	-0,038	-0,077
-175,212	800,000	-0,071	0,168
-174,198	-173,922	0,071	0,001
-173,183	-71,337	0,082	0,022
-172,169	661,242	-0,048	0,091
-171,154	352,698	-0,078	-0,112
-170,139	-151,682	-0,080	0,004
-169,125	553,708	0,018	0,032
-168,110	-200,000	0,008	0,058
-167,096	10,416	0,044	-0,025
-166,081	57,643	-0,084	-0,060
-165,066	-200,000	-0,014	-0,052
-164,052	424,963	-0,062	-0,098
-163,037	-104,142	0,012	-0,002
-162,023	284,850	0,147	0,193
-161,008	-51,307	-0,027	0,009
-159,993	-150,997	-0,142	-0,008
-158,979	800,000	-0,026	-0,063
-157,964	85,985	-0,102	0,082
-156,950	800,000	0,066	0,136
-155,935	329,060	0,089	0,125
-154,920	800,000	-0,004	0,012
-153,906	-108,891	-0,048	-0,007
-152,891	-200,000	0,009	0,100
-151,877	-31,363	0,075	-0,030
-150,862	481,143	-0,062	0,103
-149,847	-33,649	-0,093	0,037
-148,833	-200,000	0,004	-0,040
-147,818	-21,300	0,097	0,043
-146,804	-200,000	0,032	-0,135
-145,789	-200,000	0,011	0,047
-144,775	-138,847	-0,169	0,013
-143,760	800,000	-0,034	0,098
-142,745	800,000	-0,030	-0,068
-141,731	-6,133	-0,014	-0,007
-140,716	151,977	-0,079	0,078
-139,702	-200,000	-0,014	0,112
-138,687	-200,000	0,002	-0,027
-137,672	800,000	-0,014	0,031
-136,658	-159,490	-0,033	0,001
-135,643	-159,925	-0,133	-0,005
-134,629	13,387	-0,040	-0,022
-133,614	-110,457	0,018	0,003
-132,599	140,154	-0,051	0,049
-131,585	800,000	-0,011	0,035
-130,570	-52,063	-0,067	-0,023
-129,556	-200,000	0,010	-0,056
-128,541	-70,068	-0,068	0,019
-127,526	20,642	-0,054	0,032
-126,512	800,000	-0,065	-0,132
-125,497	800,000	0,031	0,084
-124,483	-26,491	-0,131	-0,056
-123,468	139,388	-0,103	0,099
-122,453	-58,248	-0,124	-0,039
-121,439	22,534	-0,127	0,075
-120,424	-200,000	-0,017	-0,063
-119,410	4,981	0,126	-0,067
