DTS Sentinel unit serial number:	SN410029Multiplexer serial number:	ORYXHardware model number:	OX2-SRSoftware version number:	ORYX F/W v4,00 Oryx Data Collector v3.7.2.0data status	okinstallation	B6 Nyhavnadifferential loss correction	single-endedforward channel	channel 2reverse channel	N/Adate	2023/12/08time	11:30:08forward acquisition time	300,00reverse acquisition time	0,00gamma	499,1914k internal	0,3160k external	0,3160temperature offset calibration	1,0000default loss term (dB/km)	0,3820temperature slope calibration	1,0000multiplexer offset coefficient	1,0000multiplexer slope coefficient	1,0000fibre end	0,00T internal ref (°C)	14,94T ext. ref 1 (°C)	-1,45T ext. ref 2 (°C)	-1,44length (m)	temperature (°C)	Stokes	anti-Stokes-744,400	75,467	0,096	-0,075
-743,385	-104,465	-0,186	-0,031
-742,371	-16,485	0,242	0,113
-741,356	-152,255	-0,407	0,021
-740,342	12,258	0,100	-0,057
-739,327	-119,560	-0,376	-0,047
-738,312	-61,902	0,032	-0,010
-737,298	-83,445	-0,456	-0,107
-736,283	204,869	-0,045	0,052
-735,269	-126,998	-0,250	-0,027
-734,254	620,606	0,031	0,058
-733,239	-98,769	-0,487	-0,090
-732,225	-134,355	0,233	0,021
-731,210	-106,342	-0,168	0,027
-730,196	-200,000	0,002	0,090
-729,181	82,382	-0,148	0,118
-728,167	90,938	-0,056	0,046
-727,152	-132,606	0,058	-0,005
-726,137	-16,309	-0,087	-0,040
-725,123	-165,917	-0,130	0,004
-724,108	-200,000	-0,038	-0,142
-723,094	-37,115	-0,123	0,048
-722,079	-200,000	-0,012	-0,114
-721,064	352,303	0,055	0,081
-720,050	800,000	0,031	0,082
-719,035	148,493	-0,076	0,075
-718,021	630,963	0,027	0,050
-717,006	-72,759	-0,134	-0,036
-715,991	-48,311	-0,155	-0,055
-714,977	-112,890	-0,109	0,016
-713,962	-145,556	-0,189	-0,012
-712,948	-73,218	0,069	-0,019
-711,933	-35,443	0,145	0,058
-710,918	-174,326	-0,069	0,001
-709,904	47,990	-0,062	0,042
-708,889	-200,000	0,013	-0,112
-707,875	800,000	-0,034	-0,086
-706,860	142,133	-0,095	0,092
-705,845	-33,755	-0,080	-0,032
-704,831	722,137	0,016	0,031
-703,816	-200,000	-0,014	-0,067
-702,802	1,292	-0,185	0,097
-701,787	210,769	-0,050	-0,058
-700,772	319,980	-0,037	0,052
-699,758	-200,000	-0,016	-0,136
-698,743	-200,000	-0,023	0,143
-697,729	56,969	-0,098	-0,070
-696,714	-91,256	-0,032	-0,007
-695,699	800,000	-0,036	-0,095
-694,685	-200,000	-0,026	0,086
-693,670	-62,510	-0,189	0,057
-692,656	800,000	-0,043	-0,099
-691,641	-200,000	0,017	0,057
-690,627	140,849	0,053	0,052
-689,612	340,824	-0,038	0,055
-688,597	-200,000	-0,030	-0,146
-687,583	48,096	0,008	-0,005
-686,568	-1,944	-0,123	-0,064
-685,554	348,246	0,036	-0,053
-684,539	381,736	0,039	0,059
-683,524	-53,597	0,040	0,014
-682,510	-147,356	-0,056	-0,003
-681,495	234,263	-0,042	0,052
-680,481	28,575	-0,098	-0,061
-679,466	226,869	-0,176	-0,211
-678,451	-151,958	-0,103	0,005
-677,437	-9,086	-0,048	0,024
-676,422	27,957	0,102	0,063
-675,408	-200,000	-0,031	0,125
-674,393	119,129	0,053	0,048
-673,378	-98,390	-0,093	-0,017
-672,364	-59,207	-0,233	-0,073
-671,349	-200,000	0,012	0,118
-670,335	-200,000	-0,007	0,193
-669,320	-200,000	-0,025	0,148
-668,305	147,659	-0,058	-0,058
-667,291	-200,000	0,005	0,094
-666,276	-89,115	0,048	0,010
-665,262	-200,000	-0,028	-0,097
-664,247	-101,347	0,064	0,011
-663,232	49,378	0,104	-0,072
-662,218	83,936	0,034	0,027
-661,203	-200,000	0,003	0,017
-660,189	800,000	0,039	0,112
-659,174	-200,000	-0,009	-0,063
-658,159	46,157	-0,071	-0,048
-657,145	129,647	0,040	-0,038
-656,130	243,826	-0,051	-0,063
-655,116	8,437	-0,131	0,072
-654,101	247,507	0,063	-0,078
-653,086	-200,000	0,000	-0,106
-652,072	61,477	-0,097	-0,071
-651,057	375,046	-0,086	-0,130
-650,043	49,463	-0,021	0,015
-649,028	267,826	-0,017	0,022
-648,014	-111,379	-0,046	0,007
-646,999	126,675	-0,009	0,009
-645,984	-152,819	0,123	0,006
-644,970	-200,000	-0,010	0,088
-643,955	-145,162	-0,166	-0,011
-642,941	344,581	0,025	-0,036
-641,926	-163,922	-0,038	-0,001
-640,911	800,000	0,055	0,115
-639,897	800,000	-0,046	0,104
-638,882	56,254	-0,088	0,062
-637,868	15,080	-0,163	0,094
-636,853	279,519	-0,113	-0,148
-635,838	-160,008	-0,046	-0,002
-634,824	-200,000	0,007	0,054
-633,809	-200,000	-0,004	-0,026
-632,795	-200,000	0,002	-0,059
-631,780	-200,000	-0,002	0,056
-630,765	290,123	-0,074	-0,099
-629,751	-8,658	-0,139	-0,068
-628,736	-200,000	0,001	-0,183
-627,722	163,971	0,128	-0,132
-626,707	-200,000	-0,012	0,061
-625,692	723,433	0,062	0,122
-624,678	-101,836	-0,131	0,023
-623,663	70,852	0,078	-0,059
-622,649	-49,308	-0,086	-0,030
-621,634	-200,000	-0,013	-0,089
-620,619	800,000	-0,020	0,047
-619,605	800,000	0,026	-0,055
-618,590	-77,819	-0,021	-0,005
-617,576	-53,483	0,094	0,031
-616,561	9,216	0,024	-0,013
-615,546	228,527	0,028	-0,033
-614,532	107,028	0,032	-0,028
-613,517	-10,600	-0,018	-0,009
-612,503	-200,000	-0,026	0,094
-611,488	-150,176	0,080	0,004
-610,474	800,000	-0,039	0,105
-609,459	25,669	0,110	0,067
-608,444	702,939	-0,081	-0,157
-607,430	107,103	-0,054	-0,047
-606,415	-161,553	-0,096	-0,004
-605,401	2,298	0,062	-0,033
-604,386	-200,000	-0,001	0,007
-603,371	145,173	-0,055	0,054
-602,357	64,800	-0,114	-0,084
-601,342	800,000	0,037	-0,096
-600,328	-62,326	-0,126	-0,038
-599,313	49,269	0,066	0,045
-598,298	793,726	-0,007	0,013
-597,284	-200,000	0,058	-0,218
-596,269	-103,978	0,017	0,003
-595,255	-200,000	0,004	-0,054
-594,240	-74,393	-0,107	0,028
-593,225	143,882	-0,034	-0,033
-592,211	118,777	0,043	-0,039
-591,196	-141,416	-0,045	-0,003
-590,182	73,789	0,045	-0,034
-589,167	-200,000	-0,007	-0,067
-588,152	800,000	-0,059	-0,179
-587,138	-200,000	0,028	-0,094
-586,123	800,000	0,017	-0,052
-585,109	415,601	0,031	0,049
-584,094	458,802	-0,048	0,078
-583,079	116,300	-0,104	0,093
-582,065	-111,083	0,018	0,003
-581,050	-76,458	0,055	-0,014
-580,036	-149,819	-0,065	0,004
-579,021	206,529	-0,110	0,126
-578,006	-147,061	-0,089	-0,005
-576,992	118,181	0,095	0,086
-575,977	800,000	0,029	-0,068
-574,963	1,124	0,045	-0,023
-573,948	15,200	0,089	0,051
-572,934	800,000	-0,031	0,082
-571,919	296,020	0,119	-0,159
-570,904	189,696	-0,109	-0,120
-569,890	14,365	-0,100	-0,057
-568,875	57,486	0,058	0,041
-567,861	-51,449	0,097	0,033
-566,846	95,648	-0,056	0,047
-565,831	-56,908	0,086	0,028
-564,817	-200,000	0,003	-0,130
-563,802	286,361	-0,032	-0,042
-562,788	211,053	-0,055	-0,064
-561,773	18,661	-0,081	-0,047
-560,758	201,259	-0,062	0,070
-559,744	282,106	-0,043	0,056
-558,729	-146,657	-0,026	0,002
-557,715	82,277	-0,108	-0,085
-556,700	65,915	0,164	-0,122
-555,685	232,132	-0,057	0,069
-554,671	-151,442	0,090	-0,005
-553,656	131,725	-0,086	0,081
-552,642	-200,000	-0,009	-0,039
-551,627	290,826	-0,023	-0,031
-550,612	-47,706	-0,144	-0,051
-549,598	-200,000	-0,009	-0,164
-548,583	800,000	0,078	-0,172
-547,569	-200,000	0,003	-0,017
-546,554	800,000	0,018	0,044
-545,539	-28,850	-0,053	-0,022
-544,525	78,085	-0,045	0,035
-543,510	-20,020	-0,064	-0,029
-542,496	-66,960	-0,090	0,026
-541,481	-56,397	-0,086	-0,028
-540,466	-118,946	-0,103	-0,013
-539,452	-64,120	-0,134	-0,040
-538,437	90,274	0,094	0,077
-537,423	72,840	0,069	0,052
-536,408	-200,000	0,017	-0,068
-535,393	296,229	0,033	-0,045
-534,379	800,000	0,030	0,080
-533,364	282,138	-0,028	-0,036
-532,350	-109,333	-0,013	0,002
-531,335	800,000	-0,027	0,068
-530,321	779,320	0,031	0,062
-529,306	-108,768	-0,075	0,012
-528,291	347,006	-0,024	-0,034
-527,277	-96,361	-0,126	-0,024
-526,262	800,000	-0,025	-0,074
-525,248	-200,000	0,011	0,084
-524,233	349,276	0,078	0,113
-523,218	191,306	0,043	-0,047
-522,204	391,109	-0,112	-0,171
-521,189	-200,000	0,004	-0,043
-520,175	615,033	-0,045	-0,084
-519,160	-32,784	0,060	0,024
-518,145	67,645	0,063	0,047
-517,131	800,000	-0,053	0,131
-516,116	191,747	0,036	0,040
-515,102	-200,000	-0,005	0,017
-514,087	-200,000	-0,012	-0,050
-513,072	177,622	0,093	-0,099
-512,058	122,305	0,059	-0,054
-511,043	-200,000	0,017	-0,085
-510,029	51,532	0,066	0,045
-509,014	323,527	0,083	-0,116
-507,999	213,340	-0,036	0,042
-506,985	51,109	0,037	-0,025
-505,970	-114,964	-0,207	0,028
-504,956	-200,000	0,009	0,112
-503,941	278,430	-0,037	-0,048
-502,926	146,984	-0,097	0,096
-501,912	675,095	0,028	-0,054
-500,897	-200,000	0,006	0,042
-499,883	-66,912	0,125	-0,036
-498,868	-74,217	0,082	-0,022
-497,853	7,349	-0,116	-0,063
-496,839	-27,618	0,164	0,069
-495,824	800,000	-0,013	0,040
-494,810	7,414	0,122	0,066
-493,795	210,765	-0,112	-0,129
-492,781	-200,000	-0,038	0,149
-491,766	-73,091	0,077	0,021
-490,751	18,480	0,150	-0,087
-489,737	-2,067	-0,013	0,006
-488,722	800,000	0,028	-0,080
-487,708	268,379	0,053	0,068
-486,693	-200,000	0,001	0,163
-485,678	-89,038	-0,074	-0,016
-484,664	289,442	-0,042	0,056
-483,649	20,591	0,110	-0,065
-482,635	800,000	-0,008	-0,026
-481,620	-200,000	-0,009	0,051
-480,605	800,000	0,034	0,084
-479,591	-200,000	0,002	-0,015
-478,576	800,000	-0,032	0,075
-477,562	-11,994	0,125	0,060
-476,547	149,844	-0,080	0,079
-475,532	300,621	0,077	0,104
-474,518	800,000	0,017	-0,048
-473,503	18,296	0,099	-0,057
-472,489	236,283	0,060	0,073
-471,474	282,112	-0,039	-0,051
-470,459	268,799	-0,124	-0,159
-469,445	-200,000	0,008	0,036
-468,430	153,662	-0,061	-0,061
-467,416	-200,000	-0,009	-0,031
-466,401	-200,000	-0,008	-0,076
-465,386	59,272	0,127	-0,091
-464,372	-200,000	0,026	0,086
-463,357	300,067	-0,052	-0,070
-462,343	-30,460	0,102	0,042
-461,328	197,156	0,029	0,032
-460,313	-200,000	-0,006	0,086
-459,299	9,274	0,177	0,097
-458,284	-200,000	0,017	0,092
-457,270	-43,761	-0,019	0,007
-456,255	130,319	-0,089	0,083
-455,241	800,000	-0,043	-0,093
-454,226	158,364	-0,074	0,075
-453,211	143,052	0,036	-0,035
-452,197	-200,000	-0,016	0,095
-451,182	249,449	0,075	0,092
-450,168	800,000	-0,015	0,044
-449,153	-119,747	-0,029	-0,004
-448,138	-68,268	0,011	0,003
-447,124	70,547	-0,104	-0,078
-446,109	800,000	-0,064	-0,131
-445,095	-200,000	0,014	-0,054
-444,080	18,801	-0,082	-0,047
-443,065	44,055	0,047	0,031
-442,051	581,191	0,032	0,057
-441,036	93,055	-0,096	-0,079
-440,022	-90,328	-0,054	-0,011
-439,007	-67,608	0,129	-0,036
-437,992	144,553	0,006	0,006
-436,978	297,822	-0,028	0,038
-435,963	324,425	-0,022	0,031
-434,949	455,750	-0,095	-0,154
-433,934	-57,379	0,115	0,036
-432,919	463,399	-0,027	0,044
-431,905	-2,301	-0,119	-0,061
-430,890	-200,000	-0,004	0,024
-429,876	-14,715	-0,130	0,061
-428,861	201,937	-0,072	0,081
-427,846	-185,034	0,021	0,000
-426,832	198,187	0,063	0,070
-425,817	540,962	-0,002	-0,003
-424,803	384,213	-0,009	0,014
-423,788	-185,181	0,149	0,002
-422,773	800,000	0,048	-0,113
-421,759	86,624	-0,031	-0,025
-420,744	800,000	-0,011	0,026
-419,730	35,123	0,026	-0,016
-418,715	31,958	0,060	-0,038
-417,701	-200,000	-0,023	-0,103
-416,686	299,462	0,039	0,052
-415,671	-18,257	0,124	0,056
-414,657	342,684	0,033	0,048
-413,642	-86,310	0,098	-0,022
-412,628	793,566	0,066	-0,132
-411,613	18,835	-0,218	-0,127
-410,598	-108,235	0,094	0,015
-409,584	800,000	-0,033	-0,095
-408,569	-200,000	-0,006	0,057
-407,555	-3,801	0,098	0,049
-406,540	176,352	-0,035	-0,037
-405,525	-114,703	-0,095	0,013
-404,511	-200,000	0,016	-0,123
-403,496	-96,881	-0,038	0,007
-402,482	800,000	-0,049	-0,112
-401,467	-52,323	0,072	0,024
-400,452	490,223	0,055	0,092
-399,438	-200,000	-0,002	0,184
-398,423	63,476	-0,068	-0,050
-397,409	-200,000	-0,009	0,037
-396,394	-94,975	0,021	-0,004
-395,379	24,224	0,186	-0,111
-394,365	0,135	-0,061	0,031
-393,350	269,155	0,109	0,139
-392,336	-200,000	0,017	0,142
-391,321	-200,000	0,013	0,050
-390,306	453,797	-0,082	-0,133
-389,292	106,591	-0,048	-0,041
-388,277	-21,861	-0,127	0,056
-387,263	800,000	-0,076	-0,161
-386,248	-130,049	0,134	0,013
-385,233	542,799	-0,009	0,015
-384,219	-7,034	-0,116	-0,057
-383,204	-63,565	-0,107	-0,032
-382,190	-200,000	0,011	-0,050
-381,175	800,000	-0,042	-0,096
-380,160	-200,000	-0,022	0,123
-379,146	-132,648	0,138	0,013
-378,131	-126,346	0,180	0,019
-377,117	-200,000	-0,013	-0,048
-376,102	-92,936	-0,092	-0,018
-375,088	34,628	-0,073	-0,047
-374,073	-200,000	0,003	0,069
-373,058	-29,442	0,026	0,011
-372,044	800,000	0,034	0,084
-371,029	54,508	-0,022	-0,016
-370,015	-45,685	0,033	0,012
-369,000	88,033	-0,073	-0,059
-367,985	-200,000	-0,003	-0,143
-366,971	495,574	0,033	-0,055
-365,956	28,637	0,068	-0,041
-364,942	800,000	0,006	0,018
-363,927	-64,966	0,102	-0,030
-362,912	203,737	0,044	-0,050
-361,898	-163,262	-0,115	0,004
-360,883	-38,750	0,114	0,043
-359,869	100,062	0,139	0,117
-358,854	-200,000	0,031	0,154
-357,839	-200,000	0,022	0,078
-356,825	800,000	0,048	-0,115
-355,810	-173,548	0,062	0,001
-354,796	165,784	0,049	0,050
-353,781	-72,039	-0,108	0,029
-352,766	68,965	0,092	0,069
-351,752	10,273	-0,053	-0,029
-350,737	301,600	0,063	0,085
-349,723	193,061	-0,027	0,029
-348,708	-13,033	-0,092	0,043
-347,693	11,377	-0,080	-0,045
-346,679	-60,459	0,099	-0,030
-345,664	-110,851	-0,117	0,017
-344,650	-140,384	0,065	0,005
-343,635	33,172	0,061	-0,038
-342,620	119,276	0,076	-0,068
-341,606	66,837	-0,041	0,030
-340,591	365,229	-0,016	0,024
-339,577	-200,000	0,037	-0,144
-338,562	399,660	-0,072	-0,110
-337,548	-19,283	0,094	-0,042
-336,533	-22,233	-0,043	-0,019
-335,518	236,277	0,079	0,095
-334,504	310,939	-0,037	0,050
-333,489	800,000	0,013	-0,040
-332,475	800,000	0,055	-0,120
-331,460	-200,000	0,020	-0,071
-330,445	-43,734	-0,142	-0,052
-329,431	800,000	-0,050	0,120
-328,416	-76,867	0,101	0,025
-327,402	-76,072	-0,064	0,016
-326,387	773,223	0,017	0,034
-325,372	-115,796	-0,092	-0,012
-324,358	-200,000	0,006	0,069
-323,343	89,946	-0,134	-0,109
-322,329	5,339	0,050	0,027
-321,314	-103,365	-0,091	0,015
-320,299	800,000	-0,047	0,117
-319,285	-122,704	0,080	0,009
-318,270	-117,013	0,110	-0,014
-317,256	353,382	-0,048	0,069
-316,241	415,656	0,110	-0,171
-315,226	-200,000	0,012	-0,106
-314,212	-200,000	0,013	-0,118
-313,197	208,846	0,043	0,049
-312,183	-117,267	-0,077	0,010
-311,168	800,000	0,038	-0,110
-310,153	-41,379	-0,078	0,029
-309,139	20,101	0,084	-0,049
-308,124	2,519	-0,119	-0,062
-307,110	-18,834	0,281	0,126
-306,095	159,244	0,088	0,088
-305,080	408,577	0,016	0,025
-304,066	16,036	-0,072	-0,041
-303,051	-200,000	-0,012	-0,090
-302,037	-200,000	0,010	0,044
-301,022	525,950	-0,012	-0,021
-300,008	-91,717	0,048	0,010
-298,993	69,598	-0,038	0,028
-297,978	106,078	0,080	-0,069
-296,964	-200,000	-0,001	0,008
-295,949	-5,391	0,087	0,043
-294,935	-126,275	-0,070	-0,007
-293,920	-123,971	0,031	-0,004
-292,905	-83,023	0,051	0,012
-291,891	327,929	0,055	0,076
-290,876	283,377	0,059	0,077
-289,862	-82,565	-0,085	-0,020
-288,847	800,000	0,009	-0,026
-287,832	-200,000	-0,035	-0,123
-286,818	800,000	0,047	-0,123
-285,803	-118,427	0,080	-0,010
-284,789	-200,000	-0,001	-0,014
-283,774	-151,044	0,099	0,005
-282,759	-125,563	-0,111	0,012
-281,745	-95,686	0,102	0,020
-280,730	-165,699	-0,110	0,003
-279,716	-200,000	-0,013	-0,105
-278,701	-200,000	0,023	-0,124
-277,686	284,936	-0,048	0,063
-276,672	50,467	-0,103	0,070
-275,657	64,925	-0,041	0,030
-274,643	-125,394	-0,211	0,023
-273,628	-200,000	0,005	-0,087
-272,613	-89,740	0,136	-0,028
-271,599	73,892	-0,176	0,133
-270,584	-200,000	0,011	0,143
-269,570	800,000	-0,037	-0,086
-268,555	800,000	-0,063	-0,135
-267,540	-115,018	0,057	0,008
-266,526	-200,000	0,004	-0,083
-265,511	323,814	-0,077	-0,107
-264,497	5,859	0,130	-0,069
-263,482	-200,000	0,020	-0,077
-262,467	300,201	-0,032	0,043
-261,453	-145,160	-0,069	0,004
-260,438	-25,316	-0,082	0,035
-259,424	-200,000	0,036	0,128
-258,409	-200,000	-0,003	0,040
-257,395	49,975	-0,078	-0,053
-256,380	-200,000	0,017	0,124
-255,365	493,856	-0,070	0,116
-254,351	10,540	0,076	-0,042
-253,336	800,000	-0,014	0,030
-252,322	8,901	-0,070	0,038
-251,307	35,793	0,147	-0,093
-250,292	-200,000	-0,005	0,021
-249,278	301,614	0,038	-0,051
-248,263	62,643	0,101	-0,073
-247,249	-172,214	0,110	0,003
-246,234	17,840	-0,101	0,058
-245,219	-1,693	0,067	-0,034
-244,205	200,618	0,017	-0,019
-243,190	-183,062	0,119	-0,001
-242,176	-200,000	0,001	-0,036
-241,161	-200,000	0,040	0,128
-240,146	500,127	-0,043	0,072
-239,132	-4,708	-0,059	-0,029
-238,117	800,000	-0,036	-0,113
-237,103	-200,000	-0,002	-0,043
-236,088	-23,179	0,091	0,040
-235,073	73,437	0,090	0,068
-234,059	-200,000	-0,029	0,141
-233,044	9,352	0,072	0,039
-232,030	-163,769	-0,043	0,001
-231,015	25,284	-0,116	-0,069
-230,000	132,374	-0,060	-0,056
-228,986	396,162	0,032	0,048
-227,971	12,874	0,079	0,044
-226,957	-159,794	0,131	0,005
-225,942	493,321	0,014	-0,024
-224,927	341,863	0,068	-0,096
-223,913	46,917	-0,030	0,020
-222,898	-147,820	0,005	-0,000
-221,884	800,000	-0,109	0,225
-220,869	-200,000	-0,008	-0,041
-219,855	-200,000	0,009	0,168
-218,840	84,304	0,113	-0,089
-217,825	-200,000	-0,002	0,077
-216,811	-115,081	-0,071	0,010
-215,796	-200,000	0,020	0,094
-214,782	800,000	0,033	0,099
-213,767	80,309	0,052	-0,040
-212,752	-142,220	0,054	0,004
-211,738	734,093	0,031	0,060
-210,723	326,360	0,076	0,105
-209,709	-76,796	-0,211	-0,053
-208,694	1,276	0,039	-0,020
-207,679	-137,639	-0,072	0,006
-206,665	310,436	-0,068	-0,092
-205,650	800,000	0,066	0,164
-204,636	114,539	-0,086	0,075
-203,621	-107,395	0,161	0,025
-202,606	228,824	0,038	0,045
-201,592	62,174	-0,122	-0,088
-200,577	336,403	0,071	-0,100
-199,563	-111,588	-0,034	0,005
-198,548	-200,000	0,012	0,046
-197,533	94,880	0,040	0,032
-196,519	800,000	0,004	0,012
-195,504	415,132	-0,053	0,081
-194,490	210,021	0,150	0,170
-193,475	-200,000	0,015	-0,114
-192,460	-200,000	0,033	-0,146
-191,446	73,287	0,113	0,085
-190,431	36,386	0,022	0,014
-189,417	-156,061	-0,067	-0,003
-188,402	800,000	0,025	-0,069
-187,387	-163,334	-0,071	0,002
-186,373	-41,323	-0,124	-0,046
-185,358	-200,000	-0,010	0,044
-184,344	-105,753	0,123	0,020
-183,329	180,246	0,043	0,045
-182,315	800,000	-0,062	0,158
-181,300	54,022	-0,058	-0,040
-180,285	-200,000	-0,001	-0,055
-179,271	572,026	0,035	0,062
-178,256	-200,000	0,007	-0,027
-177,242	-114,232	0,045	0,006
-176,227	394,631	-0,112	0,168
-175,212	-200,000	-0,017	0,067
-174,198	-93,067	-0,131	0,026
-173,183	225,467	-0,030	0,035
-172,169	89,745	0,074	0,060
-171,154	-112,399	-0,117	-0,017
-170,139	545,137	0,107	0,184
-169,125	-86,391	0,120	0,026
-168,110	-200,000	-0,007	0,072
-167,096	800,000	-0,026	0,057
-166,081	413,123	0,023	-0,035
-165,066	372,135	-0,038	0,056
-164,052	88,466	-0,061	-0,048
-163,037	-200,000	-0,007	0,102
-162,023	216,620	0,076	0,087
-161,008	-200,000	0,006	0,113
-159,993	800,000	0,027	-0,057
-158,979	60,964	0,083	0,059
-157,964	-74,114	-0,077	0,020
-156,950	-200,000	-0,032	-0,120
-155,935	167,679	0,027	-0,028
-154,920	800,000	0,015	0,046
-153,906	-200,000	0,001	0,047
-152,891	-200,000	0,018	-0,094
-151,877	-200,000	-0,003	-0,033
-150,862	800,000	0,024	0,049
-149,847	126,327	0,087	-0,079
-148,833	-27,008	0,095	-0,040
-147,818	18,002	0,028	0,016
-146,804	84,373	0,066	-0,052
-145,789	-10,436	0,145	0,069
-144,775	135,177	-0,091	-0,085
-143,760	-163,973	-0,082	-0,003
-142,745	800,000	-0,044	-0,090
-141,731	191,728	-0,012	0,014
-140,716	107,364	-0,042	0,036
-139,702	425,491	-0,062	-0,096
-138,687	-200,000	0,004	-0,037
-137,672	-200,000	-0,007	0,047
-136,658	-77,980	0,062	-0,015
-135,643	-49,316	-0,111	-0,038
-134,629	-200,000	0,014	0,113
-133,614	800,000	-0,032	0,096
-132,599	156,256	0,060	0,060
-131,585	-64,355	0,075	-0,022
-130,570	-200,000	0,018	0,070
-129,556	-86,526	-0,075	0,016
-128,541	-14,444	-0,016	0,007
-127,526	-1,135	-0,024	0,012
-126,512	136,572	0,096	-0,090
-125,497	-200,000	0,009	0,045
-124,483	-114,499	0,023	0,003
-123,468	79,475	-0,056	0,043
-122,453	-114,834	-0,046	0,006
-121,439	588,181	-0,046	0,083
-120,424	-15,337	-0,207	0,095
-119,410	6,535	0,026	0,014
-118,395	365,255	0,079	0,114
