DTS Sentinel unit serial number:	SN410029Multiplexer serial number:	ORYXHardware model number:	OX2-SRSoftware version number:	ORYX F/W v4,00 Oryx Data Collector v3.7.2.0data status	okinstallation	B6 Nyhavnadifferential loss correction	single-endedforward channel	channel 2reverse channel	N/Adate	2023/12/09time	03:35:08forward acquisition time	300,00reverse acquisition time	0,00gamma	499,1914k internal	0,3153k external	0,3153temperature offset calibration	1,0000default loss term (dB/km)	0,3820temperature slope calibration	1,0000multiplexer offset coefficient	1,0000multiplexer slope coefficient	1,0000fibre end	0,00T internal ref (°C)	16,39T ext. ref 1 (°C)	0,57T ext. ref 2 (°C)	0,57length (m)	temperature (°C)	Stokes	anti-Stokes-744,400	534,069	0,056	0,098
-743,385	-132,055	-0,362	-0,034
-742,371	-0,421	0,171	-0,089
-741,356	-174,543	-0,273	-0,006
-740,342	27,173	0,125	0,077
-739,327	-53,728	-0,243	0,081
-738,312	-200,000	-0,012	0,094
-737,298	-4,888	-0,203	-0,103
-736,283	-24,247	0,058	0,025
-735,269	-11,950	-0,178	0,086
-734,254	526,802	0,057	-0,100
-733,239	-87,397	-0,516	-0,114
-732,225	-91,500	0,133	0,028
-731,210	542,088	0,038	0,067
-730,196	-200,000	-0,006	-0,023
-729,181	-54,379	-0,123	0,041
-728,167	97,479	0,119	-0,101
-727,152	800,000	-0,020	-0,064
-726,137	475,979	0,028	0,047
-725,123	-152,761	-0,069	-0,004
-724,108	-200,000	0,024	-0,158
-723,094	798,784	-0,078	-0,159
-722,079	365,687	-0,064	0,095
-721,064	58,201	-0,083	-0,060
-720,050	-54,390	-0,119	-0,039
-719,035	590,501	0,051	0,094
-718,021	800,000	0,010	0,029
-717,006	379,606	-0,049	-0,074
-715,991	-200,000	-0,000	-0,235
-714,977	564,806	-0,013	-0,023
-713,962	-39,138	-0,071	-0,027
-712,948	35,320	-0,104	0,067
-711,933	3,097	-0,053	-0,028
-710,918	-0,151	-0,089	-0,047
-709,904	-135,846	-0,164	0,014
-708,889	-0,407	-0,066	0,034
-707,875	-28,714	-0,162	0,069
-706,860	177,357	-0,061	-0,065
-705,845	68,536	-0,069	-0,052
-704,831	66,752	-0,065	0,049
-703,816	51,267	0,104	-0,073
-702,802	-12,736	0,058	-0,028
-701,787	65,995	-0,057	-0,043
-700,772	-200,000	-0,005	0,028
-699,758	800,000	-0,049	0,109
-698,743	128,031	0,061	-0,057
-697,729	800,000	-0,035	0,105
-696,714	-10,238	0,078	0,038
-695,699	-199,460	-0,189	-0,001
-694,685	-50,231	0,106	-0,037
-693,670	422,708	-0,032	-0,050
-692,656	-52,962	-0,079	-0,027
-691,641	-14,915	-0,098	-0,046
-690,627	800,000	0,046	-0,101
-689,612	559,061	0,020	-0,036
-688,597	49,227	-0,074	0,051
-687,583	187,878	-0,112	-0,123
-686,568	-200,000	-0,015	0,074
-685,554	-200,000	-0,001	-0,088
-684,539	-44,550	-0,077	0,028
-683,524	674,218	-0,043	-0,083
-682,510	520,687	-0,059	-0,102
-681,495	-200,000	0,012	0,077
-680,481	-28,736	0,020	0,009
-679,466	-52,828	-0,074	0,025
-678,451	800,000	-0,031	-0,066
-677,437	655,679	-0,040	0,075
-676,422	-200,000	0,040	0,131
-675,408	800,000	-0,026	0,073
-674,393	-106,477	0,066	-0,011
-673,378	-66,896	-0,080	0,023
-672,364	-37,377	-0,133	0,052
-671,349	800,000	-0,074	-0,181
-670,335	-7,569	-0,011	-0,006
-669,320	-3,993	0,068	0,035
-668,305	800,000	-0,067	0,145
-667,291	-6,221	-0,051	0,026
-666,276	-40,987	-0,059	0,022
-665,262	278,723	0,042	0,056
-664,247	696,318	-0,067	-0,130
-663,232	-41,152	0,117	-0,044
-662,218	-132,280	-0,075	0,007
-661,203	-200,000	0,002	-0,028
-660,189	800,000	0,043	-0,100
-659,174	-37,958	-0,067	0,026
-658,159	-200,000	-0,014	-0,083
-657,145	148,254	0,006	0,006
-656,130	218,695	-0,049	-0,058
-655,116	-78,213	-0,080	0,020
-654,101	800,000	0,028	0,068
-653,086	58,346	-0,087	-0,063
-652,072	-174,096	-0,067	-0,001
-651,057	800,000	-0,099	-0,210
-650,043	-200,000	-0,008	0,033
-649,028	-200,000	0,009	-0,031
-648,014	-134,135	0,081	-0,007
-646,999	-89,661	0,028	0,006
-645,984	800,000	0,061	0,192
-644,970	-34,964	0,078	-0,031
-643,955	79,248	0,024	0,019
-642,941	-25,218	-0,122	0,053
-641,926	139,602	0,073	0,071
-640,911	-200,000	0,002	0,008
-639,897	-160,948	0,077	0,003
-638,882	800,000	0,024	-0,060
-637,868	187,437	-0,090	0,099
-636,853	-57,398	-0,066	0,021
-635,838	679,864	0,112	-0,215
-634,824	-200,000	0,014	-0,099
-633,809	-197,817	-0,103	-0,000
-632,795	-200,000	-0,021	0,111
-631,780	562,539	-0,071	-0,126
-630,765	-200,000	-0,014	-0,070
-629,751	263,684	-0,025	0,032
-628,736	719,030	-0,011	0,021
-627,722	301,379	-0,017	-0,024
-626,707	347,619	-0,049	-0,071
-625,692	800,000	0,046	-0,149
-624,678	-12,377	-0,141	-0,067
-623,663	696,886	0,031	0,060
-622,649	82,360	0,076	-0,060
-621,634	-91,898	-0,130	-0,027
-620,619	-83,718	0,123	-0,029
-619,605	229,924	0,046	-0,056
-618,590	800,000	-0,027	0,086
-617,576	5,676	-0,081	0,044
-616,561	-164,894	0,092	0,003
-615,546	91,402	-0,081	-0,067
-614,532	-78,250	-0,053	0,013
-613,517	-200,000	0,021	0,076
-612,503	-200,000	0,003	0,074
-611,488	-24,467	0,012	-0,005
-610,474	800,000	0,021	0,066
-609,459	86,844	-0,090	0,073
-608,444	-122,843	-0,081	-0,009
-607,430	101,395	-0,051	-0,043
-606,415	366,938	-0,067	-0,099
-605,401	-124,273	0,115	0,013
-604,386	694,818	0,061	-0,119
-603,371	10,509	-0,093	0,052
-602,357	-192,796	-0,075	-0,000
-601,342	-200,000	-0,002	-0,096
-600,328	-200,000	-0,004	0,069
-599,313	37,615	-0,080	0,052
-598,298	605,507	0,034	0,062
-597,284	-200,000	-0,006	0,159
-596,269	167,104	0,064	-0,067
-595,255	-143,520	-0,102	0,007
-594,240	-12,295	0,198	0,095
-593,225	26,775	-0,066	-0,041
-592,211	383,972	-0,075	-0,114
-591,196	-75,711	0,073	-0,019
-590,182	-2,401	-0,164	0,084
-589,167	-10,287	-0,061	-0,030
-588,152	-72,746	-0,180	-0,048
-587,138	81,277	0,019	0,015
-586,123	690,612	-0,111	-0,215
-585,109	429,307	-0,041	-0,065
-584,094	800,000	0,032	0,092
-583,079	-90,803	0,124	0,026
-582,065	-97,807	0,006	0,001
-581,050	79,577	-0,074	0,058
-580,036	794,826	-0,019	0,038
-579,021	33,898	-0,110	-0,070
-578,006	568,922	-0,063	-0,113
-576,992	126,899	0,034	-0,032
-575,977	111,387	0,094	-0,083
-574,963	-179,704	0,076	0,001
-573,948	-200,000	-0,022	0,164
-572,934	-57,728	-0,039	0,012
-571,919	-116,489	-0,110	0,015
-570,904	-110,664	-0,142	-0,021
-569,890	-200,000	0,008	-0,199
-568,875	40,110	-0,019	-0,013
-567,861	524,244	0,033	-0,058
-566,846	-13,184	0,100	0,048
-565,831	31,265	0,084	0,053
-564,817	-200,000	0,003	-0,064
-563,802	116,067	-0,090	0,081
-562,788	800,000	0,035	0,099
-561,773	571,754	-0,039	-0,070
-560,758	-24,639	0,136	0,059
-559,744	33,427	0,089	0,056
-558,729	-200,000	-0,038	0,126
-557,715	225,391	-0,088	0,105
-556,700	106,672	0,060	0,052
-555,685	577,955	-0,024	-0,044
-554,671	-200,000	-0,002	0,067
-553,656	-200,000	-0,011	0,043
-552,642	-62,340	0,093	0,028
-551,627	800,000	0,059	0,148
-550,612	14,239	-0,108	0,061
-549,598	169,187	0,075	-0,079
-548,583	-133,246	0,078	-0,007
-547,569	94,095	0,079	-0,066
-546,554	-141,410	-0,075	0,005
-545,539	-200,000	0,010	-0,076
-544,525	-200,000	-0,002	-0,076
-543,510	47,641	-0,085	0,058
-542,496	-200,000	-0,002	0,051
-541,481	72,777	-0,049	-0,038
-540,466	800,000	-0,057	-0,133
-539,452	322,751	0,114	-0,159
-538,437	-200,000	-0,015	0,141
-537,423	60,305	0,049	-0,035
-536,408	-121,334	-0,057	-0,007
-535,393	-111,816	-0,064	0,009
-534,379	-34,787	-0,041	0,017
-533,364	800,000	-0,037	-0,104
-532,350	-165,980	0,081	0,002
-531,335	-200,000	-0,003	0,078
-530,321	221,786	0,037	-0,044
-529,306	622,765	-0,033	-0,062
-528,291	-200,000	0,007	0,046
-527,277	-100,083	-0,136	-0,025
-526,262	553,996	0,071	-0,125
-525,248	-200,000	-0,014	0,112
-524,233	170,797	0,112	0,118
-523,218	-75,589	-0,061	-0,016
-522,204	-103,879	-0,173	-0,029
-521,189	-200,000	-0,040	-0,130
-520,175	6,835	-0,027	0,015
-519,160	800,000	0,037	-0,094
-518,145	-8,867	0,197	-0,096
-517,131	-200,000	-0,031	0,152
-516,116	-200,000	-0,023	0,089
-515,102	51,886	0,116	0,081
-514,087	87,246	0,060	-0,048
-513,072	117,028	-0,118	-0,106
-512,058	-200,000	0,011	-0,063
-511,043	130,242	0,032	0,030
-510,029	-200,000	0,003	-0,064
-509,014	-200,000	0,029	0,127
-507,999	54,501	0,028	-0,020
-506,985	24,228	-0,039	0,023
-505,970	-79,494	-0,128	0,032
-504,956	-200,000	-0,000	0,080
-503,941	14,860	-0,095	-0,054
-502,926	-88,142	0,101	-0,022
-501,912	800,000	0,052	0,150
-500,897	-200,000	0,009	-0,038
-499,883	-75,236	-0,068	-0,018
-498,868	800,000	0,059	-0,150
-497,853	-200,000	-0,013	-0,062
-496,839	800,000	-0,047	-0,115
-495,824	-200,000	-0,005	-0,061
-494,810	162,910	0,034	0,035
-493,795	-200,000	0,031	-0,129
-492,781	96,291	-0,071	-0,060
-491,766	274,233	-0,065	-0,084
-490,751	197,433	-0,060	-0,067
-489,737	148,492	0,019	0,019
-488,722	800,000	0,022	0,055
-487,708	-92,525	0,003	0,001
-486,693	483,526	0,056	0,093
-485,678	-200,000	-0,030	0,000
-484,664	5,949	0,075	0,041
-483,649	-93,417	-0,106	0,021
-482,635	-66,256	0,096	-0,028
-481,620	800,000	0,014	0,030
-480,605	-200,000	0,005	-0,032
-479,591	-95,280	-0,032	0,006
-478,576	-71,225	0,053	-0,015
-477,562	415,422	0,055	-0,086
-476,547	19,298	-0,045	0,027
-475,532	-200,000	-0,019	0,108
-474,518	800,000	0,032	-0,095
-473,503	34,903	0,087	0,056
-472,489	800,000	-0,034	-0,091
-471,474	-200,000	0,005	-0,031
-470,459	-102,442	0,096	0,017
-469,445	-200,000	-0,001	-0,017
-468,430	60,737	0,052	-0,038
-467,416	-200,000	0,004	0,063
-466,401	71,986	0,059	0,045
-465,386	-200,000	0,021	0,103
-464,372	-200,000	-0,012	0,065
-463,357	-200,000	-0,019	-0,160
-462,343	146,850	-0,078	0,076
-461,328	-200,000	-0,005	-0,090
-460,313	-30,911	0,066	-0,027
-459,299	166,247	0,101	0,104
-458,284	800,000	0,010	0,029
-457,270	-200,000	0,031	0,119
-456,255	-200,000	0,011	-0,143
-455,241	-95,914	-0,049	0,009
-454,226	-167,411	-0,073	-0,002
-453,211	-200,000	-0,000	0,026
-452,197	42,264	0,186	-0,123
-451,182	-3,194	-0,009	-0,005
-450,168	229,668	-0,084	0,100
-449,153	-200,000	0,018	-0,100
-448,138	167,805	-0,068	0,070
-447,124	-200,000	0,001	0,037
-446,109	-200,000	0,022	0,125
-445,095	-200,000	0,018	0,139
-444,080	-105,454	-0,015	0,003
-443,065	-200,000	-0,031	0,285
-442,051	62,985	-0,050	0,036
-441,036	91,423	0,082	0,067
-440,022	798,360	0,023	-0,047
-439,007	344,635	-0,050	0,071
-437,992	-200,000	0,010	-0,124
-436,978	-27,814	0,134	0,056
-435,963	95,110	0,059	-0,049
-434,949	212,834	-0,107	-0,124
-433,934	-118,711	0,128	-0,016
-432,919	264,038	-0,093	-0,118
-431,905	256,340	0,056	-0,071
-430,890	98,623	0,090	-0,075
-429,876	142,107	0,042	-0,040
-428,861	-200,000	-0,018	0,124
-427,846	-183,681	-0,075	-0,001
-426,832	-1,966	0,028	0,014
-425,817	-200,000	-0,022	-0,073
-424,803	-200,000	0,001	-0,020
-423,788	-22,616	0,035	0,015
-422,773	800,000	0,040	-0,083
-421,759	-84,828	-0,074	-0,017
-420,744	549,320	0,066	0,116
-419,730	271,797	-0,056	-0,072
-418,715	-200,000	-0,014	-0,235
-417,701	482,303	-0,010	-0,016
-416,686	-200,000	-0,013	-0,160
-415,671	-28,858	-0,113	0,047
-414,657	13,272	-0,040	-0,023
-413,642	278,458	-0,145	0,189
-412,628	-83,915	0,119	-0,027
-411,613	800,000	-0,018	-0,050
-410,598	99,872	-0,136	-0,115
-409,584	-127,732	0,031	0,003
-408,569	129,873	0,046	-0,043
-407,555	-200,000	0,005	-0,084
-406,540	31,489	-0,144	-0,090
-405,525	800,000	-0,016	-0,038
-404,511	678,509	-0,037	-0,070
-403,496	157,687	-0,069	-0,070
-402,482	466,255	0,042	0,068
-401,467	800,000	0,013	0,029
-400,452	663,389	-0,060	0,113
-399,438	800,000	-0,031	0,078
-398,423	-11,112	-0,063	-0,030
-397,409	-29,811	-0,084	-0,035
-396,394	800,000	0,043	-0,127
-395,379	108,536	0,068	0,059
-394,365	400,117	-0,025	0,039
-393,350	800,000	-0,025	0,069
-392,336	-90,034	0,089	-0,019
-391,321	800,000	-0,052	0,157
-390,306	107,787	-0,038	-0,033
-389,292	55,953	-0,065	-0,046
-388,277	-78,882	0,151	0,037
-387,263	-200,000	-0,006	0,115
-386,248	67,167	0,126	0,094
-385,233	141,239	-0,169	0,163
-384,219	160,319	0,119	0,120
-383,204	506,184	0,060	-0,102
-382,190	70,613	-0,073	-0,055
-381,175	-200,000	0,007	0,067
-380,160	-25,225	0,057	0,024
-379,146	175,256	0,036	-0,038
-378,131	65,050	0,090	0,066
-377,117	-200,000	0,008	-0,061
-376,102	175,937	-0,100	-0,106
-375,088	46,816	0,113	-0,076
-374,073	196,517	-0,065	0,072
-373,058	-200,000	-0,019	0,085
-372,044	145,727	0,108	0,105
-371,029	-200,000	0,041	0,145
-370,015	179,107	-0,026	0,028
-369,000	406,207	-0,034	-0,052
-367,985	-200,000	0,008	-0,082
-366,971	-200,000	-0,023	0,074
-365,956	380,681	-0,094	0,141
-364,942	800,000	0,041	0,105
-363,927	-173,990	0,083	-0,002
-362,912	41,876	-0,075	-0,049
-361,898	-134,615	-0,148	0,013
-360,883	32,058	-0,108	-0,068
-359,869	-200,000	-0,011	-0,124
-358,854	33,776	0,136	-0,086
-357,839	-15,326	0,137	0,063
-356,825	18,189	0,050	-0,029
-355,810	101,471	-0,065	-0,055
-354,796	800,000	-0,022	0,057
-353,781	519,383	-0,039	0,066
-352,766	104,259	-0,048	-0,041
-351,752	-200,000	-0,013	0,124
-350,737	-8,289	0,082	0,040
-349,723	180,216	0,072	-0,077
-348,708	31,820	0,147	0,092
-347,693	318,893	0,093	0,129
-346,679	39,151	-0,041	0,026
-345,664	800,000	-0,046	-0,121
-344,650	247,542	-0,029	-0,035
-343,635	-200,000	-0,004	-0,065
-342,620	-147,396	0,088	0,005
-341,606	-200,000	0,006	-0,059
-340,591	54,230	-0,103	-0,072
-339,577	-200,000	-0,005	-0,018
-338,562	122,265	0,112	0,102
-337,548	800,000	-0,032	-0,085
-336,533	800,000	0,008	0,022
-335,518	190,161	-0,036	-0,040
-334,504	800,000	0,044	0,124
-333,489	755,899	0,071	0,139
-332,475	-200,000	0,003	0,160
-331,460	482,814	0,042	0,069
-330,445	-41,862	-0,151	0,056
-329,431	282,638	0,055	0,071
-328,416	-200,000	0,010	-0,124
-327,402	-31,746	0,140	-0,057
-326,387	513,436	0,034	0,058
-325,372	-125,092	-0,070	0,008
-324,358	-16,675	-0,031	-0,014
-323,343	-79,472	-0,100	-0,024
-322,329	-100,602	0,062	0,011
-321,314	-97,751	0,131	0,024
-320,299	-14,593	-0,138	0,064
-319,285	-178,643	-0,039	0,001
-318,270	91,440	0,059	-0,048
-317,256	12,536	-0,075	0,042
-316,241	39,853	0,142	-0,093
-315,226	-200,000	0,008	0,031
-314,212	800,000	-0,050	0,143
-313,197	-59,306	0,106	0,033
-312,183	-143,629	0,055	0,004
-311,168	-52,934	0,059	-0,019
-310,153	-188,098	0,101	0,001
-309,139	-25,245	0,061	-0,026
-308,124	-109,809	0,171	0,026
-307,110	86,049	0,039	0,031
-306,095	82,628	-0,087	0,069
-305,080	800,000	-0,043	-0,110
-304,066	-71,788	-0,129	-0,035
-303,051	99,578	-0,070	0,059
-302,037	-27,409	-0,063	-0,027
-301,022	-200,000	-0,004	0,032
-300,008	386,917	0,085	-0,127
-298,993	-71,568	0,118	-0,032
-297,978	-200,000	-0,057	0,195
-296,964	222,047	0,073	0,086
-295,949	-200,000	0,031	0,153
-294,935	-200,000	0,029	0,100
-293,920	-38,252	0,147	-0,056
-292,905	-200,000	0,013	-0,079
-291,891	5,235	0,111	-0,059
-290,876	428,824	-0,032	-0,050
-289,862	-200,000	-0,014	0,113
-288,847	-148,876	-0,047	0,003
-287,832	-121,135	-0,014	0,002
-286,818	-200,000	-0,013	0,196
-285,803	-37,612	0,059	-0,023
-284,789	277,032	-0,096	0,124
-283,774	800,000	0,017	0,045
-282,759	-121,107	0,086	-0,010
-281,745	800,000	0,058	-0,176
-280,730	-130,466	-0,108	0,010
-279,716	479,569	0,029	0,048
-278,701	67,963	-0,043	-0,032
-277,686	-200,000	0,015	0,077
-276,672	-90,202	0,120	-0,025
-275,657	800,000	-0,052	-0,115
-274,643	-11,319	-0,078	0,037
-273,628	27,176	0,032	0,020
-272,613	34,609	-0,043	-0,027
-271,599	-200,000	0,007	0,120
-270,584	22,766	0,011	-0,006
-269,570	-112,408	-0,040	-0,006
-268,555	710,772	0,006	-0,011
-267,540	-133,706	-0,050	-0,004
-266,526	-200,000	-0,002	-0,014
-265,511	-200,000	-0,021	0,083
-264,497	800,000	-0,030	0,074
-263,482	51,514	0,025	-0,017
-262,467	53,309	0,109	-0,076
-261,453	762,669	-0,057	0,113
-260,438	-200,000	-0,020	-0,142
-259,424	529,641	-0,061	0,105
-258,409	-200,000	0,006	-0,074
-257,395	-157,423	0,032	-0,001
-256,380	-160,724	0,106	-0,004
-255,365	231,586	0,100	-0,119
-254,351	-120,669	0,129	-0,016
-253,336	187,370	-0,016	-0,018
-252,322	5,723	-0,159	-0,085
-251,307	13,154	-0,034	-0,019
-250,292	119,733	-0,166	-0,149
-249,278	-112,674	0,112	-0,016
-248,263	800,000	0,035	-0,071
-247,249	-200,000	-0,002	0,189
-246,234	-51,686	-0,090	0,030
-245,219	229,952	-0,060	-0,071
-244,205	800,000	-0,038	-0,108
-243,190	-36,169	0,059	-0,023
-242,176	778,714	0,039	-0,078
-241,161	298,784	0,033	0,044
-240,146	535,264	0,027	-0,047
-239,132	474,019	0,040	0,065
-238,117	-53,282	0,042	-0,014
-237,103	-200,000	0,008	-0,080
-236,088	30,594	0,075	0,047
-235,073	-108,661	0,061	0,009
-234,059	-200,000	0,010	0,035
-233,044	-80,263	-0,069	-0,017
-232,030	76,100	0,053	-0,041
-231,015	305,807	0,045	-0,061
-230,000	-140,723	-0,290	-0,021
-228,986	-65,327	0,085	0,025
-227,971	-60,379	0,065	-0,020
-226,957	800,000	0,026	0,060
-225,942	14,746	0,117	0,066
-224,927	19,880	-0,091	-0,053
-223,913	800,000	-0,048	-0,119
-222,898	67,574	-0,105	-0,078
-221,884	-200,000	0,003	-0,047
-220,869	196,354	0,078	0,086
-219,855	-200,000	-0,013	0,115
-218,840	-46,687	0,124	-0,044
-217,825	-200,000	-0,000	-0,060
-216,811	102,669	0,039	-0,033
-215,796	800,000	0,036	-0,074
-214,782	235,114	-0,125	-0,150
-213,767	-87,326	0,104	-0,023
-212,752	71,977	0,037	0,028
-211,738	-200,000	0,001	0,060
-210,723	-32,430	0,058	0,023
-209,709	207,801	-0,101	0,114
-208,694	6,813	-0,022	-0,012
-207,679	168,490	0,062	0,064
-206,665	218,171	-0,058	-0,067
-205,650	25,408	0,064	-0,038
-204,636	358,829	0,022	-0,032
-203,621	592,507	-0,042	-0,075
-202,606	-175,181	0,047	0,001
-201,592	-200,000	-0,082	-0,000
-200,577	800,000	-0,057	-0,119
-199,563	36,107	0,014	-0,009
-198,548	800,000	0,046	0,138
-197,533	92,341	-0,081	-0,066
-196,519	59,761	-0,026	0,019
-195,504	-200,000	0,020	-0,088
-194,490	-200,000	0,012	-0,149
-193,475	49,941	-0,107	-0,073
-192,460	21,218	-0,059	0,034
-191,446	-200,000	0,013	0,070
-190,431	-200,000	0,000	0,070
-189,417	-200,000	0,011	0,091
-188,402	-200,000	0,004	-0,102
-187,387	-200,000	-0,007	-0,120
-186,373	800,000	0,044	-0,119
-185,358	116,872	0,054	-0,048
-184,344	-111,475	0,174	0,025
-183,329	593,913	-0,073	0,130
-182,315	-61,723	-0,047	0,014
-181,300	-200,000	0,009	0,144
-180,285	-200,000	-0,025	-0,241
-179,271	-52,285	-0,071	0,024
-178,256	43,889	-0,062	-0,041
-177,242	581,386	-0,065	0,115
-176,227	-200,000	0,002	-0,066
-175,212	-200,000	0,021	-0,096
-174,198	-25,327	-0,033	-0,014
-173,183	74,292	-0,122	-0,093
-172,169	20,479	-0,113	0,066
-171,154	497,011	-0,028	-0,046
-170,139	-6,789	0,030	-0,015
-169,125	86,480	0,066	0,053
-168,110	-200,000	-0,052	0,213
-167,096	-15,436	-0,035	0,016
-166,081	412,788	-0,023	-0,035
-165,066	-200,000	0,005	-0,072
-164,052	436,148	-0,070	0,111
-163,037	800,000	-0,035	0,108
-162,023	-200,000	0,008	0,158
-161,008	302,413	0,090	0,121
-159,993	408,452	-0,020	-0,030
-158,979	112,484	-0,072	0,063
-157,964	-200,000	0,009	0,075
-156,950	-200,000	-0,005	-0,126
-155,935	-22,545	-0,086	0,037
-154,920	-12,834	0,175	0,082
-153,906	800,000	0,026	-0,060
-152,891	313,025	-0,048	-0,065
-151,877	244,254	0,016	0,019
-150,862	379,228	-0,032	-0,048
-149,847	800,000	-0,052	-0,154
-148,833	-130,688	0,134	-0,013
-147,818	124,997	-0,105	0,096
-146,804	800,000	-0,053	0,153
-145,789	-90,425	-0,034	0,007
-144,775	-200,000	0,025	0,085
-143,760	126,715	-0,043	-0,040
-142,745	800,000	-0,041	0,108
-141,731	-141,340	0,044	0,003
-140,716	110,237	-0,097	0,084
-139,702	69,518	0,068	-0,051
-138,687	-200,000	-0,001	0,012
-137,672	560,876	0,031	-0,054
-136,658	-197,885	-0,131	-0,001
-135,643	-55,471	-0,056	0,018
-134,629	74,072	-0,125	0,094
-133,614	800,000	0,040	0,101
-132,599	239,215	0,156	0,188
-131,585	83,845	-0,049	-0,038
-130,570	91,557	-0,052	0,042
-129,556	-88,250	0,013	0,003
-128,541	-153,521	-0,148	-0,007
-127,526	125,032	-0,029	0,026
-126,512	167,119	0,143	-0,147
-125,497	-165,559	0,086	-0,003
-124,483	252,758	0,054	0,067
-123,468	-103,985	0,126	-0,021
-122,453	193,643	-0,121	-0,132
-121,439	-200,000	0,031	0,113
-120,424	-37,622	-0,096	0,037
-119,410	-64,372	0,105	-0,031
