DTS Sentinel unit serial number:	SN410029Multiplexer serial number:	ORYXHardware model number:	OX2-SRSoftware version number:	ORYX F/W v4,00 Oryx Data Collector v3.7.2.0data status	okinstallation	B6 Nyhavnadifferential loss correction	single-endedforward channel	channel 2reverse channel	N/Adate	2023/12/09time	16:20:08forward acquisition time	300,00reverse acquisition time	0,00gamma	499,1914k internal	0,3132k external	0,3132temperature offset calibration	1,0000default loss term (dB/km)	0,3820temperature slope calibration	1,0000multiplexer offset coefficient	1,0000multiplexer slope coefficient	1,0000fibre end	0,00T internal ref (°C)	20,84T ext. ref 1 (°C)	4,69T ext. ref 2 (°C)	4,68length (m)	temperature (°C)	Stokes	anti-Stokes-744,400	15,922	0,112	-0,065
-743,385	-19,284	-0,165	0,076
-742,371	256,869	0,021	0,027
-741,356	-22,446	-0,246	0,110
-740,342	-102,687	0,210	-0,037
-739,327	-93,520	-0,320	0,065
-738,312	74,577	-0,007	0,005
-737,298	-8,742	-0,304	0,151
-736,283	52,866	0,159	0,113
-735,269	81,032	-0,238	0,191
-734,254	-9,887	0,036	-0,018
-733,239	36,302	-0,319	-0,209
-732,225	-79,749	0,205	-0,051
-731,210	-200,000	-0,030	0,173
-730,196	-170,768	-0,033	-0,001
-729,181	315,411	-0,017	0,023
-728,167	76,114	0,044	-0,034
-727,152	-200,000	-0,007	-0,080
-726,137	96,404	-0,048	-0,041
-725,123	89,663	-0,152	-0,126
-724,108	398,008	-0,039	-0,061
-723,094	88,933	-0,114	-0,094
-722,079	-74,086	0,051	-0,014
-721,064	57,076	0,042	-0,031
-720,050	200,912	-0,080	-0,091
-719,035	-127,437	-0,063	0,007
-718,021	53,251	-0,119	-0,084
-717,006	512,827	0,028	-0,048
-715,991	80,650	-0,118	-0,094
-714,977	-24,373	-0,074	-0,033
-713,962	244,112	-0,030	-0,037
-712,948	-152,058	0,060	-0,003
-711,933	-200,000	0,009	-0,043
-710,918	207,479	-0,068	-0,079
-709,904	-200,000	0,005	0,045
-708,889	30,099	-0,170	-0,108
-707,875	-200,000	-0,007	0,085
-706,860	149,598	0,103	0,104
-705,845	-42,886	0,079	0,030
-704,831	-75,945	0,175	-0,046
-703,816	-200,000	0,019	0,063
-702,802	800,000	-0,033	-0,094
-701,787	800,000	-0,090	-0,188
-700,772	153,645	-0,069	-0,070
-699,758	721,574	-0,004	-0,008
-698,743	800,000	-0,025	-0,059
-697,729	-200,000	0,002	-0,025
-696,714	-200,000	-0,023	-0,211
-695,699	800,000	-0,042	-0,125
-694,685	244,492	-0,082	-0,102
-693,670	55,248	-0,113	-0,081
-692,656	672,462	-0,023	0,044
-691,641	1,636	0,073	-0,039
-690,627	4,975	0,090	-0,049
-689,612	40,514	-0,067	-0,045
-688,597	800,000	0,027	0,088
-687,583	-71,434	-0,124	-0,034
-686,568	260,025	0,011	0,015
-685,554	-200,000	0,032	-0,135
-684,539	-200,000	-0,001	-0,034
-683,524	0,142	0,026	0,014
-682,510	205,242	-0,075	-0,086
-681,495	-26,704	-0,048	-0,021
-680,481	-136,686	-0,100	-0,008
-679,466	193,956	-0,111	-0,124
-678,451	227,570	-0,031	-0,038
-677,437	800,000	-0,032	-0,090
-676,422	-71,141	-0,073	0,020
-675,408	254,298	-0,088	0,111
-674,393	286,340	0,074	-0,099
-673,378	-133,112	-0,157	-0,015
-672,364	51,703	0,050	0,035
-671,349	-35,598	-0,205	0,082
-670,335	-193,999	-0,117	-0,001
-669,320	698,323	0,037	-0,072
-668,305	63,314	-0,049	0,037
-667,291	50,508	-0,124	-0,087
-666,276	143,039	-0,054	-0,054
-665,262	365,886	0,023	-0,034
-664,247	-200,000	0,008	-0,084
-663,232	-83,638	-0,093	-0,022
-662,218	-13,973	0,034	0,016
-661,203	44,429	-0,052	0,035
-660,189	76,512	-0,100	-0,078
-659,174	-84,762	-0,222	-0,051
-658,159	13,428	-0,060	-0,034
-657,145	304,972	0,032	0,044
-656,130	-200,000	0,013	-0,125
-655,116	800,000	0,025	-0,063
-654,101	149,464	0,084	0,085
-653,086	30,211	-0,122	0,077
-652,072	-200,000	0,000	0,040
-651,057	248,082	0,022	0,028
-650,043	-200,000	-0,005	-0,021
-649,028	-200,000	0,009	0,150
-648,014	-200,000	0,014	0,115
-646,999	-200,000	0,039	0,173
-645,984	800,000	0,059	0,132
-644,970	336,413	-0,048	0,070
-643,955	351,009	0,058	-0,085
-642,941	518,385	-0,055	-0,096
-641,926	-130,741	-0,084	0,008
-640,911	39,066	0,100	0,066
-639,897	-200,000	0,011	0,045
-638,882	-200,000	-0,008	0,099
-637,868	64,793	0,041	-0,031
-636,853	-200,000	0,002	-0,136
-635,838	-200,000	0,010	0,033
-634,824	-200,000	-0,041	-0,139
-633,809	-112,056	0,134	-0,020
-632,795	-91,853	-0,072	0,015
-631,780	-54,997	0,121	-0,040
-630,765	65,800	-0,049	0,037
-629,751	-200,000	-0,007	0,156
-628,736	-200,000	0,009	-0,111
-627,722	800,000	-0,068	-0,179
-626,707	-119,793	0,134	-0,017
-625,692	-146,665	-0,054	-0,003
-624,678	-78,292	-0,049	0,012
-623,663	800,000	0,020	0,056
-622,649	160,283	-0,038	-0,039
-621,634	-90,216	-0,069	0,015
-620,619	800,000	-0,035	-0,098
-619,605	-200,000	-0,024	-0,084
-618,590	-26,382	0,107	-0,046
-617,576	245,407	0,035	0,044
-616,561	203,663	-0,073	0,084
-615,546	-81,621	-0,100	0,024
-614,532	-200,000	0,008	0,145
-613,517	24,546	0,102	-0,062
-612,503	41,434	0,014	0,009
-611,488	-91,325	0,212	0,044
-610,474	-200,000	-0,005	0,076
-609,459	-200,000	0,004	-0,103
-608,444	-200,000	0,010	-0,055
-607,430	800,000	-0,053	-0,150
-606,415	540,581	-0,085	-0,150
-605,401	115,764	-0,060	-0,054
-604,386	800,000	0,064	0,154
-603,371	-200,000	-0,006	-0,035
-602,357	268,980	0,042	-0,055
-601,342	-200,000	0,012	0,077
-600,328	800,000	-0,014	0,036
-599,313	255,962	-0,014	-0,018
-598,298	800,000	-0,026	-0,056
-597,284	-200,000	0,015	0,060
-596,269	800,000	0,054	0,112
-595,255	-200,000	-0,007	0,178
-594,240	-77,523	-0,098	0,025
-593,225	800,000	0,031	-0,099
-592,211	215,818	-0,014	-0,016
-591,196	20,629	0,074	0,044
-590,182	-94,713	-0,207	0,041
-589,167	356,884	0,082	0,121
-588,152	-200,000	-0,006	-0,075
-587,138	11,516	-0,117	0,066
-586,123	270,377	0,065	-0,084
-585,109	-58,869	0,048	-0,015
-584,094	275,801	0,072	-0,095
-583,079	-200,000	-0,014	-0,054
-582,065	58,184	-0,081	-0,058
-581,050	-96,810	-0,132	-0,025
-580,036	-52,344	-0,067	-0,023
-579,021	-200,000	0,014	-0,088
-578,006	112,854	0,037	-0,033
-576,992	13,470	-0,006	0,003
-575,977	-200,000	0,012	-0,054
-574,963	57,282	0,090	0,065
-573,948	-200,000	-0,009	-0,059
-572,934	253,181	0,096	-0,122
-571,919	192,189	-0,047	-0,053
-570,904	324,294	-0,079	-0,112
-569,890	800,000	-0,022	-0,070
-568,875	-111,944	0,150	-0,022
-567,861	172,359	-0,054	0,057
-566,846	800,000	-0,065	-0,151
-565,831	8,777	-0,069	0,038
-564,817	-45,451	-0,039	0,014
-563,802	800,000	-0,038	-0,116
-562,788	-75,242	0,059	-0,015
-561,773	-200,000	0,013	0,113
-560,758	-100,075	0,086	-0,016
-559,744	465,453	0,037	-0,061
-558,729	179,898	-0,017	-0,018
-557,715	86,833	0,081	0,066
-556,700	-133,208	0,094	-0,009
-555,685	451,534	0,079	-0,129
-554,671	-200,000	0,001	0,101
-553,656	149,025	-0,048	0,048
-552,642	621,185	-0,073	0,137
-551,627	644,330	0,022	0,042
-550,612	-195,028	-0,030	0,000
-549,598	-200,000	-0,036	-0,132
-548,583	-19,621	-0,041	0,019
-547,569	572,759	0,048	0,088
-546,554	211,909	-0,030	0,035
-545,539	-200,000	0,011	0,041
-544,525	265,853	-0,054	0,070
-543,510	316,437	-0,070	0,097
-542,496	30,892	-0,138	-0,087
-541,481	-56,951	-0,120	-0,039
-540,466	125,832	0,062	-0,058
-539,452	159,630	0,018	0,018
-538,437	-200,000	0,029	-0,107
-537,423	113,184	-0,017	0,015
-536,408	229,602	-0,038	0,046
-535,393	-200,000	-0,025	-0,083
-534,379	-200,000	0,022	0,000
-533,364	-200,000	-0,019	-0,176
-532,350	800,000	-0,034	0,108
-531,335	-72,244	0,124	-0,034
-530,321	28,496	-0,018	0,011
-529,306	-116,191	-0,087	0,012
-528,291	-200,000	-0,006	-0,025
-527,277	-81,246	-0,094	-0,023
-526,262	-161,321	-0,117	-0,004
-525,248	800,000	-0,042	0,123
-524,233	-89,901	0,194	0,041
-523,218	55,548	0,051	0,036
-522,204	22,284	0,023	-0,014
-521,189	1,531	0,049	-0,026
-520,175	-51,032	0,055	0,019
-519,160	-58,150	-0,098	-0,031
-518,145	-200,000	-0,010	0,106
-517,131	271,631	0,046	0,060
-516,116	-200,000	0,017	0,141
-515,102	23,518	-0,081	-0,049
-514,087	-87,755	-0,083	-0,018
-513,072	0,103	-0,067	0,035
-512,058	-200,000	0,026	0,089
-511,043	-102,683	0,062	-0,011
-510,029	-200,000	-0,002	-0,009
-509,014	800,000	0,037	0,103
-507,999	800,000	-0,022	-0,068
-506,985	248,740	0,031	-0,038
-505,970	-200,000	0,008	0,038
-504,956	470,547	-0,020	-0,034
-503,941	333,003	0,063	-0,091
-502,926	79,546	-0,014	-0,011
-501,912	800,000	0,023	-0,055
-500,897	6,580	-0,022	0,012
-499,883	313,097	-0,044	0,061
-498,868	-66,308	0,083	0,024
-497,853	-200,000	-0,021	0,115
-496,839	-200,000	0,026	0,130
-495,824	-200,000	-0,023	0,128
-494,810	-200,000	-0,030	0,119
-493,795	281,318	-0,056	0,074
-492,781	800,000	0,055	0,116
-491,766	-200,000	-0,047	0,154
-490,751	-20,710	0,041	0,018
-489,737	-200,000	-0,029	0,114
-488,722	303,764	-0,061	0,083
-487,708	-200,000	-0,004	0,015
-486,693	-200,000	0,038	0,141
-485,678	72,155	-0,083	0,064
-484,664	-105,012	-0,103	-0,017
-483,649	-200,000	-0,004	-0,070
-482,635	7,218	0,039	0,021
-481,620	42,833	-0,103	-0,069
-480,605	526,667	0,069	0,120
-479,591	-200,000	-0,009	0,055
-478,576	800,000	-0,009	-0,020
-477,562	-30,745	-0,093	-0,038
-476,547	800,000	0,013	-0,033
-475,532	39,261	0,036	0,024
-474,518	6,531	0,061	0,033
-473,503	139,401	-0,044	-0,043
-472,489	-42,666	0,089	-0,033
-471,474	119,561	0,108	0,098
-470,459	452,455	0,064	0,104
-469,445	-93,736	-0,041	-0,008
-468,430	-79,541	0,092	0,023
-467,416	-200,000	0,015	0,122
-466,401	28,450	0,091	-0,057
-465,386	-200,000	0,010	0,052
-464,372	582,263	-0,083	-0,150
-463,357	-171,040	-0,122	0,003
-462,343	167,956	-0,054	0,056
-461,328	-200,000	-0,023	0,078
-460,313	800,000	0,059	0,149
-459,299	-4,874	0,070	-0,035
-458,284	-50,044	-0,037	-0,013
-457,270	-77,660	-0,061	0,015
-456,255	-200,000	0,010	-0,130
-455,241	-67,114	0,046	-0,013
-454,226	-148,909	-0,143	-0,008
-453,211	13,622	-0,068	0,039
-452,197	474,675	0,036	-0,061
-451,182	-61,506	0,141	-0,043
-450,168	-78,031	-0,045	-0,011
-449,153	-74,326	-0,135	0,036
-448,138	-139,519	-0,066	-0,005
-447,124	-29,674	-0,105	-0,044
-446,109	-28,187	0,121	0,051
-445,095	-200,000	0,006	0,095
-444,080	93,541	-0,054	0,045
-443,065	-83,280	-0,048	0,011
-442,051	281,798	0,032	0,042
-441,036	59,151	-0,096	-0,070
-440,022	-146,792	-0,039	-0,002
-439,007	-200,000	0,015	0,065
-437,992	103,154	-0,104	0,089
-436,978	31,755	0,066	0,042
-435,963	-36,518	-0,115	-0,045
-434,949	688,446	0,064	-0,123
-433,934	800,000	0,062	-0,143
-432,919	-106,693	0,038	-0,006
-431,905	-200,000	0,023	0,000
-430,890	800,000	-0,015	-0,038
-429,876	-200,000	0,055	0,191
-428,861	-88,760	0,049	0,011
-427,846	-200,000	-0,009	0,062
-426,832	-66,666	-0,047	0,014
-425,817	-100,310	-0,120	-0,022
-424,803	-135,081	-0,088	-0,008
-423,788	-110,791	0,075	-0,011
-422,773	-0,974	0,123	0,064
-421,759	121,091	-0,063	0,058
-420,744	800,000	0,020	-0,060
-419,730	-128,613	-0,148	-0,015
-418,715	-200,000	0,021	0,000
-417,701	102,043	0,012	0,010
-416,686	-43,338	0,129	0,047
-415,671	-200,000	0,033	0,129
-414,657	-67,963	-0,099	0,028
-413,642	51,726	0,004	-0,003
-412,628	-78,891	-0,032	0,008
-411,613	800,000	-0,035	-0,107
-410,598	-38,592	-0,138	-0,053
-409,584	294,913	0,032	-0,044
-408,569	24,038	0,039	0,023
-407,555	-200,000	0,008	0,032
-406,540	-140,248	0,052	-0,004
-405,525	800,000	-0,035	-0,075
-404,511	53,895	-0,021	-0,015
-403,496	386,679	0,074	-0,112
-402,482	163,822	-0,221	0,228
-401,467	34,594	0,016	-0,010
-400,452	8,599	0,060	-0,033
-399,438	32,395	0,066	-0,042
-398,423	-200,000	0,018	-0,115
-397,409	-200,000	-0,011	0,050
-396,394	-65,228	-0,074	-0,022
-395,379	-41,593	0,041	0,015
-394,365	184,550	0,136	-0,148
-393,350	193,804	0,037	-0,042
-392,336	800,000	0,019	-0,061
-391,321	800,000	-0,034	0,070
-390,306	800,000	-0,033	0,076
-389,292	800,000	-0,072	-0,178
-388,277	9,256	0,122	-0,068
-387,263	27,853	0,053	0,033
-386,248	-200,000	0,025	0,118
-385,233	612,815	-0,060	0,111
-384,219	104,766	0,023	-0,020
-383,204	-18,621	0,042	-0,019
-382,190	800,000	-0,037	-0,081
-381,175	-84,706	0,064	0,015
-380,160	4,562	0,066	-0,035
-379,146	800,000	-0,035	0,094
-378,131	-200,000	0,022	-0,077
-377,117	-145,106	-0,067	-0,004
-376,102	418,562	0,014	0,022
-375,088	-88,690	-0,088	0,019
-374,073	-9,024	0,089	-0,044
-373,058	564,103	0,025	0,045
-372,044	33,163	0,079	0,050
-371,029	59,280	0,071	-0,051
-370,015	-200,000	0,019	0,067
-369,000	-157,501	-0,134	-0,006
-367,985	-11,520	-0,034	-0,016
-366,971	382,892	0,021	-0,031
-365,956	-125,105	0,164	-0,018
-364,942	231,709	-0,062	0,074
-363,927	-200,000	0,002	-0,180
-362,912	104,466	0,054	0,047
-361,898	-200,000	0,007	-0,112
-360,883	187,073	0,032	-0,035
-359,869	-50,279	0,075	-0,026
-358,854	-75,814	-0,042	0,011
-357,839	526,557	-0,038	-0,065
-356,825	790,398	0,087	-0,176
-355,810	800,000	-0,012	0,027
-354,796	-200,000	-0,025	-0,148
-353,781	310,355	-0,087	-0,120
-352,766	73,981	0,024	-0,018
-351,752	-72,388	-0,112	0,030
-350,737	43,584	-0,180	-0,120
-349,723	-94,510	-0,075	-0,015
-348,708	11,350	-0,058	0,033
-347,693	295,508	0,059	0,079
-346,679	-103,335	-0,130	0,022
-345,664	800,000	-0,055	-0,172
-344,650	175,890	-0,016	-0,017
-343,635	800,000	0,027	0,057
-342,620	131,735	-0,040	-0,038
-341,606	-200,000	-0,009	-0,197
-340,591	-200,000	-0,003	-0,055
-339,577	104,848	-0,062	-0,053
-338,562	159,582	0,137	0,140
-337,548	800,000	-0,027	0,080
-336,533	89,005	0,079	-0,064
-335,518	-72,779	0,044	0,012
-334,504	233,286	-0,064	0,077
-333,489	191,738	-0,130	-0,144
-332,475	-11,174	0,149	-0,071
-331,460	800,000	-0,053	-0,115
-330,445	205,653	0,080	0,091
-329,431	-12,482	0,084	0,040
-328,416	-158,134	0,073	-0,003
-327,402	43,578	0,084	0,056
-326,387	-108,978	-0,015	0,002
-325,372	-175,283	-0,035	-0,001
-324,358	-200,000	0,031	-0,166
-323,343	-84,063	-0,097	-0,022
-322,329	-200,000	-0,001	-0,017
-321,314	-200,000	0,039	-0,157
-320,299	-49,226	0,107	-0,037
-319,285	79,795	0,013	-0,010
-318,270	281,170	-0,124	-0,163
-317,256	-200,000	0,002	-0,087
-316,241	21,816	-0,102	-0,061
-315,226	436,223	-0,029	-0,047
-314,212	-200,000	0,039	0,167
-313,197	-75,511	0,038	0,010
-312,183	-46,900	-0,092	0,033
-311,168	654,919	0,032	0,061
-310,153	-132,644	-0,018	-0,002
-309,139	154,437	0,051	-0,051
-308,124	-144,656	-0,081	-0,005
-307,110	63,741	-0,055	-0,041
-306,095	313,403	0,054	0,075
-305,080	103,502	0,097	-0,083
-304,066	65,256	-0,119	-0,088
-303,051	24,007	-0,130	-0,078
-302,037	-200,000	-0,005	0,033
-301,022	800,000	-0,055	0,126
-300,008	-200,000	0,045	-0,145
-298,993	-200,000	0,033	0,113
-297,978	317,138	-0,044	-0,062
-296,964	-79,417	-0,088	-0,022
-295,949	800,000	0,032	-0,074
-294,935	339,223	-0,039	-0,056
-293,920	-61,634	0,095	-0,029
-292,905	656,470	0,049	-0,093
-291,891	148,550	0,080	0,079
-290,876	-200,000	-0,007	0,127
-289,862	330,665	-0,036	0,051
-288,847	800,000	-0,067	-0,165
-287,832	-40,667	-0,084	-0,032
-286,818	-79,262	0,082	0,020
-285,803	471,173	-0,123	0,203
-284,789	126,986	0,042	0,039
-283,774	-200,000	-0,002	-0,038
-282,759	-165,102	-0,175	-0,006
-281,745	800,000	0,011	-0,024
-280,730	-1,650	0,041	0,021
-279,716	-106,711	0,086	0,014
-278,701	216,015	0,038	0,044
-277,686	506,449	0,035	-0,059
-276,672	-200,000	0,019	0,062
-275,657	-130,158	-0,112	-0,011
-274,643	800,000	-0,023	-0,050
-273,628	-200,000	0,035	-0,130
-272,613	115,087	-0,047	0,042
-271,599	109,688	0,037	0,033
-270,584	-80,110	0,064	0,016
-269,570	-110,512	-0,046	0,007
-268,555	800,000	-0,057	-0,133
-267,540	-92,430	0,134	0,027
-266,526	-124,242	0,090	0,010
-265,511	-49,593	0,097	0,034
-264,497	-30,209	-0,095	0,039
-263,482	37,478	0,164	0,106
-262,467	-200,000	-0,031	0,145
-261,453	-24,285	-0,062	0,027
-260,438	341,866	0,028	0,039
-259,424	-21,470	-0,151	-0,067
-258,409	216,832	-0,033	-0,039
-257,395	-200,000	0,013	-0,126
-256,380	-200,000	0,032	0,145
-255,365	-15,589	0,135	0,063
-254,351	-93,614	0,057	0,011
-253,336	-200,000	0,012	-0,087
-252,322	283,774	0,044	-0,058
-251,307	800,000	0,014	-0,040
-250,292	-200,000	0,014	0,054
-249,278	-105,619	0,053	0,009
-248,263	-200,000	-0,028	0,128
-247,249	113,276	0,065	-0,057
-246,234	53,960	0,058	-0,041
-245,219	800,000	0,036	-0,075
-244,205	-69,343	0,057	-0,016
-243,190	800,000	0,076	0,208
-242,176	-139,993	0,076	0,006
-241,161	800,000	0,019	0,045
-240,146	389,436	0,084	0,128
-239,132	800,000	0,018	-0,052
-238,117	12,364	0,035	0,019
-237,103	27,729	0,081	0,050
-236,088	590,449	0,010	-0,018
-235,073	-200,000	-0,009	0,074
-234,059	-148,876	0,118	0,007
-233,044	-51,489	0,026	-0,009
-232,030	-168,520	-0,034	-0,001
-231,015	-61,493	-0,039	-0,012
-230,000	-120,931	-0,121	-0,015
-228,986	15,565	0,053	-0,031
-227,971	800,000	0,041	-0,095
-226,957	-72,460	0,093	0,025
-225,942	800,000	-0,023	0,065
-224,927	221,578	-0,035	0,041
-223,913	-62,073	-0,091	-0,028
-222,898	582,147	0,006	-0,012
-221,884	53,815	0,161	0,112
-220,869	800,000	-0,027	0,063
-219,855	-114,892	0,148	-0,020
-218,840	800,000	0,028	0,062
-217,825	800,000	-0,025	-0,066
-216,811	-98,847	0,014	0,003
-215,796	-134,304	-0,038	-0,003
-214,782	75,781	-0,134	0,103
-213,767	17,872	0,139	0,080
-212,752	-9,998	0,052	0,025
-211,738	97,344	-0,106	0,088
-210,723	-106,147	0,062	-0,010
-209,709	-142,799	-0,029	-0,002
-208,694	317,531	-0,025	0,034
-207,679	-141,691	-0,094	0,007
-206,665	800,000	0,065	0,134
-205,650	800,000	-0,062	-0,170
-204,636	-200,000	0,020	-0,098
-203,621	114,747	-0,036	0,032
-202,606	158,288	-0,047	-0,047
-201,592	-200,000	-0,012	0,072
-200,577	-200,000	0,016	-0,128
-199,563	-85,250	0,102	0,023
-198,548	77,078	-0,085	-0,066
-197,533	-56,472	-0,015	-0,005
-196,519	800,000	0,029	0,064
-195,504	365,215	0,074	-0,109
-194,490	312,877	-0,028	-0,039
-193,475	44,616	-0,097	0,065
-192,460	-32,324	-0,073	0,030
-191,446	800,000	0,026	0,058
-190,431	-200,000	-0,002	0,030
-189,417	800,000	0,021	-0,056
-188,402	800,000	-0,019	0,041
-187,387	650,456	-0,074	-0,138
-186,373	800,000	-0,044	-0,136
-185,358	800,000	-0,022	-0,054
-184,344	65,987	-0,037	-0,027
-183,329	-200,000	0,028	0,103
-182,315	-129,845	0,078	0,008
-181,300	-108,116	-0,060	-0,009
-180,285	-55,015	-0,054	-0,017
-179,271	800,000	-0,023	-0,067
-178,256	800,000	0,041	-0,122
-177,242	-200,000	0,008	0,055
-176,227	-134,307	0,155	-0,014
-175,212	675,946	0,030	0,057
-174,198	-133,409	-0,056	-0,005
-173,183	-200,000	0,019	-0,249
-172,169	38,334	0,172	-0,111
-171,154	186,313	-0,007	0,007
-170,139	-193,689	0,044	0,000
-169,125	-10,285	-0,048	0,023
-168,110	-6,461	-0,077	-0,038
-167,096	305,576	0,074	0,100
-166,081	800,000	0,015	-0,031
-165,066	42,498	-0,056	-0,037
-164,052	34,131	-0,027	-0,017
-163,037	374,160	-0,071	-0,106
-162,023	373,393	0,092	0,136
-161,008	64,012	-0,069	0,050
-159,993	483,631	-0,040	0,067
-158,979	97,784	-0,128	0,107
-157,964	222,885	-0,065	0,076
-156,950	-17,196	0,124	-0,057
-155,935	800,000	0,035	0,078
-154,920	800,000	0,025	-0,074
-153,906	-18,551	0,040	0,018
-152,891	330,422	0,056	0,079
-151,877	800,000	-0,045	0,095
-150,862	-200,000	-0,022	-0,170
-149,847	-119,789	-0,056	0,007
-148,833	155,213	0,093	-0,093
-147,818	-200,000	-0,041	-0,170
-146,804	351,746	0,085	0,123
-145,789	-109,795	0,020	0,003
-144,775	-45,822	-0,102	0,036
-143,760	-200,000	-0,018	0,080
-142,745	38,445	0,079	0,051
-141,731	-37,271	0,043	0,017
-140,716	-100,335	-0,031	-0,006
-139,702	362,836	0,084	-0,123
-138,687	69,182	-0,048	-0,035
-137,672	800,000	-0,045	0,136
-136,658	-127,249	-0,072	-0,008
-135,643	315,799	-0,022	0,030
-134,629	-200,000	0,009	-0,100
-133,614	374,078	0,083	0,124
-132,599	-151,391	0,178	-0,009
-131,585	-200,000	-0,007	0,076
-130,570	388,900	-0,027	0,040
-129,556	-200,000	-0,038	-0,196
-128,541	119,745	0,055	-0,049
-127,526	800,000	0,024	-0,054
-126,512	-72,829	0,122	-0,032
-125,497	-200,000	0,019	0,072
-124,483	-200,000	-0,005	0,058
-123,468	-195,893	0,098	-0,000
-122,453	12,033	0,074	-0,041
-121,439	530,239	-0,066	-0,114
-120,424	-103,249	-0,020	-0,003
-119,410	-13,776	0,061	-0,029
