DTS Sentinel unit serial number:	SN410029Multiplexer serial number:	ORYXHardware model number:	OX2-SRSoftware version number:	ORYX F/W v4,00 Oryx Data Collector v3.7.2.0data status	okinstallation	B6 Nyhavnadifferential loss correction	single-endedforward channel	channel 2reverse channel	N/Adate	2023/12/08time	15:20:08forward acquisition time	300,00reverse acquisition time	0,00gamma	499,1914k internal	0,3158k external	0,3158temperature offset calibration	1,0000default loss term (dB/km)	0,3820temperature slope calibration	1,0000multiplexer offset coefficient	1,0000multiplexer slope coefficient	1,0000fibre end	0,00T internal ref (°C)	15,06T ext. ref 1 (°C)	-1,45T ext. ref 2 (°C)	-1,46length (m)	temperature (°C)	Stokes	anti-Stokes-744,400	-200,000	0,010	0,074
-743,385	-109,776	-0,250	0,038
-742,371	-173,595	0,147	-0,003
-741,356	-54,489	-0,270	-0,090
-740,342	-42,318	0,137	-0,051
-739,327	-73,278	-0,283	0,076
-738,312	-94,016	0,126	0,025
-737,298	-24,999	-0,207	0,090
-736,283	122,096	0,041	-0,037
-735,269	-112,174	-0,294	0,043
-734,254	-200,000	0,211	0,000
-733,239	-76,521	-0,593	-0,152
-732,225	11,175	0,161	0,091
-731,210	800,000	0,016	-0,043
-730,196	45,046	-0,035	0,024
-729,181	-188,057	-0,077	0,001
-728,167	514,494	0,023	0,040
-727,152	582,624	0,053	0,096
-726,137	-132,512	-0,160	-0,015
-725,123	800,000	-0,029	-0,071
-724,108	79,384	-0,117	-0,093
-723,094	800,000	-0,048	-0,119
-722,079	30,251	0,123	0,077
-721,064	25,971	0,074	0,046
-720,050	800,000	-0,011	-0,022
-719,035	-124,051	0,080	0,009
-718,021	-86,149	0,040	-0,009
-717,006	284,918	0,037	-0,050
-715,991	800,000	0,043	-0,104
-714,977	37,994	0,066	0,043
-713,962	-200,000	-0,011	-0,098
-712,948	78,841	0,090	0,071
-711,933	-200,000	-0,015	0,078
-710,918	5,924	-0,018	-0,010
-709,904	-138,817	0,033	-0,003
-708,889	800,000	-0,022	0,054
-707,875	104,659	-0,029	0,025
-706,860	105,730	0,057	0,050
-705,845	19,705	-0,093	-0,055
-704,831	-200,000	-0,002	0,049
-703,816	4,624	0,016	-0,009
-702,802	290,413	-0,074	-0,100
-701,787	-200,000	0,003	-0,020
-700,772	-112,321	0,163	-0,024
-699,758	-124,056	-0,116	-0,013
-698,743	-57,516	-0,078	-0,025
-697,729	48,187	-0,029	-0,020
-696,714	-30,195	-0,008	-0,003
-695,699	468,456	-0,064	-0,106
-694,685	37,591	-0,037	0,024
-693,670	168,998	-0,058	0,061
-692,656	-51,840	-0,074	0,025
-691,641	-200,000	-0,019	-0,098
-690,627	750,215	-0,014	-0,028
-689,612	-118,374	-0,088	0,011
-688,597	-200,000	0,016	-0,058
-687,583	144,954	0,075	-0,074
-686,568	-200,000	0,011	-0,077
-685,554	-200,000	-0,008	-0,056
-684,539	-200,000	-0,008	0,120
-683,524	342,605	0,051	0,074
-682,510	540,955	-0,058	0,103
-681,495	-200,000	0,008	-0,073
-680,481	-49,987	-0,120	0,042
-679,466	-200,000	0,005	-0,131
-678,451	800,000	0,076	0,168
-677,437	103,378	-0,100	-0,086
-676,422	-148,343	-0,061	-0,004
-675,408	-113,747	0,064	0,009
-674,393	-126,355	-0,047	-0,005
-673,378	-200,000	0,023	-0,103
-672,364	-35,166	-0,082	-0,033
-671,349	800,000	-0,050	0,106
-670,335	244,831	0,072	0,090
-669,320	-200,000	0,003	0,039
-668,305	-200,000	0,004	-0,023
-667,291	-200,000	-0,019	0,098
-666,276	163,900	0,020	-0,021
-665,262	-89,331	-0,038	0,008
-664,247	-7,348	-0,154	-0,076
-663,232	-66,992	-0,050	0,014
-662,218	-99,778	0,103	0,019
-661,203	21,147	-0,067	0,040
-660,189	-200,000	-0,021	0,080
-659,174	78,959	0,079	-0,062
-658,159	-155,440	0,050	-0,002
-657,145	-33,656	-0,042	0,017
-656,130	800,000	-0,033	-0,104
-655,116	-72,978	0,016	0,004
-654,101	-56,606	-0,118	0,038
-653,086	800,000	-0,060	0,157
-652,072	614,347	0,038	0,070
-651,057	198,469	-0,091	-0,103
-650,043	180,266	-0,103	0,111
-649,028	292,642	0,065	0,087
-648,014	150,537	-0,088	0,088
-646,999	405,091	0,039	0,061
-645,984	513,582	0,040	-0,068
-644,970	-200,000	0,005	-0,020
-643,955	800,000	0,055	-0,112
-642,941	-22,371	-0,082	-0,036
-641,926	162,964	-0,059	-0,060
-640,911	215,602	-0,052	0,061
-639,897	77,313	-0,044	0,034
-638,882	423,501	0,077	-0,122
-637,868	52,563	-0,057	0,040
-636,853	578,494	-0,019	-0,035
-635,838	726,141	0,034	-0,066
-634,824	223,097	0,121	-0,143
-633,809	-200,000	-0,001	-0,011
-632,795	800,000	-0,026	-0,065
-631,780	47,465	0,054	-0,037
-630,765	139,010	0,155	-0,150
-629,751	-23,623	-0,144	0,063
-628,736	-129,161	-0,127	-0,013
-627,722	-200,000	0,013	-0,057
-626,707	19,918	-0,056	-0,033
-625,692	-18,784	-0,042	0,019
-624,678	-200,000	-0,033	0,111
-623,663	-200,000	-0,034	0,149
-622,649	-177,575	0,077	-0,001
-621,634	52,951	-0,046	-0,033
-620,619	-14,133	-0,109	-0,051
-619,605	-20,930	-0,010	-0,004
-618,590	335,398	0,041	0,058
-617,576	800,000	-0,019	0,059
-616,561	-200,000	-0,014	-0,140
-615,546	-200,000	-0,001	-0,031
-614,532	-200,000	-0,031	-0,099
-613,517	-105,394	-0,190	0,031
-612,503	109,516	0,110	0,097
-611,488	-200,000	-0,017	0,093
-610,474	-200,000	-0,010	0,046
-609,459	-88,600	-0,061	0,013
-608,444	-200,000	-0,021	-0,124
-607,430	130,236	-0,090	-0,084
-606,415	45,687	-0,083	-0,056
-605,401	800,000	0,033	-0,075
-604,386	-200,000	0,004	-0,030
-603,371	310,992	-0,122	0,168
-602,357	1,530	-0,077	0,040
-601,342	110,124	-0,131	-0,115
-600,328	200,960	0,036	0,041
-599,313	164,923	-0,062	-0,064
-598,298	-200,000	0,009	-0,133
-597,284	800,000	-0,020	-0,058
-596,269	-200,000	0,026	0,094
-595,255	-121,886	-0,068	-0,008
-594,240	800,000	-0,048	-0,105
-593,225	-27,248	-0,162	-0,069
-592,211	37,444	0,027	-0,018
-591,196	-200,000	-0,019	-0,143
-590,182	427,462	-0,036	-0,057
-589,167	427,542	0,098	0,155
-588,152	433,464	0,087	-0,139
-587,138	147,378	0,029	-0,028
-586,123	95,262	-0,061	-0,051
-585,109	150,075	0,048	-0,047
-584,094	297,303	0,083	-0,112
-583,079	-169,479	-0,068	0,002
-582,065	-200,000	0,008	-0,043
-581,050	-53,168	0,048	-0,016
-580,036	64,564	-0,029	0,021
-579,021	-124,828	-0,083	0,009
-578,006	-200,000	0,020	0,080
-576,992	94,192	-0,085	-0,070
-575,977	553,847	0,023	-0,040
-574,963	146,349	-0,097	-0,095
-573,948	-178,355	0,049	0,001
-572,934	473,706	-0,038	-0,063
-571,919	204,162	-0,016	0,018
-570,904	-178,738	0,070	0,001
-569,890	616,509	0,088	0,162
-568,875	-113,487	0,160	-0,023
-567,861	-200,000	-0,010	0,093
-566,846	27,470	-0,132	-0,081
-565,831	38,201	0,063	-0,041
-564,817	1,066	-0,083	0,043
-563,802	38,420	-0,068	-0,044
-562,788	-100,805	-0,078	0,014
-561,773	-163,891	-0,085	0,003
-560,758	800,000	0,019	0,058
-559,744	-200,000	0,001	0,005
-558,729	170,249	-0,028	0,029
-557,715	229,402	-0,079	-0,095
-556,700	-200,000	-0,013	-0,135
-555,685	109,766	-0,100	0,088
-554,671	-200,000	-0,008	-0,032
-553,656	266,471	0,062	0,079
-552,642	-200,000	0,013	0,180
-551,627	-200,000	-0,012	0,103
-550,612	-200,000	-0,011	0,091
-549,598	-200,000	0,002	-0,015
-548,583	-200,000	0,011	-0,102
-547,569	-200,000	-0,010	-0,067
-546,554	308,144	0,054	0,073
-545,539	-128,936	-0,102	0,010
-544,525	-37,811	0,081	0,031
-543,510	19,110	-0,127	-0,074
-542,496	-142,114	-0,185	-0,013
-541,481	171,708	0,076	-0,080
-540,466	18,234	-0,057	-0,033
-539,452	143,020	0,080	0,078
-538,437	-6,581	0,059	-0,029
-537,423	749,790	-0,008	0,017
-536,408	-46,048	0,009	-0,003
-535,393	382,315	0,083	-0,126
-534,379	-42,951	0,053	0,020
-533,364	8,890	0,136	-0,075
-532,350	-200,000	-0,005	-0,040
-531,335	432,490	-0,018	-0,028
-530,321	-200,000	0,013	0,058
-529,306	-200,000	0,022	-0,076
-528,291	12,021	-0,090	-0,050
-527,277	589,712	-0,043	-0,078
-526,262	85,645	0,059	-0,048
-525,248	38,583	-0,122	0,079
-524,233	109,056	0,042	-0,037
-523,218	111,528	-0,094	-0,083
-522,204	-200,000	0,023	-0,085
-521,189	76,319	0,109	-0,084
-520,175	-66,119	-0,165	-0,048
-519,160	-200,000	0,002	0,136
-518,145	-200,000	0,016	0,132
-517,131	-200,000	0,039	0,134
-516,116	-66,170	-0,030	-0,009
-515,102	82,011	-0,185	-0,146
-514,087	-141,324	-0,045	0,003
-513,072	494,040	-0,047	-0,080
-512,058	786,182	0,013	-0,027
-511,043	325,993	0,042	-0,059
-510,029	204,306	0,077	-0,088
-509,014	-200,000	-0,024	-0,158
-507,999	-200,000	-0,002	0,047
-506,985	-53,843	-0,126	0,042
-505,970	-29,156	-0,024	0,010
-504,956	-106,714	-0,041	-0,007
-503,941	800,000	-0,023	-0,048
-502,926	229,479	-0,143	0,171
-501,912	75,093	-0,059	0,045
-500,897	-48,442	-0,011	0,004
-499,883	260,564	-0,022	-0,027
-498,868	-66,934	-0,079	0,023
-497,853	161,051	0,018	-0,019
-496,839	473,618	0,027	0,045
-495,824	-64,465	0,091	-0,027
-494,810	800,000	-0,026	0,080
-493,795	-124,688	-0,043	0,005
-492,781	-134,596	0,088	0,008
-491,766	-109,748	-0,041	0,006
-490,751	17,011	-0,070	-0,040
-489,737	33,300	-0,123	-0,077
-488,722	-200,000	0,019	0,145
-487,708	-36,024	-0,050	0,020
-486,693	-25,836	0,040	-0,017
-485,678	-11,126	0,165	0,079
-484,664	-114,073	-0,225	0,031
-483,649	-58,866	0,132	-0,042
-482,635	-142,911	-0,072	-0,005
-481,620	343,962	-0,036	0,051
-480,605	800,000	0,026	0,062
-479,591	21,112	0,045	0,027
-478,576	292,279	-0,042	0,056
-477,562	190,195	-0,048	-0,053
-476,547	158,492	-0,041	0,042
-475,532	59,657	0,104	0,075
-474,518	-200,000	0,017	0,142
-473,503	148,889	0,117	0,116
-472,489	14,238	-0,052	0,030
-471,474	-134,896	0,164	0,014
-470,459	-200,000	-0,015	-0,053
-469,445	-200,000	-0,010	-0,066
-468,430	62,934	-0,069	-0,050
-467,416	-17,306	0,081	0,037
-466,401	-200,000	-0,019	-0,082
-465,386	141,418	0,080	0,077
-464,372	800,000	-0,046	-0,123
-463,357	800,000	-0,053	-0,163
-462,343	19,178	-0,037	0,021
-461,328	-33,951	-0,069	-0,028
-460,313	306,405	0,014	-0,019
-459,299	-200,000	-0,002	0,043
-458,284	-152,151	0,146	-0,008
-457,270	-74,774	-0,166	-0,043
-456,255	-133,514	-0,082	-0,007
-455,241	-200,000	-0,010	-0,133
-454,226	344,295	0,043	0,061
-453,211	298,136	0,052	0,070
-452,197	797,423	0,032	0,064
-451,182	-105,668	-0,036	0,006
-450,168	53,062	0,101	0,070
-449,153	800,000	-0,060	0,158
-448,138	800,000	0,030	-0,089
-447,124	239,410	-0,068	-0,083
-446,109	-200,000	-0,015	-0,145
-445,095	-122,502	-0,072	-0,008
-444,080	257,950	0,099	0,125
-443,065	228,135	0,097	0,115
-442,051	800,000	0,041	0,108
-441,036	393,739	0,056	-0,085
-440,022	68,796	-0,085	0,063
-439,007	468,231	-0,062	0,102
-437,992	-200,000	0,014	-0,104
-436,978	126,674	0,054	0,049
-435,963	-200,000	0,017	-0,102
-434,949	-200,000	-0,003	0,023
-433,934	159,256	-0,040	-0,040
-432,919	203,471	-0,042	0,047
-431,905	131,499	0,087	0,081
-430,890	-200,000	-0,025	0,150
-429,876	-200,000	-0,003	0,174
-428,861	563,028	0,038	-0,067
-427,846	21,472	-0,009	0,005
-426,832	167,335	-0,124	-0,129
-425,817	499,438	0,046	-0,077
-424,803	-105,572	-0,171	-0,028
-423,788	-200,000	-0,000	0,057
-422,773	-200,000	0,002	-0,007
-421,759	-1,260	0,071	-0,036
-420,744	-11,591	0,062	-0,030
-419,730	257,623	-0,072	-0,090
-418,715	84,015	-0,063	0,050
-417,701	63,072	-0,069	-0,051
-416,686	-134,711	0,158	-0,014
-415,671	-19,282	-0,138	0,062
-414,657	286,668	0,019	-0,024
-413,642	25,040	-0,092	-0,055
-412,628	1,099	0,035	0,018
-411,613	-85,197	0,099	-0,022
-410,598	-200,000	-0,020	0,064
-409,584	414,634	0,022	0,035
-408,569	445,541	0,051	-0,081
-407,555	32,641	0,094	0,059
-406,540	-55,382	0,005	0,002
-405,525	-48,267	-0,083	0,029
-404,511	652,656	0,008	-0,015
-403,496	-43,987	0,071	-0,026
-402,482	-106,544	0,010	-0,002
-401,467	-99,822	0,075	-0,013
-400,452	-55,252	0,084	-0,027
-399,438	-66,729	-0,123	-0,035
-398,423	596,726	0,034	-0,062
-397,409	-140,437	-0,160	0,012
-396,394	-108,769	-0,049	-0,008
-395,379	-127,010	-0,032	-0,003
-394,365	240,415	0,069	0,084
-393,350	-200,000	0,035	0,118
-392,336	355,052	-0,044	0,063
-391,321	-97,587	0,119	0,022
-390,306	38,414	-0,074	-0,048
-389,292	-200,000	-0,063	-0,207
-388,277	-200,000	0,006	-0,078
-387,263	800,000	0,036	0,079
-386,248	-10,266	0,100	-0,048
-385,233	800,000	-0,051	0,158
-384,219	507,777	0,083	-0,140
-383,204	62,566	0,070	-0,051
-382,190	103,136	-0,079	0,067
-381,175	-184,347	0,061	0,001
-380,160	57,013	-0,098	-0,069
-379,146	800,000	0,024	0,075
-378,131	-200,000	0,006	0,049
-377,117	338,095	-0,074	-0,106
-376,102	-131,824	-0,083	-0,008
-375,088	-200,000	-0,024	-0,081
-374,073	91,004	0,029	0,023
-373,058	17,124	0,052	0,030
-372,044	-200,000	-0,007	0,051
-371,029	10,490	-0,070	0,039
-370,015	447,464	-0,056	-0,090
-369,000	-174,256	0,055	-0,001
-367,985	-13,525	-0,138	-0,065
-366,971	219,448	0,039	0,046
-365,956	-200,000	-0,001	0,030
-364,942	128,791	0,072	-0,066
-363,927	-200,000	-0,012	0,067
-362,912	761,133	-0,002	-0,005
-361,898	265,715	0,013	-0,016
-360,883	-106,183	-0,102	-0,016
-359,869	-200,000	0,021	-0,127
-358,854	-101,603	0,181	0,032
-357,839	-153,506	0,117	0,006
-356,825	-200,000	0,041	-0,137
-355,810	-28,795	0,091	0,038
-354,796	51,033	0,042	-0,029
-353,781	-57,691	0,098	0,031
-352,766	536,869	-0,024	-0,042
-351,752	-26,113	0,136	0,058
-350,737	112,251	0,090	0,079
-349,723	-136,928	0,088	0,007
-348,708	-58,048	0,006	-0,002
-347,693	36,517	-0,043	0,027
-346,679	-200,000	-0,033	0,111
-345,664	800,000	-0,014	0,036
-344,650	-200,000	0,002	0,011
-343,635	-13,365	0,092	-0,043
-342,620	-81,533	-0,101	0,024
-341,606	-200,000	0,014	0,087
-340,591	-200,000	-0,013	-0,081
-339,577	-44,274	0,023	0,008
-338,562	-200,000	-0,007	-0,066
-337,548	36,280	0,145	-0,092
-336,533	-49,986	-0,017	0,006
-335,518	129,625	0,048	0,045
-334,504	-37,470	-0,094	0,036
-333,489	-200,000	0,008	0,038
-332,475	83,579	-0,050	-0,039
-331,460	527,924	-0,004	-0,007
-330,445	-200,000	-0,001	0,051
-329,431	-186,619	-0,039	0,000
-328,416	-104,701	-0,087	0,014
-327,402	800,000	-0,058	0,152
-326,387	-200,000	-0,013	0,090
-325,372	-200,000	-0,025	0,084
-324,358	134,979	-0,090	-0,085
-323,343	-200,000	0,005	-0,036
-322,329	92,915	0,079	0,065
-321,314	-28,031	0,100	-0,042
-320,299	-101,070	-0,071	0,012
-319,285	-86,002	0,096	0,021
-318,270	49,904	-0,123	-0,084
-317,256	-1,477	0,185	-0,094
-316,241	-59,830	-0,155	0,048
-315,226	-52,652	-0,098	-0,033
-314,212	480,303	0,106	0,174
-313,197	33,160	-0,012	-0,007
-312,183	800,000	0,039	0,089
-311,168	-200,000	-0,000	0,034
-310,153	508,683	0,020	0,034
-309,139	-53,163	-0,078	0,026
-308,124	300,179	0,049	0,065
-307,110	-200,000	0,003	-0,063
-306,095	60,996	0,077	-0,055
-305,080	-159,461	0,151	0,006
-304,066	107,600	0,067	-0,058
-303,051	800,000	-0,009	0,027
-302,037	-57,477	-0,102	0,032
-301,022	91,374	-0,033	0,027
-300,008	-3,234	0,074	-0,037
-298,993	-99,223	0,202	-0,037
-297,978	-10,979	0,141	0,067
-296,964	280,374	-0,049	0,064
-295,949	800,000	-0,058	-0,123
-294,935	800,000	-0,066	-0,136
-293,920	800,000	0,058	-0,120
-292,905	-178,450	0,174	-0,003
-291,891	518,181	-0,026	-0,044
-290,876	-200,000	0,007	0,201
-289,862	800,000	0,019	-0,044
-288,847	423,647	0,122	-0,191
-287,832	-21,924	-0,068	-0,030
-286,818	68,445	0,139	-0,103
-285,803	3,575	-0,147	0,077
-284,789	26,543	-0,029	-0,017
-283,774	-200,000	0,037	0,126
-282,759	139,735	-0,051	-0,049
-281,745	52,284	0,069	0,047
-280,730	39,884	-0,089	0,058
-279,716	554,271	-0,021	-0,036
-278,701	-94,431	0,105	0,021
-277,686	68,186	-0,023	0,017
-276,672	-33,117	0,135	0,054
-275,657	800,000	-0,007	-0,016
-274,643	173,254	-0,100	-0,105
-273,628	147,782	0,059	0,057
-272,613	-36,092	0,111	-0,043
-271,599	-144,390	0,025	0,002
-270,584	-23,440	0,089	0,039
-269,570	308,035	0,094	0,127
-268,555	142,372	-0,071	0,068
-267,540	-200,000	0,002	0,199
-266,526	157,348	0,039	0,039
-265,511	-60,951	0,059	-0,018
-264,497	-200,000	-0,018	0,131
-263,482	-200,000	0,007	0,093
-262,467	201,791	0,063	0,070
-261,453	800,000	0,048	0,099
-260,438	-200,000	0,004	0,078
-259,424	44,376	-0,073	-0,049
-258,409	-200,000	-0,023	-0,095
-257,395	265,436	-0,015	-0,019
-256,380	-92,453	-0,092	0,019
-255,365	-133,140	0,063	0,006
-254,351	182,850	-0,056	-0,060
-253,336	-187,670	0,099	0,001
-252,322	-16,080	-0,074	0,034
-251,307	-20,640	0,167	-0,074
-250,292	9,879	0,081	-0,044
-249,278	7,111	0,084	-0,045
-248,263	-200,000	0,001	-0,042
-247,249	145,850	0,096	0,093
-246,234	800,000	-0,029	-0,076
-245,219	249,811	-0,039	-0,048
-244,205	360,082	-0,021	-0,031
-243,190	800,000	0,036	0,097
-242,176	-196,778	-0,130	0,001
-241,161	245,022	0,080	-0,098
-240,146	-164,998	0,070	-0,002
-239,132	-200,000	-0,023	0,077
-238,117	635,136	0,070	0,128
-237,103	56,032	0,067	-0,047
-236,088	-151,783	0,078	0,004
-235,073	125,635	-0,088	0,080
-234,059	-50,274	0,083	0,028
-233,044	-200,000	-0,004	-0,033
-232,030	93,037	0,152	-0,124
-231,015	-200,000	-0,007	-0,104
-230,000	-42,589	-0,075	0,027
-228,986	-200,000	0,035	0,154
-227,971	235,303	0,027	-0,032
-226,957	-16,894	0,077	0,035
-225,942	466,698	-0,014	0,023
-224,927	69,550	-0,081	-0,060
-223,913	-64,127	0,073	0,021
-222,898	-36,103	0,109	-0,042
-221,884	-200,000	-0,020	-0,077
-220,869	473,000	-0,045	-0,074
-219,855	-200,000	0,002	-0,115
-218,840	-200,000	-0,004	-0,018
-217,825	-20,722	0,112	0,049
-216,811	-200,000	-0,012	0,066
-215,796	61,839	-0,111	0,080
-214,782	56,286	0,110	0,077
-213,767	565,485	-0,028	-0,048
-212,752	-200,000	-0,007	-0,135
-211,738	800,000	-0,036	0,113
-210,723	800,000	-0,038	-0,083
-209,709	800,000	-0,010	0,032
-208,694	-11,461	0,017	-0,008
-207,679	424,946	0,033	0,052
-206,665	-200,000	-0,003	-0,076
-205,650	-200,000	-0,001	0,095
-204,636	231,646	0,106	0,126
-203,621	264,470	-0,094	0,118
-202,606	-79,650	-0,090	0,022
-201,592	215,286	0,044	-0,050
-200,577	-200,000	-0,015	-0,092
-199,563	800,000	-0,021	-0,058
-198,548	502,199	-0,028	0,046
-197,533	-39,837	0,130	0,049
-196,519	800,000	0,081	0,216
-195,504	22,291	-0,091	0,053
-194,490	201,160	0,069	-0,077
-193,475	-200,000	0,002	-0,079
-192,460	-86,571	0,079	-0,017
-191,446	21,885	-0,063	-0,037
-190,431	-200,000	-0,002	-0,072
-189,417	-1,273	0,111	-0,056
-188,402	-200,000	-0,021	-0,072
-187,387	-200,000	-0,012	0,039
-186,373	-200,000	0,006	-0,063
-185,358	-200,000	-0,015	0,087
-184,344	-200,000	0,003	0,130
-183,329	245,767	0,072	0,087
-182,315	16,017	0,053	-0,030
-181,300	-75,149	-0,065	0,017
-180,285	200,352	-0,143	0,159
-179,271	-117,828	-0,038	0,005
-178,256	-50,693	-0,017	-0,006
-177,242	78,387	0,102	0,079
-176,227	17,425	-0,091	-0,052
-175,212	-200,000	-0,024	0,110
-174,198	229,040	-0,132	0,156
-173,183	-25,681	-0,052	-0,022
-172,169	-200,000	-0,019	0,069
-171,154	800,000	0,017	0,042
-170,139	489,393	0,084	-0,139
-169,125	-200,000	0,014	0,063
-168,110	-200,000	-0,001	0,056
-167,096	597,467	0,016	-0,029
-166,081	299,897	-0,070	-0,093
-165,066	585,255	-0,054	-0,095
-164,052	800,000	-0,039	-0,079
-163,037	285,977	-0,024	0,032
-162,023	-19,350	-0,028	-0,012
-161,008	-200,000	-0,014	-0,056
-159,993	403,784	0,048	0,074
-158,979	-61,216	0,069	0,021
-157,964	-200,000	0,004	0,042
-156,950	-200,000	-0,025	0,108
-155,935	-122,399	0,027	0,003
-154,920	108,931	-0,028	0,024
-153,906	-29,304	0,189	0,077
-152,891	309,042	-0,077	-0,104
-151,877	31,740	-0,158	-0,098
-150,862	-10,166	-0,034	0,016
-149,847	448,733	-0,067	0,107
-148,833	15,878	-0,074	0,042
-147,818	371,693	0,026	0,039
-146,804	-200,000	-0,008	-0,040
-145,789	-92,468	-0,063	-0,013
-144,775	-85,468	-0,054	0,012
-143,760	487,500	-0,051	0,085
-142,745	-200,000	-0,043	-0,140
-141,731	800,000	0,009	0,027
-140,716	-200,000	-0,011	0,108
-139,702	800,000	0,015	0,039
-138,687	-37,730	-0,066	0,025
-137,672	176,104	-0,061	-0,064
-136,658	605,892	-0,005	-0,009
-135,643	-114,762	-0,108	-0,015
-134,629	-117,003	0,160	-0,021
-133,614	-96,796	0,103	0,019
-132,599	-94,667	-0,067	-0,013
-131,585	17,019	0,062	0,035
-130,570	468,301	-0,015	-0,024
-129,556	-200,000	-0,019	-0,060
-128,541	109,887	-0,139	-0,120
-127,526	528,183	0,036	-0,062
-126,512	378,886	0,088	0,130
-125,497	-102,781	-0,114	0,019
-124,483	215,880	0,024	0,028
-123,468	-28,722	0,063	-0,026
-122,453	-175,008	-0,097	0,002
-121,439	383,588	0,057	0,085
-120,424	800,000	0,050	0,100
