DTS Sentinel unit serial number:	SN410029Multiplexer serial number:	ORYXHardware model number:	OX2-SRSoftware version number:	ORYX F/W v4,00 Oryx Data Collector v3.7.2.0data status	okinstallation	B6 Nyhavnadifferential loss correction	single-endedforward channel	channel 2reverse channel	N/Adate	2023/12/08time	19:30:08forward acquisition time	300,00reverse acquisition time	0,00gamma	499,1914k internal	0,3157k external	0,3157temperature offset calibration	1,0000default loss term (dB/km)	0,3820temperature slope calibration	1,0000multiplexer offset coefficient	1,0000multiplexer slope coefficient	1,0000fibre end	0,00T internal ref (°C)	15,24T ext. ref 1 (°C)	-1,43T ext. ref 2 (°C)	-1,42length (m)	temperature (°C)	Stokes	anti-Stokes-744,400	175,052	0,104	0,111
-743,385	-85,272	-0,229	-0,052
-742,371	157,723	0,111	0,113
-741,356	51,914	-0,237	0,166
-740,342	800,000	0,032	0,075
-739,327	-103,168	-0,391	0,068
-738,312	-200,000	-0,029	0,133
-737,298	-129,627	-0,363	-0,037
-736,283	74,773	-0,080	-0,062
-735,269	-118,630	-0,235	0,030
-734,254	168,388	0,033	0,035
-733,239	-50,044	-0,445	-0,154
-732,225	73,555	0,094	-0,072
-731,210	-83,393	0,087	-0,020
-730,196	-200,000	-0,023	0,106
-729,181	-47,933	-0,104	-0,037
-728,167	-200,000	0,017	-0,060
-727,152	-23,505	-0,075	0,033
-726,137	-65,102	-0,032	0,009
-725,123	800,000	0,007	-0,018
-724,108	800,000	-0,012	-0,032
-723,094	270,929	0,050	-0,065
-722,079	29,160	-0,133	-0,083
-721,064	31,801	0,061	0,039
-720,050	789,706	-0,025	0,051
-719,035	-41,069	-0,042	0,016
-718,021	141,769	-0,050	0,049
-717,006	-200,000	-0,004	0,063
-715,991	-200,000	-0,026	-0,195
-714,977	598,128	0,051	-0,093
-713,962	402,511	0,016	0,024
-712,948	-200,000	-0,004	0,024
-711,933	-144,315	-0,140	0,009
-710,918	-34,537	-0,123	0,049
-709,904	-79,821	-0,237	-0,058
-708,889	4,842	-0,065	-0,035
-707,875	-200,000	0,011	-0,076
-706,860	800,000	-0,025	-0,062
-705,845	-200,000	-0,018	-0,117
-704,831	800,000	0,040	-0,124
-703,816	-25,630	-0,093	-0,040
-702,802	259,970	0,060	0,076
-701,787	1,505	-0,168	-0,089
-700,772	30,581	0,193	-0,121
-699,758	-71,605	0,066	0,018
-698,743	-182,027	-0,158	0,002
-697,729	-84,651	-0,180	-0,041
-696,714	584,955	-0,024	0,044
-695,699	369,536	0,067	-0,100
-694,685	-62,977	-0,042	0,013
-693,670	-200,000	-0,006	-0,044
-692,656	-200,000	0,013	-0,089
-691,641	-135,292	0,067	-0,006
-690,627	-20,159	-0,042	0,019
-689,612	-200,000	-0,003	-0,042
-688,597	-200,000	-0,008	-0,079
-687,583	-13,231	-0,121	0,057
-686,568	-200,000	0,019	0,076
-685,554	-200,000	-0,002	-0,120
-684,539	800,000	0,030	-0,080
-683,524	177,328	0,036	-0,038
-682,510	126,297	0,098	0,091
-681,495	643,733	-0,025	-0,047
-680,481	-200,000	-0,034	-0,115
-679,466	74,184	-0,049	-0,038
-678,451	-0,923	-0,078	0,040
-677,437	400,171	-0,092	-0,143
-676,422	310,346	0,081	-0,112
-675,408	-155,541	0,108	-0,005
-674,393	-180,498	-0,103	-0,002
-673,378	142,431	-0,123	-0,120
-672,364	-147,350	-0,097	-0,006
-671,349	-45,983	-0,037	-0,013
-670,335	42,108	0,150	0,100
-669,320	-200,000	-0,009	0,126
-668,305	-141,338	0,066	0,005
-667,291	-200,000	0,016	-0,061
-666,276	-112,102	0,035	0,005
-665,262	-120,650	-0,051	0,006
-664,247	-59,249	0,113	0,036
-663,232	34,340	0,137	-0,088
-662,218	-109,211	0,137	-0,021
-661,203	-102,009	0,059	-0,010
-660,189	800,000	-0,034	0,078
-659,174	30,705	-0,069	-0,043
-658,159	800,000	0,022	0,046
-657,145	-87,928	0,057	0,013
-656,130	-95,533	0,086	-0,017
-655,116	453,710	-0,056	0,092
-654,101	114,745	-0,131	0,117
-653,086	-8,113	-0,055	-0,027
-652,072	53,552	-0,117	0,082
-651,057	336,562	-0,069	-0,098
-650,043	658,068	-0,043	-0,082
-649,028	11,732	-0,097	-0,055
-648,014	32,347	0,070	-0,044
-646,999	-200,000	0,007	0,026
-645,984	224,087	-0,077	0,092
-644,970	-21,792	0,160	0,071
-643,955	-200,000	-0,025	-0,208
-642,941	-200,000	-0,004	-0,016
-641,926	-78,378	0,056	-0,014
-640,911	51,615	-0,026	-0,018
-639,897	-39,196	0,038	-0,015
-638,882	-200,000	0,015	-0,068
-637,868	84,064	0,049	0,039
-636,853	-116,474	0,054	-0,007
-635,838	-59,984	-0,051	0,016
-634,824	243,996	-0,108	-0,134
-633,809	-8,169	0,161	0,079
-632,795	294,320	-0,012	0,016
-631,780	800,000	-0,019	0,058
-630,765	-175,848	-0,241	-0,005
-629,751	800,000	-0,024	-0,067
-628,736	40,029	-0,114	-0,075
-627,722	-200,000	-0,003	-0,121
-626,707	-8,591	0,039	-0,019
-625,692	39,482	0,094	-0,062
-624,678	145,479	-0,017	-0,016
-623,663	88,709	0,063	-0,051
-622,649	-200,000	0,002	-0,074
-621,634	270,126	-0,040	-0,052
-620,619	-200,000	-0,009	-0,081
-619,605	-200,000	0,004	-0,089
-618,590	-200,000	-0,009	0,055
-617,576	429,950	0,097	0,154
-616,561	-166,057	-0,149	0,005
-615,546	-55,907	0,095	0,031
-614,532	-200,000	0,006	-0,048
-613,517	370,653	0,037	0,055
-612,503	-21,025	-0,127	-0,057
-611,488	-200,000	0,005	-0,153
-610,474	-200,000	-0,024	-0,102
-609,459	555,940	-0,056	0,100
-608,444	-27,427	-0,074	0,031
-607,430	-49,433	-0,139	-0,048
-606,415	704,279	-0,057	0,111
-605,401	-200,000	0,003	0,148
-604,386	-78,048	-0,148	-0,037
-603,371	-200,000	0,027	-0,098
-602,357	599,756	0,030	0,054
-601,342	190,214	-0,093	-0,103
-600,328	-200,000	-0,008	-0,094
-599,313	79,841	-0,133	-0,104
-598,298	800,000	0,010	0,030
-597,284	-62,323	-0,031	-0,010
-596,269	-200,000	-0,000	-0,017
-595,255	195,025	0,073	0,081
-594,240	-200,000	-0,037	-0,159
-593,225	107,130	-0,057	0,049
-592,211	8,848	-0,058	0,032
-591,196	110,959	0,057	0,050
-590,182	800,000	0,066	0,146
-589,167	-177,402	0,061	0,001
-588,152	800,000	0,008	-0,018
-587,138	-93,057	-0,073	0,015
-586,123	156,810	-0,110	-0,111
-585,109	-89,264	-0,061	-0,013
-584,094	-200,000	0,013	0,084
-583,079	800,000	-0,053	0,117
-582,065	800,000	-0,046	-0,095
-581,050	-29,569	-0,115	0,048
-580,036	-200,000	0,036	0,122
-579,021	147,062	-0,088	-0,087
-578,006	29,173	-0,088	0,055
-576,992	-50,141	0,137	-0,047
-575,977	-99,716	-0,039	-0,007
-574,963	-200,000	0,013	0,134
-573,948	52,887	-0,060	0,042
-572,934	-142,874	0,133	-0,009
-571,919	333,515	-0,062	-0,088
-570,904	46,395	-0,123	0,083
-569,890	800,000	-0,055	0,114
-568,875	57,032	0,095	0,068
-567,861	60,451	0,100	0,072
-566,846	-200,000	0,017	0,129
-565,831	466,625	-0,061	-0,100
-564,817	192,611	-0,060	-0,067
-563,802	-72,695	0,036	-0,010
-562,788	-94,050	0,145	-0,029
-561,773	287,181	0,066	-0,087
-560,758	230,476	-0,079	0,095
-559,744	608,737	0,055	0,100
-558,729	-73,947	-0,087	0,023
-557,715	-200,000	0,007	0,027
-556,700	708,996	-0,098	-0,191
-555,685	116,632	-0,083	0,075
-554,671	-77,997	-0,094	0,024
-553,656	-200,000	-0,003	0,072
-552,642	293,797	0,024	-0,032
-551,627	-90,965	0,014	-0,003
-550,612	-121,859	0,135	-0,016
-549,598	277,088	-0,094	-0,122
-548,583	120,017	-0,092	-0,083
-547,569	64,302	0,031	0,023
-546,554	800,000	0,039	-0,110
-545,539	-67,540	0,101	-0,029
-544,525	27,987	-0,032	0,020
-543,510	-200,000	0,037	-0,141
-542,496	92,381	-0,124	-0,102
-541,481	800,000	0,016	-0,052
-540,466	653,402	0,090	-0,169
-539,452	-200,000	-0,016	0,113
-538,437	-33,029	0,107	-0,043
-537,423	-170,891	-0,060	-0,001
-536,408	122,697	0,041	-0,038
-535,393	-25,515	-0,060	-0,026
-534,379	78,106	-0,098	0,076
-533,364	-200,000	0,005	0,083
-532,350	-76,450	-0,022	0,005
-531,335	141,549	-0,106	-0,102
-530,321	-200,000	-0,010	0,127
-529,306	31,362	-0,060	-0,037
-528,291	214,614	-0,016	-0,018
-527,277	-170,567	0,053	0,001
-526,262	-200,000	-0,021	-0,100
-525,248	-146,638	0,046	-0,003
-524,233	-200,000	-0,039	-0,181
-523,218	-200,000	0,012	0,085
-522,204	92,718	0,038	0,031
-521,189	-200,000	-0,018	-0,077
-520,175	800,000	-0,046	-0,122
-519,160	-59,226	0,042	-0,013
-518,145	19,270	-0,066	-0,039
-517,131	-59,102	-0,121	-0,038
-516,116	754,544	0,110	0,219
-515,102	-200,000	0,000	-0,025
-514,087	-200,000	0,020	0,075
-513,072	-25,780	-0,121	-0,052
-512,058	-200,000	-0,012	-0,099
-511,043	-200,000	-0,025	0,090
-510,029	800,000	-0,018	0,045
-509,014	51,137	0,048	-0,033
-507,999	-1,452	0,137	-0,070
-506,985	-200,000	-0,002	-0,019
-505,970	-81,151	-0,106	-0,025
-504,956	-200,000	-0,004	-0,053
-503,941	-92,909	-0,109	0,022
-502,926	-46,206	0,091	-0,033
-501,912	367,978	0,076	0,113
-500,897	15,510	-0,146	0,083
-499,883	-200,000	-0,018	-0,082
-498,868	-73,849	-0,151	0,040
-497,853	-133,976	0,045	-0,004
-496,839	655,858	0,039	0,074
-495,824	-200,000	-0,007	0,036
-494,810	204,653	0,051	0,058
-493,795	-84,436	-0,116	0,027
-492,781	209,161	-0,087	-0,099
-491,766	-106,142	-0,074	0,012
-490,751	-122,242	0,116	0,014
-489,737	278,316	-0,034	0,045
-488,722	-75,152	-0,067	-0,017
-487,708	358,793	0,030	0,044
-486,693	239,336	0,060	-0,073
-485,678	-200,000	-0,023	0,109
-484,664	690,118	-0,043	-0,082
-483,649	800,000	0,076	0,153
-482,635	800,000	0,009	-0,026
-481,620	112,655	-0,054	-0,048
-480,605	247,580	0,092	0,114
-479,591	-200,000	-0,014	0,086
-478,576	-200,000	0,002	-0,040
-477,562	-52,481	-0,115	-0,038
-476,547	-27,261	0,051	-0,022
-475,532	157,258	0,079	0,080
-474,518	111,801	0,119	0,105
-473,503	587,391	0,018	-0,032
-472,489	456,956	-0,021	0,033
-471,474	278,452	0,043	0,056
-470,459	800,000	-0,019	0,058
-469,445	800,000	0,048	-0,141
-468,430	297,954	0,141	-0,189
-467,416	162,087	0,031	-0,032
-466,401	-73,969	0,108	-0,028
-465,386	-74,763	-0,040	-0,010
-464,372	-200,000	-0,003	0,014
-463,357	-200,000	0,010	-0,101
-462,343	-73,615	0,062	-0,016
-461,328	-11,860	0,068	0,033
-460,313	-91,957	0,093	0,019
-459,299	-200,000	0,000	-0,030
-458,284	254,394	0,062	0,078
-457,270	-125,736	-0,035	0,004
-456,255	-200,000	0,039	-0,148
-455,241	-200,000	-0,006	0,029
-454,226	800,000	0,006	-0,018
-453,211	93,812	-0,101	-0,083
-452,197	398,728	0,074	0,113
-451,182	173,427	0,145	0,153
-450,168	-89,305	0,043	0,009
-449,153	-62,480	-0,137	-0,041
-448,138	-103,975	-0,142	-0,024
-447,124	-5,105	-0,072	-0,036
-446,109	73,894	0,047	-0,036
-445,095	519,636	0,069	0,118
-444,080	183,451	0,100	0,108
-443,065	11,998	0,051	0,028
-442,051	-45,859	0,140	0,050
-441,036	148,233	-0,051	0,050
-440,022	31,854	-0,076	-0,047
-439,007	71,890	0,049	-0,037
-437,992	800,000	0,036	0,112
-436,978	-148,398	0,085	-0,005
-435,963	-200,000	-0,014	0,153
-434,949	800,000	0,056	0,150
-433,934	475,612	-0,059	0,098
-432,919	48,713	-0,049	0,033
-431,905	242,029	0,034	-0,041
-430,890	800,000	0,024	0,061
-429,876	-135,506	0,052	0,004
-428,861	-200,000	0,004	-0,066
-427,846	-200,000	-0,009	0,034
-426,832	-200,000	-0,028	-0,155
-425,817	-79,228	-0,082	0,020
-424,803	46,311	0,041	-0,028
-423,788	800,000	0,010	-0,019
-422,773	391,919	0,086	0,131
-421,759	-200,000	0,014	-0,115
-420,744	704,966	-0,052	0,101
-419,730	-200,000	-0,005	0,026
-418,715	-200,000	0,004	-0,132
-417,701	-200,000	0,011	-0,079
-416,686	-10,259	-0,120	0,058
-415,671	-157,625	0,083	-0,004
-414,657	-188,516	0,134	0,001
-413,642	-200,000	0,002	-0,052
-412,628	72,735	0,021	0,016
-411,613	-200,000	0,010	0,049
-410,598	-55,944	0,127	-0,041
-409,584	-200,000	-0,004	0,029
-408,569	448,491	-0,048	-0,077
-407,555	92,601	0,026	0,021
-406,540	438,743	-0,071	0,113
-405,525	40,146	-0,085	-0,056
-404,511	800,000	-0,077	-0,186
-403,496	-200,000	-0,009	-0,100
-402,482	-47,571	-0,050	0,018
-401,467	-68,033	0,099	0,028
-400,452	-48,866	-0,144	0,050
-399,438	-149,592	-0,108	-0,006
-398,423	255,389	0,063	-0,078
-397,409	800,000	-0,033	-0,104
-396,394	197,326	-0,058	-0,064
-395,379	49,748	0,046	-0,031
-394,365	-66,779	0,159	-0,045
-393,350	-70,911	0,039	-0,011
-392,336	22,142	-0,108	0,064
-391,321	10,105	0,079	0,044
-390,306	57,561	-0,050	-0,035
-389,292	-27,721	0,120	-0,050
-388,277	11,584	0,107	-0,060
-387,263	-60,569	-0,060	0,018
-386,248	-100,289	0,225	0,040
-385,233	205,958	0,046	-0,053
-384,219	-200,000	0,001	0,086
-383,204	504,323	-0,040	0,067
-382,190	-55,617	0,083	0,027
-381,175	-200,000	0,037	-0,155
-380,160	82,606	0,066	-0,052
-379,146	303,088	0,046	0,062
-378,131	-200,000	-0,022	-0,083
-377,117	-48,778	-0,156	0,054
-376,102	93,140	0,086	0,070
-375,088	-29,782	-0,046	-0,019
-374,073	159,258	0,060	0,061
-373,058	-200,000	0,033	-0,144
-372,044	800,000	-0,055	0,129
-371,029	-200,000	-0,003	0,028
-370,015	800,000	0,031	0,074
-369,000	146,584	0,067	0,065
-367,985	153,907	-0,019	0,019
-366,971	492,129	-0,042	-0,071
-365,956	124,318	-0,074	-0,068
-364,942	-117,414	0,114	0,015
-363,927	124,362	0,075	0,068
-362,912	102,541	0,085	-0,072
-361,898	187,816	0,054	0,059
-360,883	158,800	-0,100	0,101
-359,869	211,848	0,038	0,044
-358,854	800,000	0,043	0,095
-357,839	-200,000	-0,028	-0,094
-356,825	208,764	0,085	-0,097
-355,810	800,000	0,050	-0,107
-354,796	800,000	-0,035	0,076
-353,781	204,437	-0,060	-0,067
-352,766	473,469	0,056	-0,091
-351,752	271,508	0,038	-0,049
-350,737	-200,000	-0,001	0,082
-349,723	-13,056	0,067	0,031
-348,708	-58,460	0,150	0,047
-347,693	490,682	0,091	0,151
-346,679	2,373	-0,115	-0,060
-345,664	800,000	-0,050	-0,152
-344,650	612,603	0,023	0,042
-343,635	599,908	0,037	0,067
-342,620	6,156	0,175	-0,094
-341,606	800,000	-0,013	0,033
-340,591	-78,991	-0,076	0,019
-339,577	-200,000	-0,006	0,079
-338,562	142,360	-0,062	0,060
-337,548	-103,795	-0,024	0,004
-336,533	-200,000	0,017	0,080
-335,518	-160,644	0,023	-0,001
-334,504	132,199	-0,042	-0,040
-333,489	312,576	-0,056	-0,077
-332,475	-125,516	0,099	0,011
-331,460	800,000	-0,047	-0,108
-330,445	69,461	0,078	0,058
-329,431	7,841	-0,144	0,078
-328,416	-18,972	0,044	-0,020
-327,402	242,065	-0,047	0,057
-326,387	179,303	-0,122	-0,129
-325,372	87,605	-0,060	-0,048
-324,358	17,724	0,050	-0,029
-323,343	800,000	0,045	-0,101
-322,329	44,891	0,137	0,091
-321,314	-94,775	0,069	0,013
-320,299	123,646	-0,030	0,027
-319,285	-34,827	-0,054	0,021
-318,270	-113,482	0,062	0,009
-317,256	-200,000	0,023	-0,174
-316,241	677,003	-0,033	0,062
-315,226	-25,655	0,043	0,018
-314,212	103,547	0,050	-0,043
-313,197	157,064	0,019	-0,020
-312,183	-200,000	0,001	0,054
-311,168	372,765	-0,111	0,164
-310,153	679,562	-0,044	0,083
-309,139	453,284	0,034	0,054
-308,124	70,257	-0,163	-0,122
-307,110	394,263	-0,049	0,074
-306,095	-9,850	0,112	-0,054
-305,080	800,000	0,056	-0,161
-304,066	198,681	0,075	-0,083
-303,051	-200,000	-0,131	-0,000
-302,037	-174,935	-0,045	0,001
-301,022	-74,324	0,087	-0,023
-300,008	101,352	-0,097	-0,082
-298,993	177,314	0,043	0,045
-297,978	800,000	0,022	-0,068
-296,964	-63,529	-0,091	-0,027
-295,949	-131,698	-0,077	0,007
-294,935	-55,940	-0,078	-0,025
-293,920	384,099	0,108	0,162
-292,905	-12,624	0,108	0,051
-291,891	800,000	-0,060	-0,131
-290,876	88,417	0,060	0,048
-289,862	323,709	0,024	0,033
-288,847	30,766	-0,068	0,042
-287,832	-9,645	0,063	0,030
-286,818	-125,645	0,135	0,015
-285,803	-164,074	-0,044	0,001
-284,789	-138,118	0,079	-0,006
-283,774	-140,275	-0,015	-0,001
-282,759	-200,000	-0,007	0,027
-281,745	170,006	-0,058	-0,060
-280,730	-52,729	-0,049	0,016
-279,716	800,000	-0,019	-0,047
-278,701	71,807	0,076	-0,057
-277,686	82,964	-0,082	0,064
-276,672	63,147	0,057	0,041
-275,657	553,239	-0,099	0,173
-274,643	46,642	-0,069	-0,046
-273,628	-67,345	-0,073	-0,021
-272,613	95,114	-0,106	0,087
-271,599	70,554	0,065	0,049
-270,584	77,743	-0,054	0,042
-269,570	60,263	0,103	-0,074
-268,555	-53,312	-0,128	-0,042
-267,540	-133,972	0,026	0,002
-266,526	765,595	0,027	-0,053
-265,511	272,547	0,070	0,089
-264,497	-14,663	-0,024	0,011
-263,482	-124,185	0,077	-0,009
-262,467	-59,076	-0,048	0,015
-261,453	-46,923	-0,122	-0,043
-260,438	-37,276	0,076	0,029
-259,424	800,000	0,044	-0,140
-258,409	-200,000	0,008	0,042
-257,395	800,000	-0,035	0,077
-256,380	-103,811	-0,106	-0,018
-255,365	57,854	0,073	-0,052
-254,351	-135,011	0,178	0,015
-253,336	335,868	-0,109	-0,154
-252,322	473,514	-0,023	-0,037
-251,307	-87,130	-0,142	0,031
-250,292	222,632	-0,036	0,042
-249,278	-200,000	-0,013	0,090
-248,263	-200,000	0,000	-0,002
-247,249	-2,025	0,107	0,054
-246,234	-43,222	0,055	0,020
-245,219	-80,416	0,062	-0,015
-244,205	737,859	-0,025	-0,048
-243,190	-200,000	0,057	-0,205
-242,176	-115,561	0,024	0,003
-241,161	-200,000	0,008	-0,052
-240,146	-200,000	-0,019	-0,163
-239,132	-200,000	0,012	-0,040
-238,117	-33,848	-0,097	0,039
-237,103	82,800	0,084	0,066
-236,088	-135,683	0,064	0,005
-235,073	-139,680	0,043	0,003
-234,059	-124,102	-0,009	0,001
-233,044	45,235	0,096	0,064
-232,030	800,000	0,029	-0,089
-231,015	-200,000	0,003	-0,029
-230,000	800,000	-0,008	-0,021
-228,986	800,000	0,019	-0,047
-227,971	-200,000	0,001	-0,042
-226,957	-200,000	0,004	0,072
-225,942	800,000	-0,016	0,035
-224,927	-116,198	-0,068	-0,009
-223,913	24,837	-0,082	-0,049
-222,898	116,725	0,059	0,052
-221,884	-109,805	0,083	-0,012
-220,869	154,085	-0,050	0,050
-219,855	800,000	-0,054	0,121
-218,840	400,826	0,043	0,065
-217,825	149,621	-0,086	0,084
-216,811	400,229	0,042	0,064
-215,796	-200,000	-0,010	0,054
-214,782	541,406	-0,042	-0,073
-213,767	90,688	0,081	0,066
-212,752	-8,518	0,069	0,033
-211,738	22,045	0,095	0,056
-210,723	321,694	-0,036	0,049
-209,709	-86,165	-0,113	0,025
-208,694	-200,000	0,004	-0,018
-207,679	-138,498	0,033	0,003
-206,665	-200,000	0,020	0,065
-205,650	77,075	-0,027	0,020
-204,636	-200,000	-0,018	0,061
-203,621	23,397	-0,087	0,051
-202,606	75,401	-0,039	-0,030
-201,592	800,000	-0,010	-0,029
-200,577	259,785	0,078	0,097
-199,563	-200,000	-0,017	0,073
-198,548	238,372	0,065	0,078
-197,533	441,893	-0,101	0,161
-196,519	183,263	0,083	0,088
-195,504	-128,657	0,087	-0,009
-194,490	-152,089	0,049	0,003
-193,475	800,000	0,024	-0,061
-192,460	42,668	-0,102	0,067
-191,446	800,000	-0,017	-0,053
-190,431	-128,215	-0,055	-0,006
-189,417	-96,184	-0,055	-0,010
-188,402	-200,000	-0,002	0,034
-187,387	800,000	-0,061	-0,160
-186,373	459,614	0,025	-0,040
-185,358	-200,000	0,000	0,084
-184,344	-200,000	0,002	-0,015
-183,329	563,804	0,045	0,079
-182,315	300,596	-0,039	0,052
-181,300	-200,000	-0,005	-0,044
-180,285	800,000	-0,021	0,064
-179,271	800,000	0,056	-0,141
-178,256	305,623	-0,123	0,166
-177,242	-93,070	-0,147	-0,029
-176,227	574,361	0,032	0,057
-175,212	140,071	-0,074	-0,070
-174,198	800,000	-0,054	0,150
-173,183	-1,689	0,099	0,050
-172,169	170,649	0,048	-0,049
-171,154	-15,920	0,039	0,018
-170,139	2,003	0,054	-0,028
-169,125	-46,986	0,164	-0,057
-168,110	800,000	-0,077	-0,166
-167,096	-86,688	0,082	-0,018
-166,081	-200,000	-0,004	-0,140
-165,066	287,471	-0,072	-0,094
-164,052	5,857	-0,114	0,061
-163,037	-155,748	-0,112	-0,005
-162,023	-200,000	0,006	0,070
-161,008	93,179	0,059	0,048
-159,993	91,069	0,049	0,040
-158,979	-200,000	0,024	-0,128
-157,964	794,082	-0,059	-0,118
-156,950	79,394	-0,010	-0,007
-155,935	557,105	0,040	0,070
-154,920	105,134	0,124	0,105
-153,906	-200,000	-0,012	0,098
-152,891	800,000	-0,042	0,087
-151,877	-188,332	0,077	0,001
-150,862	-200,000	-0,025	-0,114
-149,847	-200,000	0,002	-0,155
-148,833	800,000	0,009	-0,029
-147,818	-96,777	0,079	0,015
-146,804	-78,141	0,080	-0,020
-145,789	-200,000	-0,014	0,068
-144,775	-150,145	-0,077	-0,004
-143,760	-200,000	0,004	-0,119
-142,745	800,000	-0,044	-0,120
-141,731	-151,597	-0,147	0,008
-140,716	53,531	0,028	-0,020
-139,702	37,889	0,045	0,029
-138,687	2,706	0,046	-0,024
-137,672	-200,000	0,002	0,015
-136,658	800,000	-0,056	-0,156
-135,643	195,465	-0,083	-0,091
-134,629	266,903	-0,040	-0,051
-133,614	98,654	-0,051	-0,043
-132,599	-200,000	-0,004	-0,100
-131,585	-94,139	0,150	-0,029
-130,570	777,968	-0,050	-0,100
-129,556	-200,000	-0,037	-0,117
-128,541	394,895	-0,058	-0,087
-127,526	-9,220	-0,073	-0,035
-126,512	800,000	0,023	0,061
-125,497	25,797	0,099	0,059
-124,483	750,052	0,004	-0,008
-123,468	800,000	0,039	0,095
-122,453	483,481	-0,013	0,021
-121,439	800,000	0,036	0,114
-120,424	-200,000	-0,014	0,092
-119,410	-179,043	-0,084	0,001
-118,395	-84,861	0,038	0,008
