DTS Sentinel unit serial number:	SN410029Multiplexer serial number:	ORYXHardware model number:	OX2-SRSoftware version number:	ORYX F/W v4,00 Oryx Data Collector v3.7.2.0data status	okinstallation	B6 Nyhavnadifferential loss correction	single-endedforward channel	channel 2reverse channel	N/Adate	2023/12/11time	03:10:08forward acquisition time	300,00reverse acquisition time	0,00gamma	499,1914k internal	0,3123k external	0,3123temperature offset calibration	1,0000default loss term (dB/km)	0,3820temperature slope calibration	1,0000multiplexer offset coefficient	1,0000multiplexer slope coefficient	1,0000fibre end	0,00T internal ref (°C)	21,35T ext. ref 1 (°C)	4,15T ext. ref 2 (°C)	4,18length (m)	temperature (°C)	Stokes	anti-Stokes-744,400	-200,000	0,028	-0,206
-743,385	-96,483	-0,263	0,051
-742,371	145,833	-0,016	-0,016
-741,356	136,316	-0,098	0,095
-740,342	-39,390	0,134	0,052
-739,327	-89,968	-0,199	0,043
-738,312	-112,740	-0,130	-0,019
-737,298	-22,578	-0,239	0,107
-736,283	-200,000	-0,007	0,068
-735,269	20,451	-0,284	0,171
-734,254	-117,086	0,165	-0,022
-733,239	-109,922	-0,312	0,048
-732,225	-109,478	0,130	0,020
-731,210	-200,000	0,001	0,035
-730,196	-121,815	-0,114	-0,014
-729,181	-43,083	-0,052	0,019
-728,167	794,491	0,044	-0,091
-727,152	708,786	-0,067	0,133
-726,137	800,000	-0,037	-0,082
-725,123	-200,000	-0,005	0,053
-724,108	-89,673	-0,281	-0,061
-723,094	-159,548	-0,057	0,002
-722,079	451,932	-0,027	-0,045
-721,064	-56,280	-0,025	-0,008
-720,050	172,397	0,072	0,077
-719,035	5,990	-0,134	-0,073
-718,021	-171,525	-0,174	0,004
-717,006	549,825	-0,014	-0,026
-715,991	372,994	-0,074	-0,112
-714,977	526,528	0,067	0,118
-713,962	15,900	-0,136	-0,079
-712,948	276,958	0,014	0,018
-711,933	800,000	-0,040	-0,106
-710,918	800,000	-0,017	-0,042
-709,904	266,614	-0,015	0,020
-708,889	354,096	-0,071	-0,106
-707,875	205,069	0,070	0,081
-706,860	-64,408	0,083	-0,025
-705,845	-200,000	-0,003	-0,022
-704,831	800,000	0,024	0,058
-703,816	800,000	-0,010	-0,031
-702,802	-29,751	0,005	0,002
-701,787	-6,833	-0,076	-0,038
-700,772	-111,606	-0,026	0,004
-699,758	800,000	0,039	0,089
-698,743	800,000	0,034	0,103
-697,729	258,883	-0,025	0,033
-696,714	-106,965	-0,055	0,009
-695,699	-200,000	-0,004	-0,064
-694,685	252,494	-0,090	-0,115
-693,670	-40,906	-0,097	-0,037
-692,656	330,017	0,014	0,020
-691,641	91,310	-0,029	0,025
-690,627	89,539	-0,073	0,061
-689,612	-200,000	-0,001	-0,127
-688,597	-200,000	-0,091	0,000
-687,583	611,372	-0,111	-0,207
-686,568	34,833	-0,084	-0,055
-685,554	800,000	-0,042	-0,098
-684,539	608,916	0,033	0,062
-683,524	30,741	0,074	0,047
-682,510	-200,000	-0,030	-0,114
-681,495	-200,000	-0,007	0,085
-680,481	-200,000	0,031	-0,176
-679,466	387,977	-0,126	-0,194
-678,451	51,615	-0,047	0,033
-677,437	-51,003	0,145	0,050
-676,422	0,622	0,028	-0,015
-675,408	-200,000	0,007	-0,112
-674,393	-200,000	0,010	0,059
-673,378	452,468	-0,095	-0,157
-672,364	96,343	-0,072	0,061
-671,349	-200,000	-0,043	0,146
-670,335	196,019	0,060	-0,068
-669,320	800,000	0,021	-0,068
-668,305	-3,571	0,098	0,051
-667,291	8,818	-0,128	0,071
-666,276	-200,000	-0,018	-0,100
-665,262	-137,946	-0,067	-0,006
-664,247	800,000	0,024	0,055
-663,232	312,108	0,054	-0,076
-662,218	774,131	-0,013	-0,027
-661,203	-200,000	0,001	0,123
-660,189	34,359	0,034	0,022
-659,174	-66,060	-0,107	-0,031
-658,159	-9,967	0,038	-0,019
-657,145	-74,614	-0,154	-0,041
-656,130	386,448	-0,059	-0,091
-655,116	154,530	-0,041	-0,042
-654,101	-46,966	-0,016	0,006
-653,086	-29,253	0,107	-0,045
-652,072	264,268	0,037	0,047
-651,057	484,328	0,061	-0,103
-650,043	147,189	-0,136	0,136
-649,028	33,709	-0,047	0,030
-648,014	-158,036	-0,218	-0,009
-646,999	53,286	-0,121	-0,086
-645,984	-200,000	-0,007	-0,027
-644,970	55,884	0,097	0,070
-643,955	800,000	0,022	0,047
-642,941	800,000	0,024	-0,059
-641,926	-120,253	-0,146	-0,018
-640,911	-8,246	-0,137	-0,068
-639,897	-38,367	-0,100	0,039
-638,882	-118,218	0,112	-0,015
-637,868	-200,000	0,005	-0,109
-636,853	-200,000	-0,015	-0,221
-635,838	369,461	0,086	-0,130
-634,824	-153,034	-0,055	-0,003
-633,809	-85,011	0,029	0,007
-632,795	149,833	0,014	-0,014
-631,780	383,293	0,062	-0,095
-630,765	-19,914	0,048	-0,022
-629,751	784,453	0,053	-0,108
-628,736	32,911	-0,142	-0,091
-627,722	84,374	0,074	-0,060
-626,707	706,808	0,018	-0,035
-625,692	-200,000	0,006	0,064
-624,678	477,016	0,021	0,035
-623,663	800,000	-0,014	0,035
-622,649	-200,000	0,004	-0,137
-621,634	62,998	0,015	0,011
-620,619	154,390	-0,040	-0,040
-619,605	296,524	0,060	-0,082
-618,590	730,835	-0,041	-0,081
-617,576	800,000	0,045	0,144
-616,561	-200,000	0,023	-0,114
-615,546	222,957	0,020	-0,024
-614,532	310,664	-0,120	-0,167
-613,517	-200,000	0,013	-0,136
-612,503	-198,731	0,133	-0,001
-611,488	163,069	0,015	-0,016
-610,474	381,490	0,033	-0,051
-609,459	-5,263	-0,038	-0,019
-608,444	-74,430	-0,037	0,010
-607,430	-200,000	0,023	-0,113
-606,415	-96,520	0,101	-0,020
-605,401	85,831	-0,047	-0,038
-604,386	-49,993	0,023	0,008
-603,371	734,948	0,096	0,191
-602,357	146,532	0,032	-0,032
-601,342	-200,000	0,007	0,032
-600,328	-8,099	0,075	-0,037
-599,313	800,000	-0,035	-0,073
-598,298	412,637	-0,044	0,070
-597,284	641,826	-0,034	0,064
-596,269	-20,218	-0,057	0,026
-595,255	-41,010	0,134	0,051
-594,240	-90,187	0,060	0,013
-593,225	-47,677	-0,159	0,057
-592,211	278,410	-0,103	-0,136
-591,196	-105,151	0,105	0,018
-590,182	-200,000	-0,018	0,086
-589,167	-200,000	-0,012	0,082
-588,152	711,463	0,033	0,064
-587,138	256,371	-0,059	0,076
-586,123	800,000	-0,006	0,015
-585,109	800,000	-0,024	-0,055
-584,094	331,765	-0,031	-0,044
-583,079	19,042	0,052	0,031
-582,065	449,336	-0,054	-0,089
-581,050	115,974	-0,075	-0,068
-580,036	216,374	-0,076	0,090
-579,021	626,062	0,022	-0,042
-578,006	159,686	-0,024	0,025
-576,992	191,310	0,064	-0,072
-575,977	-15,742	0,136	-0,064
-574,963	-105,362	0,042	0,007
-573,948	-167,533	0,100	-0,003
-572,934	-141,224	0,054	-0,004
-571,919	-200,000	-0,001	0,055
-570,904	228,225	-0,051	-0,061
-569,890	95,837	-0,069	-0,058
-568,875	-200,000	-0,003	0,060
-567,861	308,352	-0,029	0,040
-566,846	23,591	-0,044	-0,027
-565,831	-129,910	-0,079	-0,008
-564,817	438,267	-0,081	-0,131
-563,802	800,000	-0,038	-0,118
-562,788	663,904	0,050	-0,095
-561,773	214,691	-0,070	0,082
-560,758	28,862	-0,045	0,028
-559,744	-200,000	0,001	0,050
-558,729	294,221	-0,050	-0,067
-557,715	130,256	-0,077	0,073
-556,700	659,311	0,023	0,044
-555,685	210,312	0,071	0,083
-554,671	-200,000	0,016	0,056
-553,656	800,000	-0,051	0,168
-552,642	720,250	0,021	0,041
-551,627	-200,000	0,000	-0,068
-550,612	-62,601	-0,090	-0,028
-549,598	-166,683	-0,061	0,002
-548,583	-155,792	-0,069	0,003
-547,569	-200,000	0,030	0,114
-546,554	-200,000	0,005	0,052
-545,539	-19,332	0,048	0,022
-544,525	86,353	-0,087	0,071
-543,510	-200,000	-0,003	0,025
-542,496	189,254	-0,045	-0,050
-541,481	800,000	-0,060	-0,142
-540,466	800,000	-0,027	-0,070
-539,452	43,095	-0,067	-0,045
-538,437	-91,349	0,052	0,011
-537,423	-200,000	0,045	0,171
-536,408	-171,713	-0,111	0,003
-535,393	142,838	-0,058	-0,057
-534,379	800,000	-0,079	-0,188
-533,364	800,000	0,069	-0,207
-532,350	800,000	0,039	0,096
-531,335	264,662	0,112	0,144
-530,321	-200,000	-0,000	-0,017
-529,306	-106,270	0,088	-0,014
-528,291	-25,316	-0,005	0,002
-527,277	-129,954	0,058	0,006
-526,262	211,043	0,049	-0,058
-525,248	-111,615	0,112	-0,017
-524,233	134,373	-0,060	0,058
-523,218	55,281	-0,089	0,064
-522,204	306,017	0,090	0,124
-521,189	800,000	0,032	-0,083
-520,175	-200,000	0,010	-0,201
-519,160	-105,077	-0,115	0,019
-518,145	-117,976	-0,032	0,004
-517,131	800,000	-0,058	0,175
-516,116	-200,000	-0,015	0,144
-515,102	454,808	0,011	-0,018
-514,087	-200,000	0,004	0,083
-513,072	-150,210	0,086	-0,005
-512,058	-200,000	-0,002	-0,049
-511,043	181,512	-0,022	0,024
-510,029	-200,000	-0,009	-0,035
-509,014	-129,648	-0,078	-0,008
-507,999	205,399	0,054	-0,062
-506,985	50,773	-0,086	-0,060
-505,970	800,000	0,020	-0,045
-504,956	-133,588	-0,027	0,002
-503,941	-10,635	-0,089	-0,043
-502,926	-24,660	0,048	0,021
-501,912	198,628	0,035	0,040
-500,897	413,250	0,032	0,050
-499,883	149,369	-0,005	0,005
-498,868	-200,000	0,030	-0,135
-497,853	251,856	-0,063	-0,080
-496,839	800,000	-0,068	-0,163
-495,824	-110,708	0,079	-0,012
-494,810	-64,560	-0,106	-0,032
-493,795	-164,993	0,095	0,003
-492,781	533,783	0,058	0,102
-491,766	-106,374	-0,101	-0,016
-490,751	-134,034	0,112	0,010
-489,737	66,850	0,111	-0,083
-488,722	-52,406	0,062	-0,021
-487,708	234,126	-0,022	-0,027
-486,693	123,123	0,009	0,008
-485,678	477,441	0,016	0,027
-484,664	-200,000	-0,001	-0,121
-483,649	-26,550	-0,053	0,023
-482,635	-200,000	0,011	-0,084
-481,620	800,000	0,024	-0,057
-480,605	279,129	-0,050	0,067
-479,591	-200,000	-0,021	0,071
-478,576	-106,214	0,127	0,021
-477,562	362,519	-0,060	-0,089
-476,547	-147,585	-0,049	-0,003
-475,532	800,000	0,036	0,100
-474,518	217,701	0,081	-0,095
-473,503	-71,295	0,129	-0,035
-472,489	800,000	-0,029	0,090
-471,474	-132,459	-0,049	-0,005
-470,459	781,535	0,023	0,046
-469,445	-200,000	-0,002	-0,147
-468,430	308,102	0,086	-0,118
-467,416	-147,067	0,027	-0,002
-466,401	-200,000	0,001	0,051
-465,386	-140,937	0,105	-0,008
-464,372	-96,655	-0,084	-0,016
-463,357	15,617	0,138	0,080
-462,343	800,000	-0,027	-0,059
-461,328	82,878	-0,098	-0,079
-460,313	83,532	0,018	-0,015
-459,299	3,427	-0,051	0,027
-458,284	79,920	-0,036	-0,029
-457,270	216,165	0,146	0,172
-456,255	-48,688	0,082	-0,029
-455,241	-152,633	0,055	0,003
-454,226	800,000	-0,020	0,053
-453,211	-24,664	0,135	0,059
-452,197	83,210	0,015	0,012
-451,182	800,000	0,049	0,115
-450,168	11,403	0,111	0,062
-449,153	-137,011	0,125	0,010
-448,138	170,040	-0,118	0,125
-447,124	800,000	-0,047	-0,107
-446,109	493,225	0,018	0,031
-445,095	-18,150	-0,072	0,033
-444,080	178,231	0,041	0,044
-443,065	-166,538	-0,084	0,003
-442,051	-116,993	-0,067	-0,009
-441,036	217,870	0,131	-0,154
-440,022	45,552	0,080	-0,054
-439,007	758,793	-0,011	-0,023
-437,992	207,475	0,049	0,057
-436,978	-31,449	-0,114	0,047
-435,963	-85,348	0,041	0,009
-434,949	-200,000	0,031	-0,127
-433,934	-9,220	-0,063	-0,031
-432,919	26,687	-0,071	0,044
-431,905	800,000	-0,025	-0,063
-430,890	-71,538	0,078	0,021
-429,876	800,000	-0,019	-0,040
-428,861	185,420	-0,029	0,031
-427,846	190,461	-0,054	0,060
-426,832	-117,313	0,072	-0,009
-425,817	-111,512	0,092	-0,014
-424,803	-200,000	-0,018	0,062
-423,788	722,792	-0,045	0,088
-422,773	46,845	-0,036	-0,025
-421,759	-77,159	0,123	-0,031
-420,744	70,553	-0,060	-0,046
-419,730	-112,467	0,045	0,006
-418,715	-149,759	-0,071	0,004
-417,701	-12,760	-0,141	-0,067
-416,686	-71,629	-0,060	0,016
-415,671	-200,000	-0,006	0,052
-414,657	437,877	0,054	-0,087
-413,642	-43,803	-0,126	0,046
-412,628	550,558	0,045	-0,080
-411,613	-200,000	0,008	-0,049
-410,598	-104,640	-0,007	0,001
-409,584	96,149	-0,021	0,018
-408,569	800,000	0,024	0,051
-407,555	456,721	0,093	0,152
-406,540	-105,450	-0,103	-0,017
-405,525	328,374	0,032	0,045
-404,511	-155,657	0,029	0,001
-403,496	582,363	0,072	-0,131
-402,482	800,000	-0,054	0,147
-401,467	-164,744	0,030	-0,001
-400,452	-10,875	-0,049	-0,024
-399,438	-63,172	0,083	-0,025
-398,423	-117,229	0,161	0,021
-397,409	-154,386	0,093	-0,005
-396,394	-11,749	-0,126	-0,061
-395,379	-122,018	0,088	0,010
-394,365	-7,039	0,074	0,037
-393,350	800,000	-0,008	-0,022
-392,336	61,226	-0,086	0,063
-391,321	356,170	0,021	0,030
-390,306	331,635	-0,034	0,048
-389,292	-129,721	-0,081	0,008
-388,277	-200,000	0,004	0,081
-387,263	-22,386	0,106	0,047
-386,248	44,184	0,008	0,006
-385,233	-120,107	0,161	-0,020
-384,219	-107,746	0,107	-0,017
-383,204	-46,296	-0,166	-0,059
-382,190	-177,972	0,110	0,002
-381,175	125,286	0,022	0,021
-380,160	-57,611	0,074	0,024
-379,146	-13,385	0,043	0,020
-378,131	756,337	-0,024	-0,048
-377,117	-124,567	-0,018	-0,002
-376,102	214,421	-0,062	-0,072
-375,088	-86,345	0,089	-0,020
-374,073	340,087	-0,043	0,062
-373,058	171,893	0,042	0,044
-372,044	120,423	-0,137	0,125
-371,029	102,685	0,078	0,067
-370,015	-200,000	0,023	0,094
-369,000	-200,000	-0,039	-0,134
-367,985	-200,000	0,012	-0,090
-366,971	800,000	0,035	0,095
-365,956	100,667	0,078	0,066
-364,942	-200,000	0,005	-0,041
-363,927	6,460	-0,100	0,054
-362,912	-101,599	0,059	-0,010
-361,898	800,000	0,037	-0,098
-360,883	800,000	0,007	-0,021
-359,869	216,788	0,041	0,047
-358,854	254,102	-0,049	0,062
-357,839	-171,786	0,076	-0,002
-356,825	15,190	0,110	0,063
-355,810	414,451	-0,098	-0,154
-354,796	800,000	0,037	-0,101
-353,781	-200,000	-0,001	-0,209
-352,766	-200,000	-0,002	-0,089
-351,752	36,095	-0,043	-0,027
-350,737	66,969	-0,058	0,043
-349,723	-171,499	0,097	-0,002
-348,708	800,000	0,046	0,105
-347,693	78,127	-0,044	-0,034
-346,679	789,004	0,021	-0,042
-345,664	-169,537	-0,080	0,002
-344,650	-200,000	-0,010	-0,099
-343,635	-61,850	0,045	-0,014
-342,620	-98,452	0,156	0,029
-341,606	800,000	0,032	-0,072
-340,591	574,756	-0,063	0,112
-339,577	800,000	-0,017	-0,046
-338,562	-7,114	0,068	0,034
-337,548	-189,305	0,109	-0,001
-336,533	-200,000	0,031	0,116
-335,518	770,549	0,035	0,070
-334,504	424,176	-0,045	-0,071
-333,489	-97,648	0,048	0,009
-332,475	97,137	-0,139	-0,117
-331,460	800,000	-0,041	-0,089
-330,445	-200,000	-0,033	-0,245
-329,431	286,188	0,045	0,060
-328,416	52,939	-0,107	0,075
-327,402	-200,000	0,033	0,119
-326,387	16,113	-0,155	-0,089
-325,372	800,000	-0,015	0,045
-324,358	62,076	-0,109	0,080
-323,343	-98,957	0,048	-0,009
-322,329	64,910	0,075	-0,055
-321,314	491,351	0,037	0,063
-320,299	446,341	0,056	0,090
-319,285	419,636	0,078	-0,123
-318,270	-200,000	0,009	-0,078
-317,256	800,000	-0,032	-0,088
-316,241	-200,000	0,001	0,060
-315,226	29,526	0,062	-0,038
-314,212	800,000	0,033	0,104
-313,197	-200,000	-0,014	0,086
-312,183	-147,806	-0,099	0,006
-311,168	-200,000	-0,021	0,125
-310,153	311,217	0,050	-0,069
-309,139	-200,000	-0,004	-0,165
-308,124	-39,847	-0,050	0,019
-307,110	266,882	0,048	0,062
-306,095	133,013	-0,044	0,042
-305,080	725,112	0,041	0,081
-304,066	191,066	-0,012	0,013
-303,051	800,000	0,026	-0,065
-302,037	-123,051	-0,046	0,005
-301,022	800,000	0,030	0,097
-300,008	800,000	0,060	0,133
-298,993	-200,000	0,010	0,144
-297,978	-200,000	0,026	0,155
-296,964	28,206	-0,162	0,100
-295,949	800,000	0,035	0,100
-294,935	-200,000	0,023	-0,179
-293,920	-7,996	-0,088	0,043
-292,905	19,215	0,108	-0,063
-291,891	61,232	-0,023	-0,017
-290,876	-69,163	-0,069	-0,019
-289,862	247,511	-0,034	-0,042
-288,847	179,638	0,048	0,052
-287,832	39,882	0,066	-0,044
-286,818	-62,183	0,082	-0,025
-285,803	-200,000	-0,035	0,135
-284,789	-200,000	0,008	0,128
-283,774	-6,740	-0,075	-0,037
-282,759	-200,000	0,014	-0,076
-281,745	-141,834	-0,129	0,009
-280,730	127,956	-0,020	0,019
-279,716	136,060	-0,094	0,090
-278,701	-28,525	0,118	0,050
-277,686	27,618	0,084	0,052
-276,672	-75,048	0,020	0,005
-275,657	800,000	0,027	-0,067
-274,643	800,000	0,048	-0,099
-273,628	-39,072	-0,163	-0,062
-272,613	-56,590	0,157	0,050
-271,599	800,000	0,029	0,086
-270,584	335,919	0,072	0,103
-269,570	-200,000	0,007	-0,039
-268,555	262,899	0,011	0,014
-267,540	465,151	0,014	0,022
-266,526	9,323	-0,051	-0,028
-265,511	437,831	0,044	-0,071
-264,497	241,153	-0,073	0,090
-263,482	-77,612	-0,152	0,038
-262,467	316,989	0,088	0,121
-261,453	386,010	-0,016	0,024
-260,438	88,808	-0,075	-0,061
-259,424	193,099	0,079	-0,087
-258,409	800,000	-0,040	-0,102
-257,395	139,205	0,034	0,033
-256,380	800,000	-0,055	0,139
-255,365	529,757	0,024	0,041
-254,351	121,515	-0,002	-0,002
-253,336	124,335	-0,066	-0,061
-252,322	800,000	-0,046	-0,110
-251,307	50,323	0,072	-0,050
-250,292	2,528	0,073	-0,038
-249,278	-184,797	0,191	0,002
-248,263	-200,000	-0,037	0,129
-247,249	-200,000	-0,002	-0,018
-246,234	-71,848	0,050	0,013
-245,219	-59,890	-0,070	0,022
-244,205	800,000	-0,030	-0,081
-243,190	-200,000	0,012	0,110
-242,176	571,171	-0,028	-0,049
-241,161	330,890	0,015	-0,021
-240,146	-200,000	0,003	-0,039
-239,132	78,894	0,014	0,011
-238,117	86,583	-0,095	-0,077
-237,103	-200,000	0,014	-0,079
-236,088	-49,270	0,021	0,007
-235,073	-103,877	-0,087	0,015
-234,059	-200,000	0,024	0,093
-233,044	350,031	0,086	0,125
-232,030	800,000	-0,018	-0,045
-231,015	384,346	0,022	0,034
-230,000	191,129	-0,070	0,077
-228,986	-200,000	-0,003	-0,016
-227,971	115,433	0,104	0,092
-226,957	66,478	0,094	0,070
-225,942	18,338	-0,075	-0,044
-224,927	-179,232	-0,204	-0,003
-223,913	-200,000	-0,014	0,073
-222,898	317,493	-0,029	0,041
-221,884	224,795	-0,059	-0,070
-220,869	30,868	0,067	0,042
-219,855	-46,803	0,007	0,002
-218,840	800,000	0,043	0,090
-217,825	-102,300	-0,105	-0,018
-216,811	800,000	0,015	-0,036
-215,796	-123,236	-0,075	-0,009
-214,782	202,763	-0,033	-0,038
-213,767	-200,000	-0,010	0,132
-212,752	-110,415	0,079	0,012
-211,738	-200,000	-0,016	-0,058
-210,723	134,066	0,012	-0,012
-209,709	40,582	-0,044	0,029
-208,694	-41,325	0,027	-0,010
-207,679	-148,339	0,054	-0,003
-206,665	-8,277	-0,067	-0,033
-205,650	-200,000	0,005	-0,025
-204,636	507,702	-0,082	0,140
-203,621	86,733	-0,081	0,065
-202,606	-200,000	-0,030	-0,146
-201,592	-200,000	0,017	-0,118
-200,577	592,490	0,046	-0,083
-199,563	-200,000	0,043	0,170
-198,548	-160,710	0,119	-0,005
-197,533	39,161	0,132	0,086
-196,519	-73,694	-0,180	0,047
-195,504	800,000	-0,042	0,103
-194,490	554,163	-0,032	-0,056
-193,475	800,000	-0,032	-0,093
-192,460	7,477	0,164	0,089
-191,446	-200,000	0,023	0,239
-190,431	575,292	0,061	0,109
-189,417	-200,000	0,016	-0,086
-188,402	-163,231	-0,160	-0,006
-187,387	-200,000	-0,002	0,042
-186,373	70,074	-0,098	0,073
-185,358	-64,430	-0,116	0,034
-184,344	177,689	-0,024	0,025
-183,329	-60,201	-0,032	0,010
-182,315	-116,882	-0,063	-0,008
-181,300	-200,000	0,010	-0,057
-180,285	-200,000	-0,019	-0,192
-179,271	-200,000	-0,044	-0,189
-178,256	-200,000	-0,000	-0,006
-177,242	-52,735	-0,148	0,050
-176,227	-149,205	0,139	-0,008
-175,212	181,252	0,041	0,044
-174,198	-200,000	0,013	0,058
-173,183	-15,927	-0,195	-0,090
-172,169	508,181	-0,061	-0,104
-171,154	123,935	0,105	0,096
-170,139	-4,293	0,017	-0,009
-169,125	24,956	0,113	0,068
-168,110	162,581	0,064	-0,066
-167,096	25,524	0,022	0,013
-166,081	-76,316	-0,047	0,012
-165,066	38,632	-0,090	0,058
-164,052	57,113	0,056	0,040
-163,037	-200,000	-0,025	0,109
-162,023	-200,000	-0,002	0,149
-161,008	-51,415	-0,054	-0,018
-159,993	-24,755	0,067	0,029
-158,979	240,499	-0,066	0,081
-157,964	-154,611	-0,043	-0,002
-156,950	516,017	-0,057	-0,097
-155,935	-200,000	-0,013	-0,051
-154,920	-92,840	0,047	-0,009
-153,906	-25,701	-0,124	0,053
-152,891	-200,000	0,009	-0,046
-151,877	-200,000	0,005	0,020
-150,862	-49,589	-0,113	-0,039
-149,847	129,871	0,084	0,078
-148,833	42,303	-0,069	0,046
-147,818	-200,000	-0,010	-0,133
-146,804	45,427	-0,030	0,020
-145,789	-200,000	-0,049	-0,175
-144,775	-11,148	-0,088	0,042
-143,760	800,000	0,025	-0,081
-142,745	91,184	0,126	-0,103
-141,731	-200,000	0,008	-0,027
-140,716	43,550	0,096	0,064
-139,702	-95,086	0,053	0,010
-138,687	-58,650	-0,040	-0,013
-137,672	-200,000	-0,018	-0,059
-136,658	395,320	-0,029	0,045
-135,643	93,898	0,031	-0,025
-134,629	-200,000	0,013	-0,064
-133,614	800,000	0,034	0,083
-132,599	139,645	0,103	0,098
-131,585	-200,000	-0,016	0,108
-130,570	800,000	0,045	-0,096
-129,556	368,965	0,077	-0,114
-128,541	-75,923	0,021	-0,005
-127,526	-200,000	0,038	-0,124
-126,512	-67,144	0,156	-0,044
-125,497	-92,674	-0,034	0,007
-124,483	-200,000	-0,005	-0,088
-123,468	55,249	0,082	-0,058
-122,453	400,492	-0,027	-0,041
-121,439	650,121	-0,042	0,079
-120,424	136,993	-0,020	-0,019
-119,410	-0,288	-0,123	0,063
