DTS Sentinel unit serial number:	SN410029Multiplexer serial number:	ORYXHardware model number:	OX2-SRSoftware version number:	ORYX F/W v4,00 Oryx Data Collector v3.7.2.0data status	okinstallation	B6 Nyhavnadifferential loss correction	single-endedforward channel	channel 2reverse channel	N/Adate	2023/12/11time	08:15:08forward acquisition time	300,00reverse acquisition time	0,00gamma	499,1914k internal	0,3129k external	0,3129temperature offset calibration	1,0000default loss term (dB/km)	0,3820temperature slope calibration	1,0000multiplexer offset coefficient	1,0000multiplexer slope coefficient	1,0000fibre end	0,00T internal ref (°C)	18,11T ext. ref 1 (°C)	0,37T ext. ref 2 (°C)	0,36length (m)	temperature (°C)	Stokes	anti-Stokes-744,400	800,000	0,013	-0,036
-743,385	-35,774	-0,215	-0,086
-742,371	-21,947	0,029	-0,013
-741,356	-194,195	-0,273	-0,002
-740,342	15,724	0,046	0,027
-739,327	-66,345	-0,244	0,072
-738,312	800,000	-0,053	0,115
-737,298	-147,281	-0,333	0,021
-736,283	-139,755	0,077	-0,006
-735,269	-152,784	-0,337	0,017
-734,254	-168,680	0,138	0,004
-733,239	-48,428	-0,467	-0,166
-732,225	-43,477	0,114	0,043
-731,210	-139,396	0,082	-0,006
-730,196	-200,000	-0,032	-0,198
-729,181	800,000	0,027	-0,067
-728,167	-200,000	0,008	0,026
-727,152	149,821	-0,060	-0,061
-726,137	228,824	0,032	-0,039
-725,123	-53,572	-0,078	0,026
-724,108	16,145	-0,090	-0,053
-723,094	215,279	0,055	-0,065
-722,079	423,622	-0,037	0,060
-721,064	434,668	0,087	-0,141
-720,050	-43,442	0,068	-0,025
-719,035	-200,000	0,007	-0,057
-718,021	-100,723	-0,052	-0,009
-717,006	83,940	-0,065	-0,053
-715,991	-200,000	-0,002	0,011
-714,977	40,186	-0,193	-0,129
-713,962	188,320	-0,058	-0,064
-712,948	-200,000	0,004	-0,040
-711,933	106,097	0,064	0,056
-710,918	-200,000	-0,011	-0,043
-709,904	692,825	-0,072	-0,140
-708,889	800,000	0,074	-0,179
-707,875	376,149	0,063	-0,096
-706,860	468,069	-0,023	0,038
-705,845	96,593	0,013	0,011
-704,831	781,754	-0,025	0,050
-703,816	-70,329	-0,053	-0,015
-702,802	-36,685	-0,132	-0,052
-701,787	88,688	-0,149	-0,123
-700,772	147,981	-0,080	-0,080
-699,758	52,803	-0,065	-0,046
-698,743	-177,966	0,100	0,002
-697,729	-200,000	0,000	0,197
-696,714	-200,000	0,001	0,062
-695,699	-77,276	0,129	-0,033
-694,685	580,355	-0,079	-0,144
-693,670	-154,047	0,054	-0,003
-692,656	-200,000	-0,025	-0,099
-691,641	295,566	0,130	-0,178
-690,627	800,000	-0,023	-0,055
-689,612	-200,000	0,003	0,058
-688,597	-32,932	-0,067	0,028
-687,583	-200,000	-0,038	-0,185
-686,568	637,860	0,068	-0,129
-685,554	-88,805	-0,092	0,020
-684,539	247,002	0,077	0,097
-683,524	120,803	-0,066	-0,061
-682,510	-107,104	0,105	0,017
-681,495	78,835	-0,070	-0,056
-680,481	800,000	-0,059	0,181
-679,466	116,304	-0,103	-0,093
-678,451	-68,172	0,119	0,034
-677,437	27,402	-0,076	-0,047
-676,422	-12,417	0,147	-0,071
-675,408	-104,739	0,091	-0,015
-674,393	-180,260	-0,120	-0,002
-673,378	35,892	0,096	-0,062
-672,364	800,000	-0,051	-0,130
-671,349	800,000	0,022	-0,058
-670,335	-200,000	-0,005	-0,051
-669,320	231,598	0,056	0,068
-668,305	800,000	-0,021	0,061
-667,291	-200,000	-0,008	-0,087
-666,276	-63,277	-0,048	-0,014
-665,262	800,000	0,059	-0,155
-664,247	-200,000	-0,005	-0,048
-663,232	-43,551	0,080	0,030
-662,218	1,460	-0,199	0,106
-661,203	800,000	0,061	0,177
-660,189	800,000	-0,080	0,230
-659,174	800,000	-0,057	-0,138
-658,159	-200,000	0,001	-0,085
-657,145	-84,552	-0,078	-0,018
-656,130	-149,244	-0,065	-0,004
-655,116	800,000	-0,066	0,138
-654,101	-200,000	0,015	-0,055
-653,086	-133,033	-0,140	-0,013
-652,072	-200,000	0,014	0,079
-651,057	97,365	-0,106	-0,090
-650,043	183,318	-0,064	0,070
-649,028	-200,000	-0,003	0,070
-648,014	-200,000	-0,004	-0,053
-646,999	24,402	0,066	0,040
-645,984	800,000	0,039	0,087
-644,970	-200,000	-0,026	0,129
-643,955	-200,000	-0,003	-0,097
-642,941	12,244	0,056	-0,032
-641,926	14,406	-0,083	0,048
-640,911	12,284	0,052	-0,029
-639,897	-200,000	-0,037	0,123
-638,882	800,000	-0,023	0,053
-637,868	27,155	-0,112	0,069
-636,853	5,940	-0,156	-0,085
-635,838	-115,285	0,119	-0,017
-634,824	-85,303	-0,173	0,040
-633,809	260,540	0,035	-0,045
-632,795	317,071	-0,065	-0,092
-631,780	31,978	0,114	0,073
-630,765	-200,000	-0,002	-0,031
-629,751	-200,000	-0,019	-0,093
-628,736	-200,000	-0,045	-0,206
-627,722	4,503	-0,081	-0,044
-626,707	-116,996	-0,129	-0,017
-625,692	89,876	0,059	0,048
-624,678	688,471	-0,037	-0,072
-623,663	-19,369	-0,160	-0,073
-622,649	76,469	-0,084	-0,066
-621,634	800,000	-0,030	-0,072
-620,619	-200,000	-0,011	0,084
-619,605	88,524	0,083	-0,068
-618,590	-200,000	0,011	0,069
-617,576	778,986	-0,047	0,096
-616,561	295,995	-0,029	0,039
-615,546	800,000	0,049	-0,133
-614,532	-128,937	-0,063	-0,006
-613,517	563,489	-0,018	0,033
-612,503	-182,850	0,023	-0,000
-611,488	80,632	0,071	-0,057
-610,474	24,384	-0,142	-0,086
-609,459	-123,813	0,093	-0,011
-608,444	-85,624	0,045	-0,010
-607,430	-200,000	0,018	0,079
-606,415	800,000	-0,018	0,050
-605,401	-95,098	-0,028	0,006
-604,386	11,603	0,081	0,046
-603,371	71,879	0,061	0,047
-602,357	-107,632	-0,053	0,008
-601,342	-200,000	-0,014	-0,063
-600,328	263,965	-0,086	0,111
-599,313	800,000	0,047	-0,105
-598,298	-78,342	0,066	-0,017
-597,284	123,640	0,053	0,049
-596,269	-0,712	0,062	-0,032
-595,255	90,401	-0,054	0,045
-594,240	234,598	-0,051	0,063
-593,225	-200,000	0,018	-0,066
-592,211	189,658	0,028	-0,031
-591,196	-33,593	-0,112	-0,045
-590,182	-47,379	-0,063	0,023
-589,167	-27,400	0,084	0,036
-588,152	314,407	-0,036	0,050
-587,138	-14,105	0,079	-0,038
-586,123	34,209	-0,041	0,027
-585,109	37,570	-0,056	-0,037
-584,094	30,171	0,009	-0,006
-583,079	800,000	-0,007	0,022
-582,065	152,915	-0,066	-0,067
-581,050	-82,313	0,142	0,034
-580,036	-139,873	0,192	0,015
-579,021	615,605	-0,027	-0,050
-578,006	265,424	0,064	-0,082
-576,992	143,445	-0,078	0,077
-575,977	-156,003	0,072	-0,003
-574,963	378,788	-0,061	0,092
-573,948	-101,982	0,191	-0,034
-572,934	102,188	-0,100	-0,086
-571,919	174,573	-0,123	-0,132
-570,904	800,000	0,021	0,060
-569,890	-90,528	-0,090	0,019
-568,875	56,589	0,028	0,020
-567,861	108,993	0,104	0,092
-566,846	-57,697	0,142	-0,046
-565,831	-200,000	0,005	-0,081
-564,817	162,062	-0,032	-0,034
-563,802	-133,366	-0,103	-0,009
-562,788	-200,000	0,016	0,074
-561,773	800,000	0,045	-0,103
-560,758	328,818	0,054	0,077
-559,744	20,400	-0,052	0,031
-558,729	147,621	-0,030	-0,030
-557,715	-192,115	0,137	-0,001
-556,700	-200,000	0,006	-0,073
-555,685	303,399	0,033	-0,046
-554,671	-88,931	0,231	-0,050
-553,656	-50,498	0,031	0,011
-552,642	-200,000	0,017	0,085
-551,627	180,704	-0,059	0,064
-550,612	115,381	-0,045	-0,041
-549,598	-47,342	0,046	-0,016
-548,583	-200,000	0,009	0,104
-547,569	-148,922	0,075	-0,004
-546,554	11,460	0,085	0,048
-545,539	-78,215	0,067	0,017
-544,525	800,000	-0,040	0,095
-543,510	800,000	-0,022	-0,052
-542,496	616,164	-0,006	0,011
-541,481	-146,213	-0,157	-0,010
-540,466	-3,362	0,062	0,032
-539,452	800,000	0,026	-0,066
-538,437	129,242	0,015	0,014
-537,423	199,156	0,021	-0,023
-536,408	790,765	-0,045	0,091
-535,393	19,321	-0,050	-0,029
-534,379	14,896	-0,116	-0,067
-533,364	-200,000	-0,033	-0,129
-532,350	441,512	0,034	-0,054
-531,335	-124,196	0,144	0,016
-530,321	443,916	0,044	0,072
-529,306	82,550	-0,052	0,041
-528,291	-200,000	0,014	-0,118
-527,277	-9,146	-0,046	-0,023
-526,262	800,000	-0,023	-0,054
-525,248	-11,720	-0,063	0,030
-524,233	-155,693	-0,063	-0,003
-523,218	-100,047	-0,065	-0,012
-522,204	69,681	-0,012	0,009
-521,189	-200,000	-0,006	-0,114
-520,175	-140,480	-0,111	-0,008
-519,160	-73,714	0,104	-0,028
-518,145	34,257	0,062	-0,040
-517,131	-200,000	-0,028	0,127
-516,116	333,714	-0,038	-0,054
-515,102	-200,000	0,012	0,138
-514,087	-200,000	0,004	0,042
-513,072	-94,331	-0,115	-0,023
-512,058	800,000	-0,028	-0,072
-511,043	-95,001	-0,060	-0,012
-510,029	250,866	0,012	0,015
-509,014	-4,563	0,015	-0,008
-507,999	-50,707	-0,123	0,042
-506,985	-25,154	-0,062	-0,027
-505,970	-200,000	0,017	-0,084
-504,956	203,482	0,091	0,104
-503,941	153,466	0,074	-0,075
-502,926	-103,539	0,056	0,010
-501,912	172,654	-0,050	-0,053
-500,897	800,000	0,031	-0,076
-499,883	-200,000	0,010	-0,118
-498,868	62,322	-0,074	-0,055
-497,853	4,045	0,084	0,045
-496,839	-94,103	0,125	-0,025
-495,824	800,000	-0,044	0,091
-494,810	-116,571	0,087	0,012
-493,795	114,137	0,030	0,027
-492,781	-56,903	-0,099	-0,032
-491,766	20,054	-0,098	0,058
-490,751	-105,522	0,045	-0,008
-489,737	184,401	0,049	-0,053
-488,722	-200,000	0,015	0,068
-487,708	68,266	-0,046	-0,034
-486,693	-200,000	0,048	-0,162
-485,678	228,789	-0,015	0,018
-484,664	-200,000	0,001	0,045
-483,649	-68,122	0,067	0,019
-482,635	86,874	0,053	0,043
-481,620	800,000	-0,049	0,149
-480,605	23,439	0,076	-0,046
-479,591	800,000	-0,034	-0,096
-478,576	350,478	0,024	-0,035
-477,562	108,822	-0,157	-0,138
-476,547	-142,363	0,067	0,005
-475,532	295,019	-0,043	-0,058
-474,518	364,647	0,101	-0,151
-473,503	-200,000	0,011	0,149
-472,489	73,204	0,082	0,063
-471,474	13,904	0,076	-0,043
-470,459	-200,000	0,019	-0,146
-469,445	204,969	-0,100	-0,115
-468,430	800,000	0,045	0,109
-467,416	-93,462	0,123	0,025
-466,401	299,765	0,094	0,128
-465,386	500,713	0,036	0,062
-464,372	-176,465	-0,121	-0,002
-463,357	-61,058	0,026	0,008
-462,343	100,871	-0,093	-0,080
-461,328	-124,730	0,167	-0,019
-460,313	100,162	-0,083	0,071
-459,299	80,975	0,071	-0,056
-458,284	409,983	0,074	0,115
-457,270	800,000	0,046	0,099
-456,255	579,557	-0,065	0,118
-455,241	-35,845	-0,070	0,028
-454,226	800,000	-0,046	-0,148
-453,211	62,904	-0,061	0,045
-452,197	-80,460	0,131	0,032
-451,182	-109,239	0,060	-0,009
-450,168	-107,626	0,072	0,011
-449,153	640,718	-0,024	-0,045
-448,138	-200,000	0,029	-0,202
-447,124	141,249	-0,103	-0,100
-446,109	24,264	0,135	-0,082
-445,095	8,307	0,237	0,130
-444,080	736,318	0,069	0,137
-443,065	-200,000	0,015	0,102
-442,051	-107,417	-0,122	0,020
-441,036	-194,970	-0,061	0,000
-440,022	-95,186	0,088	-0,017
-439,007	161,435	0,081	0,084
-437,992	800,000	-0,038	0,097
-436,978	-3,855	0,165	0,084
-435,963	800,000	0,051	0,140
-434,949	79,323	0,016	0,013
-433,934	760,722	-0,038	0,076
-432,919	-200,000	-0,025	-0,126
-431,905	-200,000	0,000	0,049
-430,890	800,000	0,018	0,046
-429,876	355,103	-0,049	0,071
-428,861	-200,000	0,051	0,200
-427,846	-200,000	0,011	0,117
-426,832	389,171	-0,008	0,012
-425,817	-60,654	0,059	0,018
-424,803	276,516	-0,070	-0,092
-423,788	367,390	0,003	0,005
-422,773	28,261	0,039	-0,024
-421,759	104,827	-0,007	0,006
-420,744	73,414	-0,064	-0,049
-419,730	-152,509	-0,101	0,005
-418,715	-200,000	0,004	-0,032
-417,701	-188,313	0,098	0,001
-416,686	23,652	0,080	0,048
-415,671	800,000	0,023	0,072
-414,657	-200,000	-0,010	0,151
-413,642	-70,695	-0,195	-0,054
-412,628	174,904	0,054	-0,057
-411,613	-135,971	0,052	-0,004
-410,598	-142,429	0,021	0,002
-409,584	-200,000	-0,040	0,133
-408,569	272,744	0,051	0,066
-407,555	800,000	-0,011	-0,036
-406,540	-200,000	0,005	-0,110
-405,525	-180,637	-0,075	0,001
-404,511	796,785	0,004	0,008
-403,496	-128,640	-0,047	0,005
-402,482	291,805	0,074	0,099
-401,467	30,081	-0,055	0,034
-400,452	-200,000	0,015	0,067
-399,438	747,715	0,023	0,045
-398,423	-200,000	-0,001	0,100
-397,409	-117,350	0,104	-0,014
-396,394	151,204	-0,039	-0,039
-395,379	-141,190	-0,101	0,007
-394,365	-200,000	-0,017	0,069
-393,350	800,000	-0,032	0,075
-392,336	-200,000	-0,001	0,055
-391,321	-200,000	0,006	-0,146
-390,306	301,888	0,091	-0,124
-389,292	232,915	0,103	0,125
-388,277	-41,006	0,126	-0,047
-387,263	508,068	0,072	-0,124
-386,248	-36,400	0,102	-0,040
-385,233	800,000	0,028	0,089
-384,219	157,102	-0,078	0,079
-383,204	-16,347	-0,115	-0,053
-382,190	16,926	-0,044	-0,025
-381,175	800,000	-0,034	-0,070
-380,160	800,000	-0,051	-0,146
-379,146	-200,000	-0,006	-0,101
-378,131	800,000	-0,042	-0,094
-377,117	-151,076	-0,179	-0,010
-376,102	-6,523	-0,034	-0,017
-375,088	-20,763	0,107	0,048
-374,073	-147,266	-0,083	0,005
-373,058	166,279	0,150	-0,156
-372,044	800,000	-0,013	0,038
-371,029	-30,806	0,015	-0,006
-370,015	-137,176	0,084	0,007
-369,000	-87,169	-0,056	-0,012
-367,985	-165,116	0,145	-0,005
-366,971	330,684	-0,034	-0,048
-365,956	-200,000	0,020	-0,071
-364,942	-23,431	0,058	0,025
-363,927	-118,865	-0,021	0,003
-362,912	282,498	0,061	0,081
-361,898	-200,000	-0,000	0,024
-360,883	-200,000	-0,013	-0,092
-359,869	-60,866	-0,108	-0,033
-358,854	800,000	-0,017	0,047
-357,839	-200,000	0,008	0,041
-356,825	-22,056	-0,104	-0,046
-355,810	-200,000	0,006	-0,030
-354,796	-6,321	-0,037	0,018
-353,781	-26,149	-0,075	-0,032
-352,766	800,000	-0,010	0,030
-351,752	-200,000	0,033	0,115
-350,737	291,337	0,090	0,120
-349,723	-47,647	-0,126	0,045
-348,708	-105,069	0,020	-0,003
-347,693	-76,771	-0,078	0,020
-346,679	-189,028	0,098	-0,001
-345,664	800,000	-0,053	-0,119
-344,650	383,041	0,006	-0,010
-343,635	6,270	0,099	-0,054
-342,620	137,815	0,138	0,132
-341,606	112,403	0,016	0,014
-340,591	324,113	-0,109	-0,153
-339,577	185,233	-0,104	-0,113
-338,562	258,248	0,016	-0,020
-337,548	-200,000	0,001	0,107
-336,533	0,214	-0,054	-0,028
-335,518	103,978	0,047	-0,041
-334,504	608,817	0,043	0,079
-333,489	800,000	0,012	-0,037
-332,475	-200,000	0,021	-0,222
-331,460	-101,260	-0,160	-0,028
-330,445	72,554	0,085	0,065
-329,431	-15,151	-0,129	0,060
-328,416	-100,218	0,109	-0,020
-327,402	292,710	0,039	-0,053
-326,387	-82,953	0,155	0,036
-325,372	-200,000	-0,024	0,084
-324,358	74,347	-0,115	-0,088
-323,343	67,749	-0,046	-0,034
-322,329	-146,265	0,112	-0,007
-321,314	-67,874	0,056	0,016
-320,299	368,703	0,094	0,140
-319,285	117,092	-0,086	-0,077
-318,270	117,187	-0,073	-0,066
-317,256	-200,000	-0,006	0,056
-316,241	800,000	-0,086	-0,194
-315,226	-24,552	-0,043	0,019
-314,212	48,038	-0,028	0,019
-313,197	-200,000	0,018	-0,111
-312,183	-200,000	0,009	0,072
-311,168	-7,729	-0,074	-0,037
-310,153	279,237	0,056	0,074
-309,139	94,691	-0,036	0,030
-308,124	-88,544	-0,040	-0,009
-307,110	800,000	0,043	0,124
-306,095	800,000	0,019	0,049
-305,080	-200,000	-0,005	-0,160
-304,066	-8,593	-0,143	0,070
-303,051	96,560	-0,070	0,059
-302,037	73,092	-0,028	0,021
-301,022	94,360	0,098	0,082
-300,008	314,788	0,010	-0,014
-298,993	-122,656	-0,087	-0,010
-297,978	-87,121	0,081	-0,018
-296,964	-6,937	-0,042	0,021
-295,949	800,000	0,049	-0,128
-294,935	-20,265	0,073	-0,033
-293,920	194,334	-0,035	0,039
-292,905	-81,242	0,101	0,024
-291,891	-200,000	-0,003	-0,042
-290,876	800,000	0,018	-0,047
-289,862	-134,684	-0,087	-0,008
-288,847	105,526	-0,063	-0,055
-287,832	43,304	-0,099	0,066
-286,818	-103,253	-0,061	0,010
-285,803	-200,000	-0,017	0,084
-284,789	-200,000	0,001	0,066
-283,774	-56,969	-0,065	0,021
-282,759	800,000	0,018	-0,047
-281,745	-65,293	0,061	-0,018
-280,730	-200,000	0,046	-0,170
-279,716	-133,297	-0,116	-0,011
-278,701	-200,000	0,004	0,014
-277,686	-123,978	-0,060	0,007
-276,672	-15,783	0,035	0,016
-275,657	129,440	0,059	0,055
-274,643	-50,009	-0,105	0,036
-273,628	83,509	-0,032	0,025
-272,613	-200,000	-0,027	-0,088
-271,599	-200,000	-0,004	-0,053
-270,584	421,133	0,073	0,114
-269,570	800,000	0,056	0,115
-268,555	-200,000	0,025	0,168
-267,540	80,129	-0,081	-0,064
-266,526	-200,000	-0,028	-0,188
-265,511	43,850	-0,051	0,034
-264,497	800,000	0,028	-0,079
-263,482	-75,356	0,072	0,019
-262,467	-200,000	0,026	0,097
-261,453	9,725	-0,080	0,044
-260,438	-19,563	0,066	0,030
-259,424	-200,000	0,027	-0,143
-258,409	-132,659	-0,197	0,018
-257,395	-138,814	0,086	0,007
-256,380	800,000	-0,033	-0,093
-255,365	83,350	0,042	0,033
-254,351	-200,000	-0,007	-0,072
-253,336	227,152	0,016	-0,019
-252,322	-200,000	0,016	-0,114
-251,307	-200,000	-0,021	-0,167
-250,292	-8,193	0,106	-0,052
-249,278	81,120	0,058	-0,046
-248,263	-200,000	0,009	0,079
-247,249	106,308	0,013	0,011
-246,234	-200,000	-0,024	0,099
-245,219	-11,677	0,122	0,058
-244,205	26,809	-0,070	-0,042
-243,190	800,000	0,030	-0,081
-242,176	-200,000	-0,027	0,121
-241,161	64,195	0,012	-0,009
-240,146	-14,699	-0,069	-0,032
-239,132	53,478	-0,021	-0,015
-238,117	3,423	-0,072	-0,038
-237,103	-200,000	0,010	-0,117
-236,088	-50,783	0,131	-0,045
-235,073	62,448	0,141	0,102
-234,059	-200,000	0,001	-0,014
-233,044	-200,000	-0,018	0,066
-232,030	800,000	0,021	0,056
-231,015	-182,698	-0,199	-0,003
-230,000	45,233	0,022	-0,015
-228,986	-1,433	-0,096	-0,049
-227,971	66,392	0,040	0,029
-226,957	24,513	0,077	-0,047
-225,942	183,778	0,049	0,053
-224,927	-150,006	-0,101	0,006
-223,913	-93,195	-0,033	0,007
-222,898	-200,000	-0,013	-0,120
-221,884	-65,901	-0,119	-0,034
-220,869	-98,225	0,111	-0,021
-219,855	800,000	-0,028	0,072
-218,840	85,144	-0,081	0,065
-217,825	800,000	0,011	0,024
-216,811	-117,051	-0,061	0,008
-215,796	-140,910	-0,107	0,008
-214,782	400,966	0,030	-0,046
-213,767	191,758	0,056	0,062
-212,752	800,000	0,061	0,125
-211,738	-6,817	0,054	-0,026
-210,723	-83,505	-0,092	0,021
-209,709	800,000	-0,005	-0,012
-208,694	80,527	-0,117	-0,092
-207,679	-200,000	0,034	-0,131
-206,665	179,680	-0,092	-0,098
-205,650	-117,530	-0,035	-0,005
-204,636	26,134	-0,061	0,037
-203,621	136,678	0,100	0,095
-202,606	762,913	0,054	0,107
-201,592	-200,000	-0,010	0,110
-200,577	320,308	0,049	-0,069
-199,563	-200,000	-0,022	-0,074
-198,548	715,739	0,041	-0,079
-197,533	70,791	0,045	0,034
-196,519	167,552	0,040	-0,042
-195,504	800,000	0,044	0,093
-194,490	405,106	0,035	-0,054
-193,475	43,649	-0,067	0,045
-192,460	-115,076	0,072	0,010
-191,446	132,220	-0,062	-0,058
-190,431	527,020	0,018	0,031
-189,417	404,342	0,120	0,185
-188,402	-200,000	-0,016	0,213
-187,387	-56,934	0,080	0,025
-186,373	-200,000	0,014	0,062
-185,358	-200,000	-0,001	-0,018
-184,344	-7,960	0,060	0,029
-183,329	491,842	-0,092	0,153
-182,315	41,454	-0,101	0,067
-181,300	-100,343	-0,057	-0,010
-180,285	-58,942	-0,027	-0,008
-179,271	-200,000	0,023	-0,177
-178,256	-200,000	-0,022	0,204
-177,242	208,401	0,011	-0,012
-176,227	-22,566	0,040	0,018
-175,212	-53,891	0,063	-0,021
-174,198	800,000	-0,030	-0,072
-173,183	-200,000	-0,031	-0,120
-172,169	233,358	-0,097	-0,116
-171,154	-14,467	0,066	-0,031
-170,139	61,244	-0,055	-0,039
-169,125	668,717	-0,036	0,067
-168,110	-200,000	0,002	0,095
-167,096	800,000	0,016	-0,044
-166,081	800,000	0,005	0,013
-165,066	-142,391	-0,217	-0,015
-164,052	-200,000	0,013	-0,076
-163,037	86,160	0,031	-0,025
-162,023	89,019	0,059	-0,047
-161,008	167,434	-0,035	0,036
-159,993	360,070	-0,058	0,085
-158,979	39,018	-0,003	-0,002
-157,964	-64,772	-0,055	0,016
-156,950	-90,531	-0,103	0,021
-155,935	23,021	0,111	0,066
-154,920	800,000	0,022	0,059
-153,906	646,884	0,047	0,088
-152,891	800,000	-0,036	-0,089
-151,877	183,481	-0,111	-0,120
-150,862	-200,000	0,001	-0,010
-149,847	692,728	0,013	0,026
-148,833	800,000	0,023	-0,050
-147,818	-37,144	-0,052	0,020
-146,804	-12,246	0,195	0,092
-145,789	743,873	-0,043	0,084
-144,775	154,517	-0,014	-0,014
-143,760	-143,643	0,088	0,006
-142,745	44,772	0,116	-0,077
-141,731	279,827	-0,003	0,004
-140,716	197,559	0,060	0,067
-139,702	180,895	0,103	-0,110
-138,687	637,223	0,060	-0,111
-137,672	-6,458	0,168	-0,083
-136,658	800,000	-0,040	-0,108
-135,643	800,000	-0,046	-0,104
-134,629	-88,274	0,023	-0,005
-133,614	800,000	-0,025	0,058
-132,599	-200,000	-0,011	0,125
-131,585	-102,198	0,112	-0,019
-130,570	-200,000	-0,008	-0,041
-129,556	259,493	-0,004	-0,005
-128,541	-200,000	0,026	0,000
-127,526	-200,000	0,041	0,138
-126,512	-3,530	0,019	0,010
-125,497	193,184	0,127	-0,140
-124,483	2,889	0,049	0,026
-123,468	-200,000	-0,062	0,000
-122,453	800,000	0,022	-0,065
-121,439	268,648	-0,029	0,037
-120,424	26,158	-0,054	-0,033
-119,410	-23,649	0,152	0,066
-118,395	328,375	-0,034	-0,048
