DTS Sentinel unit serial number:	SN410029Multiplexer serial number:	ORYXHardware model number:	OX2-SRSoftware version number:	ORYX F/W v4,00 Oryx Data Collector v3.7.2.0data status	okinstallation	B6 Nyhavnadifferential loss correction	single-endedforward channel	channel 2reverse channel	N/Adate	2023/12/08time	22:15:08forward acquisition time	300,00reverse acquisition time	0,00gamma	499,1914k internal	0,3157k external	0,3157temperature offset calibration	1,0000default loss term (dB/km)	0,3820temperature slope calibration	1,0000multiplexer offset coefficient	1,0000multiplexer slope coefficient	1,0000fibre end	0,00T internal ref (°C)	15,29T ext. ref 1 (°C)	-1,14T ext. ref 2 (°C)	-1,14length (m)	temperature (°C)	Stokes	anti-Stokes-744,400	-159,589	0,175	0,007
-743,385	-176,251	-0,277	0,005
-742,371	289,997	0,053	0,071
-741,356	-65,753	-0,392	0,115
-740,342	800,000	0,051	0,113
-739,327	-83,399	-0,354	-0,083
-738,312	-106,374	0,027	-0,004
-737,298	-182,934	-0,282	-0,004
-736,283	-200,000	0,012	0,073
-735,269	-86,699	-0,134	0,030
-734,254	205,729	0,088	0,102
-733,239	-65,511	-0,570	-0,168
-732,225	-104,012	0,035	-0,006
-731,210	-200,000	0,008	0,062
-730,196	567,063	-0,049	0,088
-729,181	143,855	-0,044	-0,044
-728,167	655,572	-0,007	0,013
-727,152	-200,000	0,001	-0,098
-726,137	-64,872	-0,077	-0,023
-725,123	350,053	-0,130	-0,190
-724,108	49,770	-0,088	-0,061
-723,094	-69,540	-0,098	-0,027
-722,079	-121,436	-0,068	0,008
-721,064	-200,000	0,008	0,087
-720,050	212,527	-0,109	0,127
-719,035	-60,000	-0,086	0,027
-718,021	630,964	-0,103	-0,193
-717,006	202,340	-0,063	-0,072
-715,991	800,000	0,060	-0,163
-714,977	-200,000	-0,010	-0,067
-713,962	-19,307	0,061	0,028
-712,948	396,089	-0,085	0,131
-711,933	9,498	-0,058	-0,032
-710,918	86,715	0,028	0,022
-709,904	-76,443	-0,037	-0,010
-708,889	-200,000	-0,035	-0,169
-707,875	-44,910	0,090	0,033
-706,860	127,584	0,080	-0,075
-705,845	407,677	0,030	-0,048
-704,831	800,000	0,023	-0,054
-703,816	519,189	0,031	-0,054
-702,802	485,246	-0,048	-0,080
-701,787	800,000	0,020	-0,042
-700,772	290,433	0,008	-0,011
-699,758	418,771	-0,068	-0,108
-698,743	786,163	0,025	0,051
-697,729	268,669	-0,050	-0,064
-696,714	565,884	0,063	0,113
-695,699	-200,000	-0,032	-0,203
-694,685	800,000	-0,054	-0,130
-693,670	-152,441	-0,160	0,008
-692,656	302,531	-0,046	-0,062
-691,641	800,000	0,039	-0,092
-690,627	-178,796	0,180	0,003
-689,612	407,618	-0,105	0,163
-688,597	800,000	-0,065	-0,152
-687,583	30,260	-0,128	-0,080
-686,568	680,135	-0,091	0,175
-685,554	-200,000	0,017	0,122
-684,539	-200,000	-0,022	0,077
-683,524	-168,694	-0,056	0,002
-682,510	-136,751	0,152	-0,013
-681,495	800,000	0,038	-0,109
-680,481	325,296	-0,025	0,036
-679,466	800,000	0,074	-0,161
-678,451	800,000	-0,026	0,056
-677,437	122,751	0,052	-0,048
-676,422	-20,663	-0,074	-0,033
-675,408	-109,114	0,079	-0,012
-674,393	-93,000	-0,043	-0,009
-673,378	17,268	0,110	-0,064
-672,364	-135,942	-0,060	0,005
-671,349	650,606	0,034	-0,065
-670,335	-76,868	0,105	-0,027
-669,320	181,334	-0,025	-0,027
-668,305	800,000	0,011	-0,028
-667,291	-95,190	-0,021	-0,004
-666,276	77,166	-0,075	-0,059
-665,262	34,365	-0,046	0,029
-664,247	-126,432	-0,076	0,008
-663,232	37,244	-0,072	-0,047
-662,218	800,000	-0,013	0,031
-661,203	527,475	-0,071	-0,124
-660,189	722,365	-0,025	0,049
-659,174	249,712	-0,109	-0,137
-658,159	-200,000	0,005	-0,200
-657,145	57,270	-0,086	0,061
-656,130	159,667	-0,039	0,040
-655,116	-156,146	0,086	0,004
-654,101	-187,621	-0,064	-0,001
-653,086	-59,341	-0,066	-0,021
-652,072	206,274	0,060	0,068
-651,057	-72,288	-0,113	-0,031
-650,043	-200,000	-0,025	-0,131
-649,028	364,254	-0,071	-0,105
-648,014	-68,952	0,136	-0,038
-646,999	-103,754	0,033	0,006
-645,984	-141,424	-0,108	0,008
-644,970	-200,000	-0,024	-0,096
-643,955	115,172	-0,025	-0,023
-642,941	-200,000	0,023	0,083
-641,926	375,239	0,046	-0,069
-640,911	-200,000	0,002	-0,021
-639,897	-84,046	-0,045	0,011
-638,882	2,171	0,043	0,023
-637,868	800,000	0,013	0,029
-636,853	89,499	-0,019	0,015
-635,838	-200,000	0,026	0,146
-634,824	-38,291	-0,069	0,027
-633,809	385,249	-0,088	0,134
-632,795	372,342	0,021	0,031
-631,780	205,012	-0,053	-0,060
-630,765	-200,000	-0,051	0,188
-629,751	152,782	-0,074	0,074
-628,736	68,443	-0,087	-0,065
-627,722	183,059	-0,015	-0,016
-626,707	800,000	0,019	-0,039
-625,692	800,000	-0,068	-0,218
-624,678	278,343	-0,100	-0,132
-623,663	800,000	0,050	-0,128
-622,649	51,207	-0,024	-0,017
-621,634	800,000	0,006	0,013
-620,619	26,634	0,068	-0,041
-619,605	-120,225	0,052	0,006
-618,590	535,087	0,074	0,130
-617,576	164,066	0,051	-0,053
-616,561	60,114	-0,125	-0,090
-615,546	800,000	-0,024	-0,060
-614,532	311,033	-0,063	-0,087
-613,517	62,308	0,082	0,060
-612,503	-122,601	-0,074	0,009
-611,488	-200,000	0,021	-0,080
-610,474	297,006	0,055	-0,074
-609,459	37,806	-0,020	0,013
-608,444	800,000	-0,032	-0,094
-607,430	-115,241	-0,052	-0,007
-606,415	800,000	0,016	-0,044
-605,401	256,488	0,115	0,145
-604,386	-142,307	0,097	0,007
-603,371	792,942	0,056	-0,113
-602,357	-200,000	-0,008	-0,084
-601,342	-200,000	-0,022	-0,081
-600,328	144,611	-0,008	0,008
-599,313	-200,000	-0,014	0,090
-598,298	216,410	-0,038	0,045
-597,284	800,000	0,023	0,056
-596,269	800,000	-0,046	0,137
-595,255	-200,000	0,009	0,046
-594,240	642,871	0,020	0,037
-593,225	-200,000	0,000	-0,069
-592,211	92,998	0,127	0,105
-591,196	-99,061	-0,035	0,006
-590,182	409,623	-0,071	-0,110
-589,167	222,167	0,093	-0,109
-588,152	-200,000	-0,019	0,068
-587,138	-200,000	0,009	0,034
-586,123	81,867	-0,070	-0,055
-585,109	-36,831	-0,112	-0,044
-584,094	135,416	-0,048	-0,046
-583,079	-7,785	0,106	0,052
-582,065	337,897	-0,081	0,116
-581,050	130,398	0,086	-0,081
-580,036	347,175	-0,085	-0,123
-579,021	-200,000	-0,017	-0,108
-578,006	-84,705	0,053	0,012
-576,992	-25,601	-0,066	0,028
-575,977	356,431	-0,092	0,134
-574,963	2,117	0,181	-0,095
-573,948	159,812	0,049	-0,050
-572,934	134,341	-0,110	-0,105
-571,919	438,573	0,026	0,041
-570,904	-200,000	-0,011	-0,077
-569,890	-200,000	-0,031	-0,118
-568,875	-55,105	-0,080	0,026
-567,861	215,407	0,097	0,113
-566,846	382,286	0,072	0,108
-565,831	-200,000	-0,013	-0,083
-564,817	133,407	-0,175	-0,166
-563,802	-200,000	-0,001	-0,053
-562,788	-6,921	-0,025	0,012
-561,773	397,773	0,094	-0,144
-560,758	800,000	-0,054	0,129
-559,744	334,551	-0,077	-0,109
-558,729	64,859	0,087	-0,064
-557,715	-52,706	-0,101	0,034
-556,700	-200,000	0,005	0,046
-555,685	0,485	-0,038	-0,020
-554,671	379,461	-0,037	0,056
-553,656	-12,243	0,093	-0,044
-552,642	800,000	-0,045	0,093
-551,627	283,877	-0,048	0,063
-550,612	-200,000	-0,006	-0,123
-549,598	39,362	-0,071	0,046
-548,583	311,255	0,061	-0,084
-547,569	-139,428	-0,029	-0,002
-546,554	800,000	0,020	-0,045
-545,539	219,958	-0,061	0,071
-544,525	-19,944	-0,088	0,040
-543,510	-200,000	0,013	0,082
-542,496	-200,000	-0,008	0,046
-541,481	490,944	-0,044	-0,074
-540,466	165,724	-0,087	0,090
-539,452	-200,000	0,002	-0,056
-538,437	-200,000	0,001	0,015
-537,423	-200,000	-0,015	-0,069
-536,408	153,664	0,122	0,122
-535,393	559,081	-0,054	0,095
-534,379	-200,000	-0,005	-0,133
-533,364	388,175	-0,079	0,120
-532,350	272,336	-0,069	-0,089
-531,335	130,074	-0,025	-0,024
-530,321	15,972	0,091	-0,053
-529,306	-136,214	-0,088	-0,007
-528,291	-200,000	0,010	-0,095
-527,277	800,000	0,026	-0,078
-526,262	403,882	-0,077	-0,119
-525,248	-15,652	0,026	0,012
-524,233	646,820	0,030	-0,056
-523,218	-49,876	-0,168	-0,058
-522,204	-200,000	-0,009	-0,039
-521,189	412,189	0,059	0,092
-520,175	-200,000	-0,013	-0,156
-519,160	-121,073	-0,118	-0,014
-518,145	800,000	-0,057	0,174
-517,131	-200,000	-0,029	0,132
-516,116	800,000	-0,060	-0,126
-515,102	-32,100	0,107	-0,043
-514,087	800,000	0,028	0,088
-513,072	800,000	-0,058	-0,157
-512,058	-200,000	0,014	-0,122
-511,043	-140,841	0,139	0,010
-510,029	37,639	-0,077	0,050
-509,014	800,000	0,017	0,045
-507,999	-200,000	-0,013	0,053
-506,985	-17,216	-0,118	-0,054
-505,970	210,328	0,061	-0,070
-504,956	-112,970	-0,042	-0,006
-503,941	88,502	0,042	0,034
-502,926	-63,844	0,013	-0,004
-501,912	230,591	0,077	0,092
-500,897	181,143	0,124	0,133
-499,883	269,551	-0,100	-0,129
-498,868	-18,486	-0,062	0,028
-497,853	44,041	0,054	0,036
-496,839	100,794	-0,047	0,040
-495,824	800,000	-0,087	-0,184
-494,810	-200,000	-0,000	-0,018
-493,795	-69,677	-0,045	-0,013
-492,781	187,977	-0,081	-0,089
-491,766	-159,772	-0,191	-0,008
-490,751	-20,723	0,171	-0,076
-489,737	-112,245	-0,122	0,018
-488,722	-51,141	0,053	0,018
-487,708	-28,996	0,053	-0,022
-486,693	74,167	-0,047	-0,036
-485,678	-128,346	-0,041	-0,004
-484,664	308,049	0,056	0,076
-483,649	115,336	-0,042	-0,037
-482,635	23,716	-0,018	0,011
-481,620	159,488	0,073	0,074
-480,605	-200,000	-0,039	-0,196
-479,591	-200,000	0,029	-0,153
-478,576	-93,820	0,131	-0,026
-477,562	157,237	0,089	-0,089
-476,547	-200,000	-0,004	-0,111
-475,532	800,000	0,031	-0,062
-474,518	-200,000	0,018	0,073
-473,503	-200,000	-0,001	0,029
-472,489	-139,372	0,160	0,012
-471,474	800,000	0,002	-0,007
-470,459	-94,776	-0,210	-0,041
-469,445	-128,279	0,041	-0,004
-468,430	179,725	0,049	0,053
-467,416	-200,000	-0,022	-0,095
-466,401	-85,423	0,192	-0,043
-465,386	56,975	0,113	-0,080
-464,372	89,657	0,104	0,084
-463,357	-50,609	-0,108	-0,037
-462,343	-200,000	-0,001	0,020
-461,328	-200,000	0,005	0,072
-460,313	-65,061	0,084	0,025
-459,299	-200,000	0,010	0,048
-458,284	211,767	0,092	0,106
-457,270	-129,257	0,046	-0,005
-456,255	-200,000	-0,029	0,125
-455,241	748,836	0,026	-0,051
-454,226	800,000	-0,058	-0,123
-453,211	79,112	-0,043	-0,034
-452,197	73,661	0,090	0,069
-451,182	-200,000	0,009	0,041
-450,168	-122,478	0,030	-0,004
-449,153	220,631	0,138	-0,162
-448,138	-5,953	-0,155	-0,077
-447,124	-127,052	-0,080	-0,008
-446,109	-8,721	-0,014	0,007
-445,095	-200,000	0,003	0,042
-444,080	26,896	0,107	-0,065
-443,065	109,776	-0,071	0,062
-442,051	22,720	-0,038	0,023
-441,036	-66,766	-0,067	0,019
-440,022	-41,170	-0,117	-0,044
-439,007	13,734	0,133	0,075
-437,992	130,329	0,086	0,081
-436,978	332,245	0,021	-0,029
-435,963	21,406	0,069	-0,041
-434,949	684,777	0,011	0,021
-433,934	81,250	-0,014	-0,011
-432,919	-8,416	-0,114	-0,056
-431,905	125,902	0,045	-0,042
-430,890	-200,000	-0,009	-0,059
-429,876	186,294	0,091	0,099
-428,861	-200,000	0,003	0,090
-427,846	-200,000	0,003	-0,127
-426,832	190,260	-0,088	0,097
-425,817	526,934	-0,060	-0,104
-424,803	800,000	-0,011	-0,028
-423,788	215,540	-0,043	0,050
-422,773	781,447	0,029	0,059
-421,759	372,601	0,085	-0,126
-420,744	-61,103	-0,127	-0,039
-419,730	-200,000	-0,027	-0,194
-418,715	-140,252	-0,076	-0,006
-417,701	93,866	0,099	-0,082
-416,686	522,181	0,065	0,111
-415,671	800,000	0,038	0,113
-414,657	-97,911	0,107	0,020
-413,642	247,319	0,087	-0,107
-412,628	-200,000	0,012	-0,044
-411,613	-200,000	-0,005	-0,056
-410,598	-24,517	-0,049	-0,021
-409,584	-200,000	-0,018	-0,138
-408,569	172,136	-0,052	-0,055
-407,555	-200,000	0,023	0,120
-406,540	-200,000	0,007	-0,067
-405,525	169,610	0,063	-0,065
-404,511	-73,946	-0,046	-0,012
-403,496	669,214	0,043	0,082
-402,482	-200,000	0,019	0,073
-401,467	-200,000	-0,001	-0,089
-400,452	-200,000	-0,006	0,102
-399,438	-200,000	-0,007	0,033
-398,423	195,450	-0,016	0,018
-397,409	32,379	0,049	0,031
-396,394	553,722	0,028	0,048
-395,379	-200,000	0,020	-0,219
-394,365	77,777	0,036	-0,028
-393,350	54,576	0,047	0,033
-392,336	72,566	-0,067	0,051
-391,321	-120,386	0,050	0,006
-390,306	-200,000	-0,006	-0,030
-389,292	-200,000	0,002	0,039
-388,277	-200,000	0,012	-0,138
-387,263	-200,000	0,014	-0,048
-386,248	-136,780	0,140	0,012
-385,233	155,258	0,082	0,082
-384,219	-200,000	0,009	0,092
-383,204	-200,000	-0,009	-0,178
-382,190	800,000	0,026	0,072
-381,175	-200,000	-0,003	-0,032
-380,160	-200,000	0,014	0,080
-379,146	13,015	-0,007	0,004
-378,131	178,020	0,081	0,086
-377,117	53,422	-0,064	-0,045
-376,102	-104,253	0,026	-0,004
-375,088	56,601	-0,088	-0,062
-374,073	185,167	-0,038	-0,041
-373,058	-94,239	0,133	-0,026
-372,044	-57,351	-0,067	0,021
-371,029	800,000	0,082	0,201
-370,015	152,627	-0,070	0,070
-369,000	695,303	-0,056	0,106
-367,985	800,000	0,051	0,126
-366,971	38,182	-0,103	0,067
-365,956	-73,417	-0,058	0,015
-364,942	-200,000	0,035	0,169
-363,927	-200,000	0,006	-0,159
-362,912	65,244	0,049	-0,036
-361,898	18,031	-0,105	0,061
-360,883	-200,000	0,000	-0,017
-359,869	9,836	-0,074	0,041
-358,854	-153,484	-0,061	-0,003
-357,839	-200,000	0,001	-0,070
-356,825	-200,000	-0,021	0,071
-355,810	59,264	0,039	0,028
-354,796	369,299	0,024	0,036
-353,781	107,950	0,043	-0,037
-352,766	139,085	-0,079	-0,076
-351,752	-200,000	-0,003	0,070
-350,737	-136,315	-0,024	-0,002
-349,723	253,567	-0,007	-0,008
-348,708	124,028	-0,065	-0,059
-347,693	-200,000	0,018	-0,070
-346,679	-13,556	0,156	-0,073
-345,664	13,679	-0,019	0,011
-344,650	101,052	0,060	-0,051
-343,635	-200,000	0,000	0,075
-342,620	-54,799	-0,091	-0,030
-341,606	-84,416	-0,092	0,021
-340,591	-125,883	-0,146	-0,016
-339,577	5,297	-0,068	0,036
-338,562	-200,000	0,041	0,137
-337,548	-180,968	0,056	0,001
-336,533	800,000	-0,081	0,175
-335,518	-8,837	0,021	-0,010
-334,504	-28,054	-0,032	-0,013
-333,489	-26,450	0,007	0,003
-332,475	-200,000	-0,029	0,135
-331,460	800,000	0,042	0,095
-330,445	776,581	-0,043	-0,085
-329,431	800,000	0,035	-0,082
-328,416	-64,157	0,159	0,047
-327,402	148,172	-0,070	0,069
-326,387	141,391	-0,065	0,062
-325,372	-128,197	-0,092	-0,009
-324,358	375,323	-0,065	-0,097
-323,343	-62,450	0,120	0,036
-322,329	800,000	-0,062	0,132
-321,314	-200,000	-0,039	0,124
-320,299	244,187	-0,066	0,081
-319,285	158,235	0,038	-0,038
-318,270	6,808	0,057	-0,031
-317,256	38,859	0,015	0,010
-316,241	800,000	-0,044	0,097
-315,226	-200,000	-0,012	0,093
-314,212	800,000	0,067	0,170
-313,197	259,959	0,053	0,066
-312,183	96,246	-0,056	-0,046
-311,168	-186,059	0,048	-0,001
-310,153	-200,000	-0,022	0,103
-309,139	-29,457	-0,202	-0,084
-308,124	451,003	-0,018	0,029
-307,110	800,000	-0,027	0,063
-306,095	-73,218	-0,084	0,022
-305,080	177,399	-0,075	0,080
-304,066	34,956	0,044	0,028
-303,051	3,791	-0,032	-0,017
-302,037	-59,483	-0,021	0,007
-301,022	-111,220	0,050	0,007
-300,008	-8,653	0,046	0,022
-298,993	-200,000	0,012	0,177
-297,978	5,139	-0,109	0,058
-296,964	415,864	-0,022	-0,034
-295,949	148,937	-0,030	0,030
-294,935	-200,000	0,013	0,063
-293,920	-1,264	0,054	0,027
-292,905	69,622	0,149	0,111
-291,891	-200,000	0,002	0,132
-290,876	-200,000	0,009	-0,056
-289,862	52,503	0,098	-0,068
-288,847	91,183	-0,066	-0,054
-287,832	14,500	-0,040	0,023
-286,818	-163,821	-0,022	-0,001
-285,803	-200,000	0,013	0,125
-284,789	-200,000	-0,015	0,090
-283,774	158,721	0,059	-0,059
-282,759	800,000	0,041	0,104
-281,745	-200,000	-0,016	-0,138
-280,730	344,277	0,021	-0,030
-279,716	394,254	-0,050	0,076
-278,701	-200,000	-0,001	-0,084
-277,686	152,663	0,044	0,044
-276,672	-116,154	0,123	-0,016
-275,657	-200,000	0,028	0,102
-274,643	-200,000	0,033	-0,158
-273,628	-200,000	-0,027	-0,131
-272,613	-118,587	-0,087	-0,011
-271,599	800,000	0,041	0,087
-270,584	-1,288	0,048	0,024
-269,570	50,175	0,114	0,078
-268,555	16,169	0,066	0,038
-267,540	-200,000	-0,026	-0,106
-266,526	-46,260	0,024	-0,008
-265,511	-200,000	-0,044	-0,142
-264,497	-200,000	0,017	-0,065
-263,482	-82,236	0,117	-0,027
-262,467	86,672	0,066	0,053
-261,453	800,000	0,027	-0,060
-260,438	-26,023	0,127	0,054
-259,424	-200,000	-0,002	0,075
-258,409	231,581	-0,027	-0,032
-257,395	800,000	-0,016	-0,038
-256,380	-200,000	0,076	-0,000
-255,365	1,553	-0,062	0,032
-254,351	295,636	0,035	-0,047
-253,336	54,534	0,072	-0,050
-252,322	7,357	-0,123	-0,066
-251,307	800,000	0,036	-0,093
-250,292	-200,000	0,001	-0,028
-249,278	-55,022	0,071	0,023
-248,263	138,918	0,169	0,161
-247,249	800,000	0,054	0,119
-246,234	-200,000	0,020	0,087
-245,219	-200,000	0,005	0,020
-244,205	-18,998	0,092	0,041
-243,190	-200,000	0,009	-0,058
-242,176	-24,957	0,126	0,054
-241,161	800,000	0,045	0,137
-240,146	50,234	0,084	0,057
-239,132	-57,454	-0,055	0,017
-238,117	-200,000	-0,006	-0,024
-237,103	-147,773	0,100	0,006
-236,088	-200,000	0,022	0,091
-235,073	102,589	-0,025	-0,021
-234,059	93,557	0,120	-0,098
-233,044	-200,000	-0,010	0,171
-232,030	-77,995	-0,030	-0,007
-231,015	-200,000	0,010	0,097
-230,000	184,694	0,054	0,058
-228,986	800,000	0,054	-0,125
-227,971	800,000	0,032	0,088
-226,957	800,000	0,016	-0,040
-225,942	800,000	-0,055	0,128
-224,927	-112,656	-0,064	0,009
-223,913	-200,000	0,013	-0,147
-222,898	-200,000	-0,015	-0,179
-221,884	-48,625	-0,079	-0,027
-220,869	800,000	0,042	0,119
-219,855	641,926	0,053	-0,097
-218,840	-200,000	0,029	-0,235
-217,825	21,729	0,147	-0,086
-216,811	-37,861	-0,118	-0,045
-215,796	800,000	0,038	-0,094
-214,782	36,740	-0,087	-0,055
-213,767	29,721	-0,100	0,062
-212,752	-200,000	-0,004	0,089
-211,738	76,878	-0,146	0,112
-210,723	23,654	0,188	0,112
-209,709	349,238	-0,040	-0,057
-208,694	-75,954	-0,202	0,051
-207,679	194,817	-0,052	-0,057
-206,665	800,000	-0,030	0,063
-205,650	-125,388	0,118	-0,013
-204,636	-200,000	-0,042	0,167
-203,621	-64,544	-0,116	0,034
-202,606	-57,478	0,039	0,012
-201,592	-200,000	-0,005	-0,111
-200,577	800,000	-0,018	0,053
-199,563	800,000	0,029	0,069
-198,548	189,302	0,057	0,062
-197,533	776,540	-0,022	0,044
-196,519	-96,274	-0,055	0,010
-195,504	800,000	-0,086	0,182
-194,490	800,000	0,007	-0,019
-193,475	325,404	0,022	0,030
-192,460	800,000	0,038	-0,115
-191,446	-200,000	-0,024	-0,134
-190,431	121,012	0,082	0,073
-189,417	800,000	0,033	0,096
-188,402	-200,000	0,014	-0,162
-187,387	-200,000	-0,029	0,144
-186,373	4,810	-0,070	-0,037
-185,358	-200,000	0,045	-0,150
-184,344	800,000	-0,036	-0,075
-183,329	-200,000	0,030	0,118
-182,315	-200,000	-0,025	0,090
-181,300	-20,241	-0,042	-0,018
-180,285	-17,905	-0,117	-0,053
-179,271	800,000	-0,076	-0,219
-178,256	800,000	-0,056	-0,177
-177,242	-114,518	0,056	0,008
-176,227	-200,000	-0,008	-0,130
-175,212	800,000	-0,049	0,114
-174,198	35,006	-0,024	-0,015
-173,183	588,186	-0,029	0,052
-172,169	210,763	0,081	0,092
-171,154	111,837	0,111	-0,097
-170,139	452,399	-0,042	-0,067
-169,125	800,000	0,031	0,089
-168,110	33,722	0,090	0,056
-167,096	118,055	0,101	0,089
-166,081	-200,000	0,001	-0,007
-165,066	505,696	-0,063	-0,106
-164,052	-200,000	0,001	0,031
-163,037	203,435	-0,011	-0,012
-162,023	-200,000	0,008	0,060
-161,008	-124,061	-0,141	0,016
-159,993	-200,000	0,019	0,072
-158,979	-200,000	0,007	0,100
-157,964	-103,185	0,095	-0,016
-156,950	-52,560	-0,121	-0,040
-155,935	132,718	0,071	0,066
-154,920	-15,335	-0,033	0,015
-153,906	800,000	-0,013	0,034
-152,891	56,069	0,063	0,044
-151,877	800,000	0,010	0,029
-150,862	-13,791	-0,141	-0,065
-149,847	-87,178	-0,078	0,017
-148,833	60,340	0,020	0,014
-147,818	-64,274	0,074	0,022
-146,804	86,596	-0,094	0,075
-145,789	194,298	-0,035	-0,038
-144,775	246,448	0,033	-0,040
-143,760	800,000	0,048	0,106
-142,745	-200,000	-0,007	-0,158
-141,731	-79,905	0,178	-0,043
-140,716	212,929	0,073	-0,083
-139,702	-38,548	-0,093	0,035
-138,687	302,190	0,072	-0,096
-137,672	123,753	-0,062	0,056
-136,658	132,285	-0,060	-0,056
-135,643	127,765	0,040	-0,037
-134,629	-200,000	-0,011	-0,042
-133,614	256,782	0,055	0,068
-132,599	800,000	-0,073	0,177
-131,585	-200,000	-0,003	0,024
-130,570	188,243	-0,064	-0,069
-129,556	800,000	-0,007	-0,016
-128,541	800,000	-0,063	-0,150
-127,526	-158,742	0,142	0,006
-126,512	-88,571	0,032	-0,007
-125,497	-42,316	-0,082	0,030
-124,483	55,158	-0,077	0,053
-123,468	-98,030	0,100	0,018
-122,453	-33,761	-0,118	-0,047
-121,439	228,066	-0,032	-0,037
-120,424	276,555	-0,061	0,079
-119,410	-200,000	0,010	0,063
