DTS Sentinel unit serial number:	SN410029Multiplexer serial number:	ORYXHardware model number:	OX2-SRSoftware version number:	ORYX F/W v4,00 Oryx Data Collector v3.7.2.0data status	okinstallation	B6 Nyhavnadifferential loss correction	single-endedforward channel	channel 2reverse channel	N/Adate	2023/12/09time	05:05:08forward acquisition time	300,00reverse acquisition time	0,00gamma	499,1914k internal	0,3144k external	0,3144temperature offset calibration	1,0000default loss term (dB/km)	0,3820temperature slope calibration	1,0000multiplexer offset coefficient	1,0000multiplexer slope coefficient	1,0000fibre end	0,00T internal ref (°C)	17,59T ext. ref 1 (°C)	2,13T ext. ref 2 (°C)	2,14length (m)	temperature (°C)	Stokes	anti-Stokes-744,400	-200,000	0,039	-0,169
-743,385	-137,502	-0,304	0,025
-742,371	-91,727	0,117	0,024
-741,356	-28,080	-0,305	0,130
-740,342	-19,017	0,131	-0,060
-739,327	-159,032	-0,316	0,013
-738,312	535,898	0,053	-0,094
-737,298	-111,468	-0,341	-0,051
-736,283	-29,298	-0,015	-0,006
-735,269	-114,400	-0,393	0,055
-734,254	-84,589	0,056	0,013
-733,239	-136,211	-0,288	-0,025
-732,225	3,153	0,115	0,062
-731,210	136,965	0,046	-0,044
-730,196	-88,033	0,061	0,014
-729,181	505,128	-0,042	-0,073
-728,167	800,000	0,038	0,093
-727,152	783,064	-0,010	-0,020
-726,137	800,000	0,033	0,100
-725,123	1,039	-0,093	0,049
-724,108	78,192	-0,111	-0,088
-723,094	626,888	-0,157	-0,294
-722,079	655,736	-0,062	-0,118
-721,064	752,819	-0,004	-0,008
-720,050	439,180	-0,072	0,117
-719,035	-64,721	0,100	-0,030
-718,021	-18,539	-0,101	0,046
-717,006	-27,461	-0,156	-0,067
-715,991	259,411	-0,078	-0,100
-714,977	800,000	0,053	-0,137
-713,962	294,043	0,025	-0,034
-712,948	-41,090	-0,135	-0,051
-711,933	-12,348	0,050	0,024
-710,918	-28,305	-0,093	0,039
-709,904	64,189	0,063	0,047
-708,889	42,730	-0,175	-0,118
-707,875	483,825	0,061	-0,104
-706,860	254,679	0,072	0,091
-705,845	88,289	0,019	-0,016
-704,831	298,510	0,048	0,065
-703,816	-95,581	0,018	0,004
-702,802	-200,000	0,020	0,108
-701,787	-200,000	0,000	0,143
-700,772	-90,044	-0,165	-0,035
-699,758	-200,000	-0,020	0,092
-698,743	-200,000	-0,025	-0,112
-697,729	326,024	-0,046	-0,065
-696,714	-19,652	0,120	-0,055
-695,699	248,967	-0,074	-0,093
-694,685	-200,000	-0,001	-0,108
-693,670	-200,000	-0,014	0,050
-692,656	136,048	0,127	0,122
-691,641	9,243	-0,084	0,047
-690,627	800,000	0,041	0,095
-689,612	-131,139	0,153	-0,015
-688,597	-200,000	-0,028	-0,103
-687,583	-125,306	-0,126	0,014
-686,568	623,528	-0,084	-0,157
-685,554	7,227	-0,064	-0,035
-684,539	-116,871	0,087	-0,012
-683,524	280,005	-0,106	0,140
-682,510	-74,614	0,060	-0,016
-681,495	110,047	-0,061	0,054
-680,481	-84,286	-0,110	-0,026
-679,466	-94,656	0,057	-0,011
-678,451	229,797	0,079	0,096
-677,437	800,000	-0,031	0,064
-676,422	-68,023	-0,077	0,022
-675,408	-22,191	0,171	-0,076
-674,393	800,000	0,009	0,025
-673,378	-106,821	-0,095	0,015
-672,364	341,285	-0,073	-0,106
-671,349	12,809	-0,134	-0,077
-670,335	-111,625	-0,061	-0,009
-669,320	-110,197	0,089	-0,014
-668,305	800,000	-0,038	0,100
-667,291	22,122	-0,088	0,053
-666,276	81,571	0,124	-0,099
-665,262	800,000	-0,023	-0,064
-664,247	-54,377	0,043	-0,014
-663,232	800,000	-0,003	0,008
-662,218	-200,000	-0,028	0,251
-661,203	-12,168	-0,026	-0,013
-660,189	-46,129	-0,086	0,031
-659,174	800,000	0,011	-0,031
-658,159	800,000	-0,009	0,027
-657,145	182,998	-0,080	0,088
-656,130	-200,000	-0,026	0,146
-655,116	255,451	0,063	0,079
-654,101	455,062	0,067	0,109
-653,086	478,521	-0,014	0,023
-652,072	-101,152	0,130	-0,023
-651,057	135,416	0,022	0,021
-650,043	-57,262	-0,085	0,027
-649,028	73,822	-0,063	-0,049
-648,014	-62,333	0,162	0,049
-646,999	800,000	-0,003	-0,010
-645,984	-100,299	0,077	-0,014
-644,970	-200,000	-0,002	-0,032
-643,955	116,845	-0,088	-0,080
-642,941	483,440	0,025	0,042
-641,926	-182,149	-0,045	-0,001
-640,911	72,240	-0,035	0,026
-639,897	-200,000	0,009	-0,063
-638,882	800,000	0,059	0,152
-637,868	-130,176	-0,051	-0,005
-636,853	-69,542	-0,113	0,032
-635,838	165,300	-0,129	-0,134
-634,824	800,000	-0,023	0,055
-633,809	-55,267	-0,030	0,010
-632,795	-116,239	0,070	0,009
-631,780	-176,088	-0,173	0,003
-630,765	-13,388	0,052	0,025
-629,751	-200,000	0,011	-0,079
-628,736	253,247	-0,045	0,057
-627,722	257,766	-0,099	-0,126
-626,707	55,866	0,093	-0,066
-625,692	-200,000	0,028	-0,091
-624,678	693,802	-0,056	0,108
-623,663	-187,783	-0,108	0,001
-622,649	800,000	0,033	0,103
-621,634	157,587	-0,030	0,030
-620,619	462,952	-0,065	-0,108
-619,605	-115,285	-0,059	-0,008
-618,590	-67,965	0,094	-0,027
-617,576	-200,000	0,000	0,064
-616,561	70,849	-0,080	-0,061
-615,546	800,000	-0,010	0,023
-614,532	800,000	-0,049	-0,155
-613,517	-200,000	0,018	-0,100
-612,503	36,185	0,045	-0,029
-611,488	229,124	0,126	0,151
-610,474	800,000	-0,040	0,098
-609,459	-102,515	-0,046	0,008
-608,444	-156,953	-0,213	0,009
-607,430	-110,598	0,061	-0,009
-606,415	-76,411	-0,141	-0,036
-605,401	800,000	-0,009	0,023
-604,386	-200,000	0,007	-0,049
-603,371	-200,000	-0,038	0,126
-602,357	177,706	-0,111	0,119
-601,342	-37,340	0,017	0,007
-600,328	66,747	0,136	-0,102
-599,313	2,611	-0,163	0,087
-598,298	-37,195	0,054	-0,021
-597,284	128,952	-0,109	0,102
-596,269	300,112	0,100	0,136
-595,255	180,103	0,145	0,156
-594,240	-54,359	0,083	-0,028
-593,225	628,182	-0,074	-0,139
-592,211	-59,281	0,058	0,018
-591,196	-200,000	-0,007	0,055
-590,182	-200,000	-0,008	0,048
-589,167	-200,000	0,027	-0,091
-588,152	-83,665	0,042	-0,010
-587,138	-200,000	-0,009	0,106
-586,123	11,568	-0,085	0,048
-585,109	-200,000	0,001	-0,087
-584,094	-200,000	0,028	0,140
-583,079	8,651	-0,050	0,028
-582,065	-75,531	-0,020	0,005
-581,050	57,832	-0,055	-0,040
-580,036	524,201	-0,038	-0,065
-579,021	-200,000	-0,000	-0,017
-578,006	430,896	-0,060	-0,095
-576,992	800,000	-0,041	-0,096
-575,977	67,064	-0,041	-0,031
-574,963	127,132	-0,057	0,053
-573,948	-200,000	0,011	0,118
-572,934	703,655	-0,029	-0,056
-571,919	132,827	0,107	-0,101
-570,904	-14,450	0,052	-0,024
-569,890	800,000	-0,038	0,102
-568,875	-86,341	-0,125	0,028
-567,861	457,169	-0,046	0,075
-566,846	800,000	-0,016	0,050
-565,831	81,251	-0,032	0,025
-564,817	114,160	-0,064	-0,057
-563,802	292,161	0,080	-0,108
-562,788	95,807	-0,076	0,064
-561,773	-200,000	0,004	0,024
-560,758	737,085	-0,010	0,020
-559,744	-38,912	0,018	-0,007
-558,729	57,667	0,067	0,048
-557,715	-2,684	-0,141	0,072
-556,700	-128,791	-0,023	0,002
-555,685	33,884	-0,091	-0,058
-554,671	800,000	0,025	0,070
-553,656	-131,945	0,118	0,011
-552,642	366,023	-0,074	0,110
-551,627	-200,000	-0,014	-0,090
-550,612	510,912	-0,072	0,124
-549,598	800,000	0,025	0,067
-548,583	800,000	-0,010	-0,025
-547,569	-200,000	-0,036	-0,195
-546,554	124,974	-0,069	-0,064
-545,539	800,000	0,052	0,130
-544,525	225,307	0,076	0,090
-543,510	377,680	-0,073	0,110
-542,496	344,286	0,066	-0,095
-541,481	226,963	-0,071	-0,085
-540,466	-200,000	0,003	-0,198
-539,452	-200,000	0,017	-0,084
-538,437	-111,188	0,135	0,020
-537,423	800,000	-0,032	-0,067
-536,408	-43,979	-0,055	0,020
-535,393	369,526	-0,039	-0,059
-534,379	800,000	-0,021	-0,054
-533,364	180,610	0,066	-0,071
-532,350	213,964	0,018	0,021
-531,335	-131,541	0,117	0,011
-530,321	67,735	0,117	0,088
-529,306	-124,580	-0,080	-0,009
-528,291	-67,705	0,047	-0,013
-527,277	340,020	-0,050	0,072
-526,262	-200,000	0,023	-0,105
-525,248	-34,734	-0,072	0,029
-524,233	61,269	-0,080	0,058
-523,218	59,024	0,079	0,057
-522,204	416,347	-0,023	0,037
-521,189	-60,256	0,065	0,020
-520,175	800,000	0,055	-0,172
-519,160	-93,885	-0,120	0,024
-518,145	2,049	0,139	-0,073
-517,131	-164,481	0,050	0,002
-516,116	171,601	0,071	0,075
-515,102	800,000	0,042	0,092
-514,087	-200,000	-0,050	-0,173
-513,072	800,000	0,048	0,098
-512,058	-97,296	0,075	0,014
-511,043	177,882	0,064	-0,069
-510,029	12,824	0,092	0,052
-509,014	-81,370	-0,093	-0,022
-507,999	22,415	0,043	-0,026
-506,985	72,468	-0,048	0,037
-505,970	800,000	0,027	-0,057
-504,956	426,058	-0,022	0,036
-503,941	-37,909	0,095	-0,037
-502,926	-134,669	0,071	0,006
-501,912	23,999	-0,053	-0,032
-500,897	800,000	-0,017	0,051
-499,883	-45,958	-0,037	-0,013
-498,868	800,000	-0,018	0,044
-497,853	-200,000	-0,008	-0,033
-496,839	-25,789	0,067	-0,029
-495,824	800,000	-0,087	-0,218
-494,810	-43,469	0,075	-0,028
-493,795	3,731	0,040	-0,021
-492,781	16,555	-0,080	-0,046
-491,766	800,000	-0,034	-0,095
-490,751	800,000	0,042	-0,112
-489,737	6,290	0,021	0,011
-488,722	9,195	0,093	0,051
-487,708	-65,484	0,098	0,029
-486,693	-56,460	-0,030	-0,010
-485,678	117,496	0,070	0,063
-484,664	260,280	-0,044	0,056
-483,649	-200,000	0,043	-0,144
-482,635	-11,242	-0,055	-0,026
-481,620	-78,355	0,224	-0,056
-480,605	-200,000	0,028	0,127
-479,591	800,000	-0,032	0,079
-478,576	669,667	0,026	0,049
-477,562	23,844	0,150	-0,091
-476,547	-200,000	-0,017	-0,107
-475,532	382,920	-0,024	-0,036
-474,518	-200,000	0,014	-0,189
-473,503	770,903	-0,061	0,122
-472,489	-81,621	0,035	-0,008
-471,474	64,917	0,025	0,019
-470,459	150,772	0,081	-0,080
-469,445	-200,000	0,017	-0,124
-468,430	800,000	-0,063	-0,154
-467,416	-200,000	0,012	-0,079
-466,401	800,000	-0,054	-0,113
-465,386	50,225	-0,039	0,027
-464,372	-33,498	-0,112	-0,045
-463,357	458,730	-0,036	-0,058
-462,343	251,006	-0,101	0,127
-461,328	-200,000	0,008	-0,052
-460,313	-124,660	0,046	0,005
-459,299	800,000	-0,008	0,019
-458,284	-88,816	0,125	0,027
-457,270	35,214	-0,100	-0,064
-456,255	800,000	0,019	-0,050
-455,241	773,458	-0,071	-0,143
-454,226	-200,000	0,004	-0,017
-453,211	280,647	-0,113	-0,149
-452,197	-200,000	-0,007	0,083
-451,182	-200,000	-0,003	0,080
-450,168	800,000	-0,046	0,111
-449,153	-200,000	-0,014	-0,091
-448,138	-62,699	0,058	-0,017
-447,124	-113,831	-0,058	-0,008
-446,109	264,221	0,046	-0,058
-445,095	714,935	0,093	-0,181
-444,080	47,195	0,135	0,092
-443,065	-200,000	-0,003	0,060
-442,051	-193,551	0,031	-0,000
-441,036	-200,000	0,005	0,069
-440,022	349,765	0,093	-0,135
-439,007	800,000	0,007	-0,014
-437,992	-98,531	0,259	-0,048
-436,978	412,372	0,017	0,026
-435,963	800,000	0,010	-0,028
-434,949	-135,304	-0,104	0,009
-433,934	-200,000	-0,016	-0,068
-432,919	79,815	0,046	-0,036
-431,905	-46,196	-0,066	0,024
-430,890	800,000	0,064	0,140
-429,876	-4,247	-0,129	0,065
-428,861	57,300	0,056	0,040
-427,846	150,275	-0,070	0,070
-426,832	-200,000	0,024	-0,083
-425,817	800,000	-0,023	0,051
-424,803	-105,198	0,051	-0,008
-423,788	-187,314	-0,087	-0,001
-422,773	70,400	0,083	0,063
-421,759	800,000	0,086	0,201
-420,744	-200,000	-0,009	-0,143
-419,730	13,237	-0,050	-0,028
-418,715	-68,545	-0,073	0,021
-417,701	-113,905	0,004	0,001
-416,686	-144,374	0,069	-0,005
-415,671	-70,298	-0,147	0,041
-414,657	-200,000	-0,028	0,180
-413,642	-200,000	0,001	-0,020
-412,628	152,730	-0,050	0,050
-411,613	629,431	-0,022	-0,041
-410,598	12,804	0,119	0,067
-409,584	34,530	0,071	-0,045
-408,569	-200,000	0,010	0,100
-407,555	-200,000	-0,004	-0,019
-406,540	178,804	0,019	-0,020
-405,525	201,185	0,050	-0,056
-404,511	340,131	-0,069	-0,098
-403,496	-200,000	0,030	-0,123
-402,482	26,474	0,202	0,123
-401,467	312,873	0,095	0,130
-400,452	800,000	-0,004	-0,009
-399,438	-113,188	0,109	0,015
-398,423	755,821	0,024	-0,047
-397,409	13,236	-0,049	0,028
-396,394	561,376	-0,066	0,117
-395,379	48,891	0,046	0,032
-394,365	287,054	0,051	-0,068
-393,350	616,074	-0,064	-0,117
-392,336	-200,000	0,002	0,039
-391,321	-68,224	0,110	0,031
-390,306	102,071	-0,073	-0,062
-389,292	-200,000	-0,008	-0,030
-388,277	29,572	0,187	0,116
-387,263	442,346	0,053	0,085
-386,248	55,488	0,090	0,063
-385,233	800,000	0,056	0,135
-384,219	800,000	0,019	0,062
-383,204	800,000	-0,050	-0,139
-382,190	-200,000	0,039	-0,133
-381,175	-165,504	-0,125	0,004
-380,160	52,651	-0,042	-0,029
-379,146	232,114	0,035	-0,042
-378,131	800,000	0,037	0,079
-377,117	-149,367	-0,027	0,002
-376,102	-35,540	-0,186	0,073
-375,088	-200,000	-0,021	-0,218
-374,073	89,629	-0,040	0,032
-373,058	800,000	-0,005	0,011
-372,044	-108,271	0,187	-0,029
-371,029	134,769	0,066	0,063
-370,015	-2,842	0,122	-0,062
-369,000	97,588	-0,087	-0,073
-367,985	285,874	-0,068	-0,090
-366,971	800,000	-0,036	0,108
-365,956	81,306	-0,102	0,080
-364,942	139,312	0,099	0,095
-363,927	-200,000	-0,001	-0,023
-362,912	-200,000	-0,024	-0,086
-361,898	241,811	-0,081	-0,099
-360,883	-200,000	0,007	-0,110
-359,869	-200,000	-0,031	-0,121
-358,854	99,547	-0,092	0,078
-357,839	800,000	0,036	-0,086
-356,825	-47,986	0,119	-0,042
-355,810	800,000	0,034	0,088
-354,796	800,000	-0,035	0,092
-353,781	-27,986	-0,078	-0,033
-352,766	800,000	-0,033	-0,076
-351,752	-200,000	-0,003	0,127
-350,737	-132,730	0,127	0,012
-349,723	-200,000	0,007	0,028
-348,708	-200,000	-0,014	-0,068
-347,693	800,000	-0,079	0,160
-346,679	-200,000	0,034	0,141
-345,664	-15,490	0,075	-0,035
-344,650	133,398	0,041	-0,039
-343,635	121,467	-0,063	-0,057
-342,620	-46,791	0,063	0,022
-341,606	131,198	0,015	-0,014
-340,591	201,189	0,053	0,060
-339,577	258,737	-0,044	0,055
-338,562	-111,758	-0,139	0,020
-337,548	88,889	-0,089	-0,072
-336,533	-16,652	0,115	0,053
-335,518	-95,919	-0,119	0,023
-334,504	-200,000	0,014	0,084
-333,489	67,740	-0,126	0,094
-332,475	-70,028	-0,114	-0,031
-331,460	-179,739	-0,046	-0,001
-330,445	176,869	0,055	-0,059
-329,431	-133,926	-0,076	-0,007
-328,416	800,000	-0,019	0,048
-327,402	286,872	0,051	0,067
-326,387	800,000	-0,019	-0,054
-325,372	-70,495	-0,128	-0,035
-324,358	-32,291	-0,090	0,037
-323,343	-190,169	0,090	-0,001
-322,329	-81,836	0,339	-0,080
-321,314	464,007	0,116	0,189
-320,299	800,000	-0,073	0,211
-319,285	-25,373	0,050	-0,022
-318,270	80,654	-0,048	0,038
-317,256	74,177	-0,073	0,056
-316,241	-200,000	-0,041	-0,161
-315,226	-200,000	0,021	0,110
-314,212	37,241	0,066	0,043
-313,197	63,017	-0,006	0,005
-312,183	800,000	0,024	0,067
-311,168	-129,930	-0,031	0,003
-310,153	-200,000	-0,005	-0,061
-309,139	800,000	-0,017	-0,041
-308,124	-200,000	-0,013	-0,094
-307,110	-84,200	0,106	0,024
-306,095	-200,000	0,012	0,045
-305,080	-130,171	-0,015	-0,001
-304,066	722,658	-0,035	-0,069
-303,051	-64,935	-0,051	0,015
-302,037	111,578	-0,087	0,076
-301,022	-112,290	0,233	-0,034
-300,008	-83,802	-0,044	0,010
-298,993	-200,000	0,042	0,194
-297,978	-200,000	0,011	0,061
-296,964	-79,525	-0,064	-0,016
-295,949	-5,389	-0,108	0,054
-294,935	-47,614	0,151	-0,053
-293,920	-200,000	0,019	-0,082
-292,905	-8,376	0,050	0,024
-291,891	31,659	0,146	0,091
-290,876	125,243	0,063	-0,057
-289,862	800,000	-0,026	0,069
-288,847	-24,976	-0,095	-0,041
-287,832	-80,488	-0,112	0,027
-286,818	316,538	-0,030	0,041
-285,803	-77,836	-0,100	-0,025
-284,789	800,000	0,063	0,128
-283,774	229,379	0,114	-0,135
-282,759	392,239	0,007	-0,010
-281,745	292,776	-0,051	-0,068
-280,730	-171,722	0,215	-0,005
-279,716	800,000	0,086	0,197
-278,701	510,602	0,011	0,018
-277,686	-127,674	-0,028	-0,003
-276,672	432,637	0,085	0,135
-275,657	-115,483	-0,162	0,022
-274,643	-84,770	-0,060	-0,014
-273,628	-200,000	-0,036	-0,149
-272,613	132,504	0,031	-0,029
-271,599	-140,307	0,083	0,006
-270,584	606,319	0,040	-0,072
-269,570	247,571	0,115	0,142
-268,555	-33,724	0,142	-0,057
-267,540	247,432	-0,031	-0,038
-266,526	6,934	0,040	0,022
-265,511	16,360	0,073	-0,042
-264,497	79,595	0,050	-0,039
-263,482	-200,000	-0,012	0,071
-262,467	291,355	-0,049	0,065
-261,453	-142,843	0,075	0,005
-260,438	-200,000	0,040	0,181
-259,424	-12,335	-0,014	0,007
-258,409	800,000	-0,023	-0,046
-257,395	277,536	-0,015	-0,020
-256,380	206,942	-0,077	0,088
-255,365	4,625	-0,034	-0,018
-254,351	800,000	0,010	0,027
-253,336	-200,000	-0,017	0,135
-252,322	800,000	-0,008	0,018
-251,307	800,000	0,045	-0,099
-250,292	800,000	0,061	-0,133
-249,278	-86,694	-0,113	-0,025
-248,263	349,180	0,082	-0,119
-247,249	-155,170	-0,173	-0,008
-246,234	65,156	-0,024	0,018
-245,219	413,955	-0,068	-0,106
-244,205	137,616	-0,038	0,036
-243,190	17,050	0,069	-0,039
-242,176	-76,735	0,043	-0,011
-241,161	-89,561	-0,117	0,025
-240,146	800,000	-0,033	0,091
-239,132	-115,392	0,107	0,014
-238,117	-168,621	-0,177	0,005
-237,103	525,114	-0,063	-0,109
-236,088	178,438	-0,074	-0,079
-235,073	-200,000	0,004	-0,081
-234,059	-200,000	-0,003	0,126
-233,044	-13,184	-0,075	-0,035
-232,030	-115,443	0,165	0,022
-231,015	800,000	-0,022	0,065
-230,000	559,249	-0,048	0,084
-228,986	800,000	-0,004	-0,011
-227,971	82,475	0,061	0,048
-226,957	54,822	0,122	-0,085
-225,942	-170,696	-0,073	-0,002
-224,927	766,067	-0,041	0,081
-223,913	-200,000	0,042	0,142
-222,898	370,771	0,092	-0,136
-221,884	132,969	-0,047	0,044
-220,869	800,000	-0,031	0,067
-219,855	262,458	0,097	-0,122
-218,840	800,000	0,013	-0,032
-217,825	377,519	-0,025	0,038
-216,811	-47,856	0,018	-0,006
-215,796	-200,000	-0,001	-0,134
-214,782	-43,097	-0,085	-0,031
-213,767	-148,439	-0,102	0,006
-212,752	-200,000	0,002	0,057
-211,738	44,103	-0,046	-0,031
-210,723	-200,000	0,012	0,047
-209,709	-178,219	-0,101	-0,002
-208,694	-131,439	-0,083	-0,008
-207,679	-67,753	0,050	0,014
-206,665	-200,000	0,009	-0,051
-205,650	-29,429	-0,105	-0,043
-204,636	46,179	0,078	-0,052
-203,621	89,492	0,100	0,081
-202,606	651,209	0,033	0,061
-201,592	-80,809	0,069	0,017
-200,577	-55,205	-0,098	-0,032
-199,563	-200,000	-0,009	0,088
-198,548	45,049	0,154	0,102
-197,533	-106,536	0,080	0,013
-196,519	175,403	-0,110	0,116
-195,504	-131,379	-0,126	-0,012
-194,490	-100,227	0,109	-0,019
-193,475	-0,204	0,041	0,021
-192,460	-200,000	-0,001	-0,007
-191,446	713,631	-0,052	0,100
-190,431	800,000	-0,027	-0,081
-189,417	800,000	-0,059	0,130
-188,402	-127,978	0,091	-0,009
-187,387	-90,996	-0,099	0,020
-186,373	-200,000	-0,075	-0,247
-185,358	363,540	-0,005	-0,008
-184,344	3,417	-0,049	-0,026
-183,329	-200,000	-0,002	-0,093
-182,315	-124,457	0,130	-0,014
-181,300	598,216	-0,070	0,126
-180,285	-176,889	-0,092	0,002
-179,271	546,513	0,061	0,105
-178,256	-200,000	-0,011	0,104
-177,242	-59,848	0,102	0,031
-176,227	-49,727	0,103	-0,035
-175,212	-200,000	-0,013	-0,112
-174,198	181,607	0,064	0,069
-173,183	91,177	0,022	-0,018
-172,169	-133,728	-0,051	-0,005
-171,154	800,000	-0,028	0,064
-170,139	800,000	0,008	-0,024
-169,125	110,088	0,045	0,039
-168,110	-54,242	-0,065	0,021
-167,096	298,065	-0,009	-0,012
-166,081	800,000	-0,005	-0,011
-165,066	170,267	-0,085	-0,088
-164,052	86,649	0,017	0,013
-163,037	37,335	-0,056	0,036
-162,023	-12,244	0,109	0,051
-161,008	398,084	-0,085	-0,130
-159,993	14,926	-0,058	0,033
-158,979	459,126	-0,074	-0,120
-157,964	373,254	-0,087	-0,128
-156,950	226,994	-0,046	-0,054
-155,935	-15,417	0,136	0,062
-154,920	-200,000	0,010	-0,138
-153,906	-150,801	-0,120	0,007
-152,891	-200,000	0,000	-0,050
-151,877	420,723	-0,024	-0,037
-150,862	471,860	0,060	0,098
-149,847	800,000	0,062	0,128
-148,833	800,000	-0,059	0,130
-147,818	800,000	-0,019	0,054
-146,804	-61,895	0,066	0,020
-145,789	-200,000	-0,034	0,170
-144,775	774,068	0,033	0,066
-143,760	-200,000	0,017	0,081
-142,745	-79,743	-0,052	0,013
-141,731	286,955	0,086	-0,113
-140,716	-3,228	-0,072	0,036
-139,702	50,229	0,117	0,080
-138,687	42,242	0,073	-0,048
-137,672	149,100	0,101	-0,099
-136,658	558,247	-0,059	0,104
-135,643	612,260	-0,050	-0,090
-134,629	494,489	-0,062	0,103
-133,614	-73,190	-0,055	-0,014
-132,599	33,093	-0,044	-0,028
-131,585	-200,000	-0,012	-0,051
-130,570	88,954	0,002	-0,002
-129,556	800,000	-0,043	-0,091
-128,541	754,124	-0,008	-0,016
-127,526	-200,000	-0,005	-0,016
-126,512	-74,699	-0,080	-0,021
-125,497	-26,415	0,050	0,021
-124,483	800,000	-0,013	0,037
-123,468	388,352	0,030	0,046
-122,453	653,961	0,047	0,088
-121,439	-140,735	0,109	0,008
-120,424	83,259	0,037	0,029
-119,410	303,293	0,084	-0,113
