DTS Sentinel unit serial number:	SN410029Multiplexer serial number:	ORYXHardware model number:	OX2-SRSoftware version number:	ORYX F/W v4,00 Oryx Data Collector v3.7.2.0data status	okinstallation	B6 Nyhavnadifferential loss correction	single-endedforward channel	channel 2reverse channel	N/Adate	2023/12/10time	11:10:08forward acquisition time	300,00reverse acquisition time	0,00gamma	499,1914k internal	0,3123k external	0,3123temperature offset calibration	1,0000default loss term (dB/km)	0,3820temperature slope calibration	1,0000multiplexer offset coefficient	1,0000multiplexer slope coefficient	1,0000fibre end	0,00T internal ref (°C)	22,62T ext. ref 1 (°C)	6,52T ext. ref 2 (°C)	6,52length (m)	temperature (°C)	Stokes	anti-Stokes-744,400	-19,787	-0,061	0,028
-743,385	23,645	-0,244	0,150
-742,371	270,775	0,123	-0,162
-741,356	-84,547	-0,230	0,054
-740,342	331,802	0,011	0,016
-739,327	51,738	-0,182	0,129
-738,312	-103,144	-0,066	0,011
-737,298	65,965	-0,085	-0,064
-736,283	4,897	0,116	-0,064
-735,269	-145,153	-0,165	-0,011
-734,254	642,450	0,059	-0,113
-733,239	-134,147	-0,383	0,035
-732,225	-33,960	0,056	0,023
-731,210	-200,000	-0,000	0,027
-730,196	-161,321	-0,018	0,001
-729,181	93,990	-0,092	0,078
-728,167	50,402	-0,031	0,022
-727,152	401,787	-0,064	0,100
-726,137	68,162	-0,041	-0,031
-725,123	-200,000	0,013	-0,106
-724,108	445,586	-0,045	0,074
-723,094	800,000	-0,038	-0,090
-722,079	437,104	0,031	-0,050
-721,064	36,719	0,069	0,045
-720,050	800,000	-0,056	-0,154
-719,035	110,108	-0,106	-0,095
-718,021	36,290	0,048	-0,031
-717,006	-99,706	-0,117	-0,022
-715,991	202,414	-0,031	0,036
-714,977	800,000	0,062	-0,191
-713,962	-200,000	-0,008	-0,036
-712,948	800,000	-0,051	-0,106
-711,933	-76,010	0,109	-0,028
-710,918	-200,000	-0,022	0,128
-709,904	419,711	0,031	-0,050
-708,889	576,140	-0,101	-0,184
-707,875	-127,434	-0,126	0,013
-706,860	-200,000	-0,010	-0,050
-705,845	274,143	-0,062	-0,081
-704,831	800,000	0,073	0,160
-703,816	-9,492	0,093	-0,046
-702,802	800,000	-0,030	-0,082
-701,787	586,811	-0,051	0,094
-700,772	-200,000	-0,014	0,054
-699,758	532,659	-0,063	0,111
-698,743	86,857	0,054	0,045
-697,729	800,000	0,026	0,060
-696,714	-66,635	0,076	0,022
-695,699	559,413	0,027	-0,049
-694,685	-200,000	0,005	-0,021
-693,670	-21,779	0,085	0,038
-692,656	-160,244	-0,056	0,002
-691,641	90,958	0,064	0,054
-690,627	-101,775	0,161	-0,029
-689,612	-166,638	-0,184	-0,006
-688,597	33,981	0,086	-0,055
-687,583	218,272	-0,075	-0,089
-686,568	192,190	0,067	0,075
-685,554	-159,423	0,039	-0,002
-684,539	-200,000	-0,002	0,099
-683,524	109,222	0,017	0,015
-682,510	-200,000	0,006	0,040
-681,495	133,609	-0,072	-0,070
-680,481	-200,000	-0,011	-0,048
-679,466	125,507	-0,108	-0,101
-678,451	22,480	-0,105	-0,064
-677,437	-53,100	0,135	-0,046
-676,422	769,048	0,016	0,033
-675,408	-61,710	0,180	0,056
-674,393	632,573	-0,027	0,051
-673,378	800,000	-0,021	0,068
-672,364	124,007	-0,016	0,015
-671,349	-144,212	-0,132	0,009
-670,335	30,333	0,038	0,024
-669,320	273,706	-0,062	0,082
-668,305	261,218	0,116	0,150
-667,291	71,733	-0,168	0,129
-666,276	-172,847	0,031	0,001
-665,262	-200,000	0,028	-0,137
-664,247	800,000	0,021	-0,055
-663,232	800,000	-0,029	-0,074
-662,218	-74,273	-0,186	0,050
-661,203	-133,564	-0,050	-0,005
-660,189	61,521	-0,049	0,036
-659,174	-200,000	-0,002	0,129
-658,159	-95,122	0,039	0,008
-657,145	-67,637	-0,114	-0,033
-656,130	-73,451	-0,120	-0,032
-655,116	379,087	-0,104	-0,158
-654,101	-118,507	0,042	-0,005
-653,086	385,289	-0,042	-0,065
-652,072	-10,949	-0,025	-0,012
-651,057	800,000	0,021	-0,063
-650,043	-200,000	-0,001	-0,080
-649,028	-200,000	-0,006	0,034
-648,014	-153,298	0,009	0,000
-646,999	37,047	0,058	-0,038
-645,984	-200,000	-0,003	0,051
-644,970	-200,000	0,009	-0,137
-643,955	-143,802	-0,154	0,011
-642,941	226,022	0,051	-0,061
-641,926	185,672	-0,080	-0,088
-640,911	-200,000	0,012	0,041
-639,897	109,401	-0,067	-0,060
-638,882	-44,290	-0,030	0,011
-637,868	-46,756	-0,108	0,039
-636,853	193,111	-0,054	-0,061
-635,838	800,000	0,040	-0,094
-634,824	-200,000	0,004	-0,030
-633,809	67,926	0,039	-0,029
-632,795	-128,647	0,055	0,006
-631,780	19,441	0,144	0,086
-630,765	520,740	0,037	-0,066
-629,751	-122,658	-0,083	-0,010
-628,736	-200,000	-0,029	-0,169
-627,722	144,656	-0,080	0,080
-626,707	-117,415	0,037	0,005
-625,692	78,126	0,130	0,103
-624,678	122,531	0,064	0,060
-623,663	-119,854	-0,197	-0,025
-622,649	-200,000	-0,030	-0,124
-621,634	800,000	0,063	-0,141
-620,619	-200,000	0,037	-0,161
-619,605	-175,112	-0,110	0,002
-618,590	-101,898	0,099	0,018
-617,576	310,941	-0,025	-0,035
-616,561	-108,157	-0,072	0,011
-615,546	34,152	-0,068	0,044
-614,532	800,000	-0,030	0,077
-613,517	-8,112	-0,174	0,086
-612,503	-25,808	0,033	-0,014
-611,488	-200,000	0,037	0,145
-610,474	-127,912	-0,052	0,005
-609,459	-200,000	0,005	-0,061
-608,444	429,734	-0,074	0,120
-607,430	31,055	0,042	-0,027
-606,415	75,925	-0,206	-0,161
-605,401	95,345	-0,132	0,112
-604,386	798,150	0,071	0,147
-603,371	800,000	0,010	-0,022
-602,357	144,804	-0,079	-0,078
-601,342	24,561	-0,061	0,038
-600,328	-51,892	-0,117	-0,040
-599,313	800,000	0,029	-0,092
-598,298	-200,000	0,011	-0,089
-597,284	94,742	0,061	0,051
-596,269	-200,000	-0,005	0,018
-595,255	-71,898	0,111	-0,030
-594,240	-200,000	-0,006	-0,024
-593,225	-64,615	0,088	0,026
-592,211	328,120	0,029	-0,042
-591,196	-155,257	0,124	0,006
-590,182	296,640	-0,011	-0,015
-589,167	56,831	0,077	-0,055
-588,152	55,419	-0,085	0,061
-587,138	360,035	0,013	-0,019
-586,123	1,133	-0,131	0,069
-585,109	-21,574	-0,073	-0,033
-584,094	-62,503	0,047	0,015
-583,079	116,800	0,036	-0,033
-582,065	119,836	-0,025	-0,023
-581,050	-200,000	-0,053	-0,175
-580,036	62,996	-0,023	-0,017
-579,021	-5,273	-0,035	-0,018
-578,006	390,252	0,034	-0,052
-576,992	361,574	0,067	0,100
-575,977	-200,000	-0,003	-0,041
-574,963	-52,319	0,162	0,055
-573,948	28,869	0,063	-0,039
-572,934	63,342	-0,033	0,024
-571,919	-200,000	0,002	0,015
-570,904	189,544	-0,075	0,083
-569,890	147,960	-0,072	0,072
-568,875	-200,000	0,014	-0,059
-567,861	-16,300	-0,121	0,057
-566,846	154,898	0,069	0,070
-565,831	623,082	0,038	-0,071
-564,817	-77,585	-0,203	0,052
-563,802	-200,000	0,023	0,095
-562,788	265,708	0,073	-0,094
-561,773	-8,816	-0,032	0,016
-560,758	14,240	-0,078	0,045
-559,744	64,992	0,023	-0,017
-558,729	49,546	0,016	-0,011
-557,715	-48,041	-0,010	0,003
-556,700	-200,000	-0,022	0,077
-555,685	800,000	0,019	-0,051
-554,671	189,809	0,036	0,040
-553,656	-200,000	0,013	-0,099
-552,642	551,673	0,030	0,054
-551,627	62,902	-0,190	-0,141
-550,612	800,000	-0,030	0,083
-549,598	489,509	-0,044	0,074
-548,583	243,684	-0,089	-0,111
-547,569	-135,533	0,072	-0,006
-546,554	-200,000	0,001	0,034
-545,539	-24,390	0,037	-0,016
-544,525	498,677	-0,066	0,113
-543,510	-24,257	-0,104	0,046
-542,496	-200,000	0,026	0,094
-541,481	-88,701	0,053	-0,012
-540,466	216,679	-0,074	0,088
-539,452	-200,000	-0,012	0,153
-538,437	313,285	-0,043	0,060
-537,423	154,621	0,073	0,074
-536,408	44,561	-0,142	0,097
-535,393	55,972	0,068	0,049
-534,379	-60,749	-0,045	-0,014
-533,364	233,360	-0,036	-0,044
-532,350	102,866	0,088	-0,076
-531,335	-18,957	-0,145	-0,066
-530,321	-200,000	0,037	-0,205
-529,306	673,339	0,076	-0,146
-528,291	41,622	-0,103	-0,069
-527,277	-200,000	-0,023	-0,079
-526,262	-130,179	-0,035	-0,004
-525,248	800,000	0,040	0,127
-524,233	800,000	0,027	0,055
-523,218	503,304	-0,106	-0,182
-522,204	46,765	-0,138	-0,094
-521,189	800,000	0,060	-0,131
-520,175	-33,158	-0,147	-0,060
-519,160	-200,000	0,007	0,064
-518,145	-3,911	0,165	-0,084
-517,131	466,108	-0,044	-0,073
-516,116	-200,000	-0,012	0,114
-515,102	-200,000	0,014	0,060
-514,087	-200,000	0,013	-0,067
-513,072	-139,745	0,053	-0,004
-512,058	-36,253	0,100	-0,039
-511,043	-200,000	0,002	0,041
-510,029	-34,484	-0,116	-0,047
-509,014	663,786	0,060	-0,115
-507,999	800,000	-0,009	-0,022
-506,985	-24,415	-0,074	0,032
-505,970	-24,148	0,094	0,041
-504,956	64,480	-0,049	-0,036
-503,941	-200,000	-0,015	0,149
-502,926	80,670	0,100	0,079
-501,912	-200,000	-0,052	0,190
-500,897	184,959	0,088	0,097
-499,883	-53,809	0,091	-0,031
-498,868	113,430	-0,078	0,070
-497,853	555,016	0,059	0,105
-496,839	-200,000	-0,008	-0,116
-495,824	444,017	0,070	-0,114
-494,810	604,761	-0,018	0,033
-493,795	278,338	0,088	0,116
-492,781	-64,232	-0,031	0,009
-491,766	-200,000	-0,000	-0,065
-490,751	800,000	0,022	-0,047
-489,737	-100,096	0,149	-0,027
-488,722	-200,000	-0,018	0,077
-487,708	800,000	0,033	0,091
-486,693	-200,000	-0,022	0,137
-485,678	800,000	0,029	-0,092
-484,664	-145,659	-0,075	0,005
-483,649	-114,251	-0,065	-0,009
-482,635	-20,500	0,043	-0,020
-481,620	-11,762	0,111	0,053
-480,605	-200,000	-0,004	-0,129
-479,591	73,008	0,056	-0,043
-478,576	800,000	-0,053	0,112
-477,562	-60,925	0,051	-0,016
-476,547	47,758	0,012	-0,008
-475,532	-133,185	0,047	0,004
-474,518	-98,395	0,145	-0,027
-473,503	14,169	0,110	0,063
-472,489	-55,278	-0,054	0,018
-471,474	92,866	-0,023	0,019
-470,459	164,844	0,106	0,111
-469,445	-83,483	-0,102	-0,024
-468,430	437,408	-0,018	-0,028
-467,416	800,000	0,024	0,061
-466,401	800,000	-0,031	0,082
-465,386	-70,410	0,087	0,024
-464,372	-138,216	0,078	0,006
-463,357	800,000	-0,053	-0,153
-462,343	170,465	-0,106	-0,112
-461,328	-32,656	0,059	-0,024
-460,313	-126,371	0,070	-0,008
-459,299	-69,089	0,074	0,021
-458,284	800,000	-0,021	-0,051
-457,270	-67,138	0,070	0,020
-456,255	488,553	-0,036	0,061
-455,241	453,636	-0,061	0,100
-454,226	-167,512	-0,091	0,003
-453,211	84,588	0,027	-0,022
-452,197	732,369	0,049	-0,097
-451,182	-47,889	-0,031	-0,011
-450,168	-46,707	-0,048	0,017
-449,153	-54,893	0,054	0,018
-448,138	94,782	0,009	0,007
-447,124	-200,000	0,022	0,074
-446,109	620,411	-0,094	-0,175
-445,095	800,000	0,066	0,156
-444,080	237,621	0,081	0,100
-443,065	164,750	-0,003	0,003
-442,051	800,000	0,028	0,072
-441,036	-86,609	0,060	-0,013
-440,022	136,096	-0,028	-0,027
-439,007	104,684	-0,023	-0,020
-437,992	-200,000	0,004	0,038
-436,978	-200,000	-0,002	-0,026
-435,963	-25,030	0,077	0,033
-434,949	800,000	-0,084	0,202
-433,934	60,599	-0,058	0,042
-432,919	-200,000	0,009	-0,066
-431,905	-18,827	0,172	0,078
-430,890	120,102	-0,037	-0,034
-429,876	-178,823	-0,077	-0,001
-428,861	-183,522	-0,091	0,001
-427,846	800,000	-0,022	0,069
-426,832	265,735	0,057	-0,074
-425,817	217,573	0,067	0,078
-424,803	-29,133	-0,056	-0,024
-423,788	-200,000	0,005	0,019
-422,773	-45,085	0,120	0,044
-421,759	795,589	-0,002	0,004
-420,744	-200,000	0,012	0,077
-419,730	-200,000	0,028	0,116
-418,715	800,000	0,041	0,090
-417,701	6,127	0,079	-0,043
-416,686	-200,000	-0,011	0,076
-415,671	72,193	0,094	0,072
-414,657	-200,000	-0,011	-0,141
-413,642	-200,000	0,040	-0,167
-412,628	-200,000	-0,007	-0,101
-411,613	800,000	-0,017	-0,036
-410,598	-200,000	0,019	-0,136
-409,584	29,311	0,044	0,027
-408,569	-200,000	0,043	-0,149
-407,555	1,023	-0,172	0,090
-406,540	189,900	0,123	0,136
-405,525	-200,000	0,007	0,032
-404,511	141,979	0,028	-0,027
-403,496	616,200	-0,065	-0,120
-402,482	-200,000	-0,006	-0,112
-401,467	-88,144	0,058	-0,013
-400,452	247,063	0,057	0,071
-399,438	103,620	0,093	0,080
-398,423	800,000	0,053	-0,112
-397,409	-161,320	-0,053	0,002
-396,394	-200,000	0,005	-0,037
-395,379	306,140	-0,028	0,038
-394,365	-52,008	0,157	-0,053
-393,350	800,000	0,016	-0,037
-392,336	-49,387	0,028	-0,010
-391,321	-200,000	0,010	-0,224
-390,306	-200,000	0,021	-0,074
-389,292	141,977	-0,088	-0,086
-388,277	140,935	-0,011	0,011
-387,263	-105,016	-0,103	-0,017
-386,248	92,859	0,077	0,064
-385,233	-101,232	0,073	0,013
-384,219	134,366	0,079	-0,076
-383,204	-200,000	-0,040	-0,199
-382,190	-81,138	0,018	0,004
-381,175	800,000	-0,021	-0,050
-380,160	281,458	0,045	0,059
-379,146	-200,000	0,012	0,070
-378,131	-200,000	0,003	0,036
-377,117	193,153	-0,024	-0,027
-376,102	-8,414	0,040	-0,019
-375,088	-70,394	-0,090	-0,025
-374,073	-76,734	-0,076	0,019
-373,058	258,631	0,062	0,079
-372,044	566,558	-0,039	0,070
-371,029	-11,859	0,059	0,028
-370,015	-200,000	0,006	0,049
-369,000	-36,194	0,059	0,023
-367,985	26,873	-0,106	-0,065
-366,971	-200,000	-0,009	-0,036
-365,956	-83,085	0,065	0,015
-364,942	-200,000	0,034	0,191
-363,927	-58,212	-0,156	0,050
-362,912	18,610	0,054	-0,032
-361,898	800,000	-0,034	-0,095
-360,883	-50,609	-0,114	-0,039
-359,869	97,373	-0,079	0,067
-358,854	55,821	0,038	-0,027
-357,839	-93,135	0,140	0,028
-356,825	-200,000	0,018	-0,112
-355,810	-200,000	-0,041	0,164
-354,796	153,713	0,040	-0,040
-353,781	-94,210	0,079	-0,016
-352,766	716,792	-0,046	-0,090
-351,752	800,000	0,057	0,142
-350,737	174,943	0,119	-0,127
-349,723	-200,000	-0,007	0,035
-348,708	-200,000	-0,014	0,054
-347,693	5,281	0,067	-0,036
-346,679	19,692	0,029	-0,017
-345,664	-200,000	-0,027	0,096
-344,650	-23,232	0,154	-0,068
-343,635	461,337	-0,043	0,071
-342,620	-46,964	-0,036	0,013
-341,606	-200,000	-0,002	-0,127
-340,591	20,499	0,005	0,003
-339,577	74,072	-0,027	-0,020
-338,562	-200,000	0,007	-0,056
-337,548	358,494	0,020	-0,029
-336,533	-35,810	0,036	0,014
-335,518	698,378	0,019	0,037
-334,504	-200,000	0,001	0,026
-333,489	-167,419	-0,073	-0,002
-332,475	-2,952	-0,094	-0,048
-331,460	-200,000	0,032	-0,169
-330,445	800,000	0,028	0,066
-329,431	-14,686	0,139	0,065
-328,416	-111,203	-0,046	-0,007
-327,402	-20,900	0,087	-0,039
-326,387	162,496	0,019	0,019
-325,372	-63,887	-0,076	-0,023
-324,358	-89,303	0,008	0,002
-323,343	-121,492	0,142	0,017
-322,329	-90,877	-0,069	0,014
-321,314	-87,697	-0,240	0,053
-320,299	-113,912	0,065	-0,009
-319,285	-94,022	-0,071	-0,014
-318,270	-200,000	-0,011	-0,157
-317,256	172,329	0,023	0,024
-316,241	8,229	0,052	-0,028
-315,226	-200,000	0,004	-0,112
-314,212	-27,671	0,068	-0,029
-313,197	-200,000	0,013	-0,047
-312,183	800,000	0,048	0,148
-311,168	-124,615	-0,195	0,022
-310,153	-35,827	-0,082	0,032
-309,139	233,445	0,055	-0,066
-308,124	273,143	-0,086	-0,112
-307,110	763,007	-0,016	0,032
-306,095	-200,000	-0,001	-0,058
-305,080	-66,302	-0,059	-0,017
-304,066	-174,508	0,112	0,002
-303,051	-160,354	-0,093	0,004
-302,037	118,919	-0,046	-0,042
-301,022	358,102	0,076	0,111
-300,008	280,151	-0,044	0,057
-298,993	-73,667	-0,005	-0,001
-297,978	243,599	0,035	0,043
-296,964	-200,000	-0,028	0,145
-295,949	431,700	0,043	-0,069
-294,935	421,948	-0,087	-0,138
-293,920	55,973	-0,162	0,115
-292,905	-58,260	-0,017	-0,005
-291,891	800,000	0,026	0,069
-290,876	-200,000	0,016	-0,150
-289,862	120,229	0,071	0,065
-288,847	141,990	-0,018	-0,018
-287,832	-11,551	0,039	-0,019
-286,818	800,000	0,061	-0,181
-285,803	-120,402	0,163	0,020
-284,789	35,281	0,029	-0,019
-283,774	-200,000	0,023	0,084
-282,759	800,000	0,008	-0,023
-281,745	-200,000	-0,012	-0,052
-280,730	63,546	0,052	-0,038
-279,716	-41,287	-0,059	-0,022
-278,701	39,084	0,113	-0,074
-277,686	-200,000	0,005	-0,076
-276,672	214,472	-0,031	0,036
-275,657	205,272	0,030	-0,034
-274,643	-87,490	0,104	0,023
-273,628	-26,110	-0,028	0,012
-272,613	105,343	-0,182	-0,157
-271,599	-200,000	-0,012	-0,070
-270,584	247,215	0,006	0,007
-269,570	208,096	0,138	0,158
-268,555	-200,000	-0,009	-0,040
-267,540	-200,000	-0,002	0,015
-266,526	-200,000	0,008	-0,044
-265,511	135,571	0,022	0,021
-264,497	-30,771	-0,095	0,039
-263,482	179,895	0,021	0,022
-262,467	-48,863	-0,023	0,008
-261,453	-200,000	0,008	0,166
-260,438	-18,358	0,091	-0,042
-259,424	-200,000	-0,010	0,050
-258,409	189,869	-0,101	-0,111
-257,395	-200,000	0,008	-0,098
-256,380	169,876	0,006	0,007
-255,365	325,459	0,052	0,073
-254,351	800,000	-0,057	0,182
-253,336	4,639	0,097	0,052
-252,322	800,000	-0,035	-0,073
-251,307	-50,525	0,070	0,024
-250,292	240,673	0,043	0,053
-249,278	800,000	0,021	0,058
-248,263	50,076	0,042	0,029
-247,249	-200,000	-0,041	0,205
-246,234	109,619	0,046	0,040
-245,219	282,039	-0,103	-0,135
-244,205	-200,000	0,019	0,066
-243,190	-90,936	0,024	0,005
-242,176	-173,590	-0,038	-0,001
-241,161	456,172	-0,090	0,147
-240,146	98,704	-0,012	-0,010
-239,132	800,000	0,059	-0,126
-238,117	800,000	-0,016	-0,046
-237,103	1,379	0,039	-0,020
-236,088	-100,687	0,061	-0,011
-235,073	665,940	0,073	-0,138
-234,059	-22,487	-0,051	0,023
-233,044	800,000	-0,023	0,067
-232,030	-200,000	0,008	0,091
-231,015	-116,439	-0,073	0,010
-230,000	43,200	0,081	-0,054
-228,986	29,143	-0,174	0,108
-227,971	427,935	-0,030	-0,048
-226,957	360,244	-0,063	0,093
-225,942	479,731	0,048	0,080
-224,927	800,000	0,025	0,059
-223,913	147,639	-0,092	0,090
-222,898	12,709	-0,113	-0,063
-221,884	18,516	-0,059	-0,035
-220,869	-26,785	0,128	0,054
-219,855	-200,000	0,004	-0,089
-218,840	-200,000	-0,019	0,068
-217,825	-200,000	-0,025	0,170
-216,811	287,699	-0,048	-0,064
-215,796	8,879	0,093	0,051
-214,782	-32,168	-0,096	0,039
-213,767	-84,842	-0,010	0,002
-212,752	-67,423	0,169	-0,048
-211,738	219,526	0,111	-0,130
-210,723	-125,410	0,228	0,025
-209,709	327,206	0,039	0,055
-208,694	-102,257	-0,055	-0,009
-207,679	339,045	0,040	-0,057
-206,665	109,096	0,120	0,105
-205,650	-200,000	-0,000	0,054
-204,636	753,762	-0,045	0,089
-203,621	-84,702	0,050	0,011
-202,606	373,185	-0,044	-0,065
-201,592	-200,000	0,007	-0,176
-200,577	-200,000	-0,028	-0,192
-199,563	-22,385	-0,113	0,050
-198,548	-27,234	0,077	-0,033
-197,533	83,100	-0,039	-0,031
-196,519	-89,089	0,131	0,028
-195,504	-110,981	0,142	0,021
-194,490	197,593	0,038	-0,042
-193,475	425,868	-0,089	-0,140
-192,460	-160,062	-0,068	-0,003
-191,446	-200,000	0,012	0,115
-190,431	-162,316	-0,157	-0,006
-189,417	4,501	-0,075	0,040
-188,402	-6,171	0,055	0,027
-187,387	7,650	-0,102	-0,055
-186,373	164,877	-0,094	0,097
-185,358	800,000	0,030	0,071
-184,344	-200,000	0,010	0,138
-183,329	294,276	-0,082	-0,110
-182,315	63,574	-0,121	0,089
-181,300	-200,000	0,008	-0,108
-180,285	800,000	-0,041	0,093
-179,271	55,910	-0,118	-0,083
-178,256	-194,910	-0,204	0,001
-177,242	800,000	-0,066	-0,138
-176,227	301,701	0,056	0,075
-175,212	28,176	0,176	0,108
-174,198	800,000	0,023	0,050
-173,183	-200,000	0,069	0,000
-172,169	800,000	0,030	0,088
-171,154	-28,534	-0,159	0,067
-170,139	-115,164	0,178	-0,024
-169,125	193,095	-0,037	0,041
-168,110	32,592	-0,057	0,036
-167,096	-200,000	0,042	0,179
-166,081	249,551	-0,041	-0,050
-165,066	-151,329	-0,128	0,007
-164,052	29,905	-0,120	-0,074
-163,037	-200,000	0,017	0,065
-162,023	-200,000	0,015	0,085
-161,008	244,231	0,086	-0,105
-159,993	-28,164	0,075	-0,031
-158,979	-200,000	-0,002	-0,022
-157,964	-107,754	-0,176	-0,028
-156,950	523,962	-0,081	-0,139
-155,935	87,883	0,105	-0,085
-154,920	800,000	0,025	0,059
-153,906	436,418	0,062	0,099
-152,891	-15,497	-0,080	-0,037
-151,877	-200,000	0,003	-0,116
-150,862	107,443	-0,151	-0,131
-149,847	-68,659	-0,021	-0,006
-148,833	66,607	-0,048	-0,036
-147,818	-63,143	0,163	0,049
-146,804	72,877	-0,019	0,014
-145,789	-99,814	-0,092	0,017
-144,775	-31,963	-0,161	0,065
-143,760	-200,000	-0,009	0,041
-142,745	-47,388	0,022	0,008
-141,731	411,550	-0,033	0,051
-140,716	86,150	0,092	0,074
-139,702	-200,000	0,030	0,131
-138,687	-102,972	0,120	-0,021
-137,672	-26,172	0,010	-0,004
-136,658	-23,209	-0,052	-0,023
-135,643	69,446	-0,168	0,126
-134,629	-200,000	-0,002	-0,055
-133,614	101,195	-0,031	-0,026
-132,599	334,897	0,065	0,092
-131,585	-79,137	0,101	0,025
-130,570	-200,000	-0,016	0,094
-129,556	69,014	0,011	0,008
-128,541	1,688	-0,181	0,094
-127,526	382,880	0,035	-0,052
-126,512	194,121	0,062	0,069
-125,497	-54,410	0,068	-0,022
-124,483	-200,000	0,024	0,156
-123,468	403,805	0,094	0,144
-122,453	800,000	0,007	0,020
-121,439	572,981	-0,106	-0,190
-120,424	-200,000	0,008	0,093
-119,410	-88,860	0,056	-0,012
-118,395	-200,000	0,014	0,128
-117,380	564,298	0,026	0,046
