DTS Sentinel unit serial number:	SN410029Multiplexer serial number:	ORYXHardware model number:	OX2-SRSoftware version number:	ORYX F/W v4,00 Oryx Data Collector v3.7.2.0data status	okinstallation	B6 Nyhavnadifferential loss correction	single-endedforward channel	channel 2reverse channel	N/Adate	2023/12/07time	13:55:08forward acquisition time	300,00reverse acquisition time	0,00gamma	499,1914k internal	0,3199k external	0,3199temperature offset calibration	1,0000default loss term (dB/km)	0,3820temperature slope calibration	1,0000multiplexer offset coefficient	1,0000multiplexer slope coefficient	1,0000fibre end	0,00T internal ref (°C)	12,94T ext. ref 1 (°C)	-1,67T ext. ref 2 (°C)	-1,66length (m)	temperature (°C)	Stokes	anti-Stokes-744,400	369,924	0,128	0,189
-743,385	-96,488	-0,431	0,082
-742,371	36,559	0,227	0,145
-741,356	-64,171	-0,320	0,094
-740,342	-200,000	0,027	0,188
-739,327	-65,077	-0,280	-0,082
-738,312	-106,754	0,089	-0,014
-737,298	-30,628	-0,342	-0,140
-736,283	-6,589	0,141	0,069
-735,269	-124,056	-0,328	0,037
-734,254	-17,839	0,224	0,102
-733,239	-8,351	-0,563	-0,274
-732,225	173,534	0,154	0,162
-731,210	-200,000	-0,020	0,132
-730,196	27,222	-0,098	-0,060
-729,181	251,035	-0,021	-0,026
-728,167	-200,000	-0,046	0,150
-727,152	-176,470	-0,219	-0,004
-726,137	-72,835	-0,156	-0,041
-725,123	394,587	-0,043	-0,065
-724,108	-200,000	0,008	0,073
-723,094	800,000	-0,009	0,028
-722,079	117,658	0,025	0,022
-721,064	-200,000	-0,112	-0,000
-720,050	369,353	-0,063	-0,092
-719,035	-24,177	-0,060	0,026
-718,021	-94,666	-0,113	-0,022
-717,006	56,110	-0,069	0,049
-715,991	-31,455	-0,051	-0,021
-714,977	-200,000	-0,012	-0,131
-713,962	-200,000	0,013	0,093
-712,948	109,510	-0,041	0,035
-711,933	-200,000	-0,002	-0,044
-710,918	800,000	0,037	0,091
-709,904	173,634	-0,089	-0,093
-708,889	-91,498	-0,114	-0,023
-707,875	-200,000	-0,025	-0,089
-706,860	-200,000	-0,001	-0,084
-705,845	-200,000	0,042	-0,221
-704,831	-105,535	-0,039	0,006
-703,816	-143,654	-0,066	0,004
-702,802	137,023	-0,090	0,086
-701,787	800,000	0,046	-0,117
-700,772	-200,000	0,003	-0,101
-699,758	800,000	0,037	0,075
-698,743	82,672	0,012	0,010
-697,729	-139,469	0,143	0,011
-696,714	-140,569	0,121	-0,009
-695,699	127,274	-0,061	-0,056
-694,685	284,648	-0,043	-0,056
-693,670	-80,343	0,010	0,002
-692,656	-34,312	-0,066	-0,026
-691,641	-96,383	-0,061	0,012
-690,627	-200,000	-0,021	0,163
-689,612	329,601	0,039	-0,054
-688,597	384,065	-0,072	-0,108
-687,583	800,000	0,086	-0,224
-686,568	-9,794	-0,085	-0,041
-685,554	27,642	-0,110	-0,067
-684,539	800,000	0,031	0,064
-683,524	-66,349	0,071	-0,020
-682,510	-200,000	0,010	0,038
-681,495	283,515	-0,072	-0,094
-680,481	800,000	-0,008	0,018
-679,466	179,828	-0,055	-0,058
-678,451	-200,000	-0,008	0,071
-677,437	-200,000	0,006	0,047
-676,422	550,152	-0,033	0,058
-675,408	-200,000	0,022	0,084
-674,393	83,374	0,053	0,042
-673,378	169,897	-0,075	0,078
-672,364	41,212	-0,009	-0,006
-671,349	150,148	0,072	-0,071
-670,335	149,165	0,066	0,065
-669,320	-140,335	0,053	0,004
-668,305	415,134	0,065	0,102
-667,291	128,313	-0,080	-0,073
-666,276	-7,053	-0,018	0,009
-665,262	-32,619	0,105	-0,042
-664,247	-109,199	0,128	-0,019
-663,232	-20,542	-0,180	-0,080
-662,218	300,002	-0,025	0,033
-661,203	-200,000	0,001	0,171
-660,189	-200,000	-0,089	0,299
-659,174	683,980	-0,034	0,064
-658,159	-200,000	-0,001	-0,010
-657,145	82,485	-0,059	0,046
-656,130	83,333	0,126	-0,100
-655,116	157,198	0,091	-0,091
-654,101	69,880	0,011	-0,008
-653,086	737,191	-0,053	0,103
-652,072	-200,000	-0,035	0,139
-651,057	-200,000	0,019	-0,103
-650,043	-140,969	-0,201	0,015
-649,028	-71,934	0,119	-0,032
-648,014	36,067	-0,039	-0,025
-646,999	140,527	-0,074	0,071
-645,984	-128,527	0,086	0,009
-644,970	-6,205	-0,078	0,038
-643,955	-135,713	-0,139	0,012
-642,941	-38,417	0,135	-0,052
-641,926	-36,271	-0,097	-0,038
-640,911	-58,849	-0,038	0,012
-639,897	83,247	0,056	0,044
-638,882	800,000	0,013	0,034
-637,868	603,644	0,039	0,070
-636,853	800,000	-0,019	-0,056
-635,838	800,000	-0,033	0,101
-634,824	-24,396	0,107	0,046
-633,809	-200,000	-0,001	0,009
-632,795	-200,000	-0,013	-0,064
-631,780	555,745	0,016	-0,028
-630,765	238,743	-0,098	-0,119
-629,751	175,360	-0,082	-0,086
-628,736	-41,184	-0,114	-0,042
-627,722	394,305	-0,022	0,034
-626,707	-139,557	-0,070	-0,005
-625,692	94,647	0,062	-0,051
-624,678	800,000	-0,048	-0,121
-623,663	167,827	0,092	0,094
-622,649	117,743	-0,079	-0,070
-621,634	444,018	-0,047	0,076
-620,619	12,620	-0,111	0,062
-619,605	800,000	-0,036	0,105
-618,590	17,120	0,061	0,035
-617,576	-200,000	-0,003	0,151
-616,561	2,301	-0,043	0,022
-615,546	-200,000	0,011	0,084
-614,532	-200,000	-0,005	-0,140
-613,517	67,175	-0,019	0,014
-612,503	-200,000	-0,011	-0,065
-611,488	-200,000	0,010	0,044
-610,474	118,121	0,097	0,087
-609,459	800,000	0,040	-0,085
-608,444	466,347	-0,024	-0,039
-607,430	800,000	0,022	0,066
-606,415	247,384	0,047	0,058
-605,401	-200,000	-0,013	0,051
-604,386	-144,092	0,051	0,003
-603,371	483,893	0,034	-0,056
-602,357	-163,562	0,072	-0,002
-601,342	-200,000	-0,041	-0,147
-600,328	120,768	0,043	-0,039
-599,313	88,369	-0,030	0,024
-598,298	-200,000	-0,019	0,226
-597,284	-200,000	0,006	-0,083
-596,269	333,546	0,085	0,120
-595,255	409,955	-0,022	0,034
-594,240	147,034	-0,128	0,124
-593,225	-88,320	-0,067	-0,014
-592,211	257,437	0,102	-0,127
-591,196	800,000	0,077	-0,165
-590,182	-118,686	-0,100	0,013
-589,167	-200,000	0,024	-0,117
-588,152	-200,000	-0,001	0,040
-587,138	-200,000	0,030	0,139
-586,123	-103,026	-0,071	0,012
-585,109	-200,000	-0,026	-0,175
-584,094	-200,000	0,007	-0,059
-583,079	-102,015	0,115	0,020
-582,065	-200,000	0,021	-0,141
-581,050	-200,000	-0,002	0,042
-580,036	367,359	0,024	0,036
-579,021	583,449	0,087	0,155
-578,006	-147,757	-0,146	0,009
-576,992	-200,000	0,008	-0,092
-575,977	-90,827	0,073	0,015
-574,963	331,369	0,025	-0,035
-573,948	39,756	-0,035	-0,023
-572,934	-82,110	-0,048	-0,011
-571,919	-90,378	0,063	0,013
-570,904	30,855	-0,103	0,064
-569,890	-8,203	0,113	0,055
-568,875	-125,941	0,028	-0,003
-567,861	-2,855	0,156	0,079
-566,846	-200,000	-0,013	0,066
-565,831	76,139	-0,074	0,057
-564,817	-120,597	0,067	-0,008
-563,802	-81,047	-0,086	-0,020
-562,788	-200,000	-0,022	-0,167
-561,773	800,000	-0,038	0,107
-560,758	398,616	0,047	0,071
-559,744	800,000	-0,031	0,065
-558,729	111,565	0,098	-0,085
-557,715	-200,000	0,017	0,089
-556,700	71,538	-0,044	0,033
-555,685	-200,000	0,011	0,034
-554,671	-35,949	0,159	-0,062
-553,656	183,170	0,064	-0,068
-552,642	296,268	-0,035	0,047
-551,627	336,924	0,077	0,109
-550,612	-147,691	0,079	0,005
-549,598	50,859	0,061	0,041
-548,583	109,119	-0,053	-0,045
-547,569	785,954	-0,030	0,060
-546,554	800,000	0,014	-0,040
-545,539	-110,260	0,132	0,020
-544,525	800,000	0,019	-0,054
-543,510	167,096	-0,066	0,068
-542,496	-200,000	0,003	-0,176
-541,481	-200,000	-0,006	-0,140
-540,466	55,388	0,151	0,105
-539,452	103,281	0,053	-0,045
-538,437	439,217	0,046	-0,072
-537,423	800,000	0,040	0,081
-536,408	800,000	-0,052	0,120
-535,393	-200,000	0,040	-0,181
-534,379	668,640	-0,031	-0,058
-533,364	-200,000	-0,001	-0,108
-532,350	-200,000	0,002	-0,052
-531,335	110,229	-0,155	0,134
-530,321	696,346	0,033	0,063
-529,306	162,797	-0,077	-0,078
-528,291	48,758	0,111	-0,075
-527,277	-143,143	-0,136	0,009
-526,262	-141,455	0,063	0,005
-525,248	328,575	-0,110	-0,153
-524,233	475,607	0,029	0,048
-523,218	80,611	0,078	0,061
-522,204	119,273	-0,057	0,051
-521,189	538,304	-0,090	-0,155
-520,175	-38,129	-0,072	-0,028
-519,160	-73,677	0,140	-0,036
-518,145	-157,093	0,082	0,004
-517,131	51,860	-0,062	0,042
-516,116	48,583	0,031	0,021
-515,102	800,000	0,005	-0,015
-514,087	-200,000	-0,040	-0,153
-513,072	140,314	-0,052	-0,050
-512,058	-200,000	0,023	-0,078
-511,043	-102,745	-0,090	0,015
-510,029	557,433	-0,060	0,104
-509,014	-38,051	-0,166	0,063
-507,999	50,091	-0,070	0,048
-506,985	53,292	0,049	-0,034
-505,970	21,499	-0,009	0,005
-504,956	-23,303	-0,089	-0,038
-503,941	242,870	0,079	-0,096
-502,926	80,267	-0,099	-0,077
-501,912	-200,000	0,009	-0,028
-500,897	-200,000	-0,033	0,179
-499,883	-200,000	-0,001	-0,112
-498,868	290,667	0,028	-0,037
-497,853	-200,000	0,029	-0,146
-496,839	279,935	-0,065	-0,084
-495,824	-4,632	0,104	0,052
-494,810	257,508	0,057	-0,070
-493,795	257,693	0,023	0,029
-492,781	-72,708	0,090	-0,024
-491,766	64,695	-0,067	-0,048
-490,751	-200,000	-0,008	0,098
-489,737	609,396	-0,049	0,088
-488,722	-134,054	0,072	0,006
-487,708	292,178	0,072	-0,095
-486,693	9,924	-0,097	-0,053
-485,678	-200,000	-0,009	-0,050
-484,664	-12,832	-0,102	-0,048
-483,649	-132,573	-0,029	0,003
-482,635	-27,262	0,066	0,027
-481,620	-191,835	-0,052	-0,000
-480,605	52,135	0,057	-0,039
-479,591	8,132	0,113	0,061
-478,576	114,555	-0,076	-0,067
-477,562	800,000	0,031	-0,092
-476,547	222,346	0,015	0,017
-475,532	-4,607	0,070	-0,035
-474,518	-2,098	-0,045	-0,023
-473,503	-200,000	-0,000	0,088
-472,489	334,008	0,090	0,126
-471,474	50,932	-0,074	-0,050
-470,459	-200,000	-0,004	-0,079
-469,445	-164,084	-0,120	-0,004
-468,430	219,954	0,084	-0,097
-467,416	-72,733	0,198	-0,052
-466,401	318,763	0,045	0,062
-465,386	-200,000	0,014	-0,048
-464,372	-62,408	0,093	-0,028
-463,357	-95,072	0,100	0,019
-462,343	-200,000	0,020	-0,086
-461,328	721,000	0,019	0,036
-460,313	20,079	-0,077	-0,044
-459,299	800,000	-0,076	-0,151
-458,284	73,866	0,013	0,010
-457,270	-121,015	-0,068	0,008
-456,255	-55,328	0,041	0,013
-455,241	34,013	-0,053	-0,033
-454,226	-42,598	-0,110	-0,040
-453,211	-200,000	0,004	0,058
-452,197	216,166	0,088	0,101
-451,182	-200,000	-0,018	0,107
-450,168	261,221	0,066	0,082
-449,153	800,000	-0,001	0,003
-448,138	261,868	-0,080	-0,100
-447,124	-126,336	-0,113	0,012
-446,109	17,858	0,097	-0,055
-445,095	-24,483	-0,037	0,016
-444,080	-6,327	0,085	0,042
-443,065	16,764	0,035	-0,020
-442,051	800,000	0,039	0,085
-441,036	-9,140	0,023	-0,011
-440,022	208,586	0,017	-0,019
-439,007	366,536	0,033	-0,048
-437,992	-88,695	-0,143	0,030
-436,978	228,095	0,063	0,074
-435,963	-86,840	-0,081	0,018
-434,949	405,380	-0,059	-0,090
-433,934	-200,000	0,032	-0,114
-432,919	-200,000	-0,032	-0,114
-431,905	-85,003	0,051	0,011
-430,890	-200,000	0,007	0,121
-429,876	-200,000	0,006	-0,132
-428,861	46,401	0,084	0,056
-427,846	800,000	-0,056	-0,152
-426,832	-156,214	0,083	-0,004
-425,817	-102,752	-0,022	-0,004
-424,803	104,596	-0,082	-0,069
-423,788	421,204	-0,008	0,013
-422,773	-84,599	0,025	0,006
-421,759	-38,024	0,043	0,016
-420,744	800,000	0,046	-0,132
-419,730	-92,373	-0,124	-0,025
-418,715	800,000	-0,021	0,059
-417,701	-200,000	-0,012	-0,087
-416,686	-5,845	0,066	0,032
-415,671	95,500	0,190	-0,155
-414,657	12,755	-0,041	0,023
-413,642	-200,000	0,062	0,248
-412,628	-77,868	0,046	0,011
-411,613	701,524	-0,039	-0,074
-410,598	800,000	0,021	-0,045
-409,584	265,229	-0,011	-0,014
-408,569	-57,256	0,072	0,023
-407,555	800,000	0,056	0,170
-406,540	-24,396	0,023	0,010
-405,525	-84,037	-0,062	-0,014
-404,511	-200,000	-0,026	-0,089
-403,496	-200,000	0,002	-0,034
-402,482	-200,000	0,030	-0,111
-401,467	103,574	-0,082	-0,069
-400,452	800,000	0,050	0,149
-399,438	-7,191	-0,057	0,028
-398,423	90,588	-0,130	-0,105
-397,409	195,684	-0,049	-0,053
-396,394	800,000	0,039	-0,101
-395,379	800,000	-0,005	0,015
-394,365	-200,000	0,022	0,082
-393,350	-32,055	0,153	-0,061
-392,336	-48,377	0,121	0,042
-391,321	266,280	-0,080	-0,100
-390,306	514,018	0,040	-0,067
-389,292	800,000	0,057	-0,161
-388,277	155,261	-0,139	-0,137
-387,263	-32,290	0,131	0,052
-386,248	206,911	-0,069	0,077
-385,233	-38,382	-0,065	0,025
-384,219	22,010	0,063	-0,037
-383,204	230,955	-0,027	0,032
-382,190	-158,896	-0,145	0,006
-381,175	179,024	0,067	0,070
-380,160	-137,269	-0,035	0,003
-379,146	-69,510	0,050	0,014
-378,131	-61,887	-0,100	0,030
-377,117	-133,128	-0,105	-0,009
-376,102	338,297	0,146	0,204
-375,088	-200,000	-0,014	0,085
-374,073	96,112	0,127	-0,104
-373,058	-136,995	0,157	-0,013
-372,044	691,974	-0,021	0,039
-371,029	18,663	0,154	0,088
-370,015	27,220	-0,119	0,072
-369,000	-31,433	-0,064	-0,026
-367,985	152,959	-0,091	0,089
-366,971	-200,000	-0,024	-0,082
-365,956	31,320	0,155	0,095
-364,942	136,544	-0,022	0,021
-363,927	800,000	-0,032	0,088
-362,912	-10,735	-0,042	-0,020
-361,898	-200,000	0,003	0,064
-360,883	456,907	0,063	-0,101
-359,869	119,005	0,045	-0,040
-358,854	212,027	0,017	0,019
-357,839	-168,908	0,161	-0,004
-356,825	-200,000	-0,030	0,189
-355,810	10,598	0,148	-0,081
-354,796	-200,000	-0,022	-0,110
-353,781	800,000	0,029	-0,085
-352,766	-70,526	-0,108	-0,029
-351,752	102,933	0,058	-0,049
-350,737	-200,000	0,007	0,150
-349,723	360,985	0,094	0,136
-348,708	191,194	-0,085	0,092
-347,693	-200,000	-0,014	0,064
-346,679	800,000	0,041	0,100
-345,664	800,000	0,013	-0,031
-344,650	-200,000	0,014	-0,066
-343,635	-156,122	-0,101	0,005
-342,620	-30,184	0,044	-0,018
-341,606	-0,295	-0,120	0,061
-340,591	-107,488	0,052	0,008
-339,577	-37,539	-0,124	0,047
-338,562	-173,239	0,048	0,001
-337,548	-117,943	-0,059	-0,007
-336,533	-1,961	-0,010	0,005
-335,518	69,316	-0,025	0,018
-334,504	28,556	0,098	0,059
-333,489	-173,104	-0,119	0,003
-332,475	115,278	-0,074	0,065
-331,460	800,000	0,033	-0,101
-330,445	800,000	-0,036	-0,104
-329,431	-36,490	-0,104	0,040
-328,416	-200,000	0,024	-0,091
-327,402	-200,000	0,033	-0,114
-326,387	-103,559	0,057	0,010
-325,372	342,723	-0,048	-0,067
-324,358	800,000	-0,090	-0,235
-323,343	137,903	-0,025	-0,023
-322,329	30,743	0,082	-0,050
-321,314	800,000	0,010	0,020
-320,299	800,000	-0,015	0,034
-319,285	149,983	-0,101	0,098
-318,270	-200,000	0,003	0,107
-317,256	800,000	-0,064	-0,131
-316,241	94,714	0,098	0,080
-315,226	-96,217	0,091	0,017
-314,212	51,299	0,058	0,039
-313,197	-200,000	-0,022	0,083
-312,183	62,141	-0,152	-0,109
-311,168	346,254	0,061	-0,086
-310,153	800,000	0,054	-0,128
-309,139	-200,000	0,001	0,039
-308,124	599,265	0,041	-0,074
-307,110	499,858	0,031	0,051
-306,095	298,364	-0,003	0,004
-305,080	-160,164	-0,093	0,004
-304,066	-200,000	0,017	-0,075
-303,051	-200,000	-0,009	-0,041
-302,037	74,088	0,041	-0,030
-301,022	-49,863	0,047	0,016
-300,008	-200,000	0,059	-0,215
-298,993	-200,000	-0,029	-0,148
-297,978	63,416	-0,166	0,119
-296,964	-58,507	0,122	0,038
-295,949	-200,000	-0,016	-0,116
-294,935	-143,688	-0,068	-0,005
-293,920	484,536	0,010	-0,016
-292,905	533,789	0,066	0,112
-291,891	-200,000	-0,044	0,230
-290,876	114,531	-0,174	0,151
-289,862	47,426	-0,017	-0,011
-288,847	372,924	0,026	-0,038
-287,832	38,727	-0,167	0,107
-286,818	82,819	-0,023	0,018
-285,803	800,000	-0,058	0,117
-284,789	-200,000	0,010	0,068
-283,774	126,204	0,015	0,013
-282,759	-119,591	0,078	0,010
-281,745	199,709	-0,035	-0,039
-280,730	800,000	-0,013	0,027
-279,716	-200,000	-0,001	0,007
-278,701	-4,326	0,153	-0,075
-277,686	175,012	0,067	0,069
-276,672	33,939	-0,098	0,061
-275,657	-200,000	-0,011	0,094
-274,643	800,000	0,053	-0,131
-273,628	-200,000	-0,030	-0,104
-272,613	-25,463	-0,076	-0,032
-271,599	-116,275	-0,052	-0,007
-270,584	-200,000	-0,031	0,114
-269,570	-200,000	0,019	0,069
-268,555	19,816	-0,137	0,078
-267,540	64,030	-0,016	-0,012
-266,526	81,177	0,018	-0,014
-265,511	-142,355	0,083	-0,006
-264,497	-200,000	0,038	-0,211
-263,482	-128,486	0,169	0,017
-262,467	-200,000	-0,011	0,157
-261,453	-108,659	-0,026	0,004
-260,438	770,908	0,032	-0,063
-259,424	-200,000	-0,012	-0,079
-258,409	189,569	0,051	0,055
-257,395	-127,109	-0,053	0,005
-256,380	800,000	0,070	0,148
-255,365	800,000	-0,024	0,059
-254,351	91,397	-0,064	0,051
-253,336	85,970	0,048	0,037
-252,322	800,000	-0,039	0,092
-251,307	-200,000	0,017	-0,092
-250,292	-200,000	-0,013	0,099
-249,278	-87,528	0,102	-0,022
-248,263	-200,000	0,027	0,105
-247,249	139,279	-0,055	-0,052
-246,234	800,000	-0,041	-0,127
-245,219	163,052	-0,062	-0,062
-244,205	-14,384	0,115	0,053
-243,190	36,544	0,020	-0,013
-242,176	24,218	-0,075	0,044
-241,161	-200,000	0,006	0,095
-240,146	301,192	-0,093	0,123
-239,132	-3,090	-0,092	0,046
-238,117	710,451	0,020	0,038
-237,103	400,819	-0,063	-0,095
-236,088	648,734	0,008	-0,015
-235,073	-200,000	0,019	0,087
-234,059	-43,070	0,039	-0,014
-233,044	800,000	-0,030	0,063
-232,030	-200,000	0,011	0,054
-231,015	-200,000	-0,000	-0,105
-230,000	50,247	0,036	-0,024
-228,986	163,416	0,065	-0,065
-227,971	-200,000	-0,001	0,124
-226,957	-200,000	0,032	0,151
-225,942	-200,000	0,008	0,026
-224,927	-200,000	0,001	-0,012
-223,913	161,259	-0,058	-0,058
-222,898	-200,000	-0,020	0,137
-221,884	46,926	-0,126	-0,083
-220,869	396,230	-0,040	0,059
-219,855	7,334	-0,139	0,074
-218,840	73,182	0,062	-0,046
-217,825	222,067	0,073	-0,084
-216,811	135,163	0,026	0,024
-215,796	37,046	-0,035	-0,022
-214,782	-200,000	0,021	-0,165
-213,767	721,070	0,032	-0,062
-212,752	26,080	0,025	-0,015
-211,738	800,000	0,034	0,102
-210,723	800,000	0,023	0,069
-209,709	800,000	-0,063	-0,146
-208,694	-200,000	-0,021	0,077
-207,679	-139,358	-0,200	-0,015
-206,665	-62,224	0,013	-0,004
-205,650	-88,094	0,049	0,010
-204,636	-128,200	-0,035	-0,004
-203,621	27,644	-0,214	-0,128
-202,606	313,387	-0,063	-0,085
-201,592	425,971	-0,039	-0,060
-200,577	-200,000	0,003	-0,128
-199,563	-59,047	0,081	0,025
-198,548	265,998	-0,063	0,078
-197,533	-47,972	0,165	0,056
-196,519	800,000	-0,038	0,105
-195,504	-200,000	0,008	0,126
-194,490	164,630	-0,038	-0,038
-193,475	-200,000	0,020	-0,100
-192,460	504,197	0,104	0,172
-191,446	-200,000	0,019	-0,067
-190,431	-57,822	0,122	0,038
-189,417	-96,869	-0,149	-0,028
-188,402	-24,382	0,093	0,039
-187,387	-79,764	-0,136	0,032
-186,373	-74,670	0,030	-0,008
-185,358	-29,219	0,080	-0,032
-184,344	15,815	0,048	0,027
-183,329	-200,000	-0,019	0,076
-182,315	-200,000	0,032	0,153
-181,300	563,569	0,053	0,091
-180,285	-200,000	0,026	-0,140
-179,271	168,702	-0,026	-0,027
-178,256	242,618	0,049	0,058
-177,242	-200,000	0,014	0,044
-176,227	23,713	0,087	-0,051
-175,212	-200,000	-0,026	0,103
-174,198	189,234	-0,024	-0,025
-173,183	162,341	0,012	-0,012
-172,169	0,878	-0,121	0,061
-171,154	-43,749	0,103	-0,037
-170,139	715,994	0,055	0,104
-169,125	-13,634	0,041	0,019
-168,110	-54,195	-0,057	-0,018
-167,096	253,675	-0,099	-0,120
-166,081	-200,000	0,020	0,111
-165,066	-200,000	-0,001	-0,016
-164,052	-14,540	-0,109	-0,050
-163,037	-200,000	0,022	0,091
-162,023	-200,000	-0,002	0,054
-161,008	276,086	0,090	-0,114
-159,993	800,000	-0,026	0,060
-158,979	10,327	-0,118	0,064
-157,964	209,563	-0,025	0,028
-156,950	-200,000	-0,002	-0,095
-155,935	800,000	-0,029	0,061
-154,920	-60,468	-0,083	0,025
-153,906	-123,618	0,084	-0,009
-152,891	-193,210	-0,065	0,000
-151,877	-200,000	0,011	0,061
-150,862	340,361	-0,046	-0,064
-149,847	407,358	-0,052	-0,079
-148,833	125,636	0,062	-0,056
-147,818	-200,000	-0,015	0,082
-146,804	275,297	-0,018	-0,022
-145,789	-17,117	0,204	0,091
-144,775	-200,000	-0,012	-0,061
-143,760	800,000	-0,039	-0,108
-142,745	-200,000	-0,010	-0,045
-141,731	-200,000	-0,013	-0,050
-140,716	-43,961	0,040	-0,014
-139,702	93,548	0,046	-0,037
-138,687	-200,000	-0,024	-0,111
-137,672	-200,000	0,029	0,103
-136,658	800,000	-0,005	0,011
-135,643	-79,372	0,101	-0,024
-134,629	-77,808	0,117	0,029
-133,614	-39,524	0,119	0,044
-132,599	-116,484	0,050	0,006
-131,585	800,000	-0,044	-0,117
-130,570	-92,208	0,033	-0,007
-129,556	318,036	-0,046	0,062
-128,541	-102,796	0,087	0,015
-127,526	162,214	-0,096	0,096
-126,512	800,000	0,037	0,088
-125,497	623,315	0,036	0,064
-124,483	600,072	-0,055	0,098
-123,468	800,000	0,048	-0,104
-122,453	800,000	-0,032	-0,097
-121,439	-46,351	-0,057	-0,020
-120,424	153,750	-0,125	-0,121
-119,410	32,788	0,137	0,084
