DTS Sentinel unit serial number:	SN410029Multiplexer serial number:	ORYXHardware model number:	OX2-SRSoftware version number:	ORYX F/W v4,00 Oryx Data Collector v3.7.2.0data status	okinstallation	B6 Nyhavnadifferential loss correction	single-endedforward channel	channel 2reverse channel	N/Adate	2023/12/09time	14:10:08forward acquisition time	300,00reverse acquisition time	0,00gamma	499,1914k internal	0,3134k external	0,3134temperature offset calibration	1,0000default loss term (dB/km)	0,3820temperature slope calibration	1,0000multiplexer offset coefficient	1,0000multiplexer slope coefficient	1,0000fibre end	0,00T internal ref (°C)	20,46T ext. ref 1 (°C)	4,31T ext. ref 2 (°C)	4,33length (m)	temperature (°C)	Stokes	anti-Stokes-744,400	-200,000	0,002	-0,026
-743,385	5,946	-0,246	0,135
-742,371	-200,000	0,001	-0,062
-741,356	-38,030	-0,299	0,118
-740,342	-69,012	0,092	-0,026
-739,327	14,547	-0,258	0,149
-738,312	-126,097	-0,004	0,000
-737,298	-93,768	-0,174	0,035
-736,283	456,038	0,017	0,029
-735,269	15,317	-0,219	0,127
-734,254	5,904	-0,124	-0,068
-733,239	-86,782	-0,484	-0,109
-732,225	119,523	0,029	0,026
-731,210	-200,000	0,007	0,079
-730,196	-200,000	0,003	0,014
-729,181	60,486	0,041	-0,030
-728,167	-200,000	-0,000	-0,078
-727,152	-70,561	-0,054	-0,015
-726,137	-200,000	0,003	0,029
-725,123	-1,037	-0,054	0,028
-724,108	-118,378	-0,168	-0,022
-723,094	800,000	-0,022	-0,052
-722,079	500,732	0,048	-0,083
-721,064	176,927	-0,031	-0,033
-720,050	-88,643	-0,008	0,002
-719,035	-115,116	-0,111	-0,015
-718,021	8,087	-0,081	-0,045
-717,006	800,000	-0,017	0,053
-715,991	-139,230	-0,181	-0,014
-714,977	-181,892	-0,090	0,001
-713,962	-200,000	0,001	-0,035
-712,948	-200,000	0,001	0,074
-711,933	800,000	0,032	0,070
-710,918	2,060	-0,099	0,053
-709,904	-200,000	0,016	-0,079
-708,889	209,747	-0,037	-0,043
-707,875	499,146	-0,081	-0,138
-706,860	171,288	-0,071	0,076
-705,845	-200,000	-0,005	0,109
-704,831	-42,677	-0,053	0,020
-703,816	340,386	-0,092	-0,134
-702,802	800,000	-0,030	0,073
-701,787	54,205	0,056	-0,040
-700,772	-200,000	0,009	0,059
-699,758	-200,000	0,030	0,156
-698,743	119,699	-0,142	0,131
-697,729	-2,761	0,058	-0,030
-696,714	-67,920	-0,040	0,012
-695,699	-78,137	0,038	-0,010
-694,685	-200,000	-0,019	0,072
-693,670	34,609	-0,182	-0,117
-692,656	-200,000	-0,012	-0,066
-691,641	31,154	-0,082	-0,052
-690,627	800,000	-0,091	0,280
-689,612	-200,000	0,010	0,050
-688,597	88,878	-0,079	-0,065
-687,583	-200,000	0,014	-0,110
-686,568	-67,142	0,011	-0,003
-685,554	81,407	-0,070	-0,056
-684,539	-200,000	0,005	-0,063
-683,524	178,006	-0,040	-0,043
-682,510	-200,000	0,008	0,065
-681,495	23,478	-0,139	-0,084
-680,481	-200,000	-0,017	0,077
-679,466	-200,000	0,046	-0,168
-678,451	800,000	-0,027	0,060
-677,437	-200,000	-0,024	-0,083
-676,422	-200,000	-0,007	0,042
-675,408	-144,832	0,081	-0,005
-674,393	-164,020	0,050	-0,002
-673,378	-29,724	-0,167	-0,070
-672,364	261,731	-0,073	-0,094
-671,349	-200,000	0,001	-0,061
-670,335	226,829	-0,053	-0,064
-669,320	427,779	-0,089	-0,142
-668,305	-130,249	-0,128	-0,013
-667,291	83,474	-0,072	-0,058
-666,276	249,926	0,032	-0,040
-665,262	107,809	-0,080	-0,071
-664,247	89,140	-0,049	0,040
-663,232	-33,337	-0,042	0,017
-662,218	-200,000	0,017	-0,139
-661,203	-23,395	-0,150	0,066
-660,189	391,534	0,034	-0,053
-659,174	12,450	0,018	-0,010
-658,159	119,963	-0,094	-0,086
-657,145	214,900	-0,046	-0,054
-656,130	-74,707	-0,010	-0,003
-655,116	266,900	0,046	-0,059
-654,101	50,415	0,111	0,078
-653,086	-200,000	0,028	0,171
-652,072	-85,045	-0,083	-0,019
-651,057	527,523	0,130	-0,228
-650,043	59,976	0,030	-0,022
-649,028	-90,952	0,027	-0,006
-648,014	498,089	0,077	0,132
-646,999	-200,000	0,044	0,150
-645,984	113,541	-0,084	-0,076
-644,970	-19,590	-0,027	0,013
-643,955	-200,000	-0,022	-0,074
-642,941	800,000	-0,053	-0,151
-641,926	-21,963	-0,055	-0,025
-640,911	-148,394	-0,016	0,001
-639,897	-200,000	-0,003	-0,032
-638,882	-200,000	0,002	-0,029
-637,868	-20,631	-0,087	0,039
-636,853	-70,955	-0,028	-0,008
-635,838	283,437	-0,041	-0,055
-634,824	5,556	0,100	-0,055
-633,809	-200,000	-0,007	0,131
-632,795	267,342	0,004	-0,005
-631,780	-65,775	0,127	0,037
-630,765	-57,860	0,134	0,043
-629,751	-200,000	-0,026	-0,131
-628,736	196,613	0,045	0,051
-627,722	-173,369	-0,091	0,002
-626,707	-200,000	-0,004	0,024
-625,692	89,062	-0,068	0,056
-624,678	180,760	-0,028	-0,030
-623,663	-200,000	-0,012	-0,087
-622,649	-200,000	-0,042	-0,170
-621,634	93,944	-0,046	0,038
-620,619	-81,761	-0,257	0,062
-619,605	-200,000	-0,011	0,116
-618,590	548,750	0,025	-0,045
-617,576	-200,000	-0,002	0,013
-616,561	-200,000	-0,018	0,090
-615,546	-94,608	-0,054	0,011
-614,532	-50,243	-0,059	-0,021
-613,517	-200,000	-0,017	-0,106
-612,503	-200,000	-0,138	0,000
-611,488	-155,725	-0,034	0,002
-610,474	-200,000	0,003	0,112
-609,459	-36,967	0,107	-0,042
-608,444	-134,841	-0,148	0,013
-607,430	800,000	-0,043	-0,104
-606,415	708,332	-0,041	-0,081
-605,401	-43,155	0,049	0,018
-604,386	-30,976	0,110	-0,045
-603,371	-14,778	-0,140	0,066
-602,357	-126,427	-0,132	0,014
-601,342	-52,285	-0,077	-0,026
-600,328	292,220	-0,041	-0,056
-599,313	366,864	-0,037	0,055
-598,298	800,000	-0,078	0,199
-597,284	731,305	-0,036	0,072
-596,269	23,920	0,080	-0,049
-595,255	-63,198	0,184	0,056
-594,240	65,968	0,109	-0,082
-593,225	-114,744	0,081	-0,011
-592,211	16,430	0,022	-0,013
-591,196	-200,000	-0,037	0,152
-590,182	-66,649	0,052	-0,015
-589,167	-67,815	-0,022	-0,006
-588,152	-200,000	-0,029	0,113
-587,138	139,527	-0,078	0,076
-586,123	-200,000	0,019	0,076
-585,109	-200,000	0,004	-0,067
-584,094	325,145	-0,073	-0,103
-583,079	-91,278	0,096	0,020
-582,065	-2,751	0,016	-0,008
-581,050	-69,859	0,094	0,026
-580,036	800,000	0,044	-0,141
-579,021	-18,084	-0,055	-0,025
-578,006	38,317	0,034	0,022
-576,992	287,544	-0,015	0,020
-575,977	396,891	0,015	-0,023
-574,963	-111,797	0,133	0,020
-573,948	39,851	-0,028	0,019
-572,934	-72,148	0,056	-0,015
-571,919	-10,165	0,059	-0,029
-570,904	424,223	-0,091	-0,145
-569,890	485,699	-0,095	-0,160
-568,875	367,557	0,092	-0,137
-567,861	149,413	0,128	0,128
-566,846	-6,021	0,127	0,064
-565,831	0,541	0,084	-0,044
-564,817	800,000	0,018	-0,042
-563,802	-200,000	0,001	-0,057
-562,788	800,000	0,050	0,117
-561,773	53,442	-0,038	0,027
-560,758	-200,000	-0,017	-0,125
-559,744	323,631	0,037	-0,052
-558,729	88,466	0,074	-0,061
-557,715	136,026	0,034	0,033
-556,700	800,000	-0,046	0,108
-555,685	308,071	-0,060	0,083
-554,671	58,758	0,020	-0,015
-553,656	-157,062	0,149	0,007
-552,642	-20,381	0,059	0,027
-551,627	-200,000	-0,021	0,070
-550,612	421,785	-0,061	0,097
-549,598	-186,021	-0,124	-0,001
-548,583	-61,395	-0,195	-0,060
-547,569	26,590	0,132	0,082
-546,554	23,859	0,134	0,081
-545,539	241,857	-0,080	0,099
-544,525	59,280	0,092	-0,067
-543,510	-43,319	0,048	0,018
-542,496	97,877	-0,112	-0,095
-541,481	46,790	-0,097	0,066
-540,466	18,152	0,068	-0,040
-539,452	-48,829	0,072	0,025
-538,437	598,618	0,031	0,056
-537,423	800,000	-0,048	0,126
-536,408	-104,501	0,076	-0,013
-535,393	800,000	-0,037	-0,117
-534,379	483,522	-0,052	0,088
-533,364	800,000	0,049	0,118
-532,350	-177,405	0,100	-0,002
-531,335	-33,378	-0,097	0,040
-530,321	-70,292	0,130	0,036
-529,306	-35,526	0,034	0,014
-528,291	-16,812	0,082	0,038
-527,277	-95,012	-0,030	0,006
-526,262	-81,181	0,116	-0,028
-525,248	157,124	-0,046	-0,047
-524,233	-114,044	0,047	-0,007
-523,218	-71,213	0,111	-0,030
-522,204	-71,134	0,133	0,037
-521,189	133,227	0,099	-0,094
-520,175	-200,000	0,018	-0,124
-519,160	-13,199	-0,040	0,019
-518,145	-20,359	-0,073	-0,033
-517,131	164,800	0,037	0,038
-516,116	5,439	0,026	0,014
-515,102	82,978	-0,103	0,083
-514,087	83,640	-0,098	0,079
-513,072	530,310	-0,027	-0,047
-512,058	-200,000	-0,038	-0,126
-511,043	-200,000	-0,026	-0,135
-510,029	-200,000	0,008	-0,028
-509,014	-188,284	-0,070	0,001
-507,999	-200,000	-0,017	0,175
-506,985	87,266	-0,066	-0,054
-505,970	64,447	0,023	0,017
-504,956	-182,920	-0,220	-0,003
-503,941	280,938	-0,057	0,075
-502,926	223,522	-0,035	0,041
-501,912	155,721	0,103	0,104
-500,897	268,693	0,024	-0,031
-499,883	57,740	-0,047	0,034
-498,868	164,760	0,099	-0,103
-497,853	52,659	-0,085	-0,060
-496,839	-200,000	0,011	-0,054
-495,824	321,715	-0,085	-0,119
-494,810	79,091	0,014	0,011
-493,795	-135,328	-0,136	0,012
-492,781	226,166	-0,062	-0,074
-491,766	800,000	0,024	-0,056
-490,751	112,915	-0,112	-0,100
-489,737	-189,873	0,127	0,001
-488,722	627,960	0,063	0,118
-487,708	112,974	-0,072	0,064
-486,693	-58,009	0,092	0,029
-485,678	-200,000	-0,018	-0,090
-484,664	-200,000	-0,010	0,034
-483,649	-158,291	-0,058	0,002
-482,635	-200,000	-0,007	-0,092
-481,620	41,254	-0,005	-0,003
-480,605	-159,862	-0,009	-0,000
-479,591	123,977	-0,030	-0,027
-478,576	-83,111	0,111	0,026
-477,562	-19,264	-0,031	0,014
-476,547	-200,000	-0,003	-0,060
-475,532	-200,000	-0,023	-0,096
-474,518	-200,000	0,002	-0,027
-473,503	210,779	-0,060	-0,069
-472,489	9,908	-0,085	0,047
-471,474	219,942	0,063	0,074
-470,459	800,000	-0,031	-0,064
-469,445	33,453	0,109	0,069
-468,430	-200,000	0,005	-0,051
-467,416	74,997	0,076	0,059
-466,401	-200,000	-0,000	0,104
-465,386	-200,000	0,011	0,067
-464,372	-200,000	0,003	-0,054
-463,357	-200,000	0,027	-0,117
-462,343	-128,953	-0,045	0,005
-461,328	-200,000	0,011	0,055
-460,313	-200,000	-0,001	-0,022
-459,299	-27,326	0,052	-0,022
-458,284	185,902	-0,013	-0,014
-457,270	751,896	0,042	0,084
-456,255	42,775	0,083	-0,055
-455,241	44,557	-0,136	-0,092
-454,226	100,624	-0,123	0,105
-453,211	702,122	-0,041	0,080
-452,197	43,002	-0,048	-0,032
-451,182	-200,000	0,020	0,066
-450,168	87,121	-0,060	-0,049
-449,153	-79,241	-0,050	0,012
-448,138	-100,242	-0,106	0,019
-447,124	-142,494	0,025	0,002
-446,109	-81,035	0,072	-0,017
-445,095	16,516	-0,049	0,028
-444,080	-166,533	0,064	0,002
-443,065	278,835	0,046	-0,061
-442,051	99,051	-0,036	0,030
-441,036	-200,000	-0,005	-0,052
-440,022	-41,534	-0,067	0,025
-439,007	212,444	0,068	0,079
-437,992	366,309	0,083	-0,123
-436,978	74,332	0,105	0,081
-435,963	628,250	0,041	0,075
-434,949	-29,518	-0,105	-0,044
-433,934	-1,107	0,014	0,007
-432,919	221,347	-0,069	-0,082
-431,905	800,000	-0,035	-0,102
-430,890	7,194	0,084	-0,046
-429,876	234,684	0,042	0,051
-428,861	77,226	-0,075	0,058
-427,846	107,391	0,021	-0,018
-426,832	-200,000	-0,041	-0,151
-425,817	66,052	-0,044	0,033
-424,803	542,041	-0,031	-0,054
-423,788	-140,893	0,091	0,007
-422,773	-81,233	0,066	-0,016
-421,759	-200,000	-0,001	0,012
-420,744	589,803	0,039	0,070
-419,730	58,982	-0,049	-0,035
-418,715	-200,000	-0,019	0,078
-417,701	103,435	0,109	0,094
-416,686	293,198	-0,052	-0,070
-415,671	354,107	-0,047	0,069
-414,657	-119,040	0,116	0,015
-413,642	-70,785	0,026	-0,007
-412,628	-8,060	-0,069	-0,034
-411,613	61,804	-0,034	-0,025
-410,598	1,876	0,076	-0,040
-409,584	79,151	0,152	0,119
-408,569	-57,537	0,066	0,021
-407,555	-200,000	0,012	-0,045
-406,540	326,534	0,063	-0,089
-405,525	-56,829	0,031	-0,010
-404,511	137,828	0,086	-0,082
-403,496	-101,404	0,024	0,004
-402,482	631,935	0,098	-0,183
-401,467	-49,539	0,063	-0,022
-400,452	-200,000	0,006	0,121
-399,438	189,794	-0,053	0,059
-398,423	-15,603	0,067	0,031
-397,409	-200,000	0,038	-0,180
-396,394	-200,000	0,018	-0,093
-395,379	-200,000	0,011	0,082
-394,365	428,011	-0,016	-0,025
-393,350	571,229	0,054	0,096
-392,336	-200,000	-0,007	-0,132
-391,321	607,776	0,061	0,112
-390,306	-200,000	-0,005	-0,130
-389,292	-143,912	0,057	0,004
-388,277	30,298	-0,028	-0,017
-387,263	-54,678	0,050	-0,016
-386,248	-57,302	0,027	0,009
-385,233	-45,596	0,102	-0,037
-384,219	800,000	-0,029	0,059
-383,204	-86,590	-0,094	0,021
-382,190	-122,824	0,065	0,008
-381,175	151,505	0,081	0,081
-380,160	-98,782	0,030	0,005
-379,146	117,680	0,056	-0,050
-378,131	-28,156	0,090	0,038
-377,117	105,974	-0,085	0,074
-376,102	-116,542	0,097	0,013
-375,088	-78,160	-0,091	-0,023
-374,073	21,931	-0,086	0,051
-373,058	32,875	0,187	0,119
-372,044	-62,750	-0,123	-0,037
-371,029	760,974	0,046	-0,092
-370,015	25,814	-0,058	0,035
-369,000	556,686	-0,098	-0,174
-367,985	-200,000	-0,004	-0,079
-366,971	9,460	-0,145	-0,080
-365,956	113,335	0,072	-0,064
-364,942	79,584	0,074	0,058
-363,927	-12,187	-0,039	-0,019
-362,912	781,369	0,007	-0,015
-361,898	90,628	-0,111	-0,091
-360,883	478,622	-0,021	0,035
-359,869	-200,000	0,005	-0,036
-358,854	-5,274	-0,062	-0,031
-357,839	-24,530	0,171	0,074
-356,825	63,925	0,102	0,075
-355,810	-200,000	-0,009	-0,124
-354,796	800,000	-0,038	-0,119
-353,781	-200,000	-0,000	0,012
-352,766	420,121	-0,025	-0,040
-351,752	-126,900	-0,072	-0,008
-350,737	-200,000	0,007	0,141
-349,723	800,000	0,007	0,020
-348,708	-118,394	-0,097	0,012
-347,693	-175,640	0,075	-0,001
-346,679	-50,435	-0,020	-0,007
-345,664	-200,000	0,043	0,164
-344,650	-66,449	0,149	-0,043
-343,635	13,286	0,044	0,025
-342,620	52,979	0,078	0,054
-341,606	-167,799	-0,120	0,003
-340,591	131,491	0,107	-0,100
-339,577	-82,860	-0,138	0,032
-338,562	-83,319	-0,034	0,008
-337,548	800,000	-0,062	-0,177
-336,533	800,000	0,051	0,138
-335,518	-200,000	0,015	0,076
-334,504	11,357	-0,097	0,054
-333,489	621,543	-0,057	0,105
-332,475	-200,000	0,014	0,068
-331,460	-200,000	0,023	0,082
-330,445	800,000	-0,006	-0,014
-329,431	61,589	0,087	0,063
-328,416	800,000	-0,020	0,053
-327,402	-200,000	0,065	0,276
-326,387	800,000	0,009	-0,024
-325,372	-72,163	-0,082	-0,022
-324,358	83,251	0,108	-0,086
-323,343	-200,000	-0,004	-0,019
-322,329	-74,400	-0,114	-0,030
-321,314	-77,737	-0,125	0,031
-320,299	800,000	0,041	0,112
-319,285	196,066	0,099	-0,110
-318,270	-81,323	-0,085	0,020
-317,256	35,002	-0,076	-0,048
-316,241	800,000	0,038	-0,099
-315,226	60,607	-0,071	0,051
-314,212	-63,867	0,078	-0,023
-313,197	161,768	-0,051	-0,052
-312,183	-9,686	-0,019	0,009
-311,168	-200,000	-0,030	-0,202
-310,153	800,000	0,076	0,159
-309,139	800,000	0,017	-0,042
-308,124	35,884	0,096	0,061
-307,110	626,144	-0,015	-0,029
-306,095	74,204	0,081	0,062
-305,080	227,077	0,046	0,054
-304,066	-131,823	0,080	-0,008
-303,051	475,242	0,017	-0,028
-302,037	-25,359	-0,097	0,042
-301,022	348,354	-0,019	0,027
-300,008	45,623	0,081	0,055
-298,993	-200,000	0,023	0,100
-297,978	-200,000	-0,000	-0,050
-296,964	412,761	-0,101	-0,158
-295,949	7,228	-0,105	-0,057
-294,935	19,395	-0,085	-0,050
-293,920	800,000	-0,009	-0,025
-292,905	-118,755	-0,009	-0,001
-291,891	-78,820	0,084	-0,021
-290,876	60,862	0,094	-0,068
-289,862	380,507	-0,037	0,055
-288,847	226,534	0,038	-0,045
-287,832	390,410	-0,055	0,084
-286,818	-28,276	0,186	0,078
-285,803	52,945	0,029	0,020
-284,789	19,209	0,016	-0,009
-283,774	-200,000	0,005	0,037
-282,759	-24,095	-0,153	-0,066
-281,745	456,603	-0,037	0,059
-280,730	-116,043	0,159	0,021
-279,716	-200,000	0,029	0,122
-278,701	304,730	0,035	-0,048
-277,686	333,663	-0,113	0,160
-276,672	730,349	-0,082	0,160
-275,657	-9,838	-0,092	-0,044
-274,643	-200,000	0,007	-0,068
-273,628	196,343	-0,021	-0,023
-272,613	-136,806	0,131	0,011
-271,599	9,641	0,039	0,021
-270,584	171,392	-0,077	0,081
-269,570	-122,145	0,066	-0,008
-268,555	-200,000	0,012	0,083
-267,540	-117,429	0,091	-0,012
-266,526	-200,000	0,019	-0,064
-265,511	-136,659	0,037	0,003
-264,497	-88,510	-0,060	0,013
-263,482	54,773	0,050	-0,035
-262,467	-128,766	-0,077	-0,008
-261,453	231,955	-0,052	-0,062
-260,438	425,210	-0,016	-0,026
-259,424	-200,000	-0,031	-0,170
-258,409	-200,000	-0,011	0,159
-257,395	-125,903	-0,147	-0,016
-256,380	-22,723	0,087	-0,038
-255,365	800,000	-0,035	-0,075
-254,351	-200,000	0,013	0,060
-253,336	-103,496	0,082	0,014
-252,322	-200,000	-0,019	-0,070
-251,307	430,303	-0,029	0,047
-250,292	800,000	0,008	0,023
-249,278	-200,000	0,034	0,124
-248,263	286,081	-0,016	0,022
-247,249	-200,000	0,005	0,097
-246,234	3,046	0,051	0,027
-245,219	91,859	-0,066	0,054
-244,205	-74,268	-0,037	-0,010
-243,190	-25,229	-0,075	-0,032
-242,176	-200,000	-0,029	0,158
-241,161	-38,764	0,147	-0,056
-240,146	-106,421	-0,060	-0,010
-239,132	0,688	-0,065	-0,034
-238,117	800,000	-0,038	-0,084
-237,103	-85,107	0,071	-0,016
-236,088	555,384	0,025	-0,044
-235,073	164,413	-0,047	0,048
-234,059	47,050	0,112	0,076
-233,044	38,808	0,094	0,061
-232,030	-127,230	-0,056	-0,006
-231,015	-200,000	-0,004	-0,119
-230,000	800,000	0,038	-0,085
-228,986	568,481	-0,034	0,060
-227,971	-200,000	-0,009	0,029
-226,957	800,000	-0,006	-0,015
-225,942	637,236	-0,057	0,106
-224,927	580,418	-0,074	0,133
-223,913	215,328	-0,130	-0,151
-222,898	-200,000	0,027	-0,118
-221,884	-200,000	-0,025	-0,112
-220,869	-200,000	-0,014	0,053
-219,855	384,861	0,045	-0,067
-218,840	800,000	-0,041	-0,117
-217,825	-184,155	-0,105	-0,001
-216,811	543,727	0,043	-0,074
-215,796	327,100	-0,024	0,034
-214,782	188,867	0,081	-0,088
-213,767	179,243	0,085	0,091
-212,752	-65,097	-0,154	-0,045
-211,738	67,645	-0,088	-0,066
-210,723	748,684	-0,054	-0,107
-209,709	-101,659	0,113	-0,020
-208,694	118,727	0,021	-0,019
-207,679	-70,859	-0,178	-0,049
-206,665	-200,000	-0,005	-0,058
-205,650	-200,000	0,039	0,143
-204,636	146,812	-0,094	-0,092
-203,621	-200,000	-0,003	0,021
-202,606	-85,459	-0,123	-0,028
-201,592	800,000	0,010	-0,028
-200,577	-200,000	0,020	-0,092
-199,563	-22,114	0,138	0,061
-198,548	800,000	-0,005	0,014
-197,533	722,313	-0,042	0,081
-196,519	450,139	-0,028	0,045
-195,504	-175,887	0,134	-0,003
-194,490	-200,000	0,006	-0,047
-193,475	800,000	-0,069	-0,144
-192,460	-46,918	0,047	0,017
-191,446	-16,743	-0,087	-0,040
-190,431	-200,000	0,016	0,053
-189,417	-37,161	0,056	0,022
-188,402	-49,262	0,061	-0,021
-187,387	90,013	-0,091	0,074
-186,373	-200,000	-0,012	0,043
-185,358	-70,162	-0,067	0,018
-184,344	590,830	-0,024	-0,044
-183,329	-200,000	0,000	0,047
-182,315	-44,599	0,164	-0,059
-181,300	278,762	-0,086	0,111
-180,285	-200,000	0,019	-0,144
-179,271	800,000	-0,030	0,075
-178,256	-178,622	-0,151	0,002
-177,242	-47,735	0,135	0,047
-176,227	-88,340	0,098	-0,021
-175,212	800,000	-0,061	0,133
-174,198	218,784	-0,015	0,017
-173,183	37,275	-0,178	-0,114
-172,169	-47,490	-0,092	0,032
-171,154	-200,000	0,022	-0,137
-170,139	-200,000	-0,021	0,072
-169,125	481,089	0,016	0,027
-168,110	308,120	-0,062	-0,084
-167,096	747,896	0,051	-0,101
-166,081	-200,000	0,027	-0,116
-165,066	73,739	-0,160	-0,122
-164,052	800,000	-0,054	0,116
-163,037	271,298	0,043	0,055
-162,023	-148,092	0,042	-0,003
-161,008	81,476	0,038	0,030
-159,993	-200,000	-0,008	-0,030
-158,979	-200,000	0,021	0,091
-157,964	-200,000	0,013	-0,044
-156,950	734,887	-0,022	0,042
-155,935	-200,000	0,019	0,135
-154,920	800,000	0,042	0,093
-153,906	65,898	0,123	0,091
-152,891	-133,813	-0,042	0,004
-151,877	508,205	-0,027	-0,046
-150,862	236,026	0,121	-0,145
-149,847	406,253	0,032	0,050
-148,833	-200,000	-0,009	0,073
-147,818	121,873	-0,050	0,046
-146,804	236,502	-0,039	0,047
-145,789	329,068	-0,073	0,101
-144,775	388,331	0,068	0,102
-143,760	-50,435	-0,087	0,030
-142,745	315,580	0,070	-0,096
-141,731	800,000	-0,023	-0,058
-140,716	-7,656	-0,107	0,053
-139,702	-182,476	0,134	-0,002
-138,687	-200,000	-0,011	0,060
-137,672	-200,000	-0,025	0,117
-136,658	-200,000	0,029	-0,151
-135,643	-53,718	0,176	-0,058
-134,629	713,922	-0,062	0,120
-133,614	89,925	0,067	0,054
-132,599	800,000	-0,032	0,066
-131,585	-133,884	0,069	-0,006
-130,570	5,533	-0,069	-0,037
-129,556	-134,791	-0,179	0,016
-128,541	-37,835	-0,120	-0,046
-127,526	800,000	0,066	0,169
-126,512	6,417	0,069	0,037
-125,497	-200,000	0,032	0,169
-124,483	-200,000	0,005	0,065
-123,468	224,823	0,100	0,117
-122,453	-200,000	0,001	0,068
-121,439	166,215	0,051	-0,052
-120,424	22,796	0,151	-0,089
-119,410	74,735	-0,072	0,055
-118,395	-110,700	0,160	0,024
