DTS Sentinel unit serial number:	SN410029Multiplexer serial number:	ORYXHardware model number:	OX2-SRSoftware version number:	ORYX F/W v4,00 Oryx Data Collector v3.7.2.0data status	okinstallation	B6 Nyhavnadifferential loss correction	single-endedforward channel	channel 2reverse channel	N/Adate	2023/12/09time	04:05:08forward acquisition time	300,00reverse acquisition time	0,00gamma	499,1914k internal	0,3150k external	0,3150temperature offset calibration	1,0000default loss term (dB/km)	0,3820temperature slope calibration	1,0000multiplexer offset coefficient	1,0000multiplexer slope coefficient	1,0000fibre end	0,00T internal ref (°C)	16,73T ext. ref 1 (°C)	1,17T ext. ref 2 (°C)	1,17length (m)	temperature (°C)	Stokes	anti-Stokes-744,400	193,471	0,065	-0,073
-743,385	-134,100	-0,328	0,029
-742,371	120,189	0,127	0,117
-741,356	-62,211	-0,277	0,085
-740,342	109,481	-0,015	-0,013
-739,327	-59,857	-0,365	-0,115
-738,312	223,067	-0,057	0,068
-737,298	-135,433	-0,371	0,032
-736,283	26,682	0,125	0,077
-735,269	-98,836	-0,366	0,068
-734,254	18,771	0,091	-0,054
-733,239	-32,515	-0,557	-0,228
-732,225	-41,319	0,274	-0,104
-731,210	800,000	0,017	0,044
-730,196	-200,000	-0,004	-0,028
-729,181	53,565	-0,114	0,081
-728,167	-200,000	0,010	0,076
-727,152	336,118	0,059	0,085
-726,137	61,563	-0,076	0,056
-725,123	-55,940	0,039	0,013
-724,108	725,773	-0,030	-0,060
-723,094	-200,000	-0,004	-0,070
-722,079	800,000	-0,048	-0,130
-721,064	-200,000	0,022	-0,150
-720,050	146,537	-0,120	-0,119
-719,035	-96,537	-0,039	0,007
-718,021	-176,537	-0,092	0,002
-717,006	800,000	-0,069	-0,161
-715,991	453,409	-0,082	-0,135
-714,977	800,000	-0,081	-0,176
-713,962	169,658	-0,040	-0,042
-712,948	463,895	-0,038	0,063
-711,933	-34,045	-0,038	0,015
-710,918	800,000	0,041	-0,094
-709,904	800,000	-0,036	-0,107
-708,889	158,634	-0,028	-0,029
-707,875	800,000	-0,089	-0,186
-706,860	24,253	0,034	-0,021
-705,845	-200,000	-0,007	0,042
-704,831	176,618	-0,080	-0,086
-703,816	800,000	-0,025	-0,060
-702,802	-200,000	-0,035	-0,127
-701,787	129,895	-0,061	0,058
-700,772	-83,015	-0,091	-0,022
-699,758	-200,000	-0,007	0,028
-698,743	-42,357	0,080	-0,030
-697,729	-77,662	0,167	-0,042
-696,714	-51,462	-0,039	0,014
-695,699	-50,384	-0,123	-0,043
-694,685	643,493	-0,026	-0,049
-693,670	48,920	0,068	-0,047
-692,656	255,622	0,058	0,074
-691,641	-200,000	-0,021	0,073
-690,627	349,489	-0,096	-0,140
-689,612	475,291	-0,073	-0,121
-688,597	-133,322	-0,071	0,006
-687,583	-137,415	-0,039	0,003
-686,568	-200,000	0,022	-0,072
-685,554	-200,000	0,037	-0,167
-684,539	77,078	-0,096	0,075
-683,524	676,915	0,024	0,047
-682,510	800,000	0,043	0,121
-681,495	13,056	-0,092	0,052
-680,481	383,478	-0,062	-0,094
-679,466	510,465	-0,055	-0,095
-678,451	-38,378	-0,096	-0,037
-677,437	800,000	0,027	-0,069
-676,422	-200,000	0,037	0,159
-675,408	470,438	-0,066	0,111
-674,393	69,047	-0,047	-0,036
-673,378	-200,000	0,019	-0,148
-672,364	-166,572	-0,058	0,002
-671,349	-200,000	0,014	-0,068
-670,335	565,575	0,066	0,118
-669,320	-200,000	0,011	0,085
-668,305	-78,069	0,069	-0,017
-667,291	-200,000	0,010	-0,165
-666,276	494,620	-0,041	-0,069
-665,262	-200,000	0,020	-0,095
-664,247	-200,000	0,038	0,148
-663,232	152,495	0,092	-0,093
-662,218	-200,000	0,009	0,068
-661,203	-180,742	0,058	0,001
-660,189	-200,000	-0,027	0,123
-659,174	-200,000	-0,012	0,168
-658,159	-200,000	-0,009	-0,058
-657,145	-200,000	-0,017	0,075
-656,130	-200,000	0,008	-0,086
-655,116	4,758	-0,059	0,032
-654,101	-200,000	0,035	-0,162
-653,086	-66,008	-0,111	0,032
-652,072	-200,000	0,024	0,089
-651,057	122,454	0,012	0,011
-650,043	199,356	0,051	0,057
-649,028	89,068	-0,040	-0,033
-648,014	-200,000	-0,003	0,018
-646,999	-58,245	0,078	0,025
-645,984	300,833	-0,052	-0,070
-644,970	333,423	0,064	0,092
-643,955	123,067	-0,082	-0,076
-642,941	-83,073	-0,002	0,001
-641,926	372,437	-0,079	-0,119
-640,911	800,000	0,060	-0,156
-639,897	94,337	0,102	-0,086
-638,882	-200,000	0,044	-0,197
-637,868	-120,025	-0,050	0,006
-636,853	800,000	-0,012	-0,032
-635,838	-45,168	-0,080	-0,029
-634,824	147,805	0,033	-0,032
-633,809	72,844	0,202	0,155
-632,795	8,094	-0,041	0,022
-631,780	39,983	0,089	-0,059
-630,765	244,053	-0,090	0,112
-629,751	383,706	-0,123	-0,187
-628,736	-200,000	-0,010	-0,101
-627,722	-200,000	-0,020	0,072
-626,707	-28,426	-0,098	-0,041
-625,692	17,145	0,083	0,048
-624,678	-200,000	0,011	0,141
-623,663	393,979	-0,027	0,042
-622,649	128,844	-0,011	-0,011
-621,634	285,503	-0,076	-0,101
-620,619	-189,969	-0,136	-0,001
-619,605	800,000	0,037	-0,099
-618,590	-93,946	-0,075	-0,015
-617,576	-116,512	-0,131	0,018
-616,561	-200,000	0,009	-0,060
-615,546	77,277	-0,117	-0,092
-614,532	-104,401	-0,062	0,010
-613,517	-178,762	0,034	0,001
-612,503	-200,000	-0,035	-0,124
-611,488	52,314	-0,115	0,080
-610,474	-200,000	0,033	0,140
-609,459	-200,000	0,034	-0,153
-608,444	210,253	-0,086	-0,100
-607,430	53,301	-0,154	-0,108
-606,415	-200,000	-0,010	0,135
-605,401	-37,221	0,053	0,021
-604,386	343,521	-0,108	-0,155
-603,371	-200,000	-0,019	0,088
-602,357	-57,142	-0,038	-0,012
-601,342	-200,000	0,022	-0,130
-600,328	-69,880	-0,074	-0,021
-599,313	-59,938	-0,130	-0,041
-598,298	9,042	0,058	0,032
-597,284	-29,604	0,143	-0,060
-596,269	738,569	-0,034	-0,068
-595,255	-94,742	-0,139	-0,028
-594,240	463,760	-0,028	-0,046
-593,225	-107,166	-0,072	0,011
-592,211	46,895	-0,131	-0,089
-591,196	372,884	0,066	-0,099
-590,182	42,288	0,171	0,114
-589,167	800,000	0,025	0,075
-588,152	-66,617	0,075	-0,022
-587,138	-200,000	0,024	0,122
-586,123	800,000	-0,030	-0,085
-585,109	-200,000	-0,002	0,043
-584,094	-168,789	-0,052	-0,001
-583,079	464,039	0,072	0,119
-582,065	151,307	0,171	0,171
-581,050	98,691	-0,073	0,062
-580,036	55,148	0,089	-0,063
-579,021	-200,000	-0,012	-0,085
-578,006	-200,000	0,005	-0,040
-576,992	-46,794	-0,054	0,019
-575,977	154,249	-0,082	0,083
-574,963	-144,184	0,181	0,012
-573,948	-200,000	-0,011	0,097
-572,934	53,960	-0,028	-0,019
-571,919	-32,997	-0,039	0,016
-570,904	241,630	-0,069	-0,085
-569,890	-200,000	-0,004	0,043
-568,875	107,898	0,074	0,064
-567,861	199,475	0,042	0,047
-566,846	225,567	0,091	0,109
-565,831	26,154	-0,012	0,007
-564,817	800,000	-0,048	-0,104
-563,802	-200,000	-0,037	-0,168
-562,788	-49,122	0,064	-0,022
-561,773	-34,211	-0,071	-0,029
-560,758	239,601	0,089	0,109
-559,744	158,086	-0,073	0,074
-558,729	115,318	-0,104	-0,094
-557,715	162,182	-0,065	-0,067
-556,700	140,446	-0,022	-0,021
-555,685	-15,942	0,104	-0,048
-554,671	-200,000	0,001	0,017
-553,656	358,542	-0,079	-0,116
-552,642	-200,000	0,003	-0,011
-551,627	209,755	0,012	-0,014
-550,612	287,895	-0,087	-0,115
-549,598	-112,615	-0,087	0,013
-548,583	-200,000	0,013	0,084
-547,569	-76,141	0,299	0,077
-546,554	245,726	-0,128	0,159
-545,539	87,547	0,063	-0,051
-544,525	-44,641	-0,061	-0,022
-543,510	-120,015	0,031	0,004
-542,496	-200,000	0,032	-0,149
-541,481	141,670	-0,078	-0,076
-540,466	-131,554	0,065	0,006
-539,452	-200,000	-0,014	-0,095
-538,437	-200,000	0,011	0,104
-537,423	800,000	-0,021	0,056
-536,408	152,857	-0,063	-0,063
-535,393	-200,000	0,000	-0,045
-534,379	179,019	-0,116	-0,125
-533,364	-33,601	-0,223	-0,090
-532,350	242,471	0,023	-0,028
-531,335	-86,306	0,286	0,064
-530,321	26,973	-0,148	0,091
-529,306	15,250	-0,068	-0,039
-528,291	-200,000	-0,001	0,054
-527,277	-151,819	-0,055	-0,003
-526,262	800,000	-0,001	-0,003
-525,248	-170,419	0,104	-0,003
-524,233	89,681	-0,049	0,040
-523,218	800,000	0,024	0,057
-522,204	800,000	-0,010	-0,021
-521,189	-57,322	0,005	0,002
-520,175	225,660	-0,069	-0,083
-519,160	1,157	-0,033	-0,017
-518,145	-68,238	0,145	0,041
-517,131	107,097	-0,084	0,073
-516,116	-56,907	0,059	0,019
-515,102	-39,939	-0,054	-0,021
-514,087	-200,000	-0,001	0,165
-513,072	-48,652	-0,049	-0,017
-512,058	800,000	-0,077	-0,173
-511,043	222,888	0,034	-0,041
-510,029	800,000	0,009	0,024
-509,014	-200,000	-0,006	0,036
-507,999	-77,485	0,071	-0,018
-506,985	244,262	-0,075	0,092
-505,970	-200,000	-0,009	0,042
-504,956	86,521	-0,140	0,113
-503,941	800,000	0,039	0,095
-502,926	306,908	-0,044	-0,060
-501,912	521,724	0,024	-0,041
-500,897	235,437	-0,030	0,036
-499,883	25,119	-0,078	-0,047
-498,868	218,325	-0,078	-0,092
-497,853	116,279	0,121	-0,109
-496,839	14,084	-0,074	-0,042
-495,824	800,000	0,047	-0,132
-494,810	-200,000	-0,033	0,144
-493,795	266,469	0,035	-0,045
-492,781	773,011	-0,055	0,110
-491,766	-200,000	-0,025	-0,086
-490,751	800,000	-0,046	-0,104
-489,737	-200,000	0,054	0,187
-488,722	-81,683	0,045	-0,011
-487,708	-200,000	0,013	0,058
-486,693	-38,621	0,055	0,021
-485,678	-2,606	0,062	-0,032
-484,664	-83,202	0,092	0,021
-483,649	800,000	-0,019	-0,040
-482,635	-81,124	0,084	0,020
-481,620	313,779	0,075	0,104
-480,605	66,297	0,075	0,055
-479,591	-200,000	0,012	-0,091
-478,576	-200,000	-0,040	-0,141
-477,562	800,000	0,031	0,072
-476,547	405,579	-0,084	-0,130
-475,532	9,151	0,030	-0,016
-474,518	234,573	0,058	-0,070
-473,503	700,108	0,023	0,045
-472,489	-132,828	-0,049	0,005
-471,474	-200,000	0,001	0,061
-470,459	-56,962	-0,138	0,044
-469,445	800,000	-0,058	0,133
-468,430	800,000	0,038	-0,093
-467,416	-142,523	-0,103	0,007
-466,401	66,017	-0,149	0,110
-465,386	-53,682	-0,046	0,015
-464,372	116,171	0,012	-0,010
-463,357	457,843	0,054	-0,088
-462,343	462,479	0,047	-0,077
-461,328	-63,038	-0,012	0,003
-460,313	-200,000	0,030	-0,197
-459,299	36,611	0,121	-0,078
-458,284	337,079	-0,031	0,045
-457,270	-5,917	-0,049	-0,025
-456,255	164,297	0,037	0,038
-455,241	800,000	0,033	0,070
-454,226	570,942	0,018	-0,032
-453,211	368,270	0,066	-0,098
-452,197	-200,000	-0,007	0,095
-451,182	233,549	0,116	0,140
-450,168	116,934	-0,050	0,045
-449,153	800,000	-0,018	-0,045
-448,138	513,386	0,016	0,028
-447,124	-43,344	0,074	0,027
-446,109	800,000	-0,036	-0,075
-445,095	-44,400	0,088	-0,032
-444,080	-200,000	0,001	-0,009
-443,065	-200,000	-0,044	0,197
-442,051	-200,000	0,006	0,113
-441,036	-200,000	-0,018	0,074
-440,022	-56,783	-0,100	-0,032
-439,007	72,027	0,149	-0,113
-437,992	19,488	-0,101	-0,059
-436,978	-200,000	0,024	0,095
-435,963	149,988	0,090	0,089
-434,949	-16,362	-0,025	0,012
-433,934	102,063	0,099	-0,084
-432,919	-69,314	0,061	0,017
-431,905	27,632	-0,100	-0,061
-430,890	-200,000	0,013	-0,115
-429,876	-115,616	0,094	0,013
-428,861	319,933	-0,057	0,079
-427,846	256,555	0,053	-0,066
-426,832	32,053	-0,099	-0,062
-425,817	-200,000	0,026	-0,115
-424,803	603,186	-0,010	-0,017
-423,788	190,955	0,102	-0,112
-422,773	-4,373	0,063	0,032
-421,759	-200,000	0,005	-0,065
-420,744	-43,377	-0,053	0,019
-419,730	-200,000	-0,002	0,103
-418,715	-51,891	-0,054	-0,018
-417,701	23,452	0,038	-0,023
-416,686	800,000	-0,051	0,149
-415,671	-137,534	0,128	-0,010
-414,657	800,000	-0,016	-0,039
-413,642	800,000	-0,019	0,041
-412,628	405,377	0,027	0,042
-411,613	-200,000	0,029	-0,191
-410,598	558,951	0,041	-0,072
-409,584	-200,000	0,016	-0,074
-408,569	-184,520	0,105	0,001
-407,555	800,000	-0,066	0,143
-406,540	-9,116	0,072	0,035
-405,525	-29,248	0,045	0,019
-404,511	119,623	-0,132	-0,120
-403,496	210,234	-0,060	0,069
-402,482	-159,843	0,105	0,004
-401,467	527,984	-0,034	-0,059
-400,452	-121,928	-0,015	0,002
-399,438	-27,792	-0,169	-0,071
-398,423	800,000	-0,033	-0,068
-397,409	65,261	0,059	-0,043
-396,394	-200,000	-0,024	-0,178
-395,379	418,555	0,107	0,168
-394,365	-200,000	-0,015	0,173
-393,350	-200,000	0,017	0,069
-392,336	48,642	0,120	-0,082
-391,321	-75,085	-0,075	0,020
-390,306	-74,399	-0,076	-0,020
-389,292	20,578	0,075	0,044
-388,277	800,000	-0,041	0,102
-387,263	-200,000	0,000	-0,099
-386,248	172,493	0,025	0,026
-385,233	-200,000	0,002	0,053
-384,219	696,940	0,060	0,115
-383,204	613,287	-0,027	-0,050
-382,190	-106,542	0,048	0,008
-381,175	394,401	-0,118	-0,180
-380,160	10,068	-0,057	0,032
-379,146	724,744	0,057	0,111
-378,131	188,908	0,084	0,091
-377,117	9,029	-0,081	0,045
-376,102	-74,942	0,061	0,016
-375,088	259,744	-0,045	-0,057
-374,073	800,000	-0,027	-0,085
-373,058	414,598	-0,044	0,068
-372,044	800,000	-0,024	0,066
-371,029	336,086	0,026	0,036
-370,015	-15,554	-0,089	-0,041
-369,000	-200,000	0,008	0,031
-367,985	72,902	0,041	-0,031
-366,971	-200,000	-0,009	-0,100
-365,956	319,023	0,012	0,016
-364,942	-200,000	0,013	0,121
-363,927	-200,000	-0,000	0,053
-362,912	-120,469	-0,036	-0,004
-361,898	-71,844	-0,054	0,014
-360,883	-44,612	0,061	0,022
-359,869	800,000	-0,015	0,043
-358,854	241,725	-0,017	-0,021
-357,839	120,005	0,080	0,072
-356,825	-200,000	0,058	0,190
-355,810	800,000	0,057	-0,139
-354,796	-110,497	-0,080	-0,012
-353,781	644,147	-0,032	-0,059
-352,766	-57,580	0,056	-0,018
-351,752	96,717	0,054	0,045
-350,737	330,318	-0,046	0,065
-349,723	-200,000	0,016	0,172
-348,708	188,200	-0,120	0,131
-347,693	145,036	-0,017	0,016
-346,679	800,000	-0,038	-0,077
-345,664	800,000	0,008	0,022
-344,650	-200,000	-0,011	-0,037
-343,635	-200,000	-0,011	-0,056
-342,620	-71,766	0,172	-0,046
-341,606	-200,000	-0,035	0,180
-340,591	39,069	0,079	0,051
-339,577	221,279	-0,047	-0,055
-338,562	-200,000	-0,026	0,122
-337,548	-83,754	0,104	-0,024
-336,533	-26,319	-0,147	0,062
-335,518	283,313	-0,034	0,044
-334,504	115,859	-0,093	-0,083
-333,489	9,703	0,153	-0,084
-332,475	458,251	0,016	-0,026
-331,460	-200,000	-0,001	-0,215
-330,445	-200,000	-0,019	-0,117
-329,431	-118,441	-0,089	0,011
-328,416	-62,278	-0,065	0,019
-327,402	-95,010	-0,050	-0,010
-326,387	-138,087	0,173	0,014
-325,372	304,476	-0,129	-0,175
-324,358	-81,250	0,111	-0,026
-323,343	135,007	0,016	-0,015
-322,329	-200,000	0,027	0,123
-321,314	-200,000	0,027	0,094
-320,299	-200,000	-0,012	0,076
-319,285	-200,000	-0,001	-0,048
-318,270	-200,000	0,035	-0,170
-317,256	-41,099	-0,044	0,017
-316,241	-200,000	0,019	0,064
-315,226	-200,000	-0,017	0,092
-314,212	-56,484	0,047	-0,015
-313,197	426,610	0,052	0,081
-312,183	-200,000	-0,015	-0,095
-311,168	46,965	0,095	-0,064
-310,153	-200,000	-0,009	-0,044
-309,139	113,012	0,035	0,031
-308,124	57,305	-0,105	0,074
-307,110	-177,075	0,019	0,000
-306,095	-200,000	0,019	-0,065
-305,080	289,099	-0,053	-0,069
-304,066	-103,834	-0,078	0,013
-303,051	-200,000	0,006	-0,046
-302,037	-200,000	0,004	0,039
-301,022	-18,500	-0,023	-0,010
-300,008	122,906	0,120	0,109
-298,993	668,329	-0,037	0,069
-297,978	800,000	0,036	-0,078
-296,964	8,901	-0,036	-0,019
-295,949	4,184	-0,030	-0,016
-294,935	800,000	-0,017	-0,039
-293,920	790,079	0,024	0,048
-292,905	-85,284	0,036	-0,008
-291,891	-200,000	-0,005	0,037
-290,876	-125,674	0,126	-0,014
-289,862	-200,000	0,006	0,036
-288,847	-200,000	0,000	-0,045
-287,832	106,737	-0,034	-0,029
-286,818	-77,881	0,090	-0,022
-285,803	-200,000	-0,004	0,033
-284,789	-195,951	-0,112	0,001
-283,774	-75,247	0,172	-0,044
-282,759	-8,711	-0,135	0,066
-281,745	800,000	0,017	-0,036
-280,730	649,341	0,013	0,025
-279,716	-90,267	0,125	-0,026
-278,701	252,574	-0,066	-0,081
-277,686	752,242	0,017	0,034
-276,672	-137,927	0,166	-0,013
-275,657	800,000	0,019	0,059
-274,643	800,000	-0,036	-0,087
-273,628	508,750	0,029	-0,050
-272,613	256,409	-0,094	-0,118
-271,599	244,297	-0,010	0,012
-270,584	800,000	0,036	-0,088
-269,570	-200,000	0,004	-0,061
-268,555	-46,517	0,170	-0,060
-267,540	-9,766	0,044	-0,021
-266,526	-200,000	0,018	0,118
-265,511	800,000	-0,027	0,086
-264,497	-200,000	0,009	-0,036
-263,482	-105,482	-0,049	-0,008
-262,467	-54,977	-0,007	-0,002
-261,453	800,000	0,038	-0,090
-260,438	62,110	-0,154	-0,111
-259,424	-200,000	-0,008	-0,084
-258,409	800,000	-0,022	-0,045
-257,395	-200,000	-0,051	-0,200
-256,380	327,876	0,092	-0,128
-255,365	228,599	0,089	0,105
-254,351	-200,000	0,005	-0,117
-253,336	-200,000	0,049	-0,177
-252,322	-125,420	-0,033	-0,004
-251,307	-101,601	0,139	0,024
-250,292	179,001	0,009	-0,009
-249,278	252,786	0,040	0,050
-248,263	-63,271	-0,039	0,012
-247,249	547,203	0,048	-0,083
-246,234	-200,000	0,025	-0,125
-245,219	321,103	-0,008	0,011
-244,205	-167,928	-0,109	0,003
-243,190	800,000	0,048	0,142
-242,176	-147,601	-0,119	0,007
-241,161	-200,000	0,005	0,040
-240,146	-5,473	0,038	-0,019
-239,132	-200,000	0,043	0,163
-238,117	-36,317	-0,052	-0,020
-237,103	-200,000	-0,020	-0,104
-236,088	-200,000	0,010	0,072
-235,073	102,378	0,088	-0,075
-234,059	-19,062	0,156	0,070
-233,044	-200,000	0,000	0,093
-232,030	-200,000	-0,026	-0,100
-231,015	-200,000	0,009	0,073
-230,000	170,597	0,048	-0,050
-228,986	11,200	0,069	-0,038
-227,971	-200,000	0,043	0,175
-226,957	-89,471	0,078	-0,017
-225,942	188,336	-0,062	0,067
-224,927	186,560	0,044	0,048
-223,913	365,245	0,026	-0,038
-222,898	-50,936	-0,177	0,060
-221,884	-13,680	-0,032	-0,015
-220,869	-166,043	0,133	-0,004
-219,855	-200,000	-0,003	0,071
-218,840	245,000	0,074	0,090
-217,825	-132,342	0,040	-0,004
-216,811	219,462	-0,066	0,077
-215,796	53,731	-0,114	-0,079
-214,782	-200,000	0,001	-0,065
-213,767	-200,000	-0,023	0,172
-212,752	45,611	0,112	0,075
-211,738	-52,004	0,193	0,064
-210,723	-200,000	-0,012	-0,065
-209,709	-200,000	0,020	0,099
-208,694	141,592	0,038	0,037
-207,679	193,725	-0,038	0,041
-206,665	-200,000	0,021	-0,068
-205,650	-200,000	0,029	0,165
-204,636	546,325	0,039	-0,068
-203,621	307,180	0,114	0,155
-202,606	25,535	-0,048	0,029
-201,592	591,722	0,023	-0,042
-200,577	39,953	-0,035	-0,023
-199,563	202,322	-0,102	-0,114
-198,548	800,000	-0,057	0,163
-197,533	-88,026	0,164	0,035
-196,519	164,223	-0,141	0,143
-195,504	-200,000	-0,002	-0,074
-194,490	-22,420	0,061	0,026
-193,475	-200,000	-0,021	0,075
-192,460	626,561	0,049	-0,090
-191,446	800,000	0,072	0,197
-190,431	737,426	-0,085	0,165
-189,417	324,768	-0,036	0,049
-188,402	-24,679	-0,132	0,056
-187,387	-27,580	-0,047	0,020
-186,373	344,408	0,044	-0,062
-185,358	800,000	-0,040	-0,098
-184,344	406,405	0,090	-0,137
-183,329	-200,000	-0,020	0,084
-182,315	-57,789	-0,059	-0,019
-181,300	-50,688	-0,170	-0,057
-180,285	-200,000	0,023	0,128
-179,271	-200,000	0,000	0,077
-178,256	800,000	0,038	0,090
-177,242	-200,000	-0,000	0,012
-176,227	745,741	-0,017	-0,033
-175,212	245,884	-0,064	0,078
-174,198	303,229	0,036	-0,049
-173,183	-41,132	-0,134	0,050
-172,169	-200,000	0,007	0,060
-171,154	-96,124	-0,044	-0,008
-170,139	109,922	0,089	-0,077
-169,125	800,000	-0,042	0,088
-168,110	411,544	-0,064	0,098
-167,096	800,000	-0,010	-0,023
-166,081	-67,733	0,106	-0,030
-165,066	-115,213	-0,124	0,017
-164,052	83,122	-0,040	0,031
-163,037	7,862	0,110	0,060
-162,023	62,211	0,041	0,030
-161,008	112,914	0,050	-0,044
-159,993	41,669	0,065	0,042
-158,979	255,926	0,059	-0,073
-157,964	-108,606	-0,056	-0,009
-156,950	-200,000	-0,028	0,150
-155,935	800,000	-0,061	0,129
-154,920	223,962	0,066	-0,077
-153,906	341,130	-0,077	0,109
-152,891	8,446	0,051	0,028
-151,877	-200,000	-0,007	0,091
-150,862	800,000	-0,030	0,066
-149,847	-8,641	0,091	0,044
-148,833	360,703	-0,035	0,051
-147,818	242,235	-0,042	-0,051
-146,804	4,043	-0,100	0,053
-145,789	11,652	0,090	-0,049
-144,775	-142,841	-0,108	0,007
-143,760	-21,596	0,103	-0,045
-142,745	177,478	0,068	-0,071
-141,731	-92,160	0,112	0,023
-140,716	-5,583	-0,053	-0,026
-139,702	-200,000	-0,001	-0,023
-138,687	47,643	0,045	-0,030
-137,672	-34,657	-0,191	-0,075
-136,658	94,373	-0,060	0,049
-135,643	-200,000	0,037	-0,134
-134,629	48,940	0,126	0,085
-133,614	436,209	0,031	0,049
-132,599	800,000	-0,030	-0,094
-131,585	149,864	-0,038	-0,037
-130,570	273,128	0,056	-0,072
-129,556	217,901	-0,072	0,083
-128,541	-140,496	-0,143	-0,011
-127,526	215,258	-0,087	-0,099
-126,512	117,311	0,030	0,027
-125,497	800,000	0,032	-0,076
-124,483	-200,000	0,007	-0,089
-123,468	-55,512	0,093	-0,030
-122,453	-200,000	-0,001	-0,035
-121,439	-200,000	-0,021	-0,082
-120,424	800,000	0,017	0,037
