DTS Sentinel unit serial number:	SN410029Multiplexer serial number:	ORYXHardware model number:	OX2-SRSoftware version number:	ORYX F/W v4,00 Oryx Data Collector v3.7.2.0data status	okinstallation	B6 Nyhavnadifferential loss correction	single-endedforward channel	channel 2reverse channel	N/Adate	2023/12/09time	07:55:08forward acquisition time	300,00reverse acquisition time	0,00gamma	499,1914k internal	0,3138k external	0,3138temperature offset calibration	1,0000default loss term (dB/km)	0,3820temperature slope calibration	1,0000multiplexer offset coefficient	1,0000multiplexer slope coefficient	1,0000fibre end	0,00T internal ref (°C)	18,52T ext. ref 1 (°C)	1,91T ext. ref 2 (°C)	1,88length (m)	temperature (°C)	Stokes	anti-Stokes-744,400	74,440	-0,064	0,050
-743,385	-142,690	-0,278	0,020
-742,371	-98,794	0,093	0,017
-741,356	66,339	-0,207	0,156
-740,342	-185,427	0,035	-0,000
-739,327	-74,646	-0,234	-0,062
-738,312	800,000	0,033	0,091
-737,298	-31,285	-0,302	0,126
-736,283	463,071	0,034	-0,057
-735,269	-50,982	-0,309	0,107
-734,254	-200,000	0,000	-0,040
-733,239	2,892	-0,425	-0,228
-732,225	453,160	0,053	0,088
-731,210	-41,045	-0,146	0,056
-730,196	1,555	0,016	0,009
-729,181	-75,212	-0,053	-0,014
-728,167	800,000	-0,017	-0,049
-727,152	280,228	-0,040	0,054
-726,137	-168,682	-0,061	-0,002
-725,123	-200,000	-0,032	-0,186
-724,108	-200,000	-0,018	-0,078
-723,094	140,630	-0,017	0,017
-722,079	-111,508	-0,198	0,030
-721,064	-180,898	0,118	0,002
-720,050	212,841	-0,125	-0,146
-719,035	-53,050	-0,073	-0,025
-718,021	-134,183	0,081	0,007
-717,006	-200,000	-0,082	0,000
-715,991	15,701	-0,158	0,092
-714,977	-121,958	0,138	-0,017
-713,962	800,000	-0,041	0,126
-712,948	-200,000	-0,005	0,121
-711,933	51,750	0,022	0,016
-710,918	-200,000	0,026	-0,182
-709,904	-164,534	-0,149	0,005
-708,889	800,000	-0,079	-0,188
-707,875	-200,000	-0,015	-0,111
-706,860	-200,000	0,024	-0,148
-705,845	800,000	0,034	-0,083
-704,831	-200,000	0,023	-0,081
-703,816	-180,286	-0,097	-0,001
-702,802	-200,000	0,006	0,132
-701,787	391,256	-0,081	-0,124
-700,772	1,391	-0,082	0,044
-699,758	-30,316	-0,079	-0,033
-698,743	-100,412	-0,156	0,028
-697,729	800,000	0,034	0,082
-696,714	-52,051	0,081	-0,028
-695,699	-185,267	-0,025	-0,000
-694,685	-33,378	-0,119	-0,048
-693,670	233,468	0,040	-0,049
-692,656	800,000	0,036	-0,106
-691,641	200,638	-0,018	-0,020
-690,627	800,000	0,025	-0,055
-689,612	392,757	-0,040	-0,061
-688,597	349,708	-0,017	-0,024
-687,583	-75,827	-0,083	0,022
-686,568	-200,000	0,006	0,040
-685,554	304,803	0,054	0,074
-684,539	-98,196	-0,025	0,005
-683,524	200,374	-0,100	-0,114
-682,510	118,491	0,030	-0,027
-681,495	-200,000	0,001	0,036
-680,481	-200,000	0,019	-0,137
-679,466	800,000	-0,009	-0,019
-678,451	565,841	-0,071	-0,127
-677,437	221,387	0,038	-0,045
-676,422	205,211	-0,048	-0,055
-675,408	-161,744	-0,033	0,001
-674,393	3,175	0,037	0,020
-673,378	302,655	-0,056	-0,077
-672,364	29,666	0,108	-0,068
-671,349	717,239	-0,040	-0,080
-670,335	-9,398	0,101	-0,050
-669,320	671,179	0,036	-0,069
-668,305	-200,000	-0,012	-0,074
-667,291	568,829	-0,049	0,089
-666,276	-113,215	-0,123	0,018
-665,262	-8,994	-0,080	-0,039
-664,247	-80,938	-0,106	0,026
-663,232	-200,000	0,005	0,069
-662,218	-16,111	-0,091	0,042
-661,203	-107,528	-0,046	-0,007
-660,189	800,000	0,028	0,064
-659,174	800,000	-0,027	0,068
-658,159	800,000	0,068	-0,160
-657,145	-200,000	-0,030	-0,168
-656,130	362,982	0,034	0,051
-655,116	-46,347	0,109	-0,039
-654,101	-150,234	0,065	-0,004
-653,086	-35,618	0,128	-0,051
-652,072	105,857	-0,012	-0,011
-651,057	-153,854	-0,136	0,007
-650,043	-200,000	0,007	-0,053
-649,028	-13,354	-0,053	-0,025
-648,014	-57,049	0,087	-0,028
-646,999	-200,000	-0,016	-0,126
-645,984	-200,000	0,018	0,065
-644,970	29,549	-0,101	-0,063
-643,955	780,799	-0,066	0,135
-642,941	-200,000	-0,027	-0,113
-641,926	288,016	0,030	-0,040
-640,911	49,328	0,020	-0,014
-639,897	800,000	0,052	-0,168
-638,882	48,552	-0,120	-0,083
-637,868	-40,570	0,032	-0,012
-636,853	399,616	-0,042	-0,066
-635,838	-131,030	-0,182	0,018
-634,824	-200,000	-0,006	-0,057
-633,809	138,871	0,048	-0,046
-632,795	-51,485	-0,076	0,026
-631,780	85,701	0,065	0,052
-630,765	222,484	0,071	-0,085
-629,751	518,287	0,055	-0,096
-628,736	291,675	0,033	-0,045
-627,722	800,000	-0,065	-0,167
-626,707	-200,000	-0,005	0,159
-625,692	800,000	-0,042	0,121
-624,678	-133,166	0,121	0,011
-623,663	-200,000	0,006	-0,047
-622,649	125,114	-0,058	0,054
-621,634	800,000	0,022	-0,070
-620,619	-200,000	0,006	-0,067
-619,605	-80,956	-0,072	0,018
-618,590	-163,265	0,151	-0,005
-617,576	5,461	0,024	-0,013
-616,561	234,440	0,024	0,029
-615,546	-200,000	0,013	-0,096
-614,532	-58,189	0,039	0,012
-613,517	-11,593	0,042	0,020
-612,503	265,252	-0,065	0,084
-611,488	-107,711	0,103	0,016
-610,474	-50,280	-0,193	-0,067
-609,459	800,000	0,053	0,139
-608,444	800,000	0,018	-0,050
-607,430	-200,000	-0,009	-0,051
-606,415	-53,580	-0,050	-0,017
-605,401	21,820	0,104	-0,062
-604,386	-200,000	0,015	0,084
-603,371	686,218	0,032	0,061
-602,357	-117,835	-0,088	0,011
-601,342	636,880	-0,103	-0,194
-600,328	-200,000	-0,008	-0,099
-599,313	93,127	0,151	-0,126
-598,298	-21,209	-0,064	0,029
-597,284	194,669	-0,029	0,033
-596,269	511,642	0,025	-0,043
-595,255	-200,000	0,019	0,094
-594,240	21,167	-0,120	0,072
-593,225	-12,103	-0,098	0,047
-592,211	800,000	0,049	-0,144
-591,196	800,000	-0,026	-0,071
-590,182	-200,000	-0,029	-0,143
-589,167	800,000	0,066	0,150
-588,152	-66,354	0,074	-0,022
-587,138	-200,000	-0,029	-0,131
-586,123	-200,000	-0,005	-0,128
-585,109	-18,247	0,037	0,017
-584,094	800,000	-0,003	0,008
-583,079	800,000	-0,034	-0,071
-582,065	173,184	0,048	0,051
-581,050	734,157	-0,047	0,093
-580,036	800,000	0,063	-0,172
-579,021	-63,379	-0,126	-0,038
-578,006	41,410	0,004	0,003
-576,992	800,000	0,028	0,088
-575,977	-40,745	0,025	-0,010
-574,963	32,066	-0,031	-0,020
-573,948	306,247	-0,101	0,138
-572,934	800,000	-0,057	-0,155
-571,919	299,192	0,080	-0,109
-570,904	214,970	-0,045	0,053
-569,890	45,333	0,024	0,016
-568,875	39,812	0,131	0,086
-567,861	140,704	-0,030	0,030
-566,846	75,155	-0,085	0,066
-565,831	-76,048	-0,059	-0,015
-564,817	22,406	0,154	-0,093
-563,802	64,336	-0,203	-0,150
-562,788	-164,182	-0,058	0,002
-561,773	-66,406	0,023	-0,007
-560,758	-166,490	0,028	0,001
-559,744	171,352	-0,085	0,090
-558,729	-200,000	0,002	0,089
-557,715	97,395	-0,016	0,013
-556,700	284,334	-0,086	-0,114
-555,685	228,970	-0,128	-0,154
-554,671	-147,653	-0,106	0,006
-553,656	121,528	-0,100	0,092
-552,642	-85,676	-0,179	-0,041
-551,627	-200,000	-0,004	-0,052
-550,612	-44,008	-0,050	0,019
-549,598	9,526	-0,089	-0,050
-548,583	-99,705	0,108	-0,020
-547,569	-200,000	-0,028	-0,115
-546,554	-48,956	0,034	-0,012
-545,539	-114,314	0,145	-0,020
-544,525	213,998	-0,049	0,057
-543,510	-85,494	-0,187	0,042
-542,496	140,570	0,011	-0,011
-541,481	81,155	-0,115	-0,091
-540,466	800,000	-0,035	-0,072
-539,452	237,097	0,087	0,106
-538,437	39,068	-0,092	-0,060
-537,423	630,765	0,042	-0,079
-536,408	85,160	-0,057	-0,046
-535,393	-200,000	-0,003	0,073
-534,379	339,502	0,041	0,059
-533,364	-200,000	0,026	0,138
-532,350	800,000	-0,018	-0,057
-531,335	119,160	0,098	0,089
-530,321	-159,229	-0,093	0,004
-529,306	533,932	0,066	-0,115
-528,291	16,945	-0,020	0,012
-527,277	800,000	0,037	0,088
-526,262	-35,044	-0,097	-0,039
-525,248	-200,000	0,037	0,260
-524,233	14,846	-0,108	0,062
-523,218	-200,000	0,004	-0,085
-522,204	203,422	0,005	0,006
-521,189	-200,000	-0,001	0,068
-520,175	-95,898	-0,111	0,022
-519,160	-142,819	0,025	-0,002
-518,145	800,000	0,039	-0,123
-517,131	-148,061	0,164	0,010
-516,116	-23,140	0,069	-0,030
-515,102	800,000	0,031	0,097
-514,087	800,000	0,023	-0,050
-513,072	-27,434	-0,077	0,033
-512,058	32,115	0,081	0,052
-511,043	800,000	-0,032	-0,071
-510,029	-24,270	-0,038	0,017
-509,014	-94,010	-0,042	-0,008
-507,999	15,508	0,114	-0,066
-506,985	-157,808	-0,097	-0,004
-505,970	-200,000	-0,012	-0,095
-504,956	-200,000	0,026	0,159
-503,941	127,603	-0,046	-0,043
-502,926	800,000	-0,017	-0,040
-501,912	-200,000	-0,014	-0,066
-500,897	-136,783	0,077	0,006
-499,883	-200,000	0,007	-0,075
-498,868	179,728	0,012	-0,013
-497,853	-200,000	-0,010	0,056
-496,839	22,010	-0,117	-0,070
-495,824	122,611	-0,034	0,031
-494,810	-94,670	0,084	-0,017
-493,795	-96,642	-0,067	0,013
-492,781	-165,513	0,074	-0,002
-491,766	-200,000	0,024	-0,224
-490,751	800,000	-0,098	-0,245
-489,737	800,000	-0,027	0,080
-488,722	141,154	-0,063	-0,061
-487,708	-200,000	0,007	0,076
-486,693	-67,708	0,030	-0,009
-485,678	-8,723	0,082	-0,040
-484,664	800,000	-0,050	0,103
-483,649	-25,423	0,084	0,036
-482,635	-200,000	-0,028	-0,110
-481,620	800,000	-0,030	-0,096
-480,605	-29,846	-0,114	-0,048
-479,591	39,296	0,105	0,069
-478,576	13,499	-0,153	0,087
-477,562	486,918	0,032	0,053
-476,547	-145,884	-0,115	-0,007
-475,532	-96,741	-0,077	-0,015
-474,518	-200,000	-0,015	-0,083
-473,503	-114,882	0,062	0,009
-472,489	800,000	0,003	-0,010
-471,474	413,016	0,008	0,012
-470,459	478,314	-0,068	0,113
-469,445	-200,000	-0,014	-0,145
-468,430	35,876	-0,053	-0,034
-467,416	800,000	0,032	0,080
-466,401	420,283	0,054	-0,085
-465,386	-78,122	0,040	0,010
-464,372	-44,303	0,072	-0,026
-463,357	-43,586	0,078	0,029
-462,343	-22,414	-0,045	0,020
-461,328	4,166	-0,114	-0,061
-460,313	-26,168	-0,106	-0,045
-459,299	278,760	-0,056	0,074
-458,284	-23,159	0,109	-0,048
-457,270	-72,100	-0,105	0,028
-456,255	42,564	-0,045	0,030
-455,241	-37,916	0,040	0,015
-454,226	58,015	0,091	0,065
-453,211	-200,000	-0,013	0,170
-452,197	-63,593	-0,062	0,018
-451,182	-200,000	-0,049	0,184
-450,168	549,753	-0,016	0,028
-449,153	800,000	-0,020	0,050
-448,138	800,000	0,029	-0,066
-447,124	57,688	0,054	-0,038
-446,109	634,726	-0,062	-0,115
-445,095	83,069	-0,072	0,057
-444,080	-200,000	-0,002	0,059
-443,065	-200,000	-0,018	0,094
-442,051	238,286	0,118	0,144
-441,036	800,000	-0,060	-0,138
-440,022	-136,763	0,053	-0,004
-439,007	-47,664	0,104	0,037
-437,992	-200,000	0,000	0,019
-436,978	19,124	-0,024	-0,014
-435,963	-200,000	0,014	0,161
-434,949	-83,440	-0,028	-0,007
-433,934	100,468	-0,107	-0,091
-432,919	25,981	-0,072	-0,044
-431,905	-30,839	0,082	0,034
-430,890	-200,000	0,010	0,072
-429,876	800,000	0,014	0,035
-428,861	800,000	-0,041	0,085
-427,846	-63,128	-0,094	-0,028
-426,832	-46,211	-0,123	0,044
-425,817	-114,424	-0,100	-0,014
-424,803	194,355	-0,013	-0,015
-423,788	395,696	0,047	0,072
-422,773	-200,000	0,037	0,202
-421,759	-69,603	0,130	-0,036
-420,744	210,556	0,027	0,031
-419,730	-200,000	0,004	-0,118
-418,715	-200,000	0,000	-0,104
-417,701	-200,000	0,002	0,096
-416,686	-200,000	-0,012	0,179
-415,671	534,105	0,020	0,035
-414,657	-200,000	-0,026	-0,162
-413,642	198,891	-0,049	0,055
-412,628	87,753	-0,131	0,106
-411,613	15,739	-0,113	0,065
-410,598	-200,000	0,018	0,152
-409,584	-200,000	-0,018	0,070
-408,569	421,220	-0,035	0,055
-407,555	-4,110	0,055	0,028
-406,540	800,000	0,064	0,134
-405,525	361,784	-0,093	-0,138
-404,511	-200,000	0,037	-0,139
-403,496	-57,427	0,030	-0,010
-402,482	-200,000	0,030	-0,102
-401,467	-200,000	-0,005	0,063
-400,452	-70,908	-0,104	0,028
-399,438	-72,627	0,060	-0,016
-398,423	-200,000	-0,006	-0,033
-397,409	-102,483	-0,127	-0,022
-396,394	800,000	0,041	0,083
-395,379	242,092	0,020	0,024
-394,365	48,454	-0,042	0,029
-393,350	-200,000	-0,000	0,046
-392,336	80,197	-0,036	-0,028
-391,321	800,000	-0,037	0,101
-390,306	-21,611	-0,145	-0,064
-389,292	-36,769	-0,061	0,024
-388,277	-104,625	0,132	0,022
-387,263	800,000	-0,019	-0,049
-386,248	-127,842	0,133	-0,014
-385,233	-168,761	0,117	0,003
-384,219	-200,000	-0,010	-0,094
-383,204	-39,713	-0,051	0,019
-382,190	21,903	-0,134	-0,080
-381,175	303,991	0,066	-0,090
-380,160	29,693	-0,169	-0,105
-379,146	800,000	0,068	-0,157
-378,131	-200,000	-0,014	-0,057
-377,117	-146,313	0,114	0,007
-376,102	-130,325	0,060	-0,006
-375,088	10,679	-0,152	0,084
-374,073	800,000	-0,059	0,150
-373,058	59,518	0,084	0,061
-372,044	195,810	0,116	-0,129
-371,029	152,536	-0,056	0,056
-370,015	800,000	0,079	-0,164
-369,000	-38,568	-0,054	-0,021
-367,985	-27,732	0,170	0,072
-366,971	-200,000	-0,006	0,042
-365,956	800,000	0,039	0,083
-364,942	279,417	0,082	0,107
-363,927	-81,620	0,118	-0,028
-362,912	-200,000	-0,022	0,090
-361,898	-200,000	0,031	-0,191
-360,883	-4,103	-0,155	-0,078
-359,869	-200,000	0,003	0,010
-358,854	5,172	0,039	0,021
-357,839	32,496	0,059	-0,037
-356,825	22,229	0,012	-0,007
-355,810	-200,000	-0,010	0,063
-354,796	800,000	-0,058	0,131
-353,781	177,749	-0,076	-0,082
-352,766	49,563	0,096	0,066
-351,752	75,109	0,117	0,090
-350,737	290,970	-0,074	0,099
-349,723	716,446	-0,067	0,130
-348,708	-155,283	-0,043	-0,002
-347,693	-200,000	0,019	0,078
-346,679	136,956	0,033	-0,031
-345,664	-124,187	-0,039	0,004
-344,650	3,851	-0,166	0,088
-343,635	224,035	0,065	0,077
-342,620	-200,000	0,016	0,178
-341,606	271,935	-0,059	0,077
-340,591	-19,950	0,148	0,067
-339,577	-72,935	0,113	0,030
-338,562	800,000	-0,020	0,053
-337,548	-58,866	-0,073	0,023
-336,533	-32,210	0,070	-0,028
-335,518	-123,225	0,057	0,007
-334,504	-200,000	0,016	-0,091
-333,489	689,848	0,033	0,064
-332,475	-64,213	-0,119	-0,035
-331,460	-200,000	-0,013	-0,071
-330,445	17,539	0,106	-0,062
-329,431	-200,000	0,014	0,047
-328,416	-200,000	-0,018	-0,108
-327,402	-67,879	-0,096	0,027
-326,387	800,000	-0,033	0,092
-325,372	-200,000	-0,002	-0,063
-324,358	-111,059	0,131	0,019
-323,343	800,000	-0,032	-0,078
-322,329	-150,131	0,050	-0,003
-321,314	800,000	-0,029	0,060
-320,299	-116,602	0,056	0,007
-319,285	-200,000	-0,010	-0,071
-318,270	121,234	-0,090	-0,082
-317,256	101,603	0,086	-0,073
-316,241	15,181	0,096	0,055
-315,226	-200,000	-0,027	-0,105
-314,212	800,000	-0,016	0,052
-313,197	13,514	-0,045	-0,025
-312,183	12,328	0,035	-0,019
-311,168	-113,622	-0,140	0,020
-310,153	236,290	0,082	-0,100
-309,139	17,648	0,045	0,026
-308,124	-200,000	0,008	-0,118
-307,110	725,953	0,028	0,054
-306,095	800,000	0,035	0,086
-305,080	-200,000	0,017	0,054
-304,066	481,692	-0,064	-0,106
-303,051	7,724	-0,021	-0,011
-302,037	800,000	-0,040	-0,112
-301,022	73,019	0,052	-0,040
-300,008	-15,094	0,116	-0,054
-298,993	-200,000	0,009	0,093
-297,978	-200,000	-0,044	0,227
-296,964	-174,947	-0,227	0,005
-295,949	0,580	0,076	0,040
-294,935	-200,000	-0,030	-0,115
-293,920	348,326	0,115	-0,165
-292,905	115,582	0,107	-0,095
-291,891	-88,878	-0,077	-0,016
-290,876	309,334	-0,077	-0,105
-289,862	656,342	-0,066	-0,124
-288,847	-44,867	-0,037	-0,014
-287,832	-102,151	-0,020	-0,003
-286,818	364,670	0,040	-0,059
-285,803	-7,800	0,039	-0,019
-284,789	-200,000	0,026	-0,116
-283,774	-200,000	-0,019	-0,088
-282,759	325,941	-0,034	-0,047
-281,745	-166,244	-0,092	-0,003
-280,730	587,070	-0,039	-0,070
-279,716	184,747	-0,015	0,017
-278,701	-84,745	-0,048	-0,011
-277,686	16,006	0,129	-0,074
-276,672	34,266	-0,064	0,040
-275,657	-200,000	-0,000	-0,006
-274,643	-113,160	0,149	-0,021
-273,628	-200,000	-0,003	-0,117
-272,613	80,847	-0,082	-0,065
-271,599	99,812	0,089	0,075
-270,584	-112,115	0,097	0,014
-269,570	-41,511	0,151	0,056
-268,555	-200,000	0,012	0,168
-267,540	1,262	-0,130	-0,068
-266,526	183,658	0,106	-0,114
-265,511	800,000	-0,038	-0,099
-264,497	-26,112	0,045	-0,019
-263,482	-27,833	0,215	0,090
-262,467	88,802	0,143	0,116
-261,453	78,080	-0,043	-0,034
-260,438	5,217	-0,101	-0,054
-259,424	233,984	-0,080	-0,096
-258,409	66,350	-0,089	-0,066
-257,395	-172,427	0,046	-0,001
-256,380	-89,042	0,087	0,019
-255,365	-200,000	0,016	0,124
-254,351	-50,089	-0,105	0,036
-253,336	42,478	-0,045	0,030
-252,322	614,907	-0,052	0,094
-251,307	299,828	0,087	-0,117
-250,292	-200,000	-0,003	-0,149
-249,278	35,018	0,107	-0,068
-248,263	-200,000	-0,012	-0,108
-247,249	800,000	-0,038	0,081
-246,234	-51,686	-0,047	-0,016
-245,219	800,000	-0,003	0,009
-244,205	800,000	0,039	-0,104
-243,190	-200,000	0,008	-0,114
-242,176	-87,320	0,082	-0,018
-241,161	369,665	0,052	0,077
-240,146	800,000	0,056	0,146
-239,132	-200,000	-0,001	-0,147
-238,117	525,110	-0,082	-0,140
-237,103	-200,000	-0,023	0,083
-236,088	-27,153	-0,040	-0,017
-235,073	113,394	0,090	0,079
-234,059	316,993	-0,012	0,017
-233,044	-95,564	0,010	-0,002
-232,030	136,656	0,060	0,057
-231,015	-200,000	0,031	-0,128
-230,000	185,548	-0,086	0,093
-228,986	136,387	0,137	0,130
-227,971	800,000	-0,055	0,116
-226,957	-200,000	0,004	0,064
-225,942	-166,261	0,075	0,002
-224,927	-42,007	0,075	0,028
-223,913	278,867	0,022	-0,029
-222,898	-200,000	-0,006	0,115
-221,884	71,983	0,037	-0,028
-220,869	553,412	-0,012	0,022
-219,855	316,127	0,070	0,097
-218,840	178,830	0,075	0,080
-217,825	106,912	-0,077	-0,067
-216,811	408,245	0,002	0,003
-215,796	385,763	-0,073	-0,110
-214,782	-169,891	-0,117	-0,003
-213,767	632,091	0,024	-0,044
-212,752	150,338	-0,062	0,061
-211,738	27,668	0,128	0,078
-210,723	800,000	0,037	0,110
-209,709	61,305	0,021	-0,015
-208,694	-132,634	-0,113	-0,010
-207,679	-134,910	0,159	0,014
-206,665	-200,000	0,004	-0,033
-205,650	23,243	-0,045	0,027
-204,636	-183,827	0,049	0,001
-203,621	227,036	-0,021	-0,025
-202,606	640,439	0,036	0,067
-201,592	800,000	0,017	0,035
-200,577	157,761	-0,044	-0,044
-199,563	360,219	-0,053	0,078
-198,548	-6,260	0,093	0,046
-197,533	800,000	0,086	0,209
-196,519	-200,000	0,007	0,174
-195,504	-200,000	-0,009	0,062
-194,490	-200,000	-0,022	-0,119
-193,475	45,891	0,075	0,051
-192,460	10,289	0,028	-0,015
-191,446	-200,000	0,004	0,079
-190,431	-200,000	-0,012	0,099
-189,417	-200,000	-0,014	0,062
-188,402	-145,789	0,064	0,004
-187,387	-53,678	0,059	0,019
-186,373	-200,000	-0,007	0,139
-185,358	260,039	0,041	-0,051
-184,344	52,721	-0,054	-0,038
-183,329	-200,000	-0,001	0,124
-182,315	-62,941	0,176	0,052
-181,300	-24,928	-0,051	-0,022
-180,285	163,869	0,016	0,016
-179,271	99,645	0,040	-0,033
-178,256	127,008	0,035	-0,032
-177,242	529,954	0,072	0,124
-176,227	-38,816	-0,053	-0,020
-175,212	-40,370	0,110	0,041
-174,198	771,159	-0,047	-0,094
-173,183	20,990	0,053	-0,031
-172,169	-200,000	0,010	-0,129
-171,154	683,845	-0,031	0,059
-170,139	542,271	0,071	0,124
-169,125	-20,193	-0,084	0,037
-168,110	17,817	0,085	0,049
-167,096	-200,000	0,004	0,062
-166,081	-200,000	0,010	-0,039
-165,066	800,000	-0,026	-0,078
-164,052	45,829	-0,051	-0,034
-163,037	800,000	0,029	-0,081
-162,023	-200,000	-0,016	0,128
-161,008	33,439	0,130	0,082
-159,993	-79,055	0,069	-0,017
-158,979	-200,000	-0,025	0,124
-157,964	24,576	-0,041	-0,024
-156,950	270,442	-0,033	-0,043
-155,935	410,852	0,022	0,034
-154,920	-181,819	0,119	0,002
-153,906	-7,005	0,174	0,085
-152,891	-200,000	0,039	0,000
-151,877	216,716	0,099	0,114
-150,862	-200,000	-0,013	0,090
-149,847	114,449	0,054	-0,048
-148,833	-200,000	-0,008	0,157
-147,818	39,502	0,100	0,065
-146,804	-81,530	0,015	-0,004
-145,789	-3,190	-0,035	-0,018
-144,775	-21,233	-0,150	-0,066
-143,760	-73,667	0,123	0,032
-142,745	-30,834	-0,040	0,016
-141,731	674,299	0,072	-0,136
-140,716	-200,000	-0,024	0,125
-139,702	800,000	0,082	0,204
-138,687	800,000	-0,080	0,239
-137,672	532,388	-0,057	0,099
-136,658	-200,000	0,013	-0,108
-135,643	-135,245	-0,059	0,005
-134,629	-28,533	-0,140	0,058
-133,614	800,000	0,051	0,142
-132,599	-200,000	0,009	0,038
-131,585	188,440	0,068	0,074
-130,570	248,371	-0,092	0,113
-129,556	-200,000	0,022	-0,119
-128,541	-200,000	0,023	-0,100
-127,526	-116,529	-0,105	0,014
-126,512	103,459	0,084	-0,071
-125,497	201,888	0,128	0,144
-124,483	-200,000	-0,015	0,131
-123,468	-85,714	-0,145	0,032
-122,453	800,000	-0,039	-0,119
-121,439	800,000	-0,020	-0,054
-120,424	-200,000	0,004	-0,087
-119,410	144,904	-0,022	0,021
