DTS Sentinel unit serial number:	SN410029Multiplexer serial number:	ORYXHardware model number:	OX2-SRSoftware version number:	ORYX F/W v4,00 Oryx Data Collector v3.7.2.0data status	okinstallation	B6 Nyhavnadifferential loss correction	single-endedforward channel	channel 2reverse channel	N/Adate	2023/12/10time	04:40:08forward acquisition time	300,00reverse acquisition time	0,00gamma	499,1914k internal	0,3125k external	0,3125temperature offset calibration	1,0000default loss term (dB/km)	0,3820temperature slope calibration	1,0000multiplexer offset coefficient	1,0000multiplexer slope coefficient	1,0000fibre end	0,00T internal ref (°C)	22,25T ext. ref 1 (°C)	6,31T ext. ref 2 (°C)	6,28length (m)	temperature (°C)	Stokes	anti-Stokes-744,400	-9,073	0,086	-0,043
-743,385	-148,384	-0,194	0,012
-742,371	406,127	-0,025	-0,039
-741,356	144,376	-0,144	0,143
-740,342	46,342	0,081	-0,056
-739,327	-61,669	-0,234	0,073
-738,312	37,042	0,199	-0,131
-737,298	-13,359	-0,146	0,071
-736,283	-200,000	-0,003	-0,038
-735,269	226,469	-0,147	0,178
-734,254	-65,097	0,084	0,025
-733,239	-103,142	-0,428	-0,075
-732,225	-200,000	0,009	-0,108
-731,210	-200,000	0,028	-0,094
-730,196	-25,328	-0,066	-0,029
-729,181	-17,249	0,022	-0,010
-728,167	-51,456	0,037	0,013
-727,152	-200,000	-0,011	0,131
-726,137	787,323	-0,037	-0,077
-725,123	800,000	-0,031	-0,094
-724,108	150,280	-0,103	-0,104
-723,094	105,722	-0,109	-0,096
-722,079	586,698	-0,085	-0,156
-721,064	562,981	-0,073	0,131
-720,050	33,700	-0,124	0,080
-719,035	-130,833	0,032	-0,003
-718,021	322,773	0,058	0,083
-717,006	-200,000	-0,028	-0,112
-715,991	-134,410	-0,223	-0,020
-714,977	500,307	-0,019	-0,032
-713,962	-73,833	-0,070	0,019
-712,948	-200,000	-0,010	0,094
-711,933	553,528	0,046	-0,082
-710,918	800,000	-0,065	-0,142
-709,904	287,155	-0,096	-0,130
-708,889	-200,000	-0,007	-0,140
-707,875	800,000	-0,014	0,044
-706,860	-5,780	0,060	-0,031
-705,845	-44,716	0,034	0,013
-704,831	800,000	-0,030	0,096
-703,816	101,799	-0,030	0,026
-702,802	-54,278	-0,121	-0,041
-701,787	313,449	-0,092	-0,129
-700,772	-32,301	-0,105	-0,043
-699,758	185,690	-0,083	-0,092
-698,743	218,322	0,087	0,103
-697,729	43,297	-0,060	-0,041
-696,714	-200,000	0,000	0,070
-695,699	287,255	-0,054	0,072
-694,685	44,099	-0,088	-0,060
-693,670	-200,000	0,024	-0,084
-692,656	713,988	-0,121	-0,240
-691,641	779,558	0,003	-0,007
-690,627	-162,835	0,107	0,004
-689,612	-200,000	-0,000	0,020
-688,597	-200,000	0,020	-0,150
-687,583	-200,000	0,007	-0,025
-686,568	237,102	-0,121	-0,149
-685,554	-200,000	0,043	-0,146
-684,539	-200,000	-0,018	0,080
-683,524	501,738	0,021	0,036
-682,510	373,392	-0,049	0,075
-681,495	-157,373	-0,018	0,001
-680,481	800,000	0,055	-0,145
-679,466	133,298	-0,029	-0,028
-678,451	-10,276	-0,040	0,020
-677,437	800,000	-0,007	-0,017
-676,422	800,000	0,032	0,078
-675,408	-110,972	-0,049	-0,007
-674,393	29,950	-0,058	0,037
-673,378	-98,842	0,069	-0,013
-672,364	-36,405	-0,135	0,054
-671,349	-200,000	0,020	0,083
-670,335	-105,531	0,164	-0,027
-669,320	127,928	-0,034	-0,032
-668,305	597,121	0,013	0,024
-667,291	-200,000	0,003	0,014
-666,276	-200,000	0,008	0,074
-665,262	800,000	-0,041	-0,115
-664,247	-31,438	0,126	-0,053
-663,232	6,281	-0,080	0,044
-662,218	-139,019	0,006	0,000
-661,203	-109,603	0,106	-0,016
-660,189	800,000	0,044	0,102
-659,174	-56,636	-0,039	-0,013
-658,159	-40,555	-0,124	0,048
-657,145	-10,249	-0,129	-0,063
-656,130	-91,334	-0,108	-0,023
-655,116	304,436	-0,049	-0,068
-654,101	-200,000	-0,005	0,025
-653,086	-151,895	0,063	0,003
-652,072	285,527	-0,116	-0,156
-651,057	455,114	0,050	-0,082
-650,043	-99,615	-0,138	0,025
-649,028	368,805	-0,110	-0,166
-648,014	-30,841	0,017	-0,007
-646,999	-5,360	0,100	0,051
-645,984	376,809	-0,033	-0,050
-644,970	130,514	0,028	0,026
-643,955	306,136	-0,125	-0,173
-642,941	334,154	0,081	-0,116
-641,926	356,203	-0,030	-0,044
-640,911	-44,807	0,066	-0,024
-639,897	222,890	-0,013	0,016
-638,882	-28,415	0,028	0,012
-637,868	557,142	-0,078	-0,140
-636,853	752,237	0,061	-0,123
-635,838	-200,000	-0,012	0,074
-634,824	-200,000	-0,004	-0,112
-633,809	-97,053	-0,117	-0,023
-632,795	86,865	0,033	0,027
-631,780	-50,087	-0,129	0,045
-630,765	800,000	0,026	-0,066
-629,751	-200,000	0,009	-0,045
-628,736	-200,000	0,018	-0,064
-627,722	213,678	-0,040	-0,047
-626,707	80,373	0,094	-0,075
-625,692	588,080	-0,052	0,095
-624,678	-200,000	0,014	-0,137
-623,663	-200,000	0,063	0,000
-622,649	22,930	-0,118	0,072
-621,634	-40,513	-0,127	-0,049
-620,619	162,502	0,043	-0,044
-619,605	-106,775	0,152	-0,025
-618,590	800,000	-0,028	-0,057
-617,576	800,000	0,011	0,037
-616,561	53,755	-0,044	-0,031
-615,546	800,000	-0,043	-0,126
-614,532	-32,757	0,138	0,057
-613,517	115,501	-0,061	-0,055
-612,503	-75,161	0,103	-0,027
-611,488	37,950	0,067	0,044
-610,474	54,107	0,043	0,031
-609,459	41,367	-0,131	-0,087
-608,444	-200,000	-0,001	-0,036
-607,430	-149,680	-0,103	-0,006
-606,415	51,405	-0,096	-0,067
-605,401	800,000	-0,031	-0,084
-604,386	-54,039	0,109	-0,037
-603,371	-200,000	-0,009	0,198
-602,357	246,816	0,051	-0,064
-601,342	482,153	0,013	0,021
-600,328	-200,000	-0,001	-0,050
-599,313	-56,568	-0,054	0,018
-598,298	-23,769	0,119	0,053
-597,284	185,137	0,061	0,067
-596,269	-200,000	-0,018	0,060
-595,255	-200,000	0,012	-0,063
-594,240	-153,280	-0,014	-0,001
-593,225	800,000	-0,015	-0,036
-592,211	-86,241	-0,093	-0,021
-591,196	-200,000	0,028	0,143
-590,182	-96,988	-0,062	-0,012
-589,167	78,811	0,026	-0,021
-588,152	-72,589	0,054	-0,015
-587,138	108,685	-0,046	-0,040
-586,123	-35,442	-0,121	0,048
-585,109	680,495	0,047	-0,090
-584,094	-200,000	0,009	-0,092
-583,079	-133,001	0,044	-0,004
-582,065	41,178	0,107	0,072
-581,050	-200,000	0,001	0,036
-580,036	75,407	-0,083	-0,065
-579,021	-200,000	-0,007	0,086
-578,006	-200,000	-0,039	-0,133
-576,992	-101,975	-0,150	-0,027
-575,977	114,188	-0,043	-0,039
-574,963	-138,255	0,079	-0,006
-573,948	800,000	-0,021	-0,056
-572,934	800,000	0,014	0,031
-571,919	-21,563	-0,121	0,054
-570,904	-200,000	-0,014	0,087
-569,890	-40,172	-0,112	-0,043
-568,875	20,036	0,094	-0,056
-567,861	-27,197	0,082	-0,035
-566,846	-60,382	0,050	0,016
-565,831	800,000	0,078	0,170
-564,817	800,000	0,011	0,034
-563,802	-73,114	-0,127	0,034
-562,788	324,228	0,088	-0,124
-561,773	-69,766	0,066	0,018
-560,758	270,038	-0,052	0,067
-559,744	171,264	0,090	0,095
-558,729	-160,126	-0,041	0,002
-557,715	44,336	-0,068	-0,046
-556,700	140,397	-0,069	-0,067
-555,685	379,746	-0,007	-0,011
-554,671	800,000	-0,018	-0,047
-553,656	-200,000	0,029	0,119
-552,642	-200,000	0,043	0,160
-551,627	-67,799	0,089	0,026
-550,612	-114,744	0,079	0,011
-549,598	6,557	-0,145	-0,079
-548,583	-160,524	0,041	-0,002
-547,569	177,934	0,085	-0,091
-546,554	-26,226	-0,048	-0,021
-545,539	-104,695	-0,020	0,003
-544,525	204,435	0,033	-0,038
-543,510	-125,309	0,073	0,008
-542,496	-56,329	-0,048	-0,016
-541,481	231,000	0,041	-0,050
-540,466	200,044	0,007	0,008
-539,452	-16,897	0,041	0,019
-538,437	581,393	-0,029	-0,052
-537,423	-200,000	0,031	0,143
-536,408	-200,000	0,002	0,015
-535,393	800,000	-0,096	-0,217
-534,379	-200,000	-0,040	-0,193
-533,364	-200,000	0,030	-0,122
-532,350	93,036	0,063	0,052
-531,335	485,010	0,071	0,120
-530,321	322,765	0,045	0,064
-529,306	-138,226	-0,160	0,013
-528,291	175,733	-0,071	-0,077
-527,277	154,579	-0,039	-0,040
-526,262	-44,912	-0,099	0,036
-525,248	55,294	0,020	-0,014
-524,233	800,000	0,009	0,024
-523,218	163,758	-0,044	-0,046
-522,204	158,435	0,033	-0,033
-521,189	206,793	0,071	-0,082
-520,175	-200,000	0,017	-0,114
-519,160	-6,884	-0,161	-0,081
-518,145	45,826	0,166	-0,113
-517,131	-49,147	-0,063	-0,022
-516,116	-200,000	-0,006	0,039
-515,102	141,468	0,037	0,036
-514,087	-200,000	-0,024	-0,172
-513,072	800,000	-0,043	-0,138
-512,058	-200,000	-0,015	0,072
-511,043	-100,073	-0,079	0,014
-510,029	20,393	0,021	0,012
-509,014	19,733	0,031	-0,018
-507,999	-200,000	0,002	0,034
-506,985	-173,283	0,082	-0,002
-505,970	79,611	-0,026	-0,020
-504,956	55,787	-0,034	0,024
-503,941	544,034	0,091	-0,161
-502,926	-200,000	0,007	-0,054
-501,912	800,000	0,037	0,096
-500,897	178,485	-0,037	0,040
-499,883	102,849	0,109	0,094
-498,868	572,490	0,011	0,019
-497,853	279,373	0,022	0,029
-496,839	76,862	0,076	0,060
-495,824	69,617	-0,102	0,078
-494,810	-200,000	0,008	0,076
-493,795	-114,556	0,084	-0,012
-492,781	190,189	-0,015	0,016
-491,766	136,785	0,033	-0,032
-490,751	-200,000	-0,024	-0,113
-489,737	-41,387	-0,086	-0,033
-488,722	-102,175	-0,040	0,007
-487,708	-141,006	0,080	0,006
-486,693	800,000	-0,057	-0,167
-485,678	800,000	-0,035	0,099
-484,664	271,252	-0,073	-0,095
-483,649	214,482	-0,078	-0,092
-482,635	-155,443	0,176	0,008
-481,620	-107,352	0,115	0,018
-480,605	800,000	0,029	0,069
-479,591	-200,000	0,012	0,072
-478,576	441,608	-0,023	-0,038
-477,562	800,000	-0,033	-0,086
-476,547	800,000	-0,026	0,062
-475,532	-115,024	0,107	-0,015
-474,518	-25,767	-0,029	-0,012
-473,503	205,640	-0,069	0,079
-472,489	123,724	0,066	0,061
-471,474	800,000	0,055	0,137
-470,459	164,509	-0,050	-0,052
-469,445	800,000	-0,009	0,022
-468,430	-6,932	0,009	-0,005
-467,416	-200,000	-0,025	0,180
-466,401	-200,000	0,007	0,095
-465,386	-107,498	0,048	0,008
-464,372	-200,000	0,011	0,163
-463,357	107,464	0,076	-0,067
-462,343	114,466	-0,036	-0,033
-461,328	87,726	0,030	-0,024
-460,313	11,068	0,136	0,077
-459,299	-105,923	0,073	0,012
-458,284	164,505	-0,090	0,093
-457,270	-200,000	-0,040	0,181
-456,255	205,524	0,022	0,025
-455,241	800,000	-0,036	-0,091
-454,226	-150,260	-0,126	0,007
-453,211	0,468	-0,017	-0,009
-452,197	163,098	0,056	0,058
-451,182	-200,000	0,011	0,040
-450,168	800,000	0,024	-0,064
-449,153	-200,000	-0,011	0,096
-448,138	800,000	0,030	0,082
-447,124	790,107	0,018	-0,037
-446,109	16,937	-0,038	0,022
-445,095	-68,207	-0,024	0,007
-444,080	120,365	0,082	0,075
-443,065	-200,000	-0,024	0,126
-442,051	243,346	0,061	-0,076
-441,036	-106,524	0,099	-0,016
-440,022	38,116	-0,078	0,051
-439,007	46,705	0,037	-0,025
-437,992	197,200	0,045	0,050
-436,978	51,481	0,142	0,099
-435,963	-64,643	-0,049	0,014
-434,949	800,000	0,021	-0,047
-433,934	-200,000	0,022	-0,121
-432,919	-129,515	-0,067	0,007
-431,905	-200,000	0,001	-0,117
-430,890	221,086	-0,033	0,039
-429,876	-73,797	-0,107	0,028
-428,861	12,728	-0,074	0,042
-427,846	146,154	-0,071	0,070
-426,832	-200,000	0,024	0,000
-425,817	-200,000	0,033	0,159
-424,803	233,010	0,026	0,032
-423,788	-105,297	-0,024	0,004
-422,773	-5,355	0,063	0,032
-421,759	-123,379	0,078	0,009
-420,744	800,000	0,015	0,032
-419,730	413,255	0,049	-0,077
-418,715	-200,000	0,004	-0,123
-417,701	-200,000	0,004	0,056
-416,686	30,807	0,053	0,033
-415,671	361,619	0,007	-0,010
-414,657	-200,000	0,007	-0,054
-413,642	334,245	0,021	0,030
-412,628	-200,000	-0,005	0,128
-411,613	800,000	-0,016	0,034
-410,598	-25,118	-0,018	0,008
-409,584	-72,823	-0,121	0,033
-408,569	239,647	-0,060	0,074
-407,555	-5,235	0,070	-0,035
-406,540	242,725	0,034	0,042
-405,525	20,947	-0,059	-0,035
-404,511	291,243	-0,062	0,083
-403,496	164,204	0,043	0,044
-402,482	-153,012	-0,051	-0,003
-401,467	800,000	0,011	0,034
-400,452	-32,514	-0,107	0,044
-399,438	582,194	-0,036	-0,066
-398,423	-91,032	-0,103	-0,022
-397,409	800,000	-0,029	-0,070
-396,394	800,000	-0,027	-0,089
-395,379	54,089	-0,119	0,084
-394,365	-108,284	0,239	0,038
-393,350	-64,533	-0,052	-0,015
-392,336	-107,121	0,047	0,008
-391,321	266,440	0,028	-0,036
-390,306	800,000	-0,075	-0,178
-389,292	-17,405	0,058	0,027
-388,277	423,287	0,044	-0,070
-387,263	-165,176	0,145	-0,005
-386,248	-172,978	0,098	0,002
-385,233	800,000	0,018	0,040
-384,219	83,334	0,134	-0,107
-383,204	-65,313	0,048	-0,014
-382,190	-200,000	-0,016	0,122
-381,175	374,115	-0,036	-0,054
-380,160	57,488	0,101	-0,073
-379,146	282,197	-0,062	0,082
-378,131	300,376	0,048	0,066
-377,117	800,000	-0,092	0,196
-376,102	-140,153	0,132	-0,010
-375,088	154,553	0,048	-0,049
-374,073	40,589	-0,109	-0,072
-373,058	27,077	0,047	0,029
-372,044	-200,000	-0,003	0,073
-371,029	215,387	0,072	0,083
-370,015	-127,073	0,115	0,012
-369,000	800,000	0,087	-0,188
-367,985	-109,494	-0,074	-0,011
-366,971	65,162	-0,029	-0,022
-365,956	27,663	0,085	0,053
-364,942	92,970	0,029	0,024
-363,927	120,964	0,076	0,069
-362,912	243,342	-0,106	-0,131
-361,898	101,058	-0,061	-0,052
-360,883	-200,000	0,007	-0,052
-359,869	43,808	0,090	0,060
-358,854	-23,092	0,058	-0,025
-357,839	798,190	0,039	0,079
-356,825	-178,463	0,099	0,002
-355,810	-200,000	-0,027	0,090
-354,796	-200,000	0,006	-0,055
-353,781	604,970	-0,016	0,029
-352,766	-32,000	-0,163	0,066
-351,752	394,844	-0,053	0,082
-350,737	800,000	0,049	0,125
-349,723	253,070	0,037	0,047
-348,708	126,469	-0,062	0,058
-347,693	-200,000	0,026	0,109
-346,679	-200,000	0,007	-0,048
-345,664	800,000	0,043	-0,134
-344,650	451,952	0,035	0,057
-343,635	712,395	-0,026	0,050
-342,620	-171,903	0,153	0,004
-341,606	-200,000	-0,011	0,038
-340,591	11,109	-0,148	0,083
-339,577	-101,139	-0,172	-0,031
-338,562	-44,326	0,099	0,036
-337,548	-200,000	0,008	-0,035
-336,533	-110,192	0,043	-0,007
-335,518	-200,000	0,007	-0,069
-334,504	239,843	0,060	0,074
-333,489	209,429	-0,059	0,068
-332,475	-141,108	-0,054	0,004
-331,460	-5,212	0,075	0,037
-330,445	43,179	-0,152	0,102
-329,431	800,000	-0,008	0,022
-328,416	101,452	0,012	0,010
-327,402	206,473	0,056	0,064
-326,387	-200,000	0,002	-0,031
-325,372	148,400	-0,011	-0,011
-324,358	-8,211	-0,179	-0,088
-323,343	-200,000	-0,010	-0,152
-322,329	800,000	0,036	0,075
-321,314	-23,559	-0,087	0,038
-320,299	-174,574	0,028	0,001
-319,285	-39,404	-0,108	0,041
-318,270	800,000	0,011	0,022
-317,256	-169,259	-0,135	0,004
-316,241	-12,287	-0,056	-0,027
-315,226	-43,523	0,151	0,056
-314,212	-30,355	0,088	-0,036
-313,197	-91,409	0,057	0,012
-312,183	-200,000	0,019	0,164
-311,168	-200,000	0,012	-0,072
-310,153	-99,345	-0,069	0,013
-309,139	-57,155	0,103	-0,033
-308,124	589,420	-0,022	0,039
-307,110	-17,333	0,101	0,046
-306,095	111,137	0,016	-0,014
-305,080	-85,393	-0,031	-0,007
-304,066	-200,000	0,007	-0,023
-303,051	-43,511	-0,142	-0,052
-302,037	497,050	-0,060	-0,101
-301,022	172,540	0,047	-0,049
-300,008	24,990	0,065	-0,039
-298,993	-39,391	0,048	0,018
-297,978	-160,342	0,056	0,002
-296,964	54,862	0,199	-0,141
-295,949	-53,290	-0,128	0,043
-294,935	96,959	-0,037	0,031
-293,920	-69,252	-0,059	-0,016
-292,905	-74,420	0,094	-0,025
-291,891	-99,779	0,096	0,018
-290,876	-57,465	0,104	-0,033
-289,862	-56,627	0,047	-0,015
-288,847	-28,282	-0,076	-0,032
-287,832	338,041	0,047	-0,067
-286,818	800,000	-0,075	0,155
-285,803	-115,884	0,140	0,019
-284,789	-200,000	0,007	-0,079
-283,774	800,000	-0,051	0,123
-282,759	46,203	-0,117	0,079
-281,745	295,553	-0,096	-0,129
-280,730	108,280	-0,177	-0,155
-279,716	-200,000	-0,037	0,124
-278,701	-12,120	0,108	0,052
-277,686	438,020	0,073	0,116
-276,672	-200,000	-0,013	0,057
-275,657	34,392	-0,091	-0,058
-274,643	800,000	-0,024	0,075
-273,628	-196,843	-0,064	-0,000
-272,613	800,000	-0,005	-0,014
-271,599	-179,089	0,035	0,001
-270,584	50,939	-0,028	0,019
-269,570	108,155	-0,099	0,087
-268,555	-200,000	-0,013	0,049
-267,540	462,298	-0,029	0,048
-266,526	-200,000	-0,003	-0,056
-265,511	97,399	0,061	-0,051
-264,497	-200,000	0,001	-0,061
-263,482	382,345	-0,080	0,120
-262,467	85,521	0,087	0,070
-261,453	358,497	0,068	0,099
-260,438	-200,000	0,029	0,117
-259,424	20,652	0,053	0,031
-258,409	800,000	0,065	-0,138
-257,395	334,799	0,056	-0,079
-256,380	29,789	-0,049	0,031
-255,365	788,742	-0,044	0,088
-254,351	-200,000	-0,004	-0,033
-253,336	-101,544	-0,049	0,009
-252,322	-41,421	-0,031	-0,011
-251,307	-29,731	-0,094	-0,039
-250,292	-12,905	-0,092	0,044
-249,278	-200,000	0,011	0,090
-248,263	-102,975	-0,082	0,014
-247,249	11,343	-0,074	0,041
-246,234	476,053	-0,010	-0,017
-245,219	62,123	0,035	-0,026
-244,205	-200,000	0,009	-0,129
-243,190	87,889	0,042	-0,034
-242,176	8,695	0,032	0,018
-241,161	357,597	0,050	0,073
-240,146	641,760	0,026	0,048
-239,132	237,816	-0,036	0,044
-238,117	241,581	0,041	-0,050
-237,103	-200,000	0,006	-0,028
-236,088	12,398	-0,040	-0,023
-235,073	321,553	-0,065	0,091
-234,059	-175,189	0,028	0,001
-233,044	108,409	0,079	0,069
-232,030	-109,782	-0,086	0,013
-231,015	72,279	-0,126	0,096
-230,000	-112,531	-0,115	0,017
-228,986	-70,071	0,106	-0,029
-227,971	800,000	0,066	-0,204
-226,957	-200,000	-0,008	0,030
-225,942	-34,125	-0,072	-0,029
-224,927	-154,382	0,101	0,005
-223,913	-200,000	-0,003	0,081
-222,898	-200,000	0,013	-0,138
-221,884	25,569	-0,144	-0,087
-220,869	639,134	0,051	-0,095
-219,855	-53,690	-0,100	0,033
-218,840	23,730	-0,061	-0,036
-217,825	800,000	-0,020	-0,049
-216,811	-200,000	0,001	0,065
-215,796	443,484	-0,013	-0,021
-214,782	175,090	0,053	0,056
-213,767	38,071	0,043	-0,028
-212,752	800,000	0,046	0,123
-211,738	466,577	0,066	-0,108
-210,723	98,304	-0,071	0,060
-209,709	-97,673	-0,059	-0,011
-208,694	91,030	-0,152	0,125
-207,679	20,664	0,078	0,046
-206,665	24,185	0,039	-0,024
-205,650	106,322	0,134	0,115
-204,636	32,695	0,081	-0,051
-203,621	206,654	-0,085	0,097
-202,606	-200,000	0,014	-0,076
-201,592	147,753	0,061	-0,060
-200,577	9,059	-0,219	-0,120
-199,563	-200,000	0,013	0,062
-198,548	-49,642	0,068	0,023
-197,533	-134,755	0,057	0,005
-196,519	800,000	-0,033	-0,070
-195,504	84,015	-0,193	-0,154
-194,490	-200,000	0,007	-0,088
-193,475	-200,000	-0,026	-0,099
-192,460	-160,836	0,116	-0,004
-191,446	-71,322	-0,079	0,021
-190,431	298,697	0,053	-0,071
-189,417	203,548	0,091	0,103
-188,402	-200,000	-0,007	-0,100
-187,387	-99,154	-0,137	0,025
-186,373	800,000	-0,039	-0,117
-185,358	-116,888	-0,053	0,007
-184,344	65,607	-0,101	0,075
-183,329	-145,066	0,149	-0,010
-182,315	-150,736	0,051	-0,003
-181,300	-67,201	0,112	-0,032
-180,285	-200,000	-0,006	-0,029
-179,271	800,000	-0,033	-0,098
-178,256	28,452	-0,072	-0,044
-177,242	103,128	0,079	0,067
-176,227	-85,173	-0,071	-0,016
-175,212	800,000	0,041	-0,129
-174,198	800,000	-0,022	-0,052
-173,183	-37,526	-0,136	-0,053
-172,169	493,493	-0,015	0,025
-171,154	800,000	-0,049	0,112
-170,139	118,723	0,079	0,071
-169,125	-122,729	0,044	-0,005
-168,110	201,289	0,081	0,091
-167,096	-41,000	-0,068	-0,025
-166,081	-200,000	-0,002	0,128
-165,066	-200,000	-0,033	-0,142
-164,052	-8,241	0,039	0,019
-163,037	118,878	-0,053	0,047
-162,023	-199,241	0,035	0,000
-161,008	-200,000	0,022	0,125
-159,993	-200,000	0,001	-0,135
-158,979	800,000	-0,048	-0,113
-157,964	630,737	-0,030	-0,056
-156,950	508,860	-0,041	0,069
-155,935	-136,415	-0,092	0,008
-154,920	-49,834	0,074	-0,025
-153,906	88,967	0,118	0,095
-152,891	-200,000	0,005	0,070
-151,877	254,783	-0,056	-0,070
-150,862	800,000	-0,024	-0,060
-149,847	-134,584	-0,114	-0,010
-148,833	-200,000	0,020	0,077
-147,818	-200,000	-0,003	0,012
-146,804	-198,411	-0,050	-0,000
-145,789	36,793	0,142	0,091
-144,775	-157,111	-0,033	0,001
-143,760	-177,364	0,060	-0,001
-142,745	3,329	-0,103	-0,055
-141,731	-86,035	0,043	0,010
-140,716	156,951	0,029	-0,030
-139,702	73,410	0,057	0,043
-138,687	-48,689	0,054	0,019
-137,672	-200,000	-0,002	0,090
-136,658	800,000	-0,056	-0,139
-135,643	25,712	0,091	-0,055
-134,629	800,000	-0,019	-0,060
-133,614	-200,000	0,026	0,103
-132,599	171,768	0,076	0,079
-131,585	193,906	0,020	0,023
-130,570	-115,696	-0,069	0,009
-129,556	-200,000	-0,016	-0,072
-128,541	20,088	-0,022	0,013
-127,526	-92,428	-0,098	-0,020
-126,512	532,759	0,013	-0,022
-125,497	-200,000	-0,017	0,168
-124,483	800,000	-0,018	-0,038
-123,468	-153,538	-0,113	-0,006
-122,453	-119,866	-0,087	0,011
-121,439	98,145	0,068	-0,057
-120,424	65,790	0,079	-0,058
-119,410	211,584	0,065	-0,075
