DTS Sentinel unit serial number:	SN410029Multiplexer serial number:	ORYXHardware model number:	OX2-SRSoftware version number:	ORYX F/W v4,00 Oryx Data Collector v3.7.2.0data status	okinstallation	B6 Nyhavnadifferential loss correction	single-endedforward channel	channel 2reverse channel	N/Adate	2023/12/08time	04:55:08forward acquisition time	300,00reverse acquisition time	0,00gamma	499,1914k internal	0,3165k external	0,3165temperature offset calibration	1,0000default loss term (dB/km)	0,3820temperature slope calibration	1,0000multiplexer offset coefficient	1,0000multiplexer slope coefficient	1,0000fibre end	0,00T internal ref (°C)	13,04T ext. ref 1 (°C)	-3,77T ext. ref 2 (°C)	-3,74length (m)	temperature (°C)	Stokes	anti-Stokes-744,400	-16,699	0,071	-0,033
-743,385	-72,824	-0,275	-0,074
-742,371	204,603	0,127	0,145
-741,356	-92,262	-0,263	0,054
-740,342	163,106	0,113	0,116
-739,327	-73,818	-0,175	0,046
-738,312	11,489	0,045	0,025
-737,298	-145,652	-0,386	-0,025
-736,283	537,229	0,033	-0,058
-735,269	-99,955	-0,343	-0,062
-734,254	49,849	0,129	0,089
-733,239	-83,208	-0,609	-0,143
-732,225	-40,380	0,327	0,124
-731,210	-73,672	0,109	-0,029
-730,196	207,438	-0,040	-0,046
-729,181	197,211	-0,086	0,097
-728,167	566,553	0,009	-0,016
-727,152	-3,690	0,054	-0,027
-726,137	-200,000	-0,027	-0,091
-725,123	-200,000	0,018	-0,105
-724,108	-174,006	-0,094	0,002
-723,094	-200,000	-0,004	-0,212
-722,079	-200,000	-0,025	-0,090
-721,064	-146,981	-0,024	-0,001
-720,050	209,858	-0,028	-0,032
-719,035	-200,000	0,033	0,168
-718,021	-200,000	-0,003	-0,023
-717,006	-39,363	-0,116	-0,044
-715,991	214,771	-0,122	-0,143
-714,977	800,000	0,039	0,085
-713,962	336,573	-0,086	0,123
-712,948	-200,000	-0,003	-0,079
-711,933	-15,038	0,135	-0,063
-710,918	-139,302	0,052	-0,004
-709,904	132,738	-0,103	-0,098
-708,889	439,656	-0,057	-0,092
-707,875	-200,000	-0,003	-0,105
-706,860	-65,550	0,036	-0,011
-705,845	374,704	0,101	0,152
-704,831	800,000	-0,060	0,181
-703,816	800,000	0,025	-0,054
-702,802	800,000	0,033	-0,077
-701,787	-200,000	0,000	0,049
-700,772	-200,000	-0,017	-0,122
-699,758	-29,193	-0,105	-0,044
-698,743	800,000	0,031	0,087
-697,729	134,377	0,098	0,094
-696,714	-107,063	-0,081	-0,013
-695,699	-15,931	-0,060	0,028
-694,685	-110,541	0,069	0,010
-693,670	9,329	-0,037	-0,021
-692,656	251,350	0,055	0,069
-691,641	-54,385	0,017	-0,006
-690,627	-96,278	0,084	-0,016
-689,612	118,851	-0,052	0,047
-688,597	-200,000	-0,038	-0,183
-687,583	800,000	0,036	-0,101
-686,568	-200,000	-0,004	-0,025
-685,554	-175,385	-0,079	0,002
-684,539	-109,119	-0,053	0,008
-683,524	-13,098	-0,074	-0,035
-682,510	-65,261	-0,067	0,020
-681,495	800,000	-0,010	-0,026
-680,481	-125,172	-0,187	-0,021
-679,466	-30,799	-0,011	0,005
-678,451	531,647	0,080	-0,139
-677,437	-200,000	0,021	-0,139
-676,422	14,358	-0,115	0,066
-675,408	-200,000	-0,022	0,138
-674,393	-80,056	0,116	0,028
-673,378	49,834	0,079	-0,054
-672,364	454,237	0,041	-0,067
-671,349	6,629	0,053	-0,029
-670,335	-200,000	-0,064	0,207
-669,320	262,855	-0,099	0,127
-668,305	396,916	0,053	0,082
-667,291	-200,000	-0,030	-0,113
-666,276	39,273	0,064	-0,042
-665,262	-69,216	-0,218	-0,061
-664,247	800,000	-0,040	-0,088
-663,232	-200,000	-0,042	-0,138
-662,218	-200,000	-0,003	0,043
-661,203	-200,000	-0,000	0,035
-660,189	95,625	0,068	0,057
-659,174	800,000	-0,041	-0,090
-658,159	385,293	0,016	-0,025
-657,145	-24,350	0,096	-0,042
-656,130	282,009	-0,017	0,022
-655,116	-42,079	0,144	0,054
-654,101	-200,000	0,009	-0,068
-653,086	81,818	0,042	-0,033
-652,072	-200,000	-0,022	0,127
-651,057	686,186	-0,057	-0,110
-650,043	-55,364	0,089	0,029
-649,028	-116,424	0,130	-0,017
-648,014	272,889	0,057	-0,074
-646,999	378,723	-0,081	-0,121
-645,984	-24,674	0,033	-0,015
-644,970	-200,000	-0,004	0,056
-643,955	-200,000	-0,001	-0,079
-642,941	82,432	-0,018	0,015
-641,926	-123,428	0,049	0,006
-640,911	-1,608	-0,106	0,055
-639,897	-78,267	0,096	0,024
-638,882	-200,000	-0,009	0,034
-637,868	-113,760	-0,024	0,003
-636,853	325,804	-0,054	-0,076
-635,838	-74,225	-0,125	0,033
-634,824	141,515	-0,046	0,045
-633,809	-128,281	-0,130	-0,013
-632,795	307,763	-0,075	0,102
-631,780	-21,188	-0,048	-0,021
-630,765	-200,000	-0,004	0,062
-629,751	451,726	0,039	-0,064
-628,736	442,295	0,097	-0,156
-627,722	-200,000	0,014	-0,130
-626,707	-37,085	-0,019	-0,007
-625,692	722,900	0,040	-0,079
-624,678	-116,615	0,144	0,019
-623,663	-185,734	0,086	-0,001
-622,649	-168,321	-0,205	-0,006
-621,634	515,399	-0,067	0,115
-620,619	-71,929	-0,049	-0,013
-619,605	248,680	0,016	-0,020
-618,590	130,815	0,025	-0,024
-617,576	65,224	0,095	-0,070
-616,561	-33,116	-0,111	0,045
-615,546	33,677	-0,036	0,023
-614,532	-32,796	-0,102	-0,041
-613,517	800,000	0,007	-0,018
-612,503	206,811	-0,060	0,068
-611,488	-200,000	0,007	0,032
-610,474	-200,000	0,004	-0,121
-609,459	8,082	0,070	0,038
-608,444	162,843	-0,078	-0,081
-607,430	256,949	-0,061	-0,077
-606,415	51,682	0,033	-0,023
-605,401	-88,452	0,023	0,005
-604,386	-200,000	0,008	-0,046
-603,371	-119,341	0,130	0,016
-602,357	196,277	-0,153	0,171
-601,342	-117,067	-0,084	0,011
-600,328	-200,000	0,002	-0,062
-599,313	-151,618	0,070	-0,004
-598,298	104,262	-0,090	-0,078
-597,284	-200,000	0,011	0,103
-596,269	-200,000	-0,005	-0,038
-595,255	6,460	-0,076	0,041
-594,240	206,655	-0,137	0,156
-593,225	-200,000	0,000	-0,023
-592,211	-43,833	-0,137	-0,050
-591,196	394,381	0,051	-0,079
-590,182	-200,000	0,024	0,144
-589,167	5,221	0,062	-0,034
-588,152	115,983	0,084	-0,075
-587,138	283,904	-0,046	-0,061
-586,123	800,000	-0,064	-0,133
-585,109	610,497	-0,062	-0,113
-584,094	-200,000	-0,005	0,091
-583,079	130,895	0,137	0,129
-582,065	122,919	-0,064	-0,059
-581,050	-24,346	0,070	-0,031
-580,036	-121,679	-0,044	0,005
-579,021	294,914	-0,035	-0,047
-578,006	183,011	0,058	-0,062
-576,992	413,187	0,126	-0,196
-575,977	513,809	-0,019	0,033
-574,963	-200,000	0,001	0,114
-573,948	84,516	0,055	-0,044
-572,934	154,282	-0,142	0,143
-571,919	-69,430	0,072	-0,020
-570,904	800,000	0,063	-0,166
-569,890	224,972	0,114	0,135
-568,875	452,565	0,036	0,058
-567,861	-200,000	-0,019	0,155
-566,846	-128,218	0,082	0,008
-565,831	-49,611	0,046	-0,016
-564,817	355,680	-0,054	0,079
-563,802	-150,638	-0,068	0,004
-562,788	-147,271	-0,091	-0,006
-561,773	-110,544	0,068	0,010
-560,758	-200,000	0,019	0,172
-559,744	427,450	0,037	0,059
-558,729	-46,403	-0,042	0,015
-557,715	-200,000	-0,011	0,042
-556,700	800,000	-0,024	-0,062
-555,685	800,000	0,014	-0,043
-554,671	-200,000	0,003	-0,063
-553,656	795,401	-0,016	0,033
-552,642	-60,186	0,079	0,024
-551,627	-139,045	-0,051	-0,004
-550,612	34,326	-0,194	-0,123
-549,598	21,493	-0,085	-0,051
-548,583	684,024	0,045	-0,087
-547,569	90,276	0,116	-0,095
-546,554	20,091	0,092	0,054
-545,539	-62,411	-0,045	0,014
-544,525	-200,000	0,037	0,179
-543,510	800,000	0,037	0,094
-542,496	800,000	-0,026	-0,074
-541,481	-82,537	-0,144	-0,034
-540,466	231,319	0,044	-0,053
-539,452	-16,025	-0,089	0,041
-538,437	-14,366	0,034	-0,016
-537,423	70,345	0,044	0,033
-536,408	277,221	-0,130	-0,169
-535,393	-200,000	0,060	-0,250
-534,379	800,000	-0,016	-0,043
-533,364	-117,614	0,082	-0,011
-532,350	800,000	0,069	-0,185
-531,335	85,727	-0,052	0,041
-530,321	-136,254	-0,089	0,008
-529,306	241,122	0,028	-0,034
-528,291	-146,795	0,044	0,003
-527,277	-200,000	-0,053	-0,231
-526,262	-200,000	-0,032	-0,212
-525,248	800,000	0,032	0,097
-524,233	53,681	0,057	-0,040
-523,218	-200,000	0,004	-0,182
-522,204	800,000	-0,033	0,096
-521,189	55,583	-0,024	-0,017
-520,175	-116,746	0,093	0,012
-519,160	800,000	0,043	-0,097
-518,145	-200,000	-0,013	0,064
-517,131	-58,645	-0,026	0,008
-516,116	800,000	-0,026	0,053
-515,102	101,543	0,038	0,032
-514,087	665,790	-0,067	-0,127
-513,072	-96,039	0,154	-0,030
-512,058	-123,138	-0,044	-0,005
-511,043	15,476	-0,093	0,053
-510,029	800,000	0,073	-0,167
-509,014	405,996	-0,052	-0,081
-507,999	-167,308	-0,092	-0,003
-506,985	800,000	0,021	0,045
-505,970	-126,672	-0,077	-0,008
-504,956	-200,000	-0,018	-0,066
-503,941	98,994	-0,047	0,040
-502,926	251,161	-0,043	0,053
-501,912	105,738	-0,064	0,055
-500,897	545,789	0,022	0,039
-499,883	-12,797	0,044	0,021
-498,868	-36,007	-0,098	-0,038
-497,853	800,000	-0,079	-0,166
-496,839	-200,000	-0,010	-0,064
-495,824	-200,000	0,008	0,148
-494,810	800,000	-0,008	0,020
-493,795	129,914	-0,028	-0,026
-492,781	-200,000	-0,005	0,099
-491,766	-188,505	-0,055	-0,000
-490,751	612,903	-0,009	0,016
-489,737	-46,095	-0,056	0,020
-488,722	247,208	0,082	0,101
-487,708	600,692	0,031	-0,057
-486,693	-21,748	-0,039	0,017
-485,678	-105,123	0,021	0,004
-484,664	-93,337	-0,063	-0,013
-483,649	412,305	0,019	-0,029
-482,635	-200,000	-0,023	-0,079
-481,620	800,000	0,027	0,080
-480,605	-38,855	0,179	0,069
-479,591	120,486	-0,074	0,067
-478,576	126,236	0,013	0,012
-477,562	-200,000	-0,048	-0,192
-476,547	-124,726	0,018	-0,002
-475,532	-200,000	-0,023	-0,077
-474,518	800,000	-0,041	-0,093
-473,503	-110,453	0,094	0,014
-472,489	366,839	0,045	0,067
-471,474	18,062	-0,117	0,067
-470,459	-92,348	0,048	-0,010
-469,445	201,020	0,078	0,087
-468,430	332,528	0,042	-0,060
-467,416	-49,363	0,092	0,032
-466,401	-200,000	0,012	0,076
-465,386	800,000	0,040	0,093
-464,372	722,096	0,040	-0,077
-463,357	207,238	-0,050	-0,057
-462,343	526,609	-0,085	-0,146
-461,328	800,000	-0,007	-0,015
-460,313	-200,000	0,016	-0,111
-459,299	247,022	0,065	-0,080
-458,284	-104,282	-0,064	0,011
-457,270	10,867	-0,054	0,030
-456,255	51,076	-0,011	0,008
-455,241	327,212	-0,014	-0,020
-454,226	42,602	-0,074	0,049
-453,211	-200,000	0,045	0,160
-452,197	318,134	-0,075	-0,104
-451,182	-6,501	-0,070	0,035
-450,168	88,475	0,102	0,082
-449,153	-200,000	0,006	0,038
-448,138	-200,000	-0,016	0,097
-447,124	800,000	-0,064	-0,146
-446,109	171,585	-0,071	-0,074
-445,095	-200,000	-0,024	0,164
-444,080	367,882	0,028	0,041
-443,065	-33,669	0,047	0,019
-442,051	24,027	0,055	0,033
-441,036	-200,000	-0,029	-0,098
-440,022	197,478	-0,099	-0,111
-439,007	-135,173	-0,041	0,004
-437,992	-37,168	0,163	0,063
-436,978	800,000	0,022	0,069
-435,963	206,756	0,038	-0,043
-434,949	163,616	-0,067	0,069
-433,934	-0,423	-0,100	-0,052
-432,919	-200,000	-0,010	-0,087
-431,905	800,000	-0,022	-0,064
-430,890	61,109	0,062	0,044
-429,876	-200,000	-0,006	0,070
-428,861	-144,703	0,094	0,006
-427,846	153,424	-0,085	-0,084
-426,832	-82,368	-0,126	-0,029
-425,817	143,804	0,032	0,031
-424,803	-173,438	-0,138	-0,003
-423,788	138,732	-0,087	0,083
-422,773	98,567	0,036	-0,030
-421,759	-184,277	0,143	0,002
-420,744	59,594	0,112	0,080
-419,730	781,483	-0,036	-0,072
-418,715	189,495	-0,070	-0,077
-417,701	-200,000	0,005	0,051
-416,686	800,000	0,040	0,097
-415,671	-23,810	0,057	0,025
-414,657	-200,000	0,010	0,061
-413,642	76,606	-0,037	-0,029
-412,628	-108,903	-0,112	-0,017
-411,613	800,000	-0,022	-0,047
-410,598	634,628	-0,013	0,025
-409,584	304,773	0,059	-0,079
-408,569	-200,000	-0,005	-0,099
-407,555	-200,000	0,030	0,176
-406,540	129,793	0,096	0,089
-405,525	197,168	-0,079	-0,087
-404,511	-84,293	0,050	0,011
-403,496	173,704	0,068	0,071
-402,482	-200,000	0,007	0,192
-401,467	-40,195	-0,141	0,053
-400,452	394,651	0,105	0,159
-399,438	-190,640	-0,021	0,000
-398,423	100,016	-0,074	-0,062
-397,409	57,310	-0,074	-0,052
-396,394	-85,936	0,099	-0,022
-395,379	175,842	0,025	0,027
-394,365	-168,920	0,180	-0,005
-393,350	66,722	0,112	0,082
-392,336	86,472	0,090	-0,072
-391,321	-7,153	-0,119	-0,058
-390,306	-63,916	-0,073	-0,022
-389,292	186,370	-0,017	-0,018
-388,277	135,338	0,060	-0,057
-387,263	34,066	-0,030	-0,019
-386,248	800,000	-0,018	0,050
-385,233	800,000	0,034	0,077
-384,219	216,193	-0,067	-0,077
-383,204	-100,026	0,079	-0,014
-382,190	507,613	0,095	-0,161
-381,175	106,257	0,090	0,077
-380,160	800,000	0,042	-0,115
-379,146	-27,859	0,085	0,036
-378,131	-200,000	-0,002	-0,008
-377,117	5,575	0,085	-0,045
-376,102	19,650	-0,137	-0,080
-375,088	800,000	0,040	-0,122
-374,073	-135,619	-0,094	-0,008
-373,058	-43,882	0,061	-0,022
-372,044	800,000	-0,014	0,038
-371,029	148,132	0,078	0,076
-370,015	800,000	-0,049	0,131
-369,000	-129,524	-0,162	-0,016
-367,985	800,000	-0,058	0,174
-366,971	117,409	-0,013	-0,011
-365,956	-119,692	0,040	-0,005
-364,942	-47,798	-0,102	0,036
-363,927	-200,000	0,026	0,110
-362,912	66,285	0,032	0,024
-361,898	-78,648	-0,077	0,019
-360,883	-200,000	-0,007	0,067
-359,869	800,000	-0,059	-0,136
-358,854	23,330	0,063	0,037
-357,839	140,783	-0,045	0,043
-356,825	-90,815	-0,018	0,004
-355,810	-131,644	-0,164	-0,015
-354,796	-200,000	0,032	0,144
-353,781	800,000	0,027	-0,069
-352,766	101,474	0,052	-0,044
-351,752	66,385	0,064	-0,047
-350,737	9,920	0,028	-0,016
-349,723	800,000	-0,037	0,093
-348,708	-200,000	-0,023	-0,119
-347,693	-38,277	-0,076	-0,029
-346,679	28,759	-0,089	-0,054
-345,664	-85,187	-0,062	0,014
-344,650	82,561	0,053	-0,041
-343,635	-200,000	0,027	-0,096
-342,620	-200,000	-0,000	0,052
-341,606	800,000	-0,031	0,077
-340,591	-200,000	-0,002	-0,124
-339,577	-110,695	-0,127	0,019
-338,562	-132,054	0,176	-0,016
-337,548	326,640	0,023	0,032
-336,533	-200,000	-0,000	-0,009
-335,518	-200,000	0,021	0,129
-334,504	153,680	-0,066	-0,065
-333,489	-15,735	-0,064	0,030
-332,475	-136,444	-0,032	-0,003
-331,460	290,270	-0,086	-0,113
-330,445	-200,000	0,029	-0,102
-329,431	-200,000	-0,002	0,010
-328,416	-146,030	0,061	0,004
-327,402	-3,377	-0,072	0,036
-326,387	-200,000	0,000	-0,089
-325,372	107,709	-0,063	-0,055
-324,358	272,449	0,032	-0,041
-323,343	154,551	-0,124	-0,123
-322,329	800,000	-0,046	-0,147
-321,314	-200,000	-0,034	0,135
-320,299	-200,000	-0,013	0,105
-319,285	97,406	-0,017	-0,014
-318,270	46,306	-0,121	-0,081
-317,256	13,745	0,089	-0,050
-316,241	-92,433	-0,128	0,026
-315,226	-28,140	0,136	-0,056
-314,212	-78,365	0,089	-0,022
-313,197	800,000	0,036	-0,104
-312,183	44,694	0,072	0,048
-311,168	-66,913	0,104	0,029
-310,153	-49,343	-0,097	-0,033
-309,139	800,000	-0,046	-0,125
-308,124	61,007	0,140	-0,100
-307,110	-200,000	0,012	0,118
-306,095	800,000	0,022	-0,062
-305,080	520,804	0,044	-0,074
-304,066	183,406	-0,127	0,136
-303,051	800,000	0,015	-0,048
-302,037	-200,000	-0,003	-0,060
-301,022	131,017	0,064	0,059
-300,008	372,981	0,064	0,094
-298,993	-158,102	0,087	-0,004
-297,978	3,530	0,056	-0,029
-296,964	41,860	-0,085	-0,056
-295,949	-200,000	-0,004	-0,179
-294,935	-200,000	-0,000	0,041
-293,920	64,225	-0,120	-0,087
-292,905	-13,030	0,049	0,023
-291,891	-88,777	-0,119	0,025
-290,876	-4,693	0,126	0,063
-289,862	-129,495	-0,186	0,018
-288,847	331,354	0,063	-0,088
-287,832	-124,645	0,050	0,006
-286,818	507,654	0,042	-0,071
-285,803	362,233	0,100	0,145
-284,789	79,203	-0,067	0,052
-283,774	38,604	0,120	0,077
-282,759	143,534	0,036	0,035
-281,745	538,115	-0,087	-0,149
-280,730	503,023	-0,050	-0,084
-279,716	267,088	-0,046	-0,059
-278,701	-69,861	-0,116	0,032
-277,686	-69,120	-0,105	0,029
-276,672	87,474	-0,043	-0,035
-275,657	-28,049	-0,064	0,027
-274,643	133,309	-0,040	0,037
-273,628	-200,000	-0,001	0,012
-272,613	223,774	0,019	-0,022
-271,599	-126,981	0,233	-0,024
-270,584	-200,000	0,028	0,137
-269,570	-200,000	-0,022	0,141
-268,555	-122,326	0,127	0,015
-267,540	-200,000	0,006	-0,138
-266,526	-200,000	0,003	-0,107
-265,511	-200,000	0,006	-0,043
-264,497	32,455	0,143	-0,089
-263,482	182,141	0,074	0,079
-262,467	-75,050	0,104	0,027
-261,453	-200,000	0,006	0,151
-260,438	-110,164	0,084	-0,013
-259,424	-200,000	0,006	-0,044
-258,409	-40,111	-0,074	-0,028
-257,395	-31,009	-0,069	-0,028
-256,380	-200,000	-0,059	0,233
-255,365	263,048	-0,038	-0,048
-254,351	186,721	0,043	-0,047
-253,336	-200,000	-0,006	0,053
-252,322	800,000	0,041	-0,124
-251,307	-18,548	-0,076	0,034
-250,292	287,465	0,051	0,067
-249,278	133,510	0,094	-0,088
-248,263	-4,814	-0,075	-0,037
-247,249	631,404	-0,049	0,090
-246,234	-200,000	-0,007	0,033
-245,219	393,293	0,049	0,074
-244,205	158,341	-0,035	0,035
-243,190	-125,631	0,181	0,020
-242,176	800,000	-0,021	0,067
-241,161	648,856	0,014	0,026
-240,146	800,000	-0,018	0,046
-239,132	-200,000	-0,005	0,035
-238,117	-103,840	-0,059	0,010
-237,103	-200,000	-0,007	0,058
-236,088	-200,000	-0,014	-0,120
-235,073	-200,000	0,010	0,066
-234,059	800,000	0,024	0,067
-233,044	-80,888	-0,050	0,012
-232,030	346,285	0,051	-0,072
-231,015	800,000	-0,019	-0,052
-230,000	800,000	0,032	-0,087
-228,986	594,743	0,040	0,072
-227,971	-111,451	0,157	0,023
-226,957	4,848	-0,051	0,027
-225,942	-200,000	0,015	0,102
-224,927	244,652	0,034	0,041
-223,913	268,938	-0,114	-0,144
-222,898	-11,689	0,120	0,056
-221,884	800,000	-0,052	0,106
-220,869	800,000	-0,039	0,088
-219,855	-65,371	-0,079	0,023
-218,840	-200,000	-0,045	0,151
-217,825	-200,000	-0,014	-0,106
-216,811	800,000	0,015	-0,034
-215,796	128,371	-0,043	-0,039
-214,782	-13,029	0,036	0,017
-213,767	800,000	0,041	0,111
-212,752	-200,000	0,028	0,103
-211,738	800,000	-0,034	0,075
-210,723	-200,000	0,004	0,015
-209,709	-92,948	-0,069	-0,014
-208,694	-100,085	0,105	-0,019
-207,679	-93,120	0,091	-0,018
-206,665	26,459	0,051	-0,031
-205,650	800,000	0,044	0,120
-204,636	218,119	0,085	0,098
-203,621	-200,000	-0,020	0,065
-202,606	-124,018	0,194	0,022
-201,592	410,090	0,038	-0,058
-200,577	148,066	-0,130	-0,126
-199,563	141,791	0,061	0,058
-198,548	-82,870	0,085	-0,019
-197,533	143,313	0,062	0,059
-196,519	656,152	-0,016	-0,029
-195,504	9,196	0,028	-0,015
-194,490	-1,998	0,075	0,038
-193,475	60,129	-0,104	0,074
-192,460	-200,000	0,005	-0,053
-191,446	-200,000	-0,009	-0,039
-190,431	441,003	0,013	-0,020
-189,417	-122,959	0,022	0,003
-188,402	13,937	0,091	-0,051
-187,387	120,568	-0,075	-0,067
-186,373	-96,088	0,045	0,008
-185,358	-200,000	0,000	0,028
-184,344	124,092	0,045	-0,041
-183,329	401,664	-0,099	0,150
-182,315	-200,000	0,024	0,124
-181,300	-200,000	0,007	0,046
-180,285	178,335	-0,041	-0,043
-179,271	340,689	0,048	-0,068
-178,256	800,000	-0,058	0,162
-177,242	800,000	0,007	0,018
-176,227	-200,000	0,009	-0,058
-175,212	108,711	-0,209	0,180
-174,198	-200,000	-0,014	0,117
-173,183	-100,602	-0,063	0,011
-172,169	-138,932	0,041	-0,003
-171,154	-158,277	0,112	-0,005
-170,139	-87,007	-0,109	-0,024
-169,125	-103,045	0,126	0,021
-168,110	263,797	-0,090	0,112
-167,096	-135,576	0,097	0,008
-166,081	-200,000	0,001	-0,037
-165,066	17,039	-0,042	-0,024
-164,052	800,000	-0,015	0,044
-163,037	332,525	0,010	-0,014
-162,023	125,861	-0,030	-0,027
-161,008	112,094	0,099	0,086
-159,993	-10,018	0,083	-0,040
-158,979	58,770	0,101	0,072
-157,964	152,911	0,075	0,073
-156,950	4,448	0,080	0,042
-155,935	-200,000	0,032	0,113
-154,920	-200,000	-0,045	0,196
-153,906	-43,204	0,107	0,039
-152,891	-200,000	-0,024	-0,077
-151,877	-64,026	-0,098	-0,029
-150,862	800,000	-0,032	-0,099
-149,847	292,546	0,097	-0,127
-148,833	230,703	0,051	0,060
-147,818	-200,000	0,025	0,117
-146,804	800,000	-0,056	0,171
-145,789	196,939	-0,049	-0,054
-144,775	-12,141	-0,079	0,037
-143,760	800,000	-0,008	0,023
-142,745	800,000	0,021	-0,051
-141,731	96,693	0,106	0,087
-140,716	551,704	-0,040	0,069
-139,702	-138,017	0,095	-0,008
-138,687	-95,708	-0,099	-0,019
-137,672	-200,000	0,005	-0,018
-136,658	100,671	-0,073	0,061
-135,643	185,005	0,027	-0,029
-134,629	305,989	0,099	-0,132
-133,614	-59,969	-0,104	0,032
-132,599	800,000	-0,034	0,088
-131,585	39,073	0,086	0,055
-130,570	-200,000	0,002	-0,162
-129,556	303,866	-0,024	-0,032
-128,541	-200,000	-0,001	0,026
-127,526	36,819	-0,094	-0,059
-126,512	5,633	-0,026	-0,014
-125,497	-200,000	0,089	-0,000
-124,483	-171,849	0,078	-0,002
-123,468	800,000	-0,018	-0,039
-122,453	-112,128	-0,050	-0,007
-121,439	-200,000	-0,039	-0,130
-120,424	76,078	-0,070	-0,053
