DTS Sentinel unit serial number:	SN410029Multiplexer serial number:	ORYXHardware model number:	OX2-SRSoftware version number:	ORYX F/W v4,00 Oryx Data Collector v3.7.2.0data status	okinstallation	B6 Nyhavnadifferential loss correction	single-endedforward channel	channel 2reverse channel	N/Adate	2023/12/09time	00:00:08forward acquisition time	300,00reverse acquisition time	0,00gamma	499,1914k internal	0,3157k external	0,3157temperature offset calibration	1,0000default loss term (dB/km)	0,3820temperature slope calibration	1,0000multiplexer offset coefficient	1,0000multiplexer slope coefficient	1,0000fibre end	0,00T internal ref (°C)	15,53T ext. ref 1 (°C)	-0,85T ext. ref 2 (°C)	-0,85length (m)	temperature (°C)	Stokes	anti-Stokes-744,400	111,838	0,157	0,140
-743,385	-40,311	-0,243	0,093
-742,371	-142,481	0,313	-0,022
-741,356	-106,618	-0,343	0,056
-740,342	170,269	0,153	0,161
-739,327	98,903	-0,242	0,206
-738,312	169,344	0,035	-0,037
-737,298	-89,646	-0,218	-0,047
-736,283	-72,022	0,076	0,021
-735,269	-129,249	-0,253	-0,026
-734,254	-56,516	0,037	0,012
-733,239	-67,375	-0,464	-0,134
-732,225	800,000	0,083	0,195
-731,210	-200,000	0,037	0,163
-730,196	-71,988	-0,138	0,038
-729,181	122,583	-0,023	0,021
-728,167	-70,210	-0,067	0,019
-727,152	124,837	0,072	-0,067
-726,137	-140,571	-0,176	-0,013
-725,123	308,302	-0,078	-0,108
-724,108	129,730	-0,065	-0,061
-723,094	335,520	-0,013	0,019
-722,079	-43,887	-0,121	-0,044
-721,064	33,088	0,087	0,055
-720,050	-200,000	0,027	0,155
-719,035	-200,000	-0,011	0,088
-718,021	41,815	-0,144	-0,096
-717,006	-200,000	-0,006	-0,098
-715,991	37,433	-0,168	-0,109
-714,977	137,778	-0,033	-0,032
-713,962	56,389	0,039	0,028
-712,948	124,723	-0,028	-0,026
-711,933	800,000	-0,017	0,050
-710,918	-92,506	-0,080	-0,016
-709,904	800,000	-0,058	-0,121
-708,889	-200,000	-0,050	-0,218
-707,875	307,779	-0,040	-0,055
-706,860	800,000	-0,039	0,124
-705,845	20,415	-0,067	0,040
-704,831	-155,497	-0,051	-0,002
-703,816	343,786	-0,060	0,087
-702,802	800,000	-0,035	-0,077
-701,787	-77,955	0,049	-0,012
-700,772	800,000	-0,018	-0,057
-699,758	58,184	-0,014	0,010
-698,743	-16,436	0,084	0,039
-697,729	27,144	-0,093	0,058
-696,714	-105,350	0,146	0,024
-695,699	254,690	-0,103	-0,130
-694,685	800,000	-0,051	-0,116
-693,670	-18,610	-0,118	-0,054
-692,656	428,276	-0,157	-0,250
-691,641	-95,411	0,029	-0,006
-690,627	408,582	0,015	-0,024
-689,612	-200,000	0,001	0,034
-688,597	235,313	-0,051	-0,063
-687,583	114,339	-0,085	-0,077
-686,568	45,821	-0,065	-0,044
-685,554	-75,412	0,038	0,010
-684,539	333,086	-0,085	-0,121
-683,524	124,133	0,113	0,104
-682,510	-200,000	0,017	-0,070
-681,495	-105,827	-0,114	-0,019
-680,481	-143,478	-0,088	-0,006
-679,466	56,088	-0,075	-0,053
-678,451	800,000	0,039	0,094
-677,437	105,988	-0,068	-0,059
-676,422	-43,854	-0,016	0,006
-675,408	-200,000	0,019	0,132
-674,393	-16,650	-0,095	0,044
-673,378	-34,147	-0,082	-0,033
-672,364	800,000	-0,055	-0,143
-671,349	-54,119	-0,052	-0,017
-670,335	71,519	-0,112	0,085
-669,320	-30,851	-0,041	0,017
-668,305	38,182	0,182	0,119
-667,291	-73,539	-0,021	0,006
-666,276	-131,959	0,096	-0,009
-665,262	20,198	-0,080	0,047
-664,247	-14,966	-0,143	-0,067
-663,232	-8,789	0,200	-0,098
-662,218	-200,000	-0,014	-0,137
-661,203	11,114	-0,132	-0,074
-660,189	-195,280	-0,119	0,001
-659,174	354,714	-0,058	-0,085
-658,159	349,854	-0,062	-0,090
-657,145	-135,072	0,090	0,008
-656,130	-139,243	-0,095	0,007
-655,116	-124,060	0,070	0,008
-654,101	17,966	0,093	0,054
-653,086	-66,814	0,057	-0,016
-652,072	479,062	0,029	0,049
-651,057	-200,000	-0,019	-0,088
-650,043	84,090	-0,087	-0,070
-649,028	-55,581	0,033	0,011
-648,014	-108,056	0,114	-0,018
-646,999	-125,711	0,058	-0,006
-645,984	2,743	-0,097	0,051
-644,970	-30,884	-0,069	0,028
-643,955	800,000	0,044	-0,091
-642,941	800,000	-0,053	-0,115
-641,926	-25,621	-0,113	-0,049
-640,911	167,075	-0,063	0,066
-639,897	206,557	-0,120	-0,138
-638,882	-200,000	0,012	-0,115
-637,868	800,000	0,032	-0,077
-636,853	598,280	0,031	-0,057
-635,838	800,000	-0,027	-0,063
-634,824	-124,726	0,043	0,005
-633,809	129,141	0,059	-0,055
-632,795	156,815	-0,039	0,040
-631,780	425,781	-0,085	0,135
-630,765	-174,509	0,042	0,001
-629,751	-101,419	-0,145	0,026
-628,736	-10,329	-0,016	-0,008
-627,722	-200,000	0,022	-0,085
-626,707	516,490	0,049	-0,085
-625,692	-200,000	0,010	0,134
-624,678	-200,000	0,006	0,114
-623,663	127,527	-0,087	-0,081
-622,649	492,814	-0,053	-0,090
-621,634	341,885	-0,057	-0,082
-620,619	-60,572	-0,091	-0,028
-619,605	-21,823	0,010	-0,004
-618,590	301,186	0,022	-0,030
-617,576	302,409	-0,115	0,156
-616,561	301,435	-0,100	0,136
-615,546	221,651	-0,029	-0,034
-614,532	-200,000	-0,013	0,047
-613,517	-59,338	-0,107	0,033
-612,503	-104,000	0,129	0,022
-611,488	-200,000	-0,003	0,035
-610,474	-7,176	0,112	0,056
-609,459	-82,032	-0,115	0,027
-608,444	18,292	-0,062	0,036
-607,430	-10,700	-0,083	-0,040
-606,415	4,235	0,139	-0,074
-605,401	-200,000	-0,001	-0,042
-604,386	-35,907	-0,051	0,020
-603,371	-200,000	-0,051	0,171
-602,357	-200,000	-0,004	-0,175
-601,342	145,455	0,050	-0,050
-600,328	2,769	-0,019	0,010
-599,313	622,040	-0,060	-0,111
-598,298	10,161	-0,073	-0,041
-597,284	-200,000	0,019	0,090
-596,269	800,000	0,064	0,199
-595,255	-108,083	-0,039	-0,006
-594,240	-200,000	0,027	-0,153
-593,225	112,600	-0,106	-0,094
-592,211	767,264	-0,037	0,073
-591,196	-200,000	0,013	-0,121
-590,182	588,825	-0,045	-0,081
-589,167	93,041	0,119	0,098
-588,152	-200,000	0,010	-0,101
-587,138	83,265	-0,032	0,026
-586,123	-132,837	-0,119	0,011
-585,109	42,246	-0,163	0,109
-584,094	173,927	0,052	0,055
-583,079	253,477	0,042	0,053
-582,065	-117,746	0,096	-0,013
-581,050	800,000	-0,024	0,063
-580,036	-96,056	-0,063	-0,012
-579,021	-200,000	0,016	-0,077
-578,006	586,179	-0,059	-0,107
-576,992	422,846	-0,101	-0,160
-575,977	93,606	-0,051	0,042
-574,963	-11,243	0,083	0,040
-573,948	-23,428	-0,064	-0,028
-572,934	-153,419	0,095	-0,005
-571,919	170,445	0,079	-0,083
-570,904	-85,089	0,056	-0,013
-569,890	300,269	-0,102	0,139
-568,875	369,071	0,046	-0,068
-567,861	80,877	-0,059	0,047
-566,846	312,467	-0,045	-0,063
-565,831	-64,284	-0,089	0,026
-564,817	86,474	-0,108	-0,087
-563,802	68,840	0,056	-0,042
-562,788	260,420	-0,112	-0,141
-561,773	800,000	-0,058	-0,160
-560,758	-197,732	0,103	-0,000
-559,744	482,438	-0,044	0,074
-558,729	86,528	-0,067	0,054
-557,715	-200,000	-0,046	-0,176
-556,700	439,405	-0,054	-0,086
-555,685	800,000	0,016	0,052
-554,671	800,000	0,062	0,137
-553,656	-131,539	0,043	-0,004
-552,642	-200,000	0,018	-0,127
-551,627	460,489	-0,043	-0,070
-550,612	193,559	-0,080	0,089
-549,598	800,000	0,039	-0,119
-548,583	-200,000	-0,004	0,015
-547,569	-200,000	0,014	0,063
-546,554	189,736	0,118	0,130
-545,539	-200,000	-0,031	0,191
-544,525	-134,400	0,060	-0,005
-543,510	-44,171	0,045	-0,016
-542,496	-200,000	-0,009	0,029
-541,481	35,425	-0,189	-0,121
-540,466	229,569	0,099	-0,118
-539,452	800,000	0,046	-0,096
-538,437	658,686	-0,009	0,016
-537,423	560,838	0,124	0,220
-536,408	800,000	0,020	0,054
-535,393	-7,014	-0,068	-0,034
-534,379	-154,034	0,009	0,000
-533,364	385,194	0,018	-0,027
-532,350	185,723	0,078	-0,085
-531,335	-133,802	0,053	0,005
-530,321	-97,462	-0,177	-0,033
-529,306	-200,000	-0,006	-0,032
-528,291	18,160	-0,029	-0,017
-527,277	800,000	-0,026	-0,061
-526,262	-200,000	-0,006	-0,104
-525,248	-200,000	0,025	0,103
-524,233	-200,000	0,055	0,189
-523,218	489,380	-0,073	0,122
-522,204	75,238	-0,032	-0,025
-521,189	-10,020	-0,053	0,026
-520,175	25,018	-0,099	-0,060
-519,160	-200,000	0,009	-0,138
-518,145	-11,143	-0,045	-0,022
-517,131	159,988	0,114	0,116
-516,116	81,572	0,064	-0,050
-515,102	433,557	-0,080	-0,127
-514,087	47,787	0,091	-0,062
-513,072	68,266	-0,116	0,087
-512,058	50,311	-0,121	-0,084
-511,043	-161,597	0,038	-0,001
-510,029	800,000	0,016	0,051
-509,014	-180,617	-0,073	0,001
-507,999	38,424	-0,043	0,028
-506,985	-25,317	-0,095	0,041
-505,970	4,764	0,055	-0,029
-504,956	478,442	0,063	0,104
-503,941	-47,384	0,150	-0,053
-502,926	-15,258	0,081	0,038
-501,912	127,155	-0,156	0,145
-500,897	568,427	-0,058	-0,103
-499,883	-200,000	0,022	-0,177
-498,868	-189,043	-0,012	0,000
-497,853	28,570	0,101	-0,063
-496,839	76,965	0,096	0,075
-495,824	800,000	0,026	0,073
-494,810	369,272	0,055	-0,081
-493,795	3,759	-0,104	0,055
-492,781	681,585	0,029	-0,056
-491,766	390,852	-0,056	-0,085
-490,751	-58,069	0,031	-0,010
-489,737	36,763	0,014	0,009
-488,722	-55,465	0,058	0,019
-487,708	332,774	0,089	-0,125
-486,693	87,541	-0,028	0,023
-485,678	-78,358	-0,059	-0,015
-484,664	233,591	-0,142	-0,171
-483,649	-135,572	-0,019	0,002
-482,635	24,892	-0,109	-0,066
-481,620	-99,539	0,154	0,028
-480,605	33,457	-0,056	0,035
-479,591	157,967	0,049	0,050
-478,576	350,843	-0,020	-0,029
-477,562	-123,051	-0,047	-0,005
-476,547	406,362	-0,013	-0,020
-475,532	-200,000	0,026	0,135
-474,518	100,336	0,103	0,087
-473,503	248,560	0,114	0,142
-472,489	93,973	0,023	0,019
-471,474	79,517	-0,045	0,035
-470,459	-200,000	-0,014	-0,097
-469,445	-15,687	-0,083	-0,039
-468,430	-200,000	0,000	-0,015
-467,416	476,979	0,049	-0,081
-466,401	-200,000	0,001	0,015
-465,386	377,920	0,028	0,043
-464,372	-17,900	-0,069	0,031
-463,357	287,369	0,067	0,088
-462,343	-37,107	-0,138	0,054
-461,328	101,448	0,019	0,016
-460,313	-200,000	0,001	0,006
-459,299	242,939	0,133	0,163
-458,284	-85,416	-0,048	0,011
-457,270	289,911	0,079	0,105
-456,255	800,000	0,032	0,081
-455,241	-200,000	0,034	-0,118
-454,226	800,000	-0,023	0,053
-453,211	130,340	-0,042	-0,039
-452,197	-200,000	0,009	0,114
-451,182	296,948	-0,031	0,041
-450,168	536,010	0,019	-0,032
-449,153	774,033	-0,024	-0,049
-448,138	-47,692	-0,054	0,019
-447,124	43,770	-0,157	-0,105
-446,109	-86,203	0,081	-0,018
-445,095	-78,604	-0,113	0,028
-444,080	277,813	0,041	0,053
-443,065	-96,454	-0,024	-0,005
-442,051	190,775	-0,035	-0,039
-441,036	800,000	-0,019	0,045
-440,022	-43,131	-0,154	-0,057
-439,007	220,106	0,111	0,129
-437,992	-76,349	-0,032	0,008
-436,978	66,325	-0,099	0,073
-435,963	379,408	0,071	0,106
-434,949	-67,452	-0,141	-0,040
-433,934	-85,473	0,125	0,028
-432,919	800,000	0,065	0,188
-431,905	800,000	-0,041	0,098
-430,890	-133,773	0,104	0,009
-429,876	-200,000	-0,021	0,166
-428,861	-45,751	0,119	-0,043
-427,846	-11,262	-0,053	-0,025
-426,832	67,502	0,046	-0,034
-425,817	41,520	-0,122	-0,080
-424,803	800,000	-0,006	0,014
-423,788	-200,000	-0,002	-0,050
-422,773	-86,255	0,215	0,048
-421,759	-200,000	-0,010	0,099
-420,744	142,774	0,062	0,060
-419,730	-54,330	0,042	0,014
-418,715	-200,000	0,014	0,080
-417,701	163,595	0,032	-0,033
-416,686	100,885	0,032	0,027
-415,671	800,000	0,035	0,099
-414,657	576,033	0,065	0,116
-413,642	41,074	-0,112	0,073
-412,628	651,691	-0,021	-0,039
-411,613	-200,000	-0,015	-0,072
-410,598	474,327	-0,114	-0,187
-409,584	568,027	-0,032	-0,057
-408,569	-2,394	0,095	-0,048
-407,555	-200,000	0,009	-0,105
-406,540	40,457	-0,054	0,036
-405,525	800,000	-0,017	-0,050
-404,511	498,245	0,072	-0,121
-403,496	-95,871	0,117	0,023
-402,482	64,081	-0,014	0,010
-401,467	-126,514	0,058	0,006
-400,452	16,965	0,102	-0,058
-399,438	230,014	0,050	-0,059
-398,423	-128,231	-0,088	-0,009
-397,409	384,659	-0,036	0,055
-396,394	-74,384	-0,037	-0,010
-395,379	3,699	0,095	-0,050
-394,365	-73,125	0,015	0,004
-393,350	-120,899	-0,060	0,007
-392,336	-197,387	-0,095	0,000
-391,321	-200,000	0,027	-0,112
-390,306	-200,000	0,002	-0,042
-389,292	55,041	-0,150	-0,105
-388,277	800,000	0,070	0,149
-387,263	146,903	0,073	-0,071
-386,248	-92,169	-0,082	0,017
-385,233	239,892	0,103	-0,125
-384,219	-175,194	-0,083	-0,002
-383,204	35,256	0,057	-0,036
-382,190	800,000	0,042	-0,094
-381,175	543,918	-0,022	0,039
-380,160	-79,571	0,099	-0,024
-379,146	-136,482	0,153	0,013
-378,131	800,000	0,011	0,034
-377,117	800,000	-0,039	0,084
-376,102	-1,368	0,175	-0,090
-375,088	-200,000	0,013	-0,112
-374,073	210,363	0,125	0,143
-373,058	100,523	-0,080	0,068
-372,044	-21,693	-0,119	0,052
-371,029	-200,000	0,001	0,097
-370,015	-200,000	0,021	-0,072
-369,000	79,247	0,039	0,031
-367,985	461,535	-0,069	-0,113
-366,971	66,047	-0,099	0,073
-365,956	35,983	-0,054	0,035
-364,942	300,580	0,083	0,112
-363,927	-72,528	-0,136	0,036
-362,912	800,000	-0,050	0,111
-361,898	800,000	0,037	-0,098
-360,883	800,000	0,012	0,031
-359,869	234,290	0,062	-0,074
-358,854	-97,645	0,091	-0,017
-357,839	249,082	0,092	0,114
-356,825	-109,191	0,063	0,010
-355,810	126,565	-0,082	-0,075
-354,796	-147,435	-0,120	-0,007
-353,781	-200,000	-0,015	0,086
-352,766	13,799	0,128	0,072
-351,752	43,459	-0,073	-0,048
-350,737	154,698	0,106	-0,106
-349,723	-31,362	0,085	0,035
-348,708	301,922	-0,096	-0,129
-347,693	25,855	0,168	-0,102
-346,679	28,351	-0,055	-0,033
-345,664	-63,664	0,074	-0,022
-344,650	-27,856	0,027	0,011
-343,635	-200,000	-0,025	0,100
-342,620	314,358	-0,086	0,118
-341,606	-200,000	0,009	0,109
-340,591	-121,245	-0,217	0,026
-339,577	-87,425	0,165	0,036
-338,562	488,515	-0,070	-0,117
-337,548	-2,772	-0,126	-0,064
-336,533	288,630	0,010	0,014
-335,518	11,048	-0,144	-0,080
-334,504	227,755	-0,074	-0,087
-333,489	-99,045	0,056	0,010
-332,475	152,225	-0,100	-0,099
-331,460	296,081	0,044	0,059
-330,445	-148,145	0,047	0,003
-329,431	-17,239	0,102	-0,046
-328,416	-66,162	0,021	-0,006
-327,402	-200,000	0,027	0,162
-326,387	800,000	0,054	-0,130
-325,372	-127,223	-0,009	0,001
-324,358	79,062	-0,072	-0,056
-323,343	16,992	0,102	0,059
-322,329	800,000	0,036	0,114
-321,314	30,818	-0,028	0,018
-320,299	-33,019	0,138	0,055
-319,285	44,181	0,159	0,106
-318,270	103,928	0,088	-0,075
-317,256	-200,000	0,009	0,035
-316,241	-200,000	0,017	-0,077
-315,226	393,802	0,069	0,105
-314,212	-119,447	0,020	0,002
-313,197	800,000	0,087	0,233
-312,183	-49,632	0,093	0,032
-311,168	213,522	-0,052	-0,060
-310,153	800,000	-0,032	-0,097
-309,139	27,862	-0,108	-0,066
-308,124	-200,000	0,019	-0,101
-307,110	130,288	0,020	-0,018
-306,095	78,748	0,046	0,036
-305,080	48,523	-0,054	0,037
-304,066	-37,360	-0,115	-0,044
-303,051	-200,000	0,026	-0,150
-302,037	8,498	-0,083	0,045
-301,022	265,622	-0,031	-0,040
-300,008	30,749	0,070	-0,044
-298,993	-200,000	-0,007	0,106
-297,978	800,000	0,066	0,141
-296,964	687,931	0,074	-0,141
-295,949	153,954	0,087	0,086
-294,935	800,000	-0,007	-0,018
-293,920	227,449	0,040	-0,047
-292,905	243,159	0,065	-0,079
-291,891	-90,633	0,152	-0,032
-290,876	-52,688	-0,127	-0,042
-289,862	-130,588	-0,097	-0,009
-288,847	-200,000	-0,017	-0,060
-287,832	-93,842	-0,011	-0,002
-286,818	654,354	-0,037	-0,069
-285,803	275,522	0,096	-0,124
-284,789	-200,000	-0,020	0,081
-283,774	234,884	0,018	-0,021
-282,759	97,848	0,045	-0,038
-281,745	652,716	0,054	-0,100
-280,730	160,533	0,112	-0,113
-279,716	-1,977	0,134	0,068
-278,701	258,422	0,046	0,057
-277,686	301,632	-0,085	-0,114
-276,672	-72,659	0,088	0,023
-275,657	800,000	0,021	-0,062
-274,643	35,525	-0,060	-0,038
-273,628	-40,620	-0,095	-0,035
-272,613	-200,000	-0,008	0,176
-271,599	-200,000	-0,026	-0,099
-270,584	-200,000	0,024	-0,083
-269,570	176,102	0,038	0,040
-268,555	800,000	0,011	-0,031
-267,540	430,262	0,014	0,021
-266,526	225,024	-0,034	-0,040
-265,511	-58,831	0,110	-0,034
-264,497	-200,000	-0,002	-0,028
-263,482	-106,212	-0,017	0,003
-262,467	800,000	-0,018	0,056
-261,453	800,000	0,007	-0,020
-260,438	541,791	-0,067	-0,117
-259,424	144,637	0,035	-0,034
-258,409	156,464	-0,168	-0,168
-257,395	299,775	0,051	-0,068
-256,380	-8,591	0,153	-0,074
-255,365	32,637	-0,079	-0,049
-254,351	-200,000	0,007	0,045
-253,336	66,940	0,112	0,082
-252,322	111,278	-0,110	-0,096
-251,307	-147,565	-0,094	-0,006
-250,292	46,262	-0,082	-0,055
-249,278	-200,000	-0,022	0,139
-248,263	514,345	-0,025	0,042
-247,249	800,000	-0,015	0,036
-246,234	800,000	-0,048	-0,115
-245,219	660,248	-0,057	-0,107
-244,205	-51,063	-0,105	-0,035
-243,190	531,937	0,032	0,055
-242,176	-10,736	0,122	-0,058
-241,161	330,652	0,041	0,058
-240,146	-200,000	0,034	0,128
-239,132	142,386	0,042	-0,041
-238,117	48,052	-0,110	-0,075
-237,103	-38,400	0,139	-0,053
-236,088	145,617	0,049	-0,048
-235,073	-142,849	0,056	0,004
-234,059	544,231	0,034	0,059
-233,044	511,584	0,107	0,181
-232,030	65,938	-0,021	0,015
-231,015	589,870	-0,035	-0,062
-230,000	12,109	-0,086	0,048
-228,986	-200,000	0,026	0,105
-227,971	-106,522	-0,129	-0,021
-226,957	800,000	0,034	0,103
-225,942	56,408	-0,100	0,070
-224,927	11,452	0,033	0,018
-223,913	350,984	0,016	0,023
-222,898	221,067	0,058	0,068
-221,884	-200,000	0,036	-0,121
-220,869	-155,740	0,245	0,011
-219,855	-200,000	-0,012	0,083
-218,840	408,713	-0,071	0,109
-217,825	-111,025	-0,024	-0,004
-216,811	463,658	-0,014	-0,022
-215,796	392,547	0,040	0,060
-214,782	-110,223	-0,046	0,007
-213,767	-57,116	0,173	0,055
-212,752	-200,000	0,006	0,178
-211,738	-62,397	0,033	-0,010
-210,723	134,506	0,051	-0,048
-209,709	1,900	-0,062	0,032
-208,694	-154,635	-0,174	-0,008
-207,679	-200,000	-0,014	0,133
-206,665	800,000	0,061	-0,123
-205,650	-200,000	-0,004	0,123
-204,636	-45,791	-0,081	0,029
-203,621	40,519	0,168	0,109
-202,606	62,630	-0,106	-0,076
-201,592	264,093	-0,027	-0,034
-200,577	-86,197	0,060	0,013
-199,563	-52,470	0,048	-0,016
-198,548	55,848	0,059	0,041
-197,533	723,370	-0,025	0,047
-196,519	-19,161	0,077	0,035
-195,504	-16,231	-0,080	0,036
-194,490	555,474	0,020	-0,036
-193,475	222,471	0,086	-0,100
-192,460	712,909	0,018	0,035
-191,446	228,947	0,041	0,049
-190,431	11,635	-0,078	0,043
-189,417	-200,000	-0,022	0,120
-188,402	-200,000	-0,035	-0,129
-187,387	416,814	0,106	-0,165
-186,373	-41,107	-0,187	0,069
-185,358	334,307	0,056	0,078
-184,344	29,491	0,105	0,064
-183,329	452,162	-0,023	-0,037
-182,315	-173,939	-0,109	-0,002
-181,300	-96,921	-0,067	-0,013
-180,285	285,389	0,044	-0,058
-179,271	137,066	-0,072	-0,067
-178,256	628,734	-0,043	-0,079
-177,242	800,000	0,033	-0,075
-176,227	450,557	-0,020	-0,033
-175,212	224,735	-0,035	-0,041
-174,198	27,756	-0,048	0,029
-173,183	468,699	-0,075	-0,122
-172,169	-200,000	-0,008	0,119
-171,154	800,000	-0,030	0,070
-170,139	-32,945	0,076	0,030
-169,125	-200,000	-0,021	0,156
-168,110	326,633	0,037	-0,052
-167,096	310,526	0,033	0,045
-166,081	800,000	-0,026	0,060
-165,066	800,000	-0,007	0,018
-164,052	703,668	-0,016	-0,031
-163,037	800,000	0,027	-0,063
-162,023	-23,475	0,126	0,054
-161,008	800,000	0,066	0,143
-159,993	800,000	0,015	-0,035
-158,979	-12,076	0,060	-0,028
-157,964	800,000	-0,063	0,184
-156,950	-74,283	-0,021	0,005
-155,935	800,000	-0,049	0,134
-154,920	800,000	-0,018	0,039
-153,906	532,628	0,053	0,091
-152,891	-200,000	-0,010	0,087
-151,877	-84,578	0,115	0,026
-150,862	-200,000	-0,019	-0,175
-149,847	774,331	-0,100	-0,197
-148,833	162,420	-0,059	0,059
-147,818	32,830	0,019	-0,012
-146,804	554,225	-0,018	0,032
-145,789	-77,067	-0,013	-0,003
-144,775	-200,000	-0,018	-0,114
-143,760	171,609	-0,063	0,065
-142,745	-109,879	-0,095	-0,014
-141,731	524,950	-0,084	0,142
-140,716	127,664	0,041	0,038
-139,702	-200,000	-0,016	-0,063
-138,687	533,731	-0,078	0,133
-137,672	-172,368	-0,178	-0,004
-136,658	-200,000	-0,006	-0,025
-135,643	800,000	-0,043	-0,098
-134,629	-200,000	0,006	-0,035
-133,614	-67,843	0,156	-0,044
-132,599	-200,000	-0,006	0,054
-131,585	20,192	0,014	0,008
-130,570	800,000	-0,021	-0,043
-129,556	22,883	0,034	-0,020
-128,541	302,175	0,039	0,052
-127,526	800,000	-0,019	-0,051
-126,512	50,830	-0,033	-0,022
-125,497	-86,663	0,073	-0,016
-124,483	-73,112	-0,017	-0,005
-123,468	612,523	-0,048	-0,087
-122,453	218,805	0,069	-0,079
-121,439	800,000	-0,044	-0,117
-120,424	578,882	-0,049	0,087
-119,410	-200,000	0,008	-0,073
-118,395	-200,000	0,002	-0,042
