DTS Sentinel unit serial number:	SN410029Multiplexer serial number:	ORYXHardware model number:	OX2-SRSoftware version number:	ORYX F/W v4,00 Oryx Data Collector v3.7.2.0data status	okinstallation	B6 Nyhavnadifferential loss correction	single-endedforward channel	channel 2reverse channel	N/Adate	2023/12/10time	21:25:08forward acquisition time	300,00reverse acquisition time	0,00gamma	499,1914k internal	0,3123k external	0,3123temperature offset calibration	1,0000default loss term (dB/km)	0,3820temperature slope calibration	1,0000multiplexer offset coefficient	1,0000multiplexer slope coefficient	1,0000fibre end	0,00T internal ref (°C)	22,26T ext. ref 1 (°C)	6,05T ext. ref 2 (°C)	6,04length (m)	temperature (°C)	Stokes	anti-Stokes-744,400	350,163	-0,017	-0,025
-743,385	-33,969	-0,106	0,043
-742,371	177,654	0,044	-0,048
-741,356	-32,479	-0,168	0,069
-740,342	124,798	0,082	0,077
-739,327	123,120	-0,221	0,206
-738,312	-168,598	0,087	0,002
-737,298	50,485	-0,226	0,159
-736,283	161,354	0,075	-0,078
-735,269	-60,730	-0,122	0,038
-734,254	-51,676	-0,076	0,026
-733,239	-61,073	-0,424	-0,133
-732,225	800,000	0,081	0,206
-731,210	-20,708	-0,090	0,041
-730,196	84,116	-0,035	0,028
-729,181	290,841	-0,069	-0,093
-728,167	800,000	-0,022	-0,061
-727,152	43,596	0,159	-0,108
-726,137	800,000	-0,053	-0,111
-725,123	67,619	-0,103	-0,078
-724,108	714,753	-0,050	-0,100
-723,094	62,100	-0,130	-0,096
-722,079	-108,896	-0,316	-0,050
-721,064	800,000	-0,075	-0,171
-720,050	-25,870	-0,178	-0,078
-719,035	-200,000	-0,014	0,083
-718,021	-197,122	0,031	0,000
-717,006	-74,202	0,040	-0,011
-715,991	-34,127	-0,122	-0,050
-714,977	-200,000	0,000	0,002
-713,962	286,904	0,014	0,018
-712,948	-108,065	0,059	-0,009
-711,933	-101,502	0,056	0,010
-710,918	-200,000	0,004	0,032
-709,904	368,306	-0,034	-0,051
-708,889	191,493	-0,065	-0,072
-707,875	-11,636	-0,116	-0,056
-706,860	240,715	0,047	0,058
-705,845	-154,957	-0,134	-0,006
-704,831	44,800	-0,081	-0,055
-703,816	-200,000	-0,021	-0,148
-702,802	28,002	-0,125	-0,078
-701,787	72,244	-0,053	0,041
-700,772	-66,726	-0,153	-0,045
-699,758	724,618	0,065	-0,130
-698,743	-20,946	0,088	0,040
-697,729	189,364	-0,031	0,035
-696,714	-183,444	-0,033	-0,000
-695,699	-39,892	0,051	-0,020
-694,685	349,147	0,052	-0,076
-693,670	87,325	0,050	0,041
-692,656	-22,640	-0,023	-0,010
-691,641	24,790	-0,134	0,082
-690,627	-27,457	0,039	-0,017
-689,612	240,627	-0,015	0,019
-688,597	-200,000	0,028	-0,132
-687,583	507,754	-0,051	-0,088
-686,568	-200,000	-0,014	0,162
-685,554	-200,000	-0,030	0,132
-684,539	800,000	0,018	-0,050
-683,524	-26,744	-0,109	0,047
-682,510	-200,000	0,032	0,144
-681,495	-200,000	0,038	-0,178
-680,481	800,000	0,032	-0,096
-679,466	-82,196	-0,078	-0,019
-678,451	800,000	-0,070	-0,145
-677,437	96,244	-0,028	-0,024
-676,422	-134,906	0,147	0,013
-675,408	-200,000	-0,007	0,050
-674,393	271,986	0,046	-0,060
-673,378	51,774	-0,042	-0,030
-672,364	59,205	0,050	-0,037
-671,349	490,224	-0,058	-0,099
-670,335	414,223	-0,039	-0,062
-669,320	97,216	0,025	0,021
-668,305	753,301	-0,023	-0,046
-667,291	498,622	-0,069	-0,118
-666,276	-126,050	0,069	0,008
-665,262	121,498	0,107	0,099
-664,247	23,714	-0,146	0,089
-663,232	-11,962	0,051	0,025
-662,218	118,921	-0,059	0,054
-661,203	-135,047	0,058	-0,005
-660,189	165,185	0,008	0,008
-659,174	-42,172	0,032	0,012
-658,159	115,741	-0,049	-0,045
-657,145	-200,000	0,041	-0,254
-656,130	-87,566	-0,059	-0,013
-655,116	800,000	-0,055	-0,132
-654,101	627,530	0,059	-0,111
-653,086	191,612	0,054	0,060
-652,072	332,141	-0,048	-0,069
-651,057	34,051	-0,078	0,050
-650,043	135,108	-0,093	-0,090
-649,028	110,366	-0,050	-0,045
-648,014	-200,000	0,003	0,045
-646,999	-57,833	0,050	-0,016
-645,984	61,974	-0,028	-0,021
-644,970	800,000	0,015	-0,032
-643,955	164,939	-0,039	0,041
-642,941	-200,000	-0,024	-0,134
-641,926	800,000	0,030	-0,079
-640,911	200,995	-0,157	0,180
-639,897	-113,563	0,108	-0,016
-638,882	800,000	-0,036	0,085
-637,868	-72,120	-0,160	0,044
-636,853	-200,000	0,002	-0,008
-635,838	-125,388	-0,105	-0,012
-634,824	-200,000	0,040	-0,164
-633,809	-200,000	-0,027	-0,118
-632,795	19,032	-0,151	-0,090
-631,780	0,893	-0,045	-0,024
-630,765	-75,899	0,034	0,009
-629,751	122,403	-0,039	0,037
-628,736	481,320	0,056	-0,095
-627,722	800,000	-0,044	-0,095
-626,707	214,856	0,019	-0,022
-625,692	-200,000	-0,038	0,133
-624,678	-200,000	0,014	0,110
-623,663	169,882	0,092	0,098
-622,649	-115,953	-0,115	-0,016
-621,634	-17,100	0,041	-0,019
-620,619	-200,000	-0,002	-0,106
-619,605	-200,000	-0,019	0,172
-618,590	548,945	0,072	0,129
-617,576	-200,000	0,003	0,091
-616,561	20,317	0,042	-0,025
-615,546	-67,321	-0,143	0,041
-614,532	306,697	-0,059	-0,082
-613,517	800,000	0,048	-0,144
-612,503	99,214	0,020	0,017
-611,488	-200,000	0,008	0,111
-610,474	10,227	0,031	0,018
-609,459	-199,826	-0,055	-0,000
-608,444	-8,200	-0,025	-0,012
-607,430	-200,000	-0,000	0,030
-606,415	-95,758	0,031	-0,006
-605,401	-200,000	-0,011	0,046
-604,386	150,182	0,059	0,060
-603,371	411,271	-0,050	0,079
-602,357	-200,000	0,003	0,031
-601,342	-33,967	-0,107	-0,043
-600,328	103,081	0,049	-0,043
-599,313	41,240	-0,101	0,067
-598,298	-200,000	-0,000	0,153
-597,284	348,570	-0,106	-0,155
-596,269	-91,260	-0,067	0,014
-595,255	-200,000	-0,003	0,041
-594,240	60,416	-0,048	-0,035
-593,225	800,000	0,076	-0,162
-592,211	73,658	-0,134	-0,104
-591,196	-200,000	-0,005	0,050
-590,182	154,115	0,080	0,081
-589,167	-200,000	-0,021	0,119
-588,152	-200,000	-0,001	0,004
-587,138	-126,007	0,120	-0,013
-586,123	25,870	-0,071	-0,043
-585,109	51,178	0,034	0,024
-584,094	396,573	0,058	-0,090
-583,079	33,206	-0,110	0,071
-582,065	-51,843	0,062	0,021
-581,050	-11,322	0,190	0,092
-580,036	224,715	0,047	0,057
-579,021	-54,939	-0,081	0,027
-578,006	-200,000	0,007	-0,063
-576,992	-200,000	-0,001	-0,029
-575,977	460,962	0,058	0,096
-574,963	190,552	0,038	-0,042
-573,948	-16,691	-0,089	0,042
-572,934	328,069	0,049	0,069
-571,919	7,516	-0,090	0,050
-570,904	482,032	-0,097	-0,163
-569,890	-118,558	-0,042	-0,005
-568,875	90,894	0,048	-0,040
-567,861	179,770	0,044	-0,048
-566,846	800,000	0,015	0,038
-565,831	-119,946	0,078	0,010
-564,817	-200,000	-0,027	-0,170
-563,802	-20,395	0,126	0,057
-562,788	489,707	-0,094	0,159
-561,773	-43,714	0,135	-0,050
-560,758	584,934	-0,051	0,093
-559,744	800,000	0,050	-0,127
-558,729	445,501	-0,032	0,052
-557,715	147,749	-0,105	-0,105
-556,700	167,007	-0,083	-0,087
-555,685	126,258	-0,082	0,076
-554,671	79,167	0,102	0,080
-553,656	-0,982	-0,042	-0,022
-552,642	-200,000	0,006	0,103
-551,627	219,147	-0,057	0,068
-550,612	110,452	-0,125	0,111
-549,598	-119,285	0,050	-0,006
-548,583	312,945	0,052	0,072
-547,569	330,454	0,061	0,087
-546,554	64,745	-0,042	0,031
-545,539	-96,932	-0,034	-0,006
-544,525	-73,270	-0,167	0,045
-543,510	64,439	-0,034	0,026
-542,496	-200,000	-0,006	0,062
-541,481	178,746	0,075	-0,081
-540,466	-56,423	-0,098	-0,032
-539,452	-12,361	0,135	0,065
-538,437	-200,000	0,023	0,078
-537,423	800,000	0,013	0,027
-536,408	49,857	-0,040	0,028
-535,393	-63,133	0,017	-0,005
-534,379	-200,000	-0,001	-0,027
-533,364	48,950	0,073	0,051
-532,350	240,041	0,052	-0,064
-531,335	-4,694	-0,084	0,043
-530,321	425,871	-0,016	0,025
-529,306	68,729	0,049	0,037
-528,291	800,000	0,040	-0,084
-527,277	568,397	-0,097	-0,175
-526,262	-200,000	-0,005	0,052
-525,248	13,253	0,127	0,072
-524,233	263,946	0,043	0,055
-523,218	306,252	-0,016	-0,022
-522,204	-114,320	0,056	0,008
-521,189	800,000	-0,057	0,118
-520,175	-35,470	0,166	-0,066
-519,160	0,252	-0,120	-0,063
-518,145	347,761	0,026	-0,037
-517,131	184,423	-0,070	-0,077
-516,116	-200,000	0,002	0,054
-515,102	-78,740	-0,026	-0,006
-514,087	103,911	-0,059	-0,051
-513,072	-35,802	-0,103	-0,041
-512,058	-200,000	0,016	-0,061
-511,043	268,687	0,056	-0,072
-510,029	-48,776	-0,178	0,063
-509,014	800,000	-0,049	0,113
-507,999	800,000	-0,006	-0,018
-506,985	-200,000	0,008	-0,032
-505,970	-185,875	-0,193	0,002
-504,956	254,763	0,042	0,054
-503,941	5,468	-0,048	0,026
-502,926	-200,000	0,004	0,039
-501,912	100,864	-0,063	0,054
-500,897	-87,484	0,085	-0,019
-499,883	118,736	-0,043	0,040
-498,868	-200,000	-0,001	0,011
-497,853	-66,245	0,075	-0,022
-496,839	401,447	0,016	0,026
-495,824	166,933	0,024	0,025
-494,810	279,596	0,094	0,124
-493,795	28,787	0,029	0,018
-492,781	-54,024	-0,079	-0,026
-491,766	40,512	-0,092	0,061
-490,751	-200,000	0,021	-0,078
-489,737	136,629	-0,017	-0,016
-488,722	281,827	-0,003	-0,004
-487,708	51,542	-0,040	-0,028
-486,693	-145,079	0,111	-0,007
-485,678	-102,339	-0,043	0,007
-484,664	-200,000	0,015	-0,192
-483,649	-200,000	-0,008	0,031
-482,635	484,583	-0,040	-0,068
-481,620	348,834	-0,065	-0,095
-480,605	799,204	0,031	0,064
-479,591	271,480	0,080	0,104
-478,576	234,590	-0,017	-0,021
-477,562	-122,144	-0,192	-0,023
-476,547	146,627	-0,023	-0,023
-475,532	300,522	0,029	-0,040
-474,518	-126,245	-0,184	0,020
-473,503	-200,000	0,028	0,099
-472,489	-111,218	0,063	-0,009
-471,474	800,000	-0,036	0,085
-470,459	-200,000	0,012	0,047
-469,445	800,000	-0,028	-0,089
-468,430	265,609	0,085	0,110
-467,416	-200,000	0,008	0,064
-466,401	267,725	-0,034	0,045
-465,386	498,681	-0,010	0,017
-464,372	800,000	-0,031	0,093
-463,357	-200,000	0,028	0,000
-462,343	-42,213	-0,084	0,031
-461,328	-200,000	0,081	0,000
-460,313	-197,078	0,086	-0,000
-459,299	16,439	0,043	0,025
-458,284	-200,000	-0,013	0,135
-457,270	-200,000	0,008	-0,036
-456,255	-42,223	-0,167	-0,063
-455,241	-200,000	-0,011	-0,053
-454,226	11,879	-0,112	-0,063
-453,211	-147,384	0,111	0,007
-452,197	-142,550	0,039	-0,003
-451,182	263,739	0,037	0,048
-450,168	-73,363	-0,107	-0,029
-449,153	-200,000	-0,038	-0,208
-448,138	-200,000	-0,021	-0,120
-447,124	-142,120	-0,025	-0,002
-446,109	-47,655	0,077	0,027
-445,095	-137,529	0,112	-0,009
-444,080	-20,011	0,087	0,039
-443,065	26,903	-0,068	-0,042
-442,051	-200,000	0,017	-0,083
-441,036	-35,251	0,093	0,037
-440,022	-175,452	-0,013	0,000
-439,007	-19,818	0,133	-0,060
-437,992	397,000	-0,061	0,095
-436,978	-200,000	-0,007	-0,047
-435,963	800,000	-0,042	0,126
-434,949	800,000	0,042	0,117
-433,934	-172,718	0,097	0,002
-432,919	-86,381	0,028	-0,006
-431,905	183,304	0,016	-0,017
-430,890	-78,384	-0,094	0,023
-429,876	-57,669	-0,106	0,034
-428,861	-62,386	0,100	-0,030
-427,846	295,693	-0,049	-0,066
-426,832	-112,253	-0,056	0,008
-425,817	589,757	-0,087	-0,159
-424,803	736,304	-0,045	-0,089
-423,788	670,825	-0,021	0,041
-422,773	-200,000	0,021	0,107
-421,759	202,690	0,121	0,137
-420,744	216,792	0,086	-0,101
-419,730	-200,000	0,027	-0,141
-418,715	-200,000	0,005	0,051
-417,701	-47,487	-0,067	0,024
-416,686	800,000	0,024	0,075
-415,671	242,721	0,159	-0,196
-414,657	125,915	-0,018	0,016
-413,642	289,319	-0,114	0,152
-412,628	800,000	0,022	0,057
-411,613	106,159	-0,029	-0,025
-410,598	-200,000	-0,046	-0,172
-409,584	800,000	-0,024	0,078
-408,569	-57,758	0,081	0,026
-407,555	-17,537	-0,081	0,037
-406,540	-200,000	0,001	0,022
-405,525	68,123	0,124	-0,093
-404,511	-200,000	0,020	-0,164
-403,496	-72,746	0,065	-0,018
-402,482	-8,040	0,138	-0,068
-401,467	60,647	-0,066	0,048
-400,452	498,295	0,023	0,040
-399,438	-200,000	0,013	-0,063
-398,423	800,000	-0,023	-0,071
-397,409	-171,047	0,047	-0,001
-396,394	800,000	0,052	-0,141
-395,379	-200,000	0,006	-0,028
-394,365	-200,000	-0,001	-0,061
-393,350	800,000	-0,029	-0,060
-392,336	-200,000	0,046	0,192
-391,321	374,339	-0,087	-0,131
-390,306	-58,021	-0,077	-0,025
-389,292	-70,722	0,026	0,007
-388,277	800,000	0,064	-0,145
-387,263	-200,000	-0,011	0,132
-386,248	800,000	0,033	0,074
-385,233	800,000	0,018	-0,050
-384,219	231,038	0,047	-0,057
-383,204	427,507	0,062	-0,098
-382,190	-200,000	-0,002	-0,011
-381,175	368,157	0,039	0,058
-380,160	-10,896	0,236	0,114
-379,146	529,535	0,042	0,073
-378,131	-50,306	-0,059	0,021
-377,117	-25,010	0,078	0,034
-376,102	486,939	-0,106	-0,179
-375,088	-113,559	-0,112	0,016
-374,073	800,000	-0,032	-0,080
-373,058	312,494	0,032	-0,044
-372,044	-200,000	-0,004	0,014
-371,029	800,000	-0,038	0,098
-370,015	-200,000	-0,001	0,039
-369,000	-200,000	0,007	-0,108
-367,985	800,000	0,039	0,120
-366,971	12,595	-0,136	0,077
-365,956	-23,701	-0,113	0,050
-364,942	-175,023	-0,090	-0,002
-363,927	-5,592	0,111	-0,056
-362,912	800,000	-0,021	0,057
-361,898	-120,686	-0,223	0,027
-360,883	-200,000	0,012	0,159
-359,869	-7,737	-0,021	0,010
-358,854	-102,698	0,105	0,018
-357,839	-154,053	0,080	0,004
-356,825	-76,059	0,038	0,010
-355,810	91,676	0,118	0,097
-354,796	-110,621	-0,094	-0,014
-353,781	-13,077	-0,089	0,042
-352,766	59,488	0,107	0,077
-351,752	156,289	-0,029	0,029
-350,737	497,045	0,016	-0,028
-349,723	328,197	0,087	-0,123
-348,708	800,000	0,039	0,090
-347,693	-171,880	0,031	-0,001
-346,679	91,246	-0,103	-0,085
-345,664	24,030	-0,043	0,026
-344,650	-200,000	0,031	-0,136
-343,635	160,304	0,050	-0,051
-342,620	0,389	0,168	0,088
-341,606	321,484	0,044	0,062
-340,591	79,527	0,077	-0,061
-339,577	59,739	-0,124	-0,089
-338,562	-9,827	0,069	0,033
-337,548	-200,000	0,043	0,147
-336,533	-96,242	-0,029	0,006
-335,518	-128,806	0,080	-0,008
-334,504	89,527	-0,013	0,011
-333,489	476,257	-0,029	0,048
-332,475	41,823	-0,079	0,053
-331,460	102,100	0,094	-0,080
-330,445	118,510	0,050	-0,045
-329,431	242,094	-0,054	0,067
-328,416	10,574	0,080	-0,044
-327,402	-21,288	0,089	0,040
-326,387	800,000	-0,028	0,063
-325,372	324,301	-0,046	0,065
-324,358	-200,000	0,000	-0,137
-323,343	-22,036	-0,035	0,015
-322,329	112,641	-0,029	0,026
-321,314	-104,359	-0,099	-0,017
-320,299	223,114	0,073	0,087
-319,285	192,946	0,047	-0,052
-318,270	-16,373	0,061	-0,028
-317,256	-3,399	0,143	-0,073
-316,241	5,043	-0,132	-0,071
-315,226	-200,000	0,008	-0,081
-314,212	-12,444	0,113	0,054
-313,197	317,026	-0,052	0,072
-312,183	-200,000	0,029	-0,135
-311,168	208,883	-0,048	0,055
-310,153	32,801	-0,107	0,068
-309,139	77,702	0,170	-0,133
-308,124	-200,000	0,015	-0,111
-307,110	-39,354	0,055	0,021
-306,095	311,278	-0,089	0,123
-305,080	-89,154	-0,082	0,018
-304,066	613,878	0,036	-0,067
-303,051	716,173	0,014	0,026
-302,037	39,274	-0,006	0,004
-301,022	800,000	-0,033	0,080
-300,008	-90,672	-0,044	0,009
-298,993	136,925	0,126	0,121
-297,978	205,011	0,011	-0,012
-296,964	-200,000	-0,053	-0,182
-295,949	800,000	0,056	-0,130
-294,935	-73,256	-0,126	-0,034
-293,920	34,871	0,046	-0,029
-292,905	754,021	0,100	0,200
-291,891	107,582	-0,111	0,097
-290,876	-200,000	0,000	0,016
-289,862	276,419	-0,028	-0,036
-288,847	175,136	0,010	0,010
-287,832	-30,857	0,011	-0,005
-286,818	-162,376	0,033	-0,001
-285,803	286,314	0,082	0,108
-284,789	-183,113	0,104	0,001
-283,774	-78,904	0,056	0,014
-282,759	65,289	-0,081	0,060
-281,745	800,000	-0,026	-0,079
-280,730	413,014	-0,032	-0,049
-279,716	623,174	0,074	-0,137
-278,701	486,305	0,029	-0,049
-277,686	-200,000	-0,007	-0,036
-276,672	228,356	0,069	0,082
-275,657	-200,000	0,011	0,062
-274,643	-87,273	-0,048	-0,011
-273,628	800,000	0,039	-0,122
-272,613	-200,000	0,014	-0,052
-271,599	-94,324	0,107	0,021
-270,584	-21,347	0,029	0,013
-269,570	800,000	-0,016	0,040
-268,555	387,725	-0,066	-0,100
-267,540	-28,071	0,092	0,039
-266,526	800,000	0,034	-0,086
-265,511	33,115	-0,130	0,082
-264,497	-38,569	0,034	-0,013
-263,482	-109,242	0,145	0,022
-262,467	501,439	-0,031	0,052
-261,453	14,294	-0,061	-0,035
-260,438	-13,581	0,097	0,046
-259,424	98,252	-0,109	-0,092
-258,409	-200,000	0,020	-0,167
-257,395	384,538	-0,101	0,152
-256,380	-94,967	-0,076	0,015
-255,365	-146,499	0,099	-0,006
-254,351	-200,000	0,034	-0,147
-253,336	800,000	-0,026	-0,063
-252,322	222,022	-0,061	-0,072
-251,307	114,351	-0,027	0,024
-250,292	-68,904	0,077	-0,022
-249,278	-200,000	-0,001	-0,109
-248,263	-200,000	-0,020	0,066
-247,249	-101,112	0,056	0,010
-246,234	800,000	0,023	-0,056
-245,219	341,912	0,056	-0,080
-244,205	177,691	0,072	-0,076
-243,190	-68,814	0,123	-0,035
-242,176	619,675	0,038	-0,070
-241,161	-68,879	-0,033	0,009
-240,146	-200,000	-0,011	0,046
-239,132	-200,000	0,025	0,102
-238,117	-147,817	-0,052	-0,003
-237,103	-49,188	-0,022	0,008
-236,088	-200,000	-0,023	-0,123
-235,073	-92,723	-0,107	0,022
-234,059	35,810	0,113	0,072
-233,044	-107,649	-0,030	0,005
-232,030	-200,000	-0,006	0,035
-231,015	-63,215	-0,052	-0,016
-230,000	-200,000	-0,023	0,091
-228,986	-200,000	-0,023	-0,170
-227,971	-15,666	-0,038	0,018
-226,957	181,931	0,011	0,012
-225,942	-200,000	-0,035	0,212
-224,927	302,521	-0,045	0,061
-223,913	-107,593	-0,118	0,019
-222,898	-36,450	0,161	-0,063
-221,884	-200,000	-0,013	-0,139
-220,869	-88,307	-0,041	0,009
-219,855	-200,000	-0,009	-0,030
-218,840	-200,000	0,008	0,103
-217,825	-19,944	-0,097	-0,044
-216,811	714,552	-0,026	-0,051
-215,796	-200,000	0,011	-0,104
-214,782	800,000	0,047	-0,112
-213,767	-59,760	-0,027	0,008
-212,752	-9,203	0,097	-0,047
-211,738	800,000	0,045	-0,145
-210,723	800,000	0,013	0,030
-209,709	800,000	-0,013	0,038
-208,694	-33,331	-0,089	0,036
-207,679	-72,097	-0,139	-0,037
-206,665	800,000	0,111	0,243
-205,650	-106,427	0,060	-0,010
-204,636	-200,000	0,015	0,123
-203,621	800,000	-0,047	0,124
-202,606	-15,184	0,086	-0,040
-201,592	191,468	-0,039	0,043
-200,577	-96,899	0,036	-0,007
-199,563	135,174	0,031	-0,029
-198,548	-200,000	-0,013	-0,071
-197,533	-35,990	0,109	-0,043
-196,519	-200,000	-0,006	0,034
-195,504	-200,000	-0,003	0,120
-194,490	-110,990	-0,192	0,028
-193,475	-200,000	-0,000	-0,009
-192,460	-200,000	-0,025	-0,085
-191,446	800,000	-0,013	-0,036
-190,431	800,000	-0,034	-0,089
-189,417	0,209	-0,100	0,052
-188,402	-200,000	-0,002	0,013
-187,387	249,630	0,032	-0,039
-186,373	541,970	-0,022	-0,038
-185,358	467,440	-0,081	-0,134
-184,344	800,000	-0,058	0,132
-183,329	681,975	0,045	0,086
-182,315	-143,071	0,084	-0,006
-181,300	34,897	0,060	-0,038
-180,285	-82,108	-0,047	0,011
-179,271	129,775	-0,022	-0,020
-178,256	-200,000	-0,013	-0,057
-177,242	-12,278	0,054	-0,026
-176,227	355,743	-0,097	0,141
-175,212	417,363	0,097	0,152
-174,198	-200,000	-0,007	0,100
-173,183	800,000	0,014	0,031
-172,169	253,421	-0,111	-0,138
-171,154	-200,000	-0,007	-0,140
-170,139	-116,642	0,087	-0,012
-169,125	-110,654	0,085	-0,013
-168,110	-200,000	-0,033	0,157
-167,096	130,238	0,067	0,063
-166,081	-200,000	0,007	-0,031
-165,066	263,631	0,053	-0,067
-164,052	-200,000	-0,004	-0,049
-163,037	27,242	-0,043	-0,027
-162,023	140,155	-0,023	0,022
-161,008	-103,196	-0,011	0,002
-159,993	800,000	0,012	-0,031
-158,979	120,128	0,018	-0,016
-157,964	94,597	-0,027	-0,022
-156,950	-200,000	-0,018	-0,109
-155,935	800,000	0,066	0,136
-154,920	219,342	-0,034	-0,039
-153,906	-135,357	0,057	0,005
-152,891	-10,836	0,180	-0,086
-151,877	-77,585	0,112	-0,028
-150,862	233,209	0,030	-0,036
-149,847	24,115	-0,107	0,064
-148,833	-1,665	0,084	0,043
-147,818	122,089	-0,078	0,071
-146,804	10,483	0,100	-0,056
-145,789	51,359	0,045	-0,031
-144,775	301,660	-0,033	0,044
-143,760	-200,000	0,012	-0,042
-142,745	-200,000	-0,010	-0,097
-141,731	187,489	-0,045	-0,048
-140,716	95,480	-0,084	-0,070
-139,702	-200,000	0,012	0,069
-138,687	182,589	0,094	-0,101
-137,672	-126,055	-0,139	0,015
-136,658	2,190	-0,029	-0,015
-135,643	-200,000	-0,020	-0,120
-134,629	0,704	-0,061	0,032
-133,614	-200,000	-0,008	-0,112
-132,599	318,906	0,064	0,088
-131,585	543,349	0,101	0,176
-130,570	-200,000	0,005	-0,070
-129,556	-200,000	-0,020	-0,101
-128,541	-200,000	-0,014	0,064
-127,526	-187,596	0,107	0,001
-126,512	-117,741	0,058	0,007
-125,497	-51,857	-0,081	-0,027
-124,483	227,958	0,129	0,153
-123,468	56,540	-0,093	0,066
-122,453	39,800	-0,038	0,025
-121,439	375,789	-0,071	-0,106
-120,424	-200,000	0,011	-0,041
-119,410	44,827	-0,169	-0,113
