DTS Sentinel unit serial number:	SN410029Multiplexer serial number:	ORYXHardware model number:	OX2-SRSoftware version number:	ORYX F/W v4,00 Oryx Data Collector v3.7.2.0data status	okinstallation	B6 Nyhavnadifferential loss correction	single-endedforward channel	channel 2reverse channel	N/Adate	2023/12/10time	01:25:08forward acquisition time	300,00reverse acquisition time	0,00gamma	499,1914k internal	0,3125k external	0,3125temperature offset calibration	1,0000default loss term (dB/km)	0,3820temperature slope calibration	1,0000multiplexer offset coefficient	1,0000multiplexer slope coefficient	1,0000fibre end	0,00T internal ref (°C)	21,91T ext. ref 1 (°C)	5,69T ext. ref 2 (°C)	5,70length (m)	temperature (°C)	Stokes	anti-Stokes-744,400	-25,275	-0,067	0,029
-743,385	63,737	-0,050	0,038
-742,371	-75,617	0,159	-0,042
-741,356	151,786	-0,101	0,103
-740,342	26,442	0,073	-0,045
-739,327	-175,277	-0,278	0,006
-738,312	18,848	0,061	-0,036
-737,298	-13,094	-0,197	-0,095
-736,283	199,967	0,085	-0,097
-735,269	-115,242	-0,262	0,036
-734,254	70,637	-0,067	-0,051
-733,239	-27,992	-0,398	-0,171
-732,225	-83,173	0,231	-0,055
-731,210	136,260	-0,042	-0,041
-730,196	-13,960	-0,124	0,060
-729,181	-200,000	-0,001	-0,079
-728,167	153,127	0,088	-0,090
-727,152	-25,396	0,037	-0,016
-726,137	800,000	0,022	-0,060
-725,123	20,851	-0,122	-0,073
-724,108	307,674	0,037	-0,052
-723,094	800,000	-0,046	-0,140
-722,079	119,475	-0,071	-0,065
-721,064	-200,000	-0,016	-0,082
-720,050	147,908	0,042	0,042
-719,035	447,476	-0,101	-0,167
-718,021	-95,855	0,128	0,025
-717,006	-200,000	-0,057	-0,200
-715,991	265,630	-0,085	-0,111
-714,977	94,308	-0,035	-0,029
-713,962	121,149	-0,089	-0,082
-712,948	-34,267	0,083	0,034
-711,933	-200,000	-0,022	-0,091
-710,918	99,193	-0,169	-0,145
-709,904	-78,101	-0,112	-0,028
-708,889	-200,000	-0,023	-0,115
-707,875	-200,000	-0,012	-0,041
-706,860	-88,824	-0,054	-0,012
-705,845	-200,000	-0,003	0,013
-704,831	405,447	-0,056	0,088
-703,816	72,484	-0,052	-0,040
-702,802	800,000	-0,059	-0,126
-701,787	-200,000	0,033	-0,139
-700,772	-34,803	-0,139	-0,056
-699,758	-200,000	-0,006	-0,066
-698,743	-56,614	0,133	0,043
-697,729	129,932	0,070	-0,067
-696,714	307,119	0,010	-0,014
-695,699	67,665	-0,091	-0,069
-694,685	-54,095	-0,162	-0,055
-693,670	-40,463	-0,080	0,031
-692,656	-200,000	-0,044	-0,172
-691,641	-200,000	-0,042	0,185
-690,627	-48,325	0,113	0,040
-689,612	-75,318	-0,065	0,017
-688,597	-118,819	-0,090	-0,012
-687,583	-130,097	-0,126	0,013
-686,568	728,535	-0,049	-0,098
-685,554	-47,410	-0,027	0,010
-684,539	74,303	0,031	-0,024
-683,524	-90,987	0,065	0,014
-682,510	397,587	-0,127	0,199
-681,495	-5,336	0,050	0,025
-680,481	-200,000	0,019	0,068
-679,466	-200,000	-0,009	0,051
-678,451	360,029	0,050	-0,075
-677,437	-73,267	0,068	-0,018
-676,422	-200,000	-0,009	-0,052
-675,408	304,503	0,009	0,013
-674,393	17,104	-0,130	0,076
-673,378	243,862	0,013	0,016
-672,364	-200,000	0,015	0,118
-671,349	10,551	-0,125	-0,070
-670,335	-200,000	0,006	-0,069
-669,320	-90,207	0,062	0,013
-668,305	95,461	-0,106	-0,089
-667,291	0,700	-0,076	-0,040
-666,276	-81,385	0,038	0,009
-665,262	-52,241	0,075	-0,026
-664,247	-200,000	0,000	0,080
-663,232	59,011	-0,065	-0,047
-662,218	-157,020	-0,098	-0,004
-661,203	-25,651	-0,121	-0,053
-660,189	-200,000	0,001	-0,110
-659,174	477,478	-0,045	-0,076
-658,159	-107,308	-0,143	0,023
-657,145	108,244	-0,071	-0,063
-656,130	-112,652	-0,073	-0,011
-655,116	-30,867	0,061	0,025
-654,101	-125,372	-0,062	-0,007
-653,086	84,085	-0,138	-0,112
-652,072	-200,000	-0,029	-0,097
-651,057	-160,771	-0,013	-0,000
-650,043	172,707	0,089	-0,095
-649,028	-200,000	0,006	-0,114
-648,014	217,090	0,095	-0,112
-646,999	27,659	-0,063	0,039
-645,984	235,499	0,022	-0,027
-644,970	-200,000	-0,022	-0,123
-643,955	-70,530	-0,060	0,017
-642,941	-200,000	0,016	-0,070
-641,926	-38,049	-0,053	0,021
-640,911	564,821	0,053	-0,096
-639,897	-200,000	-0,021	-0,163
-638,882	-141,089	-0,057	0,004
-637,868	-200,000	0,006	0,040
-636,853	800,000	0,073	-0,156
-635,838	-109,428	0,100	0,015
-634,824	50,184	-0,102	-0,071
-633,809	-66,419	-0,029	-0,008
-632,795	-200,000	-0,020	0,125
-631,780	-141,641	0,052	-0,004
-630,765	-3,102	-0,065	0,034
-629,751	-200,000	0,011	0,092
-628,736	-53,077	0,115	-0,039
-627,722	787,060	0,019	-0,038
-626,707	-4,079	0,076	-0,039
-625,692	-200,000	0,017	-0,114
-624,678	800,000	-0,053	-0,115
-623,663	-26,557	-0,107	-0,046
-622,649	-179,921	-0,059	0,001
-621,634	-200,000	0,011	-0,114
-620,619	6,763	0,073	0,040
-619,605	103,711	0,095	-0,083
-618,590	800,000	-0,029	0,064
-617,576	8,651	-0,043	-0,024
-616,561	238,989	-0,022	-0,027
-615,546	62,845	-0,073	0,054
-614,532	68,129	0,018	-0,014
-613,517	800,000	-0,003	0,007
-612,503	800,000	0,017	0,049
-611,488	509,339	-0,035	-0,061
-610,474	312,148	0,077	-0,107
-609,459	800,000	0,009	0,027
-608,444	-54,907	-0,050	-0,017
-607,430	704,120	0,047	-0,093
-606,415	-49,780	-0,095	-0,033
-605,401	573,497	-0,006	0,010
-604,386	106,962	-0,029	-0,026
-603,371	-200,000	0,013	-0,047
-602,357	-30,029	-0,071	0,030
-601,342	800,000	-0,041	0,086
-600,328	31,837	0,036	-0,023
-599,313	513,557	0,083	0,144
-598,298	-200,000	0,044	-0,177
-597,284	-69,459	0,114	-0,032
-596,269	113,909	0,054	-0,048
-595,255	372,734	0,033	0,050
-594,240	-3,341	-0,142	-0,073
-593,225	379,283	-0,096	-0,146
-592,211	-200,000	0,007	-0,089
-591,196	2,784	-0,178	-0,095
-590,182	-200,000	0,004	-0,026
-589,167	-76,582	0,118	0,030
-588,152	34,776	0,166	-0,107
-587,138	-73,444	0,063	0,017
-586,123	-112,548	-0,031	-0,005
-585,109	157,065	-0,097	-0,099
-584,094	800,000	-0,031	0,070
-583,079	204,834	-0,038	-0,044
-582,065	-200,000	-0,001	-0,035
-581,050	-200,000	-0,028	0,132
-580,036	-115,634	-0,106	0,015
-579,021	734,979	-0,037	-0,073
-578,006	800,000	-0,011	-0,023
-576,992	-200,000	-0,036	0,180
-575,977	-200,000	0,004	-0,045
-574,963	-28,913	-0,038	0,016
-573,948	-200,000	-0,010	0,088
-572,934	245,947	-0,058	-0,073
-571,919	601,372	-0,017	-0,031
-570,904	-71,244	-0,142	0,039
-569,890	-70,193	-0,076	0,021
-568,875	800,000	-0,010	0,025
-567,861	151,589	0,034	-0,034
-566,846	-200,000	0,012	-0,095
-565,831	800,000	0,027	-0,069
-564,817	-200,000	-0,017	0,107
-563,802	-21,196	-0,038	0,017
-562,788	-148,267	0,129	0,008
-561,773	800,000	0,056	0,165
-560,758	-200,000	-0,006	-0,022
-559,744	113,623	-0,072	0,065
-558,729	497,906	-0,045	0,077
-557,715	-200,000	0,023	-0,117
-556,700	62,536	-0,106	-0,078
-555,685	800,000	0,053	-0,157
-554,671	148,853	0,047	-0,047
-553,656	-200,000	0,030	0,130
-552,642	-72,269	0,052	-0,014
-551,627	-130,104	0,082	0,008
-550,612	216,884	-0,046	0,054
-549,598	-66,629	0,114	0,033
-548,583	278,323	-0,118	-0,156
-547,569	280,720	-0,094	-0,125
-546,554	85,927	0,080	-0,065
-545,539	800,000	-0,022	0,050
-544,525	-112,322	0,064	-0,009
-543,510	367,333	0,045	-0,068
-542,496	152,578	-0,041	0,041
-541,481	38,171	-0,113	0,074
-540,466	-143,526	-0,110	0,008
-539,452	-200,000	0,000	-0,022
-538,437	63,020	0,081	0,060
-537,423	44,714	0,164	0,111
-536,408	689,048	0,054	-0,106
-535,393	-41,212	-0,106	-0,040
-534,379	309,677	0,072	-0,100
-533,364	-20,933	0,046	-0,021
-532,350	256,522	-0,082	0,104
-531,335	800,000	-0,048	0,111
-530,321	-118,310	0,181	-0,023
-529,306	26,899	-0,016	-0,010
-528,291	134,111	-0,084	0,080
-527,277	-38,816	0,088	-0,034
-526,262	132,123	-0,032	-0,030
-525,248	76,871	0,172	-0,134
-524,233	-200,000	-0,011	-0,091
-523,218	612,701	-0,043	-0,079
-522,204	206,771	0,063	0,073
-521,189	577,396	-0,087	-0,158
-520,175	-200,000	-0,010	-0,140
-519,160	339,055	-0,001	0,002
-518,145	-200,000	0,008	0,127
-517,131	-200,000	-0,041	-0,169
-516,116	-36,363	0,166	0,066
-515,102	-23,600	0,048	-0,021
-514,087	-76,600	-0,027	-0,007
-513,072	800,000	0,028	-0,072
-512,058	-91,628	0,119	0,025
-511,043	-82,744	-0,019	0,004
-510,029	682,263	0,026	-0,050
-509,014	800,000	-0,004	-0,012
-507,999	-38,139	-0,045	-0,018
-506,985	-200,000	-0,007	-0,052
-505,970	-22,446	-0,093	-0,041
-504,956	125,349	-0,059	0,055
-503,941	-74,945	-0,050	0,013
-502,926	47,347	0,100	0,069
-501,912	800,000	-0,003	0,010
-500,897	800,000	-0,052	-0,111
-499,883	164,145	0,054	-0,056
-498,868	-200,000	-0,007	-0,103
-497,853	800,000	-0,025	-0,078
-496,839	-59,397	-0,131	0,041
-495,824	-200,000	0,018	0,144
-494,810	800,000	-0,032	-0,096
-493,795	-31,529	-0,019	-0,008
-492,781	-28,580	-0,083	-0,035
-491,766	-200,000	-0,046	-0,160
-490,751	800,000	0,033	-0,070
-489,737	127,810	0,048	-0,045
-488,722	70,260	-0,038	-0,029
-487,708	61,161	-0,102	0,075
-486,693	74,905	0,051	0,040
-485,678	346,005	0,020	-0,029
-484,664	800,000	0,065	-0,168
-483,649	4,384	0,101	0,054
-482,635	72,194	0,056	-0,043
-481,620	-6,550	-0,039	0,019
-480,605	-90,455	-0,081	-0,017
-479,591	76,957	-0,040	0,031
-478,576	234,722	-0,084	-0,103
-477,562	23,068	-0,157	-0,095
-476,547	-200,000	0,023	0,079
-475,532	-93,307	0,124	-0,025
-474,518	455,740	0,019	-0,032
-473,503	64,543	-0,017	0,012
-472,489	800,000	-0,028	0,059
-471,474	-200,000	-0,008	0,184
-470,459	85,298	0,072	-0,058
-469,445	-200,000	-0,009	0,033
-468,430	12,729	-0,158	0,090
-467,416	-61,826	0,145	-0,044
-466,401	-92,593	-0,019	0,004
-465,386	125,544	0,069	0,065
-464,372	-200,000	-0,014	0,106
-463,357	-95,347	-0,114	-0,022
-462,343	192,656	-0,076	0,085
-461,328	-200,000	-0,002	0,026
-460,313	60,204	-0,037	0,027
-459,299	800,000	0,034	0,073
-458,284	325,419	0,043	0,061
-457,270	-200,000	-0,006	0,093
-456,255	800,000	-0,015	0,032
-455,241	-200,000	-0,024	-0,087
-454,226	153,080	0,035	-0,035
-453,211	800,000	0,084	-0,207
-452,197	11,114	-0,098	0,055
-451,182	-200,000	0,013	0,165
-450,168	457,197	-0,023	0,038
-449,153	99,442	-0,054	-0,046
-448,138	800,000	-0,044	0,093
-447,124	117,548	0,038	0,034
-446,109	90,545	-0,075	0,061
-445,095	-70,792	-0,031	0,008
-444,080	34,170	-0,058	0,037
-443,065	-118,988	0,114	-0,015
-442,051	516,721	-0,051	-0,088
-441,036	447,385	0,061	-0,099
-440,022	-200,000	-0,007	0,084
-439,007	-5,894	-0,089	-0,045
-437,992	42,974	0,041	-0,027
-436,978	-200,000	-0,017	0,076
-435,963	800,000	-0,042	0,096
-434,949	800,000	0,010	0,024
-433,934	17,523	-0,170	-0,099
-432,919	96,961	0,029	-0,024
-431,905	330,355	-0,088	0,124
-430,890	248,629	0,010	0,012
-429,876	-115,101	0,078	-0,011
-428,861	203,976	0,067	-0,077
-427,846	176,010	0,134	0,143
-426,832	780,581	-0,067	0,136
-425,817	278,319	-0,039	-0,051
-424,803	79,874	0,104	-0,082
-423,788	-200,000	-0,003	-0,059
-422,773	84,110	-0,060	-0,049
-421,759	78,084	0,194	0,152
-420,744	-0,823	-0,018	-0,009
-419,730	298,049	-0,049	-0,067
-418,715	-200,000	0,004	-0,025
-417,701	-200,000	-0,013	-0,065
-416,686	222,700	0,065	-0,078
-415,671	0,400	0,140	0,073
-414,657	650,506	-0,066	0,126
-413,642	17,660	0,067	0,039
-412,628	120,072	0,049	-0,045
-411,613	4,959	-0,053	-0,029
-410,598	369,464	0,070	-0,104
-409,584	168,589	0,079	-0,083
-408,569	-84,043	0,098	-0,023
-407,555	-93,324	-0,073	-0,015
-406,540	800,000	0,044	0,102
-405,525	-114,770	-0,068	0,009
-404,511	-200,000	-0,006	0,073
-403,496	67,664	0,055	-0,042
-402,482	-200,000	-0,007	0,046
-401,467	-200,000	0,016	0,064
-400,452	27,283	0,030	-0,019
-399,438	65,360	-0,123	0,091
-398,423	800,000	0,029	0,072
-397,409	144,570	-0,070	-0,069
-396,394	732,691	-0,060	0,119
-395,379	800,000	0,043	0,089
-394,365	-52,209	0,113	-0,038
-393,350	60,022	0,114	0,082
-392,336	-200,000	0,001	-0,148
-391,321	20,048	-0,070	-0,041
-390,306	-77,404	-0,236	-0,060
-389,292	31,847	-0,012	-0,008
-388,277	-67,752	-0,162	0,046
-387,263	-200,000	0,023	0,092
-386,248	-200,000	-0,038	0,168
-385,233	-200,000	0,022	0,136
-384,219	229,027	0,035	-0,042
-383,204	-200,000	-0,016	-0,125
-382,190	-114,305	0,086	-0,012
-381,175	799,737	0,014	0,029
-380,160	800,000	-0,038	0,092
-379,146	-200,000	-0,010	0,042
-378,131	377,409	-0,103	0,155
-377,117	-200,000	0,006	0,099
-376,102	-133,532	0,054	0,005
-375,088	-14,939	-0,033	-0,016
-374,073	41,889	0,040	0,026
-373,058	80,051	0,112	0,088
-372,044	-107,961	-0,108	0,017
-371,029	374,026	0,078	0,117
-370,015	-200,000	0,005	0,080
-369,000	3,507	0,082	0,044
-367,985	-200,000	-0,009	-0,045
-366,971	-200,000	-0,033	-0,200
-365,956	-89,366	0,092	0,020
-364,942	160,667	-0,048	0,050
-363,927	-150,471	0,110	0,006
-362,912	-200,000	0,027	-0,108
-361,898	800,000	-0,037	-0,089
-360,883	-200,000	-0,007	0,054
-359,869	-200,000	0,003	-0,026
-358,854	-113,867	0,098	-0,014
-357,839	-103,255	-0,246	-0,042
-356,825	-200,000	0,011	0,071
-355,810	413,570	0,083	0,129
-354,796	-200,000	0,026	0,105
-353,781	-200,000	-0,000	-0,003
-352,766	-200,000	0,001	-0,115
-351,752	-46,946	0,123	-0,044
-350,737	-20,892	0,047	0,021
-349,723	402,180	-0,038	-0,059
-348,708	-200,000	0,011	0,132
-347,693	-34,586	-0,036	0,014
-346,679	-139,365	-0,168	-0,013
-345,664	346,080	0,115	0,167
-344,650	800,000	0,020	-0,056
-343,635	800,000	0,016	0,042
-342,620	42,799	0,090	0,060
-341,606	109,849	-0,047	-0,041
-340,591	-200,000	-0,028	-0,099
-339,577	-81,005	-0,065	-0,016
-338,562	-200,000	-0,011	0,042
-337,548	278,681	-0,076	-0,100
-336,533	-200,000	0,011	0,074
-335,518	163,005	0,114	0,117
-334,504	411,055	0,032	0,049
-333,489	-200,000	0,014	-0,052
-332,475	800,000	-0,028	-0,057
-331,460	-104,303	-0,137	0,023
-330,445	458,907	0,081	-0,132
-329,431	-29,408	0,158	0,066
-328,416	86,459	0,049	-0,040
-327,402	-200,000	0,053	0,206
-326,387	193,530	-0,037	-0,041
-325,372	193,338	0,028	-0,031
-324,358	17,485	0,054	0,031
-323,343	-61,641	-0,105	-0,032
-322,329	-200,000	-0,018	0,087
-321,314	800,000	0,035	0,105
-320,299	-200,000	-0,005	0,081
-319,285	-29,891	-0,132	0,055
-318,270	-68,285	-0,080	-0,023
-317,256	40,663	-0,138	-0,091
-316,241	-109,302	-0,053	0,008
-315,226	-46,006	0,050	0,018
-314,212	-142,862	0,092	-0,006
-313,197	134,038	0,072	0,068
-312,183	38,622	-0,037	-0,024
-311,168	-100,063	-0,135	-0,024
-310,153	800,000	0,029	-0,072
-309,139	267,116	-0,054	-0,069
-308,124	-157,847	0,118	-0,005
-307,110	413,126	-0,001	0,001
-306,095	800,000	0,063	0,176
-305,080	524,293	0,048	-0,083
-304,066	-200,000	0,032	0,116
-303,051	-200,000	-0,003	0,114
-302,037	428,534	-0,073	0,116
-301,022	800,000	0,016	-0,051
-300,008	-122,016	-0,055	-0,007
-298,993	-200,000	-0,008	0,028
-297,978	63,179	-0,141	0,103
-296,964	-104,731	0,065	-0,011
-295,949	-112,743	0,042	-0,006
-294,935	800,000	0,038	-0,122
-293,920	-40,880	-0,083	-0,031
-292,905	-200,000	-0,034	0,135
-291,891	147,110	0,054	0,053
-290,876	-38,322	-0,094	0,036
-289,862	-200,000	0,004	-0,136
-288,847	249,806	0,048	-0,060
-287,832	800,000	0,027	-0,064
-286,818	-176,344	-0,113	-0,002
-285,803	-200,000	0,010	-0,101
-284,789	68,974	0,113	-0,085
-283,774	-85,484	-0,139	-0,031
-282,759	-200,000	-0,006	-0,028
-281,745	274,269	0,080	0,104
-280,730	800,000	0,022	0,046
-279,716	-200,000	0,007	-0,075
-278,701	84,170	-0,091	0,073
-277,686	476,462	-0,030	0,050
-276,672	-43,772	-0,025	0,009
-275,657	-102,635	-0,020	0,003
-274,643	800,000	-0,046	0,123
-273,628	800,000	0,045	-0,114
-272,613	204,565	0,078	-0,089
-271,599	8,802	-0,070	0,039
-270,584	-27,174	0,016	0,007
-269,570	-152,348	0,055	-0,003
-268,555	32,946	-0,016	-0,010
-267,540	-200,000	-0,022	-0,131
-266,526	-76,354	0,018	0,005
-265,511	-107,876	0,160	-0,025
-264,497	-62,697	-0,036	-0,011
-263,482	-200,000	-0,002	0,066
-262,467	800,000	-0,040	-0,103
-261,453	-159,612	-0,110	-0,004
-260,438	197,457	0,052	-0,058
-259,424	24,662	0,050	0,030
-258,409	601,334	0,033	0,059
-257,395	800,000	-0,040	0,086
-256,380	326,820	0,097	0,136
-255,365	-200,000	-0,023	0,123
-254,351	-135,531	-0,050	0,004
-253,336	-200,000	0,001	-0,079
-252,322	-200,000	0,018	0,114
-251,307	-200,000	0,016	0,218
-250,292	-200,000	-0,010	-0,077
-249,278	-121,137	0,095	-0,012
-248,263	-200,000	0,026	0,115
-247,249	800,000	-0,019	-0,045
-246,234	399,072	-0,065	-0,099
-245,219	187,200	0,009	0,010
-244,205	158,275	0,124	-0,125
-243,190	53,131	0,051	0,035
-242,176	22,283	0,057	0,034
-241,161	-32,430	-0,140	-0,057
-240,146	-21,733	-0,164	-0,073
-239,132	227,332	0,057	0,068
-238,117	74,312	0,112	-0,086
-237,103	140,636	0,020	-0,019
-236,088	-133,241	0,155	-0,014
-235,073	30,896	-0,125	-0,078
-234,059	-141,992	0,114	0,008
-233,044	18,877	0,179	0,105
-232,030	-18,654	0,101	-0,046
-231,015	51,566	-0,109	-0,075
-230,000	800,000	-0,005	-0,013
-228,986	-70,502	-0,084	0,023
-227,971	-200,000	0,012	0,072
-226,957	-16,908	-0,045	0,021
-225,942	-47,494	-0,101	0,036
-224,927	-147,688	0,187	0,011
-223,913	328,982	-0,087	-0,122
-222,898	800,000	-0,021	-0,045
-221,884	193,593	-0,071	0,079
-220,869	-100,525	0,095	0,017
-219,855	-200,000	-0,005	-0,029
-218,840	455,969	-0,038	-0,062
-217,825	-200,000	-0,016	-0,089
-216,811	800,000	0,053	-0,108
-215,796	-200,000	-0,014	-0,144
-214,782	75,227	-0,145	-0,111
-213,767	581,926	-0,037	0,067
-212,752	-200,000	0,002	0,073
-211,738	-200,000	0,042	0,172
-210,723	733,545	0,049	0,096
-209,709	-77,516	0,117	0,029
-208,694	429,885	-0,096	0,152
-207,679	-42,241	-0,015	0,006
-206,665	161,086	0,030	-0,031
-205,650	326,526	0,071	-0,099
-204,636	251,373	-0,047	-0,058
-203,621	137,668	-0,039	0,037
-202,606	-41,071	-0,026	0,010
-201,592	206,069	-0,142	-0,161
-200,577	515,565	-0,025	0,042
-199,563	-147,761	0,087	0,005
-198,548	-200,000	-0,002	0,131
-197,533	-101,631	-0,061	0,011
-196,519	-200,000	0,005	-0,062
-195,504	-200,000	0,000	0,096
-194,490	300,972	0,063	-0,085
-193,475	-200,000	0,008	-0,072
-192,460	-93,637	-0,163	-0,033
-191,446	-200,000	0,008	0,064
-190,431	-45,541	0,041	0,015
-189,417	-57,271	-0,163	0,052
-188,402	-188,897	-0,044	-0,000
-187,387	757,147	0,094	-0,185
-186,373	702,322	0,028	0,054
-185,358	-111,315	-0,046	0,007
-184,344	139,403	0,041	-0,039
-183,329	-75,749	-0,034	0,009
-182,315	800,000	-0,094	0,200
-181,300	-2,545	-0,046	-0,023
-180,285	80,654	0,057	0,045
-179,271	800,000	-0,038	-0,119
-178,256	-14,449	0,085	-0,040
-177,242	-60,204	0,078	0,024
-176,227	11,984	0,019	0,011
-175,212	161,971	0,097	0,099
-174,198	-10,905	0,120	0,058
-173,183	108,133	-0,109	0,095
-172,169	800,000	-0,030	0,077
-171,154	-30,260	0,092	-0,038
-170,139	-200,000	-0,009	-0,050
-169,125	-105,518	-0,059	-0,010
-168,110	-200,000	0,027	0,110
-167,096	-200,000	-0,012	0,082
-166,081	8,493	-0,021	-0,011
-165,066	-200,000	-0,006	0,064
-164,052	186,387	0,030	-0,033
-163,037	13,961	-0,124	0,070
-162,023	353,630	0,047	0,068
-161,008	77,595	0,138	0,107
-159,993	638,612	-0,060	0,111
-158,979	257,926	-0,064	-0,080
-157,964	106,262	0,094	0,081
-156,950	-200,000	0,023	-0,115
-155,935	-107,932	0,129	0,020
-154,920	-200,000	0,028	0,117
-153,906	215,422	0,076	-0,088
-152,891	379,141	0,033	0,050
-151,877	-195,396	-0,031	0,000
-150,862	-200,000	-0,019	-0,110
-149,847	243,052	-0,027	0,034
-148,833	50,633	-0,053	-0,037
-147,818	800,000	0,103	-0,209
-146,804	-144,457	-0,056	0,004
-145,789	307,457	0,063	0,086
-144,775	412,915	-0,046	0,071
-143,760	49,758	-0,122	-0,084
-142,745	-29,248	-0,155	-0,064
-141,731	260,680	0,063	-0,079
-140,716	-200,000	-0,025	-0,150
-139,702	45,236	0,067	0,045
-138,687	90,608	-0,045	-0,037
-137,672	-22,454	-0,071	0,031
-136,658	-200,000	-0,013	-0,088
-135,643	38,969	0,099	-0,065
-134,629	-200,000	-0,006	-0,149
-133,614	-67,789	0,126	-0,035
-132,599	800,000	0,041	0,100
-131,585	150,109	-0,065	0,064
-130,570	-200,000	0,005	-0,148
-129,556	44,231	0,014	-0,009
-128,541	-200,000	-0,030	-0,112
-127,526	281,790	-0,111	0,144
-126,512	-68,575	0,118	0,033
-125,497	162,272	0,041	0,042
-124,483	-135,742	0,122	0,010
-123,468	363,375	0,056	0,081
-122,453	-200,000	0,040	-0,137
-121,439	234,591	-0,063	0,075
-120,424	164,163	0,091	-0,093
