DTS Sentinel unit serial number:	SN410029Multiplexer serial number:	ORYXHardware model number:	OX2-SRSoftware version number:	ORYX F/W v4,00 Oryx Data Collector v3.7.2.0data status	okinstallation	B6 Nyhavnadifferential loss correction	single-endedforward channel	channel 2reverse channel	N/Adate	2023/12/11time	00:05:08forward acquisition time	300,00reverse acquisition time	0,00gamma	499,1914k internal	0,3122k external	0,3122temperature offset calibration	1,0000default loss term (dB/km)	0,3820temperature slope calibration	1,0000multiplexer offset coefficient	1,0000multiplexer slope coefficient	1,0000fibre end	0,00T internal ref (°C)	22,38T ext. ref 1 (°C)	5,96T ext. ref 2 (°C)	5,98length (m)	temperature (°C)	Stokes	anti-Stokes-744,400	800,000	0,046	-0,112
-743,385	-22,772	-0,272	0,122
-742,371	55,853	0,046	-0,033
-741,356	283,423	-0,142	0,190
-740,342	800,000	0,016	-0,049
-739,327	313,342	-0,138	0,194
-738,312	-27,253	0,063	-0,027
-737,298	782,923	-0,095	0,196
-736,283	800,000	-0,015	0,032
-735,269	-33,256	-0,171	0,070
-734,254	10,215	0,107	-0,060
-733,239	-0,437	-0,377	-0,199
-732,225	-125,635	0,098	0,011
-731,210	-200,000	0,009	-0,081
-730,196	7,819	-0,034	0,019
-729,181	-9,466	0,016	0,008
-728,167	84,374	-0,049	0,040
-727,152	426,734	-0,014	0,022
-726,137	460,834	0,112	-0,187
-725,123	455,979	-0,079	0,131
-724,108	-0,852	-0,064	0,034
-723,094	-200,000	-0,007	-0,151
-722,079	800,000	0,057	-0,135
-721,064	-200,000	0,003	0,108
-720,050	-108,639	0,105	0,017
-719,035	-57,762	-0,053	0,017
-718,021	800,000	0,022	0,051
-717,006	-81,119	-0,137	0,033
-715,991	-150,298	-0,155	-0,009
-714,977	-9,292	-0,101	-0,050
-713,962	-19,617	-0,082	-0,038
-712,948	13,432	-0,051	-0,030
-711,933	-200,000	0,006	0,094
-710,918	276,462	-0,056	-0,074
-709,904	53,556	-0,127	0,090
-708,889	-145,394	-0,075	-0,005
-707,875	-27,067	0,141	-0,061
-706,860	-15,357	0,101	0,048
-705,845	-51,532	0,034	0,012
-704,831	800,000	0,005	0,014
-703,816	220,520	0,063	-0,076
-702,802	-158,949	-0,120	0,005
-701,787	-81,787	-0,114	0,028
-700,772	-200,000	0,004	-0,046
-699,758	-84,124	-0,082	0,019
-698,743	800,000	0,054	0,136
-697,729	-200,000	0,021	0,093
-696,714	-101,940	0,083	0,015
-695,699	64,293	0,127	0,095
-694,685	86,535	0,027	0,022
-693,670	-200,000	0,045	0,155
-692,656	35,780	-0,137	-0,089
-691,641	395,577	0,046	0,071
-690,627	-47,239	0,091	0,033
-689,612	-81,714	0,057	0,014
-688,597	800,000	-0,043	-0,094
-687,583	486,625	-0,045	-0,077
-686,568	480,894	0,016	-0,028
-685,554	-166,445	0,075	-0,002
-684,539	95,617	-0,039	0,033
-683,524	76,746	-0,063	-0,050
-682,510	169,901	0,069	-0,073
-681,495	-135,160	0,049	0,004
-680,481	142,356	0,102	0,101
-679,466	35,125	-0,115	-0,075
-678,451	-200,000	0,026	-0,115
-677,437	-56,005	0,100	0,033
-676,422	559,360	0,064	0,116
-675,408	-30,466	-0,073	-0,030
-674,393	-76,956	0,024	0,006
-673,378	-34,105	-0,182	-0,074
-672,364	-194,274	0,070	-0,000
-671,349	64,384	0,039	-0,029
-670,335	-200,000	-0,006	0,028
-669,320	20,581	-0,090	-0,054
-668,305	-20,953	-0,068	0,031
-667,291	-113,586	0,147	-0,021
-666,276	-200,000	0,005	-0,033
-665,262	800,000	-0,068	-0,148
-664,247	-200,000	0,027	-0,182
-663,232	-51,783	-0,031	-0,011
-662,218	-65,976	0,119	0,035
-661,203	-80,854	-0,094	-0,023
-660,189	325,964	-0,016	0,022
-659,174	800,000	-0,044	-0,096
-658,159	800,000	0,026	0,062
-657,145	-200,000	-0,002	0,020
-656,130	10,004	-0,030	-0,017
-655,116	-71,183	-0,117	0,032
-654,101	41,032	0,059	0,039
-653,086	207,163	0,082	0,095
-652,072	800,000	0,061	-0,128
-651,057	-29,224	-0,066	-0,028
-650,043	12,027	0,089	0,051
-649,028	-70,000	0,069	0,019
-648,014	-181,753	-0,091	-0,001
-646,999	800,000	-0,025	-0,060
-645,984	371,808	-0,028	0,043
-644,970	-99,872	-0,061	-0,011
-643,955	-131,311	0,104	-0,010
-642,941	194,400	-0,100	-0,113
-641,926	174,492	0,042	-0,045
-640,911	54,782	-0,033	-0,024
-639,897	4,676	-0,078	0,042
-638,882	-114,177	0,154	0,022
-637,868	717,663	0,024	0,048
-636,853	-200,000	-0,001	0,014
-635,838	-200,000	0,025	-0,108
-634,824	201,946	-0,051	0,059
-633,809	414,368	0,072	-0,115
-632,795	58,741	-0,096	-0,070
-631,780	65,070	-0,126	-0,094
-630,765	-200,000	-0,016	0,112
-629,751	-200,000	-0,008	-0,179
-628,736	-117,599	-0,089	-0,012
-627,722	238,852	0,074	-0,091
-626,707	800,000	0,039	-0,128
-625,692	175,217	0,125	0,135
-624,678	269,080	-0,091	-0,118
-623,663	800,000	0,015	-0,037
-622,649	19,626	-0,062	0,037
-621,634	72,426	-0,088	0,068
-620,619	43,357	-0,062	0,042
-619,605	-200,000	0,019	-0,079
-618,590	-49,982	0,073	0,026
-617,576	-200,000	-0,022	0,222
-616,561	-35,866	-0,095	-0,038
-615,546	-123,985	-0,044	0,005
-614,532	800,000	-0,013	-0,034
-613,517	-58,819	-0,057	0,018
-612,503	-35,025	0,046	0,019
-611,488	-75,529	-0,034	-0,009
-610,474	-147,153	0,032	0,002
-609,459	-200,000	0,009	-0,036
-608,444	-140,943	-0,093	0,007
-607,430	-180,537	-0,042	-0,001
-606,415	9,409	-0,101	-0,056
-605,401	-80,895	-0,018	-0,005
-604,386	-200,000	-0,006	0,059
-603,371	-153,036	-0,122	0,006
-602,357	37,900	-0,016	-0,011
-601,342	-200,000	0,002	-0,097
-600,328	169,601	0,071	-0,075
-599,313	190,348	-0,052	0,057
-598,298	-17,309	-0,084	-0,039
-597,284	113,004	0,118	0,106
-596,269	159,331	0,101	0,105
-595,255	-26,803	-0,047	-0,020
-594,240	-81,154	-0,060	-0,015
-593,225	201,637	0,060	0,069
-592,211	312,817	0,042	0,059
-591,196	800,000	-0,079	-0,179
-590,182	-27,202	-0,085	-0,036
-589,167	-20,818	0,053	0,024
-588,152	-120,913	0,168	0,021
-587,138	-96,251	0,104	0,020
-586,123	-200,000	-0,021	-0,109
-585,109	800,000	0,022	-0,068
-584,094	-31,101	-0,132	0,055
-583,079	-200,000	0,008	-0,060
-582,065	-200,000	-0,005	-0,063
-581,050	46,232	-0,102	0,070
-580,036	-155,976	-0,064	-0,003
-579,021	-200,000	-0,014	0,195
-578,006	-71,995	-0,204	0,056
-576,992	88,945	0,051	0,042
-575,977	-87,215	-0,057	-0,013
-574,963	215,955	-0,027	-0,032
-573,948	2,619	0,049	0,026
-572,934	-200,000	0,030	-0,191
-571,919	-102,401	0,099	-0,017
-570,904	-77,687	0,053	-0,013
-569,890	37,980	-0,087	0,057
-568,875	234,528	0,062	-0,076
-567,861	-70,886	0,025	0,007
-566,846	-200,000	0,000	-0,015
-565,831	-156,766	0,078	-0,003
-564,817	24,452	-0,050	-0,030
-563,802	131,701	-0,129	0,123
-562,788	-37,189	-0,083	0,033
-561,773	-200,000	0,016	-0,079
-560,758	-200,000	0,002	-0,014
-559,744	-200,000	-0,005	0,159
-558,729	546,407	0,039	-0,070
-557,715	800,000	0,044	0,102
-556,700	-36,215	-0,134	0,053
-555,685	147,032	-0,020	0,020
-554,671	-102,879	0,092	0,016
-553,656	-200,000	0,000	0,064
-552,642	-37,995	0,143	0,056
-551,627	21,023	-0,065	0,039
-550,612	109,305	0,043	-0,038
-549,598	-55,798	-0,141	0,046
-548,583	174,528	-0,094	0,100
-547,569	-30,134	0,069	0,029
-546,554	304,035	-0,026	-0,035
-545,539	800,000	-0,061	-0,155
-544,525	360,733	-0,017	-0,025
-543,510	194,523	0,103	-0,116
-542,496	93,450	-0,081	-0,068
-541,481	800,000	-0,025	0,076
-540,466	-151,232	0,123	0,007
-539,452	-138,828	0,191	0,015
-538,437	59,876	-0,086	-0,063
-537,423	-127,996	0,093	0,010
-536,408	119,364	0,011	-0,010
-535,393	-200,000	0,006	-0,179
-534,379	1,126	-0,019	0,010
-533,364	800,000	-0,055	-0,113
-532,350	-14,600	0,092	-0,044
-531,335	156,688	-0,036	0,036
-530,321	33,293	0,027	0,017
-529,306	217,967	0,047	-0,055
-528,291	-200,000	0,015	-0,158
-527,277	-62,155	-0,133	-0,041
-526,262	-90,127	0,068	0,014
-525,248	-200,000	-0,013	0,123
-524,233	784,457	0,073	-0,148
-523,218	402,884	0,077	0,121
-522,204	-96,633	0,039	0,008
-521,189	-200,000	-0,009	0,043
-520,175	-200,000	-0,015	-0,182
-519,160	264,615	-0,074	-0,096
-518,145	-15,049	0,124	-0,059
-517,131	632,264	0,009	-0,017
-516,116	524,314	0,103	0,180
-515,102	87,699	0,044	0,036
-514,087	236,761	-0,072	0,088
-513,072	-200,000	0,002	0,045
-512,058	800,000	-0,042	-0,113
-511,043	-200,000	0,004	0,066
-510,029	-200,000	0,060	0,200
-509,014	-40,833	0,043	-0,016
-507,999	497,231	-0,090	0,153
-506,985	800,000	-0,022	-0,056
-505,970	269,086	-0,128	-0,166
-504,956	-200,000	0,015	-0,079
-503,941	524,281	0,033	0,058
-502,926	-200,000	0,020	-0,100
-501,912	101,270	0,088	0,076
-500,897	-107,135	0,187	0,030
-499,883	-61,307	0,040	-0,013
-498,868	-200,000	0,022	-0,084
-497,853	-200,000	0,024	-0,108
-496,839	800,000	-0,020	-0,063
-495,824	208,849	0,125	0,145
-494,810	33,607	0,129	0,083
-493,795	-200,000	-0,015	-0,105
-492,781	575,855	-0,033	-0,060
-491,766	588,353	-0,085	-0,155
-490,751	-200,000	0,005	-0,062
-489,737	389,246	0,024	0,037
-488,722	-200,000	0,027	0,109
-487,708	-200,000	0,040	0,143
-486,693	472,707	-0,026	-0,043
-485,678	-119,877	-0,195	0,024
-484,664	88,170	-0,025	-0,021
-483,649	-200,000	-0,010	0,064
-482,635	103,658	0,069	-0,060
-481,620	-200,000	0,002	0,105
-480,605	249,043	0,070	-0,088
-479,591	55,270	0,051	0,036
-478,576	156,020	0,060	0,061
-477,562	-89,381	-0,092	-0,020
-476,547	-108,558	-0,159	-0,025
-475,532	-10,835	-0,072	0,035
-474,518	486,881	0,022	-0,038
-473,503	-175,753	0,122	-0,002
-472,489	-68,506	0,071	-0,020
-471,474	-200,000	0,002	-0,070
-470,459	-76,915	-0,104	-0,026
-469,445	-143,963	-0,046	0,003
-468,430	323,337	-0,038	-0,053
-467,416	800,000	0,022	-0,056
-466,401	-116,258	-0,039	-0,005
-465,386	109,022	-0,036	0,032
-464,372	-200,000	-0,021	-0,128
-463,357	164,958	-0,073	-0,076
-462,343	10,403	-0,115	-0,065
-461,328	191,403	-0,037	0,041
-460,313	107,648	0,043	0,038
-459,299	38,610	-0,146	0,096
-458,284	800,000	0,043	0,099
-457,270	-200,000	-0,026	0,118
-456,255	98,876	0,063	-0,054
-455,241	38,843	0,061	-0,040
-454,226	800,000	0,016	0,051
-453,211	60,185	-0,056	-0,041
-452,197	-12,416	0,129	0,062
-451,182	791,135	0,047	0,095
-450,168	-50,640	0,152	0,053
-449,153	428,173	0,039	-0,062
-448,138	88,026	0,095	-0,078
-447,124	-116,065	-0,143	0,019
-446,109	800,000	0,029	-0,060
-445,095	261,456	0,138	0,177
-444,080	25,204	0,077	0,047
-443,065	192,759	-0,110	0,123
-442,051	-45,511	-0,119	0,043
-441,036	-200,000	0,002	-0,064
-440,022	53,349	-0,077	0,054
-439,007	204,605	-0,129	0,148
-437,992	34,892	-0,082	0,053
-436,978	707,448	0,119	0,233
-435,963	-16,612	0,052	0,024
-434,949	-200,000	-0,013	-0,053
-433,934	800,000	-0,042	-0,117
-432,919	800,000	0,044	-0,116
-431,905	-200,000	-0,008	-0,061
-430,890	53,909	0,064	-0,046
-429,876	-157,693	0,116	-0,005
-428,861	300,542	0,023	-0,031
-427,846	5,515	-0,101	-0,055
-426,832	22,903	-0,095	-0,057
-425,817	-42,716	-0,077	0,029
-424,803	800,000	-0,030	0,087
-423,788	-111,281	0,071	0,011
-422,773	300,009	-0,041	0,056
-421,759	248,543	0,064	0,080
-420,744	-57,884	-0,077	-0,025
-419,730	-200,000	-0,036	-0,118
-418,715	749,395	0,037	-0,074
-417,701	800,000	0,014	-0,030
-416,686	-128,629	0,149	0,015
-415,671	1,808	0,091	0,048
-414,657	67,010	0,078	0,059
-413,642	800,000	-0,015	-0,046
-412,628	800,000	-0,025	-0,070
-411,613	599,263	-0,071	-0,129
-410,598	-31,468	-0,111	-0,046
-409,584	143,745	-0,076	-0,075
-408,569	-53,543	0,050	0,017
-407,555	800,000	0,070	0,179
-406,540	-54,583	0,112	0,037
-405,525	-63,325	-0,104	-0,031
-404,511	-200,000	-0,023	-0,106
-403,496	53,713	-0,109	-0,077
-402,482	-200,000	0,016	-0,079
-401,467	-200,000	0,041	-0,229
-400,452	-200,000	0,012	0,174
-399,438	-200,000	-0,025	0,116
-398,423	-200,000	0,017	-0,074
-397,409	-127,963	-0,152	0,016
-396,394	800,000	0,038	-0,081
-395,379	800,000	-0,013	-0,030
-394,365	800,000	0,029	0,088
-393,350	-173,187	0,099	-0,002
-392,336	800,000	-0,039	-0,082
-391,321	392,851	0,071	-0,110
-390,306	569,573	0,069	-0,124
-389,292	-52,588	-0,093	-0,032
-388,277	-60,291	0,044	-0,014
-387,263	-43,058	0,074	-0,027
-386,248	299,147	0,036	0,049
-385,233	-200,000	-0,004	-0,033
-384,219	-110,476	-0,073	0,011
-383,204	43,239	-0,031	-0,021
-382,190	114,241	-0,053	-0,047
-381,175	-200,000	-0,008	-0,103
-380,160	-63,155	0,092	-0,028
-379,146	-37,936	0,060	0,023
-378,131	-200,000	0,009	0,094
-377,117	800,000	-0,045	0,094
-376,102	42,147	-0,090	0,060
-375,088	3,265	-0,115	0,062
-374,073	27,240	-0,021	-0,013
-373,058	800,000	-0,040	-0,102
-372,044	157,146	0,047	0,048
-371,029	-16,389	0,095	-0,044
-370,015	401,742	0,033	-0,051
-369,000	-139,303	-0,149	-0,012
-367,985	414,032	0,063	0,098
-366,971	178,920	-0,018	0,019
-365,956	-200,000	-0,002	-0,025
-364,942	705,634	0,044	0,087
-363,927	290,159	-0,061	0,082
-362,912	-200,000	-0,014	0,088
-361,898	88,884	-0,112	0,092
-360,883	65,767	0,092	0,068
-359,869	-53,140	0,118	0,040
-358,854	187,195	-0,043	-0,048
-357,839	-200,000	0,006	0,098
-356,825	800,000	0,004	0,007
-355,810	-42,165	0,119	-0,044
-354,796	-200,000	0,002	-0,108
-353,781	-113,947	-0,056	0,008
-352,766	183,226	0,016	-0,017
-351,752	378,325	0,057	0,086
-350,737	800,000	-0,011	0,036
-349,723	-200,000	0,004	-0,014
-348,708	-80,987	0,061	0,015
-347,693	-200,000	0,010	0,125
-346,679	397,310	-0,089	-0,137
-345,664	459,081	-0,083	-0,136
-344,650	-200,000	0,020	0,132
-343,635	-164,814	-0,047	0,002
-342,620	-150,987	0,086	-0,005
-341,606	800,000	-0,040	-0,102
-340,591	-41,862	0,100	-0,038
-339,577	-200,000	0,100	0,000
-338,562	-58,659	-0,108	-0,034
-337,548	-200,000	-0,019	-0,151
-336,533	61,165	-0,037	-0,027
-335,518	-31,881	0,022	0,009
-334,504	66,085	-0,037	0,027
-333,489	464,512	-0,020	-0,033
-332,475	-7,197	-0,143	0,071
-331,460	109,705	0,151	-0,132
-330,445	-9,389	0,019	0,009
-329,431	117,268	0,114	0,103
-328,416	800,000	-0,029	-0,083
-327,402	-35,598	0,163	-0,065
-326,387	38,396	0,124	0,081
-325,372	27,762	-0,063	0,039
-324,358	-200,000	0,005	0,117
-323,343	-16,233	0,041	0,019
-322,329	800,000	-0,026	0,069
-321,314	-108,585	0,056	0,009
-320,299	89,460	-0,048	-0,039
-319,285	800,000	-0,077	-0,169
-318,270	469,324	-0,037	0,061
-317,256	44,992	-0,033	-0,022
-316,241	-200,000	0,008	0,078
-315,226	-200,000	-0,022	0,083
-314,212	-200,000	-0,007	0,166
-313,197	477,842	0,058	0,096
-312,183	43,677	0,059	0,040
-311,168	-48,975	0,102	0,036
-310,153	-145,690	-0,083	-0,005
-309,139	-6,435	0,032	-0,016
-308,124	-17,554	0,048	-0,022
-307,110	5,418	0,062	-0,033
-306,095	-77,798	0,106	0,027
-305,080	-200,000	0,096	0,000
-304,066	80,840	-0,090	0,071
-303,051	-200,000	0,022	-0,127
-302,037	-200,000	0,018	0,088
-301,022	-134,368	-0,059	-0,005
-300,008	85,878	0,086	0,069
-298,993	-100,546	-0,121	0,022
-297,978	142,388	0,013	-0,013
-296,964	-200,000	-0,039	-0,128
-295,949	85,204	-0,087	-0,070
-294,935	462,879	-0,075	-0,124
-293,920	121,657	-0,048	-0,044
-292,905	-200,000	-0,009	-0,052
-291,891	-150,441	-0,102	-0,006
-290,876	110,474	0,041	-0,036
-289,862	-30,401	0,057	-0,024
-288,847	800,000	-0,057	-0,170
-287,832	-128,910	0,033	0,003
-286,818	-200,000	0,019	0,073
-285,803	50,585	-0,048	-0,034
-284,789	333,840	-0,034	0,049
-283,774	477,356	0,071	0,117
-282,759	800,000	0,041	0,090
-281,745	-200,000	-0,023	-0,166
-280,730	707,722	0,032	-0,062
-279,716	104,367	0,096	-0,083
-278,701	-200,000	0,009	-0,035
-277,686	-89,676	0,106	0,023
-276,672	662,970	-0,035	-0,067
-275,657	-200,000	0,002	0,052
-274,643	234,260	0,009	0,011
-273,628	-163,812	-0,142	-0,005
-272,613	-102,265	-0,106	0,018
-271,599	-200,000	-0,004	-0,025
-270,584	-200,000	0,001	0,076
-269,570	-200,000	0,007	0,056
-268,555	181,985	-0,065	-0,070
-267,540	-7,496	-0,075	0,037
-266,526	113,614	-0,039	-0,035
-265,511	-200,000	-0,019	-0,170
-264,497	242,238	-0,020	-0,024
-263,482	9,956	0,085	-0,047
-262,467	-153,390	0,113	0,006
-261,453	290,237	-0,050	-0,067
-260,438	183,836	0,081	0,087
-259,424	26,126	0,043	-0,026
-258,409	92,445	-0,028	-0,023
-257,395	104,273	0,028	-0,024
-256,380	538,742	0,071	-0,125
-255,365	-40,659	-0,096	0,036
-254,351	800,000	-0,022	-0,044
-253,336	-130,909	-0,041	-0,004
-252,322	-91,244	0,046	0,010
-251,307	7,014	-0,111	0,061
-250,292	-200,000	0,028	0,120
-249,278	-200,000	-0,013	0,172
-248,263	-200,000	-0,008	0,148
-247,249	217,451	0,010	0,011
-246,234	-177,260	0,102	-0,002
-245,219	548,208	0,029	-0,052
-244,205	-200,000	-0,017	0,060
-243,190	84,775	0,075	0,060
-242,176	97,554	-0,123	0,103
-241,161	14,293	0,039	-0,022
-240,146	-200,000	-0,020	0,175
-239,132	27,717	-0,021	-0,013
-238,117	287,791	-0,058	0,077
-237,103	7,247	0,011	0,006
-236,088	-110,420	-0,063	0,010
-235,073	-28,338	0,061	0,026
-234,059	87,470	-0,120	0,097
-233,044	31,226	0,164	0,102
-232,030	239,113	0,038	-0,047
-231,015	37,269	-0,072	0,046
-230,000	-84,868	-0,063	-0,014
-228,986	472,148	0,019	-0,032
-227,971	-200,000	-0,022	0,091
-226,957	-200,000	0,007	0,107
-225,942	-118,172	-0,066	0,008
-224,927	569,431	-0,003	-0,006
-223,913	-200,000	-0,021	-0,087
-222,898	301,189	-0,027	0,037
-221,884	497,714	-0,056	0,094
-220,869	-200,000	0,016	0,166
-219,855	800,000	-0,018	-0,055
-218,840	497,568	0,056	-0,095
-217,825	425,806	0,092	0,145
-216,811	305,905	0,033	0,044
-215,796	800,000	-0,029	-0,082
-214,782	-200,000	0,027	0,109
-213,767	-18,621	0,055	-0,025
-212,752	304,354	-0,012	0,016
-211,738	800,000	-0,026	-0,076
-210,723	-19,882	-0,113	-0,051
-209,709	800,000	0,035	0,105
-208,694	123,742	-0,052	-0,048
-207,679	-59,115	-0,056	0,018
-206,665	27,880	0,081	0,050
-205,650	-92,366	-0,033	-0,007
-204,636	3,680	0,074	0,039
-203,621	-81,294	-0,044	-0,011
-202,606	-175,579	-0,149	0,003
-201,592	800,000	0,025	0,065
-200,577	735,928	0,032	0,064
-199,563	-200,000	-0,013	-0,060
-198,548	-32,859	0,139	0,056
-197,533	-200,000	-0,019	0,083
-196,519	-24,899	0,121	0,052
-195,504	123,220	0,090	0,083
-194,490	-69,642	-0,060	-0,017
-193,475	-200,000	0,011	0,088
-192,460	-200,000	0,030	0,133
-191,446	155,053	0,114	0,115
-190,431	-200,000	0,016	0,085
-189,417	665,306	0,046	0,086
-188,402	-134,138	0,149	-0,013
-187,387	800,000	-0,040	-0,097
-186,373	78,104	-0,089	0,069
-185,358	-200,000	-0,003	0,017
-184,344	135,701	-0,050	-0,048
-183,329	800,000	-0,009	-0,029
-182,315	-88,701	0,127	-0,027
-181,300	-134,769	-0,045	-0,004
-180,285	800,000	-0,025	0,056
-179,271	800,000	-0,015	-0,043
-178,256	-200,000	0,033	0,137
-177,242	-18,182	0,082	-0,037
-176,227	800,000	-0,074	-0,156
-175,212	540,714	-0,037	-0,064
-174,198	497,865	0,033	-0,055
-173,183	-200,000	0,001	-0,019
-172,169	-123,356	-0,097	0,011
-171,154	-200,000	0,017	-0,112
-170,139	69,004	0,081	0,061
-169,125	-9,107	-0,135	0,066
-168,110	-200,000	-0,034	0,114
-167,096	800,000	-0,008	0,020
-166,081	-64,961	-0,007	0,002
-165,066	-149,326	-0,097	0,006
-164,052	800,000	0,053	-0,136
-163,037	80,535	0,028	-0,022
-162,023	-200,000	0,007	-0,079
-161,008	182,309	0,046	-0,049
-159,993	-127,850	0,158	-0,016
-158,979	797,756	-0,070	-0,141
-157,964	-200,000	0,047	-0,159
-156,950	-200,000	0,007	-0,027
-155,935	-31,748	0,111	-0,045
-154,920	590,750	-0,064	-0,115
-153,906	-200,000	-0,009	0,042
-152,891	135,913	-0,062	0,059
-151,877	-96,604	-0,125	-0,024
-150,862	560,566	0,044	-0,079
-149,847	-57,932	-0,119	0,038
-148,833	484,122	0,052	0,086
-147,818	-3,075	0,114	0,058
-146,804	-15,282	0,077	-0,036
-145,789	59,447	-0,044	-0,032
-144,775	-200,000	-0,002	0,044
-143,760	-107,033	0,078	-0,012
-142,745	406,292	0,051	-0,079
-141,731	166,530	-0,076	0,078
-140,716	-188,217	0,082	-0,001
-139,702	-200,000	-0,012	0,113
-138,687	230,356	-0,058	0,069
-137,672	529,633	-0,070	0,121
-136,658	-200,000	0,029	-0,109
-135,643	696,954	-0,062	0,120
-134,629	235,546	0,063	0,076
-133,614	613,454	-0,068	-0,124
-132,599	-200,000	0,002	-0,040
-131,585	800,000	-0,055	0,111
-130,570	-200,000	0,007	0,047
-129,556	635,025	0,032	0,060
-128,541	-200,000	-0,003	-0,177
-127,526	-55,080	0,023	-0,007
-126,512	77,679	-0,077	-0,060
-125,497	-110,425	0,186	-0,028
-124,483	119,001	0,137	0,124
-123,468	23,740	-0,129	0,077
-122,453	-200,000	-0,003	-0,129
-121,439	-14,536	-0,123	-0,057
-120,424	770,770	0,022	-0,044
-119,410	154,210	0,037	-0,037
-118,395	12,664	0,093	0,052
