DTS Sentinel unit serial number:	SN410029Multiplexer serial number:	ORYXHardware model number:	OX2-SRSoftware version number:	ORYX F/W v4,00 Oryx Data Collector v3.7.2.0data status	okinstallation	B6 Nyhavnadifferential loss correction	single-endedforward channel	channel 2reverse channel	N/Adate	2023/12/10time	18:45:08forward acquisition time	300,00reverse acquisition time	0,00gamma	499,1914k internal	0,3123k external	0,3123temperature offset calibration	1,0000default loss term (dB/km)	0,3820temperature slope calibration	1,0000multiplexer offset coefficient	1,0000multiplexer slope coefficient	1,0000fibre end	0,00T internal ref (°C)	22,34T ext. ref 1 (°C)	6,01T ext. ref 2 (°C)	6,01length (m)	temperature (°C)	Stokes	anti-Stokes-744,400	-200,000	-0,002	-0,027
-743,385	-24,173	-0,288	0,128
-742,371	498,682	0,003	-0,006
-741,356	-94,326	-0,251	0,051
-740,342	208,182	0,024	0,028
-739,327	70,115	-0,176	0,136
-738,312	468,859	0,068	-0,115
-737,298	-42,541	-0,274	0,103
-736,283	800,000	0,082	0,180
-735,269	-4,284	-0,256	0,132
-734,254	392,679	0,072	0,112
-733,239	-63,595	-0,581	-0,177
-732,225	-133,895	0,132	-0,012
-731,210	800,000	0,053	0,114
-730,196	-200,000	0,015	-0,202
-729,181	16,256	0,077	-0,045
-728,167	-200,000	-0,013	-0,167
-727,152	375,740	0,084	0,127
-726,137	34,982	-0,132	0,086
-725,123	-92,857	-0,070	-0,015
-724,108	704,398	0,014	0,029
-723,094	-83,478	-0,072	-0,017
-722,079	-200,000	0,008	-0,130
-721,064	-200,000	-0,031	0,104
-720,050	-73,516	-0,091	0,025
-719,035	-38,484	-0,092	-0,036
-718,021	800,000	0,006	-0,018
-717,006	-200,000	-0,041	-0,173
-715,991	-114,218	0,111	-0,016
-714,977	800,000	-0,046	-0,136
-713,962	-200,000	0,018	-0,086
-712,948	-200,000	0,030	0,126
-711,933	109,940	0,024	0,021
-710,918	30,037	0,041	-0,026
-709,904	800,000	-0,043	0,128
-708,889	11,702	-0,126	-0,072
-707,875	545,860	0,025	-0,044
-706,860	211,817	-0,079	0,092
-705,845	145,309	0,020	-0,020
-704,831	800,000	-0,010	-0,024
-703,816	5,718	-0,121	-0,066
-702,802	800,000	-0,046	0,127
-701,787	-142,762	0,140	-0,010
-700,772	235,450	-0,092	-0,113
-699,758	101,013	-0,025	-0,021
-698,743	-96,829	0,013	-0,002
-697,729	115,681	0,075	-0,068
-696,714	-23,273	-0,081	0,036
-695,699	-186,676	-0,143	0,001
-694,685	-200,000	-0,019	-0,067
-693,670	-46,133	-0,051	-0,019
-692,656	-119,338	0,033	-0,004
-691,641	-71,879	-0,123	-0,034
-690,627	54,558	-0,037	0,026
-689,612	242,898	0,056	0,070
-688,597	800,000	-0,030	0,064
-687,583	29,717	-0,036	0,023
-686,568	54,222	-0,126	-0,090
-685,554	89,874	0,072	0,059
-684,539	263,170	-0,034	0,045
-683,524	800,000	-0,036	-0,112
-682,510	800,000	-0,020	0,061
-681,495	193,391	-0,023	0,026
-680,481	-152,199	-0,058	-0,003
-679,466	800,000	0,018	-0,040
-678,451	88,128	0,035	-0,029
-677,437	-200,000	0,029	-0,125
-676,422	800,000	0,009	-0,022
-675,408	-25,779	0,016	-0,007
-674,393	-123,234	-0,105	0,012
-673,378	112,279	-0,036	-0,032
-672,364	800,000	-0,027	-0,085
-671,349	25,525	-0,093	-0,057
-670,335	-16,046	0,169	0,080
-669,320	-88,808	-0,074	-0,016
-668,305	-200,000	0,006	0,049
-667,291	-106,226	-0,103	0,017
-666,276	45,855	-0,087	-0,059
-665,262	36,103	-0,076	0,050
-664,247	181,771	-0,009	0,010
-663,232	-200,000	0,002	-0,077
-662,218	800,000	-0,045	0,106
-661,203	800,000	0,055	-0,118
-660,189	279,585	-0,054	-0,072
-659,174	200,405	0,032	-0,037
-658,159	-37,960	-0,095	-0,037
-657,145	-200,000	-0,048	-0,170
-656,130	-182,326	0,027	0,000
-655,116	253,148	-0,037	0,047
-654,101	-110,424	0,113	-0,017
-653,086	800,000	-0,060	0,135
-652,072	-200,000	0,030	-0,110
-651,057	287,809	-0,108	-0,146
-650,043	194,940	-0,086	-0,097
-649,028	75,310	0,104	-0,082
-648,014	-86,095	0,062	0,014
-646,999	-200,000	-0,016	0,144
-645,984	360,601	0,029	0,043
-644,970	-151,738	0,090	0,005
-643,955	-200,000	-0,015	0,095
-642,941	219,082	-0,129	-0,153
-641,926	800,000	-0,008	-0,026
-640,911	800,000	-0,048	0,139
-639,897	97,657	-0,104	0,088
-638,882	-200,000	-0,026	-0,087
-637,868	-200,000	0,005	0,029
-636,853	33,176	-0,131	-0,084
-635,838	-200,000	0,035	0,172
-634,824	-49,520	-0,035	0,012
-633,809	90,666	0,017	-0,014
-632,795	349,986	-0,026	-0,039
-631,780	-132,722	0,039	-0,004
-630,765	134,393	0,164	-0,158
-629,751	137,416	-0,041	0,040
-628,736	-13,889	0,066	0,031
-627,722	49,869	0,078	-0,054
-626,707	-133,056	-0,054	0,005
-625,692	-200,000	-0,001	0,118
-624,678	-3,837	0,029	0,015
-623,663	-91,529	-0,168	-0,035
-622,649	-115,678	-0,193	-0,027
-621,634	392,432	0,057	-0,088
-620,619	584,783	-0,059	-0,108
-619,605	-200,000	0,037	-0,148
-618,590	272,669	-0,068	0,090
-617,576	591,395	-0,067	0,123
-616,561	800,000	-0,030	-0,097
-615,546	39,099	-0,051	0,034
-614,532	-200,000	-0,019	-0,186
-613,517	-200,000	-0,003	-0,092
-612,503	93,323	-0,046	-0,038
-611,488	-200,000	0,019	0,107
-610,474	-72,734	-0,026	-0,007
-609,459	-118,659	-0,040	0,005
-608,444	17,297	-0,130	0,076
-607,430	32,232	-0,115	-0,073
-606,415	-29,633	-0,173	-0,073
-605,401	249,944	-0,033	-0,041
-604,386	-200,000	-0,026	0,149
-603,371	-200,000	-0,004	0,030
-602,357	-87,120	-0,067	-0,015
-601,342	-126,943	-0,154	-0,017
-600,328	800,000	0,019	-0,048
-599,313	-71,450	-0,139	0,038
-598,298	-49,224	-0,060	0,021
-597,284	50,245	0,082	0,057
-596,269	-44,866	-0,056	-0,021
-595,255	-200,000	0,001	0,047
-594,240	800,000	0,022	-0,050
-593,225	-200,000	-0,018	-0,175
-592,211	615,381	0,056	0,104
-591,196	-200,000	0,014	-0,048
-590,182	194,423	0,041	0,046
-589,167	-200,000	0,037	0,162
-588,152	-200,000	0,005	-0,066
-587,138	-200,000	0,001	0,056
-586,123	800,000	0,027	-0,076
-585,109	800,000	-0,044	-0,141
-584,094	36,726	-0,058	-0,038
-583,079	15,944	-0,039	-0,023
-582,065	800,000	0,030	-0,064
-581,050	-200,000	0,013	0,152
-580,036	67,479	0,189	0,143
-579,021	-55,724	0,058	0,019
-578,006	31,834	-0,100	-0,063
-576,992	-102,591	0,242	0,042
-575,977	-60,866	0,047	0,015
-574,963	-54,691	-0,075	0,025
-573,948	-200,000	-0,039	0,145
-572,934	-78,018	0,089	-0,023
-571,919	-200,000	-0,039	0,133
-570,904	-66,882	0,146	0,042
-569,890	800,000	-0,025	0,066
-568,875	31,353	0,078	0,049
-567,861	800,000	0,036	0,117
-566,846	212,683	0,040	-0,047
-565,831	-195,807	-0,157	-0,001
-564,817	140,129	0,052	-0,051
-563,802	255,434	-0,025	-0,032
-562,788	-128,941	-0,028	0,003
-561,773	609,384	-0,015	-0,027
-560,758	25,990	0,040	0,025
-559,744	-200,000	-0,003	0,036
-558,729	800,000	0,035	-0,090
-557,715	-114,264	-0,136	-0,019
-556,700	-200,000	-0,010	-0,059
-555,685	55,734	0,092	0,066
-554,671	-41,265	0,105	-0,040
-553,656	-30,799	0,048	0,020
-552,642	126,685	0,030	0,028
-551,627	-14,549	-0,044	-0,021
-550,612	109,989	-0,062	0,055
-549,598	-8,321	-0,108	0,054
-548,583	800,000	0,020	-0,063
-547,569	-142,506	-0,031	-0,002
-546,554	263,967	-0,053	0,068
-545,539	-137,017	0,166	-0,014
-544,525	9,616	0,116	0,065
-543,510	-100,228	-0,176	-0,032
-542,496	-35,343	-0,113	-0,045
-541,481	31,172	0,048	-0,030
-540,466	800,000	-0,008	0,018
-539,452	800,000	0,006	-0,020
-538,437	-200,000	0,016	0,073
-537,423	66,763	-0,104	0,078
-536,408	-101,504	0,056	-0,010
-535,393	18,747	-0,083	-0,049
-534,379	-150,895	-0,128	0,007
-533,364	331,325	0,009	0,013
-532,350	-70,734	0,060	-0,017
-531,335	-66,621	-0,103	-0,030
-530,321	-155,034	0,033	0,002
-529,306	-45,061	-0,070	0,026
-528,291	361,977	-0,028	-0,042
-527,277	-9,366	-0,073	0,036
-526,262	-159,425	0,031	-0,001
-525,248	45,114	0,079	0,054
-524,233	332,498	-0,077	0,110
-523,218	800,000	-0,045	0,146
-522,204	-89,736	-0,129	0,028
-521,189	-200,000	-0,023	0,138
-520,175	122,762	-0,018	-0,017
-519,160	-63,116	0,127	0,039
-518,145	-4,822	-0,028	-0,014
-517,131	-77,830	0,099	0,025
-516,116	73,742	0,104	0,080
-515,102	-200,000	0,006	-0,071
-514,087	-200,000	0,004	0,037
-513,072	206,423	0,037	-0,043
-512,058	584,799	-0,043	-0,078
-511,043	321,442	-0,059	-0,084
-510,029	-11,295	0,053	0,026
-509,014	-49,519	0,105	-0,037
-507,999	37,673	0,102	0,067
-506,985	8,294	0,013	0,007
-505,970	6,820	0,120	-0,066
-504,956	-200,000	-0,024	-0,227
-503,941	-60,816	-0,091	0,028
-502,926	627,989	-0,015	-0,028
-501,912	-21,194	0,038	-0,017
-500,897	91,648	0,028	-0,023
-499,883	-119,708	-0,118	0,015
-498,868	800,000	-0,041	-0,097
-497,853	40,519	0,060	-0,040
-496,839	-30,056	-0,152	-0,064
-495,824	-200,000	-0,010	0,091
-494,810	-200,000	-0,014	0,176
-493,795	-43,669	0,083	-0,031
-492,781	800,000	0,021	0,060
-491,766	-0,481	-0,112	0,058
-490,751	-66,784	0,180	0,052
-489,737	-4,290	0,086	-0,044
-488,722	-142,831	-0,092	0,007
-487,708	7,456	0,036	-0,020
-486,693	-76,617	-0,069	-0,018
-485,678	276,110	0,050	0,065
-484,664	57,872	0,018	-0,013
-483,649	223,928	0,018	-0,022
-482,635	800,000	0,030	-0,093
-481,620	-50,640	0,050	-0,017
-480,605	-200,000	0,004	0,116
-479,591	-200,000	0,011	0,070
-478,576	-200,000	0,000	-0,114
-477,562	-84,304	0,025	0,006
-476,547	-74,605	-0,175	0,046
-475,532	301,645	-0,041	0,056
-474,518	-4,639	0,072	0,037
-473,503	585,684	-0,048	0,087
-472,489	-125,559	0,099	-0,011
-471,474	43,432	-0,036	-0,024
-470,459	-200,000	0,006	-0,138
-469,445	131,082	-0,106	-0,100
-468,430	-200,000	-0,016	0,100
-467,416	-200,000	0,030	0,223
-466,401	126,671	0,129	0,121
-465,386	-8,036	-0,076	0,038
-464,372	-22,063	0,090	-0,040
-463,357	-23,087	-0,042	-0,019
-462,343	118,728	0,021	0,019
-461,328	800,000	-0,063	0,150
-460,313	162,384	0,048	-0,050
-459,299	71,037	0,100	0,076
-458,284	422,034	0,142	0,225
-457,270	-200,000	-0,011	0,073
-456,255	380,147	0,084	-0,127
-455,241	177,377	-0,026	-0,028
-454,226	-61,520	-0,078	0,024
-453,211	321,096	-0,151	-0,213
-452,197	1,338	0,173	-0,091
-451,182	131,952	0,079	0,075
-450,168	290,283	-0,083	-0,111
-449,153	-200,000	0,009	-0,034
-448,138	-200,000	0,007	0,038
-447,124	-3,781	-0,140	-0,071
-446,109	-200,000	0,008	-0,029
-445,095	534,023	0,038	-0,067
-444,080	-60,137	0,199	0,062
-443,065	-156,938	0,045	-0,002
-442,051	-20,118	-0,087	0,039
-441,036	-26,611	-0,093	-0,040
-440,022	-200,000	-0,016	0,100
-439,007	325,828	-0,064	0,090
-437,992	-9,180	-0,094	0,046
-436,978	-200,000	0,006	-0,032
-435,963	58,131	-0,104	0,075
-434,949	-9,524	-0,101	0,049
-433,934	-137,525	0,063	-0,005
-432,919	397,278	-0,028	-0,044
-431,905	23,582	0,043	-0,026
-430,890	-30,524	0,011	-0,004
-429,876	-86,284	0,166	0,037
-428,861	-102,303	-0,166	0,029
-427,846	375,729	-0,083	-0,125
-426,832	-41,575	0,073	-0,028
-425,817	182,393	-0,133	0,144
-424,803	9,098	0,084	-0,046
-423,788	418,019	-0,029	0,046
-422,773	800,000	-0,028	0,080
-421,759	259,248	-0,031	-0,039
-420,744	3,912	-0,111	-0,060
-419,730	169,498	0,139	-0,146
-418,715	-80,899	0,056	0,014
-417,701	800,000	0,023	-0,053
-416,686	58,990	0,069	0,050
-415,671	43,186	0,146	-0,098
-414,657	-45,500	0,033	-0,012
-413,642	-200,000	0,015	0,104
-412,628	-200,000	-0,028	-0,182
-411,613	-99,215	-0,082	-0,015
-410,598	259,784	-0,035	0,044
-409,584	-200,000	0,024	0,107
-408,569	-54,517	0,067	-0,022
-407,555	800,000	-0,045	0,133
-406,540	192,409	-0,063	0,070
-405,525	-200,000	0,018	-0,073
-404,511	129,778	-0,052	-0,049
-403,496	99,075	0,071	-0,061
-402,482	-200,000	-0,010	-0,073
-401,467	148,000	-0,113	-0,112
-400,452	19,136	-0,154	0,091
-399,438	-112,505	0,076	0,011
-398,423	-200,000	-0,010	-0,044
-397,409	-169,553	-0,080	-0,002
-396,394	800,000	0,004	0,009
-395,379	10,879	-0,126	-0,070
-394,365	629,111	-0,026	0,049
-393,350	-5,239	-0,056	-0,028
-392,336	-200,000	0,036	0,123
-391,321	325,060	0,026	-0,036
-390,306	73,376	0,085	-0,065
-389,292	-94,232	-0,131	-0,026
-388,277	-10,148	0,182	-0,089
-387,263	-19,102	0,065	-0,030
-386,248	8,011	0,088	0,048
-385,233	320,590	-0,058	0,081
-384,219	582,533	-0,013	0,023
-383,204	-200,000	0,013	-0,182
-382,190	-200,000	0,008	0,076
-381,175	-200,000	-0,016	-0,076
-380,160	-104,189	-0,040	-0,007
-379,146	-123,265	0,127	0,015
-378,131	-104,587	-0,102	0,017
-377,117	-79,175	0,085	0,021
-376,102	-200,000	0,011	-0,147
-375,088	-70,750	0,079	0,022
-374,073	2,437	0,052	0,027
-373,058	278,045	0,095	0,125
-372,044	14,036	0,004	0,002
-371,029	800,000	0,017	0,038
-370,015	-135,353	0,086	0,007
-369,000	-200,000	-0,031	-0,158
-367,985	160,818	-0,018	-0,018
-366,971	-39,445	-0,109	-0,042
-365,956	63,097	0,082	0,060
-364,942	175,897	-0,035	0,037
-363,927	212,238	-0,047	-0,054
-362,912	32,826	0,049	0,031
-361,898	-200,000	0,012	-0,185
-360,883	226,069	-0,067	-0,080
-359,869	-123,439	-0,049	-0,006
-358,854	800,000	0,030	0,067
-357,839	95,725	-0,100	0,084
-356,825	-200,000	0,003	0,099
-355,810	-164,952	0,056	-0,002
-354,796	0,387	-0,069	0,036
-353,781	-106,385	-0,110	-0,018
-352,766	-13,260	-0,075	0,036
-351,752	513,629	-0,080	0,137
-350,737	709,923	-0,017	-0,032
-349,723	-200,000	-0,014	0,097
-348,708	-41,209	0,060	-0,023
-347,693	-200,000	-0,015	-0,103
-346,679	549,572	-0,047	0,083
-345,664	18,312	0,075	0,044
-344,650	-200,000	-0,028	-0,146
-343,635	18,952	0,043	-0,025
-342,620	75,076	0,098	-0,076
-341,606	800,000	-0,031	-0,080
-340,591	683,961	-0,027	0,053
-339,577	-200,000	-0,003	-0,069
-338,562	386,634	-0,010	-0,016
-337,548	800,000	-0,010	-0,025
-336,533	107,354	0,096	0,084
-335,518	-13,787	0,049	-0,023
-334,504	64,564	0,029	0,021
-333,489	46,461	0,018	-0,012
-332,475	7,962	-0,063	-0,035
-331,460	-114,669	0,032	-0,004
-330,445	25,336	0,050	-0,031
-329,431	-26,836	0,119	0,051
-328,416	-107,326	0,091	0,015
-327,402	-48,346	-0,014	0,005
-326,387	-200,000	0,026	0,128
-325,372	-146,788	-0,056	-0,004
-324,358	-200,000	0,017	-0,119
-323,343	94,195	-0,145	-0,121
-322,329	125,082	-0,134	-0,124
-321,314	-110,758	0,055	-0,008
-320,299	-42,989	-0,078	-0,029
-319,285	158,284	0,041	-0,042
-318,270	-157,936	0,111	0,005
-317,256	-175,563	0,024	0,000
-316,241	-200,000	0,035	-0,121
-315,226	-111,660	-0,041	0,006
-314,212	190,648	0,030	0,033
-313,197	63,327	-0,024	0,018
-312,183	-114,064	-0,070	0,010
-311,168	-200,000	0,011	-0,078
-310,153	-200,000	0,028	0,146
-309,139	289,407	-0,010	-0,013
-308,124	133,268	-0,059	-0,056
-307,110	-119,798	0,127	0,016
-306,095	-119,913	0,148	-0,018
-305,080	154,455	0,026	0,026
-304,066	-200,000	-0,024	0,124
-303,051	-200,000	-0,010	-0,054
-302,037	-200,000	0,037	-0,142
-301,022	-200,000	-0,020	0,067
-300,008	-200,000	0,005	0,076
-298,993	38,326	0,056	-0,036
-297,978	-1,051	0,036	0,019
-296,964	795,986	-0,047	-0,094
-295,949	-84,773	0,093	-0,021
-294,935	800,000	-0,038	-0,080
-293,920	248,951	-0,055	0,069
-292,905	-200,000	0,015	0,059
-291,891	40,434	0,079	0,052
-290,876	3,939	0,073	-0,039
-289,862	192,283	0,036	-0,040
-288,847	-57,892	-0,022	-0,007
-287,832	800,000	-0,039	-0,099
-286,818	-190,279	0,036	-0,000
-285,803	-200,000	-0,023	0,088
-284,789	-200,000	0,021	-0,095
-283,774	800,000	-0,032	0,068
-282,759	-200,000	-0,001	0,011
-281,745	-2,636	-0,106	-0,054
-280,730	222,084	-0,076	-0,090
-279,716	230,945	0,057	-0,069
-278,701	-24,246	0,132	0,057
-277,686	-24,988	-0,047	0,020
-276,672	-200,000	-0,024	-0,092
-275,657	-43,764	0,078	0,029
-274,643	-79,084	-0,066	-0,016
-273,628	-140,781	0,089	-0,007
-272,613	-110,612	0,049	0,007
-271,599	-200,000	-0,014	-0,092
-270,584	-80,037	-0,088	-0,022
-269,570	28,232	0,110	0,068
-268,555	128,528	0,073	0,068
-267,540	276,029	0,068	0,089
-266,526	34,915	0,081	0,052
-265,511	-200,000	-0,027	-0,106
-264,497	108,538	-0,045	0,039
-263,482	127,583	-0,067	-0,062
-262,467	-4,718	0,096	-0,049
-261,453	-200,000	0,016	0,074
-260,438	362,028	0,049	0,072
-259,424	-125,956	-0,160	-0,017
-258,409	-119,043	0,156	0,020
-257,395	-64,253	-0,089	0,026
-256,380	800,000	0,052	0,152
-255,365	187,595	0,032	0,035
-254,351	507,462	-0,068	-0,117
-253,336	393,458	0,012	0,018
-252,322	-122,443	0,112	-0,013
-251,307	69,566	0,088	0,066
-250,292	-44,485	0,031	-0,011
-249,278	-74,350	0,060	0,016
-248,263	-200,000	-0,014	0,110
-247,249	-93,487	-0,097	0,019
-246,234	-200,000	0,009	-0,046
-245,219	520,473	0,037	-0,063
-244,205	-123,430	-0,037	-0,004
-243,190	800,000	-0,029	-0,089
-242,176	-37,930	0,115	0,045
-241,161	19,195	-0,032	-0,019
-240,146	-200,000	0,016	-0,068
-239,132	237,276	0,084	-0,101
-238,117	-127,643	-0,048	-0,005
-237,103	17,902	-0,032	-0,019
-236,088	-10,038	0,103	-0,050
-235,073	-38,630	0,129	-0,050
-234,059	-200,000	-0,021	-0,144
-233,044	529,304	0,028	-0,048
-232,030	54,403	-0,095	-0,067
-231,015	-200,000	0,034	-0,136
-230,000	293,176	-0,058	-0,078
-228,986	34,242	0,052	0,033
-227,971	3,237	0,052	0,028
-226,957	143,688	0,085	0,083
-225,942	-200,000	-0,005	0,035
-224,927	75,532	-0,081	0,063
-223,913	-15,469	0,149	0,069
-222,898	31,239	-0,191	-0,120
-221,884	3,906	-0,082	-0,044
-220,869	800,000	0,040	0,125
-219,855	156,058	0,036	0,036
-218,840	-65,229	-0,035	0,010
-217,825	413,333	0,021	-0,033
-216,811	13,897	-0,078	-0,044
-215,796	-200,000	0,016	-0,080
-214,782	800,000	0,023	0,047
-213,767	128,230	-0,037	0,034
-212,752	113,782	0,056	-0,050
-211,738	-200,000	0,004	-0,035
-210,723	-80,521	0,012	0,003
-209,709	-66,200	-0,186	-0,054
-208,694	634,151	-0,038	0,071
-207,679	-57,015	-0,123	0,039
-206,665	549,992	0,028	0,050
-205,650	478,637	-0,022	-0,036
-204,636	-124,992	0,074	0,008
-203,621	204,821	-0,048	-0,054
-202,606	800,000	0,041	0,115
-201,592	710,224	-0,029	0,056
-200,577	-200,000	0,005	-0,147
-199,563	13,269	0,057	0,032
-198,548	167,933	0,035	0,036
-197,533	401,818	-0,062	0,096
-196,519	467,536	-0,030	0,049
-195,504	31,841	-0,045	0,028
-194,490	-33,303	-0,210	-0,084
-193,475	-200,000	0,027	-0,096
-192,460	243,016	0,066	-0,080
-191,446	-49,721	0,143	-0,049
-190,431	-200,000	0,013	0,129
-189,417	-200,000	0,030	0,103
-188,402	-200,000	0,019	-0,103
-187,387	-87,230	0,048	0,011
-186,373	162,329	-0,080	-0,082
-185,358	12,080	-0,021	0,012
-184,344	-200,000	0,023	0,103
-183,329	67,839	-0,136	-0,101
-182,315	435,651	0,035	0,056
-181,300	-200,000	-0,003	0,049
-180,285	31,141	0,066	-0,041
-179,271	-200,000	-0,002	-0,043
-178,256	-200,000	0,012	0,051
-177,242	82,706	-0,066	0,052
-176,227	-9,475	0,099	0,048
-175,212	65,357	0,059	-0,043
-174,198	463,339	-0,043	0,070
-173,183	306,524	-0,126	-0,172
-172,169	-200,000	0,011	-0,063
-171,154	-127,039	0,045	-0,005
-170,139	300,695	-0,017	-0,024
-169,125	-85,645	-0,115	-0,026
-168,110	182,327	0,082	0,088
-167,096	136,104	0,116	0,110
-166,081	-136,398	0,076	0,006
-165,066	9,036	-0,117	0,064
-164,052	559,030	0,018	0,032
-163,037	800,000	-0,023	0,074
-162,023	-200,000	0,009	0,172
-161,008	399,439	0,037	-0,057
-159,993	-156,018	0,039	-0,002
-158,979	800,000	-0,012	0,026
-157,964	800,000	0,023	-0,058
-156,950	-123,080	0,061	-0,007
-155,935	-200,000	-0,023	0,106
-154,920	24,331	0,022	0,013
-153,906	-57,968	0,026	-0,008
-152,891	-200,000	0,005	-0,127
-151,877	-200,000	-0,004	-0,037
-150,862	558,386	-0,031	-0,054
-149,847	686,751	0,023	-0,044
-148,833	-200,000	-0,006	-0,136
-147,818	-18,962	0,065	-0,030
-146,804	800,000	0,041	0,099
-145,789	-50,169	0,059	0,020
-144,775	352,655	0,022	-0,032
-143,760	511,928	-0,049	0,083
-142,745	42,084	-0,094	-0,062
-141,731	-36,026	-0,029	0,012
-140,716	147,781	-0,004	-0,004
-139,702	190,952	0,100	-0,110
-138,687	-200,000	0,058	0,195
-137,672	800,000	0,013	-0,032
-136,658	-200,000	0,008	-0,034
-135,643	-200,000	0,034	-0,111
-134,629	800,000	0,056	-0,116
-133,614	34,780	0,029	-0,019
-132,599	-200,000	-0,002	-0,113
-131,585	800,000	0,041	0,120
-130,570	380,005	-0,032	0,048
-129,556	58,084	-0,080	-0,057
-128,541	375,115	-0,085	0,126
-127,526	800,000	0,008	-0,023
-126,512	387,293	0,057	0,086
-125,497	-16,245	0,124	0,057
-124,483	134,412	-0,079	0,074
-123,468	-137,570	0,124	0,010
-122,453	-44,690	-0,092	-0,033
-121,439	621,816	-0,015	-0,028
-120,424	738,559	-0,067	-0,131
-119,410	475,474	-0,013	-0,022
-118,395	-19,262	-0,054	-0,024
