DTS Sentinel unit serial number:	SN410029Multiplexer serial number:	ORYXHardware model number:	OX2-SRSoftware version number:	ORYX F/W v4,00 Oryx Data Collector v3.7.2.0data status	okinstallation	B6 Nyhavnadifferential loss correction	single-endedforward channel	channel 2reverse channel	N/Adate	2023/12/08time	08:15:08forward acquisition time	300,00reverse acquisition time	0,00gamma	499,1914k internal	0,3180k external	0,3180temperature offset calibration	1,0000default loss term (dB/km)	0,3820temperature slope calibration	1,0000multiplexer offset coefficient	1,0000multiplexer slope coefficient	1,0000fibre end	0,00T internal ref (°C)	11,01T ext. ref 1 (°C)	-2,49T ext. ref 2 (°C)	-2,47length (m)	temperature (°C)	Stokes	anti-Stokes-744,400	-39,543	0,165	0,063
-743,385	-16,521	-0,337	-0,156
-742,371	800,000	0,115	0,296
-741,356	-59,884	-0,295	-0,092
-740,342	16,785	0,137	0,079
-739,327	-153,263	-0,430	-0,022
-738,312	233,862	0,091	0,110
-737,298	1,265	-0,380	-0,199
-736,283	-200,000	0,026	0,162
-735,269	-69,412	-0,325	0,091
-734,254	-112,692	0,190	0,027
-733,239	-80,767	-0,522	-0,126
-732,225	-75,656	0,246	-0,063
-731,210	334,896	0,057	-0,080
-730,196	242,723	-0,056	0,068
-729,181	-104,501	-0,088	0,015
-728,167	518,514	-0,081	0,139
-727,152	68,142	0,041	-0,030
-726,137	-50,603	0,066	0,022
-725,123	-200,000	0,010	0,070
-724,108	-115,143	-0,134	-0,018
-723,094	-69,528	-0,154	-0,043
-722,079	86,198	0,104	0,084
-721,064	-102,157	0,079	0,014
-720,050	-200,000	-0,005	-0,056
-719,035	-40,589	-0,052	0,020
-718,021	800,000	-0,023	0,048
-717,006	-200,000	0,020	-0,071
-715,991	-200,000	-0,028	-0,090
-714,977	-200,000	0,016	-0,118
-713,962	800,000	0,010	-0,022
-712,948	-58,011	-0,090	0,029
-711,933	114,677	0,057	0,051
-710,918	-143,576	-0,166	-0,011
-709,904	137,951	-0,054	-0,052
-708,889	60,780	-0,058	0,042
-707,875	-104,300	-0,083	-0,014
-706,860	1,762	0,091	0,048
-705,845	-46,459	0,124	0,044
-704,831	-200,000	-0,001	0,023
-703,816	375,374	0,057	0,085
-702,802	-21,246	0,028	0,012
-701,787	208,756	-0,043	-0,050
-700,772	41,966	-0,141	0,093
-699,758	48,201	0,026	-0,018
-698,743	800,000	-0,120	0,246
-697,729	-200,000	0,028	0,183
-696,714	800,000	0,041	0,088
-695,699	386,386	0,010	0,015
-694,685	-59,735	-0,154	-0,048
-693,670	-88,018	-0,072	-0,016
-692,656	224,656	0,068	-0,081
-691,641	-200,000	0,011	0,068
-690,627	725,391	0,009	0,018
-689,612	156,821	-0,085	0,086
-688,597	-200,000	-0,022	0,082
-687,583	13,972	-0,085	-0,048
-686,568	-2,079	0,058	-0,030
-685,554	-200,000	-0,012	0,090
-684,539	275,344	-0,117	0,152
-683,524	-11,792	0,190	0,091
-682,510	800,000	-0,036	0,085
-681,495	219,439	-0,157	-0,184
-680,481	-51,798	-0,139	0,047
-679,466	800,000	-0,055	-0,149
-678,451	-115,151	-0,067	-0,009
-677,437	18,430	0,052	0,030
-676,422	305,003	0,090	-0,122
-675,408	-52,334	-0,098	0,033
-674,393	595,619	0,090	0,164
-673,378	69,098	0,083	0,062
-672,364	-1,674	-0,115	0,059
-671,349	789,459	-0,041	0,083
-670,335	-95,809	-0,110	0,021
-669,320	21,480	0,097	-0,057
-668,305	-114,450	-0,058	0,008
-667,291	-23,468	-0,071	-0,031
-666,276	800,000	-0,015	-0,032
-665,262	-156,584	0,071	0,003
-664,247	800,000	-0,010	-0,026
-663,232	-200,000	-0,011	0,137
-662,218	-134,002	0,055	0,005
-661,203	25,914	0,078	0,047
-660,189	-92,356	-0,142	-0,029
-659,174	10,960	0,032	-0,018
-658,159	36,242	-0,114	-0,073
-657,145	622,057	-0,012	-0,023
-656,130	-22,896	-0,122	0,053
-655,116	227,200	-0,083	0,099
-654,101	173,597	-0,099	-0,105
-653,086	-47,348	-0,133	0,047
-652,072	702,921	-0,047	0,091
-651,057	800,000	0,050	-0,111
-650,043	143,967	-0,087	-0,085
-649,028	402,155	-0,072	-0,111
-648,014	-164,057	-0,180	-0,006
-646,999	-11,516	-0,015	-0,007
-645,984	134,541	-0,049	0,046
-644,970	-200,000	0,043	-0,149
-643,955	800,000	0,053	-0,113
-642,941	528,428	-0,067	0,116
-641,926	1,861	-0,066	-0,035
-640,911	211,916	0,005	0,006
-639,897	-200,000	0,020	-0,069
-638,882	-32,902	-0,142	0,057
-637,868	-200,000	0,003	0,083
-636,853	205,572	0,107	-0,121
-635,838	-32,951	0,067	-0,027
-634,824	800,000	-0,030	-0,090
-633,809	-153,818	0,049	-0,002
-632,795	13,985	0,099	0,056
-631,780	41,106	-0,094	0,062
-630,765	800,000	0,020	-0,049
-629,751	-200,000	0,005	-0,064
-628,736	-67,348	-0,135	0,038
-627,722	34,382	0,161	-0,102
-626,707	800,000	0,050	0,147
-625,692	522,769	0,041	-0,070
-624,678	800,000	0,008	0,022
-623,663	471,486	-0,063	-0,103
-622,649	91,590	-0,050	-0,041
-621,634	-99,157	-0,102	-0,019
-620,619	-200,000	0,011	-0,104
-619,605	58,370	0,058	-0,042
-618,590	40,320	0,048	-0,032
-617,576	33,276	0,021	-0,013
-616,561	-86,086	-0,073	-0,016
-615,546	3,114	-0,046	-0,024
-614,532	-200,000	0,006	-0,022
-613,517	17,614	-0,083	0,048
-612,503	-200,000	-0,027	0,171
-611,488	24,961	0,062	-0,037
-610,474	144,784	-0,131	-0,128
-609,459	-175,840	0,112	0,002
-608,444	-200,000	-0,005	-0,093
-607,430	-200,000	-0,004	-0,103
-606,415	-200,000	0,047	-0,199
-605,401	271,561	0,041	0,053
-604,386	731,372	0,042	0,082
-603,371	528,472	0,055	-0,095
-602,357	103,941	0,066	0,057
-601,342	-89,845	-0,105	0,022
-600,328	-200,000	0,002	-0,087
-599,313	262,861	0,060	0,076
-598,298	137,011	-0,049	0,047
-597,284	154,358	-0,055	0,055
-596,269	-80,833	0,096	0,023
-595,255	-200,000	0,019	-0,160
-594,240	18,402	-0,085	0,049
-593,225	531,810	-0,057	-0,099
-592,211	-69,633	-0,057	0,016
-591,196	-17,046	0,053	0,024
-590,182	-200,000	0,043	0,159
-589,167	-200,000	-0,011	0,041
-588,152	727,622	-0,078	0,152
-587,138	-3,865	-0,077	-0,039
-586,123	325,279	-0,136	-0,189
-585,109	-200,000	0,007	0,047
-584,094	-200,000	-0,022	0,116
-583,079	490,375	-0,024	-0,041
-582,065	-200,000	0,028	0,165
-581,050	277,797	0,084	0,109
-580,036	800,000	-0,038	0,118
-579,021	-189,118	-0,144	-0,001
-578,006	63,590	-0,075	-0,055
-576,992	-123,563	-0,097	-0,011
-575,977	-200,000	0,024	0,116
-574,963	260,426	0,019	0,024
-573,948	-5,401	-0,141	-0,070
-572,934	800,000	0,031	0,070
-571,919	800,000	-0,010	-0,031
-570,904	-105,954	-0,113	-0,018
-569,890	692,846	0,112	-0,214
-568,875	288,819	0,044	0,059
-567,861	-47,521	-0,054	0,019
-566,846	77,331	0,205	0,159
-565,831	-56,541	-0,053	0,017
-564,817	239,159	-0,043	0,052
-563,802	21,823	-0,140	-0,082
-562,788	-77,362	0,031	0,008
-561,773	-12,235	0,089	0,042
-560,758	800,000	-0,033	-0,084
-559,744	-4,357	-0,074	0,037
-558,729	-47,274	-0,077	-0,027
-557,715	641,684	-0,025	-0,046
-556,700	92,901	-0,063	-0,052
-555,685	139,146	-0,100	-0,096
-554,671	-130,604	0,169	0,016
-553,656	-102,354	0,107	-0,018
-552,642	159,203	0,125	-0,126
-551,627	410,387	-0,053	-0,081
-550,612	-200,000	0,012	-0,101
-549,598	541,131	0,050	-0,087
-548,583	98,563	0,143	-0,120
-547,569	-102,567	-0,082	0,014
-546,554	800,000	0,007	0,018
-545,539	32,707	-0,134	0,084
-544,525	-11,856	-0,039	-0,019
-543,510	-2,081	0,129	-0,066
-542,496	-200,000	-0,024	-0,175
-541,481	245,972	0,023	0,028
-540,466	800,000	0,018	-0,039
-539,452	-200,000	-0,009	-0,096
-538,437	-200,000	0,008	-0,028
-537,423	408,550	0,044	-0,068
-536,408	-174,856	-0,045	-0,001
-535,393	-200,000	-0,020	0,000
-534,379	773,843	-0,010	0,019
-533,364	2,952	-0,107	-0,056
-532,350	-35,730	0,156	0,061
-531,335	-99,190	-0,130	0,024
-530,321	-114,959	0,078	-0,011
-529,306	676,929	-0,038	-0,072
-528,291	-6,883	-0,100	-0,049
-527,277	330,098	-0,069	0,097
-526,262	-12,264	-0,201	0,095
-525,248	635,275	0,044	-0,081
-524,233	-148,778	0,134	0,008
-523,218	-66,740	0,107	-0,030
-522,204	-169,567	-0,201	-0,005
-521,189	534,473	-0,021	-0,035
-520,175	-8,053	-0,109	0,053
-519,160	181,953	-0,033	0,035
-518,145	470,968	-0,079	-0,129
-517,131	292,936	-0,064	0,085
-516,116	800,000	-0,050	0,155
-515,102	-72,970	-0,037	-0,010
-514,087	187,530	0,079	0,086
-513,072	-136,040	-0,052	0,004
-512,058	213,740	0,068	0,079
-511,043	109,985	-0,045	0,039
-510,029	291,392	0,067	-0,088
-509,014	-56,682	0,096	0,031
-507,999	168,386	-0,119	-0,123
-506,985	18,082	-0,074	0,043
-505,970	295,039	-0,042	-0,056
-504,956	6,187	-0,094	-0,050
-503,941	1,750	0,147	-0,077
-502,926	271,233	0,060	0,077
-501,912	-115,415	0,149	0,020
-500,897	-94,525	0,102	0,020
-499,883	34,056	0,044	0,028
-498,868	429,281	-0,022	-0,035
-497,853	10,356	-0,053	-0,029
-496,839	-10,120	0,066	-0,031
-495,824	546,361	-0,053	-0,092
-494,810	-200,000	0,013	0,152
-493,795	800,000	0,020	0,045
-492,781	-161,053	0,045	-0,002
-491,766	243,340	0,064	0,078
-490,751	800,000	-0,052	0,118
-489,737	-38,459	0,090	-0,034
-488,722	-11,524	-0,040	0,019
-487,708	-200,000	-0,006	0,114
-486,693	81,547	0,040	-0,031
-485,678	35,902	0,027	0,017
-484,664	-200,000	0,000	-0,018
-483,649	67,537	0,089	-0,066
-482,635	108,913	0,046	0,039
-481,620	143,613	-0,025	0,025
-480,605	-104,968	0,078	0,013
-479,591	92,443	0,023	0,019
-478,576	-200,000	0,008	0,037
-477,562	-48,322	-0,067	-0,023
-476,547	-200,000	-0,023	-0,097
-475,532	-200,000	0,003	0,024
-474,518	578,108	0,008	-0,014
-473,503	-200,000	0,013	-0,058
-472,489	-194,212	0,063	0,000
-471,474	136,111	0,106	0,100
-470,459	800,000	0,034	0,087
-469,445	488,306	-0,021	0,035
-468,430	30,559	-0,103	0,063
-467,416	-71,926	0,046	-0,012
-466,401	-58,451	0,086	0,027
-465,386	403,490	-0,021	0,032
-464,372	800,000	0,028	0,062
-463,357	-200,000	0,007	-0,075
-462,343	-54,207	-0,013	-0,004
-461,328	111,659	-0,039	-0,034
-460,313	-72,728	0,041	-0,011
-459,299	-200,000	0,056	0,200
-458,284	3,492	-0,058	-0,031
-457,270	-150,276	-0,184	0,010
-456,255	399,606	-0,018	-0,028
-455,241	-147,277	-0,196	0,012
-454,226	-69,245	0,207	-0,057
-453,211	-83,438	-0,062	-0,014
-452,197	-52,482	0,181	-0,060
-451,182	800,000	0,040	-0,104
-450,168	368,033	0,042	0,061
-449,153	-9,679	0,063	0,030
-448,138	800,000	0,030	-0,093
-447,124	-200,000	-0,002	0,023
-446,109	272,524	0,067	0,086
-445,095	3,087	0,052	-0,027
-444,080	22,277	0,043	0,025
-443,065	626,735	0,033	-0,061
-442,051	800,000	0,024	0,058
-441,036	-200,000	-0,002	-0,074
-440,022	186,452	0,047	-0,050
-439,007	800,000	-0,045	0,091
-437,992	-143,854	-0,080	-0,005
-436,978	444,492	0,087	0,139
-435,963	800,000	0,041	0,090
-434,949	-200,000	0,003	0,105
-433,934	800,000	0,051	-0,160
-432,919	650,427	0,016	-0,030
-431,905	-200,000	0,002	0,136
-430,890	-41,813	0,117	-0,043
-429,876	622,088	0,028	0,052
-428,861	152,266	0,083	0,082
-427,846	-96,362	-0,106	-0,020
-426,832	-143,008	0,039	0,003
-425,817	-28,342	0,049	0,020
-424,803	-54,541	0,063	0,021
-423,788	-157,684	0,053	-0,002
-422,773	-134,955	-0,055	0,005
-421,759	-200,000	0,024	0,105
-420,744	275,519	-0,091	-0,117
-419,730	5,352	-0,050	0,027
-418,715	215,367	0,002	0,002
-417,701	719,896	-0,039	0,076
-416,686	-200,000	0,002	0,087
-415,671	469,547	0,045	0,074
-414,657	83,376	-0,025	0,020
-413,642	-117,018	0,067	0,009
-412,628	-63,713	-0,131	0,038
-411,613	260,156	-0,115	0,144
-410,598	-200,000	-0,004	0,017
-409,584	204,800	0,081	-0,091
-408,569	677,571	-0,029	0,054
-407,555	-17,827	0,042	-0,019
-406,540	-200,000	0,002	-0,021
-405,525	-200,000	-0,010	-0,154
-404,511	-178,998	0,199	-0,003
-403,496	285,370	0,062	-0,081
-402,482	-200,000	-0,017	0,087
-401,467	525,020	-0,020	0,033
-400,452	675,562	0,020	-0,037
-399,438	800,000	-0,039	0,094
-398,423	290,266	0,055	-0,072
-397,409	-200,000	0,045	-0,245
-396,394	295,284	-0,079	0,105
-395,379	790,446	0,059	0,119
-394,365	800,000	0,078	0,165
-393,350	800,000	0,040	0,094
-392,336	-200,000	-0,002	0,116
-391,321	-91,390	0,062	0,013
-390,306	800,000	0,026	0,051
-389,292	577,340	-0,083	0,147
-388,277	800,000	-0,014	-0,043
-387,263	225,596	-0,037	0,043
-386,248	67,737	0,047	-0,035
-385,233	-98,025	-0,124	0,023
-384,219	-163,525	-0,076	0,003
-383,204	192,006	-0,039	-0,042
-382,190	326,897	0,015	-0,021
-381,175	-77,718	0,087	-0,022
-380,160	-15,249	-0,076	0,035
-379,146	-10,000	0,079	0,038
-378,131	85,481	0,043	-0,034
-377,117	263,900	0,082	-0,103
-376,102	-200,000	-0,000	0,089
-375,088	-81,580	-0,057	0,013
-374,073	155,586	0,058	-0,058
-373,058	800,000	0,011	-0,026
-372,044	565,052	-0,014	-0,025
-371,029	-200,000	-0,006	-0,118
-370,015	-69,206	-0,136	0,037
-369,000	235,633	-0,050	-0,060
-367,985	800,000	0,033	-0,105
-366,971	-200,000	0,002	-0,021
-365,956	800,000	-0,036	0,096
-364,942	88,713	0,037	0,029
-363,927	-14,976	-0,142	0,065
-362,912	-200,000	0,003	-0,023
-361,898	-200,000	-0,009	-0,076
-360,883	800,000	-0,075	-0,177
-359,869	800,000	0,030	0,077
-358,854	-26,152	0,037	0,015
-357,839	-4,023	0,021	0,011
-356,825	219,120	0,113	0,130
-355,810	341,534	-0,052	0,073
-354,796	-200,000	-0,005	-0,058
-353,781	-39,512	-0,152	0,057
-352,766	-48,111	0,078	-0,027
-351,752	-200,000	0,022	0,079
-350,737	800,000	-0,016	0,041
-349,723	800,000	0,064	0,155
-348,708	-200,000	0,044	0,181
-347,693	-114,893	-0,051	0,007
-346,679	800,000	-0,020	-0,058
-345,664	-96,724	0,005	-0,001
-344,650	11,352	0,056	0,031
-343,635	-108,908	0,105	-0,016
-342,620	-200,000	-0,003	0,039
-341,606	-200,000	0,005	0,040
-340,591	-84,534	0,097	-0,022
-339,577	21,528	-0,108	-0,063
-338,562	366,264	-0,081	-0,118
-337,548	-174,392	-0,036	0,001
-336,533	17,193	-0,111	0,063
-335,518	34,963	0,159	0,100
-334,504	173,577	-0,019	0,020
-333,489	-128,544	-0,037	-0,004
-332,475	94,092	0,065	0,053
-331,460	211,227	0,050	-0,057
-330,445	-200,000	0,008	-0,073
-329,431	-134,394	-0,060	-0,005
-328,416	71,903	-0,062	0,046
-327,402	64,152	0,063	-0,046
-326,387	-200,000	-0,011	0,057
-325,372	89,211	0,147	-0,118
-324,358	-47,685	-0,048	0,017
-323,343	-169,412	0,158	0,004
-322,329	800,000	-0,021	-0,064
-321,314	-200,000	-0,044	0,182
-320,299	800,000	0,005	0,015
-319,285	-200,000	0,002	0,199
-318,270	-117,638	0,010	-0,001
-317,256	712,714	0,021	0,041
-316,241	13,842	-0,160	0,089
-315,226	33,391	0,124	-0,077
-314,212	-39,227	-0,025	-0,009
-313,197	-13,613	-0,095	0,044
-312,183	-200,000	0,001	0,047
-311,168	465,780	-0,051	-0,082
-310,153	-31,791	0,095	-0,038
-309,139	216,172	-0,061	0,070
-308,124	-93,273	0,102	0,020
-307,110	282,466	-0,078	0,101
-306,095	240,655	0,113	0,136
-305,080	-142,241	0,124	0,009
-304,066	222,402	0,098	-0,114
-303,051	260,795	-0,055	-0,068
-302,037	52,060	0,089	-0,061
-301,022	563,580	0,024	0,041
-300,008	-8,220	-0,034	-0,017
-298,993	270,634	-0,071	0,090
-297,978	-200,000	-0,000	0,042
-296,964	13,468	-0,068	-0,038
-295,949	397,007	-0,076	-0,114
-294,935	46,402	-0,107	-0,071
-293,920	-200,000	0,011	0,062
-292,905	-200,000	-0,014	-0,126
-291,891	479,053	-0,012	0,019
-290,876	184,022	-0,017	-0,018
-289,862	70,680	0,091	-0,067
-288,847	-1,769	0,050	-0,025
-287,832	41,263	-0,114	-0,074
-286,818	409,432	0,021	-0,032
-285,803	-167,785	0,123	-0,003
-284,789	573,134	0,075	0,132
-283,774	800,000	0,047	0,117
-282,759	800,000	-0,040	-0,108
-281,745	-200,000	-0,048	-0,153
-280,730	54,136	0,147	-0,102
-279,716	58,022	-0,068	0,048
-278,701	201,590	-0,125	0,138
-277,686	800,000	0,063	0,199
-276,672	-62,728	0,074	-0,022
-275,657	-153,010	-0,077	0,004
-274,643	-89,904	-0,077	-0,016
-273,628	-197,266	0,058	0,000
-272,613	752,121	-0,099	-0,192
-271,599	-156,159	0,091	-0,004
-270,584	-200,000	-0,008	0,153
-269,570	-101,487	-0,043	-0,007
-268,555	69,122	0,069	0,051
-267,540	115,570	-0,070	-0,061
-266,526	800,000	-0,059	-0,133
-265,511	-200,000	0,031	-0,238
-264,497	-89,940	0,143	-0,030
-263,482	-37,887	0,158	0,060
-262,467	-41,929	0,123	0,045
-261,453	25,388	0,097	0,058
-260,438	800,000	-0,029	0,085
-259,424	800,000	0,034	-0,085
-258,409	378,390	0,053	-0,078
-257,395	95,905	0,054	0,044
-256,380	-200,000	-0,012	0,102
-255,365	800,000	-0,036	-0,092
-254,351	-200,000	-0,007	-0,115
-253,336	-52,147	0,050	-0,017
-252,322	100,558	-0,050	-0,042
-251,307	459,844	0,036	0,057
-250,292	-200,000	0,015	-0,088
-249,278	-200,000	-0,018	0,100
-248,263	-43,976	0,027	0,010
-247,249	-200,000	-0,015	0,091
-246,234	237,763	-0,026	0,031
-245,219	-200,000	-0,020	0,083
-244,205	-200,000	-0,037	-0,123
-243,190	696,296	0,025	0,047
-242,176	8,599	0,039	0,021
-241,161	-75,928	0,083	-0,021
-240,146	800,000	-0,046	0,112
-239,132	800,000	0,017	-0,054
-238,117	-6,309	0,044	0,021
-237,103	162,515	-0,103	-0,104
-236,088	-200,000	0,006	0,046
-235,073	-26,911	0,055	-0,023
-234,059	-83,307	-0,053	-0,012
-233,044	-200,000	0,009	0,046
-232,030	-200,000	-0,018	0,104
-231,015	-56,973	-0,088	0,028
-230,000	211,180	-0,027	0,031
-228,986	-200,000	0,017	-0,068
-227,971	13,981	-0,098	0,055
-226,957	-161,616	0,127	0,005
-225,942	800,000	0,008	-0,025
-224,927	-36,081	-0,071	0,027
-223,913	800,000	-0,035	-0,097
-222,898	-200,000	-0,031	-0,155
-221,884	161,726	0,055	0,055
-220,869	686,833	-0,045	0,085
-219,855	800,000	0,049	-0,110
-218,840	-200,000	-0,026	0,204
-217,825	374,087	-0,080	-0,118
-216,811	-200,000	0,044	-0,151
-215,796	-128,344	-0,078	0,008
-214,782	-71,104	-0,216	-0,058
-213,767	-200,000	0,022	-0,099
-212,752	800,000	-0,068	0,151
-211,738	51,944	-0,068	0,047
-210,723	631,916	0,073	0,133
-209,709	-10,314	0,028	-0,013
-208,694	800,000	-0,012	0,035
-207,679	-200,000	-0,001	-0,178
-206,665	-200,000	-0,037	-0,194
-205,650	-200,000	-0,029	-0,104
-204,636	800,000	0,008	0,020
-203,621	-89,257	-0,124	-0,026
-202,606	-200,000	0,018	0,059
-201,592	-8,238	-0,029	-0,014
-200,577	150,295	-0,081	0,079
-199,563	122,290	0,061	-0,055
-198,548	-200,000	0,006	-0,054
-197,533	-200,000	-0,005	-0,063
-196,519	342,933	0,030	-0,043
-195,504	-51,578	0,041	0,013
-194,490	455,780	-0,018	-0,028
-193,475	-90,593	-0,111	0,023
-192,460	88,858	-0,026	-0,021
-191,446	-144,976	0,021	-0,001
-190,431	199,275	0,013	0,014
-189,417	68,938	0,121	0,089
-188,402	-200,000	0,000	0,059
-187,387	800,000	-0,046	-0,099
-186,373	-200,000	0,040	-0,228
-185,358	64,640	-0,088	0,063
-184,344	800,000	0,007	0,019
-183,329	-200,000	-0,031	-0,098
-182,315	-83,528	0,026	-0,006
-181,300	11,360	0,091	-0,050
-180,285	448,402	-0,082	-0,130
-179,271	-15,852	-0,110	-0,050
-178,256	144,099	-0,080	-0,076
-177,242	-38,383	0,086	0,032
-176,227	-14,600	0,106	0,048
-175,212	-200,000	-0,067	0,260
-174,198	132,836	-0,037	-0,034
-173,183	252,195	-0,101	0,123
-172,169	250,998	-0,034	-0,041
-171,154	112,520	0,021	-0,018
-170,139	-200,000	-0,024	0,078
-169,125	-200,000	0,019	0,075
-168,110	-30,971	-0,071	-0,028
-167,096	109,964	0,043	-0,037
-166,081	-17,248	-0,074	0,033
-165,066	-15,589	0,127	-0,058
-164,052	213,266	0,037	-0,042
-163,037	-112,997	-0,109	0,015
-162,023	92,918	0,035	0,028
-161,008	-200,000	0,019	0,073
-159,993	800,000	-0,033	0,104
-158,979	456,446	0,062	-0,099
-157,964	369,213	0,017	-0,025
-156,950	270,313	-0,032	0,041
-155,935	800,000	-0,032	-0,078
-154,920	28,957	0,085	-0,051
-153,906	-200,000	0,002	0,031
-152,891	-55,367	0,030	0,010
-151,877	12,059	0,044	-0,024
-150,862	290,072	-0,105	-0,136
-149,847	800,000	-0,032	0,072
-148,833	-93,172	-0,058	-0,011
-147,818	800,000	-0,030	0,071
-146,804	35,410	-0,020	-0,012
-145,789	800,000	0,040	0,127
-144,775	-200,000	0,000	-0,013
-143,760	-200,000	0,000	-0,068
-142,745	168,398	-0,097	-0,099
-141,731	-100,422	-0,049	0,009
-140,716	-44,170	-0,076	-0,027
-139,702	-40,970	0,067	-0,025
-138,687	800,000	0,013	-0,038
-137,672	-35,656	-0,135	-0,052
-136,658	-200,000	0,013	0,084
-135,643	70,950	-0,033	0,025
-134,629	72,129	-0,119	-0,089
-133,614	113,292	0,164	-0,142
-132,599	-114,201	0,023	-0,003
-131,585	258,852	-0,084	0,104
-130,570	800,000	-0,022	-0,049
-129,556	-5,610	-0,040	0,019
-128,541	14,316	-0,095	-0,053
-127,526	-45,243	0,086	-0,030
-126,512	548,880	0,043	0,074
-125,497	524,383	-0,010	-0,016
-124,483	14,637	-0,097	-0,054
-123,468	-200,000	0,005	0,153
-122,453	-108,814	-0,070	0,011
-121,439	-200,000	0,019	-0,084
-120,424	-174,042	-0,033	-0,001
-119,410	451,054	0,062	0,099
-118,395	-90,140	0,127	0,026
