DTS Sentinel unit serial number:	SN410029Multiplexer serial number:	ORYXHardware model number:	OX2-SRSoftware version number:	ORYX F/W v4,00 Oryx Data Collector v3.7.2.0data status	okinstallation	B6 Nyhavnadifferential loss correction	single-endedforward channel	channel 2reverse channel	N/Adate	2023/12/09time	07:30:08forward acquisition time	300,00reverse acquisition time	0,00gamma	499,1914k internal	0,3139k external	0,3139temperature offset calibration	1,0000default loss term (dB/km)	0,3820temperature slope calibration	1,0000multiplexer offset coefficient	1,0000multiplexer slope coefficient	1,0000fibre end	0,00T internal ref (°C)	18,56T ext. ref 1 (°C)	1,99T ext. ref 2 (°C)	1,99length (m)	temperature (°C)	Stokes	anti-Stokes-744,400	280,467	-0,039	0,052
-743,385	800,000	-0,069	0,162
-742,371	118,367	0,103	0,095
-741,356	-109,214	-0,203	0,032
-740,342	-46,246	0,140	-0,051
-739,327	84,678	-0,177	0,144
-738,312	148,663	0,069	0,070
-737,298	-114,825	-0,348	0,049
-736,283	-51,733	0,157	0,054
-735,269	-157,976	-0,229	-0,010
-734,254	191,112	-0,087	-0,097
-733,239	-39,750	-0,409	-0,158
-732,225	-168,954	0,163	0,004
-731,210	800,000	-0,035	0,114
-730,196	94,855	0,048	-0,041
-729,181	-104,505	-0,092	0,016
-728,167	318,749	-0,066	0,092
-727,152	-34,405	-0,088	-0,036
-726,137	350,749	-0,081	-0,119
-725,123	-92,151	-0,133	-0,028
-724,108	422,856	-0,067	-0,107
-723,094	-200,000	0,007	-0,064
-722,079	297,716	-0,139	-0,190
-721,064	-200,000	0,010	0,072
-720,050	-200,000	-0,007	0,053
-719,035	417,245	0,018	-0,029
-718,021	76,896	-0,022	-0,017
-717,006	-163,054	-0,138	-0,005
-715,991	-200,000	-0,018	0,101
-714,977	91,102	-0,104	0,086
-713,962	-64,013	0,109	0,033
-712,948	209,124	0,105	-0,122
-711,933	-108,818	-0,055	0,009
-710,918	-125,095	-0,155	0,017
-709,904	-130,805	-0,109	0,011
-708,889	800,000	-0,049	-0,134
-707,875	-200,000	-0,007	-0,079
-706,860	-67,895	0,096	-0,028
-705,845	-200,000	0,001	0,119
-704,831	77,462	0,034	0,027
-703,816	800,000	-0,048	0,139
-702,802	-162,011	-0,138	-0,005
-701,787	800,000	-0,017	-0,052
-700,772	452,186	-0,020	0,033
-699,758	-97,174	-0,100	-0,019
-698,743	406,043	-0,055	-0,086
-697,729	-200,000	-0,012	0,047
-696,714	-200,000	0,010	-0,069
-695,699	36,536	-0,024	0,016
-694,685	-150,886	-0,041	0,002
-693,670	332,261	0,042	-0,060
-692,656	312,372	0,025	-0,035
-691,641	800,000	-0,015	0,034
-690,627	69,833	-0,064	0,049
-689,612	-172,135	-0,032	0,001
-688,597	649,393	-0,040	0,077
-687,583	36,880	-0,094	-0,062
-686,568	416,988	0,031	-0,050
-685,554	63,137	-0,050	0,037
-684,539	436,239	0,029	-0,048
-683,524	-62,159	-0,037	-0,011
-682,510	92,466	0,084	0,070
-681,495	275,379	0,025	-0,033
-680,481	-200,000	0,020	0,067
-679,466	469,488	-0,082	-0,138
-678,451	-182,135	-0,031	-0,000
-677,437	-200,000	0,016	0,166
-676,422	360,731	0,016	0,024
-675,408	24,620	0,015	-0,009
-674,393	67,896	-0,082	0,062
-673,378	712,016	-0,029	-0,056
-672,364	-100,995	-0,106	-0,019
-671,349	-132,240	-0,152	0,014
-670,335	-200,000	-0,004	-0,113
-669,320	-125,238	0,079	-0,009
-668,305	-153,272	0,047	0,002
-667,291	800,000	-0,037	0,078
-666,276	-95,408	-0,149	-0,029
-665,262	-200,000	0,029	-0,114
-664,247	40,315	0,067	-0,045
-663,232	-200,000	-0,023	0,091
-662,218	180,519	-0,178	-0,194
-661,203	-57,129	0,083	-0,027
-660,189	-193,536	-0,034	-0,000
-659,174	200,547	0,089	-0,101
-658,159	215,573	-0,041	0,048
-657,145	-200,000	0,032	-0,133
-656,130	-44,837	0,109	0,040
-655,116	33,225	-0,058	-0,037
-654,101	-13,663	0,065	-0,031
-653,086	-200,000	0,013	-0,162
-652,072	-200,000	-0,009	-0,103
-651,057	177,793	-0,025	0,027
-650,043	800,000	-0,022	-0,058
-649,028	-21,152	-0,098	-0,044
-648,014	51,337	0,094	0,066
-646,999	33,577	-0,074	0,047
-645,984	-23,100	0,125	0,055
-644,970	-114,198	-0,138	-0,020
-643,955	134,778	-0,068	-0,065
-642,941	-128,815	0,078	0,008
-641,926	33,890	0,013	0,009
-640,911	-60,079	0,026	0,008
-639,897	51,550	0,053	0,037
-638,882	-200,000	-0,003	-0,072
-637,868	-200,000	0,006	0,061
-636,853	-200,000	0,040	-0,181
-635,838	190,904	0,030	-0,033
-634,824	91,813	0,050	-0,041
-633,809	-38,823	0,110	0,043
-632,795	-98,819	-0,025	0,005
-631,780	281,213	-0,045	-0,059
-630,765	164,201	-0,071	-0,074
-629,751	126,997	-0,159	-0,149
-628,736	614,473	-0,026	0,049
-627,722	800,000	0,027	0,084
-626,707	456,936	0,020	-0,033
-625,692	-200,000	-0,001	0,006
-624,678	-128,198	-0,018	0,002
-623,663	90,784	-0,073	0,060
-622,649	800,000	-0,035	-0,082
-621,634	-200,000	-0,069	-0,237
-620,619	414,482	-0,067	-0,106
-619,605	800,000	0,009	0,020
-618,590	-200,000	-0,011	0,080
-617,576	21,823	-0,039	-0,023
-616,561	-200,000	-0,012	-0,112
-615,546	481,737	0,061	-0,102
-614,532	-200,000	-0,028	-0,109
-613,517	-67,599	-0,069	-0,020
-612,503	-200,000	0,009	-0,057
-611,488	800,000	0,054	-0,143
-610,474	-102,248	-0,176	0,031
-609,459	8,098	-0,068	-0,037
-608,444	10,850	0,113	-0,063
-607,430	98,053	-0,120	-0,102
-606,415	37,576	-0,088	-0,058
-605,401	62,343	0,126	0,093
-604,386	166,319	-0,024	-0,025
-603,371	-200,000	-0,001	0,076
-602,357	147,048	0,034	0,034
-601,342	800,000	0,033	-0,077
-600,328	-200,000	0,009	0,033
-599,313	-200,000	0,002	0,024
-598,298	25,786	-0,131	0,080
-597,284	-28,270	-0,042	0,018
-596,269	800,000	0,024	0,050
-595,255	-11,112	0,073	-0,035
-594,240	-140,653	0,162	0,012
-593,225	-200,000	0,003	-0,097
-592,211	-87,293	0,072	0,016
-591,196	590,807	-0,042	-0,077
-590,182	94,296	0,050	0,042
-589,167	519,740	0,064	0,112
-588,152	800,000	0,039	-0,114
-587,138	-200,000	0,001	-0,129
-586,123	-71,040	-0,087	-0,024
-585,109	16,749	-0,094	0,055
-584,094	94,266	-0,082	-0,068
-583,079	-152,383	0,145	-0,008
-582,065	800,000	0,055	-0,122
-581,050	-200,000	-0,017	-0,080
-580,036	240,069	0,076	0,093
-579,021	215,512	-0,061	-0,072
-578,006	-82,072	-0,159	-0,038
-576,992	204,789	0,077	0,088
-575,977	800,000	-0,044	-0,124
-574,963	-200,000	-0,034	0,200
-573,948	143,376	0,060	0,059
-572,934	800,000	-0,053	0,162
-571,919	-200,000	-0,010	0,037
-570,904	-200,000	-0,002	-0,089
-569,890	800,000	0,043	-0,130
-568,875	33,517	0,052	0,033
-567,861	290,058	0,040	0,053
-566,846	477,757	-0,048	-0,080
-565,831	622,970	0,050	0,093
-564,817	-200,000	0,002	-0,016
-563,802	-200,000	0,009	-0,078
-562,788	570,115	0,026	-0,047
-561,773	278,636	0,026	-0,035
-560,758	-156,279	0,019	-0,001
-559,744	9,413	-0,119	0,066
-558,729	-200,000	-0,000	0,042
-557,715	-42,906	-0,030	0,011
-556,700	366,298	0,124	-0,185
-555,685	800,000	0,039	-0,104
-554,671	800,000	0,004	0,013
-553,656	113,026	-0,037	-0,033
-552,642	320,826	0,071	0,099
-551,627	38,046	-0,063	0,041
-550,612	72,000	-0,028	-0,022
-549,598	181,577	-0,081	0,088
-548,583	-200,000	0,019	-0,135
-547,569	-96,544	0,076	0,015
-546,554	-167,456	0,064	0,002
-545,539	-22,765	0,048	-0,021
-544,525	58,717	0,116	-0,084
-543,510	-40,510	0,041	-0,016
-542,496	59,371	0,090	-0,065
-541,481	211,236	0,074	-0,086
-540,466	-200,000	-0,003	-0,009
-539,452	479,278	0,078	0,130
-538,437	-94,072	-0,040	0,008
-537,423	100,830	0,050	0,043
-536,408	583,406	0,056	-0,102
-535,393	198,100	-0,109	-0,123
-534,379	-200,000	-0,016	-0,073
-533,364	174,025	-0,039	-0,042
-532,350	459,313	-0,010	-0,016
-531,335	-200,000	-0,015	-0,083
-530,321	61,753	-0,089	-0,065
-529,306	800,000	0,029	-0,083
-528,291	80,204	-0,108	-0,085
-527,277	-200,000	0,007	0,133
-526,262	-64,849	-0,095	-0,028
-525,248	11,974	0,177	0,100
-524,233	91,551	-0,069	-0,057
-523,218	46,424	-0,150	-0,102
-522,204	-79,416	0,013	0,003
-521,189	-200,000	0,013	-0,062
-520,175	25,856	0,010	-0,006
-519,160	-200,000	-0,002	-0,046
-518,145	-80,654	0,002	0,000
-517,131	92,283	0,067	0,056
-516,116	-200,000	-0,008	-0,064
-515,102	-200,000	0,006	-0,026
-514,087	-66,365	0,040	-0,012
-513,072	800,000	-0,087	-0,184
-512,058	-200,000	0,011	-0,210
-511,043	-200,000	-0,041	-0,169
-510,029	-25,860	-0,078	0,033
-509,014	800,000	0,065	0,135
-507,999	-200,000	0,010	0,055
-506,985	800,000	-0,051	-0,114
-505,970	-200,000	-0,001	0,059
-504,956	14,073	-0,096	-0,055
-503,941	-200,000	-0,034	0,128
-502,926	38,334	-0,053	0,035
-501,912	68,982	0,156	0,118
-500,897	-121,912	-0,137	0,016
-499,883	800,000	0,032	-0,080
-498,868	382,897	0,026	-0,039
-497,853	-200,000	0,009	-0,107
-496,839	548,383	0,033	0,058
-495,824	442,668	0,015	0,024
-494,810	244,985	-0,059	0,073
-493,795	-200,000	-0,020	0,132
-492,781	-124,372	-0,096	-0,011
-491,766	-151,819	-0,041	-0,002
-490,751	-32,549	-0,027	0,011
-489,737	63,390	0,155	0,114
-488,722	131,352	0,131	0,124
-487,708	122,132	-0,050	-0,046
-486,693	-153,251	0,047	-0,002
-485,678	800,000	0,034	-0,074
-484,664	800,000	0,022	-0,061
-483,649	163,063	-0,109	-0,113
-482,635	-12,895	0,068	-0,033
-481,620	195,293	0,083	0,092
-480,605	-200,000	-0,028	0,113
-479,591	624,860	0,044	-0,082
-478,576	30,651	-0,087	-0,055
-477,562	400,682	-0,032	-0,050
-476,547	-200,000	-0,037	-0,134
-475,532	-21,830	-0,074	-0,033
-474,518	394,012	0,110	0,168
-473,503	208,902	-0,045	0,052
-472,489	800,000	-0,005	0,016
-471,474	511,855	0,073	0,125
-470,459	73,288	-0,024	0,019
-469,445	176,555	-0,090	-0,096
-468,430	552,720	-0,074	-0,131
-467,416	-200,000	-0,041	-0,154
-466,401	632,466	0,013	0,023
-465,386	800,000	0,022	-0,044
-464,372	270,446	-0,052	-0,067
-463,357	800,000	-0,015	-0,038
-462,343	-200,000	-0,015	0,199
-461,328	-200,000	-0,016	-0,085
-460,313	-20,094	-0,052	0,024
-459,299	74,353	0,034	0,026
-458,284	-200,000	0,041	0,135
-457,270	397,187	0,102	0,157
-456,255	42,363	-0,049	-0,033
-455,241	182,035	-0,015	-0,017
-454,226	-200,000	0,004	-0,091
-453,211	649,362	-0,035	0,066
-452,197	-15,879	0,106	0,049
-451,182	153,459	0,075	0,075
-450,168	152,439	0,153	0,154
-449,153	-200,000	-0,024	-0,098
-448,138	-84,124	-0,135	0,031
-447,124	800,000	0,012	0,036
-446,109	-8,385	-0,055	0,027
-445,095	394,418	0,044	-0,068
-444,080	38,706	-0,033	-0,021
-443,065	-62,570	0,157	-0,047
-442,051	-50,487	0,149	-0,051
-441,036	-147,513	-0,101	0,006
-440,022	107,650	-0,033	-0,029
-439,007	800,000	0,058	-0,153
-437,992	283,486	0,008	0,011
-436,978	-191,566	0,075	-0,001
-435,963	-30,008	-0,010	0,004
-434,949	326,756	0,016	0,023
-433,934	800,000	-0,035	-0,104
-432,919	514,590	0,039	-0,068
-431,905	24,240	-0,055	-0,033
-430,890	-200,000	-0,015	0,122
-429,876	-156,871	0,032	-0,001
-428,861	-62,686	0,129	-0,039
-427,846	-200,000	-0,023	0,085
-426,832	146,484	0,060	0,059
-425,817	48,917	-0,105	0,072
-424,803	183,740	0,060	0,065
-423,788	260,236	-0,059	0,075
-422,773	-200,000	0,033	0,110
-421,759	-200,000	-0,012	0,154
-420,744	73,002	-0,134	0,102
-419,730	64,822	-0,188	-0,139
-418,715	-200,000	0,002	-0,113
-417,701	800,000	-0,032	0,086
-416,686	23,224	0,056	0,034
-415,671	50,644	0,174	0,120
-414,657	149,119	-0,090	0,089
-413,642	800,000	-0,018	0,040
-412,628	-30,378	-0,087	0,036
-411,613	-113,347	0,037	0,005
-410,598	-165,712	-0,080	-0,002
-409,584	-48,877	-0,015	-0,005
-408,569	364,570	0,039	0,058
-407,555	118,632	-0,053	0,048
-406,540	-46,157	0,120	0,043
-405,525	-97,156	-0,038	-0,007
-404,511	137,659	-0,090	-0,086
-403,496	800,000	0,018	-0,038
-402,482	800,000	-0,044	-0,098
-401,467	-43,111	0,038	0,014
-400,452	-114,188	0,012	0,002
-399,438	800,000	0,017	0,034
-398,423	-149,385	-0,138	-0,008
-397,409	-40,078	0,051	-0,019
-396,394	416,841	0,054	-0,084
-395,379	-88,684	0,080	0,017
-394,365	287,126	-0,090	0,119
-393,350	800,000	-0,040	-0,103
-392,336	-111,738	-0,063	0,009
-391,321	-100,336	0,043	-0,008
-390,306	-200,000	-0,001	-0,060
-389,292	-200,000	-0,023	0,088
-388,277	7,001	-0,109	0,059
-387,263	70,662	0,090	-0,068
-386,248	-200,000	0,001	-0,061
-385,233	278,178	-0,061	0,079
-384,219	18,413	-0,176	-0,103
-383,204	-200,000	0,002	-0,017
-382,190	-65,728	-0,143	0,042
-381,175	-122,660	-0,019	-0,002
-380,160	-83,748	0,125	-0,029
-379,146	100,772	-0,101	0,086
-378,131	-101,413	0,064	0,011
-377,117	-200,000	-0,001	0,039
-376,102	247,715	-0,026	-0,032
-375,088	-200,000	-0,011	-0,202
-374,073	-200,000	0,029	0,129
-373,058	-8,035	0,063	0,031
-372,044	72,199	0,052	-0,040
-371,029	340,748	0,096	-0,137
-370,015	89,883	0,068	0,055
-369,000	23,358	-0,142	-0,085
-367,985	0,184	-0,019	0,010
-366,971	-200,000	0,015	-0,120
-365,956	-200,000	0,010	0,131
-364,942	800,000	-0,020	0,049
-363,927	-120,867	0,090	0,011
-362,912	52,767	0,044	0,030
-361,898	479,014	-0,043	0,071
-360,883	800,000	0,086	-0,221
-359,869	-141,673	-0,101	-0,007
-358,854	333,816	-0,068	0,097
-357,839	310,862	0,079	0,108
-356,825	-80,081	0,177	0,043
-355,810	-155,658	0,061	0,003
-354,796	315,975	-0,044	0,061
-353,781	-200,000	-0,019	0,116
-352,766	134,579	0,046	-0,044
-351,752	-200,000	0,002	-0,031
-350,737	-200,000	0,005	-0,046
-349,723	236,517	-0,015	0,018
-348,708	9,020	0,084	0,046
-347,693	269,448	0,086	0,110
-346,679	-96,370	-0,194	-0,037
-345,664	-200,000	0,005	0,039
-344,650	-200,000	-0,002	0,055
-343,635	-200,000	-0,002	-0,008
-342,620	-200,000	-0,033	0,199
-341,606	289,919	0,031	-0,042
-340,591	-200,000	-0,051	-0,184
-339,577	-151,161	0,070	-0,004
-338,562	-74,007	-0,037	-0,010
-337,548	197,032	0,051	0,057
-336,533	-200,000	-0,010	-0,103
-335,518	6,388	-0,097	0,053
-334,504	-25,385	-0,141	0,061
-333,489	-200,000	-0,019	0,075
-332,475	-22,583	-0,068	0,030
-331,460	633,718	-0,013	0,025
-330,445	149,639	-0,060	0,060
-329,431	-200,000	0,013	0,166
-328,416	94,617	0,080	0,067
-327,402	85,631	-0,077	0,062
-326,387	156,205	0,056	-0,056
-325,372	-200,000	-0,011	-0,072
-324,358	800,000	-0,036	-0,114
-323,343	752,968	0,041	0,082
-322,329	800,000	-0,019	0,043
-321,314	17,067	0,110	-0,064
-320,299	-200,000	-0,007	0,040
-319,285	37,971	0,169	0,109
-318,270	-101,158	-0,186	0,033
-317,256	119,186	0,025	-0,023
-316,241	56,351	0,041	-0,029
-315,226	-120,561	-0,033	0,004
-314,212	-74,755	0,154	0,040
-313,197	-60,190	0,104	0,032
-312,183	194,987	-0,026	0,029
-311,168	-200,000	-0,003	-0,040
-310,153	-132,944	0,145	0,013
-309,139	-37,340	0,030	0,012
-308,124	188,592	0,052	0,057
-307,110	296,905	0,008	-0,011
-306,095	800,000	0,048	0,149
-305,080	44,120	-0,141	-0,094
-304,066	55,606	-0,031	0,022
-303,051	-153,368	-0,119	0,006
-302,037	24,952	-0,043	0,026
-301,022	-200,000	0,015	0,123
-300,008	-48,472	0,188	0,066
-298,993	-200,000	-0,004	-0,031
-297,978	61,755	0,077	0,056
-296,964	800,000	-0,029	-0,073
-295,949	-168,762	0,048	0,001
-294,935	-81,990	-0,117	-0,028
-293,920	-120,875	0,093	0,011
-292,905	350,452	-0,089	0,129
-291,891	-200,000	-0,015	0,150
-290,876	-200,000	-0,009	0,074
-289,862	-47,869	-0,039	0,014
-288,847	-200,000	-0,009	0,035
-287,832	64,159	-0,090	0,066
-286,818	-18,232	0,066	0,030
-285,803	64,344	0,076	0,055
-284,789	-17,977	-0,039	-0,018
-283,774	-111,366	0,224	0,033
-282,759	667,095	-0,055	0,104
-281,745	10,058	0,081	0,045
-280,730	57,458	-0,040	-0,029
-279,716	76,497	-0,138	-0,107
-278,701	6,906	0,078	-0,042
-277,686	770,466	0,038	-0,076
-276,672	-78,242	-0,104	-0,026
-275,657	800,000	-0,021	-0,044
-274,643	321,868	-0,036	-0,050
-273,628	501,745	-0,058	-0,099
-272,613	-96,050	-0,143	-0,027
-271,599	-200,000	0,013	-0,089
-270,584	-100,327	0,014	-0,003
-269,570	-146,121	0,010	0,001
-268,555	-10,488	-0,076	-0,037
-267,540	2,238	0,045	0,024
-266,526	141,444	0,039	-0,037
-265,511	-53,915	-0,030	0,010
-264,497	444,135	-0,038	-0,061
-263,482	86,145	-0,032	0,026
-262,467	800,000	-0,043	-0,111
-261,453	-21,007	0,066	-0,029
-260,438	122,791	-0,083	0,075
-259,424	36,695	-0,132	-0,084
-258,409	408,134	-0,038	-0,058
-257,395	-113,955	-0,054	0,008
-256,380	800,000	-0,078	0,189
-255,365	800,000	0,073	0,153
-254,351	50,270	0,008	-0,005
-253,336	59,967	-0,040	-0,029
-252,322	-200,000	0,011	-0,142
-251,307	71,117	0,080	-0,060
-250,292	82,596	-0,083	0,065
-249,278	-11,824	0,051	-0,024
-248,263	-48,293	-0,093	0,032
-247,249	116,530	-0,096	0,086
-246,234	437,765	0,019	-0,030
-245,219	571,815	-0,037	0,067
-244,205	203,223	-0,077	-0,086
-243,190	-23,191	0,109	-0,047
-242,176	-200,000	0,015	0,068
-241,161	123,156	-0,084	0,076
-240,146	25,575	-0,059	0,036
-239,132	-200,000	-0,010	0,074
-238,117	-200,000	-0,002	-0,017
-237,103	130,670	-0,040	-0,037
-236,088	800,000	0,046	0,101
-235,073	800,000	0,055	0,120
-234,059	-42,443	0,046	-0,017
-233,044	800,000	0,057	0,146
-232,030	-200,000	-0,006	0,022
-231,015	103,411	0,033	0,028
-230,000	14,258	-0,083	0,047
-228,986	-63,489	-0,043	0,013
-227,971	-200,000	-0,009	-0,051
-226,957	314,196	0,038	0,052
-225,942	-59,633	0,139	-0,043
-224,927	-85,069	-0,120	-0,027
-223,913	-200,000	-0,015	-0,053
-222,898	-47,424	-0,102	-0,036
-221,884	-23,886	-0,006	0,002
-220,869	162,433	0,096	-0,098
-219,855	800,000	0,061	0,146
-218,840	-200,000	-0,010	0,087
-217,825	-104,636	-0,060	-0,010
-216,811	-200,000	-0,004	-0,029
-215,796	-200,000	-0,002	0,009
-214,782	-36,856	0,071	0,028
-213,767	357,887	-0,037	-0,053
-212,752	-43,372	0,170	0,062
-211,738	-17,528	-0,133	-0,060
-210,723	-19,228	-0,044	0,020
-209,709	70,750	0,057	-0,043
-208,694	107,622	-0,056	-0,048
-207,679	60,997	0,141	-0,101
-206,665	100,788	0,111	0,094
-205,650	-91,951	0,116	0,024
-204,636	-14,880	0,062	-0,029
-203,621	800,000	-0,040	0,094
-202,606	-200,000	-0,007	-0,065
-201,592	-200,000	0,009	-0,070
-200,577	-200,000	-0,015	0,128
-199,563	-200,000	-0,012	0,125
-198,548	1,259	-0,063	0,033
-197,533	69,912	0,088	0,066
-196,519	129,333	0,084	0,078
-195,504	-200,000	-0,014	-0,068
-194,490	-162,837	-0,121	0,004
-193,475	18,145	-0,034	-0,020
-192,460	-200,000	0,007	-0,052
-191,446	-200,000	0,027	0,158
-190,431	74,688	0,025	0,019
-189,417	106,239	-0,036	-0,031
-188,402	166,017	-0,051	-0,052
-187,387	-138,670	0,119	-0,009
-186,373	280,934	0,039	0,050
-185,358	-24,593	0,075	0,032
-184,344	-167,532	0,163	0,005
-183,329	632,343	0,035	-0,066
-182,315	-200,000	0,024	-0,169
-181,300	182,664	-0,119	0,127
-180,285	-49,621	-0,102	-0,035
-179,271	204,859	-0,057	0,064
-178,256	-88,259	0,066	0,014
-177,242	323,134	0,040	-0,056
-176,227	-200,000	0,006	-0,055
-175,212	-200,000	0,005	0,213
-174,198	157,475	-0,004	0,004
-173,183	-92,156	0,159	-0,032
-172,169	-178,220	0,097	0,002
-171,154	18,967	-0,057	0,033
-170,139	8,728	0,075	0,041
-169,125	-200,000	-0,024	0,081
-168,110	-77,396	-0,053	0,013
-167,096	286,128	0,042	-0,055
-166,081	392,610	-0,045	-0,069
-165,066	800,000	0,014	0,044
-164,052	800,000	0,043	-0,132
-163,037	9,581	0,094	-0,051
-162,023	49,113	0,060	0,041
-161,008	-173,209	0,030	0,001
-159,993	-86,012	0,088	0,020
-158,979	20,191	-0,073	-0,043
-157,964	61,834	-0,057	0,041
-156,950	-200,000	0,006	-0,072
-155,935	-200,000	0,001	0,041
-154,920	64,932	-0,025	0,018
-153,906	-123,986	0,026	0,003
-152,891	-200,000	-0,001	-0,086
-151,877	800,000	0,060	-0,150
-150,862	131,723	0,033	0,031
-149,847	114,928	0,055	0,049
-148,833	88,235	0,092	-0,074
-147,818	-124,499	0,069	0,008
-146,804	-200,000	-0,007	-0,109
-145,789	723,542	0,036	-0,070
-144,775	-200,000	-0,004	0,043
-143,760	-200,000	-0,009	-0,034
-142,745	554,661	-0,076	-0,134
-141,731	120,701	-0,041	0,037
-140,716	-200,000	-0,007	0,195
-139,702	-121,667	0,039	-0,005
-138,687	-200,000	0,011	0,123
-137,672	-161,014	-0,119	-0,004
-136,658	-200,000	0,001	-0,155
-135,643	-200,000	0,013	-0,084
-134,629	493,702	-0,027	0,046
-133,614	394,619	0,096	0,145
-132,599	119,044	-0,093	-0,084
-131,585	-10,159	0,024	0,012
-130,570	-2,980	-0,053	0,027
-129,556	-8,226	0,028	0,013
-128,541	138,041	-0,045	0,043
-127,526	800,000	0,033	0,099
-126,512	-191,071	0,060	0,000
-125,497	149,300	0,169	0,166
-124,483	-200,000	-0,026	0,097
-123,468	744,488	-0,054	-0,106
-122,453	40,485	-0,125	0,082
-121,439	763,557	0,023	0,046
-120,424	800,000	0,039	-0,101
-119,410	-76,404	-0,029	0,007
-118,395	26,539	-0,075	0,045
