DTS Sentinel unit serial number:	SN410029Multiplexer serial number:	ORYXHardware model number:	OX2-SRSoftware version number:	ORYX F/W v4,00 Oryx Data Collector v3.7.2.0data status	okinstallation	B6 Nyhavnadifferential loss correction	single-endedforward channel	channel 2reverse channel	N/Adate	2023/12/08time	14:05:08forward acquisition time	300,00reverse acquisition time	0,00gamma	499,1914k internal	0,3159k external	0,3159temperature offset calibration	1,0000default loss term (dB/km)	0,3820temperature slope calibration	1,0000multiplexer offset coefficient	1,0000multiplexer slope coefficient	1,0000fibre end	0,00T internal ref (°C)	15,06T ext. ref 1 (°C)	-1,57T ext. ref 2 (°C)	-1,57length (m)	temperature (°C)	Stokes	anti-Stokes-744,400	152,226	0,135	0,136
-743,385	-53,700	-0,341	-0,114
-742,371	-81,126	0,146	0,035
-741,356	-152,357	-0,370	0,019
-740,342	372,828	0,099	0,148
-739,327	-81,027	-0,282	0,068
-738,312	421,734	-0,028	0,045
-737,298	-157,519	-0,389	-0,017
-736,283	-157,035	0,107	0,005
-735,269	0,460	-0,290	0,152
-734,254	-102,156	0,108	0,019
-733,239	-92,250	-0,504	-0,104
-732,225	38,038	0,125	0,082
-731,210	-136,935	0,009	0,001
-730,196	146,380	-0,062	-0,061
-729,181	310,450	0,097	0,135
-728,167	202,478	0,037	-0,042
-727,152	800,000	-0,028	0,076
-726,137	800,000	-0,039	-0,114
-725,123	-102,849	-0,164	0,028
-724,108	480,309	0,084	-0,141
-723,094	322,327	0,045	0,063
-722,079	210,680	-0,095	-0,110
-721,064	364,452	0,072	0,107
-720,050	-200,000	0,011	0,048
-719,035	42,194	-0,113	-0,075
-718,021	221,293	0,031	-0,036
-717,006	800,000	-0,032	-0,080
-715,991	87,262	-0,072	-0,058
-714,977	89,505	-0,054	-0,044
-713,962	-94,131	-0,025	0,005
-712,948	734,453	-0,034	0,067
-711,933	428,841	-0,050	0,080
-710,918	-200,000	-0,004	-0,202
-709,904	241,172	-0,104	0,128
-708,889	382,972	-0,037	0,056
-707,875	47,279	-0,045	0,031
-706,860	-73,602	0,075	0,020
-705,845	-200,000	0,033	0,140
-704,831	800,000	-0,055	0,134
-703,816	-38,196	0,071	-0,027
-702,802	1,770	0,108	0,057
-701,787	-49,830	-0,144	-0,050
-700,772	25,062	-0,096	-0,058
-699,758	-200,000	-0,006	0,042
-698,743	378,178	0,060	0,090
-697,729	232,942	0,038	-0,046
-696,714	-200,000	-0,006	0,037
-695,699	741,614	-0,080	0,160
-694,685	-139,792	0,091	0,007
-693,670	-200,000	0,024	-0,109
-692,656	120,993	-0,080	0,074
-691,641	-167,362	0,027	-0,001
-690,627	-200,000	0,004	0,119
-689,612	-152,975	-0,137	0,007
-688,597	-142,286	0,072	0,005
-687,583	-200,000	0,002	0,021
-686,568	-200,000	-0,009	0,109
-685,554	-16,190	0,074	-0,034
-684,539	97,350	-0,013	0,011
-683,524	800,000	0,054	-0,130
-682,510	276,746	-0,018	-0,024
-681,495	381,454	-0,065	0,099
-680,481	-157,902	-0,063	0,003
-679,466	-87,817	-0,116	-0,025
-678,451	800,000	0,009	0,026
-677,437	-200,000	-0,041	0,185
-676,422	-66,746	0,050	-0,014
-675,408	-27,307	0,079	-0,034
-674,393	142,425	0,088	0,086
-673,378	-70,763	-0,035	-0,010
-672,364	-71,854	0,040	0,011
-671,349	-73,674	-0,083	0,022
-670,335	35,003	-0,022	-0,014
-669,320	-153,211	0,166	0,008
-668,305	652,670	0,049	-0,093
-667,291	-200,000	0,015	-0,083
-666,276	-200,000	0,005	0,042
-665,262	238,464	-0,117	-0,143
-664,247	-65,995	-0,067	-0,020
-663,232	-156,600	0,027	-0,001
-662,218	-200,000	0,005	0,045
-661,203	263,100	-0,030	0,038
-660,189	-45,639	-0,078	-0,028
-659,174	-80,476	-0,013	-0,003
-658,159	284,161	-0,109	0,144
-657,145	-200,000	0,016	-0,059
-656,130	64,214	0,063	0,047
-655,116	17,473	0,093	-0,054
-654,101	189,329	-0,071	0,078
-653,086	-16,236	-0,088	0,041
-652,072	-99,406	-0,105	0,019
-651,057	331,344	0,030	-0,042
-650,043	-72,057	-0,074	-0,020
-649,028	-49,000	-0,065	-0,023
-648,014	-65,957	-0,039	0,011
-646,999	-169,155	-0,094	-0,003
-645,984	119,886	-0,075	0,068
-644,970	-200,000	0,021	-0,074
-643,955	-200,000	0,007	-0,060
-642,941	585,106	-0,087	-0,158
-641,926	-200,000	0,008	-0,071
-640,911	-171,076	-0,063	-0,002
-639,897	196,901	0,107	0,120
-638,882	398,823	-0,041	-0,064
-637,868	-100,533	-0,070	0,012
-636,853	800,000	-0,098	-0,219
-635,838	35,726	0,037	-0,024
-634,824	-122,731	-0,080	0,009
-633,809	800,000	0,004	-0,008
-632,795	-65,051	0,119	0,035
-631,780	20,252	-0,094	0,056
-630,765	800,000	-0,050	-0,106
-629,751	80,551	-0,079	0,062
-628,736	800,000	0,040	-0,105
-627,722	160,529	-0,074	0,076
-626,707	-193,581	0,021	-0,000
-625,692	-149,326	-0,079	-0,005
-624,678	800,000	-0,001	0,002
-623,663	800,000	0,021	-0,065
-622,649	-200,000	0,022	-0,080
-621,634	-154,278	0,199	0,010
-620,619	160,302	-0,091	-0,094
-619,605	-22,067	0,066	0,029
-618,590	800,000	0,056	0,130
-617,576	-87,594	0,074	0,016
-616,561	-200,000	0,002	0,072
-615,546	-8,885	-0,013	0,006
-614,532	9,562	-0,059	0,032
-613,517	29,570	-0,040	0,025
-612,503	-200,000	-0,005	-0,128
-611,488	318,413	0,021	0,029
-610,474	-200,000	0,011	0,105
-609,459	181,048	-0,045	0,049
-608,444	-94,680	-0,059	0,012
-607,430	42,896	0,069	-0,046
-606,415	172,274	-0,076	-0,080
-605,401	-200,000	-0,029	0,104
-604,386	-87,097	0,122	0,027
-603,371	-25,972	0,027	-0,012
-602,357	707,803	-0,058	0,113
-601,342	120,920	-0,037	0,034
-600,328	-200,000	-0,016	-0,113
-599,313	538,194	-0,062	-0,108
-598,298	526,040	-0,051	0,088
-597,284	-200,000	-0,009	0,100
-596,269	-18,263	-0,017	0,008
-595,255	-88,413	-0,089	0,019
-594,240	-0,394	-0,132	-0,069
-593,225	800,000	0,100	-0,223
-592,211	-110,708	-0,130	0,019
-591,196	-191,958	-0,098	-0,001
-590,182	228,478	0,045	0,053
-589,167	-36,966	0,079	-0,031
-588,152	358,700	0,085	0,125
-587,138	-200,000	-0,002	-0,223
-586,123	-200,000	-0,068	-0,231
-585,109	700,373	-0,100	-0,193
-584,094	-120,979	-0,074	0,009
-583,079	759,476	0,033	-0,067
-582,065	22,909	0,053	-0,032
-581,050	-81,931	0,011	-0,003
-580,036	76,412	-0,026	-0,020
-579,021	-58,961	0,118	-0,037
-578,006	411,058	-0,064	-0,100
-576,992	223,804	-0,074	0,087
-575,977	-200,000	0,024	0,096
-574,963	-131,115	0,121	0,012
-573,948	-17,205	0,030	-0,014
-572,934	-200,000	-0,028	-0,130
-571,919	-55,918	-0,082	-0,027
-570,904	94,422	-0,067	0,056
-569,890	-200,000	-0,006	-0,078
-568,875	300,296	0,043	-0,058
-567,861	646,141	-0,022	0,041
-566,846	800,000	0,052	0,107
-565,831	84,169	0,061	0,049
-564,817	100,820	-0,022	0,019
-563,802	800,000	-0,056	-0,123
-562,788	-200,000	0,009	-0,140
-561,773	110,358	0,055	0,049
-560,758	800,000	-0,057	0,172
-559,744	800,000	0,028	-0,086
-558,729	174,905	0,044	0,047
-557,715	319,030	0,011	0,015
-556,700	368,916	-0,067	-0,100
-555,685	406,835	-0,033	0,052
-554,671	379,148	0,028	0,043
-553,656	-59,537	0,133	0,041
-552,642	37,593	-0,064	0,042
-551,627	-168,882	-0,100	0,003
-550,612	-200,000	0,015	-0,067
-549,598	336,818	-0,032	-0,046
-548,583	800,000	-0,049	0,123
-547,569	-200,000	-0,005	-0,050
-546,554	-2,265	-0,121	0,062
-545,539	95,535	0,081	0,068
-544,525	276,980	0,079	-0,103
-543,510	-63,766	-0,189	0,056
-542,496	743,874	0,047	0,093
-541,481	63,527	-0,083	-0,061
-540,466	499,974	0,060	0,101
-539,452	-137,257	0,079	0,006
-538,437	800,000	-0,030	0,067
-537,423	-37,692	0,049	0,019
-536,408	-200,000	0,025	-0,133
-535,393	43,150	-0,045	0,030
-534,379	-200,000	-0,001	-0,057
-533,364	-200,000	-0,003	-0,094
-532,350	365,891	-0,056	-0,083
-531,335	133,948	0,036	-0,034
-530,321	800,000	0,015	0,034
-529,306	1,134	-0,057	-0,030
-528,291	656,776	0,063	-0,120
-527,277	800,000	-0,023	0,057
-526,262	-45,171	0,067	-0,024
-525,248	259,887	-0,025	0,031
-524,233	227,886	0,082	0,098
-523,218	-20,456	-0,056	-0,025
-522,204	-58,813	-0,106	-0,033
-521,189	375,182	-0,060	-0,090
-520,175	-200,000	0,002	0,007
-519,160	-200,000	0,015	-0,053
-518,145	-103,734	0,141	0,024
-517,131	-200,000	0,023	0,096
-516,116	89,792	-0,095	-0,077
-515,102	800,000	0,006	0,016
-514,087	-200,000	-0,020	0,091
-513,072	423,696	0,037	0,059
-512,058	-83,633	-0,172	0,040
-511,043	-200,000	-0,006	0,087
-510,029	-125,216	0,122	0,013
-509,014	48,726	0,063	0,043
-507,999	-29,914	-0,083	-0,034
-506,985	-171,136	-0,090	-0,002
-505,970	800,000	0,027	0,063
-504,956	26,753	-0,124	0,076
-503,941	-200,000	-0,041	0,209
-502,926	-200,000	0,003	0,034
-501,912	-200,000	0,021	0,097
-500,897	-200,000	-0,031	0,126
-499,883	32,223	0,106	-0,067
-498,868	227,009	-0,059	-0,070
-497,853	41,441	-0,037	0,025
-496,839	498,384	-0,034	-0,058
-495,824	-67,432	0,065	-0,018
-494,810	-200,000	-0,005	0,068
-493,795	288,519	-0,077	-0,102
-492,781	-84,089	0,101	-0,023
-491,766	800,000	-0,010	-0,027
-490,751	-200,000	-0,001	-0,065
-489,737	196,936	-0,060	-0,067
-488,722	-93,523	0,095	0,019
-487,708	89,934	0,083	0,068
-486,693	-2,974	-0,059	0,030
-485,678	800,000	-0,032	0,090
-484,664	59,891	-0,040	-0,029
-483,649	-200,000	-0,028	-0,136
-482,635	103,883	0,066	-0,057
-481,620	565,610	0,071	-0,126
-480,605	-43,760	-0,067	-0,024
-479,591	800,000	-0,027	-0,061
-478,576	26,583	0,066	0,040
-477,562	800,000	-0,034	-0,097
-476,547	-65,757	-0,144	-0,042
-475,532	683,092	-0,027	-0,052
-474,518	93,301	0,088	-0,073
-473,503	44,355	-0,050	0,034
-472,489	106,329	0,044	0,038
-471,474	709,513	0,010	-0,019
-470,459	659,942	0,051	-0,097
-469,445	76,090	0,120	-0,093
-468,430	795,814	0,043	0,086
-467,416	800,000	-0,007	0,020
-466,401	-48,674	-0,042	-0,015
-465,386	-41,198	-0,090	0,034
-464,372	-200,000	0,025	0,104
-463,357	25,982	-0,098	0,059
-462,343	-200,000	-0,010	0,054
-461,328	64,741	-0,082	-0,060
-460,313	-47,925	0,123	0,043
-459,299	800,000	0,074	0,168
-458,284	-200,000	-0,012	0,049
-457,270	-200,000	-0,022	-0,141
-456,255	800,000	0,066	-0,163
-455,241	-200,000	-0,005	0,020
-454,226	-200,000	0,022	-0,087
-453,211	36,671	-0,068	-0,044
-452,197	800,000	0,052	0,111
-451,182	733,135	-0,040	0,078
-450,168	-200,000	0,011	0,047
-449,153	-200,000	-0,028	-0,129
-448,138	-200,000	-0,027	-0,141
-447,124	-69,486	-0,050	-0,014
-446,109	124,795	0,068	0,062
-445,095	-200,000	-0,019	0,096
-444,080	108,681	-0,045	0,039
-443,065	127,474	0,026	0,024
-442,051	155,502	-0,031	-0,032
-441,036	499,908	0,093	-0,156
-440,022	39,470	0,143	-0,093
-439,007	-200,000	-0,006	-0,082
-437,992	371,785	-0,040	0,060
-436,978	-106,045	0,069	-0,011
-435,963	-200,000	0,033	0,134
-434,949	323,402	0,060	-0,083
-433,934	-131,675	-0,154	-0,014
-432,919	-101,275	0,068	-0,012
-431,905	-200,000	-0,022	0,075
-430,890	800,000	-0,047	0,151
-429,876	-200,000	-0,002	-0,009
-428,861	46,887	0,104	-0,070
-427,846	78,840	0,062	0,048
-426,832	-102,982	0,110	0,019
-425,817	22,814	0,080	-0,048
-424,803	-200,000	-0,003	-0,118
-423,788	-200,000	0,003	-0,059
-422,773	-200,000	0,007	0,030
-421,759	800,000	0,093	0,286
-420,744	-200,000	-0,002	-0,030
-419,730	65,554	-0,042	-0,031
-418,715	-200,000	-0,019	-0,172
-417,701	-51,167	-0,110	-0,037
-416,686	103,084	0,044	-0,037
-415,671	-200,000	-0,010	-0,147
-414,657	60,289	-0,003	-0,002
-413,642	-200,000	-0,003	-0,080
-412,628	-200,000	-0,006	-0,059
-411,613	800,000	-0,023	0,051
-410,598	-27,460	-0,045	-0,019
-409,584	800,000	0,030	0,089
-408,569	-48,011	0,076	-0,027
-407,555	17,670	0,075	0,043
-406,540	-200,000	-0,005	0,175
-405,525	-200,000	-0,011	0,113
-404,511	74,552	-0,056	0,043
-403,496	-94,799	-0,063	-0,012
-402,482	-34,765	0,064	0,025
-401,467	16,694	0,056	-0,032
-400,452	217,449	-0,012	-0,014
-399,438	124,740	0,049	-0,045
-398,423	-65,251	0,020	-0,006
-397,409	253,350	0,063	-0,078
-396,394	95,609	-0,115	-0,096
-395,379	190,076	0,034	0,037
-394,365	-163,770	0,043	-0,001
-393,350	474,308	-0,032	0,052
-392,336	360,498	-0,045	0,065
-391,321	100,548	-0,118	0,099
-390,306	401,118	-0,059	-0,091
-389,292	-15,090	0,099	-0,046
-388,277	-127,015	-0,077	-0,008
-387,263	-18,334	0,038	-0,017
-386,248	198,150	-0,046	-0,052
-385,233	228,689	0,076	0,090
-384,219	-128,304	-0,012	0,001
-383,204	-134,324	-0,113	-0,010
-382,190	333,008	-0,037	-0,052
-381,175	-200,000	0,003	0,093
-380,160	-172,333	-0,061	0,001
-379,146	-191,054	0,086	0,001
-378,131	-18,479	-0,053	-0,024
-377,117	5,114	0,082	-0,044
-376,102	-200,000	-0,008	-0,130
-375,088	46,963	0,055	0,037
-374,073	49,100	-0,071	-0,048
-373,058	-55,875	0,053	-0,017
-372,044	160,548	0,125	0,127
-371,029	52,363	-0,084	0,058
-370,015	5,627	-0,070	0,038
-369,000	-100,488	-0,047	0,008
-367,985	-200,000	0,053	-0,216
-366,971	-166,308	-0,073	-0,002
-365,956	-98,038	0,097	-0,018
-364,942	800,000	-0,020	-0,063
-363,927	-33,825	0,076	0,030
-362,912	-142,997	0,053	-0,004
-361,898	237,372	-0,068	0,081
-360,883	48,525	-0,055	0,038
-359,869	-77,935	-0,126	-0,031
-358,854	800,000	-0,035	-0,079
-357,839	-60,740	-0,061	0,019
-356,825	800,000	-0,070	0,173
-355,810	417,685	0,091	0,142
-354,796	-200,000	0,016	-0,150
-353,781	75,463	-0,111	0,085
-352,766	357,774	0,042	-0,061
-351,752	-200,000	-0,015	-0,061
-350,737	-41,647	0,043	0,016
-349,723	800,000	-0,038	0,103
-348,708	538,962	-0,032	-0,055
-347,693	-200,000	-0,003	-0,076
-346,679	-200,000	0,005	-0,092
-345,664	-200,000	0,002	-0,115
-344,650	-200,000	-0,001	-0,094
-343,635	-200,000	-0,020	-0,096
-342,620	-83,814	0,174	-0,040
-341,606	-200,000	-0,002	0,092
-340,591	-117,523	0,099	-0,013
-339,577	-51,468	-0,097	-0,033
-338,562	-200,000	-0,035	-0,180
-337,548	221,224	0,031	-0,036
-336,533	25,533	-0,119	-0,072
-335,518	-154,027	-0,050	-0,002
-334,504	62,718	-0,018	0,013
-333,489	-200,000	-0,004	-0,063
-332,475	-58,463	-0,154	0,048
-331,460	-200,000	-0,013	0,075
-330,445	800,000	0,019	-0,052
-329,431	-84,922	-0,138	-0,031
-328,416	-51,325	0,061	-0,021
-327,402	-104,357	0,080	0,013
-326,387	514,351	0,039	0,066
-325,372	481,521	-0,059	-0,098
-324,358	-200,000	-0,016	0,058
-323,343	-191,361	0,072	0,001
-322,329	-200,000	0,015	0,056
-321,314	93,827	0,043	-0,035
-320,299	-200,000	0,011	0,073
-319,285	-62,586	-0,024	-0,007
-318,270	68,129	-0,024	-0,018
-317,256	-200,000	0,006	-0,151
-316,241	800,000	0,013	-0,033
-315,226	-137,200	0,128	0,010
-314,212	-111,437	0,181	-0,026
-313,197	-103,394	0,132	-0,022
-312,183	539,949	0,043	0,075
-311,168	211,811	0,077	-0,088
-310,153	96,215	-0,106	-0,088
-309,139	-64,914	0,092	-0,027
-308,124	202,011	0,089	0,100
-307,110	-88,216	0,049	-0,011
-306,095	-84,497	0,051	-0,012
-305,080	-200,000	0,006	-0,045
-304,066	-123,092	0,166	-0,019
-303,051	428,348	-0,058	-0,091
-302,037	-200,000	-0,017	0,066
-301,022	84,320	0,055	-0,044
-300,008	-200,000	0,009	-0,077
-298,993	-150,251	-0,030	-0,002
-297,978	-36,877	-0,083	0,032
-296,964	-32,137	0,138	-0,056
-295,949	-100,173	-0,131	-0,023
-294,935	800,000	-0,051	0,131
-293,920	64,788	-0,079	-0,057
-292,905	800,000	0,029	0,068
-291,891	-200,000	-0,010	0,079
-290,876	194,704	0,068	0,075
-289,862	212,753	-0,066	-0,075
-288,847	-43,273	-0,089	-0,032
-287,832	-200,000	-0,004	0,079
-286,818	800,000	-0,052	0,120
-285,803	392,058	0,084	0,126
-284,789	-200,000	-0,002	0,095
-283,774	105,106	-0,065	0,055
-282,759	-45,827	0,071	-0,025
-281,745	-116,723	0,037	-0,005
-280,730	24,959	-0,140	-0,084
-279,716	10,179	0,132	-0,073
-278,701	800,000	0,035	0,097
-277,686	-163,508	-0,090	-0,003
-276,672	320,382	0,021	0,029
-275,657	-150,164	0,008	-0,000
-274,643	-113,953	-0,150	0,021
-273,628	-200,000	-0,002	0,101
-272,613	36,463	0,061	-0,039
-271,599	150,647	0,123	-0,121
-270,584	-200,000	0,015	-0,053
-269,570	-145,516	0,127	-0,008
-268,555	-62,119	0,095	-0,029
-267,540	-200,000	0,001	0,009
-266,526	84,400	0,038	0,030
-265,511	-200,000	0,000	-0,041
-264,497	-200,000	-0,026	0,104
-263,482	28,008	-0,059	0,036
-262,467	800,000	0,042	0,098
-261,453	308,048	-0,046	0,062
-260,438	-200,000	0,008	0,076
-259,424	-34,234	0,052	0,020
-258,409	-15,339	-0,094	-0,043
-257,395	7,867	0,113	0,061
-256,380	-101,128	0,088	-0,015
-255,365	-103,634	0,073	-0,012
-254,351	-4,280	-0,174	0,087
-253,336	-200,000	0,032	0,145
-252,322	-83,275	-0,149	-0,034
-251,307	-164,277	0,039	0,001
-250,292	697,298	0,042	0,079
-249,278	-200,000	0,011	0,038
-248,263	-200,000	0,012	0,093
-247,249	-121,262	0,036	-0,004
-246,234	-4,433	-0,142	0,071
-245,219	-200,000	-0,016	-0,141
-244,205	432,834	0,080	-0,127
-243,190	-159,670	-0,086	-0,003
-242,176	-200,000	0,010	0,092
-241,161	-7,269	0,168	0,082
-240,146	800,000	0,050	0,111
-239,132	-200,000	-0,001	0,020
-238,117	-82,945	-0,101	-0,023
-237,103	800,000	0,063	-0,144
-236,088	-22,400	0,065	0,028
-235,073	-13,015	0,051	0,024
-234,059	-5,019	-0,106	0,052
-233,044	800,000	-0,019	0,057
-232,030	400,660	0,080	0,122
-231,015	800,000	-0,062	-0,191
-230,000	126,797	-0,075	-0,069
-228,986	-24,656	-0,093	0,040
-227,971	-200,000	-0,003	-0,056
-226,957	-200,000	0,005	0,033
-225,942	-143,535	0,047	0,003
-224,927	-200,000	0,010	0,070
-223,913	-200,000	0,003	-0,044
-222,898	-200,000	0,001	0,006
-221,884	166,750	0,157	-0,160
-220,869	115,255	0,061	0,054
-219,855	-200,000	0,017	0,054
-218,840	-21,267	0,082	0,036
-217,825	-15,609	0,047	-0,021
-216,811	-200,000	-0,014	0,047
-215,796	-92,685	0,094	-0,019
-214,782	-71,392	-0,010	0,003
-213,767	800,000	0,041	0,098
-212,752	215,973	-0,019	-0,022
-211,738	-200,000	0,006	0,136
-210,723	242,234	0,013	-0,016
-209,709	141,426	0,013	0,012
-208,694	27,752	-0,035	0,021
-207,679	-200,000	-0,011	0,056
-206,665	696,949	0,019	-0,036
-205,650	800,000	-0,056	0,162
-204,636	410,618	0,071	0,108
-203,621	155,514	0,062	0,061
-202,606	-68,942	-0,036	0,010
-201,592	264,122	-0,021	-0,026
-200,577	192,287	0,049	0,054
-199,563	-200,000	0,046	0,213
-198,548	800,000	0,035	0,088
-197,533	138,237	0,079	0,075
-196,519	800,000	0,054	0,129
-195,504	-93,341	0,068	0,014
-194,490	87,278	-0,059	0,047
-193,475	-70,670	-0,045	0,012
-192,460	800,000	0,017	-0,037
-191,446	800,000	-0,016	-0,036
-190,431	-200,000	0,005	-0,088
-189,417	143,616	0,098	0,094
-188,402	-125,082	-0,107	0,012
-187,387	39,384	-0,044	-0,029
-186,373	78,460	-0,125	0,097
-185,358	70,400	0,006	0,004
-184,344	17,794	-0,039	-0,022
-183,329	800,000	-0,048	0,137
-182,315	-200,000	-0,018	0,118
-181,300	-68,156	-0,099	0,028
-180,285	-200,000	-0,050	-0,229
-179,271	-141,051	-0,027	-0,002
-178,256	658,054	-0,011	0,021
-177,242	-163,315	0,103	-0,003
-176,227	-156,872	-0,115	-0,005
-175,212	82,805	0,068	-0,053
-174,198	-69,196	0,021	-0,006
-173,183	800,000	0,038	-0,084
-172,169	-23,619	-0,044	0,019
-171,154	-46,756	-0,089	0,031
-170,139	800,000	0,027	-0,060
-169,125	108,359	-0,003	0,003
-168,110	-85,298	-0,080	0,018
-167,096	12,715	0,083	0,046
-166,081	-104,813	-0,015	0,002
-165,066	35,593	-0,061	-0,038
-164,052	65,449	0,023	-0,017
-163,037	-200,000	-0,035	-0,144
-162,023	-46,649	0,107	-0,038
-161,008	-4,126	-0,090	0,045
-159,993	-88,251	0,107	-0,023
-158,979	761,352	0,036	0,071
-157,964	-103,169	-0,017	-0,003
-156,950	208,341	-0,038	0,043
-155,935	800,000	0,020	0,062
-154,920	-31,096	-0,017	-0,007
-153,906	-187,528	0,090	0,001
-152,891	3,377	0,169	0,088
-151,877	137,019	0,035	0,033
-150,862	494,183	0,050	0,084
-149,847	66,806	-0,022	0,016
-148,833	-127,528	-0,186	0,019
-147,818	800,000	-0,069	0,151
-146,804	5,428	0,092	0,049
-145,789	-111,363	0,082	0,012
-144,775	-200,000	-0,012	0,111
-143,760	-200,000	0,003	-0,069
-142,745	-70,654	-0,036	0,010
-141,731	-113,038	0,130	-0,018
-140,716	-127,940	0,129	0,013
-139,702	-200,000	-0,059	0,244
-138,687	-200,000	-0,009	0,038
-137,672	-57,201	0,100	-0,032
-136,658	-200,000	-0,014	-0,053
-135,643	-134,439	-0,082	0,007
-134,629	-46,779	0,179	0,063
-133,614	-200,000	-0,006	-0,068
-132,599	-200,000	-0,019	0,070
-131,585	238,177	-0,034	-0,041
-130,570	230,598	-0,063	0,074
-129,556	33,269	-0,015	-0,010
-128,541	-32,559	0,046	0,018
-127,526	-200,000	0,003	-0,067
-126,512	-191,445	-0,080	-0,001
-125,497	-12,549	0,071	0,033
-124,483	21,573	0,030	0,017
-123,468	-159,133	0,070	0,003
-122,453	800,000	-0,040	-0,091
-121,439	141,586	-0,094	-0,090
-120,424	49,534	-0,096	-0,065
-119,410	-67,454	0,085	0,024
