DTS Sentinel unit serial number:	SN410029Multiplexer serial number:	ORYXHardware model number:	OX2-SRSoftware version number:	ORYX F/W v4,00 Oryx Data Collector v3.7.2.0data status	okinstallation	B6 Nyhavnadifferential loss correction	single-endedforward channel	channel 2reverse channel	N/Adate	2023/12/10time	16:50:08forward acquisition time	300,00reverse acquisition time	0,00gamma	499,1914k internal	0,3123k external	0,3123temperature offset calibration	1,0000default loss term (dB/km)	0,3820temperature slope calibration	1,0000multiplexer offset coefficient	1,0000multiplexer slope coefficient	1,0000fibre end	0,00T internal ref (°C)	22,39T ext. ref 1 (°C)	6,16T ext. ref 2 (°C)	6,16length (m)	temperature (°C)	Stokes	anti-Stokes-744,400	-23,957	0,048	-0,021
-743,385	-130,789	-0,311	0,031
-742,371	-200,000	-0,048	-0,166
-741,356	-76,246	-0,193	0,050
-740,342	-70,428	-0,102	-0,029
-739,327	51,752	-0,253	0,179
-738,312	223,572	-0,038	0,046
-737,298	-170,170	-0,269	0,007
-736,283	-163,835	0,033	0,001
-735,269	208,024	0,026	0,030
-734,254	216,918	0,028	-0,034
-733,239	-82,033	-0,406	-0,098
-732,225	297,135	0,072	0,099
-731,210	705,058	0,048	-0,095
-730,196	800,000	-0,037	0,090
-729,181	239,225	-0,074	0,092
-728,167	-200,000	0,023	-0,205
-727,152	-200,000	0,012	-0,089
-726,137	402,530	0,064	-0,100
-725,123	52,448	-0,169	-0,120
-724,108	-131,160	-0,055	0,005
-723,094	-200,000	0,017	-0,115
-722,079	800,000	-0,026	-0,078
-721,064	-147,413	-0,037	-0,002
-720,050	800,000	-0,029	-0,063
-719,035	58,701	0,080	-0,058
-718,021	-48,740	0,032	0,011
-717,006	-200,000	-0,020	-0,148
-715,991	-47,694	-0,079	-0,028
-714,977	-9,747	-0,057	-0,028
-713,962	-200,000	0,006	-0,207
-712,948	-200,000	0,009	0,035
-711,933	247,849	-0,147	-0,185
-710,918	-73,522	-0,019	0,005
-709,904	-200,000	0,032	-0,106
-708,889	115,919	-0,081	-0,074
-707,875	93,772	-0,043	-0,037
-706,860	-200,000	-0,009	-0,174
-705,845	800,000	-0,031	-0,065
-704,831	-20,030	0,076	0,035
-703,816	528,212	-0,039	-0,069
-702,802	414,637	-0,038	0,060
-701,787	274,197	-0,053	0,070
-700,772	800,000	-0,032	-0,074
-699,758	670,805	-0,008	-0,016
-698,743	-115,443	0,029	-0,004
-697,729	-94,438	0,100	-0,020
-696,714	-51,921	-0,124	0,043
-695,699	-65,163	0,053	0,016
-694,685	-80,503	-0,088	0,022
-693,670	-83,030	0,042	-0,010
-692,656	800,000	-0,041	-0,127
-691,641	186,274	-0,050	-0,055
-690,627	-28,257	0,088	0,038
-689,612	-200,000	0,006	-0,070
-688,597	131,295	-0,100	-0,096
-687,583	-80,149	-0,078	0,019
-686,568	-200,000	-0,015	-0,057
-685,554	-200,000	0,009	-0,065
-684,539	-200,000	-0,019	0,162
-683,524	-200,000	-0,025	0,088
-682,510	144,344	0,087	0,087
-681,495	-104,117	-0,100	0,017
-680,481	800,000	-0,009	0,027
-679,466	-4,529	-0,191	-0,098
-678,451	800,000	0,036	-0,118
-677,437	800,000	-0,023	-0,070
-676,422	325,140	0,029	-0,042
-675,408	-20,245	-0,056	-0,026
-674,393	-119,360	-0,097	-0,012
-673,378	213,540	-0,048	-0,057
-672,364	65,124	-0,139	-0,104
-671,349	61,380	0,023	0,017
-670,335	-200,000	-0,002	-0,031
-669,320	-200,000	-0,011	-0,121
-668,305	800,000	0,053	0,134
-667,291	83,603	-0,247	0,200
-666,276	800,000	0,022	0,047
-665,262	566,292	-0,059	0,107
-664,247	-48,685	-0,067	-0,024
-663,232	-56,912	0,041	0,013
-662,218	-117,014	0,078	-0,010
-661,203	-84,256	-0,165	0,039
-660,189	-12,517	0,035	-0,017
-659,174	351,990	0,034	-0,051
-658,159	-65,200	0,111	-0,033
-657,145	-37,533	0,093	0,037
-656,130	135,916	0,025	0,024
-655,116	9,908	0,078	-0,044
-654,101	202,712	-0,040	-0,046
-653,086	-145,625	-0,129	0,008
-652,072	-200,000	-0,004	-0,108
-651,057	708,896	0,033	-0,064
-650,043	800,000	-0,036	0,089
-649,028	284,927	0,093	-0,124
-648,014	-200,000	0,038	0,143
-646,999	510,072	-0,058	0,100
-645,984	4,159	0,116	0,063
-644,970	-75,143	-0,060	0,016
-643,955	-50,504	-0,058	0,020
-642,941	-200,000	0,033	-0,142
-641,926	324,540	-0,030	0,042
-640,911	-200,000	0,058	0,205
-639,897	-86,820	0,084	0,019
-638,882	800,000	-0,054	-0,136
-637,868	19,314	-0,133	-0,079
-636,853	-92,301	0,005	0,001
-635,838	-94,741	-0,038	-0,008
-634,824	-200,000	-0,001	-0,043
-633,809	201,313	-0,030	0,034
-632,795	-200,000	0,015	0,053
-631,780	272,874	0,055	0,072
-630,765	10,619	0,077	0,043
-629,751	792,595	-0,082	-0,168
-628,736	3,320	0,064	-0,034
-627,722	163,723	-0,060	0,063
-626,707	-116,533	-0,048	-0,007
-625,692	322,139	-0,081	0,115
-624,678	261,680	-0,024	0,031
-623,663	-200,000	-0,002	-0,017
-622,649	221,762	-0,051	-0,062
-621,634	-98,150	-0,055	0,010
-620,619	39,605	0,100	0,066
-619,605	55,699	-0,089	0,064
-618,590	179,178	0,074	-0,080
-617,576	768,193	-0,034	0,070
-616,561	800,000	-0,053	0,144
-615,546	77,252	-0,060	-0,047
-614,532	-200,000	-0,008	-0,115
-613,517	-200,000	0,005	-0,131
-612,503	467,285	0,042	0,070
-611,488	31,507	0,091	0,058
-610,474	-67,826	0,119	-0,034
-609,459	659,788	-0,054	0,103
-608,444	800,000	-0,047	0,106
-607,430	83,007	-0,101	-0,082
-606,415	800,000	-0,058	-0,125
-605,401	800,000	-0,046	0,108
-604,386	-200,000	0,019	0,092
-603,371	234,769	0,100	-0,123
-602,357	-23,020	-0,057	-0,026
-601,342	-29,976	-0,114	0,048
-600,328	-69,991	-0,022	-0,006
-599,313	102,735	-0,146	-0,127
-598,298	-200,000	-0,022	-0,096
-597,284	-167,275	0,116	-0,003
-596,269	800,000	-0,055	-0,116
-595,255	-44,056	-0,050	-0,019
-594,240	-131,035	-0,144	0,014
-593,225	389,535	-0,010	-0,015
-592,211	-94,752	-0,130	-0,026
-591,196	73,765	0,163	-0,127
-590,182	-139,850	-0,119	0,009
-589,167	-200,000	-0,028	0,126
-588,152	320,499	-0,104	-0,147
-587,138	514,407	-0,016	-0,028
-586,123	741,897	-0,023	0,046
-585,109	800,000	-0,027	-0,071
-584,094	34,271	-0,077	-0,050
-583,079	-200,000	0,003	-0,206
-582,065	-200,000	-0,016	-0,129
-581,050	153,886	-0,069	-0,070
-580,036	332,070	-0,019	-0,028
-579,021	-200,000	0,009	-0,159
-578,006	82,206	0,071	0,057
-576,992	-159,956	0,069	-0,003
-575,977	148,634	-0,071	-0,071
-574,963	411,427	0,033	-0,052
-573,948	-82,254	-0,059	-0,014
-572,934	91,825	0,041	0,034
-571,919	-21,969	-0,043	0,019
-570,904	353,548	0,026	-0,038
-569,890	64,508	0,073	0,055
-568,875	329,325	0,064	0,091
-567,861	14,237	-0,092	0,053
-566,846	800,000	0,031	0,083
-565,831	-200,000	-0,000	0,023
-564,817	78,234	-0,040	-0,031
-563,802	-65,078	0,049	-0,015
-562,788	-59,749	0,010	-0,003
-561,773	-200,000	0,007	0,114
-560,758	-200,000	-0,018	0,063
-559,744	54,158	0,111	0,079
-558,729	-131,147	0,047	0,005
-557,715	-147,472	-0,118	0,007
-556,700	-109,588	-0,078	-0,012
-555,685	279,990	0,030	-0,040
-554,671	96,572	-0,067	0,057
-553,656	418,198	-0,061	0,096
-552,642	447,188	0,061	0,100
-551,627	800,000	-0,056	0,115
-550,612	-200,000	0,017	-0,074
-549,598	66,490	-0,106	-0,080
-548,583	800,000	0,079	-0,166
-547,569	603,208	0,066	-0,122
-546,554	-6,067	0,018	-0,009
-545,539	59,677	0,083	-0,061
-544,525	-35,150	0,004	-0,002
-543,510	108,023	-0,080	0,070
-542,496	-155,614	0,121	-0,006
-541,481	682,642	-0,058	-0,112
-540,466	-17,373	-0,078	-0,036
-539,452	-200,000	-0,029	0,099
-538,437	-56,270	0,025	0,008
-537,423	483,716	-0,050	-0,085
-536,408	551,768	0,072	-0,129
-535,393	-200,000	-0,007	-0,114
-534,379	62,115	-0,068	0,050
-533,364	464,549	0,078	0,130
-532,350	210,048	0,026	0,030
-531,335	800,000	-0,091	0,224
-530,321	96,102	0,112	0,095
-529,306	194,042	-0,065	0,073
-528,291	-154,706	-0,102	-0,005
-527,277	320,220	-0,040	0,057
-526,262	260,154	-0,096	-0,123
-525,248	-200,000	0,007	-0,110
-524,233	26,642	0,020	-0,013
-523,218	18,270	0,043	0,025
-522,204	-200,000	0,040	0,132
-521,189	-200,000	-0,021	0,103
-520,175	-200,000	0,020	0,070
-519,160	-200,000	0,013	0,172
-518,145	-200,000	0,027	0,111
-517,131	-78,404	-0,127	-0,032
-516,116	800,000	0,075	0,172
-515,102	-84,010	-0,020	-0,005
-514,087	170,315	-0,117	-0,124
-513,072	800,000	-0,019	-0,055
-512,058	-107,938	-0,106	0,017
-511,043	-200,000	0,020	-0,113
-510,029	128,934	-0,033	0,031
-509,014	74,543	-0,084	0,065
-507,999	-94,750	-0,158	-0,031
-506,985	-200,000	0,013	0,062
-505,970	532,115	0,028	-0,049
-504,956	800,000	0,032	0,079
-503,941	800,000	-0,010	-0,024
-502,926	197,923	0,017	0,019
-501,912	-32,478	0,085	0,035
-500,897	-200,000	0,001	-0,095
-499,883	68,399	-0,020	-0,015
-498,868	-200,000	-0,012	-0,121
-497,853	-200,000	0,010	-0,092
-496,839	-46,948	0,193	-0,069
-495,824	800,000	0,007	-0,020
-494,810	-101,992	-0,081	-0,014
-493,795	240,235	-0,042	-0,052
-492,781	281,543	0,031	-0,041
-491,766	478,540	0,043	0,073
-490,751	800,000	-0,006	-0,016
-489,737	72,631	0,049	0,038
-488,722	-110,824	0,086	-0,013
-487,708	-65,461	0,058	-0,017
-486,693	38,206	0,083	-0,054
-485,678	34,748	0,077	0,050
-484,664	-200,000	0,019	-0,250
-483,649	-145,640	-0,214	-0,014
-482,635	-17,885	0,100	0,046
-481,620	-200,000	0,049	0,179
-480,605	40,158	0,049	-0,033
-479,591	-125,487	0,087	-0,010
-478,576	189,858	-0,047	-0,052
-477,562	-86,496	-0,028	-0,006
-476,547	800,000	0,033	-0,094
-475,532	472,092	-0,017	0,029
-474,518	-63,213	-0,043	0,013
-473,503	-200,000	-0,001	0,082
-472,489	-149,350	0,227	-0,013
-471,474	20,119	0,045	0,027
-470,459	19,883	-0,176	-0,105
-469,445	216,187	-0,070	0,082
-468,430	-66,954	-0,107	0,031
-467,416	-137,096	0,067	-0,006
-466,401	-200,000	-0,044	0,278
-465,386	132,086	0,074	0,070
-464,372	101,842	-0,067	-0,058
-463,357	169,801	-0,150	-0,158
-462,343	316,092	0,064	0,090
-461,328	-29,849	0,128	0,053
-460,313	10,440	0,011	-0,006
-459,299	-109,553	0,178	-0,027
-458,284	64,657	0,103	-0,077
-457,270	299,632	-0,022	0,030
-456,255	-176,638	-0,090	0,002
-455,241	800,000	0,027	-0,073
-454,226	-200,000	0,007	-0,128
-453,211	36,887	-0,055	-0,036
-452,197	-200,000	-0,005	0,075
-451,182	-200,000	-0,026	0,151
-450,168	800,000	-0,052	0,134
-449,153	153,511	0,148	0,149
-448,138	800,000	-0,043	-0,127
-447,124	-68,499	-0,095	-0,027
-446,109	87,994	0,021	-0,017
-445,095	70,786	0,154	0,118
-444,080	-200,000	0,009	0,120
-443,065	0,883	0,038	-0,020
-442,051	39,510	-0,027	-0,018
-441,036	41,003	-0,043	0,028
-440,022	23,519	-0,048	0,029
-439,007	437,796	0,026	-0,043
-437,992	-60,548	0,059	0,018
-436,978	-200,000	-0,014	0,101
-435,963	-41,529	0,082	0,031
-434,949	-47,849	-0,018	-0,006
-433,934	-47,721	-0,030	-0,011
-432,919	-40,179	0,043	-0,016
-431,905	240,210	0,030	-0,037
-430,890	390,355	0,034	0,052
-429,876	-48,659	0,021	0,007
-428,861	612,510	0,038	0,070
-427,846	800,000	-0,038	-0,116
-426,832	-100,831	-0,085	-0,015
-425,817	-23,854	-0,095	-0,042
-424,803	-200,000	0,051	0,197
-423,788	-200,000	0,044	0,230
-422,773	-200,000	-0,022	0,084
-421,759	82,928	0,102	-0,082
-420,744	-200,000	-0,008	-0,035
-419,730	-114,405	-0,096	0,013
-418,715	800,000	0,042	-0,091
-417,701	800,000	0,007	0,015
-416,686	-200,000	0,000	0,075
-415,671	594,688	-0,052	0,095
-414,657	-200,000	-0,008	-0,040
-413,642	178,512	-0,071	0,076
-412,628	-200,000	0,010	0,112
-411,613	-6,515	0,046	-0,023
-410,598	800,000	-0,052	-0,115
-409,584	-200,000	-0,001	0,036
-408,569	196,827	0,087	-0,098
-407,555	800,000	-0,021	-0,059
-406,540	58,337	-0,033	-0,024
-405,525	-140,254	-0,140	0,011
-404,511	239,641	-0,101	0,124
-403,496	-200,000	-0,016	-0,148
-402,482	171,763	-0,100	0,105
-401,467	-105,681	-0,079	0,013
-400,452	-200,000	0,000	0,059
-399,438	-200,000	0,010	0,056
-398,423	-179,054	-0,091	-0,001
-397,409	-178,200	-0,106	-0,002
-396,394	134,781	-0,101	0,096
-395,379	118,648	-0,082	-0,075
-394,365	310,791	-0,004	-0,006
-393,350	72,290	0,089	0,068
-392,336	20,598	0,097	0,058
-391,321	-83,194	-0,074	-0,017
-390,306	576,602	0,089	-0,160
-389,292	791,867	-0,028	-0,057
-388,277	-200,000	0,006	-0,081
-387,263	-40,733	0,192	-0,073
-386,248	86,572	-0,106	-0,086
-385,233	-1,421	0,148	0,076
-384,219	-200,000	-0,024	0,152
-383,204	90,749	0,099	-0,082
-382,190	-39,235	0,036	0,014
-381,175	53,112	0,074	0,052
-380,160	-200,000	0,021	-0,115
-379,146	800,000	-0,010	-0,029
-378,131	185,927	0,025	-0,027
-377,117	-29,601	0,011	0,005
-376,102	800,000	0,044	-0,142
-375,088	301,047	0,071	0,096
-374,073	-29,608	-0,104	0,043
-373,058	-7,371	0,097	-0,048
-372,044	797,933	0,024	0,049
-371,029	-1,008	-0,108	0,056
-370,015	-200,000	0,012	0,057
-369,000	-200,000	-0,011	0,064
-367,985	-200,000	-0,003	-0,049
-366,971	800,000	-0,011	-0,024
-365,956	-82,217	0,075	0,018
-364,942	800,000	-0,028	0,084
-363,927	800,000	-0,030	0,094
-362,912	-200,000	0,023	0,109
-361,898	-200,000	-0,004	0,024
-360,883	-200,000	-0,008	0,104
-359,869	527,973	0,041	0,071
-358,854	-200,000	-0,005	0,044
-357,839	800,000	0,053	0,125
-356,825	-23,290	0,047	0,021
-355,810	65,088	0,087	0,064
-354,796	-119,377	0,025	0,003
-353,781	99,295	0,065	-0,055
-352,766	142,047	0,092	0,089
-351,752	336,473	0,055	-0,079
-350,737	800,000	0,026	0,076
-349,723	800,000	-0,024	0,064
-348,708	239,173	-0,090	-0,111
-347,693	29,655	0,171	-0,107
-346,679	77,327	-0,045	0,035
-345,664	-200,000	0,025	-0,084
-344,650	222,883	0,035	0,042
-343,635	-10,287	0,108	-0,052
-342,620	-200,000	-0,040	0,145
-341,606	207,516	0,029	0,033
-340,591	136,641	-0,045	0,043
-339,577	696,128	0,047	-0,092
-338,562	467,143	-0,054	0,090
-337,548	-200,000	-0,015	-0,103
-336,533	800,000	0,080	0,165
-335,518	115,472	0,041	-0,037
-334,504	344,647	-0,068	0,098
-333,489	-200,000	-0,010	-0,080
-332,475	-97,311	0,137	-0,026
-331,460	-73,567	-0,170	-0,045
-330,445	-168,923	0,030	0,001
-329,431	-200,000	-0,009	0,072
-328,416	31,023	0,083	-0,052
-327,402	596,054	-0,021	-0,038
-326,387	626,419	0,052	-0,096
-325,372	47,420	-0,061	0,042
-324,358	-42,652	0,164	0,061
-323,343	-200,000	0,004	0,041
-322,329	-79,758	0,110	-0,027
-321,314	-20,110	-0,019	-0,008
-320,299	-133,263	0,064	0,006
-319,285	429,075	0,030	-0,048
-318,270	-200,000	-0,008	0,071
-317,256	412,438	0,008	0,013
-316,241	25,318	-0,149	0,090
-315,226	-156,070	0,070	-0,003
-314,212	205,341	-0,070	0,080
-313,197	800,000	-0,049	0,126
-312,183	-65,975	0,073	-0,021
-311,168	30,811	-0,043	0,027
-310,153	625,339	0,046	-0,086
-309,139	411,094	0,023	0,036
-308,124	148,472	-0,024	-0,023
-307,110	-50,910	-0,072	0,025
-306,095	-51,529	0,177	0,060
-305,080	-200,000	0,001	0,160
-304,066	-98,840	0,039	0,007
-303,051	800,000	-0,024	-0,075
-302,037	-153,772	-0,051	-0,003
-301,022	95,086	-0,057	-0,048
-300,008	-141,753	0,129	0,009
-298,993	-200,000	0,037	-0,134
-297,978	134,469	-0,040	0,038
-296,964	96,275	-0,074	-0,062
-295,949	215,610	-0,062	-0,072
-294,935	102,176	-0,041	-0,035
-293,920	114,099	0,095	-0,085
-292,905	55,239	0,157	-0,111
-291,891	-150,055	0,105	-0,006
-290,876	-117,699	0,118	0,015
-289,862	202,732	-0,019	0,021
-288,847	584,167	-0,052	-0,095
-287,832	92,782	-0,050	-0,041
-286,818	-113,553	0,129	-0,018
-285,803	-87,156	0,049	-0,011
-284,789	-200,000	-0,001	-0,134
-283,774	-91,589	0,133	0,027
-282,759	-200,000	-0,006	0,046
-281,745	275,026	-0,091	-0,118
-280,730	625,913	-0,090	-0,166
-279,716	-114,538	0,040	0,006
-278,701	542,786	-0,047	-0,083
-277,686	-200,000	-0,028	-0,145
-276,672	-68,783	0,099	0,028
-275,657	-19,218	-0,048	0,022
-274,643	-200,000	-0,014	-0,096
-273,628	182,971	0,077	-0,083
-272,613	143,926	-0,099	-0,097
-271,599	166,041	0,073	0,076
-270,584	86,829	0,121	0,098
-269,570	-200,000	0,033	0,198
-268,555	-58,580	-0,171	0,054
-267,540	-73,271	-0,046	0,012
-266,526	-49,623	-0,078	0,027
-265,511	37,082	-0,102	-0,066
-264,497	-200,000	0,001	0,105
-263,482	-49,447	0,083	-0,029
-262,467	800,000	0,031	0,071
-261,453	-200,000	0,002	0,062
-260,438	164,310	-0,076	-0,078
-259,424	-200,000	0,023	-0,090
-258,409	800,000	-0,096	0,231
-257,395	-157,162	0,075	0,003
-256,380	130,597	-0,066	0,062
-255,365	-102,017	-0,128	0,022
-254,351	-157,075	0,053	0,002
-253,336	-200,000	-0,020	0,142
-252,322	-33,654	0,086	0,035
-251,307	-200,000	-0,017	-0,091
-250,292	-200,000	0,004	-0,160
-249,278	-200,000	0,007	-0,105
-248,263	163,097	0,037	-0,039
-247,249	30,185	0,109	-0,068
-246,234	191,625	0,041	-0,045
-245,219	-200,000	-0,022	-0,131
-244,205	173,816	-0,079	0,083
-243,190	38,982	-0,026	-0,017
-242,176	-86,139	0,118	0,026
-241,161	800,000	0,025	-0,055
-240,146	-200,000	-0,009	0,092
-239,132	85,421	-0,102	-0,082
-238,117	-113,818	-0,129	-0,018
-237,103	43,919	-0,081	0,054
-236,088	-156,661	-0,069	0,003
-235,073	337,923	0,036	-0,051
-234,059	-88,557	0,114	-0,025
-233,044	263,340	-0,044	-0,056
-232,030	2,179	-0,061	-0,032
-231,015	-75,345	-0,077	-0,020
-230,000	1,948	0,026	0,013
-228,986	-200,000	-0,000	0,018
-227,971	215,054	0,075	-0,087
-226,957	330,911	0,023	0,033
-225,942	514,737	-0,038	-0,065
-224,927	800,000	0,029	-0,070
-223,913	-200,000	-0,035	-0,114
-222,898	184,778	-0,011	-0,012
-221,884	451,861	-0,057	-0,092
-220,869	-200,000	-0,018	0,085
-219,855	-200,000	0,012	0,133
-218,840	56,003	0,018	0,013
-217,825	-77,617	0,052	0,013
-216,811	-19,962	-0,088	-0,040
-215,796	-38,627	-0,139	0,053
-214,782	800,000	0,013	0,034
-213,767	-200,000	-0,010	0,032
-212,752	11,662	0,091	0,051
-211,738	-200,000	0,034	-0,128
-210,723	-163,531	-0,046	0,002
-209,709	-200,000	0,025	0,105
-208,694	26,828	-0,136	-0,083
-207,679	-6,466	-0,083	0,041
-206,665	-157,490	-0,101	0,004
-205,650	-200,000	-0,031	0,102
-204,636	16,170	-0,002	-0,001
-203,621	-133,175	0,065	0,006
-202,606	206,980	-0,047	-0,054
-201,592	800,000	0,021	-0,051
-200,577	77,033	-0,141	-0,110
-199,563	44,211	-0,024	-0,016
-198,548	52,747	0,066	0,046
-197,533	-72,576	0,130	0,035
-196,519	-176,991	0,045	-0,001
-195,504	35,121	-0,095	-0,061
-194,490	-200,000	0,002	0,030
-193,475	147,249	0,064	0,063
-192,460	514,096	-0,028	-0,047
-191,446	-200,000	-0,078	0,000
-190,431	86,893	0,070	0,056
-189,417	139,353	0,082	-0,079
-188,402	91,162	0,064	-0,052
-187,387	-200,000	-0,056	-0,181
-186,373	335,244	0,103	-0,146
-185,358	-200,000	0,039	0,225
-184,344	800,000	0,011	0,024
-183,329	800,000	-0,054	0,123
-182,315	-200,000	-0,012	0,107
-181,300	9,405	-0,060	0,033
-180,285	7,110	0,029	-0,016
-179,271	-57,351	-0,043	-0,014
-178,256	-200,000	0,003	-0,035
-177,242	-5,215	-0,053	0,026
-176,227	-79,895	0,165	0,040
-175,212	-148,934	-0,092	-0,005
-174,198	-12,282	0,074	-0,035
-173,183	800,000	-0,024	-0,073
-172,169	-168,838	0,075	-0,002
-171,154	800,000	0,023	0,047
-170,139	-200,000	0,009	0,096
-169,125	-82,481	0,095	-0,022
-168,110	-200,000	0,024	0,080
-167,096	11,430	0,144	-0,080
-166,081	49,120	-0,089	-0,061
-165,066	-43,564	-0,071	-0,026
-164,052	116,868	-0,044	-0,040
-163,037	-153,037	0,142	0,007
-162,023	148,858	0,060	-0,059
-161,008	275,714	-0,113	-0,146
-159,993	57,869	-0,030	0,021
-158,979	164,991	-0,110	-0,114
-157,964	30,558	-0,071	-0,044
-156,950	-200,000	-0,024	-0,121
-155,935	800,000	-0,018	0,036
-154,920	-103,216	0,146	0,025
-153,906	133,864	0,034	0,032
-152,891	49,497	0,080	-0,055
-151,877	-200,000	-0,002	-0,072
-150,862	800,000	-0,034	-0,097
-149,847	800,000	0,001	0,002
-148,833	-39,476	-0,064	-0,024
-147,818	-200,000	0,003	0,095
-146,804	-117,264	0,018	-0,002
-145,789	800,000	0,099	0,249
-144,775	-200,000	-0,013	-0,079
-143,760	-78,177	-0,115	-0,029
-142,745	-200,000	0,010	0,054
-141,731	-200,000	0,006	0,076
-140,716	-200,000	-0,001	0,063
-139,702	76,675	0,120	-0,092
-138,687	55,659	0,098	0,069
-137,672	48,653	-0,152	-0,103
-136,658	-200,000	-0,005	-0,124
-135,643	316,244	0,081	-0,111
-134,629	800,000	0,070	-0,155
-133,614	-200,000	0,005	-0,042
-132,599	9,770	-0,027	-0,015
-131,585	350,030	-0,022	-0,032
-130,570	509,019	-0,107	-0,182
-129,556	-200,000	-0,003	-0,059
-128,541	209,238	-0,105	0,120
-127,526	-78,183	-0,055	-0,014
-126,512	800,000	0,035	0,085
-125,497	-200,000	0,017	-0,084
-124,483	-5,986	0,079	0,039
-123,468	800,000	-0,039	-0,091
-122,453	-200,000	-0,019	-0,115
-121,439	3,191	-0,077	-0,041
-120,424	-200,000	0,001	0,038
-119,410	-200,000	-0,006	0,102
