DTS Sentinel unit serial number:	SN410029Multiplexer serial number:	ORYXHardware model number:	OX2-SRSoftware version number:	ORYX F/W v4,00 Oryx Data Collector v3.7.2.0data status	okinstallation	B6 Nyhavnadifferential loss correction	single-endedforward channel	channel 2reverse channel	N/Adate	2023/12/07time	19:55:08forward acquisition time	300,00reverse acquisition time	0,00gamma	499,1914k internal	0,3164k external	0,3164temperature offset calibration	1,0000default loss term (dB/km)	0,3820temperature slope calibration	1,0000multiplexer offset coefficient	1,0000multiplexer slope coefficient	1,0000fibre end	0,00T internal ref (°C)	13,92T ext. ref 1 (°C)	-3,06T ext. ref 2 (°C)	-3,06length (m)	temperature (°C)	Stokes	anti-Stokes-744,400	800,000	0,096	-0,219
-743,385	-138,155	-0,188	0,015
-742,371	259,232	0,056	0,071
-741,356	-118,314	-0,232	-0,030
-740,342	754,912	0,095	0,189
-739,327	-21,495	-0,155	0,069
-738,312	-200,000	-0,010	-0,072
-737,298	-52,480	-0,195	0,066
-736,283	183,533	0,064	0,069
-735,269	-163,446	-0,233	-0,008
-734,254	182,465	0,121	0,132
-733,239	24,708	-0,470	-0,286
-732,225	-147,399	0,068	-0,004
-731,210	-200,000	-0,005	-0,024
-730,196	-200,000	0,018	-0,164
-729,181	121,358	-0,032	-0,029
-728,167	78,003	-0,141	-0,110
-727,152	-76,960	0,054	-0,014
-726,137	196,092	-0,035	0,039
-725,123	-200,000	0,020	-0,123
-724,108	-200,000	0,032	-0,135
-723,094	800,000	-0,034	-0,106
-722,079	800,000	-0,021	-0,050
-721,064	111,522	-0,093	0,082
-720,050	800,000	-0,039	-0,092
-719,035	647,924	0,025	-0,046
-718,021	418,188	0,075	-0,119
-717,006	-28,860	-0,194	-0,082
-715,991	148,535	-0,069	-0,068
-714,977	-117,256	0,142	0,019
-713,962	-200,000	-0,008	-0,078
-712,948	-200,000	-0,007	-0,043
-711,933	150,717	-0,056	0,056
-710,918	-176,932	-0,126	-0,002
-709,904	557,670	-0,108	-0,191
-708,889	-20,696	0,046	-0,021
-707,875	161,903	-0,057	-0,059
-706,860	-200,000	0,008	-0,089
-705,845	199,667	0,025	-0,028
-704,831	49,442	0,106	0,073
-703,816	31,648	0,057	-0,036
-702,802	800,000	0,056	-0,137
-701,787	800,000	-0,047	-0,109
-700,772	-71,197	0,073	-0,020
-699,758	16,466	-0,083	-0,048
-698,743	176,340	-0,121	-0,129
-697,729	800,000	-0,019	-0,061
-696,714	-81,175	0,095	0,023
-695,699	-31,119	-0,031	-0,013
-694,685	382,028	0,095	-0,143
-693,670	-19,892	-0,062	0,028
-692,656	267,717	0,055	-0,071
-691,641	190,019	0,071	0,079
-690,627	-2,511	-0,117	-0,060
-689,612	-200,000	-0,010	-0,104
-688,597	-62,428	-0,112	0,034
-687,583	300,432	-0,019	-0,025
-686,568	800,000	-0,081	-0,169
-685,554	-200,000	0,022	-0,109
-684,539	-84,090	0,077	0,018
-683,524	123,726	0,064	-0,059
-682,510	-118,007	0,108	-0,014
-681,495	120,634	-0,176	-0,161
-680,481	-144,604	-0,060	0,004
-679,466	-200,000	-0,015	0,123
-678,451	-200,000	0,010	0,085
-677,437	161,919	-0,074	0,076
-676,422	-118,635	-0,063	-0,008
-675,408	175,700	-0,098	0,105
-674,393	-200,000	-0,017	-0,062
-673,378	-63,850	-0,224	-0,067
-672,364	-200,000	-0,012	-0,119
-671,349	-200,000	-0,010	0,141
-670,335	0,728	-0,073	0,038
-669,320	800,000	-0,032	-0,088
-668,305	17,593	0,071	-0,041
-667,291	-133,112	-0,083	-0,008
-666,276	-128,209	0,116	-0,012
-665,262	7,206	0,071	-0,039
-664,247	-103,595	0,141	-0,024
-663,232	231,539	-0,064	-0,077
-662,218	800,000	0,030	-0,089
-661,203	-112,315	0,067	-0,010
-660,189	800,000	-0,051	-0,149
-659,174	-200,000	-0,012	-0,094
-658,159	-200,000	-0,008	-0,055
-657,145	-200,000	-0,017	-0,103
-656,130	-190,175	0,107	0,001
-655,116	398,192	-0,023	-0,036
-654,101	-200,000	0,025	-0,148
-653,086	-98,884	-0,097	0,018
-652,072	-18,504	-0,064	-0,029
-651,057	440,653	-0,094	0,151
-650,043	120,250	-0,108	0,099
-649,028	-200,000	-0,009	-0,064
-648,014	121,012	0,109	-0,099
-646,999	-200,000	-0,002	0,163
-645,984	-141,925	-0,141	-0,010
-644,970	33,967	-0,077	-0,049
-643,955	800,000	-0,018	0,053
-642,941	281,874	-0,094	-0,124
-641,926	359,150	-0,073	0,108
-640,911	52,136	0,037	-0,026
-639,897	-200,000	-0,004	0,137
-638,882	-115,493	-0,126	0,017
-637,868	103,034	-0,064	-0,055
-636,853	800,000	-0,027	0,065
-635,838	610,222	0,067	-0,124
-634,824	-142,158	0,035	0,003
-633,809	351,199	0,079	0,115
-632,795	187,276	0,045	-0,050
-631,780	103,052	0,056	0,048
-630,765	41,963	-0,025	0,017
-629,751	-127,834	-0,062	0,006
-628,736	-128,598	-0,111	-0,011
-627,722	800,000	0,009	-0,026
-626,707	34,477	-0,015	-0,010
-625,692	-159,035	-0,091	-0,004
-624,678	800,000	0,041	-0,097
-623,663	800,000	0,012	-0,037
-622,649	-43,825	0,067	0,025
-621,634	-200,000	0,030	-0,159
-620,619	-200,000	-0,006	-0,028
-619,605	-178,831	0,125	0,002
-618,590	112,749	0,061	0,054
-617,576	564,208	0,045	0,081
-616,561	800,000	0,026	-0,078
-615,546	-43,841	-0,049	-0,018
-614,532	-200,000	-0,001	-0,080
-613,517	-77,424	-0,150	-0,038
-612,503	800,000	0,053	-0,159
-611,488	800,000	0,040	-0,087
-610,474	-200,000	0,001	0,031
-609,459	336,004	0,061	-0,086
-608,444	284,390	-0,040	0,053
-607,430	262,078	0,022	-0,027
-606,415	-200,000	-0,020	-0,089
-605,401	156,265	0,030	0,031
-604,386	573,038	0,035	-0,062
-603,371	800,000	0,033	0,073
-602,357	403,307	-0,066	0,102
-601,342	-200,000	0,007	0,071
-600,328	-200,000	-0,036	-0,144
-599,313	-110,996	-0,061	-0,009
-598,298	195,686	-0,080	-0,090
-597,284	-200,000	-0,017	-0,059
-596,269	800,000	0,010	0,022
-595,255	258,507	-0,045	0,057
-594,240	-99,723	-0,054	-0,010
-593,225	53,647	-0,111	-0,078
-592,211	-92,009	-0,112	0,023
-591,196	-200,000	-0,009	0,133
-590,182	800,000	0,051	0,112
-589,167	-200,000	0,064	0,000
-588,152	-124,183	0,046	-0,005
-587,138	-123,194	0,038	-0,004
-586,123	-157,327	0,091	-0,004
-585,109	15,973	-0,102	0,059
-584,094	800,000	-0,046	-0,107
-583,079	-200,000	0,002	-0,048
-582,065	-46,108	0,120	-0,043
-581,050	13,433	0,051	-0,029
-580,036	-42,664	-0,079	-0,029
-579,021	800,000	-0,024	0,053
-578,006	-139,537	-0,123	-0,009
-576,992	-13,775	-0,090	0,043
-575,977	51,555	0,050	-0,034
-574,963	112,992	0,031	0,028
-573,948	36,111	-0,088	0,057
-572,934	-24,030	0,115	-0,050
-571,919	83,497	-0,088	-0,070
-570,904	800,000	0,019	-0,056
-569,890	800,000	-0,020	-0,050
-568,875	111,569	-0,109	-0,096
-567,861	211,526	-0,091	0,105
-566,846	-200,000	0,001	0,067
-565,831	-200,000	0,009	0,057
-564,817	303,519	-0,060	0,081
-563,802	235,497	-0,034	-0,041
-562,788	-200,000	0,004	-0,175
-561,773	-200,000	-0,008	-0,127
-560,758	208,664	0,078	0,089
-559,744	107,420	-0,018	0,015
-558,729	800,000	0,071	0,168
-557,715	350,117	0,032	0,046
-556,700	127,303	-0,055	-0,051
-555,685	320,304	0,042	0,059
-554,671	178,664	0,024	0,025
-553,656	345,682	0,034	-0,049
-552,642	-200,000	-0,026	0,118
-551,627	-48,413	0,048	0,017
-550,612	800,000	-0,015	-0,035
-549,598	-35,645	-0,200	-0,079
-548,583	287,375	-0,113	-0,150
-547,569	-200,000	-0,049	0,168
-546,554	550,480	-0,076	-0,134
-545,539	-157,325	-0,141	0,006
-544,525	800,000	0,022	-0,063
-543,510	-120,380	-0,162	0,020
-542,496	800,000	0,012	-0,026
-541,481	198,139	-0,071	-0,080
-540,466	474,474	0,079	-0,130
-539,452	-200,000	-0,012	-0,064
-538,437	5,118	0,012	0,006
-537,423	-105,342	-0,053	0,009
-536,408	-200,000	0,010	0,051
-535,393	-128,620	-0,102	-0,010
-534,379	217,905	0,101	0,118
-533,364	-129,263	-0,081	0,008
-532,350	-200,000	-0,031	0,123
-531,335	43,995	0,071	0,047
-530,321	-45,861	0,100	0,036
-529,306	484,931	-0,093	0,155
-528,291	-200,000	0,029	0,186
-527,277	-43,113	-0,084	0,031
-526,262	800,000	-0,025	0,074
-525,248	-200,000	0,004	0,063
-524,233	30,335	0,141	0,088
-523,218	-200,000	0,019	-0,104
-522,204	-55,041	0,077	0,025
-521,189	689,386	-0,016	0,030
-520,175	41,393	-0,080	-0,052
-519,160	-200,000	0,026	-0,111
-518,145	-91,972	0,050	-0,010
-517,131	-151,867	0,112	0,006
-516,116	800,000	-0,036	-0,082
-515,102	-90,868	0,031	0,007
-514,087	-40,574	-0,070	0,026
-513,072	317,671	-0,047	-0,065
-512,058	61,855	0,045	-0,033
-511,043	-200,000	0,014	-0,046
-510,029	186,299	-0,095	0,103
-509,014	392,138	0,025	0,038
-507,999	800,000	-0,026	0,059
-506,985	-200,000	0,001	0,007
-505,970	103,319	0,079	0,067
-504,956	-200,000	-0,001	-0,027
-503,941	45,286	0,046	0,031
-502,926	-16,048	0,051	0,024
-501,912	-20,839	-0,067	-0,030
-500,897	-200,000	-0,006	0,162
-499,883	90,202	-0,024	-0,020
-498,868	-21,407	0,082	0,036
-497,853	-165,380	0,125	-0,004
-496,839	800,000	-0,010	0,030
-495,824	-115,114	0,194	-0,026
-494,810	800,000	-0,041	0,118
-493,795	-200,000	-0,020	0,082
-492,781	800,000	-0,024	0,061
-491,766	-200,000	-0,007	0,029
-490,751	-84,282	-0,055	-0,013
-489,737	-200,000	-0,004	0,074
-488,722	112,631	-0,053	-0,047
-487,708	51,550	0,154	0,107
-486,693	32,782	0,161	-0,101
-485,678	-200,000	0,001	-0,049
-484,664	149,219	-0,041	-0,041
-483,649	98,975	-0,037	-0,031
-482,635	-157,510	-0,029	-0,001
-481,620	-9,102	0,032	-0,015
-480,605	59,868	-0,032	0,023
-479,591	55,018	-0,024	0,017
-478,576	-146,005	-0,045	0,003
-477,562	113,764	-0,072	-0,064
-476,547	-200,000	0,003	-0,072
-475,532	800,000	0,048	-0,101
-474,518	800,000	-0,026	0,069
-473,503	710,033	-0,023	-0,045
-472,489	137,082	0,082	-0,078
-471,474	800,000	-0,038	-0,095
-470,459	-200,000	0,011	-0,045
-469,445	-0,399	-0,123	-0,063
-468,430	-76,476	0,014	-0,004
-467,416	562,822	0,024	-0,042
-466,401	800,000	-0,037	-0,107
-465,386	800,000	0,037	0,110
-464,372	2,595	0,142	0,075
-463,357	61,157	-0,060	0,043
-462,343	800,000	-0,028	-0,064
-461,328	-200,000	0,004	-0,059
-460,313	217,425	-0,085	0,098
-459,299	60,794	0,185	0,133
-458,284	-200,000	-0,017	0,095
-457,270	340,385	0,042	-0,060
-456,255	-19,621	-0,033	-0,015
-455,241	53,728	-0,119	-0,083
-454,226	452,582	-0,031	-0,049
-453,211	-94,192	-0,050	0,010
-452,197	-77,187	0,083	0,021
-451,182	-93,641	-0,169	-0,034
-450,168	107,565	-0,105	0,091
-449,153	143,264	0,091	-0,089
-448,138	800,000	-0,013	-0,033
-447,124	-10,820	0,016	0,008
-446,109	-157,316	-0,059	0,003
-445,095	800,000	-0,029	0,075
-444,080	-200,000	-0,004	0,061
-443,065	-200,000	0,003	-0,111
-442,051	104,396	0,026	-0,022
-441,036	800,000	0,040	-0,119
-440,022	800,000	0,028	-0,083
-439,007	800,000	-0,014	0,040
-437,992	624,393	0,069	0,127
-436,978	130,091	0,085	-0,079
-435,963	89,995	0,097	0,079
-434,949	-200,000	0,022	-0,121
-433,934	-200,000	-0,015	-0,107
-432,919	-28,358	0,162	0,068
-431,905	800,000	-0,031	-0,094
-430,890	-200,000	-0,003	0,058
-429,876	-124,464	0,011	0,001
-428,861	-70,366	-0,128	-0,035
-427,846	105,515	0,140	0,120
-426,832	252,102	-0,096	-0,119
-425,817	-200,000	0,037	-0,151
-424,803	-100,878	-0,063	0,011
-423,788	-62,779	0,027	0,008
-422,773	-200,000	-0,020	0,114
-421,759	-6,740	0,059	-0,029
-420,744	218,575	-0,028	0,033
-419,730	-200,000	0,001	0,042
-418,715	800,000	0,023	-0,058
-417,701	800,000	-0,024	-0,073
-416,686	800,000	-0,071	0,152
-415,671	-27,182	-0,040	-0,017
-414,657	800,000	0,088	0,196
-413,642	800,000	-0,015	0,038
-412,628	-200,000	-0,011	-0,128
-411,613	-75,208	0,023	0,006
-410,598	66,147	0,061	-0,045
-409,584	-62,529	0,132	0,039
-408,569	38,812	0,108	0,070
-407,555	800,000	0,031	-0,076
-406,540	275,155	0,066	-0,085
-405,525	68,665	-0,101	0,076
-404,511	355,819	0,081	-0,117
-403,496	800,000	0,056	-0,172
-402,482	800,000	0,027	-0,075
-401,467	328,434	0,060	0,084
-400,452	-29,532	-0,021	0,009
-399,438	-97,177	-0,080	0,015
-398,423	-200,000	0,004	0,018
-397,409	800,000	-0,055	-0,123
-396,394	148,403	-0,111	-0,109
-395,379	-139,537	-0,138	-0,011
-394,365	213,046	-0,032	-0,037
-393,350	800,000	-0,044	-0,109
-392,336	-143,830	0,075	-0,005
-391,321	32,913	0,065	-0,041
-390,306	-200,000	-0,028	0,137
-389,292	41,490	0,110	-0,072
-388,277	349,418	0,040	0,058
-387,263	165,662	-0,043	-0,044
-386,248	-117,482	0,140	0,018
-385,233	-200,000	-0,013	0,122
-384,219	516,352	-0,074	-0,126
-383,204	-200,000	0,023	-0,094
-382,190	-200,000	0,000	-0,182
-381,175	346,775	-0,026	-0,038
-380,160	-200,000	0,002	-0,152
-379,146	126,812	0,022	0,021
-378,131	800,000	0,029	0,092
-377,117	-52,904	0,080	0,027
-376,102	84,092	0,012	-0,010
-375,088	-200,000	0,034	-0,122
-374,073	-200,000	0,013	0,059
-373,058	132,936	-0,065	0,061
-372,044	70,792	0,080	-0,060
-371,029	474,142	0,049	-0,081
-370,015	71,341	0,113	-0,085
-369,000	-13,298	0,069	-0,033
-367,985	53,477	-0,050	-0,035
-366,971	30,683	-0,072	-0,044
-365,956	-200,000	-0,007	0,054
-364,942	-200,000	-0,006	-0,148
-363,927	-200,000	0,003	-0,074
-362,912	471,651	0,016	0,026
-361,898	800,000	0,050	0,144
-360,883	216,515	-0,078	0,090
-359,869	-200,000	0,001	-0,005
-358,854	-200,000	-0,032	0,109
-357,839	101,305	-0,095	-0,080
-356,825	31,135	0,113	-0,070
-355,810	-200,000	0,025	0,175
-354,796	-200,000	0,003	0,044
-353,781	-200,000	-0,022	-0,136
-352,766	800,000	0,004	-0,009
-351,752	667,925	-0,037	-0,069
-350,737	-21,822	0,070	0,031
-349,723	-58,038	-0,043	0,013
-348,708	-32,930	-0,134	0,054
-347,693	43,042	-0,040	-0,026
-346,679	144,177	-0,086	-0,083
-345,664	-200,000	-0,016	-0,120
-344,650	-200,000	0,008	0,183
-343,635	-200,000	0,005	0,055
-342,620	-97,912	0,164	0,030
-341,606	800,000	0,020	0,059
-340,591	-200,000	-0,014	0,064
-339,577	-27,706	-0,102	0,043
-338,562	223,123	0,077	-0,090
-337,548	-6,067	-0,156	0,077
-336,533	21,826	-0,091	0,054
-335,518	-149,497	-0,000	0,000
-334,504	742,184	-0,068	0,133
-333,489	140,930	0,077	0,073
-332,475	-8,751	-0,193	-0,094
-331,460	-200,000	0,015	0,091
-330,445	-200,000	-0,022	0,101
-329,431	800,000	0,029	-0,065
-328,416	54,110	-0,078	-0,054
-327,402	-89,122	0,018	0,004
-326,387	5,749	0,018	-0,009
-325,372	249,037	-0,014	-0,017
-324,358	-46,179	0,039	-0,014
-323,343	159,444	0,040	0,040
-322,329	-50,074	0,066	0,023
-321,314	304,713	-0,058	-0,078
-320,299	-14,124	-0,070	0,032
-319,285	-200,000	0,019	-0,110
-318,270	-33,134	0,156	-0,062
-317,256	435,695	-0,039	0,062
-316,241	-148,953	0,067	0,004
-315,226	-61,799	0,112	-0,034
-314,212	180,940	0,085	0,090
-313,197	-53,555	0,061	0,020
-312,183	-103,658	0,059	0,010
-311,168	61,997	-0,105	-0,076
-310,153	518,200	0,022	0,037
-309,139	122,629	0,048	0,043
-308,124	-200,000	0,008	-0,072
-307,110	-200,000	0,031	0,134
-306,095	-17,105	-0,166	0,076
-305,080	-71,931	0,081	-0,022
-304,066	-200,000	-0,018	-0,078
-303,051	374,305	-0,066	-0,097
-302,037	233,036	0,063	0,075
-301,022	390,156	-0,029	0,043
-300,008	756,562	0,042	0,082
-298,993	115,420	-0,034	-0,030
-297,978	-88,336	0,069	-0,015
-296,964	-75,912	-0,037	-0,009
-295,949	-4,713	0,077	-0,038
-294,935	275,802	-0,099	-0,127
-293,920	166,175	-0,025	-0,026
-292,905	-200,000	0,034	0,132
-291,891	273,458	0,069	0,089
-290,876	-109,963	-0,128	0,019
-289,862	-44,045	0,061	0,022
-288,847	80,174	-0,060	-0,047
-287,832	800,000	-0,069	-0,152
-286,818	28,166	-0,029	0,018
-285,803	198,351	-0,066	0,073
-284,789	-200,000	0,011	0,061
-283,774	312,560	0,085	0,115
-282,759	800,000	0,076	0,172
-281,745	-179,412	-0,045	0,001
-280,730	38,892	0,089	-0,057
-279,716	800,000	-0,019	-0,053
-278,701	29,478	0,102	-0,063
-277,686	76,480	0,134	0,103
-276,672	-200,000	-0,017	0,078
-275,657	281,689	-0,035	0,045
-274,643	39,950	-0,066	0,043
-273,628	684,199	-0,009	0,018
-272,613	-200,000	-0,003	-0,077
-271,599	-200,000	0,018	0,062
-270,584	2,563	0,072	0,037
-269,570	160,271	0,059	-0,059
-268,555	11,081	0,103	-0,057
-267,540	95,107	-0,060	0,049
-266,526	-75,860	-0,162	-0,041
-265,511	-200,000	0,028	-0,169
-264,497	800,000	-0,035	-0,079
-263,482	-200,000	-0,028	0,153
-262,467	496,365	-0,015	0,026
-261,453	-200,000	0,021	-0,075
-260,438	-200,000	-0,011	-0,094
-259,424	800,000	-0,024	0,049
-258,409	28,299	-0,100	-0,061
-257,395	-37,205	-0,031	0,012
-256,380	-71,761	0,062	-0,017
-255,365	-200,000	-0,011	0,164
-254,351	-200,000	-0,008	0,048
-253,336	40,968	-0,079	-0,052
-252,322	-200,000	0,008	0,042
-251,307	-3,494	0,109	-0,055
-250,292	-40,529	-0,116	0,043
-249,278	-130,708	0,051	0,005
-248,263	800,000	-0,029	-0,088
-247,249	2,116	-0,074	0,039
-246,234	-200,000	-0,001	0,031
-245,219	-101,123	-0,071	-0,012
-244,205	-6,811	0,045	0,022
-243,190	-200,000	0,044	-0,154
-242,176	767,520	0,006	-0,012
-241,161	64,251	-0,030	0,022
-240,146	232,379	-0,054	-0,065
-239,132	-200,000	0,011	0,115
-238,117	-83,790	-0,126	0,029
-237,103	-38,746	0,155	0,059
-236,088	132,724	-0,055	-0,051
-235,073	800,000	0,018	-0,055
-234,059	-147,230	-0,102	0,006
-233,044	-200,000	0,005	0,055
-232,030	-200,000	-0,010	0,171
-231,015	-200,000	0,019	-0,093
-230,000	-56,835	0,201	-0,064
-228,986	46,609	0,073	-0,049
-227,971	-200,000	-0,011	0,054
-226,957	791,956	0,072	0,143
-225,942	-46,653	0,137	-0,048
-224,927	800,000	0,021	-0,044
-223,913	-79,233	0,039	0,009
-222,898	-77,483	-0,032	0,008
-221,884	-200,000	-0,029	0,174
-220,869	800,000	0,039	0,101
-219,855	236,452	-0,094	0,112
-218,840	-56,487	0,119	-0,038
-217,825	800,000	0,007	0,020
-216,811	-105,083	-0,080	-0,013
-215,796	-88,843	0,056	0,012
-214,782	-200,000	0,009	-0,048
-213,767	113,374	0,029	-0,025
-212,752	800,000	0,072	0,150
-211,738	800,000	-0,053	0,108
-210,723	42,432	0,016	-0,011
-209,709	-86,127	-0,167	0,037
-208,694	-23,864	0,040	-0,017
-207,679	-3,603	0,038	-0,019
-206,665	-121,715	0,046	0,005
-205,650	800,000	0,044	0,137
-204,636	99,384	-0,100	0,084
-203,621	279,745	-0,029	-0,038
-202,606	-200,000	-0,001	-0,023
-201,592	-183,652	0,020	-0,000
-200,577	158,805	0,028	-0,028
-199,563	800,000	0,013	0,036
-198,548	206,098	0,110	0,123
-197,533	-200,000	0,011	0,042
-196,519	-161,427	-0,052	0,002
-195,504	-92,904	0,100	-0,020
-194,490	616,107	-0,110	-0,199
-193,475	-110,919	0,143	-0,021
-192,460	183,467	-0,019	0,020
-191,446	316,175	-0,033	0,045
-190,431	-59,976	0,119	-0,036
-189,417	-200,000	0,017	-0,085
-188,402	-200,000	0,000	-0,120
-187,387	-77,874	-0,148	-0,036
-186,373	-200,000	0,002	-0,110
-185,358	-82,747	-0,035	-0,008
-184,344	15,395	-0,093	-0,052
-183,329	-42,200	0,035	-0,013
-182,315	-200,000	-0,022	0,101
-181,300	-30,105	-0,071	0,029
-180,285	395,678	0,045	-0,068
-179,271	-31,593	0,037	-0,015
-178,256	683,548	0,058	0,109
-177,242	800,000	0,051	0,133
-176,227	800,000	0,059	0,141
-175,212	23,911	-0,052	-0,031
-174,198	47,508	0,061	-0,041
-173,183	-59,300	-0,178	-0,055
-172,169	10,965	0,105	0,057
-171,154	167,172	-0,024	-0,025
-170,139	92,204	-0,085	0,069
-169,125	-200,000	0,026	-0,146
-168,110	653,684	0,008	-0,015
-167,096	346,773	-0,036	-0,052
-166,081	-200,000	-0,001	-0,041
-165,066	69,339	-0,092	0,068
-164,052	-88,913	0,091	0,019
-163,037	-2,562	-0,127	0,064
-162,023	-66,544	0,065	-0,018
-161,008	800,000	0,024	0,049
-159,993	200,669	0,085	0,094
-158,979	141,806	0,046	-0,044
-157,964	-0,772	-0,143	0,073
-156,950	331,866	0,043	-0,060
-155,935	5,765	0,042	0,022
-154,920	-200,000	0,018	0,065
-153,906	-83,623	0,009	0,002
-152,891	-122,628	0,223	-0,026
-151,877	179,637	0,076	0,080
-150,862	103,547	-0,046	0,039
-149,847	30,779	-0,054	-0,033
-148,833	-3,562	0,138	-0,069
-147,818	-134,231	0,122	-0,011
-146,804	-200,000	0,003	-0,112
-145,789	-67,286	0,093	-0,026
-144,775	335,056	-0,057	-0,079
-143,760	-44,424	-0,047	-0,017
-142,745	536,393	-0,041	-0,071
-141,731	-50,393	-0,052	-0,017
-140,716	548,621	0,019	0,032
-139,702	106,669	0,031	0,026
-138,687	-200,000	0,006	0,120
-137,672	176,833	0,040	0,042
-136,658	317,787	-0,121	-0,165
-135,643	-135,199	-0,098	-0,008
-134,629	686,697	0,056	-0,106
-133,614	-200,000	-0,002	-0,081
-132,599	-105,321	-0,063	0,010
-131,585	131,230	-0,142	0,131
-130,570	-22,474	0,203	-0,088
-129,556	29,613	-0,133	-0,081
-128,541	-200,000	0,001	-0,124
-127,526	680,577	-0,044	-0,082
-126,512	800,000	-0,045	0,125
-125,497	227,661	0,034	-0,040
-124,483	800,000	-0,054	-0,114
-123,468	-73,833	0,028	0,007
-122,453	487,462	0,020	0,032
-121,439	-79,343	0,045	0,011
-120,424	-200,000	-0,006	-0,033
