DTS Sentinel unit serial number:	SN410029Multiplexer serial number:	ORYXHardware model number:	OX2-SRSoftware version number:	ORYX F/W v4,00 Oryx Data Collector v3.7.2.0data status	okinstallation	B6 Nyhavnadifferential loss correction	single-endedforward channel	channel 2reverse channel	N/Adate	2023/12/09time	23:00:08forward acquisition time	300,00reverse acquisition time	0,00gamma	499,1914k internal	0,3126k external	0,3126temperature offset calibration	1,0000default loss term (dB/km)	0,3820temperature slope calibration	1,0000multiplexer offset coefficient	1,0000multiplexer slope coefficient	1,0000fibre end	0,00T internal ref (°C)	21,69T ext. ref 1 (°C)	5,43T ext. ref 2 (°C)	5,42length (m)	temperature (°C)	Stokes	anti-Stokes-744,400	800,000	0,042	-0,094
-743,385	-119,111	-0,103	0,013
-742,371	800,000	0,013	0,043
-741,356	-29,688	-0,315	0,133
-740,342	-45,668	0,157	0,058
-739,327	-21,029	-0,186	0,084
-738,312	-24,285	-0,063	-0,028
-737,298	131,780	-0,142	0,136
-736,283	198,775	0,067	-0,077
-735,269	-11,534	-0,257	0,125
-734,254	739,086	0,046	-0,092
-733,239	-75,593	-0,419	-0,110
-732,225	-103,346	0,036	-0,006
-731,210	-200,000	-0,003	0,039
-730,196	709,366	-0,005	0,009
-729,181	-13,707	-0,079	-0,038
-728,167	-157,497	-0,098	0,004
-727,152	-153,866	-0,076	0,004
-726,137	-115,111	-0,133	0,019
-725,123	-200,000	-0,024	-0,088
-724,108	-200,000	-0,013	-0,108
-723,094	-54,873	-0,218	-0,073
-722,079	14,214	-0,146	-0,084
-721,064	1,216	0,030	-0,016
-720,050	-31,030	-0,076	0,032
-719,035	-6,053	0,053	0,027
-718,021	109,943	-0,057	0,051
-717,006	28,447	-0,048	0,030
-715,991	-164,537	-0,052	-0,002
-714,977	638,169	-0,028	-0,052
-713,962	800,000	-0,023	-0,072
-712,948	-75,594	0,139	0,037
-711,933	-9,449	-0,060	0,030
-710,918	-24,166	0,051	-0,022
-709,904	-86,229	0,039	-0,009
-708,889	-122,121	0,134	-0,016
-707,875	-0,288	-0,026	-0,014
-706,860	190,123	-0,050	-0,056
-705,845	171,298	0,092	0,099
-704,831	-200,000	-0,015	0,000
-703,816	800,000	-0,063	0,170
-702,802	93,124	-0,071	-0,059
-701,787	800,000	-0,032	-0,079
-700,772	-195,535	-0,180	-0,001
-699,758	88,797	-0,006	0,005
-698,743	-200,000	0,012	-0,173
-697,729	352,370	0,128	0,189
-696,714	-200,000	-0,026	0,088
-695,699	-200,000	-0,034	-0,120
-694,685	690,681	-0,090	0,175
-693,670	17,890	-0,128	-0,075
-692,656	128,605	-0,072	-0,069
-691,641	70,814	-0,019	-0,015
-690,627	241,702	-0,077	-0,095
-689,612	-100,747	0,030	0,006
-688,597	-200,000	-0,004	0,032
-687,583	-42,583	-0,083	0,031
-686,568	-200,000	-0,012	-0,173
-685,554	-158,190	-0,104	0,004
-684,539	-25,008	-0,038	-0,017
-683,524	140,106	0,093	0,091
-682,510	98,140	-0,116	-0,099
-681,495	-200,000	-0,018	0,062
-680,481	-81,701	-0,028	0,007
-679,466	-114,794	-0,126	-0,018
-678,451	-1,969	-0,080	0,041
-677,437	-156,051	-0,061	-0,003
-676,422	-117,153	-0,102	-0,014
-675,408	249,208	0,098	0,123
-674,393	800,000	-0,069	-0,165
-673,378	-163,776	-0,212	0,007
-672,364	-78,169	-0,119	-0,030
-671,349	800,000	0,032	-0,084
-670,335	237,434	-0,083	-0,102
-669,320	546,684	0,003	0,005
-668,305	-200,000	-0,005	-0,121
-667,291	352,742	0,076	-0,112
-666,276	75,577	0,108	-0,085
-665,262	320,837	-0,095	-0,134
-664,247	-200,000	0,007	0,074
-663,232	800,000	-0,029	0,063
-662,218	-7,396	0,100	0,050
-661,203	75,717	-0,095	0,074
-660,189	27,024	-0,122	0,076
-659,174	-106,539	-0,026	0,004
-658,159	-200,000	-0,003	0,041
-657,145	800,000	-0,043	-0,109
-656,130	-200,000	-0,005	-0,020
-655,116	-149,187	0,089	0,005
-654,101	-21,916	-0,056	0,025
-653,086	400,540	-0,067	0,105
-652,072	-84,676	-0,053	0,012
-651,057	-1,825	-0,051	-0,026
-650,043	-86,399	-0,100	-0,023
-649,028	353,922	-0,065	-0,096
-648,014	-122,015	-0,100	-0,012
-646,999	-200,000	-0,003	-0,114
-645,984	302,698	-0,113	-0,155
-644,970	-114,377	0,058	0,008
-643,955	800,000	-0,059	0,122
-642,941	-200,000	-0,009	-0,034
-641,926	55,363	-0,042	-0,030
-640,911	-200,000	-0,010	-0,111
-639,897	-153,808	0,032	-0,002
-638,882	800,000	0,069	0,192
-637,868	367,470	0,014	-0,021
-636,853	-106,171	-0,067	0,011
-635,838	-200,000	-0,022	0,149
-634,824	130,013	-0,078	-0,074
-633,809	800,000	-0,030	-0,069
-632,795	-53,395	0,165	0,056
-631,780	26,752	0,020	-0,012
-630,765	-63,881	-0,127	-0,038
-629,751	305,800	-0,047	-0,065
-628,736	800,000	-0,054	-0,136
-627,722	388,061	0,025	-0,038
-626,707	800,000	0,066	0,150
-625,692	152,850	-0,027	-0,028
-624,678	-68,890	-0,061	0,017
-623,663	519,295	0,033	-0,058
-622,649	-50,211	-0,029	-0,010
-621,634	-168,248	-0,138	-0,004
-620,619	596,199	-0,052	0,096
-619,605	800,000	-0,014	-0,037
-618,590	400,968	0,050	0,078
-617,576	-154,467	-0,135	-0,007
-616,561	-200,000	0,024	0,093
-615,546	-200,000	-0,010	-0,032
-614,532	255,757	-0,068	-0,087
-613,517	-6,898	-0,034	0,017
-612,503	-143,172	0,069	-0,005
-611,488	20,304	0,022	0,013
-610,474	171,095	0,046	0,049
-609,459	250,665	-0,109	-0,137
-608,444	-137,239	-0,122	-0,010
-607,430	61,217	0,110	-0,081
-606,415	394,476	-0,058	-0,090
-605,401	-44,495	-0,113	0,042
-604,386	-19,336	0,012	0,005
-603,371	800,000	0,065	0,160
-602,357	-102,820	-0,189	0,033
-601,342	800,000	-0,034	-0,088
-600,328	-200,000	-0,023	-0,103
-599,313	800,000	-0,045	-0,106
-598,298	159,327	-0,070	0,072
-597,284	800,000	0,010	-0,022
-596,269	-13,571	-0,075	-0,036
-595,255	800,000	0,020	0,064
-594,240	-200,000	0,008	0,089
-593,225	-64,869	-0,082	0,024
-592,211	55,611	-0,044	0,031
-591,196	269,279	0,056	0,072
-590,182	443,285	0,053	0,087
-589,167	556,394	-0,047	0,083
-588,152	-57,003	-0,037	0,012
-587,138	-200,000	0,040	0,166
-586,123	-94,183	-0,072	0,014
-585,109	-200,000	0,001	0,114
-584,094	-200,000	0,003	0,098
-583,079	800,000	0,029	0,084
-582,065	-200,000	-0,038	0,167
-581,050	222,790	-0,049	-0,059
-580,036	88,488	-0,071	-0,059
-579,021	754,254	-0,070	-0,142
-578,006	178,285	0,035	0,037
-576,992	800,000	-0,012	-0,039
-575,977	-200,000	-0,012	0,043
-574,963	300,471	-0,079	0,108
-573,948	18,412	0,075	-0,044
-572,934	29,583	0,047	-0,030
-571,919	-200,000	-0,014	-0,138
-570,904	-119,919	0,102	-0,013
-569,890	341,511	-0,022	-0,032
-568,875	444,564	-0,027	0,043
-567,861	214,593	-0,031	-0,036
-566,846	-200,000	0,008	-0,036
-565,831	-65,534	0,157	0,046
-564,817	174,626	0,024	0,025
-563,802	197,230	-0,140	-0,158
-562,788	800,000	-0,031	-0,085
-561,773	92,959	0,069	-0,058
-560,758	800,000	-0,025	0,069
-559,744	258,977	0,025	0,032
-558,729	3,661	0,087	0,047
-557,715	138,391	-0,033	0,032
-556,700	-43,748	0,125	-0,046
-555,685	-46,605	-0,025	0,009
-554,671	495,853	-0,016	0,027
-553,656	-200,000	0,014	0,049
-552,642	588,220	0,049	0,090
-551,627	-43,007	-0,094	0,035
-550,612	800,000	-0,072	0,149
-549,598	156,698	-0,096	-0,098
-548,583	268,025	0,079	-0,102
-547,569	-64,876	-0,146	-0,043
-546,554	55,715	-0,025	-0,018
-545,539	-138,817	0,124	-0,010
-544,525	-100,462	0,144	0,026
-543,510	-13,443	-0,095	0,045
-542,496	-52,163	-0,107	-0,037
-541,481	-76,675	0,022	0,006
-540,466	-200,000	-0,000	-0,096
-539,452	-122,522	0,113	0,013
-538,437	465,894	-0,016	-0,027
-537,423	-200,000	-0,036	0,155
-536,408	-200,000	-0,035	-0,131
-535,393	-73,756	-0,162	-0,043
-534,379	53,305	0,094	0,067
-533,364	720,823	0,041	-0,080
-532,350	-84,694	0,049	0,011
-531,335	264,132	-0,055	0,071
-530,321	-200,000	-0,020	0,095
-529,306	29,856	-0,027	-0,017
-528,291	436,848	-0,069	-0,111
-527,277	800,000	0,022	-0,060
-526,262	-111,514	0,047	0,007
-525,248	87,159	0,037	-0,031
-524,233	800,000	0,017	0,038
-523,218	169,826	-0,033	0,034
-522,204	-200,000	0,027	0,106
-521,189	-200,000	-0,020	0,068
-520,175	272,906	-0,025	0,033
-519,160	355,315	0,077	-0,114
-518,145	-49,532	-0,007	0,003
-517,131	-44,275	0,096	-0,035
-516,116	-66,204	0,066	0,019
-515,102	-200,000	-0,006	-0,144
-514,087	800,000	-0,036	-0,080
-513,072	143,804	0,020	-0,020
-512,058	439,815	-0,026	-0,043
-511,043	174,474	-0,052	0,056
-510,029	-91,684	0,166	0,035
-509,014	-200,000	0,006	0,044
-507,999	-200,000	-0,033	-0,116
-506,985	341,552	-0,035	0,051
-505,970	-79,241	-0,076	-0,019
-504,956	122,582	0,013	0,012
-503,941	800,000	0,090	0,193
-502,926	-200,000	0,007	0,150
-501,912	484,848	0,049	0,083
-500,897	-34,746	-0,066	0,027
-499,883	78,841	-0,033	0,026
-498,868	-184,602	-0,149	-0,002
-497,853	-200,000	0,004	-0,049
-496,839	-200,000	-0,038	0,169
-495,824	364,797	-0,041	0,062
-494,810	1,372	0,080	0,042
-493,795	-200,000	-0,026	0,182
-492,781	-200,000	0,029	0,109
-491,766	20,847	-0,096	0,057
-490,751	210,674	0,041	-0,048
-489,737	-3,653	0,187	-0,095
-488,722	800,000	-0,031	0,086
-487,708	-200,000	0,008	0,040
-486,693	800,000	0,083	-0,224
-485,678	-51,256	-0,038	0,013
-484,664	-200,000	-0,010	-0,095
-483,649	28,709	-0,047	-0,029
-482,635	328,755	0,060	0,085
-481,620	-120,303	0,102	-0,013
-480,605	699,814	-0,029	0,057
-479,591	-188,255	0,026	0,000
-478,576	111,218	0,055	0,049
-477,562	3,433	-0,045	-0,024
-476,547	-200,000	0,004	-0,055
-475,532	800,000	-0,063	-0,149
-474,518	46,044	0,025	-0,017
-473,503	65,726	-0,020	0,015
-472,489	-200,000	0,000	-0,015
-471,474	-33,893	-0,076	0,031
-470,459	800,000	-0,023	0,059
-469,445	106,773	-0,043	-0,038
-468,430	800,000	-0,052	-0,112
-467,416	-140,525	0,067	-0,005
-466,401	471,823	0,070	-0,116
-465,386	-200,000	-0,000	-0,100
-464,372	446,264	-0,089	0,144
-463,357	13,499	0,032	-0,018
-462,343	61,376	-0,101	0,074
-461,328	-200,000	0,007	-0,054
-460,313	-7,180	0,097	0,048
-459,299	-200,000	0,002	0,107
-458,284	-200,000	-0,058	0,188
-457,270	-140,627	0,016	0,001
-456,255	402,206	-0,077	0,120
-455,241	350,254	-0,041	0,060
-454,226	-51,003	-0,129	0,044
-453,211	800,000	0,019	-0,056
-452,197	316,566	-0,056	0,078
-451,182	557,035	0,024	0,042
-450,168	146,289	-0,162	0,160
-449,153	78,739	0,061	-0,048
-448,138	190,618	-0,040	-0,044
-447,124	-200,000	0,008	-0,127
-446,109	-200,000	-0,001	0,046
-445,095	800,000	-0,025	0,063
-444,080	-100,881	0,111	-0,020
-443,065	179,087	0,028	-0,030
-442,051	26,957	-0,015	0,009
-441,036	-200,000	-0,032	-0,139
-440,022	-200,000	-0,000	-0,105
-439,007	-67,155	0,075	0,022
-437,992	-200,000	0,007	0,057
-436,978	-200,000	0,022	0,095
-435,963	193,132	0,068	-0,076
-434,949	499,887	-0,054	-0,093
-433,934	-200,000	-0,001	-0,080
-432,919	800,000	-0,052	-0,165
-431,905	800,000	-0,028	-0,091
-430,890	215,004	0,114	-0,134
-429,876	-200,000	0,004	0,040
-428,861	800,000	-0,018	-0,037
-427,846	88,588	-0,061	-0,050
-426,832	-139,786	0,132	0,010
-425,817	-107,677	-0,059	0,009
-424,803	-30,903	0,036	0,015
-423,788	-200,000	0,043	-0,147
-422,773	-200,000	0,009	-0,067
-421,759	-200,000	0,027	0,097
-420,744	-200,000	0,013	-0,140
-419,730	-200,000	0,006	-0,056
-418,715	-200,000	-0,006	-0,063
-417,701	-200,000	-0,014	-0,056
-416,686	-22,117	-0,081	0,036
-415,671	-43,878	0,127	-0,047
-414,657	218,084	0,086	0,101
-413,642	-8,900	-0,087	-0,043
-412,628	-81,990	-0,171	-0,041
-411,613	39,408	0,102	0,067
-410,598	201,082	-0,088	0,099
-409,584	96,997	0,055	0,046
-408,569	-111,935	0,068	-0,010
-407,555	800,000	0,047	0,131
-406,540	-77,417	-0,119	0,030
-405,525	-24,596	-0,166	0,072
-404,511	393,120	0,039	-0,060
-403,496	-200,000	-0,018	-0,129
-402,482	-99,559	-0,113	-0,021
-401,467	800,000	0,017	0,049
-400,452	-2,608	0,080	0,041
-399,438	-121,098	0,018	0,002
-398,423	121,524	0,049	0,045
-397,409	-146,525	0,098	0,006
-396,394	592,380	-0,029	-0,053
-395,379	800,000	-0,050	0,111
-394,365	7,193	0,060	-0,033
-393,350	448,013	0,034	-0,055
-392,336	-200,000	-0,026	0,157
-391,321	59,394	-0,074	0,054
-390,306	800,000	-0,030	0,064
-389,292	40,773	-0,090	-0,059
-388,277	23,103	-0,088	-0,053
-387,263	123,174	-0,115	-0,106
-386,248	-70,439	0,091	-0,025
-385,233	285,407	0,037	0,050
-384,219	17,045	0,058	-0,034
-383,204	-3,555	-0,013	-0,006
-382,190	-64,177	0,158	0,047
-381,175	72,752	-0,021	-0,016
-380,160	104,338	0,052	-0,045
-379,146	216,499	-0,019	0,022
-378,131	273,636	-0,068	0,089
-377,117	-200,000	-0,017	0,094
-376,102	800,000	-0,061	-0,148
-375,088	-63,837	-0,144	-0,043
-374,073	-200,000	-0,007	-0,147
-373,058	583,975	0,037	-0,067
-372,044	185,476	-0,057	0,062
-371,029	-129,227	0,148	-0,015
-370,015	-45,240	-0,106	-0,039
-369,000	-1,261	-0,071	0,037
-367,985	-175,087	-0,156	-0,003
-366,971	132,029	0,151	-0,143
-365,956	-200,000	0,002	-0,108
-364,942	149,855	0,114	-0,114
-363,927	800,000	0,025	0,072
-362,912	679,391	0,029	-0,056
-361,898	58,972	-0,065	-0,047
-360,883	113,549	0,065	-0,058
-359,869	-29,478	0,060	0,025
-358,854	-200,000	-0,018	-0,061
-357,839	-200,000	0,000	0,144
-356,825	-114,774	-0,073	-0,010
-355,810	-65,024	-0,102	-0,030
-354,796	800,000	-0,012	-0,026
-353,781	-200,000	-0,021	0,088
-352,766	-200,000	0,009	-0,064
-351,752	81,439	0,102	-0,081
-350,737	-155,798	0,061	-0,003
-349,723	-200,000	0,036	0,157
-348,708	800,000	-0,049	0,115
-347,693	-125,632	-0,042	0,005
-346,679	-136,326	-0,024	0,002
-345,664	146,619	0,051	-0,051
-344,650	579,909	0,034	0,061
-343,635	15,110	0,049	0,028
-342,620	60,642	-0,045	-0,033
-341,606	800,000	0,015	0,036
-340,591	-200,000	-0,098	0,000
-339,577	-200,000	-0,012	-0,039
-338,562	-71,273	0,097	-0,026
-337,548	-200,000	-0,005	-0,044
-336,533	-200,000	0,023	-0,124
-335,518	800,000	0,062	0,195
-334,504	237,769	0,108	0,132
-333,489	-200,000	0,004	-0,059
-332,475	425,936	0,034	-0,054
-331,460	215,276	0,073	-0,085
-330,445	223,365	-0,051	0,060
-329,431	-21,418	0,040	0,018
-328,416	66,997	0,087	0,065
-327,402	800,000	-0,042	-0,100
-326,387	800,000	0,064	-0,137
-325,372	-16,678	-0,096	0,044
-324,358	-200,000	-0,008	-0,083
-323,343	800,000	-0,041	-0,090
-322,329	800,000	-0,041	-0,117
-321,314	38,790	0,124	0,081
-320,299	149,007	0,025	0,025
-319,285	201,780	-0,040	0,045
-318,270	-65,166	0,088	-0,026
-317,256	-200,000	-0,001	0,084
-316,241	275,776	0,039	-0,051
-315,226	-6,182	0,044	0,022
-314,212	800,000	-0,007	-0,015
-313,197	-64,582	-0,072	0,021
-312,183	274,108	0,040	-0,052
-311,168	-200,000	-0,011	-0,051
-310,153	654,781	0,024	0,045
-309,139	-200,000	0,011	0,061
-308,124	253,763	-0,075	-0,095
-307,110	-200,000	0,017	0,147
-306,095	800,000	0,085	0,259
-305,080	129,268	0,039	0,036
-304,066	113,378	-0,044	0,040
-303,051	800,000	-0,037	-0,082
-302,037	-200,000	0,027	-0,093
-301,022	66,570	0,018	0,013
-300,008	459,815	0,025	-0,041
-298,993	73,324	-0,114	0,087
-297,978	-137,923	0,138	-0,011
-296,964	-36,355	0,189	-0,074
-295,949	97,623	0,056	0,047
-294,935	800,000	0,023	-0,049
-293,920	-87,042	0,094	-0,021
-292,905	-144,027	-0,059	-0,004
-291,891	-200,000	-0,001	0,150
-290,876	711,158	-0,072	0,140
-289,862	-36,350	-0,127	0,050
-288,847	-200,000	0,015	0,052
-287,832	389,895	0,102	-0,155
-286,818	-49,411	-0,131	-0,045
-285,803	-200,000	-0,019	0,061
-284,789	537,267	-0,034	0,060
-283,774	63,245	0,029	-0,021
-282,759	-59,219	0,166	-0,052
-281,745	-200,000	-0,020	-0,088
-280,730	-200,000	0,008	-0,082
-279,716	96,630	0,064	-0,054
-278,701	201,664	0,014	-0,015
-277,686	576,795	0,065	-0,117
-276,672	-34,889	-0,068	0,027
-275,657	684,454	0,023	-0,045
-274,643	800,000	-0,030	-0,071
-273,628	800,000	-0,040	0,083
-272,613	290,706	0,028	0,037
-271,599	-200,000	-0,035	0,187
-270,584	20,343	0,103	0,061
-269,570	125,071	-0,045	-0,042
-268,555	-200,000	-0,002	0,027
-267,540	-44,771	0,119	0,043
-266,526	-59,220	-0,130	-0,041
-265,511	39,574	0,093	-0,061
-264,497	-12,889	0,059	0,028
-263,482	508,007	0,117	0,199
-262,467	800,000	-0,041	0,102
-261,453	-3,918	-0,103	0,052
-260,438	68,946	0,060	0,045
-259,424	-12,305	0,105	-0,050
-258,409	-200,000	-0,008	-0,061
-257,395	-90,792	0,044	-0,009
-256,380	277,700	0,033	-0,043
-255,365	-200,000	0,013	-0,106
-254,351	-176,829	-0,037	0,001
-253,336	800,000	0,010	0,022
-252,322	-72,230	-0,112	-0,030
-251,307	69,877	-0,077	-0,058
-250,292	-92,070	-0,066	0,014
-249,278	233,474	0,093	0,112
-248,263	382,103	0,054	0,081
-247,249	-200,000	0,002	-0,056
-246,234	719,613	0,011	0,022
-245,219	-32,234	0,067	0,027
-244,205	800,000	-0,032	0,084
-243,190	631,583	-0,026	-0,048
-242,176	424,312	-0,022	-0,034
-241,161	-113,181	-0,071	-0,010
-240,146	800,000	0,076	-0,170
-239,132	-134,939	0,055	0,005
-238,117	172,735	-0,071	-0,075
-237,103	-200,000	-0,027	-0,096
-236,088	124,890	0,007	-0,006
-235,073	-200,000	-0,008	0,043
-234,059	94,599	0,047	-0,039
-233,044	-200,000	-0,003	0,029
-232,030	605,356	-0,081	0,148
-231,015	-146,265	0,092	0,006
-230,000	-37,396	-0,005	0,002
-228,986	800,000	-0,067	0,175
-227,971	-58,249	0,078	0,025
-226,957	-134,894	-0,094	-0,008
-225,942	440,830	-0,077	0,123
-224,927	294,904	0,030	0,040
-223,913	800,000	-0,045	0,095
-222,898	248,007	0,041	-0,050
-221,884	800,000	-0,035	-0,099
-220,869	129,140	-0,066	-0,061
-219,855	46,375	0,088	0,059
-218,840	-161,159	-0,052	0,002
-217,825	-18,968	0,113	-0,051
-216,811	59,730	-0,035	-0,025
-215,796	518,534	-0,056	-0,096
-214,782	-200,000	0,001	0,043
-213,767	-200,000	0,010	-0,092
-212,752	-121,990	0,088	-0,010
-211,738	-131,487	0,057	-0,005
-210,723	-59,270	0,070	0,022
-209,709	-127,661	-0,062	-0,006
-208,694	-12,108	0,120	0,057
-207,679	800,000	0,010	-0,027
-206,665	554,209	-0,049	0,087
-205,650	-90,093	-0,097	0,020
-204,636	-200,000	-0,013	-0,053
-203,621	-97,826	0,079	0,015
-202,606	-118,991	-0,180	-0,023
-201,592	-111,195	0,122	0,018
-200,577	-147,441	0,135	-0,008
-199,563	800,000	-0,013	-0,038
-198,548	-122,732	0,007	-0,001
-197,533	557,783	-0,036	0,063
-196,519	75,926	0,061	-0,047
-195,504	800,000	-0,011	-0,024
-194,490	5,735	-0,038	-0,020
-193,475	-55,952	0,015	-0,005
-192,460	-200,000	0,013	-0,117
-191,446	800,000	0,047	0,109
-190,431	-190,981	0,043	0,000
-189,417	-200,000	-0,006	0,071
-188,402	800,000	0,027	-0,078
-187,387	122,021	-0,061	-0,056
-186,373	243,958	0,054	-0,066
-185,358	-25,459	-0,106	-0,045
-184,344	-120,077	0,079	-0,010
-183,329	31,992	0,018	0,011
-182,315	23,210	0,096	0,058
-181,300	264,344	0,072	-0,091
-180,285	-137,278	-0,091	0,007
-179,271	199,836	0,090	-0,100
-178,256	-200,000	0,007	-0,043
-177,242	165,985	0,014	-0,014
-176,227	210,023	0,057	0,065
-175,212	-200,000	0,014	-0,047
-174,198	353,709	0,043	-0,063
-173,183	-200,000	-0,005	0,113
-172,169	-200,000	-0,020	-0,114
-171,154	-200,000	-0,005	0,055
-170,139	-71,171	0,118	0,032
-169,125	91,594	0,018	0,015
-168,110	-200,000	0,005	0,136
-167,096	-133,114	0,172	0,016
-166,081	-92,831	-0,077	-0,016
-165,066	800,000	-0,030	0,063
-164,052	-25,328	-0,053	0,023
-163,037	-46,860	0,218	0,077
-162,023	-8,706	-0,036	-0,017
-161,008	379,244	0,064	0,096
-159,993	-200,000	0,019	-0,102
-158,979	174,099	-0,139	-0,146
-157,964	40,641	-0,120	-0,079
-156,950	-200,000	0,025	-0,084
-155,935	31,856	0,100	0,063
-154,920	800,000	-0,007	0,020
-153,906	232,085	-0,068	0,081
-152,891	-136,411	0,038	0,003
-151,877	251,156	0,079	-0,098
-150,862	407,169	-0,056	-0,086
-149,847	-132,325	-0,077	-0,007
-148,833	-89,648	-0,088	-0,019
-147,818	201,937	-0,075	0,085
-146,804	224,936	0,049	0,057
-145,789	-143,476	0,213	-0,015
-144,775	129,188	-0,133	-0,123
-143,760	166,049	-0,043	-0,044
-142,745	-124,163	-0,227	0,026
-141,731	-30,515	0,108	0,044
-140,716	144,508	-0,154	0,149
-139,702	68,666	-0,081	-0,060
-138,687	800,000	-0,028	-0,073
-137,672	800,000	-0,069	-0,156
-136,658	17,490	-0,084	-0,048
-135,643	263,376	0,040	-0,051
-134,629	104,968	-0,050	-0,043
-133,614	627,234	0,042	0,077
-132,599	235,152	-0,020	0,024
-131,585	-139,041	0,090	-0,007
-130,570	221,156	-0,070	0,082
-129,556	-179,423	-0,042	-0,001
-128,541	-142,299	0,013	-0,001
-127,526	-200,000	-0,018	0,120
-126,512	-200,000	-0,000	0,022
-125,497	-200,000	0,012	-0,046
-124,483	-177,633	-0,057	0,001
-123,468	169,207	0,051	0,053
-122,453	240,605	0,106	-0,129
-121,439	377,653	-0,065	-0,096
-120,424	-34,657	-0,091	-0,036
