DTS Sentinel unit serial number:	SN410029Multiplexer serial number:	ORYXHardware model number:	OX2-SRSoftware version number:	ORYX F/W v4,00 Oryx Data Collector v3.7.2.0data status	okinstallation	B6 Nyhavnadifferential loss correction	single-endedforward channel	channel 2reverse channel	N/Adate	2023/12/08time	23:55:08forward acquisition time	300,00reverse acquisition time	0,00gamma	499,1914k internal	0,3157k external	0,3157temperature offset calibration	1,0000default loss term (dB/km)	0,3820temperature slope calibration	1,0000multiplexer offset coefficient	1,0000multiplexer slope coefficient	1,0000fibre end	0,00T internal ref (°C)	15,52T ext. ref 1 (°C)	-0,87T ext. ref 2 (°C)	-0,88length (m)	temperature (°C)	Stokes	anti-Stokes-744,400	145,235	0,034	0,033
-743,385	-21,099	-0,260	0,117
-742,371	208,043	0,098	0,113
-741,356	82,057	-0,193	0,154
-740,342	244,645	0,039	-0,048
-739,327	-97,020	-0,283	0,054
-738,312	-40,758	0,162	0,062
-737,298	-179,630	-0,328	-0,005
-736,283	-90,560	0,195	0,041
-735,269	-125,937	-0,372	0,041
-734,254	-163,446	0,041	0,001
-733,239	-44,980	-0,490	-0,179
-732,225	16,906	0,098	0,057
-731,210	-180,266	-0,061	-0,001
-730,196	-21,181	-0,094	-0,042
-729,181	30,476	-0,143	-0,090
-728,167	800,000	0,022	-0,066
-727,152	-112,829	0,097	-0,014
-726,137	-84,104	0,065	-0,015
-725,123	-30,791	0,101	-0,042
-724,108	-200,000	-0,014	-0,196
-723,094	38,563	-0,065	0,043
-722,079	-179,082	0,061	0,001
-721,064	27,728	-0,105	-0,065
-720,050	-89,152	0,016	-0,003
-719,035	-37,018	0,127	0,050
-718,021	107,528	-0,038	-0,033
-717,006	-200,000	0,004	-0,022
-715,991	35,740	-0,217	-0,140
-714,977	-22,021	-0,086	0,038
-713,962	-149,794	0,055	-0,003
-712,948	-41,113	-0,048	0,018
-711,933	-76,208	-0,145	0,037
-710,918	12,612	-0,154	-0,088
-709,904	800,000	-0,051	-0,163
-708,889	-76,028	-0,229	-0,059
-707,875	-200,000	0,024	0,082
-706,860	800,000	0,051	0,129
-705,845	142,792	0,047	-0,046
-704,831	159,134	-0,051	0,052
-703,816	-31,364	-0,063	0,026
-702,802	103,245	0,022	-0,019
-701,787	-23,989	-0,065	0,028
-700,772	524,173	0,044	-0,077
-699,758	-89,188	-0,062	0,013
-698,743	311,428	0,117	0,162
-697,729	276,643	0,075	0,099
-696,714	-200,000	-0,026	-0,120
-695,699	-200,000	0,021	-0,071
-694,685	-200,000	-0,019	0,096
-693,670	-200,000	-0,005	0,049
-692,656	28,699	-0,049	-0,030
-691,641	-200,000	0,007	-0,032
-690,627	-200,000	0,000	0,004
-689,612	245,267	0,010	0,013
-688,597	36,626	-0,136	0,088
-687,583	800,000	-0,068	-0,188
-686,568	-62,206	-0,109	-0,033
-685,554	591,832	0,056	-0,102
-684,539	35,403	-0,023	-0,015
-683,524	800,000	0,024	0,068
-682,510	381,035	0,069	0,104
-681,495	-38,973	0,036	-0,014
-680,481	166,568	-0,100	-0,105
-679,466	-92,940	-0,094	0,019
-678,451	-15,510	0,129	-0,061
-677,437	486,857	-0,066	-0,111
-676,422	-200,000	0,006	-0,058
-675,408	503,886	-0,020	-0,034
-674,393	-200,000	-0,014	0,083
-673,378	107,185	-0,049	-0,043
-672,364	21,477	-0,067	0,040
-671,349	-22,513	0,076	-0,034
-670,335	800,000	-0,016	-0,046
-669,320	-200,000	0,010	0,058
-668,305	-75,048	-0,139	0,036
-667,291	491,888	-0,045	-0,076
-666,276	-200,000	0,040	-0,143
-665,262	-200,000	-0,025	-0,120
-664,247	163,523	-0,135	-0,140
-663,232	-200,000	0,002	-0,082
-662,218	-200,000	0,003	0,091
-661,203	-23,805	-0,098	-0,043
-660,189	97,301	0,058	-0,049
-659,174	337,533	0,030	-0,043
-658,159	-200,000	0,002	-0,091
-657,145	-81,923	-0,078	-0,019
-656,130	800,000	-0,044	0,100
-655,116	-200,000	0,021	-0,085
-654,101	-100,305	-0,070	0,013
-653,086	-68,258	-0,119	-0,034
-652,072	-200,000	-0,005	0,047
-651,057	35,430	-0,111	-0,071
-650,043	800,000	0,024	-0,052
-649,028	-14,751	-0,058	-0,027
-648,014	800,000	-0,021	0,063
-646,999	-117,732	0,032	-0,004
-645,984	-200,000	0,018	-0,098
-644,970	-50,125	-0,203	-0,070
-643,955	14,637	0,055	0,031
-642,941	-200,000	-0,013	-0,156
-641,926	199,885	-0,029	0,033
-640,911	-119,989	-0,049	0,006
-639,897	-200,000	0,012	0,053
-638,882	-200,000	0,000	0,005
-637,868	134,875	-0,102	-0,097
-636,853	800,000	-0,079	-0,171
-635,838	-127,066	-0,129	0,014
-634,824	-64,575	-0,041	-0,012
-633,809	800,000	0,053	0,126
-632,795	-165,509	0,120	-0,004
-631,780	62,976	0,097	0,071
-630,765	6,644	-0,052	0,029
-629,751	-5,774	-0,061	-0,031
-628,736	-131,243	-0,046	0,004
-627,722	-20,915	0,100	0,045
-626,707	-157,733	0,076	0,003
-625,692	-200,000	0,026	0,185
-624,678	-29,520	0,066	-0,027
-623,663	-127,314	-0,106	-0,011
-622,649	800,000	0,052	-0,118
-621,634	-128,582	-0,037	-0,004
-620,619	800,000	-0,035	-0,076
-619,605	-200,000	-0,013	0,121
-618,590	657,483	0,015	0,029
-617,576	-38,778	0,051	-0,020
-616,561	-58,032	-0,125	-0,040
-615,546	-92,592	0,058	0,012
-614,532	159,344	0,066	0,067
-613,517	-69,319	0,035	-0,010
-612,503	46,941	-0,122	-0,083
-611,488	-184,031	0,094	0,001
-610,474	255,926	0,010	-0,012
-609,459	57,949	-0,130	-0,093
-608,444	800,000	0,020	-0,046
-607,430	60,763	-0,143	-0,104
-606,415	144,248	-0,058	0,056
-605,401	800,000	0,034	0,091
-604,386	423,788	-0,022	0,034
-603,371	-97,392	0,048	-0,009
-602,357	-89,544	-0,034	0,007
-601,342	800,000	-0,036	0,089
-600,328	-105,247	-0,126	-0,021
-599,313	264,453	0,044	-0,056
-598,298	341,040	-0,014	0,021
-597,284	332,064	0,059	-0,084
-596,269	800,000	-0,017	0,039
-595,255	-200,000	0,108	0,000
-594,240	57,341	-0,040	0,028
-593,225	-85,590	0,039	0,009
-592,211	67,156	-0,034	-0,025
-591,196	463,743	0,032	0,053
-590,182	-113,256	0,036	0,005
-589,167	675,063	-0,011	0,022
-588,152	-155,028	-0,133	0,006
-587,138	142,866	-0,053	0,052
-586,123	-72,279	-0,112	0,030
-585,109	-48,260	-0,094	-0,033
-584,094	15,854	0,043	-0,025
-583,079	-200,000	-0,022	0,110
-582,065	-200,000	0,011	0,054
-581,050	-200,000	0,012	0,053
-580,036	7,011	-0,058	-0,032
-579,021	532,797	-0,072	-0,126
-578,006	-200,000	-0,056	-0,244
-576,992	61,572	-0,111	-0,081
-575,977	293,311	-0,017	0,022
-574,963	-153,324	0,100	-0,005
-573,948	726,477	0,064	0,126
-572,934	-200,000	-0,005	-0,047
-571,919	800,000	0,043	-0,103
-570,904	800,000	-0,076	-0,164
-569,890	800,000	-0,066	-0,182
-568,875	150,771	0,044	-0,043
-567,861	-200,000	-0,006	0,115
-566,846	545,167	-0,060	0,105
-565,831	-33,452	-0,039	0,016
-564,817	-102,851	-0,111	0,019
-563,802	-200,000	0,006	-0,057
-562,788	-200,000	-0,045	-0,200
-561,773	-200,000	0,051	0,189
-560,758	-200,000	0,006	0,089
-559,744	-200,000	-0,007	0,225
-558,729	171,498	0,038	0,040
-557,715	-48,270	-0,101	-0,035
-556,700	-190,921	-0,151	0,001
-555,685	800,000	0,025	0,074
-554,671	740,020	-0,100	0,197
-553,656	24,784	0,082	0,050
-552,642	800,000	-0,014	-0,029
-551,627	-16,793	-0,058	0,027
-550,612	-200,000	-0,016	-0,066
-549,598	-12,386	0,087	0,041
-548,583	800,000	-0,040	-0,086
-547,569	800,000	-0,050	-0,124
-546,554	800,000	0,050	-0,122
-545,539	-83,641	-0,041	0,010
-544,525	800,000	0,044	-0,115
-543,510	42,196	0,047	-0,031
-542,496	268,905	-0,081	0,104
-541,481	800,000	-0,083	-0,174
-540,466	10,504	-0,096	0,053
-539,452	-200,000	-0,029	-0,114
-538,437	-33,935	0,076	0,030
-537,423	-200,000	-0,012	-0,042
-536,408	76,894	0,014	0,011
-535,393	800,000	0,033	-0,103
-534,379	-200,000	0,013	-0,058
-533,364	140,446	0,085	0,083
-532,350	95,050	-0,055	-0,046
-531,335	-55,991	-0,074	0,024
-530,321	800,000	-0,032	0,068
-529,306	202,184	0,013	-0,015
-528,291	-66,707	-0,127	0,037
-527,277	-146,083	0,087	0,006
-526,262	-200,000	-0,006	0,025
-525,248	-200,000	0,019	-0,099
-524,233	240,084	0,107	0,131
-523,218	-54,970	-0,026	-0,009
-522,204	39,973	-0,045	-0,030
-521,189	-200,000	0,017	-0,073
-520,175	-200,000	-0,038	0,170
-519,160	-3,182	-0,048	0,024
-518,145	33,168	-0,036	-0,023
-517,131	-200,000	0,019	-0,135
-516,116	-200,000	-0,002	-0,026
-515,102	531,719	-0,056	0,098
-514,087	-200,000	-0,000	-0,039
-513,072	800,000	-0,037	-0,092
-512,058	-149,396	-0,048	0,003
-511,043	151,386	-0,051	-0,051
-510,029	410,563	0,028	0,044
-509,014	-200,000	0,001	-0,007
-507,999	800,000	-0,021	-0,045
-506,985	-93,771	-0,086	0,017
-505,970	800,000	-0,032	-0,078
-504,956	-200,000	-0,003	0,060
-503,941	800,000	-0,065	0,189
-502,926	496,564	0,064	0,109
-501,912	125,085	0,061	0,056
-500,897	-26,192	0,053	-0,023
-499,883	-200,000	-0,003	-0,018
-498,868	-167,309	0,030	-0,001
-497,853	67,727	-0,049	0,037
-496,839	-200,000	-0,022	0,102
-495,824	-115,507	0,138	-0,019
-494,810	800,000	-0,022	-0,068
-493,795	93,001	0,049	-0,040
-492,781	-200,000	0,007	-0,050
-491,766	-200,000	-0,041	-0,151
-490,751	98,665	0,046	0,039
-489,737	-43,366	0,079	-0,029
-488,722	13,483	0,099	0,056
-487,708	-17,037	0,041	0,019
-486,693	800,000	0,010	-0,024
-485,678	-200,000	-0,017	-0,078
-484,664	800,000	0,038	0,097
-483,649	8,350	-0,079	-0,043
-482,635	-15,854	0,137	0,064
-481,620	-200,000	-0,018	0,096
-480,605	682,977	0,036	-0,068
-479,591	3,062	0,127	-0,067
-478,576	114,889	-0,135	-0,120
-477,562	412,379	-0,054	-0,084
-476,547	-84,622	0,108	0,025
-475,532	800,000	-0,049	-0,156
-474,518	800,000	0,029	0,088
-473,503	98,415	0,161	0,135
-472,489	800,000	0,016	-0,038
-471,474	51,933	0,160	0,111
-470,459	-66,525	0,149	-0,043
-469,445	-200,000	-0,005	-0,039
-468,430	-101,825	-0,012	-0,002
-467,416	-36,254	0,078	-0,031
-466,401	800,000	0,026	0,083
-465,386	-67,898	0,085	-0,024
-464,372	-74,731	0,141	0,037
-463,357	30,585	-0,082	-0,051
-462,343	800,000	-0,028	-0,090
-461,328	-44,940	0,129	-0,047
-460,313	-200,000	0,005	0,029
-459,299	-95,462	-0,068	-0,013
-458,284	-37,181	0,157	0,061
-457,270	-108,612	-0,087	0,013
-456,255	2,007	0,050	-0,026
-455,241	-43,677	-0,117	-0,043
-454,226	30,277	-0,046	0,029
-453,211	800,000	0,053	-0,124
-452,197	-200,000	-0,010	0,115
-451,182	-200,000	0,019	-0,076
-450,168	800,000	-0,055	-0,130
-449,153	-127,280	-0,051	-0,005
-448,138	-113,733	-0,162	-0,023
-447,124	-130,727	0,129	-0,012
-446,109	357,166	-0,028	0,041
-445,095	-5,690	0,056	0,028
-444,080	165,832	0,067	0,070
-443,065	-99,590	-0,049	-0,009
-442,051	-53,964	-0,009	0,003
-441,036	-41,818	0,059	-0,022
-440,022	158,770	0,084	0,085
-439,007	3,865	-0,097	-0,051
-437,992	212,459	0,028	-0,032
-436,978	-150,911	0,192	0,010
-435,963	-21,819	0,118	0,052
-434,949	800,000	-0,035	-0,088
-433,934	800,000	-0,010	0,029
-432,919	-150,581	-0,143	0,008
-431,905	-133,853	-0,042	-0,004
-430,890	95,521	-0,038	-0,031
-429,876	-142,985	0,138	0,010
-428,861	193,371	0,070	0,078
-427,846	740,707	-0,022	-0,044
-426,832	569,418	-0,084	-0,149
-425,817	-81,667	-0,194	0,046
-424,803	323,492	0,021	-0,030
-423,788	-56,849	0,080	0,025
-422,773	721,659	0,071	0,138
-421,759	-105,104	0,076	0,013
-420,744	545,407	0,032	0,056
-419,730	16,884	0,040	0,023
-418,715	-200,000	-0,012	0,072
-417,701	-57,526	-0,075	-0,024
-416,686	-200,000	0,021	0,071
-415,671	421,520	0,025	0,039
-414,657	-100,361	0,085	-0,015
-413,642	-106,240	0,048	0,008
-412,628	551,283	0,042	0,074
-411,613	-200,000	0,012	-0,038
-410,598	229,482	0,022	-0,027
-409,584	221,793	0,008	0,010
-408,569	112,842	-0,088	0,078
-407,555	-96,066	0,106	0,020
-406,540	-200,000	0,031	0,105
-405,525	47,401	0,089	-0,060
-404,511	72,658	-0,085	0,064
-403,496	800,000	0,056	-0,153
-402,482	-200,000	-0,014	-0,104
-401,467	-200,000	-0,007	0,093
-400,452	-50,291	0,073	-0,025
-399,438	-70,987	-0,147	-0,040
-398,423	390,066	-0,111	-0,168
-397,409	143,427	-0,035	0,034
-396,394	-99,122	0,039	0,007
-395,379	-115,971	0,073	0,010
-394,365	490,773	-0,024	0,040
-393,350	-81,731	0,101	0,024
-392,336	42,245	-0,101	0,067
-391,321	-200,000	-0,002	0,051
-390,306	-34,588	0,128	-0,051
-389,292	-74,457	-0,126	0,033
-388,277	-85,032	-0,053	0,012
-387,263	104,927	-0,057	0,049
-386,248	-200,000	-0,020	0,108
-385,233	-200,000	-0,015	-0,058
-384,219	-200,000	-0,020	-0,170
-383,204	130,543	0,026	-0,024
-382,190	-200,000	-0,017	0,205
-381,175	-200,000	-0,023	-0,185
-380,160	-92,462	0,033	0,007
-379,146	-200,000	0,003	-0,032
-378,131	-200,000	-0,008	-0,065
-377,117	-200,000	-0,013	0,156
-376,102	-16,033	0,078	0,036
-375,088	800,000	0,046	0,096
-374,073	298,418	-0,033	-0,045
-373,058	-200,000	-0,044	0,157
-372,044	-83,832	0,073	0,017
-371,029	-200,000	0,000	0,007
-370,015	147,736	-0,116	-0,113
-369,000	-36,448	0,102	0,040
-367,985	-79,931	0,062	-0,015
-366,971	0,804	0,063	-0,033
-365,956	18,854	0,051	0,030
-364,942	91,213	-0,151	0,123
-363,927	800,000	0,020	0,061
-362,912	-157,170	-0,092	0,004
-361,898	-200,000	-0,009	-0,054
-360,883	-200,000	-0,010	0,077
-359,869	127,477	-0,041	-0,038
-358,854	-5,582	0,048	-0,024
-357,839	-200,000	0,092	0,000
-356,825	47,888	0,071	0,048
-355,810	-117,537	0,024	0,003
-354,796	-200,000	-0,032	0,105
-353,781	254,146	-0,118	0,147
-352,766	-200,000	0,018	0,063
-351,752	-200,000	-0,029	0,220
-350,737	238,077	0,071	0,086
-349,723	225,749	-0,003	-0,004
-348,708	-82,181	0,080	0,019
-347,693	-200,000	0,002	-0,033
-346,679	-66,540	-0,080	-0,023
-345,664	-200,000	-0,037	0,209
-344,650	-200,000	-0,003	0,037
-343,635	105,649	0,061	0,053
-342,620	-200,000	0,034	0,134
-341,606	1,388	0,125	0,065
-340,591	551,784	-0,042	0,073
-339,577	800,000	0,015	0,039
-338,562	238,395	0,106	-0,129
-337,548	114,867	-0,049	-0,044
-336,533	-200,000	0,008	0,138
-335,518	-200,000	0,018	0,062
-334,504	-200,000	0,010	0,157
-333,489	-148,598	0,149	0,009
-332,475	-136,863	-0,131	0,011
-331,460	222,325	0,042	-0,049
-330,445	-200,000	0,010	-0,142
-329,431	-174,357	0,081	0,002
-328,416	-94,136	0,196	0,039
-327,402	41,751	0,039	0,025
-326,387	293,231	-0,039	0,051
-325,372	87,852	-0,109	-0,088
-324,358	-83,748	0,050	0,011
-323,343	44,630	0,063	-0,042
-322,329	175,666	-0,018	0,019
-321,314	-73,981	0,008	-0,002
-320,299	800,000	0,039	0,110
-319,285	116,496	0,041	0,036
-318,270	800,000	-0,025	0,070
-317,256	296,891	0,099	0,133
-316,241	800,000	-0,036	-0,087
-315,226	7,045	-0,054	-0,029
-314,212	-200,000	0,013	0,151
-313,197	-32,941	0,077	-0,031
-312,183	715,879	0,030	0,059
-311,168	800,000	0,018	0,036
-310,153	800,000	0,039	0,097
-309,139	-31,856	-0,026	0,011
-308,124	-104,709	-0,125	0,021
-307,110	71,605	0,071	0,053
-306,095	574,503	0,017	0,030
-305,080	-26,014	-0,081	-0,034
-304,066	141,551	0,022	0,021
-303,051	50,316	-0,063	-0,043
-302,037	398,916	0,086	0,131
-301,022	-122,215	0,136	0,016
-300,008	-136,275	0,083	0,007
-298,993	800,000	0,012	0,028
-297,978	55,389	0,117	0,082
-296,964	-50,232	-0,203	0,069
-295,949	339,709	0,035	0,050
-294,935	-32,844	0,072	-0,029
-293,920	-116,132	0,079	-0,010
-292,905	443,144	-0,061	-0,098
-291,891	63,118	0,096	-0,070
-290,876	800,000	0,033	0,088
-289,862	358,228	-0,023	0,033
-288,847	-161,603	0,049	-0,002
-287,832	103,842	-0,123	-0,105
-286,818	649,033	0,115	0,215
-285,803	121,012	0,084	0,076
-284,789	-42,815	0,081	-0,030
-283,774	79,296	-0,085	-0,066
-282,759	249,207	0,057	-0,070
-281,745	312,964	0,075	-0,102
-280,730	800,000	-0,049	-0,135
-279,716	609,653	-0,019	-0,034
-278,701	800,000	-0,035	-0,097
-277,686	153,220	-0,051	0,050
-276,672	355,964	0,020	-0,029
-275,657	-132,149	-0,109	-0,010
-274,643	-55,395	-0,169	0,054
-273,628	287,445	0,034	0,044
-272,613	784,361	0,065	-0,129
-271,599	800,000	-0,036	-0,107
-270,584	800,000	0,021	0,060
-269,570	-134,191	-0,136	0,012
-268,555	-143,781	0,081	-0,005
-267,540	-200,000	0,008	-0,073
-266,526	800,000	0,019	-0,058
-265,511	-70,884	-0,130	-0,035
-264,497	497,681	-0,047	-0,078
-263,482	-156,848	0,139	0,006
-262,467	23,493	-0,020	0,012
-261,453	800,000	0,034	-0,079
-260,438	3,008	-0,078	0,041
-259,424	-200,000	-0,005	-0,106
-258,409	29,873	-0,117	0,072
-257,395	36,875	-0,060	-0,039
-256,380	-13,516	0,168	0,078
-255,365	800,000	-0,059	0,136
-254,351	-103,789	0,140	-0,023
-253,336	8,146	-0,175	-0,095
-252,322	696,700	-0,069	-0,132
-251,307	-200,000	0,029	-0,277
-250,292	343,202	0,021	-0,029
-249,278	-200,000	0,004	0,096
-248,263	-36,359	0,143	0,056
-247,249	-200,000	0,041	0,143
-246,234	-150,857	-0,109	0,006
-245,219	313,702	0,068	-0,093
-244,205	-200,000	-0,029	-0,123
-243,190	800,000	-0,037	-0,079
-242,176	-200,000	-0,008	0,063
-241,161	-121,463	-0,058	-0,007
-240,146	471,243	-0,034	-0,055
-239,132	157,860	0,039	-0,039
-238,117	352,602	-0,078	-0,113
-237,103	219,669	-0,026	-0,030
-236,088	380,701	-0,046	-0,068
-235,073	627,228	-0,038	-0,070
-234,059	-200,000	-0,003	-0,036
-233,044	65,155	0,134	-0,098
-232,030	-200,000	0,013	-0,082
-231,015	454,498	0,033	-0,053
-230,000	-200,000	-0,023	-0,110
-228,986	800,000	-0,036	-0,100
-227,971	-100,748	0,104	-0,018
-226,957	117,628	0,034	0,030
-225,942	-66,346	0,021	0,006
-224,927	-200,000	0,012	-0,100
-223,913	-200,000	0,004	-0,049
-222,898	-200,000	0,010	0,033
-221,884	-93,089	0,126	-0,025
-220,869	217,839	0,028	0,032
-219,855	270,740	0,076	-0,097
-218,840	800,000	0,015	0,031
-217,825	-136,628	0,095	-0,008
-216,811	-60,390	-0,153	0,047
-215,796	-200,000	-0,001	0,005
-214,782	-60,988	0,060	-0,018
-213,767	263,855	-0,062	0,077
-212,752	-88,712	-0,121	0,026
-211,738	40,212	0,060	-0,039
-210,723	93,726	0,066	-0,054
-209,709	800,000	-0,072	0,148
-208,694	218,090	0,067	0,078
-207,679	12,829	-0,093	-0,052
-206,665	47,720	0,071	0,048
-205,650	-101,306	-0,070	-0,012
-204,636	-140,682	0,145	-0,011
-203,621	-200,000	-0,008	0,026
-202,606	38,602	-0,044	-0,028
-201,592	-200,000	-0,003	-0,077
-200,577	91,569	-0,110	-0,090
-199,563	-106,300	0,040	-0,006
-198,548	-98,700	-0,027	-0,005
-197,533	128,481	-0,037	0,034
-196,519	-58,443	-0,025	-0,008
-195,504	240,730	-0,073	0,088
-194,490	16,360	0,094	-0,053
-193,475	-200,000	-0,005	-0,085
-192,460	600,042	-0,062	-0,112
-191,446	-200,000	-0,021	0,081
-190,431	412,607	0,037	0,056
-189,417	-200,000	-0,008	0,068
-188,402	215,129	-0,056	0,064
-187,387	800,000	-0,032	-0,077
-186,373	800,000	-0,037	-0,087
-185,358	-200,000	-0,017	-0,143
-184,344	-200,000	0,011	0,044
-183,329	78,254	0,080	0,062
-182,315	-200,000	0,013	0,072
-181,300	-82,438	-0,180	-0,042
-180,285	158,862	-0,104	-0,105
-179,271	800,000	-0,014	-0,030
-178,256	-200,000	-0,010	-0,076
-177,242	-200,000	-0,021	0,097
-176,227	100,472	0,064	-0,054
-175,212	-200,000	0,014	0,072
-174,198	411,026	-0,049	-0,075
-173,183	-27,567	-0,118	-0,049
-172,169	800,000	-0,019	-0,044
-171,154	214,578	-0,025	-0,028
-170,139	-200,000	0,004	-0,049
-169,125	76,428	0,024	-0,018
-168,110	20,222	-0,114	0,066
-167,096	-38,015	0,149	0,057
-166,081	405,000	-0,010	-0,016
-165,066	62,727	-0,117	0,085
-164,052	-67,486	-0,074	0,021
-163,037	-160,594	-0,033	-0,001
-162,023	174,460	-0,037	0,039
-161,008	-27,498	-0,109	0,045
-159,993	-110,582	0,037	-0,006
-158,979	18,352	0,070	0,040
-157,964	-200,000	-0,032	0,140
-156,950	-137,125	0,045	-0,004
-155,935	148,751	0,086	-0,083
-154,920	771,782	-0,037	-0,074
-153,906	200,801	0,088	0,097
-152,891	-8,116	0,048	0,023
-151,877	-93,272	-0,070	-0,014
-150,862	800,000	-0,018	-0,037
-149,847	-46,875	-0,145	-0,051
-148,833	800,000	0,017	0,041
-147,818	-200,000	-0,001	0,012
-146,804	-200,000	0,024	0,089
-145,789	588,522	-0,025	0,045
-144,775	70,767	-0,018	-0,013
-143,760	-200,000	-0,014	-0,100
-142,745	-29,653	-0,060	-0,025
-141,731	800,000	0,079	-0,171
-140,716	-200,000	0,010	-0,066
-139,702	736,263	0,020	-0,038
-138,687	337,081	-0,045	0,063
-137,672	150,244	0,049	-0,048
-136,658	-200,000	0,014	0,049
-135,643	-200,000	0,002	-0,033
-134,629	141,843	-0,157	0,150
-133,614	-200,000	-0,008	0,083
-132,599	-200,000	0,023	0,164
-131,585	-200,000	0,009	0,155
-130,570	58,489	-0,061	0,043
-129,556	800,000	0,045	-0,106
-128,541	-200,000	0,006	-0,073
-127,526	126,058	0,107	0,097
-126,512	544,942	0,052	-0,089
-125,497	586,576	0,032	-0,057
-124,483	800,000	-0,003	-0,007
-123,468	62,113	-0,053	-0,038
-122,453	166,707	0,037	0,037
-121,439	-148,317	-0,091	0,005
-120,424	800,000	0,032	0,073
-119,410	-200,000	0,006	0,040
