DTS Sentinel unit serial number:	SN410029Multiplexer serial number:	ORYXHardware model number:	OX2-SRSoftware version number:	ORYX F/W v4,00 Oryx Data Collector v3.7.2.0data status	okinstallation	B6 Nyhavnadifferential loss correction	single-endedforward channel	channel 2reverse channel	N/Adate	2023/12/09time	21:45:08forward acquisition time	300,00reverse acquisition time	0,00gamma	499,1914k internal	0,3127k external	0,3127temperature offset calibration	1,0000default loss term (dB/km)	0,3820temperature slope calibration	1,0000multiplexer offset coefficient	1,0000multiplexer slope coefficient	1,0000fibre end	0,00T internal ref (°C)	21,61T ext. ref 1 (°C)	5,45T ext. ref 2 (°C)	5,45length (m)	temperature (°C)	Stokes	anti-Stokes-744,400	-8,851	-0,100	-0,050
-743,385	-23,136	-0,127	0,057
-742,371	800,000	0,017	-0,054
-741,356	179,731	-0,149	0,163
-740,342	800,000	0,036	0,083
-739,327	164,197	-0,095	0,100
-738,312	-6,221	0,141	-0,071
-737,298	199,553	-0,198	0,226
-736,283	131,367	0,064	-0,062
-735,269	93,507	-0,150	0,126
-734,254	-50,120	0,144	0,051
-733,239	-161,420	-0,463	0,017
-732,225	62,868	0,061	0,045
-731,210	99,757	0,093	0,080
-730,196	-130,982	-0,079	-0,008
-729,181	-194,457	-0,119	-0,001
-728,167	-114,908	0,158	-0,022
-727,152	-12,187	-0,094	-0,046
-726,137	-99,294	-0,040	0,007
-725,123	165,674	-0,086	-0,091
-724,108	-200,000	0,007	0,029
-723,094	280,728	-0,065	-0,087
-722,079	-200,000	-0,014	-0,060
-721,064	-38,414	0,029	-0,011
-720,050	-90,045	-0,053	-0,011
-719,035	-155,182	0,112	0,005
-718,021	800,000	-0,032	-0,094
-717,006	13,296	-0,068	0,039
-715,991	381,841	-0,085	-0,131
-714,977	115,470	0,023	-0,021
-713,962	-200,000	0,019	-0,154
-712,948	-100,066	0,040	-0,007
-711,933	800,000	0,033	0,070
-710,918	79,868	0,042	-0,034
-709,904	237,744	-0,076	-0,094
-708,889	81,403	0,089	-0,071
-707,875	706,720	-0,063	-0,124
-706,860	-200,000	-0,006	0,052
-705,845	-43,563	-0,091	0,034
-704,831	-79,818	-0,169	0,042
-703,816	800,000	0,014	-0,039
-702,802	-200,000	0,013	-0,059
-701,787	-200,000	-0,036	-0,122
-700,772	800,000	-0,029	0,066
-699,758	-59,496	0,142	0,045
-698,743	-138,903	0,162	0,013
-697,729	756,038	0,018	0,035
-696,714	-200,000	0,001	0,140
-695,699	800,000	0,020	-0,063
-694,685	800,000	0,021	0,054
-693,670	157,798	-0,108	-0,112
-692,656	800,000	0,028	-0,073
-691,641	7,844	0,022	-0,012
-690,627	58,643	0,075	0,055
-689,612	-1,710	-0,065	-0,034
-688,597	-21,404	-0,058	0,026
-687,583	-113,384	0,176	-0,025
-686,568	65,349	-0,041	-0,031
-685,554	-14,105	-0,118	-0,056
-684,539	-94,617	0,003	0,001
-683,524	-200,000	-0,026	-0,203
-682,510	417,111	0,043	-0,068
-681,495	110,491	-0,060	0,054
-680,481	-51,398	0,070	-0,024
-679,466	800,000	-0,022	0,050
-678,451	-200,000	-0,005	0,040
-677,437	23,649	-0,068	-0,041
-676,422	-41,858	0,057	0,022
-675,408	800,000	-0,029	0,068
-674,393	694,392	-0,081	-0,159
-673,378	800,000	-0,072	-0,167
-672,364	140,317	-0,073	-0,072
-671,349	298,844	0,084	-0,116
-670,335	800,000	0,021	-0,056
-669,320	-87,771	-0,058	0,013
-668,305	158,771	0,086	-0,089
-667,291	800,000	-0,058	-0,120
-666,276	368,246	0,051	-0,076
-665,262	202,785	-0,072	-0,082
-664,247	-51,562	-0,026	0,009
-663,232	-200,000	0,031	0,116
-662,218	304,274	0,033	0,046
-661,203	-200,000	-0,023	0,000
-660,189	47,522	0,056	0,039
-659,174	177,635	0,031	0,034
-658,159	-7,368	-0,127	-0,064
-657,145	-84,466	0,128	-0,030
-656,130	17,888	0,096	-0,057
-655,116	800,000	0,016	-0,041
-654,101	137,629	0,070	0,068
-653,086	-170,243	0,119	0,003
-652,072	800,000	-0,042	-0,129
-651,057	-67,048	-0,250	0,073
-650,043	-200,000	-0,026	-0,147
-649,028	800,000	-0,046	0,103
-648,014	-200,000	0,007	0,031
-646,999	-65,951	-0,055	-0,016
-645,984	107,605	0,065	0,057
-644,970	232,341	-0,038	-0,046
-643,955	240,802	-0,036	0,045
-642,941	18,561	0,025	0,015
-641,926	800,000	-0,019	-0,049
-640,911	-175,199	-0,126	0,003
-639,897	-140,415	0,076	0,006
-638,882	284,415	0,018	0,023
-637,868	-113,361	-0,066	-0,010
-636,853	800,000	-0,063	-0,172
-635,838	-57,750	-0,132	-0,042
-634,824	214,310	0,035	-0,041
-633,809	274,873	-0,033	-0,043
-632,795	61,555	-0,050	0,037
-631,780	-200,000	0,018	0,067
-630,765	481,838	-0,030	0,050
-629,751	-48,385	-0,051	0,018
-628,736	45,641	0,121	-0,083
-627,722	-64,571	0,204	0,061
-626,707	516,257	0,057	0,100
-625,692	800,000	0,026	0,063
-624,678	-200,000	0,035	-0,122
-623,663	-135,687	0,064	-0,006
-622,649	-200,000	-0,011	0,073
-621,634	-21,649	0,169	-0,076
-620,619	29,963	-0,049	-0,031
-619,605	-132,186	0,136	0,013
-618,590	650,607	0,031	0,058
-617,576	-200,000	-0,007	0,060
-616,561	-100,080	-0,069	0,013
-615,546	11,821	-0,092	0,052
-614,532	-21,970	-0,179	0,080
-613,517	-200,000	0,015	-0,096
-612,503	-123,940	-0,155	-0,018
-611,488	-1,655	0,040	-0,021
-610,474	333,563	-0,020	-0,029
-609,459	572,966	0,050	-0,091
-608,444	11,692	-0,130	0,073
-607,430	-142,629	0,097	-0,007
-606,415	800,000	0,041	-0,086
-605,401	-200,000	0,021	-0,076
-604,386	-200,000	-0,038	0,146
-603,371	55,005	0,170	0,122
-602,357	-91,018	-0,055	-0,012
-601,342	15,269	-0,077	-0,045
-600,328	-126,573	-0,106	0,011
-599,313	291,611	-0,078	0,106
-598,298	800,000	0,072	0,158
-597,284	-200,000	-0,063	-0,000
-596,269	800,000	0,023	0,064
-595,255	-200,000	-0,000	-0,033
-594,240	95,820	-0,070	0,059
-593,225	689,067	0,025	-0,049
-592,211	800,000	-0,061	-0,138
-591,196	-123,033	-0,050	0,006
-590,182	421,605	0,067	0,107
-589,167	46,634	-0,077	0,053
-588,152	257,241	0,073	-0,093
-587,138	597,331	-0,026	-0,048
-586,123	176,174	0,024	-0,026
-585,109	287,771	-0,160	-0,215
-584,094	431,441	0,062	-0,099
-583,079	-77,548	0,056	0,014
-582,065	350,641	0,117	0,171
-581,050	142,248	0,040	-0,040
-580,036	-78,446	-0,053	0,013
-579,021	800,000	0,015	-0,047
-578,006	800,000	0,040	-0,087
-576,992	-23,135	-0,237	0,105
-575,977	8,075	0,132	0,073
-574,963	800,000	0,013	0,035
-573,948	468,143	-0,053	0,088
-572,934	218,044	-0,093	-0,110
-571,919	259,808	-0,055	-0,070
-570,904	-28,397	0,024	0,010
-569,890	-4,944	-0,098	-0,050
-568,875	692,551	0,048	0,093
-567,861	800,000	-0,016	-0,042
-566,846	189,511	-0,088	0,098
-565,831	-200,000	-0,008	-0,148
-564,817	-42,949	-0,113	0,042
-563,802	-63,349	-0,082	-0,025
-562,788	-95,464	-0,094	0,019
-561,773	800,000	-0,072	0,152
-560,758	800,000	0,050	0,158
-559,744	-152,853	0,068	0,003
-558,729	-81,136	-0,069	-0,017
-557,715	320,466	0,054	-0,076
-556,700	-136,705	-0,163	0,014
-555,685	-127,018	-0,074	0,008
-554,671	-3,568	0,119	-0,061
-553,656	-8,444	0,062	0,031
-552,642	45,768	-0,057	-0,039
-551,627	-12,863	0,108	-0,052
-550,612	-200,000	0,006	-0,042
-549,598	-55,410	0,098	0,032
-548,583	-76,787	0,094	-0,024
-547,569	246,724	-0,014	-0,017
-546,554	96,460	0,068	0,057
-545,539	48,974	0,079	-0,055
-544,525	98,552	-0,098	0,083
-543,510	-104,691	-0,087	0,015
-542,496	317,487	0,078	-0,109
-541,481	-200,000	-0,002	-0,152
-540,466	143,234	-0,152	-0,149
-539,452	-200,000	0,005	-0,071
-538,437	226,793	-0,011	0,013
-537,423	-161,485	-0,131	0,005
-536,408	-200,000	-0,006	0,078
-535,393	-200,000	0,005	-0,123
-534,379	-200,000	0,008	-0,108
-533,364	-8,595	0,017	0,008
-532,350	-173,052	0,065	-0,001
-531,335	800,000	0,009	0,027
-530,321	378,502	-0,043	-0,065
-529,306	-109,145	0,120	0,019
-528,291	203,812	-0,081	-0,093
-527,277	477,079	0,087	-0,145
-526,262	130,861	0,135	-0,128
-525,248	-171,561	0,080	-0,002
-524,233	-40,463	-0,083	0,032
-523,218	63,569	0,027	0,020
-522,204	18,240	-0,033	-0,019
-521,189	-56,041	-0,065	-0,021
-520,175	-18,942	0,042	-0,019
-519,160	-24,871	0,057	0,025
-518,145	678,189	0,046	-0,089
-517,131	264,314	0,117	-0,151
-516,116	800,000	0,022	0,047
-515,102	-5,061	0,042	-0,021
-514,087	800,000	0,061	-0,132
-513,072	-163,828	-0,141	0,005
-512,058	-126,678	-0,049	-0,005
-511,043	800,000	-0,020	-0,045
-510,029	-50,534	0,097	0,033
-509,014	-85,268	0,063	0,014
-507,999	-200,000	0,013	-0,123
-506,985	-200,000	0,008	-0,090
-505,970	-111,003	-0,179	0,027
-504,956	152,407	0,096	0,097
-503,941	275,346	-0,119	-0,156
-502,926	-200,000	-0,043	0,142
-501,912	-34,926	0,161	0,065
-500,897	-200,000	-0,024	-0,100
-499,883	800,000	-0,031	-0,082
-498,868	-147,793	-0,052	0,003
-497,853	250,685	-0,035	0,044
-496,839	-200,000	-0,041	0,147
-495,824	21,438	-0,019	-0,011
-494,810	-121,312	-0,075	-0,009
-493,795	-200,000	0,017	-0,141
-492,781	-67,530	-0,028	-0,008
-491,766	-200,000	0,002	0,038
-490,751	-200,000	0,007	-0,146
-489,737	-200,000	-0,005	-0,052
-488,722	-42,900	0,064	0,024
-487,708	800,000	-0,034	-0,085
-486,693	-56,855	-0,114	-0,037
-485,678	-156,095	-0,065	0,003
-484,664	214,738	-0,146	-0,171
-483,649	-1,401	0,145	0,075
-482,635	800,000	0,041	0,103
-481,620	-200,000	-0,017	0,086
-480,605	632,175	0,029	0,054
-479,591	-32,591	-0,049	-0,020
-478,576	-93,461	-0,028	-0,006
-477,562	64,061	0,052	-0,038
-476,547	-144,406	-0,103	0,007
-475,532	-43,705	-0,148	0,055
-474,518	800,000	0,026	-0,074
-473,503	-200,000	-0,010	0,042
-472,489	53,859	0,077	-0,055
-471,474	86,580	-0,031	-0,025
-470,459	355,028	0,056	0,082
-469,445	105,327	-0,066	-0,057
-468,430	-170,058	-0,014	0,000
-467,416	-200,000	-0,008	-0,078
-466,401	597,553	0,053	0,098
-465,386	-57,627	0,103	-0,033
-464,372	-200,000	-0,029	0,208
-463,357	35,574	-0,028	-0,018
-462,343	744,501	0,062	-0,124
-461,328	-139,224	0,033	0,003
-460,313	11,295	-0,042	0,024
-459,299	-200,000	0,001	-0,039
-458,284	-92,576	0,059	0,012
-457,270	-200,000	-0,002	0,023
-456,255	-200,000	-0,043	-0,146
-455,241	-136,019	-0,103	0,009
-454,226	-200,000	-0,020	0,104
-453,211	800,000	-0,009	-0,025
-452,197	-69,503	0,031	-0,009
-451,182	9,048	0,097	0,054
-450,168	119,104	0,069	0,063
-449,153	289,898	-0,079	0,106
-448,138	-52,507	0,114	0,039
-447,124	-200,000	0,045	-0,206
-446,109	34,072	0,107	0,069
-445,095	50,952	-0,056	0,039
-444,080	-200,000	-0,008	-0,035
-443,065	214,030	-0,066	0,076
-442,051	127,298	-0,025	0,023
-441,036	-200,000	-0,003	-0,111
-440,022	-98,386	0,151	0,028
-439,007	192,129	0,029	-0,032
-437,992	800,000	0,037	0,103
-436,978	61,900	0,124	0,091
-435,963	511,098	0,019	-0,033
-434,949	308,419	0,091	0,126
-433,934	72,116	0,031	-0,024
-432,919	396,745	0,041	-0,063
-431,905	18,838	0,065	0,038
-430,890	-138,394	-0,136	-0,011
-429,876	81,032	-0,120	0,095
-428,861	-108,509	0,184	0,029
-427,846	800,000	-0,039	-0,124
-426,832	195,260	0,042	-0,047
-425,817	358,710	-0,115	-0,170
-424,803	-138,495	-0,139	0,011
-423,788	800,000	-0,011	0,034
-422,773	800,000	0,011	0,031
-421,759	588,601	0,043	0,078
-420,744	-49,825	0,037	-0,013
-419,730	126,352	0,094	-0,088
-418,715	-200,000	-0,022	0,126
-417,701	224,742	0,013	0,015
-416,686	28,991	0,067	-0,042
-415,671	-200,000	-0,010	-0,093
-414,657	321,453	0,064	0,090
-413,642	182,899	-0,053	0,057
-412,628	-200,000	-0,002	0,035
-411,613	800,000	-0,047	0,100
-410,598	-200,000	-0,027	-0,096
-409,584	-170,591	0,029	-0,001
-408,569	46,640	0,125	-0,085
-407,555	141,137	-0,046	-0,045
-406,540	800,000	-0,041	0,117
-405,525	86,262	-0,109	-0,088
-404,511	405,688	0,060	-0,093
-403,496	800,000	0,035	-0,095
-402,482	272,263	-0,045	0,059
-401,467	218,550	-0,051	0,060
-400,452	103,119	0,058	0,050
-399,438	280,283	0,060	-0,079
-398,423	-43,588	0,087	-0,032
-397,409	-6,463	-0,102	-0,051
-396,394	147,317	-0,055	-0,055
-395,379	-11,849	0,095	-0,046
-394,365	800,000	0,029	-0,090
-393,350	573,503	-0,051	-0,092
-392,336	-200,000	0,009	-0,056
-391,321	-94,286	0,078	0,015
-390,306	-25,111	0,069	0,030
-389,292	-13,038	-0,018	-0,009
-388,277	18,993	0,065	0,038
-387,263	-97,402	0,074	0,014
-386,248	-200,000	0,051	0,181
-385,233	472,431	-0,045	0,075
-384,219	273,404	0,046	0,060
-383,204	-200,000	0,014	0,053
-382,190	-59,637	-0,143	-0,045
-381,175	-200,000	0,022	-0,076
-380,160	-200,000	0,010	0,082
-379,146	24,378	0,099	0,060
-378,131	49,230	0,135	-0,093
-377,117	-200,000	-0,012	-0,081
-376,102	-37,862	0,096	-0,037
-375,088	57,109	-0,188	-0,134
-374,073	-132,696	-0,100	0,009
-373,058	-200,000	-0,058	-0,000
-372,044	-200,000	0,009	0,043
-371,029	-54,444	0,096	0,032
-370,015	-105,589	-0,019	0,003
-369,000	-200,000	-0,011	-0,092
-367,985	12,951	-0,063	0,036
-366,971	124,497	0,086	0,079
-365,956	800,000	0,014	0,032
-364,942	525,348	0,052	0,090
-363,927	670,801	-0,087	0,167
-362,912	232,944	0,062	-0,075
-361,898	-200,000	-0,015	-0,074
-360,883	794,669	-0,035	0,072
-359,869	456,986	0,057	0,094
-358,854	-200,000	-0,002	-0,009
-357,839	-200,000	-0,027	0,097
-356,825	-38,565	-0,121	0,047
-355,810	326,463	0,046	0,065
-354,796	-75,045	-0,103	0,027
-353,781	-68,480	-0,034	-0,010
-352,766	132,607	0,012	0,012
-351,752	-60,900	-0,064	-0,020
-350,737	-71,759	0,107	-0,029
-349,723	164,802	0,041	0,043
-348,708	-200,000	-0,016	0,055
-347,693	-200,000	0,023	-0,084
-346,679	150,153	-0,040	-0,040
-345,664	-200,000	0,015	0,116
-344,650	-200,000	0,001	0,095
-343,635	800,000	0,036	-0,078
-342,620	-43,112	0,003	-0,001
-341,606	-200,000	0,017	0,143
-340,591	-82,476	0,035	-0,008
-339,577	99,315	-0,060	-0,051
-338,562	166,005	0,054	-0,056
-337,548	-90,964	0,029	-0,006
-336,533	-11,876	0,183	0,087
-335,518	-200,000	-0,007	0,047
-334,504	-96,398	-0,135	-0,026
-333,489	99,775	-0,062	-0,052
-332,475	-117,094	-0,044	-0,006
-331,460	-154,216	0,066	0,003
-330,445	-174,229	-0,009	-0,000
-329,431	-200,000	0,043	0,181
-328,416	-10,450	-0,160	0,078
-327,402	763,493	-0,063	0,125
-326,387	171,021	0,131	0,137
-325,372	83,896	-0,068	0,055
-324,358	800,000	-0,023	-0,059
-323,343	138,254	0,043	-0,042
-322,329	-200,000	0,007	0,094
-321,314	-191,573	-0,112	-0,001
-320,299	-85,868	0,138	-0,031
-319,285	-200,000	0,023	0,103
-318,270	-65,728	-0,114	0,033
-317,256	339,015	-0,053	-0,075
-316,241	126,146	0,020	-0,019
-315,226	-128,104	0,115	0,012
-314,212	800,000	-0,049	0,127
-313,197	30,002	0,100	-0,062
-312,183	-95,595	0,103	-0,020
-311,168	-61,835	-0,103	0,031
-310,153	800,000	-0,019	-0,056
-309,139	-102,551	-0,089	-0,015
-308,124	800,000	-0,056	-0,140
-307,110	-200,000	0,005	0,042
-306,095	49,904	-0,027	-0,019
-305,080	-156,913	0,112	0,005
-304,066	131,045	0,093	0,088
-303,051	335,371	-0,084	-0,120
-302,037	-92,639	0,069	-0,014
-301,022	-200,000	-0,021	-0,071
-300,008	-200,000	-0,028	-0,114
-298,993	-67,151	-0,074	-0,021
-297,978	-101,516	0,046	0,008
-296,964	800,000	0,005	-0,015
-295,949	-11,078	-0,121	-0,058
-294,935	157,384	0,036	-0,036
-293,920	-200,000	-0,009	0,122
-292,905	109,152	0,054	0,047
-291,891	-20,569	0,043	0,019
-290,876	-114,490	0,022	0,003
-289,862	-200,000	0,012	-0,048
-288,847	26,211	0,044	0,027
-287,832	183,211	-0,052	-0,056
-286,818	-165,146	0,074	0,002
-285,803	800,000	-0,013	-0,036
-284,789	-87,186	0,064	-0,014
-283,774	-67,854	0,053	0,015
-282,759	197,625	-0,037	-0,041
-281,745	-94,142	0,042	0,008
-280,730	258,175	-0,082	-0,103
-279,716	319,092	0,054	-0,076
-278,701	212,102	0,058	-0,067
-277,686	-81,595	0,176	0,042
-276,672	-33,412	0,046	0,019
-275,657	-50,212	0,087	-0,030
-274,643	-144,977	-0,098	0,006
-273,628	-125,404	-0,058	0,006
-272,613	-116,260	-0,100	0,013
-271,599	447,001	0,065	-0,104
-270,584	68,577	-0,070	0,052
-269,570	141,221	0,047	0,045
-268,555	800,000	-0,038	0,080
-267,540	-200,000	-0,003	-0,047
-266,526	578,311	-0,088	-0,157
-265,511	592,217	0,015	-0,027
-264,497	102,928	0,074	0,063
-263,482	-160,454	0,198	0,008
-262,467	-27,674	0,069	0,029
-261,453	33,110	-0,111	0,070
-260,438	-99,743	0,061	0,011
-259,424	-85,570	-0,039	0,009
-258,409	800,000	-0,051	-0,117
-257,395	114,342	0,024	0,021
-256,380	-80,836	-0,064	0,015
-255,365	-200,000	0,033	0,118
-254,351	79,409	0,178	0,139
-253,336	203,392	-0,073	-0,082
-252,322	-0,198	0,081	-0,042
-251,307	-57,256	0,102	0,032
-250,292	800,000	-0,024	0,067
-249,278	360,726	-0,008	0,011
-248,263	126,590	-0,006	0,006
-247,249	-200,000	0,016	0,103
-246,234	-147,485	-0,142	0,009
-245,219	800,000	0,010	0,026
-244,205	800,000	0,017	0,035
-243,190	-200,000	0,022	-0,074
-242,176	800,000	-0,013	-0,034
-241,161	62,660	0,106	0,078
-240,146	339,835	-0,033	-0,048
-239,132	59,352	-0,118	-0,084
-238,117	800,000	-0,066	-0,204
-237,103	306,034	-0,074	-0,101
-236,088	570,101	0,068	-0,122
-235,073	18,030	0,064	-0,037
-234,059	-200,000	0,017	0,149
-233,044	12,913	-0,140	0,079
-232,030	-200,000	-0,005	-0,095
-231,015	538,307	-0,085	0,147
-230,000	800,000	-0,023	0,062
-228,986	-200,000	0,001	0,024
-227,971	50,381	0,013	0,009
-226,957	643,100	0,046	0,085
-225,942	800,000	-0,027	-0,064
-224,927	32,041	-0,138	0,086
-223,913	8,752	-0,172	0,094
-222,898	-200,000	0,010	-0,138
-221,884	-200,000	-0,020	0,079
-220,869	274,142	-0,046	0,059
-219,855	800,000	0,049	0,106
-218,840	-174,685	0,084	-0,002
-217,825	-200,000	0,026	-0,110
-216,811	-200,000	0,012	0,091
-215,796	669,289	-0,042	-0,079
-214,782	-69,098	0,165	-0,046
-213,767	16,340	-0,121	-0,069
-212,752	-110,636	-0,022	-0,003
-211,738	-200,000	0,013	0,116
-210,723	42,736	-0,141	0,093
-209,709	607,016	-0,004	-0,007
-208,694	114,372	0,064	-0,057
-207,679	35,615	0,162	-0,103
-206,665	-56,256	0,105	0,034
-205,650	134,473	-0,066	0,063
-204,636	135,298	-0,104	-0,098
-203,621	-79,963	0,006	0,001
-202,606	-200,000	-0,024	0,111
-201,592	-131,850	-0,063	0,006
-200,577	-128,618	-0,135	0,014
-199,563	-200,000	0,005	0,054
-198,548	448,779	0,049	-0,079
-197,533	-200,000	-0,008	-0,093
-196,519	-66,547	0,067	0,019
-195,504	232,863	0,024	0,028
-194,490	-41,535	-0,170	-0,063
-193,475	-11,586	-0,097	-0,046
-192,460	181,738	0,104	-0,112
-191,446	-33,364	0,037	0,015
-190,431	63,632	0,088	0,064
-189,417	-7,121	-0,113	0,056
-188,402	-9,044	0,043	-0,021
-187,387	44,290	-0,003	0,002
-186,373	-200,000	-0,029	-0,112
-185,358	-200,000	0,001	-0,031
-184,344	-101,500	0,088	-0,016
-183,329	-200,000	0,014	0,065
-182,315	1,449	-0,073	-0,038
-181,300	-200,000	-0,005	0,050
-180,285	67,216	-0,036	0,027
-179,271	149,169	0,059	-0,058
-178,256	-200,000	0,024	0,122
-177,242	-160,128	-0,063	0,002
-176,227	-93,023	0,142	-0,029
-175,212	-20,860	-0,048	0,021
-174,198	66,905	0,041	0,030
-173,183	-64,735	0,075	-0,022
-172,169	-200,000	-0,012	0,045
-171,154	2,245	0,071	0,037
-170,139	-200,000	0,028	0,128
-169,125	303,523	-0,023	0,031
-168,110	-200,000	0,014	-0,051
-167,096	-44,492	0,121	0,044
-166,081	-70,510	-0,174	0,048
-165,066	80,748	-0,086	0,068
-164,052	-75,992	-0,050	-0,013
-163,037	-200,000	0,010	0,111
-162,023	43,959	-0,101	0,067
-161,008	-101,460	0,067	0,012
-159,993	201,781	-0,030	0,033
-158,979	-6,414	0,080	-0,040
-157,964	16,669	-0,132	-0,076
-156,950	13,545	0,104	0,059
-155,935	-120,533	0,053	0,006
-154,920	-101,061	0,113	0,020
-153,906	-119,616	-0,079	0,010
-152,891	110,433	0,040	-0,035
-151,877	82,747	0,094	-0,074
-150,862	-16,096	-0,139	-0,064
-149,847	-119,115	0,084	0,011
-148,833	800,000	0,067	0,189
-147,818	-200,000	0,002	0,179
-146,804	-85,270	0,189	-0,042
-145,789	-115,452	-0,067	-0,009
-144,775	239,315	-0,021	0,025
-143,760	29,366	-0,086	-0,053
-142,745	-200,000	-0,024	0,079
-141,731	-200,000	-0,000	0,119
-140,716	179,329	0,072	0,077
-139,702	-101,618	0,050	0,009
-138,687	793,942	0,025	0,050
-137,672	28,836	0,051	-0,031
-136,658	467,716	-0,037	0,061
-135,643	-200,000	-0,015	-0,059
-134,629	96,679	-0,077	0,064
-133,614	-84,253	0,184	0,042
-132,599	-200,000	0,014	0,074
-131,585	800,000	0,049	0,103
-130,570	89,176	-0,088	-0,071
-129,556	-123,951	-0,095	-0,011
-128,541	-97,690	-0,165	-0,031
-127,526	-58,687	0,029	0,009
-126,512	89,740	0,043	-0,035
-125,497	-64,092	0,065	0,019
-124,483	69,267	0,079	0,059
-123,468	215,903	-0,026	-0,030
-122,453	800,000	0,051	-0,147
-121,439	144,432	-0,092	0,090
-120,424	8,583	0,080	0,044
-119,410	-40,743	0,078	-0,029
-118,395	-128,951	-0,109	0,011
