DTS Sentinel unit serial number:	SN410029Multiplexer serial number:	ORYXHardware model number:	OX2-SRSoftware version number:	ORYX F/W v4,00 Oryx Data Collector v3.7.2.0data status	okinstallation	B6 Nyhavnadifferential loss correction	single-endedforward channel	channel 2reverse channel	N/Adate	2023/12/10time	17:50:08forward acquisition time	300,00reverse acquisition time	0,00gamma	499,1914k internal	0,3122k external	0,3122temperature offset calibration	1,0000default loss term (dB/km)	0,3820temperature slope calibration	1,0000multiplexer offset coefficient	1,0000multiplexer slope coefficient	1,0000fibre end	0,00T internal ref (°C)	22,39T ext. ref 1 (°C)	6,00T ext. ref 2 (°C)	6,02length (m)	temperature (°C)	Stokes	anti-Stokes-744,400	-22,886	-0,057	-0,026
-743,385	-176,462	-0,238	0,004
-742,371	-100,146	0,129	0,024
-741,356	49,019	-0,210	0,146
-740,342	-65,682	-0,072	0,021
-739,327	-54,431	-0,267	0,090
-738,312	-122,075	0,072	0,009
-737,298	-142,785	-0,294	0,021
-736,283	-81,705	0,012	0,003
-735,269	182,366	-0,123	0,135
-734,254	210,212	0,023	-0,027
-733,239	-82,430	-0,367	-0,088
-732,225	-67,419	0,123	-0,036
-731,210	753,821	0,028	0,057
-730,196	482,784	0,034	0,058
-729,181	-34,125	-0,122	-0,050
-728,167	380,867	0,098	0,150
-727,152	429,027	0,023	0,038
-726,137	-27,666	-0,129	-0,056
-725,123	-200,000	0,000	0,073
-724,108	596,506	-0,092	-0,171
-723,094	800,000	-0,020	-0,053
-722,079	-40,294	0,103	-0,040
-721,064	-200,000	0,007	0,033
-720,050	-200,000	-0,003	-0,039
-719,035	180,745	-0,047	0,051
-718,021	800,000	-0,016	0,038
-717,006	-99,418	-0,084	0,016
-715,991	-126,389	-0,192	0,021
-714,977	13,463	0,065	-0,037
-713,962	59,504	-0,072	-0,053
-712,948	85,096	-0,081	0,066
-711,933	741,532	-0,075	-0,150
-710,918	42,829	0,065	-0,044
-709,904	118,264	-0,070	0,064
-708,889	741,312	-0,052	-0,104
-707,875	29,201	0,080	-0,050
-706,860	109,964	0,073	-0,065
-705,845	-97,785	-0,046	-0,009
-704,831	-200,000	-0,004	0,037
-703,816	446,864	0,025	0,041
-702,802	226,907	-0,061	0,074
-701,787	-200,000	-0,014	0,087
-700,772	-177,791	-0,077	0,001
-699,758	-200,000	0,003	0,024
-698,743	33,918	0,070	0,045
-697,729	-88,031	-0,091	0,020
-696,714	-200,000	0,005	0,020
-695,699	-13,716	-0,131	-0,063
-694,685	94,047	0,039	-0,033
-693,670	-200,000	-0,022	0,077
-692,656	61,375	0,128	0,095
-691,641	-200,000	-0,009	-0,083
-690,627	72,440	-0,027	0,021
-689,612	800,000	0,044	0,108
-688,597	105,884	-0,076	0,067
-687,583	96,697	0,046	-0,039
-686,568	738,832	0,042	-0,084
-685,554	-14,373	0,062	-0,030
-684,539	-2,939	-0,047	0,024
-683,524	7,684	0,080	-0,044
-682,510	31,396	-0,111	0,071
-681,495	-31,115	-0,018	-0,008
-680,481	-200,000	-0,014	-0,128
-679,466	-100,586	0,050	0,009
-678,451	-115,391	-0,034	0,005
-677,437	390,448	-0,035	0,055
-676,422	-10,372	0,047	-0,023
-675,408	-57,687	-0,018	-0,006
-674,393	597,596	0,009	0,017
-673,378	-58,707	-0,092	-0,030
-672,364	-109,466	-0,075	-0,012
-671,349	-200,000	0,005	-0,115
-670,335	-200,000	-0,018	0,101
-669,320	-90,715	-0,091	0,019
-668,305	-200,000	-0,042	-0,147
-667,291	-31,857	0,085	0,035
-666,276	104,638	0,030	0,026
-665,262	-89,319	-0,027	-0,006
-664,247	800,000	0,023	-0,054
-663,232	46,677	0,137	-0,095
-662,218	-200,000	-0,010	-0,034
-661,203	800,000	-0,049	-0,117
-660,189	-27,250	-0,066	0,028
-659,174	800,000	-0,036	0,094
-658,159	800,000	-0,068	-0,175
-657,145	247,849	-0,028	0,035
-656,130	417,294	-0,032	-0,050
-655,116	-200,000	0,006	-0,024
-654,101	-200,000	0,015	0,062
-653,086	-44,989	0,048	0,018
-652,072	142,738	-0,096	0,095
-651,057	-131,263	-0,157	-0,015
-650,043	67,242	-0,043	0,032
-649,028	276,426	-0,018	0,024
-648,014	-71,797	-0,080	-0,022
-646,999	41,787	-0,088	0,059
-645,984	251,271	-0,042	0,053
-644,970	800,000	0,016	0,047
-643,955	54,323	-0,051	0,036
-642,941	-200,000	0,006	-0,195
-641,926	68,847	0,066	0,050
-640,911	438,590	0,021	0,035
-639,897	-31,831	0,063	0,026
-638,882	267,306	0,059	0,077
-637,868	629,706	0,074	-0,139
-636,853	387,895	-0,103	-0,159
-635,838	21,945	-0,025	-0,015
-634,824	800,000	0,029	-0,066
-633,809	-74,524	0,054	0,014
-632,795	-91,260	-0,047	-0,010
-631,780	-39,183	0,127	-0,049
-630,765	305,125	-0,044	0,060
-629,751	491,762	-0,020	0,035
-628,736	565,284	-0,039	0,071
-627,722	420,722	0,036	-0,057
-626,707	-92,208	-0,072	0,015
-625,692	-106,998	0,104	-0,017
-624,678	318,772	-0,084	0,118
-623,663	-28,221	-0,127	0,054
-622,649	-108,297	-0,079	-0,013
-621,634	-200,000	0,016	-0,060
-620,619	800,000	-0,054	0,118
-619,605	-47,346	-0,130	0,047
-618,590	-0,109	0,134	-0,071
-617,576	64,079	0,048	0,036
-616,561	-114,759	-0,041	-0,006
-615,546	186,617	-0,058	0,064
-614,532	-115,496	-0,041	0,006
-613,517	-200,000	0,001	-0,030
-612,503	800,000	-0,032	-0,075
-611,488	-5,917	0,069	-0,035
-610,474	-41,061	0,039	-0,015
-609,459	255,577	-0,030	0,039
-608,444	57,654	0,073	-0,053
-607,430	-200,000	0,050	-0,191
-606,415	800,000	-0,051	-0,119
-605,401	-155,707	0,103	0,005
-604,386	-140,254	-0,106	-0,008
-603,371	-73,146	-0,059	-0,016
-602,357	-200,000	0,038	0,125
-601,342	601,977	-0,065	-0,121
-600,328	228,351	-0,072	-0,087
-599,313	357,001	0,012	-0,018
-598,298	800,000	0,037	-0,078
-597,284	161,012	0,017	-0,018
-596,269	-46,950	0,095	0,034
-595,255	800,000	-0,019	-0,052
-594,240	108,308	0,078	-0,069
-593,225	-119,010	-0,150	0,019
-592,211	-0,764	-0,078	0,041
-591,196	320,666	0,035	-0,049
-590,182	-39,952	0,148	0,057
-589,167	800,000	0,049	0,161
-588,152	-200,000	0,009	-0,068
-587,138	284,655	0,009	0,011
-586,123	-200,000	0,024	-0,081
-585,109	-154,248	-0,164	0,008
-584,094	-27,444	-0,085	0,036
-583,079	-200,000	-0,010	0,048
-582,065	800,000	-0,044	0,096
-581,050	-200,000	0,015	0,099
-580,036	-200,000	-0,008	0,100
-579,021	-81,237	-0,030	-0,007
-578,006	453,383	-0,044	-0,072
-576,992	-200,000	-0,006	0,052
-575,977	-200,000	0,004	-0,039
-574,963	-200,000	-0,003	0,119
-573,948	-81,886	0,090	-0,022
-572,934	-21,124	-0,059	-0,027
-571,919	79,099	0,006	-0,005
-570,904	800,000	-0,042	-0,106
-569,890	-44,363	0,065	-0,024
-568,875	800,000	0,031	-0,068
-567,861	800,000	0,050	-0,115
-566,846	-46,172	0,109	0,040
-565,831	289,000	-0,098	0,132
-564,817	297,486	0,050	-0,068
-563,802	-15,279	-0,044	0,021
-562,788	800,000	-0,007	0,021
-561,773	800,000	0,033	-0,075
-560,758	27,932	-0,058	-0,036
-559,744	247,825	0,072	-0,090
-558,729	-200,000	0,006	-0,026
-557,715	669,782	-0,092	-0,177
-556,700	276,927	0,025	-0,033
-555,685	-200,000	0,011	0,047
-554,671	800,000	-0,026	0,070
-553,656	-200,000	-0,015	-0,112
-552,642	-14,523	0,045	0,022
-551,627	206,823	-0,059	0,068
-550,612	-98,097	-0,030	-0,006
-549,598	157,403	-0,081	-0,083
-548,583	-200,000	0,015	-0,178
-547,569	109,433	-0,057	-0,051
-546,554	-200,000	-0,021	0,121
-545,539	137,967	-0,035	0,034
-544,525	-65,555	0,155	0,046
-543,510	195,452	-0,110	-0,123
-542,496	-200,000	-0,007	0,085
-541,481	-7,205	-0,049	-0,025
-540,466	170,051	0,082	0,087
-539,452	-200,000	-0,044	0,162
-538,437	-163,656	0,144	0,005
-537,423	567,408	-0,025	0,045
-536,408	65,128	-0,072	-0,053
-535,393	254,365	-0,064	0,081
-534,379	406,351	0,040	-0,063
-533,364	-200,000	0,012	0,042
-532,350	-200,000	0,014	-0,069
-531,335	225,111	0,040	0,048
-530,321	-51,298	0,013	0,004
-529,306	800,000	-0,011	-0,030
-528,291	15,387	-0,027	0,016
-527,277	208,553	-0,076	-0,088
-526,262	22,143	0,146	-0,088
-525,248	-4,423	-0,120	-0,061
-524,233	-37,465	0,061	0,024
-523,218	38,231	-0,086	-0,057
-522,204	150,709	-0,044	0,044
-521,189	635,226	-0,042	-0,078
-520,175	-200,000	-0,040	-0,152
-519,160	489,029	0,025	-0,043
-518,145	-164,867	0,108	-0,004
-517,131	-62,943	0,068	0,021
-516,116	-10,929	0,046	0,022
-515,102	356,456	-0,118	-0,174
-514,087	619,216	-0,038	-0,070
-513,072	-200,000	-0,045	-0,168
-512,058	-82,752	0,016	-0,004
-511,043	-200,000	0,025	0,110
-510,029	-85,190	0,153	-0,035
-509,014	784,387	0,041	-0,083
-507,999	-61,825	0,031	0,009
-506,985	41,823	-0,104	-0,070
-505,970	66,202	0,101	0,076
-504,956	13,175	0,031	-0,017
-503,941	8,957	-0,088	-0,049
-502,926	321,835	0,014	-0,020
-501,912	800,000	0,017	-0,035
-500,897	800,000	-0,025	0,067
-499,883	-114,090	0,197	-0,028
-498,868	-200,000	-0,013	0,127
-497,853	11,802	-0,103	0,058
-496,839	-200,000	0,026	0,085
-495,824	-101,856	0,099	0,018
-494,810	800,000	0,023	0,062
-493,795	237,730	0,050	0,061
-492,781	-200,000	0,040	-0,170
-491,766	14,799	-0,147	-0,085
-490,751	-42,479	0,069	0,026
-489,737	473,507	0,023	-0,039
-488,722	-200,000	0,015	0,086
-487,708	-200,000	-0,014	-0,046
-486,693	-53,424	0,105	-0,035
-485,678	-200,000	0,000	0,004
-484,664	179,456	-0,103	-0,111
-483,649	-200,000	-0,053	-0,178
-482,635	312,189	0,042	-0,059
-481,620	-50,979	-0,081	-0,028
-480,605	-82,591	0,085	-0,020
-479,591	29,845	0,085	0,053
-478,576	88,972	-0,131	0,108
-477,562	-9,478	-0,042	-0,021
-476,547	-78,470	-0,108	-0,027
-475,532	-200,000	0,001	0,008
-474,518	45,567	0,067	-0,046
-473,503	161,747	0,073	0,076
-472,489	800,000	0,046	0,096
-471,474	-200,000	-0,004	0,050
-470,459	-44,771	-0,017	-0,006
-469,445	800,000	0,010	-0,029
-468,430	262,245	0,047	-0,061
-467,416	800,000	0,017	0,045
-466,401	79,756	-0,015	0,012
-465,386	-200,000	-0,021	0,155
-464,372	-127,275	0,100	0,011
-463,357	-62,568	0,198	0,060
-462,343	800,000	-0,024	-0,051
-461,328	-132,743	-0,039	-0,004
-460,313	-131,071	0,102	0,010
-459,299	-200,000	-0,033	0,153
-458,284	285,239	0,120	0,160
-457,270	279,672	-0,069	0,091
-456,255	-164,499	-0,118	0,004
-455,241	-200,000	-0,006	-0,043
-454,226	-44,218	-0,105	-0,038
-453,211	-104,585	0,097	-0,016
-452,197	614,816	0,072	0,133
-451,182	308,118	-0,054	0,074
-450,168	800,000	0,015	-0,032
-449,153	-200,000	0,016	0,059
-448,138	458,806	-0,037	0,061
-447,124	450,540	-0,042	-0,068
-446,109	239,012	0,095	0,117
-445,095	-200,000	-0,003	-0,027
-444,080	169,671	0,147	0,155
-443,065	-200,000	-0,001	-0,028
-442,051	195,464	-0,091	0,102
-441,036	-146,679	-0,045	0,003
-440,022	800,000	0,009	0,020
-439,007	66,339	0,102	-0,076
-437,992	432,779	-0,050	-0,080
-436,978	-9,681	0,117	-0,057
-435,963	-57,174	-0,056	-0,018
-434,949	346,754	-0,059	-0,085
-433,934	680,945	0,027	0,052
-432,919	-57,227	-0,120	0,039
-431,905	800,000	-0,062	-0,165
-430,890	6,577	0,020	-0,011
-429,876	112,202	-0,102	0,091
-428,861	207,805	-0,051	0,058
-427,846	-200,000	0,009	-0,067
-426,832	43,681	-0,070	-0,047
-425,817	330,685	-0,095	-0,136
-424,803	-115,012	-0,085	-0,012
-423,788	-63,243	0,061	-0,018
-422,773	-30,484	0,185	0,077
-421,759	119,060	0,034	-0,031
-420,744	-200,000	-0,016	0,052
-419,730	-100,686	-0,085	0,015
-418,715	-153,304	-0,059	0,003
-417,701	277,363	-0,046	-0,060
-416,686	59,478	0,039	-0,028
-415,671	-200,000	-0,001	0,015
-414,657	-88,038	0,125	0,027
-413,642	403,480	-0,019	0,030
-412,628	202,034	-0,019	0,022
-411,613	-200,000	0,006	-0,089
-410,598	147,618	-0,109	0,108
-409,584	8,624	0,115	0,064
-408,569	135,412	-0,053	0,051
-407,555	189,757	0,046	-0,051
-406,540	-89,425	-0,067	-0,014
-405,525	-73,769	0,051	0,014
-404,511	564,090	-0,077	-0,138
-403,496	236,917	-0,095	-0,116
-402,482	-200,000	-0,008	0,096
-401,467	-200,000	-0,005	0,048
-400,452	305,916	-0,018	0,024
-399,438	-19,835	-0,087	-0,039
-398,423	800,000	-0,042	-0,096
-397,409	203,231	0,103	-0,117
-396,394	494,839	0,075	-0,128
-395,379	-10,341	0,066	-0,032
-394,365	-22,740	-0,129	0,057
-393,350	299,255	0,082	0,111
-392,336	800,000	-0,055	0,114
-391,321	800,000	-0,015	0,048
-390,306	267,016	0,072	0,092
-389,292	-70,844	-0,070	0,019
-388,277	270,111	0,109	-0,141
-387,263	-82,543	0,182	0,043
-386,248	86,475	-0,076	0,062
-385,233	56,100	0,070	0,050
-384,219	-171,197	-0,082	0,002
-383,204	-200,000	-0,018	-0,151
-382,190	-200,000	-0,008	-0,081
-381,175	106,253	0,049	-0,042
-380,160	7,854	0,088	0,048
-379,146	-200,000	0,023	0,082
-378,131	-49,857	0,047	-0,016
-377,117	64,718	0,054	-0,040
-376,102	800,000	-0,035	-0,113
-375,088	-110,062	0,079	0,012
-374,073	132,626	0,073	-0,069
-373,058	-200,000	0,012	-0,052
-372,044	316,554	-0,050	0,069
-371,029	-200,000	0,002	0,036
-370,015	-20,119	0,041	0,018
-369,000	-81,216	-0,077	0,018
-367,985	-167,356	-0,032	-0,001
-366,971	135,599	0,116	0,111
-365,956	-116,311	0,060	0,008
-364,942	673,254	0,043	-0,082
-363,927	-163,797	-0,081	0,003
-362,912	-200,000	0,001	-0,044
-361,898	-6,882	0,080	0,040
-360,883	800,000	0,040	-0,108
-359,869	520,365	0,043	-0,073
-358,854	-172,802	0,097	-0,002
-357,839	116,499	0,062	-0,056
-356,825	-122,416	-0,135	0,016
-355,810	41,511	0,128	0,085
-354,796	86,609	-0,151	0,122
-353,781	211,436	-0,081	0,094
-352,766	-200,000	0,016	0,137
-351,752	565,858	0,054	0,096
-350,737	-60,854	0,127	-0,039
-349,723	326,307	-0,022	0,030
-348,708	-33,596	0,069	0,028
-347,693	800,000	-0,054	-0,161
-346,679	11,376	-0,072	-0,040
-345,664	-200,000	0,004	-0,090
-344,650	-200,000	0,017	0,066
-343,635	800,000	0,045	-0,141
-342,620	-97,557	-0,219	-0,041
-341,606	3,170	0,033	-0,017
-340,591	148,617	-0,037	0,037
-339,577	-200,000	0,004	-0,076
-338,562	712,614	0,037	0,073
-337,548	13,990	-0,086	0,049
-336,533	800,000	-0,046	0,125
-335,518	-57,697	0,142	0,046
-334,504	-61,592	-0,057	0,017
-333,489	-7,299	0,044	0,022
-332,475	132,357	0,105	-0,099
-331,460	800,000	-0,099	-0,230
-330,445	72,052	0,133	-0,101
-329,431	20,445	-0,053	0,032
-328,416	206,281	0,036	0,042
-327,402	-102,830	-0,028	0,005
-326,387	-112,318	-0,054	-0,008
-325,372	-149,372	-0,118	-0,007
-324,358	-200,000	-0,027	-0,138
-323,343	-26,206	0,054	0,023
-322,329	-52,288	0,142	0,048
-321,314	-200,000	-0,059	0,247
-320,299	800,000	-0,016	0,049
-319,285	183,423	0,061	0,066
-318,270	42,521	0,082	-0,055
-317,256	27,863	-0,140	-0,086
-316,241	386,933	0,051	-0,078
-315,226	-200,000	0,011	0,121
-314,212	-200,000	-0,009	-0,112
-313,197	-200,000	0,002	0,053
-312,183	-197,804	0,080	-0,000
-311,168	112,516	-0,127	-0,113
-310,153	-143,598	0,053	0,004
-309,139	-39,631	-0,159	0,061
-308,124	-200,000	0,020	-0,069
-307,110	800,000	0,042	0,117
-306,095	100,881	0,088	0,075
-305,080	67,077	0,105	0,078
-304,066	-14,365	0,069	0,032
-303,051	23,016	-0,048	-0,029
-302,037	-116,554	-0,106	-0,014
-301,022	800,000	0,010	0,027
-300,008	-200,000	-0,024	0,206
-298,993	83,294	-0,112	0,089
-297,978	290,514	0,081	-0,108
-296,964	-48,100	-0,098	0,035
-295,949	78,388	-0,073	-0,057
-294,935	115,446	-0,108	-0,097
-293,920	-140,869	-0,056	0,004
-292,905	-200,000	0,020	-0,070
-291,891	-200,000	0,022	-0,074
-290,876	800,000	0,037	0,079
-289,862	579,554	-0,032	-0,058
-288,847	173,029	-0,035	-0,037
-287,832	-6,514	-0,140	0,069
-286,818	800,000	0,042	0,100
-285,803	295,982	0,074	0,099
-284,789	603,650	-0,038	0,070
-283,774	-55,143	0,198	0,065
-282,759	-200,000	-0,028	-0,109
-281,745	-25,324	-0,115	-0,050
-280,730	-200,000	0,029	-0,185
-279,716	111,996	-0,037	0,033
-278,701	221,905	0,016	0,019
-277,686	5,508	0,241	0,130
-276,672	-38,557	0,120	0,046
-275,657	43,566	-0,138	-0,093
-274,643	509,565	0,005	-0,008
-273,628	-200,000	0,006	-0,024
-272,613	-200,000	-0,015	0,051
-271,599	-200,000	0,019	0,154
-270,584	85,715	-0,168	-0,135
-269,570	314,422	0,066	-0,092
-268,555	-49,530	-0,078	0,027
-267,540	-200,000	-0,001	-0,008
-266,526	-16,190	-0,110	0,051
-265,511	532,228	-0,064	0,111
-264,497	-200,000	-0,006	0,045
-263,482	-200,000	0,060	0,208
-262,467	8,431	0,046	0,025
-261,453	-156,138	-0,153	-0,007
-260,438	-200,000	0,020	0,162
-259,424	37,530	0,020	-0,013
-258,409	365,852	-0,016	-0,023
-257,395	800,000	0,060	0,194
-256,380	-200,000	0,031	-0,108
-255,365	-95,462	0,066	-0,013
-254,351	220,279	-0,071	-0,084
-253,336	34,199	-0,059	-0,037
-252,322	800,000	0,042	0,098
-251,307	800,000	0,038	-0,086
-250,292	-200,000	0,012	0,084
-249,278	-200,000	-0,038	0,197
-248,263	-146,274	0,083	0,005
-247,249	406,811	-0,028	-0,044
-246,234	-113,645	-0,137	-0,019
-245,219	800,000	-0,080	-0,206
-244,205	359,573	0,074	-0,109
-243,190	-187,033	0,079	-0,001
-242,176	-200,000	0,000	0,073
-241,161	130,023	0,087	0,081
-240,146	410,957	0,127	0,198
-239,132	-141,634	-0,105	0,008
-238,117	-200,000	0,013	-0,084
-237,103	-150,241	0,029	0,002
-236,088	326,623	-0,090	-0,126
-235,073	800,000	-0,055	-0,125
-234,059	265,461	-0,016	-0,020
-233,044	-79,657	-0,043	-0,011
-232,030	170,221	0,027	0,029
-231,015	281,793	-0,141	-0,185
-230,000	-100,552	-0,155	0,028
-228,986	-200,000	0,010	0,047
-227,971	6,964	0,043	-0,023
-226,957	-132,736	0,263	-0,024
-225,942	-200,000	0,020	0,102
-224,927	-115,606	-0,040	0,005
-223,913	-6,108	0,100	-0,050
-222,898	800,000	-0,042	-0,088
-221,884	800,000	-0,021	-0,062
-220,869	559,765	-0,006	0,011
-219,855	-24,933	-0,077	-0,033
-218,840	-120,221	-0,071	0,009
-217,825	54,834	-0,055	0,038
-216,811	-79,848	0,142	-0,035
-215,796	-200,000	-0,005	-0,040
-214,782	800,000	0,078	0,175
-213,767	-2,308	0,094	0,048
-212,752	-200,000	-0,004	0,116
-211,738	-147,284	0,174	-0,011
-210,723	-130,723	0,144	0,014
-209,709	-200,000	0,028	-0,099
-208,694	-95,374	-0,077	-0,015
-207,679	800,000	0,031	-0,068
-206,665	172,426	-0,041	0,043
-205,650	-200,000	0,001	-0,080
-204,636	147,546	0,045	0,045
-203,621	146,170	-0,092	0,090
-202,606	132,039	-0,066	-0,062
-201,592	61,404	-0,078	-0,057
-200,577	-122,710	-0,077	0,009
-199,563	-47,790	0,181	0,064
-198,548	317,170	0,044	-0,061
-197,533	-200,000	0,016	0,090
-196,519	800,000	0,067	0,155
-195,504	-200,000	0,003	-0,123
-194,490	-200,000	-0,023	-0,219
-193,475	55,367	0,073	-0,051
-192,460	207,029	0,015	0,017
-191,446	-126,600	0,114	0,012
-190,431	20,172	0,209	0,123
-189,417	344,665	0,027	0,039
-188,402	-169,454	-0,041	0,001
-187,387	281,331	-0,120	-0,157
-186,373	6,377	-0,158	0,085
-185,358	12,721	-0,095	-0,053
-184,344	-200,000	0,016	-0,052
-183,329	-113,127	-0,111	0,016
-182,315	-200,000	0,130	0,000
-181,300	188,970	0,024	-0,026
-180,285	1,796	0,061	0,032
-179,271	-33,883	-0,106	-0,042
-178,256	-200,000	0,016	-0,163
-177,242	-200,000	-0,031	-0,108
-176,227	800,000	0,018	0,040
-175,212	800,000	-0,037	0,076
-174,198	-139,738	-0,143	0,011
-173,183	-106,546	0,065	0,010
-172,169	-200,000	0,002	0,015
-171,154	116,121	-0,151	0,135
-170,139	50,821	0,057	0,039
-169,125	338,160	0,070	0,099
-168,110	800,000	-0,065	0,154
-167,096	-200,000	-0,008	-0,136
-166,081	-200,000	0,015	-0,052
-165,066	360,822	0,026	0,038
-164,052	-137,713	-0,033	0,003
-163,037	800,000	-0,003	-0,010
-162,023	-200,000	0,026	0,122
-161,008	800,000	0,040	0,083
-159,993	315,590	0,012	0,016
-158,979	-115,360	-0,038	0,005
-157,964	56,375	-0,057	0,040
-156,950	-12,089	-0,078	-0,037
-155,935	-122,409	-0,093	0,011
-154,920	-45,331	0,082	0,029
-153,906	-200,000	-0,010	0,126
-152,891	-200,000	-0,018	0,129
-151,877	23,133	-0,157	0,093
-150,862	78,331	-0,050	-0,039
-149,847	76,808	0,021	0,016
-148,833	-131,835	0,150	0,014
-147,818	-200,000	-0,007	0,029
-146,804	-173,207	0,161	0,004
-145,789	8,069	-0,088	0,048
-144,775	800,000	0,035	0,112
-143,760	-119,500	0,079	0,010
-142,745	35,017	-0,059	0,037
-141,731	-200,000	-0,014	-0,078
-140,716	32,275	0,097	-0,061
-139,702	-164,790	0,094	0,003
-138,687	256,684	-0,076	0,095
-137,672	18,522	-0,095	0,055
-136,658	-200,000	0,001	0,030
-135,643	-33,600	-0,036	0,014
-134,629	-44,455	-0,081	0,029
-133,614	-200,000	-0,017	0,059
-132,599	84,065	-0,078	0,062
-131,585	-200,000	-0,000	0,005
-130,570	-55,326	-0,029	-0,009
-129,556	255,831	-0,011	-0,013
-128,541	-200,000	-0,029	-0,182
-127,526	194,611	-0,043	0,048
-126,512	-200,000	0,052	0,212
-125,497	9,719	-0,023	0,013
-124,483	800,000	-0,022	-0,046
-123,468	52,244	-0,094	-0,065
-122,453	-44,634	0,061	-0,022
-121,439	63,696	-0,070	-0,051
-120,424	43,118	0,083	0,055
-119,410	-181,056	-0,143	0,002
-118,395	-177,407	-0,040	0,001
