DTS Sentinel unit serial number:	SN410029Multiplexer serial number:	ORYXHardware model number:	OX2-SRSoftware version number:	ORYX F/W v4,00 Oryx Data Collector v3.7.2.0data status	okinstallation	B6 Nyhavnadifferential loss correction	single-endedforward channel	channel 2reverse channel	N/Adate	2023/12/08time	19:55:08forward acquisition time	300,00reverse acquisition time	0,00gamma	499,1914k internal	0,3158k external	0,3158temperature offset calibration	1,0000default loss term (dB/km)	0,3820temperature slope calibration	1,0000multiplexer offset coefficient	1,0000multiplexer slope coefficient	1,0000fibre end	0,00T internal ref (°C)	15,23T ext. ref 1 (°C)	-1,43T ext. ref 2 (°C)	-1,43length (m)	temperature (°C)	Stokes	anti-Stokes-744,400	-32,920	0,179	-0,073
-743,385	-70,342	-0,335	-0,093
-742,371	16,387	0,126	0,073
-741,356	-54,385	-0,254	0,084
-740,342	511,546	0,101	0,174
-739,327	-178,782	-0,277	0,005
-738,312	440,546	0,017	0,027
-737,298	-83,223	-0,341	-0,080
-736,283	-148,929	0,064	-0,004
-735,269	-141,084	-0,336	-0,025
-734,254	55,986	0,077	0,055
-733,239	-49,816	-0,568	-0,198
-732,225	133,676	0,172	0,164
-731,210	800,000	0,020	-0,065
-730,196	-97,605	-0,046	0,009
-729,181	-200,000	0,005	-0,089
-728,167	-200,000	-0,002	0,039
-727,152	691,676	-0,113	-0,218
-726,137	800,000	-0,069	-0,154
-725,123	-59,426	-0,171	0,054
-724,108	-134,338	-0,018	-0,002
-723,094	55,009	-0,217	-0,154
-722,079	-18,199	0,026	-0,012
-721,064	-200,000	0,002	0,127
-720,050	379,480	0,018	-0,027
-719,035	121,219	-0,069	-0,063
-718,021	-105,296	-0,059	0,010
-717,006	39,905	-0,076	-0,050
-715,991	23,796	-0,090	-0,054
-714,977	19,228	-0,108	-0,064
-713,962	-73,748	0,186	-0,049
-712,948	-148,081	0,060	0,004
-711,933	-200,000	-0,014	0,056
-710,918	26,145	-0,057	-0,035
-709,904	182,951	0,060	-0,066
-708,889	-15,120	-0,172	-0,081
-707,875	755,423	0,054	-0,108
-706,860	-200,000	0,037	0,189
-705,845	-200,000	-0,031	0,114
-704,831	445,623	-0,070	0,114
-703,816	459,852	0,050	-0,082
-702,802	261,537	-0,064	-0,082
-701,787	800,000	-0,045	0,115
-700,772	800,000	-0,049	-0,111
-699,758	120,405	0,093	-0,085
-698,743	63,265	0,066	0,048
-697,729	700,943	0,047	0,092
-696,714	-200,000	0,014	-0,154
-695,699	271,337	0,051	-0,066
-694,685	435,899	-0,013	-0,021
-693,670	99,872	-0,146	-0,125
-692,656	800,000	-0,003	0,007
-691,641	87,091	-0,046	-0,038
-690,627	-200,000	-0,015	0,063
-689,612	-114,783	0,098	0,014
-688,597	800,000	-0,047	-0,097
-687,583	-29,844	-0,126	-0,052
-686,568	-65,473	-0,111	0,033
-685,554	-200,000	0,011	-0,062
-684,539	-200,000	-0,008	-0,111
-683,524	-7,032	0,022	-0,011
-682,510	-200,000	0,019	-0,076
-681,495	169,490	-0,046	-0,048
-680,481	15,795	-0,049	0,028
-679,466	408,016	-0,095	-0,149
-678,451	-73,068	-0,045	0,012
-677,437	175,011	0,038	0,041
-676,422	47,809	-0,046	-0,032
-675,408	4,757	0,080	0,043
-674,393	625,874	-0,042	-0,077
-673,378	19,618	0,034	-0,020
-672,364	148,800	-0,108	0,108
-671,349	590,856	-0,026	-0,048
-670,335	177,337	0,066	0,071
-669,320	-200,000	-0,025	-0,100
-668,305	800,000	-0,018	-0,054
-667,291	-163,242	-0,056	-0,002
-666,276	109,954	0,066	-0,058
-665,262	103,694	-0,066	-0,057
-664,247	274,620	-0,043	-0,056
-663,232	468,380	0,066	-0,109
-662,218	-175,961	0,198	-0,004
-661,203	244,386	-0,090	0,111
-660,189	-200,000	0,010	0,103
-659,174	12,082	0,105	-0,059
-658,159	-15,424	0,070	0,033
-657,145	-64,868	-0,144	-0,043
-656,130	-200,000	-0,017	-0,071
-655,116	-115,649	-0,075	0,010
-654,101	7,509	0,029	-0,016
-653,086	800,000	-0,023	0,057
-652,072	354,578	0,065	-0,095
-651,057	213,884	-0,154	-0,179
-650,043	-77,594	-0,102	0,026
-649,028	35,773	-0,046	-0,030
-648,014	-200,000	0,012	0,076
-646,999	183,681	0,042	0,046
-645,984	-106,241	-0,092	0,015
-644,970	-56,812	-0,163	-0,053
-643,955	54,230	-0,069	0,049
-642,941	-36,101	-0,064	-0,025
-641,926	-200,000	-0,001	-0,044
-640,911	-200,000	0,002	-0,030
-639,897	-200,000	0,035	0,161
-638,882	31,328	-0,068	0,043
-637,868	-27,922	-0,121	-0,051
-636,853	502,845	-0,053	-0,090
-635,838	-200,000	0,023	-0,165
-634,824	87,087	-0,132	0,107
-633,809	-200,000	-0,000	-0,074
-632,795	800,000	-0,045	0,119
-631,780	-200,000	0,036	-0,138
-630,765	37,235	0,048	-0,031
-629,751	-171,726	-0,118	-0,003
-628,736	800,000	-0,021	-0,045
-627,722	559,582	0,051	-0,091
-626,707	-173,912	0,210	0,004
-625,692	30,987	-0,148	0,093
-624,678	96,399	-0,057	0,048
-623,663	800,000	-0,048	0,142
-622,649	800,000	0,015	-0,041
-621,634	-200,000	0,003	-0,108
-620,619	45,507	-0,084	-0,057
-619,605	-18,892	-0,091	-0,041
-618,590	-200,000	-0,022	-0,076
-617,576	-167,882	0,103	-0,003
-616,561	-200,000	-0,041	-0,133
-615,546	370,560	-0,060	-0,089
-614,532	42,713	-0,128	-0,085
-613,517	-200,000	0,006	-0,144
-612,503	-69,635	-0,143	0,040
-611,488	-200,000	-0,012	-0,047
-610,474	32,228	-0,073	0,046
-609,459	-36,040	0,131	-0,052
-608,444	262,108	0,054	-0,069
-607,430	800,000	0,067	-0,139
-606,415	-200,000	0,012	-0,131
-605,401	-200,000	0,027	-0,103
-604,386	600,823	0,051	0,093
-603,371	-75,695	-0,060	0,016
-602,357	-106,059	0,058	0,010
-601,342	243,613	-0,062	-0,076
-600,328	50,138	-0,083	-0,058
-599,313	217,093	-0,079	-0,092
-598,298	-38,922	-0,031	0,012
-597,284	-200,000	0,010	0,082
-596,269	800,000	-0,077	-0,169
-595,255	-112,218	0,140	-0,020
-594,240	-42,451	-0,091	0,034
-593,225	800,000	0,045	-0,091
-592,211	800,000	0,066	-0,169
-591,196	141,658	-0,052	-0,051
-590,182	-200,000	0,005	-0,117
-589,167	-28,246	-0,043	-0,018
-588,152	-200,000	0,012	0,124
-587,138	-200,000	-0,014	0,166
-586,123	-44,151	-0,063	-0,023
-585,109	-145,629	-0,186	0,012
-584,094	458,714	-0,048	-0,079
-583,079	-200,000	-0,012	-0,041
-582,065	349,196	0,064	-0,092
-581,050	230,125	-0,016	-0,020
-580,036	-118,753	-0,161	-0,021
-579,021	-26,416	0,071	-0,030
-578,006	134,756	-0,091	-0,087
-576,992	800,000	0,009	0,018
-575,977	82,239	-0,045	-0,036
-574,963	800,000	0,022	0,061
-573,948	800,000	-0,024	0,053
-572,934	-200,000	-0,009	0,042
-571,919	209,974	0,006	-0,007
-570,904	494,421	-0,010	-0,017
-569,890	160,015	0,037	0,038
-568,875	-200,000	0,003	-0,125
-567,861	800,000	0,036	0,078
-566,846	-200,000	0,016	0,148
-565,831	-30,143	-0,082	-0,034
-564,817	-160,820	0,059	-0,002
-563,802	36,200	0,055	0,036
-562,788	-19,852	-0,042	0,019
-561,773	133,150	-0,078	-0,074
-560,758	-200,000	-0,005	-0,052
-559,744	297,967	0,041	0,055
-558,729	800,000	-0,020	0,056
-557,715	-62,617	0,034	0,010
-556,700	-200,000	-0,012	-0,054
-555,685	625,134	-0,025	-0,047
-554,671	636,285	0,023	0,043
-553,656	-140,493	0,025	0,002
-552,642	-139,377	0,057	0,004
-551,627	43,256	-0,050	-0,033
-550,612	-126,177	-0,098	0,011
-549,598	32,940	-0,157	0,100
-548,583	-55,723	0,149	0,049
-547,569	494,786	0,081	-0,136
-546,554	-104,031	-0,013	-0,002
-545,539	-200,000	0,008	0,091
-544,525	-71,768	0,093	0,025
-543,510	713,925	0,063	0,123
-542,496	269,502	0,120	-0,154
-541,481	-37,827	-0,087	-0,034
-540,466	-94,824	0,084	0,017
-539,452	48,086	-0,014	-0,010
-538,437	478,136	0,064	-0,106
-537,423	-200,000	-0,010	0,052
-536,408	-200,000	-0,019	0,099
-535,393	101,492	-0,114	-0,097
-534,379	127,326	-0,039	-0,036
-533,364	209,436	0,027	0,031
-532,350	268,118	0,085	0,109
-531,335	-200,000	0,006	-0,042
-530,321	-200,000	-0,048	-0,167
-529,306	-9,922	0,090	-0,044
-528,291	111,946	0,063	-0,056
-527,277	800,000	0,056	-0,141
-526,262	-200,000	0,033	0,153
-525,248	-121,947	0,115	-0,014
-524,233	-36,817	0,056	-0,022
-523,218	800,000	0,033	0,069
-522,204	352,309	-0,101	0,146
-521,189	66,443	0,017	0,013
-520,175	-59,942	-0,054	-0,017
-519,160	800,000	0,009	0,023
-518,145	93,571	-0,138	0,114
-517,131	-200,000	0,039	0,178
-516,116	1,081	0,049	-0,026
-515,102	-86,777	0,015	0,003
-514,087	638,592	0,083	0,155
-513,072	58,680	-0,149	-0,107
-512,058	800,000	0,022	0,055
-511,043	-88,066	0,138	-0,030
-510,029	184,427	-0,087	-0,094
-509,014	-200,000	0,041	0,136
-507,999	252,693	-0,007	-0,008
-506,985	324,788	0,075	-0,106
-505,970	800,000	-0,031	0,089
-504,956	-24,868	-0,066	-0,029
-503,941	-21,413	0,101	0,045
-502,926	-9,030	0,107	0,052
-501,912	579,269	0,063	0,113
-500,897	52,701	0,089	-0,062
-499,883	-166,013	-0,148	-0,005
-498,868	-200,000	0,004	-0,077
-497,853	297,855	-0,117	-0,157
-496,839	72,591	0,107	0,081
-495,824	-200,000	0,000	0,204
-494,810	800,000	-0,003	0,008
-493,795	428,326	0,075	0,118
-492,781	-130,314	-0,066	0,006
-491,766	-30,767	-0,136	0,056
-490,751	128,501	-0,076	0,070
-489,737	-70,632	0,264	0,072
-488,722	-132,117	-0,126	0,012
-487,708	39,059	-0,030	-0,020
-486,693	112,690	0,070	-0,061
-485,678	159,671	-0,071	-0,072
-484,664	-200,000	-0,035	0,124
-483,649	-78,296	0,015	0,004
-482,635	-5,959	-0,125	0,062
-481,620	-1,439	0,045	0,023
-480,605	-200,000	0,002	0,055
-479,591	133,708	0,127	0,120
-478,576	800,000	0,030	0,076
-477,562	84,836	-0,116	0,092
-476,547	-200,000	-0,019	-0,080
-475,532	-80,610	0,164	0,040
-474,518	70,678	0,065	0,049
-473,503	-200,000	-0,001	-0,120
-472,489	-200,000	0,002	-0,015
-471,474	-55,468	-0,181	0,059
-470,459	229,204	0,054	0,064
-469,445	-200,000	-0,009	-0,098
-468,430	622,221	0,020	0,036
-467,416	-162,195	0,036	-0,001
-466,401	800,000	0,014	0,045
-465,386	-6,470	-0,064	0,032
-464,372	-94,181	0,096	0,019
-463,357	-74,939	-0,037	-0,009
-462,343	120,527	-0,018	-0,016
-461,328	-159,485	0,081	-0,003
-460,313	-200,000	0,022	0,098
-459,299	-53,876	0,059	0,020
-458,284	-200,000	-0,009	-0,031
-457,270	129,916	-0,013	-0,012
-456,255	-167,670	0,050	0,001
-455,241	19,336	-0,136	-0,080
-454,226	-14,757	0,155	0,072
-453,211	-200,000	-0,001	0,028
-452,197	683,849	0,019	0,036
-451,182	-180,972	0,090	-0,001
-450,168	-56,457	-0,075	0,024
-449,153	-27,984	-0,099	-0,042
-448,138	-9,416	-0,124	0,060
-447,124	52,513	0,076	0,053
-446,109	686,628	-0,041	-0,079
-445,095	177,054	0,052	-0,055
-444,080	-123,348	0,140	0,016
-443,065	450,398	-0,045	0,072
-442,051	691,843	0,043	-0,082
-441,036	-132,172	-0,086	0,008
-440,022	-96,535	-0,031	0,006
-439,007	-200,000	0,019	-0,065
-437,992	152,937	-0,067	0,067
-436,978	239,378	0,106	0,129
-435,963	800,000	0,007	-0,018
-434,949	95,125	-0,095	0,079
-433,934	219,388	-0,051	0,060
-432,919	146,199	-0,081	0,080
-431,905	177,317	-0,087	-0,093
-430,890	160,233	-0,014	-0,014
-429,876	86,583	0,179	0,144
-428,861	-200,000	0,004	0,018
-427,846	263,327	-0,093	0,118
-426,832	-200,000	0,007	-0,074
-425,817	176,731	0,094	-0,100
-424,803	-200,000	-0,003	0,028
-423,788	202,141	-0,009	-0,010
-422,773	-93,448	0,091	-0,018
-421,759	-200,000	-0,034	-0,185
-420,744	298,533	0,032	-0,043
-419,730	501,520	0,016	0,027
-418,715	800,000	-0,031	-0,096
-417,701	-200,000	-0,011	-0,099
-416,686	800,000	-0,029	0,063
-415,671	-172,517	-0,048	-0,001
-414,657	55,766	0,078	-0,055
-413,642	119,695	0,010	0,009
-412,628	-24,712	-0,096	-0,041
-411,613	3,904	-0,113	0,060
-410,598	-42,864	-0,148	-0,054
-409,584	784,081	-0,017	-0,034
-408,569	694,244	0,053	0,101
-407,555	800,000	0,019	0,038
-406,540	800,000	-0,054	0,143
-405,525	-82,432	-0,107	0,025
-404,511	800,000	-0,072	-0,180
-403,496	48,124	-0,105	-0,071
-402,482	800,000	0,037	-0,106
-401,467	-133,600	0,112	0,010
-400,452	-31,192	0,127	0,052
-399,438	128,499	0,038	0,035
-398,423	-200,000	-0,000	0,013
-397,409	-200,000	-0,004	0,015
-396,394	800,000	-0,044	-0,092
-395,379	-57,157	0,097	0,031
-394,365	-30,233	-0,057	-0,024
-393,350	-14,321	0,095	0,044
-392,336	800,000	-0,016	-0,035
-391,321	737,539	-0,041	-0,080
-390,306	-78,787	-0,030	0,007
-389,292	800,000	0,037	0,105
-388,277	-200,000	-0,009	-0,041
-387,263	-200,000	0,012	0,129
-386,248	-50,011	0,197	0,068
-385,233	94,283	0,046	-0,038
-384,219	800,000	-0,035	0,100
-383,204	255,510	0,044	0,054
-382,190	800,000	-0,007	0,014
-381,175	-200,000	-0,035	0,115
-380,160	501,785	0,036	0,061
-379,146	49,080	-0,015	-0,010
-378,131	-200,000	0,003	0,022
-377,117	-200,000	-0,030	0,138
-376,102	-200,000	0,012	0,052
-375,088	-62,611	0,063	-0,019
-374,073	263,054	-0,047	-0,060
-373,058	800,000	0,085	0,208
-372,044	-116,723	0,111	0,015
-371,029	57,890	-0,093	0,066
-370,015	-107,880	-0,021	0,003
-369,000	293,201	-0,142	-0,189
-367,985	235,369	0,053	-0,063
-366,971	-200,000	0,013	0,088
-365,956	31,842	0,092	-0,057
-364,942	531,886	0,107	0,185
-363,927	610,041	0,034	-0,061
-362,912	-90,471	0,050	-0,010
-361,898	42,543	-0,092	-0,061
-360,883	-103,589	-0,044	-0,007
-359,869	28,646	0,047	-0,029
-358,854	-81,199	0,090	-0,021
-357,839	-200,000	-0,004	-0,034
-356,825	25,492	-0,066	0,040
-355,810	235,580	0,133	0,160
-354,796	-160,177	-0,076	0,003
-353,781	-200,000	-0,025	-0,090
-352,766	-177,261	-0,148	0,003
-351,752	800,000	-0,068	-0,137
-350,737	-200,000	0,150	-0,000
-349,723	-111,964	0,067	0,010
-348,708	397,243	-0,065	0,099
-347,693	337,263	0,086	-0,121
-346,679	-198,042	-0,076	-0,000
-345,664	125,632	0,040	0,037
-344,650	-26,775	0,096	0,041
-343,635	800,000	-0,042	-0,123
-342,620	94,177	0,060	-0,049
-341,606	-200,000	0,005	0,019
-340,591	54,437	-0,073	-0,051
-339,577	-159,897	-0,069	-0,003
-338,562	800,000	-0,006	-0,015
-337,548	-47,754	0,082	-0,029
-336,533	118,808	-0,032	-0,028
-335,518	-200,000	-0,007	0,052
-334,504	800,000	-0,017	0,051
-333,489	665,047	0,047	-0,088
-332,475	26,543	0,059	-0,036
-331,460	220,319	-0,047	-0,055
-330,445	27,545	0,041	0,025
-329,431	-103,868	-0,151	-0,025
-328,416	-80,305	-0,103	0,025
-327,402	86,521	0,096	0,077
-326,387	159,451	-0,106	-0,107
-325,372	-200,000	-0,018	0,102
-324,358	-132,559	-0,057	-0,005
-323,343	132,961	-0,056	0,052
-322,329	800,000	-0,013	-0,031
-321,314	172,899	-0,012	-0,013
-320,299	339,130	-0,025	0,035
-319,285	50,921	0,089	0,061
-318,270	20,838	-0,071	0,042
-317,256	317,648	-0,040	-0,055
-316,241	703,170	0,037	-0,071
-315,226	-11,922	0,128	0,061
-314,212	82,346	-0,073	0,057
-313,197	-200,000	0,005	-0,025
-312,183	-72,697	0,066	0,018
-311,168	3,285	-0,074	0,039
-310,153	497,445	0,039	0,065
-309,139	145,643	0,077	-0,075
-308,124	-200,000	-0,018	0,124
-307,110	439,873	0,079	0,125
-306,095	12,194	0,168	0,094
-305,080	-61,342	0,062	0,019
-304,066	800,000	0,041	-0,088
-303,051	-200,000	-0,031	-0,128
-302,037	258,727	0,047	-0,059
-301,022	525,756	-0,048	-0,083
-300,008	-200,000	-0,002	0,032
-298,993	170,589	-0,091	0,094
-297,978	-200,000	-0,010	0,062
-296,964	78,961	-0,065	0,050
-295,949	800,000	0,051	-0,106
-294,935	-6,231	-0,098	-0,048
-293,920	800,000	-0,042	-0,110
-292,905	136,782	0,095	-0,090
-291,891	-156,711	0,121	0,005
-290,876	-200,000	-0,030	0,220
-289,862	27,714	-0,076	0,046
-288,847	-93,472	-0,139	0,028
-287,832	-200,000	0,014	0,047
-286,818	-200,000	0,004	0,058
-285,803	123,087	-0,037	0,034
-284,789	-200,000	-0,002	-0,018
-283,774	6,191	-0,131	-0,070
-282,759	-200,000	0,007	-0,055
-281,745	-200,000	-0,008	-0,077
-280,730	539,691	-0,123	-0,213
-279,716	-97,225	0,112	-0,021
-278,701	-122,658	-0,093	0,011
-277,686	-73,330	0,125	0,033
-276,672	-200,000	0,018	0,162
-275,657	-36,154	0,072	0,028
-274,643	377,456	-0,034	0,050
-273,628	233,386	0,043	-0,051
-272,613	800,000	-0,076	-0,153
-271,599	94,664	0,131	0,108
-270,584	-36,665	0,088	-0,034
-269,570	33,420	-0,088	-0,055
-268,555	428,232	-0,080	-0,126
-267,540	-200,000	-0,043	-0,287
-266,526	-200,000	0,018	0,180
-265,511	569,255	0,033	-0,059
-264,497	-200,000	-0,016	-0,100
-263,482	800,000	0,095	0,198
-262,467	-21,922	-0,032	0,014
-261,453	-200,000	-0,020	0,086
-260,438	84,089	-0,104	0,082
-259,424	456,705	0,022	0,036
-258,409	111,941	0,024	0,021
-257,395	543,851	-0,031	0,054
-256,380	-138,125	0,112	-0,009
-255,365	311,715	0,088	-0,120
-254,351	800,000	-0,042	0,124
-253,336	800,000	0,056	-0,130
-252,322	-6,018	-0,060	-0,029
-251,307	800,000	-0,074	-0,162
-250,292	750,718	0,014	0,028
-249,278	-39,315	0,070	0,026
-248,263	800,000	-0,007	0,014
-247,249	481,593	-0,075	0,123
-246,234	141,794	-0,067	0,064
-245,219	-87,408	-0,048	-0,010
-244,205	-19,608	-0,049	-0,022
-243,190	800,000	-0,053	-0,135
-242,176	50,065	0,055	-0,038
-241,161	-200,000	0,001	0,074
-240,146	-106,080	-0,069	-0,011
-239,132	34,368	0,125	-0,079
-238,117	-200,000	-0,041	-0,138
-237,103	-132,818	0,122	0,011
-236,088	-41,452	0,020	-0,007
-235,073	452,588	-0,023	-0,037
-234,059	-151,685	-0,101	0,005
-233,044	9,997	0,071	0,039
-232,030	742,302	-0,053	-0,103
-231,015	-16,860	-0,142	-0,064
-230,000	-200,000	-0,003	-0,053
-228,986	396,205	0,149	-0,225
-227,971	-200,000	-0,030	0,150
-226,957	-200,000	0,007	0,112
-225,942	19,743	0,098	-0,057
-224,927	104,805	-0,129	0,110
-223,913	-128,766	0,059	-0,006
-222,898	-200,000	-0,017	-0,132
-221,884	-111,956	-0,085	0,012
-220,869	-200,000	0,012	0,051
-219,855	800,000	0,029	0,066
-218,840	-93,208	0,090	-0,018
-217,825	54,956	0,016	-0,011
-216,811	800,000	-0,060	0,126
-215,796	-200,000	0,007	-0,088
-214,782	159,246	0,045	-0,046
-213,767	-77,681	0,157	0,039
-212,752	727,665	-0,026	-0,050
-211,738	339,761	-0,058	0,082
-210,723	58,073	-0,062	-0,044
-209,709	-12,284	0,032	-0,015
-208,694	445,103	0,138	-0,219
-207,679	151,620	0,090	-0,089
-206,665	-46,603	-0,053	-0,019
-205,650	328,241	0,075	0,104
-204,636	18,522	0,106	0,061
-203,621	-78,529	-0,141	0,035
-202,606	800,000	0,046	-0,120
-201,592	-129,114	-0,122	0,012
-200,577	800,000	0,042	-0,114
-199,563	138,508	-0,115	0,109
-198,548	67,220	0,076	0,056
-197,533	257,414	0,027	0,034
-196,519	-200,000	0,048	0,205
-195,504	-200,000	0,022	-0,138
-194,490	390,306	0,017	-0,026
-193,475	-150,006	0,025	-0,001
-192,460	800,000	0,017	-0,046
-191,446	-73,503	0,098	-0,026
-190,431	-24,828	-0,186	0,079
-189,417	-14,250	0,088	0,041
-188,402	-200,000	-0,008	-0,070
-187,387	-200,000	0,011	-0,044
-186,373	344,759	0,050	-0,071
-185,358	236,978	0,053	0,064
-184,344	-200,000	-0,022	0,175
-183,329	-200,000	-0,024	0,244
-182,315	-200,000	-0,007	0,049
-181,300	17,737	0,106	-0,060
-180,285	-200,000	-0,006	-0,051
-179,271	-6,692	-0,069	-0,034
-178,256	800,000	-0,023	-0,070
-177,242	-77,877	0,178	0,044
-176,227	-53,593	0,080	0,026
-175,212	800,000	-0,004	0,013
-174,198	29,773	-0,103	-0,063
-173,183	49,887	-0,134	-0,091
-172,169	262,066	-0,053	-0,066
-171,154	54,786	0,080	0,056
-170,139	438,153	0,097	0,152
-169,125	96,289	-0,032	0,026
-168,110	-200,000	-0,016	0,070
-167,096	-86,023	0,130	-0,029
-166,081	-200,000	0,022	0,116
-165,066	800,000	-0,002	0,005
-164,052	380,396	-0,033	-0,049
-163,037	-95,769	0,114	-0,022
-162,023	-176,569	0,030	0,001
-161,008	174,407	-0,068	-0,071
-159,993	69,699	0,032	-0,024
-158,979	-87,066	-0,043	0,009
-157,964	-85,887	0,060	0,013
-156,950	-103,519	0,021	-0,003
-155,935	147,923	-0,051	0,049
-154,920	517,779	0,107	0,181
-153,906	-47,453	0,055	-0,019
-152,891	15,181	0,073	-0,041
-151,877	-200,000	-0,005	-0,082
-150,862	512,109	-0,125	-0,211
-149,847	-200,000	-0,034	-0,114
-148,833	159,710	-0,068	0,068
-147,818	-46,587	0,044	-0,016
-146,804	-87,119	0,098	-0,021
-145,789	380,996	-0,105	0,156
-144,775	-21,979	0,118	-0,051
-143,760	-200,000	0,064	0,000
-142,745	-115,994	-0,069	-0,009
-141,731	307,616	0,052	0,069
-140,716	155,134	0,028	-0,027
-139,702	-200,000	-0,002	0,060
-138,687	-35,651	-0,111	0,043
-137,672	-95,808	-0,076	-0,014
-136,658	-124,187	-0,053	-0,006
-135,643	-200,000	-0,005	-0,145
-134,629	-57,746	0,069	-0,021
-133,614	219,013	0,105	0,121
-132,599	268,368	0,140	0,177
-131,585	800,000	0,039	0,099
-130,570	800,000	-0,032	0,066
-129,556	-200,000	0,005	0,074
-128,541	31,859	-0,123	-0,076
-127,526	23,501	0,023	0,014
-126,512	-113,423	-0,063	-0,009
-125,497	371,522	-0,071	0,104
-124,483	-200,000	0,009	0,116
-123,468	415,926	0,006	0,010
-122,453	-81,831	-0,061	0,014
-121,439	-96,189	0,134	-0,025
-120,424	-200,000	0,012	-0,061
-119,410	-200,000	0,020	0,068
