DTS Sentinel unit serial number:	SN410029Multiplexer serial number:	ORYXHardware model number:	OX2-SRSoftware version number:	ORYX F/W v4,00 Oryx Data Collector v3.7.2.0data status	okinstallation	B6 Nyhavnadifferential loss correction	single-endedforward channel	channel 2reverse channel	N/Adate	2023/12/09time	13:05:08forward acquisition time	300,00reverse acquisition time	0,00gamma	499,1914k internal	0,3137k external	0,3137temperature offset calibration	1,0000default loss term (dB/km)	0,3820temperature slope calibration	1,0000multiplexer offset coefficient	1,0000multiplexer slope coefficient	1,0000fibre end	0,00T internal ref (°C)	19,85T ext. ref 1 (°C)	4,68T ext. ref 2 (°C)	4,64length (m)	temperature (°C)	Stokes	anti-Stokes-744,400	800,000	0,004	0,012
-743,385	-51,067	-0,396	0,137
-742,371	-39,648	0,102	-0,039
-741,356	78,880	-0,178	0,142
-740,342	284,217	0,036	0,048
-739,327	-103,717	-0,213	0,037
-738,312	156,026	-0,063	-0,065
-737,298	-141,326	-0,317	-0,024
-736,283	7,663	0,066	-0,037
-735,269	74,275	-0,280	0,218
-734,254	-100,630	0,017	-0,003
-733,239	-72,182	-0,387	-0,106
-732,225	-47,542	0,041	-0,015
-731,210	800,000	0,053	0,130
-730,196	-200,000	0,024	0,112
-729,181	-140,498	-0,067	0,005
-728,167	-200,000	0,007	0,095
-727,152	278,896	0,024	0,031
-726,137	-15,072	-0,121	-0,057
-725,123	-200,000	0,009	-0,031
-724,108	-61,440	-0,017	0,005
-723,094	87,717	-0,094	-0,077
-722,079	-200,000	-0,004	-0,025
-721,064	135,423	-0,019	0,018
-720,050	24,759	0,048	0,030
-719,035	447,890	-0,084	-0,138
-718,021	-5,687	-0,139	-0,070
-717,006	-67,700	-0,156	-0,045
-715,991	614,952	-0,073	-0,136
-714,977	296,266	0,113	-0,154
-713,962	-200,000	-0,008	0,040
-712,948	800,000	0,021	0,048
-711,933	-200,000	-0,012	-0,092
-710,918	276,396	-0,013	-0,017
-709,904	800,000	0,034	-0,100
-708,889	800,000	0,046	0,143
-707,875	24,987	0,133	-0,082
-706,860	-200,000	-0,005	0,031
-705,845	-200,000	-0,013	-0,066
-704,831	122,195	-0,022	-0,020
-703,816	-100,334	0,084	-0,015
-702,802	174,157	0,021	0,023
-701,787	266,398	0,104	-0,135
-700,772	407,802	-0,125	-0,197
-699,758	-122,987	-0,121	0,014
-698,743	139,269	0,042	-0,041
-697,729	-200,000	-0,012	-0,075
-696,714	27,365	0,123	-0,076
-695,699	-32,453	-0,056	-0,023
-694,685	140,910	-0,068	-0,067
-693,670	-200,000	-0,001	-0,158
-692,656	-200,000	0,004	0,071
-691,641	800,000	0,049	0,110
-690,627	151,815	0,010	0,010
-689,612	70,752	-0,004	0,003
-688,597	-60,186	0,102	-0,032
-687,583	-200,000	0,006	0,059
-686,568	-59,829	0,113	-0,035
-685,554	-123,919	0,039	0,005
-684,539	83,288	-0,091	0,074
-683,524	-57,992	-0,078	-0,025
-682,510	177,575	0,039	-0,043
-681,495	-200,000	-0,021	-0,069
-680,481	-200,000	-0,031	-0,125
-679,466	495,935	0,010	-0,018
-678,451	-18,196	0,011	-0,005
-677,437	-121,383	-0,098	-0,012
-676,422	-29,623	-0,049	0,021
-675,408	-19,026	0,048	-0,022
-674,393	800,000	0,018	0,055
-673,378	707,965	-0,065	-0,128
-672,364	142,334	0,049	-0,048
-671,349	-200,000	0,014	0,049
-670,335	76,982	-0,114	0,089
-669,320	235,961	0,108	-0,132
-668,305	800,000	0,027	-0,078
-667,291	-200,000	0,047	-0,184
-666,276	-62,490	-0,092	0,028
-665,262	-100,651	-0,253	-0,046
-664,247	-102,358	0,121	-0,021
-663,232	800,000	-0,013	-0,037
-662,218	-200,000	0,001	0,191
-661,203	-111,090	-0,107	-0,016
-660,189	800,000	0,050	-0,106
-659,174	-200,000	0,001	-0,077
-658,159	668,964	-0,060	-0,115
-657,145	-176,786	-0,063	0,001
-656,130	11,096	0,062	-0,035
-655,116	800,000	0,028	0,082
-654,101	237,101	-0,048	-0,059
-653,086	108,783	-0,061	0,054
-652,072	-23,210	-0,118	-0,052
-651,057	-200,000	-0,021	-0,108
-650,043	-106,102	-0,101	-0,017
-649,028	-200,000	-0,016	-0,052
-648,014	247,605	0,044	-0,055
-646,999	308,658	0,053	0,073
-645,984	-200,000	-0,027	0,136
-644,970	-11,162	-0,085	-0,041
-643,955	491,782	0,058	-0,098
-642,941	57,367	-0,100	0,072
-641,926	22,676	0,033	-0,020
-640,911	-97,602	-0,071	-0,013
-639,897	579,214	0,049	0,089
-638,882	-200,000	0,003	-0,035
-637,868	-200,000	0,009	0,069
-636,853	-183,092	0,073	0,001
-635,838	-200,000	0,016	-0,072
-634,824	-200,000	-0,007	-0,109
-633,809	-93,132	0,156	0,032
-632,795	-200,000	0,004	0,058
-631,780	-157,763	-0,063	-0,003
-630,765	85,914	0,084	0,068
-629,751	-200,000	-0,037	-0,178
-628,736	89,364	-0,095	-0,078
-627,722	18,193	0,042	0,025
-626,707	-122,541	0,030	0,004
-625,692	388,907	-0,049	0,076
-624,678	106,662	0,112	0,099
-623,663	-200,000	-0,033	0,133
-622,649	143,049	-0,038	-0,037
-621,634	52,849	-0,073	0,052
-620,619	-110,584	0,088	0,013
-619,605	-38,978	-0,193	0,075
-618,590	739,801	0,035	0,069
-617,576	-67,632	0,108	0,031
-616,561	-200,000	-0,004	0,028
-615,546	-35,762	-0,053	0,021
-614,532	158,539	0,154	-0,158
-613,517	-41,517	0,053	-0,020
-612,503	325,836	-0,043	0,060
-611,488	-40,684	0,010	0,004
-610,474	-109,536	-0,145	-0,022
-609,459	87,496	-0,016	-0,013
-608,444	-200,000	-0,019	-0,096
-607,430	-58,189	-0,062	-0,020
-606,415	800,000	0,064	-0,173
-605,401	645,089	-0,081	-0,154
-604,386	800,000	0,022	0,069
-603,371	293,043	-0,035	0,047
-602,357	800,000	-0,049	-0,111
-601,342	413,527	-0,042	-0,067
-600,328	-89,508	-0,174	-0,038
-599,313	-200,000	-0,008	0,170
-598,298	34,375	-0,156	-0,100
-597,284	-46,777	0,058	0,021
-596,269	229,714	-0,096	-0,116
-595,255	305,399	0,071	0,097
-594,240	526,753	0,038	0,066
-593,225	17,722	0,065	-0,038
-592,211	-151,996	-0,077	0,004
-591,196	61,854	0,123	0,091
-590,182	800,000	0,023	-0,061
-589,167	148,423	-0,005	0,005
-588,152	12,272	0,133	-0,075
-587,138	-70,658	-0,201	-0,056
-586,123	-40,361	0,037	-0,014
-585,109	-9,164	-0,198	0,097
-584,094	800,000	0,058	-0,138
-583,079	-68,243	-0,072	0,020
-582,065	250,489	0,078	0,098
-581,050	139,467	0,067	0,065
-580,036	448,359	-0,043	-0,070
-579,021	65,260	0,053	-0,040
-578,006	-65,081	0,159	0,047
-576,992	-92,708	-0,089	-0,018
-575,977	-20,196	0,071	-0,032
-574,963	-133,193	-0,018	0,002
-573,948	712,595	0,044	0,086
-572,934	800,000	-0,016	-0,040
-571,919	52,182	-0,132	0,093
-570,904	396,830	-0,075	-0,115
-569,890	-200,000	0,036	-0,143
-568,875	102,315	0,058	0,050
-567,861	-200,000	0,011	0,057
-566,846	-192,163	0,077	0,001
-565,831	546,275	0,059	0,104
-564,817	-121,815	-0,102	-0,012
-563,802	18,035	-0,033	0,020
-562,788	206,166	0,023	-0,027
-561,773	-200,000	-0,018	0,113
-560,758	113,524	0,099	0,089
-559,744	-110,970	0,120	0,018
-558,729	-200,000	-0,009	0,052
-557,715	-200,000	0,008	0,062
-556,700	-24,261	-0,158	-0,069
-555,685	524,158	-0,019	0,034
-554,671	-200,000	-0,003	-0,093
-553,656	-156,354	0,108	-0,005
-552,642	-72,650	0,172	-0,046
-551,627	-200,000	-0,007	0,048
-550,612	-8,682	-0,136	-0,067
-549,598	800,000	0,013	0,038
-548,583	-200,000	0,049	-0,168
-547,569	800,000	-0,028	-0,063
-546,554	-11,065	0,126	0,061
-545,539	265,048	0,031	-0,040
-544,525	105,071	0,045	0,039
-543,510	0,981	0,082	-0,043
-542,496	299,972	-0,120	-0,163
-541,481	73,534	-0,059	-0,045
-540,466	-60,207	-0,096	0,030
-539,452	-200,000	0,029	-0,127
-538,437	-41,564	-0,084	-0,032
-537,423	-17,169	-0,036	0,017
-536,408	-93,817	0,061	0,012
-535,393	-81,990	-0,062	-0,015
-534,379	-200,000	0,010	-0,055
-533,364	21,651	0,058	-0,035
-532,350	44,770	0,151	0,102
-531,335	-104,915	-0,126	-0,021
-530,321	154,602	0,086	-0,087
-529,306	489,577	0,034	0,058
-528,291	-45,674	-0,092	0,033
-527,277	-124,710	0,044	-0,005
-526,262	-82,620	0,117	0,028
-525,248	118,996	-0,104	-0,095
-524,233	49,045	0,124	-0,086
-523,218	-12,336	0,042	0,020
-522,204	30,807	-0,070	0,044
-521,189	-117,830	-0,090	0,012
-520,175	277,620	-0,044	-0,058
-519,160	-129,155	-0,145	-0,015
-518,145	-63,424	-0,119	0,036
-517,131	34,628	0,040	-0,026
-516,116	800,000	-0,038	-0,083
-515,102	405,092	0,018	-0,028
-514,087	-157,847	-0,094	-0,004
-513,072	-27,987	-0,023	-0,010
-512,058	-93,735	0,012	-0,002
-511,043	555,516	-0,094	0,167
-510,029	32,031	-0,093	0,059
-509,014	800,000	-0,021	-0,060
-507,999	-67,132	-0,181	-0,052
-506,985	-200,000	-0,002	-0,044
-505,970	-88,515	-0,136	0,030
-504,956	106,949	0,106	0,093
-503,941	120,977	-0,030	-0,028
-502,926	447,534	0,082	0,134
-501,912	160,554	0,073	0,075
-500,897	-139,991	-0,074	0,006
-499,883	-23,791	0,113	-0,049
-498,868	-103,755	-0,105	0,018
-497,853	-31,120	-0,196	-0,081
-496,839	-15,085	-0,049	0,023
-495,824	-27,576	0,022	-0,009
-494,810	34,389	0,074	0,047
-493,795	-200,000	0,005	0,071
-492,781	-48,647	-0,145	-0,051
-491,766	-200,000	0,000	-0,056
-490,751	-200,000	-0,006	-0,103
-489,737	308,647	-0,025	-0,034
-488,722	-29,034	0,102	0,043
-487,708	104,653	-0,062	-0,053
-486,693	800,000	-0,040	-0,113
-485,678	761,605	0,058	-0,117
-484,664	-66,367	-0,059	0,017
-483,649	-200,000	0,003	-0,016
-482,635	-200,000	-0,006	-0,094
-481,620	-76,877	0,086	0,022
-480,605	147,524	-0,054	-0,054
-479,591	-66,937	-0,079	-0,023
-478,576	161,838	-0,066	-0,068
-477,562	78,557	-0,091	-0,071
-476,547	-200,000	-0,005	-0,023
-475,532	93,589	-0,042	0,035
-474,518	344,243	-0,039	-0,057
-473,503	42,725	-0,125	-0,083
-472,489	-194,044	-0,104	0,001
-471,474	800,000	-0,019	0,042
-470,459	800,000	-0,018	-0,044
-469,445	-41,238	-0,192	-0,072
-468,430	-156,699	-0,030	-0,001
-467,416	265,739	-0,046	0,059
-466,401	109,446	-0,068	0,059
-465,386	-200,000	0,017	0,114
-464,372	-44,316	-0,192	-0,070
-463,357	-200,000	0,011	-0,050
-462,343	-200,000	0,020	-0,116
-461,328	-200,000	0,000	-0,126
-460,313	10,239	0,105	-0,058
-459,299	85,578	-0,016	0,013
-458,284	118,564	0,044	0,039
-457,270	448,166	0,038	0,061
-456,255	124,537	-0,065	-0,060
-455,241	89,759	-0,023	0,019
-454,226	-78,827	0,143	-0,035
-453,211	554,416	-0,058	0,104
-452,197	-83,308	-0,037	0,009
-451,182	70,586	0,098	-0,074
-450,168	-97,473	-0,160	0,030
-449,153	533,086	0,023	-0,040
-448,138	-200,000	-0,008	-0,079
-447,124	337,885	0,069	0,098
-446,109	80,960	-0,103	0,081
-445,095	25,720	0,052	0,032
-444,080	623,394	0,038	0,070
-443,065	-14,692	0,120	0,056
-442,051	-7,504	-0,128	0,063
-441,036	11,504	-0,087	-0,048
-440,022	380,480	-0,097	-0,146
-439,007	-6,075	0,074	-0,037
-437,992	172,714	-0,035	0,037
-436,978	224,695	0,083	0,099
-435,963	62,871	0,017	-0,012
-434,949	238,222	0,076	-0,092
-433,934	123,920	0,035	-0,032
-432,919	-15,643	0,052	0,024
-431,905	-184,551	-0,040	-0,000
-430,890	-65,401	0,115	-0,034
-429,876	-158,879	0,036	0,001
-428,861	235,524	-0,053	0,064
-427,846	663,301	-0,015	0,029
-426,832	24,235	-0,121	-0,073
-425,817	-200,000	-0,006	-0,021
-424,803	187,908	0,156	-0,170
-423,788	-120,393	0,132	0,016
-422,773	79,072	0,142	0,111
-421,759	-25,178	-0,039	-0,017
-420,744	18,381	0,030	-0,017
-419,730	-200,000	0,015	-0,072
-418,715	627,190	-0,011	-0,020
-417,701	178,743	-0,053	-0,056
-416,686	800,000	0,037	0,086
-415,671	-200,000	0,054	0,175
-414,657	45,728	-0,066	-0,045
-413,642	-84,075	0,161	-0,037
-412,628	-27,047	-0,099	0,042
-411,613	-200,000	-0,002	-0,043
-410,598	201,099	0,061	-0,069
-409,584	-161,304	0,098	0,004
-408,569	-27,433	-0,113	0,048
-407,555	-63,357	-0,085	0,026
-406,540	800,000	-0,030	0,065
-405,525	800,000	-0,048	0,130
-404,511	800,000	-0,026	0,055
-403,496	800,000	0,021	0,051
-402,482	-200,000	-0,000	-0,002
-401,467	-200,000	-0,047	0,176
-400,452	-0,786	0,031	0,016
-399,438	800,000	0,037	-0,079
-398,423	-200,000	-0,042	0,180
-397,409	-94,375	0,114	-0,022
-396,394	-200,000	0,008	0,048
-395,379	-200,000	0,010	0,044
-394,365	156,850	-0,027	-0,027
-393,350	-107,029	0,136	0,022
-392,336	26,394	0,082	0,050
-391,321	-61,299	-0,078	-0,024
-390,306	-169,571	0,020	0,001
-389,292	83,125	0,048	-0,038
-388,277	-200,000	-0,029	-0,094
-387,263	-200,000	0,007	0,141
-386,248	-117,319	-0,120	-0,016
-385,233	-3,968	-0,094	0,047
-384,219	41,682	-0,055	0,036
-383,204	264,024	-0,049	-0,062
-382,190	-118,866	0,044	-0,006
-381,175	274,488	-0,026	0,034
-380,160	-133,340	0,051	0,005
-379,146	800,000	0,087	0,222
-378,131	-200,000	-0,001	0,030
-377,117	-188,630	-0,057	0,001
-376,102	-51,987	-0,105	0,036
-375,088	-200,000	0,002	-0,084
-374,073	27,463	-0,046	-0,028
-373,058	87,108	-0,055	-0,045
-372,044	100,292	-0,089	-0,075
-371,029	294,397	0,051	0,069
-370,015	578,399	0,065	0,117
-369,000	-200,000	0,018	-0,121
-367,985	140,211	-0,112	0,108
-366,971	195,019	0,087	-0,096
-365,956	69,039	-0,137	0,103
-364,942	-126,862	0,196	0,021
-363,927	645,516	-0,041	-0,076
-362,912	-30,947	0,067	-0,028
-361,898	-138,042	0,108	0,009
-360,883	-4,418	-0,077	-0,039
-359,869	167,906	-0,031	0,033
-358,854	123,103	-0,128	-0,117
-357,839	54,675	0,132	0,093
-356,825	84,106	0,132	0,105
-355,810	233,130	0,038	0,045
-354,796	67,038	0,067	0,050
-353,781	-152,449	-0,023	-0,001
-352,766	-111,867	0,017	-0,003
-351,752	-200,000	-0,001	0,157
-350,737	-179,840	0,214	-0,003
-349,723	-41,029	0,130	-0,049
-348,708	364,797	0,033	-0,049
-347,693	-200,000	-0,017	-0,154
-346,679	19,956	-0,101	-0,060
-345,664	-179,549	-0,083	0,001
-344,650	114,312	-0,069	0,061
-343,635	165,406	0,036	-0,037
-342,620	800,000	0,005	0,015
-341,606	-200,000	0,031	-0,149
-340,591	-200,000	-0,028	-0,090
-339,577	-7,158	-0,033	-0,017
-338,562	-200,000	0,004	0,055
-337,548	-0,075	0,038	0,020
-336,533	115,678	0,109	0,097
-335,518	517,731	0,034	-0,059
-334,504	-200,000	0,024	0,077
-333,489	-79,150	-0,065	-0,016
-332,475	-37,057	-0,060	-0,023
-331,460	-24,249	0,055	-0,024
-330,445	-121,296	-0,109	-0,013
-329,431	800,000	-0,036	-0,076
-328,416	96,855	0,057	0,048
-327,402	-140,905	-0,159	-0,012
-326,387	64,135	-0,060	-0,044
-325,372	741,935	0,011	0,022
-324,358	104,080	0,087	0,074
-323,343	-200,000	-0,015	0,058
-322,329	10,621	-0,036	0,020
-321,314	-200,000	0,003	0,061
-320,299	191,601	0,023	0,025
-319,285	6,704	-0,023	0,013
-318,270	800,000	0,018	-0,046
-317,256	787,869	-0,056	0,113
-316,241	800,000	0,031	0,074
-315,226	-21,744	0,109	0,048
-314,212	-200,000	-0,010	0,229
-313,197	-121,955	0,099	0,012
-312,183	-200,000	-0,006	0,062
-311,168	15,043	-0,051	0,029
-310,153	-130,124	0,103	0,010
-309,139	-200,000	0,005	0,056
-308,124	-200,000	-0,027	0,090
-307,110	800,000	0,043	0,131
-306,095	800,000	0,034	-0,078
-305,080	-116,269	-0,092	0,012
-304,066	54,676	-0,075	0,052
-303,051	-63,392	0,091	-0,027
-302,037	-42,209	0,117	-0,044
-301,022	-20,161	0,045	-0,020
-300,008	-200,000	0,028	-0,124
-298,993	44,345	0,092	-0,062
-297,978	-56,315	0,073	-0,023
-296,964	-200,000	-0,002	-0,036
-295,949	-200,000	-0,051	-0,183
-294,935	-200,000	-0,033	-0,116
-293,920	-70,901	0,076	0,021
-292,905	161,107	0,071	0,072
-291,891	-200,000	-0,018	0,058
-290,876	-175,679	-0,016	0,000
-289,862	-200,000	-0,009	-0,134
-288,847	10,738	0,021	0,011
-287,832	-200,000	-0,004	0,142
-286,818	35,527	0,114	-0,073
-285,803	458,334	0,021	-0,034
-284,789	-200,000	0,002	-0,057
-283,774	156,653	0,045	0,045
-282,759	-94,309	-0,055	0,011
-281,745	800,000	0,032	0,071
-280,730	408,318	0,047	-0,072
-279,716	72,436	-0,103	-0,078
-278,701	248,025	-0,031	0,039
-277,686	162,230	0,058	0,060
-276,672	653,492	0,064	-0,120
-275,657	-200,000	-0,015	-0,131
-274,643	-200,000	-0,039	-0,149
-273,628	-138,223	0,081	-0,006
-272,613	-200,000	-0,019	-0,090
-271,599	41,863	0,091	-0,060
-270,584	-119,520	-0,059	0,007
-269,570	-200,000	0,034	0,119
-268,555	42,945	-0,111	0,074
-267,540	207,038	0,030	-0,034
-266,526	361,187	0,035	-0,052
-265,511	-183,751	-0,078	0,001
-264,497	360,130	-0,026	0,038
-263,482	467,435	0,057	0,093
-262,467	-76,384	0,208	0,053
-261,453	13,331	-0,023	0,013
-260,438	394,032	0,006	-0,009
-259,424	800,000	-0,016	-0,049
-258,409	182,520	-0,016	-0,017
-257,395	291,760	0,026	0,035
-256,380	131,537	0,119	0,111
-255,365	-131,464	-0,110	0,010
-254,351	800,000	0,032	-0,088
-253,336	-42,140	-0,110	0,041
-252,322	10,000	0,084	0,046
-251,307	-200,000	-0,008	-0,027
-250,292	222,886	0,051	-0,060
-249,278	97,704	0,039	-0,033
-248,263	-13,708	0,163	0,077
-247,249	193,261	-0,053	0,059
-246,234	-200,000	-0,002	-0,083
-245,219	-200,000	-0,035	-0,118
-244,205	-81,493	0,073	-0,017
-243,190	-200,000	0,023	0,100
-242,176	-200,000	0,030	0,131
-241,161	19,199	0,081	0,047
-240,146	336,513	0,145	0,206
-239,132	169,575	-0,045	-0,047
-238,117	-200,000	-0,257	0,001
-237,103	800,000	-0,052	-0,117
-236,088	138,952	0,057	-0,054
-235,073	-156,482	0,161	-0,007
-234,059	17,216	0,151	-0,087
-233,044	-200,000	0,022	-0,079
-232,030	171,956	-0,081	0,085
-231,015	288,122	0,057	-0,075
-230,000	50,573	-0,036	0,025
-228,986	472,833	0,018	0,030
-227,971	-57,654	0,042	0,013
-226,957	2,532	-0,130	-0,068
-225,942	612,295	-0,051	0,093
-224,927	-68,818	-0,159	0,044
-223,913	800,000	0,050	0,113
-222,898	800,000	-0,029	0,080
-221,884	438,194	-0,023	0,036
-220,869	-121,766	0,129	0,015
-219,855	-200,000	-0,003	-0,056
-218,840	92,432	0,080	-0,066
-217,825	48,010	0,107	0,073
-216,811	37,007	-0,065	-0,042
-215,796	-142,602	-0,026	0,002
-214,782	-5,822	-0,117	-0,058
-213,767	-115,892	-0,165	-0,022
-212,752	-200,000	-0,001	-0,053
-211,738	21,134	-0,054	0,032
-210,723	119,393	-0,114	0,102
-209,709	-200,000	-0,010	-0,057
-208,694	247,323	0,061	-0,075
-207,679	128,117	0,076	0,070
-206,665	-120,552	-0,125	-0,015
-205,650	25,589	0,127	-0,076
-204,636	-1,029	0,144	-0,074
-203,621	13,329	-0,058	-0,033
-202,606	293,588	-0,080	0,106
-201,592	377,581	-0,047	-0,069
-200,577	-119,090	0,111	-0,014
-199,563	-62,640	0,093	0,028
-198,548	407,370	0,072	0,111
-197,533	-17,865	-0,076	0,035
-196,519	210,926	-0,038	0,043
-195,504	-103,323	0,185	-0,031
-194,490	-130,819	-0,072	0,007
-193,475	274,336	-0,133	-0,171
-192,460	-200,000	-0,000	-0,113
-191,446	0,223	0,062	0,032
-190,431	800,000	0,067	0,195
-189,417	-53,639	0,076	0,025
-188,402	505,825	-0,043	0,073
-187,387	-47,909	-0,150	-0,052
-186,373	-200,000	-0,002	0,011
-185,358	91,733	0,036	-0,029
-184,344	-200,000	0,046	0,186
-183,329	800,000	0,045	0,100
-182,315	-151,559	-0,076	-0,004
-181,300	44,314	0,104	0,069
-180,285	-107,144	0,063	-0,010
-179,271	-44,987	-0,073	-0,026
-178,256	-200,000	0,012	-0,054
-177,242	94,873	-0,096	-0,079
-176,227	-131,808	-0,132	0,012
-175,212	256,345	0,052	-0,065
-174,198	800,000	0,065	0,161
-173,183	-115,782	0,064	0,009
-172,169	-200,000	0,004	-0,036
-171,154	-130,668	-0,069	0,007
-170,139	357,368	0,038	-0,055
-169,125	800,000	0,048	0,135
-168,110	270,483	0,037	-0,048
-167,096	85,642	0,043	-0,034
-166,081	63,101	-0,088	0,064
-165,066	-200,000	0,027	-0,190
-164,052	-132,725	-0,137	-0,013
-163,037	-38,555	-0,025	0,010
-162,023	-200,000	0,038	0,163
-161,008	800,000	-0,015	-0,047
-159,993	11,091	-0,052	0,029
-158,979	-40,270	0,163	0,061
-157,964	-31,349	0,124	-0,050
-156,950	-22,110	-0,038	-0,017
-155,935	436,307	0,063	0,100
-154,920	2,416	0,019	-0,010
-153,906	320,148	0,057	-0,079
-152,891	-135,430	-0,117	-0,010
-151,877	-200,000	-0,036	0,137
-150,862	-200,000	-0,017	0,068
-149,847	-200,000	-0,017	-0,065
-148,833	800,000	-0,041	-0,110
-147,818	388,479	0,008	-0,011
-146,804	-37,690	-0,169	0,065
-145,789	-4,091	0,175	-0,088
-144,775	462,604	0,045	-0,073
-143,760	-170,417	0,093	-0,002
-142,745	-31,250	0,093	-0,038
-141,731	-200,000	0,043	-0,216
-140,716	259,106	0,047	-0,058
-139,702	-64,928	0,058	-0,017
-138,687	-156,273	-0,053	0,002
-137,672	-107,545	-0,087	-0,014
-136,658	199,345	0,087	-0,096
-135,643	800,000	-0,022	-0,055
-134,629	-200,000	-0,023	-0,089
-133,614	800,000	0,037	0,077
-132,599	577,308	-0,057	-0,102
-131,585	15,799	0,033	-0,019
-130,570	476,133	-0,032	0,052
-129,556	206,341	-0,093	-0,105
-128,541	9,862	-0,095	-0,052
-127,526	800,000	0,023	0,059
-126,512	800,000	-0,060	0,140
-125,497	31,035	0,151	0,093
-124,483	113,571	-0,118	-0,103
-123,468	-105,130	-0,165	0,027
-122,453	639,317	0,081	-0,151
-121,439	221,233	-0,084	-0,098
-120,424	57,982	0,051	0,036
-119,410	278,257	0,016	-0,020
