DTS Sentinel unit serial number:	SN410029Multiplexer serial number:	ORYXHardware model number:	OX2-SRSoftware version number:	ORYX F/W v4,00 Oryx Data Collector v3.7.2.0data status	okinstallation	B6 Nyhavnadifferential loss correction	single-endedforward channel	channel 2reverse channel	N/Adate	2023/12/07time	15:05:08forward acquisition time	300,00reverse acquisition time	0,00gamma	499,1914k internal	0,3144k external	0,3144temperature offset calibration	1,0000default loss term (dB/km)	0,3820temperature slope calibration	1,0000multiplexer offset coefficient	1,0000multiplexer slope coefficient	1,0000fibre end	0,00T internal ref (°C)	14,20T ext. ref 1 (°C)	-1,85T ext. ref 2 (°C)	-1,84length (m)	temperature (°C)	Stokes	anti-Stokes-744,400	76,742	0,104	0,082
-743,385	-125,773	-0,222	-0,025
-742,371	-200,000	0,035	0,135
-741,356	-162,677	-0,344	-0,012
-740,342	54,307	0,188	0,134
-739,327	-145,786	-0,234	-0,015
-738,312	585,455	0,050	0,091
-737,298	-146,990	-0,331	0,021
-736,283	-130,322	-0,016	-0,002
-735,269	-16,249	-0,248	-0,116
-734,254	173,437	0,132	0,141
-733,239	-32,265	-0,508	-0,209
-732,225	-99,022	0,205	0,038
-731,210	-200,000	-0,007	0,240
-730,196	-104,982	-0,133	0,022
-729,181	534,730	0,078	-0,138
-728,167	-150,256	-0,124	-0,007
-727,152	151,156	-0,043	-0,043
-726,137	-53,109	-0,135	-0,046
-725,123	14,323	-0,134	0,077
-724,108	800,000	-0,023	-0,074
-723,094	-110,276	-0,191	0,029
-722,079	-145,047	-0,095	-0,006
-721,064	391,922	-0,078	0,120
-720,050	-161,985	0,111	-0,004
-719,035	-200,000	0,034	-0,120
-718,021	158,458	-0,068	0,070
-717,006	-200,000	-0,008	0,030
-715,991	-200,000	-0,005	0,086
-714,977	289,243	-0,094	0,127
-713,962	-44,017	0,085	-0,031
-712,948	800,000	0,017	-0,053
-711,933	800,000	-0,059	-0,127
-710,918	800,000	0,013	0,035
-709,904	206,857	-0,049	0,057
-708,889	334,614	-0,075	-0,107
-707,875	34,318	-0,064	-0,041
-706,860	-36,449	0,171	0,068
-705,845	800,000	-0,071	-0,192
-704,831	800,000	-0,010	0,030
-703,816	-197,976	-0,141	-0,001
-702,802	104,653	-0,084	0,073
-701,787	-200,000	-0,015	-0,050
-700,772	576,311	0,060	-0,108
-699,758	-49,891	-0,216	-0,075
-698,743	-200,000	0,002	0,013
-697,729	434,009	0,094	0,152
-696,714	146,854	-0,095	-0,095
-695,699	98,942	0,070	-0,060
-694,685	-200,000	-0,033	0,000
-693,670	-43,573	-0,028	-0,011
-692,656	-71,743	-0,034	0,009
-691,641	-200,000	0,027	0,131
-690,627	-178,388	0,144	-0,002
-689,612	-98,737	-0,064	-0,012
-688,597	800,000	0,028	-0,065
-687,583	764,104	-0,023	-0,046
-686,568	447,385	0,106	-0,172
-685,554	310,616	-0,048	-0,067
-684,539	41,760	-0,070	-0,047
-683,524	260,555	-0,056	0,071
-682,510	-175,366	0,107	0,002
-681,495	224,671	-0,101	-0,121
-680,481	-200,000	0,008	0,064
-679,466	-200,000	-0,009	-0,066
-678,451	800,000	-0,049	-0,160
-677,437	304,599	-0,073	0,101
-676,422	-14,883	0,016	0,008
-675,408	22,670	-0,038	-0,023
-674,393	33,402	-0,156	-0,100
-673,378	396,467	-0,040	-0,062
-672,364	-200,000	-0,002	0,048
-671,349	800,000	0,044	-0,129
-670,335	-80,568	-0,087	0,021
-669,320	800,000	-0,042	-0,089
-668,305	-47,625	-0,064	-0,023
-667,291	306,052	0,041	-0,057
-666,276	434,087	-0,051	-0,082
-665,262	-200,000	0,014	-0,064
-664,247	167,663	0,042	-0,044
-663,232	111,989	0,101	-0,090
-662,218	4,816	0,116	-0,063
-661,203	1,404	0,029	0,016
-660,189	-200,000	0,005	-0,118
-659,174	-43,264	-0,039	0,014
-658,159	197,788	-0,031	0,035
-657,145	-200,000	0,000	0,044
-656,130	150,737	0,110	-0,110
-655,116	-200,000	-0,005	-0,017
-654,101	14,948	0,031	-0,018
-653,086	-98,234	-0,067	0,013
-652,072	-22,245	0,102	0,045
-651,057	-72,293	-0,190	0,052
-650,043	296,052	-0,067	-0,090
-649,028	-7,148	0,035	-0,017
-648,014	-76,202	-0,188	0,049
-646,999	-200,000	-0,029	0,104
-645,984	236,706	0,038	-0,046
-644,970	45,855	-0,153	-0,104
-643,955	-29,906	-0,200	-0,084
-642,941	280,924	0,035	-0,046
-641,926	-19,583	0,007	0,003
-640,911	-120,384	-0,092	-0,011
-639,897	-200,000	-0,002	-0,053
-638,882	-200,000	0,013	-0,054
-637,868	-111,205	-0,179	0,027
-636,853	494,186	-0,029	0,049
-635,838	-144,601	-0,099	-0,007
-634,824	336,755	0,063	-0,091
-633,809	478,205	0,051	0,086
-632,795	-29,348	0,042	-0,018
-631,780	-37,056	-0,023	-0,009
-630,765	68,824	0,038	0,029
-629,751	800,000	-0,025	0,058
-628,736	800,000	0,022	0,065
-627,722	-42,631	-0,095	-0,036
-626,707	-27,983	-0,105	-0,045
-625,692	-59,576	0,043	0,014
-624,678	800,000	-0,023	0,059
-623,663	-62,382	0,162	0,049
-622,649	138,989	-0,075	-0,073
-621,634	-50,456	-0,116	0,040
-620,619	-96,204	-0,156	-0,030
-619,605	327,869	0,091	-0,129
-618,590	-2,707	0,060	-0,031
-617,576	-46,206	0,120	0,043
-616,561	-200,000	-0,048	-0,177
-615,546	-200,000	-0,004	-0,038
-614,532	364,990	-0,056	0,083
-613,517	396,767	0,028	-0,043
-612,503	800,000	0,020	0,053
-611,488	-67,028	0,019	0,006
-610,474	-39,564	-0,050	-0,019
-609,459	721,966	0,020	0,040
-608,444	64,414	0,067	-0,050
-607,430	48,712	-0,091	-0,063
-606,415	-67,402	0,099	0,029
-605,401	290,748	-0,070	-0,095
-604,386	1,744	-0,047	-0,025
-603,371	-102,463	0,054	0,009
-602,357	-107,074	-0,065	-0,010
-601,342	518,654	-0,074	-0,128
-600,328	3,729	0,145	-0,077
-599,313	40,101	0,052	0,034
-598,298	-200,000	0,002	0,030
-597,284	5,470	-0,041	-0,022
-596,269	-200,000	0,024	0,140
-595,255	-70,751	0,230	0,064
-594,240	494,877	-0,045	-0,077
-593,225	-200,000	-0,034	0,137
-592,211	86,360	-0,127	-0,103
-591,196	800,000	-0,030	0,096
-590,182	134,412	-0,109	-0,104
-589,167	522,310	-0,042	0,074
-588,152	-200,000	0,047	0,170
-587,138	-200,000	-0,039	0,155
-586,123	241,719	0,096	-0,119
-585,109	3,528	-0,080	-0,043
-584,094	39,133	0,049	-0,032
-583,079	458,037	-0,078	0,128
-582,065	703,546	0,026	-0,051
-581,050	270,811	0,038	0,050
-580,036	800,000	-0,069	0,173
-579,021	379,632	-0,005	0,007
-578,006	-200,000	-0,005	0,023
-576,992	281,485	-0,043	-0,057
-575,977	800,000	0,017	0,053
-574,963	243,011	0,014	0,018
-573,948	793,075	-0,023	0,047
-572,934	-56,113	0,074	0,024
-571,919	-30,093	-0,099	0,041
-570,904	-200,000	-0,018	-0,067
-569,890	-200,000	-0,023	-0,099
-568,875	-200,000	-0,006	0,092
-567,861	28,829	0,061	0,038
-566,846	-200,000	0,013	0,200
-565,831	-120,689	0,101	0,012
-564,817	273,574	-0,058	-0,076
-563,802	116,408	-0,061	-0,055
-562,788	800,000	-0,020	0,042
-561,773	96,260	0,046	0,039
-560,758	-112,110	-0,052	-0,008
-559,744	800,000	-0,010	0,032
-558,729	29,464	-0,026	-0,016
-557,715	-200,000	-0,007	0,057
-556,700	529,900	0,045	-0,078
-555,685	-45,840	-0,237	-0,086
-554,671	798,391	-0,038	0,076
-553,656	118,100	0,054	0,049
-552,642	130,625	0,036	-0,034
-551,627	800,000	-0,011	0,023
-550,612	800,000	-0,058	0,168
-549,598	365,655	-0,038	0,057
-548,583	-190,478	-0,092	0,001
-547,569	-200,000	-0,020	0,131
-546,554	650,652	0,073	0,139
-545,539	-77,026	0,135	0,034
-544,525	-200,000	0,016	-0,069
-543,510	800,000	0,031	0,072
-542,496	-200,000	-0,024	-0,080
-541,481	-85,425	-0,103	-0,023
-540,466	59,410	-0,083	0,060
-539,452	800,000	-0,039	0,088
-538,437	-32,575	0,029	-0,012
-537,423	-200,000	-0,005	0,044
-536,408	99,907	0,114	-0,097
-535,393	-200,000	0,002	-0,035
-534,379	129,569	-0,111	-0,105
-533,364	-200,000	-0,035	-0,113
-532,350	-200,000	0,033	-0,140
-531,335	800,000	-0,014	-0,043
-530,321	24,990	0,055	0,034
-529,306	136,307	-0,094	0,091
-528,291	-60,971	0,140	0,043
-527,277	210,752	0,045	0,052
-526,262	183,060	-0,059	-0,065
-525,248	-200,000	0,021	0,119
-524,233	-200,000	-0,021	0,095
-523,218	24,627	-0,108	0,065
-522,204	81,340	0,080	-0,064
-521,189	631,527	-0,077	-0,143
-520,175	62,511	0,028	-0,021
-519,160	-200,000	-0,003	0,115
-518,145	-200,000	-0,010	-0,119
-517,131	-200,000	-0,005	-0,020
-516,116	178,787	0,079	0,085
-515,102	213,480	0,027	0,031
-514,087	-200,000	-0,011	-0,151
-513,072	19,771	0,091	-0,053
-512,058	-200,000	-0,014	-0,093
-511,043	-200,000	-0,017	0,061
-510,029	104,409	0,104	0,090
-509,014	-46,097	0,108	-0,039
-507,999	68,113	-0,048	-0,036
-506,985	-86,970	0,053	-0,012
-505,970	326,995	-0,150	-0,212
-504,956	-66,383	0,089	-0,026
-503,941	800,000	-0,047	-0,096
-502,926	-161,965	-0,123	0,004
-501,912	-200,000	-0,000	-0,003
-500,897	-89,408	-0,078	0,017
-499,883	-105,457	-0,186	0,031
-498,868	91,751	-0,123	-0,102
-497,853	-200,000	-0,020	-0,143
-496,839	-101,060	0,168	-0,030
-495,824	-187,056	0,049	-0,000
-494,810	-86,214	0,189	0,042
-493,795	212,059	-0,056	-0,065
-492,781	107,730	-0,080	0,070
-491,766	22,756	0,054	-0,032
-490,751	-73,009	-0,096	-0,026
-489,737	172,276	0,097	0,102
-488,722	217,877	0,091	0,107
-487,708	792,718	-0,064	0,130
-486,693	322,333	-0,083	0,117
-485,678	16,717	-0,021	-0,012
-484,664	800,000	-0,063	-0,199
-483,649	-57,492	-0,199	-0,064
-482,635	-160,937	-0,118	0,004
-481,620	668,174	0,071	0,135
-480,605	-189,408	-0,059	-0,000
-479,591	-43,452	0,134	0,049
-478,576	-123,904	-0,159	-0,018
-477,562	-78,731	-0,151	-0,038
-476,547	-200,000	0,025	-0,083
-475,532	661,287	0,014	0,027
-474,518	-26,417	0,103	-0,044
-473,503	51,344	-0,011	-0,008
-472,489	66,272	-0,084	0,062
-471,474	79,341	0,092	-0,072
-470,459	418,102	0,071	-0,112
-469,445	-88,720	-0,225	0,049
-468,430	31,019	0,090	-0,057
-467,416	-200,000	-0,013	-0,196
-466,401	12,123	0,066	-0,037
-465,386	-200,000	0,018	0,125
-464,372	800,000	0,046	0,097
-463,357	800,000	-0,047	0,136
-462,343	255,987	0,032	-0,040
-461,328	-46,228	0,028	-0,010
-460,313	-57,641	0,052	0,017
-459,299	-23,418	-0,129	0,057
-458,284	144,458	0,093	0,091
-457,270	-33,953	-0,022	0,009
-456,255	800,000	-0,042	0,123
-455,241	186,658	-0,080	-0,087
-454,226	800,000	0,043	0,110
-453,211	-200,000	-0,017	-0,082
-452,197	58,015	0,088	0,063
-451,182	800,000	-0,023	0,059
-450,168	-200,000	-0,009	-0,080
-449,153	-20,841	0,119	-0,053
-448,138	-97,184	-0,039	-0,007
-447,124	-31,729	-0,082	-0,034
-446,109	209,204	0,070	0,080
-445,095	800,000	0,005	0,011
-444,080	-200,000	-0,023	0,124
-443,065	733,171	0,012	0,025
-442,051	79,883	0,096	0,075
-441,036	-180,461	-0,047	-0,001
-440,022	-200,000	-0,001	-0,028
-439,007	800,000	-0,014	-0,046
-437,992	488,174	-0,002	-0,003
-436,978	172,446	0,166	0,175
-435,963	-88,947	-0,069	-0,015
-434,949	-163,327	-0,165	-0,006
-433,934	73,307	-0,161	-0,123
-432,919	-200,000	-0,005	-0,058
-431,905	702,409	0,074	0,143
-430,890	800,000	0,029	0,062
-429,876	-80,719	0,044	0,011
-428,861	-67,389	0,088	-0,025
-427,846	-200,000	-0,011	0,152
-426,832	67,084	0,022	-0,016
-425,817	-200,000	-0,029	-0,131
-424,803	354,562	0,009	0,013
-423,788	-164,700	0,125	0,004
-422,773	179,970	0,021	0,022
-421,759	-5,466	0,050	-0,025
-420,744	48,754	-0,078	-0,054
-419,730	48,303	0,022	0,015
-418,715	689,015	0,035	0,068
-417,701	-103,162	-0,120	-0,020
-416,686	-154,529	0,073	0,004
-415,671	800,000	0,049	-0,139
-414,657	-91,737	0,037	-0,008
-413,642	684,503	0,042	-0,080
-412,628	800,000	0,036	0,093
-411,613	-102,126	-0,067	-0,012
-410,598	349,655	-0,082	0,119
-409,584	8,420	0,032	-0,017
-408,569	181,390	-0,040	-0,043
-407,555	17,816	0,098	0,057
-406,540	-104,213	0,036	0,006
-405,525	-118,388	-0,148	0,019
-404,511	278,486	-0,111	-0,145
-403,496	95,897	-0,101	-0,084
-402,482	59,239	-0,040	0,029
-401,467	-31,544	0,124	-0,051
-400,452	-42,061	0,111	-0,041
-399,438	-118,180	0,160	0,021
-398,423	800,000	-0,033	-0,095
-397,409	-26,554	-0,039	0,017
-396,394	-5,814	0,128	0,064
-395,379	-200,000	0,031	0,118
-394,365	-129,896	0,196	0,019
-393,350	364,670	0,044	-0,065
-392,336	-200,000	-0,006	0,199
-391,321	-37,430	-0,074	0,029
-390,306	-8,891	0,024	0,012
-389,292	800,000	-0,022	-0,054
-388,277	223,691	0,082	0,097
-387,263	401,021	0,006	-0,009
-386,248	-101,508	-0,051	0,009
-385,233	-82,494	-0,052	0,012
-384,219	-200,000	0,008	0,032
-383,204	-200,000	0,000	0,044
-382,190	800,000	-0,035	-0,095
-381,175	800,000	-0,018	-0,047
-380,160	100,774	0,073	0,062
-379,146	283,848	-0,060	-0,079
-378,131	800,000	0,065	0,167
-377,117	-11,894	-0,127	0,061
-376,102	193,879	0,047	-0,052
-375,088	800,000	0,030	-0,084
-374,073	70,491	-0,056	0,042
-373,058	-200,000	0,021	0,118
-372,044	800,000	0,068	0,160
-371,029	105,598	-0,099	-0,085
-370,015	49,043	0,104	0,071
-369,000	-120,888	0,071	0,009
-367,985	800,000	-0,014	-0,042
-366,971	403,142	-0,036	0,055
-365,956	-150,076	0,071	0,004
-364,942	-200,000	-0,004	0,133
-363,927	119,895	0,101	0,091
-362,912	-200,000	-0,022	0,192
-361,898	206,296	-0,074	0,084
-360,883	117,671	0,173	-0,155
-359,869	-81,937	0,104	0,025
-358,854	125,727	-0,074	0,068
-357,839	-28,477	0,096	-0,040
-356,825	-200,000	0,002	0,109
-355,810	-200,000	0,012	-0,052
-354,796	307,850	0,039	-0,053
-353,781	-200,000	0,003	-0,077
-352,766	-6,320	0,028	0,014
-351,752	-200,000	-0,007	-0,109
-350,737	800,000	0,025	0,075
-349,723	429,452	-0,040	0,063
-348,708	-105,059	0,031	0,005
-347,693	-200,000	0,019	-0,068
-346,679	-105,483	0,056	-0,009
-345,664	128,109	-0,085	-0,079
-344,650	800,000	-0,014	0,042
-343,635	288,009	0,039	0,052
-342,620	190,753	0,096	0,105
-341,606	-170,986	-0,100	-0,002
-340,591	64,581	0,057	-0,042
-339,577	55,229	-0,134	-0,094
-338,562	-12,954	-0,063	0,030
-337,548	-184,510	0,088	-0,001
-336,533	171,779	0,071	-0,075
-335,518	-200,000	-0,030	0,123
-334,504	29,456	-0,027	-0,017
-333,489	800,000	0,078	-0,184
-332,475	-200,000	-0,021	-0,084
-331,460	191,207	-0,197	-0,216
-330,445	800,000	-0,061	-0,169
-329,431	2,771	-0,047	-0,025
-328,416	443,045	-0,015	0,024
-327,402	782,144	0,030	0,060
-326,387	-37,631	-0,093	0,036
-325,372	-200,000	0,028	-0,152
-324,358	-200,000	0,049	0,162
-323,343	14,441	0,040	-0,023
-322,329	303,857	0,038	-0,051
-321,314	800,000	0,079	0,166
-320,299	-200,000	0,027	0,169
-319,285	-118,148	0,118	0,015
-318,270	-200,000	-0,015	-0,096
-317,256	32,010	0,087	-0,054
-316,241	-14,610	-0,053	0,025
-315,226	182,058	0,055	0,059
-314,212	242,200	0,042	0,052
-313,197	-200,000	0,012	0,115
-312,183	56,357	0,055	0,039
-311,168	-200,000	0,025	0,126
-310,153	14,502	0,087	-0,050
-309,139	-153,215	-0,163	-0,008
-308,124	-194,433	0,141	0,001
-307,110	-128,950	0,057	-0,006
-306,095	39,776	-0,061	0,040
-305,080	-72,264	0,202	0,054
-304,066	800,000	-0,056	-0,121
-303,051	251,465	-0,034	-0,042
-302,037	-200,000	-0,022	-0,080
-301,022	800,000	0,036	-0,079
-300,008	-1,979	-0,136	-0,070
-298,993	800,000	-0,029	0,063
-297,978	91,670	-0,108	0,089
-296,964	-163,244	-0,121	-0,004
-295,949	-200,000	-0,014	0,065
-294,935	800,000	-0,007	0,021
-293,920	-160,465	-0,100	0,004
-292,905	-21,097	-0,041	-0,018
-291,891	-151,983	-0,094	0,005
-290,876	-2,253	0,044	-0,022
-289,862	-128,352	-0,154	-0,016
-288,847	-132,993	0,093	0,008
-287,832	98,617	-0,057	-0,048
-286,818	-200,000	-0,008	0,124
-285,803	800,000	0,058	0,159
-284,789	-200,000	-0,012	0,117
-283,774	-37,063	-0,187	-0,073
-282,759	-80,247	0,070	-0,017
-281,745	-200,000	-0,005	-0,069
-280,730	-200,000	0,036	-0,121
-279,716	71,587	0,060	-0,045
-278,701	93,339	0,034	-0,028
-277,686	334,872	-0,039	0,054
-276,672	32,736	0,064	0,040
-275,657	-200,000	-0,017	0,139
-274,643	399,080	-0,079	-0,121
-273,628	800,000	0,019	0,039
-272,613	-200,000	0,014	0,048
-271,599	-80,367	0,043	0,010
-270,584	-200,000	-0,006	0,152
-269,570	-200,000	0,024	0,081
-268,555	675,284	-0,025	0,048
-267,540	-130,018	-0,209	-0,020
-266,526	-200,000	0,010	-0,046
-265,511	-137,576	-0,067	0,005
-264,497	216,424	0,048	0,055
-263,482	136,742	0,014	-0,013
-262,467	-137,014	-0,077	0,006
-261,453	356,368	-0,039	-0,057
-260,438	41,384	-0,078	-0,051
-259,424	800,000	-0,024	-0,052
-258,409	270,292	0,046	0,059
-257,395	-30,265	0,054	-0,022
-256,380	800,000	-0,028	-0,089
-255,365	641,820	0,029	-0,055
-254,351	800,000	-0,056	-0,172
-253,336	800,000	0,072	-0,154
-252,322	134,477	0,055	0,052
-251,307	681,960	0,061	-0,116
-250,292	-151,128	0,082	0,004
-249,278	-99,766	0,051	-0,009
-248,263	-9,494	0,135	-0,065
-247,249	-200,000	-0,004	-0,013
-246,234	306,329	-0,074	-0,101
-245,219	184,443	-0,052	0,056
-244,205	-107,803	-0,118	-0,019
-243,190	-144,730	0,014	0,001
-242,176	800,000	0,027	-0,066
-241,161	-23,674	-0,022	-0,009
-240,146	-1,125	-0,044	-0,022
-239,132	413,072	-0,053	0,081
-238,117	267,780	-0,067	-0,086
-237,103	95,802	-0,146	-0,121
-236,088	736,533	0,021	0,041
-235,073	0,533	0,134	0,069
-234,059	800,000	0,024	-0,054
-233,044	-200,000	-0,010	0,059
-232,030	800,000	0,005	-0,012
-231,015	270,428	0,047	-0,061
-230,000	800,000	-0,016	-0,042
-228,986	-200,000	-0,022	-0,079
-227,971	95,788	0,049	-0,040
-226,957	74,169	0,152	0,116
-225,942	-200,000	0,016	0,171
-224,927	-200,000	-0,017	-0,111
-223,913	202,206	-0,043	0,048
-222,898	-134,657	0,061	-0,005
-221,884	599,416	-0,069	-0,125
-220,869	703,869	0,066	-0,126
-219,855	-170,460	-0,177	0,004
-218,840	-139,202	-0,071	-0,005
-217,825	-200,000	-0,001	0,111
-216,811	800,000	-0,036	0,078
-215,796	389,865	-0,105	-0,158
-214,782	-128,432	-0,098	-0,010
-213,767	201,566	-0,010	0,011
-212,752	136,529	0,098	-0,093
-211,738	800,000	0,027	-0,070
-210,723	59,038	0,043	-0,031
-209,709	119,908	-0,051	0,046
-208,694	615,057	-0,039	-0,071
-207,679	-168,256	0,034	0,001
-206,665	24,372	0,044	-0,026
-205,650	800,000	-0,027	0,064
-204,636	-88,740	-0,043	0,009
-203,621	23,725	-0,067	-0,040
-202,606	272,110	0,062	0,080
-201,592	48,659	0,015	-0,010
-200,577	518,426	-0,048	-0,082
-199,563	379,946	0,086	-0,129
-198,548	76,430	0,146	0,112
-197,533	-200,000	0,012	0,156
-196,519	800,000	0,023	0,072
-195,504	800,000	0,012	-0,025
-194,490	322,770	0,115	-0,160
-193,475	-50,303	0,111	-0,038
-192,460	-142,151	0,100	-0,007
-191,446	-13,135	0,043	0,020
-190,431	2,644	0,156	-0,081
-189,417	-139,707	-0,042	-0,003
-188,402	-200,000	0,106	0,000
-187,387	-139,673	-0,063	-0,005
-186,373	322,999	0,038	0,053
-185,358	800,000	0,049	-0,125
-184,344	-32,666	0,159	-0,064
-183,329	50,517	0,102	-0,070
-182,315	131,884	0,029	-0,027
-181,300	800,000	0,054	-0,110
-180,285	-200,000	-0,031	-0,126
-179,271	-200,000	0,023	-0,099
-178,256	212,453	0,039	0,044
-177,242	-12,888	-0,096	-0,045
-176,227	-114,054	0,161	-0,022
-175,212	-200,000	0,052	0,197
-174,198	-148,614	-0,103	0,006
-173,183	-200,000	-0,017	0,088
-172,169	-86,627	-0,046	0,010
-171,154	-200,000	0,041	-0,143
-170,139	680,408	0,038	-0,072
-169,125	381,776	0,054	-0,081
-168,110	537,928	0,033	0,057
-167,096	-200,000	-0,014	-0,081
-166,081	-200,000	0,027	-0,110
-165,066	800,000	-0,029	0,061
-164,052	-44,812	-0,104	0,037
-163,037	89,990	0,080	-0,065
-162,023	-46,079	0,093	0,033
-161,008	127,675	0,112	0,103
-159,993	-4,658	0,072	-0,036
-158,979	31,625	-0,141	0,088
-157,964	-5,548	-0,040	-0,020
-156,950	-69,516	0,087	0,024
-155,935	47,953	-0,183	0,124
-154,920	-200,000	0,014	0,171
-153,906	-68,079	0,074	-0,021
-152,891	-161,934	0,074	0,003
-151,877	19,427	-0,073	-0,042
-150,862	-200,000	-0,010	-0,181
-149,847	-200,000	0,028	-0,219
-148,833	-200,000	0,020	0,097
-147,818	-65,499	-0,041	0,012
-146,804	70,359	-0,006	0,005
-145,789	-33,012	0,091	0,036
-144,775	-0,528	-0,063	0,032
-143,760	-200,000	0,062	0,228
-142,745	-69,432	-0,072	0,020
-141,731	800,000	-0,062	-0,140
-140,716	800,000	0,020	0,054
-139,702	-50,970	0,069	0,023
-138,687	-73,177	0,018	0,005
-137,672	-9,468	0,057	0,027
-136,658	-200,000	-0,003	-0,082
-135,643	-180,147	-0,040	-0,001
-134,629	-153,334	-0,086	0,004
-133,614	-172,922	0,205	-0,004
-132,599	380,917	0,033	-0,049
-131,585	580,577	-0,037	0,065
-130,570	76,077	-0,055	-0,042
-129,556	26,873	-0,106	-0,064
-128,541	-200,000	-0,018	-0,071
-127,526	-106,656	-0,086	0,014
-126,512	51,310	-0,103	0,070
-125,497	-144,430	-0,037	-0,002
-124,483	-111,727	0,034	0,005
-123,468	-27,448	-0,075	-0,031
-122,453	285,965	-0,006	-0,007
-121,439	777,447	-0,031	-0,062
-120,424	483,344	-0,003	-0,005
-119,410	-200,000	0,000	-0,052
