DTS Sentinel unit serial number:	SN410029Multiplexer serial number:	ORYXHardware model number:	OX2-SRSoftware version number:	ORYX F/W v4,00 Oryx Data Collector v3.7.2.0data status	okinstallation	B6 Nyhavnadifferential loss correction	single-endedforward channel	channel 2reverse channel	N/Adate	2023/12/07time	15:30:08forward acquisition time	300,00reverse acquisition time	0,00gamma	499,1914k internal	0,3165k external	0,3165temperature offset calibration	1,0000default loss term (dB/km)	0,3820temperature slope calibration	1,0000multiplexer offset coefficient	1,0000multiplexer slope coefficient	1,0000fibre end	0,00T internal ref (°C)	14,38T ext. ref 1 (°C)	-1,92T ext. ref 2 (°C)	-1,92length (m)	temperature (°C)	Stokes	anti-Stokes-744,400	-165,946	0,075	-0,002
-743,385	-70,486	-0,241	0,067
-742,371	-74,336	0,266	0,070
-741,356	-115,704	-0,240	-0,033
-740,342	-59,094	0,122	0,039
-739,327	112,759	-0,217	-0,194
-738,312	31,055	0,146	0,092
-737,298	-123,042	-0,383	0,045
-736,283	203,992	0,043	0,049
-735,269	-83,276	-0,292	0,068
-734,254	-5,512	0,139	0,070
-733,239	-133,094	-0,420	-0,039
-732,225	-67,420	0,202	-0,058
-731,210	179,327	0,010	0,010
-730,196	800,000	-0,027	0,081
-729,181	800,000	-0,040	0,098
-728,167	42,625	-0,037	0,025
-727,152	453,795	0,048	0,078
-726,137	-200,000	0,005	-0,114
-725,123	-123,192	0,015	0,002
-724,108	193,787	-0,107	-0,119
-723,094	243,874	-0,153	-0,189
-722,079	246,411	-0,168	-0,209
-721,064	621,507	-0,044	-0,081
-720,050	134,463	-0,035	0,033
-719,035	326,260	0,107	-0,152
-718,021	-200,000	0,024	-0,145
-717,006	-200,000	-0,011	0,145
-715,991	-107,351	-0,063	-0,010
-714,977	541,709	-0,051	-0,089
-713,962	533,175	-0,077	-0,134
-712,948	-93,373	-0,066	-0,013
-711,933	-200,000	-0,016	-0,058
-710,918	-200,000	-0,005	-0,033
-709,904	-50,129	-0,098	-0,034
-708,889	-200,000	-0,012	-0,080
-707,875	-200,000	-0,012	0,044
-706,860	75,278	-0,172	-0,133
-705,845	-179,042	0,171	-0,003
-704,831	75,050	0,070	0,054
-703,816	177,661	-0,069	-0,074
-702,802	513,818	0,038	-0,065
-701,787	307,584	-0,144	-0,198
-700,772	84,812	0,067	-0,054
-699,758	766,104	-0,048	0,095
-698,743	-167,595	0,083	-0,002
-697,729	-200,000	-0,003	-0,081
-696,714	-105,563	0,119	-0,020
-695,699	320,398	-0,094	0,132
-694,685	29,228	-0,096	0,060
-693,670	-165,720	0,040	-0,001
-692,656	-200,000	-0,010	-0,181
-691,641	-200,000	-0,014	0,089
-690,627	0,080	0,067	-0,035
-689,612	17,907	-0,090	0,053
-688,597	-200,000	0,004	-0,132
-687,583	-200,000	0,001	-0,057
-686,568	3,700	-0,085	0,045
-685,554	799,045	-0,065	-0,132
-684,539	49,170	0,045	-0,031
-683,524	800,000	0,029	0,083
-682,510	-66,536	-0,170	0,049
-681,495	-84,724	-0,070	-0,016
-680,481	-20,818	-0,178	-0,080
-679,466	-200,000	-0,017	-0,150
-678,451	-200,000	-0,016	-0,160
-677,437	-200,000	-0,008	0,098
-676,422	62,360	-0,047	0,034
-675,408	-200,000	0,010	0,110
-674,393	-200,000	0,006	0,060
-673,378	-200,000	-0,007	-0,062
-672,364	37,650	0,012	-0,008
-671,349	800,000	0,054	-0,143
-670,335	43,466	0,076	0,051
-669,320	800,000	-0,067	0,150
-668,305	359,815	-0,038	0,056
-667,291	265,854	-0,021	-0,027
-666,276	320,058	-0,040	0,056
-665,262	-200,000	0,008	-0,205
-664,247	-147,691	0,110	-0,007
-663,232	116,337	-0,022	-0,020
-662,218	-118,283	-0,082	0,011
-661,203	335,868	0,017	0,024
-660,189	-99,901	-0,101	-0,018
-659,174	800,000	-0,027	0,083
-658,159	546,510	0,020	-0,035
-657,145	118,442	-0,026	-0,023
-656,130	-200,000	0,027	-0,088
-655,116	330,066	-0,038	0,053
-654,101	-129,971	0,141	-0,014
-653,086	104,005	-0,106	-0,091
-652,072	800,000	0,026	0,059
-651,057	800,000	0,041	-0,099
-650,043	154,418	-0,019	-0,019
-649,028	800,000	-0,021	-0,047
-648,014	586,942	-0,041	-0,074
-646,999	151,825	0,030	0,030
-645,984	-108,772	0,161	0,025
-644,970	413,532	0,020	0,032
-643,955	800,000	-0,018	-0,042
-642,941	-52,858	0,029	0,010
-641,926	-200,000	0,023	-0,105
-640,911	469,562	-0,045	-0,075
-639,897	-200,000	-0,011	0,095
-638,882	-82,447	-0,081	0,019
-637,868	-108,782	-0,077	-0,012
-636,853	81,844	-0,050	-0,040
-635,838	732,937	-0,051	-0,101
-634,824	-120,935	-0,063	-0,008
-633,809	447,917	0,060	-0,097
-632,795	-6,721	0,087	-0,043
-631,780	-200,000	0,030	0,173
-630,765	12,034	-0,060	0,034
-629,751	139,237	-0,112	0,108
-628,736	23,702	0,041	-0,024
-627,722	800,000	-0,040	0,090
-626,707	-117,626	0,034	0,004
-625,692	-200,000	0,015	0,121
-624,678	-200,000	-0,025	0,090
-623,663	-163,145	0,081	0,003
-622,649	165,805	-0,012	-0,012
-621,634	800,000	-0,065	-0,148
-620,619	-100,649	0,087	0,015
-619,605	800,000	-0,023	-0,052
-618,590	800,000	0,030	-0,062
-617,576	52,348	-0,040	-0,028
-616,561	-200,000	0,012	-0,106
-615,546	-170,227	-0,128	-0,003
-614,532	-83,408	-0,053	0,012
-613,517	800,000	0,038	-0,090
-612,503	682,081	-0,037	-0,070
-611,488	-200,000	-0,006	0,051
-610,474	70,615	0,060	0,046
-609,459	50,536	-0,142	-0,098
-608,444	-42,921	-0,052	0,019
-607,430	43,998	-0,158	-0,106
-606,415	113,500	-0,084	-0,075
-605,401	-130,879	-0,085	0,008
-604,386	258,568	-0,064	0,080
-603,371	107,032	-0,178	0,154
-602,357	-186,908	0,082	-0,001
-601,342	191,103	0,037	-0,040
-600,328	558,464	-0,039	-0,069
-599,313	214,944	0,036	0,042
-598,298	357,826	-0,026	0,038
-597,284	800,000	0,011	-0,029
-596,269	800,000	-0,052	0,151
-595,255	800,000	0,022	-0,050
-594,240	800,000	0,019	0,046
-593,225	800,000	-0,040	-0,084
-592,211	610,991	-0,011	0,021
-591,196	-32,639	-0,113	0,046
-590,182	-92,367	0,173	0,035
-589,167	49,339	0,134	0,092
-588,152	-3,024	-0,071	0,036
-587,138	-200,000	0,010	0,145
-586,123	444,911	-0,039	0,063
-585,109	-200,000	0,004	0,084
-584,094	800,000	0,022	-0,050
-583,079	800,000	-0,025	0,060
-582,065	-200,000	0,003	0,046
-581,050	-85,315	-0,088	-0,020
-580,036	32,301	-0,102	-0,064
-579,021	-200,000	0,027	-0,100
-578,006	35,706	-0,086	-0,055
-576,992	800,000	-0,027	-0,064
-575,977	-18,389	0,050	0,023
-574,963	-200,000	-0,007	0,045
-573,948	-133,258	-0,171	0,016
-572,934	-178,873	0,054	0,001
-571,919	36,328	-0,046	-0,030
-570,904	-162,884	-0,062	0,002
-569,890	36,701	-0,140	-0,090
-568,875	611,545	0,018	-0,033
-567,861	577,191	-0,014	-0,026
-566,846	800,000	-0,012	0,038
-565,831	-200,000	0,006	0,085
-564,817	-200,000	0,024	-0,113
-563,802	101,438	-0,072	-0,062
-562,788	237,062	0,031	-0,038
-561,773	800,000	0,026	0,075
-560,758	-185,094	-0,040	0,000
-559,744	-131,484	-0,130	0,012
-558,729	60,479	-0,052	-0,038
-557,715	-89,121	-0,085	0,018
-556,700	-200,000	-0,004	-0,167
-555,685	-13,195	-0,064	-0,030
-554,671	-200,000	0,015	-0,141
-553,656	-180,667	0,012	-0,000
-552,642	581,518	-0,038	-0,068
-551,627	-200,000	-0,017	-0,054
-550,612	-200,000	0,004	0,033
-549,598	-60,045	-0,077	0,024
-548,583	-1,898	-0,098	0,050
-547,569	-200,000	-0,027	-0,113
-546,554	-21,497	0,050	0,022
-545,539	-70,742	-0,029	-0,008
-544,525	-200,000	0,023	0,118
-543,510	113,429	-0,064	0,057
-542,496	-200,000	-0,162	0,000
-541,481	-4,477	0,048	0,024
-540,466	-96,639	-0,090	0,017
-539,452	-200,000	-0,011	0,095
-538,437	-49,835	0,092	0,032
-537,423	-76,153	0,054	0,014
-536,408	322,001	-0,081	-0,112
-535,393	800,000	-0,034	-0,072
-534,379	-200,000	0,012	0,143
-533,364	299,145	0,080	-0,108
-532,350	-200,000	-0,016	-0,060
-531,335	158,614	0,070	0,071
-530,321	-59,234	0,080	-0,025
-529,306	63,209	-0,068	0,049
-528,291	4,320	0,047	0,025
-527,277	-200,000	-0,035	0,209
-526,262	-200,000	0,002	-0,045
-525,248	180,983	0,083	0,089
-524,233	-200,000	0,021	0,077
-523,218	218,794	0,052	0,060
-522,204	-38,855	0,134	0,051
-521,189	800,000	0,025	0,064
-520,175	-200,000	0,005	-0,053
-519,160	-200,000	-0,012	-0,096
-518,145	-200,000	0,017	0,117
-517,131	-175,416	0,030	0,001
-516,116	19,696	0,066	0,038
-515,102	800,000	0,080	0,232
-514,087	-57,940	-0,179	-0,057
-513,072	45,620	-0,085	0,057
-512,058	-68,043	-0,013	0,004
-511,043	-200,000	0,020	0,080
-510,029	-200,000	0,002	0,074
-509,014	85,356	-0,042	0,033
-507,999	-55,287	0,128	0,042
-506,985	-200,000	-0,002	-0,207
-505,970	81,782	-0,098	-0,077
-504,956	203,491	0,101	0,114
-503,941	65,681	0,026	-0,019
-502,926	-15,252	0,043	-0,020
-501,912	800,000	0,063	0,147
-500,897	6,423	0,067	0,036
-499,883	344,893	0,054	0,078
-498,868	-102,753	-0,048	-0,008
-497,853	138,464	0,081	-0,077
-496,839	-200,000	0,031	-0,104
-495,824	-57,966	0,103	0,033
-494,810	800,000	0,039	-0,083
-493,795	721,265	-0,009	-0,018
-492,781	-2,577	-0,030	-0,015
-491,766	6,923	-0,075	-0,041
-490,751	800,000	0,025	0,053
-489,737	-76,459	-0,084	-0,021
-488,722	26,187	0,096	-0,058
-487,708	-200,000	0,002	0,094
-486,693	-200,000	-0,016	-0,090
-485,678	-46,861	-0,074	-0,026
-484,664	-200,000	0,010	-0,141
-483,649	800,000	-0,015	0,035
-482,635	240,236	0,108	0,132
-481,620	147,511	0,042	-0,042
-480,605	-200,000	-0,003	0,068
-479,591	27,780	-0,053	0,032
-478,576	-200,000	-0,010	0,119
-477,562	-138,759	0,081	0,006
-476,547	800,000	-0,029	-0,091
-475,532	241,635	0,074	0,091
-474,518	32,796	0,083	-0,052
-473,503	24,851	-0,115	0,069
-472,489	-200,000	-0,023	-0,128
-471,474	800,000	-0,070	0,156
-470,459	800,000	-0,043	-0,099
-469,445	116,391	0,039	0,035
-468,430	800,000	-0,062	0,155
-467,416	800,000	0,028	0,060
-466,401	-200,000	-0,021	0,099
-465,386	567,447	-0,059	0,106
-464,372	3,838	-0,059	0,031
-463,357	-55,769	0,045	-0,014
-462,343	-58,819	-0,092	0,029
-461,328	-57,670	0,040	-0,013
-460,313	-200,000	-0,003	0,017
-459,299	-200,000	0,025	0,137
-458,284	92,464	-0,027	-0,022
-457,270	800,000	-0,037	-0,110
-456,255	800,000	0,009	-0,028
-455,241	-200,000	-0,032	-0,112
-454,226	59,598	-0,112	-0,080
-453,211	-30,014	0,155	-0,064
-452,197	54,739	0,047	-0,033
-451,182	-200,000	-0,035	0,135
-450,168	-98,105	-0,140	-0,026
-449,153	163,779	-0,064	0,065
-448,138	-200,000	-0,010	-0,194
-447,124	-200,000	-0,009	-0,090
-446,109	800,000	-0,011	0,033
-445,095	-105,011	0,068	-0,011
-444,080	800,000	0,059	-0,134
-443,065	-79,791	0,124	0,030
-442,051	800,000	-0,046	-0,127
-441,036	-148,454	-0,088	-0,005
-440,022	-22,163	-0,057	-0,025
-439,007	-200,000	-0,014	-0,068
-437,992	-200,000	-0,011	-0,047
-436,978	800,000	-0,066	0,168
-435,963	47,840	-0,175	0,119
-434,949	-56,213	-0,087	-0,028
-433,934	45,244	-0,037	0,024
-432,919	-200,000	-0,005	0,040
-431,905	800,000	0,060	-0,149
-430,890	-200,000	-0,006	0,167
-429,876	-200,000	0,020	0,276
-428,861	-52,146	-0,106	0,035
-427,846	355,959	0,035	0,051
-426,832	-4,870	0,063	0,031
-425,817	-140,559	-0,159	0,012
-424,803	30,916	0,074	-0,046
-423,788	-200,000	-0,015	-0,094
-422,773	800,000	-0,047	0,103
-421,759	91,240	0,075	-0,061
-420,744	398,827	-0,071	0,108
-419,730	195,857	-0,054	-0,060
-418,715	44,412	-0,106	0,070
-417,701	543,980	-0,013	0,023
-416,686	800,000	0,074	0,153
-415,671	-200,000	-0,011	-0,058
-414,657	-79,669	0,087	-0,021
-413,642	-81,247	0,043	-0,010
-412,628	-200,000	-0,002	-0,041
-411,613	-200,000	0,016	-0,074
-410,598	-177,479	0,063	0,001
-409,584	18,807	0,100	0,058
-408,569	242,865	0,102	0,124
-407,555	240,292	0,096	-0,116
-406,540	800,000	0,041	-0,086
-405,525	-200,000	0,019	-0,105
-404,511	-1,852	-0,086	0,044
-403,496	-82,823	0,014	0,003
-402,482	-98,440	0,156	0,029
-401,467	-23,357	-0,121	0,052
-400,452	51,864	0,018	0,013
-399,438	-200,000	0,011	0,055
-398,423	-134,979	0,179	0,015
-397,409	-200,000	0,003	-0,041
-396,394	173,856	-0,053	-0,056
-395,379	254,053	0,023	0,029
-394,365	800,000	-0,005	0,011
-393,350	369,590	0,098	0,144
-392,336	394,845	0,088	0,133
-391,321	-74,081	-0,116	0,030
-390,306	-56,790	-0,144	-0,046
-389,292	249,510	0,021	-0,026
-388,277	-148,148	-0,073	0,004
-387,263	61,557	-0,075	0,054
-386,248	44,527	-0,050	-0,033
-385,233	-65,991	-0,091	-0,026
-384,219	-64,397	0,080	0,023
-383,204	-200,000	0,023	-0,083
-382,190	-81,444	-0,116	-0,027
-381,175	52,171	-0,141	0,097
-380,160	64,528	-0,118	0,086
-379,146	-125,863	0,056	0,006
-378,131	-200,000	-0,031	0,146
-377,117	-165,489	-0,085	-0,003
-376,102	-200,000	-0,032	-0,160
-375,088	800,000	0,064	-0,132
-374,073	-127,644	0,066	-0,007
-373,058	-200,000	0,008	-0,158
-372,044	193,615	0,069	-0,075
-371,029	347,259	-0,027	0,039
-370,015	-200,000	0,007	0,097
-369,000	800,000	0,018	0,055
-367,985	190,853	-0,058	-0,063
-366,971	800,000	0,049	0,107
-365,956	22,730	-0,116	0,069
-364,942	-38,380	0,102	-0,039
-363,927	0,952	-0,071	0,037
-362,912	-45,000	-0,193	0,069
-361,898	-125,190	-0,089	0,010
-360,883	800,000	0,049	-0,116
-359,869	-1,068	-0,080	-0,041
-358,854	78,915	-0,031	-0,024
-357,839	-95,818	0,168	0,032
-356,825	800,000	0,039	0,101
-355,810	149,745	-0,041	0,041
-354,796	25,084	0,096	0,058
-353,781	-143,991	-0,155	0,010
-352,766	-200,000	0,015	-0,081
-351,752	213,277	0,061	0,070
-350,737	-38,652	0,077	-0,029
-349,723	800,000	-0,019	-0,057
-348,708	-16,084	-0,151	0,069
-347,693	-200,000	-0,001	0,018
-346,679	-27,689	-0,062	-0,026
-345,664	-150,017	0,066	-0,004
-344,650	-41,601	-0,034	0,013
-343,635	-120,517	-0,061	0,007
-342,620	166,192	0,028	0,029
-341,606	15,182	0,109	-0,062
-340,591	-30,576	-0,067	-0,027
-339,577	800,000	-0,029	0,059
-338,562	51,008	0,045	-0,031
-337,548	-200,000	-0,014	-0,059
-336,533	183,238	0,055	0,059
-335,518	800,000	0,045	-0,104
-334,504	800,000	-0,040	0,083
-333,489	245,275	-0,090	0,110
-332,475	-200,000	0,002	-0,052
-331,460	789,630	-0,032	-0,064
-330,445	-81,778	0,106	-0,025
-329,431	800,000	-0,009	-0,026
-328,416	-190,093	0,130	0,001
-327,402	800,000	0,043	-0,118
-326,387	63,775	-0,043	-0,031
-325,372	-140,725	-0,038	-0,003
-324,358	177,674	-0,062	-0,066
-323,343	390,574	0,036	-0,054
-322,329	-3,683	0,028	-0,014
-321,314	-72,346	0,100	0,027
-320,299	-200,000	0,000	-0,090
-319,285	49,002	0,059	-0,040
-318,270	-77,754	-0,087	0,022
-317,256	-124,340	-0,147	-0,016
-316,241	-77,016	0,030	-0,007
-315,226	800,000	-0,029	0,060
-314,212	-200,000	-0,000	-0,060
-313,197	36,145	-0,086	0,054
-312,183	800,000	-0,061	0,148
-311,168	-200,000	0,005	-0,063
-310,153	-200,000	0,024	-0,082
-309,139	-50,168	-0,122	-0,042
-308,124	-16,265	0,022	-0,010
-307,110	-58,653	0,104	0,032
-306,095	-200,000	-0,007	0,086
-305,080	-200,000	0,027	-0,110
-304,066	11,359	-0,012	-0,007
-303,051	-200,000	0,026	-0,088
-302,037	54,024	0,045	-0,031
-301,022	-2,417	0,095	0,048
-300,008	800,000	0,041	0,105
-298,993	613,116	0,057	0,104
-297,978	6,882	-0,075	0,040
-296,964	800,000	-0,031	0,092
-295,949	673,233	-0,067	0,126
-294,935	-138,624	-0,039	0,003
-293,920	-200,000	0,012	0,061
-292,905	-200,000	0,030	0,134
-291,891	63,080	0,124	0,090
-290,876	403,072	0,028	-0,043
-289,862	-200,000	-0,030	0,149
-288,847	-200,000	0,020	0,069
-287,832	800,000	-0,012	-0,028
-286,818	17,763	-0,059	-0,034
-285,803	-88,697	0,153	0,033
-284,789	-120,424	0,003	-0,000
-283,774	4,415	0,022	-0,012
-282,759	-149,944	0,148	-0,008
-281,745	800,000	0,015	-0,031
-280,730	-117,326	0,128	0,017
-279,716	-57,743	0,077	-0,024
-278,701	-106,141	-0,071	0,011
-277,686	800,000	-0,011	0,029
-276,672	242,999	-0,040	-0,049
-275,657	87,011	-0,057	0,046
-274,643	634,720	-0,059	0,109
-273,628	554,228	0,073	-0,128
-272,613	800,000	0,027	-0,066
-271,599	59,241	0,063	-0,045
-270,584	52,943	-0,019	-0,013
-269,570	800,000	-0,032	0,097
-268,555	6,234	-0,060	-0,032
-267,540	-88,356	-0,113	-0,024
-266,526	800,000	-0,034	-0,101
-265,511	-42,536	0,088	0,032
-264,497	42,300	-0,061	-0,040
-263,482	-59,142	0,081	-0,025
-262,467	-175,772	0,069	0,001
-261,453	-200,000	0,008	-0,076
-260,438	144,613	0,167	-0,161
-259,424	-116,021	-0,060	0,008
-258,409	14,744	-0,051	-0,029
-257,395	-200,000	0,022	-0,080
-256,380	-200,000	0,009	0,098
-255,365	-200,000	0,025	0,136
-254,351	38,171	0,076	0,049
-253,336	-200,000	-0,066	0,228
-252,322	236,705	0,065	0,077
-251,307	-28,514	-0,062	0,026
-250,292	17,287	0,115	-0,066
-249,278	481,415	0,061	-0,100
-248,263	239,579	0,098	-0,117
-247,249	-123,915	0,133	0,015
-246,234	119,334	-0,121	-0,108
-245,219	387,203	-0,044	0,066
-244,205	-52,422	0,159	-0,053
-243,190	-110,823	0,166	0,024
-242,176	-18,683	0,055	0,025
-241,161	71,918	0,090	-0,068
-240,146	-108,376	0,046	0,007
-239,132	63,366	-0,150	-0,108
-238,117	-200,000	0,021	-0,123
-237,103	24,071	-0,040	-0,024
-236,088	-200,000	0,028	-0,114
-235,073	190,513	0,009	-0,010
-234,059	-160,727	0,164	0,006
-233,044	404,579	-0,030	0,046
-232,030	259,622	-0,042	-0,052
-231,015	473,984	-0,049	-0,079
-230,000	800,000	-0,029	-0,091
-228,986	105,029	0,023	0,020
-227,971	-88,804	0,011	-0,002
-226,957	218,294	0,151	0,174
-225,942	143,723	-0,060	0,058
-224,927	-137,474	0,036	-0,003
-223,913	-200,000	0,006	-0,112
-222,898	-44,359	0,065	0,023
-221,884	559,889	0,041	-0,072
-220,869	-200,000	-0,010	0,085
-219,855	800,000	0,034	0,089
-218,840	144,966	0,036	-0,035
-217,825	-57,287	0,009	-0,003
-216,811	-54,405	-0,110	0,036
-215,796	45,923	-0,040	0,027
-214,782	-62,237	0,100	0,030
-213,767	-200,000	-0,031	-0,100
-212,752	800,000	-0,068	-0,144
-211,738	-200,000	-0,021	0,074
-210,723	99,838	0,066	-0,055
-209,709	526,894	-0,089	0,152
-208,694	-117,649	-0,028	-0,004
-207,679	284,543	-0,051	-0,067
-206,665	-200,000	0,040	-0,129
-205,650	-68,056	0,120	-0,033
-204,636	800,000	0,019	-0,059
-203,621	-185,962	0,063	0,001
-202,606	-91,100	0,051	0,011
-201,592	432,647	-0,056	-0,087
-200,577	-200,000	-0,006	-0,024
-199,563	-31,231	0,017	-0,007
-198,548	403,672	0,038	-0,057
-197,533	-200,000	-0,077	0,000
-196,519	-4,213	0,079	0,039
-195,504	800,000	0,046	-0,121
-194,490	-2,423	-0,197	-0,099
-193,475	800,000	-0,053	-0,168
-192,460	-200,000	0,007	-0,072
-191,446	-157,976	-0,129	-0,005
-190,431	-200,000	0,044	0,205
-189,417	534,634	-0,020	-0,035
-188,402	-200,000	-0,000	0,097
-187,387	87,427	0,095	-0,076
-186,373	95,812	0,067	-0,055
-185,358	163,722	0,108	-0,109
-184,344	-200,000	-0,003	0,102
-183,329	-154,714	0,046	-0,002
-182,315	171,784	0,124	0,128
-181,300	-200,000	0,015	-0,074
-180,285	272,742	-0,032	-0,041
-179,271	800,000	0,038	0,111
-178,256	385,326	0,045	-0,067
-177,242	-200,000	0,005	-0,034
-176,227	112,856	0,135	-0,117
-175,212	201,643	-0,024	-0,026
-174,198	-153,636	0,028	-0,001
-173,183	-200,000	0,001	0,037
-172,169	-200,000	-0,014	-0,147
-171,154	137,430	0,045	0,042
-170,139	123,298	0,050	-0,046
-169,125	21,376	0,092	0,053
-168,110	140,704	0,059	0,056
-167,096	800,000	0,024	0,068
-166,081	-200,000	0,011	-0,104
-165,066	-15,557	-0,085	-0,039
-164,052	-200,000	-0,004	-0,137
-163,037	800,000	-0,025	0,051
-162,023	-128,793	0,065	0,007
-161,008	121,359	0,044	-0,039
-159,993	192,766	0,058	0,063
-158,979	652,535	0,053	-0,099
-157,964	545,565	0,006	-0,011
-156,950	-43,751	0,064	-0,023
-155,935	385,996	0,013	0,019
-154,920	116,049	-0,058	-0,051
-153,906	-200,000	-0,019	0,093
-152,891	-53,505	0,114	0,037
-151,877	352,685	0,081	-0,116
-150,862	-90,974	0,023	0,005
-149,847	206,402	-0,045	0,050
-148,833	356,881	0,072	0,104
-147,818	290,830	0,059	0,077
-146,804	-73,765	0,109	-0,028
-145,789	-200,000	-0,003	0,053
-144,775	-102,148	0,068	0,012
-143,760	413,672	0,012	-0,018
-142,745	22,568	0,068	-0,040
-141,731	-63,281	0,091	-0,027
-140,716	-11,953	0,128	0,060
-139,702	-92,006	0,096	-0,019
-138,687	202,867	-0,076	0,084
-137,672	-200,000	0,010	0,075
-136,658	462,936	-0,041	-0,066
-135,643	800,000	-0,032	0,068
-134,629	-146,649	-0,023	-0,001
-133,614	-200,000	0,049	0,157
-132,599	-200,000	0,051	0,192
-131,585	684,747	-0,044	0,083
-130,570	-22,444	-0,060	-0,026
-129,556	800,000	0,112	0,234
-128,541	229,146	-0,067	0,079
-127,526	26,379	-0,092	-0,055
-126,512	-34,956	0,056	0,022
-125,497	800,000	0,076	0,224
-124,483	140,375	0,054	0,052
-123,468	-200,000	-0,009	0,033
-122,453	397,101	0,045	0,067
-121,439	-15,165	-0,175	0,080
-120,424	309,369	0,060	0,081
-119,410	223,448	-0,077	0,089
