DTS Sentinel unit serial number:	SN410029Multiplexer serial number:	ORYXHardware model number:	OX2-SRSoftware version number:	ORYX F/W v4,00 Oryx Data Collector v3.7.2.0data status	okinstallation	B6 Nyhavnadifferential loss correction	single-endedforward channel	channel 2reverse channel	N/Adate	2023/12/09time	03:10:08forward acquisition time	300,00reverse acquisition time	0,00gamma	499,1914k internal	0,3154k external	0,3154temperature offset calibration	1,0000default loss term (dB/km)	0,3820temperature slope calibration	1,0000multiplexer offset coefficient	1,0000multiplexer slope coefficient	1,0000fibre end	0,00T internal ref (°C)	16,21T ext. ref 1 (°C)	0,10T ext. ref 2 (°C)	0,09length (m)	temperature (°C)	Stokes	anti-Stokes-744,400	-166,602	0,129	0,004
-743,385	35,314	-0,198	0,128
-742,371	-40,713	0,156	0,059
-741,356	-84,843	-0,126	-0,029
-740,342	-93,947	0,134	0,027
-739,327	-161,297	-0,239	-0,009
-738,312	-200,000	0,003	-0,084
-737,298	-126,616	-0,440	0,047
-736,283	-133,651	-0,014	-0,001
-735,269	161,022	-0,170	0,175
-734,254	0,023	-0,132	-0,069
-733,239	10,085	-0,414	-0,231
-732,225	159,713	0,115	-0,118
-731,210	18,769	0,087	0,051
-730,196	800,000	0,009	-0,027
-729,181	-139,394	-0,093	-0,007
-728,167	-170,929	0,079	0,002
-727,152	-50,030	-0,064	0,022
-726,137	800,000	-0,015	0,036
-725,123	-200,000	-0,006	0,029
-724,108	-9,904	-0,127	0,062
-723,094	-14,338	0,042	0,020
-722,079	-200,000	-0,062	-0,222
-721,064	-61,031	0,040	0,012
-720,050	-131,190	-0,084	0,008
-719,035	-49,076	0,063	0,022
-718,021	-26,392	-0,150	-0,065
-717,006	-200,000	-0,015	-0,109
-715,991	209,648	-0,037	0,043
-714,977	-138,802	-0,161	-0,013
-713,962	178,140	0,039	-0,042
-712,948	-200,000	-0,022	0,078
-711,933	273,843	-0,030	0,040
-710,918	-200,000	0,006	-0,073
-709,904	227,952	0,067	-0,080
-708,889	11,756	-0,071	-0,040
-707,875	72,141	-0,034	0,026
-706,860	58,554	0,081	0,059
-705,845	-200,000	-0,007	0,035
-704,831	184,000	-0,062	0,068
-703,816	18,548	-0,077	-0,045
-702,802	-108,973	-0,103	0,016
-701,787	-48,002	-0,098	0,035
-700,772	-100,571	-0,151	-0,027
-699,758	-200,000	-0,019	-0,065
-698,743	486,491	-0,058	-0,098
-697,729	227,602	0,105	0,126
-696,714	-200,000	-0,008	0,034
-695,699	93,456	-0,073	-0,061
-694,685	273,171	0,100	-0,130
-693,670	-200,000	-0,053	-0,173
-692,656	-72,436	0,054	-0,015
-691,641	-200,000	-0,038	-0,131
-690,627	-197,169	-0,125	-0,001
-689,612	-200,000	-0,002	-0,035
-688,597	800,000	0,054	-0,127
-687,583	-200,000	-0,012	-0,080
-686,568	-200,000	-0,005	-0,079
-685,554	-86,740	-0,161	-0,036
-684,539	-24,931	0,064	-0,028
-683,524	250,161	-0,049	0,061
-682,510	318,910	0,011	0,015
-681,495	90,441	-0,153	0,126
-680,481	800,000	-0,018	0,054
-679,466	269,398	-0,040	0,052
-678,451	-29,303	-0,146	-0,061
-677,437	-200,000	-0,021	-0,087
-676,422	800,000	0,026	-0,063
-675,408	-200,000	0,009	0,060
-674,393	480,131	-0,045	-0,075
-673,378	-200,000	0,003	-0,115
-672,364	53,668	-0,051	-0,036
-671,349	-24,522	0,039	0,017
-670,335	-46,469	0,145	0,052
-669,320	7,591	-0,080	-0,044
-668,305	150,276	-0,089	-0,089
-667,291	-75,970	-0,023	0,006
-666,276	-200,000	-0,009	0,095
-665,262	-200,000	-0,001	-0,123
-664,247	-200,000	-0,011	-0,116
-663,232	-200,000	-0,030	-0,150
-662,218	18,701	0,160	0,094
-661,203	-77,668	-0,071	0,018
-660,189	338,883	0,069	0,098
-659,174	30,497	0,061	-0,038
-658,159	-98,593	-0,053	0,010
-657,145	396,815	-0,103	0,159
-656,130	24,611	-0,126	-0,076
-655,116	123,364	0,155	0,143
-654,101	-200,000	-0,010	0,050
-653,086	-111,481	-0,048	-0,007
-652,072	8,077	-0,138	-0,076
-651,057	158,901	-0,113	-0,116
-650,043	273,626	-0,031	-0,040
-649,028	-200,000	0,007	-0,054
-648,014	542,019	-0,056	0,098
-646,999	38,294	0,122	-0,080
-645,984	800,000	0,030	-0,082
-644,970	800,000	0,032	0,094
-643,955	-111,882	-0,153	0,023
-642,941	-200,000	0,018	-0,078
-641,926	107,613	-0,069	-0,060
-640,911	71,823	0,077	-0,059
-639,897	-84,812	0,123	0,028
-638,882	38,426	0,082	-0,054
-637,868	409,809	-0,052	-0,082
-636,853	528,020	-0,087	-0,151
-635,838	-102,883	0,025	0,004
-634,824	-200,000	-0,022	0,123
-633,809	-91,316	-0,192	0,040
-632,795	800,000	0,022	0,071
-631,780	-117,011	-0,043	-0,006
-630,765	-200,000	0,014	0,087
-629,751	-28,566	-0,165	0,070
-628,736	246,303	0,016	0,020
-627,722	-59,245	-0,126	-0,040
-626,707	86,535	-0,027	-0,022
-625,692	125,622	0,038	-0,035
-624,678	-200,000	-0,024	-0,123
-623,663	-103,120	-0,032	0,005
-622,649	-50,079	-0,079	0,027
-621,634	3,155	0,108	0,057
-620,619	-200,000	-0,001	0,046
-619,605	16,709	0,101	-0,059
-618,590	355,807	0,072	-0,106
-617,576	33,231	0,082	-0,052
-616,561	-200,000	-0,029	-0,134
-615,546	389,254	0,082	-0,126
-614,532	800,000	0,058	-0,125
-613,517	-200,000	0,011	-0,058
-612,503	-200,000	-0,012	-0,082
-611,488	467,265	0,071	-0,117
-610,474	800,000	0,015	-0,045
-609,459	-3,662	-0,107	-0,054
-608,444	569,011	-0,063	0,113
-607,430	-200,000	-0,021	-0,141
-606,415	73,165	-0,118	-0,091
-605,401	49,364	-0,090	0,062
-604,386	-41,257	-0,026	-0,010
-603,371	82,237	0,070	0,055
-602,357	-73,794	-0,093	-0,025
-601,342	-111,985	0,177	-0,026
-600,328	704,934	0,069	-0,134
-599,313	230,279	-0,063	-0,076
-598,298	-200,000	0,013	0,091
-597,284	-200,000	0,003	0,082
-596,269	348,998	-0,097	0,141
-595,255	-200,000	0,007	0,035
-594,240	-10,362	-0,090	-0,044
-593,225	-200,000	0,031	-0,129
-592,211	-200,000	0,009	-0,225
-591,196	-200,000	0,007	-0,038
-590,182	-23,316	0,116	0,051
-589,167	224,102	-0,047	0,056
-588,152	357,780	0,097	0,142
-587,138	298,641	-0,025	-0,033
-586,123	-105,601	-0,191	-0,031
-585,109	-200,000	-0,014	-0,087
-584,094	800,000	-0,064	-0,159
-583,079	-200,000	-0,019	0,118
-582,065	168,145	0,012	-0,013
-581,050	-22,583	0,106	-0,047
-580,036	59,090	-0,028	-0,020
-579,021	800,000	-0,083	-0,185
-578,006	-200,000	-0,032	-0,119
-576,992	-200,000	-0,014	0,048
-575,977	-123,469	0,105	0,012
-574,963	339,233	0,105	0,150
-573,948	248,076	0,061	-0,075
-572,934	166,800	-0,086	-0,090
-571,919	-200,000	0,008	-0,100
-570,904	332,649	-0,056	-0,080
-569,890	387,822	0,049	-0,074
-568,875	-94,237	0,091	-0,018
-567,861	211,598	0,015	0,017
-566,846	800,000	-0,031	0,080
-565,831	800,000	-0,026	-0,066
-564,817	-170,490	-0,064	0,002
-563,802	800,000	-0,025	-0,064
-562,788	119,064	0,073	-0,066
-561,773	800,000	-0,020	0,043
-560,758	351,584	0,057	0,083
-559,744	-200,000	-0,014	-0,060
-558,729	49,957	0,091	0,062
-557,715	800,000	0,020	-0,056
-556,700	37,900	-0,135	-0,088
-555,685	800,000	0,027	-0,063
-554,671	418,180	0,068	0,107
-553,656	-100,066	0,072	0,013
-552,642	800,000	0,041	0,131
-551,627	-30,494	0,066	-0,027
-550,612	338,384	-0,100	-0,142
-549,598	260,470	0,047	0,060
-548,583	800,000	-0,040	0,089
-547,569	-137,291	0,138	-0,011
-546,554	85,464	0,081	0,065
-545,539	37,133	0,055	0,035
-544,525	75,082	-0,061	0,047
-543,510	-200,000	0,000	-0,083
-542,496	508,241	-0,036	-0,062
-541,481	-200,000	-0,000	-0,033
-540,466	72,295	-0,095	0,073
-539,452	577,814	0,091	0,164
-538,437	187,667	0,126	0,138
-537,423	199,996	0,108	0,122
-536,408	12,032	0,045	0,025
-535,393	1,798	-0,043	-0,023
-534,379	-11,523	-0,135	-0,065
-533,364	324,601	0,040	-0,056
-532,350	-27,058	0,084	-0,036
-531,335	177,212	-0,088	-0,094
-530,321	-200,000	-0,006	-0,077
-529,306	736,698	-0,039	-0,077
-528,291	-43,083	0,019	-0,007
-527,277	-200,000	0,000	-0,002
-526,262	800,000	-0,025	-0,077
-525,248	800,000	0,031	0,092
-524,233	-200,000	-0,009	0,144
-523,218	169,747	-0,085	0,089
-522,204	-114,054	0,020	-0,003
-521,189	-30,073	-0,011	0,004
-520,175	-200,000	-0,035	-0,174
-519,160	-144,542	-0,151	0,010
-518,145	-155,615	0,081	0,004
-517,131	163,773	0,114	0,117
-516,116	46,471	-0,029	-0,019
-515,102	-169,064	0,040	-0,001
-514,087	426,286	0,035	0,055
-513,072	131,917	0,076	-0,072
-512,058	42,059	0,104	-0,069
-511,043	-99,076	0,150	-0,028
-510,029	210,621	0,050	0,057
-509,014	-98,243	0,002	0,000
-507,999	-29,786	0,003	0,001
-506,985	262,171	0,075	0,095
-505,970	-134,767	-0,123	0,011
-504,956	-104,781	-0,064	-0,011
-503,941	57,409	0,101	-0,072
-502,926	-145,606	-0,111	0,007
-501,912	370,676	0,045	0,066
-500,897	540,771	0,016	0,028
-499,883	433,049	-0,011	0,017
-498,868	-2,018	-0,040	0,021
-497,853	-149,322	-0,122	0,007
-496,839	-200,000	0,031	-0,121
-495,824	199,498	0,083	-0,093
-494,810	-75,367	0,057	0,015
-493,795	800,000	-0,050	-0,133
-492,781	-200,000	-0,029	-0,152
-491,766	-200,000	-0,004	0,043
-490,751	478,767	-0,037	0,062
-489,737	4,163	-0,078	-0,041
-488,722	-138,499	-0,044	-0,003
-487,708	272,569	0,069	0,089
-486,693	33,486	0,049	0,031
-485,678	-200,000	0,018	0,092
-484,664	-200,000	0,017	-0,117
-483,649	800,000	0,015	-0,034
-482,635	-48,409	-0,067	0,024
-481,620	407,454	-0,018	-0,029
-480,605	77,965	0,123	0,096
-479,591	11,290	0,100	0,056
-478,576	-75,863	-0,065	-0,017
-477,562	391,157	-0,090	-0,137
-476,547	-49,854	-0,103	0,036
-475,532	413,543	-0,046	0,072
-474,518	-200,000	-0,008	0,067
-473,503	-37,027	0,037	0,014
-472,489	-102,176	0,112	-0,020
-471,474	-37,931	-0,108	-0,042
-470,459	345,627	-0,057	-0,082
-469,445	62,182	-0,032	-0,023
-468,430	-200,000	0,015	0,153
-467,416	800,000	-0,027	0,059
-466,401	201,316	-0,057	0,064
-465,386	351,349	-0,042	-0,061
-464,372	53,529	0,104	0,073
-463,357	-62,218	-0,095	-0,029
-462,343	705,137	-0,045	0,088
-461,328	-18,175	-0,118	0,054
-460,313	-200,000	0,024	-0,098
-459,299	-78,169	-0,082	0,020
-458,284	-37,230	-0,088	0,034
-457,270	432,841	0,065	0,104
-456,255	800,000	-0,063	-0,170
-455,241	114,456	-0,092	-0,082
-454,226	-200,000	-0,006	-0,176
-453,211	113,274	-0,049	0,043
-452,197	171,265	-0,047	0,049
-451,182	-191,524	0,132	0,001
-450,168	-130,216	0,091	-0,009
-449,153	-90,568	-0,112	0,023
-448,138	800,000	0,056	0,151
-447,124	84,724	-0,069	0,055
-446,109	651,604	0,015	-0,028
-445,095	-38,644	0,056	0,021
-444,080	-179,290	-0,048	0,001
-443,065	462,821	0,070	0,114
-442,051	800,000	0,040	-0,085
-441,036	-115,006	-0,079	0,011
-440,022	-200,000	0,026	-0,197
-439,007	-90,430	0,168	-0,035
-437,992	258,575	0,069	-0,086
-436,978	-200,000	-0,010	-0,051
-435,963	-95,326	-0,149	-0,029
-434,949	800,000	-0,032	-0,084
-433,934	-99,178	-0,102	-0,019
-432,919	118,577	-0,049	-0,044
-431,905	63,135	0,097	-0,071
-430,890	-183,899	-0,084	-0,001
-429,876	-120,343	0,038	0,005
-428,861	140,490	-0,102	0,098
-427,846	-200,000	0,005	-0,066
-426,832	-131,522	-0,173	-0,016
-425,817	112,361	0,052	-0,046
-424,803	-200,000	0,004	-0,067
-423,788	-200,000	0,016	0,060
-422,773	20,446	0,125	0,074
-421,759	184,302	-0,047	-0,050
-420,744	444,391	-0,012	-0,019
-419,730	294,118	0,108	0,144
-418,715	-200,000	0,015	-0,072
-417,701	-61,725	0,045	-0,014
-416,686	-41,626	0,066	-0,025
-415,671	-200,000	0,132	-0,000
-414,657	-157,419	-0,022	0,001
-413,642	714,717	-0,046	0,090
-412,628	9,751	0,073	-0,040
-411,613	91,059	0,066	-0,054
-410,598	-35,342	-0,116	0,046
-409,584	800,000	-0,023	-0,063
-408,569	-115,618	-0,143	0,019
-407,555	800,000	-0,012	0,032
-406,540	525,703	0,024	-0,041
-405,525	-200,000	-0,002	0,047
-404,511	-88,347	-0,077	-0,017
-403,496	800,000	-0,023	-0,055
-402,482	61,101	-0,041	0,029
-401,467	-200,000	0,026	0,160
-400,452	-123,019	0,166	0,019
-399,438	110,919	-0,032	0,028
-398,423	-66,283	-0,005	-0,002
-397,409	-139,112	-0,098	0,008
-396,394	-10,795	0,053	0,025
-395,379	253,052	-0,043	-0,054
-394,365	27,070	0,180	0,110
-393,350	-77,296	0,028	0,007
-392,336	-200,000	0,023	0,137
-391,321	-200,000	0,035	-0,169
-390,306	117,142	-0,115	0,103
-389,292	334,097	0,071	0,100
-388,277	-4,788	0,022	-0,011
-387,263	-120,905	-0,050	0,006
-386,248	75,384	0,058	0,045
-385,233	561,517	-0,023	0,040
-384,219	162,639	0,024	-0,024
-383,204	800,000	-0,026	-0,067
-382,190	-173,268	-0,068	0,001
-381,175	-161,638	-0,106	-0,004
-380,160	116,496	0,107	-0,095
-379,146	800,000	-0,066	0,176
-378,131	-100,932	-0,052	0,009
-377,117	-200,000	-0,037	0,150
-376,102	254,971	0,053	-0,066
-375,088	561,889	-0,013	-0,022
-374,073	800,000	-0,043	0,094
-373,058	61,883	-0,108	0,078
-372,044	9,611	0,083	0,045
-371,029	-126,698	-0,047	-0,005
-370,015	268,797	0,093	-0,119
-369,000	112,127	-0,071	-0,062
-367,985	87,636	0,016	-0,013
-366,971	3,600	0,045	0,024
-365,956	800,000	-0,035	0,108
-364,942	-200,000	-0,006	0,129
-363,927	153,775	0,111	0,111
-362,912	668,615	0,039	0,074
-361,898	800,000	0,008	-0,020
-360,883	137,808	0,014	-0,013
-359,869	-157,209	0,052	0,002
-358,854	240,122	-0,114	-0,139
-357,839	615,996	-0,043	0,078
-356,825	24,472	0,026	-0,016
-355,810	385,646	-0,077	0,116
-354,796	17,905	-0,107	0,062
-353,781	204,103	-0,019	-0,022
-352,766	-200,000	0,023	-0,210
-351,752	-200,000	0,035	0,164
-350,737	800,000	-0,015	-0,041
-349,723	800,000	-0,025	-0,063
-348,708	-200,000	0,001	-0,071
-347,693	-8,116	-0,095	0,046
-346,679	585,756	-0,013	-0,024
-345,664	71,732	-0,054	-0,041
-344,650	173,734	0,061	0,064
-343,635	-143,024	0,103	0,007
-342,620	-200,000	-0,007	0,142
-341,606	-200,000	0,014	-0,076
-340,591	-115,667	0,031	0,004
-339,577	800,000	0,044	-0,125
-338,562	-98,699	0,121	0,022
-337,548	547,411	0,006	-0,010
-336,533	468,524	0,014	-0,023
-335,518	-68,480	-0,006	-0,002
-334,504	-113,528	0,180	-0,025
-333,489	10,966	-0,031	-0,017
-332,475	800,000	-0,007	0,017
-331,460	-29,724	0,106	-0,044
-330,445	-200,000	0,033	-0,188
-329,431	800,000	-0,067	-0,153
-328,416	-200,000	0,019	0,116
-327,402	-200,000	0,007	0,104
-326,387	76,553	0,149	0,115
-325,372	148,820	-0,069	-0,068
-324,358	45,190	-0,012	-0,008
-323,343	-114,301	0,095	0,013
-322,329	-65,841	-0,089	0,026
-321,314	-200,000	0,001	-0,077
-320,299	-200,000	0,058	0,187
-319,285	-200,000	-0,021	0,130
-318,270	-200,000	-0,004	0,034
-317,256	-31,526	-0,061	-0,025
-316,241	120,707	0,061	0,055
-315,226	422,196	-0,041	0,064
-314,212	-200,000	-0,005	0,051
-313,197	-193,696	0,085	0,001
-312,183	-7,598	-0,104	0,051
-311,168	156,674	-0,023	-0,024
-310,153	-200,000	-0,027	-0,128
-309,139	-200,000	0,022	0,072
-308,124	34,599	0,106	0,067
-307,110	-46,543	0,149	0,053
-306,095	196,689	0,058	-0,065
-305,080	-200,000	-0,025	0,185
-304,066	-200,000	-0,032	0,192
-303,051	243,306	0,050	0,061
-302,037	330,114	-0,092	0,128
-301,022	129,223	-0,026	0,024
-300,008	206,995	-0,044	0,050
-298,993	123,554	0,048	0,043
-297,978	-200,000	-0,015	0,109
-296,964	-97,129	-0,065	-0,012
-295,949	-200,000	0,016	-0,104
-294,935	-25,990	0,078	0,033
-293,920	-200,000	-0,001	0,092
-292,905	-103,345	0,123	-0,021
-291,891	-101,399	-0,059	0,010
-290,876	414,664	0,056	0,086
-289,862	-200,000	0,015	0,140
-288,847	800,000	0,049	-0,130
-287,832	86,897	0,080	-0,064
-286,818	-0,372	0,068	-0,035
-285,803	800,000	-0,027	0,085
-284,789	-102,957	0,125	0,021
-283,774	-36,936	-0,058	-0,023
-282,759	440,009	-0,050	-0,080
-281,745	84,059	0,162	0,129
-280,730	-200,000	0,013	-0,048
-279,716	76,251	-0,058	-0,044
-278,701	39,248	-0,085	0,055
-277,686	345,319	-0,071	0,102
-276,672	800,000	0,015	-0,040
-275,657	-39,820	-0,072	0,027
-274,643	-17,378	0,032	0,015
-273,628	7,408	-0,071	-0,038
-272,613	-200,000	0,006	-0,022
-271,599	-175,031	-0,076	-0,002
-270,584	-200,000	-0,004	-0,073
-269,570	646,790	0,025	0,047
-268,555	-1,868	0,020	0,010
-267,540	-161,662	0,098	-0,004
-266,526	-200,000	0,008	0,063
-265,511	-200,000	-0,009	0,035
-264,497	95,898	0,079	-0,065
-263,482	-83,690	0,086	0,020
-262,467	-44,977	0,177	0,063
-261,453	-200,000	-0,047	0,163
-260,438	96,984	-0,111	-0,092
-259,424	-200,000	-0,002	-0,070
-258,409	800,000	0,021	-0,054
-257,395	-2,999	0,086	0,043
-256,380	17,112	0,158	-0,090
-255,365	-200,000	-0,035	0,140
-254,351	-87,460	-0,082	-0,018
-253,336	-200,000	0,017	0,060
-252,322	-43,691	-0,104	-0,038
-251,307	49,950	-0,055	-0,038
-250,292	-100,160	-0,038	-0,007
-249,278	800,000	-0,039	0,093
-248,263	19,027	0,076	0,044
-247,249	-200,000	-0,009	0,054
-246,234	95,091	-0,099	-0,082
-245,219	-200,000	0,005	-0,103
-244,205	8,325	-0,069	-0,037
-243,190	-81,149	-0,104	-0,025
-242,176	-14,677	-0,053	-0,025
-241,161	-200,000	0,007	-0,072
-240,146	-200,000	0,048	0,000
-239,132	-60,459	-0,092	0,028
-238,117	193,403	-0,053	0,058
-237,103	-109,853	-0,003	0,000
-236,088	-58,563	0,040	-0,012
-235,073	-89,048	-0,040	-0,008
-234,059	242,792	0,055	0,067
-233,044	-200,000	0,017	-0,070
-232,030	105,172	0,059	-0,051
-231,015	-123,785	0,113	-0,013
-230,000	13,476	-0,078	0,044
-228,986	-153,280	-0,141	-0,007
-227,971	92,721	0,100	0,081
-226,957	-200,000	-0,047	0,165
-225,942	-200,000	0,017	0,060
-224,927	-58,142	0,071	0,022
-223,913	273,939	-0,079	0,102
-222,898	-200,000	-0,006	-0,056
-221,884	800,000	0,035	0,072
-220,869	-200,000	-0,018	-0,087
-219,855	-200,000	0,003	0,070
-218,840	800,000	-0,038	0,091
-217,825	-200,000	0,008	-0,047
-216,811	-66,953	0,054	0,015
-215,796	-200,000	0,002	0,024
-214,782	-84,543	0,010	-0,002
-213,767	536,526	-0,079	0,136
-212,752	75,234	0,060	-0,046
-211,738	262,750	-0,043	-0,055
-210,723	-38,636	-0,128	-0,049
-209,709	290,566	0,118	-0,156
-208,694	516,758	0,038	-0,064
-207,679	800,000	0,017	-0,049
-206,665	-147,439	0,032	-0,002
-205,650	800,000	0,006	-0,013
-204,636	800,000	0,023	0,066
-203,621	-200,000	-0,020	-0,133
-202,606	509,811	0,025	0,042
-201,592	-114,391	-0,082	0,011
-200,577	-40,341	-0,103	-0,038
-199,563	-200,000	-0,011	0,110
-198,548	-200,000	-0,009	0,207
-197,533	-79,938	0,123	0,030
-196,519	-60,825	-0,060	-0,018
-195,504	87,546	0,082	-0,066
-194,490	-76,836	-0,037	0,009
-193,475	544,434	-0,032	-0,055
-192,460	-95,548	-0,138	0,026
-191,446	-200,000	-0,002	0,010
-190,431	94,818	0,065	-0,053
-189,417	-69,005	0,201	0,056
-188,402	-200,000	0,023	0,079
-187,387	-200,000	0,005	0,020
-186,373	59,524	-0,074	0,053
-185,358	-200,000	-0,009	-0,130
-184,344	800,000	-0,014	-0,030
-183,329	-200,000	0,010	0,079
-182,315	-59,110	0,110	0,034
-181,300	800,000	-0,045	0,098
-180,285	-121,227	-0,119	-0,014
-179,271	283,348	0,047	-0,062
-178,256	233,444	0,108	-0,129
-177,242	50,437	0,071	0,048
-176,227	80,734	0,102	-0,079
-175,212	-27,192	-0,144	-0,060
-174,198	471,200	-0,046	-0,075
-173,183	-28,044	-0,122	0,051
-172,169	-200,000	-0,013	-0,045
-171,154	66,629	-0,057	0,042
-170,139	-74,697	-0,132	0,034
-169,125	-53,236	-0,016	-0,005
-168,110	-12,482	0,032	-0,015
-167,096	-200,000	0,002	0,063
-166,081	-200,000	0,003	-0,065
-165,066	-35,502	-0,150	0,058
-164,052	-100,000	0,129	0,023
-163,037	-25,057	0,086	-0,037
-162,023	14,103	-0,007	-0,004
-161,008	395,085	0,036	-0,055
-159,993	354,786	-0,091	-0,131
-158,979	-30,834	-0,084	-0,034
-157,964	-48,951	-0,041	-0,014
-156,950	742,225	-0,079	-0,154
-155,935	12,185	-0,042	-0,023
-154,920	67,061	-0,087	-0,064
-153,906	-3,621	0,159	0,079
-152,891	557,411	0,062	0,109
-151,877	-200,000	-0,007	0,066
-150,862	529,681	0,037	-0,063
-149,847	45,079	0,099	-0,066
-148,833	-200,000	0,002	0,006
-147,818	-23,165	-0,055	0,024
-146,804	288,360	0,089	0,116
-145,789	-200,000	0,034	0,164
-144,775	-160,707	-0,134	0,005
-143,760	460,292	0,033	0,053
-142,745	-89,072	0,114	0,024
-141,731	-32,521	-0,112	-0,045
-140,716	316,415	0,039	-0,053
-139,702	156,667	0,056	0,056
-138,687	-200,000	-0,002	-0,017
-137,672	21,942	-0,063	0,037
-136,658	24,775	-0,157	-0,094
-135,643	-200,000	-0,030	0,117
-134,629	-200,000	0,033	-0,164
-133,614	2,839	0,141	0,074
-132,599	800,000	-0,040	0,093
-131,585	800,000	0,041	0,088
-130,570	-28,112	-0,013	-0,006
-129,556	-200,000	0,012	0,067
-128,541	190,939	0,088	-0,096
-127,526	800,000	-0,055	0,112
-126,512	800,000	0,027	0,061
-125,497	34,957	-0,021	0,013
-124,483	-200,000	-0,007	0,055
-123,468	-200,000	0,019	0,072
-122,453	46,771	-0,086	-0,057
-121,439	-95,172	0,094	0,018
-120,424	420,384	-0,051	0,079
-119,410	34,053	0,162	-0,101
