DTS Sentinel unit serial number:	SN410029Multiplexer serial number:	ORYXHardware model number:	OX2-SRSoftware version number:	ORYX F/W v4,00 Oryx Data Collector v3.7.2.0data status	okinstallation	B6 Nyhavnadifferential loss correction	single-endedforward channel	channel 2reverse channel	N/Adate	2023/12/09time	19:35:08forward acquisition time	300,00reverse acquisition time	0,00gamma	499,1914k internal	0,3130k external	0,3130temperature offset calibration	1,0000default loss term (dB/km)	0,3820temperature slope calibration	1,0000multiplexer offset coefficient	1,0000multiplexer slope coefficient	1,0000fibre end	0,00T internal ref (°C)	21,12T ext. ref 1 (°C)	5,07T ext. ref 2 (°C)	5,04length (m)	temperature (°C)	Stokes	anti-Stokes-744,400	215,794	0,044	-0,052
-743,385	-51,211	-0,237	-0,082
-742,371	-178,276	0,077	-0,001
-741,356	33,212	-0,227	0,146
-740,342	-104,510	0,145	0,025
-739,327	-23,704	-0,306	0,136
-738,312	-200,000	-0,011	-0,075
-737,298	-127,873	-0,176	-0,019
-736,283	31,045	0,118	0,075
-735,269	161,884	-0,121	0,126
-734,254	-1,308	0,071	0,037
-733,239	-19,249	-0,338	-0,155
-732,225	-165,660	0,202	-0,006
-731,210	29,751	-0,110	0,069
-730,196	132,975	0,086	-0,083
-729,181	800,000	0,023	-0,068
-728,167	38,796	0,048	0,032
-727,152	-200,000	0,013	0,070
-726,137	800,000	-0,041	0,096
-725,123	-200,000	-0,043	-0,144
-724,108	800,000	-0,064	-0,168
-723,094	131,166	-0,129	-0,123
-722,079	800,000	-0,031	-0,070
-721,064	-92,689	0,161	0,033
-720,050	617,907	-0,041	-0,076
-719,035	594,734	0,052	-0,097
-718,021	-82,328	-0,014	-0,003
-717,006	529,840	-0,057	-0,100
-715,991	628,816	-0,074	-0,140
-714,977	92,906	0,068	0,057
-713,962	135,734	-0,152	-0,147
-712,948	-200,000	0,014	0,094
-711,933	-200,000	-0,017	-0,090
-710,918	-90,476	-0,184	0,039
-709,904	305,930	-0,086	-0,120
-708,889	-200,000	-0,038	0,160
-707,875	800,000	-0,028	-0,058
-706,860	46,678	-0,046	0,032
-705,845	-105,032	-0,074	0,013
-704,831	107,135	0,062	0,055
-703,816	411,987	-0,088	0,139
-702,802	24,599	-0,052	-0,032
-701,787	800,000	0,025	-0,068
-700,772	-67,961	-0,040	0,012
-699,758	124,950	-0,020	-0,018
-698,743	-61,782	-0,052	-0,016
-697,729	107,957	0,038	-0,034
-696,714	800,000	-0,024	-0,064
-695,699	-2,587	-0,077	0,040
-694,685	800,000	-0,041	-0,122
-693,670	800,000	-0,081	-0,180
-692,656	800,000	-0,037	-0,089
-691,641	252,677	0,101	-0,129
-690,627	-200,000	0,010	0,191
-689,612	-200,000	0,002	0,039
-688,597	-200,000	-0,001	0,106
-687,583	-23,546	-0,097	-0,043
-686,568	-200,000	-0,038	0,140
-685,554	-176,113	-0,114	-0,002
-684,539	-200,000	0,004	0,100
-683,524	136,144	0,016	-0,016
-682,510	241,340	0,059	0,073
-681,495	0,878	-0,088	0,047
-680,481	800,000	-0,066	-0,142
-679,466	-72,101	-0,081	-0,022
-678,451	-65,760	-0,032	-0,009
-677,437	485,154	-0,030	-0,050
-676,422	-107,226	-0,063	-0,010
-675,408	86,559	-0,064	-0,053
-674,393	373,336	-0,096	0,145
-673,378	184,240	-0,025	0,027
-672,364	-51,590	-0,130	-0,045
-671,349	421,999	0,025	-0,039
-670,335	800,000	0,007	-0,020
-669,320	-200,000	-0,017	-0,068
-668,305	188,932	-0,034	-0,038
-667,291	800,000	0,069	-0,207
-666,276	-120,775	-0,077	-0,009
-665,262	800,000	-0,042	0,100
-664,247	-117,921	-0,090	-0,012
-663,232	209,410	0,048	0,056
-662,218	172,911	0,067	0,072
-661,203	-35,760	-0,057	0,023
-660,189	335,038	-0,038	0,055
-659,174	-77,324	-0,090	0,023
-658,159	-200,000	-0,004	-0,027
-657,145	-200,000	0,000	-0,153
-656,130	-200,000	-0,001	0,068
-655,116	-55,904	-0,042	-0,014
-654,101	800,000	0,025	0,062
-653,086	-3,498	-0,158	-0,081
-652,072	-108,479	-0,136	0,021
-651,057	-200,000	0,003	-0,174
-650,043	-200,000	0,011	-0,069
-649,028	800,000	0,025	-0,078
-648,014	-200,000	0,007	0,035
-646,999	800,000	0,082	0,187
-645,984	-144,189	-0,057	0,004
-644,970	-101,816	-0,073	-0,013
-643,955	405,107	0,092	-0,144
-642,941	115,148	-0,116	-0,105
-641,926	40,036	-0,067	-0,044
-640,911	32,842	-0,046	-0,029
-639,897	351,087	0,063	0,092
-638,882	148,929	-0,043	0,043
-637,868	252,453	-0,051	0,064
-636,853	-200,000	0,025	-0,118
-635,838	-101,844	-0,094	0,017
-634,824	-112,875	-0,152	0,022
-633,809	31,147	0,021	0,013
-632,795	-200,000	0,022	0,113
-631,780	501,410	0,031	-0,054
-630,765	-131,221	0,143	-0,014
-629,751	800,000	-0,026	-0,070
-628,736	101,809	-0,105	-0,091
-627,722	-86,055	0,078	0,018
-626,707	-184,237	0,062	0,001
-625,692	800,000	0,023	-0,051
-624,678	69,670	0,055	-0,042
-623,663	464,597	0,068	-0,113
-622,649	32,266	-0,125	0,080
-621,634	-79,306	-0,052	-0,013
-620,619	73,810	-0,117	-0,090
-619,605	530,174	-0,085	0,149
-618,590	101,882	0,116	0,100
-617,576	-200,000	0,001	0,085
-616,561	763,798	-0,017	0,034
-615,546	-117,868	-0,079	-0,010
-614,532	-200,000	0,009	0,165
-613,517	-200,000	0,017	-0,183
-612,503	-200,000	0,014	-0,087
-611,488	-16,480	0,046	0,021
-610,474	-152,198	0,022	0,001
-609,459	-200,000	0,008	0,082
-608,444	-200,000	0,008	0,094
-607,430	800,000	-0,020	0,046
-606,415	182,485	0,039	-0,042
-605,401	55,239	0,103	0,074
-604,386	-50,463	0,058	0,020
-603,371	-20,520	0,159	-0,072
-602,357	12,836	-0,012	0,007
-601,342	800,000	-0,034	-0,096
-600,328	70,473	0,050	-0,038
-599,313	219,881	0,098	-0,116
-598,298	-132,214	-0,117	-0,011
-597,284	-60,889	-0,129	0,040
-596,269	800,000	0,013	-0,032
-595,255	-124,489	-0,154	-0,017
-594,240	-85,574	-0,050	0,011
-593,225	140,005	-0,122	-0,119
-592,211	-200,000	0,009	-0,099
-591,196	230,305	-0,034	-0,041
-590,182	-12,326	-0,080	0,038
-589,167	-4,406	0,063	-0,032
-588,152	-130,111	0,076	-0,008
-587,138	-0,763	-0,117	-0,061
-586,123	77,773	-0,054	0,042
-585,109	-200,000	0,011	-0,110
-584,094	-200,000	-0,003	-0,072
-583,079	-99,155	-0,156	0,029
-582,065	407,212	0,029	0,046
-581,050	88,442	0,090	-0,074
-580,036	-88,564	-0,131	0,029
-579,021	800,000	-0,019	0,053
-578,006	288,476	-0,062	-0,084
-576,992	-200,000	-0,013	0,092
-575,977	40,001	0,101	-0,067
-574,963	-87,001	0,005	-0,001
-573,948	-27,023	-0,070	0,030
-572,934	800,000	0,022	0,066
-571,919	597,296	0,045	0,083
-570,904	-136,397	-0,052	-0,004
-569,890	99,117	-0,059	-0,051
-568,875	-200,000	-0,003	-0,127
-567,861	87,723	0,080	-0,065
-566,846	-200,000	-0,008	-0,082
-565,831	98,835	-0,022	-0,019
-564,817	-52,928	-0,087	0,029
-563,802	157,464	0,060	0,061
-562,788	-14,649	-0,076	-0,036
-561,773	-6,681	-0,096	-0,048
-560,758	-163,139	0,139	0,005
-559,744	800,000	0,066	-0,177
-558,729	800,000	0,058	0,140
-557,715	-21,214	-0,014	-0,006
-556,700	47,412	-0,026	-0,018
-555,685	-30,924	0,021	0,009
-554,671	226,917	0,104	-0,125
-553,656	800,000	-0,103	0,221
-552,642	189,177	-0,011	0,012
-551,627	-200,000	0,004	0,082
-550,612	-200,000	0,018	-0,167
-549,598	-0,404	-0,080	-0,042
-548,583	-135,870	0,036	-0,003
-547,569	-41,632	-0,088	0,033
-546,554	-164,261	-0,055	-0,002
-545,539	119,387	-0,041	0,038
-544,525	-200,000	0,016	0,132
-543,510	800,000	0,010	-0,022
-542,496	341,413	-0,054	0,078
-541,481	723,051	-0,098	-0,193
-540,466	336,334	0,089	-0,128
-539,452	-152,678	0,038	-0,002
-538,437	-7,500	0,045	-0,022
-537,423	-59,075	-0,043	-0,014
-536,408	78,377	-0,079	-0,062
-535,393	-88,841	-0,071	0,015
-534,379	478,805	0,067	-0,112
-533,364	-200,000	0,010	0,132
-532,350	-200,000	0,006	-0,039
-531,335	478,400	-0,037	0,063
-530,321	155,791	-0,057	-0,058
-529,306	791,390	0,011	0,022
-528,291	800,000	0,031	0,075
-527,277	68,281	0,068	-0,051
-526,262	-200,000	-0,030	0,143
-525,248	-161,841	0,151	-0,006
-524,233	-200,000	-0,003	-0,118
-523,218	-138,584	0,034	-0,003
-522,204	172,579	0,014	-0,015
-521,189	436,249	-0,083	-0,133
-520,175	229,481	0,098	-0,118
-519,160	225,820	-0,109	-0,131
-518,145	-95,523	0,061	0,012
-517,131	-15,432	0,097	-0,046
-516,116	-182,811	0,058	-0,001
-515,102	247,416	-0,026	0,032
-514,087	408,259	0,060	-0,095
-513,072	402,672	-0,041	0,064
-512,058	-200,000	-0,006	0,021
-511,043	-2,776	-0,062	-0,032
-510,029	-200,000	0,017	0,083
-509,014	800,000	-0,007	0,018
-507,999	338,713	0,102	0,147
-506,985	33,212	-0,018	-0,011
-505,970	53,956	-0,032	0,023
-504,956	65,440	-0,072	-0,054
-503,941	-40,155	-0,126	-0,048
-502,926	-119,783	-0,092	0,012
-501,912	132,570	0,091	0,087
-500,897	-200,000	-0,014	0,089
-499,883	114,798	-0,043	-0,038
-498,868	-101,709	-0,184	-0,033
-497,853	800,000	0,081	0,206
-496,839	11,616	-0,018	0,010
-495,824	425,731	-0,042	-0,067
-494,810	231,498	-0,052	0,063
-493,795	66,416	0,075	0,056
-492,781	800,000	0,013	-0,037
-491,766	-104,252	-0,109	-0,018
-490,751	-105,080	0,016	-0,003
-489,737	-92,051	0,190	0,039
-488,722	56,657	-0,100	-0,071
-487,708	-59,901	-0,104	0,032
-486,693	530,072	0,044	0,078
-485,678	-200,000	-0,026	-0,121
-484,664	79,785	-0,085	-0,067
-483,649	38,930	-0,072	-0,047
-482,635	-92,108	0,034	-0,007
-481,620	-62,662	0,025	0,008
-480,605	748,288	0,067	-0,134
-479,591	-67,630	0,100	-0,029
-478,576	488,046	0,009	0,015
-477,562	800,000	-0,039	-0,097
-476,547	-200,000	0,011	-0,054
-475,532	-200,000	-0,016	-0,083
-474,518	-200,000	-0,004	0,035
-473,503	-69,832	0,049	0,014
-472,489	-200,000	-0,018	-0,057
-471,474	800,000	0,044	-0,102
-470,459	22,943	-0,070	0,042
-469,445	119,846	-0,139	-0,127
-468,430	800,000	0,003	0,007
-467,416	137,434	-0,085	0,082
-466,401	404,859	-0,049	0,077
-465,386	548,909	0,024	0,042
-464,372	-200,000	0,006	0,110
-463,357	-200,000	0,015	-0,116
-462,343	-24,184	-0,202	-0,088
-461,328	-200,000	-0,016	-0,076
-460,313	68,081	0,008	-0,006
-459,299	-200,000	0,032	-0,150
-458,284	-200,000	0,009	0,029
-457,270	305,287	0,067	0,092
-456,255	-200,000	0,002	-0,040
-455,241	-65,127	-0,082	-0,024
-454,226	-200,000	-0,003	0,034
-453,211	490,776	0,021	-0,035
-452,197	680,884	0,041	-0,079
-451,182	800,000	-0,032	0,101
-450,168	57,178	-0,070	0,050
-449,153	-20,360	0,078	-0,035
-448,138	800,000	-0,029	-0,059
-447,124	-200,000	-0,011	-0,070
-446,109	15,288	0,026	-0,015
-445,095	800,000	0,024	0,064
-444,080	-200,000	-0,015	0,101
-443,065	-200,000	-0,003	-0,136
-442,051	-20,503	-0,107	-0,048
-441,036	-81,098	-0,044	-0,011
-440,022	35,313	-0,047	-0,030
-439,007	-200,000	-0,002	-0,080
-437,992	-200,000	-0,001	0,019
-436,978	252,717	-0,067	0,084
-435,963	531,101	-0,045	-0,078
-434,949	-200,000	0,045	-0,150
-433,934	168,268	0,058	-0,060
-432,919	-57,247	0,035	0,011
-431,905	295,993	0,019	-0,025
-430,890	491,760	0,059	0,099
-429,876	-110,807	0,070	0,010
-428,861	-136,502	0,080	-0,007
-427,846	-200,000	-0,002	-0,051
-426,832	229,056	0,035	0,041
-425,817	-200,000	-0,012	0,119
-424,803	-200,000	0,015	0,060
-423,788	-65,116	0,107	0,031
-422,773	69,141	0,099	-0,075
-421,759	181,062	-0,113	0,122
-420,744	534,618	-0,054	-0,095
-419,730	-200,000	0,000	0,076
-418,715	800,000	-0,060	-0,136
-417,701	800,000	-0,024	-0,054
-416,686	-200,000	-0,006	-0,043
-415,671	-179,048	0,086	0,001
-414,657	-200,000	0,040	0,182
-413,642	800,000	-0,032	-0,076
-412,628	800,000	-0,062	-0,132
-411,613	-200,000	-0,005	-0,031
-410,598	293,949	0,147	-0,198
-409,584	4,279	0,035	0,019
-408,569	800,000	0,016	0,046
-407,555	431,131	0,052	0,084
-406,540	-134,842	-0,112	0,010
-405,525	-141,125	-0,086	0,006
-404,511	800,000	-0,037	0,088
-403,496	-15,225	0,087	-0,041
-402,482	-22,942	-0,059	-0,026
-401,467	-45,810	0,152	-0,055
-400,452	278,085	-0,121	0,159
-399,438	623,756	0,042	-0,078
-398,423	119,319	-0,066	-0,060
-397,409	-158,743	-0,014	-0,001
-396,394	563,584	-0,016	0,029
-395,379	-200,000	-0,003	0,070
-394,365	191,031	-0,021	-0,024
-393,350	-200,000	-0,023	0,102
-392,336	-200,000	-0,003	0,051
-391,321	800,000	-0,047	-0,106
-390,306	-200,000	0,001	-0,052
-389,292	-186,783	-0,186	-0,002
-388,277	-88,192	-0,023	0,005
-387,263	-8,907	0,096	0,047
-386,248	305,025	0,061	0,083
-385,233	153,864	0,039	-0,039
-384,219	175,179	0,003	-0,004
-383,204	8,125	0,091	-0,050
-382,190	-166,430	0,071	-0,002
-381,175	237,063	0,054	0,066
-380,160	97,874	0,091	0,077
-379,146	800,000	0,012	-0,035
-378,131	393,395	0,043	0,065
-377,117	-91,273	0,086	-0,018
-376,102	424,843	-0,108	-0,171
-375,088	53,074	-0,143	-0,101
-374,073	800,000	0,067	0,146
-373,058	24,725	0,136	-0,082
-372,044	800,000	-0,069	0,184
-371,029	275,609	0,050	0,065
-370,015	-65,860	0,140	0,041
-369,000	6,836	-0,025	-0,014
-367,985	144,483	-0,089	-0,087
-366,971	-54,874	-0,041	-0,014
-365,956	-200,000	-0,009	0,047
-364,942	-83,050	0,155	-0,036
-363,927	-200,000	0,005	-0,047
-362,912	13,804	0,150	-0,085
-361,898	24,055	-0,077	0,046
-360,883	-77,608	-0,128	-0,032
-359,869	26,599	0,047	-0,029
-358,854	60,677	0,112	0,081
-357,839	800,000	-0,035	0,107
-356,825	672,919	0,051	-0,096
-355,810	206,978	-0,102	0,116
-354,796	127,913	-0,060	0,056
-353,781	-36,346	-0,149	-0,059
-352,766	800,000	-0,030	-0,096
-351,752	383,402	-0,017	-0,026
-350,737	800,000	0,028	-0,060
-349,723	50,267	0,068	-0,047
-348,708	-191,567	0,079	-0,001
-347,693	120,215	-0,116	0,105
-346,679	132,428	0,019	-0,018
-345,664	-200,000	0,009	-0,041
-344,650	800,000	-0,073	0,156
-343,635	800,000	0,049	-0,114
-342,620	-200,000	-0,037	0,140
-341,606	-134,653	0,093	0,008
-340,591	265,613	0,018	0,023
-339,577	-42,410	0,074	-0,028
-338,562	800,000	-0,020	0,045
-337,548	-117,798	-0,082	0,011
-336,533	-200,000	-0,035	0,134
-335,518	119,938	0,054	0,049
-334,504	800,000	-0,055	0,112
-333,489	156,253	0,063	0,064
-332,475	-159,716	-0,109	-0,004
-331,460	-45,896	0,074	0,027
-330,445	-200,000	0,009	-0,098
-329,431	-81,542	0,032	-0,008
-328,416	-200,000	-0,033	0,133
-327,402	800,000	0,061	0,136
-326,387	19,460	-0,059	-0,035
-325,372	-200,000	-0,094	0,000
-324,358	800,000	-0,022	-0,050
-323,343	-75,522	0,049	0,013
-322,329	800,000	0,050	-0,123
-321,314	800,000	-0,029	-0,086
-320,299	-77,646	0,164	0,041
-319,285	545,053	-0,029	0,052
-318,270	65,037	-0,105	0,078
-317,256	-19,811	-0,085	-0,038
-316,241	-49,954	0,054	-0,019
-315,226	-26,927	0,121	0,052
-314,212	-200,000	-0,004	0,131
-313,197	800,000	-0,030	-0,063
-312,183	-93,391	-0,073	-0,015
-311,168	-129,343	-0,074	-0,007
-310,153	-200,000	0,016	-0,150
-309,139	469,762	0,074	0,122
-308,124	-200,000	-0,004	-0,063
-307,110	40,149	0,094	0,062
-306,095	-106,527	0,034	-0,005
-305,080	-111,058	0,038	-0,006
-304,066	-157,753	-0,173	-0,007
-303,051	774,212	0,031	0,062
-302,037	-49,746	-0,084	0,029
-301,022	-200,000	-0,006	0,075
-300,008	234,538	0,082	0,099
-298,993	-200,000	0,008	-0,037
-297,978	-200,000	-0,009	-0,055
-296,964	800,000	-0,009	0,022
-295,949	634,763	-0,020	-0,037
-294,935	288,636	-0,080	-0,106
-293,920	-103,202	0,040	0,007
-292,905	800,000	-0,028	0,064
-291,891	-114,341	0,123	0,017
-290,876	275,476	0,058	0,075
-289,862	800,000	-0,084	0,211
-288,847	-200,000	-0,017	0,088
-287,832	213,298	0,100	-0,115
-286,818	-62,736	0,132	0,040
-285,803	-152,635	0,217	0,011
-284,789	800,000	0,031	0,064
-283,774	357,982	0,076	-0,111
-282,759	328,461	-0,034	-0,048
-281,745	161,958	-0,064	-0,066
-280,730	133,154	0,067	0,063
-279,716	206,557	-0,032	0,036
-278,701	8,953	0,036	0,020
-277,686	149,749	-0,080	0,079
-276,672	-117,065	0,189	0,025
-275,657	800,000	0,030	0,072
-274,643	-77,142	-0,050	-0,013
-273,628	152,214	0,010	0,010
-272,613	-99,192	-0,068	-0,013
-271,599	-41,203	0,112	-0,042
-270,584	-86,055	0,072	0,016
-269,570	205,923	-0,098	0,111
-268,555	800,000	0,023	-0,055
-267,540	255,803	-0,047	0,059
-266,526	59,346	0,114	-0,082
-265,511	-200,000	0,002	-0,055
-264,497	-135,298	-0,123	-0,011
-263,482	-200,000	-0,022	0,079
-262,467	467,717	0,132	0,216
-261,453	5,247	0,028	0,015
-260,438	245,146	0,089	-0,109
-259,424	57,110	-0,066	-0,047
-258,409	-200,000	0,014	-0,058
-257,395	-65,499	0,055	-0,016
-256,380	-200,000	-0,038	0,200
-255,365	84,200	0,036	0,029
-254,351	800,000	-0,020	0,056
-253,336	41,406	0,059	0,039
-252,322	147,968	-0,076	0,075
-251,307	-200,000	0,001	0,066
-250,292	115,116	-0,110	0,098
-249,278	-122,580	0,100	0,012
-248,263	-200,000	0,014	0,055
-247,249	449,009	0,028	0,046
-246,234	-200,000	-0,023	-0,127
-245,219	64,550	-0,095	-0,070
-244,205	64,297	0,011	0,008
-243,190	-87,530	0,032	-0,007
-242,176	-98,508	0,091	0,017
-241,161	-200,000	-0,000	0,124
-240,146	800,000	-0,012	-0,033
-239,132	-50,904	0,081	-0,028
-238,117	-7,204	-0,014	0,007
-237,103	-80,972	-0,133	0,032
-236,088	800,000	0,010	-0,029
-235,073	-6,759	0,060	0,030
-234,059	-200,000	0,023	0,166
-233,044	166,376	-0,025	0,026
-232,030	-200,000	0,025	-0,112
-231,015	-79,284	0,178	-0,044
-230,000	187,991	-0,084	-0,091
-228,986	218,728	-0,028	-0,033
-227,971	7,805	0,064	-0,035
-226,957	-200,000	0,003	0,051
-225,942	268,472	0,057	-0,073
-224,927	428,839	0,037	0,058
-223,913	800,000	0,006	0,015
-222,898	157,567	-0,081	-0,082
-221,884	-3,992	0,090	-0,045
-220,869	-200,000	0,006	0,078
-219,855	-200,000	0,035	0,142
-218,840	-95,247	0,101	0,020
-217,825	-200,000	0,001	0,043
-216,811	303,345	0,002	0,003
-215,796	800,000	-0,017	-0,047
-214,782	681,406	0,034	0,065
-213,767	45,970	-0,073	-0,049
-212,752	3,012	0,093	-0,049
-211,738	800,000	0,037	-0,097
-210,723	10,890	0,146	-0,081
-209,709	74,194	-0,073	0,056
-208,694	-200,000	0,003	0,036
-207,679	-93,511	0,049	0,010
-206,665	-200,000	-0,009	-0,104
-205,650	-110,547	-0,035	0,005
-204,636	331,361	-0,075	0,106
-203,621	-155,012	-0,119	-0,006
-202,606	800,000	0,044	-0,110
-201,592	260,656	0,029	-0,037
-200,577	5,856	0,039	0,021
-199,563	-124,124	0,054	0,006
-198,548	162,668	0,025	-0,025
-197,533	-200,000	0,023	0,076
-196,519	-48,861	0,080	-0,028
-195,504	800,000	-0,038	-0,091
-194,490	-200,000	0,007	-0,057
-193,475	401,610	-0,082	-0,125
-192,460	-200,000	0,026	0,118
-191,446	253,320	-0,092	0,115
-190,431	-159,532	0,164	-0,006
-189,417	167,166	-0,098	0,101
-188,402	120,707	0,010	-0,009
-187,387	90,118	-0,044	-0,036
-186,373	341,267	-0,071	-0,101
-185,358	-200,000	0,003	-0,035
-184,344	-157,539	-0,103	0,004
-183,329	63,316	0,050	0,037
-182,315	256,731	-0,080	0,100
-181,300	-154,636	0,111	0,005
-180,285	-200,000	-0,027	-0,156
-179,271	31,881	0,096	-0,060
-178,256	-53,085	-0,050	-0,017
-177,242	37,428	-0,059	0,038
-176,227	-23,413	-0,056	0,024
-175,212	800,000	-0,048	0,129
-174,198	159,476	0,098	0,099
-173,183	-117,569	-0,205	0,027
-172,169	87,761	0,084	0,068
-171,154	-63,056	-0,136	-0,041
-170,139	-200,000	-0,012	0,073
-169,125	34,074	-0,087	-0,055
-168,110	122,832	0,062	-0,057
-167,096	115,711	-0,034	-0,030
-166,081	483,605	0,041	-0,068
-165,066	-154,151	-0,016	0,001
-164,052	-33,691	0,056	-0,022
-163,037	119,726	0,035	0,031
-162,023	404,758	0,028	0,043
-161,008	116,449	-0,159	0,142
-159,993	152,819	0,073	-0,072
-158,979	-200,000	0,007	0,040
-157,964	469,674	-0,017	-0,028
-156,950	242,466	-0,066	0,080
-155,935	61,976	0,030	-0,022
-154,920	486,847	0,058	0,097
-153,906	-112,339	0,093	0,013
-152,891	-62,474	0,076	0,023
-151,877	718,406	-0,047	-0,092
-150,862	-200,000	0,013	-0,137
-149,847	193,479	0,094	-0,104
-148,833	-200,000	0,014	-0,093
-147,818	548,998	0,044	0,077
-146,804	522,465	0,058	0,099
-145,789	800,000	-0,029	0,080
-144,775	-200,000	-0,009	-0,040
-143,760	-200,000	0,018	-0,081
-142,745	-200,000	-0,018	-0,078
-141,731	6,570	-0,098	-0,053
-140,716	-8,167	0,099	0,048
-139,702	-200,000	0,019	-0,099
-138,687	593,180	-0,019	0,034
-137,672	74,241	0,062	-0,047
-136,658	-149,416	0,095	-0,005
-135,643	21,976	0,165	-0,097
-134,629	285,587	0,056	-0,074
-133,614	101,822	0,121	-0,102
-132,599	22,857	-0,044	0,026
-131,585	-119,084	0,108	0,014
-130,570	88,617	-0,044	-0,036
-129,556	67,991	0,052	-0,039
-128,541	-86,235	-0,115	-0,026
-127,526	800,000	0,010	0,022
-126,512	-200,000	-0,022	-0,078
-125,497	-200,000	0,010	0,132
-124,483	-33,196	0,031	0,012
-123,468	45,081	0,051	-0,034
-122,453	59,508	-0,182	-0,130
-121,439	-7,650	-0,134	-0,066
-120,424	-36,809	0,147	0,057
-119,410	-200,000	-0,012	0,059
