DTS Sentinel unit serial number:	SN410029Multiplexer serial number:	ORYXHardware model number:	OX2-SRSoftware version number:	ORYX F/W v4,00 Oryx Data Collector v3.7.2.0data status	okinstallation	B6 Nyhavnadifferential loss correction	single-endedforward channel	channel 2reverse channel	N/Adate	2023/12/07time	16:45:08forward acquisition time	300,00reverse acquisition time	0,00gamma	499,1914k internal	0,3164k external	0,3164temperature offset calibration	1,0000default loss term (dB/km)	0,3820temperature slope calibration	1,0000multiplexer offset coefficient	1,0000multiplexer slope coefficient	1,0000fibre end	0,00T internal ref (°C)	14,51T ext. ref 1 (°C)	-2,21T ext. ref 2 (°C)	-2,22length (m)	temperature (°C)	Stokes	anti-Stokes-744,400	-200,000	0,005	0,117
-743,385	-64,655	-0,284	-0,084
-742,371	800,000	0,084	0,222
-741,356	-164,018	-0,205	-0,007
-740,342	-200,000	0,128	0,000
-739,327	-108,489	-0,234	0,037
-738,312	112,705	0,115	0,102
-737,298	-52,774	-0,373	0,126
-736,283	-19,132	0,051	0,023
-735,269	-122,289	-0,270	0,032
-734,254	800,000	0,013	0,038
-733,239	3,884	-0,460	-0,246
-732,225	13,911	0,176	0,100
-731,210	-200,000	-0,006	0,199
-730,196	-111,792	-0,058	0,008
-729,181	-20,305	-0,083	-0,038
-728,167	800,000	-0,033	0,072
-727,152	800,000	0,053	0,111
-726,137	356,089	0,021	0,030
-725,123	800,000	-0,012	-0,034
-724,108	-200,000	0,020	-0,086
-723,094	800,000	0,026	0,075
-722,079	-55,540	-0,103	-0,034
-721,064	254,438	0,049	0,062
-720,050	800,000	0,067	-0,137
-719,035	-200,000	0,008	0,168
-718,021	795,060	-0,041	0,083
-717,006	525,049	-0,085	-0,147
-715,991	-200,000	0,012	-0,070
-714,977	230,960	-0,178	-0,214
-713,962	800,000	0,019	-0,049
-712,948	-200,000	-0,000	0,031
-711,933	800,000	-0,071	0,176
-710,918	-139,231	-0,100	0,008
-709,904	-165,560	0,067	0,002
-708,889	746,366	-0,023	-0,046
-707,875	207,449	-0,056	0,065
-706,860	-200,000	0,009	0,043
-705,845	-200,000	0,002	0,202
-704,831	129,638	-0,040	0,038
-703,816	-200,000	0,003	0,046
-702,802	-129,894	0,047	-0,005
-701,787	106,769	-0,188	0,164
-700,772	612,702	-0,014	0,027
-699,758	-200,000	-0,034	-0,181
-698,743	-47,959	-0,141	-0,050
-697,729	-200,000	-0,022	0,098
-696,714	-131,974	-0,048	-0,004
-695,699	450,160	-0,037	0,060
-694,685	-11,526	-0,069	0,033
-693,670	-81,195	-0,132	-0,032
-692,656	114,044	0,133	0,119
-691,641	139,842	0,062	-0,060
-690,627	287,818	0,015	0,020
-689,612	-123,943	0,079	-0,009
-688,597	-26,565	-0,084	0,036
-687,583	387,821	0,064	-0,098
-686,568	215,355	-0,051	0,060
-685,554	164,851	-0,102	-0,106
-684,539	-200,000	0,053	-0,178
-683,524	21,408	-0,080	0,048
-682,510	-99,049	0,061	-0,011
-681,495	458,155	-0,043	-0,070
-680,481	800,000	-0,003	0,010
-679,466	-200,000	0,008	-0,074
-678,451	164,117	0,061	-0,063
-677,437	539,051	0,012	-0,021
-676,422	-145,724	-0,080	-0,005
-675,408	9,167	-0,116	0,064
-674,393	800,000	-0,023	0,068
-673,378	-200,000	0,007	0,067
-672,364	59,946	-0,118	-0,085
-671,349	-200,000	-0,001	0,127
-670,335	-200,000	-0,010	0,049
-669,320	45,583	0,069	-0,047
-668,305	-200,000	-0,017	0,096
-667,291	-200,000	-0,045	0,150
-666,276	41,281	-0,067	-0,044
-665,262	-181,101	-0,057	-0,001
-664,247	800,000	0,013	-0,034
-663,232	-200,000	0,015	-0,093
-662,218	347,697	0,070	0,101
-661,203	-123,045	0,168	-0,020
-660,189	-130,582	0,151	0,015
-659,174	352,229	-0,091	0,132
-658,159	164,890	0,091	-0,095
-657,145	-200,000	0,030	0,117
-656,130	800,000	0,032	0,087
-655,116	379,720	-0,111	0,167
-654,101	272,813	0,040	0,052
-653,086	158,857	-0,018	0,018
-652,072	338,072	-0,074	0,106
-651,057	686,211	-0,046	0,088
-650,043	-115,821	-0,078	-0,011
-649,028	-101,607	-0,144	-0,025
-648,014	-80,895	-0,052	-0,012
-646,999	2,244	0,088	-0,047
-645,984	157,964	0,061	0,062
-644,970	-128,330	-0,019	-0,002
-643,955	-200,000	0,004	-0,027
-642,941	57,008	0,021	-0,015
-641,926	244,016	-0,063	0,077
-640,911	52,265	0,076	0,053
-639,897	273,251	-0,040	0,052
-638,882	-118,006	-0,095	-0,012
-637,868	648,451	-0,036	0,069
-636,853	-34,732	-0,084	0,034
-635,838	75,314	-0,141	-0,109
-634,824	-92,965	0,039	-0,008
-633,809	138,614	0,039	-0,037
-632,795	-200,000	0,007	0,046
-631,780	247,576	0,037	0,046
-630,765	-23,152	-0,020	0,009
-629,751	539,799	-0,035	0,061
-628,736	179,501	0,016	-0,017
-627,722	800,000	0,011	-0,023
-626,707	-200,000	0,007	0,054
-625,692	-97,171	-0,070	0,013
-624,678	-45,838	0,185	0,067
-623,663	800,000	0,020	-0,057
-622,649	-131,330	0,070	-0,007
-621,634	31,255	-0,106	-0,067
-620,619	800,000	0,009	-0,027
-619,605	629,947	0,048	-0,088
-618,590	66,296	-0,035	-0,026
-617,576	144,350	0,091	0,089
-616,561	800,000	0,016	0,045
-615,546	349,703	-0,072	0,105
-614,532	275,385	0,088	-0,114
-613,517	11,445	-0,063	0,035
-612,503	-200,000	0,011	-0,061
-611,488	50,972	0,110	0,076
-610,474	86,579	-0,081	-0,065
-609,459	142,384	-0,064	0,063
-608,444	314,748	-0,064	0,089
-607,430	267,421	-0,108	0,138
-606,415	608,577	0,022	0,041
-605,401	-104,078	-0,074	-0,012
-604,386	-200,000	0,003	0,022
-603,371	-200,000	0,037	0,122
-602,357	51,291	0,040	0,028
-601,342	-157,789	0,024	0,001
-600,328	-200,000	-0,000	-0,060
-599,313	-109,564	-0,089	0,014
-598,298	-89,983	0,022	-0,005
-597,284	52,730	-0,030	0,021
-596,269	216,516	-0,103	-0,120
-595,255	95,804	0,063	0,052
-594,240	800,000	-0,045	-0,110
-593,225	179,869	0,014	0,015
-592,211	800,000	-0,026	0,072
-591,196	-39,326	-0,061	-0,023
-590,182	-91,078	0,086	-0,018
-589,167	-115,621	-0,138	0,019
-588,152	-200,000	0,004	-0,063
-587,138	152,936	-0,085	-0,085
-586,123	161,642	0,101	-0,103
-585,109	-200,000	0,010	-0,191
-584,094	519,595	0,071	-0,121
-583,079	277,776	0,066	0,087
-582,065	-129,134	-0,087	0,009
-581,050	82,307	0,059	0,046
-580,036	44,937	0,014	-0,009
-579,021	2,062	0,041	-0,022
-578,006	31,310	-0,150	-0,094
-576,992	800,000	-0,021	-0,051
-575,977	3,579	0,040	-0,021
-574,963	607,179	-0,068	0,125
-573,948	87,473	0,025	0,020
-572,934	33,758	-0,037	-0,024
-571,919	94,740	-0,028	-0,023
-570,904	137,765	0,012	0,011
-569,890	-200,000	-0,004	-0,049
-568,875	92,750	-0,059	0,049
-567,861	-200,000	0,015	-0,131
-566,846	341,844	0,066	-0,095
-565,831	-8,450	-0,063	-0,031
-564,817	-200,000	0,029	-0,181
-563,802	119,012	-0,160	-0,144
-562,788	-200,000	-0,031	0,121
-561,773	800,000	0,035	0,089
-560,758	9,533	-0,035	0,019
-559,744	800,000	-0,024	0,074
-558,729	-90,934	0,069	-0,014
-557,715	89,177	-0,028	-0,023
-556,700	9,223	-0,075	-0,041
-555,685	-36,554	0,085	-0,033
-554,671	-77,546	0,026	-0,007
-553,656	-200,000	-0,005	0,109
-552,642	36,605	0,060	0,039
-551,627	-85,997	-0,068	-0,015
-550,612	-200,000	0,032	-0,107
-549,598	800,000	-0,045	0,104
-548,583	370,770	-0,055	0,082
-547,569	-200,000	0,003	-0,049
-546,554	469,255	-0,072	0,119
-545,539	477,179	-0,036	0,060
-544,525	800,000	0,063	0,157
-543,510	544,617	-0,081	0,141
-542,496	-200,000	0,006	-0,059
-541,481	57,558	0,174	-0,124
-540,466	417,624	-0,047	0,074
-539,452	800,000	0,015	-0,037
-538,437	-200,000	0,003	-0,085
-537,423	-200,000	0,002	-0,036
-536,408	66,986	0,048	-0,035
-535,393	-87,508	-0,101	-0,022
-534,379	-88,531	0,037	0,008
-533,364	316,159	-0,016	0,022
-532,350	-200,000	0,026	0,160
-531,335	800,000	0,023	0,056
-530,321	504,203	0,094	0,160
-529,306	-8,232	-0,130	0,064
-528,291	733,219	-0,033	-0,064
-527,277	-200,000	-0,041	0,132
-526,262	199,928	-0,045	-0,050
-525,248	-128,768	-0,085	0,009
-524,233	-200,000	-0,006	-0,075
-523,218	-29,187	0,037	-0,015
-522,204	632,525	-0,054	-0,101
-521,189	6,561	0,176	-0,095
-520,175	-57,433	0,080	-0,026
-519,160	-200,000	-0,019	0,079
-518,145	800,000	0,016	0,041
-517,131	363,160	0,069	0,102
-516,116	37,793	-0,165	0,107
-515,102	-200,000	0,008	0,071
-514,087	-107,255	-0,047	0,007
-513,072	800,000	-0,043	0,086
-512,058	312,981	-0,046	0,064
-511,043	-200,000	0,002	0,159
-510,029	234,969	-0,048	0,058
-509,014	-74,873	-0,069	-0,018
-507,999	800,000	-0,042	0,092
-506,985	660,704	-0,024	-0,045
-505,970	41,933	0,071	0,047
-504,956	337,279	-0,040	0,056
-503,941	-47,636	0,048	-0,017
-502,926	634,510	0,046	0,085
-501,912	-200,000	0,033	-0,112
-500,897	153,824	0,092	-0,092
-499,883	-200,000	-0,008	0,088
-498,868	-82,881	-0,066	-0,015
-497,853	-122,118	-0,019	0,002
-496,839	-200,000	0,018	-0,072
-495,824	-6,251	0,024	-0,012
-494,810	404,719	0,027	0,041
-493,795	-39,095	0,104	0,040
-492,781	475,435	-0,110	-0,182
-491,766	17,712	0,083	0,048
-490,751	-168,440	-0,132	0,004
-489,737	800,000	0,038	0,081
-488,722	-200,000	0,013	-0,097
-487,708	-41,344	0,166	0,062
-486,693	13,453	0,026	0,015
-485,678	491,001	0,040	-0,066
-484,664	-98,796	-0,182	-0,033
-483,649	-27,959	-0,016	-0,007
-482,635	800,000	0,028	-0,076
-481,620	13,437	0,093	0,052
-480,605	-200,000	0,033	0,182
-479,591	799,118	-0,031	0,063
-478,576	469,406	0,037	0,061
-477,562	-17,314	-0,165	-0,076
-476,547	242,260	-0,105	-0,128
-475,532	74,089	-0,104	0,080
-474,518	-200,000	-0,012	0,110
-473,503	518,942	0,058	0,100
-472,489	223,674	-0,034	0,040
-471,474	-112,827	0,094	0,013
-470,459	10,268	-0,090	-0,050
-469,445	800,000	0,047	0,122
-468,430	23,336	-0,072	0,043
-467,416	634,822	0,074	-0,137
-466,401	800,000	-0,038	-0,090
-465,386	-200,000	0,012	0,040
-464,372	800,000	0,027	-0,061
-463,357	25,473	-0,048	-0,029
-462,343	-200,000	0,028	-0,098
-461,328	-164,566	0,072	-0,002
-460,313	147,695	-0,045	0,044
-459,299	-143,872	-0,050	-0,003
-458,284	32,383	0,182	0,114
-457,270	800,000	0,026	-0,070
-456,255	800,000	-0,068	-0,158
-455,241	-74,432	-0,118	-0,031
-454,226	-200,000	-0,008	-0,027
-453,211	-200,000	0,014	0,097
-452,197	415,494	-0,075	-0,117
-451,182	-70,555	0,107	0,029
-450,168	-200,000	-0,009	-0,071
-449,153	19,269	0,026	-0,015
-448,138	800,000	0,013	-0,039
-447,124	224,448	-0,095	0,112
-446,109	10,404	0,110	-0,061
-445,095	-200,000	0,013	0,045
-444,080	138,194	-0,153	0,146
-443,065	-66,086	-0,081	0,023
-442,051	-200,000	-0,009	-0,123
-441,036	88,086	-0,089	-0,072
-440,022	141,622	0,042	0,041
-439,007	-200,000	0,012	0,062
-437,992	209,202	0,039	0,045
-436,978	130,046	-0,126	0,117
-435,963	-19,424	0,073	0,033
-434,949	71,857	-0,059	0,045
-433,934	800,000	0,016	0,042
-432,919	79,689	-0,028	-0,022
-431,905	604,092	0,058	-0,105
-430,890	17,619	-0,075	0,043
-429,876	-144,508	0,146	-0,010
-428,861	436,440	0,011	-0,018
-427,846	-96,425	0,106	-0,020
-426,832	-17,450	0,075	0,034
-425,817	-200,000	-0,009	-0,038
-424,803	-88,501	0,161	-0,035
-423,788	309,579	-0,029	-0,039
-422,773	122,467	0,037	0,034
-421,759	-200,000	-0,044	0,159
-420,744	-131,881	0,136	-0,013
-419,730	-139,092	-0,045	-0,004
-418,715	84,614	-0,050	0,040
-417,701	-200,000	0,005	-0,091
-416,686	-200,000	-0,100	-0,000
-415,671	800,000	0,043	0,089
-414,657	166,013	-0,038	0,040
-413,642	800,000	-0,060	0,182
-412,628	-200,000	0,042	0,182
-411,613	-200,000	-0,021	0,090
-410,598	0,403	-0,117	-0,061
-409,584	-79,683	0,098	0,024
-408,569	-200,000	-0,026	0,084
-407,555	28,048	0,151	0,093
-406,540	37,021	-0,082	0,053
-405,525	-200,000	0,010	-0,055
-404,511	-200,000	-0,025	-0,081
-403,496	78,930	-0,152	-0,118
-402,482	508,229	-0,057	-0,096
-401,467	-9,418	0,094	0,045
-400,452	349,321	-0,025	0,036
-399,438	-200,000	-0,015	0,095
-398,423	-200,000	-0,017	-0,094
-397,409	-200,000	0,023	0,117
-396,394	-200,000	-0,012	-0,108
-395,379	-123,532	-0,108	-0,012
-394,365	-114,773	0,099	0,014
-393,350	-42,051	-0,068	-0,025
-392,336	128,343	0,036	-0,034
-391,321	-112,480	0,140	-0,020
-390,306	95,146	-0,098	-0,081
-389,292	232,080	0,067	-0,080
-388,277	-200,000	0,013	-0,115
-387,263	-200,000	0,013	-0,061
-386,248	-169,362	0,080	0,002
-385,233	10,596	-0,044	-0,024
-384,219	-152,336	0,070	0,004
-383,204	-200,000	0,017	-0,160
-382,190	-17,143	-0,148	-0,067
-381,175	-43,232	0,151	0,055
-380,160	-32,533	0,026	-0,011
-379,146	201,246	0,061	0,068
-378,131	367,380	-0,067	0,099
-377,117	63,969	-0,105	-0,076
-376,102	-200,000	-0,013	-0,042
-375,088	140,378	0,093	-0,089
-374,073	-200,000	-0,029	-0,106
-373,058	-200,000	-0,008	0,087
-372,044	12,333	0,055	0,031
-371,029	793,116	0,025	0,050
-370,015	800,000	-0,055	-0,121
-369,000	133,373	0,056	-0,052
-367,985	106,001	-0,042	-0,036
-366,971	800,000	0,037	-0,092
-365,956	-117,357	0,135	-0,018
-364,942	71,174	-0,071	-0,053
-363,927	-200,000	-0,001	-0,116
-362,912	800,000	0,022	0,056
-361,898	-19,835	-0,020	0,009
-360,883	2,429	-0,055	0,029
-359,869	266,847	-0,047	0,060
-358,854	800,000	0,051	-0,118
-357,839	498,180	0,027	-0,046
-356,825	800,000	0,058	0,159
-355,810	-40,791	-0,047	0,018
-354,796	800,000	0,027	-0,058
-353,781	-200,000	-0,004	0,085
-352,766	-102,701	-0,044	0,008
-351,752	-69,729	-0,007	0,002
-350,737	155,156	0,138	0,138
-349,723	800,000	0,018	0,045
-348,708	80,254	0,005	-0,004
-347,693	617,463	0,059	-0,108
-346,679	-133,141	-0,047	-0,004
-345,664	-200,000	-0,017	-0,055
-344,650	-200,000	0,032	0,144
-343,635	-76,964	-0,064	0,016
-342,620	-86,229	0,086	-0,019
-341,606	-200,000	-0,023	-0,196
-340,591	-200,000	-0,004	0,016
-339,577	-76,415	0,025	0,006
-338,562	-8,475	-0,139	-0,067
-337,548	154,864	-0,041	-0,041
-336,533	178,865	0,061	0,065
-335,518	-200,000	-0,008	-0,042
-334,504	-132,616	-0,123	0,011
-333,489	224,245	-0,099	0,116
-332,475	-200,000	0,027	-0,100
-331,460	-163,107	-0,071	-0,002
-330,445	-200,000	-0,026	0,108
-329,431	671,056	0,036	0,068
-328,416	-200,000	0,018	0,098
-327,402	-59,802	-0,098	0,030
-326,387	-200,000	-0,031	0,113
-325,372	-117,814	-0,121	-0,016
-324,358	-72,496	-0,153	-0,041
-323,343	506,318	-0,055	0,092
-322,329	-21,302	0,144	0,063
-321,314	-86,057	0,003	0,001
-320,299	-102,125	0,065	0,011
-319,285	403,700	-0,017	-0,026
-318,270	-53,440	-0,064	-0,021
-317,256	89,507	0,061	-0,049
-316,241	-88,078	-0,054	0,012
-315,226	-200,000	0,030	-0,112
-314,212	-141,891	-0,092	0,007
-313,197	800,000	0,018	0,046
-312,183	800,000	-0,039	-0,104
-311,168	108,891	0,054	-0,047
-310,153	-38,959	0,061	0,023
-309,139	431,122	-0,078	0,123
-308,124	-14,977	0,156	0,072
-307,110	329,498	0,075	0,104
-306,095	800,000	-0,018	-0,052
-305,080	220,088	0,088	0,102
-304,066	126,176	-0,081	0,074
-303,051	93,981	-0,080	-0,066
-302,037	-76,415	0,099	-0,025
-301,022	-200,000	-0,025	-0,127
-300,008	-200,000	-0,012	-0,041
-298,993	-200,000	0,015	-0,119
-297,978	-116,102	0,102	-0,014
-296,964	-192,008	0,150	0,001
-295,949	-53,140	-0,147	0,048
-294,935	20,388	-0,126	-0,074
-293,920	-200,000	-0,021	-0,101
-292,905	210,279	-0,018	-0,020
-291,891	315,696	0,021	-0,028
-290,876	209,174	0,052	0,059
-289,862	-17,735	0,151	-0,068
-288,847	800,000	-0,044	-0,094
-287,832	-168,707	-0,042	0,001
-286,818	-42,865	0,032	-0,012
-285,803	79,303	0,092	0,072
-284,789	800,000	0,036	-0,090
-283,774	-200,000	0,022	0,101
-282,759	-129,616	-0,078	0,008
-281,745	-127,150	-0,076	-0,008
-280,730	463,253	-0,031	0,051
-279,716	-200,000	-0,015	-0,070
-278,701	223,233	0,138	0,161
-277,686	622,711	-0,014	0,025
-276,672	-68,040	-0,099	0,028
-275,657	294,989	0,053	0,070
-274,643	-123,574	0,049	-0,006
-273,628	416,985	0,036	-0,056
-272,613	334,982	0,040	-0,057
-271,599	40,221	-0,157	-0,102
-270,584	-38,884	0,089	-0,034
-269,570	30,508	0,022	0,014
-268,555	40,536	-0,092	0,060
-267,540	800,000	0,012	-0,025
-266,526	337,752	0,063	-0,088
-265,511	800,000	0,015	0,035
-264,497	800,000	0,048	-0,122
-263,482	-200,000	0,008	-0,036
-262,467	-200,000	0,042	0,165
-261,453	800,000	0,018	-0,042
-260,438	108,314	0,032	-0,028
-259,424	12,843	0,101	0,056
-258,409	133,732	-0,017	-0,016
-257,395	800,000	-0,045	0,138
-256,380	45,292	0,129	0,086
-255,365	-32,811	0,186	-0,074
-254,351	168,999	0,163	0,168
-253,336	264,186	0,060	0,076
-252,322	-177,785	0,035	-0,001
-251,307	128,035	0,102	-0,094
-250,292	800,000	-0,045	0,114
-249,278	-85,010	0,095	0,021
-248,263	420,809	0,036	0,056
-247,249	-61,968	-0,034	0,010
-246,234	-13,070	-0,068	-0,032
-245,219	-23,209	-0,051	0,022
-244,205	800,000	-0,022	0,045
-243,190	-131,582	0,260	-0,024
-242,176	-112,769	-0,042	-0,006
-241,161	-200,000	-0,024	0,113
-240,146	-200,000	-0,012	-0,088
-239,132	-200,000	0,012	0,139
-238,117	-200,000	-0,015	-0,117
-237,103	134,048	-0,207	-0,194
-236,088	-93,929	0,194	0,038
-235,073	28,514	0,129	0,079
-234,059	-200,000	-0,009	0,052
-233,044	800,000	0,039	-0,094
-232,030	-200,000	-0,027	0,102
-231,015	356,400	0,018	0,026
-230,000	-113,028	-0,122	0,017
-228,986	-200,000	-0,009	-0,062
-227,971	5,915	0,099	-0,053
-226,957	162,300	-0,065	-0,066
-225,942	117,447	0,085	0,075
-224,927	92,359	-0,051	0,041
-223,913	0,948	0,043	-0,022
-222,898	-200,000	-0,009	-0,120
-221,884	-200,000	0,004	0,028
-220,869	196,372	-0,032	-0,035
-219,855	-67,650	0,141	0,040
-218,840	108,943	-0,128	0,110
-217,825	-200,000	0,001	0,012
-216,811	52,341	-0,142	-0,097
-215,796	-200,000	-0,018	-0,062
-214,782	-44,868	0,085	-0,030
-213,767	537,918	-0,053	0,091
-212,752	454,072	0,025	0,040
-211,738	12,161	0,040	-0,022
-210,723	79,925	-0,073	0,057
-209,709	143,876	-0,079	-0,076
-208,694	531,572	-0,060	0,102
-207,679	264,164	-0,050	-0,063
-206,665	-200,000	0,017	0,130
-205,650	800,000	0,035	-0,078
-204,636	-200,000	0,027	0,227
-203,621	-200,000	-0,005	0,098
-202,606	181,859	0,048	-0,051
-201,592	-200,000	-0,011	-0,098
-200,577	-78,471	-0,043	0,011
-199,563	123,657	-0,063	-0,057
-198,548	-132,854	0,102	0,009
-197,533	467,433	-0,055	-0,088
-196,519	130,120	-0,079	0,073
-195,504	649,106	-0,065	-0,120
-194,490	800,000	-0,049	-0,117
-193,475	-102,979	0,110	0,019
-192,460	373,023	0,108	0,159
-191,446	-31,643	-0,069	-0,028
-190,431	800,000	0,034	0,107
-189,417	-65,812	0,087	-0,025
-188,402	-200,000	-0,026	0,097
-187,387	-167,464	0,239	-0,007
-186,373	-60,396	-0,125	-0,038
-185,358	310,840	-0,032	-0,043
-184,344	105,462	-0,080	-0,068
-183,329	129,964	-0,032	0,030
-182,315	800,000	-0,063	-0,143
-181,300	-200,000	0,017	-0,127
-180,285	343,897	-0,113	-0,160
-179,271	687,053	0,028	0,053
-178,256	-155,914	-0,080	0,004
-177,242	-1,997	-0,036	0,018
-176,227	44,621	-0,054	-0,036
-175,212	-87,254	0,098	0,021
-174,198	-200,000	-0,031	-0,106
-173,183	800,000	-0,048	-0,153
-172,169	15,878	-0,033	-0,019
-171,154	-200,000	-0,006	-0,185
-170,139	-73,323	-0,047	-0,012
-169,125	-133,027	0,046	-0,004
-168,110	268,651	-0,020	0,025
-167,096	12,773	0,151	-0,084
-166,081	152,376	-0,081	0,079
-165,066	800,000	0,030	-0,088
-164,052	483,873	0,028	-0,047
-163,037	-87,181	0,169	-0,037
-162,023	98,375	0,032	0,026
-161,008	-154,867	-0,103	0,005
-159,993	16,187	0,124	0,070
-158,979	-152,425	0,050	0,003
-157,964	800,000	0,058	-0,165
-156,950	-200,000	-0,035	-0,118
-155,935	59,091	0,079	0,056
-154,920	222,449	-0,012	-0,014
-153,906	146,579	0,043	0,041
-152,891	-200,000	0,047	-0,165
-151,877	-200,000	-0,006	0,057
-150,862	-61,385	0,052	-0,016
-149,847	800,000	0,020	0,043
-148,833	-28,076	-0,092	0,038
-147,818	209,561	-0,049	-0,055
-146,804	-54,920	0,093	0,030
-145,789	-200,000	-0,033	0,127
-144,775	-16,166	0,054	-0,024
-143,760	-106,826	0,056	-0,009
-142,745	480,092	0,031	-0,050
-141,731	800,000	0,034	0,074
-140,716	169,991	0,044	-0,045
-139,702	72,716	0,046	-0,035
-138,687	-126,584	0,080	0,008
-137,672	155,497	0,035	-0,035
-136,658	-200,000	-0,018	-0,098
-135,643	-200,000	0,033	0,181
-134,629	800,000	-0,023	-0,051
-133,614	-200,000	0,007	0,026
-132,599	66,441	0,099	0,072
-131,585	278,739	-0,046	0,060
-130,570	194,378	0,102	-0,111
-129,556	236,424	-0,075	-0,090
-128,541	139,565	-0,037	0,035
-127,526	800,000	-0,029	0,085
-126,512	-200,000	-0,007	0,148
-125,497	-200,000	-0,011	0,038
-124,483	-78,702	0,097	-0,024
-123,468	34,223	-0,127	0,080
-122,453	424,074	-0,046	0,072
-121,439	800,000	0,012	-0,038
-120,424	19,894	0,024	-0,014
-119,410	-108,482	0,062	0,010
