DTS Sentinel unit serial number:	SN410029Multiplexer serial number:	ORYXHardware model number:	OX2-SRSoftware version number:	ORYX F/W v4,00 Oryx Data Collector v3.7.2.0data status	okinstallation	B6 Nyhavnadifferential loss correction	single-endedforward channel	channel 2reverse channel	N/Adate	2023/12/09time	07:10:08forward acquisition time	300,00reverse acquisition time	0,00gamma	499,1914k internal	0,3139k external	0,3139temperature offset calibration	1,0000default loss term (dB/km)	0,3820temperature slope calibration	1,0000multiplexer offset coefficient	1,0000multiplexer slope coefficient	1,0000fibre end	0,00T internal ref (°C)	18,57T ext. ref 1 (°C)	2,06T ext. ref 2 (°C)	2,05length (m)	temperature (°C)	Stokes	anti-Stokes-744,400	315,122	-0,092	0,128
-743,385	-87,612	-0,294	0,065
-742,371	-48,509	0,132	0,047
-741,356	-15,493	-0,208	0,098
-740,342	39,037	-0,056	0,037
-739,327	-161,831	-0,243	0,009
-738,312	149,635	0,058	0,058
-737,298	-103,981	-0,280	0,048
-736,283	-85,310	0,103	-0,024
-735,269	-8,467	-0,234	0,116
-734,254	800,000	-0,019	-0,044
-733,239	-19,370	-0,453	-0,208
-732,225	-133,963	0,075	0,007
-731,210	-118,404	0,115	0,015
-730,196	253,594	-0,069	-0,087
-729,181	-1,205	-0,140	0,073
-728,167	147,118	-0,022	0,022
-727,152	-200,000	-0,015	-0,079
-726,137	800,000	-0,029	0,068
-725,123	-16,030	-0,030	0,014
-724,108	127,886	-0,077	-0,072
-723,094	492,606	-0,057	-0,097
-722,079	652,136	0,013	-0,024
-721,064	-98,145	-0,053	0,010
-720,050	-31,567	0,091	0,038
-719,035	281,260	-0,034	-0,045
-718,021	800,000	-0,017	0,037
-717,006	-3,913	-0,235	-0,120
-715,991	-200,000	-0,026	-0,120
-714,977	-60,885	-0,126	-0,039
-713,962	800,000	-0,024	0,076
-712,948	49,161	-0,055	0,038
-711,933	-70,015	-0,080	0,022
-710,918	-56,449	-0,102	-0,033
-709,904	-74,456	-0,136	0,036
-708,889	34,388	0,059	-0,038
-707,875	332,486	-0,084	-0,121
-706,860	105,388	0,122	-0,107
-705,845	-200,000	0,020	-0,075
-704,831	-200,000	0,010	-0,116
-703,816	268,166	0,032	0,042
-702,802	-140,070	0,084	-0,006
-701,787	-70,908	-0,074	0,021
-700,772	-86,156	-0,078	-0,018
-699,758	-50,732	0,150	-0,052
-698,743	-128,727	-0,116	0,012
-697,729	365,792	0,042	0,062
-696,714	467,697	-0,066	0,110
-695,699	780,891	-0,020	-0,040
-694,685	-200,000	-0,038	-0,136
-693,670	0,568	0,059	-0,031
-692,656	800,000	0,021	-0,056
-691,641	-186,706	0,034	0,000
-690,627	171,307	0,014	-0,015
-689,612	-56,202	0,024	-0,008
-688,597	420,934	0,014	0,022
-687,583	67,228	-0,050	-0,037
-686,568	208,550	0,033	-0,038
-685,554	380,862	-0,025	-0,038
-684,539	-50,419	0,045	0,016
-683,524	112,682	-0,027	-0,024
-682,510	-32,277	-0,070	-0,029
-681,495	-22,715	0,084	-0,038
-680,481	284,996	-0,116	-0,155
-679,466	-200,000	-0,019	0,118
-678,451	-50,419	0,038	0,013
-677,437	128,023	-0,095	-0,090
-676,422	-155,526	-0,120	0,006
-675,408	-125,804	-0,071	-0,008
-674,393	-106,749	-0,085	0,014
-673,378	-124,010	-0,181	-0,021
-672,364	-200,000	-0,014	-0,158
-671,349	-17,231	-0,089	-0,042
-670,335	248,581	-0,013	-0,017
-669,320	249,556	0,030	-0,038
-668,305	-200,000	0,012	0,143
-667,291	67,343	-0,053	-0,040
-666,276	188,089	-0,069	-0,076
-665,262	-200,000	0,009	-0,051
-664,247	800,000	0,046	-0,096
-663,232	2,470	-0,048	0,026
-662,218	51,024	-0,101	0,071
-661,203	-17,526	0,032	-0,015
-660,189	-75,860	-0,049	-0,013
-659,174	113,370	-0,084	-0,075
-658,159	53,415	-0,069	-0,049
-657,145	-200,000	-0,002	0,026
-656,130	-200,000	-0,033	0,117
-655,116	800,000	-0,036	-0,086
-654,101	75,293	0,076	0,059
-653,086	-200,000	0,016	-0,136
-652,072	-200,000	-0,002	-0,049
-651,057	-153,792	-0,112	-0,006
-650,043	-69,937	-0,189	0,053
-649,028	68,815	-0,004	-0,003
-648,014	-200,000	0,007	0,192
-646,999	-89,652	-0,187	0,040
-645,984	800,000	0,025	0,082
-644,970	570,150	-0,019	0,034
-643,955	-123,886	-0,121	-0,014
-642,941	800,000	0,005	-0,017
-641,926	-200,000	-0,021	-0,115
-640,911	-200,000	-0,035	-0,140
-639,897	762,644	-0,043	0,087
-638,882	-126,082	0,097	-0,011
-637,868	-93,478	-0,096	-0,020
-636,853	-200,000	-0,020	-0,082
-635,838	-200,000	-0,029	-0,116
-634,824	-200,000	0,042	-0,144
-633,809	169,383	0,097	-0,103
-632,795	-200,000	0,029	0,187
-631,780	486,965	-0,062	0,105
-630,765	-200,000	-0,009	-0,056
-629,751	800,000	-0,055	-0,113
-628,736	-200,000	0,012	-0,089
-627,722	-116,387	0,104	-0,014
-626,707	31,574	0,055	-0,035
-625,692	18,172	0,111	-0,065
-624,678	-200,000	0,005	0,182
-623,663	150,784	0,081	-0,081
-622,649	43,257	-0,029	-0,020
-621,634	106,794	-0,130	-0,114
-620,619	800,000	-0,034	-0,101
-619,605	137,083	-0,013	0,012
-618,590	-130,466	-0,081	-0,008
-617,576	-63,731	-0,025	0,007
-616,561	-200,000	0,011	-0,078
-615,546	-0,518	-0,100	0,052
-614,532	-151,534	0,101	0,005
-613,517	800,000	0,014	-0,035
-612,503	-78,623	0,152	-0,038
-611,488	87,166	-0,112	0,091
-610,474	23,497	0,091	0,055
-609,459	233,445	0,061	-0,074
-608,444	-200,000	0,000	-0,033
-607,430	24,689	-0,142	-0,086
-606,415	-200,000	0,013	-0,141
-605,401	-200,000	-0,006	-0,067
-604,386	121,453	-0,065	0,060
-603,371	300,530	-0,039	0,053
-602,357	-87,370	0,117	0,026
-601,342	147,203	0,041	0,041
-600,328	98,120	0,109	-0,093
-599,313	-128,485	-0,145	0,015
-598,298	-200,000	-0,003	0,102
-597,284	-8,929	0,115	0,056
-596,269	517,498	0,017	0,030
-595,255	416,514	0,059	-0,093
-594,240	-200,000	-0,006	-0,035
-593,225	-15,756	0,070	0,033
-592,211	-13,078	-0,101	-0,048
-591,196	-88,043	0,146	-0,032
-590,182	395,435	-0,028	-0,044
-589,167	800,000	0,026	0,068
-588,152	50,134	-0,095	0,066
-587,138	-34,414	-0,065	-0,026
-586,123	800,000	0,058	-0,131
-585,109	701,717	0,032	-0,063
-584,094	-200,000	0,017	-0,110
-583,079	-24,095	-0,114	0,050
-582,065	-54,941	-0,119	0,039
-581,050	-200,000	-0,003	-0,065
-580,036	789,826	0,013	-0,026
-579,021	53,522	-0,071	-0,050
-578,006	-197,485	-0,092	-0,000
-576,992	42,377	-0,086	-0,058
-575,977	-200,000	0,000	-0,143
-574,963	364,290	0,081	0,121
-573,948	-81,116	0,090	0,022
-572,934	-200,000	-0,003	-0,030
-571,919	-200,000	-0,017	-0,082
-570,904	-55,526	0,113	0,037
-569,890	153,631	0,086	0,087
-568,875	-66,886	-0,035	0,010
-567,861	-15,506	0,070	-0,033
-566,846	800,000	0,025	0,061
-565,831	-93,848	-0,213	-0,043
-564,817	212,772	0,018	-0,021
-563,802	-43,716	0,052	0,019
-562,788	206,756	0,041	-0,047
-561,773	630,389	0,067	-0,126
-560,758	-168,606	0,091	0,003
-559,744	-200,000	-0,014	0,097
-558,729	122,053	-0,132	-0,121
-557,715	800,000	0,078	-0,221
-556,700	42,200	-0,112	-0,074
-555,685	-37,557	-0,186	-0,073
-554,671	333,121	0,065	-0,092
-553,656	-200,000	-0,013	0,131
-552,642	800,000	-0,020	-0,049
-551,627	326,474	0,095	-0,134
-550,612	-200,000	0,002	-0,102
-549,598	-200,000	-0,008	-0,050
-548,583	-200,000	0,024	-0,081
-547,569	800,000	0,034	-0,105
-546,554	268,937	0,038	0,049
-545,539	-200,000	0,007	0,043
-544,525	114,667	-0,159	0,143
-543,510	259,659	-0,046	0,059
-542,496	8,406	0,113	-0,063
-541,481	-11,112	-0,125	-0,060
-540,466	-200,000	-0,035	0,171
-539,452	-164,827	0,041	0,001
-538,437	-86,005	0,172	-0,039
-537,423	-72,905	-0,048	0,013
-536,408	-200,000	-0,029	0,150
-535,393	800,000	-0,017	0,047
-534,379	-200,000	-0,129	0,000
-533,364	-71,306	-0,031	-0,009
-532,350	-200,000	-0,017	-0,065
-531,335	673,318	0,038	0,073
-530,321	638,166	0,027	0,050
-529,306	21,993	0,081	0,049
-528,291	-200,000	0,014	-0,107
-527,277	-200,000	-0,039	-0,189
-526,262	132,172	-0,013	-0,013
-525,248	-200,000	-0,011	-0,087
-524,233	60,298	0,107	0,078
-523,218	48,146	-0,020	-0,014
-522,204	-200,000	0,018	-0,092
-521,189	206,384	-0,121	0,138
-520,175	-33,487	0,062	-0,025
-519,160	-200,000	0,008	0,104
-518,145	-45,028	0,097	0,035
-517,131	-200,000	0,005	0,038
-516,116	796,472	0,069	0,141
-515,102	-200,000	-0,006	0,047
-514,087	-158,760	-0,146	-0,006
-513,072	253,165	0,027	0,034
-512,058	102,361	0,109	-0,093
-511,043	800,000	-0,008	0,022
-510,029	123,283	0,110	-0,101
-509,014	-200,000	-0,013	0,061
-507,999	31,063	0,114	0,072
-506,985	800,000	-0,022	0,052
-505,970	309,854	-0,039	-0,054
-504,956	301,234	0,058	-0,079
-503,941	-130,861	-0,061	-0,006
-502,926	789,553	0,021	0,043
-501,912	-85,589	0,027	-0,006
-500,897	800,000	-0,007	-0,014
-499,883	-12,021	0,045	-0,022
-498,868	-155,113	-0,100	-0,005
-497,853	800,000	-0,042	-0,108
-496,839	-149,128	0,054	0,003
-495,824	41,694	0,064	-0,042
-494,810	12,181	-0,084	0,047
-493,795	-96,597	-0,093	-0,018
-492,781	800,000	-0,066	-0,163
-491,766	202,403	-0,076	-0,086
-490,751	50,423	0,079	-0,055
-489,737	737,802	-0,017	0,033
-488,722	420,787	0,066	-0,105
-487,708	456,541	0,037	0,060
-486,693	-200,000	0,038	0,183
-485,678	83,168	0,049	-0,039
-484,664	178,123	0,065	-0,069
-483,649	379,287	-0,039	-0,059
-482,635	255,207	0,057	-0,071
-481,620	-61,283	-0,096	-0,030
-480,605	-200,000	0,002	-0,136
-479,591	800,000	-0,053	0,112
-478,576	-200,000	-0,032	0,187
-477,562	-200,000	-0,006	0,043
-476,547	-200,000	0,016	-0,063
-475,532	178,976	-0,107	-0,115
-474,518	22,247	-0,109	-0,065
-473,503	-164,362	0,085	-0,003
-472,489	-200,000	-0,010	0,085
-471,474	800,000	-0,039	-0,105
-470,459	800,000	-0,036	-0,084
-469,445	800,000	-0,044	0,121
-468,430	-200,000	-0,017	0,109
-467,416	800,000	-0,034	0,098
-466,401	140,126	-0,104	-0,101
-465,386	41,657	-0,044	0,029
-464,372	469,248	0,042	-0,070
-463,357	-59,933	-0,132	-0,041
-462,343	98,175	0,052	-0,044
-461,328	800,000	-0,005	-0,012
-460,313	800,000	-0,006	0,014
-459,299	-200,000	-0,020	0,077
-458,284	-200,000	-0,008	0,087
-457,270	-92,189	0,059	-0,012
-456,255	-200,000	-0,021	0,101
-455,241	223,866	0,072	-0,085
-454,226	-75,713	-0,149	0,039
-453,211	670,527	-0,012	-0,024
-452,197	47,466	-0,033	0,022
-451,182	-200,000	0,021	0,069
-450,168	-141,142	-0,044	-0,003
-449,153	-200,000	0,009	-0,139
-448,138	215,898	-0,079	-0,092
-447,124	-164,130	0,185	-0,006
-446,109	-13,761	-0,026	0,012
-445,095	2,041	0,173	0,091
-444,080	-166,867	0,030	0,001
-443,065	284,929	0,016	0,021
-442,051	-58,638	-0,088	0,028
-441,036	-200,000	0,024	-0,104
-440,022	-68,175	-0,210	0,059
-439,007	-1,564	-0,074	-0,038
-437,992	-103,144	0,048	-0,008
-436,978	-55,940	0,070	0,023
-435,963	99,346	0,019	-0,016
-434,949	18,261	-0,196	-0,115
-433,934	-200,000	0,007	0,029
-432,919	-168,280	-0,030	-0,001
-431,905	348,633	0,088	0,128
-430,890	-200,000	0,002	0,045
-429,876	489,684	0,066	0,111
-428,861	407,274	-0,059	0,091
-427,846	-99,419	0,048	0,009
-426,832	217,740	0,074	-0,086
-425,817	-38,526	-0,107	0,041
-424,803	-73,108	-0,091	-0,024
-423,788	-200,000	0,026	-0,095
-422,773	-91,403	0,137	-0,028
-421,759	29,446	-0,025	-0,016
-420,744	176,887	-0,109	0,116
-419,730	-79,767	0,032	-0,008
-418,715	400,000	0,063	-0,098
-417,701	-109,223	0,080	0,012
-416,686	217,929	-0,079	0,093
-415,671	-200,000	0,014	-0,130
-414,657	7,128	0,067	0,037
-413,642	628,785	-0,029	-0,053
-412,628	-200,000	-0,001	0,052
-411,613	89,915	-0,091	0,075
-410,598	800,000	0,016	-0,049
-409,584	-0,024	0,118	0,061
-408,569	-74,652	0,083	0,022
-407,555	-200,000	0,025	0,127
-406,540	-200,000	-0,012	0,062
-405,525	-200,000	0,002	-0,034
-404,511	-134,043	-0,162	-0,014
-403,496	232,881	-0,070	0,084
-402,482	-43,574	0,135	-0,050
-401,467	83,565	0,084	-0,067
-400,452	441,936	0,025	0,040
-399,438	-200,000	0,004	0,118
-398,423	143,970	-0,128	0,125
-397,409	-200,000	0,006	-0,047
-396,394	-51,311	0,039	0,013
-395,379	219,935	0,076	-0,089
-394,365	-8,968	-0,062	-0,030
-393,350	-200,000	0,004	0,184
-392,336	-106,123	-0,086	0,014
-391,321	-200,000	-0,002	-0,064
-390,306	202,759	-0,055	0,062
-389,292	-73,468	0,055	-0,015
-388,277	800,000	0,013	-0,033
-387,263	800,000	0,015	0,037
-386,248	-200,000	-0,031	-0,108
-385,233	-56,576	0,061	-0,020
-384,219	800,000	-0,011	-0,024
-383,204	-48,593	-0,049	0,017
-382,190	33,094	-0,098	0,062
-381,175	800,000	0,014	-0,042
-380,160	800,000	-0,028	-0,059
-379,146	154,133	0,141	0,142
-378,131	-200,000	-0,006	0,160
-377,117	202,214	-0,084	-0,095
-376,102	-200,000	0,002	-0,029
-375,088	-194,798	0,172	-0,001
-374,073	26,140	-0,132	-0,080
-373,058	125,400	-0,038	0,035
-372,044	-200,000	-0,009	-0,054
-371,029	274,713	-0,060	0,078
-370,015	272,864	-0,034	0,044
-369,000	-98,919	0,143	-0,026
-367,985	-147,367	-0,073	0,004
-366,971	-200,000	0,014	-0,176
-365,956	-134,037	0,108	0,010
-364,942	351,309	0,085	0,123
-363,927	321,618	-0,030	-0,042
-362,912	-145,797	-0,061	0,004
-361,898	-72,775	-0,072	0,019
-360,883	-200,000	0,000	-0,054
-359,869	-200,000	0,001	-0,118
-358,854	440,298	0,054	-0,087
-357,839	-57,104	0,103	0,033
-356,825	440,696	0,089	-0,143
-355,810	547,158	0,080	0,140
-354,796	31,036	-0,076	-0,047
-353,781	796,210	0,035	-0,071
-352,766	599,471	0,103	-0,187
-351,752	116,168	-0,049	0,044
-350,737	367,311	0,053	0,079
-349,723	-200,000	-0,005	0,036
-348,708	566,540	0,059	0,105
-347,693	11,149	0,052	-0,029
-346,679	-200,000	0,011	0,072
-345,664	145,450	-0,110	0,108
-344,650	-20,815	0,176	-0,079
-343,635	-32,811	-0,096	-0,039
-342,620	-200,000	0,000	-0,167
-341,606	-113,136	0,051	0,007
-340,591	-143,470	-0,088	-0,006
-339,577	46,290	-0,158	-0,107
-338,562	-56,664	-0,069	0,022
-337,548	25,119	0,146	-0,088
-336,533	105,461	-0,049	-0,043
-335,518	-156,860	0,115	-0,005
-334,504	145,225	-0,102	0,100
-333,489	355,306	-0,079	0,116
-332,475	-65,960	-0,099	-0,029
-331,460	-91,877	0,083	0,017
-330,445	172,935	-0,074	-0,078
-329,431	800,000	-0,008	-0,021
-328,416	56,302	-0,052	0,037
-327,402	-200,000	0,006	0,055
-326,387	-114,784	0,115	0,016
-325,372	116,190	0,105	0,094
-324,358	800,000	0,020	-0,051
-323,343	6,247	0,030	-0,016
-322,329	-200,000	0,011	0,054
-321,314	-124,834	-0,100	-0,011
-320,299	800,000	0,008	-0,021
-319,285	129,360	-0,055	-0,051
-318,270	140,136	0,076	-0,074
-317,256	267,140	0,043	-0,055
-316,241	505,006	-0,054	0,091
-315,226	264,523	0,086	0,109
-314,212	302,907	0,025	-0,033
-313,197	-144,184	-0,087	0,006
-312,183	562,951	0,075	0,133
-311,168	-42,550	-0,078	0,029
-310,153	252,373	-0,065	-0,081
-309,139	-36,464	0,047	-0,019
-308,124	-19,798	0,021	-0,009
-307,110	123,859	0,037	0,033
-306,095	518,693	0,056	0,097
-305,080	4,366	0,159	0,085
-304,066	425,939	-0,146	-0,231
-303,051	-70,832	0,064	-0,017
-302,037	191,380	-0,057	-0,062
-301,022	-120,020	0,115	-0,014
-300,008	23,841	0,130	0,078
-298,993	262,675	0,077	-0,097
-297,978	-30,843	0,056	0,023
-296,964	-200,000	0,003	-0,147
-295,949	-200,000	-0,001	0,045
-294,935	191,202	-0,062	-0,068
-293,920	-200,000	-0,010	-0,044
-292,905	-124,883	0,154	-0,017
-291,891	187,876	0,043	0,047
-290,876	-200,000	-0,007	-0,062
-289,862	572,186	-0,027	-0,048
-288,847	-200,000	-0,007	0,108
-287,832	665,778	-0,055	0,104
-286,818	127,624	-0,099	0,092
-285,803	-200,000	0,022	0,074
-284,789	-200,000	-0,010	0,082
-283,774	149,820	-0,059	0,058
-282,759	800,000	0,040	-0,100
-281,745	153,370	-0,071	0,071
-280,730	149,409	-0,094	-0,093
-279,716	800,000	0,018	0,039
-278,701	74,207	0,153	-0,117
-277,686	97,038	0,057	-0,047
-276,672	-200,000	0,005	-0,029
-275,657	-107,457	0,040	0,006
-274,643	-156,500	-0,145	-0,006
-273,628	45,306	0,126	-0,085
-272,613	-46,600	0,041	0,015
-271,599	190,181	0,069	0,076
-270,584	227,912	-0,022	0,027
-269,570	-200,000	0,016	-0,088
-268,555	-53,548	0,035	0,012
-267,540	-176,817	-0,133	0,002
-266,526	-200,000	0,003	0,169
-265,511	162,699	0,100	0,102
-264,497	53,981	-0,051	0,035
-263,482	-200,000	0,025	-0,089
-262,467	-148,420	0,122	0,007
-261,453	-200,000	0,008	0,151
-260,438	800,000	0,043	-0,095
-259,424	800,000	-0,027	-0,061
-258,409	800,000	-0,020	0,062
-257,395	-200,000	0,018	-0,117
-256,380	-200,000	0,038	0,136
-255,365	25,073	0,149	0,090
-254,351	800,000	0,062	0,148
-253,336	-200,000	0,011	-0,181
-252,322	168,327	0,047	-0,049
-251,307	79,168	-0,090	0,070
-250,292	-42,097	0,136	-0,050
-249,278	319,198	-0,032	-0,045
-248,263	-200,000	-0,010	0,054
-247,249	-200,000	0,002	0,112
-246,234	90,012	-0,073	0,059
-245,219	0,273	-0,154	0,080
-244,205	-200,000	-0,007	-0,082
-243,190	344,693	0,021	-0,030
-242,176	-115,478	0,147	-0,020
-241,161	-102,861	-0,067	-0,012
-240,146	276,526	-0,059	0,077
-239,132	113,610	0,029	-0,026
-238,117	800,000	-0,070	0,160
-237,103	-108,219	-0,095	0,015
-236,088	-159,271	0,044	0,002
-235,073	800,000	-0,025	0,080
-234,059	45,991	-0,035	-0,024
-233,044	-200,000	0,013	0,126
-232,030	-154,304	0,036	-0,002
-231,015	-117,279	-0,141	-0,018
-230,000	-10,202	0,138	-0,066
-228,986	31,773	-0,056	0,035
-227,971	210,406	0,061	0,070
-226,957	-200,000	-0,010	0,041
-225,942	800,000	0,024	0,062
-224,927	800,000	0,005	-0,012
-223,913	8,581	-0,056	0,030
-222,898	-68,951	-0,086	-0,024
-221,884	104,541	-0,071	-0,060
-220,869	-105,603	-0,072	0,012
-219,855	-200,000	-0,012	0,052
-218,840	102,516	0,131	0,111
-217,825	62,924	0,036	-0,026
-216,811	-0,892	-0,101	-0,052
-215,796	29,592	0,069	-0,043
-214,782	800,000	0,046	0,115
-213,767	-94,913	0,101	0,020
-212,752	391,336	0,014	0,021
-211,738	-48,641	-0,048	-0,017
-210,723	-37,185	0,152	0,059
-209,709	-34,080	-0,081	0,032
-208,694	97,311	-0,129	0,107
-207,679	-104,808	0,062	0,010
-206,665	317,422	0,031	0,043
-205,650	-73,068	0,145	0,038
-204,636	-62,779	0,008	0,002
-203,621	-183,763	0,124	-0,001
-202,606	161,956	-0,055	-0,056
-201,592	800,000	-0,085	-0,196
-200,577	133,555	-0,085	-0,080
-199,563	472,613	-0,078	-0,128
-198,548	-200,000	0,001	0,012
-197,533	81,872	0,009	0,007
-196,519	184,198	-0,053	-0,057
-195,504	-103,517	-0,122	-0,021
-194,490	777,442	-0,024	-0,047
-193,475	98,446	0,042	0,035
-192,460	-200,000	0,016	0,083
-191,446	-50,312	-0,061	0,021
-190,431	654,603	0,030	0,056
-189,417	-25,487	-0,140	0,060
-188,402	87,763	0,087	0,070
-187,387	53,417	0,024	0,017
-186,373	758,194	-0,043	0,085
-185,358	-200,000	-0,041	-0,157
-184,344	414,711	0,007	-0,011
-183,329	-200,000	-0,015	0,056
-182,315	-200,000	-0,002	0,023
-181,300	-79,557	-0,068	0,017
-180,285	-22,163	0,078	0,034
-179,271	-137,666	-0,150	-0,012
-178,256	428,988	0,079	0,124
-177,242	800,000	0,078	0,233
-176,227	226,969	-0,051	-0,060
-175,212	-141,159	-0,088	0,006
-174,198	102,352	-0,125	-0,106
-173,183	800,000	-0,044	-0,107
-172,169	-200,000	-0,018	0,090
-171,154	9,046	0,057	-0,031
-170,139	44,488	0,120	0,080
-169,125	800,000	0,051	0,117
-168,110	220,604	-0,068	0,080
-167,096	33,902	-0,036	-0,023
-166,081	-30,591	0,137	-0,056
-165,066	-200,000	0,012	0,106
-164,052	130,224	0,080	0,075
-163,037	-83,344	-0,100	0,023
-162,023	-200,000	-0,009	-0,031
-161,008	638,598	0,048	0,089
-159,993	-111,833	0,030	-0,004
-158,979	559,450	-0,041	0,071
-157,964	-146,842	-0,035	-0,002
-156,950	274,380	-0,072	-0,093
-155,935	-162,348	0,039	-0,001
-154,920	-200,000	-0,010	0,089
-153,906	-43,838	-0,079	0,029
-152,891	1,923	0,126	0,066
-151,877	-17,232	-0,113	0,051
-150,862	666,490	-0,088	-0,165
-149,847	636,248	-0,032	0,059
-148,833	-38,022	-0,074	-0,028
-147,818	261,313	-0,065	0,082
-146,804	-46,031	0,090	-0,032
-145,789	-18,396	-0,061	0,027
-144,775	-103,065	-0,031	-0,005
-143,760	800,000	-0,062	0,160
-142,745	342,345	-0,041	0,059
-141,731	-106,529	-0,045	-0,007
-140,716	79,498	0,020	-0,016
-139,702	-78,180	-0,081	-0,020
-138,687	-76,252	0,149	0,038
-137,672	-200,000	-0,005	-0,029
-136,658	-200,000	0,017	-0,123
-135,643	-200,000	-0,015	-0,101
-134,629	197,870	0,020	0,023
-133,614	-200,000	-0,042	0,194
-132,599	800,000	-0,090	-0,223
-131,585	-200,000	0,004	0,154
-130,570	501,605	-0,049	-0,083
-129,556	-93,967	0,057	-0,011
-128,541	-200,000	-0,033	-0,159
-127,526	-94,192	-0,133	-0,026
-126,512	-200,000	-0,011	0,077
-125,497	-127,981	0,090	0,009
-124,483	-176,587	-0,173	0,003
-123,468	96,561	0,031	0,026
-122,453	-39,537	-0,072	-0,027
-121,439	800,000	-0,036	-0,112
-120,424	-165,846	-0,049	-0,001
