DTS Sentinel unit serial number:	SN410029Multiplexer serial number:	ORYXHardware model number:	OX2-SRSoftware version number:	ORYX F/W v4,00 Oryx Data Collector v3.7.2.0data status	okinstallation	B6 Nyhavnadifferential loss correction	single-endedforward channel	channel 2reverse channel	N/Adate	2023/12/08time	02:10:08forward acquisition time	300,00reverse acquisition time	0,00gamma	499,1914k internal	0,3165k external	0,3165temperature offset calibration	1,0000default loss term (dB/km)	0,3820temperature slope calibration	1,0000multiplexer offset coefficient	1,0000multiplexer slope coefficient	1,0000fibre end	0,00T internal ref (°C)	13,19T ext. ref 1 (°C)	-3,73T ext. ref 2 (°C)	-3,73length (m)	temperature (°C)	Stokes	anti-Stokes-744,400	-48,323	0,058	0,020
-743,385	-71,958	-0,272	0,074
-742,371	800,000	0,040	0,102
-741,356	-93,122	-0,300	0,061
-740,342	800,000	-0,020	-0,043
-739,327	-59,649	-0,417	0,131
-738,312	239,335	0,090	0,110
-737,298	-124,726	-0,323	-0,036
-736,283	-33,890	0,109	-0,044
-735,269	-133,807	-0,291	0,026
-734,254	99,266	0,094	0,080
-733,239	-38,394	-0,510	-0,197
-732,225	158,349	0,092	0,094
-731,210	46,634	-0,042	-0,028
-730,196	800,000	-0,041	-0,102
-729,181	-18,293	0,097	-0,044
-728,167	-130,992	0,125	0,012
-727,152	150,314	-0,092	-0,092
-726,137	800,000	-0,065	-0,167
-725,123	73,021	-0,169	-0,130
-724,108	42,702	-0,104	-0,070
-723,094	59,635	-0,062	-0,045
-722,079	320,251	0,016	-0,022
-721,064	68,757	-0,082	-0,062
-720,050	523,553	-0,035	-0,061
-719,035	-5,480	0,068	-0,034
-718,021	-200,000	0,004	-0,090
-717,006	252,120	-0,050	-0,063
-715,991	800,000	-0,040	-0,083
-714,977	800,000	-0,019	-0,060
-713,962	211,215	0,090	0,105
-712,948	-139,272	0,106	-0,008
-711,933	29,118	-0,100	0,062
-710,918	39,199	-0,057	-0,038
-709,904	293,071	-0,032	-0,043
-708,889	-105,195	-0,175	0,029
-707,875	132,269	-0,103	-0,098
-706,860	61,041	0,042	0,031
-705,845	490,267	0,117	0,197
-704,831	102,459	-0,106	0,091
-703,816	-96,433	0,054	0,010
-702,802	141,737	0,093	0,090
-701,787	-200,000	-0,003	0,020
-700,772	-93,135	-0,072	-0,015
-699,758	-200,000	-0,001	-0,059
-698,743	-0,408	0,036	-0,019
-697,729	196,745	-0,076	0,086
-696,714	578,715	-0,086	0,155
-695,699	-200,000	0,018	0,074
-694,685	-200,000	0,025	-0,086
-693,670	-200,000	-0,022	-0,079
-692,656	375,908	-0,013	-0,020
-691,641	-8,215	0,052	0,025
-690,627	-200,000	-0,017	0,097
-689,612	800,000	0,023	0,068
-688,597	-60,094	-0,101	-0,031
-687,583	128,453	-0,031	0,029
-686,568	523,414	0,003	0,005
-685,554	-121,866	0,100	-0,012
-684,539	-200,000	-0,025	-0,094
-683,524	37,093	-0,070	-0,045
-682,510	497,963	-0,099	0,167
-681,495	-200,000	0,014	0,135
-680,481	620,581	-0,099	-0,183
-679,466	-91,394	-0,033	-0,007
-678,451	800,000	0,054	-0,155
-677,437	-200,000	-0,022	0,142
-676,422	56,510	0,135	0,096
-675,408	-17,583	0,067	-0,031
-674,393	505,243	-0,062	-0,106
-673,378	-200,000	-0,016	0,057
-672,364	-20,437	-0,159	0,071
-671,349	296,288	0,030	0,041
-670,335	506,312	0,037	-0,064
-669,320	-200,000	-0,004	-0,075
-668,305	515,776	-0,053	-0,091
-667,291	-34,640	0,009	0,003
-666,276	-200,000	-0,005	-0,039
-665,262	-106,926	-0,101	0,016
-664,247	-103,165	-0,131	0,022
-663,232	295,499	0,035	-0,047
-662,218	800,000	0,026	-0,076
-661,203	-22,224	-0,139	0,061
-660,189	-20,574	-0,033	-0,015
-659,174	428,120	0,069	0,110
-658,159	-68,855	-0,166	-0,047
-657,145	105,691	-0,057	-0,049
-656,130	-34,508	0,038	-0,015
-655,116	-19,700	-0,078	0,035
-654,101	31,504	-0,101	0,063
-653,086	601,683	0,022	0,040
-652,072	-93,680	-0,068	-0,014
-651,057	-184,885	0,019	0,000
-650,043	15,669	-0,107	-0,061
-649,028	-15,899	-0,043	0,020
-648,014	-29,844	0,093	0,039
-646,999	-87,610	-0,135	0,030
-645,984	-28,092	0,036	-0,015
-644,970	-159,520	-0,081	0,003
-643,955	297,662	-0,073	-0,098
-642,941	60,111	-0,043	0,031
-641,926	650,035	0,044	-0,083
-640,911	349,529	-0,017	-0,025
-639,897	-78,765	-0,127	-0,032
-638,882	80,278	0,120	0,094
-637,868	-200,000	0,003	-0,114
-636,853	-200,000	-0,046	-0,178
-635,838	-76,465	0,115	-0,029
-634,824	-200,000	-0,003	-0,048
-633,809	-100,414	0,169	0,030
-632,795	391,787	0,029	-0,045
-631,780	224,617	0,031	-0,037
-630,765	359,884	0,097	0,143
-629,751	-200,000	0,009	-0,036
-628,736	128,527	-0,185	-0,173
-627,722	-200,000	0,007	-0,146
-626,707	-33,604	-0,067	-0,027
-625,692	-39,784	0,083	0,032
-624,678	-200,000	-0,011	-0,133
-623,663	99,384	-0,095	-0,081
-622,649	47,353	-0,139	-0,095
-621,634	174,801	0,053	-0,056
-620,619	151,323	0,047	-0,047
-619,605	51,073	0,114	0,079
-618,590	707,930	-0,086	0,168
-617,576	128,640	0,045	0,042
-616,561	-112,492	0,078	-0,011
-615,546	-83,466	-0,085	-0,020
-614,532	-200,000	-0,026	-0,264
-613,517	300,102	0,039	-0,052
-612,503	-200,000	0,002	-0,026
-611,488	-77,448	-0,068	0,017
-610,474	-17,313	0,119	-0,055
-609,459	642,117	-0,067	0,125
-608,444	-46,615	0,058	-0,021
-607,430	-42,823	-0,030	-0,011
-606,415	168,657	-0,154	-0,160
-605,401	800,000	0,023	-0,047
-604,386	80,593	0,047	0,037
-603,371	-145,449	0,132	0,009
-602,357	-200,000	-0,022	0,167
-601,342	800,000	-0,003	0,009
-600,328	800,000	-0,033	0,077
-599,313	-200,000	-0,009	0,078
-598,298	80,199	0,083	0,065
-597,284	-16,120	0,074	-0,034
-596,269	35,355	-0,032	0,021
-595,255	-200,000	0,037	0,134
-594,240	-109,697	-0,075	-0,011
-593,225	-200,000	0,004	-0,156
-592,211	-200,000	0,033	-0,133
-591,196	124,034	-0,063	0,058
-590,182	51,563	0,038	0,026
-589,167	-139,207	0,096	0,007
-588,152	-39,482	-0,167	0,064
-587,138	190,117	0,065	0,071
-586,123	0,377	-0,093	0,049
-585,109	800,000	0,023	-0,056
-584,094	247,406	0,042	-0,052
-583,079	-200,000	0,006	0,053
-582,065	-200,000	-0,014	0,150
-581,050	462,286	-0,052	0,085
-580,036	44,386	-0,047	-0,031
-579,021	800,000	-0,081	-0,192
-578,006	229,651	0,075	0,090
-576,992	285,764	-0,112	-0,148
-575,977	-200,000	0,033	0,132
-574,963	-106,911	0,025	-0,004
-573,948	800,000	0,006	0,018
-572,934	800,000	0,017	-0,047
-571,919	-200,000	-0,059	-0,213
-570,904	288,557	-0,088	-0,117
-569,890	541,903	-0,029	-0,052
-568,875	-200,000	-0,021	0,144
-567,861	-200,000	0,015	0,074
-566,846	204,329	-0,037	0,042
-565,831	12,398	0,083	0,047
-564,817	562,773	-0,022	-0,039
-563,802	-200,000	-0,007	-0,098
-562,788	-200,000	-0,009	0,079
-561,773	-200,000	-0,047	0,242
-560,758	-181,900	-0,050	0,001
-559,744	800,000	-0,057	0,140
-558,729	-38,932	-0,059	-0,023
-557,715	-16,060	-0,062	0,029
-556,700	235,709	-0,060	-0,073
-555,685	-200,000	-0,011	0,059
-554,671	-12,103	-0,122	0,058
-553,656	800,000	-0,023	-0,058
-552,642	-200,000	0,011	0,112
-551,627	-200,000	0,032	-0,150
-550,612	20,520	-0,081	-0,048
-549,598	110,820	-0,161	-0,141
-548,583	158,808	0,046	0,046
-547,569	-159,590	0,188	0,007
-546,554	800,000	-0,007	0,022
-545,539	169,892	0,065	0,068
-544,525	800,000	-0,005	0,017
-543,510	-19,058	0,052	-0,023
-542,496	-30,787	-0,009	0,004
-541,481	85,867	0,049	-0,039
-540,466	112,360	-0,056	-0,050
-539,452	352,219	0,099	-0,143
-538,437	421,960	0,084	0,132
-537,423	125,873	-0,061	0,056
-536,408	272,609	-0,082	0,106
-535,393	-164,813	-0,135	0,004
-534,379	60,479	0,107	0,077
-533,364	194,748	-0,095	0,105
-532,350	800,000	0,029	0,088
-531,335	27,143	0,093	0,057
-530,321	66,440	0,081	-0,060
-529,306	-147,679	0,063	0,004
-528,291	-117,606	-0,159	0,021
-527,277	-76,303	-0,092	-0,023
-526,262	800,000	-0,041	-0,128
-525,248	361,593	0,033	-0,049
-524,233	-57,131	0,098	0,031
-523,218	83,154	0,069	0,055
-522,204	-200,000	-0,014	0,111
-521,189	-97,646	-0,134	0,025
-520,175	800,000	0,034	0,088
-519,160	111,277	0,096	-0,085
-518,145	-200,000	-0,033	-0,116
-517,131	-40,465	-0,014	0,005
-516,116	-35,946	0,044	0,017
-515,102	-200,000	-0,004	-0,021
-514,087	800,000	-0,021	-0,049
-513,072	409,526	0,026	0,040
-512,058	471,651	0,029	0,048
-511,043	-22,999	0,030	0,013
-510,029	155,094	0,043	0,043
-509,014	-200,000	0,008	-0,034
-507,999	203,652	0,012	0,013
-506,985	-200,000	-0,006	-0,020
-505,970	586,487	0,004	0,008
-504,956	-131,117	-0,127	-0,012
-503,941	166,988	-0,163	-0,168
-502,926	-177,252	0,147	0,003
-501,912	-28,717	-0,098	0,041
-500,897	-200,000	-0,037	0,203
-499,883	800,000	-0,032	0,102
-498,868	800,000	-0,027	0,055
-497,853	212,798	0,014	0,016
-496,839	85,688	-0,074	0,059
-495,824	-26,463	0,078	-0,033
-494,810	73,798	0,070	0,053
-493,795	-19,512	0,049	-0,022
-492,781	-200,000	-0,006	-0,122
-491,766	-116,805	-0,139	0,018
-490,751	-200,000	-0,015	-0,050
-489,737	395,886	-0,034	0,052
-488,722	38,290	0,126	0,081
-487,708	118,425	0,156	0,141
-486,693	-60,026	0,028	0,009
-485,678	39,641	0,036	-0,024
-484,664	55,559	-0,102	-0,072
-483,649	103,209	-0,065	-0,055
-482,635	-117,238	-0,086	-0,011
-481,620	-68,273	0,184	-0,052
-480,605	-61,600	0,127	0,039
-479,591	-64,649	-0,126	-0,037
-478,576	-200,000	-0,035	-0,128
-477,562	761,996	-0,043	-0,085
-476,547	-4,210	-0,030	0,015
-475,532	325,430	0,047	-0,066
-474,518	800,000	0,035	0,084
-473,503	76,949	0,169	0,130
-472,489	-200,000	-0,006	0,075
-471,474	100,034	-0,083	-0,070
-470,459	-57,936	0,085	-0,027
-469,445	800,000	-0,044	-0,108
-468,430	-200,000	-0,012	0,051
-467,416	-111,875	0,151	0,022
-466,401	-38,672	0,098	-0,037
-465,386	-200,000	0,012	-0,143
-464,372	-93,093	0,044	-0,009
-463,357	800,000	-0,040	0,103
-462,343	359,176	0,109	0,159
-461,328	57,244	-0,046	-0,033
-460,313	-73,334	0,026	-0,007
-459,299	-51,589	0,087	-0,029
-458,284	800,000	0,066	-0,136
-457,270	-96,027	-0,103	-0,020
-456,255	-200,000	-0,012	0,056
-455,241	-55,599	0,102	0,033
-454,226	-200,000	0,000	-0,051
-453,211	249,790	0,043	0,053
-452,197	75,107	0,045	-0,034
-451,182	40,286	-0,069	0,045
-450,168	4,123	-0,142	0,075
-449,153	-41,544	-0,047	0,017
-448,138	571,829	-0,046	-0,082
-447,124	-200,000	-0,004	-0,058
-446,109	105,492	-0,054	0,047
-445,095	47,373	0,108	-0,073
-444,080	-200,000	-0,003	-0,026
-443,065	800,000	-0,041	0,125
-442,051	102,844	-0,072	-0,061
-441,036	-200,000	-0,003	-0,025
-440,022	-4,326	0,179	0,090
-439,007	-96,229	0,061	-0,012
-437,992	-120,949	0,128	0,015
-436,978	-93,930	0,116	-0,023
-435,963	208,291	0,050	0,057
-434,949	61,128	-0,082	0,059
-433,934	-52,826	0,026	-0,009
-432,919	-200,000	0,007	0,091
-431,905	19,639	0,073	-0,043
-430,890	132,945	-0,033	0,031
-429,876	456,176	0,046	0,074
-428,861	261,601	0,086	0,108
-427,846	800,000	-0,068	-0,171
-426,832	-163,715	0,046	0,002
-425,817	216,407	-0,115	0,133
-424,803	569,901	0,102	-0,180
-423,788	-200,000	0,045	0,159
-422,773	-137,384	-0,147	-0,012
-421,759	800,000	0,036	-0,080
-420,744	379,919	-0,044	-0,066
-419,730	118,864	-0,143	-0,129
-418,715	-76,404	-0,084	0,021
-417,701	-95,856	0,060	-0,012
-416,686	328,864	0,059	0,083
-415,671	-200,000	0,010	0,069
-414,657	-58,414	-0,049	0,015
-413,642	800,000	-0,049	0,122
-412,628	283,935	0,019	0,025
-411,613	-176,871	-0,012	-0,000
-410,598	-200,000	0,022	-0,103
-409,584	162,045	0,089	0,090
-408,569	202,069	0,029	0,032
-407,555	-200,000	0,012	0,062
-406,540	-200,000	-0,022	0,088
-405,525	68,105	-0,051	-0,038
-404,511	800,000	-0,039	-0,088
-403,496	86,556	0,021	-0,017
-402,482	-200,000	0,006	-0,092
-401,467	39,373	0,027	-0,018
-400,452	-117,361	0,089	0,012
-399,438	-103,860	0,123	-0,021
-398,423	800,000	-0,022	-0,065
-397,409	-200,000	-0,005	0,041
-396,394	-0,427	-0,053	-0,027
-395,379	18,710	0,004	-0,002
-394,365	-200,000	0,018	-0,124
-393,350	117,221	0,084	0,075
-392,336	800,000	-0,072	0,156
-391,321	800,000	-0,047	0,143
-390,306	-54,980	-0,052	0,017
-389,292	-4,904	0,034	0,017
-388,277	-84,101	0,129	-0,030
-387,263	-200,000	0,012	-0,165
-386,248	800,000	-0,029	0,080
-385,233	-187,537	0,069	0,001
-384,219	37,822	-0,067	0,043
-383,204	-137,550	0,019	-0,002
-382,190	348,421	0,055	0,079
-381,175	-20,850	0,103	0,046
-380,160	177,362	0,063	-0,067
-379,146	-33,664	-0,095	-0,038
-378,131	-200,000	0,015	0,061
-377,117	-8,592	0,037	-0,018
-376,102	475,214	0,016	-0,026
-375,088	-89,795	-0,056	-0,012
-374,073	0,297	-0,118	-0,061
-373,058	287,434	0,044	-0,058
-372,044	-12,222	0,095	0,045
-371,029	-200,000	0,038	0,126
-370,015	-42,570	-0,013	-0,005
-369,000	98,297	-0,048	-0,040
-367,985	800,000	-0,038	-0,100
-366,971	298,811	-0,038	0,050
-365,956	-31,401	-0,094	0,038
-364,942	800,000	0,044	0,089
-363,927	-83,620	0,092	0,021
-362,912	677,363	0,036	0,067
-361,898	-88,903	0,104	0,022
-360,883	305,316	-0,082	0,111
-359,869	127,902	0,078	0,072
-358,854	499,923	-0,013	-0,022
-357,839	27,839	0,041	0,025
-356,825	-200,000	-0,014	0,169
-355,810	-200,000	0,014	0,065
-354,796	800,000	-0,033	0,081
-353,781	411,198	-0,071	-0,109
-352,766	-200,000	-0,002	-0,054
-351,752	139,375	-0,078	-0,074
-350,737	-96,001	-0,050	0,010
-349,723	33,850	0,109	-0,069
-348,708	672,408	-0,068	-0,128
-347,693	-200,000	-0,010	-0,121
-346,679	-22,214	-0,097	0,043
-345,664	800,000	-0,019	-0,040
-344,650	-117,615	0,148	0,019
-343,635	-200,000	-0,002	0,065
-342,620	-63,203	0,130	-0,038
-341,606	-200,000	-0,022	0,096
-340,591	-158,049	-0,062	0,003
-339,577	1,255	-0,067	0,034
-338,562	-60,332	0,063	-0,019
-337,548	-50,905	0,081	-0,027
-336,533	22,123	-0,080	0,047
-335,518	14,000	0,051	-0,029
-334,504	139,369	0,166	0,158
-333,489	-200,000	-0,000	-0,007
-332,475	228,973	-0,137	-0,162
-331,460	-4,098	-0,098	0,049
-330,445	290,597	0,110	-0,145
-329,431	506,113	0,057	0,097
-328,416	26,411	0,061	0,037
-327,402	-13,764	-0,030	-0,014
-326,387	-136,782	0,159	-0,013
-325,372	-200,000	0,004	0,030
-324,358	-41,884	-0,009	0,003
-323,343	-200,000	0,013	0,076
-322,329	728,765	-0,102	-0,198
-321,314	-200,000	0,008	-0,091
-320,299	-166,081	0,129	0,004
-319,285	90,692	0,033	-0,026
-318,270	-200,000	-0,010	-0,047
-317,256	66,926	0,114	-0,084
-316,241	-66,337	0,072	-0,021
-315,226	-200,000	0,002	0,072
-314,212	-200,000	0,003	0,049
-313,197	81,117	0,034	0,026
-312,183	-44,068	-0,108	-0,039
-311,168	162,801	-0,025	-0,025
-310,153	-200,000	-0,028	0,115
-309,139	173,699	-0,028	-0,030
-308,124	-80,205	-0,063	0,015
-307,110	80,377	-0,092	0,072
-306,095	240,166	0,080	0,096
-305,080	-99,603	-0,108	0,019
-304,066	800,000	-0,042	-0,093
-303,051	-200,000	-0,024	0,175
-302,037	35,894	-0,079	0,050
-301,022	-200,000	0,003	0,127
-300,008	-200,000	0,020	0,074
-298,993	-200,000	0,011	0,111
-297,978	800,000	-0,037	0,100
-296,964	3,012	-0,104	-0,055
-295,949	14,672	0,087	0,049
-294,935	24,474	-0,147	-0,088
-293,920	-75,158	0,113	0,029
-292,905	139,673	-0,033	0,032
-291,891	116,368	-0,100	-0,089
-290,876	800,000	0,037	0,102
-289,862	800,000	-0,027	-0,079
-288,847	401,502	-0,050	-0,075
-287,832	678,349	0,064	-0,121
-286,818	154,662	-0,149	-0,148
-285,803	-65,611	0,041	0,012
-284,789	562,566	0,101	-0,178
-283,774	263,831	-0,038	-0,048
-282,759	-200,000	0,002	-0,089
-281,745	255,621	-0,012	-0,015
-280,730	-0,890	-0,068	-0,035
-279,716	-200,000	-0,000	-0,014
-278,701	625,375	0,040	0,073
-277,686	59,367	0,055	0,039
-276,672	120,408	0,005	0,004
-275,657	-86,434	-0,130	0,029
-274,643	86,832	0,095	-0,076
-273,628	-200,000	0,003	0,023
-272,613	-63,629	-0,095	0,028
-271,599	31,870	-0,064	0,040
-270,584	26,903	-0,030	-0,018
-269,570	-152,511	0,125	-0,006
-268,555	-14,294	0,085	-0,039
-267,540	-8,709	-0,062	-0,030
-266,526	190,261	-0,070	0,076
-265,511	52,105	-0,102	-0,070
-264,497	800,000	-0,024	0,050
-263,482	122,648	0,077	0,070
-262,467	-99,974	0,157	0,028
-261,453	-200,000	-0,000	-0,033
-260,438	-200,000	0,027	0,101
-259,424	-191,700	-0,186	-0,001
-258,409	135,057	-0,041	0,039
-257,395	767,559	0,049	-0,096
-256,380	-200,000	0,001	-0,024
-255,365	6,313	0,052	0,028
-254,351	-189,357	0,135	0,001
-253,336	-200,000	0,001	0,082
-252,322	800,000	0,012	0,028
-251,307	-39,805	-0,110	0,041
-250,292	-14,082	0,160	0,074
-249,278	-200,000	0,028	0,111
-248,263	87,927	-0,116	0,092
-247,249	-76,934	-0,044	0,011
-246,234	-186,946	0,170	0,002
-245,219	800,000	0,001	0,002
-244,205	-200,000	0,010	0,054
-243,190	-200,000	-0,009	0,180
-242,176	171,041	0,075	0,077
-241,161	-200,000	-0,001	-0,129
-240,146	-29,124	-0,104	0,043
-239,132	-200,000	0,021	0,094
-238,117	123,908	-0,061	-0,055
-237,103	800,000	-0,004	0,012
-236,088	472,252	-0,057	-0,093
-235,073	-200,000	-0,016	0,168
-234,059	800,000	0,083	0,186
-233,044	435,760	-0,071	0,112
-232,030	228,817	-0,051	0,060
-231,015	-200,000	-0,007	-0,123
-230,000	278,613	0,080	-0,103
-228,986	416,872	0,036	0,056
-227,971	11,933	0,060	-0,033
-226,957	-200,000	-0,006	0,022
-225,942	8,391	0,057	0,031
-224,927	-200,000	-0,001	0,028
-223,913	800,000	-0,046	-0,101
-222,898	78,621	0,040	0,031
-221,884	139,936	0,064	-0,061
-220,869	90,908	-0,030	-0,024
-219,855	-200,000	0,010	-0,046
-218,840	311,452	0,117	0,158
-217,825	34,481	-0,086	0,054
-216,811	800,000	-0,022	-0,069
-215,796	-70,693	-0,042	0,011
-214,782	-200,000	-0,018	0,067
-213,767	-200,000	0,038	-0,133
-212,752	-200,000	0,039	-0,152
-211,738	68,924	-0,116	-0,085
-210,723	580,667	-0,029	0,052
-209,709	-119,748	-0,102	-0,012
-208,694	800,000	0,036	-0,097
-207,679	450,437	-0,066	0,105
-206,665	-156,672	-0,025	-0,001
-205,650	17,803	0,020	-0,011
-204,636	-59,711	0,060	-0,018
-203,621	-73,928	0,160	-0,042
-202,606	43,211	-0,149	-0,098
-201,592	-10,962	-0,093	0,044
-200,577	-143,012	-0,157	-0,011
-199,563	-93,315	0,006	0,001
-198,548	361,738	0,072	-0,104
-197,533	-200,000	0,025	-0,106
-196,519	463,761	-0,116	-0,188
-195,504	-134,890	-0,056	-0,005
-194,490	-200,000	-0,020	-0,192
-193,475	139,147	-0,105	-0,099
-192,460	-200,000	-0,020	-0,090
-191,446	624,482	-0,021	0,038
-190,431	39,007	0,136	-0,087
-189,417	29,747	0,135	0,083
-188,402	-19,572	-0,125	-0,055
-187,387	29,852	-0,105	-0,064
-186,373	-8,125	-0,054	-0,026
-185,358	-200,000	-0,001	-0,028
-184,344	154,662	0,032	0,032
-183,329	-200,000	0,012	0,045
-182,315	-12,863	0,056	-0,026
-181,300	-39,558	-0,062	0,023
-180,285	215,419	0,164	-0,187
-179,271	742,425	-0,033	0,065
-178,256	800,000	0,012	0,026
-177,242	429,520	0,051	-0,079
-176,227	-200,000	0,008	-0,052
-175,212	-200,000	-0,011	-0,099
-174,198	777,706	-0,051	-0,100
-173,183	595,981	-0,032	-0,057
-172,169	-134,971	0,078	-0,007
-171,154	-64,041	-0,056	0,016
-170,139	92,576	0,063	0,051
-169,125	0,998	-0,049	0,025
-168,110	800,000	-0,038	0,118
-167,096	428,940	-0,097	0,151
-166,081	-51,373	-0,073	-0,024
-165,066	-200,000	-0,001	-0,008
-164,052	-81,464	0,086	-0,020
-163,037	-200,000	-0,023	-0,089
-162,023	-200,000	0,003	-0,046
-161,008	-200,000	-0,002	0,076
-159,993	-123,389	-0,031	0,003
-158,979	153,741	0,064	-0,063
-157,964	-34,372	-0,093	-0,036
-156,950	64,358	0,058	0,042
-155,935	-111,872	0,095	0,014
-154,920	-104,971	-0,097	0,016
-153,906	-114,828	-0,064	-0,009
-152,891	-82,128	0,135	0,031
-151,877	800,000	-0,066	-0,148
-150,862	682,536	0,050	-0,094
-149,847	70,947	0,025	-0,019
-148,833	54,751	0,105	-0,073
-147,818	60,124	-0,080	0,057
-146,804	80,402	-0,080	0,062
-145,789	-109,736	0,061	-0,009
-144,775	800,000	0,024	-0,061
-143,760	-95,621	0,088	0,017
-142,745	-200,000	0,013	-0,094
-141,731	800,000	0,007	0,017
-140,716	647,585	0,037	0,069
-139,702	-2,224	0,124	-0,063
-138,687	96,515	-0,117	0,096
-137,672	-75,298	0,067	0,017
-136,658	-61,345	0,046	-0,014
-135,643	-103,507	0,031	0,005
-134,629	800,000	0,027	0,067
-133,614	260,152	-0,042	0,052
-132,599	-200,000	-0,024	0,127
-131,585	-200,000	-0,005	0,040
-130,570	800,000	0,028	0,065
-129,556	-200,000	-0,034	-0,124
-128,541	367,539	-0,121	-0,176
-127,526	625,288	-0,043	0,079
-126,512	412,482	0,046	0,071
-125,497	-200,000	-0,029	0,156
-124,483	-83,434	0,036	-0,008
-123,468	57,202	0,048	0,033
-122,453	800,000	-0,036	-0,091
-121,439	25,611	-0,099	-0,059
-120,424	103,816	0,040	-0,034
-119,410	-73,048	0,083	-0,022
-118,395	-53,206	0,113	0,037
