DTS Sentinel unit serial number:	SN410029Multiplexer serial number:	ORYXHardware model number:	OX2-SRSoftware version number:	ORYX F/W v4,00 Oryx Data Collector v3.7.2.0data status	okinstallation	B6 Nyhavnadifferential loss correction	single-endedforward channel	channel 2reverse channel	N/Adate	2023/12/10time	03:35:08forward acquisition time	300,00reverse acquisition time	0,00gamma	499,1914k internal	0,3125k external	0,3125temperature offset calibration	1,0000default loss term (dB/km)	0,3820temperature slope calibration	1,0000multiplexer offset coefficient	1,0000multiplexer slope coefficient	1,0000fibre end	0,00T internal ref (°C)	22,02T ext. ref 1 (°C)	5,96T ext. ref 2 (°C)	5,92length (m)	temperature (°C)	Stokes	anti-Stokes-744,400	397,192	-0,025	0,040
-743,385	195,414	-0,134	0,152
-742,371	-65,612	0,220	0,065
-741,356	-200,000	-0,046	0,205
-740,342	-76,414	-0,167	0,043
-739,327	73,444	-0,107	0,083
-738,312	235,602	-0,100	-0,123
-737,298	210,244	-0,145	0,169
-736,283	-125,770	-0,058	-0,006
-735,269	-123,361	-0,229	0,027
-734,254	-81,475	0,100	-0,024
-733,239	-134,010	-0,506	-0,046
-732,225	292,797	0,086	-0,118
-731,210	-47,593	-0,102	0,037
-730,196	-81,505	-0,033	0,008
-729,181	-134,908	0,079	0,007
-728,167	-200,000	-0,008	0,051
-727,152	-200,000	0,026	0,093
-726,137	-10,562	-0,090	-0,044
-725,123	-149,555	-0,093	0,005
-724,108	207,624	-0,071	0,082
-723,094	628,588	-0,079	-0,150
-722,079	191,650	-0,049	0,056
-721,064	-200,000	0,003	0,057
-720,050	46,579	-0,058	0,040
-719,035	221,823	-0,077	0,092
-718,021	-58,255	-0,027	-0,009
-717,006	-200,000	-0,024	-0,101
-715,991	-105,640	-0,149	0,025
-714,977	-89,058	-0,055	0,012
-713,962	447,067	-0,031	0,052
-712,948	53,496	0,037	0,026
-711,933	-138,624	0,076	0,006
-710,918	449,864	0,021	0,034
-709,904	-200,000	0,026	-0,169
-708,889	-200,000	-0,055	-0,209
-707,875	-200,000	-0,001	-0,104
-706,860	373,446	-0,095	-0,145
-705,845	800,000	-0,019	-0,051
-704,831	702,831	0,049	0,096
-703,816	136,250	-0,037	-0,036
-702,802	-50,573	-0,100	-0,035
-701,787	51,396	-0,105	-0,074
-700,772	42,053	0,033	-0,023
-699,758	659,205	0,061	-0,118
-698,743	-118,000	-0,067	-0,009
-697,729	-32,744	0,028	0,012
-696,714	388,335	0,071	0,110
-695,699	-200,000	0,008	0,036
-694,685	26,368	0,120	0,074
-693,670	466,709	-0,040	-0,067
-692,656	-31,492	-0,080	0,033
-691,641	800,000	-0,047	-0,133
-690,627	372,668	0,086	0,130
-689,612	25,545	-0,085	0,052
-688,597	-189,805	-0,100	0,001
-687,583	-139,918	-0,172	0,013
-686,568	34,214	-0,097	-0,063
-685,554	59,285	-0,064	-0,047
-684,539	-200,000	-0,021	-0,103
-683,524	-200,000	-0,015	-0,063
-682,510	-136,741	-0,153	0,013
-681,495	57,037	-0,095	-0,069
-680,481	-115,378	-0,101	0,014
-679,466	-90,234	-0,171	-0,037
-678,451	337,215	0,053	-0,077
-677,437	-200,000	-0,025	-0,144
-676,422	101,913	0,146	0,126
-675,408	215,119	-0,101	-0,119
-674,393	204,754	-0,084	0,097
-673,378	123,364	-0,069	-0,065
-672,364	-116,983	-0,011	-0,001
-671,349	93,317	0,095	-0,080
-670,335	-200,000	-0,012	-0,071
-669,320	-200,000	-0,009	-0,055
-668,305	288,988	0,061	-0,082
-667,291	-135,993	0,064	0,005
-666,276	-200,000	0,000	-0,102
-665,262	-55,385	-0,098	-0,032
-664,247	681,272	-0,025	0,048
-663,232	-51,495	-0,096	0,033
-662,218	18,669	0,117	-0,070
-661,203	-129,443	0,107	0,011
-660,189	75,485	0,040	-0,031
-659,174	-200,000	-0,014	-0,139
-658,159	628,164	0,045	-0,084
-657,145	-93,324	0,128	0,026
-656,130	567,897	-0,050	0,091
-655,116	302,592	0,110	0,151
-654,101	-200,000	0,085	-0,000
-653,086	-13,397	-0,112	0,054
-652,072	-200,000	0,028	-0,131
-651,057	286,386	0,035	-0,047
-650,043	-195,016	0,110	0,001
-649,028	-124,734	-0,099	-0,011
-648,014	62,941	-0,102	0,076
-646,999	-124,333	0,103	0,012
-645,984	112,914	-0,029	0,026
-644,970	-164,103	-0,152	-0,005
-643,955	-44,285	-0,052	0,019
-642,941	800,000	-0,039	-0,118
-641,926	-80,197	-0,056	-0,014
-640,911	-136,694	0,111	0,009
-639,897	154,062	0,073	0,074
-638,882	-77,224	0,109	-0,028
-637,868	-200,000	-0,002	0,113
-636,853	62,931	-0,088	-0,065
-635,838	673,266	0,052	-0,100
-634,824	800,000	0,053	-0,145
-633,809	-127,364	0,127	0,014
-632,795	-200,000	0,015	0,098
-631,780	66,414	-0,038	0,028
-630,765	57,822	-0,042	-0,030
-629,751	800,000	0,045	-0,131
-628,736	-166,645	-0,106	0,003
-627,722	800,000	-0,038	-0,114
-626,707	-152,079	-0,158	0,008
-625,692	-93,878	0,085	-0,017
-624,678	-125,721	-0,123	0,014
-623,663	-200,000	-0,001	-0,005
-622,649	-75,636	-0,126	-0,033
-621,634	-34,626	-0,014	0,006
-620,619	-200,000	0,017	-0,091
-619,605	105,179	-0,080	-0,070
-618,590	55,622	-0,027	0,020
-617,576	-99,860	-0,167	-0,031
-616,561	-200,000	0,014	0,092
-615,546	-200,000	-0,004	0,054
-614,532	136,651	0,072	-0,070
-613,517	-174,492	-0,050	0,001
-612,503	-167,765	-0,027	-0,001
-611,488	-23,558	-0,088	0,039
-610,474	-21,851	0,072	0,032
-609,459	-78,444	-0,078	-0,020
-608,444	-31,346	-0,112	-0,046
-607,430	-200,000	0,024	-0,091
-606,415	-200,000	-0,017	-0,117
-605,401	-200,000	0,040	-0,158
-604,386	-200,000	-0,003	-0,186
-603,371	-200,000	-0,004	0,103
-602,357	-46,394	-0,127	0,046
-601,342	-200,000	0,069	-0,234
-600,328	351,185	-0,059	-0,087
-599,313	25,326	0,020	0,012
-598,298	380,545	0,017	0,026
-597,284	129,694	0,024	0,023
-596,269	592,200	0,042	0,077
-595,255	-69,536	-0,077	-0,022
-594,240	66,622	-0,061	0,046
-593,225	-200,000	0,022	0,158
-592,211	-60,129	-0,075	-0,024
-591,196	-200,000	0,002	-0,024
-590,182	-100,811	0,035	0,006
-589,167	-200,000	0,042	0,235
-588,152	800,000	0,030	0,075
-587,138	800,000	-0,075	0,185
-586,123	415,381	-0,111	-0,176
-585,109	44,463	-0,033	0,022
-584,094	-8,143	-0,053	0,026
-583,079	305,865	0,037	0,051
-582,065	-8,946	0,055	-0,027
-581,050	-200,000	-0,024	0,154
-580,036	-199,207	0,093	-0,000
-579,021	-165,673	-0,036	0,001
-578,006	-30,033	-0,079	0,033
-576,992	-200,000	-0,020	-0,133
-575,977	-84,587	0,128	0,030
-574,963	-153,346	0,037	-0,002
-573,948	-154,922	-0,066	-0,003
-572,934	-34,154	0,048	-0,020
-571,919	75,487	-0,102	-0,080
-570,904	46,502	-0,100	0,069
-569,890	402,576	0,069	-0,108
-568,875	-43,829	-0,097	0,036
-567,861	126,518	-0,085	0,080
-566,846	800,000	-0,030	-0,078
-565,831	-4,293	0,121	0,062
-564,817	-200,000	-0,003	0,067
-563,802	-118,191	-0,053	-0,007
-562,788	-200,000	-0,033	-0,123
-561,773	132,164	-0,102	-0,097
-560,758	-111,441	0,152	0,023
-559,744	315,730	-0,028	-0,039
-558,729	-3,741	0,049	0,025
-557,715	315,859	-0,062	0,087
-556,700	-53,492	0,056	-0,019
-555,685	800,000	-0,021	-0,046
-554,671	-154,865	0,098	-0,005
-553,656	176,915	0,131	0,141
-552,642	-184,918	-0,051	-0,001
-551,627	-32,514	0,037	0,015
-550,612	-200,000	0,006	0,091
-549,598	800,000	0,021	-0,058
-548,583	-3,077	0,071	-0,036
-547,569	-200,000	0,024	-0,192
-546,554	-1,419	0,129	-0,067
-545,539	131,268	-0,083	0,079
-544,525	-30,656	0,096	0,040
-543,510	-200,000	-0,008	-0,095
-542,496	299,739	0,023	0,032
-541,481	-162,575	0,155	-0,006
-540,466	478,926	0,037	-0,062
-539,452	81,765	0,042	-0,034
-538,437	-13,156	-0,082	-0,039
-537,423	208,772	-0,053	-0,061
-536,408	-200,000	-0,013	-0,120
-535,393	-76,281	-0,057	-0,015
-534,379	-56,579	-0,081	-0,026
-533,364	800,000	0,029	0,093
-532,350	-200,000	0,000	-0,036
-531,335	113,380	-0,099	0,089
-530,321	-200,000	-0,018	-0,061
-529,306	-101,689	0,091	0,016
-528,291	-73,495	0,071	-0,019
-527,277	800,000	-0,021	-0,067
-526,262	76,760	0,100	-0,078
-525,248	-113,372	0,093	0,013
-524,233	-17,999	0,117	-0,054
-523,218	-200,000	-0,016	-0,113
-522,204	317,687	0,008	-0,011
-521,189	73,281	-0,057	-0,044
-520,175	-200,000	0,028	-0,121
-519,160	800,000	-0,042	-0,111
-518,145	-108,181	-0,068	0,011
-517,131	-93,857	-0,002	0,000
-516,116	800,000	-0,018	0,043
-515,102	162,606	-0,108	-0,112
-514,087	-26,065	-0,020	0,009
-513,072	124,233	0,069	0,064
-512,058	-81,799	-0,095	-0,023
-511,043	-200,000	-0,008	-0,069
-510,029	80,536	-0,089	0,071
-509,014	-98,318	-0,159	0,030
-507,999	191,812	0,035	-0,039
-506,985	-154,899	0,086	-0,004
-505,970	114,407	0,047	0,042
-504,956	-76,711	-0,183	0,047
-503,941	28,880	0,078	0,049
-502,926	-157,270	0,075	-0,003
-501,912	-200,000	0,002	-0,061
-500,897	102,012	0,068	0,059
-499,883	11,021	-0,086	-0,049
-498,868	-46,993	-0,088	-0,032
-497,853	-46,919	-0,112	-0,040
-496,839	-200,000	-0,016	-0,141
-495,824	-33,521	0,207	0,084
-494,810	-144,506	-0,076	-0,005
-493,795	-200,000	-0,002	-0,021
-492,781	62,234	-0,101	0,075
-491,766	-13,699	-0,052	0,025
-490,751	-189,316	0,017	-0,000
-489,737	-200,000	-0,014	-0,086
-488,722	-200,000	-0,018	-0,173
-487,708	-79,674	0,015	0,004
-486,693	154,528	0,064	0,065
-485,678	-200,000	0,001	0,009
-484,664	81,000	0,042	-0,033
-483,649	-200,000	-0,011	0,186
-482,635	-200,000	-0,021	-0,124
-481,620	-200,000	-0,001	-0,184
-480,605	166,416	-0,068	-0,071
-479,591	220,374	-0,066	0,078
-478,576	-93,922	0,163	0,033
-477,562	20,590	-0,054	-0,032
-476,547	-200,000	0,036	0,191
-475,532	-200,000	-0,019	0,110
-474,518	-138,894	-0,134	0,011
-473,503	391,217	0,028	0,043
-472,489	217,597	-0,103	0,121
-471,474	37,327	0,077	0,050
-470,459	-166,855	-0,101	0,003
-469,445	-200,000	0,001	0,013
-468,430	-61,210	-0,061	-0,019
-467,416	-200,000	0,042	-0,155
-466,401	-200,000	0,015	-0,072
-465,386	106,445	0,086	-0,075
-464,372	-200,000	0,042	-0,184
-463,357	-200,000	0,003	0,019
-462,343	800,000	-0,046	0,098
-461,328	-27,912	0,105	-0,045
-460,313	52,907	0,037	-0,026
-459,299	800,000	-0,038	0,079
-458,284	107,131	0,127	0,111
-457,270	-16,207	-0,124	0,058
-456,255	-99,990	-0,059	-0,011
-455,241	800,000	-0,030	-0,078
-454,226	-200,000	-0,009	-0,032
-453,211	283,919	0,061	0,082
-452,197	28,773	-0,045	-0,028
-451,182	257,270	-0,072	0,092
-450,168	234,211	-0,036	-0,044
-449,153	77,824	0,020	-0,016
-448,138	297,764	-0,105	-0,143
-447,124	800,000	0,002	-0,004
-446,109	16,020	0,066	0,038
-445,095	75,807	-0,084	0,065
-444,080	-137,529	0,123	-0,010
-443,065	776,430	-0,027	0,054
-442,051	-200,000	0,024	0,120
-441,036	800,000	-0,037	-0,106
-440,022	-32,157	-0,152	0,062
-439,007	-66,646	0,088	-0,025
-437,992	39,485	0,045	-0,030
-436,978	149,049	0,078	0,077
-435,963	-15,040	0,086	0,041
-434,949	41,000	-0,030	0,020
-433,934	350,355	-0,083	0,122
-432,919	54,836	0,060	-0,043
-431,905	-96,003	0,026	0,005
-430,890	74,561	0,045	-0,035
-429,876	800,000	-0,042	-0,096
-428,861	570,211	0,057	-0,102
-427,846	92,472	-0,036	0,030
-426,832	296,667	-0,103	-0,139
-425,817	-58,639	-0,047	0,015
-424,803	-200,000	0,005	-0,146
-423,788	-200,000	0,001	0,091
-422,773	32,784	-0,047	0,030
-421,759	-97,975	0,058	-0,011
-420,744	-57,728	-0,026	-0,008
-419,730	334,650	-0,050	-0,071
-418,715	800,000	0,004	-0,008
-417,701	264,432	0,029	0,037
-416,686	-200,000	-0,008	-0,028
-415,671	800,000	0,040	0,127
-414,657	-200,000	-0,024	0,152
-413,642	-200,000	0,018	0,120
-412,628	-141,700	-0,070	-0,005
-411,613	170,297	0,014	0,015
-410,598	-142,494	-0,116	0,008
-409,584	-110,696	-0,072	0,011
-408,569	-131,140	0,142	0,014
-407,555	260,518	-0,034	0,043
-406,540	-200,000	0,012	-0,117
-405,525	37,299	-0,109	-0,071
-404,511	74,498	-0,067	-0,052
-403,496	-50,014	-0,095	0,033
-402,482	-200,000	0,018	-0,072
-401,467	-200,000	0,019	0,215
-400,452	-94,003	-0,128	0,026
-399,438	38,346	-0,085	-0,055
-398,423	-200,000	0,069	0,274
-397,409	-200,000	-0,006	-0,052
-396,394	291,674	0,038	0,051
-395,379	-200,000	0,016	-0,085
-394,365	-119,320	0,082	0,010
-393,350	122,970	0,053	-0,049
-392,336	-200,000	0,003	0,025
-391,321	800,000	0,047	0,119
-390,306	71,128	-0,079	-0,060
-389,292	-35,878	0,090	0,035
-388,277	800,000	-0,025	0,079
-387,263	3,594	0,064	0,034
-386,248	800,000	-0,038	0,081
-385,233	102,679	-0,025	0,022
-384,219	376,151	-0,059	0,089
-383,204	-94,519	-0,101	0,020
-382,190	147,365	-0,022	0,022
-381,175	-90,644	-0,096	-0,020
-380,160	-161,917	-0,114	0,004
-379,146	557,589	0,048	0,086
-378,131	-126,691	0,078	0,008
-377,117	183,391	0,027	-0,029
-376,102	-200,000	0,014	-0,066
-375,088	17,761	0,114	0,067
-374,073	-21,165	-0,054	-0,024
-373,058	-135,679	0,120	0,010
-372,044	-200,000	0,022	-0,074
-371,029	325,313	0,078	0,110
-370,015	74,055	-0,063	0,048
-369,000	-135,818	-0,111	0,009
-367,985	-129,293	-0,117	0,012
-366,971	-9,154	0,125	-0,061
-365,956	62,333	0,129	-0,094
-364,942	345,311	-0,046	-0,067
-363,927	-151,851	0,156	-0,008
-362,912	-71,339	0,020	0,005
-361,898	91,658	-0,062	-0,052
-360,883	81,259	-0,087	-0,069
-359,869	-200,000	-0,009	-0,043
-358,854	-200,000	-0,022	-0,127
-357,839	-200,000	-0,016	0,127
-356,825	-200,000	0,025	0,155
-355,810	143,203	-0,025	-0,025
-354,796	-37,890	0,105	-0,041
-353,781	-139,063	-0,142	0,011
-352,766	186,075	-0,040	0,044
-351,752	407,396	-0,134	0,208
-350,737	455,059	0,097	0,158
-349,723	-130,206	-0,106	-0,010
-348,708	-200,000	-0,004	0,066
-347,693	612,699	0,037	-0,068
-346,679	-200,000	-0,003	-0,034
-345,664	-200,000	-0,035	-0,142
-344,650	162,945	-0,057	0,059
-343,635	-11,110	0,191	0,092
-342,620	-139,521	0,031	-0,002
-341,606	487,034	0,063	-0,106
-340,591	326,429	-0,020	0,029
-339,577	-72,546	0,145	0,039
-338,562	-137,455	0,099	0,008
-337,548	40,274	0,093	-0,061
-336,533	-200,000	0,011	0,053
-335,518	-200,000	0,015	0,138
-334,504	-200,000	-0,184	0,000
-333,489	502,703	0,033	0,056
-332,475	58,488	-0,122	-0,087
-331,460	454,329	0,032	-0,052
-330,445	800,000	-0,060	0,124
-329,431	131,192	-0,073	0,068
-328,416	800,000	-0,024	0,057
-327,402	-200,000	-0,005	-0,081
-326,387	462,944	-0,021	0,034
-325,372	800,000	-0,004	-0,009
-324,358	-200,000	0,003	-0,042
-323,343	105,011	-0,054	-0,046
-322,329	508,658	-0,093	0,158
-321,314	-142,441	0,086	0,006
-320,299	800,000	0,043	-0,120
-319,285	-200,000	-0,013	-0,051
-318,270	-200,000	-0,056	-0,194
-317,256	-79,905	0,099	-0,024
-316,241	-200,000	0,012	-0,067
-315,226	156,409	0,085	0,086
-314,212	18,217	0,076	-0,044
-313,197	514,884	0,061	0,105
-312,183	-3,371	0,129	-0,065
-311,168	-126,638	-0,129	0,014
-310,153	159,488	-0,026	-0,027
-309,139	-200,000	0,012	0,071
-308,124	397,534	0,086	0,131
-307,110	169,532	0,047	0,049
-306,095	210,115	-0,076	-0,087
-305,080	169,490	0,040	-0,041
-304,066	-115,971	-0,089	-0,012
-303,051	800,000	-0,040	-0,093
-302,037	-25,198	0,140	-0,060
-301,022	-200,000	-0,014	0,100
-300,008	456,386	0,038	0,062
-298,993	-200,000	-0,016	0,165
-297,978	250,819	0,058	-0,072
-296,964	274,699	-0,026	0,034
-295,949	350,687	0,093	0,135
-294,935	239,179	-0,111	-0,135
-293,920	800,000	0,035	0,109
-292,905	82,566	0,148	0,117
-291,891	-200,000	-0,006	-0,072
-290,876	-200,000	0,010	-0,066
-289,862	-0,222	0,057	0,029
-288,847	5,262	-0,036	-0,019
-287,832	-43,088	0,010	0,004
-286,818	324,775	0,026	0,036
-285,803	800,000	0,073	0,170
-284,789	214,872	0,008	-0,009
-283,774	254,296	-0,054	0,068
-282,759	59,169	-0,039	-0,028
-281,745	-38,012	-0,046	-0,018
-280,730	8,447	-0,094	-0,052
-279,716	10,381	0,062	0,035
-278,701	158,820	0,097	0,099
-277,686	117,994	0,085	-0,076
-276,672	711,134	0,051	-0,100
-275,657	258,006	0,081	0,103
-274,643	-102,922	-0,097	0,017
-273,628	-123,902	-0,066	-0,007
-272,613	315,631	0,081	0,112
-271,599	-123,445	0,060	0,007
-270,584	-27,756	0,163	0,069
-269,570	170,771	0,037	-0,039
-268,555	53,050	0,035	0,024
-267,540	-200,000	0,040	-0,135
-266,526	800,000	-0,053	-0,141
-265,511	551,828	0,035	-0,063
-264,497	742,437	0,034	-0,068
-263,482	800,000	0,047	0,147
-262,467	800,000	-0,017	0,053
-261,453	47,397	0,032	0,022
-260,438	800,000	-0,016	0,035
-259,424	-200,000	-0,023	-0,181
-258,409	19,359	0,071	-0,042
-257,395	340,090	0,073	0,104
-256,380	205,050	-0,048	-0,055
-255,365	-125,978	0,028	-0,003
-254,351	122,646	-0,085	-0,078
-253,336	-37,421	0,242	-0,094
-252,322	-64,213	0,054	0,016
-251,307	6,753	0,075	-0,041
-250,292	-102,319	0,142	-0,025
-249,278	-82,444	-0,060	-0,014
-248,263	97,829	0,100	0,084
-247,249	-40,704	0,061	0,023
-246,234	800,000	-0,013	-0,042
-245,219	421,611	-0,105	0,165
-244,205	301,929	0,007	0,009
-243,190	640,169	-0,064	0,120
-242,176	13,104	-0,041	0,023
-241,161	4,101	0,136	0,072
-240,146	71,204	-0,029	-0,022
-239,132	303,620	0,022	-0,029
-238,117	-42,907	0,046	0,017
-237,103	217,373	0,052	0,061
-236,088	800,000	0,049	-0,145
-235,073	-200,000	0,004	-0,095
-234,059	60,868	0,030	-0,021
-233,044	-85,216	0,138	0,031
-232,030	-200,000	0,011	0,074
-231,015	-63,531	0,079	-0,024
-230,000	800,000	-0,074	-0,171
-228,986	-124,237	0,104	-0,012
-227,971	-200,000	0,007	0,169
-226,957	197,020	0,086	0,095
-225,942	800,000	-0,038	0,120
-224,927	-200,000	0,013	-0,077
-223,913	-5,884	-0,102	-0,051
-222,898	306,323	0,015	0,020
-221,884	596,673	-0,024	-0,043
-220,869	41,441	-0,063	-0,042
-219,855	-77,482	-0,056	-0,014
-218,840	304,333	0,016	0,021
-217,825	800,000	-0,015	0,042
-216,811	43,971	-0,126	0,084
-215,796	414,094	0,018	0,028
-214,782	29,712	0,063	-0,039
-213,767	1,424	0,059	0,031
-212,752	-148,810	-0,079	0,005
-211,738	-103,374	0,082	0,014
-210,723	609,281	-0,060	0,109
-209,709	5,620	0,038	-0,021
-208,694	369,419	-0,025	-0,037
-207,679	94,011	-0,073	0,060
-206,665	-27,006	0,065	0,028
-205,650	40,570	0,086	-0,056
-204,636	-95,259	-0,210	0,041
-203,621	567,591	-0,044	0,079
-202,606	202,401	0,059	0,066
-201,592	85,796	-0,027	0,022
-200,577	28,194	0,121	-0,074
-199,563	-66,265	0,059	-0,017
-198,548	-155,685	0,059	-0,003
-197,533	-197,900	0,143	0,001
-196,519	-200,000	0,005	0,018
-195,504	404,563	-0,089	-0,138
-194,490	88,011	0,105	-0,085
-193,475	325,364	-0,087	-0,121
-192,460	530,334	-0,022	-0,038
-191,446	-33,360	-0,052	0,021
-190,431	422,320	0,056	0,087
-189,417	335,030	0,042	0,060
-188,402	-200,000	0,003	0,017
-187,387	-33,857	-0,093	0,037
-186,373	72,238	0,071	-0,054
-185,358	-16,312	0,050	-0,023
-184,344	-200,000	-0,012	-0,055
-183,329	-61,475	0,065	-0,020
-182,315	-200,000	-0,002	-0,203
-181,300	-200,000	-0,026	-0,100
-180,285	198,298	-0,013	0,015
-179,271	172,477	-0,080	-0,084
-178,256	13,186	-0,110	-0,062
-177,242	25,544	-0,056	-0,034
-176,227	-200,000	-0,006	0,190
-175,212	800,000	-0,048	0,108
-174,198	311,706	0,067	0,092
-173,183	-200,000	-0,004	-0,212
-172,169	47,443	-0,135	-0,091
-171,154	69,033	0,066	0,050
-170,139	94,691	0,046	0,038
-169,125	19,509	0,109	0,064
-168,110	150,611	-0,045	-0,045
-167,096	198,073	-0,024	0,027
-166,081	164,713	-0,054	0,056
-165,066	-5,625	-0,104	0,052
-164,052	107,767	0,083	-0,072
-163,037	800,000	-0,035	-0,081
-162,023	-200,000	0,021	0,121
-161,008	-69,574	-0,039	0,011
-159,993	-112,390	0,106	-0,015
-158,979	-74,922	0,063	0,016
-157,964	-200,000	0,006	-0,081
-156,950	399,768	-0,049	0,074
-155,935	370,860	-0,013	0,020
-154,920	19,528	-0,003	-0,002
-153,906	-200,000	0,008	0,054
-152,891	150,203	-0,077	0,076
-151,877	800,000	-0,012	0,033
-150,862	-200,000	-0,008	0,071
-149,847	491,762	-0,033	0,055
-148,833	156,818	0,053	-0,053
-147,818	-19,309	0,105	-0,047
-146,804	-200,000	0,034	0,111
-145,789	-200,000	0,009	-0,048
-144,775	-2,993	-0,055	0,028
-143,760	-200,000	0,050	-0,167
-142,745	-200,000	0,014	0,072
-141,731	-200,000	-0,016	0,111
-140,716	-107,211	0,159	-0,025
-139,702	697,984	-0,056	0,108
-138,687	-200,000	-0,001	0,020
-137,672	58,614	-0,110	0,078
-136,658	-200,000	0,034	-0,130
-135,643	138,671	0,062	-0,059
-134,629	643,912	0,036	0,068
-133,614	-18,361	0,140	0,063
-132,599	174,839	-0,061	-0,065
-131,585	800,000	0,053	-0,126
-130,570	800,000	0,048	0,149
-129,556	-53,488	-0,112	-0,037
-128,541	520,467	0,060	-0,102
-127,526	13,079	0,028	-0,016
-126,512	-200,000	0,030	0,149
-125,497	-200,000	-0,013	0,041
-124,483	800,000	-0,035	0,077
-123,468	-48,288	-0,027	0,010
-122,453	137,833	-0,072	-0,069
-121,439	350,354	-0,035	-0,050
-120,424	-48,234	0,097	-0,034
-119,410	800,000	0,016	0,051
