DTS Sentinel unit serial number:	SN410029Multiplexer serial number:	ORYXHardware model number:	OX2-SRSoftware version number:	ORYX F/W v4,00 Oryx Data Collector v3.7.2.0data status	okinstallation	B6 Nyhavnadifferential loss correction	single-endedforward channel	channel 2reverse channel	N/Adate	2023/12/11time	00:35:08forward acquisition time	300,00reverse acquisition time	0,00gamma	499,1914k internal	0,3122k external	0,3122temperature offset calibration	1,0000default loss term (dB/km)	0,3820temperature slope calibration	1,0000multiplexer offset coefficient	1,0000multiplexer slope coefficient	1,0000fibre end	0,00T internal ref (°C)	22,31T ext. ref 1 (°C)	5,76T ext. ref 2 (°C)	5,78length (m)	temperature (°C)	Stokes	anti-Stokes-744,400	-139,296	-0,114	-0,009
-743,385	32,443	-0,296	0,190
-742,371	-105,205	0,073	0,012
-741,356	118,597	-0,203	0,187
-740,342	800,000	0,039	-0,124
-739,327	-0,616	-0,196	0,104
-738,312	-200,000	-0,016	-0,099
-737,298	56,098	-0,155	0,112
-736,283	95,329	-0,051	0,043
-735,269	-75,230	-0,181	0,048
-734,254	592,306	0,074	0,137
-733,239	-46,862	-0,355	-0,129
-732,225	15,218	-0,094	-0,055
-731,210	339,121	-0,094	0,136
-730,196	681,149	0,067	0,130
-729,181	381,284	-0,037	0,057
-728,167	-61,170	0,052	-0,016
-727,152	-21,216	0,164	-0,074
-726,137	800,000	-0,049	-0,144
-725,123	800,000	-0,015	-0,047
-724,108	745,101	-0,063	-0,127
-723,094	800,000	0,058	-0,134
-722,079	-200,000	-0,010	-0,104
-721,064	8,665	-0,094	0,053
-720,050	-200,000	-0,008	0,042
-719,035	-49,737	-0,058	-0,020
-718,021	-200,000	-0,010	-0,201
-717,006	800,000	-0,017	-0,043
-715,991	123,938	-0,112	-0,104
-714,977	369,525	-0,079	-0,120
-713,962	-200,000	0,001	-0,084
-712,948	-200,000	-0,005	0,033
-711,933	-46,066	-0,208	0,076
-710,918	-63,272	-0,089	0,027
-709,904	345,215	-0,040	0,059
-708,889	388,338	0,031	0,049
-707,875	-200,000	-0,024	-0,100
-706,860	800,000	0,062	-0,133
-705,845	-200,000	0,022	0,090
-704,831	60,236	-0,071	0,052
-703,816	-106,134	0,100	0,017
-702,802	-107,758	-0,113	-0,018
-701,787	512,566	-0,045	-0,078
-700,772	29,806	-0,207	-0,131
-699,758	800,000	0,025	-0,056
-698,743	-67,244	-0,037	-0,011
-697,729	-34,305	0,055	0,022
-696,714	21,675	0,088	-0,053
-695,699	-106,883	0,034	0,006
-694,685	-123,549	-0,134	-0,016
-693,670	-200,000	0,023	-0,098
-692,656	-200,000	-0,003	0,074
-691,641	236,535	0,034	-0,042
-690,627	192,295	0,016	0,018
-689,612	122,578	-0,070	0,065
-688,597	-200,000	0,002	-0,013
-687,583	41,006	0,026	0,017
-686,568	800,000	0,041	0,094
-685,554	255,550	0,023	-0,029
-684,539	-103,172	0,013	-0,002
-683,524	87,261	0,052	0,043
-682,510	-200,000	-0,019	0,142
-681,495	-200,000	-0,009	-0,033
-680,481	506,286	0,030	-0,051
-679,466	1,215	-0,088	0,047
-678,451	-200,000	-0,006	0,046
-677,437	-67,458	0,043	0,013
-676,422	-171,872	-0,027	0,001
-675,408	623,938	-0,036	-0,068
-674,393	66,230	-0,043	0,032
-673,378	184,683	-0,082	-0,090
-672,364	26,287	-0,097	-0,060
-671,349	470,904	-0,045	-0,076
-670,335	800,000	-0,052	-0,123
-669,320	800,000	0,021	-0,050
-668,305	336,629	0,111	0,161
-667,291	-200,000	0,043	0,151
-666,276	800,000	-0,070	-0,174
-665,262	-57,636	-0,126	0,041
-664,247	293,274	0,016	0,022
-663,232	-73,654	-0,045	-0,012
-662,218	-180,900	-0,154	0,002
-661,203	-34,215	-0,102	0,041
-660,189	-200,000	0,041	0,176
-659,174	85,524	-0,023	-0,019
-658,159	90,357	0,111	-0,092
-657,145	-36,122	0,056	0,022
-656,130	149,261	-0,083	0,083
-655,116	-13,011	0,131	-0,063
-654,101	-173,769	0,105	-0,002
-653,086	800,000	0,040	0,109
-652,072	147,132	0,019	-0,019
-651,057	78,265	-0,130	-0,103
-650,043	-97,186	-0,046	-0,009
-649,028	187,144	0,031	-0,034
-648,014	-135,135	0,060	-0,005
-646,999	-131,888	-0,070	-0,007
-645,984	129,311	-0,127	0,120
-644,970	-200,000	-0,004	-0,056
-643,955	800,000	0,078	-0,199
-642,941	800,000	0,052	-0,132
-641,926	-200,000	0,018	-0,079
-640,911	470,982	0,040	0,068
-639,897	-200,000	0,004	0,106
-638,882	800,000	-0,024	0,059
-637,868	-200,000	0,002	0,063
-636,853	-200,000	-0,052	-0,184
-635,838	800,000	0,029	-0,066
-634,824	760,083	-0,018	-0,036
-633,809	-200,000	-0,017	-0,063
-632,795	-151,258	0,008	-0,000
-631,780	100,403	-0,016	0,014
-630,765	-143,351	-0,037	-0,003
-629,751	800,000	-0,026	-0,058
-628,736	20,924	-0,054	0,032
-627,722	471,749	0,053	-0,089
-626,707	800,000	0,021	-0,052
-625,692	-129,539	0,119	0,012
-624,678	57,765	0,019	0,014
-623,663	104,693	0,100	-0,087
-622,649	-200,000	0,009	-0,041
-621,634	8,156	0,012	0,007
-620,619	11,691	-0,109	-0,062
-619,605	-149,658	0,032	0,002
-618,590	-200,000	-0,029	0,121
-617,576	182,519	0,023	-0,025
-616,561	-122,247	-0,092	-0,011
-615,546	41,050	0,125	0,084
-614,532	-200,000	0,038	-0,157
-613,517	-115,637	-0,022	-0,003
-612,503	800,000	0,012	0,030
-611,488	-200,000	0,004	-0,074
-610,474	643,835	-0,019	0,036
-609,459	-117,695	0,068	0,009
-608,444	679,000	0,031	0,061
-607,430	-126,849	-0,062	-0,007
-606,415	276,257	0,047	-0,062
-605,401	335,332	-0,036	0,052
-604,386	73,001	-0,071	-0,055
-603,371	111,319	-0,031	0,027
-602,357	518,464	-0,064	0,112
-601,342	-200,000	0,005	-0,061
-600,328	13,908	0,043	0,024
-599,313	-68,829	-0,126	-0,036
-598,298	-200,000	0,006	0,056
-597,284	800,000	0,044	-0,138
-596,269	-41,921	0,037	-0,014
-595,255	639,933	0,047	-0,089
-594,240	-200,000	0,022	-0,085
-593,225	800,000	-0,033	-0,103
-592,211	800,000	0,087	-0,225
-591,196	97,092	-0,037	-0,031
-590,182	-200,000	0,012	0,110
-589,167	54,794	0,120	0,086
-588,152	234,478	-0,031	-0,038
-587,138	-125,100	0,090	0,010
-586,123	-200,000	0,012	-0,125
-585,109	-200,000	-0,022	-0,106
-584,094	800,000	-0,001	-0,005
-583,079	11,849	0,072	-0,041
-582,065	-189,101	0,040	-0,000
-581,050	-200,000	0,010	-0,044
-580,036	-121,495	-0,199	-0,024
-579,021	-71,721	-0,052	-0,014
-578,006	-53,513	0,060	0,020
-576,992	-132,305	-0,175	-0,017
-575,977	83,116	0,058	-0,047
-574,963	60,796	-0,077	-0,056
-573,948	-53,434	0,177	0,060
-572,934	-19,994	-0,044	-0,020
-571,919	100,772	-0,125	0,107
-570,904	244,933	0,081	-0,101
-569,890	24,460	-0,036	0,022
-568,875	46,956	0,144	0,099
-567,861	-200,000	0,034	0,148
-566,846	135,818	0,059	0,056
-565,831	-200,000	-0,014	0,052
-564,817	70,673	0,025	-0,019
-563,802	-200,000	-0,014	-0,122
-562,788	602,987	-0,045	0,083
-561,773	-200,000	0,000	-0,103
-560,758	-154,468	-0,062	0,003
-559,744	-24,831	0,109	0,048
-558,729	80,565	-0,060	0,047
-557,715	-200,000	-0,041	-0,204
-556,700	98,790	-0,100	0,085
-555,685	-200,000	-0,026	0,092
-554,671	346,003	0,017	-0,025
-553,656	-85,098	0,035	-0,008
-552,642	84,698	-0,052	0,042
-551,627	-107,960	0,126	0,020
-550,612	759,472	-0,037	-0,075
-549,598	31,626	-0,040	-0,025
-548,583	-75,058	-0,175	-0,046
-547,569	246,179	-0,032	0,039
-546,554	-75,971	0,050	-0,013
-545,539	-26,335	0,078	-0,034
-544,525	-200,000	-0,021	-0,080
-543,510	151,668	-0,030	-0,031
-542,496	76,652	0,035	0,027
-541,481	19,436	0,089	-0,053
-540,466	27,334	-0,041	0,026
-539,452	169,417	-0,070	0,074
-538,437	310,745	0,162	0,225
-537,423	-36,087	0,132	-0,053
-536,408	-200,000	-0,016	-0,097
-535,393	59,978	0,183	-0,133
-534,379	-22,969	-0,073	0,033
-533,364	-112,880	-0,123	0,018
-532,350	-181,529	-0,085	-0,001
-531,335	167,834	-0,026	-0,027
-530,321	800,000	-0,003	-0,010
-529,306	-117,418	0,098	-0,013
-528,291	166,379	-0,027	0,028
-527,277	-200,000	-0,002	-0,168
-526,262	222,682	0,005	0,006
-525,248	-200,000	0,026	0,113
-524,233	-96,896	-0,123	0,024
-523,218	-44,962	0,075	-0,027
-522,204	206,809	-0,083	0,096
-521,189	-41,888	0,028	-0,010
-520,175	634,780	-0,068	0,127
-519,160	-200,000	0,030	0,122
-518,145	318,008	0,018	-0,025
-517,131	118,566	0,081	-0,074
-516,116	-123,698	0,205	0,024
-515,102	-114,424	0,038	0,005
-514,087	800,000	-0,027	0,067
-513,072	-19,985	-0,097	-0,044
-512,058	800,000	-0,055	-0,168
-511,043	-200,000	0,007	-0,058
-510,029	371,607	0,022	0,033
-509,014	326,798	0,053	-0,076
-507,999	201,549	0,023	-0,026
-506,985	-200,000	-0,053	-0,245
-505,970	174,438	0,067	-0,072
-504,956	258,957	0,060	0,077
-503,941	-200,000	0,010	0,053
-502,926	3,642	0,114	0,061
-501,912	90,497	0,112	0,093
-500,897	-174,209	-0,174	0,004
-499,883	800,000	-0,023	-0,066
-498,868	12,343	-0,152	-0,086
-497,853	-200,000	-0,018	0,183
-496,839	-200,000	-0,032	0,144
-495,824	-200,000	-0,005	0,176
-494,810	97,064	-0,028	-0,024
-493,795	49,642	-0,087	-0,061
-492,781	-139,609	-0,100	-0,008
-491,766	239,517	-0,058	0,071
-490,751	-63,289	0,023	-0,007
-489,737	-85,936	0,030	-0,007
-488,722	330,272	0,033	-0,047
-487,708	102,322	0,055	0,047
-486,693	-29,131	-0,109	0,046
-485,678	800,000	-0,024	-0,075
-484,664	-73,308	0,087	-0,023
-483,649	433,275	-0,022	-0,035
-482,635	800,000	0,012	0,033
-481,620	-142,262	0,210	0,015
-480,605	-200,000	-0,027	-0,159
-479,591	725,622	0,028	-0,055
-478,576	-153,249	0,051	0,003
-477,562	-200,000	-0,040	-0,185
-476,547	-200,000	-0,020	-0,093
-475,532	22,187	-0,057	0,034
-474,518	113,457	0,046	-0,041
-473,503	450,397	0,074	0,120
-472,489	202,078	0,080	0,091
-471,474	-173,929	0,066	-0,001
-470,459	-6,907	-0,023	0,011
-469,445	-72,705	0,029	-0,008
-468,430	800,000	-0,022	-0,049
-467,416	-12,840	-0,073	-0,035
-466,401	-200,000	0,004	-0,097
-465,386	800,000	0,033	0,092
-464,372	-200,000	0,006	0,083
-463,357	16,428	-0,094	-0,055
-462,343	285,287	-0,073	0,097
-461,328	92,288	0,122	-0,102
-460,313	-73,232	-0,090	0,024
-459,299	800,000	-0,010	-0,026
-458,284	-26,013	-0,042	0,018
-457,270	665,070	-0,038	-0,073
-456,255	148,150	-0,061	-0,060
-455,241	-109,894	0,138	0,021
-454,226	-200,000	-0,012	-0,072
-453,211	107,208	0,148	0,130
-452,197	-200,000	0,114	0,000
-451,182	196,729	-0,058	-0,065
-450,168	-32,536	0,153	0,063
-449,153	-52,116	0,091	-0,031
-448,138	359,235	-0,041	0,060
-447,124	264,844	-0,014	-0,018
-446,109	-200,000	0,009	-0,096
-445,095	-186,970	-0,097	0,001
-444,080	-86,968	0,028	-0,006
-443,065	92,117	-0,151	-0,126
-442,051	-200,000	-0,012	0,081
-441,036	306,387	0,020	0,028
-440,022	-200,000	-0,038	-0,181
-439,007	-101,052	-0,101	-0,018
-437,992	251,251	0,131	0,165
-436,978	-119,825	0,186	-0,023
-435,963	95,406	-0,062	-0,052
-434,949	-117,810	-0,076	-0,010
-433,934	-200,000	-0,002	0,029
-432,919	49,361	-0,088	0,061
-431,905	5,392	-0,033	-0,018
-430,890	189,141	0,089	-0,098
-429,876	800,000	-0,052	0,123
-428,861	800,000	0,025	-0,053
-427,846	22,516	-0,143	-0,086
-426,832	159,973	-0,076	0,078
-425,817	-141,629	0,173	0,013
-424,803	-200,000	-0,005	-0,079
-423,788	89,463	-0,079	-0,065
-422,773	-200,000	0,017	-0,109
-421,759	81,417	-0,075	-0,060
-420,744	-16,710	-0,020	0,009
-419,730	-47,596	-0,069	0,025
-418,715	-200,000	-0,022	-0,077
-417,701	-200,000	-0,003	-0,169
-416,686	-200,000	0,030	-0,165
-415,671	-200,000	0,003	0,085
-414,657	-104,102	-0,107	0,018
-413,642	307,959	0,029	0,039
-412,628	627,963	-0,078	0,145
-411,613	656,965	0,036	-0,068
-410,598	800,000	-0,051	-0,151
-409,584	277,927	0,062	-0,082
-408,569	-107,221	0,134	-0,021
-407,555	610,485	0,030	-0,055
-406,540	244,360	-0,070	0,087
-405,525	157,067	0,104	0,106
-404,511	160,126	-0,102	-0,105
-403,496	638,936	-0,039	0,074
-402,482	-4,953	0,019	0,010
-401,467	48,387	0,067	-0,046
-400,452	800,000	0,045	0,107
-399,438	-9,488	-0,060	0,030
-398,423	-52,153	-0,052	0,018
-397,409	-6,178	0,092	-0,046
-396,394	75,204	-0,053	0,041
-395,379	-200,000	-0,009	-0,108
-394,365	800,000	-0,079	-0,193
-393,350	-200,000	0,004	0,046
-392,336	393,031	-0,015	0,024
-391,321	501,685	-0,059	-0,101
-390,306	-200,000	0,040	-0,207
-389,292	-20,154	-0,101	-0,046
-388,277	11,558	0,086	-0,048
-387,263	-18,330	0,016	0,007
-386,248	-200,000	0,005	-0,020
-385,233	-52,326	0,064	-0,022
-384,219	-200,000	-0,004	-0,079
-383,204	40,362	-0,034	-0,023
-382,190	-1,731	0,061	-0,032
-381,175	382,068	0,084	-0,127
-380,160	-46,153	0,086	0,031
-379,146	-140,343	-0,090	0,007
-378,131	100,754	0,069	0,059
-377,117	91,095	-0,072	0,059
-376,102	204,089	-0,059	-0,068
-375,088	279,694	-0,102	-0,134
-374,073	9,047	-0,111	0,062
-373,058	-200,000	0,035	0,184
-372,044	-90,881	0,080	-0,017
-371,029	-200,000	-0,024	0,207
-370,015	377,496	0,048	0,072
-369,000	-200,000	0,011	-0,039
-367,985	-200,000	-0,003	-0,203
-366,971	3,505	-0,046	0,024
-365,956	-20,714	-0,044	-0,020
-364,942	-200,000	-0,014	0,072
-363,927	182,771	0,039	0,042
-362,912	121,166	-0,070	0,064
-361,898	-3,392	-0,016	0,008
-360,883	523,683	-0,043	0,074
-359,869	248,229	-0,055	0,069
-358,854	351,472	0,090	0,131
-357,839	800,000	0,022	0,067
-356,825	800,000	0,033	-0,105
-355,810	502,435	0,025	0,042
-354,796	-200,000	0,001	-0,037
-353,781	16,449	-0,109	0,063
-352,766	-200,000	-0,021	-0,114
-351,752	-200,000	0,010	0,055
-350,737	175,629	0,045	0,048
-349,723	-30,418	-0,115	0,047
-348,708	-185,100	-0,012	-0,000
-347,693	800,000	-0,030	-0,078
-346,679	34,373	-0,078	0,050
-345,664	-200,000	0,029	-0,172
-344,650	-93,905	-0,038	0,008
-343,635	82,364	0,084	0,067
-342,620	127,470	-0,063	-0,059
-341,606	-6,970	0,038	0,019
-340,591	-10,727	-0,087	-0,042
-339,577	-200,000	0,009	0,059
-338,562	223,300	0,019	-0,022
-337,548	-200,000	0,009	0,106
-336,533	97,346	-0,113	0,095
-335,518	-174,481	0,036	0,001
-334,504	108,897	0,065	0,057
-333,489	465,605	-0,025	-0,041
-332,475	150,169	-0,103	-0,103
-331,460	624,127	0,010	-0,018
-330,445	112,219	-0,063	0,056
-329,431	-77,101	-0,060	0,015
-328,416	-200,000	-0,003	0,033
-327,402	464,592	0,093	-0,153
-326,387	800,000	0,056	0,119
-325,372	-76,213	-0,134	0,034
-324,358	0,036	-0,108	0,056
-323,343	87,673	-0,100	-0,082
-322,329	-27,171	-0,071	0,030
-321,314	-95,663	0,068	0,013
-320,299	-26,951	0,132	0,056
-319,285	-27,623	-0,041	-0,017
-318,270	-9,408	-0,147	0,072
-317,256	-200,000	0,016	0,084
-316,241	800,000	0,052	0,120
-315,226	-125,634	-0,043	0,005
-314,212	-200,000	0,003	-0,050
-313,197	-33,723	-0,014	0,006
-312,183	25,683	-0,094	0,057
-311,168	359,884	0,062	-0,091
-310,153	-200,000	0,003	-0,022
-309,139	306,578	0,052	0,071
-308,124	-200,000	0,038	-0,167
-307,110	-98,051	0,026	-0,005
-306,095	-148,689	0,101	0,006
-305,080	93,615	-0,057	0,047
-304,066	73,798	-0,076	0,058
-303,051	176,733	-0,084	-0,090
-302,037	-18,410	0,023	0,010
-301,022	502,535	0,084	0,143
-300,008	61,743	-0,017	0,012
-298,993	-200,000	-0,003	0,066
-297,978	-119,842	0,065	-0,008
-296,964	257,844	-0,060	-0,076
-295,949	87,068	0,042	-0,034
-294,935	267,043	0,017	0,022
-293,920	435,936	-0,056	-0,089
-292,905	235,763	0,032	-0,039
-291,891	-112,338	0,029	-0,004
-290,876	800,000	0,045	0,091
-289,862	800,000	-0,017	0,052
-288,847	-200,000	0,036	-0,116
-287,832	-200,000	-0,007	-0,059
-286,818	800,000	0,012	-0,034
-285,803	-200,000	0,004	0,145
-284,789	-116,459	0,092	0,012
-283,774	363,792	0,014	0,021
-282,759	-90,940	0,101	-0,021
-281,745	-25,125	-0,085	-0,037
-280,730	274,379	-0,034	0,044
-279,716	195,374	-0,075	-0,084
-278,701	53,241	0,090	0,063
-277,686	-84,528	0,051	0,012
-276,672	-166,935	0,121	-0,004
-275,657	501,789	0,040	0,068
-274,643	169,964	-0,016	-0,017
-273,628	-9,841	-0,068	-0,033
-272,613	-184,100	-0,072	0,001
-271,599	51,257	-0,037	0,026
-270,584	-200,000	0,051	0,179
-269,570	-200,000	0,010	0,088
-268,555	-111,952	0,016	0,002
-267,540	226,501	0,074	0,088
-266,526	-141,637	-0,094	-0,007
-265,511	-200,000	0,057	-0,212
-264,497	48,145	-0,174	-0,119
-263,482	-200,000	0,011	0,083
-262,467	50,156	0,046	0,032
-261,453	-189,821	0,070	-0,001
-260,438	-200,000	0,014	0,070
-259,424	-56,011	0,066	-0,021
-258,409	-200,000	-0,005	-0,026
-257,395	-28,941	0,187	0,078
-256,380	72,857	-0,044	-0,033
-255,365	23,244	0,115	0,069
-254,351	118,288	-0,077	0,070
-253,336	244,767	-0,080	0,099
-252,322	114,813	-0,103	0,092
-251,307	-200,000	0,004	-0,191
-250,292	-0,248	-0,125	0,065
-249,278	53,243	0,083	-0,058
-248,263	278,373	0,015	0,020
-247,249	147,638	0,073	0,072
-246,234	663,991	0,016	0,030
-245,219	215,311	-0,058	-0,067
-244,205	106,728	-0,082	-0,071
-243,190	-200,000	0,010	0,045
-242,176	-50,798	0,111	0,038
-241,161	-112,097	-0,004	0,001
-240,146	433,115	-0,036	0,058
-239,132	-153,000	0,009	-0,000
-238,117	-200,000	-0,009	-0,047
-237,103	-174,608	0,134	-0,003
-236,088	14,274	-0,086	-0,049
-235,073	-93,620	-0,030	0,006
-234,059	-200,000	0,008	0,079
-233,044	46,448	0,116	0,079
-232,030	221,659	0,068	-0,081
-231,015	-123,471	-0,193	-0,022
-230,000	-31,065	0,104	-0,043
-228,986	373,666	-0,030	-0,045
-227,971	110,137	0,042	0,037
-226,957	-46,717	0,117	0,042
-225,942	-43,701	-0,125	0,046
-224,927	2,268	-0,009	-0,005
-223,913	-200,000	0,002	-0,117
-222,898	-31,302	-0,067	0,027
-221,884	29,879	0,137	0,085
-220,869	-76,354	0,097	0,025
-219,855	-124,833	-0,134	0,015
-218,840	82,065	-0,049	0,039
-217,825	-102,090	0,172	-0,030
-216,811	279,723	-0,058	0,076
-215,796	-129,367	-0,120	-0,012
-214,782	-200,000	-0,002	0,062
-213,767	-64,648	0,152	0,045
-212,752	-200,000	-0,021	0,136
-211,738	43,145	0,091	0,060
-210,723	-152,520	-0,128	0,007
-209,709	-55,798	0,125	0,041
-208,694	800,000	0,031	-0,082
-207,679	-16,258	-0,031	0,014
-206,665	800,000	-0,026	0,070
-205,650	37,394	-0,038	-0,024
-204,636	-200,000	0,016	0,060
-203,621	-66,420	0,021	0,006
-202,606	55,495	-0,062	-0,044
-201,592	-200,000	0,032	-0,129
-200,577	-200,000	0,011	-0,045
-199,563	44,448	0,070	-0,047
-198,548	-200,000	0,037	0,154
-197,533	-200,000	0,011	0,072
-196,519	800,000	0,055	0,140
-195,504	-19,489	0,049	0,022
-194,490	240,472	-0,041	0,050
-193,475	-150,820	0,046	-0,002
-192,460	-4,678	0,122	0,061
-191,446	483,101	-0,025	0,042
-190,431	-200,000	-0,020	0,109
-189,417	-77,723	0,094	0,024
-188,402	-166,949	-0,132	0,004
-187,387	222,920	-0,085	-0,100
-186,373	-138,678	0,104	0,008
-185,358	-200,000	-0,041	0,166
-184,344	-110,587	0,050	-0,007
-183,329	219,416	0,068	0,080
-182,315	-16,935	0,040	0,019
-181,300	240,222	-0,015	0,019
-180,285	73,965	-0,100	0,077
-179,271	-83,329	0,089	-0,021
-178,256	418,467	-0,029	-0,046
-177,242	-200,000	0,008	0,057
-176,227	174,190	0,056	0,059
-175,212	-200,000	-0,019	0,082
-174,198	-71,786	0,129	0,035
-173,183	187,133	-0,062	-0,068
-172,169	-200,000	0,004	-0,094
-171,154	59,513	-0,049	0,035
-170,139	-200,000	-0,008	-0,070
-169,125	49,038	-0,067	0,046
-168,110	96,970	0,100	0,084
-167,096	-200,000	-0,018	0,216
-166,081	-23,309	-0,104	-0,045
-165,066	800,000	-0,041	0,116
-164,052	-200,000	-0,005	-0,111
-163,037	-200,000	-0,006	0,096
-162,023	348,445	0,022	-0,032
-161,008	-200,000	-0,031	0,118
-159,993	118,126	0,015	-0,013
-158,979	-200,000	-0,013	-0,090
-157,964	122,821	-0,156	0,142
-156,950	24,569	-0,035	0,021
-155,935	-200,000	-0,016	0,119
-154,920	-200,000	0,002	-0,035
-153,906	553,543	0,034	-0,059
-152,891	-112,473	-0,133	0,019
-151,877	-100,820	-0,082	-0,014
-150,862	684,367	0,048	-0,092
-149,847	38,853	-0,077	-0,050
-148,833	270,833	0,051	-0,066
-147,818	-178,258	0,092	-0,002
-146,804	-69,689	0,078	-0,022
-145,789	713,020	0,077	0,149
-144,775	800,000	-0,026	0,071
-143,760	83,694	-0,096	-0,076
-142,745	-21,302	-0,058	0,026
-141,731	-200,000	0,017	-0,085
-140,716	-200,000	0,025	0,118
-139,702	-200,000	0,010	0,087
-138,687	102,766	0,101	-0,086
-137,672	800,000	-0,047	-0,112
-136,658	481,462	0,024	-0,039
-135,643	800,000	-0,010	0,029
-134,629	-70,402	0,050	-0,014
-133,614	-8,176	0,036	0,018
-132,599	-109,737	0,033	0,005
-131,585	-200,000	-0,015	0,087
-130,570	371,314	0,064	-0,095
-129,556	800,000	-0,028	-0,068
-128,541	800,000	0,029	-0,082
-127,526	36,156	0,077	0,049
-126,512	800,000	0,034	0,094
-125,497	800,000	0,030	0,072
-124,483	800,000	0,029	0,083
-123,468	-147,498	-0,241	-0,015
-122,453	228,353	0,062	-0,074
-121,439	-118,203	-0,094	-0,012
-120,424	-31,333	0,063	0,026
-119,410	-200,000	-0,008	-0,046
