DTS Sentinel unit serial number:	SN410029Multiplexer serial number:	ORYXHardware model number:	OX2-SRSoftware version number:	ORYX F/W v4,00 Oryx Data Collector v3.7.2.0data status	okinstallation	B6 Nyhavnadifferential loss correction	single-endedforward channel	channel 2reverse channel	N/Adate	2023/12/10time	13:30:08forward acquisition time	300,00reverse acquisition time	0,00gamma	499,1914k internal	0,3122k external	0,3122temperature offset calibration	1,0000default loss term (dB/km)	0,3820temperature slope calibration	1,0000multiplexer offset coefficient	1,0000multiplexer slope coefficient	1,0000fibre end	0,00T internal ref (°C)	22,77T ext. ref 1 (°C)	6,34T ext. ref 2 (°C)	6,35length (m)	temperature (°C)	Stokes	anti-Stokes-744,400	275,459	0,055	-0,073
-743,385	33,568	-0,233	0,151
-742,371	-200,000	-0,017	0,086
-741,356	-120,085	-0,153	0,019
-740,342	43,867	-0,093	0,064
-739,327	-115,489	-0,139	0,019
-738,312	800,000	0,023	0,051
-737,298	7,441	-0,173	0,096
-736,283	137,762	-0,046	-0,045
-735,269	119,732	-0,127	0,118
-734,254	-200,000	-0,019	0,073
-733,239	-133,025	-0,368	0,034
-732,225	174,204	0,078	-0,085
-731,210	-103,585	0,161	-0,028
-730,196	44,695	-0,116	-0,080
-729,181	800,000	-0,037	0,122
-728,167	-200,000	0,001	0,102
-727,152	-31,461	-0,133	-0,055
-726,137	800,000	0,041	-0,118
-725,123	201,936	-0,120	-0,138
-724,108	238,803	-0,041	-0,051
-723,094	329,098	-0,084	-0,121
-722,079	-155,840	-0,131	0,006
-721,064	156,872	0,017	0,018
-720,050	-96,549	-0,116	-0,023
-719,035	-130,056	-0,060	-0,006
-718,021	-200,000	-0,007	-0,031
-717,006	11,470	-0,120	-0,068
-715,991	-200,000	-0,044	-0,174
-714,977	-73,827	-0,063	-0,017
-713,962	-90,260	-0,088	0,019
-712,948	-200,000	-0,007	-0,123
-711,933	197,205	-0,082	0,093
-710,918	386,558	-0,089	0,137
-709,904	-106,528	-0,149	0,025
-708,889	225,614	-0,067	-0,081
-707,875	180,190	-0,048	-0,052
-706,860	800,000	0,026	-0,084
-705,845	800,000	0,024	-0,064
-704,831	8,042	-0,054	0,030
-703,816	-38,883	0,030	0,012
-702,802	-154,648	-0,185	-0,009
-701,787	800,000	0,028	-0,080
-700,772	800,000	-0,065	-0,141
-699,758	39,648	-0,032	-0,021
-698,743	379,608	0,053	-0,082
-697,729	157,954	-0,030	-0,031
-696,714	-16,731	-0,129	-0,061
-695,699	800,000	0,023	0,051
-694,685	749,810	0,040	-0,081
-693,670	-114,291	-0,153	0,022
-692,656	247,645	-0,050	0,063
-691,641	-200,000	0,000	-0,114
-690,627	-200,000	0,011	0,046
-689,612	-144,547	-0,106	0,007
-688,597	63,239	-0,099	-0,074
-687,583	-200,000	0,005	0,105
-686,568	83,718	-0,091	-0,074
-685,554	236,533	0,058	-0,072
-684,539	-101,799	0,092	-0,016
-683,524	-24,725	0,029	0,013
-682,510	-200,000	0,017	-0,072
-681,495	42,541	-0,068	0,046
-680,481	800,000	-0,015	-0,037
-679,466	800,000	-0,039	0,091
-678,451	-37,884	0,017	0,007
-677,437	-117,098	0,124	-0,017
-676,422	800,000	0,025	0,071
-675,408	-200,000	0,006	-0,076
-674,393	-200,000	-0,011	-0,072
-673,378	739,034	-0,016	-0,033
-672,364	-57,109	0,119	0,039
-671,349	-10,836	0,009	-0,004
-670,335	39,346	-0,017	-0,011
-669,320	98,628	0,046	-0,040
-668,305	-50,539	-0,136	0,047
-667,291	-71,780	0,021	-0,006
-666,276	161,185	-0,057	-0,059
-665,262	41,709	-0,086	-0,058
-664,247	108,768	0,126	-0,111
-663,232	-200,000	-0,006	-0,075
-662,218	-167,708	0,061	0,002
-661,203	105,376	-0,073	0,064
-660,189	-84,506	0,013	-0,003
-659,174	-85,082	-0,106	-0,025
-658,159	800,000	-0,047	-0,104
-657,145	-58,793	-0,170	0,054
-656,130	-64,350	0,084	0,025
-655,116	-18,882	-0,076	-0,035
-654,101	172,766	0,083	0,089
-653,086	-158,753	-0,115	0,005
-652,072	800,000	0,066	-0,143
-651,057	-41,759	0,074	-0,028
-650,043	38,495	-0,088	0,058
-649,028	-190,815	-0,049	-0,000
-648,014	-200,000	0,003	-0,033
-646,999	143,965	0,086	0,085
-645,984	255,551	0,032	0,041
-644,970	-65,661	-0,088	-0,026
-643,955	-172,907	0,099	-0,002
-642,941	105,354	-0,133	-0,117
-641,926	214,672	-0,096	-0,113
-640,911	800,000	0,015	0,035
-639,897	-200,000	-0,008	0,185
-638,882	-102,718	-0,125	0,022
-637,868	-200,000	-0,018	-0,064
-636,853	-200,000	-0,001	-0,146
-635,838	-142,910	0,088	-0,006
-634,824	-47,627	-0,061	0,022
-633,809	-200,000	-0,024	-0,122
-632,795	141,002	-0,041	0,040
-631,780	378,412	-0,011	-0,017
-630,765	-200,000	-0,021	-0,071
-629,751	-200,000	-0,016	-0,082
-628,736	88,384	-0,123	-0,101
-627,722	291,512	-0,022	0,030
-626,707	0,956	0,145	0,077
-625,692	140,325	-0,037	-0,036
-624,678	-123,112	0,076	0,009
-623,663	800,000	0,027	-0,060
-622,649	32,938	-0,059	-0,038
-621,634	-35,166	-0,099	0,040
-620,619	-200,000	-0,019	0,108
-619,605	-169,281	-0,055	-0,001
-618,590	800,000	0,059	0,132
-617,576	-200,000	-0,013	0,089
-616,561	-200,000	0,007	0,041
-615,546	800,000	0,026	-0,054
-614,532	329,482	-0,048	-0,068
-613,517	29,484	0,111	0,070
-612,503	181,097	0,058	-0,063
-611,488	70,739	0,093	-0,071
-610,474	-26,549	0,073	-0,032
-609,459	318,128	-0,014	-0,020
-608,444	51,749	-0,144	-0,101
-607,430	800,000	-0,068	-0,192
-606,415	-34,842	-0,073	-0,030
-605,401	11,127	-0,142	-0,080
-604,386	121,526	0,027	-0,025
-603,371	-22,587	-0,017	0,007
-602,357	-200,000	0,011	0,058
-601,342	-200,000	-0,009	-0,031
-600,328	-120,729	-0,232	-0,029
-599,313	-64,230	0,083	-0,025
-598,298	117,571	-0,041	-0,037
-597,284	-152,983	-0,095	0,005
-596,269	99,796	-0,038	-0,033
-595,255	-200,000	-0,041	-0,146
-594,240	571,322	-0,025	0,046
-593,225	800,000	0,014	-0,038
-592,211	-27,875	-0,093	-0,040
-591,196	-200,000	-0,039	-0,157
-590,182	94,605	-0,099	0,083
-589,167	-200,000	-0,022	-0,135
-588,152	-90,520	-0,115	-0,025
-587,138	64,771	-0,058	0,044
-586,123	-200,000	0,047	-0,183
-585,109	-4,148	-0,097	-0,050
-584,094	-98,002	-0,098	-0,019
-583,079	-180,461	0,154	0,002
-582,065	27,320	0,041	-0,026
-581,050	326,640	0,053	0,075
-580,036	-45,183	-0,087	-0,032
-579,021	800,000	0,014	-0,043
-578,006	336,910	-0,004	-0,006
-576,992	-200,000	0,018	-0,065
-575,977	195,925	0,088	0,099
-574,963	-22,968	-0,043	0,019
-573,948	181,446	-0,017	0,018
-572,934	25,743	-0,043	0,026
-571,919	-190,693	0,049	-0,000
-570,904	-72,532	-0,101	-0,027
-569,890	135,583	0,067	0,064
-568,875	-200,000	0,019	0,194
-567,861	121,032	0,081	0,075
-566,846	-35,927	-0,078	-0,031
-565,831	-87,313	-0,173	0,038
-564,817	-200,000	0,015	-0,109
-563,802	555,951	0,044	-0,079
-562,788	-80,400	0,030	-0,007
-561,773	-74,563	-0,056	-0,015
-560,758	653,159	0,084	-0,161
-559,744	76,115	0,135	-0,106
-558,729	406,460	-0,031	0,048
-557,715	-9,234	-0,042	-0,021
-556,700	-36,895	-0,135	-0,054
-555,685	-120,667	-0,033	0,004
-554,671	-200,000	0,027	-0,153
-553,656	-200,000	0,019	0,069
-552,642	416,863	-0,060	0,095
-551,627	-56,682	-0,047	-0,015
-550,612	-17,568	0,076	-0,035
-549,598	800,000	-0,036	-0,076
-548,583	-200,000	-0,012	-0,152
-547,569	461,467	0,074	-0,122
-546,554	-86,444	0,043	0,010
-545,539	-200,000	-0,014	0,053
-544,525	-12,141	0,060	-0,029
-543,510	-39,391	-0,070	0,027
-542,496	-55,662	-0,140	-0,046
-541,481	-200,000	-0,024	-0,118
-540,466	-101,063	0,108	0,019
-539,452	-75,929	0,044	-0,011
-538,437	-168,756	-0,037	0,001
-537,423	-13,440	0,128	0,061
-536,408	800,000	0,005	0,012
-535,393	393,058	-0,032	-0,049
-534,379	21,637	-0,033	-0,020
-533,364	-141,140	0,108	0,008
-532,350	-12,254	0,064	-0,031
-531,335	-200,000	-0,003	0,025
-530,321	800,000	-0,012	0,035
-529,306	-79,308	-0,136	0,034
-528,291	-200,000	-0,017	-0,068
-527,277	-175,897	-0,120	-0,002
-526,262	-200,000	-0,041	0,156
-525,248	136,210	-0,069	0,066
-524,233	-75,117	0,186	-0,049
-523,218	25,631	0,072	0,044
-522,204	-37,118	-0,086	-0,034
-521,189	79,968	0,061	-0,049
-520,175	-200,000	-0,008	0,101
-519,160	-200,000	0,017	0,101
-518,145	242,644	-0,062	0,077
-517,131	309,430	-0,063	0,087
-516,116	94,495	-0,106	0,089
-515,102	-138,371	-0,091	0,007
-514,087	-200,000	-0,024	-0,171
-513,072	-200,000	-0,012	-0,139
-512,058	-96,843	-0,077	0,015
-511,043	-200,000	-0,007	0,067
-510,029	438,599	0,110	0,179
-509,014	-67,221	0,201	0,058
-507,999	-31,443	-0,112	0,046
-506,985	179,531	-0,094	0,102
-505,970	-200,000	-0,012	0,069
-504,956	-139,415	-0,049	0,004
-503,941	-0,416	-0,113	0,059
-502,926	82,079	0,048	0,038
-501,912	-200,000	0,009	0,089
-500,897	544,738	0,066	-0,117
-499,883	-17,984	0,122	0,056
-498,868	-102,393	-0,156	-0,027
-497,853	800,000	-0,016	0,033
-496,839	-54,327	0,041	-0,014
-495,824	800,000	-0,023	-0,055
-494,810	-25,771	0,076	0,033
-493,795	2,664	0,081	0,043
-492,781	-30,472	-0,072	-0,030
-491,766	426,019	0,029	0,046
-490,751	800,000	-0,018	0,043
-489,737	478,297	0,059	-0,099
-488,722	-200,000	-0,004	0,167
-487,708	195,492	0,122	0,137
-486,693	151,348	0,094	0,095
-485,678	183,466	0,054	-0,059
-484,664	438,762	0,069	-0,112
-483,649	270,241	-0,056	-0,073
-482,635	800,000	-0,032	-0,097
-481,620	800,000	-0,026	-0,069
-480,605	84,882	0,045	0,036
-479,591	787,406	-0,036	0,072
-478,576	-200,000	-0,006	-0,120
-477,562	52,534	-0,136	0,096
-476,547	-200,000	0,018	-0,102
-475,532	-63,257	-0,205	-0,062
-474,518	25,784	-0,056	0,034
-473,503	467,525	0,010	0,017
-472,489	-200,000	-0,014	-0,141
-471,474	273,806	0,073	0,096
-470,459	-200,000	-0,055	-0,193
-469,445	664,265	-0,051	-0,097
-468,430	-200,000	0,009	-0,141
-467,416	-168,125	0,075	0,002
-466,401	-69,227	0,104	0,029
-465,386	-84,567	-0,070	0,016
-464,372	-16,270	0,080	0,037
-463,357	-63,997	-0,021	-0,006
-462,343	-200,000	-0,030	-0,154
-461,328	-200,000	-0,017	-0,130
-460,313	-105,627	0,192	0,032
-459,299	-43,495	0,154	0,057
-458,284	-67,927	-0,108	-0,031
-457,270	335,005	-0,060	-0,086
-456,255	-200,000	0,020	0,082
-455,241	109,245	0,058	-0,051
-454,226	-190,480	-0,201	-0,002
-453,211	-200,000	0,039	0,254
-452,197	313,754	0,069	-0,095
-451,182	-41,393	0,077	-0,029
-450,168	46,571	-0,112	0,076
-449,153	-126,831	-0,064	-0,007
-448,138	-200,000	-0,001	-0,056
-447,124	-200,000	-0,020	-0,111
-446,109	-200,000	0,021	0,070
-445,095	-77,523	0,022	0,006
-444,080	-89,429	0,085	0,018
-443,065	381,210	0,053	0,080
-442,051	800,000	-0,004	-0,008
-441,036	-108,879	-0,056	0,009
-440,022	-166,531	0,016	0,000
-439,007	800,000	0,039	-0,083
-437,992	26,685	0,198	0,122
-436,978	3,636	-0,054	-0,029
-435,963	-119,818	0,021	0,003
-434,949	52,663	0,113	0,080
-433,934	-200,000	0,024	-0,145
-432,919	-78,238	-0,004	0,001
-431,905	-27,122	0,097	0,041
-430,890	800,000	0,011	0,030
-429,876	-200,000	-0,023	0,175
-428,861	-3,298	0,150	-0,077
-427,846	11,749	-0,080	-0,045
-426,832	114,360	-0,058	-0,052
-425,817	225,500	0,075	-0,089
-424,803	-49,739	0,026	0,009
-423,788	800,000	-0,056	0,178
-422,773	287,349	0,067	0,089
-421,759	-200,000	-0,017	0,079
-420,744	78,206	0,033	-0,026
-419,730	43,794	-0,067	-0,045
-418,715	-200,000	-0,007	0,064
-417,701	-147,516	0,036	-0,002
-416,686	477,627	0,065	0,108
-415,671	-38,593	0,081	-0,031
-414,657	-3,703	0,190	0,097
-413,642	-22,953	-0,118	-0,052
-412,628	26,766	0,091	-0,056
-411,613	176,518	0,030	0,032
-410,598	-200,000	0,004	0,039
-409,584	-189,738	0,047	0,000
-408,569	47,076	-0,036	-0,025
-407,555	-100,386	0,177	0,032
-406,540	800,000	0,017	0,051
-405,525	304,673	-0,035	-0,048
-404,511	-105,442	-0,131	-0,022
-403,496	164,311	-0,046	-0,048
-402,482	180,029	0,097	0,105
-401,467	800,000	0,041	0,102
-400,452	-124,856	-0,106	-0,012
-399,438	-200,000	-0,016	0,063
-398,423	-186,993	-0,116	-0,001
-397,409	35,261	0,108	-0,069
-396,394	51,086	-0,167	0,116
-395,379	-92,108	0,039	0,008
-394,365	800,000	-0,035	0,076
-393,350	-116,111	-0,078	0,011
-392,336	800,000	-0,017	-0,049
-391,321	414,354	-0,077	0,121
-390,306	-180,495	-0,076	0,001
-389,292	-200,000	-0,001	-0,044
-388,277	43,253	-0,093	0,062
-387,263	800,000	0,035	0,107
-386,248	-200,000	-0,013	0,165
-385,233	-200,000	0,037	-0,127
-384,219	-200,000	0,027	-0,088
-383,204	-200,000	0,002	0,073
-382,190	-200,000	-0,019	0,158
-381,175	-181,452	-0,104	-0,001
-380,160	-104,078	-0,034	-0,006
-379,146	77,156	0,116	0,090
-378,131	-200,000	0,022	0,071
-377,117	-200,000	0,024	-0,152
-376,102	306,575	-0,100	-0,138
-375,088	70,595	-0,011	-0,008
-374,073	-33,627	0,074	0,030
-373,058	-65,647	0,020	-0,006
-372,044	-7,411	-0,073	0,036
-371,029	75,402	0,046	-0,035
-370,015	-92,771	-0,015	-0,003
-369,000	-30,425	0,055	-0,023
-367,985	-64,165	-0,196	0,058
-366,971	-200,000	0,001	-0,086
-365,956	280,498	0,079	-0,105
-364,942	800,000	0,065	0,134
-363,927	-103,393	0,096	-0,016
-362,912	-200,000	-0,020	-0,077
-361,898	494,903	-0,062	-0,104
-360,883	19,174	-0,035	0,020
-359,869	757,683	-0,027	0,054
-358,854	115,142	0,024	0,022
-357,839	355,284	0,053	0,078
-356,825	-94,149	0,088	-0,018
-355,810	172,034	-0,101	0,107
-354,796	800,000	0,016	-0,041
-353,781	800,000	-0,002	0,005
-352,766	-42,021	0,063	0,023
-351,752	-86,400	0,083	-0,019
-350,737	-24,987	0,058	-0,025
-349,723	425,278	-0,089	0,141
-348,708	-33,090	0,064	0,026
-347,693	-200,000	-0,046	-0,195
-346,679	426,147	-0,036	-0,057
-345,664	-66,873	-0,064	-0,018
-344,650	135,311	-0,047	0,045
-343,635	-159,223	-0,111	-0,004
-342,620	417,496	-0,034	0,053
-341,606	-58,002	0,101	-0,032
-340,591	377,223	0,064	-0,096
-339,577	-111,377	0,166	0,025
-338,562	-111,673	-0,044	0,006
-337,548	-107,965	-0,047	0,007
-336,533	800,000	-0,050	0,105
-335,518	-91,236	0,099	0,021
-334,504	286,366	-0,043	0,057
-333,489	-104,052	-0,106	0,018
-332,475	800,000	-0,043	0,132
-331,460	800,000	0,014	-0,036
-330,445	591,126	-0,041	-0,074
-329,431	-72,787	-0,129	-0,035
-328,416	-200,000	-0,037	0,156
-327,402	62,579	0,162	-0,119
-326,387	-200,000	-0,005	0,069
-325,372	-136,276	0,170	-0,014
-324,358	10,666	-0,143	-0,080
-323,343	-200,000	0,000	0,121
-322,329	304,194	0,049	0,067
-321,314	-200,000	-0,006	0,158
-320,299	76,217	0,033	-0,026
-319,285	47,975	0,090	-0,061
-318,270	366,360	-0,040	-0,059
-317,256	127,194	-0,040	0,038
-316,241	1,328	0,144	0,076
-315,226	748,460	0,020	-0,040
-314,212	-82,584	0,081	0,019
-313,197	-109,795	0,014	-0,002
-312,183	712,521	-0,022	-0,044
-311,168	48,934	0,094	-0,065
-310,153	287,071	-0,125	-0,166
-309,139	-200,000	0,014	-0,188
-308,124	450,802	-0,066	-0,107
-307,110	266,789	0,023	0,029
-306,095	-76,913	0,054	0,014
-305,080	-84,044	-0,069	0,016
-304,066	-33,091	-0,110	0,044
-303,051	65,317	-0,072	0,054
-302,037	62,733	0,018	-0,013
-301,022	800,000	-0,037	0,116
-300,008	800,000	0,047	-0,132
-298,993	564,729	0,020	-0,035
-297,978	800,000	0,037	-0,086
-296,964	466,405	-0,039	0,064
-295,949	800,000	0,033	0,084
-294,935	-200,000	0,030	-0,166
-293,920	459,164	-0,095	-0,155
-292,905	9,857	0,155	0,086
-291,891	800,000	0,046	0,102
-290,876	-163,838	0,018	-0,001
-289,862	800,000	-0,056	0,144
-288,847	800,000	-0,027	0,060
-287,832	300,260	-0,011	0,015
-286,818	-20,309	-0,072	-0,032
-285,803	98,358	0,117	0,099
-284,789	6,884	0,128	0,070
-283,774	-113,077	0,122	0,017
-282,759	-154,501	-0,131	-0,006
-281,745	337,728	0,042	-0,060
-280,730	-200,000	0,011	-0,037
-279,716	-200,000	0,011	-0,115
-278,701	-22,310	0,135	0,060
-277,686	201,907	-0,071	0,080
-276,672	-200,000	0,006	0,062
-275,657	-197,224	-0,109	0,000
-274,643	800,000	0,062	-0,146
-273,628	-124,001	-0,117	-0,013
-272,613	800,000	-0,026	-0,056
-271,599	48,874	0,028	-0,019
-270,584	-166,980	0,046	0,001
-269,570	107,247	0,036	0,031
-268,555	45,610	0,013	0,009
-267,540	74,850	0,130	-0,100
-266,526	-200,000	-0,000	-0,141
-265,511	-164,474	-0,074	0,002
-264,497	-200,000	-0,034	0,118
-263,482	158,703	0,126	0,128
-262,467	434,617	-0,097	0,155
-261,453	-200,000	0,019	-0,086
-260,438	142,368	0,103	-0,100
-259,424	800,000	0,037	0,081
-258,409	-200,000	-0,117	-0,000
-257,395	173,007	0,047	-0,049
-256,380	178,539	0,073	-0,078
-255,365	127,009	-0,131	0,122
-254,351	-67,290	0,108	0,031
-253,336	-200,000	-0,006	-0,037
-252,322	24,915	-0,063	0,038
-251,307	106,632	-0,068	-0,059
-250,292	285,397	-0,062	-0,082
-249,278	88,789	0,051	0,042
-248,263	185,994	0,052	0,057
-247,249	-68,972	-0,120	0,034
-246,234	86,265	-0,090	-0,073
-245,219	88,997	0,025	-0,020
-244,205	19,115	0,019	0,011
-243,190	-93,831	0,134	0,027
-242,176	165,693	0,043	-0,045
-241,161	-153,132	0,033	-0,002
-240,146	-200,000	0,000	0,016
-239,132	-53,660	0,085	0,028
-238,117	327,126	0,028	-0,040
-237,103	443,707	0,105	-0,169
-236,088	-63,509	0,144	-0,043
-235,073	158,171	0,081	-0,082
-234,059	-105,296	-0,049	-0,008
-233,044	683,879	0,069	0,132
-232,030	-200,000	0,024	0,116
-231,015	-84,997	-0,072	0,016
-230,000	800,000	-0,007	0,016
-228,986	-200,000	-0,037	0,152
-227,971	-86,671	0,173	0,038
-226,957	-41,772	0,080	0,030
-225,942	210,428	0,017	0,020
-224,927	61,792	-0,102	-0,074
-223,913	-200,000	0,065	-0,000
-222,898	-81,097	0,047	-0,011
-221,884	202,288	-0,040	0,045
-220,869	284,619	0,107	-0,140
-219,855	-78,292	-0,093	0,023
-218,840	800,000	-0,037	0,080
-217,825	149,180	-0,059	0,059
-216,811	-200,000	-0,005	-0,051
-215,796	-200,000	0,009	-0,057
-214,782	195,491	0,051	-0,057
-213,767	-35,005	-0,107	0,042
-212,752	-200,000	0,017	0,063
-211,738	343,446	0,050	0,072
-210,723	-192,387	0,041	0,000
-209,709	121,029	-0,128	0,116
-208,694	637,650	0,012	0,023
-207,679	800,000	0,056	-0,174
-206,665	569,614	0,074	-0,132
-205,650	179,913	0,094	-0,101
-204,636	547,255	-0,043	0,075
-203,621	410,056	-0,073	0,113
-202,606	59,344	-0,074	0,053
-201,592	94,493	0,065	-0,054
-200,577	-200,000	0,008	-0,038
-199,563	200,025	-0,080	0,090
-198,548	255,800	-0,105	0,131
-197,533	800,000	0,040	0,100
-196,519	-26,076	0,039	0,017
-195,504	28,420	0,081	-0,050
-194,490	-200,000	-0,026	-0,099
-193,475	393,579	0,066	-0,101
-192,460	-157,123	0,128	0,006
-191,446	2,291	-0,037	-0,019
-190,431	60,985	-0,085	0,061
-189,417	-83,052	0,103	0,024
-188,402	124,185	-0,030	0,027
-187,387	800,000	-0,051	-0,115
-186,373	297,953	0,087	0,117
-185,358	-200,000	0,022	0,081
-184,344	-200,000	-0,018	0,076
-183,329	-114,214	-0,174	-0,024
-182,315	440,241	-0,057	-0,091
-181,300	-200,000	0,008	0,067
-180,285	800,000	-0,027	-0,058
-179,271	527,995	0,028	-0,048
-178,256	434,009	0,031	-0,050
-177,242	-200,000	0,011	-0,055
-176,227	459,921	0,031	0,050
-175,212	471,454	-0,017	-0,028
-174,198	800,000	0,028	-0,066
-173,183	-85,658	-0,106	-0,024
-172,169	-52,483	0,014	-0,005
-171,154	65,581	0,055	-0,040
-170,139	92,517	-0,025	-0,021
-169,125	126,742	-0,010	-0,009
-168,110	102,622	-0,195	0,166
-167,096	-200,000	0,023	0,076
-166,081	23,908	-0,020	0,012
-165,066	-76,237	0,074	0,019
-164,052	86,321	-0,090	0,072
-163,037	-97,423	0,165	-0,031
-162,023	-132,719	0,083	0,008
-161,008	-200,000	-0,024	0,135
-159,993	-200,000	0,007	0,092
-158,979	-200,000	-0,013	-0,127
-157,964	-115,542	-0,077	0,010
-156,950	152,948	-0,038	0,037
-155,935	-28,492	0,188	0,079
-154,920	-127,863	0,043	-0,004
-153,906	528,794	-0,029	-0,051
-152,891	-200,000	0,021	0,118
-151,877	172,466	-0,081	-0,085
-150,862	-92,138	-0,126	-0,026
-149,847	76,800	0,072	0,056
-148,833	-200,000	-0,027	-0,135
-147,818	88,032	0,054	-0,044
-146,804	131,313	0,053	0,049
-145,789	-74,132	0,081	0,021
-144,775	800,000	-0,055	-0,153
-143,760	259,566	-0,034	0,042
-142,745	-123,105	-0,022	-0,003
-141,731	176,379	-0,071	0,076
-140,716	413,096	0,053	0,083
-139,702	-29,221	-0,044	-0,018
-138,687	-200,000	-0,029	-0,114
-137,672	-79,453	-0,067	0,016
-136,658	22,424	0,066	-0,039
-135,643	-12,494	0,063	0,030
-134,629	745,559	0,020	-0,039
-133,614	-175,558	0,120	-0,002
-132,599	800,000	-0,061	-0,191
-131,585	-200,000	-0,013	-0,080
-130,570	-200,000	-0,026	-0,156
-129,556	800,000	0,071	-0,149
-128,541	-200,000	-0,013	-0,129
-127,526	800,000	0,034	-0,086
-126,512	-200,000	-0,001	-0,011
-125,497	89,810	-0,027	0,022
-124,483	21,411	0,013	0,007
-123,468	-200,000	-0,019	-0,085
-122,453	-200,000	-0,012	0,112
-121,439	-200,000	0,001	0,068
-120,424	-139,568	0,040	-0,003
