DTS Sentinel unit serial number:	SN410029Multiplexer serial number:	ORYXHardware model number:	OX2-SRSoftware version number:	ORYX F/W v4,00 Oryx Data Collector v3.7.2.0data status	okinstallation	B6 Nyhavnadifferential loss correction	single-endedforward channel	channel 2reverse channel	N/Adate	2023/12/08time	02:15:08forward acquisition time	300,00reverse acquisition time	0,00gamma	499,1914k internal	0,3165k external	0,3165temperature offset calibration	1,0000default loss term (dB/km)	0,3820temperature slope calibration	1,0000multiplexer offset coefficient	1,0000multiplexer slope coefficient	1,0000fibre end	0,00T internal ref (°C)	13,19T ext. ref 1 (°C)	-3,72T ext. ref 2 (°C)	-3,72length (m)	temperature (°C)	Stokes	anti-Stokes-744,400	-72,123	-0,053	-0,014
-743,385	-116,461	-0,345	-0,046
-742,371	-98,122	0,177	-0,033
-741,356	-42,377	-0,246	-0,092
-740,342	572,765	0,098	0,177
-739,327	-168,548	-0,304	-0,008
-738,312	-173,516	0,152	0,003
-737,298	-182,112	-0,324	-0,004
-736,283	80,126	0,118	0,093
-735,269	75,318	-0,176	0,136
-734,254	-28,733	0,134	0,057
-733,239	-21,134	-0,583	-0,261
-732,225	-116,484	0,163	0,022
-731,210	416,011	0,021	-0,033
-730,196	5,415	0,064	-0,035
-729,181	800,000	-0,002	-0,007
-728,167	33,258	0,003	-0,002
-727,152	-113,269	0,099	-0,014
-726,137	174,771	-0,051	-0,054
-725,123	-127,545	0,019	-0,002
-724,108	800,000	-0,019	-0,055
-723,094	5,748	-0,035	0,019
-722,079	800,000	-0,084	-0,215
-721,064	3,661	0,051	-0,027
-720,050	-25,892	-0,100	-0,043
-719,035	101,690	0,043	-0,037
-718,021	555,745	-0,080	-0,143
-717,006	-1,620	-0,080	-0,041
-715,991	179,754	-0,105	-0,114
-714,977	395,781	-0,057	0,087
-713,962	-88,443	0,048	0,011
-712,948	-131,485	-0,037	-0,004
-711,933	-200,000	-0,016	-0,135
-710,918	-81,790	-0,122	-0,029
-709,904	800,000	-0,069	-0,178
-708,889	-200,000	-0,024	-0,116
-707,875	-24,068	-0,151	0,066
-706,860	117,871	0,037	0,033
-705,845	307,783	-0,013	0,018
-704,831	305,180	0,070	-0,095
-703,816	-94,249	0,046	0,009
-702,802	435,498	-0,082	-0,132
-701,787	800,000	0,050	-0,135
-700,772	-72,332	-0,056	0,015
-699,758	-88,683	-0,097	-0,021
-698,743	155,005	0,014	-0,015
-697,729	-62,548	0,061	0,019
-696,714	-200,000	-0,017	0,086
-695,699	90,506	0,100	-0,082
-694,685	-74,115	0,047	0,012
-693,670	494,164	0,049	-0,082
-692,656	-45,468	-0,104	0,038
-691,641	800,000	-0,041	-0,092
-690,627	-132,621	0,156	-0,015
-689,612	-200,000	0,002	0,008
-688,597	-200,000	0,014	-0,092
-687,583	-56,142	-0,073	0,024
-686,568	-200,000	0,017	-0,097
-685,554	800,000	0,020	-0,051
-684,539	800,000	-0,004	0,012
-683,524	800,000	-0,045	-0,104
-682,510	100,068	0,127	-0,108
-681,495	101,045	-0,135	-0,115
-680,481	-103,347	-0,133	0,023
-679,466	389,898	-0,064	-0,097
-678,451	168,968	0,031	0,032
-677,437	800,000	-0,029	-0,071
-676,422	-97,327	-0,073	-0,014
-675,408	800,000	-0,014	0,036
-674,393	-200,000	-0,003	-0,028
-673,378	-85,384	-0,094	0,021
-672,364	164,995	-0,069	-0,072
-671,349	-200,000	-0,036	-0,149
-670,335	800,000	0,056	0,166
-669,320	-70,696	-0,170	-0,047
-668,305	-200,000	0,019	0,069
-667,291	217,943	-0,092	0,108
-666,276	-200,000	-0,002	-0,072
-665,262	-200,000	-0,031	-0,103
-664,247	-96,055	0,017	0,003
-663,232	766,990	0,029	0,058
-662,218	-200,000	-0,010	0,195
-661,203	800,000	0,046	-0,106
-660,189	73,281	0,039	-0,030
-659,174	-200,000	-0,001	-0,007
-658,159	6,222	-0,110	0,060
-657,145	459,290	0,141	-0,231
-656,130	-95,334	-0,074	-0,015
-655,116	409,981	0,152	0,237
-654,101	121,253	-0,074	0,067
-653,086	-200,000	-0,024	-0,112
-652,072	313,933	0,087	-0,121
-651,057	-154,954	0,031	-0,001
-650,043	-200,000	-0,020	-0,210
-649,028	-43,116	-0,108	0,040
-648,014	-137,784	-0,069	-0,006
-646,999	-200,000	-0,011	0,052
-645,984	-74,849	0,104	-0,027
-644,970	414,303	-0,068	0,106
-643,955	-36,240	-0,088	-0,034
-642,941	-200,000	0,002	0,044
-641,926	-200,000	-0,001	-0,046
-640,911	139,078	-0,108	-0,104
-639,897	-101,264	0,059	-0,010
-638,882	-41,266	0,061	-0,023
-637,868	64,262	-0,034	0,025
-636,853	109,177	0,075	-0,066
-635,838	-25,555	-0,058	0,025
-634,824	-48,967	0,056	-0,020
-633,809	-200,000	-0,005	-0,045
-632,795	-200,000	0,019	0,068
-631,780	-200,000	-0,016	-0,070
-630,765	15,477	-0,048	-0,027
-629,751	467,389	-0,038	-0,062
-628,736	-200,000	-0,004	0,084
-627,722	46,910	-0,094	0,064
-626,707	37,881	-0,040	0,026
-625,692	438,126	0,055	0,089
-624,678	-48,681	0,075	0,026
-623,663	519,193	-0,044	-0,076
-622,649	525,576	-0,070	-0,122
-621,634	264,701	-0,041	-0,052
-620,619	-42,494	0,149	0,055
-619,605	339,193	0,071	0,102
-618,590	99,330	0,038	-0,032
-617,576	130,869	0,094	-0,088
-616,561	-162,071	0,154	0,006
-615,546	-78,452	0,088	0,022
-614,532	-200,000	0,021	-0,112
-613,517	-105,190	-0,168	-0,028
-612,503	800,000	-0,033	0,076
-611,488	-98,651	-0,050	-0,009
-610,474	703,399	0,066	0,128
-609,459	800,000	0,063	0,146
-608,444	398,720	-0,021	0,033
-607,430	-37,397	-0,133	-0,052
-606,415	89,020	0,030	-0,024
-605,401	-200,000	-0,001	-0,018
-604,386	-200,000	-0,013	0,076
-603,371	60,557	0,075	0,054
-602,357	125,550	-0,012	-0,011
-601,342	-200,000	-0,017	-0,092
-600,328	-200,000	-0,014	-0,127
-599,313	800,000	0,075	-0,203
-598,298	44,845	-0,060	0,040
-597,284	618,594	-0,006	-0,011
-596,269	-200,000	0,003	-0,016
-595,255	-49,656	-0,050	0,017
-594,240	-75,671	-0,126	-0,032
-593,225	168,390	-0,116	-0,120
-592,211	800,000	-0,031	-0,075
-591,196	553,947	0,047	-0,084
-590,182	311,488	-0,127	-0,174
-589,167	-151,227	-0,081	0,004
-588,152	403,824	0,047	-0,072
-587,138	82,653	-0,065	0,052
-586,123	-200,000	-0,003	0,016
-585,109	138,620	0,121	-0,117
-584,094	95,519	-0,014	0,012
-583,079	800,000	-0,036	0,100
-582,065	-13,143	0,053	-0,025
-581,050	-200,000	-0,012	-0,055
-580,036	800,000	0,003	-0,008
-579,021	7,462	-0,063	-0,034
-578,006	800,000	0,027	-0,083
-576,992	11,759	-0,122	-0,068
-575,977	-33,817	-0,076	0,031
-574,963	-132,198	0,070	0,007
-573,948	-131,102	0,274	-0,026
-572,934	547,354	-0,062	0,108
-571,919	-58,115	-0,031	-0,010
-570,904	378,644	-0,056	-0,084
-569,890	-200,000	-0,018	0,141
-568,875	268,913	-0,057	0,073
-567,861	290,409	-0,112	-0,149
-566,846	-19,572	-0,078	-0,035
-565,831	-58,018	0,019	0,006
-564,817	-200,000	-0,018	-0,082
-563,802	800,000	-0,027	-0,082
-562,788	-200,000	-0,003	-0,037
-561,773	-27,302	-0,093	-0,040
-560,758	-165,443	0,150	-0,005
-559,744	-159,584	-0,031	-0,001
-558,729	53,409	0,080	-0,056
-557,715	466,403	-0,081	-0,134
-556,700	215,437	0,053	-0,062
-555,685	43,203	-0,089	-0,059
-554,671	-101,535	0,024	0,004
-553,656	-78,741	0,094	0,023
-552,642	800,000	-0,033	0,087
-551,627	800,000	-0,038	-0,083
-550,612	99,863	0,024	-0,020
-549,598	23,330	-0,114	-0,068
-548,583	800,000	0,022	-0,052
-547,569	698,416	-0,038	0,073
-546,554	800,000	-0,049	0,101
-545,539	-28,265	-0,085	0,036
-544,525	-200,000	-0,012	0,083
-543,510	66,596	0,107	-0,079
-542,496	354,704	-0,131	-0,191
-541,481	800,000	0,053	-0,128
-540,466	-200,000	-0,028	0,094
-539,452	-200,000	0,012	-0,044
-538,437	24,278	0,069	0,041
-537,423	33,188	-0,014	0,009
-536,408	143,977	-0,104	0,101
-535,393	83,287	-0,071	0,057
-534,379	-200,000	0,020	-0,087
-533,364	-200,000	-0,002	0,006
-532,350	662,475	0,033	-0,062
-531,335	800,000	0,032	-0,065
-530,321	17,666	0,081	-0,047
-529,306	-22,950	0,078	0,034
-528,291	158,634	-0,146	-0,148
-527,277	169,876	0,109	-0,114
-526,262	800,000	-0,075	0,158
-525,248	800,000	0,026	-0,065
-524,233	800,000	0,026	0,055
-523,218	-200,000	0,008	0,112
-522,204	536,841	-0,076	-0,133
-521,189	-200,000	-0,028	-0,112
-520,175	-33,500	0,064	-0,026
-519,160	-200,000	-0,037	-0,151
-518,145	800,000	-0,011	0,028
-517,131	570,248	0,048	-0,085
-516,116	49,811	0,100	-0,068
-515,102	800,000	0,017	0,051
-514,087	39,939	-0,062	-0,041
-513,072	800,000	-0,031	-0,092
-512,058	86,828	-0,081	-0,065
-511,043	47,438	-0,099	-0,067
-510,029	-119,456	0,108	-0,014
-509,014	-74,460	-0,218	0,057
-507,999	-200,000	0,005	-0,103
-506,985	-200,000	-0,003	0,118
-505,970	8,654	-0,072	-0,039
-504,956	800,000	-0,050	-0,148
-503,941	-200,000	0,007	-0,111
-502,926	466,715	0,030	-0,050
-501,912	249,285	0,058	0,072
-500,897	-200,000	-0,007	0,034
-499,883	-66,024	0,129	0,037
-498,868	-75,375	-0,097	0,025
-497,853	15,546	-0,149	-0,085
-496,839	-114,528	0,194	0,027
-495,824	-200,000	-0,002	0,083
-494,810	332,647	0,039	0,055
-493,795	320,862	0,022	-0,030
-492,781	800,000	-0,023	0,072
-491,766	37,748	-0,132	-0,085
-490,751	174,421	-0,055	-0,058
-489,737	-200,000	0,001	-0,103
-488,722	-120,266	-0,115	-0,014
-487,708	-200,000	0,022	0,143
-486,693	-200,000	0,006	0,163
-485,678	122,405	-0,064	0,058
-484,664	284,933	-0,110	-0,144
-483,649	-200,000	0,013	0,044
-482,635	-163,511	0,088	0,003
-481,620	-200,000	-0,012	0,048
-480,605	-2,930	0,117	-0,059
-479,591	800,000	-0,013	-0,035
-478,576	800,000	0,051	-0,104
-477,562	180,275	-0,075	0,080
-476,547	800,000	-0,035	0,111
-475,532	800,000	0,030	-0,080
-474,518	146,045	0,153	-0,150
-473,503	102,285	0,018	-0,016
-472,489	800,000	-0,017	0,051
-471,474	-149,377	-0,122	0,007
-470,459	-200,000	0,028	0,094
-469,445	-200,000	-0,001	-0,092
-468,430	220,131	-0,024	-0,028
-467,416	-9,432	0,057	0,028
-466,401	241,487	0,069	0,085
-465,386	709,711	-0,033	-0,064
-464,372	800,000	-0,024	0,068
-463,357	-9,867	-0,123	-0,059
-462,343	-200,000	-0,023	-0,157
-461,328	556,746	-0,039	-0,069
-460,313	42,787	0,092	-0,061
-459,299	-74,570	0,092	0,024
-458,284	411,477	0,068	0,106
-457,270	110,968	0,084	0,073
-456,255	108,364	-0,113	-0,098
-455,241	-23,701	-0,064	-0,028
-454,226	8,253	0,045	-0,025
-453,211	-26,906	0,074	0,031
-452,197	-113,699	0,070	-0,010
-451,182	-17,163	0,093	-0,042
-450,168	-16,002	0,152	-0,070
-449,153	116,931	-0,106	0,095
-448,138	-200,000	0,004	0,034
-447,124	153,951	-0,071	-0,071
-446,109	-132,621	0,093	-0,009
-445,095	134,628	-0,088	-0,083
-444,080	-200,000	0,015	0,118
-443,065	-16,189	0,054	-0,025
-442,051	-200,000	0,028	0,141
-441,036	453,706	-0,111	0,180
-440,022	-117,595	-0,145	0,019
-439,007	800,000	0,021	-0,048
-437,992	305,676	-0,049	0,067
-436,978	112,958	-0,121	0,107
-435,963	-200,000	0,022	0,111
-434,949	-200,000	0,033	-0,126
-433,934	517,174	0,051	0,087
-432,919	-76,254	0,027	0,007
-431,905	430,945	0,082	-0,130
-430,890	-62,119	0,097	0,029
-429,876	-200,000	-0,041	-0,168
-428,861	-73,091	-0,110	-0,029
-427,846	-43,402	0,112	-0,041
-426,832	-109,650	-0,036	-0,005
-425,817	-200,000	0,018	-0,096
-424,803	800,000	-0,038	0,103
-423,788	-6,776	0,144	0,071
-422,773	96,594	-0,109	0,090
-421,759	106,243	-0,092	0,079
-420,744	-33,230	-0,047	0,019
-419,730	-154,158	-0,104	0,005
-418,715	-46,226	0,081	0,029
-417,701	-109,517	0,039	-0,006
-416,686	245,427	0,019	0,023
-415,671	303,541	0,048	0,065
-414,657	227,780	-0,037	-0,043
-413,642	153,906	-0,122	-0,121
-412,628	273,395	-0,035	-0,045
-411,613	800,000	0,026	0,061
-410,598	800,000	0,037	-0,091
-409,584	-98,973	0,069	0,013
-408,569	225,509	0,023	-0,027
-407,555	800,000	-0,043	0,106
-406,540	90,007	0,058	-0,047
-405,525	800,000	-0,031	-0,091
-404,511	283,483	-0,112	-0,146
-403,496	800,000	0,062	-0,154
-402,482	-200,000	0,015	0,096
-401,467	-4,519	0,046	-0,023
-400,452	-200,000	-0,010	0,117
-399,438	129,009	-0,034	-0,031
-398,423	-200,000	-0,022	0,072
-397,409	-12,545	0,045	0,021
-396,394	46,132	-0,065	0,043
-395,379	-109,214	0,053	-0,008
-394,365	360,800	-0,077	0,112
-393,350	800,000	-0,006	0,016
-392,336	19,862	-0,029	-0,017
-391,321	94,125	0,064	0,053
-390,306	-127,181	0,124	-0,013
-389,292	-21,723	0,102	0,045
-388,277	800,000	0,046	-0,097
-387,263	20,232	-0,057	-0,033
-386,248	-200,000	-0,021	-0,070
-385,233	800,000	0,016	-0,042
-384,219	-200,000	-0,007	0,108
-383,204	-200,000	0,015	-0,135
-382,190	-200,000	0,006	-0,094
-381,175	-173,740	-0,120	0,003
-380,160	-191,366	0,127	-0,001
-379,146	-109,849	0,221	0,033
-378,131	149,739	-0,042	0,041
-377,117	800,000	-0,040	0,083
-376,102	-200,000	0,005	-0,105
-375,088	-200,000	-0,018	-0,088
-374,073	-101,751	-0,075	-0,013
-373,058	-154,775	0,088	-0,004
-372,044	-134,686	-0,074	-0,006
-371,029	-200,000	-0,001	0,123
-370,015	743,116	0,022	0,043
-369,000	800,000	-0,062	-0,184
-367,985	-3,525	0,060	-0,030
-366,971	-145,757	-0,145	-0,009
-365,956	88,745	-0,070	-0,056
-364,942	-200,000	-0,019	0,074
-363,927	396,589	0,080	-0,122
-362,912	-200,000	-0,007	-0,140
-361,898	-41,436	-0,036	-0,014
-360,883	311,231	0,044	-0,059
-359,869	62,862	-0,059	-0,043
-358,854	-42,481	-0,050	-0,019
-357,839	12,326	0,099	-0,055
-356,825	-200,000	-0,008	0,076
-355,810	55,189	-0,040	0,028
-354,796	-200,000	-0,030	0,135
-353,781	-75,733	-0,103	-0,026
-352,766	800,000	-0,048	0,122
-351,752	-200,000	0,022	0,183
-350,737	-110,833	0,077	0,011
-349,723	16,986	0,045	-0,026
-348,708	-200,000	0,030	0,114
-347,693	-200,000	0,007	0,074
-346,679	589,410	-0,062	0,110
-345,664	627,899	-0,071	-0,130
-344,650	59,599	-0,075	0,053
-343,635	39,881	-0,078	0,051
-342,620	9,043	0,123	0,067
-341,606	-98,610	0,028	-0,005
-340,591	-200,000	0,028	-0,161
-339,577	-200,000	0,011	0,039
-338,562	-18,370	0,063	0,028
-337,548	-200,000	0,015	0,102
-336,533	461,890	0,107	0,173
-335,518	599,603	0,041	-0,073
-334,504	215,033	0,071	0,081
-333,489	137,395	-0,054	0,051
-332,475	488,547	-0,043	0,071
-331,460	-200,000	-0,030	-0,158
-330,445	92,463	-0,164	-0,134
-329,431	601,810	-0,005	-0,009
-328,416	-200,000	0,029	-0,095
-327,402	800,000	-0,036	0,089
-326,387	282,272	0,042	-0,055
-325,372	-200,000	0,014	-0,082
-324,358	-118,447	0,064	0,008
-323,343	-151,488	0,113	-0,006
-322,329	13,156	0,072	-0,040
-321,314	357,478	0,059	0,085
-320,299	-114,868	-0,070	0,010
-319,285	230,880	-0,095	0,112
-318,270	-53,552	-0,085	0,028
-317,256	64,165	-0,094	0,069
-316,241	800,000	-0,038	-0,087
-315,226	-135,530	-0,050	0,004
-314,212	334,037	0,115	0,161
-313,197	79,374	0,062	0,048
-312,183	-41,459	-0,059	0,022
-311,168	-148,661	-0,204	0,012
-310,153	800,000	0,037	-0,094
-309,139	-2,836	0,098	-0,049
-308,124	-180,468	0,033	-0,000
-307,110	-69,959	0,218	0,060
-306,095	-200,000	0,003	0,036
-305,080	-22,028	0,061	0,027
-304,066	634,787	0,014	0,027
-303,051	-51,460	0,206	0,069
-302,037	-200,000	0,015	-0,093
-301,022	-200,000	0,001	-0,078
-300,008	-200,000	0,014	-0,063
-298,993	-200,000	-0,019	-0,085
-297,978	343,901	0,028	0,040
-296,964	-118,843	0,077	0,010
-295,949	-190,569	-0,193	-0,001
-294,935	-44,867	0,120	-0,043
-293,920	241,350	0,048	-0,058
-292,905	23,876	0,085	-0,050
-291,891	-64,166	0,039	0,011
-290,876	60,954	-0,073	0,052
-289,862	-103,437	-0,112	0,019
-288,847	403,514	0,046	0,070
-287,832	558,445	0,058	0,102
-286,818	-200,000	0,003	0,021
-285,803	-120,485	-0,169	-0,020
-284,789	-200,000	0,003	-0,015
-283,774	311,981	-0,034	0,046
-282,759	-173,776	0,090	-0,002
-281,745	-85,666	-0,116	-0,026
-280,730	800,000	-0,018	0,053
-279,716	-143,185	0,042	-0,003
-278,701	123,991	-0,009	0,008
-277,686	-167,940	-0,076	-0,002
-276,672	21,034	0,112	-0,066
-275,657	72,239	-0,078	0,059
-274,643	-6,036	0,022	-0,011
-273,628	-200,000	-0,014	-0,177
-272,613	39,799	-0,110	0,071
-271,599	135,054	-0,023	-0,022
-270,584	800,000	0,036	0,098
-269,570	102,955	0,040	-0,034
-268,555	-200,000	0,008	0,097
-267,540	-200,000	0,001	-0,006
-266,526	156,645	0,083	-0,083
-265,511	-165,617	-0,149	0,005
-264,497	8,262	0,111	0,060
-263,482	-23,917	-0,069	0,030
-262,467	6,646	0,168	0,090
-261,453	661,927	0,050	0,094
-260,438	-200,000	0,027	0,105
-259,424	-200,000	0,026	0,145
-258,409	104,181	-0,089	0,075
-257,395	-26,756	0,048	-0,020
-256,380	752,857	0,099	0,194
-255,365	-170,623	0,064	-0,002
-254,351	800,000	0,030	-0,066
-253,336	-200,000	0,010	0,038
-252,322	-200,000	0,016	-0,097
-251,307	-79,110	-0,099	0,024
-250,292	-200,000	0,000	-0,020
-249,278	488,640	0,025	-0,042
-248,263	-57,612	0,067	0,021
-247,249	23,140	0,062	0,037
-246,234	582,994	-0,025	0,045
-245,219	-135,664	0,098	0,008
-244,205	264,153	0,060	-0,076
-243,190	-200,000	0,003	-0,074
-242,176	800,000	0,052	0,126
-241,161	-18,809	0,082	0,037
-240,146	-200,000	0,002	0,043
-239,132	800,000	0,095	0,240
-238,117	315,214	0,071	0,096
-237,103	128,441	-0,015	0,014
-236,088	800,000	-0,020	-0,053
-235,073	-200,000	0,012	0,065
-234,059	-14,373	0,098	-0,046
-233,044	-158,143	-0,030	-0,001
-232,030	365,608	-0,017	0,025
-231,015	775,279	-0,034	-0,067
-230,000	201,859	0,074	-0,082
-228,986	321,431	-0,110	-0,151
-227,971	-200,000	-0,044	0,176
-226,957	409,483	0,073	-0,112
-225,942	-83,195	0,025	0,006
-224,927	-158,281	0,106	-0,004
-223,913	-103,964	0,046	-0,008
-222,898	-4,938	-0,112	-0,056
-221,884	142,787	0,077	-0,074
-220,869	-200,000	-0,002	0,043
-219,855	800,000	0,044	0,100
-218,840	53,799	-0,031	-0,021
-217,825	-200,000	0,013	0,169
-216,811	-179,354	-0,157	-0,002
-215,796	156,449	0,108	-0,108
-214,782	187,238	-0,078	0,084
-213,767	-145,739	0,115	-0,007
-212,752	-200,000	-0,007	0,123
-211,738	800,000	-0,016	0,047
-210,723	800,000	0,006	-0,014
-209,709	92,559	-0,021	0,017
-208,694	-200,000	0,009	0,035
-207,679	226,194	0,073	-0,086
-206,665	84,389	0,057	-0,045
-205,650	335,961	-0,079	0,110
-204,636	-44,920	0,051	0,018
-203,621	-93,307	0,033	-0,007
-202,606	800,000	0,019	0,059
-201,592	-49,046	-0,028	-0,010
-200,577	800,000	-0,013	-0,040
-199,563	159,555	-0,125	0,125
-198,548	302,699	-0,042	0,057
-197,533	150,558	0,084	0,082
-196,519	-200,000	-0,009	0,038
-195,504	150,678	0,028	0,027
-194,490	-200,000	-0,036	0,144
-193,475	800,000	0,013	-0,038
-192,460	229,427	-0,114	0,135
-191,446	137,792	0,079	0,075
-190,431	94,108	0,094	0,077
-189,417	80,612	-0,162	0,125
-188,402	284,872	0,018	0,024
-187,387	-200,000	0,011	-0,083
-186,373	197,197	-0,054	-0,059
-185,358	800,000	0,045	-0,137
-184,344	800,000	-0,064	0,186
-183,329	-200,000	-0,047	-0,000
-182,315	10,776	0,132	0,072
-181,300	800,000	-0,020	0,063
-180,285	643,533	0,015	0,028
-179,271	-13,219	0,044	-0,021
-178,256	-200,000	-0,019	-0,097
-177,242	800,000	-0,028	-0,077
-176,227	800,000	-0,057	0,146
-175,212	-119,845	0,066	-0,008
-174,198	246,372	0,036	-0,043
-173,183	-200,000	0,013	-0,057
-172,169	-200,000	0,002	-0,055
-171,154	-172,167	-0,089	0,002
-170,139	800,000	-0,037	0,089
-169,125	-20,911	-0,160	0,070
-168,110	800,000	-0,032	-0,080
-167,096	-76,702	0,105	-0,026
-166,081	-183,796	0,095	-0,001
-165,066	-200,000	-0,006	-0,047
-164,052	-100,603	-0,121	-0,021
-163,037	-200,000	-0,015	-0,152
-162,023	4,840	0,065	0,034
-161,008	-200,000	-0,039	0,130
-159,993	800,000	-0,058	0,138
-158,979	-62,608	0,076	-0,023
-157,964	203,636	0,044	-0,049
-156,950	-106,116	0,025	0,004
-155,935	-171,689	0,049	0,001
-154,920	800,000	0,051	0,106
-153,906	-1,877	0,065	-0,033
-152,891	75,465	-0,139	0,105
-151,877	-200,000	-0,034	0,166
-150,862	-140,321	-0,033	-0,002
-149,847	68,998	-0,104	-0,077
-148,833	369,045	0,062	-0,090
-147,818	164,322	0,057	0,058
-146,804	273,005	0,109	-0,139
-145,789	1,715	-0,031	0,016
-144,775	235,554	0,045	0,053
-143,760	-142,226	-0,069	0,005
-142,745	800,000	0,041	-0,118
-141,731	59,449	0,056	-0,040
-140,716	52,950	0,067	0,046
-139,702	768,303	0,042	-0,083
-138,687	111,954	0,075	0,066
-137,672	199,950	-0,034	0,037
-136,658	70,445	-0,094	-0,070
-135,643	134,514	-0,078	-0,073
-134,629	-130,473	0,062	-0,006
-133,614	800,000	0,079	-0,171
-132,599	-13,918	0,046	0,021
-131,585	-62,392	0,117	0,035
-130,570	270,825	0,067	0,084
-129,556	-43,289	-0,037	-0,013
-128,541	800,000	-0,073	-0,167
-127,526	-96,089	-0,042	-0,008
-126,512	663,777	-0,042	-0,077
-125,497	-97,180	0,211	-0,039
-124,483	-50,717	0,121	-0,041
-123,468	-200,000	0,002	-0,054
-122,453	800,000	0,002	0,005
-121,439	174,172	-0,027	-0,028
-120,424	61,795	-0,082	0,058
