DTS Sentinel unit serial number:	SN410029Multiplexer serial number:	ORYXHardware model number:	OX2-SRSoftware version number:	ORYX F/W v4,00 Oryx Data Collector v3.7.2.0data status	okinstallation	B6 Nyhavnadifferential loss correction	single-endedforward channel	channel 2reverse channel	N/Adate	2023/12/08time	00:35:08forward acquisition time	300,00reverse acquisition time	0,00gamma	499,1914k internal	0,3164k external	0,3164temperature offset calibration	1,0000default loss term (dB/km)	0,3820temperature slope calibration	1,0000multiplexer offset coefficient	1,0000multiplexer slope coefficient	1,0000fibre end	0,00T internal ref (°C)	13,31T ext. ref 1 (°C)	-3,60T ext. ref 2 (°C)	-3,59length (m)	temperature (°C)	Stokes	anti-Stokes-744,400	243,420	0,081	0,101
-743,385	31,084	-0,242	-0,153
-742,371	800,000	0,043	0,095
-741,356	-118,562	-0,290	0,037
-740,342	800,000	0,034	0,107
-739,327	-17,371	-0,308	0,142
-738,312	197,695	0,043	-0,049
-737,298	-82,949	-0,323	0,076
-736,283	-83,706	0,161	0,038
-735,269	-150,699	-0,362	0,020
-734,254	-200,000	0,007	0,157
-733,239	-67,018	-0,458	-0,132
-732,225	-13,744	0,145	0,069
-731,210	19,574	0,061	0,036
-730,196	-37,093	0,065	-0,026
-729,181	302,871	-0,024	-0,033
-728,167	67,542	0,063	-0,047
-727,152	11,535	-0,120	0,067
-726,137	-200,000	0,013	-0,153
-725,123	2,501	-0,121	-0,064
-724,108	-200,000	-0,030	-0,109
-723,094	243,076	0,093	-0,115
-722,079	187,325	0,033	0,036
-721,064	-74,505	-0,023	-0,006
-720,050	102,165	0,128	0,110
-719,035	-4,684	0,008	-0,004
-718,021	-200,000	-0,036	0,117
-717,006	229,635	0,027	-0,033
-715,991	436,102	-0,048	-0,078
-714,977	509,544	0,014	-0,023
-713,962	-161,132	-0,123	0,005
-712,948	-200,000	0,016	0,080
-711,933	800,000	0,013	0,041
-710,918	268,616	0,083	0,107
-709,904	-41,146	-0,023	0,009
-708,889	-51,902	-0,072	-0,025
-707,875	-37,100	-0,067	-0,026
-706,860	800,000	0,039	-0,123
-705,845	109,454	0,074	0,065
-704,831	-25,628	0,143	-0,062
-703,816	-112,623	-0,057	0,008
-702,802	-200,000	-0,005	-0,101
-701,787	-119,668	-0,114	0,014
-700,772	61,657	-0,114	-0,083
-699,758	404,588	0,041	-0,064
-698,743	-120,601	0,094	-0,012
-697,729	186,964	-0,055	0,061
-696,714	-30,612	0,159	0,066
-695,699	25,459	-0,231	-0,141
-694,685	6,749	-0,008	-0,004
-693,670	800,000	-0,055	0,147
-692,656	-113,242	0,156	0,022
-691,641	800,000	0,032	0,066
-690,627	-4,626	0,072	-0,036
-689,612	764,457	0,058	-0,117
-688,597	-200,000	0,012	-0,077
-687,583	-200,000	0,007	-0,120
-686,568	-114,005	0,047	-0,007
-685,554	800,000	-0,025	-0,052
-684,539	-81,550	-0,059	0,014
-683,524	-76,790	-0,048	0,012
-682,510	176,971	0,045	-0,048
-681,495	800,000	-0,036	-0,074
-680,481	99,390	-0,054	-0,046
-679,466	800,000	0,024	0,066
-678,451	-200,000	-0,012	0,154
-677,437	800,000	0,043	0,122
-676,422	-75,205	0,071	0,019
-675,408	-77,685	-0,044	-0,011
-674,393	2,966	-0,023	0,012
-673,378	109,707	-0,054	-0,047
-672,364	-200,000	0,003	-0,040
-671,349	-200,000	0,025	-0,104
-670,335	-125,143	0,051	-0,006
-669,320	-105,384	0,125	-0,021
-668,305	-70,455	0,085	0,024
-667,291	26,115	-0,086	-0,053
-666,276	800,000	0,020	-0,059
-665,262	-97,114	-0,141	0,027
-664,247	-3,691	0,157	-0,079
-663,232	487,176	0,055	0,093
-662,218	117,961	-0,062	0,056
-661,203	25,508	-0,017	0,011
-660,189	-6,542	0,069	0,034
-659,174	800,000	0,006	-0,014
-658,159	-200,000	0,017	-0,071
-657,145	602,507	0,060	0,110
-656,130	181,438	-0,011	0,012
-655,116	-200,000	-0,006	-0,041
-654,101	144,966	0,066	0,065
-653,086	524,498	-0,060	0,104
-652,072	-37,237	-0,084	0,033
-651,057	481,404	0,049	-0,082
-650,043	138,458	-0,051	0,049
-649,028	426,195	-0,074	0,117
-648,014	226,502	0,066	0,079
-646,999	82,261	-0,069	0,055
-645,984	26,714	0,132	0,081
-644,970	-200,000	-0,002	-0,019
-643,955	-200,000	-0,002	0,014
-642,941	110,175	0,048	-0,042
-641,926	91,623	-0,043	0,035
-640,911	-200,000	0,017	-0,137
-639,897	446,285	0,071	-0,115
-638,882	-200,000	0,027	0,088
-637,868	800,000	0,036	0,108
-636,853	-200,000	-0,006	-0,060
-635,838	367,163	-0,035	0,052
-634,824	748,333	0,069	0,137
-633,809	-99,724	-0,079	0,014
-632,795	65,008	-0,113	0,084
-631,780	800,000	0,051	0,157
-630,765	19,009	0,079	0,046
-629,751	800,000	-0,014	0,039
-628,736	-94,283	-0,044	0,009
-627,722	-91,709	-0,116	0,024
-626,707	179,063	0,048	0,051
-625,692	800,000	0,047	0,110
-624,678	800,000	-0,026	0,064
-623,663	-54,742	-0,073	-0,024
-622,649	77,646	-0,070	-0,054
-621,634	800,000	0,010	-0,024
-620,619	-99,614	0,016	0,003
-619,605	-200,000	-0,002	0,067
-618,590	-67,193	0,038	0,011
-617,576	68,687	-0,050	0,038
-616,561	95,859	0,087	-0,073
-615,546	314,554	-0,091	-0,126
-614,532	-14,093	-0,141	-0,066
-613,517	-148,553	-0,057	0,003
-612,503	800,000	0,059	-0,151
-611,488	103,332	-0,119	-0,102
-610,474	-131,994	-0,005	-0,000
-609,459	-63,818	-0,014	-0,004
-608,444	269,065	0,064	-0,083
-607,430	-200,000	-0,049	-0,214
-606,415	15,851	0,048	-0,028
-605,401	-200,000	-0,001	0,016
-604,386	-55,703	-0,009	0,003
-603,371	101,609	0,093	-0,079
-602,357	-200,000	0,008	0,136
-601,342	-150,959	-0,145	-0,008
-600,328	-200,000	-0,012	-0,094
-599,313	116,705	-0,020	0,018
-598,298	-33,298	0,048	0,019
-597,284	-200,000	0,031	0,115
-596,269	-200,000	0,005	0,019
-595,255	-200,000	0,010	-0,126
-594,240	799,476	0,019	0,038
-593,225	800,000	0,005	0,017
-592,211	-200,000	0,003	0,036
-591,196	-9,581	0,058	-0,028
-590,182	800,000	-0,025	0,070
-589,167	372,658	-0,039	0,059
-588,152	211,157	-0,097	0,111
-587,138	-24,996	-0,058	-0,025
-586,123	74,877	-0,186	-0,143
-585,109	83,966	0,090	-0,072
-584,094	-72,790	-0,121	-0,032
-583,079	730,558	0,056	0,110
-582,065	-83,960	0,145	-0,033
-581,050	800,000	0,064	0,131
-580,036	80,388	0,159	-0,125
-579,021	-71,285	-0,042	0,012
-578,006	354,368	0,035	0,051
-576,992	449,465	-0,074	-0,120
-575,977	638,375	-0,058	0,108
-574,963	800,000	0,025	0,070
-573,948	-200,000	-0,005	0,211
-572,934	-188,439	0,208	-0,002
-571,919	279,966	-0,042	0,055
-570,904	470,684	0,051	0,084
-569,890	-154,787	-0,054	0,003
-568,875	210,655	0,054	0,063
-567,861	78,384	0,110	0,086
-566,846	-96,802	0,037	-0,007
-565,831	800,000	0,053	0,149
-564,817	-44,226	-0,090	0,033
-563,802	-200,000	-0,014	-0,098
-562,788	47,028	-0,017	-0,011
-561,773	-200,000	-0,006	0,133
-560,758	13,798	-0,051	0,029
-559,744	-200,000	-0,002	-0,040
-558,729	15,862	0,058	0,033
-557,715	600,104	0,052	-0,094
-556,700	173,479	0,060	0,063
-555,685	-200,000	-0,033	0,186
-554,671	-14,675	-0,116	0,054
-553,656	26,092	0,014	-0,008
-552,642	-60,379	0,102	-0,032
-551,627	-33,554	-0,154	0,062
-550,612	-105,847	-0,136	-0,022
-549,598	488,953	-0,042	0,070
-548,583	800,000	-0,007	0,014
-547,569	32,089	-0,011	-0,007
-546,554	123,102	0,077	-0,071
-545,539	-52,488	0,093	0,031
-544,525	-200,000	0,009	-0,064
-543,510	319,943	0,029	0,040
-542,496	-200,000	-0,010	0,081
-541,481	343,359	-0,111	-0,159
-540,466	800,000	0,004	-0,011
-539,452	-200,000	0,004	0,020
-538,437	-118,322	0,150	-0,019
-537,423	-5,224	0,049	-0,024
-536,408	-17,153	-0,131	-0,060
-535,393	800,000	-0,077	-0,171
-534,379	-151,428	-0,083	-0,004
-533,364	-98,492	0,186	0,034
-532,350	315,573	-0,011	0,015
-531,335	800,000	-0,050	-0,153
-530,321	9,645	-0,049	-0,027
-529,306	800,000	0,022	-0,050
-528,291	-113,958	0,067	-0,009
-527,277	-0,765	-0,046	-0,024
-526,262	-119,406	0,115	0,014
-525,248	-28,962	-0,021	-0,009
-524,233	-200,000	-0,006	-0,131
-523,218	-1,573	-0,066	-0,034
-522,204	800,000	-0,067	0,136
-521,189	-172,228	0,061	0,001
-520,175	-200,000	0,017	0,089
-519,160	31,055	0,067	-0,042
-518,145	152,360	0,046	0,046
-517,131	167,714	-0,009	0,009
-516,116	-115,430	-0,052	0,007
-515,102	800,000	0,058	-0,122
-514,087	4,817	0,092	0,049
-513,072	800,000	-0,017	0,047
-512,058	-200,000	0,007	-0,026
-511,043	-49,616	0,024	0,008
-510,029	682,705	0,091	0,173
-509,014	-200,000	0,009	-0,039
-507,999	-200,000	0,014	0,095
-506,985	-200,000	-0,021	0,154
-505,970	-176,697	-0,120	-0,002
-504,956	-122,902	-0,069	-0,008
-503,941	162,044	0,116	-0,119
-502,926	-30,860	0,083	0,034
-501,912	5,649	-0,043	0,023
-500,897	800,000	-0,026	-0,075
-499,883	-200,000	-0,028	-0,153
-498,868	647,139	-0,087	-0,163
-497,853	122,057	-0,031	0,028
-496,839	33,447	0,026	0,016
-495,824	102,712	0,127	-0,108
-494,810	-66,290	0,105	0,030
-493,795	-200,000	0,005	-0,034
-492,781	110,669	0,036	-0,031
-491,766	-63,544	-0,167	0,050
-490,751	-21,443	-0,115	0,051
-489,737	-18,432	-0,062	-0,028
-488,722	-25,766	0,103	-0,044
-487,708	-108,572	-0,103	0,016
-486,693	-101,164	0,105	-0,018
-485,678	-100,246	-0,119	-0,021
-484,664	99,593	-0,033	0,028
-483,649	54,308	-0,060	0,042
-482,635	526,668	0,011	0,020
-481,620	800,000	0,009	0,028
-480,605	-18,270	0,135	-0,061
-479,591	140,786	0,045	0,043
-478,576	-200,000	-0,006	0,024
-477,562	201,282	0,029	0,033
-476,547	800,000	-0,012	0,039
-475,532	-147,383	0,031	-0,002
-474,518	-11,834	0,112	-0,053
-473,503	226,082	0,139	0,165
-472,489	15,489	-0,041	-0,023
-471,474	-200,000	-0,021	-0,072
-470,459	136,323	-0,077	0,073
-469,445	-64,373	-0,102	0,030
-468,430	-63,511	-0,086	-0,026
-467,416	-0,788	-0,026	-0,013
-466,401	224,336	0,129	0,151
-465,386	800,000	0,050	-0,103
-464,372	261,474	0,058	-0,073
-463,357	-200,000	0,002	-0,049
-462,343	-200,000	0,011	-0,062
-461,328	18,608	-0,141	0,082
-460,313	-200,000	-0,007	-0,075
-459,299	-200,000	-0,004	0,028
-458,284	800,000	0,021	0,056
-457,270	13,055	0,018	-0,010
-456,255	665,290	-0,067	-0,126
-455,241	361,017	0,026	-0,037
-454,226	-57,757	0,117	-0,037
-453,211	255,721	-0,021	0,027
-452,197	692,103	-0,095	0,182
-451,182	281,876	0,086	0,113
-450,168	-200,000	-0,053	-0,186
-449,153	-16,596	0,042	-0,019
-448,138	-200,000	-0,012	0,105
-447,124	-85,252	-0,059	-0,013
-446,109	42,178	0,113	0,075
-445,095	-200,000	-0,004	-0,037
-444,080	-6,170	0,033	0,017
-443,065	-200,000	-0,024	-0,163
-442,051	182,643	0,076	0,082
-441,036	225,670	-0,129	-0,153
-440,022	-200,000	-0,008	-0,056
-439,007	-20,317	0,173	0,077
-437,992	-200,000	-0,003	-0,082
-436,978	800,000	0,072	0,218
-435,963	-91,537	0,044	-0,009
-434,949	-114,639	0,028	0,004
-433,934	618,062	-0,050	-0,091
-432,919	-200,000	0,013	-0,118
-431,905	-59,329	0,057	-0,018
-430,890	528,348	0,036	0,061
-429,876	-200,000	0,004	-0,093
-428,861	-192,154	0,098	-0,001
-427,846	34,431	0,080	-0,051
-426,832	-122,327	-0,214	0,025
-425,817	-132,315	-0,042	-0,004
-424,803	-200,000	0,009	-0,119
-423,788	-200,000	0,011	0,062
-422,773	-111,139	0,146	-0,022
-421,759	-125,189	-0,134	-0,015
-420,744	278,589	-0,048	0,063
-419,730	-117,354	0,045	-0,006
-418,715	-31,732	-0,087	-0,035
-417,701	101,936	0,099	-0,084
-416,686	-200,000	0,006	0,056
-415,671	-200,000	-0,003	0,032
-414,657	800,000	0,058	-0,133
-413,642	-53,258	0,136	-0,045
-412,628	9,690	-0,108	-0,059
-411,613	227,399	-0,032	-0,038
-410,598	-3,046	0,009	-0,004
-409,584	-200,000	-0,020	0,065
-408,569	69,186	-0,086	-0,064
-407,555	-200,000	0,036	0,184
-406,540	409,300	0,093	0,143
-405,525	371,826	0,048	0,071
-404,511	800,000	0,013	-0,038
-403,496	-59,442	-0,098	0,030
-402,482	363,136	-0,052	0,076
-401,467	365,943	0,067	0,099
-400,452	24,607	-0,068	-0,041
-399,438	29,510	0,018	-0,011
-398,423	239,771	-0,053	0,065
-397,409	12,795	-0,122	-0,068
-396,394	357,481	-0,031	-0,045
-395,379	-99,622	-0,039	0,007
-394,365	665,659	0,048	0,090
-393,350	-8,700	0,091	-0,044
-392,336	617,723	0,072	0,131
-391,321	259,825	-0,082	-0,102
-390,306	-22,241	-0,020	0,009
-389,292	179,460	-0,116	-0,124
-388,277	50,660	0,035	0,024
-387,263	-140,357	-0,111	0,008
-386,248	-133,747	-0,080	-0,007
-385,233	800,000	0,008	0,026
-384,219	586,881	0,035	0,063
-383,204	800,000	0,008	0,018
-382,190	290,743	-0,066	-0,087
-381,175	800,000	-0,008	-0,021
-380,160	104,116	0,070	-0,060
-379,146	33,128	-0,083	-0,052
-378,131	800,000	0,033	0,079
-377,117	-22,347	0,132	0,058
-376,102	800,000	0,026	-0,074
-375,088	-200,000	-0,008	0,056
-374,073	-200,000	0,005	-0,166
-373,058	23,311	-0,053	-0,031
-372,044	333,338	-0,076	-0,107
-371,029	-200,000	-0,008	0,083
-370,015	122,059	0,036	-0,032
-369,000	-200,000	-0,001	0,046
-367,985	74,707	-0,088	0,067
-366,971	-200,000	-0,003	-0,168
-365,956	74,335	-0,103	0,079
-364,942	-66,206	0,147	0,042
-363,927	707,912	0,050	0,096
-362,912	90,045	0,108	-0,087
-361,898	800,000	-0,023	-0,066
-360,883	-60,939	-0,158	-0,048
-359,869	-65,487	0,209	0,061
-358,854	519,131	-0,027	-0,047
-357,839	-90,018	0,157	-0,033
-356,825	-200,000	0,008	0,067
-355,810	800,000	0,082	0,177
-354,796	-120,051	-0,070	-0,009
-353,781	108,603	-0,028	-0,025
-352,766	-2,336	0,135	-0,069
-351,752	541,729	0,034	0,060
-350,737	800,000	0,013	0,032
-349,723	-2,290	0,035	0,018
-348,708	-34,947	-0,040	0,016
-347,693	-69,676	-0,103	0,028
-346,679	149,161	-0,067	0,066
-345,664	800,000	0,048	-0,146
-344,650	22,896	-0,050	-0,029
-343,635	-3,798	0,056	0,028
-342,620	-174,938	-0,130	0,003
-341,606	-200,000	-0,002	-0,038
-340,591	165,799	0,055	0,056
-339,577	-159,142	-0,070	0,003
-338,562	351,592	0,045	-0,065
-337,548	461,162	-0,046	0,075
-336,533	-200,000	0,010	0,035
-335,518	10,327	0,065	0,036
-334,504	28,309	0,082	-0,050
-333,489	-72,285	0,103	0,027
-332,475	-1,342	-0,069	0,035
-331,460	49,612	-0,122	0,083
-330,445	-200,000	-0,023	0,095
-329,431	183,169	-0,049	-0,052
-328,416	-200,000	0,026	0,105
-327,402	382,130	0,105	0,157
-326,387	-200,000	0,011	0,079
-325,372	666,335	-0,088	-0,165
-324,358	-200,000	0,001	-0,142
-323,343	-68,495	-0,044	-0,012
-322,329	67,648	0,061	-0,045
-321,314	-128,160	-0,060	0,006
-320,299	-200,000	0,004	0,186
-319,285	-10,437	0,047	-0,022
-318,270	-107,143	-0,174	0,027
-317,256	-200,000	0,000	-0,061
-316,241	466,099	-0,039	-0,063
-315,226	-60,568	0,086	0,026
-314,212	-54,832	0,173	-0,056
-313,197	211,732	0,076	-0,086
-312,183	212,454	0,008	-0,009
-311,168	537,127	-0,087	-0,150
-310,153	-200,000	-0,029	-0,168
-309,139	-200,000	-0,011	-0,075
-308,124	413,983	-0,041	0,064
-307,110	-86,619	-0,102	-0,022
-306,095	-68,493	0,019	-0,005
-305,080	-135,461	0,161	0,014
-304,066	-153,659	0,119	0,006
-303,051	9,674	-0,064	0,035
-302,037	229,895	-0,057	-0,068
-301,022	-200,000	0,033	-0,120
-300,008	800,000	0,034	-0,090
-298,993	351,377	0,084	0,121
-297,978	-200,000	0,006	-0,027
-296,964	-41,431	-0,092	-0,034
-295,949	-101,850	-0,149	0,026
-294,935	-142,961	0,061	-0,004
-293,920	150,026	0,058	0,057
-292,905	-200,000	-0,009	-0,078
-291,891	-76,528	0,137	-0,035
-290,876	-200,000	-0,021	-0,079
-289,862	501,040	-0,023	0,039
-288,847	-108,774	-0,035	-0,005
-287,832	668,208	-0,062	-0,116
-286,818	-84,054	-0,073	-0,017
-285,803	-200,000	-0,010	0,120
-284,789	-142,927	0,092	0,006
-283,774	176,070	-0,039	-0,041
-282,759	-61,892	-0,093	-0,028
-281,745	-200,000	-0,024	0,098
-280,730	800,000	0,068	-0,156
-279,716	294,776	-0,039	-0,052
-278,701	-200,000	0,004	-0,091
-277,686	631,733	0,029	0,053
-276,672	73,145	-0,082	0,062
-275,657	397,361	-0,037	-0,056
-274,643	-191,276	-0,058	0,000
-273,628	800,000	0,056	0,119
-272,613	588,588	0,043	0,076
-271,599	800,000	0,027	0,065
-270,584	-200,000	0,023	0,116
-269,570	-200,000	0,009	0,060
-268,555	-51,286	-0,119	0,040
-267,540	-200,000	-0,032	-0,111
-266,526	-200,000	0,038	-0,167
-265,511	-200,000	-0,019	-0,090
-264,497	-96,885	0,059	0,011
-263,482	-24,372	0,056	-0,024
-262,467	407,792	-0,021	0,032
-261,453	379,651	-0,046	-0,068
-260,438	-127,890	-0,139	-0,014
-259,424	-25,996	-0,096	0,041
-258,409	710,134	-0,016	0,031
-257,395	121,989	-0,063	0,057
-256,380	-200,000	0,015	-0,067
-255,365	337,586	-0,045	0,063
-254,351	-36,904	-0,035	0,013
-253,336	-135,508	0,140	-0,012
-252,322	434,169	-0,051	0,080
-251,307	186,340	-0,046	-0,050
-250,292	-200,000	0,023	-0,128
-249,278	-9,811	0,106	0,051
-248,263	-100,812	0,077	-0,014
-247,249	-200,000	0,047	-0,166
-246,234	800,000	-0,007	-0,021
-245,219	737,347	0,019	-0,038
-244,205	138,464	-0,103	-0,098
-243,190	-62,990	0,101	0,030
-242,176	-100,711	0,099	-0,018
-241,161	-200,000	-0,015	0,096
-240,146	93,186	-0,079	0,065
-239,132	-93,042	-0,147	0,029
-238,117	-11,808	-0,109	-0,051
-237,103	-200,000	0,001	-0,062
-236,088	800,000	-0,019	0,054
-235,073	-139,949	0,137	0,010
-234,059	-51,086	-0,122	0,041
-233,044	-200,000	0,023	-0,132
-232,030	111,702	-0,116	0,101
-231,015	177,239	0,053	-0,056
-230,000	-45,240	-0,127	-0,045
-228,986	-46,879	-0,030	-0,010
-227,971	437,992	-0,042	0,066
-226,957	92,451	-0,051	0,042
-225,942	-3,313	0,084	-0,042
-224,927	-42,044	-0,067	-0,025
-223,913	556,195	0,045	-0,078
-222,898	-83,265	-0,243	-0,056
-221,884	405,916	0,040	0,061
-220,869	710,367	0,039	-0,074
-219,855	-200,000	-0,004	0,026
-218,840	800,000	-0,026	0,074
-217,825	282,646	-0,043	-0,056
-216,811	-200,000	-0,010	-0,035
-215,796	-115,352	0,104	-0,014
-214,782	800,000	-0,050	-0,149
-213,767	-200,000	0,004	-0,113
-212,752	180,413	-0,043	0,045
-211,738	800,000	-0,035	0,098
-210,723	240,972	0,017	-0,021
-209,709	-200,000	0,012	0,049
-208,694	-200,000	-0,010	0,036
-207,679	-2,473	-0,067	-0,034
-206,665	-105,973	-0,110	0,018
-205,650	800,000	0,041	0,114
-204,636	-200,000	0,022	0,166
-203,621	-200,000	0,019	0,071
-202,606	401,856	0,029	0,044
-201,592	-174,291	-0,132	0,003
-200,577	-200,000	-0,010	0,101
-199,563	9,101	0,063	0,034
-198,548	19,573	-0,113	-0,065
-197,533	-65,149	0,017	0,005
-196,519	-200,000	0,002	-0,039
-195,504	800,000	-0,032	-0,069
-194,490	-39,428	-0,040	0,015
-193,475	800,000	0,021	-0,046
-192,460	388,914	-0,022	-0,033
-191,446	-78,044	0,042	0,010
-190,431	800,000	-0,037	0,098
-189,417	755,400	0,042	0,083
-188,402	-156,237	-0,097	0,004
-187,387	740,460	-0,050	-0,098
-186,373	-200,000	0,037	-0,211
-185,358	15,875	0,123	0,070
-184,344	-200,000	0,007	0,075
-183,329	71,257	0,234	-0,175
-182,315	-200,000	0,008	-0,050
-181,300	147,830	-0,027	-0,026
-180,285	-49,125	0,089	-0,030
-179,271	-27,000	-0,119	0,050
-178,256	-45,702	0,068	-0,024
-177,242	715,930	0,054	-0,103
-176,227	-200,000	-0,023	0,120
-175,212	118,345	0,071	-0,063
-174,198	-127,318	0,097	-0,010
-173,183	74,933	-0,172	-0,130
-172,169	487,169	-0,013	0,021
-171,154	-8,088	0,144	-0,070
-170,139	-200,000	0,008	-0,080
-169,125	46,738	0,053	0,035
-168,110	-200,000	-0,026	0,170
-167,096	-84,554	0,128	-0,029
-166,081	-46,057	-0,097	0,034
-165,066	-30,489	0,067	0,027
-164,052	-200,000	0,004	-0,014
-163,037	568,290	0,067	0,117
-162,023	277,502	0,101	0,129
-161,008	393,330	-0,005	0,007
-159,993	-94,683	0,040	-0,008
-158,979	-80,583	-0,072	-0,017
-157,964	-200,000	-0,018	0,105
-156,950	409,626	0,050	0,077
-155,935	173,405	-0,040	0,041
-154,920	404,800	-0,008	0,013
-153,906	113,601	0,051	-0,045
-152,891	-119,075	0,124	-0,015
-151,877	800,000	-0,052	-0,105
-150,862	-37,642	-0,068	-0,026
-149,847	-15,340	0,095	-0,043
-148,833	-53,079	-0,007	0,002
-147,818	800,000	-0,013	0,036
-146,804	121,594	0,089	-0,079
-145,789	734,309	-0,055	-0,106
-144,775	46,544	-0,021	0,014
-143,760	-68,919	0,049	-0,014
-142,745	-200,000	0,000	-0,133
-141,731	-56,480	-0,054	-0,017
-140,716	800,000	-0,038	0,098
-139,702	-200,000	-0,001	-0,106
-138,687	-200,000	0,014	0,048
-137,672	102,973	-0,150	-0,126
-136,658	374,833	-0,075	-0,110
-135,643	126,731	-0,140	-0,127
-134,629	-57,089	0,135	0,043
-133,614	-200,000	-0,023	0,089
-132,599	374,608	0,015	-0,022
-131,585	-200,000	0,016	-0,107
-130,570	-116,138	-0,189	-0,025
-129,556	-88,790	0,112	0,024
-128,541	-22,764	-0,137	0,059
-127,526	800,000	-0,016	-0,044
-126,512	-166,074	-0,109	-0,003
-125,497	549,233	0,021	0,037
-124,483	323,229	0,019	-0,026
-123,468	-200,000	0,001	0,060
-122,453	317,826	0,084	0,115
-121,439	80,194	0,133	0,103
-120,424	-200,000	0,019	0,115
-119,410	-6,601	0,067	-0,033
-118,395	800,000	-0,034	-0,089
