DTS Sentinel unit serial number:	SN410029Multiplexer serial number:	ORYXHardware model number:	OX2-SRSoftware version number:	ORYX F/W v4,00 Oryx Data Collector v3.7.2.0data status	okinstallation	B6 Nyhavnadifferential loss correction	single-endedforward channel	channel 2reverse channel	N/Adate	2023/12/08time	03:30:08forward acquisition time	300,00reverse acquisition time	0,00gamma	499,1914k internal	0,3165k external	0,3165temperature offset calibration	1,0000default loss term (dB/km)	0,3820temperature slope calibration	1,0000multiplexer offset coefficient	1,0000multiplexer slope coefficient	1,0000fibre end	0,00T internal ref (°C)	13,12T ext. ref 1 (°C)	-3,76T ext. ref 2 (°C)	-3,75length (m)	temperature (°C)	Stokes	anti-Stokes-744,400	800,000	0,027	0,083
-743,385	-132,137	-0,322	0,030
-742,371	65,259	0,148	0,110
-741,356	-18,840	-0,308	0,141
-740,342	-200,000	0,030	0,148
-739,327	-114,304	-0,333	0,047
-738,312	-97,231	0,181	-0,034
-737,298	-7,702	-0,236	-0,117
-736,283	-200,000	0,008	0,136
-735,269	-61,517	-0,264	-0,081
-734,254	-68,620	0,155	0,044
-733,239	-63,566	-0,652	-0,195
-732,225	-44,813	0,175	0,064
-731,210	131,724	0,018	-0,017
-730,196	-135,659	-0,136	0,012
-729,181	619,077	0,051	0,095
-728,167	800,000	-0,039	0,096
-727,152	-21,616	0,069	-0,031
-726,137	-147,731	-0,103	-0,006
-725,123	-10,868	0,158	-0,076
-724,108	-200,000	-0,014	-0,086
-723,094	289,846	-0,087	-0,117
-722,079	-8,034	-0,083	-0,041
-721,064	-89,259	0,071	-0,015
-720,050	56,124	-0,053	-0,038
-719,035	-112,041	-0,162	-0,024
-718,021	-200,000	-0,007	-0,086
-717,006	150,982	-0,051	-0,051
-715,991	-200,000	-0,005	0,108
-714,977	95,323	-0,101	0,084
-713,962	-80,199	0,124	-0,030
-712,948	721,126	0,010	-0,019
-711,933	113,760	-0,103	-0,092
-710,918	800,000	-0,014	-0,029
-709,904	800,000	0,050	0,115
-708,889	454,399	-0,017	-0,028
-707,875	-200,000	-0,010	-0,085
-706,860	800,000	0,046	-0,094
-705,845	800,000	0,062	-0,128
-704,831	-200,000	0,000	-0,055
-703,816	-88,170	0,014	-0,003
-702,802	800,000	-0,048	-0,111
-701,787	201,520	-0,086	-0,097
-700,772	800,000	0,042	0,091
-699,758	434,784	0,030	-0,048
-698,743	-200,000	0,009	0,063
-697,729	-200,000	-0,005	0,058
-696,714	13,912	-0,079	0,045
-695,699	-59,917	-0,038	-0,012
-694,685	75,214	-0,049	0,038
-693,670	524,609	-0,061	0,105
-692,656	-200,000	-0,031	-0,123
-691,641	62,100	-0,077	0,057
-690,627	-200,000	-0,012	0,047
-689,612	46,479	0,111	-0,075
-688,597	-9,922	-0,192	-0,093
-687,583	445,820	-0,064	-0,104
-686,568	-116,971	-0,054	0,007
-685,554	-119,216	0,112	-0,014
-684,539	-19,619	-0,053	-0,024
-683,524	-4,777	-0,079	-0,040
-682,510	20,824	-0,043	0,026
-681,495	62,411	0,146	-0,107
-680,481	32,840	-0,093	0,059
-679,466	22,985	-0,064	0,039
-678,451	-200,000	-0,008	-0,045
-677,437	35,082	0,035	-0,022
-676,422	167,576	0,060	0,062
-675,408	54,689	0,073	-0,051
-674,393	7,081	0,028	0,015
-673,378	-200,000	-0,005	-0,051
-672,364	200,592	-0,122	0,138
-671,349	337,490	0,078	0,111
-670,335	104,378	0,035	0,030
-669,320	139,760	0,037	-0,035
-668,305	5,610	-0,066	-0,035
-667,291	73,716	0,055	0,042
-666,276	535,693	-0,007	-0,013
-665,262	-78,534	0,037	-0,009
-664,247	372,339	-0,072	-0,107
-663,232	211,755	-0,071	0,083
-662,218	-68,197	0,108	0,031
-661,203	521,025	0,045	0,078
-660,189	-59,496	-0,124	0,039
-659,174	-190,422	0,056	0,000
-658,159	800,000	-0,012	-0,032
-657,145	204,468	-0,108	-0,123
-656,130	85,498	-0,143	-0,115
-655,116	-200,000	-0,010	-0,063
-654,101	429,112	0,083	-0,132
-653,086	177,193	-0,056	-0,060
-652,072	-65,638	0,101	0,030
-651,057	76,663	-0,160	-0,124
-650,043	-43,409	-0,165	0,061
-649,028	-17,150	0,070	-0,032
-648,014	3,028	0,056	0,030
-646,999	-37,402	0,133	0,052
-645,984	-200,000	0,013	0,112
-644,970	-200,000	-0,032	-0,122
-643,955	169,945	-0,023	0,024
-642,941	104,138	-0,089	-0,077
-641,926	-13,415	-0,068	0,032
-640,911	-200,000	-0,013	0,101
-639,897	-200,000	-0,019	0,108
-638,882	493,736	0,022	0,037
-637,868	-200,000	0,020	-0,174
-636,853	800,000	0,045	-0,129
-635,838	-200,000	-0,005	0,017
-634,824	-200,000	-0,021	0,097
-633,809	-2,232	-0,063	0,033
-632,795	-44,924	-0,022	0,008
-631,780	-200,000	-0,005	0,029
-630,765	-35,643	0,030	-0,012
-629,751	-2,533	-0,057	-0,029
-628,736	19,008	0,121	-0,071
-627,722	-200,000	0,002	0,061
-626,707	379,133	-0,083	0,125
-625,692	-123,778	-0,089	-0,010
-624,678	30,971	0,039	0,024
-623,663	-133,035	-0,150	0,014
-622,649	-100,459	0,046	0,008
-621,634	-59,362	-0,161	0,050
-620,619	-200,000	-0,007	-0,048
-619,605	-19,057	0,098	0,044
-618,590	-200,000	0,030	0,118
-617,576	-200,000	-0,045	0,190
-616,561	231,275	-0,036	-0,043
-615,546	487,927	-0,069	0,116
-614,532	46,774	-0,067	-0,046
-613,517	-76,061	-0,039	0,010
-612,503	-14,775	-0,050	-0,023
-611,488	-51,237	0,198	-0,067
-610,474	-200,000	0,019	0,066
-609,459	31,410	-0,052	0,032
-608,444	302,090	0,045	0,061
-607,430	-200,000	0,001	-0,029
-606,415	202,069	0,064	0,072
-605,401	71,890	0,112	-0,085
-604,386	95,281	0,119	0,099
-603,371	95,479	0,102	-0,085
-602,357	345,942	-0,023	-0,034
-601,342	15,765	-0,087	-0,050
-600,328	-89,518	-0,139	-0,030
-599,313	-200,000	0,018	0,142
-598,298	-200,000	-0,021	-0,110
-597,284	297,625	0,060	-0,081
-596,269	619,449	0,042	0,078
-595,255	34,535	0,118	0,075
-594,240	-0,831	-0,041	0,021
-593,225	205,274	0,013	-0,015
-592,211	-32,945	-0,041	-0,017
-591,196	800,000	0,017	0,038
-590,182	800,000	0,047	0,143
-589,167	-200,000	0,005	-0,026
-588,152	378,224	0,033	0,049
-587,138	285,906	0,043	0,057
-586,123	43,226	-0,114	-0,076
-585,109	125,991	0,047	0,043
-584,094	-64,421	-0,082	-0,024
-583,079	133,631	-0,016	-0,015
-582,065	-200,000	-0,014	0,099
-581,050	-200,000	0,001	0,115
-580,036	383,340	-0,038	-0,057
-579,021	-160,723	-0,043	0,002
-578,006	-200,000	-0,007	-0,026
-576,992	-200,000	0,009	-0,192
-575,977	-200,000	0,010	0,073
-574,963	800,000	0,060	0,124
-573,948	383,597	0,050	0,076
-572,934	-25,876	0,043	0,018
-571,919	253,878	0,033	0,041
-570,904	123,856	-0,073	0,067
-569,890	-116,495	-0,126	-0,017
-568,875	422,608	0,030	0,047
-567,861	154,644	-0,008	0,009
-566,846	26,068	0,036	0,022
-565,831	254,946	0,104	0,131
-564,817	-200,000	-0,021	-0,205
-563,802	195,945	-0,034	0,038
-562,788	-48,907	-0,114	-0,040
-561,773	-200,000	-0,023	-0,084
-560,758	-128,769	0,198	0,020
-559,744	223,387	-0,048	0,057
-558,729	-156,146	-0,093	-0,004
-557,715	20,171	0,080	0,047
-556,700	28,307	0,176	-0,108
-555,685	-155,915	0,078	0,004
-554,671	-60,687	-0,034	-0,010
-553,656	146,368	-0,049	0,048
-552,642	-127,663	-0,070	0,007
-551,627	445,063	0,006	-0,010
-550,612	800,000	-0,048	0,122
-549,598	367,923	-0,100	-0,147
-548,583	-200,000	0,010	-0,106
-547,569	-55,606	0,154	-0,050
-546,554	421,268	0,016	-0,026
-545,539	68,378	0,114	-0,085
-544,525	96,303	0,057	0,047
-543,510	-36,031	-0,085	-0,033
-542,496	482,723	-0,056	0,093
-541,481	-52,196	-0,073	-0,025
-540,466	535,785	-0,059	-0,103
-539,452	-200,000	-0,003	0,075
-538,437	-200,000	0,002	0,083
-537,423	136,747	-0,073	-0,070
-536,408	668,568	-0,053	0,100
-535,393	580,064	0,039	-0,069
-534,379	361,362	-0,024	-0,036
-533,364	-31,709	-0,063	0,026
-532,350	389,120	0,043	-0,065
-531,335	209,584	-0,066	-0,075
-530,321	195,531	-0,076	-0,085
-529,306	-67,546	0,150	-0,043
-528,291	-42,008	-0,049	0,018
-527,277	-66,327	-0,098	0,028
-526,262	261,217	-0,110	-0,139
-525,248	141,180	-0,039	-0,038
-524,233	-77,780	0,069	-0,017
-523,218	-111,137	0,074	0,011
-522,204	-116,561	-0,172	-0,023
-521,189	-76,455	0,016	0,004
-520,175	-132,384	-0,204	0,019
-519,160	-162,363	-0,043	0,002
-518,145	14,607	0,073	0,042
-517,131	-200,000	-0,017	0,110
-516,116	800,000	0,040	0,091
-515,102	-136,816	-0,180	0,015
-514,087	-113,160	0,145	0,021
-513,072	724,879	0,004	-0,007
-512,058	-200,000	-0,002	-0,092
-511,043	4,887	-0,098	0,052
-510,029	632,533	-0,079	0,147
-509,014	800,000	0,048	0,139
-507,999	-65,397	-0,069	0,020
-506,985	28,061	0,055	-0,033
-505,970	-172,730	-0,141	0,003
-504,956	108,630	0,123	0,107
-503,941	-200,000	-0,002	-0,099
-502,926	561,466	-0,043	0,076
-501,912	-83,750	0,102	0,024
-500,897	-200,000	0,029	0,193
-499,883	-200,000	-0,019	-0,082
-498,868	-200,000	-0,055	-0,191
-497,853	343,706	-0,032	-0,045
-496,839	200,881	0,041	-0,046
-495,824	-200,000	0,020	0,068
-494,810	800,000	0,011	0,028
-493,795	-65,365	0,086	-0,025
-492,781	132,206	0,101	-0,095
-491,766	-12,433	-0,074	0,035
-490,751	-200,000	-0,020	0,073
-489,737	140,324	-0,111	0,107
-488,722	31,723	0,126	0,079
-487,708	-177,925	0,050	-0,001
-486,693	-200,000	-0,034	-0,158
-485,678	800,000	-0,042	0,122
-484,664	46,446	-0,060	-0,041
-483,649	10,174	0,091	-0,050
-482,635	800,000	-0,014	-0,043
-481,620	-64,650	0,024	0,007
-480,605	-148,668	-0,100	-0,006
-479,591	800,000	0,031	0,090
-478,576	-66,423	0,071	0,020
-477,562	187,435	-0,117	-0,128
-476,547	800,000	-0,023	-0,064
-475,532	75,107	0,095	-0,073
-474,518	-200,000	0,005	-0,089
-473,503	800,000	-0,037	0,102
-472,489	363,983	-0,104	-0,153
-471,474	-81,868	-0,119	0,028
-470,459	697,022	-0,037	-0,071
-469,445	-200,000	-0,021	-0,170
-468,430	800,000	0,042	0,105
-467,416	170,441	-0,051	-0,053
-466,401	42,115	0,068	0,045
-465,386	-200,000	0,014	0,058
-464,372	513,304	0,068	-0,116
-463,357	-127,478	-0,041	-0,004
-462,343	-200,000	0,022	-0,101
-461,328	800,000	0,038	-0,081
-460,313	-114,420	0,042	0,006
-459,299	-131,564	0,202	0,019
-458,284	800,000	0,008	0,019
-457,270	-200,000	0,004	-0,046
-456,255	800,000	0,044	-0,092
-455,241	-107,723	0,056	-0,009
-454,226	-5,764	0,050	-0,025
-453,211	-146,102	-0,069	0,004
-452,197	-200,000	0,008	0,048
-451,182	166,907	-0,056	-0,058
-450,168	-200,000	-0,007	0,110
-449,153	640,850	0,068	-0,126
-448,138	-200,000	-0,040	-0,145
-447,124	-132,221	0,094	0,009
-446,109	430,178	0,074	0,117
-445,095	301,011	0,033	0,044
-444,080	-200,000	0,003	0,095
-443,065	10,266	0,052	-0,029
-442,051	292,728	0,024	0,032
-441,036	26,976	-0,024	0,014
-440,022	-200,000	0,017	0,060
-439,007	315,348	-0,057	-0,078
-437,992	70,574	0,081	0,061
-436,978	-200,000	0,012	0,055
-435,963	-93,384	-0,047	0,009
-434,949	-200,000	0,014	-0,066
-433,934	103,999	-0,020	-0,017
-432,919	-104,339	-0,063	-0,010
-431,905	423,858	0,094	-0,148
-430,890	-140,476	0,175	-0,013
-429,876	-200,000	0,001	-0,020
-428,861	-200,000	-0,001	0,062
-427,846	-18,256	0,062	-0,028
-426,832	-200,000	0,022	-0,138
-425,817	800,000	-0,029	-0,075
-424,803	14,919	0,119	-0,067
-423,788	-75,763	-0,119	0,030
-422,773	-200,000	-0,007	0,203
-421,759	-200,000	0,037	0,183
-420,744	-96,851	-0,026	0,005
-419,730	248,225	0,121	0,149
-418,715	206,970	-0,051	-0,058
-417,701	-73,370	-0,112	0,030
-416,686	-32,261	-0,041	0,016
-415,671	126,987	-0,008	0,007
-414,657	690,117	0,042	0,080
-413,642	-33,277	0,087	-0,035
-412,628	800,000	0,009	-0,023
-411,613	-200,000	-0,009	-0,190
-410,598	183,930	0,035	-0,038
-409,584	-28,784	0,067	0,028
-408,569	-200,000	-0,044	0,147
-407,555	-200,000	0,015	0,056
-406,540	-86,673	0,123	-0,027
-405,525	800,000	-0,040	0,094
-404,511	-200,000	-0,021	-0,074
-403,496	-151,028	-0,046	0,002
-402,482	-200,000	0,018	-0,110
-401,467	-200,000	0,011	-0,037
-400,452	800,000	0,037	0,105
-399,438	-200,000	-0,008	0,082
-398,423	623,681	-0,037	-0,068
-397,409	800,000	-0,063	-0,134
-396,394	-200,000	-0,048	-0,190
-395,379	278,532	0,057	-0,075
-394,365	-45,838	0,083	0,030
-393,350	311,008	0,073	0,099
-392,336	170,641	-0,041	0,043
-391,321	-200,000	-0,006	0,045
-390,306	-116,170	-0,161	-0,021
-389,292	310,763	-0,029	0,040
-388,277	6,300	-0,049	0,026
-387,263	-200,000	-0,015	0,073
-386,248	-200,000	-0,022	-0,074
-385,233	-200,000	0,006	0,054
-384,219	23,508	-0,031	0,019
-383,204	232,358	-0,045	-0,054
-382,190	130,152	0,051	0,048
-381,175	84,233	0,006	0,005
-380,160	800,000	-0,041	0,085
-379,146	180,349	-0,085	0,091
-378,131	-200,000	0,041	-0,147
-377,117	-24,525	0,036	-0,015
-376,102	-83,645	0,129	0,030
-375,088	29,161	-0,068	-0,042
-374,073	185,161	-0,080	-0,086
-373,058	800,000	-0,034	0,068
-372,044	-31,560	0,149	-0,060
-371,029	-117,420	0,042	0,005
-370,015	214,048	-0,013	0,014
-369,000	-21,666	0,033	-0,015
-367,985	109,623	-0,059	0,051
-366,971	-91,866	-0,069	0,014
-365,956	-43,855	0,046	-0,017
-364,942	162,293	0,113	0,115
-363,927	-200,000	0,012	0,109
-362,912	-95,565	-0,082	0,016
-361,898	594,086	-0,024	-0,043
-360,883	156,967	-0,062	-0,062
-359,869	800,000	-0,030	0,071
-358,854	-78,361	-0,061	-0,015
-357,839	25,401	0,055	0,033
-356,825	-149,974	0,132	0,007
-355,810	27,913	-0,101	-0,061
-354,796	-91,045	0,037	0,008
-353,781	158,351	-0,036	-0,037
-352,766	-200,000	-0,010	-0,059
-351,752	-200,000	0,000	-0,044
-350,737	-200,000	-0,024	0,098
-349,723	800,000	0,046	-0,113
-348,708	-110,643	-0,178	0,026
-347,693	-200,000	0,021	-0,075
-346,679	22,740	-0,097	0,057
-345,664	-51,067	-0,128	-0,043
-344,650	800,000	0,031	-0,096
-343,635	157,607	0,065	0,065
-342,620	-200,000	0,000	0,025
-341,606	33,495	0,052	-0,033
-340,591	46,522	-0,104	-0,070
-339,577	120,867	-0,033	-0,029
-338,562	204,874	0,070	0,078
-337,548	-120,803	-0,081	-0,010
-336,533	36,735	-0,066	0,042
-335,518	299,106	0,058	-0,078
-334,504	800,000	0,034	0,106
-333,489	41,104	-0,055	-0,036
-332,475	-32,154	-0,133	-0,054
-331,460	236,594	-0,033	0,040
-330,445	87,091	0,010	-0,008
-329,431	-185,602	0,012	0,000
-328,416	-107,563	-0,056	0,009
-327,402	-200,000	0,035	0,166
-326,387	-200,000	-0,013	0,043
-325,372	398,334	0,114	-0,173
-324,358	633,615	-0,026	-0,047
-323,343	-200,000	-0,002	0,030
-322,329	167,771	0,039	-0,040
-321,314	61,399	0,118	0,085
-320,299	-4,038	0,079	0,039
-319,285	-126,093	-0,029	0,003
-318,270	-157,846	-0,123	-0,005
-317,256	109,820	-0,023	0,020
-316,241	-88,211	-0,073	0,016
-315,226	-167,720	0,066	0,002
-314,212	-55,356	0,110	-0,035
-313,197	-200,000	-0,021	0,081
-312,183	-200,000	0,002	-0,063
-311,168	-200,000	-0,013	0,058
-310,153	-200,000	0,027	-0,095
-309,139	250,690	-0,098	-0,120
-308,124	63,598	-0,081	0,059
-307,110	9,580	0,051	-0,028
-306,095	-187,130	0,123	0,001
-305,080	458,205	-0,045	0,073
-304,066	-104,431	0,057	-0,010
-303,051	-97,595	-0,179	-0,033
-302,037	304,570	-0,028	-0,038
-301,022	59,983	-0,054	0,038
-300,008	603,397	-0,047	0,086
-298,993	-200,000	0,034	0,117
-297,978	-132,171	-0,063	0,006
-296,964	-25,299	0,121	-0,052
-295,949	-200,000	0,018	-0,060
-294,935	-200,000	-0,014	-0,143
-293,920	-200,000	0,025	-0,081
-292,905	-172,414	0,087	0,002
-291,891	49,463	0,024	-0,017
-290,876	-91,272	-0,067	0,014
-289,862	184,554	-0,012	0,013
-288,847	800,000	-0,051	-0,109
-287,832	-200,000	0,023	-0,245
-286,818	96,285	0,065	0,054
-285,803	-200,000	0,025	-0,094
-284,789	597,378	-0,046	-0,082
-283,774	-2,785	0,075	0,038
-282,759	-6,733	0,020	0,010
-281,745	25,982	0,019	0,011
-280,730	314,970	-0,058	-0,080
-279,716	-159,464	-0,104	0,004
-278,701	213,737	0,092	0,105
-277,686	-38,201	0,077	-0,029
-276,672	-182,308	-0,183	0,002
-275,657	-134,066	0,164	0,014
-274,643	800,000	-0,026	-0,070
-273,628	-89,725	-0,083	0,017
-272,613	194,704	-0,019	0,021
-271,599	769,676	0,073	0,144
-270,584	-92,666	0,115	-0,023
-269,570	-155,680	0,093	-0,004
-268,555	365,770	-0,081	-0,118
-267,540	66,343	-0,115	-0,084
-266,526	-200,000	0,029	-0,102
-265,511	-61,154	0,021	-0,006
-264,497	7,624	0,116	0,063
-263,482	800,000	0,020	-0,059
-262,467	-200,000	-0,001	0,128
-261,453	-200,000	0,020	0,074
-260,438	-200,000	0,014	-0,068
-259,424	-200,000	-0,011	-0,095
-258,409	800,000	0,016	0,039
-257,395	-74,435	0,086	-0,022
-256,380	-14,890	0,071	-0,033
-255,365	-200,000	0,014	0,113
-254,351	142,139	-0,041	-0,039
-253,336	-93,215	-0,065	0,013
-252,322	108,622	-0,063	-0,055
-251,307	583,455	-0,043	-0,076
-250,292	-0,551	0,048	0,024
-249,278	-200,000	0,001	0,009
-248,263	46,539	-0,060	-0,040
-247,249	199,029	0,086	0,095
-246,234	800,000	0,057	-0,133
-245,219	-79,764	0,085	0,021
-244,205	-171,090	-0,112	-0,003
-243,190	192,942	-0,060	-0,065
-242,176	125,694	0,116	0,106
-241,161	373,122	-0,059	-0,087
-240,146	800,000	-0,006	-0,016
-239,132	529,000	0,051	-0,088
-238,117	-135,963	0,142	0,012
-237,103	-98,813	-0,133	-0,024
-236,088	-200,000	0,029	-0,114
-235,073	24,768	0,032	-0,019
-234,059	-105,777	-0,066	-0,011
-233,044	-200,000	0,011	0,064
-232,030	-200,000	-0,152	0,000
-231,015	800,000	0,038	0,106
-230,000	-172,196	-0,025	0,001
-228,986	722,940	0,022	-0,043
-227,971	-19,039	0,076	0,034
-226,957	-200,000	-0,007	-0,052
-225,942	-200,000	-0,028	0,219
-224,927	-200,000	0,017	0,106
-223,913	-200,000	-0,028	-0,130
-222,898	438,748	-0,033	-0,052
-221,884	61,118	0,093	0,067
-220,869	800,000	-0,005	-0,014
-219,855	144,697	-0,055	0,053
-218,840	348,756	-0,053	0,076
-217,825	-84,462	0,093	-0,021
-216,811	310,621	-0,015	-0,021
-215,796	800,000	-0,020	-0,045
-214,782	280,539	0,050	-0,064
-213,767	-60,789	0,069	0,021
-212,752	197,493	0,037	-0,041
-211,738	-22,829	-0,121	0,052
-210,723	-200,000	-0,008	0,151
-209,709	-106,229	0,026	-0,004
-208,694	-133,725	-0,166	-0,015
-207,679	-0,500	0,054	-0,027
-206,665	-182,292	-0,116	0,002
-205,650	800,000	0,028	0,075
-204,636	159,173	-0,017	-0,017
-203,621	-200,000	0,018	-0,072
-202,606	-200,000	0,017	-0,057
-201,592	-32,352	-0,062	0,025
-200,577	164,714	0,075	-0,077
-199,563	-200,000	-0,002	0,048
-198,548	62,084	-0,047	0,034
-197,533	203,566	0,036	0,040
-196,519	213,129	0,018	0,020
-195,504	-200,000	0,006	0,038
-194,490	36,105	0,127	-0,080
-193,475	229,831	0,044	0,052
-192,460	-15,787	-0,045	-0,020
-191,446	-122,038	0,228	0,027
-190,431	-200,000	-0,017	-0,056
-189,417	800,000	0,044	0,095
-188,402	152,116	-0,029	-0,028
-187,387	800,000	0,075	-0,158
-186,373	53,219	-0,091	-0,062
-185,358	-69,911	-0,180	0,049
-184,344	800,000	0,031	-0,082
-183,329	-13,775	0,100	-0,046
-182,315	636,606	-0,042	-0,076
-181,300	-91,615	-0,099	-0,020
-180,285	245,304	-0,097	-0,118
-179,271	-113,059	-0,145	-0,020
-178,256	57,917	-0,061	0,043
-177,242	140,390	0,073	0,070
-176,227	39,716	0,030	0,019
-175,212	86,099	-0,038	0,030
-174,198	-158,316	0,060	0,002
-173,183	126,035	-0,045	0,041
-172,169	40,535	0,088	-0,057
-171,154	97,831	0,087	-0,072
-170,139	-93,309	0,104	0,021
-169,125	-200,000	-0,011	0,192
-168,110	800,000	0,027	0,069
-167,096	105,364	0,092	0,078
-166,081	37,228	-0,069	-0,044
-165,066	24,676	0,058	-0,034
-164,052	-119,791	0,173	-0,021
-163,037	188,383	0,083	0,090
-162,023	800,000	-0,041	0,090
-161,008	-200,000	0,010	0,067
-159,993	-200,000	-0,009	0,101
-158,979	-62,708	-0,161	-0,048
-157,964	-50,853	-0,032	-0,011
-156,950	800,000	-0,022	0,052
-155,935	17,812	0,031	-0,018
-154,920	-174,531	0,022	0,000
-153,906	-200,000	-0,010	0,066
-152,891	-89,394	-0,076	-0,016
-151,877	-136,076	0,019	0,002
-150,862	150,142	-0,101	0,099
-149,847	-200,000	0,019	0,084
-148,833	486,836	-0,074	0,121
-147,818	5,179	0,110	-0,058
-146,804	800,000	-0,029	-0,059
-145,789	401,381	-0,028	0,042
-144,775	-200,000	-0,002	0,065
-143,760	549,851	0,028	0,049
-142,745	-200,000	-0,021	-0,073
-141,731	-100,153	0,105	0,019
-140,716	800,000	-0,029	-0,079
-139,702	-58,062	0,055	0,017
-138,687	158,578	0,051	0,051
-137,672	124,281	0,068	-0,062
-136,658	800,000	-0,046	-0,094
-135,643	-65,027	-0,101	0,029
-134,629	-73,359	-0,135	-0,035
-133,614	75,699	0,047	0,035
-132,599	66,130	-0,136	0,099
-131,585	512,869	-0,026	0,043
-130,570	-200,000	-0,027	0,174
-129,556	-200,000	-0,005	0,120
-128,541	-200,000	0,021	0,079
-127,526	-200,000	0,036	0,176
-126,512	453,141	-0,026	-0,042
-125,497	800,000	0,007	0,014
-124,483	-103,791	0,049	-0,008
-123,468	-60,157	-0,190	0,058
-122,453	770,191	-0,039	-0,077
-121,439	-187,031	-0,067	0,001
-120,424	-39,844	-0,072	0,027
-119,410	-94,382	0,109	-0,021
