DTS Sentinel unit serial number:	SN410029Multiplexer serial number:	ORYXHardware model number:	OX2-SRSoftware version number:	ORYX F/W v4,00 Oryx Data Collector v3.7.2.0data status	okinstallation	B6 Nyhavnadifferential loss correction	single-endedforward channel	channel 2reverse channel	N/Adate	2023/12/11time	04:45:08forward acquisition time	300,00reverse acquisition time	0,00gamma	499,1914k internal	0,3126k external	0,3126temperature offset calibration	1,0000default loss term (dB/km)	0,3820temperature slope calibration	1,0000multiplexer offset coefficient	1,0000multiplexer slope coefficient	1,0000fibre end	0,00T internal ref (°C)	20,37T ext. ref 1 (°C)	3,17T ext. ref 2 (°C)	3,19length (m)	temperature (°C)	Stokes	anti-Stokes-744,400	-96,415	0,189	-0,037
-743,385	-151,909	-0,232	0,012
-742,371	262,051	0,028	0,037
-741,356	-200,000	0,006	0,101
-740,342	-90,288	0,186	-0,040
-739,327	131,183	-0,214	0,204
-738,312	181,114	0,076	-0,083
-737,298	-96,974	-0,234	0,045
-736,283	-135,110	0,056	-0,005
-735,269	40,709	-0,218	0,146
-734,254	-2,780	-0,026	-0,013
-733,239	2,173	-0,424	-0,227
-732,225	-25,874	0,108	-0,047
-731,210	800,000	-0,083	0,220
-730,196	565,645	-0,033	-0,060
-729,181	-55,744	-0,095	0,031
-728,167	-163,626	0,052	-0,002
-727,152	90,917	0,038	-0,031
-726,137	-64,422	-0,129	0,039
-725,123	147,725	0,004	-0,004
-724,108	800,000	-0,062	-0,152
-723,094	26,703	-0,195	-0,121
-722,079	-8,988	-0,137	0,068
-721,064	-126,720	-0,023	-0,002
-720,050	9,947	0,044	0,025
-719,035	-67,203	0,063	-0,018
-718,021	294,421	-0,035	-0,048
-717,006	-0,478	-0,070	-0,037
-715,991	150,896	-0,064	-0,065
-714,977	-4,679	-0,103	0,052
-713,962	-61,204	-0,052	0,016
-712,948	-200,000	-0,040	0,148
-711,933	621,402	0,066	0,124
-710,918	33,020	-0,131	-0,085
-709,904	800,000	0,047	-0,137
-708,889	-164,887	0,076	-0,002
-707,875	-200,000	0,009	-0,095
-706,860	37,975	-0,112	-0,074
-705,845	-184,720	-0,058	0,001
-704,831	-200,000	0,012	0,149
-703,816	254,318	0,081	0,103
-702,802	-105,254	-0,099	0,017
-701,787	-200,000	-0,023	-0,086
-700,772	272,820	-0,050	-0,066
-699,758	800,000	-0,017	-0,051
-698,743	-17,083	0,096	-0,045
-697,729	-3,493	0,088	0,045
-696,714	-112,032	0,098	-0,014
-695,699	105,381	-0,099	0,087
-694,685	-200,000	0,044	-0,163
-693,670	-200,000	0,014	-0,050
-692,656	-200,000	0,010	0,058
-691,641	-85,547	0,069	-0,016
-690,627	-200,000	0,004	0,030
-689,612	-151,240	0,010	0,001
-688,597	-115,795	-0,030	-0,004
-687,583	-200,000	-0,027	0,182
-686,568	800,000	0,029	-0,082
-685,554	170,437	0,020	-0,022
-684,539	46,709	-0,154	-0,106
-683,524	-200,000	-0,005	0,072
-682,510	9,537	0,129	0,072
-681,495	-25,428	-0,106	-0,046
-680,481	190,228	-0,121	-0,135
-679,466	450,180	-0,038	0,062
-678,451	-200,000	0,001	-0,032
-677,437	800,000	0,041	-0,132
-676,422	236,463	-0,097	0,119
-675,408	-200,000	-0,024	-0,142
-674,393	-3,187	0,046	0,024
-673,378	56,445	-0,108	-0,078
-672,364	-200,000	0,009	-0,097
-671,349	-93,804	0,057	-0,012
-670,335	-200,000	-0,007	0,128
-669,320	55,721	-0,041	0,029
-668,305	685,030	0,027	0,053
-667,291	-200,000	-0,029	-0,128
-666,276	52,454	-0,089	-0,063
-665,262	599,327	-0,073	-0,135
-664,247	470,166	-0,010	-0,017
-663,232	47,280	0,043	-0,030
-662,218	800,000	-0,005	-0,012
-661,203	-6,988	-0,092	0,046
-660,189	237,594	-0,087	0,107
-659,174	-53,766	0,035	0,012
-658,159	781,144	-0,093	-0,190
-657,145	-72,159	-0,063	-0,017
-656,130	290,433	-0,129	-0,174
-655,116	61,368	-0,069	-0,051
-654,101	29,716	0,013	-0,008
-653,086	-43,943	-0,048	-0,018
-652,072	385,374	-0,044	-0,068
-651,057	-29,896	0,045	0,019
-650,043	48,703	-0,073	-0,051
-649,028	53,584	-0,089	-0,063
-648,014	94,503	-0,007	0,006
-646,999	800,000	0,011	-0,027
-645,984	-33,142	0,093	-0,038
-644,970	238,903	0,096	-0,119
-643,955	266,190	-0,032	0,042
-642,941	800,000	-0,038	-0,123
-641,926	-200,000	0,021	-0,134
-640,911	-15,493	0,111	-0,052
-639,897	-87,873	0,012	-0,003
-638,882	178,462	-0,072	-0,078
-637,868	-107,965	-0,108	0,017
-636,853	6,566	0,024	-0,013
-635,838	800,000	-0,020	0,044
-634,824	-200,000	0,018	-0,091
-633,809	-200,000	0,033	0,212
-632,795	-91,123	-0,049	0,010
-631,780	-146,947	0,062	0,004
-630,765	110,130	0,073	0,065
-629,751	136,200	0,088	-0,085
-628,736	511,900	0,072	0,125
-627,722	-200,000	-0,002	0,081
-626,707	-10,250	0,065	0,032
-625,692	101,192	-0,141	0,121
-624,678	207,541	-0,060	0,069
-623,663	173,591	-0,070	0,075
-622,649	100,131	-0,119	-0,103
-621,634	577,405	-0,076	-0,138
-620,619	83,366	-0,081	-0,066
-619,605	800,000	-0,010	0,029
-618,590	22,924	0,102	0,062
-617,576	-114,643	-0,075	-0,010
-616,561	-200,000	-0,005	-0,029
-615,546	308,014	-0,041	-0,056
-614,532	81,588	-0,105	-0,084
-613,517	-200,000	0,012	-0,065
-612,503	3,626	-0,071	-0,038
-611,488	-200,000	0,034	-0,143
-610,474	10,916	-0,052	0,029
-609,459	-200,000	-0,024	-0,143
-608,444	-48,214	-0,063	-0,022
-607,430	-200,000	0,007	-0,084
-606,415	-200,000	0,007	-0,094
-605,401	-152,481	-0,033	0,002
-604,386	-200,000	0,021	0,107
-603,371	-135,751	0,116	0,010
-602,357	-200,000	0,013	-0,086
-601,342	99,846	-0,110	-0,094
-600,328	219,773	-0,019	0,022
-599,313	58,066	-0,113	-0,082
-598,298	142,828	-0,041	-0,040
-597,284	39,455	0,134	-0,089
-596,269	-200,000	-0,018	-0,067
-595,255	-200,000	0,027	-0,144
-594,240	91,539	0,060	0,050
-593,225	20,166	-0,065	0,039
-592,211	154,749	0,062	-0,063
-591,196	64,458	0,107	0,080
-590,182	208,882	-0,055	-0,063
-589,167	-68,870	0,125	0,036
-588,152	800,000	0,020	-0,053
-587,138	-200,000	-0,017	0,078
-586,123	800,000	0,052	-0,159
-585,109	-77,366	-0,022	0,006
-584,094	-123,033	0,070	-0,008
-583,079	0,306	-0,040	-0,021
-582,065	800,000	0,042	-0,091
-581,050	-2,053	-0,030	0,015
-580,036	-108,152	0,049	0,008
-579,021	-23,132	-0,098	0,043
-578,006	-200,000	-0,036	-0,165
-576,992	-34,519	0,071	-0,029
-575,977	198,187	-0,034	0,038
-574,963	8,111	0,090	-0,050
-573,948	145,429	0,002	0,002
-572,934	-200,000	0,036	0,183
-571,919	47,031	0,034	0,023
-570,904	800,000	-0,018	-0,057
-569,890	4,578	-0,195	0,106
-568,875	-200,000	0,029	0,188
-567,861	-200,000	0,036	0,206
-566,846	178,873	0,070	0,076
-565,831	398,587	-0,042	-0,065
-564,817	168,240	0,043	0,045
-563,802	-92,998	-0,142	0,029
-562,788	-200,000	-0,011	-0,135
-561,773	348,038	-0,034	-0,050
-560,758	195,591	0,099	-0,112
-559,744	749,005	0,046	0,091
-558,729	567,422	0,057	-0,103
-557,715	547,616	-0,084	-0,149
-556,700	520,385	-0,072	-0,125
-555,685	-63,646	-0,083	-0,025
-554,671	800,000	0,016	0,038
-553,656	-200,000	-0,013	0,069
-552,642	800,000	-0,027	0,067
-551,627	800,000	0,043	-0,108
-550,612	-103,105	-0,049	-0,008
-549,598	-82,328	-0,117	-0,028
-548,583	15,534	0,088	-0,051
-547,569	-126,850	-0,044	0,005
-546,554	204,239	0,133	0,152
-545,539	-44,205	0,067	0,025
-544,525	449,507	-0,028	-0,046
-543,510	-200,000	-0,040	-0,134
-542,496	85,023	-0,136	-0,110
-541,481	-81,849	0,139	-0,033
-540,466	625,970	-0,033	0,062
-539,452	222,837	0,051	-0,060
-538,437	267,760	0,140	-0,181
-537,423	-46,209	-0,061	-0,022
-536,408	800,000	0,042	0,086
-535,393	800,000	-0,076	-0,187
-534,379	436,614	-0,011	-0,017
-533,364	800,000	-0,069	-0,146
-532,350	-200,000	0,021	0,097
-531,335	-145,505	0,145	-0,009
-530,321	126,268	-0,099	0,092
-529,306	-39,978	-0,100	0,038
-528,291	-200,000	-0,029	-0,133
-527,277	-160,751	-0,195	0,007
-526,262	225,647	-0,011	0,014
-525,248	800,000	0,024	-0,065
-524,233	-200,000	0,016	0,091
-523,218	137,480	0,067	-0,065
-522,204	4,300	-0,150	0,081
-521,189	74,898	-0,003	0,002
-520,175	800,000	-0,060	-0,161
-519,160	-128,510	0,049	0,005
-518,145	800,000	-0,010	0,026
-517,131	-200,000	0,007	0,026
-516,116	253,778	0,039	-0,049
-515,102	-46,773	-0,043	-0,015
-514,087	-9,395	-0,099	-0,049
-513,072	212,199	-0,113	-0,132
-512,058	6,410	-0,111	-0,061
-511,043	-171,669	-0,024	0,001
-510,029	-67,922	-0,119	-0,034
-509,014	-71,596	0,113	-0,031
-507,999	-200,000	-0,034	-0,172
-506,985	31,955	-0,023	-0,015
-505,970	-4,555	-0,106	-0,054
-504,956	348,682	0,011	0,015
-503,941	29,487	0,039	0,024
-502,926	-200,000	0,000	-0,093
-501,912	-200,000	0,015	-0,059
-500,897	68,718	0,029	0,022
-499,883	221,723	-0,046	-0,055
-498,868	-127,173	0,108	-0,012
-497,853	-32,812	0,020	0,008
-496,839	440,042	-0,002	-0,003
-495,824	-163,019	0,161	0,006
-494,810	800,000	0,067	-0,141
-493,795	-18,465	-0,036	-0,017
-492,781	-200,000	0,006	-0,031
-491,766	-200,000	0,003	0,041
-490,751	149,176	0,050	-0,050
-489,737	-200,000	-0,030	0,116
-488,722	20,942	0,093	0,055
-487,708	-200,000	0,013	0,156
-486,693	-43,701	-0,081	0,030
-485,678	-200,000	-0,014	-0,080
-484,664	-5,241	-0,085	-0,043
-483,649	-76,806	0,083	-0,021
-482,635	147,644	-0,049	-0,048
-481,620	127,110	0,129	0,121
-480,605	-200,000	0,042	0,165
-479,591	543,120	-0,005	0,008
-478,576	-68,540	-0,184	-0,052
-477,562	-200,000	0,011	-0,064
-476,547	-49,656	0,035	-0,012
-475,532	-173,497	0,075	0,002
-474,518	800,000	-0,028	0,080
-473,503	145,111	0,007	-0,007
-472,489	800,000	-0,071	0,147
-471,474	-96,423	0,120	0,023
-470,459	-110,396	0,015	0,002
-469,445	-113,468	0,099	0,014
-468,430	-128,387	0,094	-0,010
-467,416	-200,000	-0,007	0,139
-466,401	68,869	0,026	-0,020
-465,386	-65,390	0,048	0,014
-464,372	0,190	0,068	-0,036
-463,357	-23,687	-0,139	-0,061
-462,343	190,361	-0,063	0,070
-461,328	183,941	0,069	0,076
-460,313	-102,357	0,057	-0,010
-459,299	-107,049	0,038	0,006
-458,284	297,669	-0,060	0,081
-457,270	-103,793	-0,104	0,018
-456,255	-9,551	-0,076	-0,037
-455,241	-11,971	-0,145	-0,070
-454,226	-121,796	-0,088	-0,011
-453,211	450,513	-0,027	0,044
-452,197	-100,767	-0,058	-0,010
-451,182	505,203	0,046	0,079
-450,168	305,503	-0,076	-0,104
-449,153	-62,616	0,078	-0,024
-448,138	496,088	-0,069	0,117
-447,124	-200,000	-0,031	0,119
-446,109	27,223	0,106	-0,065
-445,095	-152,722	0,078	0,004
-444,080	363,298	-0,026	0,038
-443,065	152,929	-0,169	0,170
-442,051	-200,000	-0,047	0,280
-441,036	-200,000	0,041	0,142
-440,022	552,390	0,013	0,023
-439,007	82,055	0,061	-0,049
-437,992	552,493	-0,008	0,014
-436,978	171,746	0,049	0,052
-435,963	118,561	0,061	0,056
-434,949	800,000	-0,026	-0,078
-433,934	-152,981	0,032	0,002
-432,919	662,557	-0,019	-0,036
-431,905	-200,000	0,002	0,068
-430,890	-87,684	0,075	0,017
-429,876	420,290	0,076	0,120
-428,861	560,255	0,042	0,075
-427,846	113,379	0,043	0,039
-426,832	-200,000	0,006	0,022
-425,817	77,885	-0,090	0,071
-424,803	-129,043	0,064	-0,006
-423,788	-200,000	0,013	0,091
-422,773	39,872	0,099	0,065
-421,759	-200,000	0,011	-0,051
-420,744	64,831	-0,073	-0,054
-419,730	-74,561	-0,089	0,023
-418,715	783,080	-0,020	-0,040
-417,701	303,967	-0,090	-0,123
-416,686	5,121	-0,089	-0,048
-415,671	800,000	-0,037	-0,099
-414,657	-200,000	0,006	0,122
-413,642	353,542	-0,058	0,084
-412,628	110,312	-0,076	-0,067
-411,613	-200,000	-0,002	-0,043
-410,598	800,000	0,041	0,089
-409,584	633,689	-0,020	-0,037
-408,569	36,563	0,116	-0,075
-407,555	-17,098	0,038	-0,018
-406,540	170,063	0,017	-0,018
-405,525	-160,205	-0,107	-0,004
-404,511	308,941	-0,078	-0,108
-403,496	-96,884	0,046	-0,009
-402,482	96,460	0,063	0,053
-401,467	16,076	-0,096	0,056
-400,452	800,000	-0,029	0,064
-399,438	-184,895	0,126	0,001
-398,423	-30,621	-0,135	0,056
-397,409	340,476	0,036	0,052
-396,394	800,000	-0,056	-0,148
-395,379	-139,603	0,088	-0,007
-394,365	800,000	-0,018	0,051
-393,350	-80,132	0,049	-0,012
-392,336	16,388	0,029	-0,017
-391,321	-29,443	0,047	0,020
-390,306	465,081	-0,037	0,061
-389,292	131,836	-0,026	0,025
-388,277	800,000	-0,038	-0,117
-387,263	800,000	-0,049	0,123
-386,248	-6,608	0,065	-0,032
-385,233	280,737	-0,076	0,100
-384,219	68,103	-0,027	0,020
-383,204	-153,015	0,135	-0,007
-382,190	45,952	-0,118	-0,080
-381,175	-13,113	0,134	-0,064
-380,160	800,000	-0,037	0,093
-379,146	45,559	-0,080	0,054
-378,131	83,684	0,045	-0,036
-377,117	-200,000	-0,029	-0,097
-376,102	-116,496	0,139	0,019
-375,088	-200,000	-0,007	0,229
-374,073	-200,000	-0,041	-0,139
-373,058	-200,000	0,041	0,147
-372,044	230,369	-0,055	0,066
-371,029	235,685	0,073	0,089
-370,015	-123,538	-0,021	-0,002
-369,000	36,625	-0,116	0,075
-367,985	602,005	-0,071	-0,130
-366,971	-81,788	-0,061	-0,014
-365,956	122,342	0,150	0,138
-364,942	82,986	-0,004	-0,003
-363,927	450,738	-0,019	0,031
-362,912	-200,000	0,010	0,106
-361,898	114,915	-0,074	-0,067
-360,883	-131,708	0,035	-0,003
-359,869	-76,199	0,089	-0,023
-358,854	318,222	-0,010	0,013
-357,839	399,454	-0,055	0,084
-356,825	-200,000	0,023	0,128
-355,810	58,205	-0,114	0,082
-354,796	-200,000	0,019	-0,128
-353,781	466,097	0,030	-0,049
-352,766	-200,000	0,015	0,073
-351,752	-200,000	-0,025	-0,155
-350,737	39,966	0,149	0,098
-349,723	-200,000	-0,008	0,057
-348,708	134,757	-0,137	-0,131
-347,693	44,532	0,048	0,033
-346,679	800,000	0,022	-0,046
-345,664	-200,000	0,009	-0,076
-344,650	-71,551	0,040	-0,011
-343,635	-98,411	0,109	0,020
-342,620	88,292	-0,026	0,021
-341,606	0,244	-0,057	-0,030
-340,591	283,372	-0,049	0,064
-339,577	136,933	0,056	0,053
-338,562	-200,000	0,009	0,044
-337,548	40,726	-0,047	0,031
-336,533	368,391	0,047	-0,070
-335,518	12,272	0,049	0,027
-334,504	225,841	0,091	0,108
-333,489	-200,000	-0,026	0,088
-332,475	-200,000	-0,003	-0,112
-331,460	-200,000	0,022	-0,104
-330,445	-64,082	-0,069	-0,020
-329,431	800,000	0,016	0,048
-328,416	800,000	-0,034	0,099
-327,402	82,224	0,092	-0,073
-326,387	-72,077	-0,106	-0,029
-325,372	800,000	-0,041	-0,122
-324,358	-103,974	-0,099	-0,017
-323,343	800,000	-0,037	0,114
-322,329	-50,973	-0,118	0,040
-321,314	49,571	0,159	-0,110
-320,299	81,039	0,081	0,064
-319,285	800,000	0,027	0,085
-318,270	127,657	-0,067	-0,062
-317,256	-200,000	0,024	0,156
-316,241	-200,000	0,008	-0,056
-315,226	-129,082	0,123	-0,012
-314,212	800,000	-0,011	0,024
-313,197	-83,780	0,095	-0,022
-312,183	800,000	-0,019	-0,052
-311,168	144,149	-0,053	0,052
-310,153	-155,465	0,026	0,001
-309,139	23,609	-0,128	0,077
-308,124	61,394	0,083	-0,060
-307,110	63,058	0,109	0,080
-306,095	-200,000	-0,008	-0,046
-305,080	-114,821	-0,117	0,016
-304,066	-87,979	-0,089	0,019
-303,051	753,795	0,023	-0,045
-302,037	14,627	-0,029	0,017
-301,022	66,306	-0,066	0,049
-300,008	3,173	0,129	0,068
-298,993	-168,396	0,099	0,003
-297,978	800,000	-0,016	-0,035
-296,964	-39,559	-0,113	0,043
-295,949	219,940	-0,086	0,101
-294,935	-94,071	-0,211	0,042
-293,920	-141,433	0,042	-0,003
-292,905	-138,640	0,154	-0,012
-291,891	44,074	0,039	-0,026
-290,876	-64,129	-0,149	0,044
-289,862	-152,890	0,099	-0,005
-288,847	800,000	-0,052	-0,120
-287,832	458,584	0,061	-0,099
-286,818	-83,427	-0,110	-0,025
-285,803	-76,931	0,135	-0,034
-284,789	598,927	-0,055	0,101
-283,774	-200,000	-0,023	-0,099
-282,759	-200,000	0,002	0,009
-281,745	254,970	0,032	0,040
-280,730	162,788	0,084	0,087
-279,716	247,482	0,025	0,031
-278,701	546,497	0,082	-0,143
-277,686	629,820	0,035	0,066
-276,672	4,186	-0,071	-0,038
-275,657	-43,566	-0,052	-0,019
-274,643	291,917	-0,045	0,060
-273,628	-200,000	-0,003	0,066
-272,613	800,000	0,010	-0,033
-271,599	161,466	-0,077	0,079
-270,584	-180,323	0,030	0,000
-269,570	216,940	-0,099	-0,115
-268,555	-200,000	0,001	-0,021
-267,540	68,331	0,079	-0,059
-266,526	-60,542	-0,173	-0,053
-265,511	627,850	0,012	0,023
-264,497	170,564	0,107	-0,112
-263,482	-200,000	-0,010	0,089
-262,467	180,662	0,059	0,063
-261,453	108,235	-0,049	0,043
-260,438	-200,000	-0,045	-0,161
-259,424	273,246	-0,109	-0,141
-258,409	-97,672	-0,185	0,035
-257,395	-30,321	0,111	0,046
-256,380	-185,978	0,156	0,002
-255,365	-30,998	0,091	0,037
-254,351	27,190	0,114	0,070
-253,336	767,595	0,021	0,043
-252,322	598,307	-0,012	-0,022
-251,307	409,489	0,049	-0,075
-250,292	-71,422	-0,063	-0,017
-249,278	4,679	0,068	-0,036
-248,263	705,590	-0,084	0,163
-247,249	89,341	-0,017	-0,014
-246,234	67,133	0,071	0,052
-245,219	800,000	0,030	-0,091
-244,205	-200,000	-0,014	-0,053
-243,190	102,511	0,022	0,019
-242,176	-19,522	0,041	-0,019
-241,161	800,000	-0,031	0,075
-240,146	800,000	-0,015	0,040
-239,132	800,000	-0,012	0,035
-238,117	19,990	0,072	-0,043
-237,103	-21,303	0,087	-0,039
-236,088	-200,000	-0,025	-0,140
-235,073	-162,738	-0,029	0,001
-234,059	-200,000	-0,005	-0,073
-233,044	-94,201	-0,090	0,018
-232,030	127,113	0,061	0,056
-231,015	583,781	-0,013	-0,024
-230,000	800,000	0,042	-0,099
-228,986	-137,749	-0,087	0,007
-227,971	-78,022	0,122	0,030
-226,957	0,772	0,036	-0,019
-225,942	644,875	-0,045	0,085
-224,927	83,994	0,091	0,073
-223,913	-200,000	0,005	0,042
-222,898	115,944	-0,081	-0,072
-221,884	-200,000	0,007	-0,069
-220,869	-200,000	-0,007	0,109
-219,855	800,000	-0,031	0,078
-218,840	-200,000	0,009	0,098
-217,825	-200,000	-0,006	0,030
-216,811	36,709	0,049	-0,031
-215,796	-166,774	-0,099	0,003
-214,782	-200,000	-0,011	0,097
-213,767	800,000	-0,028	-0,081
-212,752	-106,693	0,062	-0,010
-211,738	-200,000	0,003	-0,061
-210,723	39,706	-0,019	0,012
-209,709	91,992	-0,083	0,068
-208,694	62,404	-0,075	-0,054
-207,679	74,529	0,019	0,015
-206,665	-91,893	0,092	-0,019
-205,650	800,000	0,035	0,074
-204,636	226,014	-0,036	-0,043
-203,621	44,383	0,107	0,072
-202,606	180,963	-0,011	-0,012
-201,592	-200,000	-0,018	0,108
-200,577	-168,986	0,084	-0,002
-199,563	26,166	0,068	-0,042
-198,548	-200,000	-0,018	0,154
-197,533	-107,993	0,131	0,021
-196,519	-111,466	0,080	0,012
-195,504	131,602	-0,077	-0,072
-194,490	-52,467	0,107	0,036
-193,475	-200,000	-0,016	-0,090
-192,460	-66,252	-0,105	-0,030
-191,446	-200,000	0,003	0,044
-190,431	-200,000	-0,001	0,115
-189,417	-13,118	-0,038	0,018
-188,402	-192,482	0,054	0,000
-187,387	-200,000	0,005	-0,038
-186,373	-200,000	0,017	-0,143
-185,358	-141,404	-0,148	-0,011
-184,344	800,000	0,039	0,112
-183,329	-13,742	0,161	-0,076
-182,315	-73,659	0,140	-0,037
-181,300	800,000	-0,029	0,068
-180,285	137,219	0,119	-0,113
-179,271	465,685	-0,036	-0,058
-178,256	-176,345	0,066	0,001
-177,242	-82,493	0,136	0,032
-176,227	612,713	0,012	-0,021
-175,212	-200,000	0,029	-0,130
-174,198	-156,461	-0,147	-0,007
-173,183	-200,000	-0,033	-0,131
-172,169	114,228	0,075	-0,066
-171,154	249,448	-0,026	0,033
-170,139	-122,290	0,184	-0,022
-169,125	-200,000	0,024	0,107
-168,110	226,938	0,096	0,113
-167,096	326,945	0,034	0,048
-166,081	-125,522	-0,126	0,014
-165,066	261,402	0,064	-0,081
-164,052	67,978	0,069	-0,052
-163,037	-41,083	0,134	0,050
-162,023	800,000	0,022	0,063
-161,008	-30,519	-0,172	0,071
-159,993	-200,000	0,028	0,153
-158,979	151,974	-0,065	0,065
-157,964	-192,933	-0,097	-0,001
-156,950	-200,000	0,000	-0,148
-155,935	-59,441	0,140	0,044
-154,920	-42,104	-0,074	0,027
-153,906	44,166	-0,134	0,089
-152,891	-200,000	0,024	0,095
-151,877	800,000	-0,027	-0,058
-150,862	-178,899	0,055	0,001
-149,847	41,816	-0,109	-0,072
-148,833	-200,000	0,013	-0,078
-147,818	203,726	0,055	0,062
-146,804	94,522	0,097	0,080
-145,789	-144,983	-0,102	-0,007
-144,775	-0,782	-0,096	-0,049
-143,760	-99,176	-0,023	-0,004
-142,745	800,000	-0,027	-0,066
-141,731	-200,000	0,003	-0,025
-140,716	-41,150	0,069	0,026
-139,702	279,320	0,041	0,054
-138,687	18,581	-0,092	0,054
-137,672	2,377	-0,117	0,061
-136,658	-200,000	0,017	-0,055
-135,643	92,479	0,030	-0,025
-134,629	776,787	0,033	0,066
-133,614	-200,000	0,019	0,083
-132,599	-35,060	-0,088	0,035
-131,585	800,000	0,058	0,144
-130,570	249,257	-0,056	-0,069
-129,556	158,703	0,019	0,019
-128,541	-131,564	-0,166	-0,016
-127,526	51,779	0,123	0,085
-126,512	-200,000	0,031	-0,110
-125,497	800,000	0,014	0,044
-124,483	-200,000	0,019	-0,145
-123,468	0,087	0,132	-0,068
-122,453	689,438	0,041	-0,078
-121,439	369,709	-0,077	-0,114
-120,424	-200,000	-0,024	0,138
-119,410	-200,000	-0,010	0,084
-118,395	-119,516	0,054	-0,007
