DTS Sentinel unit serial number:	SN410029Multiplexer serial number:	ORYXHardware model number:	OX2-SRSoftware version number:	ORYX F/W v4,00 Oryx Data Collector v3.7.2.0data status	okinstallation	B6 Nyhavnadifferential loss correction	single-endedforward channel	channel 2reverse channel	N/Adate	2023/12/09time	19:00:08forward acquisition time	300,00reverse acquisition time	0,00gamma	499,1914k internal	0,3130k external	0,3130temperature offset calibration	1,0000default loss term (dB/km)	0,3820temperature slope calibration	1,0000multiplexer offset coefficient	1,0000multiplexer slope coefficient	1,0000fibre end	0,00T internal ref (°C)	21,06T ext. ref 1 (°C)	4,79T ext. ref 2 (°C)	4,79length (m)	temperature (°C)	Stokes	anti-Stokes-744,400	88,594	-0,056	0,046
-743,385	56,748	-0,226	0,163
-742,371	-139,980	0,127	0,010
-741,356	-95,870	-0,196	0,038
-740,342	-14,827	0,152	-0,072
-739,327	26,409	-0,368	0,229
-738,312	781,811	-0,071	-0,146
-737,298	-79,091	-0,298	0,075
-736,283	-155,512	0,039	0,002
-735,269	88,669	-0,295	0,244
-734,254	-88,951	0,170	-0,037
-733,239	6,789	-0,362	-0,200
-732,225	-22,150	-0,041	-0,018
-731,210	8,403	-0,046	0,026
-730,196	-17,722	-0,026	-0,012
-729,181	-200,000	-0,007	0,087
-728,167	800,000	-0,037	-0,091
-727,152	50,243	0,047	0,033
-726,137	-161,362	-0,183	-0,007
-725,123	-16,577	-0,040	-0,019
-724,108	-200,000	0,012	-0,137
-723,094	-77,269	-0,100	-0,026
-722,079	12,484	-0,072	-0,041
-721,064	-200,000	-0,009	-0,045
-720,050	-5,552	-0,073	-0,037
-719,035	-44,174	-0,130	-0,048
-718,021	-88,713	-0,048	0,011
-717,006	-69,625	-0,055	-0,015
-715,991	161,795	-0,102	-0,107
-714,977	143,514	-0,044	-0,044
-713,962	-90,739	-0,101	0,021
-712,948	17,147	-0,046	0,027
-711,933	86,588	-0,076	-0,062
-710,918	80,569	-0,025	0,020
-709,904	135,360	-0,116	-0,112
-708,889	-64,268	-0,105	0,032
-707,875	670,284	-0,057	-0,110
-706,860	-200,000	-0,029	-0,126
-705,845	-147,864	-0,094	-0,006
-704,831	-200,000	0,013	-0,116
-703,816	-24,497	-0,082	0,036
-702,802	432,650	-0,072	0,116
-701,787	175,789	-0,120	-0,129
-700,772	187,767	0,023	-0,026
-699,758	71,429	-0,066	0,051
-698,743	-44,017	-0,065	0,024
-697,729	-200,000	-0,003	0,066
-696,714	203,108	-0,070	0,081
-695,699	257,661	0,007	0,009
-694,685	64,620	-0,066	-0,049
-693,670	146,914	-0,090	-0,090
-692,656	-80,904	-0,031	-0,008
-691,641	-8,727	0,026	0,013
-690,627	137,857	-0,035	0,034
-689,612	22,658	-0,111	-0,067
-688,597	800,000	0,001	0,002
-687,583	126,926	-0,051	-0,048
-686,568	-200,000	0,027	-0,138
-685,554	46,707	-0,043	0,029
-684,539	-40,852	0,098	0,037
-683,524	-200,000	0,014	0,139
-682,510	-200,000	0,006	-0,084
-681,495	-73,728	-0,132	-0,036
-680,481	800,000	0,015	-0,048
-679,466	-200,000	0,053	-0,202
-678,451	800,000	0,018	-0,060
-677,437	339,628	-0,030	0,044
-676,422	-184,792	0,058	0,001
-675,408	265,836	0,050	-0,065
-674,393	-94,792	0,168	-0,034
-673,378	325,276	-0,019	-0,028
-672,364	-49,717	-0,066	-0,023
-671,349	-200,000	-0,009	-0,134
-670,335	-99,283	-0,147	-0,027
-669,320	-88,595	-0,163	0,036
-668,305	94,877	-0,059	0,049
-667,291	-28,705	-0,101	-0,043
-666,276	225,650	0,045	-0,054
-665,262	735,605	-0,080	-0,160
-664,247	520,996	-0,107	-0,187
-663,232	-123,096	0,076	-0,009
-662,218	46,230	-0,076	0,052
-661,203	236,411	-0,044	-0,054
-660,189	103,627	-0,103	-0,090
-659,174	255,074	-0,075	-0,096
-658,159	-113,471	-0,179	0,026
-657,145	12,354	0,038	0,022
-656,130	649,738	0,052	0,100
-655,116	-200,000	-0,004	0,142
-654,101	111,862	0,069	-0,062
-653,086	161,197	-0,088	-0,091
-652,072	234,968	-0,040	-0,049
-651,057	-200,000	0,007	-0,138
-650,043	-200,000	-0,023	-0,109
-649,028	800,000	-0,005	-0,011
-648,014	-200,000	0,001	0,033
-646,999	87,936	0,013	0,010
-645,984	298,208	-0,027	-0,037
-644,970	-200,000	0,004	0,085
-643,955	-200,000	-0,013	-0,070
-642,941	14,277	0,113	0,065
-641,926	-197,602	0,070	-0,000
-640,911	-19,319	0,144	0,066
-639,897	132,422	0,070	0,066
-638,882	-76,318	0,143	-0,037
-637,868	-90,392	-0,125	-0,027
-636,853	800,000	-0,045	-0,110
-635,838	-100,759	-0,031	0,006
-634,824	245,654	-0,045	-0,057
-633,809	18,898	0,144	0,085
-632,795	308,924	-0,017	0,023
-631,780	-66,910	-0,075	0,022
-630,765	-157,234	-0,155	0,007
-629,751	170,390	-0,032	-0,034
-628,736	68,400	0,008	0,006
-627,722	-200,000	-0,006	-0,106
-626,707	20,100	-0,111	-0,066
-625,692	111,633	-0,067	0,060
-624,678	96,674	-0,096	0,082
-623,663	800,000	-0,048	0,116
-622,649	-200,000	-0,037	-0,147
-621,634	-200,000	-0,002	-0,106
-620,619	87,990	-0,110	-0,090
-619,605	306,400	0,093	-0,129
-618,590	-200,000	-0,013	-0,052
-617,576	377,590	0,046	-0,069
-616,561	800,000	0,012	-0,034
-615,546	127,477	0,061	-0,058
-614,532	-200,000	-0,003	-0,257
-613,517	15,393	0,050	-0,029
-612,503	-68,651	-0,008	-0,002
-611,488	-67,841	-0,103	0,029
-610,474	-115,737	0,144	0,020
-609,459	-176,235	0,113	-0,002
-608,444	-200,000	0,002	-0,050
-607,430	15,244	-0,071	-0,041
-606,415	-56,909	-0,082	0,027
-605,401	46,521	0,055	-0,038
-604,386	-12,379	0,083	-0,040
-603,371	-200,000	0,012	-0,053
-602,357	-200,000	-0,009	-0,078
-601,342	187,863	0,021	-0,024
-600,328	137,416	-0,108	-0,105
-599,313	488,811	0,082	-0,139
-598,298	129,426	0,057	-0,054
-597,284	44,010	0,056	0,038
-596,269	278,452	0,066	0,088
-595,255	-32,428	0,075	-0,031
-594,240	778,962	-0,045	-0,091
-593,225	-30,151	0,041	-0,017
-592,211	-29,724	0,060	0,025
-591,196	-37,935	-0,097	-0,038
-590,182	-200,000	0,001	-0,020
-589,167	-121,811	0,086	-0,010
-588,152	-57,796	-0,053	0,017
-587,138	14,861	0,061	0,035
-586,123	65,431	-0,041	-0,030
-585,109	248,497	-0,066	-0,082
-584,094	325,829	0,007	0,010
-583,079	-22,405	-0,110	-0,049
-582,065	371,065	-0,036	0,055
-581,050	190,538	-0,059	0,066
-580,036	-71,053	0,065	-0,018
-579,021	-41,005	0,082	-0,031
-578,006	137,254	-0,039	-0,038
-576,992	-200,000	0,029	-0,097
-575,977	227,559	0,012	0,015
-574,963	-200,000	0,040	0,161
-573,948	-200,000	-0,003	0,018
-572,934	-85,841	0,042	-0,009
-571,919	80,904	0,095	0,076
-570,904	237,796	-0,075	-0,092
-569,890	747,494	-0,048	-0,096
-568,875	-3,204	0,103	0,053
-567,861	239,234	-0,013	-0,016
-566,846	-93,812	0,097	-0,020
-565,831	-146,743	-0,036	0,002
-564,817	79,870	0,016	0,013
-563,802	800,000	-0,004	-0,010
-562,788	31,884	-0,083	-0,053
-561,773	55,361	0,135	-0,096
-560,758	379,549	0,106	0,160
-559,744	-200,000	-0,035	0,117
-558,729	93,413	0,092	0,077
-557,715	326,975	-0,060	-0,085
-556,700	-200,000	0,003	0,041
-555,685	68,269	-0,028	-0,021
-554,671	-200,000	0,032	0,142
-553,656	-127,859	-0,019	-0,002
-552,642	87,269	-0,076	-0,062
-551,627	302,872	-0,009	0,013
-550,612	800,000	-0,025	0,071
-549,598	566,133	0,067	-0,120
-548,583	261,425	0,074	-0,095
-547,569	-200,000	-0,026	-0,086
-546,554	-200,000	0,049	0,172
-545,539	55,112	-0,036	0,026
-544,525	-200,000	0,042	0,182
-543,510	134,888	-0,122	0,117
-542,496	-12,175	0,147	-0,071
-541,481	800,000	-0,027	-0,075
-540,466	-64,137	-0,094	-0,028
-539,452	-200,000	-0,002	0,054
-538,437	-7,684	-0,092	-0,046
-537,423	800,000	-0,041	0,084
-536,408	-16,735	-0,041	0,019
-535,393	34,632	-0,085	-0,055
-534,379	800,000	0,061	-0,136
-533,364	107,949	-0,046	-0,041
-532,350	-200,000	0,004	-0,016
-531,335	579,780	0,067	0,121
-530,321	800,000	0,037	0,095
-529,306	-144,640	-0,121	0,008
-528,291	194,756	0,102	-0,114
-527,277	636,627	-0,085	-0,161
-526,262	311,720	0,048	0,067
-525,248	106,047	0,073	-0,064
-524,233	-142,065	0,094	0,007
-523,218	-200,000	-0,003	0,012
-522,204	-63,834	-0,043	0,013
-521,189	744,954	-0,087	-0,173
-520,175	169,351	-0,063	0,066
-519,160	-94,331	-0,135	0,027
-518,145	758,269	-0,072	0,144
-517,131	-70,725	0,103	-0,028
-516,116	-200,000	-0,001	-0,019
-515,102	204,202	-0,070	0,080
-514,087	-60,334	-0,096	0,030
-513,072	-10,435	-0,031	0,015
-512,058	2,083	0,056	-0,030
-511,043	73,667	0,076	0,058
-510,029	800,000	-0,009	0,026
-509,014	-67,689	-0,077	-0,022
-507,999	-130,541	0,064	0,006
-506,985	-76,979	-0,158	-0,040
-505,970	-56,098	0,114	-0,037
-504,956	140,858	-0,046	-0,045
-503,941	653,646	0,045	-0,085
-502,926	14,198	0,079	-0,045
-501,912	-32,722	0,092	0,037
-500,897	-37,070	0,139	-0,055
-499,883	167,800	-0,069	-0,072
-498,868	211,444	-0,123	-0,143
-497,853	-200,000	-0,004	-0,022
-496,839	-100,422	-0,024	0,004
-495,824	258,110	-0,057	-0,073
-494,810	800,000	0,047	0,132
-493,795	-174,980	-0,031	-0,001
-492,781	-200,000	0,046	-0,178
-491,766	-200,000	0,017	-0,167
-490,751	800,000	-0,056	-0,136
-489,737	96,842	0,098	0,083
-488,722	529,987	0,111	0,194
-487,708	800,000	-0,028	-0,060
-486,693	26,834	0,060	-0,037
-485,678	-1,195	-0,076	0,040
-484,664	97,946	-0,077	-0,065
-483,649	-72,129	0,031	0,008
-482,635	647,136	0,014	0,026
-481,620	154,604	0,047	0,047
-480,605	52,633	0,111	0,078
-479,591	-200,000	0,003	0,154
-478,576	-19,037	0,047	0,022
-477,562	-15,718	-0,118	-0,055
-476,547	34,298	0,072	-0,046
-475,532	187,072	-0,038	-0,042
-474,518	577,577	0,091	0,164
-473,503	800,000	0,041	0,088
-472,489	-200,000	0,046	0,179
-471,474	800,000	0,055	0,131
-470,459	-100,934	-0,212	0,038
-469,445	-11,818	0,164	0,079
-468,430	-200,000	0,019	-0,152
-467,416	607,362	-0,041	0,076
-466,401	409,195	0,066	0,103
-465,386	4,941	-0,113	0,061
-464,372	800,000	0,062	0,183
-463,357	-80,877	-0,071	-0,017
-462,343	-169,995	0,063	0,002
-461,328	-133,137	-0,138	0,013
-460,313	581,460	0,057	0,103
-459,299	-200,000	-0,005	0,040
-458,284	800,000	-0,044	-0,113
-457,270	604,904	-0,042	0,078
-456,255	365,043	0,040	0,060
-455,241	58,026	0,059	-0,043
-454,226	-200,000	-0,018	-0,117
-453,211	195,629	0,070	-0,079
-452,197	558,576	-0,068	0,120
-451,182	290,525	0,028	0,037
-450,168	79,378	0,079	0,063
-449,153	-82,313	-0,122	0,029
-448,138	66,956	0,093	-0,070
-447,124	800,000	-0,019	-0,045
-446,109	53,652	-0,092	-0,065
-445,095	204,523	0,033	0,038
-444,080	-200,000	0,034	0,137
-443,065	800,000	0,073	0,151
-442,051	271,621	0,021	0,028
-441,036	800,000	-0,050	-0,133
-440,022	-65,940	-0,087	0,025
-439,007	-21,352	0,129	-0,058
-437,992	-97,272	-0,065	-0,012
-436,978	-135,947	0,071	0,006
-435,963	-105,782	0,037	-0,006
-434,949	-98,159	-0,090	-0,017
-433,934	56,902	-0,071	0,051
-432,919	-12,342	-0,033	-0,016
-431,905	-200,000	-0,022	-0,077
-430,890	8,799	0,028	0,016
-429,876	-54,647	0,040	-0,013
-428,861	-200,000	0,020	0,066
-427,846	17,124	0,084	-0,049
-426,832	291,116	-0,035	-0,046
-425,817	800,000	-0,053	-0,123
-424,803	800,000	-0,047	-0,147
-423,788	418,707	-0,031	0,048
-422,773	76,830	0,102	-0,080
-421,759	274,826	0,027	-0,035
-420,744	115,146	0,011	-0,009
-419,730	800,000	-0,047	-0,118
-418,715	-200,000	-0,009	-0,062
-417,701	-200,000	0,016	0,072
-416,686	-6,062	-0,075	0,038
-415,671	-70,084	0,065	-0,018
-414,657	-77,211	0,097	-0,025
-413,642	-200,000	0,026	-0,086
-412,628	-20,186	-0,075	0,034
-411,613	800,000	-0,018	-0,060
-410,598	-200,000	0,024	-0,116
-409,584	800,000	0,040	-0,124
-408,569	800,000	-0,030	0,076
-407,555	389,000	0,065	0,099
-406,540	-60,610	0,070	-0,022
-405,525	51,494	-0,128	-0,089
-404,511	292,054	-0,157	-0,210
-403,496	27,781	-0,139	-0,086
-402,482	800,000	0,008	0,016
-401,467	232,380	0,089	-0,107
-400,452	29,905	0,194	-0,121
-399,438	625,939	-0,032	-0,059
-398,423	179,105	0,029	-0,031
-397,409	211,169	0,146	-0,169
-396,394	263,611	-0,031	-0,040
-395,379	381,937	-0,070	0,105
-394,365	-16,023	0,055	0,025
-393,350	-175,953	-0,199	0,004
-392,336	-96,586	0,034	0,007
-391,321	-200,000	0,012	0,047
-390,306	18,582	-0,063	0,037
-389,292	147,769	0,062	-0,062
-388,277	-122,374	0,079	0,009
-387,263	-200,000	0,028	0,097
-386,248	-89,943	-0,028	0,006
-385,233	-200,000	-0,003	-0,033
-384,219	631,841	0,025	-0,047
-383,204	-172,181	0,099	0,002
-382,190	70,262	-0,074	0,056
-381,175	-200,000	-0,006	-0,130
-380,160	-142,862	0,031	0,002
-379,146	-118,795	0,042	0,005
-378,131	453,572	-0,020	-0,033
-377,117	35,327	-0,057	-0,036
-376,102	-124,849	-0,180	-0,020
-375,088	213,928	0,105	0,122
-374,073	106,737	-0,063	-0,055
-373,058	635,881	0,029	-0,054
-372,044	37,583	0,104	0,068
-371,029	251,508	0,146	0,183
-370,015	800,000	-0,043	0,095
-369,000	800,000	0,023	0,070
-367,985	-200,000	-0,026	-0,280
-366,971	345,201	0,033	0,048
-365,956	-85,715	-0,042	-0,009
-364,942	622,897	0,066	0,122
-363,927	-200,000	0,036	0,154
-362,912	-56,477	-0,078	-0,025
-361,898	-88,914	0,064	0,014
-360,883	-8,126	-0,078	0,038
-359,869	489,364	0,044	0,074
-358,854	-63,059	-0,039	-0,012
-357,839	202,531	0,038	0,043
-356,825	800,000	0,010	0,023
-355,810	-200,000	-0,013	0,085
-354,796	-13,134	-0,153	-0,073
-353,781	-200,000	-0,015	0,111
-352,766	-200,000	0,037	0,132
-351,752	-200,000	0,025	-0,088
-350,737	-106,750	-0,064	0,010
-349,723	800,000	0,014	0,043
-348,708	-200,000	0,003	0,056
-347,693	-200,000	-0,026	0,167
-346,679	-200,000	0,040	-0,138
-345,664	139,750	-0,096	-0,093
-344,650	-200,000	-0,019	0,159
-343,635	280,469	0,026	-0,034
-342,620	-200,000	0,047	0,199
-341,606	50,010	0,127	-0,088
-340,591	-118,475	0,067	0,009
-339,577	27,630	-0,163	-0,100
-338,562	-131,511	-0,152	0,014
-337,548	65,366	0,035	0,026
-336,533	323,451	-0,024	-0,034
-335,518	420,164	-0,044	-0,069
-334,504	-200,000	0,007	-0,059
-333,489	-98,206	-0,082	0,015
-332,475	93,143	-0,193	0,159
-331,460	155,553	0,099	-0,100
-330,445	-200,000	0,043	-0,188
-329,431	59,840	-0,074	0,053
-328,416	210,176	-0,038	0,044
-327,402	555,484	0,068	0,120
-326,387	-200,000	-0,117	0,000
-325,372	-73,030	-0,223	-0,059
-324,358	-200,000	0,029	0,137
-323,343	111,212	0,083	-0,073
-322,329	-200,000	0,006	0,129
-321,314	41,653	0,088	0,058
-320,299	117,128	0,066	-0,060
-319,285	-76,681	-0,021	0,005
-318,270	800,000	-0,011	0,025
-317,256	169,904	-0,053	-0,055
-316,241	312,605	0,019	0,026
-315,226	-200,000	0,007	0,038
-314,212	-200,000	0,036	0,169
-313,197	372,647	0,062	0,092
-312,183	-200,000	0,003	-0,010
-311,168	-200,000	0,007	-0,185
-310,153	15,273	-0,127	-0,073
-309,139	305,175	0,076	-0,104
-308,124	291,674	0,055	0,073
-307,110	51,562	0,042	-0,029
-306,095	-200,000	-0,013	0,158
-305,080	304,046	-0,013	-0,018
-304,066	388,818	0,061	0,093
-303,051	800,000	0,045	-0,096
-302,037	156,528	0,044	0,044
-301,022	517,251	-0,084	0,144
-300,008	-92,234	-0,134	-0,027
-298,993	278,943	-0,026	0,035
-297,978	-109,504	0,121	0,018
-296,964	390,550	-0,082	0,125
-295,949	-68,070	-0,061	0,017
-294,935	-200,000	-0,014	-0,113
-293,920	-101,721	0,081	0,014
-292,905	800,000	-0,038	0,104
-291,891	6,064	0,114	0,062
-290,876	0,317	-0,037	-0,019
-289,862	263,072	-0,027	0,034
-288,847	800,000	0,065	-0,158
-287,832	-9,057	-0,075	0,037
-286,818	-174,155	-0,073	0,002
-285,803	187,160	0,067	0,073
-284,789	88,603	0,046	0,038
-283,774	800,000	0,032	0,085
-282,759	70,299	0,121	0,091
-281,745	154,356	-0,031	-0,031
-280,730	-56,708	0,026	0,008
-279,716	106,455	-0,141	0,122
-278,701	-200,000	0,012	-0,071
-277,686	545,476	-0,064	0,113
-276,672	123,068	-0,152	0,139
-275,657	-62,219	0,091	-0,028
-274,643	800,000	0,043	0,111
-273,628	98,434	-0,058	0,049
-272,613	-200,000	0,038	-0,142
-271,599	637,358	-0,063	-0,118
-270,584	36,741	0,032	-0,021
-269,570	800,000	0,052	0,113
-268,555	-15,109	-0,049	-0,023
-267,540	-200,000	-0,019	-0,096
-266,526	-12,209	-0,061	-0,029
-265,511	-64,947	0,107	-0,031
-264,497	129,562	0,077	0,072
-263,482	284,853	-0,042	0,055
-262,467	-200,000	0,004	0,070
-261,453	298,884	0,042	-0,057
-260,438	-200,000	0,010	0,113
-259,424	-200,000	0,004	0,091
-258,409	103,970	-0,067	-0,057
-257,395	800,000	-0,047	0,095
-256,380	455,405	0,104	0,169
-255,365	508,046	-0,087	0,148
-254,351	631,424	0,008	-0,014
-253,336	675,745	0,057	-0,109
-252,322	800,000	-0,053	0,152
-251,307	-44,933	0,025	-0,009
-250,292	-67,189	-0,045	0,013
-249,278	114,083	0,104	0,092
-248,263	73,727	-0,105	0,080
-247,249	-165,486	0,125	0,004
-246,234	-96,225	-0,089	0,017
-245,219	371,314	-0,093	-0,138
-244,205	-200,000	0,018	0,000
-243,190	-200,000	0,024	-0,132
-242,176	-11,935	-0,094	-0,045
-241,161	-200,000	0,054	0,303
-240,146	418,305	0,056	0,087
-239,132	-200,000	0,007	0,051
-238,117	-51,224	-0,026	-0,009
-237,103	145,954	0,016	-0,016
-236,088	800,000	0,018	-0,050
-235,073	225,610	0,090	0,107
-234,059	-138,184	-0,021	0,002
-233,044	259,284	0,054	0,068
-232,030	2,279	-0,024	0,013
-231,015	800,000	-0,076	-0,227
-230,000	800,000	0,023	-0,055
-228,986	-184,238	-0,100	-0,001
-227,971	-200,000	0,004	-0,101
-226,957	-200,000	0,046	0,162
-225,942	800,000	-0,017	-0,050
-224,927	23,309	-0,037	-0,022
-223,913	800,000	-0,037	-0,105
-222,898	204,845	-0,070	0,080
-221,884	-5,780	-0,056	0,028
-220,869	25,301	0,159	-0,096
-219,855	800,000	0,021	0,054
-218,840	-66,189	-0,075	0,022
-217,825	423,130	0,064	-0,100
-216,811	303,445	-0,159	-0,215
-215,796	-200,000	-0,020	-0,086
-214,782	247,660	0,023	-0,028
-213,767	-200,000	-0,022	0,085
-212,752	650,182	0,021	-0,040
-211,738	265,353	0,066	0,084
-210,723	337,130	0,051	-0,073
-209,709	800,000	0,024	0,073
-208,694	238,083	0,040	-0,049
-207,679	274,169	-0,007	0,010
-206,665	-200,000	0,047	0,227
-205,650	-75,236	-0,065	0,017
-204,636	800,000	0,014	-0,036
-203,621	-109,742	0,137	0,021
-202,606	17,561	0,082	0,047
-201,592	-82,196	-0,114	0,027
-200,577	553,083	0,042	0,074
-199,563	-200,000	0,001	0,105
-198,548	119,343	0,100	-0,090
-197,533	3,422	-0,168	-0,089
-196,519	-84,604	0,119	-0,027
-195,504	-200,000	-0,011	0,070
-194,490	-133,450	0,060	-0,005
-193,475	-124,665	-0,086	0,010
-192,460	228,488	-0,082	-0,097
-191,446	-200,000	0,008	-0,104
-190,431	-143,686	0,053	0,004
-189,417	-64,212	-0,070	0,021
-188,402	800,000	-0,048	0,111
-187,387	190,029	-0,069	0,076
-186,373	800,000	0,014	0,029
-185,358	70,613	-0,071	-0,053
-184,344	-200,000	-0,009	0,128
-183,329	-37,908	-0,075	-0,029
-182,315	-23,637	-0,032	-0,014
-181,300	800,000	0,091	0,184
-180,285	-200,000	-0,011	-0,129
-179,271	800,000	-0,032	-0,082
-178,256	800,000	0,028	-0,078
-177,242	201,603	0,110	0,124
-176,227	1,611	0,197	-0,103
-175,212	-56,276	0,026	0,008
-174,198	100,127	0,068	0,057
-173,183	-76,677	-0,161	-0,041
-172,169	-152,079	-0,137	-0,007
-171,154	176,480	-0,047	0,049
-170,139	-170,757	0,202	-0,005
-169,125	-200,000	-0,005	0,025
-168,110	800,000	0,043	0,091
-167,096	292,584	0,086	-0,115
-166,081	800,000	0,088	-0,188
-165,066	-109,052	-0,116	0,018
-164,052	800,000	-0,040	-0,107
-163,037	800,000	-0,016	0,049
-162,023	665,116	0,045	-0,084
-161,008	-62,390	0,161	-0,048
-159,993	-130,634	-0,139	-0,013
-158,979	109,063	0,051	-0,045
-157,964	147,451	-0,127	-0,124
-156,950	-200,000	0,022	-0,079
-155,935	-103,261	-0,086	0,015
-154,920	153,181	0,047	-0,047
-153,906	43,022	-0,077	0,051
-152,891	-154,794	-0,164	-0,008
-151,877	-50,085	-0,078	0,027
-150,862	83,702	-0,031	0,025
-149,847	-200,000	0,003	-0,073
-148,833	-0,875	0,099	-0,051
-147,818	-153,552	0,155	0,008
-146,804	198,542	-0,035	-0,039
-145,789	800,000	-0,005	0,014
-144,775	15,010	-0,076	0,043
-143,760	418,825	0,119	0,185
-142,745	-22,136	-0,102	0,045
-141,731	-59,160	0,076	0,024
-140,716	-200,000	0,007	0,170
-139,702	488,247	0,021	0,034
-138,687	66,028	-0,026	0,019
-137,672	-200,000	-0,022	0,085
-136,658	124,255	-0,090	-0,082
-135,643	60,029	-0,053	-0,038
-134,629	-200,000	0,033	-0,138
-133,614	30,330	0,028	0,017
-132,599	-13,454	0,055	0,026
-131,585	407,637	0,036	0,056
-130,570	-200,000	-0,013	0,094
-129,556	800,000	-0,015	-0,033
-128,541	800,000	-0,010	-0,021
-127,526	135,162	0,056	-0,053
-126,512	-200,000	-0,021	0,131
-125,497	786,655	-0,019	0,038
-124,483	-200,000	-0,017	0,117
-123,468	-20,966	0,060	-0,026
-122,453	518,681	0,044	-0,075
-121,439	-158,305	-0,047	-0,002
-120,424	152,938	-0,061	0,060
-119,410	-19,595	0,126	-0,056
-118,395	194,687	-0,028	0,030
