DTS Sentinel unit serial number:	SN410029Multiplexer serial number:	ORYXHardware model number:	OX2-SRSoftware version number:	ORYX F/W v4,00 Oryx Data Collector v3.7.2.0data status	okinstallation	B6 Nyhavnadifferential loss correction	single-endedforward channel	channel 2reverse channel	N/Adate	2023/12/09time	23:10:08forward acquisition time	300,00reverse acquisition time	0,00gamma	499,1914k internal	0,3127k external	0,3127temperature offset calibration	1,0000default loss term (dB/km)	0,3820temperature slope calibration	1,0000multiplexer offset coefficient	1,0000multiplexer slope coefficient	1,0000fibre end	0,00T internal ref (°C)	21,69T ext. ref 1 (°C)	5,45T ext. ref 2 (°C)	5,43length (m)	temperature (°C)	Stokes	anti-Stokes-744,400	800,000	-0,023	0,064
-743,385	-64,837	-0,236	0,071
-742,371	-52,991	0,109	-0,037
-741,356	105,030	-0,106	0,093
-740,342	-57,568	-0,007	0,002
-739,327	93,270	-0,187	0,158
-738,312	48,025	0,088	0,061
-737,298	-83,024	-0,260	-0,062
-736,283	-139,174	0,123	0,010
-735,269	-21,806	-0,294	0,132
-734,254	-41,382	0,076	-0,029
-733,239	-148,770	-0,386	0,023
-732,225	-55,777	0,235	0,078
-731,210	13,666	0,108	-0,062
-730,196	-75,036	0,042	-0,011
-729,181	189,910	-0,124	-0,138
-728,167	-200,000	0,014	-0,106
-727,152	-5,890	-0,045	-0,023
-726,137	800,000	0,042	-0,099
-725,123	-200,000	-0,000	0,025
-724,108	-18,134	-0,156	-0,072
-723,094	-22,323	-0,074	-0,033
-722,079	528,026	-0,116	-0,204
-721,064	-200,000	0,004	0,094
-720,050	547,828	-0,044	0,079
-719,035	127,894	0,007	-0,007
-718,021	800,000	-0,019	0,042
-717,006	-72,744	-0,157	-0,043
-715,991	800,000	0,026	-0,068
-714,977	562,867	-0,085	-0,153
-713,962	800,000	0,007	-0,021
-712,948	-23,899	0,147	-0,065
-711,933	679,876	-0,047	-0,092
-710,918	-148,099	-0,059	-0,004
-709,904	518,522	-0,069	-0,121
-708,889	-71,078	-0,061	-0,017
-707,875	-200,000	0,024	-0,089
-706,860	558,044	-0,047	0,084
-705,845	49,214	0,094	0,066
-704,831	-200,000	-0,003	0,032
-703,816	213,444	0,126	0,148
-702,802	-200,000	0,051	-0,188
-701,787	415,334	0,072	0,114
-700,772	800,000	0,036	-0,116
-699,758	55,713	-0,068	0,049
-698,743	86,592	-0,067	0,055
-697,729	-21,757	0,038	0,017
-696,714	-200,000	-0,024	0,096
-695,699	183,573	-0,030	0,033
-694,685	76,832	-0,061	0,048
-693,670	125,670	-0,068	0,064
-692,656	800,000	0,023	-0,050
-691,641	-125,240	0,075	-0,008
-690,627	-19,027	0,088	0,041
-689,612	-200,000	0,014	0,171
-688,597	402,901	-0,112	-0,175
-687,583	629,904	0,057	-0,108
-686,568	596,822	-0,038	0,071
-685,554	-140,862	-0,039	-0,003
-684,539	800,000	-0,013	-0,029
-683,524	-157,267	0,144	-0,006
-682,510	55,094	0,095	-0,068
-681,495	-17,239	-0,159	-0,074
-680,481	109,227	-0,245	-0,217
-679,466	-118,204	0,044	0,006
-678,451	-200,000	-0,017	-0,166
-677,437	800,000	0,057	-0,170
-676,422	232,257	0,020	0,025
-675,408	-191,672	-0,092	0,001
-674,393	-22,234	0,061	-0,028
-673,378	-156,474	0,133	-0,006
-672,364	104,254	-0,033	-0,029
-671,349	-117,327	-0,023	-0,003
-670,335	85,474	-0,151	-0,123
-669,320	-122,485	-0,044	0,005
-668,305	-100,441	-0,159	-0,029
-667,291	800,000	0,042	0,122
-666,276	-39,068	-0,114	0,044
-665,262	800,000	-0,020	-0,063
-664,247	-200,000	-0,005	0,057
-663,232	337,684	0,032	0,047
-662,218	-77,710	0,096	-0,024
-661,203	70,321	0,108	0,083
-660,189	-57,823	0,054	0,017
-659,174	-200,000	-0,013	-0,096
-658,159	112,451	-0,041	-0,037
-657,145	113,906	0,028	0,026
-656,130	800,000	-0,041	0,106
-655,116	389,161	0,053	-0,082
-654,101	800,000	-0,033	-0,098
-653,086	211,126	-0,037	0,043
-652,072	-77,850	-0,032	-0,008
-651,057	800,000	0,060	-0,146
-650,043	-106,328	-0,061	0,010
-649,028	-200,000	0,029	0,138
-648,014	26,331	0,046	-0,028
-646,999	165,939	0,064	0,067
-645,984	187,184	-0,084	-0,093
-644,970	139,282	-0,109	0,106
-643,955	800,000	0,051	0,119
-642,941	-41,835	-0,112	-0,042
-641,926	-55,371	0,069	-0,023
-640,911	-200,000	-0,024	-0,081
-639,897	-200,000	-0,001	-0,018
-638,882	-200,000	0,001	0,038
-637,868	800,000	0,012	0,026
-636,853	115,220	-0,066	0,060
-635,838	-86,417	-0,057	-0,013
-634,824	-74,766	-0,153	-0,040
-633,809	565,258	0,048	0,087
-632,795	2,071	0,133	-0,071
-631,780	-200,000	0,026	-0,107
-630,765	77,052	-0,079	-0,062
-629,751	352,092	-0,050	-0,073
-628,736	-19,702	-0,170	-0,077
-627,722	23,830	0,030	-0,018
-626,707	-85,699	0,060	0,014
-625,692	-200,000	-0,033	0,125
-624,678	104,907	-0,060	-0,052
-623,663	568,420	-0,051	-0,093
-622,649	76,446	-0,010	-0,008
-621,634	-33,598	-0,058	-0,024
-620,619	72,394	0,015	0,011
-619,605	-200,000	-0,026	-0,090
-618,590	-142,191	0,092	-0,007
-617,576	-64,845	0,057	-0,017
-616,561	241,688	-0,035	0,043
-615,546	256,165	0,027	0,035
-614,532	385,571	-0,100	-0,154
-613,517	-200,000	0,001	0,113
-612,503	308,792	-0,019	0,026
-611,488	800,000	-0,009	0,025
-610,474	-200,000	0,011	-0,051
-609,459	-146,089	-0,043	-0,003
-608,444	-181,520	-0,123	0,002
-607,430	-93,307	-0,046	-0,009
-606,415	92,579	-0,049	-0,041
-605,401	800,000	0,043	0,090
-604,386	-63,283	-0,102	0,031
-603,371	-200,000	-0,008	0,049
-602,357	79,156	0,030	0,024
-601,342	800,000	0,027	0,065
-600,328	800,000	0,029	-0,078
-599,313	-53,467	-0,071	-0,024
-598,298	302,982	0,061	-0,084
-597,284	112,814	0,093	0,084
-596,269	-46,540	0,050	0,018
-595,255	35,397	0,138	0,089
-594,240	140,367	-0,029	0,028
-593,225	145,188	-0,117	-0,116
-592,211	-200,000	-0,044	0,168
-591,196	800,000	0,033	0,090
-590,182	-200,000	0,034	0,138
-589,167	97,018	0,040	0,034
-588,152	268,892	0,024	-0,032
-587,138	800,000	-0,028	0,080
-586,123	-20,940	-0,052	0,024
-585,109	-141,358	-0,114	0,008
-584,094	800,000	-0,017	0,053
-583,079	556,471	-0,061	0,109
-582,065	211,256	-0,038	0,044
-581,050	-7,869	-0,108	-0,054
-580,036	24,172	-0,085	-0,052
-579,021	800,000	0,040	-0,097
-578,006	-200,000	-0,001	-0,110
-576,992	502,622	0,071	-0,121
-575,977	-200,000	0,031	0,132
-574,963	166,918	0,076	0,080
-573,948	-200,000	0,019	0,071
-572,934	18,038	0,099	-0,059
-571,919	-200,000	0,009	0,035
-570,904	522,733	-0,030	0,052
-569,890	-200,000	-0,018	0,075
-568,875	163,950	0,038	0,039
-567,861	-25,892	0,100	-0,043
-566,846	-200,000	0,025	0,092
-565,831	-200,000	-0,017	0,062
-564,817	-77,980	-0,137	-0,035
-563,802	800,000	-0,017	-0,053
-562,788	-76,497	-0,137	0,035
-561,773	92,052	-0,069	0,057
-560,758	-28,508	-0,076	-0,032
-559,744	346,520	0,122	0,177
-558,729	703,675	0,017	0,034
-557,715	230,466	-0,086	-0,105
-556,700	-200,000	-0,012	-0,065
-555,685	2,513	-0,093	0,050
-554,671	84,437	-0,066	-0,053
-553,656	-200,000	0,028	0,130
-552,642	80,494	-0,046	-0,037
-551,627	253,069	0,081	0,102
-550,612	800,000	0,027	-0,062
-549,598	-18,219	-0,066	-0,030
-548,583	-141,282	-0,162	-0,012
-547,569	300,965	-0,053	0,072
-546,554	128,264	0,079	0,074
-545,539	17,901	0,060	-0,035
-544,525	-200,000	-0,024	0,091
-543,510	-159,035	-0,134	-0,005
-542,496	30,923	-0,078	-0,049
-541,481	-200,000	0,000	0,010
-540,466	58,905	0,082	0,059
-539,452	800,000	0,004	-0,009
-538,437	-200,000	-0,014	-0,068
-537,423	165,533	-0,093	0,098
-536,408	-200,000	0,009	-0,098
-535,393	-139,053	-0,196	-0,015
-534,379	-200,000	0,011	0,048
-533,364	-39,083	-0,156	-0,060
-532,350	386,016	-0,077	-0,117
-531,335	-145,468	0,058	0,004
-530,321	800,000	-0,032	0,090
-529,306	723,393	0,022	-0,043
-528,291	269,603	0,077	0,100
-527,277	-200,000	0,005	-0,070
-526,262	-200,000	0,020	0,087
-525,248	-200,000	-0,002	0,058
-524,233	-200,000	0,008	-0,094
-523,218	107,497	0,002	0,001
-522,204	21,419	-0,064	0,039
-521,189	-31,760	-0,056	-0,023
-520,175	800,000	0,030	0,071
-519,160	114,788	0,029	-0,026
-518,145	-200,000	0,010	-0,055
-517,131	47,340	-0,070	-0,048
-516,116	-10,105	0,097	-0,047
-515,102	453,508	-0,052	-0,086
-514,087	800,000	0,025	-0,071
-513,072	598,797	0,069	-0,126
-512,058	-200,000	-0,014	-0,109
-511,043	800,000	-0,037	0,082
-510,029	-200,000	0,003	0,107
-509,014	800,000	-0,052	-0,115
-507,999	10,601	-0,084	-0,047
-506,985	-200,000	0,028	-0,114
-505,970	-161,416	0,125	0,005
-504,956	-200,000	-0,016	-0,060
-503,941	357,387	-0,018	-0,026
-502,926	800,000	-0,005	0,012
-501,912	184,397	0,029	-0,032
-500,897	259,808	-0,075	-0,096
-499,883	800,000	0,008	0,019
-498,868	-39,983	-0,055	0,021
-497,853	236,604	-0,063	-0,077
-496,839	104,756	0,105	-0,092
-495,824	621,214	0,022	-0,041
-494,810	-200,000	-0,010	0,034
-493,795	113,080	-0,115	0,102
-492,781	800,000	-0,028	-0,063
-491,766	-177,719	-0,050	0,001
-490,751	-52,433	-0,039	0,013
-489,737	800,000	0,029	-0,066
-488,722	685,964	0,041	0,079
-487,708	216,817	0,033	-0,039
-486,693	800,000	0,027	-0,060
-485,678	159,313	0,035	-0,036
-484,664	800,000	-0,034	-0,077
-483,649	-200,000	0,017	-0,094
-482,635	-49,370	-0,060	0,021
-481,620	-200,000	-0,028	-0,097
-480,605	-200,000	-0,035	0,163
-479,591	69,938	0,080	0,061
-478,576	-92,189	-0,029	-0,006
-477,562	317,731	-0,045	-0,063
-476,547	434,968	-0,028	-0,045
-475,532	800,000	-0,052	-0,142
-474,518	104,799	-0,014	0,012
-473,503	472,448	-0,044	0,073
-472,489	104,203	-0,027	0,023
-471,474	11,502	0,039	0,022
-470,459	26,238	-0,067	-0,041
-469,445	57,339	-0,109	-0,078
-468,430	-200,000	0,009	-0,035
-467,416	387,411	-0,035	-0,054
-466,401	-200,000	0,014	-0,127
-465,386	45,873	0,184	-0,125
-464,372	325,110	0,087	-0,123
-463,357	800,000	-0,042	-0,136
-462,343	337,294	0,036	0,051
-461,328	800,000	0,058	-0,166
-460,313	77,443	0,102	0,080
-459,299	-200,000	-0,010	0,132
-458,284	35,665	0,097	0,063
-457,270	-20,627	0,114	-0,051
-456,255	241,223	-0,072	-0,089
-455,241	566,570	0,022	0,040
-454,226	-200,000	-0,009	0,057
-453,211	-13,553	0,103	0,049
-452,197	-71,837	0,060	-0,016
-451,182	-200,000	-0,002	0,094
-450,168	404,994	-0,031	-0,048
-449,153	276,374	0,056	-0,074
-448,138	-124,105	0,065	-0,007
-447,124	-19,149	-0,140	-0,064
-446,109	-200,000	0,004	0,048
-445,095	-141,605	0,024	0,002
-444,080	4,970	0,080	-0,043
-443,065	800,000	-0,021	-0,057
-442,051	443,636	-0,115	0,186
-441,036	133,319	-0,046	-0,044
-440,022	316,721	0,017	-0,023
-439,007	209,861	0,041	-0,047
-437,992	-108,960	0,102	0,016
-436,978	382,221	-0,034	0,052
-435,963	-68,581	-0,032	0,009
-434,949	-128,499	0,121	0,012
-433,934	5,099	-0,138	-0,075
-432,919	-200,000	-0,024	-0,175
-431,905	383,179	0,042	-0,064
-430,890	-183,273	0,076	-0,001
-429,876	-200,000	-0,002	0,017
-428,861	-128,121	0,126	0,013
-427,846	-69,646	0,123	-0,034
-426,832	-38,235	0,040	0,015
-425,817	147,335	0,032	0,032
-424,803	559,607	0,050	0,088
-423,788	-109,603	0,096	-0,015
-422,773	-4,372	0,094	0,048
-421,759	-200,000	-0,037	0,151
-420,744	-83,766	0,095	0,022
-419,730	-200,000	0,019	-0,206
-418,715	-200,000	0,003	0,037
-417,701	-200,000	0,011	-0,126
-416,686	800,000	0,038	-0,090
-415,671	300,242	-0,032	0,044
-414,657	95,521	0,094	-0,078
-413,642	800,000	-0,054	-0,124
-412,628	800,000	0,029	-0,066
-411,613	202,308	0,085	0,097
-410,598	269,756	0,057	-0,074
-409,584	-107,050	0,067	0,011
-408,569	55,292	0,013	-0,009
-407,555	-200,000	-0,003	0,064
-406,540	188,966	-0,040	0,044
-405,525	12,183	-0,102	0,058
-404,511	-141,985	0,033	-0,002
-403,496	-68,138	-0,171	-0,049
-402,482	582,814	0,055	-0,099
-401,467	133,388	-0,045	0,043
-400,452	800,000	0,020	-0,051
-399,438	127,919	0,028	0,026
-398,423	276,563	0,030	-0,039
-397,409	-110,623	-0,104	0,016
-396,394	-50,493	-0,041	0,014
-395,379	236,622	0,023	-0,028
-394,365	800,000	-0,032	0,089
-393,350	110,907	-0,048	0,043
-392,336	-19,115	-0,079	0,036
-391,321	-136,134	0,036	-0,003
-390,306	-200,000	0,089	-0,000
-389,292	-42,356	-0,050	-0,019
-388,277	-156,724	-0,092	0,004
-387,263	224,833	-0,100	0,118
-386,248	525,200	0,086	0,150
-385,233	800,000	0,053	0,117
-384,219	152,057	-0,120	-0,120
-383,204	-200,000	0,031	-0,113
-382,190	-3,793	0,073	0,037
-381,175	-40,343	-0,037	-0,014
-380,160	-5,333	0,049	-0,025
-379,146	69,307	-0,033	-0,025
-378,131	800,000	-0,010	-0,026
-377,117	336,435	-0,115	-0,164
-376,102	-200,000	-0,007	-0,119
-375,088	-57,276	-0,057	0,018
-374,073	-50,599	0,115	0,040
-373,058	34,814	-0,047	0,030
-372,044	-126,237	0,107	-0,012
-371,029	-200,000	0,000	0,012
-370,015	-200,000	-0,018	-0,084
-369,000	-200,000	0,003	-0,156
-367,985	51,320	-0,083	-0,058
-366,971	-75,793	0,110	0,028
-365,956	-136,840	0,153	-0,013
-364,942	171,648	0,083	-0,088
-363,927	-200,000	0,035	-0,112
-362,912	-200,000	0,032	0,201
-361,898	156,601	-0,028	0,028
-360,883	-103,051	0,068	-0,012
-359,869	141,186	-0,132	-0,128
-358,854	741,426	0,037	-0,074
-357,839	800,000	-0,049	0,149
-356,825	85,375	-0,107	-0,086
-355,810	-200,000	0,000	0,126
-354,796	800,000	0,040	-0,093
-353,781	-200,000	0,003	-0,053
-352,766	-200,000	0,012	0,051
-351,752	262,817	-0,062	0,079
-350,737	-170,810	0,101	0,002
-349,723	-200,000	0,027	0,122
-348,708	800,000	-0,021	0,065
-347,693	88,692	-0,088	-0,072
-346,679	342,126	0,093	-0,134
-345,664	-200,000	0,011	-0,113
-344,650	800,000	-0,035	-0,099
-343,635	-84,019	0,108	-0,025
-342,620	42,988	0,149	0,099
-341,606	530,867	-0,060	0,105
-340,591	800,000	-0,084	-0,212
-339,577	19,138	-0,074	0,043
-338,562	800,000	0,059	-0,186
-337,548	44,243	0,045	-0,030
-336,533	36,787	0,096	-0,062
-335,518	800,000	0,057	0,124
-334,504	-72,875	0,062	0,017
-333,489	-117,493	0,092	0,012
-332,475	-200,000	0,015	-0,128
-331,460	800,000	-0,031	-0,089
-330,445	-26,058	0,068	0,029
-329,431	800,000	-0,068	0,178
-328,416	-195,397	0,039	-0,000
-327,402	-157,506	-0,060	-0,003
-326,387	397,547	0,030	0,046
-325,372	42,206	-0,124	-0,082
-324,358	-200,000	-0,036	0,123
-323,343	-71,874	-0,063	0,017
-322,329	800,000	0,025	0,062
-321,314	-38,397	-0,069	0,026
-320,299	-91,699	0,065	-0,013
-319,285	-200,000	-0,014	-0,054
-318,270	-200,000	0,002	-0,207
-317,256	54,468	-0,040	-0,028
-316,241	-55,641	0,150	0,049
-315,226	-200,000	0,018	0,126
-314,212	800,000	-0,035	0,085
-313,197	-101,504	-0,092	0,016
-312,183	488,510	-0,018	0,030
-311,168	-200,000	0,011	0,042
-310,153	69,755	-0,059	-0,044
-309,139	-200,000	-0,000	0,003
-308,124	-124,437	0,157	0,018
-307,110	-200,000	0,001	0,092
-306,095	322,391	-0,020	0,028
-305,080	-200,000	0,020	0,109
-304,066	-147,080	0,158	-0,010
-303,051	-4,526	-0,059	-0,030
-302,037	1,585	-0,075	-0,039
-301,022	-200,000	0,000	-0,016
-300,008	-200,000	0,003	-0,040
-298,993	-200,000	-0,018	0,119
-297,978	96,772	0,097	0,081
-296,964	-18,908	0,096	-0,044
-295,949	206,542	-0,053	0,060
-294,935	67,538	0,070	-0,053
-293,920	-76,911	0,034	-0,009
-292,905	-200,000	0,023	0,085
-291,891	387,021	-0,069	0,105
-290,876	234,910	-0,029	0,035
-289,862	-132,644	0,062	0,006
-288,847	83,151	-0,111	0,088
-287,832	800,000	0,032	-0,066
-286,818	-61,363	-0,075	0,023
-285,803	-98,720	-0,134	0,025
-284,789	540,798	0,034	0,059
-283,774	-50,559	0,041	-0,014
-282,759	-67,058	-0,062	-0,018
-281,745	-21,779	-0,077	-0,034
-280,730	-200,000	-0,020	-0,074
-279,716	355,765	0,065	0,095
-278,701	800,000	0,018	-0,042
-277,686	85,425	0,045	-0,036
-276,672	-14,429	-0,059	0,028
-275,657	-89,486	-0,019	0,004
-274,643	-200,000	0,013	-0,154
-273,628	800,000	0,011	-0,032
-272,613	-92,724	-0,096	0,020
-271,599	-108,759	-0,107	-0,017
-270,584	-200,000	-0,004	0,041
-269,570	-70,139	0,091	0,025
-268,555	800,000	-0,060	0,139
-267,540	-37,632	0,103	0,040
-266,526	-127,360	-0,089	0,009
-265,511	-74,456	0,137	-0,036
-264,497	77,447	0,028	0,022
-263,482	-200,000	0,004	-0,082
-262,467	-122,538	0,065	-0,008
-261,453	800,000	-0,028	0,080
-260,438	472,419	0,084	-0,139
-259,424	-200,000	0,005	-0,166
-258,409	780,182	-0,062	-0,125
-257,395	178,270	0,159	0,169
-256,380	-200,000	-0,012	0,107
-255,365	-100,757	0,093	0,017
-254,351	482,737	-0,017	-0,028
-253,336	-127,424	-0,114	-0,012
-252,322	-200,000	-0,048	-0,170
-251,307	800,000	0,018	-0,042
-250,292	66,422	-0,057	0,043
-249,278	-200,000	-0,017	-0,116
-248,263	242,433	-0,050	0,062
-247,249	418,212	0,043	0,067
-246,234	325,093	-0,038	-0,053
-245,219	800,000	0,055	-0,149
-244,205	243,946	0,065	-0,080
-243,190	800,000	0,010	0,030
-242,176	-200,000	-0,011	0,039
-241,161	-200,000	-0,020	0,187
-240,146	420,943	0,106	0,166
-239,132	-139,791	0,140	-0,011
-238,117	-200,000	-0,024	0,099
-237,103	-97,104	0,118	-0,022
-236,088	129,633	-0,041	0,038
-235,073	69,217	0,029	-0,022
-234,059	141,142	0,030	-0,029
-233,044	-200,000	-0,013	0,132
-232,030	8,097	0,137	-0,075
-231,015	-30,756	-0,091	0,038
-230,000	33,855	0,047	-0,030
-228,986	763,112	0,008	0,016
-227,971	800,000	-0,023	0,054
-226,957	127,999	-0,065	0,060
-225,942	141,697	0,037	0,036
-224,927	-55,475	-0,043	0,014
-223,913	-200,000	-0,026	-0,104
-222,898	-26,577	0,126	0,054
-221,884	-151,402	-0,172	0,009
-220,869	-26,771	-0,087	-0,037
-219,855	-200,000	-0,011	0,149
-218,840	-71,934	0,135	0,036
-217,825	-72,247	-0,103	-0,028
-216,811	800,000	0,013	0,031
-215,796	44,892	-0,045	-0,030
-214,782	5,918	0,061	0,033
-213,767	43,049	0,078	0,052
-212,752	800,000	0,008	0,025
-211,738	164,714	-0,071	0,073
-210,723	103,800	-0,047	-0,040
-209,709	800,000	-0,057	-0,144
-208,694	-121,963	-0,017	0,002
-207,679	-184,129	0,090	-0,001
-206,665	800,000	0,025	0,060
-205,650	-168,093	0,081	-0,002
-204,636	-54,791	0,081	0,026
-203,621	800,000	-0,062	0,126
-202,606	-90,253	-0,067	0,014
-201,592	338,137	0,006	0,009
-200,577	-63,358	-0,034	-0,010
-199,563	237,978	0,061	-0,074
-198,548	-74,577	-0,171	-0,044
-197,533	-53,810	-0,029	0,010
-196,519	-119,622	0,071	0,009
-195,504	295,625	0,037	0,049
-194,490	-200,000	-0,015	-0,075
-193,475	272,846	-0,040	-0,052
-192,460	-107,869	-0,059	0,009
-191,446	-126,686	0,131	-0,014
-190,431	-200,000	0,012	0,087
-189,417	-109,357	-0,040	-0,006
-188,402	-117,208	-0,094	0,012
-187,387	46,411	0,132	-0,089
-186,373	130,662	0,087	-0,082
-185,358	9,195	0,057	-0,031
-184,344	252,973	-0,058	-0,072
-183,329	-41,788	-0,032	-0,012
-182,315	196,659	0,067	0,075
-181,300	36,492	0,151	0,097
-180,285	-37,456	-0,196	-0,076
-179,271	196,407	-0,097	-0,108
-178,256	-1,042	0,137	0,070
-177,242	-16,162	0,072	0,033
-176,227	156,428	-0,037	0,037
-175,212	-200,000	-0,039	-0,165
-174,198	462,823	0,047	0,076
-173,183	562,422	-0,025	0,044
-172,169	-200,000	-0,021	-0,081
-171,154	-173,080	0,114	0,002
-170,139	-0,943	0,092	0,047
-169,125	265,377	-0,031	0,040
-168,110	122,712	0,022	-0,020
-167,096	800,000	-0,035	0,072
-166,081	28,459	-0,043	0,026
-165,066	239,715	0,115	-0,139
-164,052	-200,000	-0,003	0,023
-163,037	-11,194	0,118	0,056
-162,023	-200,000	0,020	0,079
-161,008	-200,000	-0,001	0,158
-159,993	-200,000	-0,010	0,141
-158,979	800,000	-0,051	0,160
-157,964	76,380	0,062	0,048
-156,950	205,212	-0,189	0,214
-155,935	-89,969	0,095	-0,020
-154,920	-200,000	-0,017	0,105
-153,906	800,000	-0,014	0,030
-152,891	23,035	-0,063	0,038
-151,877	800,000	-0,034	0,107
-150,862	507,203	-0,098	-0,165
-149,847	178,489	-0,051	-0,054
-148,833	-200,000	0,006	-0,045
-147,818	-120,960	-0,058	-0,007
-146,804	-62,714	-0,067	0,020
-145,789	-200,000	0,008	-0,105
-144,775	5,363	0,046	0,025
-143,760	-200,000	-0,002	-0,114
-142,745	115,637	-0,105	-0,093
-141,731	48,014	0,050	0,034
-140,716	-60,722	-0,096	-0,029
-139,702	171,234	-0,048	-0,051
-138,687	-200,000	-0,025	0,112
-137,672	7,878	0,060	0,033
-136,658	-30,027	0,095	0,039
-135,643	26,123	-0,059	0,036
-134,629	-182,348	-0,099	0,001
-133,614	-53,459	0,032	-0,011
-132,599	66,872	0,081	0,060
-131,585	-28,099	-0,140	0,059
-130,570	-200,000	0,018	-0,075
-129,556	-56,804	-0,018	0,006
-128,541	400,287	-0,107	-0,164
-127,526	-57,617	0,070	0,022
-126,512	800,000	-0,027	0,079
-125,497	-96,454	-0,095	-0,018
-124,483	-39,561	0,095	-0,036
-123,468	800,000	0,078	0,224
-122,453	800,000	-0,021	-0,060
-121,439	-200,000	0,014	-0,048
-120,424	800,000	0,049	-0,118
-119,410	91,396	-0,040	-0,033
