DTS Sentinel unit serial number:	SN410029Multiplexer serial number:	ORYXHardware model number:	OX2-SRSoftware version number:	ORYX F/W v4,00 Oryx Data Collector v3.7.2.0data status	okinstallation	B6 Nyhavnadifferential loss correction	single-endedforward channel	channel 2reverse channel	N/Adate	2023/12/10time	14:45:08forward acquisition time	300,00reverse acquisition time	0,00gamma	499,1914k internal	0,3122k external	0,3122temperature offset calibration	1,0000default loss term (dB/km)	0,3820temperature slope calibration	1,0000multiplexer offset coefficient	1,0000multiplexer slope coefficient	1,0000fibre end	0,00T internal ref (°C)	22,56T ext. ref 1 (°C)	6,03T ext. ref 2 (°C)	6,03length (m)	temperature (°C)	Stokes	anti-Stokes-744,400	-200,000	0,000	-0,046
-743,385	-49,307	-0,196	0,069
-742,371	-121,718	0,137	-0,017
-741,356	-40,156	-0,214	0,083
-740,342	-147,426	0,221	-0,014
-739,327	-130,761	-0,208	-0,021
-738,312	800,000	0,051	-0,107
-737,298	-134,785	-0,278	0,025
-736,283	22,920	0,079	-0,048
-735,269	20,837	-0,275	0,166
-734,254	-148,487	0,121	0,007
-733,239	-102,076	-0,364	-0,065
-732,225	60,595	0,179	-0,132
-731,210	-52,217	0,185	-0,064
-730,196	-45,978	0,093	0,034
-729,181	800,000	-0,038	-0,095
-728,167	128,156	-0,134	0,127
-727,152	-146,233	0,094	-0,006
-726,137	211,331	0,040	0,047
-725,123	-41,749	-0,102	-0,039
-724,108	-80,477	-0,113	-0,028
-723,094	103,026	-0,021	-0,018
-722,079	530,808	0,058	-0,102
-721,064	51,296	-0,112	0,079
-720,050	174,272	-0,045	-0,049
-719,035	26,427	-0,080	0,050
-718,021	-200,000	0,015	-0,055
-717,006	38,713	-0,077	-0,051
-715,991	54,760	-0,051	-0,036
-714,977	-200,000	-0,006	-0,087
-713,962	108,542	-0,083	-0,074
-712,948	-200,000	-0,003	0,042
-711,933	196,829	-0,146	-0,166
-710,918	-21,778	-0,037	0,017
-709,904	90,803	-0,106	-0,088
-708,889	-75,656	-0,089	0,023
-707,875	27,033	-0,095	-0,059
-706,860	120,327	-0,062	-0,057
-705,845	-200,000	-0,076	-0,000
-704,831	-38,539	-0,121	0,047
-703,816	800,000	0,055	-0,123
-702,802	33,216	-0,162	0,104
-701,787	308,136	0,054	0,075
-700,772	800,000	-0,073	-0,156
-699,758	-56,237	-0,144	0,048
-698,743	69,485	0,120	0,092
-697,729	-200,000	-0,007	-0,059
-696,714	-200,000	0,131	0,000
-695,699	-119,179	-0,166	0,021
-694,685	-200,000	0,016	0,119
-693,670	-157,348	-0,091	-0,004
-692,656	39,714	0,087	-0,058
-691,641	1,888	0,077	-0,041
-690,627	800,000	-0,035	-0,080
-689,612	-47,851	0,104	0,037
-688,597	678,455	0,047	0,091
-687,583	-200,000	0,010	-0,112
-686,568	-74,208	-0,121	-0,032
-685,554	167,157	-0,090	-0,095
-684,539	632,785	0,049	0,092
-683,524	318,037	-0,051	-0,071
-682,510	-11,637	-0,073	0,035
-681,495	126,784	0,011	0,010
-680,481	341,330	-0,094	-0,137
-679,466	21,447	-0,161	-0,097
-678,451	305,597	-0,071	-0,099
-677,437	265,538	0,107	-0,139
-676,422	-12,279	0,047	-0,023
-675,408	-162,835	0,070	-0,002
-674,393	212,691	-0,013	0,016
-673,378	-200,000	0,004	0,049
-672,364	349,340	0,044	-0,064
-671,349	-41,510	-0,114	-0,043
-670,335	800,000	0,028	-0,076
-669,320	-166,467	0,074	0,002
-668,305	-198,322	0,054	-0,000
-667,291	234,298	-0,028	0,035
-666,276	159,198	-0,121	-0,125
-665,262	-133,820	-0,243	0,022
-664,247	-200,000	0,000	-0,118
-663,232	270,394	0,009	0,012
-662,218	99,633	0,049	-0,042
-661,203	-53,389	-0,199	-0,067
-660,189	-69,748	-0,084	-0,024
-659,174	-64,520	-0,173	0,052
-658,159	379,871	-0,075	0,114
-657,145	609,454	0,085	-0,158
-656,130	-20,450	-0,065	-0,030
-655,116	776,370	0,051	0,104
-654,101	800,000	0,040	0,093
-653,086	5,984	0,105	-0,057
-652,072	800,000	-0,025	-0,076
-651,057	-200,000	0,006	-0,115
-650,043	-106,100	0,013	-0,002
-649,028	-200,000	-0,020	0,100
-648,014	-43,303	-0,114	0,043
-646,999	-200,000	0,007	0,030
-645,984	95,189	-0,046	-0,039
-644,970	31,674	-0,149	0,095
-643,955	800,000	0,032	0,074
-642,941	800,000	0,023	-0,058
-641,926	-200,000	0,025	0,135
-640,911	800,000	-0,004	-0,013
-639,897	-39,717	0,181	0,070
-638,882	-200,000	-0,004	-0,077
-637,868	21,737	-0,054	0,033
-636,853	800,000	0,014	-0,039
-635,838	49,235	-0,079	-0,055
-634,824	92,723	0,028	-0,023
-633,809	-200,000	0,022	-0,125
-632,795	26,601	0,069	0,043
-631,780	-64,678	-0,103	-0,031
-630,765	-200,000	0,032	-0,230
-629,751	-97,634	0,116	0,022
-628,736	-151,747	-0,143	-0,008
-627,722	-200,000	-0,006	0,033
-626,707	-94,032	-0,067	0,014
-625,692	199,180	0,014	-0,016
-624,678	-72,580	0,110	0,030
-623,663	800,000	-0,041	0,116
-622,649	-23,895	0,035	-0,016
-621,634	-200,000	-0,004	-0,088
-620,619	77,029	-0,125	-0,099
-619,605	-137,838	-0,028	0,002
-618,590	538,118	-0,040	0,071
-617,576	-200,000	0,008	0,031
-616,561	363,791	0,090	-0,135
-615,546	-113,861	0,085	0,012
-614,532	-10,291	-0,131	-0,064
-613,517	-200,000	0,046	-0,190
-612,503	-107,653	-0,069	0,011
-611,488	800,000	0,025	0,068
-610,474	800,000	-0,068	0,189
-609,459	-200,000	0,002	0,038
-608,444	-200,000	0,004	-0,040
-607,430	-200,000	-0,012	0,067
-606,415	57,032	-0,139	-0,100
-605,401	87,214	0,100	0,082
-604,386	-200,000	0,011	0,135
-603,371	-200,000	-0,016	-0,128
-602,357	326,163	-0,043	-0,061
-601,342	317,924	0,067	-0,094
-600,328	-200,000	-0,034	-0,196
-599,313	-107,562	0,027	0,004
-598,298	197,599	-0,048	-0,055
-597,284	444,467	0,046	0,076
-596,269	-49,186	0,059	-0,021
-595,255	51,510	0,112	0,079
-594,240	122,309	-0,131	-0,121
-593,225	-200,000	0,002	-0,087
-592,211	234,855	0,050	-0,061
-591,196	34,262	-0,083	-0,054
-590,182	-108,571	-0,165	0,026
-589,167	219,894	0,039	-0,046
-588,152	52,897	-0,050	0,035
-587,138	667,861	-0,022	0,042
-586,123	-168,949	0,099	0,003
-585,109	800,000	-0,011	-0,029
-584,094	81,186	0,030	-0,024
-583,079	-200,000	-0,003	0,035
-582,065	590,000	-0,089	0,163
-581,050	800,000	0,043	0,109
-580,036	262,099	0,054	-0,070
-579,021	800,000	-0,033	-0,079
-578,006	43,151	-0,015	-0,010
-576,992	11,629	-0,123	-0,070
-575,977	430,314	0,053	-0,086
-574,963	133,753	0,070	0,067
-573,948	237,350	0,031	0,038
-572,934	800,000	-0,042	-0,126
-571,919	-10,364	-0,046	0,023
-570,904	13,897	0,177	0,102
-569,890	66,723	0,150	-0,113
-568,875	-200,000	0,019	-0,087
-567,861	29,090	0,139	-0,087
-566,846	-200,000	-0,012	0,120
-565,831	228,762	0,065	-0,079
-564,817	-200,000	0,024	-0,114
-563,802	-129,468	-0,193	0,020
-562,788	-30,804	0,060	0,025
-561,773	133,216	-0,056	0,053
-560,758	-86,119	-0,054	-0,012
-559,744	800,000	0,045	0,109
-558,729	-24,893	-0,162	0,071
-557,715	-200,000	-0,015	0,068
-556,700	-200,000	0,005	0,036
-555,685	-200,000	-0,002	0,066
-554,671	800,000	0,039	0,101
-553,656	193,993	0,187	0,210
-552,642	-155,553	-0,012	-0,001
-551,627	-1,441	0,035	0,018
-550,612	-28,080	0,085	0,036
-549,598	-169,674	-0,045	0,001
-548,583	-200,000	0,014	-0,102
-547,569	42,854	0,069	0,047
-546,554	101,792	0,039	-0,034
-545,539	-130,897	0,070	0,007
-544,525	326,944	0,047	-0,067
-543,510	246,503	-0,060	-0,075
-542,496	-31,449	-0,082	0,034
-541,481	-200,000	0,020	-0,083
-540,466	-47,857	-0,151	0,054
-539,452	-200,000	0,013	0,102
-538,437	-200,000	-0,019	0,105
-537,423	498,388	-0,051	0,087
-536,408	-57,435	-0,056	-0,018
-535,393	800,000	-0,005	-0,013
-534,379	-200,000	-0,030	-0,109
-533,364	-99,275	-0,056	0,010
-532,350	776,933	-0,025	0,051
-531,335	265,856	0,101	0,130
-530,321	277,265	0,087	0,114
-529,306	-200,000	-0,025	-0,125
-528,291	184,650	-0,058	-0,064
-527,277	48,893	-0,042	0,029
-526,262	111,285	0,046	0,041
-525,248	800,000	-0,020	0,045
-524,233	644,311	-0,053	0,101
-523,218	800,000	0,037	0,087
-522,204	54,649	0,095	0,067
-521,189	762,335	0,052	-0,104
-520,175	-52,752	-0,161	-0,055
-519,160	65,028	0,021	0,016
-518,145	-104,664	-0,065	0,011
-517,131	16,033	0,031	-0,018
-516,116	76,516	0,057	0,045
-515,102	175,419	0,094	0,101
-514,087	790,178	-0,024	0,049
-513,072	-30,907	-0,260	-0,108
-512,058	-200,000	-0,002	-0,057
-511,043	-60,262	-0,042	0,013
-510,029	-200,000	-0,010	0,086
-509,014	123,383	0,108	0,100
-507,999	800,000	0,050	-0,128
-506,985	800,000	0,054	-0,144
-505,970	294,402	0,023	-0,032
-504,956	220,450	-0,049	0,058
-503,941	-200,000	-0,035	-0,188
-502,926	490,708	-0,064	0,108
-501,912	487,564	0,094	0,159
-500,897	-200,000	-0,004	-0,051
-499,883	-139,204	-0,046	-0,004
-498,868	523,667	-0,085	-0,147
-497,853	8,229	0,131	0,073
-496,839	-91,414	-0,106	-0,022
-495,824	-200,000	-0,005	-0,024
-494,810	-55,486	0,090	0,030
-493,795	446,699	0,014	-0,023
-492,781	-200,000	0,002	0,111
-491,766	69,861	0,157	-0,119
-490,751	-95,701	0,114	-0,022
-489,737	24,902	-0,116	0,071
-488,722	-200,000	-0,018	-0,086
-487,708	800,000	0,053	0,138
-486,693	127,895	0,061	0,058
-485,678	-200,000	0,016	-0,110
-484,664	25,971	-0,084	-0,052
-483,649	289,607	-0,112	0,151
-482,635	74,748	0,027	-0,021
-481,620	508,518	-0,053	-0,092
-480,605	-200,000	0,011	-0,086
-479,591	800,000	-0,042	-0,132
-478,576	-200,000	0,000	-0,189
-477,562	-200,000	-0,039	0,143
-476,547	381,905	0,070	-0,106
-475,532	-7,307	0,082	0,041
-474,518	322,993	0,046	0,065
-473,503	800,000	0,014	0,040
-472,489	-200,000	0,028	0,125
-471,474	182,422	0,045	0,049
-470,459	-94,598	-0,120	0,024
-469,445	-200,000	-0,046	0,169
-468,430	800,000	-0,018	-0,039
-467,416	-200,000	0,001	0,108
-466,401	66,691	0,113	-0,085
-465,386	655,216	-0,042	0,080
-464,372	-9,038	0,199	0,098
-463,357	-200,000	-0,023	-0,113
-462,343	520,952	-0,124	-0,215
-461,328	153,955	-0,015	-0,015
-460,313	800,000	0,021	-0,045
-459,299	800,000	0,013	-0,027
-458,284	-200,000	-0,005	0,126
-457,270	93,041	-0,035	0,029
-456,255	-19,239	-0,060	-0,027
-455,241	245,309	-0,065	-0,080
-454,226	-55,316	-0,062	-0,020
-453,211	317,846	0,072	-0,100
-452,197	275,192	0,110	0,144
-451,182	162,295	0,070	0,073
-450,168	-200,000	0,008	-0,071
-449,153	-200,000	-0,017	-0,060
-448,138	27,819	-0,094	-0,058
-447,124	-48,206	0,146	-0,052
-446,109	385,749	-0,041	0,063
-445,095	-200,000	0,001	-0,014
-444,080	229,430	0,056	0,067
-443,065	116,708	-0,068	0,062
-442,051	-36,926	-0,046	-0,018
-441,036	800,000	-0,061	0,145
-440,022	800,000	0,015	0,047
-439,007	-51,843	-0,124	0,042
-437,992	800,000	-0,003	-0,008
-436,978	800,000	0,046	-0,126
-435,963	686,628	-0,018	0,036
-434,949	800,000	-0,011	0,029
-433,934	-69,208	0,087	-0,025
-432,919	-200,000	-0,031	-0,103
-431,905	-200,000	-0,032	0,154
-430,890	67,111	0,136	-0,102
-429,876	-124,575	0,170	0,019
-428,861	105,100	0,041	0,036
-427,846	348,472	0,036	-0,052
-426,832	-119,924	-0,174	-0,022
-425,817	-63,937	-0,109	-0,032
-424,803	83,298	-0,102	0,082
-423,788	464,141	-0,076	0,125
-422,773	800,000	-0,017	0,054
-421,759	95,578	-0,087	0,073
-420,744	-22,007	0,026	0,012
-419,730	-53,085	0,037	-0,012
-418,715	800,000	0,084	-0,260
-417,701	-200,000	-0,064	-0,223
-416,686	277,236	-0,020	-0,026
-415,671	-200,000	0,008	-0,128
-414,657	-52,403	-0,069	0,023
-413,642	-125,781	-0,089	-0,010
-412,628	-10,612	0,138	-0,067
-411,613	95,717	-0,051	-0,043
-410,598	800,000	0,032	-0,066
-409,584	-200,000	-0,015	0,105
-408,569	800,000	0,028	0,075
-407,555	141,771	-0,120	0,117
-406,540	-200,000	0,017	0,055
-405,525	-200,000	-0,037	-0,158
-404,511	130,236	-0,033	-0,031
-403,496	800,000	-0,034	0,085
-402,482	-127,479	-0,012	-0,001
-401,467	18,245	0,102	-0,060
-400,452	-53,805	0,026	0,009
-399,438	-200,000	-0,015	0,136
-398,423	800,000	-0,034	-0,103
-397,409	-200,000	0,013	0,108
-396,394	3,722	0,080	0,043
-395,379	178,830	0,058	-0,063
-394,365	-22,246	-0,042	-0,019
-393,350	-22,558	0,054	-0,024
-392,336	800,000	-0,018	0,038
-391,321	-34,199	0,089	-0,036
-390,306	-47,705	-0,038	-0,014
-389,292	-40,806	0,019	-0,007
-388,277	82,382	0,188	-0,150
-387,263	6,066	0,038	0,021
-386,248	-31,247	-0,040	0,016
-385,233	561,721	-0,095	0,170
-384,219	-98,379	-0,156	0,029
-383,204	159,080	-0,037	-0,038
-382,190	800,000	0,033	0,095
-381,175	110,163	0,071	0,062
-380,160	-139,498	0,096	-0,007
-379,146	800,000	-0,022	0,060
-378,131	-200,000	-0,016	0,055
-377,117	800,000	-0,021	0,062
-376,102	2,278	-0,130	-0,069
-375,088	-97,841	0,060	0,011
-374,073	84,401	0,094	-0,075
-373,058	505,185	-0,066	0,113
-372,044	-200,000	0,007	0,132
-371,029	-77,256	0,102	0,026
-370,015	-200,000	0,016	-0,093
-369,000	169,842	-0,092	0,097
-367,985	-86,994	0,113	-0,025
-366,971	228,547	0,026	0,031
-365,956	-200,000	0,035	0,130
-364,942	-200,000	0,003	0,089
-363,927	539,796	0,061	0,106
-362,912	-77,227	0,080	0,020
-361,898	-200,000	0,026	-0,096
-360,883	-200,000	-0,024	-0,086
-359,869	800,000	-0,068	-0,148
-358,854	369,271	0,069	-0,103
-357,839	-200,000	0,023	0,103
-356,825	452,554	0,055	-0,090
-355,810	30,201	0,080	-0,050
-354,796	-200,000	0,015	-0,051
-353,781	-147,076	-0,063	-0,004
-352,766	-63,140	0,136	-0,041
-351,752	427,500	0,054	0,085
-350,737	533,630	-0,010	-0,018
-349,723	475,773	-0,046	0,077
-348,708	-59,061	0,226	-0,071
-347,693	-89,204	-0,019	0,004
-346,679	214,209	-0,074	-0,086
-345,664	800,000	-0,016	-0,038
-344,650	-200,000	-0,006	0,063
-343,635	32,512	-0,078	-0,049
-342,620	800,000	0,014	-0,043
-341,606	15,708	0,064	0,037
-340,591	-200,000	-0,019	0,080
-339,577	69,283	0,017	-0,013
-338,562	-17,164	-0,039	-0,018
-337,548	-200,000	0,008	-0,025
-336,533	-200,000	-0,059	0,198
-335,518	-200,000	-0,017	0,070
-334,504	34,556	-0,064	0,041
-333,489	-35,235	0,089	0,035
-332,475	85,157	-0,086	0,069
-331,460	800,000	0,026	-0,078
-330,445	44,380	0,045	-0,030
-329,431	-13,148	-0,061	-0,029
-328,416	293,609	0,062	-0,083
-327,402	-16,556	-0,097	-0,045
-326,387	800,000	-0,021	-0,049
-325,372	-93,660	-0,029	-0,006
-324,358	-7,745	-0,019	-0,010
-323,343	-200,000	0,012	0,059
-322,329	218,855	-0,064	-0,076
-321,314	-200,000	-0,007	-0,041
-320,299	800,000	0,016	0,041
-319,285	85,221	-0,035	0,028
-318,270	112,401	0,054	0,048
-317,256	118,894	0,043	-0,039
-316,241	68,041	-0,045	-0,033
-315,226	-200,000	-0,003	0,034
-314,212	800,000	0,014	0,032
-313,197	800,000	0,043	-0,104
-312,183	383,751	-0,071	0,108
-311,168	46,913	-0,099	0,067
-310,153	442,605	-0,059	-0,095
-309,139	800,000	0,017	-0,045
-308,124	-200,000	0,003	0,027
-307,110	147,370	-0,057	0,056
-306,095	223,087	-0,097	0,115
-305,080	100,159	-0,036	0,031
-304,066	-200,000	0,022	-0,132
-303,051	151,124	-0,075	0,074
-302,037	-200,000	0,040	0,251
-301,022	-200,000	0,027	-0,153
-300,008	31,124	-0,041	-0,025
-298,993	-200,000	0,019	0,099
-297,978	-200,000	-0,009	0,073
-296,964	-173,342	0,064	0,001
-295,949	800,000	-0,019	-0,041
-294,935	186,828	0,054	-0,059
-293,920	-200,000	-0,018	-0,160
-292,905	-122,770	0,024	0,003
-291,891	-73,701	0,051	-0,014
-290,876	-97,089	0,045	-0,009
-289,862	101,870	-0,117	-0,100
-288,847	-43,776	-0,030	-0,011
-287,832	22,855	-0,105	0,063
-286,818	-200,000	0,031	0,110
-285,803	-64,069	-0,047	-0,014
-284,789	19,097	0,066	0,039
-283,774	126,239	-0,056	-0,052
-282,759	534,439	0,019	0,032
-281,745	267,828	-0,011	0,014
-280,730	800,000	0,049	-0,106
-279,716	-200,000	-0,042	0,150
-278,701	537,524	0,011	-0,019
-277,686	-200,000	0,003	-0,044
-276,672	492,571	-0,019	0,032
-275,657	342,435	0,092	0,132
-274,643	-58,856	-0,087	-0,027
-273,628	-200,000	0,008	-0,133
-272,613	156,072	-0,090	0,091
-271,599	14,874	-0,095	0,055
-270,584	246,551	0,048	-0,059
-269,570	99,766	0,079	-0,067
-268,555	-200,000	0,020	0,154
-267,540	-156,394	-0,036	-0,002
-266,526	100,702	-0,016	0,014
-265,511	-200,000	0,029	-0,146
-264,497	-200,000	0,040	0,199
-263,482	329,985	0,083	0,117
-262,467	-139,295	-0,137	-0,011
-261,453	15,255	0,104	-0,059
-260,438	28,685	-0,176	-0,109
-259,424	-42,459	-0,081	0,030
-258,409	154,471	-0,095	-0,096
-257,395	-200,000	-0,002	-0,025
-256,380	-77,218	-0,090	0,023
-255,365	256,400	0,081	0,102
-254,351	-200,000	-0,010	-0,121
-253,336	-6,958	0,130	0,065
-252,322	-200,000	-0,029	-0,123
-251,307	-200,000	-0,005	-0,147
-250,292	800,000	0,009	-0,020
-249,278	-28,345	0,085	-0,036
-248,263	-159,284	0,083	0,003
-247,249	123,845	-0,060	-0,055
-246,234	37,317	-0,143	0,093
-245,219	-81,859	-0,056	0,013
-244,205	800,000	0,010	-0,026
-243,190	-200,000	-0,012	-0,065
-242,176	-65,350	0,096	0,028
-241,161	472,425	0,061	0,102
-240,146	-65,524	0,096	0,028
-239,132	800,000	-0,009	-0,020
-238,117	339,260	-0,093	-0,133
-237,103	654,544	0,068	-0,128
-236,088	39,512	0,095	-0,062
-235,073	-146,495	0,208	0,013
-234,059	-31,481	-0,002	0,001
-233,044	201,011	-0,048	-0,054
-232,030	11,264	0,070	0,039
-231,015	-62,670	0,188	0,056
-230,000	-110,715	-0,077	-0,011
-228,986	151,194	0,062	-0,062
-227,971	800,000	0,006	0,013
-226,957	-200,000	0,006	0,044
-225,942	-44,413	0,050	0,018
-224,927	-68,761	0,099	0,028
-223,913	-70,511	-0,075	0,021
-222,898	611,370	-0,081	-0,149
-221,884	-130,072	-0,138	0,014
-220,869	800,000	0,036	-0,113
-219,855	-59,059	-0,062	0,020
-218,840	-200,000	-0,029	0,103
-217,825	-3,807	0,106	-0,054
-216,811	92,569	-0,145	-0,120
-215,796	-200,000	0,042	-0,179
-214,782	539,047	0,036	-0,062
-213,767	249,022	-0,085	0,106
-212,752	-200,000	0,000	-0,030
-211,738	800,000	0,035	-0,103
-210,723	-100,371	0,029	0,005
-209,709	-200,000	-0,001	0,029
-208,694	310,339	0,039	-0,053
-207,679	-200,000	-0,023	-0,091
-206,665	-200,000	0,023	-0,078
-205,650	-200,000	-0,004	-0,079
-204,636	423,802	-0,057	0,090
-203,621	53,275	-0,053	-0,037
-202,606	-200,000	-0,002	-0,010
-201,592	-100,973	-0,090	0,016
-200,577	206,973	0,095	-0,109
-199,563	324,299	0,028	0,039
-198,548	193,726	0,047	0,052
-197,533	-200,000	0,000	-0,031
-196,519	-112,651	0,092	-0,013
-195,504	-62,092	-0,207	-0,063
-194,490	32,726	-0,123	0,078
-193,475	-200,000	-0,001	0,033
-192,460	-81,084	0,084	0,020
-191,446	50,070	-0,156	0,107
-190,431	800,000	0,097	0,201
-189,417	-200,000	-0,016	0,138
-188,402	-109,155	0,023	-0,004
-187,387	136,375	-0,055	-0,052
-186,373	-193,162	-0,086	-0,001
-185,358	176,269	-0,053	-0,056
-184,344	-200,000	0,064	0,208
-183,329	-108,026	0,175	0,027
-182,315	2,347	-0,134	0,071
-181,300	-200,000	0,012	0,064
-180,285	55,652	-0,185	0,130
-179,271	-36,038	0,069	-0,027
-178,256	350,036	0,039	-0,056
-177,242	-11,119	0,144	0,069
-176,227	-200,000	0,050	-0,229
-175,212	-151,689	-0,086	-0,005
-174,198	159,818	-0,045	0,046
-173,183	800,000	-0,009	-0,026
-172,169	-85,760	-0,094	-0,021
-171,154	-200,000	0,012	-0,042
-170,139	-200,000	-0,001	0,057
-169,125	-200,000	-0,014	0,134
-168,110	800,000	0,067	0,144
-167,096	9,198	0,080	0,044
-166,081	-10,853	-0,108	0,052
-165,066	406,298	0,041	-0,064
-164,052	607,850	0,066	-0,121
-163,037	233,592	0,078	-0,094
-162,023	235,509	0,074	-0,089
-161,008	-134,799	0,142	-0,012
-159,993	33,708	-0,117	0,074
-158,979	260,499	0,091	-0,114
-157,964	-200,000	0,009	-0,163
-156,950	60,143	-0,051	-0,036
-155,935	765,104	0,046	0,092
-154,920	-102,988	0,108	0,018
-153,906	-200,000	0,013	0,096
-152,891	-8,973	-0,073	0,035
-151,877	-97,484	-0,158	-0,030
-150,862	78,822	-0,081	-0,063
-149,847	156,131	-0,055	-0,055
-148,833	312,694	-0,030	0,041
-147,818	-200,000	-0,024	0,137
-146,804	800,000	0,046	-0,102
-145,789	288,741	0,015	-0,020
-144,775	-200,000	-0,011	-0,063
-143,760	-28,047	-0,095	0,040
-142,745	-136,818	0,107	0,009
-141,731	-94,658	-0,053	-0,010
-140,716	53,595	0,027	0,019
-139,702	-40,876	0,113	0,042
-138,687	-154,414	0,049	0,002
-137,672	-88,424	-0,047	0,010
-136,658	209,885	0,051	0,059
-135,643	441,936	0,057	0,091
-134,629	-92,266	0,091	-0,019
-133,614	-127,730	0,044	0,005
-132,599	-37,013	0,027	-0,010
-131,585	0,477	-0,177	0,092
-130,570	-73,347	0,056	-0,015
-129,556	-13,265	-0,137	-0,065
-128,541	84,617	0,056	-0,045
-127,526	88,287	-0,148	-0,119
-126,512	269,477	0,095	0,121
-125,497	-7,591	-0,154	-0,076
-124,483	-45,893	-0,030	0,011
-123,468	-200,000	0,018	-0,065
-122,453	-40,011	-0,036	0,014
-121,439	-135,875	0,033	-0,003
-120,424	46,363	0,035	0,024
-119,410	-75,176	0,031	0,008
