DTS Sentinel unit serial number:	SN410029Multiplexer serial number:	ORYXHardware model number:	OX2-SRSoftware version number:	ORYX F/W v4,00 Oryx Data Collector v3.7.2.0data status	okinstallation	B6 Nyhavnadifferential loss correction	single-endedforward channel	channel 2reverse channel	N/Adate	2023/12/08time	13:00:08forward acquisition time	300,00reverse acquisition time	0,00gamma	499,1914k internal	0,3159k external	0,3159temperature offset calibration	1,0000default loss term (dB/km)	0,3820temperature slope calibration	1,0000multiplexer offset coefficient	1,0000multiplexer slope coefficient	1,0000fibre end	0,00T internal ref (°C)	15,06T ext. ref 1 (°C)	-1,50T ext. ref 2 (°C)	-1,51length (m)	temperature (°C)	Stokes	anti-Stokes-744,400	-200,000	0,018	0,150
-743,385	-102,722	-0,363	0,063
-742,371	88,747	0,153	0,126
-741,356	-23,755	-0,137	0,060
-740,342	800,000	-0,022	0,057
-739,327	-29,835	-0,305	-0,128
-738,312	-200,000	0,019	0,075
-737,298	-75,550	-0,336	0,087
-736,283	4,917	0,135	0,073
-735,269	-96,778	-0,328	-0,063
-734,254	-147,590	0,266	-0,016
-733,239	-74,690	-0,563	-0,148
-732,225	-108,826	0,259	0,040
-731,210	301,887	-0,050	0,068
-730,196	-102,175	-0,100	-0,018
-729,181	23,098	0,045	0,027
-728,167	112,864	-0,024	-0,022
-727,152	40,663	0,120	0,079
-726,137	-200,000	-0,011	0,059
-725,123	-83,538	-0,090	0,021
-724,108	137,769	0,044	-0,042
-723,094	-10,474	-0,120	-0,058
-722,079	26,408	0,185	-0,114
-721,064	120,956	-0,090	-0,083
-720,050	-200,000	0,001	0,020
-719,035	130,104	0,026	0,025
-718,021	-200,000	0,012	-0,068
-717,006	16,276	-0,093	0,054
-715,991	800,000	-0,082	-0,213
-714,977	1,858	-0,145	0,077
-713,962	-78,698	-0,049	0,012
-712,948	-200,000	-0,002	-0,015
-711,933	151,830	-0,058	0,058
-710,918	800,000	-0,057	0,142
-709,904	-200,000	0,033	0,207
-708,889	800,000	0,007	0,020
-707,875	15,063	-0,086	0,050
-706,860	69,582	0,014	0,010
-705,845	-200,000	0,006	0,065
-704,831	800,000	-0,065	0,209
-703,816	-37,870	0,041	-0,016
-702,802	-200,000	-0,010	-0,051
-701,787	58,043	-0,053	-0,038
-700,772	193,583	-0,081	-0,090
-699,758	-82,918	0,090	-0,021
-698,743	-93,126	-0,117	-0,024
-697,729	800,000	0,019	0,061
-696,714	123,141	0,089	-0,082
-695,699	512,817	0,036	0,062
-694,685	800,000	0,025	-0,074
-693,670	-57,006	-0,151	-0,049
-692,656	655,482	0,043	-0,082
-691,641	800,000	-0,011	-0,031
-690,627	-200,000	-0,012	0,039
-689,612	-59,619	-0,048	-0,015
-688,597	-152,303	-0,110	-0,006
-687,583	-200,000	-0,030	-0,130
-686,568	687,971	0,035	-0,068
-685,554	69,568	0,098	-0,074
-684,539	-200,000	-0,143	0,000
-683,524	800,000	-0,030	0,071
-682,510	201,903	-0,102	0,116
-681,495	-58,855	-0,069	-0,022
-680,481	800,000	-0,074	-0,156
-679,466	-200,000	-0,003	-0,020
-678,451	-50,764	-0,145	-0,050
-677,437	800,000	-0,023	-0,071
-676,422	-7,995	-0,131	0,065
-675,408	32,346	-0,110	0,070
-674,393	227,499	0,053	-0,063
-673,378	768,323	-0,031	0,063
-672,364	-91,022	-0,050	0,010
-671,349	-87,875	0,011	0,002
-670,335	172,073	-0,013	-0,014
-669,320	235,560	0,073	-0,089
-668,305	76,776	-0,030	0,023
-667,291	9,850	0,073	-0,041
-666,276	-177,563	0,057	-0,001
-665,262	566,919	0,038	-0,067
-664,247	170,740	0,111	0,117
-663,232	638,506	-0,019	-0,035
-662,218	-94,171	0,132	-0,026
-661,203	-84,925	0,114	0,026
-660,189	35,080	-0,019	-0,012
-659,174	-200,000	-0,007	-0,191
-658,159	80,746	-0,028	0,022
-657,145	-34,227	-0,109	-0,044
-656,130	800,000	-0,012	-0,034
-655,116	323,919	0,024	0,034
-654,101	-70,282	-0,128	-0,036
-653,086	800,000	0,040	0,088
-652,072	-30,392	-0,028	0,012
-651,057	800,000	-0,020	0,065
-650,043	-166,227	-0,052	0,002
-649,028	30,043	-0,010	-0,006
-648,014	25,411	-0,031	0,019
-646,999	5,641	0,097	0,053
-645,984	800,000	0,044	0,096
-644,970	800,000	-0,028	0,074
-643,955	800,000	-0,067	-0,173
-642,941	800,000	-0,017	0,042
-641,926	800,000	-0,038	-0,086
-640,911	218,179	-0,052	-0,061
-639,897	-145,720	0,070	0,005
-638,882	311,522	0,021	0,029
-637,868	-4,019	-0,101	0,051
-636,853	-146,504	-0,119	0,008
-635,838	-200,000	0,007	0,043
-634,824	328,360	0,025	-0,035
-633,809	-34,380	0,100	0,040
-632,795	-118,292	0,133	-0,017
-631,780	-200,000	0,040	0,176
-630,765	-200,000	-0,010	-0,075
-629,751	800,000	-0,028	-0,060
-628,736	29,303	-0,107	-0,067
-627,722	335,487	0,037	-0,053
-626,707	126,222	0,065	-0,060
-625,692	-200,000	0,018	-0,062
-624,678	-107,037	-0,146	0,024
-623,663	-21,200	0,038	0,017
-622,649	800,000	0,006	0,017
-621,634	-99,075	-0,045	-0,008
-620,619	-200,000	-0,028	-0,095
-619,605	129,664	0,089	-0,084
-618,590	227,447	-0,019	-0,023
-617,576	-165,511	0,063	-0,002
-616,561	214,880	-0,020	-0,024
-615,546	800,000	-0,035	-0,077
-614,532	-200,000	-0,016	-0,212
-613,517	-200,000	-0,019	-0,062
-612,503	800,000	0,037	0,083
-611,488	-200,000	0,017	-0,058
-610,474	-200,000	-0,006	-0,033
-609,459	800,000	0,042	-0,116
-608,444	-200,000	-0,027	-0,114
-607,430	800,000	-0,029	-0,069
-606,415	109,810	-0,125	-0,110
-605,401	-200,000	0,024	0,087
-604,386	298,487	0,122	0,165
-603,371	800,000	-0,064	0,131
-602,357	800,000	0,028	-0,067
-601,342	-200,000	0,020	-0,158
-600,328	-142,632	-0,106	-0,007
-599,313	-52,644	0,101	0,034
-598,298	-34,844	0,090	0,036
-597,284	-7,250	0,089	0,044
-596,269	7,045	0,098	-0,053
-595,255	800,000	0,022	0,066
-594,240	-200,000	-0,007	-0,054
-593,225	-200,000	-0,048	-0,215
-592,211	-200,000	-0,032	0,107
-591,196	-86,620	-0,110	-0,024
-590,182	800,000	0,023	0,058
-589,167	252,298	0,068	0,085
-588,152	342,650	0,033	0,047
-587,138	-101,192	-0,069	-0,012
-586,123	-81,655	0,130	0,031
-585,109	255,013	-0,060	0,075
-584,094	-94,442	0,028	-0,006
-583,079	-48,991	0,076	0,026
-582,065	110,411	-0,019	0,016
-581,050	311,570	-0,011	-0,015
-580,036	251,941	-0,044	-0,055
-579,021	-28,095	-0,180	-0,076
-578,006	513,349	0,015	0,025
-576,992	-13,376	-0,052	-0,025
-575,977	-99,748	-0,082	0,015
-574,963	-200,000	0,019	-0,071
-573,948	800,000	-0,053	-0,112
-572,934	69,061	0,028	0,021
-571,919	-133,470	0,014	-0,001
-570,904	148,208	0,033	-0,033
-569,890	-200,000	0,026	-0,149
-568,875	104,319	-0,045	0,039
-567,861	165,298	0,049	0,051
-566,846	85,843	0,034	-0,027
-565,831	-200,000	0,039	0,140
-564,817	-200,000	0,007	-0,039
-563,802	-200,000	-0,002	-0,016
-562,788	-8,973	-0,022	-0,011
-561,773	721,149	0,036	-0,070
-560,758	-200,000	0,012	0,075
-559,744	-100,371	0,106	-0,019
-558,729	-200,000	0,011	0,055
-557,715	427,792	0,018	-0,028
-556,700	446,601	-0,054	0,087
-555,685	503,405	-0,044	0,074
-554,671	-49,627	0,108	0,037
-553,656	421,703	0,024	0,038
-552,642	800,000	-0,019	0,049
-551,627	15,385	0,085	0,049
-550,612	11,189	0,092	-0,051
-549,598	-125,269	-0,069	0,008
-548,583	-200,000	0,003	0,013
-547,569	-90,952	0,072	-0,015
-546,554	75,931	-0,094	0,073
-545,539	647,677	-0,017	0,032
-544,525	226,379	0,051	0,061
-543,510	-200,000	-0,003	0,050
-542,496	-124,049	-0,240	0,027
-541,481	120,794	-0,032	0,029
-540,466	64,526	0,129	0,095
-539,452	-22,983	0,064	-0,028
-538,437	171,822	0,060	-0,063
-537,423	800,000	0,031	-0,079
-536,408	112,821	-0,021	0,019
-535,393	68,182	-0,092	-0,069
-534,379	326,365	0,070	-0,098
-533,364	-200,000	-0,004	-0,031
-532,350	225,267	0,031	0,037
-531,335	-200,000	-0,012	0,043
-530,321	320,572	0,099	0,138
-529,306	-200,000	-0,008	-0,075
-528,291	721,686	0,029	-0,056
-527,277	800,000	-0,034	-0,096
-526,262	-134,351	0,199	0,018
-525,248	800,000	0,026	0,080
-524,233	-31,446	0,089	0,036
-523,218	-109,465	-0,138	-0,021
-522,204	58,648	0,057	0,041
-521,189	-200,000	0,006	-0,054
-520,175	-200,000	-0,010	0,122
-519,160	114,469	0,076	-0,067
-518,145	112,936	0,053	-0,047
-517,131	800,000	0,038	0,082
-516,116	-200,000	-0,005	0,052
-515,102	-200,000	-0,002	-0,213
-514,087	800,000	0,008	0,016
-513,072	800,000	0,012	-0,029
-512,058	-200,000	-0,016	0,111
-511,043	81,219	0,052	0,041
-510,029	451,689	-0,021	0,034
-509,014	-99,247	0,045	-0,008
-507,999	-200,000	0,006	0,150
-506,985	-200,000	-0,005	-0,049
-505,970	274,191	0,065	-0,085
-504,956	497,074	0,050	-0,085
-503,941	800,000	0,035	0,093
-502,926	-97,226	-0,082	-0,015
-501,912	-7,670	-0,018	0,009
-500,897	-200,000	-0,010	0,133
-499,883	268,726	0,068	-0,087
-498,868	18,622	-0,056	0,032
-497,853	35,195	0,078	0,050
-496,839	420,023	0,018	-0,029
-495,824	-200,000	-0,002	-0,014
-494,810	800,000	0,018	0,052
-493,795	800,000	0,021	0,066
-492,781	-27,683	0,030	0,013
-491,766	241,935	-0,115	-0,141
-490,751	-71,376	-0,241	0,065
-489,737	112,217	0,113	0,099
-488,722	30,874	-0,110	0,069
-487,708	-83,589	0,033	0,008
-486,693	-31,633	-0,042	0,017
-485,678	406,187	0,070	-0,108
-484,664	390,588	-0,025	-0,038
-483,649	800,000	-0,064	-0,189
-482,635	-53,540	-0,165	-0,055
-481,620	187,291	-0,037	0,040
-480,605	-200,000	-0,037	-0,145
-479,591	-15,089	-0,104	0,048
-478,576	53,010	-0,043	0,030
-477,562	105,865	-0,069	-0,060
-476,547	76,149	-0,059	-0,045
-475,532	37,221	-0,085	-0,055
-474,518	-90,350	0,148	-0,031
-473,503	800,000	0,020	-0,044
-472,489	-200,000	0,000	0,087
-471,474	262,800	0,015	-0,019
-470,459	-200,000	0,048	-0,165
-469,445	-200,000	-0,039	0,130
-468,430	139,444	0,071	-0,068
-467,416	-1,611	-0,118	0,060
-466,401	-200,000	-0,036	0,166
-465,386	52,591	-0,048	0,033
-464,372	-151,733	0,114	0,006
-463,357	155,409	-0,119	0,119
-462,343	200,287	-0,040	0,045
-461,328	56,324	-0,081	-0,057
-460,313	-200,000	-0,001	0,217
-459,299	-200,000	0,022	0,139
-458,284	-161,033	-0,079	-0,003
-457,270	546,871	0,076	0,132
-456,255	-200,000	0,006	0,037
-455,241	-65,368	0,073	0,021
-454,226	450,843	-0,075	-0,121
-453,211	113,004	0,128	0,113
-452,197	-113,570	0,015	-0,002
-451,182	117,891	0,045	0,041
-450,168	332,690	0,058	-0,081
-449,153	800,000	0,051	-0,110
-448,138	700,942	0,051	0,098
-447,124	-200,000	-0,001	-0,063
-446,109	800,000	-0,019	0,050
-445,095	22,372	0,130	0,077
-444,080	-200,000	0,002	0,050
-443,065	-200,000	-0,007	-0,087
-442,051	800,000	-0,023	0,058
-441,036	-200,000	-0,013	0,055
-440,022	-4,028	-0,143	-0,072
-439,007	691,245	0,064	-0,122
-437,992	-49,332	0,134	-0,046
-436,978	423,316	0,026	0,041
-435,963	-200,000	0,001	-0,043
-434,949	754,561	-0,011	-0,021
-433,934	569,212	0,052	0,092
-432,919	48,313	0,032	-0,022
-431,905	-200,000	0,032	-0,129
-430,890	225,124	-0,029	-0,034
-429,876	-119,390	0,077	0,010
-428,861	800,000	0,051	-0,126
-427,846	-200,000	0,006	0,167
-426,832	-200,000	0,001	0,010
-425,817	800,000	-0,074	-0,151
-424,803	123,512	0,050	0,045
-423,788	-176,929	-0,069	-0,001
-422,773	-25,226	-0,062	-0,027
-421,759	48,454	0,049	-0,034
-420,744	1,696	-0,118	0,062
-419,730	186,848	-0,066	0,072
-418,715	800,000	0,018	-0,052
-417,701	-134,629	0,109	-0,010
-416,686	-200,000	0,007	-0,103
-415,671	-200,000	-0,006	-0,080
-414,657	-83,035	0,120	0,028
-413,642	-200,000	-0,036	-0,175
-412,628	462,871	-0,052	-0,084
-411,613	204,884	-0,074	0,083
-410,598	556,706	-0,036	-0,064
-409,584	-200,000	0,021	0,071
-408,569	-200,000	-0,021	0,121
-407,555	800,000	0,044	0,119
-406,540	23,246	-0,051	-0,031
-405,525	-199,312	0,098	-0,000
-404,511	0,715	-0,078	0,041
-403,496	-95,486	0,103	0,020
-402,482	288,813	0,028	0,037
-401,467	95,273	0,008	0,006
-400,452	162,014	0,094	0,096
-399,438	165,390	-0,080	0,082
-398,423	158,564	-0,064	-0,065
-397,409	-113,113	0,029	-0,004
-396,394	240,917	-0,052	0,063
-395,379	-200,000	0,004	-0,030
-394,365	-141,575	0,138	-0,010
-393,350	154,401	0,093	-0,093
-392,336	-2,506	-0,067	0,034
-391,321	-200,000	0,028	-0,118
-390,306	19,484	0,032	-0,018
-389,292	740,057	0,049	-0,096
-388,277	800,000	0,026	-0,079
-387,263	-15,376	-0,065	-0,030
-386,248	800,000	0,033	-0,070
-385,233	206,490	-0,023	0,026
-384,219	800,000	-0,026	-0,060
-383,204	-143,800	-0,149	-0,010
-382,190	402,553	-0,046	-0,071
-381,175	-147,205	-0,024	0,001
-380,160	409,985	-0,056	0,087
-379,146	453,406	-0,114	0,184
-378,131	-200,000	-0,000	0,062
-377,117	-9,511	-0,181	0,087
-376,102	-83,060	-0,107	0,025
-375,088	39,066	0,118	0,077
-374,073	192,127	0,021	0,023
-373,058	25,139	0,058	0,035
-372,044	139,687	-0,052	0,049
-371,029	-39,402	0,157	-0,060
-370,015	50,397	0,098	-0,067
-369,000	105,300	0,119	-0,102
-367,985	-80,328	0,085	-0,020
-366,971	-200,000	-0,024	-0,101
-365,956	-94,795	0,016	-0,003
-364,942	177,380	0,112	-0,118
-363,927	125,842	-0,058	-0,053
-362,912	70,606	-0,151	0,113
-361,898	124,786	0,077	0,070
-360,883	-92,638	-0,150	-0,030
-359,869	-195,320	0,098	0,001
-358,854	-36,783	-0,076	0,030
-357,839	-18,280	-0,100	0,045
-356,825	-200,000	0,010	0,097
-355,810	800,000	-0,050	-0,123
-354,796	800,000	0,015	-0,036
-353,781	61,501	0,118	-0,085
-352,766	171,598	0,065	0,068
-351,752	-0,175	-0,060	-0,031
-350,737	-200,000	0,010	0,079
-349,723	220,648	-0,078	0,091
-348,708	-200,000	-0,003	0,114
-347,693	-200,000	0,012	0,052
-346,679	-200,000	0,028	0,101
-345,664	276,453	-0,055	-0,071
-344,650	-7,287	-0,050	0,024
-343,635	-200,000	0,000	0,121
-342,620	155,200	0,087	0,087
-341,606	-200,000	-0,036	-0,190
-340,591	265,539	-0,019	-0,023
-339,577	94,294	-0,028	0,023
-338,562	800,000	0,029	-0,058
-337,548	-200,000	0,031	0,129
-336,533	-46,869	0,135	-0,048
-335,518	-200,000	-0,010	-0,061
-334,504	-122,090	0,056	0,007
-333,489	-29,157	-0,072	0,030
-332,475	42,474	0,176	-0,116
-331,460	16,981	-0,209	-0,120
-330,445	-31,645	-0,013	0,005
-329,431	-107,486	-0,021	-0,003
-328,416	-200,000	-0,016	0,111
-327,402	-98,255	0,125	0,023
-326,387	4,448	0,050	0,026
-325,372	-200,000	-0,079	-0,279
-324,358	-200,000	-0,026	-0,139
-323,343	265,981	0,058	-0,074
-322,329	-46,459	-0,102	0,036
-321,314	800,000	-0,006	0,016
-320,299	213,406	0,018	-0,021
-319,285	800,000	-0,007	0,017
-318,270	-200,000	-0,036	-0,129
-317,256	264,817	0,074	0,094
-316,241	-145,993	-0,188	0,012
-315,226	-90,340	-0,091	-0,019
-314,212	135,585	0,082	-0,078
-313,197	-47,676	-0,054	-0,019
-312,183	-200,000	0,006	-0,024
-311,168	-200,000	-0,012	0,111
-310,153	88,312	-0,077	0,062
-309,139	800,000	-0,054	0,161
-308,124	-200,000	-0,014	0,079
-307,110	360,565	-0,015	0,021
-306,095	800,000	-0,050	0,149
-305,080	-32,165	0,123	0,049
-304,066	-200,000	-0,048	0,161
-303,051	196,023	0,113	-0,125
-302,037	113,063	0,030	-0,027
-301,022	800,000	0,034	-0,105
-300,008	800,000	0,071	0,153
-298,993	800,000	0,042	-0,098
-297,978	-200,000	-0,016	0,053
-296,964	6,017	0,024	0,013
-295,949	16,473	-0,041	0,024
-294,935	-72,671	0,040	0,011
-293,920	245,362	0,023	0,029
-292,905	800,000	0,040	0,112
-291,891	-200,000	0,002	-0,132
-290,876	-200,000	0,008	0,056
-289,862	123,402	-0,025	-0,022
-288,847	-200,000	0,025	-0,083
-287,832	-200,000	-0,027	-0,102
-286,818	459,043	-0,011	-0,018
-285,803	-88,570	0,054	0,012
-284,789	527,861	0,071	0,122
-283,774	-200,000	-0,004	-0,028
-282,759	118,731	-0,045	-0,040
-281,745	140,576	-0,106	0,101
-280,730	-200,000	0,001	-0,074
-279,716	-93,538	0,089	-0,018
-278,701	800,000	0,022	-0,049
-277,686	515,329	-0,068	0,116
-276,672	-200,000	0,014	0,065
-275,657	-200,000	-0,016	-0,094
-274,643	174,304	-0,089	0,093
-273,628	376,283	0,100	-0,149
-272,613	-133,501	-0,040	-0,004
-271,599	-179,282	0,135	0,002
-270,584	381,744	0,096	0,143
-269,570	66,312	-0,142	-0,104
-268,555	800,000	-0,052	0,134
-267,540	224,459	0,072	-0,084
-266,526	484,446	-0,026	-0,044
-265,511	63,776	0,081	0,059
-264,497	523,739	-0,021	-0,036
-263,482	-200,000	0,001	0,157
-262,467	209,640	0,033	0,038
-261,453	800,000	0,041	0,089
-260,438	107,094	0,062	-0,053
-259,424	-200,000	0,011	0,121
-258,409	642,454	-0,093	-0,172
-257,395	800,000	0,016	-0,047
-256,380	-200,000	0,004	0,137
-255,365	49,390	0,135	0,091
-254,351	-136,184	-0,099	0,008
-253,336	800,000	-0,029	0,089
-252,322	-100,623	-0,103	-0,018
-251,307	61,021	0,012	-0,009
-250,292	-0,459	0,036	-0,018
-249,278	339,572	-0,108	-0,153
-248,263	-24,731	0,145	-0,062
-247,249	727,252	-0,054	0,105
-246,234	187,288	0,075	0,081
-245,219	-200,000	-0,001	-0,074
-244,205	-200,000	-0,022	-0,129
-243,190	800,000	0,032	-0,074
-242,176	-55,235	0,066	-0,021
-241,161	448,264	-0,019	0,030
-240,146	-197,721	-0,070	0,000
-239,132	-59,128	0,109	-0,034
-238,117	400,037	-0,073	0,111
-237,103	800,000	0,022	0,056
-236,088	547,416	-0,032	-0,056
-235,073	-130,720	-0,058	0,006
-234,059	-54,688	0,085	0,028
-233,044	-9,196	-0,125	0,060
-232,030	-60,988	-0,163	0,049
-231,015	-200,000	-0,002	0,050
-230,000	-200,000	-0,011	-0,126
-228,986	-27,462	0,150	-0,063
-227,971	560,500	-0,065	0,114
-226,957	51,246	0,010	0,007
-225,942	38,105	0,097	-0,062
-224,927	-164,208	-0,081	0,003
-223,913	-71,166	-0,081	-0,022
-222,898	-28,122	0,049	-0,020
-221,884	26,682	0,056	0,034
-220,869	-73,733	-0,112	0,029
-219,855	-200,000	0,004	-0,085
-218,840	-200,000	0,007	0,159
-217,825	0,479	-0,118	-0,061
-216,811	-91,327	-0,081	0,017
-215,796	55,172	0,020	0,014
-214,782	467,719	0,120	0,196
-213,767	-200,000	0,011	-0,054
-212,752	500,804	0,033	0,055
-211,738	47,734	0,047	0,032
-210,723	69,227	-0,147	0,109
-209,709	203,603	-0,015	-0,016
-208,694	-144,623	-0,088	-0,006
-207,679	-148,144	0,157	-0,009
-206,665	118,700	-0,059	0,053
-205,650	-62,422	0,083	-0,025
-204,636	-200,000	-0,038	0,127
-203,621	-81,349	-0,126	-0,030
-202,606	-76,093	0,054	-0,014
-201,592	355,519	-0,051	-0,073
-200,577	-44,628	0,132	-0,047
-199,563	-154,461	-0,086	0,004
-198,548	-200,000	-0,016	0,158
-197,533	-142,533	-0,097	0,007
-196,519	-200,000	0,017	-0,134
-195,504	160,572	0,086	0,086
-194,490	-38,703	-0,067	-0,025
-193,475	154,407	-0,023	-0,023
-192,460	173,223	-0,043	0,045
-191,446	-138,318	0,160	-0,013
-190,431	-200,000	0,043	-0,188
-189,417	-62,921	-0,086	-0,026
-188,402	800,000	0,059	-0,145
-187,387	101,047	-0,118	-0,099
-186,373	-200,000	-0,004	-0,141
-185,358	-99,858	-0,034	0,006
-184,344	374,946	-0,065	-0,095
-183,329	-200,000	0,007	-0,065
-182,315	-62,970	0,112	-0,033
-181,300	-200,000	-0,005	0,054
-180,285	99,282	-0,105	-0,087
-179,271	99,993	0,043	0,036
-178,256	155,601	0,020	-0,019
-177,242	800,000	0,063	0,154
-176,227	-200,000	-0,005	0,047
-175,212	84,240	-0,068	0,054
-174,198	-200,000	-0,002	-0,060
-173,183	22,116	-0,133	-0,078
-172,169	-128,445	-0,080	0,008
-171,154	-15,597	0,016	-0,007
-170,139	-20,801	-0,061	0,027
-169,125	58,559	0,073	-0,052
-168,110	800,000	0,049	-0,127
-167,096	-77,233	-0,032	-0,008
-166,081	-93,610	-0,060	-0,012
-165,066	95,624	-0,038	-0,031
-164,052	-24,392	0,071	0,030
-163,037	-160,014	-0,107	-0,004
-162,023	800,000	-0,038	0,090
-161,008	-34,592	0,078	-0,031
-159,993	800,000	-0,032	-0,099
-158,979	258,307	-0,032	0,040
-157,964	-200,000	-0,008	0,031
-156,950	-37,821	-0,074	-0,028
-155,935	122,568	0,140	0,126
-154,920	47,684	-0,074	0,050
-153,906	-43,443	0,080	-0,029
-152,891	496,105	-0,035	0,058
-151,877	-200,000	0,002	0,086
-150,862	800,000	-0,049	-0,112
-149,847	266,162	-0,039	-0,049
-148,833	800,000	-0,032	-0,074
-147,818	-124,143	-0,033	0,004
-146,804	-124,192	0,046	0,005
-145,789	725,543	0,052	0,100
-144,775	149,529	-0,029	0,028
-143,760	-200,000	0,008	-0,034
-142,745	67,907	0,071	0,052
-141,731	526,361	-0,044	-0,076
-140,716	-200,000	-0,020	-0,108
-139,702	15,968	0,073	0,041
-138,687	-47,281	0,075	-0,026
-137,672	-200,000	-0,017	0,075
-136,658	-164,453	-0,117	0,004
-135,643	-109,606	0,108	0,016
-134,629	53,771	-0,091	-0,063
-133,614	-47,069	0,075	0,026
-132,599	800,000	-0,029	0,076
-131,585	-200,000	0,012	-0,136
-130,570	-200,000	0,003	0,117
-129,556	-161,012	0,081	0,003
-128,541	115,115	0,053	0,047
-127,526	800,000	0,028	0,076
-126,512	185,826	0,150	0,161
-125,497	-22,477	0,033	0,014
-124,483	249,921	0,080	0,098
-123,468	-200,000	-0,029	0,111
-122,453	212,039	-0,056	-0,064
-121,439	-200,000	-0,013	0,043
-120,424	-200,000	0,017	0,076
-119,410	-74,373	0,087	0,022
