DTS Sentinel unit serial number:	SN410029Multiplexer serial number:	ORYXHardware model number:	OX2-SRSoftware version number:	ORYX F/W v4,00 Oryx Data Collector v3.7.2.0data status	okinstallation	B6 Nyhavnadifferential loss correction	single-endedforward channel	channel 2reverse channel	N/Adate	2023/12/08time	22:55:08forward acquisition time	300,00reverse acquisition time	0,00gamma	499,1914k internal	0,3157k external	0,3157temperature offset calibration	1,0000default loss term (dB/km)	0,3820temperature slope calibration	1,0000multiplexer offset coefficient	1,0000multiplexer slope coefficient	1,0000fibre end	0,00T internal ref (°C)	15,38T ext. ref 1 (°C)	-1,04T ext. ref 2 (°C)	-1,04length (m)	temperature (°C)	Stokes	anti-Stokes-744,400	800,000	0,027	0,066
-743,385	-200,000	-0,357	-0,001
-742,371	213,341	0,040	0,047
-741,356	-92,592	-0,350	0,072
-740,342	214,810	0,051	0,059
-739,327	-100,972	-0,351	0,063
-738,312	-200,000	0,005	-0,026
-737,298	-13,437	-0,402	-0,191
-736,283	-79,389	0,057	0,014
-735,269	-86,676	-0,225	-0,050
-734,254	6,704	0,108	-0,059
-733,239	-92,497	-0,534	-0,110
-732,225	-137,880	0,236	-0,019
-731,210	-4,244	-0,095	0,048
-730,196	-15,748	0,053	0,025
-729,181	-65,364	-0,085	-0,025
-728,167	409,073	0,050	-0,078
-727,152	800,000	0,033	-0,079
-726,137	-200,000	-0,004	0,029
-725,123	-200,000	-0,016	-0,059
-724,108	33,851	0,068	-0,044
-723,094	-200,000	-0,028	-0,179
-722,079	-148,175	-0,064	0,004
-721,064	43,556	0,064	-0,043
-720,050	800,000	-0,049	0,148
-719,035	-200,000	-0,004	-0,019
-718,021	800,000	0,044	0,095
-717,006	-17,967	-0,100	-0,046
-715,991	93,859	-0,098	-0,082
-714,977	788,879	-0,082	-0,166
-713,962	-31,741	-0,022	-0,009
-712,948	-61,027	-0,171	-0,053
-711,933	-200,000	-0,068	0,323
-710,918	-23,102	-0,039	-0,017
-709,904	154,095	-0,081	-0,082
-708,889	232,215	-0,029	0,035
-707,875	-86,706	-0,157	-0,035
-706,860	191,220	-0,032	0,036
-705,845	292,185	-0,101	0,136
-704,831	-7,343	0,056	0,028
-703,816	-49,839	-0,128	0,044
-702,802	351,259	0,044	-0,065
-701,787	-200,000	0,004	-0,025
-700,772	163,538	0,034	-0,035
-699,758	52,879	-0,109	0,076
-698,743	125,579	-0,029	-0,027
-697,729	203,217	-0,048	0,055
-696,714	-173,752	-0,039	-0,001
-695,699	76,165	-0,048	-0,038
-694,685	-20,919	0,111	0,050
-693,670	-160,876	0,046	-0,002
-692,656	-144,861	0,031	-0,002
-691,641	-125,110	-0,053	0,006
-690,627	800,000	-0,008	-0,020
-689,612	-128,243	0,022	-0,002
-688,597	-40,736	-0,111	0,042
-687,583	-200,000	0,003	-0,057
-686,568	649,687	0,073	-0,137
-685,554	800,000	-0,024	-0,054
-684,539	-96,395	-0,167	-0,032
-683,524	348,862	0,053	-0,078
-682,510	-44,537	0,134	0,049
-681,495	135,974	0,114	-0,109
-680,481	-109,793	-0,113	0,017
-679,466	244,866	-0,046	-0,057
-678,451	800,000	-0,060	0,130
-677,437	-55,293	0,028	-0,009
-676,422	-186,808	0,056	0,001
-675,408	-200,000	-0,024	-0,082
-674,393	-200,000	-0,009	-0,061
-673,378	784,013	0,048	0,097
-672,364	-200,000	-0,014	-0,053
-671,349	350,457	0,040	0,058
-670,335	-36,421	0,051	0,020
-669,320	-200,000	-0,007	-0,049
-668,305	58,130	0,064	0,046
-667,291	-79,753	-0,110	0,027
-666,276	-80,516	-0,053	-0,013
-665,262	-103,830	-0,096	-0,016
-664,247	-43,162	0,058	-0,022
-663,232	-200,000	-0,015	0,186
-662,218	-200,000	0,025	0,101
-661,203	800,000	0,030	0,094
-660,189	221,166	-0,083	0,098
-659,174	162,228	-0,084	-0,087
-658,159	71,590	0,073	0,056
-657,145	-95,156	0,061	-0,012
-656,130	-115,037	-0,103	0,014
-655,116	227,888	-0,061	-0,073
-654,101	-85,002	-0,092	-0,021
-653,086	-6,184	-0,073	0,037
-652,072	218,175	-0,110	-0,129
-651,057	280,618	-0,092	-0,122
-650,043	-200,000	0,007	-0,035
-649,028	67,759	0,067	0,050
-648,014	-87,215	-0,033	0,007
-646,999	-200,000	0,013	0,058
-645,984	-110,569	-0,066	0,010
-644,970	-200,000	0,025	-0,106
-643,955	52,310	-0,078	-0,055
-642,941	-200,000	0,019	0,072
-641,926	49,918	0,118	0,081
-640,911	-105,621	-0,152	0,025
-639,897	177,574	-0,046	0,050
-638,882	75,560	0,102	-0,079
-637,868	-200,000	-0,001	-0,044
-636,853	-177,812	-0,033	-0,001
-635,838	-200,000	0,009	-0,088
-634,824	108,928	-0,073	-0,064
-633,809	254,890	0,037	-0,046
-632,795	-200,000	-0,017	0,108
-631,780	800,000	0,013	0,037
-630,765	-200,000	-0,000	-0,034
-629,751	128,476	-0,056	0,052
-628,736	-28,551	0,032	0,014
-627,722	238,993	0,046	-0,056
-626,707	-200,000	0,012	0,076
-625,692	410,016	0,067	0,104
-624,678	-200,000	-0,009	-0,079
-623,663	-102,685	-0,060	-0,010
-622,649	-167,110	0,043	0,001
-621,634	-99,567	-0,058	0,011
-620,619	800,000	-0,020	-0,063
-619,605	442,539	0,044	-0,071
-618,590	-200,000	-0,002	0,096
-617,576	-200,000	-0,027	0,111
-616,561	-200,000	0,016	0,108
-615,546	718,048	0,015	0,028
-614,532	68,130	0,088	-0,066
-613,517	-200,000	0,031	-0,128
-612,503	-200,000	-0,015	-0,063
-611,488	25,813	-0,053	-0,032
-610,474	-200,000	-0,002	0,034
-609,459	-200,000	-0,002	-0,028
-608,444	-59,932	-0,131	-0,041
-607,430	729,109	0,068	-0,134
-606,415	177,641	0,098	-0,105
-605,401	-200,000	-0,004	0,013
-604,386	-36,450	0,071	-0,028
-603,371	-54,837	-0,060	-0,020
-602,357	-200,000	-0,035	0,212
-601,342	258,760	-0,052	0,065
-600,328	593,781	-0,093	-0,170
-599,313	-142,175	-0,117	-0,008
-598,298	255,953	0,093	-0,117
-597,284	84,977	-0,168	-0,135
-596,269	800,000	0,016	0,036
-595,255	-130,208	-0,011	-0,001
-594,240	-200,000	0,011	-0,039
-593,225	536,847	-0,078	-0,136
-592,211	-200,000	-0,012	-0,075
-591,196	-46,430	-0,125	-0,045
-590,182	-200,000	-0,004	0,078
-589,167	39,049	0,124	0,081
-588,152	31,276	-0,076	0,048
-587,138	800,000	-0,059	-0,121
-586,123	-130,358	-0,234	-0,023
-585,109	-92,953	-0,107	-0,022
-584,094	-75,803	-0,108	0,028
-583,079	-200,000	0,006	-0,032
-582,065	-200,000	0,041	-0,153
-581,050	-200,000	0,001	-0,031
-580,036	-200,000	-0,015	0,100
-579,021	472,074	-0,037	-0,061
-578,006	-200,000	-0,016	-0,135
-576,992	800,000	0,033	-0,087
-575,977	-200,000	0,000	-0,032
-574,963	-200,000	-0,014	0,078
-573,948	8,459	-0,108	0,059
-572,934	-40,466	-0,061	0,023
-571,919	-200,000	0,009	-0,041
-570,904	374,823	0,011	-0,017
-569,890	382,228	-0,061	-0,092
-568,875	-57,539	0,159	0,051
-567,861	203,886	-0,047	-0,053
-566,846	-174,947	0,055	0,001
-565,831	-14,584	-0,085	-0,040
-564,817	-45,985	-0,106	-0,038
-563,802	-119,960	-0,110	0,014
-562,788	-200,000	0,023	0,138
-561,773	-53,726	0,134	0,045
-560,758	-51,841	0,112	-0,038
-559,744	-88,155	0,064	-0,014
-558,729	141,355	-0,080	-0,078
-557,715	-24,666	-0,111	-0,048
-556,700	511,570	0,076	0,130
-555,685	800,000	0,018	-0,041
-554,671	-10,682	0,058	-0,028
-553,656	800,000	-0,017	0,038
-552,642	-86,029	0,097	0,022
-551,627	-117,706	-0,135	-0,018
-550,612	-200,000	0,016	-0,096
-549,598	-200,000	-0,004	-0,016
-548,583	-81,398	-0,076	-0,018
-547,569	-200,000	0,016	0,133
-546,554	44,584	-0,025	-0,017
-545,539	186,141	-0,044	-0,047
-544,525	-81,370	-0,117	0,028
-543,510	267,508	-0,055	0,071
-542,496	800,000	-0,043	-0,127
-541,481	-176,915	-0,056	-0,001
-540,466	9,186	0,113	0,062
-539,452	179,139	0,117	0,125
-538,437	-200,000	0,021	0,106
-537,423	99,607	0,072	0,061
-536,408	32,982	-0,120	-0,076
-535,393	626,560	0,064	-0,118
-534,379	19,680	-0,166	-0,097
-533,364	110,944	0,058	-0,051
-532,350	-71,890	0,099	0,027
-531,335	-200,000	0,002	0,040
-530,321	104,150	0,077	0,066
-529,306	800,000	0,013	0,039
-528,291	-200,000	0,031	-0,113
-527,277	-9,148	-0,143	-0,069
-526,262	-4,010	0,041	0,021
-525,248	-39,054	0,046	-0,018
-524,233	68,850	0,034	-0,025
-523,218	95,991	0,070	0,058
-522,204	110,882	0,095	0,083
-521,189	128,198	-0,063	0,059
-520,175	800,000	0,039	-0,083
-519,160	-200,000	0,073	-0,267
-518,145	-107,385	0,127	0,020
-517,131	2,676	-0,073	0,039
-516,116	-72,450	-0,048	-0,013
-515,102	84,042	-0,061	0,048
-514,087	-10,805	0,072	-0,034
-513,072	5,442	-0,125	-0,067
-512,058	-187,820	0,072	0,001
-511,043	110,913	0,078	-0,069
-510,029	-92,156	0,082	0,017
-509,014	56,897	-0,029	0,021
-507,999	800,000	0,019	-0,061
-506,985	-200,000	0,022	0,082
-505,970	800,000	-0,020	-0,047
-504,956	166,360	-0,110	0,113
-503,941	29,256	0,060	0,037
-502,926	141,321	0,033	0,032
-501,912	566,759	0,088	0,156
-500,897	35,728	0,120	-0,077
-499,883	136,148	-0,111	-0,105
-498,868	-51,083	-0,088	-0,030
-497,853	-89,406	-0,042	-0,009
-496,839	133,986	-0,077	0,073
-495,824	800,000	0,042	-0,091
-494,810	-98,225	0,083	0,015
-493,795	-200,000	0,011	0,167
-492,781	-72,290	-0,099	-0,027
-491,766	536,466	0,044	-0,076
-490,751	231,620	0,130	-0,156
-489,737	800,000	0,039	0,111
-488,722	-200,000	-0,005	0,072
-487,708	-16,206	-0,046	0,021
-486,693	765,749	0,071	-0,142
-485,678	478,770	0,058	0,096
-484,664	111,173	-0,168	-0,148
-483,649	800,000	-0,077	-0,168
-482,635	25,079	0,036	-0,022
-481,620	-200,000	0,022	0,114
-480,605	-72,988	0,096	-0,026
-479,591	765,896	0,026	0,052
-478,576	52,411	-0,050	-0,034
-477,562	2,260	-0,106	-0,056
-476,547	42,591	-0,111	0,074
-475,532	440,926	-0,023	-0,037
-474,518	-200,000	0,009	-0,069
-473,503	277,421	0,033	0,042
-472,489	148,438	0,042	-0,041
-471,474	-200,000	-0,011	0,048
-470,459	-3,623	-0,034	-0,017
-469,445	-119,152	-0,141	0,018
-468,430	251,502	-0,135	-0,168
-467,416	-10,190	0,090	0,043
-466,401	800,000	0,067	0,139
-465,386	-200,000	-0,011	-0,095
-464,372	800,000	0,054	0,134
-463,357	118,602	0,061	0,055
-462,343	-33,061	0,072	0,029
-461,328	-17,480	-0,080	-0,037
-460,313	-56,661	0,060	0,019
-459,299	169,984	0,051	0,053
-458,284	800,000	-0,053	0,129
-457,270	-141,293	0,163	0,012
-456,255	800,000	-0,035	-0,078
-455,241	-0,404	-0,083	-0,043
-454,226	256,058	-0,029	0,037
-453,211	-200,000	0,000	0,037
-452,197	-200,000	0,044	-0,179
-451,182	26,042	0,109	0,066
-450,168	32,513	-0,121	-0,076
-449,153	-18,343	-0,199	0,090
-448,138	416,723	0,042	-0,065
-447,124	6,762	-0,046	-0,025
-446,109	-84,000	0,073	-0,017
-445,095	163,301	0,053	-0,054
-444,080	36,794	-0,063	-0,040
-443,065	-66,051	0,099	0,029
-442,051	-109,345	-0,052	0,008
-441,036	800,000	-0,040	-0,092
-440,022	-93,361	-0,083	0,017
-439,007	-29,355	0,066	0,027
-437,992	110,699	-0,049	0,043
-436,978	-127,480	0,126	-0,013
-435,963	212,437	0,039	-0,045
-434,949	-200,000	-0,021	0,234
-433,934	800,000	0,024	0,074
-432,919	-200,000	0,025	0,108
-431,905	180,183	0,016	-0,018
-430,890	167,107	-0,019	-0,020
-429,876	3,187	-0,037	-0,020
-428,861	-123,207	-0,130	0,015
-427,846	-22,195	0,161	-0,071
-426,832	-127,763	-0,144	0,015
-425,817	-52,420	-0,081	-0,027
-424,803	-8,453	-0,084	-0,041
-423,788	800,000	-0,033	-0,073
-422,773	546,081	-0,032	0,056
-421,759	-115,367	-0,154	0,021
-420,744	238,445	0,096	0,117
-419,730	-134,110	-0,062	0,005
-418,715	564,326	-0,068	0,121
-417,701	-12,359	0,034	-0,016
-416,686	-22,725	-0,082	0,036
-415,671	-200,000	-0,013	0,066
-414,657	72,461	0,054	0,041
-413,642	512,964	0,049	-0,084
-412,628	152,627	-0,017	-0,017
-411,613	-127,280	-0,064	-0,007
-410,598	86,162	0,049	-0,039
-409,584	0,097	0,159	0,082
-408,569	-111,940	-0,063	0,009
-407,555	12,271	0,053	0,029
-406,540	-200,000	0,007	-0,089
-405,525	614,791	-0,020	0,036
-404,511	800,000	0,052	-0,108
-403,496	-200,000	-0,003	0,119
-402,482	800,000	0,027	0,060
-401,467	-200,000	0,031	0,133
-400,452	327,883	-0,047	0,066
-399,438	800,000	0,004	0,009
-398,423	-50,584	-0,071	0,024
-397,409	104,128	0,125	-0,107
-396,394	629,694	0,038	-0,070
-395,379	800,000	0,022	0,046
-394,365	-32,597	0,157	0,063
-393,350	42,393	0,037	0,024
-392,336	114,966	0,093	0,083
-391,321	-200,000	-0,002	0,025
-390,306	-200,000	-0,035	-0,139
-389,292	800,000	0,036	-0,096
-388,277	-108,720	-0,030	-0,005
-387,263	61,290	-0,080	0,058
-386,248	-200,000	-0,031	0,103
-385,233	800,000	0,034	-0,082
-384,219	-148,566	0,070	-0,004
-383,204	-137,531	0,096	0,008
-382,190	216,187	-0,047	-0,054
-381,175	94,040	-0,090	-0,074
-380,160	286,898	0,024	-0,032
-379,146	-82,576	-0,005	-0,001
-378,131	247,397	-0,111	0,136
-377,117	207,388	0,043	0,049
-376,102	800,000	-0,016	0,036
-375,088	-200,000	-0,014	-0,139
-374,073	514,534	0,049	0,084
-373,058	800,000	-0,028	0,063
-372,044	88,405	0,091	-0,073
-371,029	111,592	0,133	0,117
-370,015	211,740	-0,066	0,076
-369,000	-200,000	-0,009	0,060
-367,985	791,554	0,005	0,009
-366,971	-1,558	-0,023	-0,012
-365,956	-52,710	-0,066	-0,022
-364,942	-42,957	-0,133	-0,049
-363,927	-18,528	-0,114	-0,051
-362,912	70,482	0,128	-0,096
-361,898	800,000	0,010	-0,024
-360,883	698,229	0,036	-0,069
-359,869	45,908	-0,012	0,008
-358,854	-200,000	0,035	0,113
-357,839	-38,006	-0,056	-0,022
-356,825	-17,657	0,118	-0,053
-355,810	438,376	-0,046	-0,073
-354,796	71,381	0,038	0,029
-353,781	60,688	-0,067	-0,048
-352,766	-200,000	0,013	0,072
-351,752	-200,000	0,000	-0,058
-350,737	800,000	0,009	0,026
-349,723	-101,448	-0,075	-0,013
-348,708	-200,000	0,002	0,061
-347,693	-23,165	-0,041	0,018
-346,679	163,767	0,036	-0,037
-345,664	81,858	0,045	-0,035
-344,650	42,831	-0,025	-0,017
-343,635	800,000	-0,044	-0,100
-342,620	800,000	0,045	0,118
-341,606	-20,060	0,091	0,041
-340,591	280,826	-0,039	-0,051
-339,577	-200,000	-0,007	0,085
-338,562	-103,653	-0,027	0,004
-337,548	-134,424	-0,167	-0,015
-336,533	284,612	0,044	-0,057
-335,518	274,414	0,067	0,086
-334,504	26,641	-0,059	0,036
-333,489	800,000	0,018	-0,047
-332,475	-2,338	0,034	0,017
-331,460	725,506	-0,062	-0,120
-330,445	-101,144	-0,076	-0,013
-329,431	266,183	0,071	0,090
-328,416	8,889	0,068	0,037
-327,402	-145,067	0,050	0,003
-326,387	-200,000	-0,026	-0,107
-325,372	487,080	-0,034	0,056
-324,358	-73,537	-0,041	0,011
-323,343	800,000	-0,034	-0,074
-322,329	-72,977	0,152	-0,040
-321,314	241,519	0,068	0,083
-320,299	311,390	-0,075	0,102
-319,285	276,769	0,091	0,118
-318,270	-2,659	0,061	0,031
-317,256	-31,112	-0,094	0,038
-316,241	38,088	0,104	-0,067
-315,226	800,000	0,033	0,101
-314,212	-81,384	0,089	-0,021
-313,197	762,761	-0,023	0,046
-312,183	-30,475	0,040	-0,016
-311,168	189,789	0,015	0,017
-310,153	800,000	-0,011	0,025
-309,139	24,920	-0,050	-0,030
-308,124	741,376	0,040	0,078
-307,110	-167,644	0,100	0,003
-306,095	-130,459	-0,091	-0,009
-305,080	-125,787	0,143	-0,015
-304,066	-167,235	0,137	-0,004
-303,051	409,199	0,018	-0,028
-302,037	-60,475	-0,066	0,020
-301,022	-102,782	0,088	-0,015
-300,008	-127,327	0,122	0,013
-298,993	-55,888	-0,134	0,043
-297,978	-200,000	-0,020	0,121
-296,964	800,000	0,047	-0,096
-295,949	34,835	0,121	0,077
-294,935	-145,759	-0,015	-0,001
-293,920	-200,000	-0,017	0,100
-292,905	-200,000	0,011	0,100
-291,891	356,965	-0,013	0,019
-290,876	287,659	0,076	0,100
-289,862	41,836	-0,126	0,082
-288,847	-21,058	-0,037	-0,016
-287,832	405,922	-0,031	-0,047
-286,818	-32,357	-0,055	-0,022
-285,803	442,473	0,080	-0,127
-284,789	2,216	-0,133	-0,070
-283,774	379,856	-0,030	0,045
-282,759	-45,634	0,041	-0,014
-281,745	189,103	0,098	0,106
-280,730	-142,832	0,052	0,004
-279,716	-146,402	0,126	0,008
-278,701	378,937	-0,029	-0,044
-277,686	-200,000	-0,028	0,170
-276,672	-143,920	0,094	0,006
-275,657	0,471	-0,101	-0,052
-274,643	179,729	0,035	0,037
-273,628	86,691	-0,041	-0,033
-272,613	-200,000	-0,000	-0,054
-271,599	-200,000	0,017	-0,102
-270,584	800,000	0,046	-0,101
-269,570	-28,725	0,044	0,018
-268,555	-123,304	-0,093	0,011
-267,540	-76,588	-0,078	-0,020
-266,526	800,000	0,055	-0,113
-265,511	-105,227	-0,126	-0,021
-264,497	7,662	0,108	0,058
-263,482	800,000	-0,038	0,092
-262,467	800,000	-0,054	0,111
-261,453	-186,976	-0,070	-0,001
-260,438	9,527	0,158	-0,087
-259,424	-200,000	-0,032	-0,126
-258,409	-73,877	-0,150	-0,039
-257,395	800,000	-0,026	0,057
-256,380	169,915	-0,020	0,021
-255,365	-88,618	-0,099	0,021
-254,351	562,046	-0,082	-0,144
-253,336	-33,029	0,117	-0,047
-252,322	-52,749	-0,173	-0,058
-251,307	800,000	0,011	-0,025
-250,292	-139,101	0,104	0,008
-249,278	109,995	-0,096	0,083
-248,263	37,785	0,053	0,034
-247,249	176,519	0,087	0,091
-246,234	-35,190	-0,109	0,043
-245,219	-112,883	0,061	-0,009
-244,205	-44,906	0,126	-0,045
-243,190	47,095	-0,111	-0,075
-242,176	-84,892	0,125	0,028
-241,161	800,000	-0,025	0,056
-240,146	-163,263	-0,104	-0,004
-239,132	-200,000	0,002	0,097
-238,117	404,967	-0,093	-0,143
-237,103	108,670	-0,142	0,123
-236,088	-87,387	0,133	0,029
-235,073	-200,000	-0,014	0,090
-234,059	117,202	-0,021	0,018
-233,044	800,000	0,039	-0,117
-232,030	43,154	-0,161	0,106
-231,015	99,306	-0,053	-0,044
-230,000	-200,000	0,018	0,117
-228,986	-106,094	0,069	-0,011
-227,971	-200,000	0,031	-0,120
-226,957	-200,000	-0,040	0,130
-225,942	-158,889	0,046	0,002
-224,927	29,188	0,059	0,036
-223,913	-63,995	-0,104	0,031
-222,898	5,452	-0,068	0,036
-221,884	-124,971	-0,045	0,005
-220,869	2,744	-0,073	0,038
-219,855	-200,000	0,023	0,142
-218,840	-147,066	0,124	0,008
-217,825	800,000	-0,066	0,164
-216,811	-200,000	-0,008	0,038
-215,796	461,791	0,080	-0,129
-214,782	-200,000	-0,003	-0,205
-213,767	597,828	0,028	-0,051
-212,752	181,595	0,163	-0,174
-211,738	-65,510	0,081	0,023
-210,723	207,109	-0,043	0,048
-209,709	468,179	-0,062	-0,102
-208,694	633,917	-0,048	-0,088
-207,679	385,210	0,100	-0,149
-206,665	699,134	-0,024	0,046
-205,650	-133,634	-0,172	-0,015
-204,636	220,501	-0,068	0,079
-203,621	-200,000	0,009	0,058
-202,606	-200,000	0,018	-0,090
-201,592	800,000	0,042	-0,114
-200,577	124,885	0,078	-0,071
-199,563	-118,289	-0,013	-0,002
-198,548	-131,691	-0,004	0,000
-197,533	175,053	0,104	0,109
-196,519	560,819	-0,017	-0,030
-195,504	-21,967	-0,019	-0,008
-194,490	-200,000	-0,002	0,136
-193,475	315,088	0,030	0,042
-192,460	216,501	0,079	0,090
-191,446	-200,000	0,023	0,110
-190,431	42,646	0,174	0,114
-189,417	245,433	-0,038	0,046
-188,402	326,669	0,041	0,057
-187,387	-200,000	0,033	-0,111
-186,373	-153,680	-0,068	0,003
-185,358	-46,835	-0,045	0,016
-184,344	69,972	0,045	0,034
-183,329	-2,936	0,055	-0,028
-182,315	800,000	-0,050	-0,150
-181,300	-200,000	0,003	-0,068
-180,285	-200,000	0,006	-0,029
-179,271	-130,139	0,076	0,007
-178,256	168,173	0,112	-0,115
-177,242	-200,000	-0,028	0,134
-176,227	800,000	-0,050	0,115
-175,212	-100,637	-0,105	0,019
-174,198	115,495	-0,034	-0,030
-173,183	800,000	0,038	-0,119
-172,169	-200,000	0,036	-0,117
-171,154	-200,000	-0,018	-0,116
-170,139	800,000	-0,010	0,027
-169,125	800,000	-0,024	0,076
-168,110	152,425	0,047	-0,046
-167,096	-200,000	0,009	-0,035
-166,081	800,000	-0,033	0,099
-165,066	-200,000	-0,019	-0,156
-164,052	330,874	0,055	0,077
-163,037	73,660	-0,033	-0,025
-162,023	800,000	-0,011	0,031
-161,008	196,138	0,033	-0,037
-159,993	370,669	0,070	-0,103
-158,979	800,000	-0,005	0,012
-157,964	-178,763	-0,052	0,001
-156,950	-81,321	0,063	-0,015
-155,935	117,354	0,089	0,079
-154,920	167,007	0,164	0,168
-153,906	-200,000	-0,004	0,028
-152,891	237,272	0,088	0,106
-151,877	800,000	-0,053	0,116
-150,862	330,059	-0,066	0,092
-149,847	-37,069	-0,114	0,044
-148,833	800,000	-0,038	0,113
-147,818	800,000	-0,057	-0,134
-146,804	267,085	-0,041	0,052
-145,789	252,501	-0,097	0,120
-144,775	29,454	0,082	0,050
-143,760	752,245	-0,062	-0,121
-142,745	705,082	0,013	0,024
-141,731	279,847	-0,060	-0,078
-140,716	119,023	0,071	0,063
-139,702	800,000	-0,071	0,161
-138,687	322,546	-0,009	0,012
-137,672	723,940	0,013	0,026
-136,658	-162,103	-0,037	0,001
-135,643	419,585	-0,037	-0,057
-134,629	800,000	-0,051	-0,126
-133,614	99,560	0,095	-0,079
-132,599	-113,937	-0,177	0,025
-131,585	-200,000	0,019	0,064
-130,570	157,956	0,046	-0,046
-129,556	-134,404	-0,055	0,005
-128,541	309,311	0,050	-0,067
-127,526	7,253	-0,082	0,044
-126,512	800,000	-0,025	0,072
-125,497	247,298	0,038	0,046
-124,483	22,818	-0,105	-0,062
-123,468	-54,388	0,060	0,019
-122,453	265,875	-0,100	0,125
-121,439	403,513	0,017	-0,026
-120,424	-200,000	0,032	-0,183
-119,410	152,841	0,049	0,048
