DTS Sentinel unit serial number:	SN410029Multiplexer serial number:	ORYXHardware model number:	OX2-SRSoftware version number:	ORYX F/W v4,00 Oryx Data Collector v3.7.2.0data status	okinstallation	B6 Nyhavnadifferential loss correction	single-endedforward channel	channel 2reverse channel	N/Adate	2023/12/11time	02:25:08forward acquisition time	300,00reverse acquisition time	0,00gamma	499,1914k internal	0,3122k external	0,3122temperature offset calibration	1,0000default loss term (dB/km)	0,3820temperature slope calibration	1,0000multiplexer offset coefficient	1,0000multiplexer slope coefficient	1,0000fibre end	0,00T internal ref (°C)	21,76T ext. ref 1 (°C)	4,67T ext. ref 2 (°C)	4,68length (m)	temperature (°C)	Stokes	anti-Stokes-744,400	-200,000	-0,024	-0,100
-743,385	13,867	-0,159	0,092
-742,371	800,000	0,011	0,034
-741,356	-57,415	-0,293	0,095
-740,342	-22,835	0,104	0,047
-739,327	-160,803	-0,263	0,010
-738,312	-100,059	0,083	0,015
-737,298	-91,659	-0,171	0,036
-736,283	-142,849	0,073	0,005
-735,269	69,375	-0,181	0,139
-734,254	424,851	0,071	-0,114
-733,239	-112,116	-0,502	-0,074
-732,225	-51,689	0,128	0,044
-731,210	149,604	0,044	0,045
-730,196	-200,000	0,002	-0,222
-729,181	377,201	0,070	-0,107
-728,167	69,331	-0,072	-0,055
-727,152	-200,000	0,058	0,245
-726,137	582,601	-0,069	-0,126
-725,123	98,037	0,036	-0,031
-724,108	-200,000	-0,017	0,063
-723,094	-40,756	-0,150	-0,057
-722,079	8,059	-0,036	-0,020
-721,064	-138,744	-0,044	0,003
-720,050	23,411	0,061	-0,037
-719,035	-200,000	-0,002	0,078
-718,021	528,591	0,051	-0,091
-717,006	-200,000	-0,007	-0,100
-715,991	230,438	-0,055	-0,067
-714,977	-61,961	-0,082	0,026
-713,962	-176,494	-0,125	-0,002
-712,948	-172,059	0,054	-0,001
-711,933	705,445	0,017	-0,033
-710,918	25,639	0,187	0,116
-709,904	-118,304	-0,095	0,012
-708,889	-200,000	-0,008	-0,066
-707,875	471,095	0,042	-0,071
-706,860	-200,000	-0,016	-0,166
-705,845	63,259	0,099	-0,074
-704,831	566,874	0,038	0,070
-703,816	-200,000	-0,007	0,064
-702,802	-86,576	-0,165	0,037
-701,787	-200,000	-0,003	0,087
-700,772	154,065	-0,109	-0,111
-699,758	14,276	-0,058	-0,033
-698,743	125,408	0,056	0,053
-697,729	800,000	-0,064	0,162
-696,714	-124,493	0,067	-0,008
-695,699	-41,868	-0,107	-0,040
-694,685	-87,835	-0,034	0,007
-693,670	-51,863	-0,154	-0,053
-692,656	-200,000	0,013	-0,065
-691,641	-10,817	-0,031	-0,015
-690,627	-83,230	0,055	-0,013
-689,612	-38,352	-0,080	0,031
-688,597	800,000	-0,019	-0,047
-687,583	47,744	-0,065	-0,045
-686,568	58,459	-0,059	-0,043
-685,554	64,736	-0,052	-0,039
-684,539	-200,000	0,010	-0,046
-683,524	-26,536	-0,219	-0,095
-682,510	78,500	0,063	0,050
-681,495	800,000	0,053	0,134
-680,481	184,834	-0,029	-0,032
-679,466	169,702	-0,069	-0,073
-678,451	225,302	-0,118	-0,143
-677,437	-19,383	0,070	-0,032
-676,422	425,250	0,054	0,087
-675,408	800,000	0,030	-0,094
-674,393	-128,263	-0,071	0,007
-673,378	-94,722	-0,089	0,018
-672,364	-1,053	0,108	-0,056
-671,349	800,000	0,045	-0,110
-670,335	9,570	-0,087	-0,049
-669,320	-17,581	0,058	0,027
-668,305	320,373	0,052	-0,074
-667,291	-83,280	-0,111	-0,026
-666,276	154,860	-0,076	-0,078
-665,262	202,786	-0,027	0,031
-664,247	-173,717	-0,163	-0,004
-663,232	296,578	-0,047	0,065
-662,218	-46,175	-0,034	0,012
-661,203	-200,000	0,018	0,103
-660,189	-55,121	-0,073	-0,024
-659,174	-32,565	-0,069	-0,028
-658,159	152,235	-0,101	-0,102
-657,145	-150,841	-0,103	-0,006
-656,130	-200,000	-0,016	-0,082
-655,116	-86,367	0,123	0,028
-654,101	241,421	-0,051	0,063
-653,086	800,000	-0,076	-0,166
-652,072	-66,158	0,074	-0,022
-651,057	800,000	-0,054	-0,115
-650,043	-58,081	-0,165	-0,053
-649,028	60,757	0,040	0,029
-648,014	800,000	0,055	0,176
-646,999	113,737	-0,016	0,015
-645,984	-200,000	-0,020	-0,181
-644,970	800,000	-0,038	-0,083
-643,955	150,230	0,065	0,066
-642,941	107,998	-0,065	-0,058
-641,926	176,004	0,021	0,022
-640,911	39,971	0,113	-0,076
-639,897	298,115	-0,091	0,124
-638,882	0,687	-0,039	-0,020
-637,868	115,694	-0,073	-0,066
-636,853	-200,000	0,004	0,029
-635,838	800,000	-0,035	-0,085
-634,824	678,938	0,023	0,044
-633,809	-200,000	-0,013	-0,050
-632,795	-200,000	0,002	0,065
-631,780	-80,647	-0,092	0,023
-630,765	-200,000	0,024	-0,115
-629,751	26,841	0,010	0,006
-628,736	155,573	-0,040	-0,041
-627,722	61,961	0,105	0,077
-626,707	-87,751	-0,054	0,012
-625,692	608,233	0,021	0,039
-624,678	696,472	0,061	0,119
-623,663	272,441	0,034	0,044
-622,649	-13,845	-0,131	-0,063
-621,634	800,000	0,057	-0,133
-620,619	-15,541	-0,026	0,012
-619,605	-68,796	0,066	0,019
-618,590	800,000	0,027	0,077
-617,576	-117,080	0,061	0,008
-616,561	-61,756	0,032	-0,010
-615,546	800,000	-0,055	0,148
-614,532	65,415	-0,022	0,016
-613,517	-1,652	0,040	0,021
-612,503	-200,000	-0,008	-0,082
-611,488	800,000	-0,029	0,060
-610,474	-200,000	0,010	0,048
-609,459	-43,979	-0,137	0,051
-608,444	152,328	-0,051	0,052
-607,430	19,823	-0,112	-0,067
-606,415	-200,000	0,009	-0,084
-605,401	800,000	-0,025	0,068
-604,386	220,637	0,060	-0,071
-603,371	-131,522	0,065	-0,006
-602,357	34,074	0,120	-0,077
-601,342	-159,769	-0,180	-0,007
-600,328	-200,000	-0,018	0,083
-599,313	-200,000	-0,027	-0,103
-598,298	-200,000	-0,003	0,027
-597,284	563,150	-0,015	-0,028
-596,269	-103,211	-0,015	0,003
-595,255	-76,645	0,056	-0,014
-594,240	-145,214	0,056	0,004
-593,225	800,000	-0,007	0,022
-592,211	312,802	-0,080	-0,112
-591,196	429,149	0,036	-0,057
-590,182	-200,000	0,006	0,145
-589,167	-200,000	0,038	-0,129
-588,152	800,000	0,035	-0,103
-587,138	-66,509	-0,072	-0,021
-586,123	-49,168	-0,062	0,022
-585,109	337,316	-0,097	-0,140
-584,094	-200,000	-0,018	-0,084
-583,079	-38,039	-0,157	0,061
-582,065	-98,370	0,028	0,005
-581,050	-200,000	-0,007	-0,125
-580,036	170,124	-0,075	0,080
-579,021	800,000	0,047	-0,142
-578,006	545,847	0,054	-0,095
-576,992	-200,000	0,009	0,051
-575,977	88,281	0,060	0,050
-574,963	-57,554	0,097	0,031
-573,948	120,937	-0,054	-0,050
-572,934	-86,216	-0,026	0,006
-571,919	-99,900	-0,146	-0,027
-570,904	424,707	-0,040	0,064
-569,890	800,000	-0,034	0,078
-568,875	46,548	0,035	0,024
-567,861	-192,426	0,101	0,001
-566,846	160,025	0,037	0,038
-565,831	-200,000	0,024	-0,111
-564,817	-110,983	-0,089	0,013
-563,802	47,371	-0,093	-0,064
-562,788	800,000	-0,012	-0,026
-561,773	-200,000	-0,030	-0,113
-560,758	-200,000	-0,008	0,098
-559,744	-102,587	-0,096	-0,017
-558,729	454,369	-0,055	-0,091
-557,715	-200,000	-0,014	-0,118
-556,700	124,459	-0,041	-0,038
-555,685	-146,305	-0,140	-0,009
-554,671	298,634	-0,002	-0,002
-553,656	-200,000	-0,007	0,091
-552,642	-200,000	-0,014	0,164
-551,627	-95,142	0,083	0,016
-550,612	637,591	0,053	0,101
-549,598	440,212	0,036	-0,058
-548,583	800,000	-0,057	0,136
-547,569	494,631	0,073	0,125
-546,554	-61,281	-0,065	0,020
-545,539	-200,000	-0,003	0,034
-544,525	409,887	-0,036	0,056
-543,510	261,586	-0,067	-0,086
-542,496	77,444	0,041	0,033
-541,481	178,222	0,030	0,032
-540,466	-25,653	0,092	0,040
-539,452	709,877	0,025	-0,049
-538,437	372,416	0,070	0,105
-537,423	50,650	-0,071	-0,050
-536,408	292,124	0,054	-0,074
-535,393	-21,550	-0,096	-0,043
-534,379	-200,000	-0,010	0,036
-533,364	74,061	0,136	0,105
-532,350	132,941	0,030	-0,028
-531,335	277,773	0,037	0,049
-530,321	800,000	-0,018	-0,049
-529,306	430,574	-0,055	0,088
-528,291	-200,000	0,016	-0,128
-527,277	32,072	-0,046	-0,029
-526,262	36,294	-0,030	-0,020
-525,248	-16,787	0,129	0,060
-524,233	-22,345	-0,047	0,021
-523,218	0,476	-0,068	0,036
-522,204	800,000	-0,050	0,124
-521,189	-80,599	-0,102	0,025
-520,175	-32,267	-0,055	0,023
-519,160	800,000	0,086	-0,198
-518,145	214,761	0,058	-0,068
-517,131	800,000	0,047	0,150
-516,116	-200,000	0,007	0,028
-515,102	-152,633	0,144	0,007
-514,087	121,096	-0,022	-0,020
-513,072	-132,272	-0,078	0,007
-512,058	-200,000	0,013	-0,125
-511,043	351,522	0,068	-0,099
-510,029	-200,000	-0,004	0,018
-509,014	114,559	0,094	0,084
-507,999	-200,000	0,015	0,101
-506,985	-156,612	-0,117	-0,005
-505,970	79,897	-0,089	-0,070
-504,956	-63,902	-0,104	-0,031
-503,941	-60,042	0,125	-0,039
-502,926	114,955	0,071	0,064
-501,912	74,331	-0,096	-0,075
-500,897	30,866	-0,053	-0,034
-499,883	800,000	-0,039	-0,115
-498,868	-47,678	-0,039	0,014
-497,853	-200,000	-0,007	-0,112
-496,839	140,415	-0,077	0,076
-495,824	285,354	-0,026	0,035
-494,810	81,852	0,130	0,104
-493,795	-44,734	-0,075	-0,028
-492,781	-200,000	0,016	0,057
-491,766	-124,120	-0,088	-0,010
-490,751	-83,316	-0,046	-0,011
-489,737	709,646	0,046	-0,091
-488,722	-101,254	0,099	0,018
-487,708	597,869	0,065	-0,119
-486,693	147,785	0,078	-0,077
-485,678	38,583	-0,075	0,049
-484,664	453,095	0,073	-0,120
-483,649	154,279	0,057	0,058
-482,635	-200,000	-0,003	0,021
-481,620	800,000	-0,006	0,015
-480,605	147,871	0,062	0,062
-479,591	299,472	-0,088	-0,120
-478,576	103,435	-0,102	0,088
-477,562	800,000	-0,046	-0,100
-476,547	713,482	-0,047	-0,093
-475,532	71,485	-0,051	-0,039
-474,518	800,000	-0,021	-0,062
-473,503	-62,805	-0,083	-0,025
-472,489	241,586	-0,042	0,052
-471,474	-146,124	-0,069	-0,004
-470,459	-89,430	-0,089	-0,019
-469,445	88,335	-0,059	-0,048
-468,430	-2,062	0,035	0,018
-467,416	64,897	0,048	0,036
-466,401	800,000	0,021	0,057
-465,386	37,385	-0,071	-0,046
-464,372	79,013	-0,087	0,069
-463,357	477,436	-0,094	0,158
-462,343	437,472	0,044	0,072
-461,328	-48,125	0,064	0,022
-460,313	57,201	-0,115	-0,083
-459,299	-40,487	0,055	-0,021
-458,284	7,903	-0,083	-0,046
-457,270	578,976	-0,052	-0,095
-456,255	-200,000	-0,004	-0,024
-455,241	-200,000	0,001	0,057
-454,226	487,307	-0,049	0,082
-453,211	800,000	0,089	0,250
-452,197	-135,503	0,113	0,010
-451,182	800,000	0,032	0,086
-450,168	-200,000	0,020	0,166
-449,153	-200,000	0,001	-0,014
-448,138	-79,568	-0,174	0,043
-447,124	202,264	0,025	0,029
-446,109	81,596	0,189	-0,151
-445,095	-0,617	0,118	-0,062
-444,080	-117,699	-0,122	-0,016
-443,065	-200,000	0,004	-0,036
-442,051	-200,000	0,008	0,100
-441,036	746,435	0,045	-0,089
-440,022	116,847	-0,114	-0,103
-439,007	-200,000	-0,036	-0,133
-437,992	169,595	0,045	0,048
-436,978	189,246	0,017	0,018
-435,963	800,000	-0,027	-0,060
-434,949	-49,561	-0,074	0,026
-433,934	-27,906	-0,072	-0,031
-432,919	-200,000	-0,008	-0,074
-431,905	79,625	0,160	-0,126
-430,890	-197,195	-0,111	-0,001
-429,876	800,000	-0,036	0,107
-428,861	280,066	-0,059	0,078
-427,846	-200,000	-0,006	0,123
-426,832	800,000	-0,014	0,046
-425,817	-200,000	0,023	-0,109
-424,803	-74,002	0,121	-0,032
-423,788	247,479	0,070	-0,087
-422,773	-56,564	0,076	-0,025
-421,759	270,328	0,048	0,062
-420,744	754,985	0,023	0,047
-419,730	562,844	-0,075	-0,134
-418,715	-72,811	-0,027	0,007
-417,701	-182,589	0,052	0,001
-416,686	-200,000	0,032	0,175
-415,671	70,446	0,065	0,049
-414,657	238,759	-0,100	0,123
-413,642	800,000	-0,011	0,025
-412,628	-200,000	0,025	0,084
-411,613	248,099	0,119	-0,148
-410,598	322,645	0,025	0,035
-409,584	800,000	0,020	-0,045
-408,569	85,961	0,098	0,080
-407,555	370,293	-0,072	0,108
-406,540	800,000	0,034	0,071
-405,525	-40,941	-0,012	-0,005
-404,511	400,783	-0,058	-0,090
-403,496	-77,171	-0,103	-0,026
-402,482	337,450	0,048	-0,069
-401,467	-21,777	0,090	-0,040
-400,452	110,847	-0,029	-0,026
-399,438	800,000	0,044	-0,096
-398,423	-200,000	-0,014	-0,106
-397,409	-71,338	-0,058	0,016
-396,394	193,989	0,028	-0,031
-395,379	231,969	-0,024	0,029
-394,365	21,870	0,030	-0,018
-393,350	-200,000	-0,008	0,050
-392,336	-200,000	0,001	0,042
-391,321	265,004	0,102	-0,131
-390,306	-200,000	-0,002	-0,059
-389,292	-200,000	0,026	0,096
-388,277	-56,110	0,079	0,026
-387,263	800,000	0,055	0,128
-386,248	185,829	0,059	0,064
-385,233	-84,289	-0,034	0,008
-384,219	800,000	0,034	-0,074
-383,204	-56,316	-0,122	-0,039
-382,190	82,225	-0,105	-0,083
-381,175	314,598	0,082	-0,113
-380,160	800,000	-0,022	-0,046
-379,146	-85,443	0,123	-0,028
-378,131	275,728	0,023	0,030
-377,117	12,865	-0,063	-0,035
-376,102	-58,510	-0,146	0,046
-375,088	-200,000	-0,037	0,164
-374,073	800,000	0,026	0,064
-373,058	-200,000	0,008	0,036
-372,044	-200,000	-0,005	0,066
-371,029	-200,000	-0,021	-0,083
-370,015	34,994	0,012	-0,008
-369,000	-200,000	0,028	0,130
-367,985	32,715	-0,055	-0,035
-366,971	-200,000	0,049	-0,186
-365,956	-8,893	0,071	0,035
-364,942	-34,837	-0,087	0,035
-363,927	-39,468	0,116	-0,044
-362,912	-200,000	0,040	0,136
-361,898	8,919	-0,168	0,093
-360,883	501,172	0,124	-0,210
-359,869	-200,000	0,041	0,000
-358,854	-200,000	0,020	-0,104
-357,839	-200,000	0,024	0,198
-356,825	-45,281	-0,140	-0,051
-355,810	74,204	0,115	0,088
-354,796	219,196	-0,071	0,083
-353,781	-0,149	0,071	0,037
-352,766	-119,950	0,094	0,012
-351,752	356,229	-0,069	-0,101
-350,737	299,507	-0,044	0,059
-349,723	204,174	-0,088	0,100
-348,708	-200,000	0,003	0,215
-347,693	800,000	-0,028	0,078
-346,679	-200,000	0,007	0,121
-345,664	339,134	-0,089	-0,128
-344,650	168,681	-0,086	-0,090
-343,635	-38,582	0,056	-0,022
-342,620	110,985	0,065	0,057
-341,606	-36,295	-0,135	-0,053
-340,591	131,312	-0,097	0,091
-339,577	143,043	-0,084	-0,082
-338,562	-105,692	0,150	-0,025
-337,548	207,871	0,031	-0,036
-336,533	-15,274	-0,153	-0,071
-335,518	-144,645	0,056	0,004
-334,504	-200,000	-0,035	-0,141
-333,489	800,000	0,056	-0,128
-332,475	469,074	-0,021	-0,034
-331,460	-112,688	-0,062	-0,009
-330,445	-200,000	0,006	0,075
-329,431	89,716	0,056	0,046
-328,416	-166,192	0,125	0,004
-327,402	800,000	-0,021	0,065
-326,387	259,232	-0,054	0,069
-325,372	435,515	0,084	0,135
-324,358	778,504	0,022	-0,044
-323,343	3,012	-0,048	-0,025
-322,329	-200,000	-0,008	-0,073
-321,314	124,769	0,046	-0,042
-320,299	800,000	-0,028	0,059
-319,285	129,891	-0,052	0,049
-318,270	123,390	-0,049	0,045
-317,256	-200,000	-0,019	-0,152
-316,241	202,554	-0,104	0,117
-315,226	-51,638	-0,059	0,020
-314,212	800,000	0,023	-0,057
-313,197	220,364	-0,064	-0,076
-312,183	160,408	0,020	0,021
-311,168	800,000	0,047	0,113
-310,153	-103,381	0,120	-0,021
-309,139	800,000	0,043	0,122
-308,124	-117,414	0,099	0,013
-307,110	491,623	-0,029	-0,049
-306,095	800,000	-0,013	-0,042
-305,080	800,000	0,046	0,134
-304,066	97,947	-0,040	-0,034
-303,051	800,000	-0,045	-0,102
-302,037	121,067	-0,066	0,060
-301,022	-92,520	-0,062	-0,013
-300,008	345,141	-0,044	0,064
-298,993	-77,802	0,079	-0,020
-297,978	800,000	0,028	-0,058
-296,964	0,349	-0,090	0,047
-295,949	-200,000	-0,038	-0,184
-294,935	501,086	0,067	-0,114
-293,920	96,028	-0,071	-0,059
-292,905	-84,845	-0,039	0,009
-291,891	77,712	0,152	0,118
-290,876	81,018	0,115	-0,091
-289,862	-2,666	-0,047	0,024
-288,847	-200,000	-0,002	-0,054
-287,832	-41,965	0,046	-0,017
-286,818	-200,000	-0,006	0,021
-285,803	-200,000	-0,006	-0,019
-284,789	128,356	0,062	0,058
-283,774	203,695	0,059	0,067
-282,759	-200,000	-0,031	-0,145
-281,745	439,639	-0,084	-0,135
-280,730	72,762	-0,049	0,037
-279,716	3,952	-0,113	-0,060
-278,701	-53,004	0,073	-0,024
-277,686	-200,000	-0,008	0,086
-276,672	-175,704	0,060	-0,001
-275,657	800,000	-0,024	-0,062
-274,643	-200,000	-0,017	-0,076
-273,628	451,579	-0,030	0,049
-272,613	-200,000	-0,030	-0,118
-271,599	-176,125	-0,038	-0,001
-270,584	1,652	0,122	-0,064
-269,570	375,109	-0,011	0,017
-268,555	2,435	-0,109	-0,057
-267,540	800,000	-0,013	0,029
-266,526	-23,867	0,102	-0,045
-265,511	-200,000	-0,000	-0,069
-264,497	420,374	-0,042	0,066
-263,482	-8,688	0,013	-0,006
-262,467	800,000	0,045	0,094
-261,453	-110,270	0,112	0,017
-260,438	-54,594	-0,024	-0,008
-259,424	-72,227	0,112	0,030
-258,409	-77,634	-0,064	0,016
-257,395	-174,388	0,080	0,002
-256,380	-86,470	0,044	-0,010
-255,365	-87,090	0,046	-0,010
-254,351	-200,000	0,004	0,075
-253,336	-146,236	-0,072	0,005
-252,322	-200,000	-0,004	-0,067
-251,307	50,062	0,053	0,037
-250,292	-200,000	0,021	-0,069
-249,278	800,000	0,045	0,092
-248,263	65,634	-0,093	-0,069
-247,249	-200,000	-0,013	0,116
-246,234	90,980	-0,048	0,040
-245,219	6,818	-0,102	0,055
-244,205	226,685	0,008	-0,010
-243,190	222,194	0,023	0,027
-242,176	-200,000	0,017	0,097
-241,161	-200,000	-0,015	0,055
-240,146	454,776	0,092	0,150
-239,132	-1,351	0,149	-0,076
-238,117	280,078	-0,131	-0,171
-237,103	156,736	0,029	-0,029
-236,088	-100,004	0,119	-0,021
-235,073	113,991	0,089	0,079
-234,059	-200,000	0,018	0,106
-233,044	233,908	0,017	0,020
-232,030	-144,158	0,149	-0,010
-231,015	-28,185	0,010	0,004
-230,000	-127,995	0,085	0,009
-228,986	800,000	-0,063	-0,154
-227,971	290,675	0,040	0,053
-226,957	98,974	0,128	-0,108
-225,942	-200,000	-0,023	0,087
-224,927	20,641	0,119	-0,070
-223,913	800,000	-0,024	0,054
-222,898	800,000	0,045	0,127
-221,884	-200,000	0,010	-0,072
-220,869	-20,442	0,086	0,039
-219,855	-200,000	-0,005	0,126
-218,840	-33,359	0,018	0,007
-217,825	235,950	-0,047	-0,057
-216,811	800,000	0,036	-0,090
-215,796	800,000	-0,007	-0,020
-214,782	-83,843	-0,101	0,023
-213,767	52,253	-0,097	-0,067
-212,752	800,000	0,040	0,095
-211,738	800,000	-0,034	0,107
-210,723	-161,092	0,041	0,002
-209,709	12,793	0,061	-0,034
-208,694	-130,079	-0,070	-0,007
-207,679	-200,000	-0,011	-0,177
-206,665	-200,000	-0,013	0,083
-205,650	75,788	-0,068	0,052
-204,636	800,000	-0,038	0,103
-203,621	-132,939	0,084	0,008
-202,606	-50,719	-0,098	0,034
-201,592	241,331	0,045	-0,055
-200,577	-200,000	0,047	-0,155
-199,563	-40,786	0,146	0,055
-198,548	117,681	0,005	0,004
-197,533	-91,372	0,058	-0,012
-196,519	-200,000	0,019	0,088
-195,504	71,788	0,054	0,041
-194,490	-200,000	-0,001	-0,040
-193,475	5,830	-0,012	-0,006
-192,460	800,000	0,046	-0,101
-191,446	170,196	0,101	0,106
-190,431	-200,000	-0,007	0,062
-189,417	21,287	0,093	-0,055
-188,402	364,104	-0,078	-0,115
-187,387	152,649	-0,008	-0,008
-186,373	-109,664	0,044	0,007
-185,358	-100,435	-0,059	-0,011
-184,344	-79,008	0,079	-0,019
-183,329	23,888	-0,040	0,024
-182,315	164,384	0,025	-0,026
-181,300	-136,367	0,049	-0,004
-180,285	-113,347	-0,107	-0,015
-179,271	-200,000	-0,041	-0,140
-178,256	273,992	-0,048	0,062
-177,242	-57,862	0,079	-0,025
-176,227	-88,378	-0,088	0,019
-175,212	532,628	0,080	-0,139
-174,198	-53,209	0,048	-0,016
-173,183	66,371	-0,062	-0,046
-172,169	-200,000	-0,001	0,026
-171,154	-200,000	0,012	-0,115
-170,139	39,440	-0,088	-0,058
-169,125	112,428	-0,099	0,088
-168,110	305,611	0,017	-0,022
-167,096	800,000	0,071	0,159
-166,081	-33,950	-0,121	-0,048
-165,066	30,804	-0,012	-0,008
-164,052	-46,643	-0,065	0,023
-163,037	-200,000	-0,001	0,037
-162,023	-200,000	0,001	0,092
-161,008	800,000	-0,038	0,118
-159,993	-36,654	0,153	0,060
-158,979	114,101	0,160	0,142
-157,964	-83,027	-0,056	-0,013
-156,950	242,796	0,028	-0,035
-155,935	92,547	0,065	0,053
-154,920	7,869	0,044	0,024
-153,906	750,426	0,009	-0,018
-152,891	-39,888	0,075	-0,028
-151,877	-43,267	0,067	-0,025
-150,862	-2,247	-0,071	-0,036
-149,847	450,557	0,010	0,017
-148,833	-33,765	0,123	-0,049
-147,818	-21,245	0,082	0,036
-146,804	-122,382	0,059	0,007
-145,789	-200,000	0,007	0,033
-144,775	-160,013	-0,279	-0,011
-143,760	366,812	0,059	-0,087
-142,745	-200,000	-0,027	-0,088
-141,731	-131,346	0,129	-0,012
-140,716	-190,553	0,038	-0,000
-139,702	-200,000	-0,019	0,067
-138,687	800,000	0,031	0,093
-137,672	29,815	-0,146	0,090
-136,658	800,000	-0,004	-0,008
-135,643	367,718	0,091	0,135
-134,629	168,716	0,056	0,059
-133,614	557,320	0,026	-0,046
-132,599	-73,448	-0,145	-0,038
-131,585	800,000	0,050	-0,118
-130,570	-81,876	-0,129	-0,031
-129,556	-17,634	0,097	-0,044
-128,541	-200,000	-0,027	-0,114
-127,526	-153,402	0,060	-0,003
-126,512	-56,123	-0,100	0,032
-125,497	96,476	0,054	-0,045
-124,483	-142,648	0,095	-0,007
-123,468	75,787	0,029	-0,023
-122,453	601,354	-0,016	-0,029
-121,439	-77,941	-0,069	-0,017
-120,424	-43,218	-0,164	-0,060
-119,410	-32,082	0,041	-0,017
