DTS Sentinel unit serial number:	SN410029Multiplexer serial number:	ORYXHardware model number:	OX2-SRSoftware version number:	ORYX F/W v4,00 Oryx Data Collector v3.7.2.0data status	okinstallation	B6 Nyhavnadifferential loss correction	single-endedforward channel	channel 2reverse channel	N/Adate	2023/12/07time	17:05:09forward acquisition time	300,00reverse acquisition time	0,00gamma	499,1914k internal	0,3164k external	0,3164temperature offset calibration	1,0000default loss term (dB/km)	0,3820temperature slope calibration	1,0000multiplexer offset coefficient	1,0000multiplexer slope coefficient	1,0000fibre end	0,00T internal ref (°C)	14,50T ext. ref 1 (°C)	-2,31T ext. ref 2 (°C)	-2,31length (m)	temperature (°C)	Stokes	anti-Stokes-744,400	322,344	0,083	-0,117
-743,385	-80,659	-0,315	-0,076
-742,371	-22,664	0,150	0,066
-741,356	-96,784	-0,235	0,045
-740,342	-200,000	0,030	-0,106
-739,327	-149,835	-0,301	0,017
-738,312	-106,062	0,060	-0,010
-737,298	-43,000	-0,321	-0,119
-736,283	17,663	0,140	0,082
-735,269	-70,576	-0,224	0,062
-734,254	-133,422	0,162	-0,015
-733,239	-61,692	-0,629	-0,193
-732,225	-6,134	0,260	0,130
-731,210	-200,000	0,029	0,127
-730,196	-25,862	0,022	-0,009
-729,181	800,000	-0,024	-0,078
-728,167	-51,910	0,081	-0,028
-727,152	65,542	-0,057	-0,042
-726,137	800,000	0,056	0,172
-725,123	-91,507	-0,132	-0,027
-724,108	-200,000	-0,024	-0,139
-723,094	-200,000	-0,001	-0,007
-722,079	800,000	-0,036	-0,078
-721,064	167,690	-0,128	-0,134
-720,050	-81,019	0,147	-0,035
-719,035	-34,592	0,157	0,063
-718,021	169,105	-0,197	-0,207
-717,006	112,946	-0,051	0,045
-715,991	71,370	0,120	-0,092
-714,977	529,977	0,077	-0,135
-713,962	202,000	0,026	0,029
-712,948	-25,979	-0,098	0,042
-711,933	3,512	-0,058	0,031
-710,918	11,373	0,041	0,023
-709,904	-38,358	0,061	-0,024
-708,889	47,378	-0,156	-0,106
-707,875	180,617	-0,020	-0,022
-706,860	-17,513	-0,062	-0,029
-705,845	-200,000	0,000	0,023
-704,831	361,482	-0,119	0,176
-703,816	26,091	0,036	0,022
-702,802	-196,978	0,071	0,000
-701,787	164,254	-0,119	-0,123
-700,772	77,828	0,031	0,025
-699,758	-200,000	-0,015	-0,082
-698,743	-200,000	0,028	0,096
-697,729	56,180	0,063	0,045
-696,714	-155,142	0,078	-0,004
-695,699	134,020	-0,054	-0,051
-694,685	325,229	-0,019	0,027
-693,670	148,336	-0,044	-0,043
-692,656	288,502	0,013	0,017
-691,641	23,122	0,057	-0,034
-690,627	248,668	-0,061	0,075
-689,612	276,765	-0,048	-0,062
-688,597	35,090	0,053	-0,034
-687,583	-109,614	-0,078	-0,012
-686,568	-45,078	-0,156	-0,057
-685,554	-37,894	-0,145	0,056
-684,539	-200,000	-0,012	-0,057
-683,524	-118,959	0,118	-0,015
-682,510	-200,000	-0,004	0,058
-681,495	322,164	0,041	-0,058
-680,481	413,961	-0,031	0,049
-679,466	-200,000	-0,032	-0,196
-678,451	236,019	0,097	-0,118
-677,437	228,907	-0,064	0,077
-676,422	4,634	-0,075	0,040
-675,408	163,224	0,021	0,022
-674,393	-200,000	-0,058	-0,206
-673,378	800,000	-0,087	-0,184
-672,364	-25,292	0,094	-0,041
-671,349	64,544	-0,048	-0,035
-670,335	-97,518	-0,027	0,005
-669,320	-200,000	-0,007	0,051
-668,305	800,000	-0,029	0,091
-667,291	800,000	-0,049	-0,131
-666,276	596,066	-0,069	-0,125
-665,262	-163,261	-0,159	-0,005
-664,247	-200,000	-0,020	0,099
-663,232	-200,000	0,012	-0,042
-662,218	-68,952	-0,028	0,008
-661,203	-200,000	0,001	0,090
-660,189	-107,682	0,038	0,006
-659,174	1,260	-0,070	-0,037
-658,159	123,791	0,091	-0,083
-657,145	-66,899	-0,037	0,011
-656,130	41,651	0,020	0,013
-655,116	800,000	-0,037	-0,092
-654,101	49,862	0,096	0,066
-653,086	141,276	-0,076	0,074
-652,072	33,997	-0,080	-0,051
-651,057	800,000	-0,082	-0,233
-650,043	102,775	-0,063	-0,054
-649,028	336,965	0,054	0,077
-648,014	-28,947	0,110	0,046
-646,999	128,561	0,034	0,032
-645,984	-8,912	-0,133	0,065
-644,970	800,000	-0,031	0,074
-643,955	800,000	-0,017	-0,045
-642,941	305,128	-0,080	-0,109
-641,926	70,559	-0,152	0,115
-640,911	155,563	0,160	-0,161
-639,897	96,263	-0,097	-0,081
-638,882	-200,000	-0,016	-0,108
-637,868	468,541	0,047	-0,077
-636,853	454,173	-0,053	-0,086
-635,838	800,000	0,023	0,054
-634,824	-180,086	0,073	0,001
-633,809	-191,922	0,094	0,001
-632,795	800,000	0,058	0,144
-631,780	800,000	-0,013	-0,038
-630,765	800,000	-0,032	-0,083
-629,751	-91,839	-0,093	-0,019
-628,736	-200,000	0,030	-0,150
-627,722	587,992	-0,095	-0,172
-626,707	112,457	-0,044	0,039
-625,692	65,527	0,046	-0,034
-624,678	-119,730	-0,038	-0,005
-623,663	-200,000	-0,032	-0,117
-622,649	-105,321	-0,098	0,016
-621,634	-200,000	-0,029	-0,099
-620,619	256,178	0,021	0,026
-619,605	800,000	-0,070	0,189
-618,590	196,503	0,046	0,052
-617,576	118,684	-0,095	0,086
-616,561	-2,597	-0,037	-0,019
-615,546	292,599	-0,101	-0,135
-614,532	169,296	-0,070	-0,073
-613,517	-200,000	-0,004	0,025
-612,503	52,450	-0,026	-0,018
-611,488	42,563	0,152	-0,101
-610,474	-184,923	0,045	-0,001
-609,459	-52,820	-0,067	0,022
-608,444	170,451	0,077	-0,080
-607,430	266,266	-0,014	-0,017
-606,415	-200,000	0,005	0,093
-605,401	800,000	0,019	-0,045
-604,386	800,000	0,045	0,115
-603,371	464,481	0,061	0,101
-602,357	-149,410	-0,077	-0,004
-601,342	-11,332	-0,096	-0,046
-600,328	300,787	0,036	0,049
-599,313	44,932	-0,137	0,092
-598,298	565,311	-0,033	-0,059
-597,284	524,404	0,104	0,179
-596,269	141,080	-0,059	0,058
-595,255	13,649	0,124	0,071
-594,240	-73,624	-0,127	-0,034
-593,225	109,910	-0,103	-0,091
-592,211	464,097	-0,024	0,039
-591,196	-110,708	-0,133	0,020
-590,182	-105,119	0,117	0,019
-589,167	-147,721	0,111	-0,007
-588,152	698,040	0,045	-0,086
-587,138	14,342	0,039	-0,022
-586,123	-200,000	0,019	-0,125
-585,109	-200,000	-0,013	0,092
-584,094	297,006	0,082	-0,111
-583,079	-200,000	0,023	0,099
-582,065	72,769	0,086	0,066
-581,050	-29,521	-0,103	0,043
-580,036	-29,035	0,108	0,045
-579,021	180,864	-0,021	-0,022
-578,006	-89,644	-0,094	0,020
-576,992	-14,519	0,040	0,019
-575,977	-200,000	0,042	0,179
-574,963	-200,000	-0,002	-0,030
-573,948	76,159	0,075	0,058
-572,934	223,552	-0,021	0,025
-571,919	-44,461	-0,087	-0,031
-570,904	471,831	0,037	-0,061
-569,890	800,000	0,038	-0,109
-568,875	800,000	-0,083	-0,173
-567,861	-200,000	-0,009	0,135
-566,846	206,042	-0,039	0,044
-565,831	-200,000	-0,015	-0,094
-564,817	-118,827	-0,134	0,017
-563,802	-54,363	-0,063	-0,021
-562,788	-200,000	-0,003	0,029
-561,773	291,404	0,074	-0,099
-560,758	58,182	0,108	-0,077
-559,744	551,947	-0,084	0,149
-558,729	319,212	0,046	-0,064
-557,715	48,094	0,068	0,046
-556,700	50,622	-0,087	-0,060
-555,685	-41,795	0,106	-0,039
-554,671	-200,000	-0,008	0,036
-553,656	-200,000	0,005	-0,043
-552,642	18,111	-0,006	-0,004
-551,627	-200,000	0,048	-0,182
-550,612	800,000	-0,061	-0,143
-549,598	265,081	-0,077	-0,098
-548,583	150,415	-0,048	-0,048
-547,569	-200,000	-0,005	0,129
-546,554	-85,756	0,081	0,018
-545,539	-200,000	0,002	-0,025
-544,525	53,600	-0,068	0,048
-543,510	-92,622	-0,033	0,007
-542,496	-124,695	-0,152	-0,017
-541,481	800,000	0,053	0,126
-540,466	290,289	0,025	0,033
-539,452	308,756	-0,066	0,090
-538,437	-200,000	-0,007	0,025
-537,423	249,253	-0,055	0,068
-536,408	535,094	0,059	-0,103
-535,393	313,066	-0,094	-0,129
-534,379	61,547	-0,116	-0,084
-533,364	-200,000	-0,040	0,171
-532,350	-200,000	-0,026	-0,095
-531,335	166,651	0,124	-0,128
-530,321	800,000	0,017	-0,052
-529,306	-64,713	0,057	0,017
-528,291	-91,710	-0,108	-0,022
-527,277	-200,000	0,002	0,033
-526,262	-164,879	0,064	0,002
-525,248	254,470	0,042	0,053
-524,233	-200,000	0,016	0,112
-523,218	-132,290	-0,076	-0,007
-522,204	-93,289	-0,129	-0,026
-521,189	-200,000	-0,002	-0,008
-520,175	5,943	-0,141	0,076
-519,160	-200,000	0,012	-0,110
-518,145	629,294	-0,044	0,081
-517,131	79,470	-0,073	0,057
-516,116	-95,022	-0,107	0,021
-515,102	333,348	-0,086	-0,122
-514,087	339,107	0,072	-0,102
-513,072	699,895	-0,035	0,068
-512,058	269,787	0,082	-0,105
-511,043	603,490	0,049	0,089
-510,029	33,017	0,135	0,085
-509,014	-200,000	-0,043	-0,171
-507,999	-200,000	-0,009	0,128
-506,985	548,957	-0,067	0,117
-505,970	-3,940	0,018	-0,009
-504,956	-200,000	-0,005	0,048
-503,941	-0,531	0,080	-0,041
-502,926	-200,000	0,013	0,065
-501,912	8,688	0,063	0,035
-500,897	42,177	0,106	0,070
-499,883	-200,000	-0,011	0,052
-498,868	-98,261	-0,213	-0,039
-497,853	454,989	0,031	0,049
-496,839	-8,219	0,071	-0,035
-495,824	7,948	-0,080	0,044
-494,810	397,933	0,006	0,010
-493,795	340,750	0,040	-0,058
-492,781	466,403	0,037	-0,060
-491,766	-58,572	-0,145	-0,046
-490,751	800,000	-0,037	-0,084
-489,737	-200,000	0,002	0,087
-488,722	-200,000	-0,012	0,179
-487,708	472,158	0,128	0,211
-486,693	-200,000	-0,014	0,050
-485,678	800,000	-0,027	0,068
-484,664	-2,437	-0,059	0,030
-483,649	-200,000	-0,000	-0,036
-482,635	800,000	0,028	-0,072
-481,620	-200,000	-0,007	-0,025
-480,605	800,000	0,063	0,137
-479,591	-200,000	0,045	0,224
-478,576	75,320	0,010	-0,008
-477,562	800,000	0,027	-0,081
-476,547	-200,000	0,023	0,076
-475,532	800,000	0,025	0,061
-474,518	800,000	0,020	-0,048
-473,503	800,000	0,028	-0,071
-472,489	428,440	0,053	0,083
-471,474	95,215	0,060	0,050
-470,459	800,000	0,027	-0,075
-469,445	800,000	0,029	-0,076
-468,430	20,448	-0,095	0,056
-467,416	69,725	0,042	-0,032
-466,401	14,155	-0,072	0,041
-465,386	-96,706	0,047	0,009
-464,372	-26,346	-0,036	0,015
-463,357	21,331	0,111	-0,065
-462,343	27,381	-0,064	0,039
-461,328	-77,019	0,068	-0,017
-460,313	-200,000	-0,016	-0,083
-459,299	800,000	0,037	-0,091
-458,284	242,468	0,069	0,084
-457,270	-48,237	-0,054	0,019
-456,255	-28,258	0,044	-0,018
-455,241	777,533	-0,040	-0,079
-454,226	-23,863	0,079	-0,034
-453,211	800,000	-0,021	-0,056
-452,197	800,000	0,020	-0,064
-451,182	2,006	0,028	-0,015
-450,168	800,000	-0,009	-0,027
-449,153	68,745	-0,046	0,034
-448,138	-54,578	-0,159	0,052
-447,124	-200,000	0,014	-0,170
-446,109	-22,626	-0,040	0,018
-445,095	94,252	0,057	0,047
-444,080	718,103	-0,036	0,069
-443,065	291,378	-0,033	0,044
-442,051	-200,000	0,004	0,028
-441,036	-23,010	-0,075	0,033
-440,022	71,352	-0,050	-0,037
-439,007	13,128	-0,019	0,011
-437,992	-47,634	-0,039	-0,014
-436,978	-200,000	-0,000	0,064
-435,963	538,957	0,044	0,077
-434,949	113,660	-0,089	0,079
-433,934	-200,000	-0,017	-0,166
-432,919	143,236	0,153	-0,148
-431,905	464,100	0,030	0,049
-430,890	800,000	0,056	0,136
-429,876	-66,250	0,071	-0,020
-428,861	-6,557	0,134	0,066
-427,846	44,351	-0,110	-0,074
-426,832	60,285	-0,088	-0,063
-425,817	166,760	-0,059	0,061
-424,803	-69,262	-0,018	0,005
-423,788	800,000	-0,040	-0,101
-422,773	800,000	0,015	0,038
-421,759	589,164	0,012	0,021
-420,744	514,912	0,004	-0,007
-419,730	74,460	0,024	-0,019
-418,715	-88,224	-0,084	0,018
-417,701	-159,774	0,060	-0,002
-416,686	75,448	0,112	0,086
-415,671	126,908	0,019	0,017
-414,657	-200,000	0,027	0,153
-413,642	-108,732	0,083	0,013
-412,628	278,235	-0,015	-0,019
-411,613	-179,624	-0,030	0,000
-410,598	41,831	0,085	0,056
-409,584	66,950	0,112	0,083
-408,569	51,294	0,091	0,063
-407,555	120,087	0,020	-0,018
-406,540	-200,000	0,001	-0,033
-405,525	-96,930	0,117	0,022
-404,511	0,118	-0,090	-0,046
-403,496	49,814	-0,054	-0,037
-402,482	198,385	0,082	-0,091
-401,467	261,424	-0,068	-0,086
-400,452	-200,000	0,036	0,161
-399,438	-200,000	0,002	0,160
-398,423	221,553	0,084	0,098
-397,409	-49,753	0,007	0,002
-396,394	-35,346	-0,012	-0,005
-395,379	21,763	0,098	-0,058
-394,365	-66,023	-0,175	-0,050
-393,350	174,685	0,083	0,087
-392,336	8,582	0,163	-0,089
-391,321	165,789	-0,109	-0,112
-390,306	576,297	-0,045	-0,080
-389,292	-123,449	0,053	-0,006
-388,277	184,510	0,087	-0,093
-387,263	800,000	-0,014	-0,033
-386,248	-200,000	0,012	0,064
-385,233	340,599	0,087	0,124
-384,219	-200,000	0,009	-0,050
-383,204	-200,000	0,002	-0,118
-382,190	149,157	-0,106	-0,104
-381,175	34,122	-0,028	0,018
-380,160	297,571	-0,054	0,072
-379,146	-200,000	-0,023	0,113
-378,131	-200,000	0,009	0,127
-377,117	277,213	-0,054	0,070
-376,102	398,825	-0,073	-0,110
-375,088	-200,000	-0,037	-0,153
-374,073	74,875	-0,043	0,033
-373,058	-153,453	-0,056	-0,003
-372,044	-200,000	-0,021	0,079
-371,029	63,919	0,067	0,049
-370,015	800,000	0,012	-0,026
-369,000	800,000	0,026	-0,055
-367,985	-34,551	-0,058	-0,023
-366,971	-200,000	-0,007	-0,027
-365,956	-200,000	-0,005	0,028
-364,942	97,566	0,042	0,035
-363,927	260,219	-0,040	0,050
-362,912	-200,000	-0,039	0,165
-361,898	160,345	-0,068	-0,069
-360,883	-200,000	-0,043	-0,204
-359,869	364,926	0,066	-0,097
-358,854	-59,330	0,104	-0,032
-357,839	15,887	0,151	0,086
-356,825	-144,531	-0,072	0,005
-355,810	800,000	0,042	0,100
-354,796	-159,771	-0,114	0,004
-353,781	-10,167	0,059	-0,029
-352,766	800,000	0,027	-0,087
-351,752	590,489	0,031	-0,055
-350,737	-200,000	0,006	0,073
-349,723	147,321	-0,052	-0,050
-348,708	-200,000	-0,002	0,118
-347,693	42,458	0,042	-0,027
-346,679	-134,507	0,113	0,010
-345,664	56,214	0,158	0,111
-344,650	643,320	-0,042	0,078
-343,635	408,662	0,066	-0,101
-342,620	-200,000	0,038	0,128
-341,606	-190,254	0,168	0,001
-340,591	-128,381	-0,084	-0,008
-339,577	66,882	0,026	-0,019
-338,562	-99,612	-0,128	-0,023
-337,548	-200,000	0,017	-0,102
-336,533	295,863	-0,048	-0,064
-335,518	-124,560	0,085	-0,009
-334,504	-140,950	-0,042	-0,003
-333,489	-109,335	0,084	0,013
-332,475	800,000	-0,023	0,053
-331,460	-200,000	0,020	0,130
-330,445	-31,638	0,096	-0,039
-329,431	-200,000	0,031	0,128
-328,416	800,000	0,006	0,018
-327,402	-200,000	0,004	0,072
-326,387	53,461	-0,082	-0,057
-325,372	-200,000	-0,011	-0,090
-324,358	502,437	0,093	-0,156
-323,343	800,000	0,019	0,044
-322,329	60,725	0,144	-0,103
-321,314	-82,063	0,052	-0,012
-320,299	-200,000	0,030	0,114
-319,285	-18,067	-0,034	0,015
-318,270	-200,000	-0,030	-0,178
-317,256	-200,000	-0,024	-0,094
-316,241	800,000	-0,043	-0,112
-315,226	-27,317	-0,031	-0,013
-314,212	800,000	0,032	0,095
-313,197	127,380	0,011	0,010
-312,183	405,748	-0,075	0,116
-311,168	-200,000	-0,010	-0,048
-310,153	112,900	-0,084	0,073
-309,139	-101,882	0,227	-0,039
-308,124	800,000	0,055	0,116
-307,110	-200,000	-0,027	0,111
-306,095	-200,000	-0,003	0,137
-305,080	119,741	-0,048	-0,043
-304,066	47,656	0,113	-0,076
-303,051	800,000	0,046	-0,103
-302,037	20,287	-0,068	0,039
-301,022	800,000	0,038	0,116
-300,008	-139,311	0,202	0,015
-298,993	-200,000	0,002	-0,103
-297,978	-21,858	-0,027	-0,012
-296,964	-147,120	-0,140	-0,009
-295,949	-82,189	0,081	0,019
-294,935	-200,000	0,001	-0,032
-293,920	218,331	0,008	0,009
-292,905	56,183	0,026	-0,018
-291,891	549,564	-0,020	0,035
-290,876	63,530	-0,121	0,088
-289,862	-200,000	-0,025	0,147
-288,847	-128,512	-0,055	-0,006
-287,832	-20,703	0,030	-0,013
-286,818	800,000	0,042	0,122
-285,803	-20,906	0,052	-0,023
-284,789	-200,000	0,019	0,135
-283,774	275,576	0,101	-0,129
-282,759	-192,206	0,031	-0,000
-281,745	-200,000	0,037	-0,145
-280,730	563,273	0,028	-0,050
-279,716	-4,954	-0,034	-0,017
-278,701	-72,239	0,043	0,012
-277,686	-66,183	0,056	0,016
-276,672	208,882	0,057	0,064
-275,657	-65,976	-0,103	0,029
-274,643	-200,000	0,015	-0,119
-273,628	-61,375	-0,064	0,019
-272,613	800,000	0,007	0,021
-271,599	-200,000	0,001	-0,045
-270,584	-19,866	0,120	0,053
-269,570	163,408	0,087	0,089
-268,555	43,598	-0,174	0,115
-267,540	-90,142	-0,053	-0,011
-266,526	-72,420	0,140	0,037
-265,511	-19,659	-0,123	-0,055
-264,497	-200,000	0,035	0,149
-263,482	159,850	0,053	0,053
-262,467	-200,000	0,013	-0,067
-261,453	-12,910	-0,101	-0,047
-260,438	491,143	0,022	0,036
-259,424	-19,250	-0,043	-0,019
-258,409	55,740	-0,055	-0,038
-257,395	4,734	0,098	0,052
-256,380	-200,000	-0,018	0,063
-255,365	633,492	-0,037	0,068
-254,351	-161,849	-0,033	0,001
-253,336	-54,724	-0,090	-0,029
-252,322	481,930	0,042	-0,069
-251,307	-52,933	0,061	0,020
-250,292	136,705	-0,046	-0,044
-249,278	301,569	-0,013	-0,018
-248,263	-200,000	0,020	-0,144
-247,249	-200,000	0,006	-0,052
-246,234	-151,648	0,157	0,008
-245,219	26,807	-0,018	-0,011
-244,205	800,000	-0,016	0,050
-243,190	-200,000	0,019	-0,206
-242,176	-59,626	0,090	-0,028
-241,161	-200,000	-0,014	0,070
-240,146	65,004	-0,118	0,086
-239,132	329,824	-0,017	0,023
-238,117	264,606	-0,023	-0,029
-237,103	-200,000	0,008	0,042
-236,088	-200,000	-0,014	-0,050
-235,073	-200,000	-0,002	-0,047
-234,059	63,342	0,056	0,041
-233,044	247,648	-0,056	-0,068
-232,030	-84,562	-0,082	0,019
-231,015	-30,599	0,057	-0,023
-230,000	-0,850	-0,180	-0,092
-228,986	-200,000	0,006	0,041
-227,971	-41,459	0,112	0,041
-226,957	474,562	-0,016	-0,026
-225,942	-200,000	-0,011	0,095
-224,927	-200,000	-0,005	0,083
-223,913	60,532	-0,052	0,037
-222,898	-178,171	-0,145	0,002
-221,884	108,338	-0,097	0,083
-220,869	800,000	0,026	0,065
-219,855	-200,000	0,047	0,154
-218,840	137,861	0,097	0,092
-217,825	-200,000	0,016	-0,104
-216,811	-200,000	-0,015	-0,171
-215,796	-115,103	-0,095	0,013
-214,782	634,763	-0,025	0,047
-213,767	21,530	-0,026	-0,015
-212,752	800,000	0,029	0,073
-211,738	800,000	0,029	-0,078
-210,723	-77,073	0,094	0,024
-209,709	69,119	-0,099	-0,073
-208,694	165,857	0,035	-0,036
-207,679	179,563	-0,088	-0,092
-206,665	51,563	-0,055	-0,038
-205,650	-200,000	-0,030	0,163
-204,636	29,150	0,093	-0,057
-203,621	-34,054	0,003	0,001
-202,606	-200,000	-0,007	-0,067
-201,592	-200,000	-0,014	-0,204
-200,577	160,674	-0,115	-0,115
-199,563	657,842	0,068	-0,127
-198,548	77,521	-0,013	-0,010
-197,533	-200,000	0,016	0,053
-196,519	-65,239	0,012	-0,003
-195,504	194,352	-0,085	0,093
-194,490	-45,069	-0,084	0,030
-193,475	-72,801	-0,142	-0,037
-192,460	-41,076	-0,050	0,018
-191,446	762,462	-0,044	0,086
-190,431	-8,489	0,056	0,027
-189,417	119,781	-0,030	0,027
-188,402	-81,367	-0,144	0,034
-187,387	-21,577	-0,117	0,051
-186,373	5,291	0,043	-0,023
-185,358	-84,153	0,112	0,025
-184,344	52,990	-0,022	0,015
-183,329	162,202	-0,138	-0,140
-182,315	-200,000	0,006	-0,168
-181,300	-136,856	-0,111	0,009
-180,285	-142,925	0,081	-0,006
-179,271	184,964	-0,147	-0,157
-178,256	-200,000	0,038	-0,126
-177,242	-200,000	0,020	-0,086
-176,227	152,085	0,041	0,041
-175,212	-86,433	0,274	-0,060
-174,198	5,891	-0,077	-0,041
-173,183	64,549	-0,032	0,023
-172,169	492,568	-0,012	0,021
-171,154	-172,140	-0,033	-0,001
-170,139	-149,898	-0,049	0,003
-169,125	467,423	-0,058	0,094
-168,110	40,499	0,132	0,086
-167,096	800,000	0,027	-0,067
-166,081	-51,073	-0,103	-0,035
-165,066	-200,000	0,032	0,125
-164,052	-200,000	-0,009	-0,037
-163,037	800,000	0,036	-0,091
-162,023	-165,620	0,082	0,003
-161,008	434,551	0,086	-0,135
-159,993	650,505	0,034	-0,063
-158,979	278,528	0,037	-0,047
-157,964	-60,843	-0,032	-0,010
-156,950	-200,000	-0,001	0,016
-155,935	800,000	0,050	0,116
-154,920	-143,641	0,119	-0,008
-153,906	-200,000	0,014	0,087
-152,891	-125,476	0,094	-0,010
-151,877	800,000	0,021	0,058
-150,862	156,572	0,041	0,041
-149,847	-200,000	0,025	-0,174
-148,833	-10,696	-0,120	0,057
-147,818	192,165	0,058	0,063
-146,804	309,592	0,091	0,122
-145,789	-119,537	0,020	0,002
-144,775	-200,000	-0,019	-0,080
-143,760	-167,420	-0,106	-0,003
-142,745	710,526	-0,034	0,064
-141,731	38,199	0,104	0,066
-140,716	36,673	0,049	-0,031
-139,702	-200,000	-0,019	0,133
-138,687	-77,452	-0,007	-0,002
-137,672	468,578	0,061	-0,098
-136,658	91,557	0,032	-0,026
-135,643	-48,727	-0,085	0,029
-134,629	-200,000	0,007	-0,058
-133,614	-30,145	-0,197	-0,080
-132,599	800,000	-0,012	0,025
-131,585	-57,931	0,094	0,029
-130,570	193,093	0,109	-0,119
-129,556	177,155	-0,059	0,061
-128,541	-60,844	0,062	0,019
-127,526	-34,424	0,089	0,035
-126,512	25,218	-0,054	0,032
-125,497	-200,000	0,010	0,068
-124,483	228,705	0,093	0,109
-123,468	-200,000	0,034	-0,157
-122,453	247,791	-0,052	-0,063
-121,439	242,795	-0,013	-0,015
-120,424	800,000	-0,035	-0,074
-119,410	13,731	0,086	-0,048
-118,395	-31,507	0,102	0,041
