DTS Sentinel unit serial number:	SN410029Multiplexer serial number:	ORYXHardware model number:	OX2-SRSoftware version number:	ORYX F/W v4,00 Oryx Data Collector v3.7.2.0data status	okinstallation	B6 Nyhavnadifferential loss correction	single-endedforward channel	channel 2reverse channel	N/Adate	2023/12/09time	06:40:08forward acquisition time	300,00reverse acquisition time	0,00gamma	499,1914k internal	0,3140k external	0,3140temperature offset calibration	1,0000default loss term (dB/km)	0,3820temperature slope calibration	1,0000multiplexer offset coefficient	1,0000multiplexer slope coefficient	1,0000fibre end	0,00T internal ref (°C)	18,50T ext. ref 1 (°C)	2,22T ext. ref 2 (°C)	2,23length (m)	temperature (°C)	Stokes	anti-Stokes-744,400	-200,000	0,026	-0,100
-743,385	-38,576	-0,146	0,057
-742,371	91,292	0,131	0,109
-741,356	-121,511	-0,319	0,039
-740,342	236,755	0,037	-0,046
-739,327	-128,360	-0,366	0,038
-738,312	797,918	0,104	-0,214
-737,298	-34,545	-0,163	0,066
-736,283	707,713	-0,070	-0,138
-735,269	-114,097	-0,176	0,025
-734,254	-200,000	-0,001	0,070
-733,239	-25,016	-0,431	-0,189
-732,225	164,992	0,018	0,019
-731,210	235,649	-0,052	0,064
-730,196	496,915	-0,085	0,146
-729,181	-97,377	-0,072	-0,014
-728,167	496,360	-0,053	0,091
-727,152	262,198	0,047	-0,061
-726,137	-126,734	-0,025	0,003
-725,123	-36,410	-0,098	-0,039
-724,108	89,046	-0,023	-0,019
-723,094	96,950	-0,019	0,016
-722,079	-77,509	-0,118	-0,030
-721,064	-171,907	0,166	-0,004
-720,050	-51,083	-0,160	-0,055
-719,035	302,825	0,021	-0,029
-718,021	-10,356	-0,067	0,033
-717,006	-1,830	-0,045	0,023
-715,991	534,370	-0,077	-0,136
-714,977	-200,000	-0,010	-0,219
-713,962	-200,000	0,018	-0,081
-712,948	-200,000	-0,001	-0,056
-711,933	237,922	-0,038	0,047
-710,918	53,085	-0,105	-0,075
-709,904	-2,011	0,162	-0,084
-708,889	-200,000	0,023	-0,124
-707,875	389,535	-0,041	-0,063
-706,860	-123,290	-0,059	-0,007
-705,845	330,559	-0,038	0,054
-704,831	308,928	0,017	0,024
-703,816	295,680	0,027	-0,036
-702,802	127,193	-0,042	-0,040
-701,787	781,849	-0,023	-0,048
-700,772	-200,000	-0,047	-0,170
-699,758	188,031	0,067	-0,074
-698,743	46,970	0,057	0,039
-697,729	-9,243	0,115	0,057
-696,714	-152,370	-0,071	0,004
-695,699	89,275	-0,162	-0,133
-694,685	40,596	-0,083	-0,055
-693,670	-200,000	0,001	-0,067
-692,656	-200,000	0,013	0,085
-691,641	-200,000	-0,009	0,102
-690,627	90,143	0,076	-0,063
-689,612	-200,000	-0,023	0,105
-688,597	132,457	-0,093	0,089
-687,583	-42,322	0,072	0,027
-686,568	320,287	-0,168	-0,236
-685,554	-200,000	0,018	-0,104
-684,539	800,000	0,022	-0,057
-683,524	52,343	-0,100	0,071
-682,510	-181,624	0,036	0,001
-681,495	12,385	0,047	0,027
-680,481	-200,000	-0,007	0,051
-679,466	-71,046	-0,165	-0,045
-678,451	-147,616	-0,176	0,011
-677,437	-45,853	-0,025	-0,009
-676,422	192,368	-0,035	-0,039
-675,408	20,653	0,043	0,026
-674,393	41,368	-0,095	0,064
-673,378	436,391	0,032	0,052
-672,364	664,330	0,046	-0,088
-671,349	-129,003	-0,202	0,021
-670,335	691,205	-0,019	0,037
-669,320	-124,151	0,153	-0,017
-668,305	-200,000	-0,010	-0,058
-667,291	800,000	0,044	-0,111
-666,276	-57,259	-0,047	0,015
-665,262	800,000	-0,041	-0,114
-664,247	-181,305	-0,078	-0,001
-663,232	800,000	-0,022	-0,056
-662,218	423,094	0,057	0,091
-661,203	-188,221	-0,095	-0,001
-660,189	-33,564	-0,122	0,050
-659,174	-116,148	-0,033	-0,004
-658,159	1,255	-0,181	-0,096
-657,145	-200,000	0,028	-0,110
-656,130	-200,000	-0,013	0,046
-655,116	383,110	-0,021	0,033
-654,101	800,000	0,024	0,072
-653,086	559,149	-0,063	0,112
-652,072	800,000	-0,020	0,061
-651,057	76,335	-0,054	-0,042
-650,043	800,000	0,033	0,089
-649,028	75,647	-0,029	0,023
-648,014	424,311	0,049	0,078
-646,999	161,704	0,127	0,132
-645,984	-18,806	-0,116	0,053
-644,970	800,000	0,041	-0,098
-643,955	3,037	-0,125	0,067
-642,941	-130,861	0,064	-0,006
-641,926	-200,000	-0,014	-0,129
-640,911	-200,000	0,007	0,039
-639,897	-200,000	0,003	-0,087
-638,882	221,098	-0,020	-0,023
-637,868	-200,000	-0,000	-0,072
-636,853	-17,705	-0,101	0,047
-635,838	227,636	0,076	0,091
-634,824	-200,000	0,011	0,045
-633,809	103,943	-0,024	-0,021
-632,795	-200,000	0,021	0,141
-631,780	18,578	0,039	0,023
-630,765	-200,000	-0,010	-0,106
-629,751	283,505	-0,024	-0,032
-628,736	-200,000	-0,027	0,089
-627,722	15,477	-0,091	0,053
-626,707	0,077	-0,135	0,071
-625,692	29,913	0,016	-0,010
-624,678	32,442	-0,037	0,023
-623,663	-200,000	-0,015	-0,076
-622,649	-17,034	-0,066	-0,031
-621,634	552,384	0,033	-0,058
-620,619	37,570	0,057	0,037
-619,605	-72,974	0,152	0,041
-618,590	387,770	-0,026	-0,040
-617,576	-200,000	0,005	0,093
-616,561	-89,612	0,071	-0,015
-615,546	475,676	-0,044	-0,074
-614,532	18,700	-0,063	-0,037
-613,517	572,422	0,081	-0,145
-612,503	189,967	0,107	-0,118
-611,488	-108,707	0,098	0,015
-610,474	435,484	0,077	0,124
-609,459	-200,000	-0,012	0,106
-608,444	102,874	0,121	-0,104
-607,430	12,670	-0,128	-0,072
-606,415	257,574	-0,025	-0,032
-605,401	-125,909	-0,130	0,014
-604,386	-200,000	0,018	0,160
-603,371	-200,000	0,012	-0,164
-602,357	731,920	0,063	-0,125
-601,342	-200,000	-0,009	-0,078
-600,328	-144,552	-0,082	-0,006
-599,313	-200,000	0,002	0,102
-598,298	-148,231	-0,023	0,001
-597,284	-200,000	0,000	0,069
-596,269	-200,000	0,013	-0,045
-595,255	-6,213	0,024	-0,012
-594,240	190,401	0,070	0,078
-593,225	632,621	-0,011	-0,021
-592,211	278,409	0,030	0,039
-591,196	91,215	0,060	0,050
-590,182	-66,890	-0,119	-0,035
-589,167	800,000	0,043	-0,118
-588,152	-138,635	-0,019	-0,002
-587,138	37,227	-0,112	-0,073
-586,123	169,401	-0,030	-0,032
-585,109	-200,000	0,003	-0,091
-584,094	263,616	0,019	-0,025
-583,079	626,891	0,089	0,167
-582,065	197,779	-0,048	0,054
-581,050	-78,438	0,191	0,048
-580,036	-87,211	0,097	-0,022
-579,021	-200,000	-0,027	-0,223
-578,006	-59,030	-0,040	-0,013
-576,992	108,130	-0,084	-0,074
-575,977	-145,113	0,210	-0,014
-574,963	376,579	-0,072	-0,108
-573,948	-160,673	0,025	0,001
-572,934	187,891	0,025	0,028
-571,919	84,282	-0,133	-0,107
-570,904	177,750	0,037	-0,039
-569,890	-200,000	-0,013	0,067
-568,875	22,552	-0,081	-0,049
-567,861	800,000	0,021	0,043
-566,846	-200,000	-0,027	0,165
-565,831	-200,000	0,052	-0,180
-564,817	-200,000	-0,002	0,164
-563,802	329,187	-0,021	-0,030
-562,788	-200,000	-0,007	0,042
-561,773	304,340	0,031	0,042
-560,758	103,484	0,108	-0,093
-559,744	117,211	0,006	-0,005
-558,729	-61,621	0,104	-0,032
-557,715	-174,479	0,063	0,001
-556,700	118,138	-0,036	-0,033
-555,685	574,022	-0,004	-0,008
-554,671	-138,892	0,147	0,012
-553,656	-17,903	-0,028	-0,013
-552,642	-200,000	-0,014	-0,076
-551,627	-98,716	-0,024	0,005
-550,612	800,000	-0,070	-0,144
-549,598	800,000	-0,032	0,099
-548,583	21,688	-0,091	-0,054
-547,569	-200,000	-0,009	-0,125
-546,554	-200,000	0,012	0,066
-545,539	800,000	0,009	-0,024
-544,525	368,625	-0,021	0,032
-543,510	-154,706	-0,090	0,004
-542,496	800,000	0,024	-0,061
-541,481	222,150	-0,056	-0,066
-540,466	-45,181	0,050	-0,018
-539,452	-200,000	0,003	-0,017
-538,437	-200,000	-0,037	-0,128
-537,423	62,948	-0,063	0,047
-536,408	-77,817	-0,151	-0,038
-535,393	-95,373	0,126	-0,025
-534,379	-200,000	-0,013	-0,052
-533,364	126,737	-0,052	-0,049
-532,350	-88,323	-0,047	-0,010
-531,335	15,289	0,106	-0,061
-530,321	210,708	0,027	-0,031
-529,306	233,417	0,068	-0,082
-528,291	121,805	-0,121	-0,111
-527,277	267,405	0,076	0,098
-526,262	85,891	-0,073	-0,059
-525,248	800,000	-0,036	0,085
-524,233	800,000	0,023	-0,056
-523,218	407,710	0,129	0,200
-522,204	-200,000	-0,016	0,095
-521,189	26,386	0,032	0,019
-520,175	-200,000	-0,017	0,101
-519,160	538,331	0,090	-0,159
-518,145	-167,484	0,070	0,002
-517,131	166,687	0,083	-0,086
-516,116	-200,000	0,018	0,090
-515,102	-138,302	0,077	-0,006
-514,087	195,816	0,022	0,024
-513,072	538,280	-0,004	0,008
-512,058	74,259	0,081	-0,063
-511,043	-133,101	0,082	0,008
-510,029	-200,000	0,013	0,047
-509,014	-65,372	-0,094	0,028
-507,999	-92,982	0,094	-0,019
-506,985	89,948	-0,145	-0,119
-505,970	-4,310	-0,134	0,068
-504,956	-200,000	-0,004	-0,086
-503,941	340,817	0,033	-0,048
-502,926	98,751	0,040	-0,034
-501,912	-18,231	0,058	0,027
-500,897	245,090	-0,060	0,074
-499,883	-200,000	-0,017	-0,102
-498,868	800,000	-0,015	-0,044
-497,853	-200,000	0,003	-0,019
-496,839	598,075	0,058	-0,107
-495,824	-3,636	0,091	-0,046
-494,810	-200,000	-0,020	-0,100
-493,795	-200,000	-0,052	-0,167
-492,781	58,610	-0,096	-0,069
-491,766	101,888	-0,063	-0,054
-490,751	-152,373	-0,010	0,001
-489,737	-200,000	-0,002	-0,049
-488,722	521,575	0,042	-0,072
-487,708	-200,000	0,040	-0,135
-486,693	-61,410	-0,103	0,032
-485,678	-200,000	0,002	0,091
-484,664	-50,214	-0,048	0,017
-483,649	-200,000	-0,007	0,062
-482,635	-200,000	-0,011	-0,061
-481,620	-200,000	-0,001	0,045
-480,605	-121,796	0,115	0,014
-479,591	800,000	0,031	-0,076
-478,576	800,000	0,035	-0,083
-477,562	-200,000	0,008	0,055
-476,547	89,863	-0,071	0,058
-475,532	319,711	-0,038	-0,053
-474,518	-84,950	0,126	0,029
-473,503	-200,000	-0,050	0,165
-472,489	-200,000	-0,008	-0,038
-471,474	104,001	-0,091	0,079
-470,459	-33,314	-0,099	0,040
-469,445	219,408	-0,116	-0,137
-468,430	-24,807	-0,063	-0,027
-467,416	-112,749	0,024	0,003
-466,401	800,000	0,042	0,091
-465,386	-200,000	-0,001	0,006
-464,372	-200,000	-0,041	0,178
-463,357	800,000	-0,018	-0,050
-462,343	578,229	-0,063	-0,113
-461,328	-149,201	0,055	-0,003
-460,313	-200,000	0,013	0,095
-459,299	-200,000	0,007	0,154
-458,284	-200,000	-0,046	0,183
-457,270	-29,020	-0,124	0,052
-456,255	315,981	-0,060	-0,084
-455,241	-26,128	-0,045	0,020
-454,226	800,000	-0,042	-0,111
-453,211	-200,000	-0,022	0,130
-452,197	800,000	0,078	0,163
-451,182	118,197	-0,030	-0,027
-450,168	-24,085	-0,134	0,058
-449,153	-81,929	0,151	0,036
-448,138	190,381	-0,068	0,075
-447,124	-200,000	0,010	0,035
-446,109	800,000	0,014	0,032
-445,095	349,192	0,026	0,037
-444,080	289,401	0,064	0,086
-443,065	133,734	-0,174	0,165
-442,051	800,000	0,024	0,061
-441,036	-74,357	-0,083	0,022
-440,022	164,836	0,046	0,048
-439,007	-53,625	0,068	0,023
-437,992	-69,334	-0,025	0,007
-436,978	-0,919	0,117	-0,060
-435,963	134,951	0,058	-0,055
-434,949	-110,414	-0,066	0,010
-433,934	69,057	0,053	-0,040
-432,919	213,545	-0,029	-0,033
-431,905	20,254	0,052	-0,030
-430,890	308,181	0,035	-0,049
-429,876	-200,000	-0,120	-0,000
-428,861	-89,107	0,144	0,031
-427,846	14,944	0,064	-0,037
-426,832	800,000	-0,039	-0,089
-425,817	534,809	0,046	-0,081
-424,803	57,099	-0,107	0,077
-423,788	-30,282	-0,078	0,032
-422,773	-200,000	0,050	0,236
-421,759	-44,375	-0,052	0,019
-420,744	800,000	-0,020	0,063
-419,730	800,000	0,025	-0,055
-418,715	-200,000	0,013	-0,079
-417,701	-73,106	-0,088	0,023
-416,686	263,522	0,120	0,153
-415,671	-109,731	0,133	-0,020
-414,657	-200,000	-0,006	0,123
-413,642	-200,000	-0,001	-0,035
-412,628	-200,000	0,005	0,024
-411,613	-200,000	-0,002	0,122
-410,598	505,313	-0,081	-0,138
-409,584	-127,625	0,096	-0,010
-408,569	11,810	0,129	-0,072
-407,555	295,036	0,103	0,138
-406,540	287,862	0,037	0,049
-405,525	-60,211	0,028	-0,009
-404,511	-200,000	0,004	-0,057
-403,496	-24,021	-0,068	-0,030
-402,482	800,000	-0,018	-0,058
-401,467	-50,241	0,124	-0,043
-400,452	-179,741	-0,107	-0,002
-399,438	13,946	-0,079	0,045
-398,423	800,000	0,041	-0,115
-397,409	272,526	-0,059	0,077
-396,394	-200,000	-0,000	-0,017
-395,379	800,000	-0,056	0,156
-394,365	74,883	0,034	-0,026
-393,350	-200,000	-0,009	0,135
-392,336	490,116	-0,036	0,061
-391,321	13,800	-0,039	-0,022
-390,306	-118,536	0,031	0,004
-389,292	518,811	0,053	-0,091
-388,277	-178,532	0,179	-0,003
-387,263	6,768	0,080	0,043
-386,248	-9,112	0,110	0,053
-385,233	318,711	-0,054	0,074
-384,219	271,207	0,051	-0,065
-383,204	800,000	0,014	-0,039
-382,190	-182,229	0,087	0,001
-381,175	-110,993	0,041	-0,006
-380,160	207,232	0,062	0,071
-379,146	-200,000	0,001	0,071
-378,131	-200,000	0,019	0,179
-377,117	-23,940	0,126	0,055
-376,102	-33,968	-0,083	-0,033
-375,088	-29,775	-0,130	0,054
-374,073	84,860	-0,078	0,062
-373,058	-0,804	-0,010	0,005
-372,044	418,680	0,009	0,013
-371,029	-127,591	0,062	-0,006
-370,015	800,000	-0,042	0,111
-369,000	510,081	-0,100	-0,171
-367,985	-67,382	-0,059	-0,017
-366,971	51,519	0,077	0,053
-365,956	-104,340	0,060	0,010
-364,942	-200,000	0,006	-0,034
-363,927	800,000	0,031	-0,091
-362,912	608,130	0,064	0,117
-361,898	-35,749	0,040	0,016
-360,883	-145,870	-0,015	-0,001
-359,869	-200,000	-0,025	0,099
-358,854	43,203	-0,109	0,073
-357,839	800,000	0,073	0,161
-356,825	-142,838	0,073	-0,005
-355,810	-86,019	0,037	-0,008
-354,796	-48,606	-0,089	0,031
-353,781	800,000	0,019	-0,039
-352,766	-200,000	-0,010	0,074
-351,752	1,689	0,057	-0,030
-350,737	-47,171	0,108	-0,038
-349,723	800,000	-0,015	-0,048
-348,708	-200,000	0,014	0,056
-347,693	9,804	0,041	0,023
-346,679	478,071	0,034	-0,057
-345,664	800,000	-0,025	-0,064
-344,650	-200,000	-0,003	0,013
-343,635	800,000	0,039	0,089
-342,620	800,000	0,046	-0,115
-341,606	-118,417	-0,083	-0,011
-340,591	37,867	0,050	-0,032
-339,577	775,471	0,030	-0,059
-338,562	800,000	-0,072	-0,153
-337,548	-200,000	-0,013	0,082
-336,533	-200,000	0,035	0,114
-335,518	-200,000	0,019	0,100
-334,504	-200,000	-0,022	-0,078
-333,489	30,313	-0,018	-0,011
-332,475	-25,528	-0,054	-0,023
-331,460	-200,000	-0,038	-0,147
-330,445	63,823	0,067	0,049
-329,431	453,919	-0,026	-0,042
-328,416	-173,030	0,118	0,003
-327,402	183,666	0,029	-0,031
-326,387	-200,000	-0,018	-0,133
-325,372	-152,385	0,135	-0,007
-324,358	-98,316	-0,084	-0,016
-323,343	240,073	-0,033	-0,040
-322,329	800,000	0,021	0,044
-321,314	35,862	0,006	0,004
-320,299	-200,000	0,030	0,110
-319,285	-111,037	-0,061	0,009
-318,270	-8,748	-0,146	-0,071
-317,256	76,618	0,020	-0,015
-316,241	-200,000	-0,009	-0,165
-315,226	421,681	-0,127	-0,199
-314,212	-113,420	-0,087	0,012
-313,197	-6,299	0,162	0,080
-312,183	-143,185	-0,027	-0,002
-311,168	-47,850	0,081	-0,028
-310,153	-153,414	-0,080	0,004
-309,139	-200,000	-0,009	-0,143
-308,124	646,428	-0,025	-0,047
-307,110	204,950	-0,120	0,136
-306,095	-200,000	-0,013	0,147
-305,080	-152,778	0,075	-0,004
-304,066	-38,844	-0,026	0,010
-303,051	34,680	-0,090	0,057
-302,037	-158,737	-0,068	0,003
-301,022	-79,613	0,052	-0,013
-300,008	-153,825	0,033	-0,002
-298,993	800,000	-0,022	0,057
-297,978	-87,776	0,043	-0,009
-296,964	-200,000	0,004	0,068
-295,949	145,568	-0,051	0,050
-294,935	777,430	-0,023	-0,046
-293,920	-86,688	-0,071	0,016
-292,905	-98,129	0,091	-0,017
-291,891	-45,227	0,047	0,017
-290,876	-43,176	0,085	0,031
-289,862	367,208	0,101	-0,150
-288,847	-25,807	-0,083	-0,035
-287,832	63,507	-0,087	-0,063
-286,818	101,180	0,056	-0,048
-285,803	-133,660	0,052	0,005
-284,789	-40,515	0,128	0,048
-283,774	364,584	0,070	-0,103
-282,759	45,593	-0,058	0,039
-281,745	48,478	0,028	0,019
-280,730	-121,326	0,004	-0,000
-279,716	-84,319	0,085	0,019
-278,701	-200,000	-0,021	-0,134
-277,686	-59,289	0,151	0,047
-276,672	-200,000	-0,029	0,096
-275,657	732,226	0,017	0,034
-274,643	800,000	-0,054	0,118
-273,628	-149,034	0,112	-0,006
-272,613	-93,427	-0,117	-0,023
-271,599	800,000	-0,019	0,048
-270,584	-200,000	0,004	0,223
-269,570	190,495	0,077	0,085
-268,555	2,302	-0,051	0,027
-267,540	-99,034	-0,053	-0,010
-266,526	-200,000	0,006	-0,110
-265,511	-200,000	0,009	-0,142
-264,497	-200,000	0,007	0,093
-263,482	71,635	0,087	0,066
-262,467	27,355	0,072	-0,044
-261,453	-86,881	-0,113	0,025
-260,438	58,612	-0,068	-0,049
-259,424	-91,877	-0,070	0,014
-258,409	-200,000	0,001	-0,078
-257,395	179,953	0,053	0,056
-256,380	-177,224	0,081	-0,001
-255,365	391,369	0,014	0,022
-254,351	-89,629	0,113	0,024
-253,336	109,598	-0,045	0,040
-252,322	74,755	-0,069	-0,053
-251,307	-86,323	-0,056	0,012
-250,292	-200,000	0,008	-0,056
-249,278	-200,000	-0,013	-0,042
-248,263	-200,000	0,009	0,038
-247,249	-200,000	0,041	0,148
-246,234	-67,250	-0,022	-0,006
-245,219	286,319	0,125	-0,164
-244,205	124,515	-0,100	-0,092
-243,190	33,685	0,116	-0,073
-242,176	800,000	-0,006	0,017
-241,161	-200,000	0,009	0,034
-240,146	-55,370	-0,057	-0,018
-239,132	-24,484	-0,028	0,012
-238,117	136,301	-0,043	0,041
-237,103	-28,732	-0,065	-0,027
-236,088	800,000	0,024	-0,049
-235,073	51,041	0,054	0,037
-234,059	28,778	-0,053	0,033
-233,044	206,499	-0,165	0,187
-232,030	-200,000	-0,009	0,088
-231,015	-5,792	-0,068	-0,034
-230,000	96,847	-0,063	-0,053
-228,986	732,014	-0,016	-0,032
-227,971	800,000	-0,016	-0,034
-226,957	-79,229	0,089	0,022
-225,942	46,588	0,033	-0,022
-224,927	800,000	0,032	-0,079
-223,913	-34,701	-0,083	-0,033
-222,898	800,000	-0,015	-0,041
-221,884	800,000	-0,044	0,111
-220,869	-200,000	0,008	0,065
-219,855	62,875	0,039	-0,028
-218,840	193,455	-0,047	-0,052
-217,825	359,668	-0,065	-0,095
-216,811	91,380	-0,191	-0,156
-215,796	5,453	-0,040	0,021
-214,782	-31,428	0,043	-0,017
-213,767	171,739	0,034	0,035
-212,752	193,649	-0,026	0,028
-211,738	-62,511	0,183	0,055
-210,723	-181,091	-0,008	0,000
-209,709	-19,480	-0,113	-0,051
-208,694	34,899	0,048	-0,030
-207,679	122,164	-0,071	-0,064
-206,665	427,992	0,052	0,082
-205,650	-200,000	-0,024	0,176
-204,636	81,147	0,090	-0,070
-203,621	64,275	0,081	0,059
-202,606	-5,199	-0,131	0,065
-201,592	800,000	-0,006	0,014
-200,577	-200,000	0,003	-0,131
-199,563	800,000	0,011	0,031
-198,548	31,725	-0,051	0,032
-197,533	167,832	-0,044	0,046
-196,519	-78,234	0,032	0,008
-195,504	719,650	-0,013	0,026
-194,490	800,000	0,014	-0,040
-193,475	149,507	0,122	-0,120
-192,460	-200,000	-0,003	0,012
-191,446	-200,000	0,024	0,155
-190,431	800,000	0,021	-0,046
-189,417	-200,000	-0,001	-0,057
-188,402	-55,757	-0,069	0,022
-187,387	675,962	0,022	-0,041
-186,373	109,553	-0,015	0,013
-185,358	211,830	-0,019	0,022
-184,344	456,570	-0,001	-0,001
-183,329	581,985	0,067	0,119
-182,315	-200,000	0,008	0,060
-181,300	800,000	0,033	0,072
-180,285	-200,000	-0,007	-0,031
-179,271	66,685	-0,063	-0,047
-178,256	-200,000	-0,007	-0,072
-177,242	-57,579	-0,065	-0,021
-176,227	-69,601	-0,020	-0,006
-175,212	136,458	-0,096	0,091
-174,198	-200,000	0,007	0,089
-173,183	-200,000	-0,017	0,061
-172,169	-200,000	0,014	-0,049
-171,154	58,934	-0,155	-0,110
-170,139	-34,150	-0,173	0,069
-169,125	-67,150	0,131	0,037
-168,110	800,000	0,020	0,052
-167,096	645,601	-0,074	-0,138
-166,081	100,853	0,038	-0,032
-165,066	-113,629	-0,078	0,011
-164,052	-124,420	-0,181	-0,020
-163,037	-31,835	0,062	0,025
-162,023	576,702	-0,018	-0,031
-161,008	688,729	-0,073	-0,140
-159,993	800,000	0,042	-0,127
-158,979	455,522	0,069	0,112
-157,964	800,000	-0,024	-0,075
-156,950	-0,555	0,233	0,119
-155,935	-119,025	-0,087	0,011
-154,920	-200,000	0,008	0,030
-153,906	7,991	-0,098	0,053
-152,891	776,801	-0,066	-0,131
-151,877	-2,525	0,132	-0,067
-150,862	-200,000	-0,013	0,060
-149,847	785,577	-0,060	-0,120
-148,833	800,000	-0,023	0,069
-147,818	-200,000	-0,015	-0,051
-146,804	-135,431	-0,119	-0,010
-145,789	21,634	-0,100	0,059
-144,775	-54,628	0,047	-0,015
-143,760	-86,754	0,060	-0,013
-142,745	155,794	0,048	-0,048
-141,731	517,260	0,071	-0,120
-140,716	118,659	0,046	-0,041
-139,702	104,824	0,133	0,113
-138,687	120,955	0,127	0,114
-137,672	-200,000	0,004	-0,096
-136,658	104,376	0,066	0,056
-135,643	-200,000	-0,043	0,172
-134,629	-168,929	-0,156	-0,004
-133,614	-79,555	0,124	0,030
-132,599	792,233	-0,062	0,124
-131,585	616,051	0,080	0,146
-130,570	119,346	0,051	0,046
-129,556	-187,213	0,079	0,001
-128,541	29,960	-0,025	-0,015
-127,526	-25,096	-0,102	0,044
-126,512	17,024	-0,102	0,058
-125,497	46,357	-0,131	0,087
-124,483	-200,000	-0,008	-0,093
-123,468	-109,285	0,123	0,019
-122,453	-117,712	-0,127	-0,016
-121,439	-200,000	0,045	-0,151
-120,424	306,229	0,038	0,052
-119,410	-200,000	-0,005	-0,092
