DTS Sentinel unit serial number:	SN410029Multiplexer serial number:	ORYXHardware model number:	OX2-SRSoftware version number:	ORYX F/W v4,00 Oryx Data Collector v3.7.2.0data status	okinstallation	B6 Nyhavnadifferential loss correction	single-endedforward channel	channel 2reverse channel	N/Adate	2023/12/10time	10:10:08forward acquisition time	300,00reverse acquisition time	0,00gamma	499,1914k internal	0,3123k external	0,3123temperature offset calibration	1,0000default loss term (dB/km)	0,3820temperature slope calibration	1,0000multiplexer offset coefficient	1,0000multiplexer slope coefficient	1,0000fibre end	0,00T internal ref (°C)	22,56T ext. ref 1 (°C)	6,38T ext. ref 2 (°C)	6,37length (m)	temperature (°C)	Stokes	anti-Stokes-744,400	65,345	-0,081	-0,061
-743,385	124,153	-0,238	0,223
-742,371	-107,518	0,110	0,018
-741,356	4,701	-0,219	0,120
-740,342	800,000	0,028	-0,064
-739,327	-54,103	-0,258	0,087
-738,312	800,000	0,017	-0,049
-737,298	-115,197	-0,231	0,032
-736,283	117,891	-0,097	-0,089
-735,269	36,870	-0,165	0,108
-734,254	670,630	0,076	0,148
-733,239	-35,516	-0,380	-0,153
-732,225	-161,496	0,157	0,006
-731,210	-200,000	0,014	-0,050
-730,196	800,000	0,012	-0,034
-729,181	-177,822	-0,059	0,001
-728,167	800,000	-0,019	-0,061
-727,152	-0,102	0,035	-0,018
-726,137	-18,693	-0,089	-0,041
-725,123	104,084	-0,081	0,071
-724,108	-78,076	-0,093	0,024
-723,094	-200,000	-0,004	-0,090
-722,079	-149,649	-0,171	-0,010
-721,064	800,000	-0,039	-0,096
-720,050	800,000	-0,029	-0,073
-719,035	30,490	-0,061	0,039
-718,021	37,663	-0,092	0,060
-717,006	-122,695	-0,066	-0,008
-715,991	784,521	-0,042	-0,087
-714,977	42,950	0,069	-0,047
-713,962	-200,000	-0,003	-0,041
-712,948	-200,000	-0,048	-0,216
-711,933	119,563	0,046	0,043
-710,918	83,132	0,036	0,029
-709,904	513,686	-0,061	-0,106
-708,889	800,000	-0,057	-0,158
-707,875	-146,387	-0,094	0,006
-706,860	-108,123	-0,031	-0,005
-705,845	-200,000	0,001	-0,067
-704,831	-177,700	0,096	0,002
-703,816	-11,100	-0,088	0,043
-702,802	-200,000	0,010	-0,120
-701,787	-84,786	-0,131	-0,030
-700,772	-200,000	-0,017	0,149
-699,758	-200,000	0,000	0,025
-698,743	82,042	0,070	-0,057
-697,729	422,921	0,019	0,030
-696,714	-69,392	0,104	0,029
-695,699	141,305	-0,115	-0,114
-694,685	-10,299	0,014	0,007
-693,670	75,415	0,014	0,011
-692,656	258,643	-0,112	-0,145
-691,641	314,986	-0,076	0,107
-690,627	-64,279	0,070	-0,021
-689,612	67,008	-0,060	-0,046
-688,597	42,773	-0,154	-0,104
-687,583	417,727	-0,058	-0,093
-686,568	-12,201	0,060	-0,029
-685,554	120,939	-0,089	-0,083
-684,539	-38,246	0,113	0,044
-683,524	-95,364	0,108	-0,021
-682,510	-200,000	-0,013	0,053
-681,495	-200,000	0,009	0,212
-680,481	52,906	-0,028	-0,020
-679,466	29,089	-0,121	-0,076
-678,451	800,000	0,016	0,047
-677,437	-109,771	-0,083	-0,013
-676,422	-160,098	0,107	-0,004
-675,408	-162,756	-0,110	-0,004
-674,393	20,058	-0,020	0,012
-673,378	29,065	0,034	0,022
-672,364	794,621	-0,063	-0,130
-671,349	-200,000	-0,015	-0,156
-670,335	-200,000	0,005	-0,080
-669,320	-19,158	-0,061	-0,028
-668,305	-200,000	0,011	-0,053
-667,291	579,515	-0,017	0,030
-666,276	800,000	0,046	0,129
-665,262	63,069	-0,133	-0,099
-664,247	88,155	-0,041	-0,034
-663,232	90,655	-0,037	-0,031
-662,218	3,308	0,049	0,027
-661,203	-0,294	0,091	-0,048
-660,189	51,586	0,100	0,070
-659,174	-160,931	-0,131	0,005
-658,159	-200,000	0,002	-0,008
-657,145	702,729	-0,039	-0,077
-656,130	70,091	-0,078	0,060
-655,116	-200,000	-0,003	0,050
-654,101	800,000	0,033	0,079
-653,086	-160,098	0,013	0,001
-652,072	-66,666	-0,110	-0,032
-651,057	144,429	-0,110	-0,110
-650,043	248,521	-0,035	-0,044
-649,028	152,980	0,062	-0,063
-648,014	175,358	-0,081	0,087
-646,999	-200,000	-0,001	0,099
-645,984	218,616	0,017	0,021
-644,970	60,536	-0,033	0,024
-643,955	217,057	-0,030	-0,035
-642,941	-200,000	0,023	-0,091
-641,926	-99,547	0,062	-0,011
-640,911	215,533	0,048	-0,057
-639,897	800,000	-0,036	0,084
-638,882	-200,000	-0,026	-0,146
-637,868	-124,618	-0,077	0,009
-636,853	800,000	0,026	-0,061
-635,838	-200,000	-0,005	-0,219
-634,824	-200,000	0,024	0,088
-633,809	-200,000	0,002	0,041
-632,795	-200,000	0,019	0,130
-631,780	-17,751	-0,103	0,048
-630,765	800,000	-0,034	-0,099
-629,751	-150,017	-0,094	0,005
-628,736	-200,000	-0,026	-0,220
-627,722	-1,957	0,105	0,054
-626,707	293,297	0,061	-0,082
-625,692	-30,562	0,121	0,051
-624,678	-110,677	0,156	0,024
-623,663	139,879	-0,096	-0,094
-622,649	-34,840	0,154	0,062
-621,634	800,000	-0,049	-0,153
-620,619	-106,566	-0,132	-0,022
-619,605	-182,828	0,094	-0,001
-618,590	470,643	0,032	0,053
-617,576	-168,367	0,014	0,000
-616,561	46,044	-0,137	0,094
-615,546	-200,000	-0,001	0,021
-614,532	255,129	-0,055	-0,070
-613,517	-16,619	-0,163	-0,076
-612,503	24,030	-0,091	0,055
-611,488	87,150	0,029	-0,024
-610,474	800,000	0,050	-0,137
-609,459	111,217	-0,012	-0,011
-608,444	-200,000	0,017	0,081
-607,430	-23,306	0,059	-0,026
-606,415	179,532	-0,034	-0,037
-605,401	35,737	-0,045	0,029
-604,386	-91,412	0,023	-0,005
-603,371	-137,393	-0,104	-0,009
-602,357	5,603	0,124	-0,068
-601,342	-2,855	-0,164	0,085
-600,328	-69,560	-0,118	-0,033
-599,313	533,640	-0,109	-0,192
-598,298	137,696	0,031	0,030
-597,284	-200,000	-0,008	0,039
-596,269	-92,203	0,039	0,008
-595,255	-85,462	0,150	0,034
-594,240	316,187	-0,026	0,037
-593,225	428,717	-0,079	-0,127
-592,211	-132,676	0,113	-0,011
-591,196	-200,000	0,000	-0,043
-590,182	800,000	-0,049	0,132
-589,167	10,329	-0,061	-0,034
-588,152	-106,760	0,089	0,015
-587,138	187,081	0,052	-0,057
-586,123	-22,453	-0,111	-0,049
-585,109	-156,503	0,065	-0,003
-584,094	205,513	-0,111	-0,128
-583,079	-30,882	0,107	-0,045
-582,065	407,300	0,074	0,116
-581,050	266,789	0,037	0,048
-580,036	199,715	-0,036	0,041
-579,021	-200,000	0,010	-0,081
-578,006	-160,657	0,012	-0,000
-576,992	-113,141	-0,066	0,009
-575,977	-80,494	0,088	0,022
-574,963	403,114	-0,063	0,098
-573,948	-98,067	-0,075	-0,014
-572,934	31,532	0,029	0,018
-571,919	-9,282	-0,006	0,003
-570,904	363,450	-0,073	-0,108
-569,890	-91,888	-0,081	-0,017
-568,875	538,752	-0,008	-0,015
-567,861	659,951	-0,040	0,077
-566,846	-200,000	0,048	0,000
-565,831	-135,162	0,063	-0,006
-564,817	800,000	0,016	0,049
-563,802	800,000	-0,032	-0,100
-562,788	-200,000	-0,005	0,038
-561,773	53,276	0,049	-0,034
-560,758	-200,000	-0,007	0,046
-559,744	-36,205	-0,083	-0,033
-558,729	-136,021	-0,107	0,009
-557,715	195,256	-0,005	0,005
-556,700	-122,035	-0,135	0,016
-555,685	37,399	-0,095	-0,062
-554,671	-81,214	0,176	-0,043
-553,656	-93,778	0,132	-0,027
-552,642	-200,000	-0,022	0,171
-551,627	-113,781	-0,080	-0,011
-550,612	164,391	-0,025	0,026
-549,598	-200,000	0,024	0,115
-548,583	-200,000	-0,016	0,164
-547,569	-62,184	0,139	0,043
-546,554	-200,000	-0,008	0,071
-545,539	137,402	-0,087	0,084
-544,525	-159,535	0,100	-0,004
-543,510	-166,283	0,137	0,004
-542,496	751,686	0,009	-0,018
-541,481	-125,231	-0,069	-0,008
-540,466	490,775	0,084	-0,142
-539,452	-36,038	-0,093	-0,037
-538,437	403,088	0,061	0,096
-537,423	94,053	0,075	0,063
-536,408	19,477	-0,052	-0,031
-535,393	-142,500	-0,032	-0,002
-534,379	-200,000	-0,035	-0,173
-533,364	-200,000	0,002	0,035
-532,350	-200,000	-0,004	-0,015
-531,335	66,859	-0,087	0,065
-530,321	48,208	0,054	0,038
-529,306	800,000	-0,024	0,053
-528,291	-84,573	-0,087	-0,020
-527,277	-200,000	0,003	0,137
-526,262	-200,000	-0,000	-0,087
-525,248	800,000	-0,041	0,116
-524,233	290,586	0,115	0,155
-523,218	-200,000	0,055	0,184
-522,204	-144,806	0,067	0,004
-521,189	-109,185	0,051	-0,008
-520,175	-38,114	-0,071	-0,028
-519,160	800,000	-0,026	0,067
-518,145	15,756	-0,041	0,024
-517,131	309,454	0,051	-0,071
-516,116	128,616	0,041	-0,038
-515,102	800,000	-0,017	-0,051
-514,087	-200,000	-0,006	0,036
-513,072	-9,764	-0,093	0,045
-512,058	101,832	-0,086	-0,074
-511,043	161,017	0,123	0,127
-510,029	800,000	0,037	0,117
-509,014	42,630	-0,092	0,062
-507,999	147,689	0,076	0,076
-506,985	-100,205	-0,039	-0,007
-505,970	800,000	-0,038	-0,118
-504,956	46,388	0,089	-0,061
-503,941	-59,496	-0,065	-0,020
-502,926	800,000	-0,013	0,035
-501,912	148,797	0,077	0,077
-500,897	-131,663	-0,027	-0,003
-499,883	-157,974	-0,193	-0,008
-498,868	66,090	-0,128	-0,096
-497,853	-200,000	0,001	0,006
-496,839	-200,000	0,033	-0,112
-495,824	-48,091	0,102	0,036
-494,810	119,693	-0,021	0,019
-493,795	800,000	0,024	-0,055
-492,781	-29,688	-0,085	-0,036
-491,766	800,000	-0,040	0,102
-490,751	800,000	0,075	-0,170
-489,737	377,835	-0,059	-0,089
-488,722	-200,000	-0,025	0,141
-487,708	5,333	0,109	-0,059
-486,693	-200,000	0,001	-0,070
-485,678	51,259	0,113	0,079
-484,664	745,153	0,028	0,055
-483,649	-33,888	-0,019	0,008
-482,635	100,024	0,076	-0,065
-481,620	-200,000	-0,005	0,093
-480,605	-200,000	0,028	0,129
-479,591	-81,582	0,160	-0,038
-478,576	368,639	0,064	-0,095
-477,562	-200,000	0,001	0,029
-476,547	306,881	0,078	-0,108
-475,532	262,498	-0,020	0,026
-474,518	308,064	0,030	0,041
-473,503	-200,000	0,086	0,000
-472,489	-200,000	0,018	-0,069
-471,474	-200,000	-0,022	-0,119
-470,459	-198,187	-0,060	-0,000
-469,445	-50,697	-0,074	-0,026
-468,430	800,000	-0,034	-0,080
-467,416	-40,290	0,026	-0,010
-466,401	22,143	0,111	0,067
-465,386	110,795	-0,052	0,046
-464,372	800,000	-0,019	-0,041
-463,357	-128,317	0,013	-0,001
-462,343	272,792	0,036	-0,047
-461,328	800,000	-0,057	0,149
-460,313	-200,000	0,006	-0,076
-459,299	131,605	0,115	-0,109
-458,284	392,185	-0,051	0,078
-457,270	659,998	0,086	0,163
-456,255	800,000	-0,042	-0,099
-455,241	-127,216	-0,146	-0,015
-454,226	800,000	-0,071	-0,157
-453,211	-200,000	0,006	0,111
-452,197	-200,000	-0,022	-0,158
-451,182	800,000	0,006	-0,016
-450,168	-39,207	-0,108	0,042
-449,153	-145,916	0,200	-0,013
-448,138	351,338	-0,093	0,137
-447,124	-200,000	0,009	0,123
-446,109	81,525	-0,054	0,043
-445,095	-49,037	-0,203	0,071
-444,080	303,659	0,050	0,068
-443,065	-200,000	0,031	0,101
-442,051	321,995	0,071	0,100
-441,036	-200,000	-0,006	0,072
-440,022	-155,467	-0,026	-0,001
-439,007	110,707	0,033	0,029
-437,992	-200,000	-0,017	0,134
-436,978	-200,000	0,007	-0,130
-435,963	-157,314	0,053	-0,002
-434,949	95,970	0,050	0,042
-433,934	-26,206	0,117	-0,050
-432,919	-134,764	-0,119	0,011
-431,905	800,000	-0,048	0,113
-430,890	-200,000	0,005	0,096
-429,876	29,343	0,038	0,024
-428,861	-200,000	-0,012	0,128
-427,846	13,659	-0,106	-0,061
-426,832	-76,364	-0,063	-0,016
-425,817	-200,000	0,015	-0,070
-424,803	98,856	-0,061	-0,052
-423,788	800,000	-0,035	0,097
-422,773	736,412	0,015	-0,030
-421,759	92,367	0,162	0,135
-420,744	317,435	-0,073	0,102
-419,730	24,140	0,040	0,024
-418,715	-200,000	-0,020	-0,133
-417,701	-62,552	0,056	0,017
-416,686	321,220	-0,046	-0,065
-415,671	336,737	0,008	-0,012
-414,657	132,634	-0,090	0,085
-413,642	393,530	-0,047	-0,073
-412,628	-58,794	0,091	-0,029
-411,613	58,961	0,127	-0,092
-410,598	251,136	0,108	-0,135
-409,584	-30,370	0,012	0,005
-408,569	-30,939	0,095	0,039
-407,555	-53,372	-0,075	-0,025
-406,540	-200,000	0,001	0,072
-405,525	-142,147	0,076	-0,005
-404,511	-200,000	0,004	0,094
-403,496	-200,000	-0,013	0,046
-402,482	239,155	-0,046	0,057
-401,467	-25,154	0,045	-0,020
-400,452	105,019	-0,013	0,011
-399,438	-3,389	-0,065	-0,033
-398,423	-200,000	0,016	0,058
-397,409	-200,000	-0,002	-0,046
-396,394	-200,000	-0,003	-0,099
-395,379	-19,352	-0,041	0,019
-394,365	800,000	0,046	-0,104
-393,350	-54,722	0,023	-0,007
-392,336	-200,000	0,034	0,138
-391,321	459,019	0,050	-0,082
-390,306	-23,975	-0,106	-0,046
-389,292	23,081	-0,089	0,054
-388,277	-1,992	0,067	0,035
-387,263	124,794	0,023	-0,021
-386,248	-77,039	-0,029	-0,007
-385,233	-200,000	0,012	0,119
-384,219	104,133	0,080	-0,069
-383,204	193,598	-0,056	-0,063
-382,190	-69,722	-0,066	0,018
-381,175	-32,887	0,056	0,023
-380,160	-21,144	0,115	0,051
-379,146	-53,313	0,110	0,037
-378,131	-174,329	0,097	0,002
-377,117	83,786	-0,046	0,037
-376,102	-200,000	-0,014	-0,049
-375,088	-200,000	0,010	-0,039
-374,073	474,234	-0,093	-0,155
-373,058	-200,000	0,008	-0,131
-372,044	-88,997	0,164	-0,035
-371,029	800,000	-0,029	-0,086
-370,015	72,595	0,135	-0,103
-369,000	-55,668	-0,072	-0,023
-367,985	-200,000	0,011	-0,083
-366,971	545,773	0,019	-0,033
-365,956	161,193	0,087	0,089
-364,942	42,492	-0,076	0,051
-363,927	615,958	-0,063	-0,117
-362,912	111,872	-0,025	-0,022
-361,898	-17,752	0,112	-0,052
-360,883	21,824	-0,100	0,060
-359,869	19,849	-0,088	-0,052
-358,854	-200,000	-0,011	0,043
-357,839	-88,464	-0,082	-0,018
-356,825	-164,475	-0,166	-0,005
-355,810	384,408	0,022	0,033
-354,796	22,747	-0,015	0,009
-353,781	357,731	-0,040	0,058
-352,766	-200,000	0,006	-0,101
-351,752	-200,000	-0,026	-0,084
-350,737	50,028	0,084	0,058
-349,723	199,287	0,123	0,138
-348,708	-81,419	-0,065	0,016
-347,693	-162,637	0,014	0,000
-346,679	16,662	-0,037	-0,021
-345,664	-0,356	0,096	-0,050
-344,650	-86,267	-0,023	0,005
-343,635	-200,000	0,113	0,000
-342,620	-80,367	0,077	0,019
-341,606	-108,725	0,047	-0,007
-340,591	-200,000	-0,011	-0,079
-339,577	-200,000	0,010	-0,078
-338,562	-19,839	0,048	-0,022
-337,548	-200,000	0,012	0,061
-336,533	99,050	0,118	0,100
-335,518	800,000	-0,049	0,136
-334,504	44,750	-0,044	-0,030
-333,489	-146,532	-0,011	-0,001
-332,475	-81,586	-0,082	-0,020
-331,460	359,190	0,027	-0,039
-330,445	110,562	0,113	0,099
-329,431	800,000	0,018	-0,048
-328,416	-150,316	0,069	-0,004
-327,402	-200,000	-0,004	0,032
-326,387	11,518	0,029	-0,016
-325,372	-200,000	-0,018	-0,108
-324,358	247,589	-0,077	0,095
-323,343	-38,023	0,110	-0,043
-322,329	-100,088	0,058	-0,011
-321,314	70,611	0,094	0,071
-320,299	-156,079	0,190	-0,009
-319,285	-114,306	0,068	-0,010
-318,270	800,000	-0,040	-0,095
-317,256	-59,936	-0,139	-0,043
-316,241	-40,692	0,088	0,033
-315,226	291,205	-0,095	0,127
-314,212	800,000	0,050	0,103
-313,197	-103,923	0,028	0,005
-312,183	-62,153	-0,073	-0,022
-311,168	713,385	-0,032	0,063
-310,153	631,828	-0,048	0,090
-309,139	11,757	-0,082	-0,046
-308,124	-200,000	0,008	-0,036
-307,110	-77,908	0,060	-0,015
-306,095	-71,180	0,018	-0,005
-305,080	-200,000	-0,008	-0,048
-304,066	-200,000	0,024	-0,109
-303,051	-200,000	0,023	-0,123
-302,037	-49,357	-0,083	0,029
-301,022	-186,147	-0,079	0,001
-300,008	-200,000	-0,001	-0,035
-298,993	149,868	0,068	0,067
-297,978	800,000	0,070	-0,161
-296,964	-91,202	-0,158	-0,033
-295,949	-200,000	-0,028	-0,102
-294,935	800,000	-0,023	-0,058
-293,920	160,565	-0,076	-0,077
-292,905	398,893	-0,038	0,059
-291,891	117,582	0,190	0,171
-290,876	11,411	0,046	0,026
-289,862	-0,432	0,101	0,052
-288,847	800,000	-0,015	-0,035
-287,832	352,231	-0,066	0,095
-286,818	-200,000	0,012	0,077
-285,803	-81,314	-0,136	0,033
-284,789	54,692	0,085	0,060
-283,774	-200,000	0,007	0,163
-282,759	-69,357	-0,028	0,008
-281,745	305,142	0,092	-0,126
-280,730	119,951	-0,115	-0,105
-279,716	-69,578	0,101	-0,028
-278,701	-21,648	-0,146	0,065
-277,686	-200,000	0,053	0,000
-276,672	800,000	-0,026	0,070
-275,657	-200,000	0,021	0,075
-274,643	-200,000	0,036	-0,116
-273,628	90,276	-0,047	-0,039
-272,613	-200,000	0,004	-0,038
-271,599	800,000	-0,042	-0,109
-270,584	-70,459	0,159	0,044
-269,570	296,495	-0,099	0,133
-268,555	-154,935	0,088	-0,004
-267,540	-109,077	-0,039	0,006
-266,526	-200,000	-0,005	-0,072
-265,511	379,960	0,034	0,051
-264,497	800,000	-0,079	0,183
-263,482	195,979	-0,125	-0,139
-262,467	-200,000	-0,032	0,106
-261,453	-49,426	0,083	0,029
-260,438	-21,458	-0,065	0,029
-259,424	-69,408	-0,221	0,062
-258,409	800,000	-0,075	-0,229
-257,395	736,197	0,061	0,119
-256,380	-200,000	-0,004	-0,028
-255,365	-200,000	-0,013	-0,067
-254,351	32,137	-0,037	-0,023
-253,336	800,000	-0,027	-0,081
-252,322	231,879	-0,094	-0,113
-251,307	240,015	0,096	-0,117
-250,292	-109,393	-0,074	0,011
-249,278	-109,954	0,260	-0,039
-248,263	800,000	-0,023	0,069
-247,249	373,236	-0,023	-0,035
-246,234	800,000	0,031	-0,089
-245,219	-66,671	-0,184	-0,053
-244,205	800,000	-0,059	-0,141
-243,190	314,851	-0,052	-0,071
-242,176	800,000	-0,058	-0,142
-241,161	-120,698	-0,115	-0,014
-240,146	46,771	-0,069	0,047
-239,132	800,000	0,055	0,123
-238,117	70,388	-0,051	-0,038
-237,103	611,242	-0,094	-0,172
-236,088	-200,000	-0,005	0,053
-235,073	318,087	0,068	0,094
-234,059	445,075	0,060	0,097
-233,044	-120,877	0,070	0,008
-232,030	-96,603	0,070	-0,013
-231,015	-130,575	-0,084	-0,008
-230,000	336,938	-0,073	-0,103
-228,986	241,545	-0,090	-0,110
-227,971	-190,941	0,035	-0,000
-226,957	63,493	-0,034	0,025
-225,942	-79,415	0,096	-0,023
-224,927	-200,000	0,003	-0,072
-223,913	37,107	-0,122	-0,079
-222,898	1,390	-0,035	0,018
-221,884	25,292	0,022	-0,013
-220,869	800,000	0,011	-0,027
-219,855	-98,805	0,127	-0,023
-218,840	-200,000	0,130	0,000
-217,825	-200,000	-0,034	0,122
-216,811	-57,942	-0,051	0,016
-215,796	-200,000	-0,003	-0,065
-214,782	21,305	-0,084	0,050
-213,767	80,089	0,031	-0,024
-212,752	-200,000	0,036	-0,163
-211,738	430,969	-0,074	0,117
-210,723	121,570	0,026	-0,024
-209,709	56,955	-0,080	-0,057
-208,694	124,615	-0,065	-0,060
-207,679	89,497	-0,115	-0,094
-206,665	99,862	-0,085	-0,072
-205,650	-184,018	0,149	-0,002
-204,636	354,731	-0,030	-0,044
-203,621	212,553	0,051	0,059
-202,606	526,748	0,033	0,057
-201,592	-132,812	-0,168	0,015
-200,577	175,134	0,097	-0,103
-199,563	221,079	0,006	-0,007
-198,548	-200,000	0,006	0,167
-197,533	-32,588	0,054	0,022
-196,519	800,000	-0,013	0,039
-195,504	-200,000	-0,032	-0,161
-194,490	163,496	-0,101	-0,103
-193,475	-139,801	-0,070	-0,005
-192,460	-200,000	0,016	0,071
-191,446	-200,000	-0,001	0,058
-190,431	-112,515	0,072	-0,010
-189,417	-132,101	-0,055	-0,005
-188,402	-200,000	-0,012	0,056
-187,387	-200,000	0,007	-0,083
-186,373	318,277	-0,022	0,031
-185,358	-20,919	0,015	-0,007
-184,344	762,745	-0,009	-0,018
-183,329	80,395	-0,030	-0,024
-182,315	84,221	-0,033	0,026
-181,300	-90,294	0,105	-0,022
-180,285	-33,363	0,093	0,037
-179,271	640,450	-0,078	0,146
-178,256	800,000	0,018	0,042
-177,242	-112,205	0,184	-0,027
-176,227	800,000	-0,056	0,176
-175,212	-200,000	0,022	0,146
-174,198	327,960	0,095	-0,133
-173,183	12,210	0,130	0,073
-172,169	40,179	-0,115	-0,075
-171,154	-66,610	0,054	-0,015
-170,139	329,989	0,071	0,100
-169,125	-28,140	-0,021	-0,009
-168,110	639,019	0,052	0,098
-167,096	-58,102	0,018	0,006
-166,081	-173,660	-0,115	0,002
-165,066	-200,000	0,041	-0,190
-164,052	270,862	0,094	-0,121
-163,037	28,229	0,033	-0,020
-162,023	42,339	-0,055	0,036
-161,008	-200,000	-0,003	0,077
-159,993	423,033	0,104	0,164
-158,979	11,869	-0,140	0,078
-157,964	602,927	-0,037	0,068
-156,950	-94,214	0,067	0,013
-155,935	151,491	0,048	0,048
-154,920	-200,000	0,019	0,179
-153,906	-40,435	-0,044	0,017
-152,891	178,310	0,111	0,118
-151,877	-200,000	0,004	-0,033
-150,862	800,000	-0,034	-0,104
-149,847	800,000	-0,010	0,032
-148,833	-95,955	-0,052	-0,010
-147,818	258,580	0,040	0,050
-146,804	6,903	-0,073	0,040
-145,789	-99,167	-0,108	0,020
-144,775	125,103	-0,045	0,041
-143,760	516,614	-0,052	-0,089
-142,745	334,781	-0,076	0,108
-141,731	4,631	0,024	-0,013
-140,716	-145,367	0,033	0,002
-139,702	149,045	-0,088	-0,087
-138,687	476,629	0,032	0,053
-137,672	236,576	-0,112	0,135
-136,658	176,706	-0,058	0,061
-135,643	233,438	-0,066	0,079
-134,629	609,117	-0,030	-0,054
-133,614	-116,651	0,160	0,021
-132,599	-200,000	0,002	-0,010
-131,585	-107,044	0,105	-0,017
-130,570	-200,000	0,012	0,058
-129,556	-200,000	0,012	0,040
-128,541	68,271	-0,129	0,096
-127,526	25,104	0,055	0,033
-126,512	800,000	-0,046	0,095
-125,497	800,000	0,021	0,066
-124,483	93,304	0,029	-0,024
-123,468	88,935	0,051	0,041
-122,453	-67,026	0,088	-0,025
-121,439	-21,081	0,108	-0,048
-120,424	-135,118	-0,068	0,006
