DTS Sentinel unit serial number:	SN410029Multiplexer serial number:	ORYXHardware model number:	OX2-SRSoftware version number:	ORYX F/W v4,00 Oryx Data Collector v3.7.2.0data status	okinstallation	B6 Nyhavnadifferential loss correction	single-endedforward channel	channel 2reverse channel	N/Adate	2023/12/08time	12:35:08forward acquisition time	300,00reverse acquisition time	0,00gamma	499,1914k internal	0,3159k external	0,3159temperature offset calibration	1,0000default loss term (dB/km)	0,3820temperature slope calibration	1,0000multiplexer offset coefficient	1,0000multiplexer slope coefficient	1,0000fibre end	0,00T internal ref (°C)	15,06T ext. ref 1 (°C)	-1,51T ext. ref 2 (°C)	-1,50length (m)	temperature (°C)	Stokes	anti-Stokes-744,400	89,764	-0,053	-0,043
-743,385	-90,602	-0,389	-0,082
-742,371	-93,900	0,199	0,040
-741,356	-67,733	-0,288	-0,082
-740,342	78,755	0,110	0,087
-739,327	-64,321	-0,388	0,116
-738,312	30,574	0,161	-0,101
-737,298	-154,704	-0,328	-0,016
-736,283	-176,401	0,082	-0,002
-735,269	137,364	-0,175	0,168
-734,254	507,573	-0,025	0,042
-733,239	-28,497	-0,475	-0,201
-732,225	41,345	0,233	0,155
-731,210	250,067	-0,031	0,039
-730,196	-90,414	-0,140	-0,030
-729,181	202,982	0,061	-0,070
-728,167	-101,107	-0,068	-0,012
-727,152	800,000	-0,075	-0,207
-726,137	55,870	-0,139	0,099
-725,123	-200,000	0,005	-0,057
-724,108	252,101	-0,102	-0,128
-723,094	207,423	-0,087	-0,100
-722,079	-200,000	0,032	-0,111
-721,064	174,677	-0,044	-0,047
-720,050	187,874	-0,069	-0,075
-719,035	105,030	0,036	0,031
-718,021	-64,184	-0,133	-0,040
-717,006	-200,000	-0,000	-0,075
-715,991	-200,000	-0,016	-0,179
-714,977	-51,016	-0,188	0,064
-713,962	392,780	0,049	-0,076
-712,948	-84,072	-0,100	-0,023
-711,933	-200,000	0,003	0,051
-710,918	-141,907	-0,088	-0,006
-709,904	-200,000	0,008	0,032
-708,889	214,587	0,078	0,091
-707,875	-34,237	-0,128	0,052
-706,860	-200,000	-0,005	-0,047
-705,845	105,320	0,010	-0,008
-704,831	-200,000	-0,005	-0,119
-703,816	-200,000	0,002	0,083
-702,802	800,000	0,025	0,072
-701,787	-102,113	-0,011	-0,002
-700,772	-200,000	0,002	0,052
-699,758	348,607	-0,052	-0,076
-698,743	800,000	-0,043	0,115
-697,729	-200,000	0,004	-0,072
-696,714	-200,000	0,033	0,204
-695,699	28,559	-0,102	-0,063
-694,685	-9,578	0,038	-0,019
-693,670	265,985	0,083	0,107
-692,656	-200,000	0,017	0,095
-691,641	800,000	0,010	-0,029
-690,627	-61,329	0,057	0,018
-689,612	-200,000	-0,003	-0,021
-688,597	-200,000	-0,006	-0,049
-687,583	-200,000	0,015	-0,101
-686,568	-102,385	-0,051	0,009
-685,554	-73,376	-0,037	-0,010
-684,539	-153,470	0,114	-0,006
-683,524	-14,192	-0,157	-0,074
-682,510	25,592	0,143	0,087
-681,495	-200,000	0,013	0,065
-680,481	65,504	-0,081	-0,060
-679,466	-164,344	-0,042	0,001
-678,451	-200,000	-0,038	0,137
-677,437	-200,000	-0,007	-0,029
-676,422	10,610	-0,112	0,063
-675,408	-150,579	-0,047	-0,003
-674,393	19,279	-0,097	0,057
-673,378	-165,224	0,081	0,003
-672,364	638,387	-0,084	-0,158
-671,349	-155,288	-0,147	0,007
-670,335	294,585	0,112	-0,151
-669,320	-200,000	0,035	-0,116
-668,305	800,000	0,041	0,113
-667,291	146,675	-0,048	0,047
-666,276	412,281	-0,087	-0,136
-665,262	23,193	-0,089	-0,054
-664,247	800,000	-0,041	-0,098
-663,232	800,000	0,049	-0,114
-662,218	-123,303	0,114	-0,013
-661,203	800,000	0,063	-0,148
-660,189	362,598	0,067	-0,099
-659,174	-27,897	0,022	-0,009
-658,159	-150,244	0,029	-0,002
-657,145	263,654	0,026	-0,033
-656,130	-159,969	-0,063	-0,002
-655,116	95,669	0,022	0,018
-654,101	-200,000	-0,014	-0,086
-653,086	402,913	0,050	-0,077
-652,072	99,693	-0,063	-0,053
-651,057	35,068	-0,133	-0,085
-650,043	5,956	0,126	-0,068
-649,028	493,226	-0,105	-0,177
-648,014	119,351	-0,075	0,068
-646,999	-53,150	0,130	-0,043
-645,984	-7,364	0,049	-0,024
-644,970	-200,000	-0,006	-0,049
-643,955	800,000	0,041	-0,109
-642,941	-200,000	-0,012	-0,079
-641,926	-73,428	-0,024	0,006
-640,911	164,004	0,017	-0,017
-639,897	-200,000	-0,000	0,037
-638,882	2,723	0,020	-0,011
-637,868	33,560	-0,064	-0,041
-636,853	137,219	-0,038	-0,036
-635,838	800,000	0,059	-0,122
-634,824	-69,886	-0,083	0,023
-633,809	800,000	-0,046	-0,126
-632,795	-189,899	0,185	0,001
-631,780	-36,265	-0,090	0,036
-630,765	256,531	-0,079	-0,100
-629,751	119,988	-0,074	-0,068
-628,736	445,956	0,043	-0,070
-627,722	-200,000	-0,016	-0,100
-626,707	-21,211	0,026	0,011
-625,692	333,627	-0,018	0,026
-624,678	800,000	0,021	0,065
-623,663	-200,000	-0,023	0,125
-622,649	101,054	-0,149	-0,127
-621,634	74,318	-0,075	-0,057
-620,619	800,000	0,051	-0,164
-619,605	-152,356	0,162	-0,008
-618,590	-106,504	0,105	-0,017
-617,576	348,920	-0,102	0,148
-616,561	-75,687	-0,061	0,016
-615,546	-106,744	-0,148	0,024
-614,532	-200,000	0,028	-0,129
-613,517	351,254	0,056	-0,081
-612,503	348,809	-0,025	-0,037
-611,488	-13,813	-0,054	0,026
-610,474	47,339	-0,074	0,050
-609,459	-200,000	-0,014	-0,111
-608,444	-200,000	-0,006	0,076
-607,430	192,426	-0,069	-0,077
-606,415	800,000	-0,016	-0,041
-605,401	-39,660	0,047	-0,018
-604,386	800,000	-0,055	0,112
-603,371	-2,628	0,154	0,079
-602,357	533,648	-0,054	-0,094
-601,342	-28,263	-0,136	-0,057
-600,328	639,161	0,067	-0,126
-599,313	-200,000	0,002	0,006
-598,298	631,894	0,059	0,109
-597,284	-13,591	0,040	0,019
-596,269	320,038	-0,031	-0,043
-595,255	-55,056	0,060	0,020
-594,240	-20,404	-0,040	0,018
-593,225	444,680	-0,069	-0,111
-592,211	10,186	-0,097	0,054
-591,196	-52,237	0,101	0,034
-590,182	456,039	-0,058	-0,094
-589,167	-73,739	0,054	0,014
-588,152	-153,634	0,152	0,008
-587,138	-155,315	0,074	0,003
-586,123	164,126	-0,052	0,054
-585,109	336,001	-0,027	-0,039
-584,094	164,607	-0,048	-0,050
-583,079	108,472	0,041	0,036
-582,065	378,898	0,026	-0,039
-581,050	463,256	-0,027	-0,045
-580,036	-200,000	-0,019	0,071
-579,021	-200,000	0,009	-0,070
-578,006	-51,231	-0,064	-0,022
-576,992	-200,000	-0,018	0,115
-575,977	486,514	0,073	0,122
-574,963	8,361	-0,031	-0,017
-573,948	194,952	-0,081	-0,090
-572,934	171,395	-0,092	-0,097
-571,919	-46,584	-0,103	-0,037
-570,904	-134,716	0,127	-0,011
-569,890	-31,143	0,070	0,029
-568,875	-47,707	0,061	0,021
-567,861	-200,000	-0,008	-0,048
-566,846	-21,024	-0,145	0,065
-565,831	-200,000	0,029	-0,101
-564,817	-69,461	0,096	-0,027
-563,802	-191,145	-0,262	0,002
-562,788	84,826	-0,071	-0,057
-561,773	-161,556	-0,160	0,006
-560,758	-3,929	-0,037	0,019
-559,744	105,419	0,101	-0,088
-558,729	645,234	-0,040	-0,075
-557,715	-200,000	0,029	0,119
-556,700	-145,022	-0,074	-0,005
-555,685	-200,000	0,001	-0,049
-554,671	-0,745	-0,096	-0,050
-553,656	394,807	0,043	-0,066
-552,642	-102,927	0,137	-0,024
-551,627	-200,000	-0,015	0,084
-550,612	-13,610	-0,037	-0,017
-549,598	-70,013	-0,039	0,011
-548,583	-128,417	-0,164	-0,017
-547,569	371,450	0,019	0,028
-546,554	800,000	-0,023	0,068
-545,539	15,094	-0,217	-0,124
-544,525	52,766	-0,089	0,062
-543,510	800,000	-0,024	-0,061
-542,496	55,529	-0,092	0,065
-541,481	-125,403	0,089	0,010
-540,466	-113,400	0,096	-0,014
-539,452	-65,429	0,032	0,009
-538,437	33,853	0,080	0,051
-537,423	59,181	0,011	-0,008
-536,408	222,883	-0,093	0,110
-535,393	-160,256	-0,020	-0,001
-534,379	7,705	0,124	-0,068
-533,364	-200,000	-0,008	-0,115
-532,350	50,731	-0,077	0,053
-531,335	101,501	-0,068	0,058
-530,321	-200,000	-0,011	-0,055
-529,306	-200,000	-0,027	0,093
-528,291	616,212	-0,039	0,072
-527,277	-8,587	-0,199	-0,097
-526,262	385,601	0,084	-0,127
-525,248	-122,186	-0,093	0,011
-524,233	-88,760	0,077	0,017
-523,218	800,000	0,043	0,123
-522,204	800,000	0,054	-0,117
-521,189	41,687	-0,030	0,020
-520,175	58,321	-0,077	-0,055
-519,160	-200,000	0,007	-0,084
-518,145	-84,837	0,095	0,022
-517,131	800,000	-0,032	-0,091
-516,116	164,269	-0,036	0,037
-515,102	-114,125	0,134	0,019
-514,087	-200,000	-0,011	-0,058
-513,072	202,993	-0,141	-0,159
-512,058	465,814	-0,020	0,032
-511,043	800,000	0,037	0,081
-510,029	33,646	-0,027	0,017
-509,014	61,198	0,105	0,076
-507,999	-0,690	-0,061	0,031
-506,985	-6,716	-0,105	0,052
-505,970	-200,000	-0,030	-0,151
-504,956	-200,000	0,010	0,052
-503,941	387,501	-0,042	0,064
-502,926	7,589	0,202	0,110
-501,912	636,383	0,071	0,132
-500,897	-70,087	0,088	-0,024
-499,883	800,000	-0,033	0,080
-498,868	149,844	-0,048	0,047
-497,853	6,286	-0,024	-0,013
-496,839	800,000	-0,032	0,102
-495,824	800,000	-0,033	0,085
-494,810	-14,057	0,083	-0,039
-493,795	-157,583	-0,053	-0,002
-492,781	-200,000	-0,017	-0,100
-491,766	-131,884	-0,052	-0,005
-490,751	800,000	-0,068	-0,158
-489,737	42,738	0,098	0,065
-488,722	-122,114	-0,060	-0,007
-487,708	223,055	0,049	-0,058
-486,693	800,000	0,036	-0,088
-485,678	40,415	-0,052	-0,034
-484,664	-200,000	-0,183	-0,000
-483,649	-98,763	-0,164	0,030
-482,635	122,912	0,040	0,036
-481,620	0,116	0,132	-0,069
-480,605	301,026	0,103	0,139
-479,591	340,823	-0,047	0,068
-478,576	-54,414	-0,029	0,010
-477,562	-148,259	0,142	-0,008
-476,547	25,795	-0,109	-0,066
-475,532	-38,689	-0,043	-0,017
-474,518	-200,000	-0,023	-0,084
-473,503	-200,000	0,003	0,062
-472,489	-200,000	0,008	0,041
-471,474	-118,872	0,097	-0,012
-470,459	62,445	-0,039	-0,028
-469,445	103,152	0,093	-0,080
-468,430	-93,809	-0,045	-0,009
-467,416	800,000	-0,105	0,217
-466,401	192,094	-0,006	0,007
-465,386	-8,314	-0,072	-0,035
-464,372	90,607	-0,033	0,027
-463,357	-200,000	-0,006	-0,081
-462,343	361,502	0,096	-0,141
-461,328	-148,546	-0,015	-0,001
-460,313	-200,000	-0,006	-0,085
-459,299	8,340	0,083	-0,045
-458,284	800,000	0,013	-0,038
-457,270	-2,774	0,062	-0,031
-456,255	-200,000	-0,006	-0,083
-455,241	111,450	-0,112	0,098
-454,226	119,229	-0,072	-0,065
-453,211	-96,931	0,161	0,031
-452,197	-27,467	0,059	0,025
-451,182	-200,000	0,010	0,044
-450,168	85,551	0,070	-0,056
-449,153	-200,000	-0,023	0,171
-448,138	-59,214	-0,091	-0,029
-447,124	-55,441	0,156	-0,051
-446,109	800,000	0,016	-0,037
-445,095	-200,000	0,017	0,068
-444,080	-146,843	-0,090	0,006
-443,065	216,226	-0,031	-0,036
-442,051	498,033	-0,078	-0,131
-441,036	-114,030	0,193	-0,027
-440,022	88,991	0,044	-0,035
-439,007	-200,000	-0,001	-0,025
-437,992	-10,091	0,173	-0,083
-436,978	269,374	0,030	-0,039
-435,963	800,000	-0,022	-0,062
-434,949	-54,343	-0,072	0,024
-433,934	442,593	-0,044	0,071
-432,919	-174,694	0,177	0,004
-431,905	101,184	-0,151	0,128
-430,890	2,402	0,073	-0,038
-429,876	-200,000	0,111	0,000
-428,861	-200,000	-0,027	0,196
-427,846	-80,035	-0,109	0,026
-426,832	800,000	0,046	-0,107
-425,817	800,000	-0,064	-0,155
-424,803	215,539	-0,052	0,060
-423,788	-46,038	0,130	-0,046
-422,773	163,484	0,031	0,032
-421,759	-78,718	0,055	-0,014
-420,744	-109,142	0,085	-0,013
-419,730	800,000	-0,023	0,061
-418,715	-200,000	-0,005	-0,017
-417,701	-150,412	-0,126	-0,007
-416,686	-200,000	0,033	0,108
-415,671	221,576	-0,064	0,074
-414,657	-200,000	-0,013	0,065
-413,642	-145,579	-0,195	0,013
-412,628	-86,418	-0,087	0,019
-411,613	202,928	0,020	-0,023
-410,598	365,338	0,052	-0,076
-409,584	49,369	0,084	0,058
-408,569	-101,953	-0,109	-0,019
-407,555	-112,238	0,079	0,011
-406,540	-200,000	-0,005	0,099
-405,525	-77,978	-0,209	-0,052
-404,511	-77,595	0,086	0,022
-403,496	-89,181	0,143	-0,030
-402,482	-60,998	-0,068	0,021
-401,467	800,000	0,034	0,087
-400,452	-195,887	0,044	0,000
-399,438	-200,000	-0,006	-0,125
-398,423	-37,575	-0,165	-0,064
-397,409	520,259	-0,034	0,058
-396,394	-200,000	0,010	-0,150
-395,379	133,400	0,081	-0,076
-394,365	242,835	0,033	0,040
-393,350	332,744	0,109	0,153
-392,336	-44,507	0,137	-0,050
-391,321	754,089	0,048	-0,095
-390,306	-200,000	0,018	-0,076
-389,292	-200,000	-0,013	0,053
-388,277	-200,000	0,013	-0,053
-387,263	-200,000	0,014	0,146
-386,248	800,000	0,038	0,096
-385,233	225,453	0,089	0,104
-384,219	323,497	-0,029	0,041
-383,204	-111,147	0,083	-0,012
-382,190	-57,659	-0,063	0,020
-381,175	145,187	0,048	0,047
-380,160	-48,562	0,120	0,042
-379,146	-200,000	-0,018	-0,060
-378,131	-62,049	-0,114	0,034
-377,117	7,465	0,148	0,080
-376,102	-82,197	-0,096	0,023
-375,088	221,780	-0,078	-0,091
-374,073	354,307	-0,030	-0,043
-373,058	800,000	-0,034	0,097
-372,044	473,818	0,065	-0,106
-371,029	-200,000	-0,004	0,068
-370,015	14,030	0,085	-0,048
-369,000	-24,708	-0,057	0,025
-367,985	514,727	0,013	-0,023
-366,971	-92,583	-0,202	0,041
-365,956	-37,072	0,091	-0,035
-364,942	184,332	0,122	0,132
-363,927	25,282	0,072	0,043
-362,912	-94,576	0,067	0,013
-361,898	32,417	0,100	-0,063
-360,883	190,340	-0,034	0,037
-359,869	192,398	0,043	-0,048
-358,854	16,531	-0,023	-0,013
-357,839	191,538	0,068	0,075
-356,825	-7,611	0,120	0,059
-355,810	161,513	0,139	-0,141
-354,796	-56,405	-0,110	0,035
-353,781	11,122	0,102	-0,056
-352,766	-93,066	-0,106	-0,021
-351,752	-194,032	-0,112	0,001
-350,737	-69,853	0,130	0,036
-349,723	620,014	0,075	0,137
-348,708	800,000	-0,027	0,057
-347,693	20,211	-0,004	-0,003
-346,679	-119,181	0,095	0,012
-345,664	-121,376	0,009	0,001
-344,650	-109,186	-0,052	0,008
-343,635	-22,211	-0,063	0,028
-342,620	-108,093	0,118	0,018
-341,606	167,875	-0,046	-0,048
-340,591	80,030	0,062	0,048
-339,577	800,000	-0,039	-0,106
-338,562	268,107	-0,065	-0,083
-337,548	75,750	-0,070	-0,053
-336,533	800,000	-0,033	0,096
-335,518	-200,000	0,004	0,117
-334,504	54,425	0,088	0,061
-333,489	800,000	0,039	0,084
-332,475	41,424	-0,128	-0,084
-331,460	94,368	-0,148	-0,122
-330,445	91,365	-0,044	-0,036
-329,431	42,866	0,067	-0,044
-328,416	552,510	0,024	0,043
-327,402	800,000	0,083	0,186
-326,387	-22,022	0,125	0,055
-325,372	-200,000	-0,036	-0,130
-324,358	-81,891	0,068	0,016
-323,343	-200,000	-0,025	0,080
-322,329	-200,000	-0,029	0,128
-321,314	445,673	0,056	0,089
-320,299	-200,000	0,037	0,193
-319,285	28,819	0,097	-0,059
-318,270	134,726	-0,081	0,077
-317,256	70,221	-0,084	0,063
-316,241	-200,000	-0,011	-0,061
-315,226	-200,000	-0,009	-0,039
-314,212	628,884	-0,025	-0,046
-313,197	19,562	0,066	0,038
-312,183	-119,348	-0,079	-0,010
-311,168	276,933	0,033	0,043
-310,153	-200,000	0,012	-0,062
-309,139	315,128	0,067	0,092
-308,124	-96,651	-0,060	0,011
-307,110	271,544	-0,020	-0,026
-306,095	-119,726	-0,051	-0,006
-305,080	345,930	0,066	-0,094
-304,066	-22,550	-0,084	-0,037
-303,051	379,540	-0,023	0,035
-302,037	-200,000	-0,014	0,076
-301,022	96,757	0,110	0,091
-300,008	-200,000	0,033	-0,192
-298,993	58,188	0,019	0,013
-297,978	-23,778	-0,064	0,028
-296,964	-200,000	-0,036	-0,152
-295,949	-100,078	0,074	-0,013
-294,935	-200,000	-0,003	0,054
-293,920	-32,837	-0,112	0,045
-292,905	-200,000	-0,007	0,066
-291,891	30,395	0,154	-0,095
-290,876	-154,214	-0,128	-0,006
-289,862	118,208	0,028	-0,025
-288,847	800,000	-0,026	0,058
-287,832	-149,124	-0,212	-0,012
-286,818	800,000	-0,055	-0,111
-285,803	800,000	0,035	-0,102
-284,789	204,144	0,085	0,096
-283,774	-200,000	-0,026	0,105
-282,759	571,406	-0,053	-0,095
-281,745	800,000	0,094	-0,240
-280,730	-200,000	0,007	0,037
-279,716	-91,512	0,084	0,017
-278,701	-200,000	0,001	0,035
-277,686	45,254	0,083	-0,055
-276,672	329,331	-0,126	-0,176
-275,657	-98,477	-0,053	0,010
-274,643	41,451	0,113	-0,074
-273,628	-164,428	-0,113	0,004
-272,613	705,135	0,041	0,078
-271,599	5,579	-0,038	-0,020
-270,584	330,139	0,094	0,131
-269,570	79,179	-0,094	0,073
-268,555	-121,069	0,194	-0,023
-267,540	800,000	0,022	-0,061
-266,526	800,000	0,026	-0,053
-265,511	800,000	-0,022	-0,052
-264,497	-80,048	-0,035	-0,009
-263,482	-149,753	0,143	-0,008
-262,467	-200,000	0,003	0,119
-261,453	-63,453	0,073	-0,022
-260,438	800,000	-0,054	0,124
-259,424	800,000	0,021	0,050
-258,409	226,877	-0,080	-0,094
-257,395	472,521	-0,043	-0,070
-256,380	700,551	-0,018	-0,035
-255,365	-200,000	-0,007	0,080
-254,351	145,609	0,080	0,078
-253,336	-200,000	-0,025	-0,090
-252,322	146,719	-0,077	0,075
-251,307	18,460	0,016	0,009
-250,292	434,290	0,070	-0,111
-249,278	-39,321	0,186	0,070
-248,263	28,843	0,041	0,025
-247,249	93,391	0,197	0,161
-246,234	-108,963	-0,070	0,011
-245,219	-200,000	0,012	-0,043
-244,205	-122,278	0,081	-0,009
-243,190	-143,979	0,084	0,006
-242,176	-200,000	0,017	0,087
-241,161	-200,000	0,011	0,126
-240,146	-192,834	-0,186	-0,001
-239,132	-200,000	0,031	0,142
-238,117	84,710	-0,106	0,084
-237,103	-200,000	-0,009	0,152
-236,088	800,000	0,011	0,031
-235,073	-200,000	-0,010	0,106
-234,059	1,232	0,145	-0,075
-233,044	-26,042	0,174	0,073
-232,030	157,696	-0,086	-0,086
-231,015	-124,970	0,101	-0,011
-230,000	-124,563	-0,112	0,012
-228,986	40,187	-0,109	0,071
-227,971	-111,868	-0,070	-0,010
-226,957	-141,036	0,069	0,005
-225,942	-200,000	0,011	-0,092
-224,927	-75,827	0,067	-0,017
-223,913	-26,583	0,051	0,021
-222,898	99,170	-0,056	-0,047
-221,884	482,898	0,021	-0,034
-220,869	-200,000	-0,001	-0,119
-219,855	-200,000	0,007	0,149
-218,840	800,000	0,046	0,114
-217,825	-85,562	-0,113	-0,025
-216,811	800,000	-0,032	-0,099
-215,796	110,453	-0,140	0,122
-214,782	-71,303	0,117	-0,031
-213,767	-42,261	0,005	-0,002
-212,752	-200,000	0,003	0,088
-211,738	800,000	-0,030	0,095
-210,723	516,333	-0,020	0,034
-209,709	40,536	-0,075	-0,049
-208,694	57,041	-0,054	-0,038
-207,679	800,000	0,037	-0,094
-206,665	274,889	0,066	-0,084
-205,650	-200,000	-0,002	-0,072
-204,636	348,894	0,031	-0,044
-203,621	800,000	0,068	-0,156
-202,606	-113,210	0,062	-0,009
-201,592	-83,050	-0,097	0,022
-200,577	-134,002	-0,055	0,005
-199,563	-200,000	-0,018	-0,177
-198,548	220,656	-0,069	0,080
-197,533	70,306	0,054	0,040
-196,519	800,000	0,038	0,092
-195,504	58,047	-0,046	-0,033
-194,490	-142,116	-0,107	-0,008
-193,475	23,936	0,080	0,048
-192,460	597,019	-0,039	0,069
-191,446	-13,343	0,142	0,066
-190,431	800,000	0,051	0,150
-189,417	-73,352	0,026	0,007
-188,402	288,335	0,104	-0,136
-187,387	-107,027	0,046	0,007
-186,373	-200,000	0,004	0,015
-185,358	60,904	0,054	0,038
-184,344	-157,117	0,098	-0,004
-183,329	78,127	-0,091	0,070
-182,315	267,058	0,051	-0,065
-181,300	28,609	-0,049	-0,030
-180,285	800,000	0,052	0,112
-179,271	326,582	0,034	-0,047
-178,256	76,036	-0,053	-0,040
-177,242	564,019	0,035	-0,061
-176,227	-200,000	0,030	0,121
-175,212	-93,551	0,051	0,010
-174,198	-200,000	0,007	0,065
-173,183	-5,646	-0,078	-0,038
-172,169	-200,000	0,000	-0,060
-171,154	-200,000	-0,006	0,035
-170,139	-11,554	-0,080	0,038
-169,125	-200,000	-0,007	0,045
-168,110	15,416	0,128	0,072
-167,096	2,617	-0,095	0,049
-166,081	-117,093	-0,135	0,017
-165,066	361,819	-0,106	-0,154
-164,052	124,151	0,071	0,064
-163,037	259,465	-0,066	0,082
-162,023	-200,000	0,038	0,142
-161,008	285,497	0,064	0,083
-159,993	-200,000	-0,012	-0,060
-158,979	117,507	0,010	-0,008
-157,964	-200,000	0,045	-0,162
-156,950	438,845	-0,059	-0,092
-155,935	-200,000	0,032	0,152
-154,920	77,063	-0,067	0,052
-153,906	-200,000	-0,005	0,017
-152,891	-64,620	-0,100	0,029
-151,877	465,224	-0,057	0,092
-150,862	-0,940	-0,094	0,048
-149,847	-77,997	-0,101	0,025
-148,833	109,336	0,020	0,017
-147,818	299,890	0,049	0,065
-146,804	-6,734	-0,118	0,057
-145,789	-163,532	-0,068	-0,002
-144,775	-200,000	0,019	-0,103
-143,760	6,657	0,106	-0,057
-142,745	800,000	-0,033	0,083
-141,731	-75,245	-0,110	-0,028
-140,716	800,000	0,030	-0,063
-139,702	-200,000	0,054	0,251
-138,687	132,366	0,060	-0,056
-137,672	-164,544	-0,067	0,002
-136,658	3,331	0,058	-0,030
-135,643	76,942	-0,111	-0,085
-134,629	3,449	0,114	-0,060
-133,614	-200,000	0,008	-0,071
-132,599	-200,000	-0,012	0,244
-131,585	269,485	-0,034	0,043
-130,570	156,869	-0,023	-0,023
-129,556	-40,450	-0,131	0,049
-128,541	-200,000	-0,012	-0,184
-127,526	34,655	0,160	-0,100
-126,512	-11,010	-0,022	0,010
-125,497	-39,383	0,056	0,021
-124,483	198,748	0,018	0,020
-123,468	-86,208	0,039	0,009
-122,453	408,627	-0,038	-0,058
-121,439	-200,000	-0,015	-0,057
-120,424	233,946	-0,090	-0,107
-119,410	58,294	-0,038	0,027
