DTS Sentinel unit serial number:	SN410029Multiplexer serial number:	ORYXHardware model number:	OX2-SRSoftware version number:	ORYX F/W v4,00 Oryx Data Collector v3.7.2.0data status	okinstallation	B6 Nyhavnadifferential loss correction	single-endedforward channel	channel 2reverse channel	N/Adate	2023/12/09time	10:50:08forward acquisition time	300,00reverse acquisition time	0,00gamma	499,1914k internal	0,3139k external	0,3139temperature offset calibration	1,0000default loss term (dB/km)	0,3820temperature slope calibration	1,0000multiplexer offset coefficient	1,0000multiplexer slope coefficient	1,0000fibre end	0,00T internal ref (°C)	18,63T ext. ref 1 (°C)	2,44T ext. ref 2 (°C)	2,44length (m)	temperature (°C)	Stokes	anti-Stokes-744,400	-24,284	0,030	0,013
-743,385	-58,885	-0,296	0,094
-742,371	-32,419	0,057	-0,023
-741,356	48,560	-0,189	0,131
-740,342	-89,548	0,116	0,025
-739,327	-85,034	-0,311	0,072
-738,312	-200,000	0,024	-0,086
-737,298	-5,936	-0,296	0,150
-736,283	-142,431	0,056	-0,004
-735,269	-178,178	-0,236	0,004
-734,254	-82,278	0,093	-0,022
-733,239	-180,468	-0,471	0,007
-732,225	-65,990	0,192	0,056
-731,210	133,172	0,040	0,039
-730,196	-100,060	0,141	0,026
-729,181	156,849	0,057	0,059
-728,167	-200,000	0,009	0,045
-727,152	1,035	-0,055	0,029
-726,137	800,000	-0,073	-0,215
-725,123	-39,303	-0,159	-0,061
-724,108	-97,856	0,165	-0,031
-723,094	-200,000	0,046	-0,213
-722,079	-200,000	0,026	-0,185
-721,064	-54,218	-0,027	-0,009
-720,050	-200,000	-0,020	-0,112
-719,035	-2,723	0,074	0,038
-718,021	97,373	-0,080	-0,068
-717,006	-200,000	-0,004	-0,076
-715,991	767,880	-0,018	-0,036
-714,977	119,143	-0,081	-0,074
-713,962	50,464	-0,072	-0,050
-712,948	467,497	-0,002	-0,003
-711,933	-200,000	0,008	-0,040
-710,918	-200,000	0,018	0,160
-709,904	56,647	-0,106	0,076
-708,889	800,000	0,041	0,114
-707,875	17,366	0,085	-0,050
-706,860	-200,000	0,010	-0,094
-705,845	800,000	0,008	0,022
-704,831	56,588	-0,100	0,072
-703,816	-200,000	0,011	-0,062
-702,802	192,007	0,040	0,044
-701,787	-105,648	-0,156	-0,026
-700,772	130,199	-0,020	-0,019
-699,758	-200,000	-0,021	-0,154
-698,743	-200,000	0,010	0,161
-697,729	56,386	0,085	0,061
-696,714	-17,737	-0,086	-0,040
-695,699	-32,336	0,056	-0,023
-694,685	-200,000	-0,019	-0,088
-693,670	24,731	0,131	0,080
-692,656	-200,000	-0,033	-0,129
-691,641	-3,147	0,073	0,037
-690,627	-70,333	0,075	-0,021
-689,612	111,896	-0,084	-0,075
-688,597	-134,624	-0,126	-0,011
-687,583	-32,455	-0,107	-0,044
-686,568	160,290	-0,068	-0,070
-685,554	-143,572	0,141	-0,010
-684,539	488,849	-0,058	0,098
-683,524	800,000	-0,017	0,043
-682,510	800,000	-0,061	0,141
-681,495	-123,120	-0,363	-0,043
-680,481	28,863	0,025	-0,016
-679,466	800,000	0,038	-0,094
-678,451	378,708	0,143	-0,218
-677,437	303,590	0,018	-0,024
-676,422	-200,000	0,004	-0,080
-675,408	-157,069	0,087	-0,004
-674,393	-127,137	-0,105	-0,011
-673,378	-200,000	-0,006	-0,115
-672,364	200,393	-0,139	-0,158
-671,349	-200,000	-0,031	-0,181
-670,335	-21,164	-0,122	0,055
-669,320	-142,124	0,037	-0,003
-668,305	317,948	0,154	-0,216
-667,291	-200,000	-0,020	-0,091
-666,276	121,746	-0,041	-0,038
-665,262	19,535	-0,077	-0,046
-664,247	-170,314	-0,122	-0,003
-663,232	7,692	0,036	-0,020
-662,218	-47,367	0,090	0,032
-661,203	-63,982	-0,166	0,050
-660,189	-200,000	-0,005	0,035
-659,174	62,330	-0,141	-0,104
-658,159	21,592	-0,144	0,087
-657,145	105,165	-0,047	-0,041
-656,130	281,198	-0,026	-0,034
-655,116	52,642	0,082	0,058
-654,101	-200,000	-0,021	0,108
-653,086	-154,085	-0,082	0,004
-652,072	275,751	-0,076	-0,100
-651,057	572,789	-0,037	-0,066
-650,043	148,748	0,076	-0,076
-649,028	44,047	-0,113	-0,077
-648,014	389,818	-0,088	0,135
-646,999	250,110	-0,035	-0,044
-645,984	269,733	-0,098	-0,127
-644,970	-106,140	0,126	-0,021
-643,955	-168,104	-0,152	-0,004
-642,941	-65,369	-0,076	-0,022
-641,926	-108,489	0,122	0,019
-640,911	-200,000	0,021	-0,075
-639,897	2,083	-0,052	0,028
-638,882	-142,288	0,032	0,002
-637,868	243,547	-0,066	0,082
-636,853	-1,037	0,061	0,032
-635,838	-90,166	-0,047	0,010
-634,824	-200,000	-0,004	0,040
-633,809	170,202	-0,034	0,036
-632,795	800,000	0,051	-0,119
-631,780	6,657	-0,030	0,017
-630,765	800,000	-0,057	-0,138
-629,751	-200,000	0,049	-0,187
-628,736	192,214	-0,044	0,049
-627,722	707,516	-0,014	-0,028
-626,707	-25,727	-0,068	-0,029
-625,692	-200,000	-0,008	0,153
-624,678	-79,727	-0,100	0,025
-623,663	-119,436	0,073	-0,009
-622,649	-200,000	-0,007	-0,064
-621,634	-96,471	0,076	-0,015
-620,619	-126,594	-0,134	0,015
-619,605	-140,032	0,107	-0,008
-618,590	800,000	-0,029	-0,072
-617,576	-155,100	0,033	0,002
-616,561	-200,000	-0,037	-0,125
-615,546	-200,000	0,004	-0,056
-614,532	-9,594	0,097	0,048
-613,517	-145,609	0,017	0,001
-612,503	23,612	-0,098	0,060
-611,488	-5,797	0,064	-0,032
-610,474	-144,892	-0,092	-0,006
-609,459	-69,521	-0,044	-0,012
-608,444	800,000	0,045	0,120
-607,430	-200,000	-0,014	-0,098
-606,415	-43,342	-0,075	-0,028
-605,401	-127,149	0,051	0,005
-604,386	211,889	0,081	0,094
-603,371	-69,903	0,121	0,034
-602,357	-44,403	-0,070	-0,026
-601,342	-40,828	-0,166	0,063
-600,328	-66,584	-0,093	-0,027
-599,313	146,969	0,063	-0,062
-598,298	-200,000	-0,022	0,075
-597,284	-28,319	0,045	0,019
-596,269	-40,056	0,078	0,030
-595,255	-92,503	-0,129	-0,027
-594,240	-78,381	0,137	-0,034
-593,225	156,474	-0,021	-0,022
-592,211	-200,000	0,012	-0,173
-591,196	14,787	-0,138	0,079
-590,182	-200,000	0,047	0,196
-589,167	47,311	0,049	-0,034
-588,152	-48,289	-0,066	-0,023
-587,138	358,216	-0,017	0,025
-586,123	800,000	0,008	0,022
-585,109	800,000	-0,038	0,095
-584,094	95,309	0,069	-0,058
-583,079	58,716	0,051	0,037
-582,065	20,735	-0,083	0,049
-581,050	6,640	0,061	0,033
-580,036	540,225	0,057	0,100
-579,021	45,672	0,068	0,046
-578,006	200,620	0,020	-0,023
-576,992	-75,681	-0,024	-0,006
-575,977	-200,000	-0,002	0,122
-574,963	86,076	0,137	0,111
-573,948	800,000	-0,024	0,073
-572,934	-200,000	0,005	-0,086
-571,919	224,539	-0,099	-0,118
-570,904	227,995	0,095	-0,114
-569,890	5,196	-0,126	-0,068
-568,875	8,825	0,100	0,055
-567,861	-61,604	-0,094	-0,029
-566,846	800,000	0,013	-0,033
-565,831	44,211	-0,117	0,079
-564,817	-105,393	0,097	-0,016
-563,802	30,809	-0,080	-0,050
-562,788	-48,428	0,054	-0,019
-561,773	2,541	0,022	-0,012
-560,758	-122,883	0,056	-0,007
-559,744	-119,762	0,033	0,004
-558,729	309,678	0,055	0,076
-557,715	-200,000	0,021	-0,154
-556,700	-200,000	-0,002	-0,023
-555,685	-162,183	-0,023	-0,001
-554,671	92,255	-0,152	-0,126
-553,656	198,636	0,100	0,113
-552,642	393,917	-0,052	-0,079
-551,627	-118,207	0,117	0,015
-550,612	568,737	0,043	-0,077
-549,598	160,271	-0,082	-0,085
-548,583	-89,561	0,053	-0,011
-547,569	353,945	-0,067	0,098
-546,554	-200,000	0,012	0,155
-545,539	-61,366	0,108	-0,033
-544,525	-200,000	-0,001	0,108
-543,510	-90,782	0,088	-0,019
-542,496	-200,000	0,005	0,084
-541,481	-24,615	-0,076	-0,033
-540,466	301,317	0,010	-0,013
-539,452	-200,000	0,014	0,084
-538,437	-13,835	0,080	-0,038
-537,423	-164,638	-0,075	-0,002
-536,408	-200,000	-0,017	-0,064
-535,393	-106,872	-0,027	0,004
-534,379	-10,439	-0,090	-0,044
-533,364	-113,236	0,066	-0,009
-532,350	299,945	0,051	-0,069
-531,335	779,887	0,024	0,048
-530,321	183,001	-0,081	0,088
-529,306	-200,000	-0,018	0,075
-528,291	680,973	0,028	-0,053
-527,277	800,000	-0,035	-0,087
-526,262	61,331	0,087	-0,064
-525,248	25,417	0,086	0,053
-524,233	288,781	-0,140	0,188
-523,218	229,099	0,044	-0,053
-522,204	-200,000	0,016	0,139
-521,189	145,606	0,127	0,126
-520,175	-2,956	-0,081	0,042
-519,160	252,784	-0,028	-0,035
-518,145	-154,384	-0,041	0,002
-517,131	30,456	0,098	0,061
-516,116	581,084	-0,035	-0,063
-515,102	158,237	-0,052	-0,053
-514,087	705,037	-0,030	-0,058
-513,072	-7,309	-0,068	-0,034
-512,058	-30,532	-0,058	0,024
-511,043	-200,000	0,024	0,084
-510,029	-19,109	-0,041	-0,019
-509,014	82,390	0,037	0,030
-507,999	800,000	0,015	0,045
-506,985	-200,000	-0,022	0,078
-505,970	-17,314	-0,139	0,064
-504,956	204,221	0,079	-0,090
-503,941	294,228	0,051	0,069
-502,926	-106,042	0,124	-0,020
-501,912	42,538	0,100	0,066
-500,897	-54,808	-0,091	-0,030
-499,883	25,982	0,112	-0,069
-498,868	-200,000	0,005	0,046
-497,853	-115,930	-0,155	-0,021
-496,839	-92,390	0,041	-0,008
-495,824	116,033	0,048	-0,043
-494,810	60,323	0,157	0,114
-493,795	729,101	-0,040	0,078
-492,781	47,417	-0,072	-0,049
-491,766	-200,000	0,015	0,082
-490,751	-82,201	-0,086	0,020
-489,737	2,577	-0,020	-0,011
-488,722	-200,000	-0,037	-0,135
-487,708	800,000	0,038	0,080
-486,693	123,849	0,059	-0,055
-485,678	-200,000	-0,015	-0,104
-484,664	-200,000	0,007	-0,069
-483,649	26,502	-0,082	-0,050
-482,635	800,000	-0,022	-0,054
-481,620	-139,498	0,170	-0,013
-480,605	-11,167	-0,078	-0,037
-479,591	-44,229	0,162	-0,059
-478,576	107,573	0,178	-0,156
-477,562	800,000	0,028	-0,061
-476,547	-102,200	0,129	0,023
-475,532	459,251	0,038	0,063
-474,518	-119,690	0,093	-0,012
-473,503	-9,968	0,037	0,018
-472,489	-200,000	-0,012	0,129
-471,474	800,000	0,043	0,088
-470,459	234,331	-0,032	0,039
-469,445	423,173	0,029	0,046
-468,430	-200,000	0,009	-0,045
-467,416	-16,290	0,140	0,065
-466,401	800,000	0,036	-0,095
-465,386	-200,000	-0,016	-0,087
-464,372	800,000	-0,011	-0,027
-463,357	703,431	0,026	0,050
-462,343	800,000	-0,013	-0,039
-461,328	71,785	0,094	-0,072
-460,313	-148,065	0,079	-0,005
-459,299	-13,112	-0,037	0,018
-458,284	77,837	0,046	0,036
-457,270	-200,000	-0,019	-0,073
-456,255	226,312	0,066	-0,079
-455,241	173,857	-0,056	0,060
-454,226	222,663	-0,074	0,088
-453,211	349,285	0,036	-0,052
-452,197	120,461	0,093	0,085
-451,182	-153,739	-0,065	-0,003
-450,168	-200,000	0,020	0,066
-449,153	-200,000	0,013	0,053
-448,138	-79,523	-0,067	-0,016
-447,124	-46,481	-0,034	-0,012
-446,109	279,228	0,016	0,021
-445,095	204,648	-0,073	0,083
-444,080	-38,191	0,064	-0,025
-443,065	649,566	-0,026	0,049
-442,051	148,825	0,037	0,037
-441,036	90,207	0,054	-0,044
-440,022	-200,000	-0,019	-0,080
-439,007	-81,601	-0,018	-0,004
-437,992	565,978	0,045	0,080
-436,978	24,786	0,067	-0,041
-435,963	-78,832	-0,102	0,025
-434,949	138,544	-0,073	-0,070
-433,934	15,526	0,075	0,043
-432,919	157,486	-0,090	-0,092
-431,905	-50,724	0,022	0,008
-430,890	382,144	-0,087	0,132
-429,876	-112,682	0,139	0,020
-428,861	12,710	0,094	-0,053
-427,846	-200,000	0,025	0,187
-426,832	-100,705	-0,129	0,023
-425,817	800,000	0,041	-0,109
-424,803	-181,796	-0,123	-0,002
-423,788	800,000	-0,015	0,035
-422,773	-200,000	-0,001	0,097
-421,759	800,000	-0,042	-0,092
-420,744	-104,253	0,066	0,011
-419,730	209,191	-0,028	0,032
-418,715	248,761	-0,074	-0,092
-417,701	324,436	-0,032	0,044
-416,686	92,410	-0,065	-0,054
-415,671	530,503	0,068	0,117
-414,657	81,201	-0,036	0,029
-413,642	800,000	-0,023	0,068
-412,628	800,000	0,058	0,158
-411,613	337,369	-0,061	0,087
-410,598	-85,604	0,024	0,005
-409,584	-200,000	0,000	0,040
-408,569	79,543	0,020	-0,016
-407,555	265,016	0,021	0,027
-406,540	204,257	0,101	-0,114
-405,525	238,008	-0,041	-0,050
-404,511	179,795	-0,050	0,054
-403,496	223,099	-0,054	0,064
-402,482	800,000	-0,042	0,133
-401,467	-200,000	0,002	-0,049
-400,452	-9,607	0,138	0,067
-399,438	-22,348	0,039	-0,017
-398,423	137,133	0,064	-0,061
-397,409	800,000	0,016	-0,042
-396,394	-111,191	0,051	0,007
-395,379	800,000	0,037	-0,095
-394,365	800,000	-0,043	-0,134
-393,350	-200,000	-0,028	0,176
-392,336	-200,000	0,044	0,161
-391,321	104,045	-0,070	-0,060
-390,306	-200,000	0,032	0,155
-389,292	-50,209	-0,099	0,034
-388,277	-54,057	0,044	0,015
-387,263	17,848	0,049	-0,029
-386,248	129,576	0,134	0,125
-385,233	144,498	0,038	0,037
-384,219	-42,771	0,071	-0,026
-383,204	800,000	0,060	-0,131
-382,190	297,424	0,064	0,086
-381,175	603,289	-0,040	0,074
-380,160	-200,000	0,009	-0,055
-379,146	482,540	0,051	0,085
-378,131	-183,687	0,092	0,001
-377,117	-17,987	-0,067	0,030
-376,102	4,185	-0,027	0,014
-375,088	-200,000	0,028	0,115
-374,073	-107,781	0,061	-0,010
-373,058	-200,000	0,009	-0,069
-372,044	-200,000	-0,003	-0,011
-371,029	800,000	-0,032	0,071
-370,015	-94,248	0,080	-0,016
-369,000	800,000	-0,061	-0,169
-367,985	235,653	-0,114	-0,138
-366,971	150,417	0,122	-0,121
-365,956	-36,143	-0,100	-0,039
-364,942	-71,014	0,057	0,015
-363,927	-200,000	0,027	0,160
-362,912	-141,939	-0,119	0,009
-361,898	-200,000	0,011	-0,044
-360,883	-200,000	-0,018	0,114
-359,869	-137,072	-0,035	0,003
-358,854	78,480	0,102	0,080
-357,839	-200,000	0,016	-0,110
-356,825	204,562	-0,018	-0,020
-355,810	309,422	0,065	0,089
-354,796	-121,937	0,135	0,016
-353,781	-200,000	0,000	0,045
-352,766	800,000	-0,054	-0,122
-351,752	198,997	-0,026	-0,029
-350,737	-200,000	-0,023	-0,079
-349,723	8,323	0,049	0,027
-348,708	800,000	0,036	0,110
-347,693	-68,461	-0,123	-0,035
-346,679	10,732	-0,082	-0,046
-345,664	-124,923	0,031	0,003
-344,650	24,398	-0,058	0,035
-343,635	34,813	0,116	-0,074
-342,620	-1,297	0,091	0,047
-341,606	110,436	0,109	0,096
-340,591	-45,596	-0,093	0,034
-339,577	-200,000	0,020	0,164
-338,562	411,808	-0,075	0,117
-337,548	-170,906	-0,068	0,002
-336,533	-200,000	0,026	0,095
-335,518	-200,000	-0,007	-0,027
-334,504	-58,083	-0,137	0,043
-333,489	32,601	-0,023	-0,015
-332,475	22,091	0,059	0,035
-331,460	-200,000	-0,033	-0,117
-330,445	0,938	0,120	0,062
-329,431	-112,767	0,138	-0,020
-328,416	163,241	0,042	-0,043
-327,402	184,965	-0,097	0,105
-326,387	408,932	0,107	-0,166
-325,372	-200,000	0,016	0,081
-324,358	604,474	-0,018	-0,032
-323,343	78,294	-0,075	-0,058
-322,329	-32,681	-0,073	0,030
-321,314	-127,715	0,123	0,013
-320,299	-60,509	0,078	0,024
-319,285	-200,000	-0,020	-0,141
-318,270	-200,000	-0,013	-0,083
-317,256	-154,742	-0,117	0,006
-316,241	-200,000	0,009	-0,076
-315,226	-200,000	0,013	0,155
-314,212	-55,338	0,123	-0,040
-313,197	457,741	0,025	-0,041
-312,183	133,968	-0,116	-0,109
-311,168	180,339	-0,064	0,069
-310,153	70,256	-0,076	-0,057
-309,139	-61,492	-0,032	0,010
-308,124	68,192	-0,145	-0,108
-307,110	475,825	-0,011	-0,018
-306,095	-28,945	0,144	0,060
-305,080	-200,000	0,002	-0,089
-304,066	-200,000	0,018	0,070
-303,051	269,476	0,031	-0,039
-302,037	-200,000	0,023	-0,117
-301,022	63,359	-0,083	0,060
-300,008	519,313	-0,032	0,056
-298,993	-200,000	0,036	-0,172
-297,978	-61,084	-0,084	0,026
-296,964	-104,268	-0,182	0,030
-295,949	-6,402	-0,043	0,021
-294,935	-97,498	0,063	-0,012
-293,920	-85,638	0,047	0,011
-292,905	-65,370	0,102	0,030
-291,891	800,000	0,025	-0,068
-290,876	-200,000	0,003	0,097
-289,862	303,149	-0,023	0,031
-288,847	207,328	0,085	0,097
-287,832	44,010	-0,051	0,034
-286,818	22,237	-0,121	-0,072
-285,803	800,000	0,035	0,081
-284,789	98,127	0,049	0,041
-283,774	185,059	-0,060	0,065
-282,759	-200,000	0,016	0,068
-281,745	-124,711	0,150	-0,017
-280,730	231,298	-0,082	-0,098
-279,716	-101,643	0,040	-0,007
-278,701	299,551	-0,027	-0,037
-277,686	800,000	-0,030	0,063
-276,672	245,059	-0,091	-0,111
-275,657	-77,877	-0,025	-0,006
-274,643	153,544	-0,133	-0,132
-273,628	45,263	0,085	-0,057
-272,613	113,681	-0,097	-0,086
-271,599	267,776	-0,055	0,070
-270,584	44,508	0,029	0,020
-269,570	-3,763	0,119	-0,060
-268,555	75,212	-0,028	-0,021
-267,540	-117,332	-0,062	-0,008
-266,526	-200,000	0,023	-0,116
-265,511	-200,000	0,013	0,115
-264,497	628,297	0,044	-0,082
-263,482	66,709	-0,155	0,115
-262,467	-200,000	-0,009	0,097
-261,453	-200,000	-0,048	-0,242
-260,438	22,212	0,165	-0,098
-259,424	57,657	-0,082	-0,058
-258,409	-60,453	-0,101	0,031
-257,395	578,733	-0,077	-0,138
-256,380	-150,025	0,026	-0,001
-255,365	119,638	-0,109	0,098
-254,351	-200,000	0,005	0,088
-253,336	168,139	-0,106	0,109
-252,322	175,530	-0,059	-0,062
-251,307	800,000	0,025	-0,063
-250,292	-45,352	-0,024	0,009
-249,278	-200,000	0,002	-0,044
-248,263	-135,835	-0,012	-0,001
-247,249	-177,939	0,067	-0,001
-246,234	800,000	0,052	-0,108
-245,219	-200,000	-0,005	0,022
-244,205	800,000	0,038	-0,080
-243,190	-121,239	-0,100	-0,012
-242,176	399,656	-0,102	-0,156
-241,161	702,076	0,045	0,086
-240,146	-200,000	-0,012	0,103
-239,132	-200,000	-0,022	0,077
-238,117	-136,505	-0,055	0,005
-237,103	-200,000	0,043	-0,149
-236,088	30,725	-0,110	-0,068
-235,073	4,163	0,047	-0,025
-234,059	-46,954	0,094	-0,033
-233,044	-101,841	-0,098	0,017
-232,030	125,920	0,087	0,080
-231,015	800,000	0,026	-0,078
-230,000	-200,000	-0,010	-0,047
-228,986	726,817	0,065	0,127
-227,971	564,127	0,080	0,142
-226,957	-200,000	0,003	0,041
-225,942	350,675	0,077	0,111
-224,927	-200,000	-0,003	-0,101
-223,913	-200,000	0,015	-0,124
-222,898	-200,000	0,003	-0,023
-221,884	7,181	-0,114	-0,062
-220,869	-50,994	0,110	0,037
-219,855	57,046	-0,049	0,035
-218,840	-55,970	0,080	-0,026
-217,825	-89,634	0,067	-0,014
-216,811	-200,000	-0,005	-0,071
-215,796	-14,332	-0,087	-0,041
-214,782	634,330	0,069	-0,127
-213,767	800,000	0,028	-0,062
-212,752	-200,000	-0,003	-0,014
-211,738	35,158	-0,021	0,013
-210,723	-84,755	0,114	-0,026
-209,709	89,041	-0,107	-0,087
-208,694	-200,000	0,018	0,075
-207,679	-200,000	-0,035	-0,140
-206,665	393,685	0,066	0,100
-205,650	-127,347	0,087	-0,009
-204,636	-200,000	0,024	0,148
-203,621	231,554	0,048	0,057
-202,606	-186,765	0,060	-0,001
-201,592	538,801	-0,031	-0,053
-200,577	800,000	-0,020	-0,052
-199,563	-136,874	-0,082	0,007
-198,548	-200,000	-0,023	0,092
-197,533	-1,443	0,090	0,046
-196,519	800,000	-0,006	-0,013
-195,504	430,406	-0,068	-0,108
-194,490	-120,865	-0,108	0,013
-193,475	550,987	0,045	-0,079
-192,460	-200,000	-0,003	0,033
-191,446	2,187	0,062	-0,032
-190,431	324,857	-0,040	-0,056
-189,417	157,237	-0,015	-0,015
-188,402	-200,000	0,005	0,030
-187,387	-49,943	-0,088	0,030
-186,373	121,782	0,080	-0,072
-185,358	-141,185	-0,076	0,006
-184,344	78,737	0,085	-0,066
-183,329	800,000	0,042	0,105
-182,315	-200,000	-0,000	0,124
-181,300	-8,599	-0,053	0,026
-180,285	111,093	0,071	-0,062
-179,271	800,000	-0,062	-0,130
-178,256	328,049	-0,047	-0,066
-177,242	-200,000	0,004	-0,139
-176,227	62,943	-0,057	0,041
-175,212	-200,000	0,019	-0,089
-174,198	-110,603	-0,080	0,012
-173,183	174,855	-0,047	0,050
-172,169	151,847	-0,093	-0,092
-171,154	800,000	0,032	0,080
-170,139	-15,219	-0,064	-0,030
-169,125	-61,608	-0,069	0,021
-168,110	123,527	0,039	-0,036
-167,096	156,445	-0,021	0,021
-166,081	-115,256	-0,094	-0,013
-165,066	63,492	-0,033	-0,024
-164,052	-56,970	-0,074	0,023
-163,037	180,544	-0,129	0,138
-162,023	-155,001	0,089	0,004
-161,008	800,000	-0,014	-0,034
-159,993	201,487	-0,079	-0,089
-158,979	262,201	0,088	0,111
-157,964	-44,006	-0,169	-0,061
-156,950	75,801	0,042	0,032
-155,935	226,968	0,034	0,040
-154,920	-200,000	0,016	0,077
-153,906	776,155	0,051	0,101
-152,891	199,168	-0,033	-0,037
-151,877	246,586	-0,056	-0,068
-150,862	185,120	0,052	-0,056
-149,847	-107,828	0,050	-0,008
-148,833	-200,000	0,009	0,101
-147,818	-200,000	0,006	0,056
-146,804	-200,000	-0,017	0,058
-145,789	-200,000	0,012	0,189
-144,775	126,754	0,095	0,087
-143,760	-42,635	-0,188	-0,069
-142,745	323,645	0,095	-0,132
-141,731	-200,000	0,017	0,074
-140,716	-156,086	0,078	-0,004
-139,702	70,638	0,071	0,053
-138,687	104,533	0,131	-0,112
-137,672	-61,963	-0,069	-0,021
-136,658	-87,337	-0,184	-0,040
-135,643	73,871	0,083	-0,063
-134,629	340,859	-0,105	-0,149
-133,614	-200,000	0,034	-0,141
-132,599	-91,153	0,107	-0,022
-131,585	103,550	0,046	0,039
-130,570	59,188	-0,123	-0,088
-129,556	-23,178	0,073	-0,032
-128,541	800,000	-0,073	-0,160
-127,526	167,978	0,084	0,086
-126,512	-20,813	-0,057	0,025
-125,497	800,000	0,014	-0,041
-124,483	277,398	0,094	0,122
-123,468	583,584	0,024	0,043
-122,453	-200,000	-0,018	0,064
-121,439	800,000	0,026	0,077
-120,424	-200,000	0,018	0,094
-119,410	-37,035	-0,025	-0,010
