DTS Sentinel unit serial number:	SN410029Multiplexer serial number:	ORYXHardware model number:	OX2-SRSoftware version number:	ORYX F/W v4,00 Oryx Data Collector v3.7.2.0data status	okinstallation	B6 Nyhavnadifferential loss correction	single-endedforward channel	channel 2reverse channel	N/Adate	2023/12/08time	16:15:08forward acquisition time	300,00reverse acquisition time	0,00gamma	499,1914k internal	0,3160k external	0,3160temperature offset calibration	1,0000default loss term (dB/km)	0,3820temperature slope calibration	1,0000multiplexer offset coefficient	1,0000multiplexer slope coefficient	1,0000fibre end	0,00T internal ref (°C)	15,12T ext. ref 1 (°C)	-1,47T ext. ref 2 (°C)	-1,48length (m)	temperature (°C)	Stokes	anti-Stokes-744,400	42,660	0,150	0,101
-743,385	-24,930	-0,263	0,114
-742,371	-54,928	0,231	0,076
-741,356	-136,149	-0,354	0,030
-740,342	197,543	0,074	0,083
-739,327	-144,937	-0,323	-0,021
-738,312	234,922	0,107	-0,131
-737,298	-133,370	-0,287	0,026
-736,283	-174,327	0,159	-0,003
-735,269	-49,435	-0,294	0,103
-734,254	4,775	0,133	0,072
-733,239	-125,429	-0,486	-0,054
-732,225	-76,614	0,110	0,028
-731,210	37,409	-0,066	0,043
-730,196	-200,000	0,020	0,086
-729,181	-129,711	0,034	-0,003
-728,167	-142,604	-0,046	0,003
-727,152	-50,057	0,077	-0,027
-726,137	97,314	-0,103	-0,087
-725,123	54,452	-0,044	0,031
-724,108	751,216	0,054	-0,108
-723,094	273,833	-0,010	0,014
-722,079	-200,000	-0,014	-0,086
-721,064	17,418	0,093	-0,054
-720,050	-125,962	-0,027	0,003
-719,035	119,553	0,043	-0,039
-718,021	-41,807	-0,170	0,064
-717,006	55,320	-0,086	-0,061
-715,991	45,837	-0,043	-0,029
-714,977	-31,856	0,139	-0,057
-713,962	-42,252	-0,109	0,041
-712,948	-76,540	-0,080	0,021
-711,933	162,903	-0,080	-0,083
-710,918	-37,195	-0,045	0,018
-709,904	800,000	0,027	-0,073
-708,889	350,743	-0,020	-0,030
-707,875	568,706	-0,077	-0,139
-706,860	-101,003	-0,042	-0,008
-705,845	-200,000	-0,022	-0,110
-704,831	41,045	0,025	0,016
-703,816	-71,943	0,030	-0,008
-702,802	26,967	-0,083	-0,051
-701,787	279,500	-0,012	0,016
-700,772	595,007	0,028	-0,050
-699,758	542,525	0,035	-0,062
-698,743	415,606	-0,049	-0,077
-697,729	195,265	0,052	0,059
-696,714	-200,000	-0,011	-0,078
-695,699	131,514	-0,053	-0,050
-694,685	-74,139	0,100	0,026
-693,670	81,708	-0,074	0,059
-692,656	-43,990	0,021	0,008
-691,641	184,337	0,046	-0,050
-690,627	231,648	-0,010	0,012
-689,612	-200,000	0,001	0,035
-688,597	371,154	-0,030	-0,045
-687,583	-91,106	-0,133	-0,028
-686,568	-5,244	-0,049	-0,025
-685,554	20,007	-0,086	0,051
-684,539	-200,000	0,031	-0,123
-683,524	86,943	0,036	0,029
-682,510	-200,000	0,005	-0,094
-681,495	-94,046	-0,185	-0,037
-680,481	229,209	-0,071	-0,086
-679,466	646,950	-0,070	-0,133
-678,451	800,000	-0,045	-0,129
-677,437	-109,427	-0,049	0,007
-676,422	-8,262	0,154	0,076
-675,408	103,009	-0,025	-0,022
-674,393	-173,000	0,003	0,000
-673,378	-9,071	-0,059	-0,029
-672,364	-74,181	-0,147	-0,039
-671,349	-24,439	0,025	-0,011
-670,335	-37,632	0,105	-0,041
-669,320	-144,460	0,040	-0,003
-668,305	423,514	-0,018	-0,028
-667,291	316,687	-0,036	-0,050
-666,276	-2,682	0,025	0,013
-665,262	318,508	0,012	-0,017
-664,247	69,599	-0,045	0,034
-663,232	-18,912	-0,102	0,047
-662,218	86,199	0,209	-0,169
-661,203	-111,115	-0,103	0,015
-660,189	21,385	0,037	0,022
-659,174	247,575	-0,044	-0,055
-658,159	-32,681	-0,083	-0,034
-657,145	-200,000	0,019	-0,085
-656,130	-30,653	-0,050	-0,021
-655,116	-200,000	0,004	-0,094
-654,101	44,213	0,047	-0,031
-653,086	67,971	0,020	0,015
-652,072	-200,000	0,003	0,064
-651,057	-200,000	0,028	-0,094
-650,043	800,000	0,075	0,205
-649,028	69,324	0,161	0,122
-648,014	-80,279	-0,093	-0,023
-646,999	-200,000	-0,011	-0,122
-645,984	-200,000	0,008	0,041
-644,970	623,486	-0,023	-0,042
-643,955	-109,237	-0,032	0,005
-642,941	-9,207	0,161	0,079
-641,926	-200,000	-0,003	-0,108
-640,911	56,777	0,101	0,072
-639,897	-200,000	0,017	-0,062
-638,882	-131,244	-0,154	-0,015
-637,868	-17,943	-0,062	0,028
-636,853	800,000	-0,037	-0,083
-635,838	-172,863	-0,129	0,003
-634,824	452,460	0,045	-0,073
-633,809	1,049	-0,056	-0,029
-632,795	-56,728	-0,085	-0,027
-631,780	-11,016	-0,073	0,035
-630,765	3,442	-0,041	0,022
-629,751	388,833	-0,126	0,192
-628,736	251,734	-0,086	-0,108
-627,722	-10,384	-0,063	0,030
-626,707	800,000	-0,032	0,081
-625,692	130,742	0,101	-0,095
-624,678	-127,135	0,074	-0,008
-623,663	800,000	-0,081	0,194
-622,649	224,734	0,031	-0,037
-621,634	9,797	-0,117	0,065
-620,619	-29,883	-0,093	-0,039
-619,605	-200,000	-0,017	0,087
-618,590	-38,627	0,067	0,026
-617,576	134,139	0,099	-0,094
-616,561	-77,538	-0,160	-0,040
-615,546	34,917	-0,097	-0,062
-614,532	-112,058	-0,121	0,018
-613,517	-62,233	-0,077	-0,023
-612,503	-76,947	0,094	0,024
-611,488	-138,742	-0,058	-0,005
-610,474	174,189	0,109	0,115
-609,459	800,000	0,049	-0,110
-608,444	-20,561	-0,098	0,044
-607,430	800,000	0,024	0,073
-606,415	84,376	0,090	-0,072
-605,401	-69,056	0,024	-0,007
-604,386	138,703	-0,019	-0,019
-603,371	800,000	-0,052	-0,160
-602,357	-140,369	0,112	0,008
-601,342	800,000	0,041	-0,129
-600,328	743,423	-0,070	-0,138
-599,313	-200,000	-0,030	-0,103
-598,298	-100,798	-0,101	0,018
-597,284	-168,590	0,177	0,005
-596,269	63,996	-0,073	-0,054
-595,255	197,340	0,039	0,043
-594,240	-200,000	-0,001	0,078
-593,225	228,550	0,039	-0,047
-592,211	800,000	0,045	-0,112
-591,196	-109,782	-0,079	0,012
-590,182	209,652	-0,059	-0,067
-589,167	-55,697	0,190	-0,062
-588,152	-200,000	-0,029	0,102
-587,138	-84,398	0,030	-0,007
-586,123	282,261	-0,114	-0,150
-585,109	-55,241	-0,095	0,031
-584,094	-76,431	0,128	0,033
-583,079	43,562	-0,067	-0,045
-582,065	-19,201	0,217	0,098
-581,050	107,124	0,048	-0,042
-580,036	-200,000	0,032	-0,115
-579,021	186,040	-0,042	0,046
-578,006	93,160	-0,047	-0,039
-576,992	41,051	-0,127	-0,084
-575,977	800,000	0,007	-0,016
-574,963	42,472	0,112	0,075
-573,948	-167,302	0,072	0,002
-572,934	-190,803	0,220	-0,002
-571,919	-104,819	-0,092	0,015
-570,904	475,198	-0,064	-0,106
-569,890	48,045	-0,085	-0,058
-568,875	-25,249	0,017	-0,007
-567,861	-87,564	0,020	0,004
-566,846	-200,000	0,009	0,109
-565,831	9,096	-0,084	0,046
-564,817	25,397	0,114	-0,069
-563,802	13,211	-0,130	-0,074
-562,788	116,556	0,053	-0,048
-561,773	110,050	0,045	0,039
-560,758	-36,001	0,090	-0,036
-559,744	-51,760	0,074	0,025
-558,729	-54,901	-0,164	-0,054
-557,715	-200,000	-0,031	0,197
-556,700	214,413	-0,080	0,093
-555,685	127,532	-0,129	-0,120
-554,671	142,749	0,127	-0,123
-553,656	57,289	-0,042	-0,030
-552,642	117,497	0,133	-0,120
-551,627	688,659	-0,091	-0,175
-550,612	-200,000	-0,004	-0,038
-549,598	40,714	0,009	-0,006
-548,583	201,715	0,021	-0,023
-547,569	-36,192	0,145	0,057
-546,554	58,683	0,062	-0,044
-545,539	-200,000	0,023	-0,098
-544,525	374,202	-0,035	0,052
-543,510	34,469	-0,035	0,022
-542,496	-200,000	0,011	0,041
-541,481	800,000	-0,063	-0,161
-540,466	244,219	-0,088	0,108
-539,452	177,988	0,086	0,092
-538,437	-54,147	-0,122	0,040
-537,423	73,644	-0,093	0,071
-536,408	-200,000	-0,007	0,033
-535,393	-7,183	0,107	0,053
-534,379	466,146	-0,103	-0,168
-533,364	518,070	-0,078	0,134
-532,350	800,000	0,048	0,116
-531,335	44,044	-0,112	-0,075
-530,321	-162,385	-0,046	-0,002
-529,306	163,065	0,052	-0,053
-528,291	676,142	-0,029	0,055
-527,277	-200,000	0,007	0,066
-526,262	-95,215	-0,039	0,008
-525,248	-51,500	0,094	-0,032
-524,233	-200,000	0,005	-0,036
-523,218	296,424	0,063	0,085
-522,204	164,093	0,064	-0,066
-521,189	-53,340	0,036	-0,012
-520,175	-9,538	-0,065	-0,032
-519,160	-83,789	0,118	-0,027
-518,145	-200,000	-0,034	0,120
-517,131	39,492	-0,109	-0,071
-516,116	-194,411	-0,051	0,000
-515,102	61,203	-0,053	0,038
-514,087	76,093	-0,040	0,031
-513,072	44,230	-0,105	-0,070
-512,058	-113,318	-0,098	-0,014
-511,043	-168,177	-0,102	0,003
-510,029	55,440	0,052	-0,037
-509,014	30,456	0,052	0,032
-507,999	76,606	0,068	-0,053
-506,985	-66,701	-0,106	0,030
-505,970	800,000	0,071	0,145
-504,956	81,269	0,036	-0,028
-503,941	-200,000	-0,015	0,087
-502,926	-81,846	-0,127	-0,030
-501,912	230,780	0,105	-0,125
-500,897	-200,000	0,013	0,077
-499,883	-79,257	0,108	0,027
-498,868	-200,000	-0,010	0,055
-497,853	659,514	0,083	-0,157
-496,839	128,123	-0,081	-0,075
-495,824	-200,000	0,006	-0,092
-494,810	800,000	0,027	0,078
-493,795	-200,000	-0,011	0,072
-492,781	97,701	-0,061	-0,051
-491,766	-20,328	-0,140	-0,063
-490,751	477,250	-0,041	-0,067
-489,737	-68,360	0,033	-0,009
-488,722	-200,000	-0,020	-0,068
-487,708	-200,000	-0,018	-0,073
-486,693	-133,064	0,065	0,006
-485,678	183,455	0,087	0,094
-484,664	258,112	-0,080	0,101
-483,649	800,000	-0,038	0,094
-482,635	419,277	-0,063	-0,099
-481,620	-200,000	-0,031	0,133
-480,605	236,279	0,039	0,047
-479,591	-200,000	0,012	0,087
-478,576	-139,212	-0,089	-0,007
-477,562	112,263	0,066	-0,058
-476,547	-75,833	-0,110	-0,028
-475,532	-200,000	0,001	-0,097
-474,518	-200,000	0,009	0,139
-473,503	800,000	0,017	0,050
-472,489	-200,000	0,021	0,163
-471,474	268,276	0,049	0,063
-470,459	522,857	-0,023	0,040
-469,445	125,900	-0,044	-0,040
-468,430	-200,000	0,028	-0,171
-467,416	800,000	-0,016	-0,037
-466,401	158,267	0,006	0,006
-465,386	720,150	-0,089	0,174
-464,372	179,581	0,077	0,082
-463,357	169,029	0,021	0,022
-462,343	-16,859	-0,051	0,023
-461,328	800,000	-0,015	-0,033
-460,313	-63,354	0,056	-0,017
-459,299	-141,293	-0,060	-0,004
-458,284	-20,145	-0,046	-0,021
-457,270	-121,324	-0,046	-0,006
-456,255	707,244	0,018	0,034
-455,241	48,350	-0,092	-0,062
-454,226	39,613	0,133	-0,087
-453,211	-48,773	0,096	0,033
-452,197	-11,532	0,090	-0,043
-451,182	800,000	0,016	-0,034
-450,168	39,911	0,093	0,060
-449,153	-114,612	-0,121	-0,017
-448,138	96,380	0,071	0,059
-447,124	464,904	0,024	0,040
-446,109	-85,800	-0,111	0,025
-445,095	256,699	0,065	0,082
-444,080	-200,000	-0,008	0,110
-443,065	688,257	-0,038	-0,072
-442,051	800,000	0,013	0,028
-441,036	-143,734	-0,112	-0,008
-440,022	-200,000	0,008	-0,051
-439,007	428,267	0,053	0,083
-437,992	-200,000	0,004	0,172
-436,978	800,000	0,065	0,148
-435,963	120,673	-0,056	0,050
-434,949	800,000	0,017	-0,037
-433,934	-200,000	-0,011	-0,117
-432,919	135,234	-0,042	-0,040
-431,905	-33,693	0,039	-0,016
-430,890	528,433	0,008	0,015
-429,876	-200,000	-0,034	0,117
-428,861	408,394	0,022	-0,034
-427,846	-185,047	-0,026	-0,000
-426,832	-47,915	-0,029	0,010
-425,817	127,170	0,091	0,084
-424,803	-4,848	0,033	-0,017
-423,788	482,045	-0,042	0,070
-422,773	800,000	-0,048	0,108
-421,759	800,000	0,047	0,114
-420,744	-200,000	-0,025	-0,129
-419,730	-50,485	-0,079	0,027
-418,715	800,000	0,042	0,097
-417,701	800,000	-0,043	-0,120
-416,686	-46,776	-0,055	0,020
-415,671	800,000	-0,048	-0,104
-414,657	-79,562	0,118	-0,029
-413,642	800,000	0,075	0,177
-412,628	633,344	0,057	0,105
-411,613	-117,873	-0,073	-0,009
-410,598	-200,000	-0,007	0,043
-409,584	-0,161	-0,065	-0,034
-408,569	121,932	0,096	-0,087
-407,555	169,542	0,044	-0,046
-406,540	-61,000	0,089	0,027
-405,525	-200,000	-0,005	-0,035
-404,511	-90,432	-0,128	0,027
-403,496	-142,300	0,065	0,005
-402,482	800,000	-0,013	0,041
-401,467	-175,823	0,075	0,001
-400,452	263,448	0,109	0,138
-399,438	-200,000	0,026	0,085
-398,423	-200,000	0,019	-0,143
-397,409	-73,591	0,096	-0,025
-396,394	-200,000	-0,006	0,061
-395,379	153,913	-0,025	-0,025
-394,365	147,332	0,110	-0,108
-393,350	-200,000	-0,025	0,108
-392,336	247,131	-0,064	0,078
-391,321	146,112	0,024	0,023
-390,306	502,280	-0,014	-0,024
-389,292	458,472	-0,021	-0,035
-388,277	-58,529	-0,046	0,014
-387,263	-6,330	0,065	-0,032
-386,248	599,334	-0,051	0,093
-385,233	800,000	-0,031	-0,075
-384,219	24,186	0,040	0,024
-383,204	-153,628	0,138	-0,007
-382,190	190,766	0,036	-0,040
-381,175	529,668	0,022	-0,038
-380,160	-90,784	0,093	-0,019
-379,146	-200,000	-0,017	-0,078
-378,131	250,741	-0,102	0,126
-377,117	305,703	0,099	0,134
-376,102	203,795	0,085	-0,096
-375,088	-193,224	-0,030	-0,000
-374,073	290,012	0,030	-0,040
-373,058	-112,680	0,129	0,018
-372,044	11,289	0,153	-0,085
-371,029	-200,000	0,030	0,137
-370,015	800,000	0,022	0,060
-369,000	2,207	0,046	-0,024
-367,985	17,794	0,067	0,039
-366,971	205,058	-0,030	-0,034
-365,956	-200,000	-0,003	-0,062
-364,942	800,000	0,043	0,098
-363,927	800,000	0,025	0,058
-362,912	119,452	-0,014	0,013
-361,898	-200,000	-0,008	-0,096
-360,883	331,242	-0,067	-0,094
-359,869	-200,000	0,010	0,059
-358,854	54,100	0,129	-0,090
-357,839	-80,279	0,035	0,008
-356,825	40,209	-0,063	-0,041
-355,810	440,743	0,015	0,024
-354,796	-158,312	-0,040	0,002
-353,781	-96,406	-0,087	-0,017
-352,766	198,621	-0,032	-0,036
-351,752	-200,000	0,009	-0,105
-350,737	367,840	0,046	-0,068
-349,723	-200,000	0,033	0,145
-348,708	99,433	0,114	0,095
-347,693	-99,346	-0,238	0,043
-346,679	-200,000	0,001	-0,084
-345,664	-6,792	0,067	0,033
-344,650	530,596	0,042	-0,072
-343,635	3,650	-0,074	0,039
-342,620	-200,000	-0,040	0,193
-341,606	-173,453	-0,118	-0,003
-340,591	800,000	-0,037	-0,093
-339,577	-200,000	-0,009	-0,179
-338,562	-200,000	0,004	-0,059
-337,548	14,096	-0,058	-0,033
-336,533	50,764	0,138	0,094
-335,518	-5,425	0,089	0,044
-334,504	800,000	0,057	0,148
-333,489	-73,789	0,055	0,014
-332,475	800,000	-0,009	-0,020
-331,460	1,511	-0,074	-0,038
-330,445	800,000	0,033	0,073
-329,431	-9,154	0,071	-0,034
-328,416	4,840	0,036	0,019
-327,402	662,696	-0,036	0,068
-326,387	-150,486	-0,091	0,005
-325,372	65,299	0,100	-0,073
-324,358	204,747	0,129	-0,146
-323,343	-98,888	0,018	0,003
-322,329	238,133	0,066	0,080
-321,314	-53,965	0,123	-0,040
-320,299	620,665	-0,025	-0,046
-319,285	-104,787	0,028	0,005
-318,270	-63,896	-0,120	0,035
-317,256	358,508	-0,076	-0,111
-316,241	706,437	-0,037	0,070
-315,226	286,379	0,056	0,073
-314,212	48,162	0,071	0,048
-313,197	446,534	0,072	0,115
-312,183	75,036	0,083	0,064
-311,168	-98,543	-0,100	-0,018
-310,153	-200,000	0,006	-0,060
-309,139	50,200	-0,121	-0,083
-308,124	800,000	0,045	0,112
-307,110	187,368	-0,057	0,062
-306,095	-34,628	0,131	0,052
-305,080	-102,780	-0,087	0,015
-304,066	-3,264	-0,129	0,065
-303,051	240,802	-0,084	0,102
-302,037	566,025	0,078	-0,138
-301,022	-92,643	-0,073	-0,015
-300,008	-52,447	-0,027	-0,009
-298,993	206,796	-0,076	-0,085
-297,978	-111,925	-0,023	0,003
-296,964	263,511	0,056	0,071
-295,949	-37,124	-0,124	-0,048
-294,935	-112,255	-0,088	0,013
-293,920	-146,509	0,108	0,007
-292,905	529,804	-0,037	-0,064
-291,891	100,607	-0,102	-0,086
-290,876	-70,599	0,051	0,014
-289,862	279,667	0,077	-0,100
-288,847	-87,729	-0,214	-0,046
-287,832	800,000	0,028	-0,075
-286,818	-47,854	-0,108	0,038
-285,803	-157,458	-0,055	-0,002
-284,789	800,000	-0,029	0,085
-283,774	-200,000	-0,050	0,225
-282,759	-10,815	-0,071	-0,034
-281,745	49,064	0,198	-0,134
-280,730	-13,633	-0,010	0,005
-279,716	800,000	0,025	-0,076
-278,701	-200,000	-0,017	0,133
-277,686	-118,134	0,107	0,014
-276,672	220,104	0,077	0,089
-275,657	-59,975	-0,046	0,014
-274,643	-28,153	-0,137	-0,057
-273,628	-200,000	-0,036	-0,124
-272,613	174,644	-0,037	0,039
-271,599	-115,145	0,156	0,021
-270,584	195,012	0,059	-0,065
-269,570	-200,000	-0,004	-0,025
-268,555	-15,800	0,123	-0,056
-267,540	-200,000	-0,042	-0,150
-266,526	48,834	0,105	0,071
-265,511	109,441	0,071	0,062
-264,497	-159,160	0,067	0,003
-263,482	-200,000	-0,013	0,085
-262,467	-200,000	0,007	0,145
-261,453	143,356	0,042	0,040
-260,438	800,000	0,019	0,039
-259,424	-200,000	0,033	-0,167
-258,409	174,037	-0,098	-0,102
-257,395	-200,000	0,019	0,065
-256,380	-70,234	0,114	0,031
-255,365	800,000	0,070	-0,149
-254,351	-64,530	0,130	-0,038
-253,336	-149,412	-0,036	-0,002
-252,322	207,738	-0,072	-0,082
-251,307	52,079	-0,016	-0,011
-250,292	800,000	0,033	0,069
-249,278	115,429	-0,069	0,061
-248,263	-180,784	0,115	-0,002
-247,249	800,000	0,038	0,083
-246,234	800,000	0,040	0,115
-245,219	186,223	-0,165	-0,177
-244,205	399,542	0,064	-0,097
-243,190	-78,585	-0,103	0,025
-242,176	-125,327	0,064	0,007
-241,161	-158,400	0,057	-0,002
-240,146	-200,000	0,012	0,038
-239,132	27,064	-0,034	-0,020
-238,117	147,935	0,057	-0,056
-237,103	546,071	-0,080	-0,138
-236,088	-77,511	-0,040	-0,010
-235,073	-200,000	0,033	0,144
-234,059	374,185	0,104	-0,154
-233,044	51,949	0,039	0,027
-232,030	-200,000	-0,025	-0,082
-231,015	-179,230	-0,019	-0,000
-230,000	150,013	0,013	-0,013
-228,986	800,000	-0,019	0,038
-227,971	-109,652	0,108	-0,016
-226,957	-46,388	-0,079	-0,028
-225,942	250,662	0,078	-0,096
-224,927	102,568	0,074	-0,063
-223,913	-83,873	-0,111	-0,025
-222,898	-200,000	-0,021	-0,075
-221,884	156,450	0,015	-0,015
-220,869	43,224	-0,066	0,043
-219,855	212,680	0,035	0,040
-218,840	-200,000	-0,022	0,119
-217,825	134,205	0,122	-0,114
-216,811	-31,589	-0,065	0,026
-215,796	-94,060	-0,194	-0,038
-214,782	277,626	0,076	-0,097
-213,767	-150,630	0,111	0,006
-212,752	-200,000	-0,033	0,112
-211,738	102,690	0,133	0,112
-210,723	131,030	0,070	-0,065
-209,709	-113,472	-0,142	-0,020
-208,694	-200,000	0,010	-0,069
-207,679	-47,739	-0,019	0,007
-206,665	171,250	0,074	0,077
-205,650	-200,000	-0,006	0,151
-204,636	-35,573	-0,142	-0,055
-203,621	119,768	0,072	-0,064
-202,606	135,125	-0,017	-0,016
-201,592	800,000	-0,036	-0,100
-200,577	-82,240	-0,103	0,024
-199,563	-200,000	-0,001	0,009
-198,548	437,325	0,060	-0,095
-197,533	57,643	0,117	0,082
-196,519	-200,000	0,026	0,087
-195,504	800,000	-0,067	0,191
-194,490	268,430	-0,081	0,103
-193,475	55,187	-0,053	-0,037
-192,460	-200,000	0,014	-0,134
-191,446	-120,796	0,136	-0,016
-190,431	246,455	0,063	0,076
-189,417	800,000	0,016	0,048
-188,402	-101,525	0,074	-0,013
-187,387	114,027	-0,031	0,027
-186,373	145,783	-0,065	0,063
-185,358	-97,625	-0,077	0,014
-184,344	-200,000	0,011	-0,241
-183,329	22,899	0,047	0,028
-182,315	-200,000	-0,007	0,124
-181,300	123,592	-0,148	-0,134
-180,285	770,911	-0,108	-0,213
-179,271	-50,408	0,101	-0,034
-178,256	53,438	-0,064	-0,044
-177,242	-200,000	-0,013	0,091
-176,227	64,249	0,071	0,052
-175,212	-52,514	-0,088	0,029
-174,198	-23,983	-0,083	-0,036
-173,183	21,177	-0,100	0,058
-172,169	-200,000	-0,012	0,070
-171,154	-200,000	0,004	0,037
-170,139	60,949	0,109	0,078
-169,125	136,839	0,111	-0,105
-168,110	-95,752	0,215	0,041
-167,096	651,470	-0,095	-0,177
-166,081	42,658	-0,054	0,035
-165,066	277,238	0,077	-0,099
-164,052	-75,329	-0,144	0,037
-163,037	-47,115	0,122	0,043
-162,023	-135,906	-0,029	-0,002
-161,008	800,000	0,025	0,058
-159,993	130,275	-0,070	0,064
-158,979	343,807	-0,085	-0,121
-157,964	-4,146	-0,071	0,035
-156,950	-200,000	-0,004	0,042
-155,935	-91,581	0,115	-0,023
-154,920	800,000	-0,066	0,137
-153,906	48,792	-0,131	0,088
-152,891	-200,000	-0,001	-0,010
-151,877	-16,938	0,098	-0,044
-150,862	-199,963	-0,084	0,000
-149,847	-200,000	-0,029	-0,211
-148,833	50,214	-0,031	0,021
-147,818	346,330	0,059	0,084
-146,804	-1,511	0,063	-0,032
-145,789	418,851	-0,068	0,105
-144,775	800,000	0,020	0,060
-143,760	740,665	-0,011	-0,022
-142,745	65,534	0,112	0,082
-141,731	-200,000	-0,004	-0,029
-140,716	-34,398	0,059	0,023
-139,702	226,378	-0,096	0,112
-138,687	97,096	-0,123	0,102
-137,672	-15,247	0,077	-0,035
-136,658	800,000	0,073	-0,172
-135,643	-200,000	-0,015	-0,201
-134,629	48,836	-0,051	-0,034
-133,614	800,000	-0,023	-0,056
-132,599	1,612	0,055	0,028
-131,585	800,000	0,025	-0,064
-130,570	-125,276	-0,045	-0,005
-129,556	-200,000	-0,008	-0,039
-128,541	-200,000	0,001	-0,088
-127,526	-57,686	0,106	0,033
-126,512	-116,766	-0,151	-0,020
-125,497	-200,000	0,025	-0,089
-124,483	800,000	0,027	0,076
-123,468	-168,709	-0,064	-0,002
-122,453	-200,000	-0,027	-0,166
-121,439	311,254	-0,039	-0,053
-120,424	-200,000	-0,006	0,021
-119,410	800,000	0,025	0,061
-118,395	404,922	0,104	0,157
