DTS Sentinel unit serial number:	SN410029Multiplexer serial number:	ORYXHardware model number:	OX2-SRSoftware version number:	ORYX F/W v4,00 Oryx Data Collector v3.7.2.0data status	okinstallation	B6 Nyhavnadifferential loss correction	single-endedforward channel	channel 2reverse channel	N/Adate	2023/12/08time	23:50:08forward acquisition time	300,00reverse acquisition time	0,00gamma	499,1914k internal	0,3157k external	0,3157temperature offset calibration	1,0000default loss term (dB/km)	0,3820temperature slope calibration	1,0000multiplexer offset coefficient	1,0000multiplexer slope coefficient	1,0000fibre end	0,00T internal ref (°C)	15,51T ext. ref 1 (°C)	-0,89T ext. ref 2 (°C)	-0,89length (m)	temperature (°C)	Stokes	anti-Stokes-744,400	391,939	0,103	0,158
-743,385	-98,807	-0,226	0,042
-742,371	134,693	0,041	0,039
-741,356	-104,813	-0,385	-0,065
-740,342	-34,493	0,141	0,057
-739,327	-41,078	-0,334	0,126
-738,312	-200,000	0,015	-0,070
-737,298	12,886	-0,111	-0,063
-736,283	-31,472	0,103	0,042
-735,269	-178,966	-0,412	-0,007
-734,254	25,195	0,163	-0,100
-733,239	-13,927	-0,451	-0,214
-732,225	-65,353	0,191	-0,056
-731,210	800,000	0,068	0,185
-730,196	582,511	-0,072	-0,131
-729,181	79,682	-0,030	-0,024
-728,167	-131,286	0,076	-0,007
-727,152	800,000	-0,006	0,020
-726,137	-16,709	-0,087	0,040
-725,123	344,284	0,075	-0,108
-724,108	-38,550	-0,091	-0,035
-723,094	-200,000	-0,030	-0,128
-722,079	-40,492	0,089	-0,034
-721,064	98,327	0,049	0,041
-720,050	11,920	0,041	-0,023
-719,035	-200,000	0,002	-0,063
-718,021	-58,952	-0,143	-0,045
-717,006	88,174	-0,088	-0,072
-715,991	104,108	0,075	-0,065
-714,977	-200,000	-0,015	0,066
-713,962	-164,405	-0,186	-0,006
-712,948	291,762	0,036	-0,048
-711,933	-50,404	0,028	0,010
-710,918	103,813	-0,092	-0,079
-709,904	-200,000	-0,033	-0,173
-708,889	620,980	-0,070	-0,130
-707,875	142,926	-0,044	0,043
-706,860	228,672	-0,080	-0,096
-705,845	36,823	0,121	-0,078
-704,831	106,832	-0,049	0,043
-703,816	623,227	-0,040	-0,074
-702,802	-77,534	-0,089	-0,023
-701,787	-200,000	0,029	-0,115
-700,772	-68,767	0,040	0,011
-699,758	510,280	0,012	0,021
-698,743	91,121	0,090	-0,074
-697,729	-51,586	0,029	0,010
-696,714	-118,484	0,075	0,010
-695,699	181,607	-0,049	-0,053
-694,685	531,384	-0,166	-0,290
-693,670	-200,000	0,049	-0,159
-692,656	-200,000	-0,018	0,076
-691,641	69,585	-0,019	0,014
-690,627	543,110	-0,027	-0,048
-689,612	-90,192	0,055	-0,012
-688,597	162,933	-0,032	-0,033
-687,583	800,000	0,042	-0,116
-686,568	664,171	-0,013	0,025
-685,554	-119,703	0,109	-0,014
-684,539	751,315	0,039	-0,079
-683,524	118,328	0,031	-0,028
-682,510	-200,000	-0,024	-0,089
-681,495	147,958	0,067	-0,066
-680,481	-75,211	-0,205	-0,053
-679,466	800,000	-0,025	-0,071
-678,451	228,110	0,022	0,026
-677,437	324,438	0,060	0,084
-676,422	800,000	-0,052	0,117
-675,408	196,207	-0,067	0,075
-674,393	-200,000	0,010	0,125
-673,378	-192,646	-0,169	0,001
-672,364	657,605	0,047	-0,089
-671,349	25,842	0,075	-0,046
-670,335	67,043	0,160	0,120
-669,320	-200,000	0,022	0,133
-668,305	-2,616	-0,107	0,055
-667,291	800,000	0,012	0,026
-666,276	800,000	-0,035	-0,083
-665,262	7,033	-0,037	-0,020
-664,247	-27,695	-0,165	-0,070
-663,232	479,062	0,036	-0,060
-662,218	94,199	-0,069	0,058
-661,203	-138,139	0,102	-0,008
-660,189	-200,000	-0,017	-0,116
-659,174	215,673	0,005	0,006
-658,159	-129,191	-0,111	-0,011
-657,145	-200,000	0,006	-0,093
-656,130	-80,498	-0,035	-0,009
-655,116	-72,081	-0,007	-0,002
-654,101	-116,755	-0,084	0,011
-653,086	800,000	0,015	0,045
-652,072	39,982	-0,062	-0,041
-651,057	800,000	-0,008	0,018
-650,043	59,414	0,071	0,051
-649,028	-200,000	0,021	-0,100
-648,014	-200,000	0,022	0,125
-646,999	228,372	-0,096	-0,115
-645,984	-200,000	0,003	0,044
-644,970	44,534	-0,084	-0,057
-643,955	-60,989	0,067	-0,021
-642,941	800,000	-0,035	-0,098
-641,926	187,126	-0,025	0,028
-640,911	-20,173	0,020	-0,009
-639,897	800,000	0,023	-0,049
-638,882	800,000	-0,030	0,083
-637,868	800,000	-0,052	-0,120
-636,853	-76,334	-0,099	0,026
-635,838	-200,000	-0,001	0,179
-634,824	-71,176	0,121	-0,033
-633,809	-200,000	0,013	-0,097
-632,795	67,304	0,112	0,084
-631,780	69,371	-0,064	0,048
-630,765	-200,000	-0,015	0,098
-629,751	-124,182	-0,017	-0,002
-628,736	800,000	0,018	0,047
-627,722	-200,000	-0,002	-0,028
-626,707	-91,537	-0,086	0,018
-625,692	-108,249	-0,043	-0,007
-624,678	-200,000	0,009	0,071
-623,663	123,845	-0,056	-0,052
-622,649	-200,000	-0,016	-0,126
-621,634	101,232	-0,079	-0,067
-620,619	-56,391	-0,116	-0,038
-619,605	65,658	0,079	-0,059
-618,590	159,528	0,039	0,040
-617,576	800,000	0,034	0,085
-616,561	-200,000	-0,000	0,121
-615,546	800,000	0,013	-0,038
-614,532	225,679	-0,074	-0,088
-613,517	800,000	0,050	-0,137
-612,503	67,745	0,148	0,111
-611,488	8,168	0,092	-0,050
-610,474	-76,712	-0,150	0,038
-609,459	188,441	-0,029	0,032
-608,444	621,332	-0,083	0,154
-607,430	157,533	0,012	0,012
-606,415	800,000	-0,034	-0,104
-605,401	221,707	-0,081	-0,095
-604,386	-64,586	-0,052	-0,015
-603,371	-114,659	0,053	-0,007
-602,357	81,195	0,070	-0,055
-601,342	115,753	-0,061	-0,054
-600,328	800,000	-0,006	-0,013
-599,313	376,823	-0,031	0,046
-598,298	246,906	0,030	-0,038
-597,284	-200,000	-0,007	-0,096
-596,269	-200,000	-0,006	-0,024
-595,255	193,617	0,060	0,067
-594,240	-200,000	-0,026	0,106
-593,225	-113,423	-0,091	0,013
-592,211	203,521	-0,098	-0,111
-591,196	-200,000	0,023	-0,112
-590,182	-75,756	0,123	0,032
-589,167	-92,810	-0,054	-0,011
-588,152	-200,000	0,006	-0,083
-587,138	72,308	0,056	0,042
-586,123	317,537	-0,024	-0,033
-585,109	-118,495	-0,152	0,020
-584,094	800,000	-0,010	-0,022
-583,079	-200,000	0,013	0,079
-582,065	800,000	-0,053	0,146
-581,050	-200,000	0,000	0,199
-580,036	220,515	-0,016	0,018
-579,021	-69,549	-0,035	-0,010
-578,006	-63,946	-0,122	-0,036
-576,992	79,940	0,089	-0,070
-575,977	110,738	-0,099	0,088
-574,963	-120,440	0,081	0,010
-573,948	-119,340	-0,064	0,008
-572,934	-200,000	0,016	0,106
-571,919	-200,000	-0,023	-0,078
-570,904	-49,544	-0,061	-0,021
-569,890	216,054	0,023	0,027
-568,875	-29,477	0,074	-0,031
-567,861	272,128	0,013	-0,017
-566,846	-132,716	0,106	0,010
-565,831	-78,919	-0,258	0,064
-564,817	-200,000	-0,007	-0,044
-563,802	29,634	-0,060	-0,037
-562,788	612,272	-0,031	-0,058
-561,773	-74,959	-0,091	-0,024
-560,758	11,414	-0,156	0,087
-559,744	111,157	0,022	0,019
-558,729	83,003	0,100	-0,080
-557,715	64,072	-0,056	-0,041
-556,700	168,375	-0,090	-0,094
-555,685	-89,102	-0,115	0,025
-554,671	-36,280	0,073	0,029
-553,656	244,518	0,043	-0,053
-552,642	-97,578	-0,022	0,004
-551,627	143,389	0,101	-0,098
-550,612	800,000	0,065	-0,157
-549,598	-20,316	-0,062	-0,028
-548,583	-165,308	-0,174	-0,005
-547,569	-200,000	-0,009	-0,107
-546,554	-117,646	0,176	-0,023
-545,539	-55,481	-0,034	0,011
-544,525	125,570	0,087	0,080
-543,510	-98,801	-0,191	-0,035
-542,496	-200,000	0,019	0,084
-541,481	284,195	-0,062	-0,081
-540,466	40,825	0,018	-0,012
-539,452	-200,000	-0,030	0,214
-538,437	120,790	-0,064	0,058
-537,423	94,284	0,071	0,059
-536,408	60,466	-0,050	0,036
-535,393	101,357	0,019	0,016
-534,379	-39,543	-0,087	-0,033
-533,364	-52,959	0,074	0,025
-532,350	-112,120	0,091	0,013
-531,335	-200,000	0,042	-0,147
-530,321	-114,777	0,135	-0,019
-529,306	-200,000	-0,017	-0,103
-528,291	-200,000	0,002	-0,042
-527,277	-59,095	-0,072	-0,022
-526,262	-72,821	0,053	-0,014
-525,248	-150,863	-0,037	-0,002
-524,233	121,345	0,100	-0,091
-523,218	182,807	0,085	0,092
-522,204	-200,000	-0,011	0,112
-521,189	-200,000	-0,029	-0,116
-520,175	-200,000	0,035	-0,138
-519,160	-200,000	0,032	0,104
-518,145	-200,000	0,243	0,000
-517,131	-51,743	-0,107	-0,036
-516,116	247,674	0,063	0,078
-515,102	-200,000	-0,009	0,076
-514,087	110,809	-0,116	-0,102
-513,072	174,352	0,045	0,048
-512,058	-200,000	-0,010	-0,073
-511,043	102,062	0,021	-0,018
-510,029	23,324	0,158	-0,095
-509,014	28,502	0,028	-0,017
-507,999	28,902	-0,049	0,030
-506,985	172,220	-0,142	-0,150
-505,970	27,550	-0,115	-0,070
-504,956	78,929	0,127	-0,099
-503,941	-7,703	0,114	0,056
-502,926	-82,193	-0,122	0,029
-501,912	1,538	0,030	-0,016
-500,897	287,794	-0,056	0,075
-499,883	-0,744	-0,044	-0,023
-498,868	323,738	-0,057	-0,080
-497,853	-200,000	-0,005	-0,019
-496,839	522,387	0,062	-0,107
-495,824	800,000	0,012	-0,030
-494,810	-200,000	-0,019	0,083
-493,795	200,811	0,033	0,037
-492,781	-200,000	-0,004	-0,122
-491,766	37,361	0,082	0,053
-490,751	-33,937	0,058	-0,023
-489,737	384,780	-0,063	0,096
-488,722	66,202	-0,017	-0,013
-487,708	8,857	0,096	0,053
-486,693	800,000	-0,013	0,041
-485,678	-200,000	-0,001	-0,019
-484,664	-200,000	-0,036	-0,136
-483,649	-46,210	-0,160	-0,057
-482,635	8,513	0,064	0,035
-481,620	181,067	0,048	-0,051
-480,605	-133,475	-0,142	-0,013
-479,591	40,643	-0,031	-0,020
-478,576	-200,000	0,003	-0,031
-477,562	159,492	-0,061	-0,062
-476,547	64,422	-0,048	0,035
-475,532	-124,622	-0,175	0,020
-474,518	-200,000	-0,006	0,125
-473,503	-138,677	0,097	-0,008
-472,489	-24,651	0,079	-0,034
-471,474	101,507	-0,105	0,090
-470,459	-200,000	-0,010	0,065
-469,445	24,070	-0,018	-0,011
-468,430	79,714	0,003	0,003
-467,416	-200,000	-0,016	-0,085
-466,401	-200,000	-0,001	0,059
-465,386	-200,000	-0,033	-0,117
-464,372	-19,463	-0,069	0,031
-463,357	-200,000	0,015	-0,093
-462,343	273,059	-0,071	-0,092
-461,328	366,224	-0,084	0,124
-460,313	-178,308	-0,080	0,001
-459,299	-187,582	-0,058	0,001
-458,284	-200,000	-0,046	0,169
-457,270	231,732	0,051	-0,061
-456,255	800,000	0,030	-0,079
-455,241	-39,263	0,026	-0,010
-454,226	339,941	0,107	-0,152
-453,211	304,675	-0,065	0,088
-452,197	183,059	0,120	0,129
-451,182	-200,000	0,026	0,126
-450,168	-5,744	0,134	-0,067
-449,153	-91,878	0,062	-0,013
-448,138	800,000	0,034	0,070
-447,124	800,000	0,010	-0,032
-446,109	143,611	0,102	0,099
-445,095	-43,891	0,091	-0,033
-444,080	198,944	-0,056	0,062
-443,065	-49,751	0,042	0,014
-442,051	-200,000	0,042	-0,270
-441,036	-50,496	-0,049	0,017
-440,022	-200,000	-0,032	0,199
-439,007	35,527	0,074	0,048
-437,992	-200,000	0,017	-0,068
-436,978	-200,000	0,013	-0,088
-435,963	-189,438	-0,043	0,000
-434,949	-200,000	-0,020	0,129
-433,934	165,294	-0,104	-0,107
-432,919	465,487	-0,041	-0,067
-431,905	212,393	0,091	-0,105
-430,890	225,017	-0,044	0,052
-429,876	132,608	0,018	0,017
-428,861	62,176	-0,148	-0,108
-427,846	800,000	0,012	0,028
-426,832	115,429	0,057	-0,051
-425,817	173,803	0,114	-0,120
-424,803	-200,000	0,017	0,066
-423,788	-136,572	-0,163	0,014
-422,773	-76,144	0,097	-0,025
-421,759	521,048	0,014	-0,024
-420,744	800,000	0,011	0,028
-419,730	195,169	-0,041	0,045
-418,715	143,587	0,041	-0,040
-417,701	93,931	-0,032	0,027
-416,686	-97,112	0,126	-0,024
-415,671	50,423	0,098	-0,067
-414,657	209,460	0,069	0,079
-413,642	-56,444	-0,069	-0,022
-412,628	800,000	-0,021	-0,055
-411,613	-69,042	-0,078	-0,022
-410,598	4,375	-0,019	-0,010
-409,584	-91,485	0,112	-0,023
-408,569	-128,736	-0,036	-0,004
-407,555	-114,611	-0,175	-0,024
-406,540	97,061	0,056	-0,047
-405,525	-123,831	0,056	0,006
-404,511	-200,000	-0,011	-0,041
-403,496	-38,931	0,088	-0,033
-402,482	-73,086	0,119	0,032
-401,467	-68,225	0,177	0,050
-400,452	131,589	0,047	0,044
-399,438	800,000	-0,047	0,096
-398,423	-25,463	-0,102	0,044
-397,409	35,945	0,028	0,018
-396,394	28,160	-0,053	0,033
-395,379	311,152	0,096	-0,131
-394,365	-110,469	0,074	-0,011
-393,350	-85,228	0,104	-0,023
-392,336	464,115	-0,022	0,036
-391,321	-200,000	0,004	-0,055
-390,306	196,977	-0,083	-0,093
-389,292	0,690	-0,037	0,019
-388,277	-120,216	0,076	0,009
-387,263	172,821	0,125	0,131
-386,248	115,024	0,017	-0,015
-385,233	8,038	-0,176	0,095
-384,219	-200,000	-0,027	0,143
-383,204	133,543	0,138	-0,129
-382,190	-200,000	0,001	-0,080
-381,175	-200,000	0,027	0,138
-380,160	800,000	-0,015	0,037
-379,146	800,000	0,036	0,116
-378,131	-200,000	-0,004	0,032
-377,117	-200,000	-0,003	-0,148
-376,102	-200,000	0,003	-0,088
-375,088	-60,428	0,091	-0,028
-374,073	-110,624	-0,070	0,010
-373,058	253,308	0,033	0,041
-372,044	-200,000	0,001	0,041
-371,029	-20,070	0,147	0,065
-370,015	800,000	-0,025	0,050
-369,000	152,553	0,088	-0,087
-367,985	800,000	-0,044	0,089
-366,971	-147,797	-0,081	-0,005
-365,956	-200,000	0,002	0,148
-364,942	-200,000	0,024	0,095
-363,927	-200,000	-0,009	0,128
-362,912	-75,106	-0,031	-0,008
-361,898	-52,467	0,076	-0,025
-360,883	64,225	-0,109	-0,080
-359,869	750,457	0,019	0,038
-358,854	115,161	-0,034	0,030
-357,839	-29,400	0,104	0,043
-356,825	-33,649	0,079	-0,031
-355,810	22,807	0,049	-0,029
-354,796	-42,219	0,032	0,012
-353,781	-20,699	-0,094	-0,042
-352,766	57,676	0,072	0,051
-351,752	-10,455	0,064	-0,031
-350,737	-200,000	0,029	0,126
-349,723	-200,000	0,047	0,161
-348,708	800,000	-0,025	0,064
-347,693	306,922	-0,120	0,162
-346,679	-200,000	0,023	0,090
-345,664	120,681	0,051	-0,046
-344,650	367,944	-0,016	-0,024
-343,635	-200,000	0,008	0,123
-342,620	-131,515	-0,029	0,003
-341,606	403,401	-0,035	0,054
-340,591	-112,532	0,114	-0,016
-339,577	-200,000	-0,008	-0,033
-338,562	430,071	-0,063	-0,099
-337,548	98,630	-0,073	-0,061
-336,533	350,491	0,053	-0,076
-335,518	-200,000	0,005	0,020
-334,504	-200,000	-0,003	-0,110
-333,489	-46,090	0,252	-0,090
-332,475	107,494	0,021	-0,018
-331,460	-99,618	-0,159	0,029
-330,445	800,000	-0,038	-0,080
-329,431	151,103	-0,031	0,031
-328,416	-87,761	0,237	-0,051
-327,402	42,979	-0,124	-0,082
-326,387	203,220	-0,037	0,042
-325,372	402,614	-0,089	-0,137
-324,358	-12,833	0,134	0,063
-323,343	-200,000	-0,023	0,178
-322,329	800,000	-0,009	-0,028
-321,314	704,841	0,077	0,148
-320,299	-200,000	-0,008	0,050
-319,285	-143,837	-0,178	-0,012
-318,270	-200,000	-0,006	0,043
-317,256	-25,664	-0,081	0,034
-316,241	-200,000	0,000	-0,113
-315,226	-144,078	0,103	0,007
-314,212	782,378	0,051	0,101
-313,197	-117,593	0,075	-0,010
-312,183	-136,019	-0,025	-0,002
-311,168	-46,529	0,030	0,011
-310,153	-91,556	-0,025	0,005
-309,139	-21,271	-0,022	0,010
-308,124	-200,000	-0,004	-0,058
-307,110	97,423	0,090	0,075
-306,095	-85,110	0,135	0,030
-305,080	179,563	0,068	-0,073
-304,066	800,000	-0,040	-0,086
-303,051	28,328	-0,121	-0,074
-302,037	-23,270	0,003	-0,001
-301,022	2,762	0,051	0,027
-300,008	543,333	0,034	-0,058
-298,993	-35,492	0,062	0,024
-297,978	-0,724	0,078	0,040
-296,964	-113,907	-0,152	0,021
-295,949	437,100	-0,068	0,108
-294,935	-200,000	-0,030	-0,170
-293,920	7,602	0,127	-0,069
-292,905	-200,000	0,015	0,076
-291,891	-200,000	-0,036	-0,118
-290,876	76,392	0,099	-0,076
-289,862	-180,398	-0,093	-0,001
-288,847	-49,791	-0,059	0,020
-287,832	681,361	0,015	0,028
-286,818	-43,165	-0,055	-0,020
-285,803	-200,000	0,009	0,058
-284,789	-100,638	0,070	0,012
-283,774	-200,000	-0,011	0,045
-282,759	-99,086	-0,104	0,019
-281,745	-28,246	-0,087	0,036
-280,730	-200,000	0,002	0,060
-279,716	-188,231	-0,040	0,000
-278,701	726,480	-0,059	-0,114
-277,686	-128,134	0,152	-0,016
-276,672	-38,742	-0,207	-0,078
-275,657	5,612	-0,104	0,055
-274,643	-200,000	-0,004	0,033
-273,628	800,000	-0,087	0,235
-272,613	-200,000	-0,015	-0,056
-271,599	-62,504	0,071	-0,021
-270,584	170,703	0,113	0,118
-269,570	800,000	-0,019	0,057
-268,555	800,000	-0,033	0,076
-267,540	174,906	0,106	0,111
-266,526	173,265	-0,059	-0,061
-265,511	800,000	0,019	0,040
-264,497	800,000	-0,047	0,137
-263,482	480,375	-0,061	0,100
-262,467	-54,003	-0,077	0,025
-261,453	-119,215	-0,139	0,017
-260,438	-26,971	-0,055	-0,023
-259,424	-200,000	0,003	0,045
-258,409	14,007	0,023	-0,013
-257,395	305,883	0,073	0,099
-256,380	-108,118	0,125	-0,019
-255,365	56,044	0,020	-0,014
-254,351	-140,678	-0,133	-0,010
-253,336	256,706	0,077	0,095
-252,322	21,703	-0,039	-0,023
-251,307	101,282	0,037	-0,031
-250,292	66,353	0,121	0,089
-249,278	-200,000	-0,002	-0,021
-248,263	-200,000	0,002	0,083
-247,249	20,151	0,129	0,075
-246,234	276,128	0,069	-0,089
-245,219	800,000	0,039	-0,118
-244,205	800,000	-0,020	0,057
-243,190	-200,000	-0,026	0,085
-242,176	800,000	0,026	0,075
-241,161	-102,996	0,126	-0,021
-240,146	800,000	0,032	-0,093
-239,132	-79,045	-0,048	-0,012
-238,117	267,417	-0,063	-0,080
-237,103	291,668	0,087	-0,115
-236,088	-80,657	0,090	-0,021
-235,073	-85,386	-0,046	-0,010
-234,059	800,000	0,016	0,034
-233,044	-200,000	0,017	0,069
-232,030	-21,910	-0,056	0,024
-231,015	-28,894	-0,123	-0,051
-230,000	51,613	0,078	-0,054
-228,986	111,684	0,061	-0,053
-227,971	-200,000	-0,011	0,130
-226,957	800,000	0,041	-0,083
-225,942	110,438	0,070	-0,061
-224,927	-87,075	-0,120	0,026
-223,913	-30,555	0,046	-0,019
-222,898	2,341	-0,076	-0,040
-221,884	90,815	0,077	-0,063
-220,869	-200,000	-0,007	-0,063
-219,855	56,180	0,072	0,050
-218,840	-200,000	-0,003	0,123
-217,825	800,000	0,018	0,045
-216,811	-200,000	-0,018	-0,124
-215,796	-3,669	-0,109	0,055
-214,782	226,964	-0,065	-0,077
-213,767	800,000	-0,007	-0,023
-212,752	-107,122	0,066	-0,010
-211,738	-32,187	0,127	-0,051
-210,723	143,474	0,043	0,041
-209,709	800,000	-0,046	0,099
-208,694	-66,979	0,022	0,006
-207,679	-200,000	-0,025	-0,084
-206,665	800,000	0,034	-0,088
-205,650	769,711	-0,037	-0,073
-204,636	199,998	0,074	0,082
-203,621	52,138	-0,079	0,054
-202,606	-200,000	-0,002	-0,094
-201,592	158,409	-0,053	-0,053
-200,577	-200,000	-0,021	-0,092
-199,563	29,076	0,068	-0,041
-198,548	-109,546	0,097	-0,015
-197,533	-91,127	0,083	-0,017
-196,519	-35,418	-0,178	-0,069
-195,504	168,795	0,089	-0,092
-194,490	169,528	-0,027	-0,028
-193,475	36,324	-0,077	0,049
-192,460	-200,000	-0,010	0,119
-191,446	-91,571	0,046	0,009
-190,431	782,951	-0,070	0,139
-189,417	-2,233	-0,110	0,056
-188,402	-27,073	-0,035	-0,015
-187,387	800,000	-0,042	0,130
-186,373	-200,000	-0,006	0,028
-185,358	123,834	-0,126	-0,114
-184,344	668,991	0,095	0,179
-183,329	257,206	0,067	0,083
-182,315	-94,292	0,155	0,030
-181,300	-53,971	-0,154	-0,050
-180,285	-200,000	0,008	-0,055
-179,271	386,403	0,016	0,023
-178,256	-58,469	-0,062	0,019
-177,242	-47,861	-0,086	0,030
-176,227	517,661	0,103	0,174
-175,212	56,827	0,120	0,084
-174,198	-75,968	-0,088	0,022
-173,183	150,463	-0,085	-0,083
-172,169	70,472	0,067	-0,050
-171,154	-200,000	0,018	-0,091
-170,139	17,544	0,066	-0,038
-169,125	-145,399	0,132	-0,008
-168,110	-200,000	-0,022	-0,070
-167,096	-200,000	0,013	-0,072
-166,081	-112,340	0,069	0,010
-165,066	167,820	-0,026	-0,026
-164,052	-6,913	0,090	-0,044
-163,037	107,715	-0,054	0,046
-162,023	-200,000	0,008	0,038
-161,008	-5,002	0,035	-0,017
-159,993	-200,000	0,015	0,069
-158,979	-2,535	-0,062	0,031
-157,964	-123,939	-0,173	-0,019
-156,950	692,369	0,070	-0,133
-155,935	136,242	-0,053	0,050
-154,920	800,000	-0,020	0,042
-153,906	493,745	0,007	-0,011
-152,891	19,684	-0,094	-0,054
-151,877	-92,625	-0,066	-0,013
-150,862	88,146	-0,086	-0,069
-149,847	257,552	0,153	-0,190
-148,833	800,000	0,034	0,086
-147,818	-62,529	0,152	0,045
-146,804	-124,261	-0,150	0,017
-145,789	30,069	0,117	0,072
-144,775	-200,000	0,028	-0,145
-143,760	640,981	-0,048	0,088
-142,745	-200,000	0,022	-0,154
-141,731	342,629	-0,091	0,129
-140,716	800,000	-0,056	0,115
-139,702	-78,053	0,170	-0,042
-138,687	5,017	-0,050	0,027
-137,672	167,681	0,127	0,130
-136,658	-78,225	0,060	0,015
-135,643	-53,952	0,070	-0,023
-134,629	-200,000	-0,015	-0,089
-133,614	-116,432	-0,063	0,008
-132,599	-1,985	-0,088	-0,044
-131,585	-200,000	0,001	-0,018
-130,570	-50,144	-0,104	-0,035
-129,556	601,745	0,025	-0,045
-128,541	-200,000	-0,015	-0,088
-127,526	-17,228	-0,035	0,016
-126,512	800,000	-0,032	0,098
-125,497	303,847	0,077	0,103
-124,483	-146,666	-0,081	0,005
-123,468	339,337	-0,035	0,049
-122,453	-200,000	0,014	-0,097
-121,439	-74,184	-0,090	0,023
-120,424	143,086	0,077	0,074
-119,410	800,000	-0,008	0,019
