DTS Sentinel unit serial number:	SN410029Multiplexer serial number:	ORYXHardware model number:	OX2-SRSoftware version number:	ORYX F/W v4,00 Oryx Data Collector v3.7.2.0data status	okinstallation	B6 Nyhavnadifferential loss correction	single-endedforward channel	channel 2reverse channel	N/Adate	2023/12/08time	07:15:08forward acquisition time	300,00reverse acquisition time	0,00gamma	499,1914k internal	0,3166k external	0,3166temperature offset calibration	1,0000default loss term (dB/km)	0,3820temperature slope calibration	1,0000multiplexer offset coefficient	1,0000multiplexer slope coefficient	1,0000fibre end	0,00T internal ref (°C)	13,12T ext. ref 1 (°C)	-3,43T ext. ref 2 (°C)	-3,42length (m)	temperature (°C)	Stokes	anti-Stokes-744,400	-75,677	0,151	0,039
-743,385	-106,789	-0,247	-0,040
-742,371	-200,000	0,028	0,136
-741,356	-83,022	-0,236	-0,056
-740,342	-27,218	0,197	0,084
-739,327	-196,432	-0,249	-0,001
-738,312	-200,000	-0,001	0,055
-737,298	-10,641	-0,301	-0,146
-736,283	-65,695	0,097	-0,028
-735,269	-44,375	-0,407	0,149
-734,254	46,525	0,107	0,073
-733,239	-58,136	-0,519	-0,165
-732,225	355,219	0,078	0,114
-731,210	-200,000	-0,028	0,152
-730,196	-76,044	-0,076	0,020
-729,181	-65,505	-0,048	-0,014
-728,167	139,799	-0,011	-0,011
-727,152	112,538	0,087	0,077
-726,137	-7,952	0,041	0,020
-725,123	746,280	0,012	0,024
-724,108	800,000	-0,053	-0,160
-723,094	148,702	-0,174	-0,173
-722,079	371,405	-0,046	-0,068
-721,064	-200,000	-0,017	-0,091
-720,050	41,879	-0,027	0,018
-719,035	-32,653	-0,049	-0,020
-718,021	-89,258	-0,107	0,023
-717,006	-22,584	-0,182	-0,080
-715,991	-200,000	-0,004	-0,114
-714,977	-200,000	0,006	-0,102
-713,962	800,000	0,030	-0,093
-712,948	-200,000	0,015	-0,065
-711,933	202,592	-0,018	-0,021
-710,918	27,105	-0,048	-0,030
-709,904	67,329	-0,107	-0,080
-708,889	130,809	0,046	-0,043
-707,875	153,585	-0,028	-0,028
-706,860	800,000	-0,015	-0,043
-705,845	-200,000	-0,038	0,144
-704,831	-19,525	-0,143	0,065
-703,816	-200,000	0,005	0,066
-702,802	800,000	0,045	-0,128
-701,787	800,000	-0,041	-0,086
-700,772	-200,000	-0,013	-0,057
-699,758	259,489	-0,010	-0,013
-698,743	-200,000	0,015	-0,103
-697,729	-61,345	-0,050	-0,015
-696,714	49,295	0,180	-0,124
-695,699	81,809	0,095	-0,075
-694,685	-200,000	0,004	-0,047
-693,670	-108,164	0,047	-0,007
-692,656	-146,095	0,062	0,004
-691,641	-108,682	-0,049	-0,008
-690,627	10,924	0,156	-0,087
-689,612	157,734	0,058	0,059
-688,597	-200,000	-0,006	0,053
-687,583	-200,000	0,011	-0,111
-686,568	87,007	-0,100	-0,081
-685,554	800,000	-0,050	-0,126
-684,539	-200,000	0,009	0,143
-683,524	800,000	0,029	0,076
-682,510	291,718	0,037	-0,049
-681,495	800,000	-0,022	-0,061
-680,481	-200,000	0,004	-0,200
-679,466	-200,000	-0,030	-0,244
-678,451	757,867	-0,044	-0,087
-677,437	159,015	-0,041	-0,042
-676,422	531,706	0,051	0,089
-675,408	143,623	-0,111	0,109
-674,393	800,000	0,043	0,126
-673,378	271,164	-0,111	-0,144
-672,364	-79,027	0,082	-0,020
-671,349	-152,162	0,142	-0,007
-670,335	-83,867	0,163	0,038
-669,320	172,018	0,055	-0,058
-668,305	374,497	-0,069	0,103
-667,291	-66,252	-0,168	0,049
-666,276	-43,627	-0,107	-0,039
-665,262	-200,000	-0,006	-0,047
-664,247	800,000	0,004	-0,012
-663,232	-158,114	-0,028	-0,001
-662,218	92,354	-0,123	0,102
-661,203	71,377	-0,045	0,034
-660,189	449,002	-0,045	-0,073
-659,174	48,599	-0,078	0,054
-658,159	-200,000	0,004	-0,148
-657,145	-200,000	-0,019	-0,108
-656,130	-200,000	0,000	0,095
-655,116	-200,000	-0,002	-0,024
-654,101	-72,264	0,022	0,006
-653,086	-200,000	0,026	-0,086
-652,072	-149,725	-0,054	-0,003
-651,057	-137,162	-0,077	-0,006
-650,043	-87,670	-0,067	-0,015
-649,028	134,040	0,055	-0,052
-648,014	86,181	0,071	0,057
-646,999	-31,473	0,134	0,055
-645,984	-120,196	0,064	0,008
-644,970	2,399	-0,167	0,088
-643,955	800,000	0,019	-0,050
-642,941	64,633	-0,115	-0,085
-641,926	800,000	0,096	-0,230
-640,911	242,551	-0,017	-0,021
-639,897	-200,000	0,027	-0,109
-638,882	-200,000	-0,001	0,050
-637,868	-200,000	0,016	-0,092
-636,853	-200,000	-0,044	-0,238
-635,838	119,841	-0,127	-0,115
-634,824	515,437	0,038	0,066
-633,809	800,000	0,010	-0,023
-632,795	800,000	0,046	-0,099
-631,780	12,960	-0,153	-0,087
-630,765	-124,023	-0,072	0,008
-629,751	172,254	-0,023	0,024
-628,736	14,057	-0,101	-0,058
-627,722	-200,000	-0,007	0,126
-626,707	-118,582	-0,012	0,002
-625,692	-14,360	0,071	0,033
-624,678	5,853	0,036	0,019
-623,663	230,790	0,080	-0,096
-622,649	-179,183	-0,047	-0,001
-621,634	85,272	-0,145	-0,117
-620,619	-200,000	-0,015	-0,082
-619,605	274,451	-0,085	-0,111
-618,590	-7,222	-0,039	0,019
-617,576	-200,000	0,037	0,150
-616,561	-200,000	0,018	-0,074
-615,546	-200,000	0,004	-0,095
-614,532	-106,356	-0,088	-0,014
-613,517	238,631	-0,104	-0,127
-612,503	751,958	-0,046	0,091
-611,488	-200,000	-0,015	-0,052
-610,474	357,355	-0,057	0,083
-609,459	330,473	-0,086	0,122
-608,444	-90,235	-0,166	-0,035
-607,430	316,358	-0,009	0,012
-606,415	-200,000	-0,013	0,051
-605,401	423,506	0,040	-0,062
-604,386	37,782	0,032	0,021
-603,371	299,211	-0,101	0,136
-602,357	-29,280	0,056	-0,023
-601,342	338,950	0,032	-0,046
-600,328	156,500	-0,133	-0,134
-599,313	-36,819	-0,055	0,021
-598,298	-43,829	-0,083	-0,030
-597,284	22,585	0,082	0,049
-596,269	89,146	-0,051	0,041
-595,255	146,489	0,126	-0,124
-594,240	-200,000	-0,033	-0,189
-593,225	-200,000	0,002	-0,118
-592,211	38,429	-0,055	0,036
-591,196	51,559	0,059	-0,041
-590,182	-147,465	0,197	-0,012
-589,167	-58,654	0,069	0,022
-588,152	-200,000	0,005	0,104
-587,138	-130,891	-0,096	0,009
-586,123	800,000	-0,031	-0,089
-585,109	-105,056	-0,174	-0,029
-584,094	336,227	0,120	0,170
-583,079	701,888	-0,074	0,142
-582,065	43,578	0,049	0,033
-581,050	123,057	0,152	-0,139
-580,036	800,000	-0,038	-0,100
-579,021	569,471	-0,033	0,058
-578,006	142,198	-0,083	0,080
-576,992	2,365	-0,098	-0,052
-575,977	-70,095	-0,030	-0,008
-574,963	93,515	0,038	0,031
-573,948	14,729	0,045	0,025
-572,934	-14,775	0,095	0,045
-571,919	205,425	0,021	0,024
-570,904	800,000	-0,022	0,068
-569,890	11,833	0,039	0,022
-568,875	755,621	0,014	-0,027
-567,861	40,420	0,029	0,019
-566,846	318,396	-0,064	0,088
-565,831	84,473	0,065	0,052
-564,817	-123,282	-0,082	0,009
-563,802	789,343	0,032	0,064
-562,788	419,739	0,015	-0,023
-561,773	-200,000	0,009	-0,041
-560,758	531,689	-0,029	-0,050
-559,744	79,323	0,092	0,072
-558,729	-200,000	0,006	0,089
-557,715	-200,000	-0,015	0,086
-556,700	-200,000	0,032	-0,106
-555,685	76,222	0,086	0,067
-554,671	-3,929	-0,117	0,059
-553,656	-200,000	0,019	0,075
-552,642	-29,090	0,165	0,069
-551,627	-136,349	-0,070	0,006
-550,612	-91,646	-0,053	0,011
-549,598	800,000	-0,027	-0,067
-548,583	123,251	0,116	-0,106
-547,569	-69,259	-0,126	0,035
-546,554	293,592	0,091	0,122
-545,539	-42,802	0,048	0,018
-544,525	-128,895	0,102	-0,010
-543,510	-7,770	-0,118	-0,058
-542,496	-200,000	-0,002	0,021
-541,481	420,055	-0,057	-0,089
-540,466	-55,198	-0,104	-0,034
-539,452	327,758	0,096	0,135
-538,437	-200,000	-0,001	-0,044
-537,423	-189,734	-0,095	0,001
-536,408	800,000	-0,023	0,062
-535,393	800,000	-0,031	-0,065
-534,379	89,559	-0,100	0,081
-533,364	800,000	-0,012	0,026
-532,350	220,910	-0,031	-0,037
-531,335	205,640	0,023	0,027
-530,321	-134,897	-0,031	-0,003
-529,306	-85,281	-0,074	0,017
-528,291	-200,000	0,017	-0,075
-527,277	2,550	-0,107	-0,056
-526,262	-88,330	-0,049	0,011
-525,248	-25,434	0,053	-0,023
-524,233	800,000	-0,025	0,078
-523,218	800,000	0,012	0,034
-522,204	-153,486	-0,150	0,007
-521,189	-200,000	-0,011	-0,051
-520,175	-200,000	0,005	-0,041
-519,160	61,299	0,069	-0,050
-518,145	-200,000	0,012	0,094
-517,131	85,899	-0,104	0,084
-516,116	263,174	0,059	-0,075
-515,102	10,749	-0,040	0,022
-514,087	-104,024	-0,069	-0,012
-513,072	97,836	0,049	-0,041
-512,058	171,701	-0,063	-0,066
-511,043	125,478	0,106	0,097
-510,029	33,568	0,149	-0,094
-509,014	-200,000	0,010	0,190
-507,999	185,290	0,071	0,077
-506,985	62,605	-0,028	0,020
-505,970	434,163	-0,066	-0,105
-504,956	115,447	-0,027	0,024
-503,941	492,191	0,039	0,066
-502,926	420,224	-0,025	-0,039
-501,912	-21,527	-0,174	-0,077
-500,897	192,071	0,077	0,085
-499,883	-200,000	0,002	0,070
-498,868	127,725	0,033	0,031
-497,853	800,000	0,045	-0,096
-496,839	158,810	0,087	-0,088
-495,824	414,794	-0,051	0,079
-494,810	274,705	-0,080	0,103
-493,795	325,873	0,032	-0,045
-492,781	177,278	0,046	-0,049
-491,766	800,000	-0,044	-0,097
-490,751	21,509	-0,087	-0,051
-489,737	-55,448	0,112	0,036
-488,722	-200,000	0,001	0,143
-487,708	-200,000	-0,008	0,033
-486,693	54,867	0,034	0,024
-485,678	247,600	-0,030	-0,037
-484,664	800,000	-0,049	0,138
-483,649	-17,329	-0,050	-0,023
-482,635	-200,000	0,001	0,027
-481,620	-71,110	0,131	-0,036
-480,605	-200,000	0,051	0,000
-479,591	-121,436	-0,071	0,009
-478,576	800,000	-0,035	-0,097
-477,562	-3,953	-0,161	0,081
-476,547	-200,000	0,002	-0,043
-475,532	191,998	0,016	0,017
-474,518	-200,000	-0,014	-0,055
-473,503	-105,821	0,174	0,028
-472,489	800,000	-0,024	-0,056
-471,474	-200,000	-0,010	-0,054
-470,459	800,000	-0,029	-0,061
-469,445	218,538	-0,034	0,040
-468,430	106,517	-0,129	0,111
-467,416	800,000	-0,024	-0,071
-466,401	0,846	0,107	0,055
-465,386	-200,000	0,008	0,104
-464,372	800,000	0,033	0,083
-463,357	274,509	-0,076	-0,099
-462,343	-200,000	-0,027	-0,172
-461,328	91,551	-0,053	0,044
-460,313	-156,317	0,072	-0,003
-459,299	431,367	0,049	0,078
-458,284	62,369	-0,018	0,013
-457,270	-35,681	0,172	0,068
-456,255	443,334	-0,014	0,023
-455,241	-108,295	0,018	-0,003
-454,226	-200,000	0,005	-0,187
-453,211	232,912	0,040	0,048
-452,197	444,878	-0,070	0,112
-451,182	154,392	0,147	0,147
-450,168	-200,000	-0,025	-0,087
-449,153	-200,000	0,012	-0,078
-448,138	-200,000	0,012	-0,141
-447,124	800,000	-0,043	0,131
-446,109	321,259	0,059	-0,082
-445,095	90,124	0,042	0,034
-444,080	238,724	0,090	-0,109
-443,065	22,512	-0,139	0,082
-442,051	134,074	0,035	-0,033
-441,036	800,000	-0,026	-0,079
-440,022	219,431	0,046	-0,054
-439,007	-200,000	0,020	-0,135
-437,992	-72,110	0,122	-0,033
-436,978	800,000	0,058	-0,134
-435,963	-200,000	-0,043	-0,253
-434,949	-134,919	-0,089	0,008
-433,934	800,000	-0,046	-0,113
-432,919	94,349	0,066	0,055
-431,905	101,050	-0,129	-0,109
-430,890	800,000	0,050	0,134
-429,876	756,056	0,020	-0,039
-428,861	562,255	-0,034	0,059
-427,846	406,236	0,098	-0,151
-426,832	308,677	-0,039	0,053
-425,817	-200,000	-0,003	0,026
-424,803	123,021	0,094	-0,085
-423,788	-105,518	0,069	0,011
-422,773	800,000	-0,030	0,073
-421,759	202,782	0,110	-0,124
-420,744	-200,000	0,035	-0,113
-419,730	260,005	0,033	-0,042
-418,715	-86,212	-0,136	-0,030
-417,701	215,150	-0,087	0,100
-416,686	-200,000	0,042	0,137
-415,671	83,162	-0,062	0,049
-414,657	-110,581	0,036	-0,005
-413,642	-24,541	0,060	-0,026
-412,628	711,097	-0,055	-0,107
-411,613	-99,884	0,073	0,013
-410,598	-200,000	-0,001	-0,030
-409,584	422,983	-0,017	0,027
-408,569	-23,192	0,099	0,043
-407,555	800,000	-0,051	0,112
-406,540	23,679	-0,008	-0,005
-405,525	-200,000	0,004	-0,047
-404,511	393,394	-0,054	0,082
-403,496	-200,000	-0,032	-0,130
-402,482	-200,000	-0,012	-0,125
-401,467	107,552	0,083	-0,072
-400,452	454,489	0,060	0,096
-399,438	-200,000	0,020	-0,115
-398,423	-140,584	-0,057	-0,004
-397,409	-200,000	0,005	-0,079
-396,394	-131,790	-0,051	-0,005
-395,379	800,000	-0,043	0,126
-394,365	-200,000	-0,022	-0,082
-393,350	-3,756	0,078	-0,039
-392,336	147,942	0,100	0,098
-391,321	-200,000	0,003	-0,043
-390,306	-106,681	-0,073	-0,012
-389,292	-200,000	0,004	0,020
-388,277	-7,825	0,135	-0,066
-387,263	-200,000	0,004	0,100
-386,248	-200,000	-0,028	0,101
-385,233	11,712	0,117	-0,065
-384,219	38,479	0,013	-0,008
-383,204	-154,930	-0,016	0,001
-382,190	-17,612	-0,112	0,051
-381,175	131,898	0,089	0,083
-380,160	-86,343	0,150	0,033
-379,146	-64,211	0,059	0,017
-378,131	146,495	0,085	-0,083
-377,117	-200,000	0,006	0,246
-376,102	189,985	0,062	-0,068
-375,088	-200,000	0,028	-0,122
-374,073	-200,000	0,009	-0,066
-373,058	800,000	0,046	0,144
-372,044	-200,000	0,003	-0,022
-371,029	14,200	0,086	-0,049
-370,015	-200,000	0,012	0,106
-369,000	-200,000	0,036	-0,173
-367,985	800,000	0,024	0,049
-366,971	-200,000	-0,004	0,095
-365,956	-11,272	0,087	-0,041
-364,942	236,636	0,088	0,106
-363,927	137,777	0,068	0,064
-362,912	48,299	-0,020	0,014
-361,898	800,000	-0,034	0,085
-360,883	132,153	-0,035	-0,032
-359,869	800,000	-0,001	-0,004
-358,854	-200,000	-0,012	0,076
-357,839	-161,769	0,107	0,004
-356,825	42,613	-0,056	0,037
-355,810	-79,773	0,067	-0,016
-354,796	-200,000	-0,028	0,098
-353,781	-24,448	-0,083	-0,036
-352,766	800,000	-0,056	-0,144
-351,752	-200,000	-0,021	-0,091
-350,737	88,339	0,079	-0,063
-349,723	151,182	0,075	0,074
-348,708	46,389	-0,057	0,038
-347,693	63,197	-0,105	0,076
-346,679	83,981	0,133	0,105
-345,664	-200,000	-0,006	0,115
-344,650	-121,901	0,127	0,015
-343,635	288,321	-0,040	0,052
-342,620	10,085	0,170	0,094
-341,606	800,000	0,038	-0,112
-340,591	179,213	-0,027	0,028
-339,577	-94,607	-0,122	0,024
-338,562	-115,399	0,047	0,006
-337,548	800,000	0,012	0,027
-336,533	-23,340	-0,033	0,014
-335,518	329,139	-0,071	0,099
-334,504	42,099	0,138	0,090
-333,489	260,102	-0,035	0,044
-332,475	-25,754	-0,022	-0,009
-331,460	2,198	0,073	0,038
-330,445	800,000	-0,111	-0,238
-329,431	78,686	0,074	0,057
-328,416	256,675	-0,038	0,047
-327,402	800,000	0,008	0,024
-326,387	37,295	-0,024	0,016
-325,372	-87,438	-0,107	-0,023
-324,358	115,117	0,079	0,070
-323,343	169,737	-0,015	-0,015
-322,329	798,439	0,055	-0,111
-321,314	-41,507	-0,086	-0,032
-320,299	-200,000	0,020	0,114
-319,285	-55,172	0,166	-0,054
-318,270	-200,000	-0,023	0,148
-317,256	800,000	0,015	0,039
-316,241	-158,109	0,085	-0,004
-315,226	6,671	0,076	-0,041
-314,212	338,519	0,048	0,067
-313,197	-36,445	0,054	0,021
-312,183	-75,629	-0,168	0,043
-311,168	-58,427	0,143	-0,045
-310,153	137,297	0,110	-0,104
-309,139	304,937	0,023	0,031
-308,124	-200,000	-0,044	0,205
-307,110	265,841	0,046	0,059
-306,095	101,782	-0,034	0,029
-305,080	-40,623	-0,085	-0,032
-304,066	-22,170	0,089	-0,039
-303,051	321,163	-0,035	-0,049
-302,037	-181,000	-0,031	0,000
-301,022	-93,621	-0,045	-0,009
-300,008	-200,000	0,005	-0,116
-298,993	-7,473	-0,072	0,035
-297,978	800,000	0,037	-0,095
-296,964	58,246	0,055	-0,039
-295,949	189,805	0,103	-0,111
-294,935	132,058	-0,035	-0,032
-293,920	-100,220	0,041	0,007
-292,905	-200,000	-0,008	-0,029
-291,891	435,582	0,079	0,124
-290,876	-1,313	0,069	-0,035
-289,862	-63,089	-0,165	-0,049
-288,847	-187,328	-0,123	0,001
-287,832	148,957	0,104	0,102
-286,818	800,000	0,031	-0,088
-285,803	-39,082	0,098	-0,037
-284,789	-126,810	-0,108	-0,011
-283,774	-12,680	0,057	0,027
-282,759	162,708	-0,095	-0,096
-281,745	50,531	-0,110	-0,075
-280,730	207,070	0,120	0,136
-279,716	118,723	-0,051	-0,046
-278,701	413,295	0,033	0,051
-277,686	232,817	0,052	0,062
-276,672	-200,000	0,016	-0,145
-275,657	242,023	-0,053	-0,065
-274,643	-200,000	-0,049	-0,158
-273,628	-200,000	0,030	-0,128
-272,613	32,900	0,053	0,033
-271,599	-200,000	-0,010	0,040
-270,584	-200,000	0,028	0,107
-269,570	124,178	-0,047	0,042
-268,555	87,686	-0,044	-0,035
-267,540	-55,350	0,021	0,007
-266,526	11,803	-0,070	0,039
-265,511	-200,000	0,000	-0,020
-264,497	-136,543	-0,096	-0,008
-263,482	202,703	-0,090	-0,100
-262,467	-165,773	0,082	-0,003
-261,453	-200,000	0,004	-0,019
-260,438	170,672	0,038	0,039
-259,424	-169,577	-0,105	0,003
-258,409	-187,160	-0,043	0,000
-257,395	202,194	-0,107	0,120
-256,380	165,343	0,091	0,093
-255,365	343,219	-0,089	-0,126
-254,351	186,698	-0,078	-0,084
-253,336	2,440	0,039	-0,021
-252,322	-57,196	-0,100	-0,031
-251,307	-175,720	0,092	0,002
-250,292	-200,000	0,022	0,139
-249,278	33,713	-0,088	0,055
-248,263	-105,444	-0,098	0,016
-247,249	-67,210	0,101	0,028
-246,234	15,310	-0,050	-0,028
-245,219	-96,551	0,072	-0,014
-244,205	-43,918	-0,109	-0,039
-243,190	81,518	-0,129	-0,100
-242,176	745,376	0,012	0,022
-241,161	258,723	-0,045	-0,056
-240,146	406,492	0,083	0,126
-239,132	-125,115	0,024	-0,003
-238,117	-63,090	0,024	0,007
-237,103	-200,000	-0,007	-0,079
-236,088	800,000	0,024	0,051
-235,073	-3,862	0,141	0,070
-234,059	241,840	-0,082	0,100
-233,044	-2,473	-0,096	0,048
-232,030	-121,033	0,045	0,005
-231,015	125,151	-0,079	-0,071
-230,000	102,326	-0,030	0,025
-228,986	-8,283	0,061	-0,030
-227,971	379,010	0,169	-0,250
-226,957	190,108	-0,063	0,069
-225,942	-112,965	-0,160	-0,023
-224,927	-105,627	-0,060	0,010
-223,913	-200,000	-0,015	0,069
-222,898	-39,182	0,100	-0,038
-221,884	177,420	-0,102	-0,107
-220,869	-110,793	0,078	0,011
-219,855	84,821	0,066	0,052
-218,840	-200,000	-0,001	0,101
-217,825	-5,033	0,039	-0,019
-216,811	-152,289	-0,188	0,010
-215,796	4,562	0,145	-0,077
-214,782	-200,000	0,021	-0,108
-213,767	-200,000	-0,005	0,052
-212,752	-25,155	-0,014	-0,006
-211,738	800,000	0,010	-0,030
-210,723	-200,000	0,023	0,148
-209,709	199,962	0,094	-0,105
-208,694	23,831	-0,091	-0,054
-207,679	-5,971	-0,089	-0,044
-206,665	-200,000	-0,013	-0,073
-205,650	-12,701	0,058	0,027
-204,636	321,515	0,093	0,128
-203,621	139,557	0,077	0,073
-202,606	-66,841	-0,036	0,010
-201,592	-137,183	0,054	0,004
-200,577	-139,211	0,079	-0,006
-199,563	153,770	-0,028	-0,027
-198,548	700,609	0,057	0,108
-197,533	51,496	0,027	0,019
-196,519	35,302	0,066	-0,041
-195,504	705,964	0,049	0,093
-194,490	-200,000	0,011	0,131
-193,475	-20,733	0,085	0,037
-192,460	185,581	-0,063	0,067
-191,446	268,233	-0,078	-0,098
-190,431	-82,678	0,109	0,025
-189,417	-200,000	-0,018	0,096
-188,402	-95,517	-0,088	-0,017
-187,387	800,000	0,022	-0,060
-186,373	-57,060	-0,135	-0,043
-185,358	38,380	-0,072	0,046
-184,344	188,744	-0,064	0,068
-183,329	622,021	0,047	0,086
-182,315	800,000	0,054	0,135
-181,300	-200,000	-0,059	0,209
-180,285	-171,186	0,040	-0,001
-179,271	-200,000	0,001	-0,020
-178,256	-200,000	0,010	-0,080
-177,242	35,941	0,130	-0,082
-176,227	800,000	0,020	-0,063
-175,212	750,708	-0,056	-0,109
-174,198	-200,000	-0,017	-0,065
-173,183	800,000	-0,041	-0,127
-172,169	800,000	-0,072	-0,176
-171,154	-4,346	-0,049	0,024
-170,139	-200,000	-0,000	0,025
-169,125	78,887	0,085	0,065
-168,110	-200,000	-0,010	-0,059
-167,096	800,000	-0,005	-0,013
-166,081	101,204	0,041	0,035
-165,066	80,648	-0,054	0,042
-164,052	-29,905	-0,112	-0,046
-163,037	618,686	-0,017	0,032
-162,023	172,273	0,023	0,023
-161,008	800,000	-0,007	-0,020
-159,993	437,347	-0,039	0,062
-158,979	414,697	-0,054	-0,083
-157,964	163,776	-0,034	0,034
-156,950	241,223	-0,066	0,080
-155,935	-200,000	-0,064	0,206
-154,920	-200,000	0,018	0,100
-153,906	226,633	-0,100	0,117
-152,891	-30,148	0,048	0,020
-151,877	155,420	-0,099	-0,098
-150,862	-158,560	-0,148	0,006
-149,847	482,023	-0,055	0,090
-148,833	394,398	0,029	0,043
-147,818	-200,000	-0,005	0,048
-146,804	322,345	0,069	0,095
-145,789	800,000	-0,038	0,100
-144,775	95,623	-0,073	-0,060
-143,760	-200,000	-0,007	0,096
-142,745	800,000	0,012	-0,037
-141,731	800,000	0,054	0,125
-140,716	-200,000	0,006	0,179
-139,702	800,000	-0,024	0,052
-138,687	-200,000	0,025	-0,118
-137,672	98,907	-0,071	0,059
-136,658	-44,642	-0,124	-0,044
-135,643	-65,437	0,112	0,032
-134,629	-200,000	0,002	-0,055
-133,614	309,692	-0,043	0,057
-132,599	49,623	-0,078	0,053
-131,585	-44,172	0,035	0,013
-130,570	-178,668	-0,153	0,002
-129,556	800,000	-0,016	-0,047
-128,541	129,985	-0,083	-0,076
-127,526	271,316	0,051	0,065
-126,512	-24,170	-0,169	-0,072
-125,497	760,004	0,069	-0,134
-124,483	-111,433	0,024	-0,003
-123,468	571,264	0,052	-0,092
-122,453	-193,622	-0,112	-0,001
-121,439	331,888	0,099	0,137
-120,424	-200,000	0,017	-0,108
-119,410	-171,661	0,130	-0,003
