DTS Sentinel unit serial number:	SN410029Multiplexer serial number:	ORYXHardware model number:	OX2-SRSoftware version number:	ORYX F/W v4,00 Oryx Data Collector v3.7.2.0data status	okinstallation	B6 Nyhavnadifferential loss correction	single-endedforward channel	channel 2reverse channel	N/Adate	2023/12/11time	07:45:08forward acquisition time	300,00reverse acquisition time	0,00gamma	499,1914k internal	0,3127k external	0,3127temperature offset calibration	1,0000default loss term (dB/km)	0,3820temperature slope calibration	1,0000multiplexer offset coefficient	1,0000multiplexer slope coefficient	1,0000fibre end	0,00T internal ref (°C)	18,72T ext. ref 1 (°C)	1,07T ext. ref 2 (°C)	1,09length (m)	temperature (°C)	Stokes	anti-Stokes-744,400	213,067	-0,106	-0,125
-743,385	-152,361	-0,303	0,016
-742,371	-200,000	0,019	0,109
-741,356	-87,570	-0,178	0,040
-740,342	82,066	0,158	-0,127
-739,327	-117,859	-0,345	0,046
-738,312	-200,000	-0,005	-0,068
-737,298	-142,669	-0,306	0,022
-736,283	-200,000	0,023	-0,164
-735,269	-109,009	-0,296	0,046
-734,254	800,000	0,016	0,035
-733,239	-44,676	-0,443	-0,164
-732,225	-68,451	0,083	0,024
-731,210	397,441	-0,017	0,027
-730,196	-83,487	0,097	-0,023
-729,181	-18,067	-0,138	-0,064
-728,167	-200,000	0,013	-0,096
-727,152	-143,847	-0,097	-0,007
-726,137	435,082	-0,047	-0,076
-725,123	370,182	0,007	-0,011
-724,108	202,940	-0,136	-0,156
-723,094	-200,000	0,013	-0,057
-722,079	173,175	-0,079	-0,085
-721,064	800,000	-0,032	-0,072
-720,050	-200,000	0,003	-0,079
-719,035	-112,884	-0,158	0,023
-718,021	214,145	-0,085	0,100
-717,006	-85,453	-0,155	0,036
-715,991	326,834	0,023	-0,034
-714,977	256,034	0,036	0,046
-713,962	-96,005	-0,090	0,018
-712,948	167,984	-0,080	0,085
-711,933	318,750	-0,081	-0,115
-710,918	800,000	0,015	-0,039
-709,904	122,158	-0,144	-0,134
-708,889	-200,000	-0,044	-0,155
-707,875	-81,049	-0,145	-0,035
-706,860	3,085	-0,159	0,085
-705,845	167,356	-0,039	-0,041
-704,831	-200,000	-0,000	0,112
-703,816	153,091	-0,065	-0,066
-702,802	-78,062	-0,092	-0,023
-701,787	146,505	-0,132	-0,132
-700,772	41,160	-0,111	-0,075
-699,758	-25,597	0,059	0,026
-698,743	-43,764	-0,099	-0,037
-697,729	-200,000	0,034	-0,211
-696,714	28,582	-0,083	0,052
-695,699	568,183	-0,059	-0,107
-694,685	123,305	0,074	0,069
-693,670	-75,527	-0,129	0,034
-692,656	800,000	-0,067	0,174
-691,641	800,000	0,035	0,094
-690,627	22,241	0,124	0,075
-689,612	-200,000	0,021	-0,092
-688,597	115,375	-0,079	-0,072
-687,583	-200,000	0,006	0,023
-686,568	-144,335	0,051	-0,003
-685,554	-200,000	0,014	-0,101
-684,539	254,269	-0,057	-0,073
-683,524	699,637	-0,062	-0,122
-682,510	-64,876	0,075	-0,022
-681,495	-120,853	0,117	0,014
-680,481	116,892	0,051	-0,047
-679,466	-153,709	-0,123	-0,006
-678,451	-30,928	-0,115	0,048
-677,437	-91,395	-0,064	-0,014
-676,422	-200,000	-0,006	-0,085
-675,408	-112,112	-0,067	0,010
-674,393	-200,000	-0,003	-0,097
-673,378	-113,791	-0,189	0,027
-672,364	45,620	-0,125	0,085
-671,349	14,044	-0,066	-0,038
-670,335	-200,000	-0,000	-0,040
-669,320	-62,164	-0,108	-0,033
-668,305	800,000	0,013	-0,042
-667,291	-200,000	0,007	-0,159
-666,276	-106,255	-0,026	-0,004
-665,262	-200,000	0,021	-0,154
-664,247	800,000	-0,038	-0,099
-663,232	-79,709	0,121	0,030
-662,218	-4,844	0,041	-0,021
-661,203	-200,000	0,000	0,070
-660,189	-73,872	0,095	-0,025
-659,174	-17,609	-0,057	0,026
-658,159	-119,601	-0,095	-0,012
-657,145	-200,000	-0,013	-0,082
-656,130	110,213	0,082	0,073
-655,116	142,947	-0,083	0,082
-654,101	800,000	-0,057	0,136
-653,086	-113,618	-0,204	0,029
-652,072	800,000	-0,057	-0,142
-651,057	-200,000	-0,062	-0,204
-650,043	-200,000	0,002	-0,042
-649,028	181,370	0,063	0,069
-648,014	-174,314	0,056	0,001
-646,999	800,000	0,029	0,090
-645,984	-200,000	0,025	0,110
-644,970	6,508	-0,043	-0,024
-643,955	-150,423	-0,165	0,009
-642,941	324,111	0,049	-0,070
-641,926	-52,058	-0,110	-0,037
-640,911	356,546	-0,071	0,105
-639,897	231,785	0,018	-0,022
-638,882	-200,000	0,006	-0,069
-637,868	346,834	-0,121	0,177
-636,853	-151,086	-0,091	-0,005
-635,838	407,509	0,067	-0,105
-634,824	172,860	-0,083	0,089
-633,809	800,000	-0,032	0,092
-632,795	-42,575	0,073	-0,027
-631,780	441,176	-0,010	0,016
-630,765	800,000	0,017	-0,045
-629,751	355,118	-0,079	-0,118
-628,736	128,574	-0,074	0,070
-627,722	391,603	-0,025	0,039
-626,707	-200,000	0,002	-0,089
-625,692	116,766	-0,033	-0,030
-624,678	398,275	0,046	0,071
-623,663	-200,000	-0,015	0,071
-622,649	261,225	-0,106	0,136
-621,634	6,638	0,095	-0,052
-620,619	800,000	-0,012	-0,039
-619,605	303,935	0,052	-0,071
-618,590	800,000	-0,027	0,067
-617,576	-200,000	0,007	0,030
-616,561	-200,000	0,001	0,099
-615,546	-174,640	0,080	-0,002
-614,532	-20,036	-0,049	0,022
-613,517	-150,032	0,051	0,003
-612,503	16,938	-0,088	-0,052
-611,488	88,345	0,042	0,034
-610,474	-200,000	0,033	-0,118
-609,459	-74,183	-0,138	-0,037
-608,444	437,662	-0,072	-0,116
-607,430	-35,465	-0,059	-0,024
-606,415	-200,000	0,039	-0,129
-605,401	-74,648	-0,083	0,022
-604,386	-58,039	0,083	-0,027
-603,371	118,018	0,030	0,027
-602,357	800,000	0,022	0,056
-601,342	-200,000	0,002	-0,054
-600,328	-143,409	0,137	0,010
-599,313	-12,832	0,051	-0,024
-598,298	20,799	-0,091	0,054
-597,284	-200,000	-0,013	-0,055
-596,269	-200,000	0,020	-0,068
-595,255	-157,825	0,097	0,004
-594,240	-194,610	-0,158	-0,001
-593,225	-20,727	-0,053	-0,024
-592,211	288,773	-0,043	0,058
-591,196	-200,000	0,005	0,021
-590,182	-163,099	0,047	-0,002
-589,167	-52,564	0,047	0,016
-588,152	700,747	-0,050	0,097
-587,138	449,392	0,021	-0,034
-586,123	-200,000	0,011	-0,039
-585,109	78,514	0,045	-0,035
-584,094	-74,128	-0,094	-0,025
-583,079	-107,192	-0,085	0,014
-582,065	120,722	0,051	-0,047
-581,050	-95,392	0,064	-0,013
-580,036	26,596	0,072	-0,045
-579,021	-200,000	0,009	-0,062
-578,006	-66,122	-0,151	-0,044
-576,992	648,419	0,070	-0,132
-575,977	16,069	0,106	0,062
-574,963	6,233	0,150	0,082
-573,948	-169,285	-0,159	-0,004
-572,934	800,000	-0,023	0,063
-571,919	119,239	-0,048	0,044
-570,904	-200,000	-0,008	0,040
-569,890	-200,000	-0,017	0,130
-568,875	-65,681	0,096	0,028
-567,861	-31,933	0,063	0,026
-566,846	325,191	-0,027	-0,038
-565,831	-200,000	-0,017	-0,083
-564,817	-200,000	-0,011	-0,093
-563,802	513,085	-0,048	0,083
-562,788	-159,406	-0,135	0,005
-561,773	-200,000	0,011	0,119
-560,758	67,032	-0,155	0,116
-559,744	538,551	0,045	-0,080
-558,729	-4,075	0,066	0,034
-557,715	330,276	-0,051	-0,072
-556,700	104,917	-0,033	0,029
-555,685	-183,762	-0,138	0,002
-554,671	-84,515	-0,100	-0,023
-553,656	-86,436	0,097	-0,022
-552,642	-89,990	-0,067	-0,014
-551,627	-136,771	0,064	0,005
-550,612	22,852	-0,083	-0,050
-549,598	235,401	0,122	-0,150
-548,583	-200,000	-0,036	-0,189
-547,569	-200,000	0,017	-0,060
-546,554	118,664	-0,100	0,091
-545,539	-125,728	-0,057	0,006
-544,525	44,065	-0,090	-0,061
-543,510	-200,000	-0,020	-0,069
-542,496	549,691	-0,088	-0,157
-541,481	-123,291	0,015	0,002
-540,466	-200,000	0,010	0,044
-539,452	-57,831	-0,064	-0,020
-538,437	800,000	0,058	0,125
-537,423	-51,376	-0,080	0,028
-536,408	-42,261	-0,018	0,007
-535,393	120,468	-0,097	-0,089
-534,379	800,000	-0,038	0,093
-533,364	30,328	-0,007	-0,005
-532,350	259,790	0,059	-0,075
-531,335	150,058	0,059	-0,059
-530,321	1,677	0,017	0,009
-529,306	180,936	0,009	-0,010
-528,291	-71,344	-0,024	-0,006
-527,277	800,000	-0,063	-0,134
-526,262	-94,933	0,150	-0,030
-525,248	800,000	0,016	-0,048
-524,233	186,002	0,066	0,072
-523,218	-18,297	0,115	0,053
-522,204	800,000	-0,031	0,095
-521,189	800,000	-0,018	-0,042
-520,175	116,316	0,031	-0,028
-519,160	-142,075	-0,026	0,002
-518,145	26,391	0,158	-0,097
-517,131	165,211	-0,012	0,013
-516,116	105,092	-0,086	0,075
-515,102	74,193	0,014	-0,011
-514,087	-153,714	-0,099	0,005
-513,072	-200,000	-0,001	-0,041
-512,058	367,862	0,055	0,082
-511,043	-101,996	0,053	0,009
-510,029	660,503	0,052	-0,100
-509,014	-200,000	0,013	-0,053
-507,999	-127,034	0,030	0,003
-506,985	100,761	0,069	-0,059
-505,970	-173,367	-0,169	-0,004
-504,956	262,097	-0,063	0,080
-503,941	-200,000	-0,034	0,143
-502,926	235,369	0,074	0,090
-501,912	116,702	0,028	-0,025
-500,897	-200,000	-0,008	0,048
-499,883	-200,000	0,009	-0,105
-498,868	-200,000	-0,008	-0,056
-497,853	83,383	-0,069	-0,056
-496,839	-200,000	0,002	0,012
-495,824	52,981	-0,060	-0,042
-494,810	595,430	-0,042	0,077
-493,795	-110,743	0,039	-0,006
-492,781	-59,570	-0,121	-0,038
-491,766	4,272	-0,122	-0,065
-490,751	-200,000	0,001	-0,014
-489,737	-200,000	-0,007	-0,058
-488,722	-200,000	-0,005	-0,115
-487,708	76,034	0,123	0,096
-486,693	-47,633	-0,103	0,037
-485,678	28,109	0,015	0,009
-484,664	-72,033	-0,046	0,012
-483,649	-94,178	0,051	-0,010
-482,635	-135,051	-0,039	0,003
-481,620	325,680	0,044	0,063
-480,605	-104,279	0,137	-0,023
-479,591	326,983	0,005	-0,007
-478,576	800,000	0,017	0,043
-477,562	-79,491	-0,067	-0,017
-476,547	-43,125	0,029	0,011
-475,532	117,431	-0,068	-0,061
-474,518	-103,858	-0,124	-0,021
-473,503	-200,000	0,011	0,110
-472,489	-200,000	-0,021	0,081
-471,474	51,825	-0,041	0,029
-470,459	-200,000	-0,021	-0,137
-469,445	-200,000	0,027	-0,121
-468,430	0,138	0,089	-0,046
-467,416	437,604	0,091	0,147
-466,401	16,810	-0,075	-0,044
-465,386	27,858	0,014	0,009
-464,372	45,840	-0,113	0,077
-463,357	100,419	-0,053	-0,045
-462,343	232,863	-0,035	-0,042
-461,328	-151,117	-0,076	-0,004
-460,313	-29,604	0,123	0,052
-459,299	142,873	0,081	-0,080
-458,284	72,149	0,090	0,069
-457,270	117,571	-0,099	0,090
-456,255	-134,084	-0,077	0,007
-455,241	-24,479	-0,129	-0,056
-454,226	800,000	-0,025	0,056
-453,211	127,036	0,026	0,024
-452,197	-200,000	0,053	0,197
-451,182	407,386	0,051	0,079
-450,168	-127,671	-0,094	-0,010
-449,153	235,926	-0,019	0,023
-448,138	-200,000	-0,027	-0,184
-447,124	340,480	-0,079	-0,113
-446,109	-2,130	0,022	0,012
-445,095	136,766	0,151	0,145
-444,080	-200,000	0,005	0,063
-443,065	-139,594	0,114	0,009
-442,051	-200,000	0,016	-0,083
-441,036	373,056	-0,031	-0,046
-440,022	3,682	-0,027	0,014
-439,007	-150,232	0,177	0,010
-437,992	-182,469	-0,055	0,001
-436,978	-200,000	0,026	-0,106
-435,963	253,706	0,056	0,071
-434,949	-81,196	-0,119	-0,029
-433,934	34,049	-0,095	-0,061
-432,919	91,047	-0,140	-0,116
-431,905	138,310	0,122	0,118
-430,890	-200,000	-0,027	0,187
-429,876	-200,000	-0,027	-0,138
-428,861	8,387	0,102	0,056
-427,846	689,397	-0,067	0,130
-426,832	-121,935	0,066	-0,008
-425,817	-200,000	0,003	0,040
-424,803	45,370	-0,087	-0,059
-423,788	-97,662	-0,166	-0,031
-422,773	-35,395	0,027	-0,011
-421,759	17,597	0,100	0,058
-420,744	-108,463	0,104	0,016
-419,730	165,526	-0,056	0,058
-418,715	-200,000	-0,001	-0,035
-417,701	339,290	0,053	-0,075
-416,686	229,017	0,089	0,107
-415,671	-200,000	0,001	-0,054
-414,657	28,453	0,100	-0,062
-413,642	-46,307	0,012	-0,004
-412,628	197,991	-0,075	0,085
-411,613	722,823	-0,045	-0,088
-410,598	-200,000	-0,013	-0,060
-409,584	-36,583	0,102	0,040
-408,569	148,828	0,030	-0,030
-407,555	800,000	0,070	0,163
-406,540	252,038	-0,034	0,043
-405,525	272,279	0,050	0,065
-404,511	262,842	-0,057	-0,073
-403,496	-1,031	-0,056	0,029
-402,482	-111,457	-0,058	-0,009
-401,467	-8,247	0,041	-0,020
-400,452	425,985	-0,010	0,016
-399,438	116,835	-0,044	0,040
-398,423	-51,439	-0,120	0,041
-397,409	107,100	-0,017	0,015
-396,394	-200,000	0,009	-0,092
-395,379	800,000	-0,013	-0,027
-394,365	-131,995	-0,174	-0,016
-393,350	-200,000	0,042	0,154
-392,336	125,631	-0,080	0,075
-391,321	-50,850	-0,026	-0,009
-390,306	800,000	0,031	0,099
-389,292	348,842	-0,094	-0,136
-388,277	184,042	-0,088	0,096
-387,263	-11,064	-0,038	0,019
-386,248	-95,065	-0,038	-0,007
-385,233	186,120	0,039	0,043
-384,219	-115,086	-0,074	0,010
-383,204	-54,232	-0,072	-0,024
-382,190	-200,000	0,001	0,009
-381,175	73,104	0,018	-0,013
-380,160	570,745	-0,036	-0,065
-379,146	121,589	0,049	0,045
-378,131	800,000	0,030	-0,070
-377,117	105,210	-0,114	0,099
-376,102	625,762	0,038	-0,071
-375,088	-22,309	-0,056	-0,025
-374,073	69,266	0,075	-0,056
-373,058	-167,446	0,119	0,003
-372,044	-166,684	0,173	0,005
-371,029	-28,149	0,135	-0,057
-370,015	-58,912	-0,130	-0,041
-369,000	53,630	0,088	0,062
-367,985	-60,955	-0,039	-0,012
-366,971	130,238	-0,025	0,024
-365,956	334,304	-0,067	-0,096
-364,942	-200,000	-0,004	-0,033
-363,927	328,853	0,022	0,032
-362,912	128,175	-0,054	-0,051
-361,898	-158,291	-0,056	0,002
-360,883	-200,000	0,018	0,119
-359,869	614,684	0,065	-0,119
-358,854	800,000	-0,029	-0,073
-357,839	-75,135	0,019	0,005
-356,825	232,798	0,131	-0,158
-355,810	-113,594	0,159	-0,022
-354,796	-44,971	-0,127	0,046
-353,781	-200,000	-0,024	0,096
-352,766	671,046	-0,034	0,065
-351,752	-3,076	0,069	-0,035
-350,737	-200,000	0,000	0,023
-349,723	800,000	0,041	-0,086
-348,708	-200,000	0,039	0,135
-347,693	204,888	-0,042	-0,048
-346,679	-200,000	0,008	-0,106
-345,664	393,024	-0,024	0,037
-344,650	178,390	-0,020	0,021
-343,635	-130,877	-0,044	0,004
-342,620	-16,913	0,073	0,034
-341,606	-200,000	-0,005	-0,033
-340,591	-66,651	-0,042	-0,012
-339,577	-200,000	-0,003	-0,079
-338,562	347,715	0,052	-0,075
-337,548	-200,000	-0,007	-0,101
-336,533	-200,000	0,010	0,077
-335,518	-138,013	0,035	0,003
-334,504	-200,000	0,012	-0,160
-333,489	-200,000	-0,002	0,018
-332,475	297,280	0,117	-0,158
-331,460	-50,756	-0,120	0,041
-330,445	-200,000	0,010	0,087
-329,431	224,911	0,063	-0,074
-328,416	-200,000	0,024	0,139
-327,402	-200,000	-0,000	0,022
-326,387	-25,161	0,075	-0,032
-325,372	218,692	-0,036	0,042
-324,358	-74,335	-0,171	-0,045
-323,343	-46,808	-0,045	-0,016
-322,329	-200,000	0,018	0,065
-321,314	-36,279	0,186	0,073
-320,299	800,000	0,027	-0,073
-319,285	419,849	0,056	0,088
-318,270	25,190	0,082	-0,050
-317,256	-200,000	0,003	-0,040
-316,241	61,156	-0,182	-0,132
-315,226	129,555	0,014	0,013
-314,212	-101,393	-0,100	-0,018
-313,197	-144,154	0,074	-0,005
-312,183	-169,738	0,089	-0,002
-311,168	-31,686	-0,041	-0,017
-310,153	-135,125	-0,107	0,009
-309,139	31,547	0,093	-0,058
-308,124	262,653	0,020	0,025
-307,110	16,068	0,132	-0,076
-306,095	7,073	0,076	0,041
-305,080	800,000	-0,050	0,128
-304,066	800,000	-0,084	0,190
-303,051	-83,775	0,154	0,036
-302,037	-98,894	-0,083	-0,015
-301,022	-200,000	0,010	0,109
-300,008	232,405	0,085	0,103
-298,993	71,654	0,078	-0,059
-297,978	-200,000	0,000	0,093
-296,964	-200,000	-0,002	0,025
-295,949	-95,389	-0,088	-0,017
-294,935	-200,000	-0,024	-0,089
-293,920	-200,000	0,013	-0,126
-292,905	587,252	0,035	-0,064
-291,891	-200,000	-0,042	0,178
-290,876	65,951	0,015	-0,011
-289,862	94,613	0,023	-0,019
-288,847	168,508	0,045	0,047
-287,832	-90,458	0,093	0,020
-286,818	634,626	0,097	-0,181
-285,803	800,000	0,040	0,085
-284,789	-40,643	-0,095	0,036
-283,774	628,303	0,042	0,079
-282,759	106,927	-0,043	0,037
-281,745	83,038	0,034	-0,027
-280,730	-200,000	0,002	-0,164
-279,716	149,485	0,017	0,017
-278,701	-70,172	0,084	0,023
-277,686	55,078	-0,068	-0,048
-276,672	-200,000	0,004	0,095
-275,657	325,046	0,053	0,075
-274,643	404,570	-0,048	-0,074
-273,628	-200,000	0,039	-0,186
-272,613	-200,000	-0,004	-0,061
-271,599	703,366	0,038	-0,074
-270,584	160,278	0,130	0,132
-269,570	-129,822	0,135	-0,013
-268,555	-123,734	-0,175	0,020
-267,540	640,478	0,049	-0,092
-266,526	79,013	0,092	-0,072
-265,511	87,631	-0,116	-0,094
-264,497	-107,434	0,067	-0,011
-263,482	-136,822	0,074	0,006
-262,467	1,220	-0,126	0,066
-261,453	-200,000	-0,012	0,089
-260,438	-200,000	0,015	0,119
-259,424	-200,000	0,046	-0,195
-258,409	88,835	0,049	0,040
-257,395	123,250	-0,072	-0,066
-256,380	-89,900	0,125	-0,026
-255,365	-44,520	0,084	0,031
-254,351	800,000	0,088	0,181
-253,336	46,131	0,019	-0,013
-252,322	800,000	-0,015	0,037
-251,307	60,333	0,089	-0,064
-250,292	-200,000	0,018	-0,061
-249,278	26,578	-0,083	0,051
-248,263	-127,296	-0,058	-0,006
-247,249	-200,000	-0,043	0,149
-246,234	117,359	-0,043	-0,039
-245,219	-7,653	-0,113	-0,055
-244,205	800,000	-0,020	-0,056
-243,190	-200,000	-0,015	-0,083
-242,176	300,781	0,046	0,062
-241,161	556,644	0,030	-0,054
-240,146	98,784	0,018	-0,015
-239,132	55,453	-0,050	-0,036
-238,117	173,572	-0,022	-0,023
-237,103	-73,269	0,059	-0,016
-236,088	-200,000	-0,007	-0,104
-235,073	-200,000	0,009	0,147
-234,059	-91,668	0,038	0,008
-233,044	325,250	-0,047	0,066
-232,030	-55,836	-0,079	-0,026
-231,015	326,320	-0,063	0,089
-230,000	505,856	-0,072	0,122
-228,986	278,258	0,030	-0,040
-227,971	-200,000	0,034	0,139
-226,957	-103,137	0,083	-0,014
-225,942	66,032	-0,057	-0,042
-224,927	-149,606	0,062	0,004
-223,913	707,765	-0,041	0,080
-222,898	29,111	0,048	-0,030
-221,884	-178,865	0,099	0,002
-220,869	800,000	-0,015	-0,046
-219,855	-25,660	0,059	-0,025
-218,840	-45,691	0,046	-0,017
-217,825	-200,000	-0,012	0,117
-216,811	-200,000	0,003	-0,094
-215,796	66,048	-0,060	-0,045
-214,782	-76,984	0,155	0,039
-213,767	-113,223	-0,049	-0,007
-212,752	254,683	0,027	-0,034
-211,738	138,272	0,060	0,058
-210,723	586,331	-0,028	0,050
-209,709	800,000	0,013	-0,037
-208,694	269,337	0,045	-0,058
-207,679	-90,536	0,017	0,004
-206,665	800,000	0,008	0,025
-205,650	-200,000	0,003	0,051
-204,636	-200,000	0,009	-0,109
-203,621	307,312	-0,086	0,117
-202,606	-200,000	-0,000	-0,124
-201,592	562,827	-0,025	-0,043
-200,577	-200,000	0,014	0,056
-199,563	800,000	0,038	-0,122
-198,548	-46,988	0,133	0,047
-197,533	-118,653	0,092	-0,012
-196,519	311,286	0,032	0,044
-195,504	213,845	-0,090	-0,104
-194,490	149,478	0,033	-0,033
-193,475	70,425	-0,040	-0,030
-192,460	800,000	0,042	0,098
-191,446	-168,540	-0,112	-0,003
-190,431	15,488	0,151	0,086
-189,417	800,000	0,020	0,055
-188,402	-43,325	0,021	0,008
-187,387	-200,000	0,010	-0,089
-186,373	-46,387	-0,106	-0,038
-185,358	-200,000	-0,019	-0,078
-184,344	800,000	0,033	0,079
-183,329	-61,286	0,063	-0,019
-182,315	-177,279	-0,069	-0,001
-181,300	109,525	-0,015	0,013
-180,285	800,000	-0,090	-0,237
-179,271	252,592	-0,059	0,074
-178,256	-200,000	-0,009	0,119
-177,242	-99,491	0,048	0,009
-176,227	21,266	0,109	-0,064
-175,212	-12,190	0,141	0,067
-174,198	-107,148	-0,078	0,012
-173,183	-30,452	-0,108	0,044
-172,169	-200,000	0,013	-0,114
-171,154	430,081	-0,059	-0,094
-170,139	-144,049	0,114	-0,008
-169,125	460,003	0,045	0,073
-168,110	800,000	-0,060	0,182
-167,096	-71,207	-0,056	0,015
-166,081	709,781	-0,049	-0,096
-165,066	12,470	-0,091	0,051
-164,052	116,158	0,028	0,025
-163,037	800,000	-0,039	-0,104
-162,023	46,214	0,043	-0,029
-161,008	800,000	0,036	0,100
-159,993	42,902	0,035	-0,023
-158,979	311,710	-0,019	0,026
-157,964	800,000	0,043	0,123
-156,950	-21,912	0,121	0,053
-155,935	265,903	-0,074	0,095
-154,920	-200,000	-0,007	0,105
-153,906	-37,066	0,033	0,013
-152,891	-37,246	0,208	0,080
-151,877	-89,747	0,074	0,016
-150,862	37,126	-0,049	-0,031
-149,847	549,296	-0,070	-0,123
-148,833	800,000	-0,053	0,116
-147,818	800,000	-0,028	0,057
-146,804	30,308	0,029	-0,018
-145,789	-200,000	0,005	0,042
-144,775	-22,587	0,113	-0,050
-143,760	800,000	-0,022	0,044
-142,745	-200,000	-0,023	-0,081
-141,731	800,000	-0,020	0,046
-140,716	-78,254	0,077	-0,019
-139,702	-200,000	-0,033	-0,108
-138,687	261,840	-0,095	-0,120
-137,672	140,064	0,089	-0,086
-136,658	-200,000	0,012	0,059
-135,643	89,232	0,043	-0,035
-134,629	800,000	0,042	-0,106
-133,614	-200,000	0,000	-0,125
-132,599	800,000	0,008	0,024
-131,585	800,000	-0,031	0,101
-130,570	120,090	-0,071	-0,064
-129,556	300,583	-0,072	0,097
-128,541	39,817	-0,096	-0,062
-127,526	-192,206	0,091	0,001
-126,512	-53,697	0,099	-0,033
-125,497	800,000	0,014	-0,039
-124,483	396,196	0,009	-0,014
-123,468	-131,213	0,098	-0,009
-122,453	-200,000	-0,024	-0,118
-121,439	-64,080	-0,079	-0,023
-120,424	160,001	-0,039	0,039
