DTS Sentinel unit serial number:	SN410029Multiplexer serial number:	ORYXHardware model number:	OX2-SRSoftware version number:	ORYX F/W v4,00 Oryx Data Collector v3.7.2.0data status	okinstallation	B6 Nyhavnadifferential loss correction	single-endedforward channel	channel 2reverse channel	N/Adate	2023/12/08time	01:45:09forward acquisition time	300,00reverse acquisition time	0,00gamma	499,1914k internal	0,3165k external	0,3165temperature offset calibration	1,0000default loss term (dB/km)	0,3820temperature slope calibration	1,0000multiplexer offset coefficient	1,0000multiplexer slope coefficient	1,0000fibre end	0,00T internal ref (°C)	13,24T ext. ref 1 (°C)	-3,62T ext. ref 2 (°C)	-3,63length (m)	temperature (°C)	Stokes	anti-Stokes-744,400	322,417	0,035	0,049
-743,385	-56,178	-0,179	-0,058
-742,371	800,000	0,028	0,079
-741,356	-153,112	-0,386	0,020
-740,342	3,353	0,139	0,074
-739,327	-83,109	-0,293	0,069
-738,312	34,098	0,101	-0,065
-737,298	-60,372	-0,374	-0,116
-736,283	200,077	0,063	0,072
-735,269	-118,861	-0,203	0,026
-734,254	399,079	0,083	0,128
-733,239	-20,880	-0,445	-0,200
-732,225	47,227	0,116	0,079
-731,210	800,000	-0,022	0,049
-730,196	102,802	0,081	-0,069
-729,181	110,706	-0,111	-0,098
-728,167	-200,000	0,003	0,032
-727,152	-200,000	-0,032	0,211
-726,137	-167,479	-0,108	0,003
-725,123	59,359	-0,155	-0,112
-724,108	227,127	-0,079	-0,094
-723,094	800,000	0,060	-0,163
-722,079	250,133	0,013	-0,017
-721,064	-57,033	-0,008	-0,003
-720,050	-200,000	0,022	-0,112
-719,035	178,851	-0,080	0,086
-718,021	800,000	-0,035	-0,077
-717,006	800,000	-0,038	-0,087
-715,991	301,178	-0,079	-0,108
-714,977	312,169	0,053	-0,074
-713,962	43,582	-0,094	-0,063
-712,948	800,000	0,063	0,136
-711,933	800,000	-0,027	-0,067
-710,918	28,282	-0,087	-0,054
-709,904	-200,000	-0,031	-0,106
-708,889	-56,115	-0,031	0,010
-707,875	-110,020	-0,175	0,027
-706,860	189,794	-0,121	-0,134
-705,845	-31,876	0,078	-0,032
-704,831	555,974	-0,075	0,134
-703,816	-14,838	-0,088	-0,041
-702,802	-200,000	0,009	-0,182
-701,787	800,000	0,033	-0,072
-700,772	28,280	-0,075	-0,046
-699,758	800,000	-0,056	-0,119
-698,743	-200,000	-0,010	-0,053
-697,729	-71,892	-0,091	0,025
-696,714	305,303	-0,084	0,115
-695,699	-200,000	0,007	0,040
-694,685	-146,094	-0,136	0,009
-693,670	-200,000	-0,003	-0,035
-692,656	800,000	-0,041	-0,097
-691,641	-113,831	0,152	0,021
-690,627	56,039	-0,034	-0,024
-689,612	-200,000	0,002	0,140
-688,597	-20,302	-0,086	-0,039
-687,583	-69,801	-0,052	0,015
-686,568	-89,111	-0,127	-0,027
-685,554	-111,625	-0,099	-0,015
-684,539	-200,000	0,011	-0,061
-683,524	172,794	-0,066	-0,070
-682,510	-128,737	0,061	0,006
-681,495	-200,000	-0,019	-0,078
-680,481	-200,000	0,003	-0,058
-679,466	104,839	-0,124	0,107
-678,451	301,723	0,067	-0,090
-677,437	800,000	0,025	0,071
-676,422	-200,000	0,013	-0,113
-675,408	-200,000	0,026	-0,124
-674,393	-112,536	-0,105	0,015
-673,378	-125,469	-0,137	-0,015
-672,364	772,886	0,019	0,039
-671,349	-200,000	0,011	-0,062
-670,335	-200,000	0,023	0,222
-669,320	800,000	0,039	0,105
-668,305	-200,000	-0,005	0,075
-667,291	51,165	-0,119	-0,083
-666,276	-200,000	-0,026	0,094
-665,262	-200,000	-0,026	-0,136
-664,247	578,655	-0,035	-0,063
-663,232	93,370	0,108	0,089
-662,218	-47,951	0,103	0,036
-661,203	800,000	-0,020	-0,054
-660,189	-172,672	0,078	0,002
-659,174	-200,000	0,027	-0,119
-658,159	-154,803	-0,115	-0,005
-657,145	800,000	0,033	-0,077
-656,130	-24,921	-0,159	-0,069
-655,116	594,847	0,090	0,164
-654,101	-200,000	-0,002	0,091
-653,086	800,000	-0,038	-0,078
-652,072	-29,957	-0,046	0,019
-651,057	24,525	-0,106	-0,064
-650,043	-200,000	-0,015	-0,114
-649,028	7,390	0,079	-0,043
-648,014	-200,000	-0,002	0,055
-646,999	51,017	0,139	0,096
-645,984	-62,383	-0,072	-0,022
-644,970	-200,000	0,009	-0,041
-643,955	-200,000	-0,005	-0,142
-642,941	-30,500	-0,074	-0,031
-641,926	14,266	-0,045	0,026
-640,911	191,832	0,071	0,079
-639,897	-73,155	0,030	0,008
-638,882	107,050	-0,114	0,099
-637,868	-200,000	0,010	-0,052
-636,853	-173,234	-0,044	0,001
-635,838	143,146	-0,056	-0,055
-634,824	62,706	-0,102	-0,075
-633,809	800,000	0,044	0,119
-632,795	262,156	-0,035	0,044
-631,780	-52,594	0,012	-0,004
-630,765	-123,682	-0,083	-0,010
-629,751	-63,703	-0,024	0,007
-628,736	-200,000	0,008	0,077
-627,722	111,042	-0,082	0,072
-626,707	-200,000	-0,005	-0,056
-625,692	61,169	-0,047	-0,034
-624,678	-9,680	0,087	0,042
-623,663	800,000	-0,006	-0,016
-622,649	382,876	0,031	0,047
-621,634	31,894	0,038	-0,024
-620,619	-46,656	0,071	-0,025
-619,605	-73,332	0,124	0,033
-618,590	57,444	-0,046	-0,033
-617,576	770,642	-0,008	-0,017
-616,561	-200,000	0,001	0,036
-615,546	614,415	-0,023	0,042
-614,532	-187,963	-0,128	0,001
-613,517	-100,120	0,075	-0,013
-612,503	-200,000	-0,002	-0,133
-611,488	39,159	0,073	0,047
-610,474	262,146	0,039	-0,049
-609,459	-200,000	-0,063	-0,248
-608,444	-111,448	-0,051	-0,007
-607,430	-14,322	-0,103	-0,048
-606,415	-113,633	0,130	0,018
-605,401	-79,246	-0,075	-0,018
-604,386	-18,541	0,088	0,040
-603,371	444,157	0,093	0,149
-602,357	591,890	-0,032	-0,057
-601,342	-62,060	-0,053	0,016
-600,328	140,016	-0,058	0,056
-599,313	368,750	0,044	0,066
-598,298	262,205	0,051	-0,065
-597,284	242,449	0,036	0,044
-596,269	-200,000	0,014	0,132
-595,255	7,303	-0,046	-0,025
-594,240	-178,335	-0,162	-0,003
-593,225	-200,000	0,026	-0,095
-592,211	-23,596	-0,100	-0,044
-591,196	-27,611	0,077	0,032
-590,182	-52,888	0,103	-0,034
-589,167	800,000	0,069	0,142
-588,152	-200,000	-0,014	0,164
-587,138	125,828	0,076	0,071
-586,123	-177,019	-0,025	-0,000
-585,109	63,443	0,061	0,045
-584,094	-37,822	-0,132	-0,051
-583,079	-15,307	-0,084	-0,039
-582,065	-90,247	0,195	-0,041
-581,050	-200,000	0,010	0,191
-580,036	391,431	-0,075	0,115
-579,021	-200,000	-0,013	-0,084
-578,006	111,962	-0,097	-0,086
-576,992	-21,733	0,088	-0,039
-575,977	312,858	-0,105	-0,144
-574,963	-200,000	0,002	-0,019
-573,948	259,587	0,087	0,110
-572,934	-16,935	-0,050	-0,023
-571,919	-200,000	0,008	0,091
-570,904	36,987	0,022	-0,014
-569,890	-200,000	0,000	-0,071
-568,875	18,647	0,091	-0,053
-567,861	-200,000	-0,024	-0,087
-566,846	300,363	-0,070	0,094
-565,831	-200,000	0,007	0,035
-564,817	509,589	0,028	-0,047
-563,802	149,967	0,039	-0,039
-562,788	221,107	-0,092	-0,108
-561,773	-29,177	0,035	0,014
-560,758	-200,000	-0,014	-0,085
-559,744	-101,764	-0,099	0,017
-558,729	91,415	0,036	0,030
-557,715	800,000	0,037	0,083
-556,700	131,571	-0,035	0,033
-555,685	57,014	-0,013	-0,009
-554,671	-172,213	0,107	-0,002
-553,656	-41,938	0,047	-0,018
-552,642	-57,794	-0,059	0,019
-551,627	106,670	0,013	0,011
-550,612	-200,000	0,020	-0,094
-549,598	-200,000	0,008	0,057
-548,583	-200,000	-0,009	0,069
-547,569	4,136	-0,022	-0,012
-546,554	372,089	0,034	-0,050
-545,539	788,391	-0,090	0,182
-544,525	-143,096	0,014	-0,001
-543,510	-32,269	-0,065	-0,026
-542,496	-200,000	-0,013	-0,129
-541,481	189,302	-0,033	-0,037
-540,466	-200,000	0,002	-0,206
-539,452	166,450	0,120	-0,124
-538,437	-200,000	0,029	-0,099
-537,423	800,000	-0,039	0,090
-536,408	800,000	0,026	-0,065
-535,393	233,963	-0,018	0,022
-534,379	-131,695	-0,052	0,005
-533,364	401,164	-0,053	-0,082
-532,350	800,000	-0,013	-0,038
-531,335	-31,775	0,075	0,030
-530,321	-49,258	-0,181	0,063
-529,306	-92,074	0,145	0,030
-528,291	459,135	-0,033	-0,053
-527,277	106,244	0,095	-0,082
-526,262	-200,000	0,018	0,072
-525,248	-18,867	-0,073	0,033
-524,233	-200,000	0,016	0,094
-523,218	-40,008	0,103	-0,039
-522,204	-39,376	-0,069	0,026
-521,189	800,000	0,026	-0,082
-520,175	800,000	0,032	-0,083
-519,160	-139,758	0,048	0,004
-518,145	-39,833	0,097	-0,037
-517,131	-200,000	-0,005	0,041
-516,116	1,646	0,142	-0,074
-515,102	-108,152	0,027	-0,004
-514,087	667,620	-0,049	0,093
-513,072	-25,951	-0,063	-0,027
-512,058	37,067	-0,088	0,057
-511,043	176,930	0,047	0,050
-510,029	-189,365	0,075	-0,001
-509,014	-146,968	0,080	0,005
-507,999	491,887	-0,026	-0,043
-506,985	-154,288	0,079	-0,004
-505,970	699,911	0,036	-0,070
-504,956	800,000	0,024	0,057
-503,941	800,000	0,039	0,101
-502,926	-200,000	0,002	-0,132
-501,912	800,000	-0,060	0,159
-500,897	-76,776	-0,023	-0,006
-499,883	800,000	0,009	0,024
-498,868	54,607	-0,045	-0,032
-497,853	-129,942	-0,098	0,010
-496,839	800,000	0,042	-0,108
-495,824	22,217	0,081	0,048
-494,810	259,615	0,016	0,021
-493,795	52,853	0,069	0,048
-492,781	-200,000	0,014	-0,142
-491,766	-155,884	0,050	0,002
-490,751	800,000	-0,037	-0,091
-489,737	-8,943	0,034	0,017
-488,722	-100,110	0,039	0,007
-487,708	-101,883	0,083	0,014
-486,693	-200,000	-0,017	0,072
-485,678	-136,315	-0,073	0,006
-484,664	-200,000	0,003	-0,051
-483,649	-29,003	0,113	-0,047
-482,635	-25,346	-0,186	0,080
-481,620	225,391	-0,058	-0,068
-480,605	170,634	0,066	0,069
-479,591	-7,975	-0,047	0,023
-478,576	-169,920	0,102	-0,003
-477,562	12,804	-0,089	-0,050
-476,547	-200,000	0,000	-0,058
-475,532	-103,324	-0,091	-0,015
-474,518	-200,000	-0,007	0,090
-473,503	-200,000	-0,000	-0,030
-472,489	-200,000	0,033	0,122
-471,474	-9,486	0,083	0,040
-470,459	125,135	-0,081	0,074
-469,445	78,796	0,035	0,027
-468,430	800,000	-0,041	0,084
-467,416	-200,000	-0,011	0,038
-466,401	-33,695	-0,039	-0,016
-465,386	41,773	0,120	0,079
-464,372	800,000	0,043	-0,097
-463,357	-200,000	0,022	-0,122
-462,343	800,000	0,030	-0,081
-461,328	-200,000	-0,009	-0,066
-460,313	201,175	0,057	-0,064
-459,299	58,988	0,064	-0,046
-458,284	69,695	-0,061	0,045
-457,270	-19,962	-0,132	-0,059
-456,255	25,875	0,021	-0,012
-455,241	593,369	-0,072	-0,131
-454,226	606,714	0,035	-0,064
-453,211	-110,769	0,034	0,005
-452,197	-15,141	0,067	-0,031
-451,182	169,374	-0,081	0,084
-450,168	69,335	0,090	-0,067
-449,153	-63,637	-0,148	0,044
-448,138	800,000	0,029	-0,091
-447,124	800,000	-0,033	-0,085
-446,109	315,879	0,028	0,038
-445,095	21,643	-0,038	0,022
-444,080	-57,483	-0,061	-0,019
-443,065	800,000	-0,063	0,160
-442,051	458,115	-0,024	-0,038
-441,036	-10,832	0,196	-0,094
-440,022	-131,138	-0,102	0,010
-439,007	800,000	-0,048	-0,097
-437,992	-200,000	-0,002	0,104
-436,978	-76,713	-0,070	0,018
-435,963	577,056	-0,015	0,026
-434,949	-200,000	-0,006	0,112
-433,934	130,570	-0,093	-0,087
-432,919	679,377	-0,047	0,089
-431,905	-200,000	-0,027	-0,089
-430,890	224,113	0,073	0,086
-429,876	116,790	0,019	-0,017
-428,861	-73,438	-0,075	0,020
-427,846	8,834	-0,071	-0,039
-426,832	91,761	0,006	-0,005
-425,817	-58,317	0,133	-0,042
-424,803	-200,000	-0,007	-0,106
-423,788	32,135	0,103	-0,064
-422,773	352,852	-0,033	-0,048
-421,759	179,007	0,034	-0,036
-420,744	10,640	-0,092	-0,051
-419,730	729,218	-0,037	-0,071
-418,715	800,000	0,056	-0,150
-417,701	76,246	-0,103	-0,079
-416,686	-98,553	0,123	-0,023
-415,671	-200,000	-0,017	0,056
-414,657	280,260	0,107	0,139
-413,642	14,870	-0,110	0,063
-412,628	800,000	-0,025	0,070
-411,613	-105,391	0,045	0,007
-410,598	473,410	-0,085	-0,139
-409,584	-200,000	-0,020	0,065
-408,569	800,000	0,025	-0,061
-407,555	-122,409	0,091	0,011
-406,540	369,158	0,033	0,049
-405,525	-120,556	-0,169	-0,021
-404,511	-200,000	0,012	-0,151
-403,496	48,070	-0,059	-0,040
-402,482	-46,368	-0,097	-0,034
-401,467	-46,302	0,061	0,022
-400,452	136,061	0,056	0,053
-399,438	-84,291	0,091	0,021
-398,423	95,743	0,036	0,030
-397,409	693,144	0,087	-0,166
-396,394	-122,907	0,110	-0,013
-395,379	-200,000	0,026	0,086
-394,365	-164,951	0,026	-0,001
-393,350	108,683	-0,044	0,038
-392,336	-200,000	-0,015	-0,152
-391,321	800,000	0,025	0,066
-390,306	-3,102	-0,046	-0,023
-389,292	-200,000	0,013	-0,164
-388,277	-15,680	0,107	0,049
-387,263	800,000	0,021	0,062
-386,248	469,312	0,071	0,116
-385,233	733,401	-0,027	0,053
-384,219	-200,000	0,001	0,079
-383,204	41,235	0,053	0,034
-382,190	-200,000	0,016	-0,097
-381,175	800,000	-0,017	-0,049
-380,160	-200,000	0,044	-0,153
-379,146	509,240	0,033	-0,056
-378,131	58,039	-0,135	-0,096
-377,117	171,500	-0,068	-0,071
-376,102	-126,056	-0,149	0,016
-375,088	683,876	-0,018	-0,034
-374,073	-75,898	-0,136	0,035
-373,058	-65,787	0,113	0,033
-372,044	393,718	0,052	0,079
-371,029	-71,668	0,058	0,016
-370,015	84,674	0,016	-0,013
-369,000	-200,000	-0,012	-0,053
-367,985	67,845	-0,104	0,077
-366,971	-38,215	-0,047	-0,018
-365,956	-11,749	0,168	0,080
-364,942	-195,432	0,081	0,000
-363,927	-200,000	0,020	0,100
-362,912	800,000	-0,013	-0,034
-361,898	208,405	0,042	0,048
-360,883	800,000	-0,040	-0,102
-359,869	-200,000	0,016	0,076
-358,854	-200,000	0,003	-0,044
-357,839	26,024	0,140	-0,084
-356,825	-200,000	0,046	0,205
-355,810	800,000	-0,015	0,045
-354,796	275,700	-0,036	0,046
-353,781	63,579	-0,087	0,063
-352,766	-114,042	0,099	0,014
-351,752	476,996	-0,116	-0,190
-350,737	165,303	0,091	0,094
-349,723	19,415	0,079	0,046
-348,708	-200,000	-0,005	0,056
-347,693	26,133	0,104	0,063
-346,679	73,970	0,032	0,024
-345,664	-122,668	-0,024	0,003
-344,650	-4,133	0,078	-0,039
-343,635	437,264	0,057	0,091
-342,620	62,976	0,192	0,139
-341,606	800,000	-0,029	0,077
-340,591	271,230	-0,079	0,101
-339,577	-113,851	0,071	0,010
-338,562	-200,000	0,016	-0,096
-337,548	42,962	0,013	0,009
-336,533	-140,409	-0,070	-0,005
-335,518	-72,074	0,038	0,010
-334,504	-130,347	0,050	-0,005
-333,489	-36,842	-0,127	0,049
-332,475	52,202	-0,153	0,105
-331,460	157,744	0,064	0,064
-330,445	-87,378	-0,050	-0,011
-329,431	-5,910	0,073	-0,036
-328,416	170,150	-0,021	0,022
-327,402	800,000	-0,024	0,060
-326,387	-160,496	0,091	-0,003
-325,372	-200,000	0,008	-0,029
-324,358	227,817	-0,121	-0,143
-323,343	110,719	-0,053	0,046
-322,329	-80,865	0,111	0,027
-321,314	-143,154	-0,043	0,003
-320,299	201,317	-0,052	0,058
-319,285	-44,711	0,061	-0,022
-318,270	800,000	-0,022	0,057
-317,256	123,600	0,102	-0,093
-316,241	22,512	-0,037	0,022
-315,226	-200,000	0,009	-0,070
-314,212	-59,654	-0,024	-0,007
-313,197	-71,061	-0,088	0,024
-312,183	170,240	-0,055	0,057
-311,168	800,000	-0,038	-0,105
-310,153	-31,424	-0,071	-0,029
-309,139	-129,764	-0,051	0,005
-308,124	800,000	0,045	0,090
-307,110	88,127	-0,115	-0,092
-306,095	-87,735	0,221	-0,048
-305,080	106,435	-0,162	-0,139
-304,066	800,000	-0,061	-0,153
-303,051	403,383	0,063	-0,096
-302,037	371,624	0,057	-0,083
-301,022	532,957	0,029	0,050
-300,008	-85,251	0,078	0,017
-298,993	43,146	-0,150	0,099
-297,978	-78,717	-0,113	-0,028
-296,964	-43,293	0,027	-0,010
-295,949	71,713	-0,014	-0,010
-294,935	-8,916	-0,050	0,024
-293,920	-149,456	0,042	0,002
-292,905	-60,827	0,056	-0,017
-291,891	800,000	-0,021	0,047
-290,876	-70,787	0,076	-0,021
-289,862	-19,594	-0,081	0,036
-288,847	192,607	-0,015	-0,017
-287,832	-140,351	-0,089	-0,007
-286,818	-137,425	-0,099	0,008
-285,803	-81,091	0,212	-0,050
-284,789	800,000	0,031	0,088
-283,774	119,170	0,078	0,069
-282,759	-23,998	0,123	-0,053
-281,745	49,667	-0,063	0,043
-280,730	-106,000	-0,158	-0,025
-279,716	96,301	0,172	-0,142
-278,701	-200,000	-0,008	0,053
-277,686	422,697	0,077	0,119
-276,672	338,202	0,056	0,079
-275,657	800,000	0,028	-0,078
-274,643	90,631	-0,053	-0,043
-273,628	516,115	-0,060	-0,102
-272,613	-200,000	0,028	-0,101
-271,599	761,364	-0,039	0,076
-270,584	112,178	0,030	0,026
-269,570	-90,152	0,137	0,029
-268,555	800,000	-0,034	-0,074
-267,540	-157,840	0,054	-0,002
-266,526	-41,555	-0,008	-0,003
-265,511	800,000	0,022	0,044
-264,497	-200,000	0,005	-0,016
-263,482	-143,932	0,060	-0,004
-262,467	-19,884	-0,081	0,036
-261,453	-200,000	-0,015	-0,094
-260,438	800,000	-0,018	-0,057
-259,424	-157,851	-0,039	-0,002
-258,409	-200,000	0,029	-0,092
-257,395	23,870	0,081	-0,048
-256,380	800,000	0,070	0,173
-255,365	37,670	-0,054	0,034
-254,351	800,000	0,024	-0,066
-253,336	-200,000	-0,007	0,053
-252,322	-200,000	0,013	0,064
-251,307	14,221	-0,104	0,058
-250,292	402,763	0,043	0,066
-249,278	-200,000	0,002	0,118
-248,263	-180,262	0,111	0,002
-247,249	-76,910	-0,088	0,022
-246,234	116,353	0,137	0,121
-245,219	-96,491	-0,108	0,020
-244,205	268,785	-0,052	0,066
-243,190	800,000	0,023	0,064
-242,176	323,503	-0,068	0,094
-241,161	-200,000	0,012	0,147
-240,146	-21,225	0,103	0,045
-239,132	-90,429	-0,097	-0,020
-238,117	-200,000	0,046	-0,183
-237,103	-200,000	-0,015	-0,048
-236,088	-107,890	-0,021	0,003
-235,073	431,952	0,020	0,031
-234,059	114,938	0,088	0,077
-233,044	-200,000	0,009	0,071
-232,030	128,053	-0,025	-0,023
-231,015	-9,909	0,105	-0,050
-230,000	173,939	-0,054	-0,056
-228,986	8,534	0,096	-0,052
-227,971	104,001	0,057	0,049
-226,957	-23,651	0,071	0,031
-225,942	116,771	0,031	0,027
-224,927	-113,893	-0,104	0,014
-223,913	-168,857	-0,176	0,005
-222,898	-138,334	0,081	-0,006
-221,884	-200,000	-0,007	-0,064
-220,869	-124,160	0,042	-0,005
-219,855	-44,693	0,086	0,031
-218,840	-200,000	0,003	0,086
-217,825	45,181	-0,033	-0,022
-216,811	297,256	-0,028	-0,037
-215,796	317,180	-0,102	-0,140
-214,782	285,143	-0,071	-0,092
-213,767	121,088	0,029	-0,026
-212,752	-117,510	0,025	0,003
-211,738	-200,000	0,030	0,126
-210,723	-126,172	-0,038	0,004
-209,709	-159,318	-0,032	-0,001
-208,694	-143,699	-0,143	-0,010
-207,679	-59,269	0,173	-0,053
-206,665	112,242	-0,016	0,014
-205,650	554,947	0,025	0,043
-204,636	85,975	0,015	0,012
-203,621	760,865	0,046	0,091
-202,606	189,405	-0,087	0,094
-201,592	800,000	0,024	-0,055
-200,577	-91,975	-0,116	0,024
-199,563	-200,000	-0,021	0,076
-198,548	-200,000	0,012	0,102
-197,533	-137,385	-0,133	0,011
-196,519	691,318	0,060	0,114
-195,504	176,504	-0,048	-0,050
-194,490	530,555	-0,056	0,095
-193,475	111,793	-0,060	0,052
-192,460	-38,484	0,048	0,018
-191,446	-200,000	0,038	0,217
-190,431	-200,000	-0,004	0,028
-189,417	800,000	-0,025	0,056
-188,402	-200,000	0,001	-0,065
-187,387	800,000	0,019	-0,048
-186,373	-2,131	-0,059	0,030
-185,358	-200,000	-0,019	-0,078
-184,344	-200,000	0,016	-0,103
-183,329	800,000	-0,028	0,080
-182,315	-82,046	-0,093	0,022
-181,300	124,185	-0,023	0,021
-180,285	-200,000	0,006	0,042
-179,271	118,945	0,072	-0,064
-178,256	230,215	-0,081	-0,095
-177,242	96,500	0,042	-0,034
-176,227	-29,151	-0,082	0,033
-175,212	-200,000	-0,002	0,064
-174,198	708,806	0,030	0,057
-173,183	-154,008	-0,065	-0,003
-172,169	-23,119	-0,143	-0,062
-171,154	71,252	-0,025	-0,018
-170,139	-200,000	0,003	-0,057
-169,125	760,500	-0,005	-0,009
-168,110	653,734	-0,016	0,029
-167,096	-200,000	-0,021	0,082
-166,081	-102,791	-0,208	-0,035
-165,066	-22,539	0,092	-0,040
-164,052	121,196	-0,075	-0,067
-163,037	62,945	-0,030	0,021
-162,023	-118,460	0,106	-0,013
-161,008	-74,622	-0,159	0,041
-159,993	442,181	0,058	-0,092
-158,979	-200,000	-0,032	-0,107
-157,964	38,924	0,058	-0,037
-156,950	163,870	0,046	-0,047
-155,935	-32,303	-0,115	0,046
-154,920	-200,000	0,014	0,077
-153,906	531,133	0,067	-0,115
-152,891	165,071	-0,065	0,066
-151,877	800,000	-0,036	0,094
-150,862	-200,000	0,028	0,114
-149,847	68,938	0,098	-0,072
-148,833	23,167	0,026	0,015
-147,818	800,000	0,033	0,077
-146,804	-104,835	0,150	-0,024
-145,789	396,833	0,062	0,093
-144,775	-200,000	-0,005	-0,112
-143,760	800,000	-0,051	-0,115
-142,745	143,968	-0,046	0,044
-141,731	108,322	-0,041	0,036
-140,716	3,254	-0,099	-0,051
-139,702	626,857	0,022	-0,040
-138,687	-30,115	-0,140	-0,057
-137,672	-129,765	0,032	-0,003
-136,658	-200,000	-0,004	-0,069
-135,643	-200,000	-0,010	-0,066
-134,629	800,000	0,033	-0,085
-133,614	397,399	-0,035	-0,052
-132,599	-200,000	-0,013	0,122
-131,585	800,000	0,042	-0,090
-130,570	156,614	-0,057	-0,057
-129,556	-56,782	-0,079	0,025
-128,541	800,000	0,066	-0,136
-127,526	-118,228	0,034	-0,004
-126,512	364,549	0,042	-0,060
-125,497	-185,113	0,088	0,001
-124,483	-166,401	-0,087	-0,003
-123,468	49,710	0,050	0,034
-122,453	-200,000	0,003	0,060
-121,439	-200,000	-0,014	-0,161
-120,424	-200,000	-0,004	-0,053
