DTS Sentinel unit serial number:	SN410029Multiplexer serial number:	ORYXHardware model number:	OX2-SRSoftware version number:	ORYX F/W v4,00 Oryx Data Collector v3.7.2.0data status	okinstallation	B6 Nyhavnadifferential loss correction	single-endedforward channel	channel 2reverse channel	N/Adate	2023/12/09time	06:15:08forward acquisition time	300,00reverse acquisition time	0,00gamma	499,1914k internal	0,3141k external	0,3141temperature offset calibration	1,0000default loss term (dB/km)	0,3820temperature slope calibration	1,0000multiplexer offset coefficient	1,0000multiplexer slope coefficient	1,0000fibre end	0,00T internal ref (°C)	18,37T ext. ref 1 (°C)	2,29T ext. ref 2 (°C)	2,32length (m)	temperature (°C)	Stokes	anti-Stokes-744,400	-200,000	-0,005	-0,032
-743,385	-108,301	-0,194	-0,031
-742,371	64,863	0,073	0,054
-741,356	-24,010	-0,288	0,127
-740,342	7,109	0,111	0,061
-739,327	-85,433	-0,299	-0,068
-738,312	6,373	0,117	-0,064
-737,298	-56,321	-0,342	0,112
-736,283	-133,352	0,131	0,012
-735,269	-92,625	-0,180	0,037
-734,254	150,139	0,107	0,108
-733,239	-1,907	-0,422	-0,219
-732,225	-200,000	0,014	-0,068
-731,210	-200,000	-0,032	0,165
-730,196	-108,906	-0,161	-0,025
-729,181	-200,000	-0,008	-0,136
-728,167	-200,000	0,002	-0,052
-727,152	457,882	-0,032	-0,053
-726,137	16,929	-0,117	-0,069
-725,123	800,000	-0,075	0,166
-724,108	-85,146	-0,155	0,036
-723,094	329,518	-0,075	-0,107
-722,079	86,551	-0,086	0,070
-721,064	282,564	-0,076	-0,101
-720,050	-200,000	0,004	-0,115
-719,035	-51,304	-0,079	0,027
-718,021	618,703	0,058	-0,109
-717,006	-117,757	-0,121	0,016
-715,991	-200,000	-0,001	-0,085
-714,977	34,178	0,120	-0,078
-713,962	143,880	0,070	0,069
-712,948	-200,000	-0,008	0,139
-711,933	-200,000	-0,025	-0,088
-710,918	-200,000	-0,006	-0,101
-709,904	-200,000	0,005	-0,071
-708,889	-35,023	-0,095	-0,038
-707,875	800,000	-0,047	0,137
-706,860	50,572	0,203	0,142
-705,845	-42,628	-0,103	0,038
-704,831	330,354	0,104	-0,148
-703,816	-154,326	-0,157	-0,008
-702,802	-200,000	-0,001	0,009
-701,787	8,211	-0,091	0,050
-700,772	-200,000	0,022	-0,116
-699,758	-200,000	-0,014	0,059
-698,743	-116,727	-0,026	-0,003
-697,729	-200,000	0,006	0,029
-696,714	-200,000	0,025	0,149
-695,699	800,000	-0,036	-0,077
-694,685	164,800	0,071	-0,074
-693,670	-200,000	-0,004	-0,129
-692,656	174,331	-0,022	0,024
-691,641	679,592	0,068	-0,131
-690,627	800,000	-0,024	0,076
-689,612	-200,000	0,005	-0,075
-688,597	39,484	-0,086	-0,057
-687,583	-2,887	-0,120	0,062
-686,568	-200,000	0,007	-0,037
-685,554	112,146	-0,099	-0,088
-684,539	-166,858	0,206	-0,006
-683,524	800,000	-0,055	0,138
-682,510	7,667	-0,061	-0,033
-681,495	-34,184	-0,038	0,015
-680,481	800,000	-0,024	0,077
-679,466	-145,372	-0,150	-0,010
-678,451	473,587	-0,058	-0,096
-677,437	-200,000	0,013	-0,051
-676,422	213,222	-0,042	0,049
-675,408	-159,218	0,069	-0,003
-674,393	-200,000	0,002	0,031
-673,378	83,737	-0,054	0,043
-672,364	-200,000	-0,007	0,068
-671,349	-46,042	-0,054	0,019
-670,335	447,920	0,058	0,095
-669,320	-108,655	0,047	-0,007
-668,305	-16,343	-0,185	-0,086
-667,291	800,000	-0,034	-0,094
-666,276	-200,000	0,003	0,067
-665,262	800,000	0,017	-0,036
-664,247	549,774	0,054	0,095
-663,232	62,386	0,110	-0,081
-662,218	-200,000	-0,012	0,063
-661,203	78,940	0,043	0,034
-660,189	-169,497	-0,078	0,002
-659,174	-87,132	-0,112	-0,025
-658,159	-49,017	0,069	-0,024
-657,145	-143,252	0,043	-0,003
-656,130	10,710	0,150	-0,084
-655,116	800,000	0,013	-0,030
-654,101	800,000	-0,021	0,066
-653,086	151,139	-0,079	-0,079
-652,072	-92,241	-0,152	-0,031
-651,057	-111,552	-0,135	0,020
-650,043	-200,000	-0,010	-0,059
-649,028	376,539	-0,054	-0,082
-648,014	800,000	-0,016	-0,047
-646,999	148,496	0,060	-0,060
-645,984	-179,700	-0,077	0,001
-644,970	-200,000	-0,006	0,064
-643,955	-51,876	-0,141	-0,048
-642,941	210,365	-0,070	0,081
-641,926	634,459	0,013	-0,024
-640,911	197,289	-0,054	0,061
-639,897	-168,497	-0,051	0,001
-638,882	685,570	0,012	-0,024
-637,868	800,000	-0,034	0,075
-636,853	-200,000	-0,019	-0,067
-635,838	-38,737	-0,106	0,041
-634,824	156,277	-0,029	-0,029
-633,809	-200,000	-0,003	-0,016
-632,795	-28,252	0,087	-0,037
-631,780	-28,469	-0,013	-0,006
-630,765	237,009	-0,019	-0,023
-629,751	99,099	-0,085	-0,073
-628,736	-0,783	-0,173	-0,090
-627,722	-200,000	-0,000	-0,027
-626,707	-200,000	0,013	-0,083
-625,692	125,237	0,015	-0,014
-624,678	-200,000	0,018	0,096
-623,663	476,233	-0,022	-0,037
-622,649	88,116	0,134	-0,109
-621,634	76,484	-0,077	0,060
-620,619	2,955	0,071	-0,038
-619,605	65,635	0,094	0,070
-618,590	21,981	-0,043	-0,026
-617,576	-59,737	0,087	-0,027
-616,561	103,170	0,027	0,023
-615,546	9,411	-0,068	-0,038
-614,532	378,175	-0,112	-0,170
-613,517	60,531	0,110	-0,080
-612,503	-53,428	0,132	-0,044
-611,488	-200,000	0,005	0,028
-610,474	-104,114	-0,064	0,011
-609,459	800,000	-0,030	0,074
-608,444	50,893	0,064	0,045
-607,430	-12,702	-0,135	-0,064
-606,415	129,166	-0,015	-0,014
-605,401	-72,404	-0,028	0,008
-604,386	54,353	0,055	0,039
-603,371	78,124	0,097	0,076
-602,357	-200,000	0,022	-0,099
-601,342	-74,335	0,112	-0,030
-600,328	-200,000	-0,012	-0,207
-599,313	4,978	0,054	-0,029
-598,298	-114,987	-0,053	0,007
-597,284	800,000	0,001	-0,002
-596,269	-9,619	0,135	-0,066
-595,255	800,000	0,061	0,134
-594,240	22,394	-0,096	-0,058
-593,225	-79,088	-0,050	-0,012
-592,211	519,732	0,037	-0,065
-591,196	800,000	0,024	0,060
-590,182	722,275	0,030	-0,059
-589,167	148,282	0,074	0,074
-588,152	800,000	-0,016	-0,049
-587,138	13,228	-0,125	0,071
-586,123	142,531	0,103	-0,100
-585,109	-200,000	-0,015	-0,184
-584,094	154,548	0,095	-0,096
-583,079	426,640	0,061	-0,098
-582,065	800,000	-0,071	0,164
-581,050	-200,000	-0,012	0,084
-580,036	-99,989	-0,073	0,013
-579,021	-200,000	0,023	-0,092
-578,006	-200,000	-0,011	0,083
-576,992	-56,930	-0,017	-0,005
-575,977	558,642	0,016	0,029
-574,963	-53,638	0,160	-0,054
-573,948	119,346	0,032	0,029
-572,934	136,850	-0,022	-0,021
-571,919	-200,000	-0,016	0,075
-570,904	-7,470	0,052	0,026
-569,890	6,293	-0,047	-0,026
-568,875	-200,000	0,022	0,118
-567,861	800,000	-0,036	-0,074
-566,846	192,715	-0,070	-0,078
-565,831	-80,730	0,149	0,036
-564,817	565,654	-0,007	0,012
-563,802	6,177	0,100	0,055
-562,788	-93,388	0,058	0,012
-561,773	478,181	-0,029	-0,049
-560,758	800,000	0,035	-0,072
-559,744	123,442	0,037	0,034
-558,729	-33,743	0,115	0,047
-557,715	225,349	-0,082	0,097
-556,700	158,669	-0,046	0,047
-555,685	100,946	-0,134	-0,114
-554,671	-60,607	0,086	0,027
-553,656	37,809	-0,077	0,050
-552,642	-96,403	-0,069	-0,013
-551,627	-200,000	0,004	-0,079
-550,612	-200,000	-0,012	-0,054
-549,598	-200,000	-0,041	-0,163
-548,583	-56,998	0,103	-0,033
-547,569	183,852	-0,086	-0,094
-546,554	-171,047	0,084	-0,002
-545,539	-35,073	-0,103	-0,041
-544,525	74,001	-0,062	0,047
-543,510	800,000	-0,040	0,128
-542,496	-200,000	-0,016	0,121
-541,481	144,211	-0,065	-0,064
-540,466	-60,851	0,076	-0,023
-539,452	305,000	-0,047	-0,064
-538,437	27,878	0,104	-0,064
-537,423	-200,000	-0,001	-0,026
-536,408	100,749	-0,103	0,088
-535,393	-54,810	-0,074	-0,025
-534,379	-200,000	-0,028	-0,141
-533,364	-116,172	0,141	0,019
-532,350	33,715	-0,037	-0,024
-531,335	90,688	0,029	0,024
-530,321	71,586	0,129	0,098
-529,306	-141,710	-0,079	0,006
-528,291	-200,000	-0,014	0,176
-527,277	182,344	-0,028	-0,031
-526,262	186,032	-0,107	-0,117
-525,248	143,766	0,076	0,074
-524,233	-97,953	0,085	0,016
-523,218	800,000	0,051	0,118
-522,204	61,618	-0,027	-0,020
-521,189	-89,167	-0,121	-0,026
-520,175	800,000	0,018	0,048
-519,160	563,636	0,016	-0,029
-518,145	800,000	0,070	0,153
-517,131	38,798	0,103	0,068
-516,116	131,427	-0,048	-0,045
-515,102	-200,000	-0,015	0,122
-514,087	59,119	-0,017	-0,013
-513,072	-200,000	-0,018	-0,164
-512,058	-200,000	0,000	0,038
-511,043	-200,000	-0,002	-0,061
-510,029	-43,490	0,093	0,034
-509,014	-200,000	0,004	0,017
-507,999	-8,795	-0,080	-0,039
-506,985	-77,392	-0,076	-0,019
-505,970	218,135	-0,062	-0,073
-504,956	-200,000	0,011	0,062
-503,941	197,357	0,033	-0,037
-502,926	691,418	0,091	0,176
-501,912	-200,000	0,012	0,077
-500,897	-116,304	-0,037	-0,005
-499,883	-136,001	-0,098	-0,008
-498,868	323,707	-0,070	-0,098
-497,853	800,000	0,007	-0,014
-496,839	-136,248	0,054	0,005
-495,824	696,398	-0,034	0,066
-494,810	-200,000	0,020	0,148
-493,795	-102,232	-0,096	-0,017
-492,781	-200,000	0,001	-0,002
-491,766	-200,000	0,015	-0,114
-490,751	101,845	0,040	-0,034
-489,737	800,000	0,015	0,036
-488,722	-56,181	0,034	-0,011
-487,708	-90,658	0,123	-0,026
-486,693	125,595	-0,045	0,042
-485,678	620,403	-0,049	-0,090
-484,664	800,000	-0,049	-0,124
-483,649	-100,615	-0,121	0,022
-482,635	7,780	0,008	-0,004
-481,620	800,000	0,051	-0,108
-480,605	-85,797	0,133	0,030
-479,591	257,140	-0,065	0,082
-478,576	0,382	0,041	-0,021
-477,562	-6,492	0,049	-0,024
-476,547	-170,636	0,096	0,002
-475,532	800,000	-0,062	0,154
-474,518	233,673	0,083	0,101
-473,503	-81,516	0,122	0,029
-472,489	-85,785	0,023	-0,005
-471,474	3,061	-0,135	0,072
-470,459	-200,000	0,002	-0,050
-469,445	-200,000	0,004	-0,035
-468,430	-200,000	0,001	0,016
-467,416	283,103	-0,066	0,087
-466,401	414,083	0,022	0,034
-465,386	28,598	0,065	0,040
-464,372	-200,000	-0,018	-0,067
-463,357	-43,405	0,180	0,066
-462,343	115,313	-0,041	-0,037
-461,328	-200,000	0,017	-0,157
-460,313	-200,000	-0,030	0,115
-459,299	-59,342	0,099	-0,031
-458,284	-4,214	-0,142	0,072
-457,270	-200,000	0,007	0,036
-456,255	800,000	-0,026	0,067
-455,241	-146,749	0,094	0,006
-454,226	-43,506	-0,131	-0,048
-453,211	449,454	-0,035	-0,057
-452,197	525,393	0,032	-0,056
-451,182	116,082	0,050	0,045
-450,168	24,523	-0,065	0,039
-449,153	-89,820	-0,045	0,010
-448,138	-200,000	0,007	-0,084
-447,124	-200,000	0,009	-0,161
-446,109	-200,000	0,001	-0,041
-445,095	800,000	-0,019	0,046
-444,080	-66,022	0,118	-0,034
-443,065	43,477	-0,122	0,081
-442,051	-47,834	-0,068	-0,024
-441,036	-200,000	0,012	-0,075
-440,022	-85,314	-0,021	-0,005
-439,007	47,384	0,063	-0,043
-437,992	-51,606	0,072	-0,024
-436,978	-140,726	-0,075	0,006
-435,963	140,976	-0,131	0,126
-434,949	-200,000	-0,004	-0,114
-433,934	5,894	-0,116	-0,063
-432,919	-200,000	0,005	0,045
-431,905	110,414	-0,020	0,017
-430,890	-200,000	-0,007	0,088
-429,876	48,996	0,133	0,091
-428,861	32,686	-0,147	0,093
-427,846	214,089	0,087	0,102
-426,832	365,411	-0,054	-0,080
-425,817	-200,000	0,007	-0,106
-424,803	364,249	0,039	-0,057
-423,788	40,409	0,057	0,038
-422,773	156,770	-0,086	0,087
-421,759	-85,489	0,137	-0,031
-420,744	222,357	0,089	-0,105
-419,730	42,552	0,103	-0,069
-418,715	-200,000	0,002	0,091
-417,701	-200,000	0,005	0,035
-416,686	518,532	0,047	0,080
-415,671	800,000	0,054	-0,122
-414,657	-48,753	-0,200	0,070
-413,642	-173,285	-0,065	0,001
-412,628	114,188	-0,039	-0,035
-411,613	-200,000	-0,001	-0,021
-410,598	-73,953	0,068	-0,018
-409,584	800,000	0,062	-0,173
-408,569	-84,169	0,062	-0,014
-407,555	55,883	0,013	-0,009
-406,540	-50,776	0,119	-0,041
-405,525	-67,087	0,032	-0,009
-404,511	800,000	-0,052	0,112
-403,496	83,125	0,082	0,066
-402,482	-200,000	0,023	0,106
-401,467	-102,123	0,054	0,009
-400,452	82,866	0,025	0,020
-399,438	139,697	0,045	-0,043
-398,423	-157,906	0,102	0,004
-397,409	671,787	0,054	-0,103
-396,394	163,479	0,083	-0,086
-395,379	153,093	-0,010	-0,010
-394,365	92,838	-0,014	-0,012
-393,350	70,443	-0,125	0,094
-392,336	243,101	-0,101	0,124
-391,321	-200,000	0,010	0,066
-390,306	517,194	0,021	-0,037
-389,292	-55,604	0,041	-0,013
-388,277	-200,000	0,003	0,048
-387,263	-89,190	-0,055	0,012
-386,248	800,000	0,044	0,136
-385,233	-200,000	0,085	0,000
-384,219	800,000	-0,077	-0,183
-383,204	800,000	0,041	-0,095
-382,190	-57,222	0,028	-0,009
-381,175	80,336	-0,110	0,087
-380,160	292,328	0,041	0,054
-379,146	-7,685	-0,115	0,057
-378,131	-9,232	0,030	0,014
-377,117	-200,000	0,006	-0,060
-376,102	-53,501	-0,108	-0,036
-375,088	707,355	-0,090	-0,174
-374,073	-134,649	0,104	-0,009
-373,058	-65,517	0,143	-0,042
-372,044	30,988	-0,089	0,055
-371,029	227,699	-0,044	-0,053
-370,015	-167,412	0,049	-0,001
-369,000	488,093	-0,056	-0,094
-367,985	800,000	0,027	0,081
-366,971	160,783	0,057	-0,058
-365,956	209,009	0,113	-0,129
-364,942	-200,000	0,005	0,043
-363,927	106,273	-0,012	0,011
-362,912	800,000	0,019	0,052
-361,898	-9,107	0,063	0,030
-360,883	-23,149	-0,061	-0,027
-359,869	-200,000	-0,003	-0,212
-358,854	-147,210	0,056	-0,003
-357,839	-110,104	0,044	0,007
-356,825	-200,000	-0,002	0,027
-355,810	283,342	0,048	-0,063
-354,796	301,950	-0,077	0,105
-353,781	800,000	0,017	0,038
-352,766	463,776	0,022	-0,035
-351,752	388,567	-0,056	-0,084
-350,737	82,363	0,069	0,055
-349,723	239,531	-0,043	0,052
-348,708	-85,519	0,074	0,017
-347,693	98,312	0,065	-0,055
-346,679	-200,000	0,010	-0,124
-345,664	-200,000	0,050	-0,200
-344,650	-68,636	0,098	-0,027
-343,635	-172,861	0,063	-0,001
-342,620	-106,883	0,059	0,010
-341,606	-39,932	-0,046	0,017
-340,591	-200,000	-0,028	-0,154
-339,577	-6,823	-0,131	-0,065
-338,562	-200,000	0,007	0,069
-337,548	-172,451	-0,148	0,003
-336,533	329,318	0,038	0,053
-335,518	-200,000	-0,019	-0,069
-334,504	-105,929	0,119	0,019
-333,489	-200,000	0,002	-0,034
-332,475	-43,853	0,014	-0,005
-331,460	337,354	-0,072	-0,102
-330,445	-200,000	0,016	0,053
-329,431	-200,000	-0,001	0,103
-328,416	-200,000	0,005	0,028
-327,402	-200,000	-0,020	0,077
-326,387	800,000	-0,024	-0,064
-325,372	456,970	0,053	-0,087
-324,358	589,388	0,044	-0,079
-323,343	-200,000	0,018	-0,106
-322,329	-40,937	-0,082	0,031
-321,314	-34,823	0,126	-0,050
-320,299	-200,000	0,002	0,125
-319,285	800,000	-0,003	0,007
-318,270	-200,000	0,000	0,018
-317,256	-200,000	0,036	0,131
-316,241	-136,144	-0,123	-0,010
-315,226	800,000	0,020	-0,043
-314,212	87,070	-0,068	0,055
-313,197	-200,000	0,009	0,107
-312,183	-51,227	-0,102	0,035
-311,168	800,000	0,023	0,052
-310,153	-149,968	0,087	-0,005
-309,139	49,192	-0,091	-0,063
-308,124	474,376	-0,044	0,073
-307,110	276,811	0,117	0,152
-306,095	18,336	0,080	-0,046
-305,080	82,454	0,046	0,036
-304,066	-200,000	-0,009	0,076
-303,051	26,043	-0,063	0,038
-302,037	134,471	-0,055	0,052
-301,022	-200,000	0,018	0,062
-300,008	-145,603	0,072	-0,005
-298,993	352,955	0,074	0,108
-297,978	-128,333	0,037	0,004
-296,964	23,950	-0,118	-0,071
-295,949	722,077	-0,043	0,083
-294,935	800,000	-0,064	-0,146
-293,920	-200,000	0,010	-0,035
-292,905	64,147	-0,014	0,010
-291,891	-200,000	-0,012	0,153
-290,876	-17,066	0,054	0,025
-289,862	187,232	0,045	0,048
-288,847	-34,894	-0,101	-0,040
-287,832	-105,362	0,055	0,009
-286,818	205,259	-0,051	0,058
-285,803	-200,000	-0,015	0,078
-284,789	-200,000	-0,008	-0,027
-283,774	-200,000	0,007	0,109
-282,759	-200,000	0,002	-0,047
-281,745	240,026	0,026	-0,032
-280,730	668,700	0,042	0,079
-279,716	800,000	-0,021	0,045
-278,701	152,558	-0,030	0,030
-277,686	-40,572	-0,049	0,019
-276,672	178,157	0,078	-0,083
-275,657	426,257	-0,058	0,091
-274,643	-200,000	0,005	-0,018
-273,628	119,240	-0,038	0,034
-272,613	-200,000	-0,006	0,046
-271,599	340,657	-0,076	0,109
-270,584	-46,578	0,120	0,043
-269,570	86,460	-0,060	0,048
-268,555	-200,000	-0,001	0,044
-267,540	344,936	0,007	-0,010
-266,526	-110,418	0,089	0,013
-265,511	225,907	-0,019	-0,023
-264,497	-135,578	-0,076	0,006
-263,482	800,000	-0,036	-0,079
-262,467	115,855	-0,015	0,014
-261,453	427,733	-0,054	-0,085
-260,438	-113,799	-0,148	-0,021
-259,424	800,000	0,026	-0,061
-258,409	31,789	-0,057	0,035
-257,395	-106,294	-0,017	-0,003
-256,380	-200,000	0,022	0,187
-255,365	-200,000	0,010	0,065
-254,351	146,310	-0,067	0,065
-253,336	128,356	0,015	-0,014
-252,322	-69,976	-0,133	0,037
-251,307	-200,000	-0,001	-0,127
-250,292	186,200	-0,038	-0,041
-249,278	800,000	0,031	0,084
-248,263	-6,589	-0,120	-0,059
-247,249	50,961	-0,051	-0,035
-246,234	-100,485	-0,122	0,022
-245,219	-3,535	-0,028	-0,014
-244,205	754,670	0,026	-0,051
-243,190	-200,000	0,022	0,127
-242,176	-128,326	0,033	-0,003
-241,161	93,776	0,025	-0,020
-240,146	133,405	0,051	0,048
-239,132	-200,000	0,020	-0,081
-238,117	-95,787	-0,053	-0,010
-237,103	-200,000	0,009	-0,088
-236,088	62,573	-0,017	0,012
-235,073	800,000	0,036	0,094
-234,059	-116,304	0,041	0,005
-233,044	-200,000	-0,018	0,132
-232,030	-123,112	0,192	-0,022
-231,015	-200,000	0,026	-0,162
-230,000	76,412	-0,109	-0,084
-228,986	-200,000	0,020	-0,073
-227,971	272,537	0,064	0,083
-226,957	376,878	0,110	0,163
-225,942	-200,000	0,007	0,096
-224,927	67,893	-0,114	-0,085
-223,913	-200,000	-0,002	-0,091
-222,898	173,723	0,050	-0,052
-221,884	196,825	-0,082	0,091
-220,869	152,730	-0,030	-0,030
-219,855	-200,000	-0,006	-0,039
-218,840	224,002	-0,051	-0,060
-217,825	-11,302	0,136	0,065
-216,811	565,455	0,066	0,116
-215,796	-200,000	-0,014	-0,065
-214,782	91,893	-0,132	0,108
-213,767	-200,000	-0,007	0,080
-212,752	178,538	-0,025	-0,026
-211,738	200,499	-0,046	0,051
-210,723	252,808	-0,033	0,041
-209,709	800,000	-0,034	-0,102
-208,694	-49,199	0,083	-0,029
-207,679	-200,000	-0,003	0,011
-206,665	-200,000	0,021	0,086
-205,650	-11,664	0,053	-0,025
-204,636	116,034	0,007	-0,006
-203,621	-200,000	0,012	0,087
-202,606	121,992	0,020	-0,018
-201,592	800,000	-0,042	0,085
-200,577	300,290	-0,015	-0,020
-199,563	-136,896	-0,193	-0,016
-198,548	-200,000	0,018	0,142
-197,533	72,663	0,115	0,087
-196,519	677,226	-0,088	0,166
-195,504	800,000	0,022	-0,048
-194,490	124,785	-0,141	0,129
-193,475	-200,000	0,032	0,129
-192,460	670,834	-0,093	0,175
-191,446	-200,000	-0,004	-0,052
-190,431	-200,000	0,005	0,058
-189,417	-154,131	-0,063	0,003
-188,402	800,000	0,043	-0,122
-187,387	-200,000	-0,055	-0,191
-186,373	-200,000	-0,008	0,117
-185,358	-200,000	-0,017	-0,083
-184,344	-163,394	0,121	-0,004
-183,329	-200,000	0,022	-0,157
-182,315	800,000	-0,029	0,083
-181,300	-79,189	0,046	0,011
-180,285	56,572	0,034	-0,024
-179,271	-0,414	0,042	-0,021
-178,256	-200,000	-0,032	-0,117
-177,242	227,601	0,018	0,021
-176,227	129,382	0,006	-0,006
-175,212	800,000	-0,055	-0,138
-174,198	257,588	0,041	-0,051
-173,183	527,573	-0,060	-0,103
-172,169	235,433	-0,097	0,116
-171,154	-200,000	0,004	-0,088
-170,139	-200,000	0,020	-0,071
-169,125	301,750	0,011	-0,015
-168,110	-37,066	-0,062	0,024
-167,096	-200,000	-0,017	0,124
-166,081	800,000	0,015	0,038
-165,066	274,806	-0,050	0,064
-164,052	-39,568	0,056	-0,021
-163,037	188,146	0,034	-0,037
-162,023	800,000	0,016	0,034
-161,008	-36,826	0,239	0,092
-159,993	-28,858	0,059	0,025
-158,979	-200,000	-0,006	-0,048
-157,964	-93,916	-0,031	0,006
-156,950	-11,247	-0,110	-0,052
-155,935	-200,000	-0,009	-0,066
-154,920	172,361	0,039	0,041
-153,906	800,000	-0,014	-0,032
-152,891	800,000	0,045	-0,137
-151,877	393,547	0,098	-0,148
-150,862	-200,000	-0,002	0,017
-149,847	121,558	0,022	-0,020
-148,833	-110,747	-0,068	0,010
-147,818	-66,206	0,038	0,011
-146,804	335,107	0,019	0,026
-145,789	800,000	0,037	0,116
-144,775	-69,494	0,123	0,034
-143,760	22,161	-0,062	0,036
-142,745	-200,000	-0,056	0,000
-141,731	91,054	0,036	-0,029
-140,716	-200,000	0,034	-0,130
-139,702	-59,223	0,128	-0,040
-138,687	45,585	-0,071	-0,047
-137,672	-70,677	-0,135	-0,037
-136,658	-200,000	0,011	0,044
-135,643	800,000	-0,041	-0,084
-134,629	133,461	0,034	0,032
-133,614	-59,591	-0,072	0,022
-132,599	-200,000	0,015	0,118
-131,585	54,313	0,164	0,114
-130,570	21,044	-0,057	-0,033
-129,556	800,000	0,027	-0,087
-128,541	-129,309	-0,008	-0,001
-127,526	-200,000	0,046	-0,152
-126,512	-157,841	0,080	0,003
-125,497	-115,681	0,089	0,012
-124,483	-200,000	-0,001	-0,108
-123,468	14,674	-0,064	0,036
-122,453	188,433	-0,080	0,087
-121,439	-17,268	0,094	-0,043
-120,424	46,487	-0,143	0,096
-119,410	305,256	-0,003	-0,005
