DTS Sentinel unit serial number:	SN410029Multiplexer serial number:	ORYXHardware model number:	OX2-SRSoftware version number:	ORYX F/W v4,00 Oryx Data Collector v3.7.2.0data status	okinstallation	B6 Nyhavnadifferential loss correction	single-endedforward channel	channel 2reverse channel	N/Adate	2023/12/07time	14:05:08forward acquisition time	300,00reverse acquisition time	0,00gamma	499,1914k internal	0,3199k external	0,3199temperature offset calibration	1,0000default loss term (dB/km)	0,3820temperature slope calibration	1,0000multiplexer offset coefficient	1,0000multiplexer slope coefficient	1,0000fibre end	0,00T internal ref (°C)	13,22T ext. ref 1 (°C)	-1,71T ext. ref 2 (°C)	-1,69length (m)	temperature (°C)	Stokes	anti-Stokes-744,400	748,407	0,044	0,087
-743,385	-106,979	-0,338	-0,054
-742,371	44,509	0,153	0,102
-741,356	140,251	-0,231	-0,222
-740,342	-98,348	0,089	-0,016
-739,327	-62,080	-0,351	-0,106
-738,312	-131,435	0,059	0,006
-737,298	164,405	-0,226	-0,232
-736,283	-157,936	0,127	0,005
-735,269	-142,553	-0,356	0,025
-734,254	-66,145	0,195	-0,056
-733,239	-64,509	-0,520	-0,153
-732,225	643,245	0,083	0,154
-731,210	419,429	0,059	0,092
-730,196	-123,245	-0,096	-0,011
-729,181	800,000	-0,054	-0,126
-728,167	-94,177	0,116	0,023
-727,152	43,961	-0,058	0,039
-726,137	-86,670	-0,129	0,028
-725,123	-108,804	-0,153	-0,024
-724,108	800,000	-0,106	-0,214
-723,094	92,175	-0,073	-0,060
-722,079	-41,974	-0,102	0,038
-721,064	800,000	-0,065	-0,182
-720,050	-108,291	-0,070	-0,011
-719,035	-200,000	-0,008	-0,127
-718,021	-60,252	-0,084	-0,026
-717,006	52,044	-0,122	0,085
-715,991	68,460	-0,074	-0,055
-714,977	160,501	-0,076	-0,077
-713,962	135,652	0,023	-0,022
-712,948	24,626	0,156	-0,094
-711,933	800,000	-0,025	0,056
-710,918	39,576	-0,087	0,056
-709,904	249,588	-0,040	-0,050
-708,889	-122,065	0,075	-0,009
-707,875	102,841	0,021	-0,018
-706,860	-200,000	-0,013	-0,076
-705,845	-60,215	0,119	0,037
-704,831	398,987	0,024	0,036
-703,816	-108,029	-0,102	-0,016
-702,802	-200,000	0,006	-0,055
-701,787	-200,000	0,029	-0,099
-700,772	256,302	-0,107	-0,133
-699,758	-200,000	-0,013	-0,052
-698,743	-21,680	0,012	0,005
-697,729	105,460	0,084	0,072
-696,714	-200,000	0,008	0,054
-695,699	176,353	0,018	-0,019
-694,685	290,647	-0,103	0,136
-693,670	104,058	0,099	-0,085
-692,656	-200,000	0,024	0,080
-691,641	800,000	0,061	-0,125
-690,627	-46,450	0,155	-0,055
-689,612	-166,293	-0,152	-0,005
-688,597	320,236	0,009	0,012
-687,583	-145,319	-0,078	0,005
-686,568	-200,000	0,010	-0,125
-685,554	-66,073	-0,142	-0,041
-684,539	-79,059	0,027	0,007
-683,524	73,654	-0,065	-0,049
-682,510	-37,333	0,025	0,009
-681,495	-200,000	-0,012	-0,053
-680,481	-56,854	-0,102	-0,033
-679,466	-54,556	-0,101	-0,033
-678,451	800,000	0,044	-0,102
-677,437	508,672	0,057	-0,096
-676,422	92,080	0,218	-0,178
-675,408	41,210	0,116	-0,076
-674,393	-200,000	-0,023	0,157
-673,378	735,914	-0,069	-0,135
-672,364	-144,464	-0,088	0,006
-671,349	-112,291	-0,140	-0,020
-670,335	-13,304	-0,107	0,050
-669,320	239,368	0,032	-0,039
-668,305	-7,801	0,113	-0,055
-667,291	796,584	-0,043	-0,087
-666,276	800,000	-0,057	-0,122
-665,262	-91,199	-0,112	-0,023
-664,247	362,800	-0,086	-0,126
-663,232	-200,000	-0,010	0,052
-662,218	-130,908	0,073	-0,007
-661,203	-200,000	-0,034	-0,127
-660,189	-150,689	-0,073	0,004
-659,174	-36,365	-0,148	-0,058
-658,159	-79,660	-0,022	0,005
-657,145	800,000	-0,032	-0,086
-656,130	-57,435	-0,174	0,055
-655,116	-200,000	0,010	-0,124
-654,101	211,107	0,113	0,129
-653,086	-200,000	-0,039	0,184
-652,072	506,901	-0,021	-0,035
-651,057	395,065	-0,066	-0,100
-650,043	-200,000	0,032	-0,130
-649,028	-47,673	-0,082	-0,029
-648,014	52,366	-0,016	0,011
-646,999	-86,367	-0,094	-0,021
-645,984	574,741	-0,072	-0,129
-644,970	-200,000	0,006	0,080
-643,955	271,499	-0,051	-0,065
-642,941	-200,000	-0,003	-0,177
-641,926	-60,295	-0,050	-0,015
-640,911	-200,000	0,002	-0,028
-639,897	72,840	-0,050	-0,038
-638,882	-200,000	-0,006	-0,048
-637,868	-102,109	-0,113	0,020
-636,853	800,000	-0,115	-0,290
-635,838	-114,803	-0,055	-0,007
-634,824	498,064	-0,006	-0,010
-633,809	800,000	-0,017	-0,045
-632,795	-200,000	-0,011	0,053
-631,780	428,557	0,058	-0,091
-630,765	-67,622	-0,103	-0,029
-629,751	-200,000	-0,024	-0,176
-628,736	-95,984	0,053	-0,010
-627,722	419,005	0,076	-0,118
-626,707	618,603	0,050	-0,092
-625,692	800,000	-0,064	0,140
-624,678	298,677	0,035	-0,047
-623,663	-200,000	0,022	0,100
-622,649	-143,048	0,065	0,005
-621,634	-200,000	0,006	-0,091
-620,619	-64,108	0,051	-0,015
-619,605	-14,014	0,058	0,027
-618,590	-104,589	-0,043	-0,007
-617,576	-200,000	0,059	-0,190
-616,561	-200,000	-0,001	-0,141
-615,546	63,775	-0,080	-0,058
-614,532	372,869	0,022	0,033
-613,517	278,619	-0,045	0,059
-612,503	330,699	0,054	-0,075
-611,488	159,488	0,019	-0,019
-610,474	-186,924	-0,146	-0,001
-609,459	-200,000	-0,036	0,142
-608,444	800,000	-0,033	-0,103
-607,430	64,482	0,049	-0,036
-606,415	-19,427	-0,054	0,024
-605,401	90,105	-0,061	0,050
-604,386	-143,484	-0,060	0,004
-603,371	53,422	0,086	0,060
-602,357	-36,891	-0,047	0,018
-601,342	-200,000	-0,044	-0,144
-600,328	187,435	-0,087	-0,094
-599,313	60,303	0,049	-0,035
-598,298	-120,745	0,066	0,008
-597,284	-200,000	0,014	0,083
-596,269	-41,605	0,077	-0,028
-595,255	-12,163	-0,108	-0,051
-594,240	-32,387	-0,137	0,055
-593,225	-89,423	0,070	-0,015
-592,211	449,019	-0,065	-0,104
-591,196	123,306	-0,078	-0,071
-590,182	-200,000	-0,034	0,125
-589,167	72,804	-0,044	-0,033
-588,152	-84,154	0,083	-0,019
-587,138	-200,000	-0,037	-0,121
-586,123	-165,770	-0,208	0,006
-585,109	-200,000	-0,001	-0,077
-584,094	-200,000	0,012	-0,093
-583,079	-105,687	-0,110	0,018
-582,065	-104,041	0,101	0,017
-581,050	-200,000	-0,027	-0,102
-580,036	-200,000	-0,013	0,110
-579,021	31,087	-0,075	0,046
-578,006	113,822	-0,087	-0,076
-576,992	362,944	0,016	0,024
-575,977	-60,971	-0,041	0,013
-574,963	-200,000	-0,007	0,090
-573,948	-200,000	-0,018	-0,086
-572,934	-108,012	0,223	0,035
-571,919	59,482	0,026	0,019
-570,904	-200,000	-0,038	-0,206
-569,890	193,899	0,050	-0,055
-568,875	-31,633	0,027	0,011
-567,861	-105,673	0,055	0,009
-566,846	676,438	0,073	-0,137
-565,831	-26,454	-0,044	-0,019
-564,817	144,303	-0,081	-0,079
-563,802	-134,202	-0,076	0,007
-562,788	-29,131	-0,101	-0,042
-561,773	-200,000	0,005	-0,100
-560,758	-81,374	-0,017	-0,004
-559,744	800,000	0,039	0,112
-558,729	409,221	-0,027	0,042
-557,715	-92,457	-0,087	0,018
-556,700	76,363	0,047	0,036
-555,685	30,098	-0,047	-0,029
-554,671	286,520	0,047	0,062
-553,656	-38,911	0,089	0,034
-552,642	-99,669	-0,082	-0,015
-551,627	-200,000	-0,002	-0,039
-550,612	800,000	0,024	-0,077
-549,598	-200,000	-0,021	-0,176
-548,583	55,394	-0,046	0,032
-547,569	3,340	-0,154	-0,081
-546,554	207,375	0,068	-0,076
-545,539	-64,344	0,074	-0,022
-544,525	-32,007	0,087	-0,035
-543,510	-39,460	0,005	-0,002
-542,496	296,652	-0,076	0,100
-541,481	-200,000	0,007	0,051
-540,466	95,537	-0,047	0,039
-539,452	83,936	0,089	0,070
-538,437	-200,000	0,002	0,016
-537,423	-19,116	0,072	0,032
-536,408	631,158	0,024	-0,044
-535,393	248,860	-0,043	0,053
-534,379	3,858	-0,098	-0,052
-533,364	-165,714	0,066	0,002
-532,350	77,334	0,131	-0,100
-531,335	366,000	0,105	-0,153
-530,321	485,152	0,072	0,119
-529,306	38,210	-0,107	0,068
-528,291	15,314	-0,040	-0,023
-527,277	-82,703	-0,098	-0,023
-526,262	-200,000	-0,024	-0,100
-525,248	-200,000	0,001	-0,011
-524,233	-99,408	0,016	-0,003
-523,218	-24,549	-0,078	-0,033
-522,204	756,073	0,031	-0,061
-521,189	16,520	-0,029	-0,017
-520,175	-153,628	-0,088	0,004
-519,160	-23,947	0,080	0,034
-518,145	-200,000	0,015	-0,048
-517,131	-21,593	-0,049	0,022
-516,116	-101,841	0,166	0,029
-515,102	-8,696	0,059	0,028
-514,087	125,035	0,043	0,039
-513,072	800,000	0,037	-0,113
-512,058	-0,910	-0,068	0,035
-511,043	-93,322	0,034	-0,007
-510,029	-192,483	-0,080	0,001
-509,014	-200,000	0,004	0,032
-507,999	-200,000	-0,012	0,165
-506,985	-200,000	0,011	0,117
-505,970	-78,861	0,053	-0,013
-504,956	-66,732	-0,064	-0,018
-503,941	97,643	-0,035	0,029
-502,926	-33,512	0,076	-0,030
-501,912	106,005	0,047	0,040
-500,897	800,000	0,029	0,072
-499,883	-200,000	-0,019	-0,094
-498,868	393,331	-0,072	-0,108
-497,853	70,369	0,049	-0,036
-496,839	22,585	-0,150	0,088
-495,824	240,804	0,055	0,066
-494,810	-51,395	-0,084	0,028
-493,795	8,481	0,081	0,044
-492,781	800,000	-0,007	0,022
-491,766	110,757	-0,169	-0,147
-490,751	-200,000	0,037	0,127
-489,737	800,000	0,038	-0,096
-488,722	-200,000	-0,007	0,095
-487,708	56,776	-0,139	0,098
-486,693	5,099	0,161	0,085
-485,678	-7,171	-0,150	-0,073
-484,664	369,771	0,093	-0,136
-483,649	85,838	0,018	-0,015
-482,635	365,958	0,012	0,018
-481,620	-144,468	0,074	0,005
-480,605	433,006	0,065	0,102
-479,591	191,546	0,007	0,007
-478,576	-122,474	-0,125	-0,014
-477,562	-200,000	0,020	-0,130
-476,547	-200,000	-0,033	-0,211
-475,532	-130,797	0,116	-0,011
-474,518	-96,866	0,116	0,022
-473,503	-200,000	-0,009	0,077
-472,489	126,350	0,009	0,008
-471,474	186,644	0,065	0,070
-470,459	163,676	0,050	-0,051
-469,445	166,634	0,036	0,037
-468,430	-22,608	-0,049	-0,021
-467,416	-13,389	0,064	0,030
-466,401	-102,337	0,082	0,014
-465,386	-200,000	0,009	0,162
-464,372	-174,355	-0,097	-0,002
-463,357	761,923	-0,073	-0,144
-462,343	-200,000	0,024	0,111
-461,328	800,000	0,025	-0,077
-460,313	-58,796	0,114	-0,035
-459,299	43,769	0,132	0,087
-458,284	371,120	-0,068	0,100
-457,270	800,000	0,074	0,168
-456,255	151,490	-0,059	0,058
-455,241	49,395	-0,107	0,073
-454,226	-200,000	0,028	-0,116
-453,211	-200,000	0,003	0,095
-452,197	401,930	0,036	-0,055
-451,182	316,906	0,067	0,092
-450,168	-10,229	-0,037	-0,018
-449,153	149,695	-0,060	0,058
-448,138	127,639	-0,050	0,045
-447,124	79,792	-0,085	0,065
-446,109	455,610	0,051	0,081
-445,095	313,730	0,007	-0,010
-444,080	-200,000	-0,006	-0,073
-443,065	800,000	0,007	0,019
-442,051	65,463	-0,042	0,031
-441,036	-200,000	-0,002	0,018
-440,022	-200,000	-0,008	0,108
-439,007	85,951	-0,066	0,052
-437,992	154,729	0,044	-0,043
-436,978	-54,751	0,104	0,034
-435,963	41,253	0,100	0,065
-434,949	-22,438	-0,044	0,019
-433,934	-63,352	-0,089	-0,026
-432,919	76,168	0,025	0,019
-431,905	-11,795	0,076	0,036
-430,890	-43,663	0,070	0,025
-429,876	58,950	0,091	-0,064
-428,861	60,831	0,071	-0,051
-427,846	1,431	0,017	-0,009
-426,832	193,974	-0,068	-0,074
-425,817	800,000	0,013	-0,030
-424,803	-0,209	-0,086	0,044
-423,788	-14,203	0,091	-0,042
-422,773	121,681	0,079	0,071
-421,759	-55,997	0,024	-0,008
-420,744	-167,142	0,090	0,003
-419,730	118,361	-0,027	0,024
-418,715	-39,456	-0,131	0,049
-417,701	-0,807	-0,088	-0,045
-416,686	-103,107	0,086	0,015
-415,671	-200,000	0,041	0,137
-414,657	336,203	0,081	0,113
-413,642	800,000	0,031	-0,083
-412,628	182,937	0,081	-0,086
-411,613	-59,251	-0,037	0,012
-410,598	9,431	-0,110	-0,060
-409,584	40,776	-0,056	-0,036
-408,569	132,225	0,101	0,094
-407,555	-102,939	0,151	-0,026
-406,540	-0,211	0,111	0,057
-405,525	-159,683	-0,081	-0,003
-404,511	180,946	-0,093	-0,099
-403,496	-200,000	-0,049	0,163
-402,482	79,913	-0,076	0,058
-401,467	-200,000	0,013	0,074
-400,452	-174,723	0,082	-0,002
-399,438	304,135	-0,058	0,078
-398,423	601,612	-0,073	-0,131
-397,409	5,534	0,022	0,012
-396,394	-137,101	-0,169	-0,014
-395,379	-200,000	-0,002	-0,031
-394,365	800,000	0,064	0,141
-393,350	31,930	-0,092	0,057
-392,336	-105,832	0,013	0,002
-391,321	197,445	-0,076	0,083
-390,306	495,208	0,027	0,044
-389,292	-200,000	0,002	0,035
-388,277	294,467	0,060	-0,079
-387,263	112,495	-0,032	0,028
-386,248	496,417	0,077	0,127
-385,233	-21,235	0,066	-0,029
-384,219	49,108	0,068	0,046
-383,204	800,000	0,052	0,128
-382,190	800,000	0,024	-0,054
-381,175	162,426	-0,068	0,068
-380,160	800,000	0,016	0,048
-379,146	42,043	0,094	0,061
-378,131	-200,000	-0,025	0,112
-377,117	1,019	0,121	0,062
-376,102	-157,853	-0,049	-0,002
-375,088	-77,878	-0,180	-0,044
-374,073	-45,796	-0,119	0,042
-373,058	148,677	0,007	0,007
-372,044	191,939	0,062	0,067
-371,029	536,216	0,029	0,050
-370,015	521,187	0,058	0,098
-369,000	263,813	-0,120	-0,150
-367,985	56,080	-0,029	0,020
-366,971	-200,000	-0,007	-0,067
-365,956	-56,019	-0,130	-0,041
-364,942	-200,000	-0,054	0,175
-363,927	242,051	0,035	0,043
-362,912	-64,075	0,025	-0,007
-361,898	-39,997	0,069	-0,026
-360,883	444,818	-0,055	-0,087
-359,869	616,890	0,054	-0,098
-358,854	800,000	0,036	0,093
-357,839	223,173	0,025	0,029
-356,825	-200,000	0,030	0,120
-355,810	104,531	0,050	-0,042
-354,796	-14,650	0,074	0,034
-353,781	-43,350	0,067	-0,024
-352,766	14,403	-0,126	0,070
-351,752	-200,000	0,006	-0,048
-350,737	-67,204	0,057	0,016
-349,723	43,890	0,098	0,064
-348,708	249,472	0,049	0,059
-347,693	-200,000	0,017	-0,059
-346,679	382,928	0,047	-0,070
-345,664	-20,891	-0,104	0,045
-344,650	-0,077	0,195	0,099
-343,635	-42,103	-0,069	0,025
-342,620	-200,000	-0,015	0,051
-341,606	-200,000	0,027	-0,130
-340,591	800,000	-0,034	-0,070
-339,577	34,259	0,040	0,025
-338,562	227,314	-0,100	-0,116
-337,548	-200,000	0,006	0,036
-336,533	-200,000	-0,009	-0,099
-335,518	-53,495	-0,100	0,033
-334,504	621,117	-0,082	-0,148
-333,489	-178,499	-0,139	0,002
-332,475	-200,000	-0,015	-0,063
-331,460	757,991	0,034	-0,066
-330,445	-200,000	0,010	-0,049
-329,431	349,649	0,036	0,051
-328,416	-96,174	0,170	0,032
-327,402	-19,422	0,017	-0,008
-326,387	587,452	-0,031	-0,055
-325,372	800,000	-0,038	0,078
-324,358	-200,000	-0,003	-0,055
-323,343	58,896	0,086	-0,061
-322,329	-153,666	0,106	0,005
-321,314	-32,901	0,131	-0,052
-320,299	-185,939	0,097	-0,001
-319,285	172,577	0,090	0,093
-318,270	171,997	-0,025	-0,026
-317,256	-113,570	-0,085	-0,012
-316,241	800,000	-0,020	-0,048
-315,226	-200,000	0,011	0,057
-314,212	11,669	-0,026	0,014
-313,197	215,981	-0,056	0,064
-312,183	-37,523	-0,065	-0,025
-311,168	35,639	-0,012	-0,008
-310,153	800,000	-0,033	0,071
-309,139	425,523	-0,056	-0,087
-308,124	-105,463	0,073	0,012
-307,110	-200,000	0,028	-0,093
-306,095	327,342	0,018	0,025
-305,080	90,024	-0,049	0,039
-304,066	-200,000	-0,001	0,030
-303,051	-178,939	-0,028	-0,000
-302,037	-200,000	0,006	-0,029
-301,022	-200,000	0,006	0,028
-300,008	800,000	-0,015	-0,031
-298,993	299,521	-0,057	0,076
-297,978	-200,000	0,019	0,096
-296,964	481,081	-0,020	0,033
-295,949	-35,759	-0,040	-0,015
-294,935	735,599	-0,055	0,105
-293,920	-121,663	0,094	0,011
-292,905	-200,000	-0,024	-0,090
-291,891	800,000	0,021	0,066
-290,876	206,735	0,057	-0,064
-289,862	-200,000	-0,007	-0,087
-288,847	-200,000	-0,003	-0,086
-287,832	-114,073	0,135	-0,018
-286,818	800,000	0,057	0,115
-285,803	163,136	0,082	0,082
-284,789	607,974	0,106	-0,190
-283,774	-200,000	-0,018	0,196
-282,759	800,000	-0,016	0,040
-281,745	-97,582	-0,095	-0,017
-280,730	800,000	0,019	-0,043
-279,716	45,966	0,176	0,116
-278,701	-151,111	-0,108	0,006
-277,686	278,894	0,023	-0,029
-276,672	-200,000	-0,005	-0,046
-275,657	-200,000	-0,009	0,082
-274,643	143,306	0,124	-0,118
-273,628	-102,055	-0,131	0,022
-272,613	137,656	0,033	-0,031
-271,599	-42,273	0,025	0,009
-270,584	-200,000	-0,001	0,016
-269,570	137,904	-0,052	0,049
-268,555	-8,318	0,039	-0,019
-267,540	-98,342	-0,076	0,014
-266,526	-75,484	0,032	-0,008
-265,511	158,825	-0,070	0,070
-264,497	800,000	-0,034	0,090
-263,482	21,362	0,025	0,015
-262,467	800,000	0,025	0,054
-261,453	146,214	-0,055	-0,053
-260,438	18,147	-0,128	0,073
-259,424	-45,120	0,039	0,014
-258,409	44,033	0,065	-0,043
-257,395	-200,000	-0,004	-0,085
-256,380	-44,157	0,048	-0,017
-255,365	800,000	-0,017	0,041
-254,351	-105,174	-0,219	-0,035
-253,336	-200,000	0,011	-0,077
-252,322	-127,891	0,016	0,002
-251,307	204,438	0,063	-0,070
-250,292	-200,000	0,012	-0,065
-249,278	-142,292	0,115	0,008
-248,263	296,215	-0,028	0,037
-247,249	-19,165	-0,029	0,013
-246,234	-200,000	-0,029	0,111
-245,219	-200,000	-0,024	-0,100
-244,205	122,494	-0,125	-0,111
-243,190	75,638	0,073	-0,055
-242,176	594,167	0,033	0,058
-241,161	285,516	-0,109	0,140
-240,146	154,388	-0,057	0,056
-239,132	26,816	-0,112	-0,067
-238,117	72,596	0,082	0,061
-237,103	97,829	0,062	0,051
-236,088	157,494	0,061	-0,060
-235,073	-54,900	0,054	-0,017
-234,059	-200,000	-0,020	0,072
-233,044	52,941	0,122	-0,083
-232,030	270,393	0,064	-0,080
-231,015	800,000	-0,039	-0,118
-230,000	160,442	-0,006	-0,006
-228,986	800,000	0,046	-0,105
-227,971	-200,000	-0,018	-0,061
-226,957	800,000	0,040	0,106
-225,942	109,688	0,041	-0,035
-224,927	-54,475	0,052	0,017
-223,913	-200,000	-0,036	0,142
-222,898	-96,377	-0,038	-0,007
-221,884	-200,000	0,011	-0,044
-220,869	-200,000	-0,016	0,056
-219,855	-65,057	0,043	-0,012
-218,840	-8,679	0,166	0,079
-217,825	89,451	-0,015	-0,012
-216,811	-141,473	0,095	-0,007
-215,796	-200,000	0,029	-0,170
-214,782	-200,000	0,009	-0,049
-213,767	800,000	-0,022	-0,066
-212,752	318,441	0,077	-0,105
-211,738	-23,465	0,039	0,017
-210,723	-200,000	-0,009	0,059
-209,709	800,000	-0,066	-0,145
-208,694	-100,736	-0,129	0,022
-207,679	800,000	0,004	0,007
-206,665	-200,000	0,014	0,054
-205,650	-49,050	0,104	0,035
-204,636	800,000	0,065	0,142
-203,621	152,076	-0,100	-0,097
-202,606	141,923	-0,034	-0,032
-201,592	800,000	0,015	-0,048
-200,577	53,760	-0,115	-0,079
-199,563	212,840	0,013	0,015
-198,548	-200,000	0,002	0,030
-197,533	729,320	-0,093	0,178
-196,519	-172,757	-0,058	0,001
-195,504	22,278	-0,055	0,032
-194,490	-100,268	0,094	0,016
-193,475	-103,176	0,018	-0,003
-192,460	114,474	0,044	0,038
-191,446	-4,934	0,103	0,050
-190,431	122,698	0,033	0,029
-189,417	-200,000	0,000	-0,020
-188,402	800,000	-0,019	-0,044
-187,387	800,000	-0,022	-0,064
-186,373	201,546	-0,048	-0,053
-185,358	-117,724	0,027	0,003
-184,344	-150,789	0,166	0,009
-183,329	800,000	-0,031	0,096
-182,315	95,443	-0,073	0,059
-181,300	367,822	0,032	0,047
-180,285	-169,982	-0,175	-0,004
-179,271	-200,000	0,013	-0,060
-178,256	9,401	-0,152	0,081
-177,242	-169,925	-0,018	-0,000
-176,227	-153,571	0,060	0,003
-175,212	-66,750	0,125	0,035
-174,198	285,030	0,095	-0,122
-173,183	313,383	-0,069	0,093
-172,169	-200,000	-0,020	-0,133
-171,154	203,130	-0,083	-0,091
-170,139	143,849	0,157	0,149
-169,125	-200,000	0,024	0,079
-168,110	-200,000	-0,002	0,170
-167,096	163,873	0,010	0,010
-166,081	-22,000	-0,192	-0,083
-165,066	111,510	0,036	0,031
-164,052	143,268	-0,097	0,092
-163,037	82,340	0,050	0,039
-162,023	-90,004	0,095	-0,020
-161,008	-200,000	-0,003	0,115
-159,993	-107,148	0,125	-0,019
-158,979	48,467	-0,078	0,052
-157,964	145,330	-0,064	-0,061
-156,950	-200,000	-0,001	-0,071
-155,935	-39,777	-0,089	-0,033
-154,920	444,737	0,065	0,102
-153,906	339,637	0,062	0,087
-152,891	-66,690	-0,093	0,026
-151,877	-200,000	-0,012	-0,058
-150,862	-200,000	0,008	-0,115
-149,847	-30,044	-0,058	-0,023
-148,833	78,771	0,074	-0,056
-147,818	688,221	-0,030	-0,057
-146,804	258,998	-0,063	0,077
-145,789	175,695	-0,075	0,078
-144,775	76,345	-0,037	0,028
-143,760	800,000	0,019	-0,056
-142,745	-48,458	0,062	0,021
-141,731	800,000	-0,006	0,013
-140,716	-149,675	0,067	-0,004
-139,702	-46,165	-0,075	-0,026
-138,687	-190,173	0,139	0,001
-137,672	-154,705	-0,052	-0,002
-136,658	-73,717	-0,064	-0,016
-135,643	217,251	0,021	-0,024
-134,629	-49,532	-0,025	0,008
-133,614	-137,135	0,139	0,011
-132,599	375,914	0,084	-0,123
-131,585	-200,000	0,021	-0,113
-130,570	-49,743	-0,117	0,039
-129,556	100,906	-0,076	-0,063
-128,541	18,652	-0,082	-0,047
-127,526	-200,000	-0,002	0,048
-126,512	-127,661	0,088	0,009
-125,497	-200,000	-0,041	0,174
-124,483	-200,000	-0,002	-0,020
-123,468	124,699	-0,096	0,086
-122,453	-144,388	0,075	0,005
-121,439	-160,030	-0,049	-0,002
-120,424	-73,502	0,106	0,027
-119,410	742,060	-0,052	0,100
