DTS Sentinel unit serial number:	SN410029Multiplexer serial number:	ORYXHardware model number:	OX2-SRSoftware version number:	ORYX F/W v4,00 Oryx Data Collector v3.7.2.0data status	okinstallation	B6 Nyhavnadifferential loss correction	single-endedforward channel	channel 2reverse channel	N/Adate	2023/12/09time	07:45:08forward acquisition time	300,00reverse acquisition time	0,00gamma	499,1914k internal	0,3139k external	0,3139temperature offset calibration	1,0000default loss term (dB/km)	0,3820temperature slope calibration	1,0000multiplexer offset coefficient	1,0000multiplexer slope coefficient	1,0000fibre end	0,00T internal ref (°C)	18,55T ext. ref 1 (°C)	1,91T ext. ref 2 (°C)	1,91length (m)	temperature (°C)	Stokes	anti-Stokes-744,400	800,000	0,011	-0,030
-743,385	111,223	-0,188	0,168
-742,371	-200,000	0,011	-0,050
-741,356	81,625	-0,214	0,171
-740,342	302,898	0,048	0,066
-739,327	-46,548	-0,224	0,081
-738,312	-25,535	-0,045	0,020
-737,298	-51,996	-0,307	-0,105
-736,283	-62,646	0,093	-0,028
-735,269	102,141	-0,210	0,182
-734,254	723,005	0,053	-0,105
-733,239	-93,255	-0,431	-0,088
-732,225	9,317	0,056	-0,031
-731,210	34,657	0,045	-0,029
-730,196	312,604	-0,082	-0,114
-729,181	109,993	0,106	0,095
-728,167	-91,204	-0,012	0,003
-727,152	-70,167	0,177	-0,050
-726,137	3,934	-0,063	-0,034
-725,123	-33,437	-0,091	0,037
-724,108	195,083	-0,113	-0,127
-723,094	-3,704	-0,084	-0,043
-722,079	-69,248	-0,109	0,031
-721,064	-81,157	0,126	0,031
-720,050	-31,732	0,082	0,034
-719,035	-68,439	0,111	-0,032
-718,021	8,358	-0,136	0,076
-717,006	-200,000	0,027	-0,096
-715,991	-200,000	-0,023	-0,090
-714,977	-200,000	0,021	-0,069
-713,962	800,000	0,056	-0,124
-712,948	-159,052	0,046	-0,002
-711,933	-200,000	0,028	0,182
-710,918	-200,000	0,007	0,099
-709,904	112,798	0,071	-0,064
-708,889	447,741	0,087	0,143
-707,875	-59,055	-0,139	0,044
-706,860	-200,000	-0,003	0,066
-705,845	-200,000	0,000	0,072
-704,831	-33,941	-0,034	0,014
-703,816	-190,261	0,073	-0,001
-702,802	83,403	-0,040	-0,032
-701,787	-200,000	-0,043	-0,142
-700,772	800,000	-0,060	-0,195
-699,758	-118,843	-0,109	-0,014
-698,743	77,633	0,105	0,083
-697,729	372,342	-0,055	0,082
-696,714	-200,000	-0,011	-0,055
-695,699	370,289	0,062	-0,094
-694,685	-7,667	0,012	-0,006
-693,670	597,495	-0,027	0,050
-692,656	27,695	-0,023	0,014
-691,641	217,512	0,051	0,060
-690,627	-200,000	-0,008	0,130
-689,612	657,757	0,050	0,096
-688,597	65,211	0,107	0,080
-687,583	419,421	-0,111	-0,176
-686,568	87,984	0,046	0,037
-685,554	-29,602	-0,073	-0,031
-684,539	-150,588	-0,112	-0,006
-683,524	-200,000	0,026	-0,119
-682,510	-200,000	0,020	0,070
-681,495	-200,000	-0,013	0,088
-680,481	-71,626	-0,097	0,027
-679,466	-200,000	0,010	-0,108
-678,451	296,935	-0,055	0,075
-677,437	-200,000	-0,004	-0,092
-676,422	-200,000	-0,016	-0,076
-675,408	-200,000	0,043	-0,229
-674,393	81,617	-0,039	-0,031
-673,378	1,553	-0,070	-0,037
-672,364	-133,090	-0,078	-0,007
-671,349	-110,468	-0,050	0,008
-670,335	-200,000	-0,016	0,057
-669,320	-200,000	-0,039	-0,129
-668,305	-200,000	0,007	0,064
-667,291	193,307	0,021	0,023
-666,276	-200,000	-0,022	-0,086
-665,262	701,420	-0,079	-0,154
-664,247	14,736	-0,085	0,049
-663,232	-200,000	0,021	-0,194
-662,218	-200,000	0,007	0,036
-661,203	-200,000	0,011	0,144
-660,189	566,158	-0,040	-0,072
-659,174	-71,043	-0,085	0,024
-658,159	800,000	-0,058	-0,137
-657,145	-161,099	0,073	0,003
-656,130	-200,000	-0,020	-0,090
-655,116	254,993	0,076	0,097
-654,101	-43,324	0,068	-0,025
-653,086	-144,635	-0,089	-0,006
-652,072	800,000	-0,024	0,074
-651,057	190,834	-0,089	0,099
-650,043	-200,000	0,008	0,033
-649,028	800,000	-0,065	0,161
-648,014	-61,248	-0,047	0,015
-646,999	-200,000	-0,010	0,035
-645,984	790,037	0,010	-0,021
-644,970	800,000	0,010	0,030
-643,955	589,556	-0,033	-0,061
-642,941	-200,000	-0,048	-0,185
-641,926	340,407	-0,046	-0,067
-640,911	-94,035	0,146	0,029
-639,897	-66,581	0,126	0,037
-638,882	571,294	0,008	0,014
-637,868	-200,000	0,019	-0,133
-636,853	-200,000	0,009	-0,128
-635,838	557,746	-0,045	-0,081
-634,824	-34,086	0,107	-0,043
-633,809	-200,000	-0,001	-0,009
-632,795	354,008	0,058	0,085
-631,780	221,165	0,076	0,090
-630,765	303,986	-0,072	-0,099
-629,751	800,000	-0,017	-0,041
-628,736	113,748	-0,060	0,054
-627,722	-4,657	-0,058	-0,030
-626,707	611,122	0,079	0,146
-625,692	-73,994	0,181	0,048
-624,678	90,146	-0,039	0,032
-623,663	-171,782	-0,107	-0,003
-622,649	97,488	0,029	-0,025
-621,634	-99,146	-0,021	-0,004
-620,619	-53,432	0,134	0,045
-619,605	800,000	0,052	-0,129
-618,590	-200,000	0,010	-0,065
-617,576	-200,000	0,026	0,163
-616,561	800,000	-0,040	0,124
-615,546	-96,404	-0,057	0,011
-614,532	-87,154	-0,124	0,027
-613,517	-112,520	-0,018	-0,003
-612,503	125,749	-0,044	-0,041
-611,488	59,410	0,046	-0,034
-610,474	650,511	-0,022	0,042
-609,459	-200,000	0,031	-0,126
-608,444	-155,384	0,081	-0,004
-607,430	435,560	-0,094	-0,152
-606,415	25,979	-0,117	-0,072
-605,401	-114,997	0,105	0,015
-604,386	-200,000	0,037	0,147
-603,371	800,000	0,027	0,064
-602,357	-77,427	0,128	-0,032
-601,342	775,302	-0,030	-0,061
-600,328	15,643	0,070	-0,040
-599,313	245,509	-0,085	-0,106
-598,298	228,094	-0,088	-0,106
-597,284	-198,414	-0,065	0,000
-596,269	228,783	-0,054	0,065
-595,255	-196,371	0,145	-0,001
-594,240	-200,000	0,030	-0,135
-593,225	-20,582	-0,117	0,053
-592,211	-89,336	-0,115	0,025
-591,196	-73,969	-0,063	0,017
-590,182	348,697	-0,124	-0,181
-589,167	164,282	-0,098	-0,101
-588,152	75,289	-0,131	0,102
-587,138	-200,000	-0,020	-0,079
-586,123	502,792	-0,085	-0,145
-585,109	-93,366	-0,039	0,008
-584,094	461,921	-0,031	-0,050
-583,079	-200,000	-0,002	-0,117
-582,065	317,772	0,016	0,022
-581,050	-200,000	-0,022	0,158
-580,036	-53,629	0,099	0,033
-579,021	107,261	-0,060	-0,053
-578,006	215,883	-0,007	0,008
-576,992	70,702	-0,058	-0,044
-575,977	111,398	-0,071	-0,063
-574,963	800,000	0,018	-0,049
-573,948	-200,000	0,000	0,051
-572,934	-78,103	0,023	0,006
-571,919	93,973	0,049	0,041
-570,904	76,639	0,009	-0,007
-569,890	18,450	-0,045	0,026
-568,875	24,369	-0,017	-0,011
-567,861	-113,259	0,128	-0,018
-566,846	-200,000	-0,012	0,168
-565,831	-200,000	0,003	0,052
-564,817	-36,191	0,074	-0,029
-563,802	65,115	-0,087	0,064
-562,788	-200,000	-0,029	-0,109
-561,773	-141,111	-0,116	-0,009
-560,758	-111,166	0,040	-0,006
-559,744	-138,057	0,082	-0,007
-558,729	-115,074	0,095	-0,013
-557,715	31,061	0,120	-0,076
-556,700	566,524	-0,049	-0,087
-555,685	-200,000	0,009	-0,090
-554,671	22,957	0,061	-0,037
-553,656	70,778	-0,042	0,032
-552,642	-55,008	0,166	-0,055
-551,627	-183,169	-0,029	-0,000
-550,612	-200,000	0,002	-0,070
-549,598	-17,210	0,064	-0,030
-548,583	-5,711	-0,073	-0,037
-547,569	34,865	0,156	0,100
-546,554	-142,192	-0,097	-0,007
-545,539	9,723	0,051	0,028
-544,525	-200,000	0,025	0,124
-543,510	-91,846	0,044	0,009
-542,496	-200,000	-0,010	-0,067
-541,481	48,789	-0,078	-0,054
-540,466	800,000	-0,029	-0,091
-539,452	-29,852	-0,081	-0,034
-538,437	800,000	-0,055	0,158
-537,423	340,108	-0,121	0,173
-536,408	-200,000	-0,016	-0,060
-535,393	-200,000	-0,009	-0,071
-534,379	800,000	0,032	-0,073
-533,364	-61,468	-0,054	-0,017
-532,350	-200,000	0,006	0,035
-531,335	-43,894	0,055	-0,020
-530,321	-200,000	0,000	0,123
-529,306	-31,435	0,094	-0,039
-528,291	-14,707	-0,135	-0,064
-527,277	-146,585	-0,047	-0,003
-526,262	-114,892	0,062	0,009
-525,248	20,375	-0,106	0,063
-524,233	45,818	0,117	0,079
-523,218	96,117	-0,076	0,064
-522,204	139,890	-0,018	0,018
-521,189	-200,000	-0,044	-0,154
-520,175	183,143	-0,054	0,059
-519,160	166,657	-0,028	-0,029
-518,145	-200,000	-0,007	-0,133
-517,131	253,301	0,084	-0,106
-516,116	342,618	0,050	0,073
-515,102	59,298	-0,027	-0,020
-514,087	266,479	0,032	0,041
-513,072	-200,000	-0,011	-0,116
-512,058	-200,000	-0,003	-0,104
-511,043	254,173	-0,080	0,101
-510,029	-200,000	0,013	0,104
-509,014	-200,000	-0,009	0,110
-507,999	655,813	0,053	0,101
-506,985	-152,499	0,032	-0,002
-505,970	532,351	-0,067	0,117
-504,956	-40,797	-0,090	0,034
-503,941	800,000	-0,033	0,090
-502,926	-200,000	-0,005	0,035
-501,912	-71,744	0,090	-0,025
-500,897	-61,877	-0,099	-0,030
-499,883	304,254	0,071	-0,097
-498,868	-200,000	-0,008	-0,030
-497,853	-188,011	-0,089	-0,001
-496,839	45,228	0,069	0,047
-495,824	218,869	-0,032	0,038
-494,810	-107,654	-0,062	-0,010
-493,795	800,000	-0,007	-0,021
-492,781	-200,000	-0,011	0,055
-491,766	-67,749	-0,060	-0,017
-490,751	308,424	0,081	0,112
-489,737	-127,834	-0,183	0,019
-488,722	-35,454	0,070	-0,028
-487,708	3,506	0,114	-0,061
-486,693	20,232	0,038	0,023
-485,678	-93,714	-0,019	0,004
-484,664	62,392	-0,108	-0,079
-483,649	487,330	-0,065	-0,109
-482,635	-200,000	-0,004	-0,095
-481,620	7,484	0,212	0,116
-480,605	79,987	0,010	-0,008
-479,591	-108,281	0,011	0,002
-478,576	-86,013	-0,091	0,021
-477,562	-200,000	0,028	0,194
-476,547	131,830	-0,076	-0,072
-475,532	-77,892	-0,082	0,021
-474,518	280,643	-0,018	0,024
-473,503	468,768	-0,037	0,061
-472,489	318,481	0,097	-0,135
-471,474	-200,000	0,029	-0,102
-470,459	-50,504	0,100	0,034
-469,445	800,000	-0,039	-0,093
-468,430	-188,556	0,129	0,001
-467,416	800,000	0,050	-0,106
-466,401	800,000	-0,026	0,082
-465,386	122,903	-0,069	0,063
-464,372	-7,276	-0,065	-0,032
-463,357	393,958	-0,051	0,079
-462,343	39,073	-0,149	0,098
-461,328	-200,000	0,014	-0,077
-460,313	-200,000	-0,003	0,102
-459,299	56,248	0,095	0,068
-458,284	-41,435	0,127	-0,048
-457,270	-110,594	0,024	-0,004
-456,255	511,127	-0,098	0,167
-455,241	800,000	-0,020	0,049
-454,226	98,925	-0,050	0,043
-453,211	116,240	0,050	-0,045
-452,197	110,393	-0,050	0,044
-451,182	-129,382	0,063	0,006
-450,168	542,692	-0,019	-0,033
-449,153	51,968	-0,115	0,080
-448,138	512,063	-0,046	0,079
-447,124	-14,980	0,079	-0,037
-446,109	-200,000	0,003	-0,047
-445,095	800,000	-0,025	-0,051
-444,080	800,000	-0,041	0,087
-443,065	82,355	-0,030	0,023
-442,051	-200,000	-0,019	-0,087
-441,036	-134,169	-0,131	-0,012
-440,022	5,110	-0,019	-0,010
-439,007	-42,284	-0,123	0,046
-437,992	-200,000	-0,010	0,116
-436,978	490,148	-0,008	0,013
-435,963	-200,000	-0,021	0,113
-434,949	800,000	0,018	-0,047
-433,934	-200,000	-0,013	-0,203
-432,919	800,000	0,024	-0,060
-431,905	-200,000	-0,058	-0,234
-430,890	33,169	-0,043	-0,027
-429,876	414,903	0,029	0,045
-428,861	-152,176	-0,042	0,002
-427,846	95,917	0,064	0,054
-426,832	800,000	0,034	-0,089
-425,817	372,882	0,080	-0,119
-424,803	454,379	-0,027	0,044
-423,788	800,000	-0,065	-0,179
-422,773	-110,694	0,132	-0,020
-421,759	210,996	-0,057	0,066
-420,744	800,000	0,030	0,094
-419,730	-144,746	0,040	-0,003
-418,715	800,000	0,021	-0,068
-417,701	20,447	-0,138	0,081
-416,686	125,458	0,075	0,070
-415,671	800,000	0,026	-0,065
-414,657	8,652	0,078	0,043
-413,642	-144,945	-0,016	0,001
-412,628	-71,487	0,173	0,047
-411,613	106,142	0,013	-0,011
-410,598	-153,151	-0,099	0,005
-409,584	43,336	-0,058	0,039
-408,569	-51,135	0,073	0,025
-407,555	-38,649	0,016	-0,006
-406,540	643,610	0,095	-0,178
-405,525	-162,800	0,097	-0,003
-404,511	422,938	-0,080	0,127
-403,496	-200,000	-0,003	-0,045
-402,482	-167,081	0,131	-0,004
-401,467	800,000	-0,024	0,054
-400,452	-60,582	0,175	0,054
-399,438	-114,781	0,198	-0,027
-398,423	-15,241	-0,083	0,039
-397,409	800,000	-0,032	-0,098
-396,394	-200,000	-0,000	-0,019
-395,379	-41,718	-0,069	-0,026
-394,365	-38,196	0,122	0,047
-393,350	161,319	-0,052	0,053
-392,336	-200,000	-0,002	0,032
-391,321	-200,000	0,034	0,149
-390,306	41,390	-0,122	-0,080
-389,292	79,908	0,095	-0,075
-388,277	26,651	0,061	0,037
-387,263	-34,547	0,175	0,070
-386,248	14,651	0,140	0,080
-385,233	-200,000	0,010	0,045
-384,219	-200,000	-0,002	0,023
-383,204	-117,886	0,076	-0,010
-382,190	648,953	-0,026	-0,048
-381,175	800,000	-0,042	-0,130
-380,160	-28,633	0,117	0,049
-379,146	-200,000	0,008	0,136
-378,131	-49,460	0,137	-0,047
-377,117	-200,000	-0,010	0,066
-376,102	-200,000	-0,001	0,084
-375,088	-200,000	-0,032	0,104
-374,073	-152,174	0,138	-0,007
-373,058	78,853	-0,068	-0,053
-372,044	88,701	0,107	-0,087
-371,029	800,000	0,049	0,140
-370,015	14,220	0,054	-0,031
-369,000	-200,000	-0,007	-0,111
-367,985	-18,329	-0,067	-0,030
-366,971	-200,000	-0,014	0,073
-365,956	390,044	0,021	0,031
-364,942	253,644	-0,013	-0,016
-363,927	25,321	0,050	-0,030
-362,912	-84,828	-0,065	0,015
-361,898	-118,910	-0,081	-0,010
-360,883	800,000	-0,036	-0,112
-359,869	-200,000	0,013	0,047
-358,854	-3,271	0,058	-0,030
-357,839	800,000	0,056	0,130
-356,825	734,979	-0,060	-0,119
-355,810	225,697	-0,056	-0,066
-354,796	-68,453	0,080	-0,023
-353,781	73,227	-0,131	-0,100
-352,766	-11,605	-0,135	-0,065
-351,752	71,507	-0,061	-0,046
-350,737	-198,127	0,217	-0,001
-349,723	800,000	0,032	0,071
-348,708	-109,623	0,134	-0,020
-347,693	600,736	0,062	0,114
-346,679	800,000	0,029	0,084
-345,664	116,825	-0,104	0,094
-344,650	-11,975	0,112	-0,053
-343,635	65,228	-0,003	-0,002
-342,620	-1,291	0,037	0,019
-341,606	5,051	0,071	0,038
-340,591	563,348	-0,071	-0,125
-339,577	-10,559	-0,090	-0,043
-338,562	451,216	0,044	-0,071
-337,548	-200,000	-0,030	0,112
-336,533	360,403	-0,027	-0,039
-335,518	-200,000	0,015	0,049
-334,504	800,000	-0,011	-0,034
-333,489	152,817	0,062	0,062
-332,475	255,176	-0,034	-0,042
-331,460	308,531	0,020	-0,027
-330,445	-200,000	-0,004	-0,061
-329,431	-200,000	0,016	-0,064
-328,416	216,706	-0,035	-0,041
-327,402	-141,762	-0,129	0,009
-326,387	-200,000	0,010	0,097
-325,372	-108,212	-0,011	-0,002
-324,358	-103,649	0,071	0,012
-323,343	593,345	0,026	-0,048
-322,329	-94,356	0,141	0,028
-321,314	-139,128	-0,088	0,007
-320,299	336,332	0,060	0,085
-319,285	-200,000	-0,010	0,042
-318,270	-91,650	0,045	-0,009
-317,256	-100,999	-0,031	0,005
-316,241	-57,233	-0,061	-0,019
-315,226	-129,568	0,093	0,009
-314,212	-200,000	0,022	-0,073
-313,197	11,203	0,038	-0,021
-312,183	-135,330	-0,021	0,002
-311,168	61,272	-0,082	0,059
-310,153	-89,504	0,058	0,012
-309,139	-42,133	-0,189	0,070
-308,124	103,673	0,041	-0,035
-307,110	104,548	-0,112	-0,096
-306,095	145,731	-0,038	-0,037
-305,080	-200,000	-0,020	-0,071
-304,066	-200,000	0,007	-0,066
-303,051	-118,088	-0,116	-0,015
-302,037	66,632	0,052	-0,038
-301,022	54,977	0,096	-0,067
-300,008	-200,000	-0,012	0,112
-298,993	-81,651	0,244	0,058
-297,978	-200,000	0,006	-0,083
-296,964	-200,000	0,011	0,062
-295,949	-131,198	-0,113	-0,011
-294,935	-134,534	-0,097	-0,008
-293,920	-200,000	0,021	0,096
-292,905	-24,519	-0,124	-0,053
-291,891	800,000	0,037	0,080
-290,876	22,308	0,068	0,040
-289,862	2,485	0,122	0,064
-288,847	-50,541	-0,126	-0,043
-287,832	544,503	-0,027	-0,048
-286,818	482,281	0,076	-0,126
-285,803	87,005	0,129	0,104
-284,789	-200,000	-0,010	-0,049
-283,774	-165,300	0,180	-0,006
-282,759	741,482	0,033	0,066
-281,745	169,366	0,168	-0,175
-280,730	-200,000	-0,007	-0,078
-279,716	21,925	-0,042	-0,025
-278,701	800,000	0,027	0,065
-277,686	-35,589	0,124	-0,049
-276,672	-200,000	0,016	0,069
-275,657	27,396	-0,151	0,092
-274,643	7,750	-0,068	0,037
-273,628	47,324	-0,078	-0,053
-272,613	-78,170	-0,103	0,026
-271,599	400,016	0,041	0,063
-270,584	-38,792	0,087	0,033
-269,570	-34,552	-0,035	0,014
-268,555	169,660	-0,081	0,084
-267,540	800,000	-0,016	0,050
-266,526	800,000	0,029	-0,068
-265,511	-189,132	-0,136	0,001
-264,497	-65,439	0,149	0,043
-263,482	387,457	0,045	0,067
-262,467	665,805	0,124	0,235
-261,453	190,155	-0,053	0,058
-260,438	-200,000	0,004	-0,012
-259,424	132,558	-0,180	-0,169
-258,409	-200,000	-0,018	-0,066
-257,395	-200,000	0,011	-0,046
-256,380	-200,000	-0,007	0,071
-255,365	137,719	0,058	0,055
-254,351	179,610	0,024	0,026
-253,336	43,913	-0,016	0,010
-252,322	241,525	-0,079	-0,096
-251,307	-62,843	-0,032	0,010
-250,292	271,620	-0,024	-0,031
-249,278	330,212	0,106	-0,149
-248,263	-42,487	-0,091	0,034
-247,249	100,080	-0,032	-0,027
-246,234	5,214	0,039	-0,021
-245,219	-124,856	-0,075	0,008
-244,205	131,364	-0,077	0,072
-243,190	121,188	-0,086	0,078
-242,176	150,362	0,071	-0,070
-241,161	146,699	0,103	0,101
-240,146	59,682	-0,089	0,064
-239,132	-157,748	0,075	0,003
-238,117	215,931	-0,040	0,046
-237,103	-200,000	0,009	0,072
-236,088	266,327	0,057	-0,073
-235,073	488,174	0,005	0,008
-234,059	800,000	-0,026	-0,074
-233,044	-47,959	0,073	-0,026
-232,030	-200,000	0,000	-0,017
-231,015	800,000	-0,011	0,023
-230,000	42,667	-0,178	-0,117
-228,986	253,920	0,070	-0,088
-227,971	-89,322	0,024	0,005
-226,957	-200,000	0,022	0,082
-225,942	-200,000	-0,003	-0,040
-224,927	-11,574	-0,043	0,020
-223,913	13,653	-0,109	0,061
-222,898	-63,146	-0,050	-0,015
-221,884	-37,089	-0,078	-0,030
-220,869	632,162	0,024	-0,045
-219,855	800,000	-0,017	0,047
-218,840	135,569	0,008	0,008
-217,825	-200,000	-0,002	0,026
-216,811	42,160	0,012	0,008
-215,796	86,953	0,034	-0,027
-214,782	227,980	0,051	0,061
-213,767	19,041	0,076	-0,044
-212,752	74,614	0,067	0,051
-211,738	800,000	-0,059	-0,140
-210,723	334,946	0,006	-0,009
-209,709	467,416	-0,013	-0,021
-208,694	66,892	0,043	0,032
-207,679	-121,437	-0,169	0,020
-206,665	-109,476	-0,019	-0,003
-205,650	35,798	0,090	-0,057
-204,636	-31,448	0,087	-0,035
-203,621	375,519	0,030	0,045
-202,606	543,542	-0,046	-0,080
-201,592	44,789	0,107	-0,071
-200,577	800,000	-0,040	-0,089
-199,563	-96,404	0,095	-0,018
-198,548	800,000	0,056	0,112
-197,533	133,058	-0,059	0,056
-196,519	800,000	0,057	0,154
-195,504	276,999	0,081	0,105
-194,490	800,000	-0,005	0,014
-193,475	-105,718	0,097	-0,016
-192,460	212,261	-0,058	-0,066
-191,446	782,268	0,050	0,101
-190,431	-200,000	-0,001	-0,043
-189,417	202,483	0,093	-0,104
-188,402	243,549	-0,035	-0,043
-187,387	271,122	-0,037	-0,048
-186,373	-152,553	-0,109	-0,006
-185,358	-5,247	0,081	-0,040
-184,344	800,000	-0,051	0,151
-183,329	-200,000	-0,011	0,071
-182,315	-200,000	-0,012	0,081
-181,300	-200,000	-0,024	0,179
-180,285	-200,000	0,033	-0,153
-179,271	-63,914	-0,184	-0,054
-178,256	-200,000	0,006	-0,079
-177,242	-200,000	-0,002	-0,073
-176,227	257,480	-0,059	0,074
-175,212	270,480	0,019	0,024
-174,198	484,234	-0,081	0,134
-173,183	394,946	0,021	0,032
-172,169	158,628	-0,075	0,076
-171,154	-200,000	0,005	-0,042
-170,139	800,000	0,032	-0,077
-169,125	-200,000	0,006	0,029
-168,110	-161,934	0,052	-0,002
-167,096	-200,000	-0,003	0,043
-166,081	415,460	-0,057	-0,088
-165,066	117,516	-0,072	-0,064
-164,052	461,343	-0,010	-0,016
-163,037	-200,000	-0,001	-0,032
-162,023	289,808	-0,127	0,167
-161,008	115,095	0,031	-0,027
-159,993	-200,000	-0,001	-0,122
-158,979	258,542	-0,061	0,076
-157,964	-30,366	-0,071	-0,029
-156,950	645,287	0,028	-0,053
-155,935	-93,632	0,090	0,018
-154,920	-200,000	-0,019	0,147
-153,906	-200,000	0,038	0,129
-152,891	78,052	-0,081	0,062
-151,877	87,081	-0,055	-0,044
-150,862	800,000	0,078	-0,172
-149,847	-112,178	-0,099	0,014
-148,833	-39,600	0,203	-0,077
-147,818	174,120	0,096	-0,100
-146,804	-3,986	0,035	0,018
-145,789	56,077	-0,109	-0,076
-144,775	84,219	-0,103	0,081
-143,760	800,000	-0,040	-0,114
-142,745	-200,000	-0,033	-0,128
-141,731	800,000	0,013	0,038
-140,716	800,000	0,053	0,107
-139,702	87,554	-0,019	0,015
-138,687	184,606	0,104	-0,112
-137,672	-140,545	-0,117	-0,009
-136,658	-200,000	-0,004	-0,204
-135,643	800,000	0,063	-0,156
-134,629	-87,223	0,154	-0,034
-133,614	386,981	0,045	0,068
-132,599	-133,019	-0,129	-0,012
-131,585	107,268	0,079	0,068
-130,570	-200,000	0,000	0,098
-129,556	800,000	0,061	-0,134
-128,541	124,378	-0,086	0,078
-127,526	370,314	0,035	-0,052
-126,512	276,537	-0,106	-0,137
-125,497	141,056	0,052	-0,050
-124,483	367,588	0,038	0,055
-123,468	96,812	-0,079	0,066
-122,453	669,908	-0,058	-0,110
-121,439	-200,000	0,035	-0,129
-120,424	123,599	0,074	-0,067
