DTS Sentinel unit serial number:	SN410029Multiplexer serial number:	ORYXHardware model number:	OX2-SRSoftware version number:	ORYX F/W v4,00 Oryx Data Collector v3.7.2.0data status	okinstallation	B6 Nyhavnadifferential loss correction	single-endedforward channel	channel 2reverse channel	N/Adate	2023/12/07time	17:45:08forward acquisition time	300,00reverse acquisition time	0,00gamma	499,1914k internal	0,3164k external	0,3164temperature offset calibration	1,0000default loss term (dB/km)	0,3820temperature slope calibration	1,0000multiplexer offset coefficient	1,0000multiplexer slope coefficient	1,0000fibre end	0,00T internal ref (°C)	14,40T ext. ref 1 (°C)	-2,56T ext. ref 2 (°C)	-2,56length (m)	temperature (°C)	Stokes	anti-Stokes-744,400	-58,542	0,154	-0,049
-743,385	-55,775	-0,257	0,084
-742,371	-33,775	0,106	0,043
-741,356	-11,505	-0,230	0,111
-740,342	299,905	0,052	0,071
-739,327	-151,576	-0,227	0,012
-738,312	16,257	0,082	0,047
-737,298	-117,236	-0,302	-0,040
-736,283	-53,982	0,201	0,067
-735,269	-148,002	-0,095	-0,006
-734,254	-94,227	0,154	0,031
-733,239	-55,951	-0,556	-0,181
-732,225	-128,016	0,165	-0,017
-731,210	-78,603	0,024	-0,006
-730,196	-7,306	0,079	0,039
-729,181	3,530	-0,046	-0,025
-728,167	-141,318	0,037	-0,003
-727,152	170,560	0,046	0,049
-726,137	-4,600	-0,214	-0,108
-725,123	6,179	0,099	-0,054
-724,108	-62,774	-0,092	-0,028
-723,094	-166,879	-0,158	0,005
-722,079	-183,802	-0,061	-0,001
-721,064	-139,324	-0,036	0,003
-720,050	-153,826	-0,040	0,002
-719,035	-200,000	-0,023	-0,099
-718,021	609,537	-0,058	-0,107
-717,006	289,463	-0,121	-0,162
-715,991	-23,381	-0,124	-0,055
-714,977	-105,654	-0,084	-0,014
-713,962	-200,000	-0,001	-0,055
-712,948	-200,000	0,008	-0,085
-711,933	800,000	-0,065	-0,142
-710,918	175,299	-0,037	-0,040
-709,904	-121,138	-0,064	0,008
-708,889	-67,325	-0,147	-0,042
-707,875	34,462	-0,140	0,090
-706,860	105,418	0,062	-0,054
-705,845	168,678	0,049	0,052
-704,831	-81,119	-0,059	0,014
-703,816	225,810	-0,020	0,024
-702,802	163,800	0,064	-0,066
-701,787	33,840	0,052	-0,033
-700,772	158,469	-0,132	-0,134
-699,758	-150,546	-0,066	-0,004
-698,743	586,235	0,110	0,199
-697,729	800,000	0,033	-0,086
-696,714	-200,000	0,006	0,040
-695,699	165,645	-0,095	-0,099
-694,685	-200,000	-0,004	-0,050
-693,670	-64,255	-0,065	-0,019
-692,656	-32,873	0,079	-0,032
-691,641	800,000	-0,031	0,091
-690,627	465,822	-0,070	0,115
-689,612	-42,255	-0,057	0,021
-688,597	20,390	0,048	0,028
-687,583	734,164	0,054	-0,106
-686,568	-133,971	-0,114	-0,010
-685,554	-132,864	-0,247	-0,023
-684,539	-9,108	0,074	0,036
-683,524	-200,000	0,004	0,027
-682,510	17,128	-0,043	0,025
-681,495	86,756	0,042	-0,034
-680,481	800,000	0,007	-0,018
-679,466	-23,602	0,077	0,034
-678,451	189,708	-0,077	0,084
-677,437	-200,000	0,040	-0,141
-676,422	18,616	0,043	0,025
-675,408	371,716	-0,064	-0,095
-674,393	169,124	-0,019	0,020
-673,378	-200,000	0,024	-0,168
-672,364	450,630	-0,054	-0,087
-671,349	-200,000	-0,016	-0,090
-670,335	-70,063	0,002	0,001
-669,320	-200,000	0,021	-0,112
-668,305	466,040	0,042	0,069
-667,291	116,966	0,092	-0,083
-666,276	723,913	0,087	-0,172
-665,262	183,668	0,014	-0,015
-664,247	-117,350	0,202	0,027
-663,232	110,548	-0,081	-0,072
-662,218	800,000	0,011	-0,027
-661,203	168,907	-0,040	0,041
-660,189	44,028	0,093	0,063
-659,174	-200,000	0,003	0,041
-658,159	-83,799	-0,117	0,027
-657,145	10,278	0,077	-0,043
-656,130	170,850	-0,033	-0,035
-655,116	66,527	0,165	0,123
-654,101	-200,000	-0,005	0,090
-653,086	-17,633	-0,101	-0,047
-652,072	800,000	-0,035	-0,096
-651,057	-200,000	0,017	-0,106
-650,043	-68,395	-0,134	-0,038
-649,028	-10,854	0,021	0,010
-648,014	800,000	0,048	0,119
-646,999	48,358	0,049	0,033
-645,984	-41,265	0,152	-0,057
-644,970	-125,753	-0,144	-0,016
-643,955	-46,961	-0,087	-0,031
-642,941	800,000	-0,031	-0,073
-641,926	2,072	0,112	-0,059
-640,911	112,610	-0,099	0,088
-639,897	-200,000	-0,007	0,089
-638,882	27,555	0,111	-0,068
-637,868	547,605	-0,032	0,056
-636,853	50,916	-0,130	0,090
-635,838	595,297	0,045	0,081
-634,824	-200,000	0,018	-0,122
-633,809	800,000	-0,078	0,179
-632,795	395,505	-0,049	-0,075
-631,780	44,920	-0,034	-0,023
-630,765	48,033	-0,078	-0,053
-629,751	-106,085	0,055	0,009
-628,736	-200,000	-0,020	0,075
-627,722	-111,313	-0,042	-0,006
-626,707	-200,000	0,005	0,071
-625,692	131,589	0,072	0,068
-624,678	196,007	-0,167	0,186
-623,663	259,068	-0,022	0,028
-622,649	-200,000	-0,005	-0,036
-621,634	61,781	-0,106	-0,077
-620,619	43,737	-0,129	-0,086
-619,605	33,253	0,052	-0,033
-618,590	129,058	0,068	0,063
-617,576	-200,000	0,020	-0,074
-616,561	498,495	-0,027	0,046
-615,546	-137,154	0,048	0,004
-614,532	-20,301	-0,058	0,026
-613,517	-200,000	0,005	0,030
-612,503	800,000	0,037	-0,112
-611,488	695,825	0,015	-0,029
-610,474	-55,307	0,071	0,023
-609,459	-200,000	-0,005	-0,078
-608,444	-200,000	-0,002	0,091
-607,430	-200,000	-0,008	0,029
-606,415	800,000	0,044	-0,093
-605,401	-153,968	-0,083	-0,004
-604,386	-25,109	0,137	0,059
-603,371	800,000	0,031	0,098
-602,357	-200,000	-0,023	-0,098
-601,342	-56,448	-0,088	0,029
-600,328	25,287	-0,013	0,008
-599,313	-200,000	-0,021	0,090
-598,298	89,789	-0,099	-0,081
-597,284	-75,233	0,071	-0,018
-596,269	800,000	0,048	-0,116
-595,255	-200,000	0,022	0,134
-594,240	800,000	0,046	-0,101
-593,225	-200,000	0,007	-0,025
-592,211	-5,127	0,023	-0,012
-591,196	10,629	0,067	-0,038
-590,182	-200,000	0,005	-0,018
-589,167	501,224	0,012	0,020
-588,152	-130,873	0,082	0,008
-587,138	139,228	-0,053	0,051
-586,123	800,000	-0,077	-0,163
-585,109	95,947	0,036	-0,030
-584,094	172,926	-0,133	0,140
-583,079	498,665	-0,042	0,072
-582,065	119,524	-0,066	-0,060
-581,050	110,891	0,015	-0,013
-580,036	-200,000	-0,003	-0,028
-579,021	287,139	-0,079	0,104
-578,006	253,526	-0,051	-0,064
-576,992	800,000	-0,074	0,174
-575,977	-200,000	-0,006	0,067
-574,963	-168,973	0,079	-0,002
-573,948	80,925	-0,109	0,086
-572,934	-200,000	0,019	0,082
-571,919	34,716	0,113	-0,072
-570,904	-97,251	-0,063	-0,012
-569,890	800,000	-0,030	-0,091
-568,875	30,481	-0,032	0,020
-567,861	-17,544	-0,030	0,014
-566,846	-87,663	-0,057	-0,012
-565,831	-200,000	-0,001	0,067
-564,817	800,000	-0,038	-0,114
-563,802	-200,000	-0,014	0,077
-562,788	800,000	-0,034	-0,088
-561,773	-169,774	0,109	0,003
-560,758	-200,000	-0,010	-0,083
-559,744	128,065	0,075	-0,070
-558,729	75,717	-0,064	-0,049
-557,715	500,937	-0,016	-0,027
-556,700	759,024	-0,095	-0,188
-555,685	83,397	0,055	0,044
-554,671	-66,696	0,017	0,005
-553,656	-119,652	0,061	-0,008
-552,642	-24,844	-0,053	0,023
-551,627	-19,843	-0,016	0,007
-550,612	3,132	0,056	0,030
-549,598	800,000	-0,017	-0,047
-548,583	300,074	0,041	-0,055
-547,569	-200,000	-0,020	-0,093
-546,554	-76,686	0,084	-0,021
-545,539	-82,651	-0,086	-0,020
-544,525	-200,000	-0,014	-0,102
-543,510	81,101	-0,134	-0,105
-542,496	6,521	0,103	-0,056
-541,481	-177,679	0,051	0,001
-540,466	-137,476	-0,042	0,003
-539,452	312,719	-0,060	0,082
-538,437	62,714	0,131	-0,096
-537,423	-157,198	0,052	0,002
-536,408	333,934	-0,103	-0,146
-535,393	-200,000	-0,032	-0,107
-534,379	-200,000	0,003	0,073
-533,364	-48,355	0,135	-0,047
-532,350	368,350	0,006	-0,008
-531,335	62,218	-0,087	0,063
-530,321	-23,416	0,071	0,031
-529,306	-200,000	-0,006	-0,048
-528,291	800,000	-0,056	-0,166
-527,277	-30,823	0,120	-0,049
-526,262	369,625	-0,083	0,123
-525,248	88,451	0,037	-0,030
-524,233	-110,508	-0,134	-0,020
-523,218	508,079	-0,057	0,097
-522,204	130,568	-0,048	0,045
-521,189	-42,325	-0,083	0,031
-520,175	-0,980	-0,047	-0,024
-519,160	-52,441	-0,007	0,002
-518,145	577,863	0,039	0,070
-517,131	-52,801	-0,099	0,033
-516,116	-130,718	-0,029	0,003
-515,102	124,999	-0,144	-0,132
-514,087	28,453	-0,047	0,029
-513,072	-200,000	0,031	-0,146
-512,058	589,556	-0,065	-0,118
-511,043	-55,097	-0,023	0,008
-510,029	-45,220	0,076	-0,027
-509,014	502,156	-0,031	0,052
-507,999	-200,000	0,002	0,018
-506,985	-200,000	-0,013	0,055
-505,970	-154,523	-0,110	-0,005
-504,956	-4,060	0,093	0,047
-503,941	146,454	0,068	0,066
-502,926	-200,000	-0,013	-0,073
-501,912	-137,440	0,026	-0,002
-500,897	218,828	-0,065	-0,076
-499,883	-200,000	-0,177	-0,000
-498,868	-75,504	-0,082	-0,021
-497,853	-86,591	0,111	-0,025
-496,839	-35,394	-0,113	0,044
-495,824	-145,275	0,141	-0,009
-494,810	-200,000	0,009	0,140
-493,795	-200,000	0,004	-0,014
-492,781	101,671	0,140	-0,119
-491,766	-38,582	-0,075	-0,029
-490,751	-200,000	-0,017	0,072
-489,737	-168,224	-0,116	-0,003
-488,722	800,000	0,043	0,114
-487,708	-200,000	0,016	-0,077
-486,693	305,885	-0,047	0,064
-485,678	-200,000	0,049	0,176
-484,664	-60,791	0,099	-0,030
-483,649	-114,849	-0,201	0,028
-482,635	11,266	-0,043	0,024
-481,620	125,249	0,115	0,106
-480,605	-200,000	-0,014	0,076
-479,591	-19,065	0,171	0,077
-478,576	334,387	0,079	-0,111
-477,562	1,407	-0,063	-0,033
-476,547	-79,965	-0,160	0,039
-475,532	-200,000	-0,012	-0,058
-474,518	-104,119	0,038	-0,006
-473,503	-6,610	-0,048	0,024
-472,489	-200,000	-0,018	0,147
-471,474	116,968	-0,024	-0,021
-470,459	-50,192	-0,101	-0,034
-469,445	126,702	-0,110	-0,102
-468,430	57,337	-0,073	0,052
-467,416	140,643	-0,060	-0,058
-466,401	157,210	0,071	0,071
-465,386	81,661	0,095	0,075
-464,372	800,000	-0,054	0,142
-463,357	94,273	-0,078	-0,065
-462,343	-200,000	0,020	0,073
-461,328	-79,696	-0,174	0,042
-460,313	-46,367	0,107	0,038
-459,299	65,059	-0,085	0,063
-458,284	393,239	0,090	0,137
-457,270	55,404	-0,042	0,029
-456,255	-48,205	0,089	0,031
-455,241	73,139	-0,118	0,090
-454,226	73,070	0,061	0,046
-453,211	800,000	0,047	-0,104
-452,197	-200,000	-0,012	-0,074
-451,182	167,044	-0,027	0,028
-450,168	-200,000	-0,012	0,104
-449,153	-200,000	-0,015	-0,064
-448,138	-76,194	-0,078	0,020
-447,124	-200,000	-0,003	-0,089
-446,109	146,068	0,059	0,058
-445,095	-200,000	-0,001	-0,137
-444,080	-151,959	0,070	-0,004
-443,065	-200,000	0,011	0,115
-442,051	800,000	-0,054	0,122
-441,036	-200,000	0,007	-0,052
-440,022	515,078	0,002	-0,003
-439,007	-63,679	0,133	-0,039
-437,992	800,000	-0,042	0,131
-436,978	-200,000	0,020	0,121
-435,963	-1,184	-0,080	-0,041
-434,949	-200,000	-0,013	-0,109
-433,934	-200,000	-0,002	-0,034
-432,919	168,302	-0,029	-0,031
-431,905	-36,711	-0,052	0,020
-430,890	-56,930	0,053	0,017
-429,876	59,008	0,131	0,094
-428,861	-43,042	0,126	0,046
-427,846	-24,618	-0,111	-0,048
-426,832	-39,839	-0,055	-0,021
-425,817	92,301	-0,055	-0,045
-424,803	-95,948	0,152	-0,029
-423,788	39,854	-0,045	0,029
-422,773	-86,048	0,072	0,016
-421,759	-25,708	-0,057	0,024
-420,744	28,819	-0,027	0,017
-419,730	800,000	-0,045	0,140
-418,715	-200,000	-0,023	0,115
-417,701	80,779	-0,035	-0,028
-416,686	-200,000	0,013	0,086
-415,671	11,143	-0,028	-0,015
-414,657	-200,000	0,020	0,201
-413,642	-200,000	0,007	-0,044
-412,628	-57,383	0,032	0,010
-411,613	-200,000	-0,001	-0,035
-410,598	176,494	0,119	-0,126
-409,584	-34,265	-0,055	-0,022
-408,569	-200,000	-0,010	0,161
-407,555	287,982	-0,075	0,098
-406,540	-200,000	-0,004	0,046
-405,525	784,749	-0,065	-0,131
-404,511	-200,000	0,011	-0,059
-403,496	-200,000	-0,033	-0,122
-402,482	190,419	0,060	-0,066
-401,467	18,002	0,086	0,050
-400,452	-140,118	-0,062	0,005
-399,438	800,000	-0,043	-0,121
-398,423	800,000	-0,082	-0,170
-397,409	248,819	-0,038	-0,047
-396,394	800,000	0,054	-0,165
-395,379	-38,209	-0,018	-0,007
-394,365	-200,000	0,013	-0,084
-393,350	-200,000	0,023	-0,094
-392,336	-200,000	0,010	-0,087
-391,321	188,960	-0,093	-0,101
-390,306	-200,000	-0,016	0,091
-389,292	237,427	-0,085	0,103
-388,277	-87,331	0,087	0,019
-387,263	334,065	-0,038	0,053
-386,248	615,922	0,066	0,121
-385,233	91,163	0,095	0,077
-384,219	322,366	-0,072	-0,100
-383,204	-135,115	0,143	0,012
-382,190	-200,000	-0,018	0,088
-381,175	-200,000	-0,011	-0,039
-380,160	-200,000	-0,012	0,171
-379,146	-16,379	0,073	0,033
-378,131	-133,045	0,079	0,007
-377,117	547,028	-0,046	0,081
-376,102	6,414	0,078	0,042
-375,088	800,000	-0,015	0,048
-374,073	-5,600	-0,028	0,014
-373,058	-69,817	0,082	-0,022
-372,044	-200,000	-0,034	0,110
-371,029	-127,574	0,164	-0,017
-370,015	34,020	-0,103	-0,065
-369,000	231,433	-0,095	-0,113
-367,985	3,991	0,124	0,065
-366,971	-200,000	-0,003	0,030
-365,956	302,308	0,033	-0,045
-364,942	-2,192	-0,070	0,035
-363,927	57,456	0,093	0,066
-362,912	-200,000	0,000	0,167
-361,898	-37,093	-0,060	0,023
-360,883	-200,000	-0,016	-0,094
-359,869	397,383	-0,079	-0,121
-358,854	567,437	0,071	0,126
-357,839	12,106	0,109	-0,061
-356,825	268,725	0,056	-0,071
-355,810	-97,901	-0,079	0,015
-354,796	-19,039	0,018	-0,008
-353,781	64,807	0,088	-0,065
-352,766	292,997	0,055	-0,073
-351,752	-25,926	-0,079	0,034
-350,737	460,236	0,048	-0,078
-349,723	800,000	-0,037	0,094
-348,708	-32,213	0,097	-0,039
-347,693	32,779	0,144	0,090
-346,679	800,000	0,008	-0,026
-345,664	-200,000	0,001	-0,095
-344,650	76,818	-0,080	0,061
-343,635	-113,125	0,124	-0,017
-342,620	135,962	0,077	0,073
-341,606	-127,211	0,175	0,018
-340,591	800,000	0,021	0,065
-339,577	-200,000	-0,021	-0,073
-338,562	-200,000	0,026	-0,167
-337,548	-152,476	0,060	0,003
-336,533	-200,000	0,008	0,091
-335,518	195,662	0,075	0,083
-334,504	-9,477	0,084	0,041
-333,489	-83,318	0,017	-0,004
-332,475	356,095	-0,038	0,054
-331,460	800,000	-0,011	0,032
-330,445	95,802	0,070	-0,058
-329,431	75,069	0,103	0,078
-328,416	800,000	-0,061	0,150
-327,402	-200,000	-0,043	0,148
-326,387	-186,037	-0,082	-0,001
-325,372	315,003	-0,053	-0,072
-324,358	-88,171	-0,075	-0,016
-323,343	-200,000	0,012	0,074
-322,329	29,339	0,064	0,039
-321,314	313,660	0,159	0,218
-320,299	-92,992	0,095	-0,019
-319,285	1,785	-0,066	-0,034
-318,270	-200,000	-0,028	-0,099
-317,256	800,000	0,009	-0,021
-316,241	800,000	-0,032	0,080
-315,226	-200,000	0,028	-0,131
-314,212	800,000	-0,017	0,054
-313,197	103,783	-0,069	0,058
-312,183	64,971	-0,087	0,064
-311,168	-200,000	-0,042	-0,156
-310,153	-65,854	0,040	0,011
-309,139	-85,113	-0,008	-0,002
-308,124	76,936	0,072	0,056
-307,110	800,000	0,036	0,084
-306,095	164,002	0,028	0,028
-305,080	-62,057	0,061	0,018
-304,066	-200,000	0,004	-0,084
-303,051	29,494	-0,115	-0,071
-302,037	-73,155	0,116	-0,030
-301,022	60,763	-0,056	-0,040
-300,008	203,346	0,063	-0,070
-298,993	221,559	-0,035	0,041
-297,978	-200,000	-0,002	0,069
-296,964	800,000	-0,040	0,084
-295,949	800,000	-0,032	0,088
-294,935	-200,000	-0,005	0,048
-293,920	-19,830	0,038	-0,017
-292,905	-200,000	0,006	-0,107
-291,891	116,864	0,065	0,058
-290,876	-200,000	-0,008	0,087
-289,862	20,424	-0,106	-0,062
-288,847	800,000	-0,029	0,083
-287,832	-79,754	-0,126	0,030
-286,818	-116,826	-0,067	0,009
-285,803	800,000	0,008	0,022
-284,789	146,390	0,139	-0,135
-283,774	340,153	0,046	-0,064
-282,759	800,000	0,024	-0,075
-281,745	-133,538	-0,126	-0,011
-280,730	35,921	-0,162	-0,103
-279,716	-57,221	0,172	-0,055
-278,701	283,150	-0,067	-0,088
-277,686	476,218	0,035	0,058
-276,672	-151,717	-0,137	0,007
-275,657	-200,000	0,015	0,054
-274,643	-200,000	-0,001	-0,074
-273,628	-168,722	0,024	-0,001
-272,613	800,000	0,044	0,102
-271,599	800,000	0,027	0,054
-270,584	-200,000	0,005	-0,027
-269,570	628,534	0,040	0,073
-268,555	504,538	0,049	0,083
-267,540	-13,239	-0,028	-0,013
-266,526	-200,000	0,001	0,110
-265,511	-200,000	0,026	0,090
-264,497	54,271	0,091	0,063
-263,482	-17,930	0,120	-0,054
-262,467	466,008	0,028	-0,045
-261,453	52,736	0,086	-0,059
-260,438	-18,447	0,066	-0,029
-259,424	-54,100	-0,090	-0,029
-258,409	227,589	0,075	0,089
-257,395	295,442	0,065	0,087
-256,380	388,979	-0,078	-0,117
-255,365	-0,364	-0,059	0,030
-254,351	637,093	-0,023	-0,042
-253,336	-200,000	-0,033	-0,139
-252,322	-200,000	0,032	-0,132
-251,307	29,196	-0,066	-0,040
-250,292	25,291	0,104	-0,062
-249,278	-80,396	0,205	-0,049
-248,263	14,501	0,072	0,040
-247,249	-62,907	0,039	0,012
-246,234	-200,000	-0,008	0,047
-245,219	-200,000	-0,011	-0,079
-244,205	75,116	-0,055	-0,042
-243,190	-54,010	-0,086	-0,028
-242,176	496,738	0,030	-0,050
-241,161	90,359	0,063	0,051
-240,146	-67,093	0,132	0,037
-239,132	167,398	0,095	-0,098
-238,117	-200,000	-0,000	-0,005
-237,103	-200,000	-0,019	-0,139
-236,088	-74,599	-0,099	0,025
-235,073	800,000	0,021	0,048
-234,059	298,910	0,079	-0,106
-233,044	-200,000	0,008	0,132
-232,030	479,976	0,029	-0,048
-231,015	-101,188	-0,158	0,028
-230,000	83,961	0,079	0,063
-228,986	-200,000	-0,026	-0,106
-227,971	313,536	-0,054	-0,073
-226,957	-29,166	0,143	0,059
-225,942	-92,695	-0,060	0,012
-224,927	76,384	0,043	-0,033
-223,913	233,720	-0,055	0,065
-222,898	-133,272	-0,141	0,013
-221,884	800,000	0,025	-0,061
-220,869	800,000	0,002	-0,005
-219,855	800,000	0,068	-0,145
-218,840	-200,000	-0,003	0,075
-217,825	15,544	0,070	0,040
-216,811	800,000	-0,055	-0,134
-215,796	110,237	-0,025	-0,022
-214,782	525,921	-0,106	-0,181
-213,767	712,277	0,043	0,083
-212,752	800,000	0,055	0,138
-211,738	800,000	-0,025	-0,067
-210,723	667,069	0,035	-0,065
-209,709	-61,881	-0,043	-0,013
-208,694	-57,713	-0,132	0,041
-207,679	-51,423	-0,165	0,055
-206,665	-49,902	0,114	0,039
-205,650	426,954	-0,025	0,038
-204,636	30,255	0,083	-0,051
-203,621	7,700	-0,093	-0,050
-202,606	-24,392	0,042	0,018
-201,592	-71,218	0,034	-0,009
-200,577	800,000	0,046	-0,097
-199,563	343,804	-0,058	-0,082
-198,548	-136,887	0,040	0,003
-197,533	-200,000	0,006	-0,038
-196,519	800,000	0,010	0,028
-195,504	87,054	-0,112	-0,089
-194,490	800,000	-0,067	-0,192
-193,475	-12,874	0,034	-0,016
-192,460	-200,000	-0,031	-0,119
-191,446	-12,309	-0,046	-0,022
-190,431	181,808	0,076	0,080
-189,417	114,299	-0,124	0,109
-188,402	800,000	-0,018	0,038
-187,387	2,312	-0,089	-0,046
-186,373	39,794	-0,061	-0,040
-185,358	-200,000	-0,024	0,132
-184,344	-48,189	0,043	-0,015
-183,329	-200,000	0,023	0,095
-182,315	-200,000	-0,014	-0,096
-181,300	800,000	-0,010	-0,025
-180,285	288,717	-0,069	-0,090
-179,271	-79,631	0,090	-0,022
-178,256	-141,822	0,105	0,007
-177,242	395,869	0,017	0,026
-176,227	-66,927	0,144	-0,041
-175,212	-50,193	0,101	-0,034
-174,198	-112,132	0,130	-0,019
-173,183	-56,527	0,151	-0,048
-172,169	-37,854	0,141	0,054
-171,154	150,354	0,119	0,117
-170,139	-45,779	0,153	0,054
-169,125	-61,454	-0,171	0,051
-168,110	800,000	0,022	0,052
-167,096	-59,345	0,130	-0,040
-166,081	79,468	-0,074	-0,057
-165,066	71,393	-0,078	-0,058
-164,052	288,801	-0,066	-0,086
-163,037	232,393	0,047	0,055
-162,023	800,000	-0,033	0,072
-161,008	115,735	0,029	0,026
-159,993	-200,000	0,027	0,174
-158,979	-200,000	-0,001	-0,026
-157,964	-60,422	-0,054	-0,016
-156,950	92,691	-0,074	-0,060
-155,935	418,448	-0,029	-0,045
-154,920	-10,803	-0,086	0,041
-153,906	351,916	0,012	-0,017
-152,891	-200,000	-0,049	-0,185
-151,877	-200,000	0,019	-0,171
-150,862	-177,131	-0,090	-0,002
-149,847	-69,499	0,087	0,024
-148,833	94,512	-0,091	-0,075
-147,818	-200,000	0,008	-0,069
-146,804	-200,000	0,007	-0,135
-145,789	286,042	0,063	-0,082
-144,775	-200,000	0,021	0,148
-143,760	-200,000	0,003	-0,038
-142,745	800,000	0,030	-0,092
-141,731	-200,000	0,019	-0,118
-140,716	-15,498	0,051	0,023
-139,702	-200,000	-0,033	0,169
-138,687	44,817	-0,092	-0,061
-137,672	72,484	0,052	-0,039
-136,658	-102,472	0,030	-0,005
-135,643	362,993	-0,034	-0,049
-134,629	322,196	0,103	0,141
-133,614	-106,813	-0,029	0,005
-132,599	-77,554	-0,053	0,013
-131,585	800,000	-0,013	0,033
-130,570	-200,000	0,007	0,104
-129,556	-200,000	0,032	-0,194
-128,541	413,378	0,030	0,046
-127,526	-60,401	-0,077	0,023
-126,512	126,851	0,036	-0,032
-125,497	-69,706	0,083	-0,023
-124,483	-94,061	0,223	0,044
-123,468	86,039	0,011	-0,009
-122,453	-200,000	0,049	-0,178
-121,439	-30,330	-0,066	0,027
-120,424	-130,407	-0,018	0,002
-119,410	-79,581	0,173	0,042
