DTS Sentinel unit serial number:	SN410029Multiplexer serial number:	ORYXHardware model number:	OX2-SRSoftware version number:	ORYX F/W v4,00 Oryx Data Collector v3.7.2.0data status	okinstallation	B6 Nyhavnadifferential loss correction	single-endedforward channel	channel 2reverse channel	N/Adate	2023/12/08time	06:20:08forward acquisition time	300,00reverse acquisition time	0,00gamma	499,1914k internal	0,3165k external	0,3165temperature offset calibration	1,0000default loss term (dB/km)	0,3820temperature slope calibration	1,0000multiplexer offset coefficient	1,0000multiplexer slope coefficient	1,0000fibre end	0,00T internal ref (°C)	13,00T ext. ref 1 (°C)	-3,78T ext. ref 2 (°C)	-3,80length (m)	temperature (°C)	Stokes	anti-Stokes-744,400	-119,254	0,047	0,006
-743,385	-110,285	-0,299	0,045
-742,371	-200,000	0,043	0,172
-741,356	-73,015	-0,277	-0,074
-740,342	458,778	0,117	0,191
-739,327	-20,097	-0,324	-0,146
-738,312	-94,926	0,140	0,028
-737,298	-39,566	-0,324	-0,124
-736,283	-24,425	0,209	0,091
-735,269	-106,705	-0,337	0,055
-734,254	48,534	0,106	0,073
-733,239	-24,493	-0,465	-0,203
-732,225	45,579	0,065	0,044
-731,210	-200,000	-0,027	0,117
-730,196	34,063	0,037	-0,024
-729,181	-26,889	-0,121	-0,052
-728,167	-200,000	0,004	-0,091
-727,152	79,347	0,030	0,023
-726,137	266,798	-0,124	-0,160
-725,123	800,000	-0,049	-0,114
-724,108	64,120	-0,162	-0,120
-723,094	-19,323	-0,158	-0,072
-722,079	-94,142	-0,120	0,024
-721,064	241,827	0,063	0,077
-720,050	-200,000	0,008	0,065
-719,035	-71,612	0,065	-0,018
-718,021	83,905	-0,082	-0,065
-717,006	-200,000	-0,008	-0,186
-715,991	800,000	-0,049	-0,110
-714,977	100,910	0,107	0,091
-713,962	11,334	-0,077	-0,043
-712,948	-60,833	0,098	-0,030
-711,933	8,692	-0,039	0,022
-710,918	82,615	-0,030	-0,024
-709,904	105,635	-0,085	-0,074
-708,889	124,470	-0,055	0,051
-707,875	144,160	-0,066	-0,064
-706,860	68,815	-0,096	-0,072
-705,845	53,547	0,034	-0,024
-704,831	-200,000	-0,020	0,090
-703,816	-200,000	-0,026	-0,182
-702,802	182,615	-0,089	0,096
-701,787	-38,826	-0,136	-0,052
-700,772	800,000	0,066	-0,154
-699,758	-119,770	-0,037	0,005
-698,743	-200,000	-0,014	0,048
-697,729	-200,000	0,007	0,046
-696,714	-77,927	0,032	-0,008
-695,699	289,400	-0,071	0,095
-694,685	-98,549	0,020	-0,004
-693,670	-200,000	-0,033	0,110
-692,656	-200,000	0,000	-0,010
-691,641	292,583	0,011	-0,015
-690,627	-11,132	0,086	-0,042
-689,612	800,000	-0,066	0,160
-688,597	-71,830	0,057	-0,016
-687,583	144,645	0,013	-0,013
-686,568	-134,743	-0,060	-0,005
-685,554	-6,792	0,038	-0,019
-684,539	467,838	0,033	-0,054
-683,524	210,593	-0,071	-0,082
-682,510	-0,139	-0,160	-0,083
-681,495	-106,319	-0,117	-0,019
-680,481	54,610	-0,152	-0,108
-679,466	800,000	-0,012	-0,030
-678,451	640,471	0,019	0,036
-677,437	-200,000	-0,000	-0,023
-676,422	-200,000	-0,012	-0,042
-675,408	155,078	0,065	-0,065
-674,393	-149,022	-0,099	0,006
-673,378	190,863	-0,077	0,085
-672,364	-165,050	-0,054	0,002
-671,349	215,171	-0,041	-0,047
-670,335	76,766	0,083	-0,064
-669,320	42,947	-0,030	-0,020
-668,305	54,306	-0,054	0,038
-667,291	106,100	0,053	-0,046
-666,276	-52,633	0,061	-0,021
-665,262	108,837	-0,106	0,093
-664,247	-5,263	0,037	-0,018
-663,232	17,548	0,022	0,013
-662,218	800,000	0,025	0,057
-661,203	800,000	0,073	0,207
-660,189	-200,000	0,014	0,057
-659,174	-42,092	-0,097	-0,036
-658,159	-55,733	-0,074	-0,024
-657,145	-90,587	0,045	0,009
-656,130	800,000	0,036	-0,087
-655,116	-54,589	0,020	0,006
-654,101	-64,922	0,048	-0,014
-653,086	-200,000	0,019	-0,130
-652,072	70,498	-0,102	-0,077
-651,057	800,000	-0,055	-0,115
-650,043	582,959	0,055	-0,100
-649,028	126,094	-0,069	-0,064
-648,014	-139,807	0,075	-0,006
-646,999	800,000	-0,069	-0,177
-645,984	-4,444	0,086	-0,043
-644,970	-10,302	-0,094	-0,046
-643,955	-17,786	-0,155	-0,071
-642,941	495,262	-0,055	-0,093
-641,926	-103,501	0,058	-0,010
-640,911	-77,508	-0,117	-0,030
-639,897	-171,574	0,064	0,002
-638,882	26,268	-0,060	-0,037
-637,868	23,516	0,030	-0,018
-636,853	6,595	-0,036	-0,019
-635,838	-200,000	-0,006	-0,100
-634,824	800,000	0,027	-0,079
-633,809	-197,074	0,141	0,001
-632,795	533,808	0,095	0,165
-631,780	-156,330	-0,137	-0,006
-630,765	-200,000	-0,014	-0,099
-629,751	95,445	0,023	-0,019
-628,736	-200,000	0,026	-0,118
-627,722	-158,235	-0,085	0,004
-626,707	-200,000	-0,002	-0,053
-625,692	655,463	0,038	-0,071
-624,678	-4,895	0,042	-0,021
-623,663	62,102	-0,038	-0,028
-622,649	346,955	-0,019	-0,027
-621,634	60,257	-0,053	0,038
-620,619	415,392	0,045	0,070
-619,605	800,000	-0,058	0,133
-618,590	-45,503	0,106	-0,038
-617,576	-81,222	0,051	-0,012
-616,561	-39,632	-0,021	-0,008
-615,546	336,804	-0,079	0,112
-614,532	-108,945	-0,127	-0,020
-613,517	313,596	-0,041	-0,057
-612,503	-200,000	0,013	0,067
-611,488	-200,000	0,023	0,150
-610,474	800,000	0,014	0,031
-609,459	-118,911	-0,167	0,021
-608,444	371,562	-0,019	0,028
-607,430	-200,000	-0,007	-0,062
-606,415	800,000	0,012	0,040
-605,401	89,734	0,103	0,084
-604,386	1,803	0,199	0,104
-603,371	469,984	-0,037	-0,061
-602,357	57,960	0,043	-0,031
-601,342	-200,000	-0,005	0,025
-600,328	-31,692	0,075	-0,031
-599,313	-200,000	0,001	-0,131
-598,298	157,287	-0,037	0,037
-597,284	800,000	-0,023	-0,051
-596,269	800,000	0,058	0,170
-595,255	-200,000	0,000	-0,138
-594,240	31,737	0,035	-0,022
-593,225	-1,764	-0,135	-0,069
-592,211	-145,503	-0,113	0,007
-591,196	195,906	-0,014	0,015
-590,182	-56,617	0,176	0,057
-589,167	253,092	0,053	0,066
-588,152	800,000	-0,045	0,124
-587,138	-91,315	0,081	0,017
-586,123	423,005	-0,098	-0,154
-585,109	129,611	0,050	0,047
-584,094	111,558	-0,077	-0,068
-583,079	51,076	-0,077	-0,053
-582,065	-28,022	0,155	0,065
-581,050	-148,973	0,129	0,007
-580,036	-46,531	0,057	0,020
-579,021	-200,000	0,014	-0,100
-578,006	45,151	-0,048	-0,032
-576,992	-200,000	0,009	0,052
-575,977	-0,359	-0,054	-0,028
-574,963	-200,000	0,038	0,143
-573,948	-21,458	0,131	0,058
-572,934	124,946	-0,024	0,022
-571,919	614,099	-0,099	0,181
-570,904	324,460	0,019	0,027
-569,890	464,189	-0,024	-0,039
-568,875	256,310	-0,088	-0,110
-567,861	-200,000	0,041	0,140
-566,846	-157,406	-0,115	-0,005
-565,831	22,813	-0,145	-0,087
-564,817	-200,000	-0,010	-0,055
-563,802	77,519	-0,145	0,113
-562,788	775,203	0,035	-0,071
-561,773	-200,000	-0,013	-0,094
-560,758	800,000	-0,011	0,027
-559,744	-197,663	0,114	0,000
-558,729	-60,978	-0,088	0,027
-557,715	125,192	0,047	-0,043
-556,700	-200,000	0,007	0,143
-555,685	489,266	0,038	-0,063
-554,671	-128,618	-0,107	0,011
-553,656	800,000	-0,010	-0,022
-552,642	-200,000	0,009	0,043
-551,627	82,089	0,058	0,046
-550,612	91,694	-0,009	-0,007
-549,598	-5,222	0,049	-0,025
-548,583	-106,427	-0,118	0,019
-547,569	-200,000	0,017	0,073
-546,554	-200,000	-0,026	0,145
-545,539	-85,191	-0,051	0,012
-544,525	800,000	0,025	0,061
-543,510	31,181	-0,081	0,050
-542,496	123,399	0,022	0,020
-541,481	61,501	-0,024	-0,017
-540,466	221,149	-0,048	0,057
-539,452	682,694	0,068	0,130
-538,437	800,000	0,003	0,007
-537,423	28,684	0,045	0,028
-536,408	-69,453	-0,044	-0,012
-535,393	454,346	-0,062	-0,101
-534,379	60,289	-0,108	-0,078
-533,364	800,000	-0,042	0,097
-532,350	471,938	0,064	0,105
-531,335	-200,000	-0,011	-0,087
-530,321	76,055	0,090	-0,070
-529,306	184,298	0,066	0,072
-528,291	103,856	-0,154	0,132
-527,277	283,266	-0,047	0,061
-526,262	-100,266	-0,048	-0,009
-525,248	-14,447	-0,132	-0,062
-524,233	-200,000	-0,012	0,118
-523,218	365,445	-0,024	0,035
-522,204	-200,000	0,014	0,137
-521,189	-57,866	-0,226	-0,072
-520,175	-146,903	-0,070	0,004
-519,160	12,587	0,165	0,092
-518,145	566,502	0,059	-0,105
-517,131	-81,115	0,128	0,031
-516,116	800,000	-0,019	0,042
-515,102	-36,969	-0,041	-0,016
-514,087	84,746	0,049	-0,039
-513,072	-200,000	-0,021	-0,086
-512,058	-200,000	-0,011	0,052
-511,043	39,762	0,063	-0,041
-510,029	77,394	0,087	-0,067
-509,014	106,735	0,022	-0,019
-507,999	321,924	0,008	-0,011
-506,985	800,000	-0,012	0,035
-505,970	800,000	-0,060	-0,136
-504,956	27,774	-0,146	-0,090
-503,941	-86,302	0,097	0,021
-502,926	-200,000	0,017	0,140
-501,912	-81,805	-0,048	-0,011
-500,897	-10,464	0,075	0,036
-499,883	-171,837	-0,060	0,001
-498,868	91,567	-0,086	-0,070
-497,853	800,000	0,017	0,038
-496,839	198,870	-0,087	-0,097
-495,824	25,760	0,114	-0,069
-494,810	31,828	0,029	-0,018
-493,795	-200,000	0,003	-0,025
-492,781	60,917	0,070	-0,050
-491,766	-9,151	-0,028	0,013
-490,751	152,472	-0,086	-0,086
-489,737	100,361	-0,064	0,054
-488,722	-200,000	0,021	0,074
-487,708	-131,012	-0,064	-0,006
-486,693	-200,000	-0,008	-0,198
-485,678	43,411	-0,117	-0,077
-484,664	-200,000	0,015	-0,078
-483,649	800,000	0,014	-0,029
-482,635	-200,000	0,047	-0,213
-481,620	44,841	-0,035	-0,023
-480,605	-98,062	0,060	0,011
-479,591	787,852	-0,041	0,083
-478,576	800,000	-0,030	0,082
-477,562	-51,952	0,108	0,036
-476,547	-44,178	-0,093	0,034
-475,532	800,000	-0,031	-0,095
-474,518	800,000	0,045	0,093
-473,503	608,529	0,031	0,057
-472,489	-200,000	-0,016	-0,059
-471,474	-164,882	0,051	0,002
-470,459	-82,077	-0,064	0,015
-469,445	800,000	-0,057	-0,136
-468,430	800,000	-0,075	-0,160
-467,416	95,205	0,157	0,130
-466,401	-142,888	0,086	0,006
-465,386	532,884	0,034	0,058
-464,372	800,000	0,024	-0,054
-463,357	-200,000	-0,055	-0,215
-462,343	236,329	-0,148	0,178
-461,328	-200,000	-0,003	-0,022
-460,313	-200,000	0,035	0,148
-459,299	-200,000	0,035	0,136
-458,284	48,326	0,023	0,016
-457,270	-44,349	0,143	0,052
-456,255	23,109	-0,153	-0,091
-455,241	15,700	0,094	-0,054
-454,226	-34,846	0,088	-0,035
-453,211	-17,873	0,040	0,018
-452,197	120,599	0,082	-0,074
-451,182	-161,252	0,023	-0,001
-450,168	-200,000	0,008	0,108
-449,153	29,568	-0,088	-0,054
-448,138	436,623	-0,063	-0,099
-447,124	-200,000	-0,003	-0,029
-446,109	-200,000	0,016	0,061
-445,095	50,404	0,037	0,025
-444,080	-12,052	0,069	-0,033
-443,065	654,571	0,027	0,050
-442,051	800,000	0,076	-0,162
-441,036	-200,000	0,035	-0,146
-440,022	-200,000	-0,030	0,162
-439,007	342,439	0,043	0,061
-437,992	2,820	0,041	0,021
-436,978	142,511	0,077	0,074
-435,963	-121,455	-0,057	0,007
-434,949	-200,000	0,015	0,122
-433,934	87,200	0,067	0,054
-432,919	116,126	0,036	-0,032
-431,905	486,513	-0,031	-0,051
-430,890	-200,000	-0,009	0,062
-429,876	-200,000	0,014	0,205
-428,861	226,385	0,043	0,051
-427,846	24,545	-0,057	-0,034
-426,832	-200,000	-0,017	-0,066
-425,817	-200,000	-0,040	0,138
-424,803	800,000	-0,022	0,052
-423,788	148,973	0,059	-0,058
-422,773	800,000	0,063	0,184
-421,759	43,911	0,061	-0,041
-420,744	800,000	-0,035	0,106
-419,730	-200,000	0,007	0,040
-418,715	-2,555	-0,068	-0,034
-417,701	800,000	0,029	-0,079
-416,686	57,139	-0,092	0,065
-415,671	415,739	0,136	0,211
-414,657	358,423	-0,034	-0,049
-413,642	-105,805	0,084	-0,014
-412,628	-86,583	0,100	0,022
-411,613	313,319	-0,023	-0,031
-410,598	-121,391	0,050	-0,006
-409,584	42,097	0,034	-0,022
-408,569	-2,184	-0,044	0,022
-407,555	-162,705	0,057	-0,002
-406,540	184,100	-0,098	-0,105
-405,525	-200,000	-0,002	0,033
-404,511	-53,176	0,043	-0,014
-403,496	-39,500	-0,103	0,039
-402,482	147,792	0,064	-0,063
-401,467	-141,676	0,055	0,004
-400,452	-184,271	-0,139	-0,002
-399,438	509,952	0,006	0,009
-398,423	73,036	0,104	0,079
-397,409	-8,739	-0,106	-0,051
-396,394	50,062	0,114	-0,078
-395,379	800,000	0,057	-0,129
-394,365	216,369	0,034	-0,040
-393,350	696,878	-0,036	-0,068
-392,336	-92,134	-0,090	0,018
-391,321	-100,378	-0,091	0,016
-390,306	-16,030	-0,083	-0,038
-389,292	-52,522	0,067	0,022
-388,277	-30,548	0,214	0,088
-387,263	157,541	-0,050	0,050
-386,248	800,000	0,040	-0,107
-385,233	61,876	0,055	0,040
-384,219	-200,000	0,030	-0,130
-383,204	800,000	0,048	-0,135
-382,190	800,000	-0,009	0,022
-381,175	224,851	-0,044	-0,052
-380,160	-64,202	0,147	0,043
-379,146	686,174	0,077	0,147
-378,131	12,696	-0,141	-0,079
-377,117	-104,878	-0,075	-0,012
-376,102	26,521	0,026	0,016
-375,088	-21,888	0,134	-0,059
-374,073	800,000	0,041	-0,090
-373,058	452,361	-0,007	-0,011
-372,044	-200,000	0,035	-0,136
-371,029	69,785	0,130	0,097
-370,015	-128,127	0,037	0,004
-369,000	800,000	-0,022	-0,046
-367,985	71,197	-0,073	0,055
-366,971	330,243	-0,053	0,075
-365,956	800,000	0,028	-0,064
-364,942	265,024	0,121	0,153
-363,927	-200,000	0,006	-0,078
-362,912	-200,000	0,017	-0,112
-361,898	-200,000	0,010	-0,095
-360,883	-200,000	0,006	-0,084
-359,869	800,000	-0,025	-0,057
-358,854	210,753	-0,108	0,123
-357,839	128,838	-0,139	0,128
-356,825	-83,199	0,113	0,026
-355,810	161,926	-0,046	-0,046
-354,796	120,090	-0,094	0,084
-353,781	-60,555	-0,042	-0,013
-352,766	-70,028	0,036	0,010
-351,752	-60,944	-0,122	0,037
-350,737	241,347	0,080	0,097
-349,723	605,824	0,039	0,071
-348,708	70,194	0,023	-0,017
-347,693	384,748	-0,049	0,073
-346,679	-77,743	-0,084	-0,021
-345,664	-200,000	0,031	-0,113
-344,650	-170,124	0,045	0,001
-343,635	-200,000	-0,004	0,094
-342,620	171,362	0,124	0,129
-341,606	800,000	0,041	0,090
-340,591	-168,766	-0,127	0,003
-339,577	-200,000	-0,106	0,000
-338,562	32,713	0,116	-0,072
-337,548	84,564	0,089	-0,070
-336,533	800,000	-0,019	-0,056
-335,518	477,463	-0,049	0,081
-334,504	-57,524	-0,098	-0,031
-333,489	-18,187	0,058	-0,026
-332,475	800,000	0,050	-0,152
-331,460	-200,000	0,024	-0,193
-330,445	-200,000	-0,015	-0,084
-329,431	386,109	-0,055	0,082
-328,416	-32,131	0,115	0,046
-327,402	50,130	-0,103	-0,070
-326,387	56,823	-0,071	-0,050
-325,372	81,895	-0,044	0,034
-324,358	495,079	0,018	-0,030
-323,343	258,195	-0,060	-0,075
-322,329	-114,562	-0,061	-0,008
-321,314	-71,671	-0,052	-0,014
-320,299	-200,000	-0,005	-0,119
-319,285	-80,624	-0,167	-0,040
-318,270	711,724	-0,048	0,093
-317,256	35,616	0,070	0,044
-316,241	-79,868	0,072	-0,017
-315,226	-200,000	-0,029	0,214
-314,212	-200,000	-0,001	0,006
-313,197	-27,952	0,091	-0,038
-312,183	-200,000	0,007	-0,049
-311,168	42,629	-0,083	0,055
-310,153	-5,220	-0,077	-0,038
-309,139	76,547	0,069	-0,052
-308,124	-200,000	-0,002	-0,028
-307,110	800,000	0,019	0,048
-306,095	405,450	0,043	-0,066
-305,080	694,241	0,049	0,094
-304,066	781,233	-0,047	-0,094
-303,051	116,392	-0,080	0,071
-302,037	800,000	0,005	0,014
-301,022	800,000	0,011	0,023
-300,008	-164,213	-0,095	0,003
-298,993	-0,115	0,115	0,059
-297,978	485,546	-0,032	-0,053
-296,964	-150,038	-0,080	-0,004
-295,949	800,000	-0,094	-0,214
-294,935	796,282	-0,010	-0,020
-293,920	800,000	-0,030	0,079
-292,905	-187,595	-0,034	0,000
-291,891	-79,620	-0,099	-0,024
-290,876	800,000	0,039	0,082
-289,862	-15,444	-0,141	0,065
-288,847	-117,368	0,174	-0,023
-287,832	539,127	0,070	-0,120
-286,818	-200,000	-0,052	-0,225
-285,803	-200,000	0,016	-0,094
-284,789	41,680	-0,065	0,042
-283,774	-53,127	-0,085	-0,028
-282,759	800,000	0,021	-0,052
-281,745	-54,533	-0,123	-0,040
-280,730	159,030	-0,035	-0,036
-279,716	-200,000	-0,004	-0,064
-278,701	800,000	0,030	0,091
-277,686	800,000	0,045	0,091
-276,672	-200,000	-0,043	0,141
-275,657	-115,923	-0,100	0,013
-274,643	-94,463	-0,012	0,002
-273,628	-200,000	0,006	0,062
-272,613	-52,876	-0,140	0,046
-271,599	540,503	0,036	0,062
-270,584	-200,000	0,005	-0,041
-269,570	800,000	-0,041	-0,089
-268,555	-76,126	-0,105	-0,026
-267,540	-139,185	0,061	0,005
-266,526	-200,000	-0,003	0,090
-265,511	-120,350	0,210	-0,026
-264,497	-55,293	0,070	-0,023
-263,482	-107,838	0,111	0,017
-262,467	224,853	-0,054	-0,063
-261,453	-200,000	0,008	0,052
-260,438	566,814	0,044	-0,077
-259,424	-200,000	0,026	-0,106
-258,409	-152,117	-0,057	-0,003
-257,395	-200,000	0,024	0,124
-256,380	197,015	0,016	0,018
-255,365	6,484	0,199	0,107
-254,351	114,613	0,049	-0,043
-253,336	211,312	0,038	0,043
-252,322	346,494	0,030	-0,043
-251,307	-45,706	-0,038	0,013
-250,292	262,503	-0,072	-0,090
-249,278	800,000	0,038	0,085
-248,263	83,562	-0,054	0,042
-247,249	-200,000	-0,004	0,125
-246,234	800,000	0,025	-0,080
-245,219	-112,394	0,085	-0,012
-244,205	11,340	-0,140	-0,077
-243,190	-6,087	-0,034	-0,016
-242,176	133,033	-0,162	0,151
-241,161	-200,000	0,019	0,103
-240,146	-175,903	0,184	0,003
-239,132	800,000	-0,015	-0,032
-238,117	54,883	-0,036	-0,025
-237,103	194,194	-0,080	-0,088
-236,088	4,215	0,116	-0,061
-235,073	40,473	-0,127	-0,082
-234,059	12,455	-0,058	0,032
-233,044	361,225	-0,087	0,126
-232,030	-200,000	-0,051	0,175
-231,015	312,394	-0,036	0,049
-230,000	-142,563	0,068	-0,005
-228,986	800,000	-0,043	0,100
-227,971	-200,000	0,015	-0,048
-226,957	800,000	-0,013	0,027
-225,942	-66,044	0,102	-0,029
-224,927	-200,000	-0,016	-0,098
-223,913	259,316	0,129	-0,161
-222,898	-200,000	-0,043	-0,151
-221,884	119,303	0,154	0,138
-220,869	752,912	-0,084	-0,164
-219,855	800,000	0,047	-0,120
-218,840	20,271	0,072	0,042
-217,825	-200,000	-0,004	0,085
-216,811	-26,186	-0,121	0,051
-215,796	-200,000	0,010	0,040
-214,782	110,383	0,078	-0,068
-213,767	344,610	0,055	0,078
-212,752	-200,000	0,024	0,083
-211,738	-83,953	0,104	-0,024
-210,723	-200,000	0,004	-0,030
-209,709	-183,251	0,097	-0,001
-208,694	64,182	0,092	-0,067
-207,679	563,286	-0,086	-0,151
-206,665	585,445	-0,066	-0,118
-205,650	-117,824	0,132	-0,017
-204,636	800,000	-0,032	0,085
-203,621	8,908	0,098	0,053
-202,606	58,052	0,089	0,063
-201,592	-2,208	-0,110	-0,056
-200,577	122,822	0,053	-0,048
-199,563	8,146	0,026	-0,014
-198,548	800,000	-0,024	0,061
-197,533	800,000	0,032	0,090
-196,519	51,093	-0,055	0,038
-195,504	18,216	0,088	-0,051
-194,490	800,000	0,005	-0,016
-193,475	45,460	-0,097	-0,064
-192,460	581,038	-0,040	0,071
-191,446	52,733	0,144	0,099
-190,431	-175,119	-0,102	-0,002
-189,417	-200,000	-0,015	0,057
-188,402	-83,909	0,063	-0,014
-187,387	93,816	-0,092	-0,075
-186,373	389,867	0,031	0,046
-185,358	636,905	0,029	0,053
-184,344	800,000	0,024	0,072
-183,329	502,512	0,048	-0,080
-182,315	146,756	0,041	-0,040
-181,300	777,560	-0,052	-0,104
-180,285	95,386	-0,071	0,058
-179,271	103,302	-0,045	0,038
-178,256	99,973	0,094	0,078
-177,242	-88,350	0,156	0,033
-176,227	-200,000	0,043	0,265
-175,212	287,301	0,034	-0,044
-174,198	-93,303	0,131	0,026
-173,183	-27,637	-0,088	-0,037
-172,169	95,857	0,042	0,035
-171,154	-54,911	-0,090	-0,029
-170,139	-47,464	0,104	-0,036
-169,125	800,000	-0,040	-0,081
-168,110	157,165	0,030	-0,030
-167,096	30,095	0,005	-0,003
-166,081	112,524	0,054	0,047
-165,066	800,000	-0,022	0,047
-164,052	-200,000	-0,007	0,093
-163,037	212,481	0,057	0,065
-162,023	-200,000	0,002	-0,009
-161,008	312,679	-0,044	0,059
-159,993	-61,352	-0,118	0,036
-158,979	-99,764	0,156	0,028
-157,964	800,000	-0,046	-0,114
-156,950	57,500	-0,180	-0,126
-155,935	17,418	-0,103	-0,059
-154,920	162,128	0,060	0,060
-153,906	-48,916	-0,021	0,007
-152,891	102,826	0,049	0,041
-151,877	-71,856	-0,165	-0,044
-150,862	-200,000	0,001	-0,032
-149,847	-140,438	0,080	-0,006
-148,833	-200,000	0,019	-0,127
-147,818	60,930	-0,057	0,041
-146,804	-0,363	0,129	0,066
-145,789	275,416	-0,086	0,110
-144,775	340,552	0,051	0,072
-143,760	-200,000	0,006	0,076
-142,745	-108,643	-0,113	0,017
-141,731	-91,663	-0,119	0,024
-140,716	456,555	0,047	0,075
-139,702	41,167	0,113	0,073
-138,687	-3,374	-0,091	0,045
-137,672	25,333	0,132	0,079
-136,658	290,790	-0,094	-0,123
-135,643	800,000	0,030	0,089
-134,629	196,014	-0,084	-0,092
-133,614	786,502	-0,053	0,105
-132,599	800,000	0,057	0,165
-131,585	-154,696	0,045	0,002
-130,570	-200,000	0,013	0,139
-129,556	-200,000	-0,004	-0,016
-128,541	-115,070	0,057	0,008
-127,526	116,231	-0,073	-0,065
-126,512	-200,000	-0,047	-0,165
-125,497	640,416	0,032	-0,059
-124,483	260,522	0,021	0,026
-123,468	800,000	0,029	-0,071
-122,453	129,287	0,051	0,047
-121,439	-153,031	0,088	-0,004
-120,424	-144,432	-0,053	-0,003
-119,410	-60,563	-0,038	0,012
-118,395	800,000	-0,031	-0,090
