DTS Sentinel unit serial number:	SN410029Multiplexer serial number:	ORYXHardware model number:	OX2-SRSoftware version number:	ORYX F/W v4,00 Oryx Data Collector v3.7.2.0data status	okinstallation	B6 Nyhavnadifferential loss correction	single-endedforward channel	channel 2reverse channel	N/Adate	2023/12/07time	12:20:08forward acquisition time	300,00reverse acquisition time	0,00gamma	499,1914k internal	0,3203k external	0,3203temperature offset calibration	1,0000default loss term (dB/km)	0,3820temperature slope calibration	1,0000multiplexer offset coefficient	1,0000multiplexer slope coefficient	1,0000fibre end	0,00T internal ref (°C)	9,92T ext. ref 1 (°C)	-3,73T ext. ref 2 (°C)	-3,71length (m)	temperature (°C)	Stokes	anti-Stokes-744,400	-43,246	0,211	-0,077
-743,385	-34,621	-0,315	-0,125
-742,371	-126,775	0,206	-0,022
-741,356	-61,496	-0,403	0,122
-740,342	90,782	0,023	0,019
-739,327	-50,973	-0,343	-0,116
-738,312	180,502	0,016	0,017
-737,298	-70,424	-0,242	-0,066
-736,283	129,229	0,117	-0,108
-735,269	-132,920	-0,399	-0,036
-734,254	-5,499	0,121	0,060
-733,239	-40,793	-0,500	-0,187
-732,225	-52,046	0,169	-0,057
-731,210	401,591	0,021	0,032
-730,196	800,000	0,019	-0,051
-729,181	800,000	-0,081	-0,178
-728,167	-91,026	-0,061	0,013
-727,152	-200,000	0,009	-0,041
-726,137	-175,852	-0,112	-0,002
-725,123	472,507	-0,043	-0,071
-724,108	-86,539	-0,125	-0,028
-723,094	-200,000	0,004	-0,053
-722,079	-200,000	0,027	-0,120
-721,064	-152,017	0,243	-0,013
-720,050	66,752	-0,080	-0,059
-719,035	102,284	0,050	-0,042
-718,021	-67,754	-0,145	-0,041
-717,006	-48,091	-0,103	0,036
-715,991	800,000	-0,041	-0,107
-714,977	800,000	0,010	-0,023
-713,962	113,254	-0,066	0,058
-712,948	340,924	-0,038	0,053
-711,933	-200,000	0,005	0,062
-710,918	33,794	-0,100	0,063
-709,904	-15,164	-0,193	0,089
-708,889	-200,000	0,011	0,071
-707,875	266,930	0,072	-0,092
-706,860	-200,000	0,006	-0,104
-705,845	345,595	-0,072	0,103
-704,831	-200,000	0,043	0,170
-703,816	-155,507	0,055	-0,003
-702,802	-151,424	-0,065	-0,003
-701,787	348,402	-0,067	-0,096
-700,772	285,099	-0,063	-0,082
-699,758	217,885	0,092	-0,106
-698,743	775,803	-0,031	-0,062
-697,729	583,197	-0,049	-0,088
-696,714	-200,000	-0,008	-0,044
-695,699	-105,810	0,044	-0,007
-694,685	-48,761	-0,188	-0,065
-693,670	-75,593	0,162	0,041
-692,656	-139,792	-0,055	0,004
-691,641	224,680	-0,074	0,087
-690,627	-164,312	0,059	0,002
-689,612	2,063	-0,096	0,050
-688,597	100,676	0,085	0,072
-687,583	167,176	-0,022	-0,023
-686,568	174,146	-0,092	-0,096
-685,554	201,477	0,025	-0,027
-684,539	-27,416	-0,089	0,037
-683,524	800,000	0,036	-0,106
-682,510	240,482	0,086	0,105
-681,495	166,096	-0,082	0,084
-680,481	800,000	-0,055	-0,118
-679,466	-200,000	0,023	-0,145
-678,451	700,345	-0,014	0,027
-677,437	-114,421	-0,061	0,008
-676,422	-34,699	-0,065	-0,026
-675,408	41,354	-0,112	-0,074
-674,393	-200,000	-0,018	-0,084
-673,378	-75,361	-0,145	0,037
-672,364	-200,000	-0,005	-0,143
-671,349	-200,000	-0,045	-0,183
-670,335	466,779	-0,082	-0,134
-669,320	-138,765	0,092	-0,007
-668,305	99,820	-0,145	0,122
-667,291	-58,805	-0,082	0,026
-666,276	137,042	-0,048	-0,045
-665,262	77,100	-0,041	-0,032
-664,247	-58,579	0,147	-0,046
-663,232	-25,469	-0,095	-0,040
-662,218	-67,889	0,143	-0,040
-661,203	-91,289	-0,147	-0,030
-660,189	-182,015	0,056	0,001
-659,174	24,910	-0,090	-0,054
-658,159	800,000	0,050	-0,143
-657,145	370,551	-0,066	0,098
-656,130	362,489	0,084	0,123
-655,116	137,903	0,129	0,123
-654,101	-50,654	0,116	0,040
-653,086	290,216	-0,040	-0,053
-652,072	-21,465	0,044	0,019
-651,057	420,322	-0,053	-0,083
-650,043	-200,000	0,010	0,103
-649,028	-200,000	-0,019	0,098
-648,014	800,000	-0,026	0,078
-646,999	357,607	0,070	0,102
-645,984	-0,234	0,090	0,046
-644,970	45,773	-0,069	-0,046
-643,955	-42,262	0,108	-0,040
-642,941	187,950	-0,071	-0,077
-641,926	58,638	0,086	-0,061
-640,911	-132,007	0,135	0,013
-639,897	26,096	0,105	0,063
-638,882	-200,000	0,037	0,123
-637,868	-15,232	-0,205	-0,094
-636,853	-200,000	-0,006	-0,029
-635,838	-20,940	-0,055	0,024
-634,824	-104,310	0,030	-0,005
-633,809	-200,000	-0,022	0,081
-632,795	325,835	0,084	0,116
-631,780	-200,000	-0,022	0,123
-630,765	-200,000	-0,021	-0,103
-629,751	-47,950	-0,045	0,016
-628,736	-106,718	-0,133	-0,021
-627,722	-200,000	-0,001	-0,030
-626,707	-124,873	-0,119	-0,013
-625,692	800,000	-0,044	0,090
-624,678	456,632	0,052	0,084
-623,663	-200,000	-0,001	0,055
-622,649	-174,450	-0,126	-0,003
-621,634	800,000	0,029	0,093
-620,619	-45,107	0,065	-0,023
-619,605	17,268	-0,080	-0,046
-618,590	-72,354	-0,043	-0,011
-617,576	-200,000	-0,006	-0,136
-616,561	108,516	0,097	0,084
-615,546	-149,435	-0,107	0,006
-614,532	-2,151	-0,008	-0,004
-613,517	800,000	0,035	0,109
-612,503	-39,078	0,024	-0,009
-611,488	800,000	0,043	0,097
-610,474	55,064	-0,036	0,025
-609,459	593,820	-0,078	0,141
-608,444	557,668	-0,042	-0,074
-607,430	-200,000	-0,017	-0,067
-606,415	800,000	-0,058	-0,183
-605,401	21,093	-0,035	-0,020
-604,386	-50,625	0,163	-0,055
-603,371	800,000	-0,049	0,141
-602,357	-200,000	-0,013	0,101
-601,342	800,000	0,003	-0,009
-600,328	-6,926	-0,161	0,079
-599,313	799,830	0,018	0,036
-598,298	-200,000	0,000	-0,151
-597,284	167,744	0,055	-0,056
-596,269	-63,333	-0,026	-0,008
-595,255	800,000	-0,014	0,041
-594,240	800,000	0,031	0,078
-593,225	-200,000	0,002	-0,145
-592,211	62,180	-0,069	-0,050
-591,196	28,330	0,076	-0,047
-590,182	-28,060	-0,063	0,026
-589,167	-104,240	-0,061	-0,010
-588,152	-200,000	-0,011	0,049
-587,138	-200,000	-0,009	-0,139
-586,123	186,372	-0,069	0,075
-585,109	-93,495	0,023	0,005
-584,094	723,521	-0,111	-0,215
-583,079	319,561	0,098	0,135
-582,065	-200,000	-0,002	0,018
-581,050	763,749	0,012	0,024
-580,036	69,508	-0,037	0,027
-579,021	-121,931	-0,183	-0,021
-578,006	8,511	0,118	-0,064
-576,992	-200,000	0,007	0,046
-575,977	-151,245	0,086	0,005
-574,963	-200,000	-0,003	0,018
-573,948	87,248	-0,126	0,101
-572,934	-200,000	-0,003	-0,068
-571,919	800,000	0,030	-0,091
-570,904	91,483	0,049	-0,040
-569,890	-150,519	-0,165	0,009
-568,875	82,084	-0,051	0,040
-567,861	88,081	0,096	-0,077
-566,846	98,077	-0,037	-0,031
-565,831	-70,729	0,033	-0,009
-564,817	-98,157	0,058	0,011
-563,802	113,153	0,067	-0,058
-562,788	78,951	-0,113	0,088
-561,773	546,610	-0,010	0,017
-560,758	65,006	-0,071	0,052
-559,744	253,494	0,043	0,053
-558,729	-67,242	-0,065	0,018
-557,715	800,000	0,037	0,088
-556,700	661,691	0,026	-0,049
-555,685	607,349	-0,044	-0,080
-554,671	-17,832	-0,037	0,017
-553,656	800,000	-0,034	0,078
-552,642	14,768	0,025	-0,014
-551,627	38,247	0,085	0,054
-550,612	-200,000	0,070	-0,000
-549,598	-38,425	-0,166	0,063
-548,583	-200,000	0,001	-0,049
-547,569	84,105	0,042	-0,033
-546,554	771,065	-0,050	-0,098
-545,539	-4,381	0,054	0,027
-544,525	98,786	-0,021	-0,018
-543,510	553,516	0,027	-0,046
-542,496	145,986	-0,092	-0,089
-541,481	800,000	-0,026	-0,065
-540,466	-200,000	0,008	-0,159
-539,452	-200,000	0,009	0,142
-538,437	-200,000	0,139	-0,000
-537,423	800,000	0,023	0,059
-536,408	-29,132	0,123	-0,051
-535,393	-72,434	-0,022	0,006
-534,379	512,910	-0,023	0,039
-533,364	-7,297	0,156	0,076
-532,350	201,321	0,089	0,099
-531,335	169,826	0,034	-0,035
-530,321	131,065	0,052	-0,048
-529,306	-5,286	-0,035	-0,017
-528,291	-16,437	0,056	0,026
-527,277	-195,591	0,092	0,000
-526,262	-200,000	0,002	-0,115
-525,248	-94,947	0,031	0,006
-524,233	-200,000	-0,025	0,125
-523,218	-200,000	-0,006	0,074
-522,204	800,000	0,012	0,033
-521,189	800,000	-0,024	-0,050
-520,175	-32,195	0,095	0,038
-519,160	-200,000	0,005	-0,101
-518,145	255,828	0,065	0,080
-517,131	-163,861	0,197	0,007
-516,116	-194,123	-0,168	0,001
-515,102	-60,897	-0,037	0,011
-514,087	750,647	-0,064	-0,125
-513,072	800,000	-0,049	0,126
-512,058	-106,101	0,078	0,013
-511,043	-143,643	-0,094	-0,006
-510,029	21,880	-0,049	0,029
-509,014	179,762	0,061	-0,065
-507,999	-200,000	-0,015	-0,049
-506,985	800,000	0,016	0,043
-505,970	395,167	-0,088	0,132
-504,956	3,447	-0,097	0,051
-503,941	393,405	-0,031	-0,046
-502,926	-42,458	0,088	-0,032
-501,912	-58,517	0,120	-0,037
-500,897	800,000	0,049	-0,118
-499,883	-200,000	0,007	-0,034
-498,868	-200,000	0,005	0,047
-497,853	-200,000	0,008	-0,050
-496,839	-200,000	-0,023	0,141
-495,824	-109,077	0,154	-0,023
-494,810	-103,628	0,017	0,003
-493,795	-72,865	0,058	-0,015
-492,781	26,170	-0,073	0,044
-491,766	800,000	0,027	-0,074
-490,751	-200,000	-0,005	-0,162
-489,737	74,763	0,156	-0,118
-488,722	22,070	-0,116	0,068
-487,708	800,000	-0,044	0,119
-486,693	-73,240	0,065	-0,017
-485,678	165,625	-0,015	0,015
-484,664	800,000	0,012	0,025
-483,649	800,000	0,041	-0,122
-482,635	-200,000	-0,027	-0,086
-481,620	-200,000	-0,007	0,056
-480,605	613,499	0,029	0,052
-479,591	111,637	0,079	-0,069
-478,576	-27,413	-0,050	0,021
-477,562	671,983	-0,054	-0,101
-476,547	200,414	-0,065	-0,072
-475,532	-200,000	0,019	-0,139
-474,518	-200,000	0,027	-0,171
-473,503	94,089	-0,086	0,070
-472,489	-93,589	0,099	0,020
-471,474	109,863	0,019	0,017
-470,459	-200,000	0,009	-0,161
-469,445	60,891	-0,097	-0,069
-468,430	800,000	0,045	0,137
-467,416	-176,847	0,085	0,002
-466,401	571,235	0,028	-0,049
-465,386	-84,664	0,155	-0,035
-464,372	-111,010	0,090	0,013
-463,357	141,716	-0,111	-0,106
-462,343	5,144	-0,068	0,036
-461,328	-81,636	-0,115	-0,027
-460,313	800,000	-0,031	0,090
-459,299	-19,739	0,151	0,067
-458,284	800,000	0,023	0,055
-457,270	800,000	0,025	0,060
-456,255	800,000	-0,027	-0,072
-455,241	743,158	-0,053	-0,103
-454,226	-4,548	-0,094	-0,046
-453,211	-200,000	0,004	-0,014
-452,197	-200,000	-0,004	0,054
-451,182	800,000	0,068	0,160
-450,168	-148,722	-0,087	0,005
-449,153	14,077	-0,140	-0,078
-448,138	-109,855	-0,063	-0,009
-447,124	464,413	-0,030	-0,049
-446,109	-103,564	0,048	-0,008
-445,095	-162,810	0,123	-0,004
-444,080	-147,198	0,032	-0,002
-443,065	-104,672	0,079	-0,013
-442,051	-133,311	-0,039	-0,004
-441,036	-40,891	-0,101	0,037
-440,022	-200,000	-0,009	-0,070
-439,007	333,341	0,107	-0,149
-437,992	-93,455	-0,175	-0,035
-436,978	231,245	-0,046	0,055
-435,963	800,000	-0,061	0,162
-434,949	77,519	0,102	0,078
-433,934	277,122	0,038	-0,049
-432,919	218,435	-0,080	0,092
-431,905	-88,777	-0,085	0,018
-430,890	-44,471	-0,079	-0,028
-429,876	236,384	0,084	0,100
-428,861	-200,000	-0,013	0,134
-427,846	800,000	-0,047	0,142
-426,832	-200,000	-0,016	0,056
-425,817	-43,420	0,016	-0,006
-424,803	-200,000	-0,020	-0,169
-423,788	-129,770	-0,013	-0,001
-422,773	-15,785	0,056	0,025
-421,759	-192,209	0,038	0,000
-420,744	-26,448	-0,043	-0,018
-419,730	107,166	0,059	0,050
-418,715	135,920	0,153	-0,143
-417,701	-154,167	0,033	-0,002
-416,686	274,328	-0,032	-0,041
-415,671	232,544	0,048	-0,056
-414,657	-200,000	-0,006	0,155
-413,642	290,255	-0,008	0,011
-412,628	-200,000	0,005	-0,040
-411,613	151,371	-0,062	0,061
-410,598	-55,442	-0,020	0,006
-409,584	17,409	0,056	-0,032
-408,569	316,368	-0,054	0,073
-407,555	-133,251	0,073	0,007
-406,540	800,000	-0,049	0,139
-405,525	-1,879	0,030	-0,015
-404,511	505,198	-0,010	-0,017
-403,496	-169,673	0,048	0,001
-402,482	-35,357	-0,162	-0,063
-401,467	-163,924	0,177	-0,006
-400,452	156,569	-0,054	0,053
-399,438	-69,425	-0,088	0,024
-398,423	-10,568	-0,053	0,025
-397,409	-16,275	-0,008	0,003
-396,394	-200,000	-0,013	-0,154
-395,379	110,228	-0,064	-0,055
-394,365	-151,669	0,092	-0,005
-393,350	150,039	-0,079	-0,077
-392,336	116,160	0,039	-0,034
-391,321	-16,098	0,111	-0,050
-390,306	123,508	-0,071	0,064
-389,292	-200,000	-0,019	-0,069
-388,277	-200,000	0,021	0,118
-387,263	-200,000	-0,002	0,203
-386,248	27,250	0,114	0,069
-385,233	-200,000	-0,009	0,101
-384,219	800,000	0,055	0,139
-383,204	-123,766	0,123	0,014
-382,190	-147,168	-0,068	0,004
-381,175	-57,431	-0,052	-0,016
-380,160	-34,471	0,074	0,029
-379,146	6,785	0,143	-0,076
-378,131	283,344	-0,025	0,032
-377,117	-52,377	-0,156	-0,052
-376,102	-200,000	0,002	0,039
-375,088	74,826	0,019	0,014
-374,073	-144,165	0,100	0,007
-373,058	-112,483	0,151	-0,021
-372,044	181,354	0,056	0,059
-371,029	800,000	0,016	0,034
-370,015	126,816	0,089	-0,080
-369,000	-55,793	-0,132	-0,042
-367,985	-200,000	0,027	-0,148
-366,971	363,314	-0,012	-0,018
-365,956	-200,000	-0,023	0,189
-364,942	-42,101	0,051	-0,019
-363,927	800,000	-0,026	0,058
-362,912	800,000	-0,034	0,082
-361,898	-200,000	0,005	-0,094
-360,883	184,341	-0,079	-0,084
-359,869	70,297	0,071	-0,052
-358,854	-48,889	0,083	0,028
-357,839	524,463	0,092	0,156
-356,825	-200,000	0,017	-0,071
-355,810	-160,230	-0,130	0,005
-354,796	-39,471	-0,074	0,027
-353,781	-200,000	0,010	-0,094
-352,766	-61,829	-0,138	0,041
-351,752	-74,437	-0,094	-0,024
-350,737	800,000	0,035	0,093
-349,723	-121,860	-0,096	-0,011
-348,708	-164,862	-0,070	0,002
-347,693	-100,735	-0,048	0,008
-346,679	179,166	-0,028	-0,029
-345,664	244,348	-0,062	0,075
-344,650	-200,000	-0,001	0,021
-343,635	88,466	0,108	-0,085
-342,620	239,365	-0,015	-0,018
-341,606	177,841	-0,055	0,057
-340,591	-103,064	-0,142	-0,024
-339,577	175,918	0,059	-0,061
-338,562	-200,000	-0,030	0,099
-337,548	144,928	0,155	0,149
-336,533	-200,000	0,016	0,087
-335,518	800,000	0,020	-0,057
-334,504	459,988	-0,018	0,029
-333,489	-111,605	-0,040	0,006
-332,475	-137,991	-0,098	-0,008
-331,460	441,059	0,046	-0,072
-330,445	-103,945	0,044	0,007
-329,431	123,941	0,058	-0,052
-328,416	-7,518	0,016	-0,008
-327,402	248,875	-0,048	-0,058
-326,387	-69,642	0,102	0,028
-325,372	63,664	0,038	-0,028
-324,358	-200,000	0,016	-0,052
-323,343	-200,000	-0,021	-0,125
-322,329	-200,000	-0,009	0,044
-321,314	-200,000	-0,002	0,027
-320,299	-62,298	0,147	-0,043
-319,285	-128,544	0,162	-0,016
-318,270	-200,000	0,035	-0,175
-317,256	800,000	0,031	0,066
-316,241	-200,000	0,018	0,000
-315,226	50,673	0,056	-0,038
-314,212	238,235	0,110	-0,130
-313,197	18,957	-0,023	-0,013
-312,183	-55,322	0,215	0,069
-311,168	-78,427	-0,067	-0,016
-310,153	-150,126	-0,167	0,009
-309,139	86,288	-0,073	-0,057
-308,124	-200,000	-0,003	-0,074
-307,110	800,000	0,064	-0,181
-306,095	-35,149	0,016	-0,006
-305,080	38,613	0,066	0,042
-304,066	117,971	0,046	0,041
-303,051	-200,000	-0,000	0,015
-302,037	278,200	-0,030	-0,039
-301,022	18,844	0,044	0,025
-300,008	15,828	0,027	-0,015
-298,993	1,495	0,139	-0,071
-297,978	-64,687	-0,022	0,006
-296,964	-38,201	-0,026	-0,010
-295,949	-37,297	-0,138	0,053
-294,935	-105,053	0,031	-0,005
-293,920	-200,000	0,005	-0,090
-292,905	-49,040	0,139	-0,047
-291,891	113,888	-0,027	0,023
-290,876	-200,000	0,011	0,066
-289,862	175,587	-0,128	-0,132
-288,847	558,291	-0,060	-0,104
-287,832	-119,943	0,056	0,007
-286,818	-200,000	0,007	0,066
-285,803	800,000	0,024	-0,073
-284,789	-200,000	0,013	0,119
-283,774	59,748	-0,030	0,021
-282,759	-200,000	0,014	-0,048
-281,745	800,000	-0,045	-0,094
-280,730	104,034	-0,062	0,052
-279,716	115,266	0,115	0,100
-278,701	-200,000	0,004	-0,044
-277,686	9,797	0,028	-0,015
-276,672	-51,873	-0,025	-0,008
-275,657	3,199	-0,076	-0,040
-274,643	-162,254	-0,130	-0,005
-273,628	-43,806	-0,092	-0,033
-272,613	694,020	-0,017	-0,032
-271,599	-200,000	-0,029	-0,102
-270,584	71,083	-0,089	0,066
-269,570	-177,822	0,152	-0,003
-268,555	-99,709	-0,043	0,008
-267,540	171,973	-0,079	-0,081
-266,526	-200,000	0,044	0,144
-265,511	-121,589	-0,066	0,008
-264,497	-200,000	-0,011	0,067
-263,482	657,632	0,026	-0,047
-262,467	-200,000	0,012	0,101
-261,453	800,000	0,023	-0,061
-260,438	359,441	0,064	0,091
-259,424	154,508	-0,076	0,074
-258,409	-200,000	-0,003	-0,027
-257,395	586,654	-0,065	0,114
-256,380	800,000	0,032	0,084
-255,365	-118,386	0,166	-0,021
-254,351	287,249	0,059	-0,076
-253,336	-20,473	0,082	0,036
-252,322	800,000	-0,014	-0,034
-251,307	-200,000	0,010	-0,090
-250,292	25,852	-0,048	-0,029
-249,278	-96,998	-0,143	-0,027
-248,263	-200,000	0,002	0,100
-247,249	800,000	0,019	0,054
-246,234	800,000	0,027	-0,076
-245,219	-200,000	0,023	-0,162
-244,205	256,133	-0,130	-0,159
-243,190	134,844	-0,031	0,028
-242,176	-124,750	-0,059	0,006
-241,161	800,000	0,038	-0,096
-240,146	-200,000	-0,026	-0,136
-239,132	-95,560	-0,069	-0,013
-238,117	25,419	0,041	-0,024
-237,103	-94,828	0,048	0,009
-236,088	433,175	0,018	0,027
-235,073	-139,207	0,148	-0,011
-234,059	800,000	0,040	0,083
-233,044	-88,501	-0,082	0,017
-232,030	-200,000	0,012	0,045
-231,015	328,914	-0,050	-0,069
-230,000	182,860	-0,063	0,066
-228,986	800,000	0,037	-0,080
-227,971	800,000	0,005	-0,013
-226,957	-200,000	0,011	0,184
-225,942	107,831	-0,112	0,095
-224,927	-128,095	-0,127	0,013
-223,913	-77,466	-0,122	-0,030
-222,898	800,000	-0,037	0,074
-221,884	800,000	0,067	0,147
-220,869	-200,000	0,022	0,154
-219,855	-200,000	-0,004	0,025
-218,840	-84,617	0,115	0,026
-217,825	-200,000	-0,017	0,085
-216,811	245,403	-0,106	-0,128
-215,796	800,000	0,025	-0,060
-214,782	-92,128	-0,021	0,004
-213,767	800,000	-0,017	0,047
-212,752	89,934	-0,124	-0,099
-211,738	-200,000	-0,006	0,199
-210,723	-200,000	-0,018	0,131
-209,709	-200,000	-0,023	0,075
-208,694	-200,000	-0,013	0,056
-207,679	-67,526	-0,094	0,026
-206,665	800,000	0,033	0,066
-205,650	-2,766	0,037	0,018
-204,636	800,000	0,038	0,080
-203,621	800,000	0,054	0,158
-202,606	532,216	-0,063	-0,107
-201,592	225,847	-0,069	0,080
-200,577	394,077	-0,135	-0,201
-199,563	521,625	0,033	-0,056
-198,548	-185,246	0,107	-0,001
-197,533	61,828	0,081	0,057
-196,519	-95,324	-0,012	0,002
-195,504	800,000	-0,010	0,026
-194,490	724,642	-0,073	0,139
-193,475	30,113	-0,124	-0,075
-192,460	223,774	0,068	-0,078
-191,446	153,440	0,028	-0,027
-190,431	-174,953	0,091	0,002
-189,417	-135,010	-0,153	-0,013
-188,402	125,171	0,060	-0,054
-187,387	-200,000	-0,009	-0,066
-186,373	-200,000	0,002	0,031
-185,358	100,270	0,093	-0,077
-184,344	800,000	0,065	-0,148
-183,329	134,061	-0,042	-0,038
-182,315	-139,250	0,105	-0,008
-181,300	-58,815	-0,184	-0,056
-180,285	-200,000	0,015	0,143
-179,271	-200,000	0,010	-0,150
-178,256	-200,000	0,009	-0,142
-177,242	-74,434	0,110	-0,028
-176,227	214,755	0,105	0,118
-175,212	-46,529	-0,026	-0,009
-174,198	-43,772	0,139	-0,050
-173,183	-79,859	0,092	-0,022
-172,169	-145,691	-0,136	-0,008
-171,154	151,625	0,023	-0,022
-170,139	-83,106	0,018	0,004
-169,125	327,480	0,027	0,037
-168,110	222,309	-0,089	0,102
-167,096	21,292	-0,042	0,024
-166,081	91,325	0,107	0,085
-165,066	-200,000	0,006	-0,048
-164,052	-93,351	0,035	-0,007
-163,037	-200,000	0,002	-0,074
-162,023	800,000	0,063	0,188
-161,008	-200,000	-0,034	-0,192
-159,993	264,600	0,042	0,052
-158,979	404,890	-0,094	-0,141
-157,964	-200,000	0,001	-0,072
-156,950	323,553	0,019	-0,026
-155,935	-11,392	-0,051	-0,024
-154,920	-200,000	-0,008	0,032
-153,906	-200,000	-0,007	0,033
-152,891	142,686	-0,074	0,070
-151,877	-92,829	-0,092	0,018
-150,862	-200,000	-0,006	-0,102
-149,847	513,875	0,040	0,066
-148,833	67,145	-0,088	0,064
-147,818	83,575	0,108	-0,083
-146,804	-200,000	0,009	0,030
-145,789	-66,042	0,102	0,029
-144,775	800,000	-0,031	-0,078
-143,760	-10,549	0,105	-0,049
-142,745	-43,550	-0,165	-0,059
-141,731	800,000	0,038	0,092
-140,716	-25,794	0,159	0,066
-139,702	112,186	-0,130	0,112
-138,687	-200,000	-0,019	0,110
-137,672	-92,251	-0,031	-0,006
-136,658	98,407	-0,115	-0,094
-135,643	-3,874	0,047	0,023
-134,629	17,489	-0,103	-0,058
-133,614	-63,466	0,057	-0,016
-132,599	800,000	0,051	0,159
-131,585	-200,000	-0,004	0,039
-130,570	-72,108	-0,116	-0,030
-129,556	168,052	-0,050	0,051
-128,541	800,000	0,023	-0,069
-127,526	161,572	0,052	-0,051
-126,512	-200,000	0,019	0,111
-125,497	-8,228	0,097	-0,046
-124,483	-164,353	0,058	-0,002
-123,468	-95,332	-0,231	0,044
-122,453	-11,116	0,074	-0,035
-121,439	-157,352	-0,052	0,002
-120,424	800,000	-0,059	-0,171
